DTS Sentinel unit serial number:	SN413079Multiplexer serial number:	ORYXHardware model number:	OX4-SRSoftware version number:	ORYX F/W v4.00 Oryx Data Collector v3.7.2.0data status	okinstallation	princeton_trtdifferential loss correction	single-endedforward channel	channel 1reverse channel	N/Adate	2019/09/11time	13:40:11forward acquisition time	60.00reverse acquisition time	0.00gamma	496.2192k internal	0.2294k external	0.2294temperature offset calibration	0.9988default loss term (dB/km)	0.3790temperature slope calibration	1.0000multiplexer offset coefficient	1.0000multiplexer slope coefficient	1.0000fibre end	0.00T internal ref (°C)	41.94T ext. ref 1 (°C)	0.85T ext. ref 2 (°C)	36.30length (m)	temperature (°C)	Stokes	anti-Stokes-747.200	-200.000	0.002	-0.102
-746.185	-96.546	-0.030	-0.008
-745.171	-200.000	0.011	-0.089
-744.156	112.289	0.238	0.294
-743.142	-123.903	0.104	0.017
-742.127	800.000	-0.024	0.079
-741.112	800.000	0.089	0.392
-740.098	130.622	0.077	0.101
-739.083	321.422	0.127	-0.248
-738.069	4.770	0.114	-0.086
-737.054	-13.259	0.193	-0.128
-736.039	-95.355	0.176	-0.048
-735.025	40.998	-0.017	-0.016
-734.010	-79.061	0.226	-0.079
-732.996	44.002	0.167	-0.156
-731.981	-154.368	0.144	0.010
-730.966	-200.000	0.044	0.230
-729.952	228.372	0.028	0.047
-728.937	698.614	-0.123	-0.331
-727.923	-118.970	0.080	-0.014
-726.908	800.000	-0.034	-0.145
-725.894	-37.879	0.127	-0.069
-724.879	-148.621	-0.325	0.027
-723.864	-68.392	-0.160	0.064
-722.850	311.889	0.015	-0.028
-721.835	110.363	-0.060	-0.074
-720.821	-94.304	-0.046	-0.013
-719.806	-103.593	-0.120	-0.029
-718.791	570.440	0.032	0.078
-717.777	800.000	-0.041	0.118
-716.762	-100.823	-0.480	0.121
-715.748	3.267	0.374	0.278
-714.733	-200.000	-0.059	-0.280
-713.718	-20.218	0.176	-0.111
-712.704	204.714	0.147	-0.234
-711.689	-138.197	-0.106	0.012
-710.675	27.999	0.137	-0.118
-709.660	124.293	-0.201	-0.258
-708.645	-200.000	0.004	-0.101
-707.631	-154.090	0.415	0.029
-706.616	317.373	-0.170	-0.328
-705.602	800.000	0.062	0.265
-704.587	100.170	-0.146	-0.173
-703.572	-81.124	-0.229	-0.077
-702.558	-192.551	-0.058	-0.001
-701.543	94.923	0.170	-0.197
-700.529	48.056	-0.372	-0.355
-699.514	359.002	-0.196	-0.399
-698.499	4.971	-0.211	-0.158
-697.485	110.751	-0.121	-0.149
-696.470	36.844	-0.164	-0.148
-695.456	95.792	-0.208	-0.242
-694.441	572.633	0.139	-0.345
-693.426	35.823	-0.229	-0.205
-692.412	410.017	-0.098	0.211
-691.397	536.951	0.056	-0.136
-690.383	-135.063	-0.133	0.016
-689.368	-90.355	-0.311	-0.092
-688.354	-104.019	0.108	0.026
-687.339	457.027	0.080	-0.182
-686.324	685.265	0.035	-0.094
-685.310	-99.481	0.367	-0.094
-684.295	84.718	0.228	-0.255
-683.281	-200.000	-0.064	-0.311
-682.266	-159.409	-0.397	0.023
-681.251	-200.000	-0.028	0.124
-680.237	-127.327	0.217	0.032
-679.222	247.090	-0.306	-0.527
-678.208	-45.408	0.253	0.128
-677.193	-149.217	-0.093	-0.008
-676.178	-123.074	0.206	0.034
-675.164	-200.000	-0.007	-0.145
-674.149	800.000	0.068	0.242
-673.135	-200.000	0.049	0.407
-672.120	327.240	-0.116	0.228
-671.105	-87.868	0.146	0.045
-670.091	-83.635	0.011	0.004
-669.076	-116.486	0.230	0.043
-668.062	-200.000	0.010	-0.444
-667.047	14.155	0.145	-0.115
-666.032	-165.680	0.162	0.007
-665.018	-200.000	-0.009	-0.224
-664.003	216.998	-0.169	-0.274
-662.989	210.464	-0.050	0.080
-661.974	-27.719	0.140	-0.083
-660.959	65.682	0.173	-0.178
-659.945	-200.000	0.021	0.125
-658.930	-149.875	0.266	0.021
-657.916	301.818	0.075	0.142
-656.901	175.741	-0.202	-0.298
-655.886	-89.419	-0.172	0.051
-654.872	-28.124	0.202	-0.119
-653.857	-183.212	-0.312	-0.006
-652.843	-131.024	-0.130	0.018
-651.828	-81.415	-0.218	0.073
-650.814	-123.847	0.119	0.019
-649.799	-54.320	-0.237	0.110
-648.784	69.580	-0.236	0.248
-647.770	-31.378	-0.249	-0.143
-646.755	64.042	-0.200	-0.205
-645.741	-200.000	-0.005	0.080
-644.726	579.423	0.155	0.388
-643.711	94.560	0.225	0.260
-642.697	386.086	-0.054	-0.114
-641.682	-44.251	-0.345	-0.176
-640.668	-31.388	0.209	0.120
-639.653	12.138	-0.327	0.256
-638.638	-101.381	-0.527	-0.131
-637.624	342.207	-0.188	-0.374
-636.609	-147.838	-0.253	0.021
-635.595	-26.728	0.308	0.184
-634.580	-200.000	-0.026	0.196
-633.565	78.661	-0.222	-0.242
-632.551	443.934	0.063	0.141
-631.536	251.810	0.107	-0.185
-630.522	753.348	0.027	-0.074
-629.507	465.845	-0.189	0.431
-628.492	-200.000	0.127	0.000
-627.478	-140.397	-0.208	-0.022
-626.463	95.856	-0.216	0.251
-625.449	-5.019	-0.302	-0.212
-624.434	-144.416	-0.167	-0.016
-623.419	159.801	0.043	0.061
-622.405	29.000	0.128	-0.111
-621.390	-200.000	-0.019	0.144
-620.376	104.629	-0.085	0.102
-619.361	354.071	-0.080	-0.161
-618.346	158.815	-0.135	0.190
-617.332	381.048	0.036	0.075
-616.317	-122.427	-0.203	0.034
-615.303	-19.062	0.129	-0.082
-614.288	-200.000	-0.019	-0.318
-613.273	200.581	0.108	0.168
-612.259	-140.580	0.217	-0.023
-611.244	-200.000	0.039	-0.185
-610.230	-60.389	-0.335	-0.145
-609.215	-84.370	0.104	-0.034
-608.201	-59.796	0.080	0.035
-607.186	-43.038	-0.126	0.065
-606.171	18.141	0.189	0.153
-605.157	34.738	0.129	0.115
-604.142	-81.668	-0.383	0.128
-603.128	-33.135	0.137	0.077
-602.113	800.000	-0.079	0.322
-601.098	800.000	0.057	0.168
-600.084	-159.473	0.201	0.011
-599.069	259.895	0.070	-0.124
-598.055	43.606	-0.183	0.171
-597.040	-200.000	-0.005	-0.106
-596.025	7.079	-0.065	-0.049
-595.011	-83.144	-0.333	0.109
-593.996	327.749	0.099	0.193
-592.982	172.406	0.118	0.172
-591.967	464.625	0.041	0.093
-590.952	-103.829	0.077	-0.018
-589.938	-119.567	-0.444	0.078
-588.923	-200.000	-0.011	0.080
-587.909	-47.775	-0.298	-0.147
-586.894	-200.000	-0.008	0.144
-585.879	-200.000	0.052	-0.330
-584.865	637.660	-0.174	0.450
-583.850	-107.918	-0.238	-0.053
-582.836	-100.718	-0.362	-0.091
-581.821	-200.000	-0.005	0.186
-580.806	-83.038	-0.237	-0.078
-579.792	47.374	-0.149	0.141
-578.777	-10.051	0.136	0.092
-577.763	-200.000	-0.031	-0.426
-576.748	749.394	-0.098	-0.270
-575.733	800.000	0.071	0.225
-574.719	168.179	0.083	0.120
-573.704	111.409	-0.055	0.068
-572.690	148.473	-0.095	0.131
-571.675	67.621	-0.063	0.065
-570.661	94.295	-0.158	-0.182
-569.646	-42.259	0.288	-0.149
-568.631	114.574	-0.157	0.194
-567.617	-99.037	0.189	-0.049
-566.602	800.000	0.052	-0.188
-565.588	-98.080	0.183	0.048
-564.573	-131.846	-0.157	-0.021
-563.558	-51.579	-0.255	0.121
-562.544	-132.980	-0.124	-0.016
-561.529	148.243	0.275	0.377
-560.515	-200.000	0.014	0.179
-559.500	-97.209	-0.374	0.099
-558.485	-129.140	-0.093	-0.013
-557.471	-200.000	-0.008	0.165
-556.456	-159.929	-0.325	-0.018
-555.442	-125.677	0.334	-0.051
-554.427	-200.000	-0.063	-0.296
-553.412	800.000	-0.004	-0.014
-552.398	17.692	-0.121	0.098
-551.383	57.449	-0.115	-0.114
-550.369	-102.636	0.161	-0.039
-549.354	21.670	-0.148	0.122
-548.339	800.000	0.053	-0.211
-547.325	342.064	-0.150	0.298
-546.310	33.399	0.280	-0.247
-545.296	81.806	0.208	-0.228
-544.281	800.000	-0.050	-0.164
-543.266	-100.012	0.106	-0.027
-542.252	-156.662	0.086	0.005
-541.237	-125.956	0.068	-0.010
-540.223	-109.005	0.384	0.083
-539.208	-141.109	-0.543	-0.056
-538.193	800.000	0.025	0.105
-537.179	800.000	0.064	0.251
-536.164	66.905	-0.046	-0.047
-535.150	800.000	0.051	0.225
-534.135	-200.000	0.016	-0.249
-533.121	-102.246	0.203	0.049
-532.106	-200.000	0.010	-0.294
-531.091	-200.000	-0.022	0.363
-530.077	-59.107	0.051	0.022
-529.062	800.000	0.110	-0.477
-528.048	-34.663	0.130	0.072
-527.033	800.000	-0.035	-0.140
-526.018	41.401	0.188	0.172
-525.004	-98.007	0.284	-0.074
-523.989	182.128	-0.138	-0.206
-522.975	-200.000	-0.007	0.084
-521.960	-200.000	-0.011	-0.281
-520.945	-200.000	0.001	-0.376
-519.931	-53.532	0.302	0.140
-518.916	36.752	-0.121	0.109
-517.902	-63.031	-0.308	-0.129
-516.887	170.997	-0.181	-0.264
-515.872	-13.318	-0.380	0.250
-514.858	-200.000	0.125	-0.588
-513.843	261.359	-0.219	-0.385
-512.829	-143.839	-0.305	-0.029
-511.814	-106.242	0.199	-0.045
-510.799	-1.246	-0.099	-0.071
-509.785	-200.000	0.112	-0.571
-508.770	-83.814	-0.158	-0.051
-507.756	109.632	-0.131	0.159
-506.741	163.740	0.074	0.106
-505.726	18.171	0.172	-0.139
-504.712	-164.804	0.259	-0.012
-503.697	-40.799	0.208	0.109
-502.683	-200.000	-0.020	-0.122
-501.668	-28.392	0.268	0.157
-500.653	-9.106	0.396	-0.268
-499.639	357.538	0.023	0.047
-498.624	168.602	-0.150	0.217
-497.610	116.437	-0.131	0.163
-496.595	-39.807	-0.103	-0.055
-495.581	-107.115	0.319	-0.071
-494.566	577.639	0.097	-0.241
-493.551	783.412	0.099	0.275
-492.537	89.209	0.112	0.126
-491.522	-80.955	0.188	-0.063
-490.508	175.673	0.108	0.158
-489.493	31.160	-0.146	0.127
-488.478	800.000	-0.060	-0.196
-487.464	167.373	0.174	-0.250
-486.449	-34.869	0.252	0.139
-485.435	-83.769	0.220	-0.071
-484.420	800.000	0.069	0.214
-483.405	-200.000	0.020	-0.109
-482.391	-161.706	-0.199	-0.010
-481.376	142.128	-0.140	-0.189
-480.362	158.988	-0.163	0.229
-479.347	-146.338	-0.198	0.018
-478.332	-127.031	-0.167	0.025
-477.318	-77.664	0.028	-0.010
-476.303	748.215	0.097	-0.266
-475.289	-145.816	0.241	0.022
-474.274	247.679	-0.107	0.182
-473.259	800.000	0.048	-0.169
-472.245	-200.000	0.019	0.130
-471.230	645.916	-0.055	0.143
-470.216	-200.000	-0.021	0.221
-469.201	800.000	0.103	-0.291
-468.186	60.197	0.267	-0.267
-467.172	-200.000	0.031	-0.222
-466.157	800.000	0.009	0.035
-465.143	-9.402	-0.130	-0.088
-464.128	29.406	-0.207	-0.178
-463.113	69.178	-0.161	0.168
-462.099	150.172	0.082	0.113
-461.084	-159.094	-0.507	0.029
-460.070	-24.007	-0.190	-0.115
-459.055	800.000	0.178	0.787
-458.040	376.566	-0.014	0.029
-457.026	376.160	0.012	0.026
-456.011	-40.365	-0.178	-0.094
-454.997	-41.815	-0.091	0.047
-453.982	-118.256	0.179	0.032
-452.968	450.217	-0.039	0.088
-451.953	-200.000	-0.027	-0.229
-450.938	102.526	0.073	-0.087
-449.924	559.425	0.054	0.131
-448.909	28.043	0.278	0.237
-447.895	19.086	-0.200	0.162
-446.880	-165.517	-0.188	-0.008
-445.865	-167.218	0.121	-0.005
-444.851	800.000	-0.055	0.185
-443.836	-80.528	0.399	0.134
-442.822	-86.042	0.161	-0.050
-441.807	-6.746	0.094	0.065
-440.792	78.070	0.232	-0.250
-439.778	756.886	-0.080	0.219
-438.763	800.000	-0.068	0.255
-437.749	-200.000	-0.003	-0.086
-436.734	105.623	0.170	-0.203
-435.719	-141.030	-0.208	0.021
-434.705	144.377	-0.137	0.185
-433.690	6.823	-0.214	-0.161
-432.676	-78.295	-0.193	-0.067
-431.661	25.776	0.080	0.068
-430.646	-200.000	-0.001	0.066
-429.632	-61.779	0.251	-0.106
-428.617	585.285	-0.139	-0.345
-427.603	138.899	0.048	0.064
-426.588	-200.000	-0.013	0.251
-425.573	647.760	-0.111	0.287
-424.559	74.766	0.075	0.080
-423.544	305.906	0.057	0.107
-422.530	-200.000	0.003	0.044
-421.515	214.328	-0.206	-0.330
-420.500	-43.223	-0.105	-0.054
-419.486	283.426	-0.019	-0.034
-418.471	-200.000	0.021	0.211
-417.457	640.505	0.125	-0.321
-416.442	-200.000	0.013	-0.142
-415.428	55.783	-0.193	-0.189
-414.413	101.835	0.233	0.274
-413.398	-57.354	0.155	-0.069
-412.384	-58.697	0.189	-0.083
-411.369	800.000	-0.109	0.367
-410.355	152.688	-0.181	-0.249
-409.340	252.868	-0.112	0.192
-408.325	339.087	0.128	0.252
-407.311	-200.000	-0.026	-0.126
-406.296	-200.000	0.025	-0.181
-405.282	-200.000	-0.008	0.222
-404.267	-87.081	-0.114	-0.035
-403.252	-105.843	0.213	0.049
-402.238	14.566	0.078	-0.062
-401.223	-86.129	-0.139	0.043
-400.209	77.350	0.296	-0.318
-399.194	-10.728	0.245	-0.164
-398.179	43.029	-0.199	-0.183
-397.165	39.013	0.297	-0.268
-396.150	-200.000	0.055	-0.282
-395.136	800.000	0.055	-0.236
-394.121	-200.000	0.000	-0.157
-393.106	67.569	0.076	0.078
-392.092	15.231	0.259	0.205
-391.077	143.285	0.204	-0.274
-390.063	-76.128	0.128	-0.045
-389.048	-26.559	-0.188	0.111
-388.033	-108.967	0.188	-0.041
-387.019	-200.000	0.019	0.334
-386.004	-21.704	0.221	-0.135
-384.990	662.615	-0.056	-0.145
-383.975	126.207	-0.085	-0.108
-382.960	17.131	0.378	-0.302
-381.946	-200.000	-0.022	-0.167
-380.931	-200.000	0.024	-0.137
-379.917	-153.722	-0.332	-0.023
-378.902	-155.350	-0.113	0.007
-377.888	64.454	0.017	0.017
-376.873	-200.000	0.001	0.318
-375.858	96.520	-0.034	0.039
-374.844	-92.327	0.169	-0.048
-373.829	800.000	-0.078	-0.312
-372.815	-83.873	-0.213	-0.069
-371.800	-200.000	0.005	0.036
-370.785	-200.000	0.001	0.125
-369.771	-62.940	0.109	0.045
-368.756	-10.398	-0.206	-0.138
-367.742	-86.672	-0.435	-0.134
-366.727	-116.485	0.480	-0.089
-365.712	-43.552	0.311	0.158
-364.698	-200.000	0.036	0.292
-363.683	800.000	-0.049	0.149
-362.669	-200.000	-0.004	0.040
-361.654	401.244	0.107	-0.225
-360.639	-67.175	-0.240	-0.095
-359.625	556.681	-0.078	-0.190
-358.610	81.523	0.138	-0.150
-357.596	0.035	0.161	-0.116
-356.581	-74.003	-0.195	-0.071
-355.566	800.000	-0.076	-0.305
-354.552	48.416	-0.114	-0.108
-353.537	800.000	-0.051	-0.190
-352.523	-135.994	0.064	0.008
-351.508	64.843	-0.261	-0.265
-350.493	-136.783	-0.182	0.021
-349.479	87.294	0.088	-0.098
-348.464	165.976	-0.056	0.080
-347.450	-59.711	-0.223	0.096
-346.435	103.151	0.022	0.026
-345.420	800.000	0.030	-0.094
-344.406	-134.646	0.233	0.029
-343.391	200.585	0.135	0.209
-342.377	-95.121	0.219	-0.059
-341.362	-51.200	-0.220	-0.104
-340.348	66.959	0.274	-0.281
-339.333	-200.000	0.014	0.126
-338.318	-86.426	0.215	0.066
-337.304	21.210	0.053	-0.043
-336.289	5.746	-0.194	-0.145
-335.275	-72.697	-0.530	0.197
-334.260	-200.000	-0.038	-0.447
-333.245	149.487	-0.059	0.081
-332.231	62.211	0.089	0.089
-331.216	281.800	-0.153	0.276
-330.202	-67.585	-0.033	0.013
-329.187	90.815	-0.084	0.095
-328.172	56.825	0.171	-0.168
-327.158	800.000	0.018	0.056
-326.143	800.000	0.084	0.280
-325.129	800.000	0.069	0.211
-324.114	-200.000	0.112	0.507
-323.099	800.000	0.107	0.343
-322.085	800.000	0.087	-0.288
-321.070	-128.391	-0.263	-0.038
-320.056	800.000	-0.045	-0.155
-319.041	-62.543	0.060	-0.025
-318.026	-171.381	0.107	-0.004
-317.012	-107.877	0.464	-0.102
-315.997	640.728	0.152	0.390
-314.983	-21.581	0.070	0.043
-313.968	64.989	0.231	0.234
-312.953	-96.603	-0.521	-0.138
-311.939	-200.000	0.023	-0.122
-310.924	-84.441	-0.103	-0.033
-309.910	515.103	-0.137	-0.322
-308.895	-33.116	-0.059	-0.033
-307.880	-41.467	0.142	-0.074
-306.866	-65.146	0.274	0.111
-305.851	187.128	0.150	0.225
-304.837	249.352	-0.185	0.315
-303.822	-76.225	0.080	0.028
-302.807	22.544	-0.117	0.096
-301.793	-78.312	-0.258	-0.089
-300.778	-72.284	0.117	0.044
-299.764	131.311	0.142	0.184
-298.749	-121.905	-0.157	0.026
-297.735	-59.471	-0.290	-0.125
-296.720	-15.575	-0.403	0.259
-295.705	-123.013	-0.144	0.023
-294.691	-164.951	-0.219	0.010
-293.676	800.000	-0.089	0.267
-292.662	-200.000	0.010	-0.075
-291.647	-106.796	0.024	0.005
-290.632	-103.235	0.234	-0.056
-289.618	-182.694	0.360	-0.007
-288.603	-200.000	0.009	-0.115
-287.589	800.000	0.083	0.327
-286.574	800.000	-0.158	0.490
-285.559	337.627	-0.124	0.243
-284.545	228.527	0.106	0.174
-283.530	-21.781	0.102	0.062
-282.516	-166.823	0.109	0.004
-281.501	62.679	0.191	0.191
-280.486	49.408	0.136	0.128
-279.472	800.000	-0.122	-0.417
-278.457	-39.770	0.176	0.092
-277.443	240.948	-0.108	-0.181
-276.428	-200.000	0.040	-0.220
-275.413	393.701	-0.210	0.438
-274.399	-89.765	0.229	0.067
-273.384	-50.211	0.273	-0.130
-272.370	-85.321	0.041	0.013
-271.355	483.089	0.208	-0.474
-270.340	-49.988	-0.218	0.104
-269.326	-74.422	0.036	0.013
-268.311	161.438	0.123	0.173
-267.297	11.117	-0.241	0.185
-266.282	-57.766	0.245	-0.108
-265.267	-200.000	0.092	-0.434
-264.253	20.214	0.308	-0.250
-263.238	20.105	0.062	-0.051
-262.224	2.633	0.139	0.101
-261.209	-10.589	0.189	-0.126
-260.195	330.534	-0.074	-0.143
-259.180	-3.783	-0.155	0.108
-258.165	-76.244	0.112	0.040
-257.151	-34.602	0.406	-0.223
-256.136	-181.935	0.236	0.004
-255.122	-150.041	0.060	0.005
-254.107	41.054	-0.214	0.194
-253.092	-200.000	-0.055	0.453
-252.078	366.501	0.108	0.219
-251.063	139.659	0.044	0.058
-250.049	-44.553	0.099	0.050
-249.034	-113.398	-0.097	-0.019
-248.019	-200.000	-0.053	-0.266
-247.005	-109.713	0.291	0.061
-245.990	165.880	-0.149	0.212
-244.976	23.508	-0.301	0.248
-243.961	-26.989	0.297	-0.174
-242.946	548.054	0.134	-0.322
-241.932	-31.939	0.022	0.012
-240.917	52.148	0.138	-0.132
-239.903	-200.000	0.031	-0.203
-238.888	393.379	-0.153	-0.319
-237.873	800.000	-0.035	-0.104
-236.859	202.807	0.230	0.357
-235.844	8.704	0.161	0.122
-234.830	111.423	-0.207	-0.250
-233.815	-74.380	-0.024	-0.009
-232.800	-47.199	-0.185	-0.090
-231.786	253.577	-0.083	0.141
-230.771	-200.000	0.017	0.091
-229.757	-163.215	-0.150	-0.007
-228.742	-80.111	-0.100	0.034
-227.727	639.441	0.094	-0.240
-226.713	-181.892	0.150	-0.003
-225.698	-8.333	-0.336	0.227
-224.684	-63.402	0.327	-0.135
-223.669	93.794	0.080	-0.091
-222.655	224.854	0.136	0.220
-221.640	169.093	0.110	0.157
-220.625	-45.992	-0.143	-0.070
-219.611	-69.260	-0.262	-0.101
-218.596	-200.000	-0.029	-0.205
-217.582	186.603	-0.093	-0.139
-216.567	98.945	0.183	0.212
-215.552	-200.000	0.009	0.050
-214.538	-200.000	0.030	-0.241
-213.523	-50.712	0.133	0.063
-212.509	-31.044	0.165	0.093
-211.494	-200.000	-0.006	0.033
-210.479	29.366	-0.162	-0.138
-209.465	268.985	0.181	-0.319
-208.450	800.000	0.037	-0.141
-207.436	-200.000	0.027	0.234
-206.421	-67.528	-0.200	0.079
-205.406	-78.540	0.057	-0.019
-204.392	-147.844	-0.191	0.016
-203.377	-200.000	0.007	0.076
-202.363	800.000	-0.026	0.095
-201.348	800.000	0.057	-0.200
-200.333	-123.926	0.202	-0.032
-199.319	-189.414	0.118	0.001
-198.304	-200.000	0.018	0.116
-197.290	119.035	-0.057	-0.071
-196.275	-32.729	-0.068	-0.038
-195.260	-25.775	0.253	0.149
-194.246	-15.472	0.397	-0.254
-193.231	65.485	-0.149	-0.151
-192.217	-17.375	-0.258	0.162
-191.202	512.172	0.109	-0.255
-190.187	467.360	-0.087	-0.195
-189.173	-72.924	0.118	0.043
-188.158	38.050	-0.049	-0.044
-187.144	27.525	0.116	-0.098
-186.129	-0.734	0.159	-0.113
-185.114	14.935	0.280	-0.219
-184.100	-200.000	0.030	0.133
-183.085	314.738	-0.120	0.226
-182.071	105.513	-0.278	0.328
-181.056	-63.893	0.280	0.115
-180.042	-124.458	0.277	0.043
-179.027	-12.318	-0.298	-0.195
-178.012	229.654	-0.144	-0.235
-176.998	387.134	0.114	-0.236
-175.983	-38.339	-0.199	0.106
-174.969	-120.652	-0.351	0.059
-173.954	41.756	-0.216	-0.195
-172.939	-108.086	-0.241	0.052
-171.925	238.466	0.074	0.123
-170.910	197.438	0.131	0.200
-169.896	-93.546	-0.076	0.021
-168.881	-200.000	0.021	-0.127
-167.866	-6.087	-0.379	0.259
-166.852	228.970	-0.166	0.271
-165.837	800.000	0.095	-0.340
-164.823	-178.790	0.415	-0.009
-163.808	-200.000	-0.018	-0.213
-162.793	357.426	0.255	0.509
-161.779	315.277	-0.120	0.226
-160.764	-25.783	0.131	0.077
-159.750	101.578	0.294	0.342
-158.735	199.801	-0.054	-0.083
-157.720	295.665	0.059	-0.108
-156.706	52.008	-0.131	0.125
-155.691	800.000	0.056	-0.182
-154.677	800.000	0.115	0.363
-153.662	170.589	-0.211	-0.302
-152.647	-200.000	-0.001	-0.052
-151.633	-17.718	-0.205	0.128
-150.618	800.000	0.082	0.250
-149.604	-88.714	0.083	0.025
-148.589	-200.000	-0.006	-0.075
-147.574	-126.193	0.277	-0.041
-146.560	369.444	-0.093	0.189
-145.545	-144.808	0.218	-0.020
-144.531	-200.000	-0.004	0.044
-143.516	396.091	-0.012	0.026
-142.502	73.609	0.105	0.110
-141.487	-157.406	0.403	-0.024
-140.472	-200.000	0.002	0.289
-139.458	-129.784	0.191	0.026
-138.443	-200.000	-0.015	0.178
-137.429	331.672	0.179	-0.344
-136.414	32.908	0.058	-0.050
-135.399	800.000	0.047	-0.188
-134.385	-200.000	-0.066	0.307
-133.370	567.074	-0.152	0.368
-132.356	-34.505	0.362	0.198
-131.341	-53.493	0.138	-0.063
-130.326	-34.844	0.445	0.243
-129.312	-200.000	-0.004	0.180
-128.297	800.000	-0.044	-0.169
-127.283	236.296	0.067	-0.110
-126.268	17.424	-0.066	-0.052
-125.253	-53.959	0.159	0.072
-124.239	187.356	0.061	0.090
-123.224	-25.234	0.326	-0.193
-122.210	12.756	-0.295	-0.227
-121.195	-118.928	0.310	-0.054
-120.180	-10.187	0.139	0.092
