DTS Sentinel unit serial number:	SN413079Multiplexer serial number:	ORYXHardware model number:	OX4-SRSoftware version number:	ORYX F/W v4.00 Oryx Data Collector v3.7.2.0data status	okinstallation	princeton_trtdifferential loss correction	single-endedforward channel	channel 1reverse channel	N/Adate	2019/09/14time	21:02:35forward acquisition time	60.00reverse acquisition time	0.00gamma	496.2192k internal	0.2317k external	0.2317temperature offset calibration	1.0015default loss term (dB/km)	0.3790temperature slope calibration	1.0000multiplexer offset coefficient	1.0000multiplexer slope coefficient	1.0000fibre end	0.00T internal ref (°C)	33.12T ext. ref 1 (°C)	4.77T ext. ref 2 (°C)	27.85length (m)	temperature (°C)	Stokes	anti-Stokes-747.200	321.909	0.115	0.222
-746.185	54.918	-0.060	0.059
-745.171	20.643	-0.114	-0.093
-744.156	40.031	-0.194	0.177
-743.142	40.829	-0.188	0.172
-742.127	-200.000	-0.036	-0.309
-741.112	9.643	0.155	-0.119
-740.098	800.000	0.171	0.506
-739.083	150.353	-0.204	0.280
-738.069	116.202	0.209	0.259
-737.054	207.640	0.135	0.213
-736.039	20.182	-0.204	-0.166
-735.025	-33.867	-0.136	0.076
-734.010	-42.947	-0.089	0.046
-732.996	-200.000	-0.023	0.293
-731.981	-153.978	-0.331	0.023
-730.966	113.319	-0.228	0.280
-729.952	-162.585	-0.177	0.009
-728.937	-143.680	0.293	-0.028
-727.923	-105.861	-0.484	-0.110
-726.908	35.583	-0.436	0.387
-725.894	-117.968	-0.189	0.034
-724.879	304.078	0.046	-0.085
-723.864	-200.000	-0.004	-0.155
-722.850	360.525	-0.055	-0.112
-721.835	800.000	-0.029	-0.106
-720.821	124.001	-0.183	-0.233
-719.806	142.940	0.252	-0.340
-718.791	-200.000	-0.002	0.320
-717.777	-94.522	0.215	0.059
-716.762	-200.000	-0.014	0.359
-715.748	-60.606	-0.180	-0.077
-714.733	-200.000	0.043	-0.242
-713.718	418.975	-0.168	-0.363
-712.704	172.539	-0.175	-0.255
-711.689	237.523	-0.072	-0.121
-710.675	800.000	0.043	-0.138
-709.660	-2.554	0.504	0.357
-708.645	-49.249	-0.151	-0.073
-707.631	-57.958	0.097	-0.043
-706.616	598.423	0.105	-0.264
-705.602	800.000	-0.060	-0.174
-704.587	-200.000	0.007	-0.093
-703.572	568.983	-0.034	-0.084
-702.558	-200.000	-0.080	-0.363
-701.543	-82.217	0.429	-0.141
-700.529	101.988	0.094	-0.111
-699.514	21.305	0.124	0.102
-698.499	800.000	0.080	-0.284
-697.485	-124.673	0.119	-0.019
-696.470	-200.000	0.014	0.109
-695.456	-123.172	-0.107	-0.017
-694.441	313.200	0.240	0.456
-693.426	-101.433	-0.168	-0.041
-692.412	25.325	0.358	0.300
-691.397	186.120	-0.063	0.094
-690.383	114.956	0.108	0.133
-689.368	-138.974	0.257	0.028
-688.354	95.249	-0.234	0.270
-687.339	-200.000	0.004	0.399
-686.324	-200.000	0.032	0.351
-685.310	800.000	0.040	0.118
-684.295	-107.230	-0.217	-0.048
-683.281	800.000	-0.111	0.415
-682.266	30.785	-0.136	-0.118
-681.251	800.000	-0.076	-0.326
-680.237	97.033	0.065	-0.075
-679.222	100.012	0.189	-0.221
-678.208	550.345	-0.099	-0.241
-677.193	-200.000	0.024	-0.189
-676.178	-200.000	-0.046	0.243
-675.164	-200.000	-0.045	-0.264
-674.149	-16.719	0.143	0.091
-673.135	-72.984	0.180	-0.067
-672.120	-52.535	-0.233	-0.109
-671.105	78.009	-0.323	0.348
-670.091	-88.717	0.076	0.023
-669.076	51.901	-0.107	-0.103
-668.062	-69.555	-0.395	0.153
-667.047	-37.656	-0.347	-0.187
-666.032	260.902	-0.182	-0.318
-665.018	-41.277	-0.345	0.180
-664.003	-163.014	-0.355	0.017
-662.989	-86.000	-0.102	-0.032
-661.974	266.395	0.070	-0.123
-660.959	-24.819	0.050	0.030
-659.945	79.143	0.159	-0.172
-658.930	-106.868	-0.308	-0.069
-657.916	-73.502	0.148	-0.055
-656.901	-57.270	0.096	-0.043
-655.886	456.283	0.129	0.290
-654.872	264.731	0.147	-0.259
-653.857	-31.770	0.329	0.186
-652.843	4.017	-0.209	0.154
-651.828	-200.000	0.012	-0.171
-650.814	-15.006	0.304	0.196
-649.799	-196.808	0.059	0.000
-648.784	-72.084	-0.081	0.031
-647.770	75.768	-0.120	0.128
-646.755	166.057	0.092	0.131
-645.741	262.889	0.138	-0.242
-644.726	-57.951	-0.198	0.087
-643.711	-200.000	0.026	0.162
-642.697	-200.000	0.043	0.258
-641.682	-200.000	-0.058	-0.284
-640.668	-157.967	-0.014	-0.001
-639.653	-76.981	0.289	-0.102
-638.638	2.902	0.152	-0.111
-637.624	-200.000	0.010	-0.182
-636.609	-54.032	0.299	-0.137
-635.595	103.810	-0.117	-0.138
-634.580	800.000	0.048	0.205
-633.565	-13.857	-0.148	0.096
-632.551	-19.541	-0.197	0.123
-631.536	-200.000	0.001	-0.243
-630.522	800.000	0.070	0.216
-629.507	-100.033	-0.284	-0.071
-628.492	515.534	-0.069	-0.161
-627.478	-200.000	-0.002	0.026
-626.463	63.776	-0.094	-0.096
-625.449	-200.000	0.015	-0.125
-624.434	467.531	0.109	0.245
-623.419	-146.204	0.242	-0.021
-622.405	-200.000	0.009	-0.209
-621.390	-47.398	0.112	-0.055
-620.376	-200.000	-0.018	0.205
-619.361	-36.176	-0.156	-0.085
-618.346	-69.197	0.205	0.079
-617.332	-57.140	0.278	0.123
-616.317	0.413	-0.147	0.106
-615.303	800.000	0.082	-0.327
-614.288	-142.711	0.190	-0.019
-613.273	-138.264	0.171	-0.019
-612.259	800.000	0.135	0.402
-611.244	-130.692	-0.098	-0.013
-610.230	-158.403	-0.182	0.011
-609.215	-32.311	0.267	-0.150
-608.201	-156.938	-0.331	-0.020
-607.186	-137.472	-0.107	-0.012
-606.171	800.000	-0.027	-0.096
-605.157	-200.000	0.023	-0.173
-604.142	159.947	-0.076	-0.107
-603.128	-120.425	-0.079	0.013
-602.113	-200.000	-0.044	-0.323
-601.098	-200.000	-0.039	-0.186
-600.084	151.653	-0.069	0.094
-599.069	88.454	-0.021	-0.024
-598.055	-200.000	0.015	0.073
-597.040	-200.000	0.014	0.177
-596.025	279.642	0.087	0.156
-595.011	-200.000	-0.037	-0.249
-593.996	67.966	0.055	0.057
-592.982	-200.000	-0.060	0.446
-591.967	502.948	0.065	-0.151
-590.952	-111.659	0.255	0.052
-589.938	361.201	0.129	0.260
-588.923	-154.211	-0.233	0.016
-587.909	800.000	-0.068	0.215
-586.894	419.031	-0.089	-0.192
-585.879	800.000	-0.008	-0.033
-584.865	-64.361	-0.103	0.042
-583.850	467.526	0.075	-0.168
-582.836	172.421	-0.134	0.194
-581.821	-86.013	-0.040	-0.012
-580.806	112.624	0.046	0.056
-579.792	-200.000	-0.001	-0.005
-578.777	-180.589	0.333	-0.007
-577.763	-153.078	-0.138	-0.010
-576.748	51.873	-0.290	-0.278
-575.733	175.988	-0.151	0.221
-574.719	4.639	-0.332	-0.245
-573.704	-115.517	0.154	-0.029
-572.690	67.141	-0.167	0.171
-571.675	-200.000	-0.036	-0.287
-570.661	90.276	0.182	-0.204
-569.646	43.054	-0.094	0.086
-568.631	-200.000	0.012	-0.147
-567.617	-59.008	-0.231	0.100
-566.602	-113.921	-0.322	-0.063
-565.588	63.304	-0.110	0.111
-564.573	199.014	0.127	0.195
-563.558	26.553	0.138	-0.116
-562.544	-45.167	0.188	-0.094
-561.529	7.727	-0.260	0.196
-560.515	800.000	0.056	0.191
-559.500	-160.985	-0.246	-0.013
-558.485	114.092	-0.147	-0.179
-557.471	-179.311	0.277	-0.006
-556.456	800.000	0.010	0.029
-555.442	79.376	0.199	-0.214
-554.427	-200.000	0.046	-0.295
-553.412	-86.833	0.084	-0.026
-552.398	-159.871	-0.190	-0.010
-551.383	-125.664	0.346	0.053
-550.369	397.692	0.103	-0.216
-549.354	-200.000	-0.020	-0.145
-548.339	3.585	-0.148	-0.108
-547.325	-200.000	0.063	0.297
-546.310	-99.885	0.194	-0.049
-545.296	-112.178	-0.368	-0.074
-544.281	-2.164	0.133	-0.094
-543.266	479.635	-0.194	-0.442
-542.252	-143.925	0.209	-0.020
-541.237	-67.351	0.157	-0.062
-540.223	-200.000	-0.023	-0.269
-539.208	-137.872	0.368	-0.041
-538.193	150.756	0.232	-0.317
-537.179	-130.379	0.409	-0.056
-536.164	68.080	0.144	0.148
-535.150	800.000	-0.039	0.135
-534.135	800.000	-0.118	0.370
-533.121	114.344	-0.196	0.240
-532.106	800.000	-0.061	-0.253
-531.091	-153.411	0.308	-0.021
-530.077	-46.758	0.081	0.040
-529.062	90.509	0.054	-0.061
-528.048	-61.756	0.185	-0.078
-527.033	48.359	0.155	-0.146
-526.018	321.072	-0.087	-0.165
-525.004	-200.000	-0.007	-0.100
-523.989	-109.208	-0.214	0.046
-522.975	-78.971	0.272	0.093
-521.960	-74.722	-0.151	-0.055
-520.945	151.875	0.199	-0.273
-519.931	800.000	-0.071	-0.290
-518.916	-21.150	-0.198	-0.122
-517.902	-41.717	0.147	-0.076
-516.887	800.000	-0.075	-0.318
-515.872	-107.062	0.039	0.009
-514.858	-135.689	-0.398	0.047
-513.843	154.236	-0.184	-0.253
-512.829	-190.132	-0.127	-0.001
-511.814	494.411	-0.115	-0.266
-510.799	-200.000	-0.009	0.130
-509.785	-75.683	-0.211	0.075
-508.770	-67.486	-0.220	-0.087
-507.756	-200.000	-0.009	-0.329
-506.741	-97.072	-0.240	0.063
-505.726	162.371	0.103	-0.144
-504.712	-200.000	0.023	-0.148
-503.697	800.000	-0.048	0.156
-502.683	-200.000	-0.062	-0.340
-501.668	-36.825	-0.288	-0.155
-500.653	-186.431	0.387	0.006
-499.639	-56.279	0.045	-0.020
-498.624	-98.595	-0.238	0.061
-497.610	-200.000	-0.016	-0.178
-496.595	797.147	-0.107	0.295
-495.581	276.403	-0.108	0.192
-494.566	246.604	0.143	-0.242
-493.551	-200.000	0.012	-0.152
-492.537	-149.347	-0.174	0.014
-491.522	800.000	-0.099	0.303
-490.508	-44.196	0.274	-0.138
-489.493	218.601	-0.248	0.397
-488.478	792.079	0.052	0.143
-487.464	691.304	0.038	-0.100
-486.449	196.396	-0.099	0.152
-485.435	-16.824	-0.084	0.053
-484.420	68.867	-0.051	-0.052
-483.405	484.063	0.211	-0.481
-482.391	64.139	0.248	-0.251
-481.376	-143.525	0.087	0.008
-480.362	-69.079	-0.164	-0.063
-479.347	103.906	0.032	-0.037
-478.332	800.000	0.038	-0.133
-477.318	121.713	0.161	0.202
-476.303	66.599	0.228	-0.232
-475.289	80.952	-0.059	-0.063
-474.274	-200.000	-0.011	-0.195
-473.259	-12.691	0.107	-0.070
-472.245	62.065	-0.270	-0.270
-471.230	16.185	0.162	0.128
-470.216	-200.000	0.011	-0.319
-469.201	-4.345	0.126	0.087
-468.186	800.000	-0.058	-0.173
-467.172	113.698	0.177	0.216
-466.157	800.000	0.076	0.286
-465.143	800.000	-0.053	0.213
-464.128	800.000	0.058	-0.211
-463.113	-22.539	0.190	-0.115
-462.099	-32.182	-0.096	-0.054
-461.084	420.687	0.051	-0.110
-460.070	800.000	0.053	-0.181
-459.055	96.323	-0.245	0.280
-458.040	-148.491	-0.416	-0.034
-457.026	-147.630	0.373	-0.031
-456.011	-111.954	-0.476	-0.096
-454.997	636.749	0.069	-0.176
-453.982	122.746	-0.128	0.160
-452.968	-61.476	0.082	0.034
-451.953	-112.092	-0.085	0.017
-450.938	-200.000	0.005	0.168
-449.924	175.673	-0.085	-0.124
-448.909	-200.000	-0.036	-0.166
-447.895	-3.727	-0.089	-0.062
-446.880	-177.727	-0.072	0.002
-445.865	85.458	0.057	-0.063
-444.851	133.795	0.071	0.092
-443.836	-136.973	-0.075	-0.009
-442.822	-165.876	-0.088	-0.004
-441.807	-92.744	0.028	-0.008
-440.792	343.126	0.142	0.278
-439.778	-200.000	-0.003	-0.195
-438.763	31.965	0.108	-0.093
-437.749	-102.389	-0.118	-0.028
-436.734	-40.045	-0.096	0.050
-435.719	390.855	-0.198	-0.412
-434.705	66.375	-0.255	-0.259
-433.690	-33.783	0.132	0.073
-432.676	39.784	0.140	-0.125
-431.661	101.322	-0.289	0.337
-430.646	-161.554	0.091	-0.005
-429.632	23.260	-0.241	-0.198
-428.617	417.503	-0.061	-0.130
-427.603	569.947	0.157	-0.382
-426.588	-91.657	-0.250	-0.071
-425.573	-200.000	-0.021	-0.134
-424.559	13.251	0.209	-0.162
-423.544	306.759	0.008	-0.015
-422.530	-64.816	-0.256	0.103
-421.515	-92.643	-0.163	-0.046
-420.500	757.413	0.028	-0.075
-419.486	-125.092	-0.329	-0.050
-418.471	-200.000	0.030	-0.243
-417.457	-146.921	-0.392	-0.034
-416.442	50.224	-0.173	-0.163
-415.428	-200.000	-0.038	-0.325
-414.413	263.291	0.126	0.219
-413.398	9.436	0.113	-0.086
-412.384	-200.000	-0.002	-0.321
-411.369	79.225	-0.245	-0.262
-410.355	1.238	0.276	-0.198
-409.340	-12.810	0.215	-0.140
-408.325	800.000	0.122	0.434
-407.311	604.988	0.083	-0.206
-406.296	-200.000	-0.031	0.185
-405.282	54.992	0.195	-0.188
-404.267	-16.746	0.208	-0.131
-403.252	-167.294	-0.267	0.011
-402.238	-200.000	-0.010	-0.104
-401.223	43.067	-0.126	0.115
-400.209	131.299	0.142	0.182
-399.194	-95.161	0.141	0.038
-398.179	-114.218	-0.183	0.035
-397.165	-118.501	-0.132	0.023
-396.150	-200.000	0.069	0.358
-395.136	141.360	0.148	-0.195
-394.121	26.972	-0.066	-0.055
-393.106	-48.995	-0.114	-0.055
-392.092	416.055	0.014	0.030
-391.077	-78.532	-0.182	-0.062
-390.063	800.000	-0.069	0.232
-389.048	-200.000	0.015	0.300
-388.033	139.192	-0.156	-0.205
-387.019	-151.126	-0.304	0.023
-386.004	-187.411	-0.384	0.005
-384.990	27.769	0.182	-0.153
-383.975	-200.000	0.026	-0.213
-382.960	225.719	-0.239	-0.386
-381.946	-161.666	0.243	-0.012
-380.931	-200.000	0.029	-0.205
-379.917	-160.659	0.212	0.011
-378.902	66.180	0.146	-0.148
-377.888	800.000	0.109	0.475
-376.873	-200.000	-0.059	0.263
-375.858	219.444	-0.164	-0.261
-374.844	-59.728	0.284	-0.122
-373.829	15.517	-0.039	0.031
-372.815	-134.587	0.076	-0.009
-371.800	608.671	-0.112	-0.279
-370.785	-200.000	0.030	-0.168
-369.771	480.495	-0.054	0.122
-368.756	135.696	0.202	0.263
-367.742	169.372	-0.052	-0.075
-366.727	567.982	-0.115	-0.278
-365.712	-200.000	0.034	0.319
-364.698	277.896	-0.271	0.482
-363.683	89.003	0.079	0.088
-362.669	466.366	-0.061	0.137
-361.654	800.000	0.047	0.152
-360.639	-200.000	0.001	0.067
-359.625	-43.562	0.092	-0.047
-358.610	-200.000	0.004	0.185
-357.596	800.000	-0.090	0.280
-356.581	-200.000	0.021	0.118
-355.566	800.000	-0.062	-0.207
-354.552	-95.422	0.162	-0.043
-353.537	-51.876	0.147	0.068
-352.523	-127.563	-0.332	-0.048
-351.508	-59.394	-0.210	0.090
-350.493	-133.283	-0.207	-0.026
-349.479	52.291	-0.117	0.111
-348.464	-200.000	0.058	0.327
-347.450	8.156	0.154	0.115
-346.435	329.948	0.057	0.110
-345.420	289.734	0.101	0.182
-344.406	140.473	-0.209	0.275
-343.391	-97.332	0.298	0.077
-342.377	-200.000	-0.006	0.143
-341.362	152.892	0.062	0.084
-340.348	165.214	0.287	0.404
-339.333	-115.132	0.365	-0.069
-338.318	232.064	-0.040	0.065
-337.304	-200.000	-0.026	0.156
-336.289	38.102	-0.254	0.225
-335.275	207.533	-0.081	0.126
-334.260	127.797	-0.105	0.133
-333.245	-51.888	0.163	-0.075
-332.231	325.746	0.123	0.234
-331.216	19.918	0.096	-0.077
-330.202	-76.978	-0.228	0.079
-329.187	-54.161	-0.190	-0.086
-328.172	-81.943	0.137	0.044
-327.158	34.048	0.335	0.291
-326.143	800.000	-0.013	0.043
-325.129	33.301	0.358	0.309
-324.114	136.186	-0.039	0.051
-323.099	104.032	-0.137	0.160
-322.085	-133.428	0.418	0.052
-321.070	-89.573	-0.153	-0.045
-320.056	800.000	0.094	-0.315
-319.041	-144.597	0.085	-0.008
-318.026	-12.876	-0.115	-0.074
-317.012	-105.539	-0.179	-0.040
-315.997	-38.090	-0.129	0.068
-314.983	-171.582	0.359	0.012
-313.968	263.205	0.192	0.332
-312.953	125.334	0.206	0.259
-311.939	-63.638	-0.115	0.047
-310.924	-26.628	0.199	0.116
-309.910	295.542	0.076	-0.138
-308.895	56.951	0.120	-0.117
-307.880	800.000	-0.148	-0.612
-306.866	4.850	-0.230	-0.168
-305.851	133.313	0.110	0.141
-304.837	-145.606	0.424	-0.038
-303.822	279.253	0.074	0.132
-302.807	177.934	-0.110	0.159
-301.793	-124.615	0.178	0.028
-300.778	33.648	0.380	-0.329
-299.764	311.019	0.202	-0.377
-298.749	8.894	0.042	-0.031
-297.735	37.193	-0.040	-0.035
-296.720	800.000	-0.069	0.258
-295.705	32.998	-0.267	-0.230
-294.691	480.815	0.157	-0.354
-293.676	-165.565	0.091	-0.004
-292.662	-25.506	-0.371	-0.218
-291.647	107.292	0.201	-0.238
-290.632	-156.873	-0.443	-0.027
-289.618	-171.358	0.145	0.005
-288.603	17.374	0.072	-0.057
-287.589	4.363	-0.024	0.018
-286.574	626.128	0.052	-0.130
-285.559	705.026	0.103	0.269
-284.545	-111.666	-0.244	0.049
-283.530	5.215	0.187	0.137
-282.516	378.096	-0.057	0.116
-281.501	145.921	0.156	0.207
-280.486	800.000	0.045	0.155
-279.472	-124.209	0.104	-0.016
-278.457	-200.000	-0.000	0.025
-277.443	-72.862	-0.107	0.039
-276.428	-200.000	0.059	0.346
-275.413	58.308	0.117	-0.114
-274.399	-56.102	0.238	0.105
-273.384	-72.321	0.215	-0.079
-272.370	463.169	-0.048	0.106
-271.355	3.589	-0.128	-0.093
-270.340	-200.000	-0.014	0.066
-269.326	-200.000	0.010	0.055
-268.311	-38.082	-0.195	0.103
-267.297	558.674	0.040	-0.096
-266.282	486.381	-0.063	0.142
-265.267	-111.863	-0.111	0.022
-264.253	-165.395	-0.291	-0.013
-263.238	-200.000	0.042	-0.337
-262.224	-96.816	-0.121	-0.032
-261.209	-59.007	0.108	0.046
-260.195	-200.000	-0.076	0.347
-259.180	-151.227	-0.155	-0.012
-258.165	-77.325	-0.155	0.053
-257.151	-104.212	0.438	-0.101
-256.136	164.229	0.154	0.216
-255.122	-51.841	0.058	-0.027
-254.107	182.381	-0.056	0.082
-253.092	6.069	0.130	-0.096
-252.078	16.628	0.132	-0.103
-251.063	-200.000	0.017	0.323
-250.049	11.082	-0.105	0.080
-249.034	-116.749	0.080	-0.015
-248.019	-103.642	-0.320	-0.074
-247.005	-57.822	0.490	0.213
-245.990	214.750	0.050	0.079
-244.976	-120.827	-0.218	0.036
-243.961	207.942	0.052	0.080
-242.946	213.448	-0.109	-0.171
-241.932	-200.000	0.015	0.311
-240.917	275.276	0.115	0.202
-239.903	-200.000	-0.022	0.172
-238.888	-105.715	-0.285	-0.064
-237.873	305.677	0.180	0.333
-236.859	294.868	-0.129	0.235
-235.844	-200.000	-0.024	0.135
-234.830	800.000	0.061	0.241
-233.815	434.023	0.056	-0.122
-232.800	343.740	0.248	0.483
-231.786	800.000	0.049	0.137
-230.771	102.306	-0.161	0.187
-229.757	137.662	0.050	0.065
-228.742	-7.949	0.216	-0.144
-227.727	-100.317	0.189	-0.047
-226.713	800.000	-0.035	0.100
-225.698	800.000	-0.056	0.195
-224.684	-16.254	-0.241	-0.152
-223.669	-200.000	-0.029	-0.409
-222.655	17.999	-0.186	0.147
-221.640	144.140	-0.317	-0.419
-220.625	-95.892	-0.088	0.023
-219.611	102.917	0.143	0.167
-218.596	293.469	-0.160	-0.290
-217.582	-54.214	-0.091	-0.041
-216.567	-105.650	-0.051	0.011
-215.552	-20.626	-0.259	-0.158
-214.538	721.011	-0.077	0.204
-213.523	110.390	0.218	-0.259
-212.509	-15.662	-0.150	0.095
-211.494	510.310	-0.129	-0.297
-210.479	189.436	0.152	0.227
-209.465	-170.065	-0.372	-0.013
-208.450	-96.741	-0.377	-0.098
-207.436	-28.148	0.110	-0.063
-206.421	-200.000	-0.007	0.184
-205.406	182.377	-0.084	0.123
-204.392	354.094	-0.037	0.072
-203.377	-200.000	-0.010	0.563
-202.363	373.718	-0.057	0.114
-201.348	88.465	-0.081	0.089
-200.333	629.148	0.036	0.090
-199.319	-169.151	0.112	0.004
-198.304	69.713	0.230	-0.234
-197.290	800.000	-0.064	0.190
-196.275	38.761	-0.008	0.007
-195.260	6.883	-0.027	-0.020
-194.246	-87.540	0.223	0.067
-193.231	149.337	-0.082	0.110
-192.217	-0.221	0.200	0.141
-191.202	337.394	-0.046	0.089
-190.187	800.000	0.031	-0.134
-189.173	-200.000	0.007	-0.050
-188.158	783.678	-0.032	-0.088
-187.144	631.987	-0.134	-0.336
-186.129	-106.246	0.385	-0.085
-185.114	557.007	0.026	0.063
-184.100	5.899	-0.249	0.182
-183.085	-139.774	0.081	-0.009
-182.071	-102.145	-0.155	-0.037
-181.056	-200.000	0.026	0.000
-180.042	-121.033	0.138	-0.023
-179.027	-137.884	-0.236	0.026
-178.012	66.132	0.234	0.235
-176.998	-133.315	-0.120	0.015
-175.983	-58.969	0.174	0.074
-174.969	800.000	0.069	-0.212
-173.954	-200.000	-0.001	-0.102
-172.939	-129.422	0.229	0.031
-171.925	-98.109	-0.050	-0.013
-170.910	148.515	-0.122	-0.164
-169.896	178.346	-0.047	-0.068
-168.881	-13.159	0.015	-0.010
-167.866	130.598	-0.084	0.107
-166.852	-200.000	-0.013	0.241
-165.837	44.645	-0.140	0.128
-164.823	800.000	0.034	-0.107
-163.808	800.000	-0.052	0.190
-162.793	-126.367	0.063	-0.009
-161.779	20.674	0.271	0.217
-160.764	154.998	-0.251	0.341
-159.750	495.228	0.055	-0.124
-158.735	-155.718	-0.141	-0.009
-157.720	42.888	0.204	0.184
-156.706	178.651	-0.157	0.227
-155.691	-53.087	0.283	0.129
-154.677	-79.657	-0.278	0.093
-153.662	-80.508	0.481	0.159
-152.647	-20.660	0.264	0.160
-151.633	42.884	0.116	0.105
-150.618	-8.999	-0.251	0.166
-149.604	43.230	-0.118	0.107
-148.589	800.000	-0.069	0.217
-147.574	-55.107	-0.100	-0.044
-146.560	636.146	0.018	-0.045
-145.545	114.111	0.218	-0.262
-144.531	62.382	-0.179	-0.177
-143.516	7.201	-0.167	-0.124
-142.502	-200.000	0.015	0.299
-141.487	-63.968	0.205	-0.083
-140.472	-62.941	-0.257	0.105
-139.458	-200.000	0.002	0.280
-138.443	-131.184	-0.236	0.031
-137.429	207.908	0.068	-0.105
-136.414	-134.892	0.245	0.029
-135.399	143.526	0.206	-0.271
-134.385	498.799	0.198	0.450
-133.370	800.000	0.056	0.169
-132.356	337.449	0.095	-0.182
-131.341	320.160	-0.110	0.207
-130.326	421.044	0.074	-0.156
-129.312	800.000	-0.053	-0.148
-128.297	36.481	0.135	-0.118
-127.283	800.000	-0.039	-0.161
-126.268	139.949	0.020	-0.026
-125.253	548.603	-0.071	-0.168
-124.239	-200.000	-0.065	-0.344
-123.224	0.057	-0.072	0.051
-122.210	62.880	0.110	-0.108
