DTS Sentinel unit serial number:	SN413079Multiplexer serial number:	ORYXHardware model number:	OX4-SRSoftware version number:	ORYX F/W v4.00 Oryx Data Collector v3.7.2.0data status	okinstallation	princeton_trtdifferential loss correction	single-endedforward channel	channel 1reverse channel	N/Adate	2019/09/11time	19:12:11forward acquisition time	60.00reverse acquisition time	0.00gamma	496.2192k internal	0.2293k external	0.2293temperature offset calibration	1.0020default loss term (dB/km)	0.3790temperature slope calibration	1.0000multiplexer offset coefficient	1.0000multiplexer slope coefficient	1.0000fibre end	0.00T internal ref (°C)	41.55T ext. ref 1 (°C)	1.29T ext. ref 2 (°C)	33.73length (m)	temperature (°C)	Stokes	anti-Stokes-747.200	-92.704	-0.172	-0.049
-746.185	545.744	0.089	0.217
-745.171	122.099	0.187	0.239
-744.156	-200.000	0.015	0.166
-743.142	-200.000	-0.003	0.118
-742.127	31.431	0.263	-0.231
-741.112	-14.185	0.181	-0.119
-740.098	360.942	-0.077	0.157
-739.083	147.704	-0.112	-0.154
-738.069	256.936	0.150	0.263
-737.054	126.685	-0.104	-0.134
-736.039	176.946	-0.217	-0.323
-735.025	-1.994	0.121	-0.087
-734.010	43.452	-0.044	-0.041
-732.996	684.835	0.128	0.341
-731.981	-75.573	-0.152	-0.055
-730.966	-33.045	0.388	-0.220
-729.952	402.919	0.139	-0.299
-728.937	2.468	-0.323	-0.239
-727.923	63.835	0.115	0.118
-726.908	800.000	-0.092	-0.303
-725.894	-200.000	-0.050	0.289
-724.879	-121.835	0.132	-0.022
-723.864	-10.081	-0.084	-0.057
-722.850	-42.197	-0.251	-0.131
-721.835	-200.000	-0.029	-0.273
-720.821	-66.256	0.394	0.160
-719.806	-91.208	-0.275	-0.081
-718.791	33.845	-0.220	-0.196
-717.777	800.000	-0.061	-0.241
-716.762	7.192	0.130	-0.099
-715.748	36.396	0.026	-0.023
-714.733	-142.556	-0.231	0.023
-713.718	800.000	0.033	0.115
-712.704	2.297	-0.322	-0.238
-711.689	800.000	0.049	0.206
-710.675	-200.000	0.044	0.247
-709.660	-200.000	0.002	-0.129
-708.645	-112.828	-0.078	0.016
-707.631	800.000	-0.017	0.056
-706.616	399.307	-0.076	-0.163
-705.602	-172.903	0.299	0.009
-704.587	-164.242	-0.192	-0.009
-703.572	50.743	-0.235	0.228
-702.558	-200.000	-0.003	0.022
-701.543	-200.000	0.063	0.313
-700.529	-37.673	0.122	-0.067
-699.514	-200.000	0.075	-0.599
-698.499	-52.148	0.300	0.142
-697.485	-46.122	0.223	-0.112
-696.470	-11.042	0.029	0.020
-695.456	-4.608	-0.089	-0.063
-694.441	-200.000	0.021	-0.348
-693.426	-30.993	0.487	0.281
-692.412	-27.435	-0.126	-0.075
-691.397	800.000	0.070	0.249
-690.383	-200.000	-0.025	0.236
-689.368	-122.495	-0.314	0.052
-688.354	-138.237	0.356	-0.040
-687.339	31.552	-0.068	0.059
-686.324	-44.462	0.122	-0.062
-685.310	800.000	0.093	0.312
-684.295	205.679	0.106	-0.169
-683.281	-19.400	-0.048	0.030
-682.266	150.040	-0.178	0.247
-681.251	-136.135	-0.092	-0.011
-680.237	800.000	-0.062	-0.206
-679.222	-200.000	-0.033	-0.216
-678.208	486.055	0.071	0.166
-677.193	-11.891	-0.098	0.066
-676.178	-168.258	0.257	0.010
-675.164	214.809	-0.052	0.084
-674.149	378.725	0.037	-0.078
-673.135	110.135	-0.038	0.047
-672.120	-126.735	0.168	0.025
-671.105	-200.000	-0.008	-0.198
-670.091	12.711	0.074	-0.058
-669.076	-200.000	0.001	-0.083
-668.062	800.000	0.121	-0.508
-667.047	800.000	0.119	-0.384
-666.032	-200.000	0.021	0.221
-665.018	-111.568	-0.198	-0.041
-664.003	-78.961	-0.165	-0.057
-662.989	20.207	-0.047	-0.038
-661.974	556.087	0.055	-0.135
-660.959	800.000	-0.020	-0.082
-659.945	654.737	-0.124	-0.325
-658.930	-200.000	-0.052	0.480
-657.916	-123.154	-0.353	-0.058
-656.901	34.198	0.137	0.122
-655.886	1.722	0.119	-0.088
-654.872	503.607	-0.091	-0.215
-653.857	103.542	-0.038	0.046
-652.843	-200.000	-0.017	0.133
-651.828	-200.000	-0.007	-0.037
-650.814	-124.229	-0.104	0.017
-649.799	-176.250	-0.188	-0.005
-648.784	-163.508	-0.489	-0.024
-647.770	-55.865	-0.142	0.065
-646.755	15.370	0.172	0.137
-645.741	162.161	0.163	0.232
-644.726	40.831	0.170	-0.156
-643.711	-92.562	-0.139	-0.040
-642.697	-12.168	-0.204	-0.136
-641.682	-96.783	0.104	0.028
-640.668	-163.543	-0.335	0.016
-639.653	-68.586	0.166	0.066
-638.638	-20.904	0.168	-0.105
-637.624	800.000	0.047	-0.204
-636.609	212.601	-0.269	-0.433
-635.595	214.174	0.138	-0.222
-634.580	-200.000	0.047	-0.289
-633.565	-200.000	-0.100	-0.447
-632.551	-66.202	0.072	0.029
-631.536	-133.080	0.295	-0.038
-630.522	-51.629	-0.195	-0.093
-629.507	-200.000	0.008	-0.248
-628.492	-100.481	-0.098	0.025
-627.478	800.000	0.006	-0.027
-626.463	169.996	-0.050	0.073
-625.449	399.943	-0.124	0.264
-624.434	-174.246	0.190	0.006
-623.419	-64.873	-0.393	-0.162
-622.405	-45.557	-0.296	0.149
-621.390	-164.910	0.110	-0.005
-620.376	-200.000	-0.040	0.420
-619.361	-63.016	0.214	-0.090
-618.346	-200.000	0.043	-0.204
-617.332	-114.117	-0.161	-0.032
-616.317	-200.000	0.020	-0.231
-615.303	74.215	0.093	0.100
-614.288	43.904	0.200	0.186
-613.273	-200.000	-0.012	0.108
-612.259	800.000	-0.094	-0.301
-611.244	204.437	0.121	0.191
-610.230	-63.022	0.183	0.077
-609.215	-115.462	-0.133	0.025
-608.201	800.000	-0.004	0.014
-607.186	208.188	0.121	-0.192
-606.171	56.453	-0.111	0.110
-605.157	98.656	-0.016	-0.019
-604.142	61.711	-0.109	-0.110
-603.128	265.493	0.156	-0.277
-602.113	48.270	0.272	0.259
-601.098	294.021	0.089	-0.165
-600.084	800.000	-0.081	-0.260
-599.069	-154.529	0.016	0.001
-598.055	354.810	0.113	-0.230
-597.040	-149.665	0.275	-0.022
-596.025	-63.506	0.175	0.073
-595.011	631.675	0.057	0.146
-593.996	-200.000	0.044	-0.241
-592.982	739.534	-0.021	0.056
-591.967	-186.085	-0.082	-0.001
-590.952	-73.788	-0.241	-0.089
-589.938	-89.619	-0.098	-0.029
-588.923	-91.981	-0.216	-0.062
-587.909	372.032	-0.137	-0.283
-586.894	345.061	-0.084	-0.168
-585.879	-148.316	-0.109	-0.009
-584.865	110.053	-0.115	-0.140
-583.850	-200.000	0.004	0.193
-582.836	-115.642	0.108	0.021
-581.821	-118.196	0.217	-0.039
-580.806	800.000	-0.027	-0.113
-579.792	-33.736	-0.243	-0.136
-578.777	160.281	0.098	-0.139
-577.763	-200.000	-0.009	-0.164
-576.748	316.324	0.129	0.248
-575.733	-55.764	-0.242	0.110
-574.719	132.373	-0.099	0.129
-573.704	800.000	-0.080	0.261
-572.690	99.482	0.170	0.200
-571.675	-143.548	0.021	0.002
-570.661	78.538	0.098	-0.107
-569.646	614.727	-0.082	-0.210
-568.631	239.462	0.147	0.248
-567.617	169.394	-0.090	-0.130
-566.602	113.671	-0.075	0.092
-565.588	800.000	-0.103	0.357
-564.573	353.786	0.172	-0.347
-563.558	-50.876	-0.109	0.052
-562.544	-31.416	-0.429	0.245
-561.529	26.420	-0.374	-0.318
-560.515	-117.673	-0.248	0.045
-559.500	52.736	-0.239	0.232
-558.485	65.290	0.335	0.344
-557.471	-32.459	0.217	0.123
-556.456	61.474	0.292	-0.295
-555.442	-36.826	0.044	-0.024
-554.427	20.153	-0.159	0.130
-553.412	-200.000	0.038	-0.187
-552.398	-173.188	0.097	0.003
-551.383	800.000	-0.045	-0.132
-550.369	-58.800	-0.284	0.125
-549.354	-85.090	-0.027	0.008
-548.339	-0.122	-0.284	-0.205
-547.325	-121.043	0.152	-0.026
-546.310	243.095	-0.098	0.166
-545.296	-65.677	-0.042	-0.017
-544.281	81.676	0.051	-0.056
-543.266	-90.017	-0.025	-0.007
-542.252	-69.895	0.123	0.048
-541.237	800.000	0.022	0.068
-540.223	255.780	0.092	0.160
-539.208	65.613	0.119	0.122
-538.193	-115.684	0.532	-0.101
-537.179	521.882	0.130	0.311
-536.164	-73.672	0.066	-0.024
-535.150	283.280	0.139	0.254
-534.135	50.043	-0.091	0.087
-533.121	-200.000	0.002	0.176
-532.106	-5.307	0.179	-0.125
-531.091	157.663	0.097	-0.136
-530.077	-175.603	-0.215	-0.006
-529.062	8.222	0.359	-0.274
-528.048	-12.897	-0.070	0.047
-527.033	-200.000	-0.022	-0.158
-526.018	-200.000	-0.022	-0.285
-525.004	184.832	-0.083	0.125
-523.989	459.976	-0.085	-0.192
-522.975	42.458	-0.417	-0.385
-521.960	-78.837	0.221	-0.076
-520.945	800.000	0.039	-0.131
-519.931	164.618	-0.058	-0.083
-518.916	-22.972	0.147	-0.090
-517.902	-13.839	-0.353	-0.231
-516.887	-186.499	-0.213	0.003
-515.872	13.497	0.218	-0.172
-514.858	-79.291	0.141	-0.048
-513.843	800.000	-0.099	-0.399
-512.829	501.950	-0.095	0.222
-511.814	282.688	-0.078	0.141
-510.799	29.124	0.040	-0.034
-509.785	-200.000	-0.031	0.206
-508.770	-163.493	0.113	0.005
-507.756	-109.713	0.161	-0.034
-506.741	-200.000	0.065	-0.366
-505.726	70.892	-0.056	0.059
-504.712	800.000	-0.079	0.236
-503.697	800.000	0.069	-0.280
-502.683	77.927	-0.065	0.070
-501.668	36.442	-0.232	-0.208
-500.653	-200.000	-0.013	0.088
-499.639	85.666	-0.016	0.017
-498.624	22.252	0.101	-0.084
-497.610	-143.808	-0.291	-0.028
-496.595	-81.904	0.196	0.065
-495.581	-192.871	-0.295	0.003
-494.566	-104.699	-0.059	0.014
-493.551	-200.000	-0.004	-0.215
-492.537	-40.446	-0.152	0.080
-491.522	276.784	-0.080	0.144
-490.508	-160.469	0.317	0.017
-489.493	-174.818	-0.311	-0.009
-488.478	166.403	-0.073	-0.105
-487.464	-102.217	0.221	0.054
-486.449	-200.000	0.089	0.521
-485.435	-200.000	0.052	0.276
-484.420	-122.476	-0.043	-0.007
-483.405	-200.000	-0.039	-0.204
-482.391	-65.447	-0.304	0.124
-481.376	130.484	0.099	-0.128
-480.362	800.000	-0.060	-0.222
-479.347	-186.030	-0.431	0.006
-478.332	-104.089	0.064	-0.015
-477.318	586.397	-0.129	-0.322
-476.303	301.741	0.061	-0.114
-475.289	-14.601	-0.144	0.094
-474.274	69.534	0.031	-0.032
-473.259	250.945	0.063	-0.109
-472.245	164.903	0.124	-0.177
-471.230	10.717	0.344	0.266
-470.216	537.935	-0.045	0.109
-469.201	151.495	0.051	-0.070
-468.186	-200.000	0.048	-0.217
-467.172	-127.983	-0.094	-0.014
-466.157	246.207	-0.142	-0.243
-465.143	99.326	-0.059	0.069
-464.128	24.038	-0.179	-0.150
-463.113	-161.518	-0.068	-0.004
-462.099	-200.000	0.001	0.067
-461.084	175.874	0.089	-0.130
-460.070	-200.000	-0.012	-0.131
-459.055	-37.796	-0.093	0.050
-458.040	-61.432	-0.131	0.056
-457.026	-66.912	-0.220	-0.088
-456.011	-135.465	0.077	0.009
-454.997	-200.000	-0.025	0.187
-453.982	-200.000	-0.006	0.068
-452.968	800.000	-0.036	-0.101
-451.953	-110.254	0.190	-0.040
-450.938	135.181	0.051	0.067
-449.924	176.512	0.064	-0.094
-448.909	-187.289	0.404	0.006
-447.895	81.815	0.221	0.242
-446.880	-200.000	-0.006	0.456
-445.865	-128.212	-0.147	0.021
-444.851	-21.586	0.291	-0.179
-443.836	-88.375	0.404	-0.122
-442.822	31.474	0.109	0.095
-441.807	-74.627	-0.123	-0.045
-440.792	217.650	0.243	0.392
-439.778	-92.187	0.200	-0.057
-438.763	-27.593	0.216	0.127
-437.749	-96.700	0.409	0.109
-436.734	-36.405	0.239	0.130
-435.719	-200.000	-0.043	-0.210
-434.705	4.674	0.124	-0.092
-433.690	267.132	0.148	0.261
-432.676	89.554	0.153	0.173
-431.661	-47.626	-0.341	-0.167
-430.646	126.393	0.190	-0.244
-429.632	36.107	0.222	-0.197
-428.617	-200.000	-0.044	0.314
-427.603	800.000	0.083	-0.281
-426.588	-200.000	0.044	0.381
-425.573	-2.005	-0.170	-0.121
-424.559	-200.000	-0.041	-0.274
-423.544	-97.899	0.124	-0.032
-422.530	41.210	-0.146	-0.134
-421.515	-43.332	0.068	-0.035
-420.500	-104.221	0.154	0.036
-419.486	-200.000	-0.037	-0.421
-418.471	-200.000	-0.010	0.286
-417.457	-200.000	-0.011	-0.090
-416.442	-107.977	-0.195	-0.043
-415.428	641.591	0.183	0.470
-414.413	215.525	0.180	-0.288
-413.398	71.353	0.146	0.153
-412.384	-200.000	-0.004	0.055
-411.369	-200.000	0.048	-0.217
-410.355	323.626	-0.091	-0.175
-409.340	64.892	0.166	-0.169
-408.325	65.778	0.130	0.133
-407.311	-152.750	0.110	-0.008
-406.296	-112.098	-0.333	0.068
-405.282	-140.555	0.296	-0.031
-404.267	800.000	-0.029	-0.103
-403.252	39.205	-0.165	-0.149
-402.238	-77.784	-0.191	-0.066
-401.223	-200.000	0.068	-0.358
-400.209	-200.000	-0.007	-0.087
-399.194	-57.504	-0.083	0.037
-398.179	36.941	0.058	-0.052
-397.165	173.933	-0.130	0.190
-396.150	297.234	-0.217	0.403
-395.136	-90.038	0.083	-0.025
-394.121	541.606	-0.125	0.301
-393.106	-200.000	0.008	-0.581
-392.092	114.831	0.138	-0.170
-391.077	38.744	0.230	0.207
-390.063	-75.199	-0.284	-0.102
-389.048	-200.000	-0.031	0.153
-388.033	-7.728	-0.125	0.086
-387.019	78.722	-0.104	-0.113
-386.004	465.522	-0.169	0.381
-384.990	151.263	-0.168	0.230
-383.975	800.000	-0.006	0.021
-382.960	35.062	-0.121	0.107
-381.946	83.093	-0.076	0.083
-380.931	-104.851	-0.042	0.010
-379.917	175.107	0.148	0.216
-378.902	75.118	-0.167	0.178
-377.888	-200.000	-0.013	-0.167
-376.873	18.856	0.170	0.138
-375.858	87.677	-0.088	-0.098
-374.844	-200.000	0.013	-0.300
-373.829	800.000	0.125	-0.387
-372.815	-127.776	-0.240	0.035
-371.800	-44.282	-0.358	0.181
-370.785	-70.824	-0.273	-0.104
-369.771	-200.000	-0.004	0.231
-368.756	-200.000	0.024	0.140
-367.742	102.007	0.296	0.348
-366.727	148.244	0.328	0.446
-365.712	-91.579	0.332	0.095
-364.698	170.173	0.063	0.090
-363.683	-48.998	-0.115	0.056
-362.669	531.670	-0.112	0.267
-361.654	-70.829	0.212	-0.081
-360.639	11.970	0.051	0.039
-359.625	-200.000	-0.039	0.307
-358.610	54.597	0.113	0.110
-357.596	-51.512	-0.060	-0.028
-356.581	-116.846	-0.219	0.040
-355.566	161.932	0.150	0.212
-354.552	-193.526	-0.294	-0.003
-353.537	-169.371	0.214	0.008
-352.523	401.832	-0.048	-0.102
-351.508	97.284	0.137	-0.158
-350.493	504.432	-0.081	0.189
-349.479	-120.777	0.094	0.016
-348.464	428.790	0.063	0.137
-347.450	-200.000	-0.018	0.125
-346.435	-61.088	-0.242	0.103
-345.420	800.000	0.140	-0.419
-344.406	-200.000	0.002	0.386
-343.391	3.776	-0.117	0.086
-342.377	35.611	0.200	-0.177
-341.362	-200.000	-0.063	-0.416
-340.348	-27.981	-0.456	0.266
-339.333	-32.791	0.313	-0.175
-338.318	-26.201	-0.481	0.285
-337.304	-77.127	-0.478	0.168
-336.289	800.000	-0.072	-0.203
-335.275	-71.636	-0.184	0.069
-334.260	800.000	0.021	-0.071
-333.245	1.176	0.130	-0.094
-332.231	-200.000	-0.003	-0.118
-331.216	-200.000	0.021	-0.406
-330.202	5.385	-0.189	0.140
-329.187	297.780	0.188	-0.348
-328.172	146.131	0.128	0.172
-327.158	234.209	-0.084	0.139
-326.143	19.265	0.120	0.097
-325.129	79.356	0.127	-0.137
-324.114	16.522	0.235	-0.187
-323.099	-80.565	0.213	-0.072
-322.085	259.836	-0.054	-0.095
-321.070	-200.000	0.015	-0.212
-320.056	-91.265	0.210	-0.060
-319.041	-152.182	0.261	0.019
-318.026	94.683	0.133	0.152
-317.012	35.121	0.308	-0.272
-315.997	-61.066	-0.301	0.128
-314.983	245.192	-0.094	0.160
-313.968	314.088	0.075	0.143
-312.953	-200.000	-0.038	-0.240
-311.939	-148.196	0.149	-0.012
-310.924	-200.000	-0.014	-0.224
-309.910	800.000	0.022	-0.089
-308.895	800.000	0.033	0.110
-307.880	40.969	0.129	0.117
-306.866	269.632	0.199	0.351
-305.851	-200.000	-0.006	-0.239
-304.837	-44.013	0.231	0.117
-303.822	800.000	-0.109	-0.335
-302.807	186.184	-0.061	0.092
-301.793	146.773	-0.161	0.218
-300.778	5.522	0.096	0.071
-299.764	124.490	0.165	-0.209
-298.749	109.983	0.072	0.086
-297.735	800.000	-0.083	-0.256
-296.720	-200.000	-0.002	-0.359
-295.705	102.459	0.036	0.042
-294.691	-188.002	-0.484	0.006
-293.676	-100.984	0.366	0.090
-292.662	-200.000	0.031	0.399
-291.647	417.553	-0.026	-0.056
-290.632	555.616	-0.056	0.135
-289.618	146.548	0.170	-0.229
-288.603	-10.151	-0.160	-0.107
-287.589	-200.000	-0.040	0.182
-286.574	-200.000	0.008	-0.324
-285.559	-200.000	0.025	-0.244
-284.545	-155.245	0.164	0.011
-283.530	-81.237	-0.167	0.055
-282.516	-110.289	0.128	0.027
-281.501	115.591	0.002	0.002
-280.486	-96.078	-0.288	0.077
-279.472	-111.921	-0.311	0.063
-278.457	70.791	0.179	0.186
-277.443	800.000	-0.057	-0.170
-276.428	800.000	0.057	-0.162
-275.413	256.413	0.083	-0.144
-274.399	-200.000	-0.246	-0.001
-273.384	-172.065	0.175	-0.006
-272.370	800.000	-0.013	0.057
-271.355	-11.943	-0.130	-0.086
-270.340	22.558	0.065	-0.053
-269.326	-101.623	0.086	0.021
-268.311	182.493	0.085	0.125
-267.297	194.466	-0.146	0.222
-266.282	-200.000	-0.019	0.166
-265.267	-165.355	0.114	0.005
-264.253	-4.893	-0.038	0.026
-263.238	800.000	-0.060	0.219
-262.224	800.000	0.029	-0.101
-261.209	91.071	0.135	0.153
-260.195	-34.533	0.254	-0.140
-259.180	-200.000	-0.003	-0.038
-258.165	12.516	-0.143	0.111
-257.151	71.428	-0.247	0.258
-256.136	317.770	-0.269	0.511
-255.122	800.000	0.093	0.272
-254.107	192.317	0.251	0.380
-253.092	-0.329	0.261	0.186
-252.078	-44.453	-0.401	-0.202
-251.063	78.390	0.200	-0.214
-250.049	13.345	0.161	-0.125
-249.034	116.127	-0.195	0.240
-248.019	-144.386	-0.273	-0.025
-247.005	49.636	-0.164	-0.155
-245.990	-200.000	0.022	-0.205
-244.976	423.028	-0.059	-0.128
-243.961	-176.312	-0.319	0.008
-242.946	-200.000	-0.002	0.022
-241.932	542.590	-0.108	-0.258
-240.917	-98.344	-0.137	0.035
-239.903	-181.659	0.144	-0.003
-238.888	58.143	-0.169	-0.166
-237.873	129.337	-0.067	0.085
-236.859	800.000	0.025	-0.094
-235.844	729.988	0.053	-0.142
-234.830	800.000	-0.024	-0.087
-233.815	800.000	-0.090	0.260
-232.800	-193.345	0.454	0.004
-231.786	-76.159	-0.062	-0.022
-230.771	101.805	-0.140	-0.164
-229.757	-54.028	-0.185	-0.085
-228.742	144.016	-0.158	0.212
-227.727	323.501	0.093	-0.178
-226.713	208.239	-0.138	-0.216
-225.698	-200.000	-0.001	0.073
-224.684	-71.681	0.222	-0.083
-223.669	-200.000	-0.081	0.400
-222.655	-56.457	0.095	0.042
-221.640	-43.298	-0.178	-0.091
-220.625	800.000	-0.020	0.083
-219.611	-42.409	-0.152	0.078
-218.596	-44.186	-0.022	-0.011
-217.582	-32.291	0.205	-0.115
-216.567	-19.851	0.126	-0.078
-215.552	242.948	0.094	-0.158
-214.538	685.655	0.086	-0.224
-213.523	-33.242	0.135	0.075
-212.509	-93.810	0.302	0.083
-211.494	-36.782	-0.197	-0.106
-210.479	-82.848	-0.056	-0.018
-209.465	-145.938	-0.228	0.020
-208.450	800.000	0.030	0.108
-207.436	36.405	0.298	0.263
-206.421	-200.000	-0.020	0.120
-205.406	-200.000	-0.026	-0.162
-204.392	-163.165	-0.218	0.011
-203.377	-121.691	-0.276	-0.046
-202.363	-117.146	0.019	0.004
-201.348	17.117	0.017	-0.013
-200.333	-98.322	-0.072	-0.018
-199.319	125.143	0.236	0.298
-198.304	-200.000	0.009	0.081
-197.290	425.131	-0.173	0.372
-196.275	-200.000	-0.003	0.359
-195.260	-200.000	0.003	0.341
-194.246	527.326	-0.120	-0.284
-193.231	-47.191	-0.136	-0.066
-192.217	-200.000	0.025	0.252
-191.202	97.396	0.030	0.035
-190.187	271.557	-0.156	-0.274
-189.173	-119.525	-0.084	-0.015
-188.158	634.534	-0.061	-0.155
-187.144	800.000	-0.063	0.221
-186.129	9.767	-0.005	0.004
-185.114	2.339	-0.123	0.089
-184.100	-200.000	-0.019	-0.295
-183.085	604.098	-0.091	0.228
-182.071	-1.026	-0.105	0.074
-181.056	28.028	-0.226	0.191
-180.042	-200.000	-0.052	0.325
-179.027	-200.000	-0.040	-0.218
-178.012	-124.774	0.070	0.011
-176.998	-4.759	0.181	0.125
-175.983	-109.427	-0.235	0.050
-174.969	231.040	0.199	-0.326
-173.954	-36.797	0.230	0.123
-172.939	-161.422	-0.057	-0.003
-171.925	800.000	0.090	0.268
-170.910	-91.550	0.053	-0.015
-169.896	-7.934	0.081	0.054
-168.881	800.000	0.088	-0.310
-167.866	-43.265	0.109	0.055
-166.852	64.191	-0.054	-0.054
-165.837	800.000	0.124	0.464
-164.823	-200.000	-0.052	-0.341
-163.808	-106.320	0.082	-0.018
-162.793	-24.843	-0.175	-0.104
-161.779	-17.202	0.198	0.125
-160.764	83.897	0.146	0.160
-159.750	42.187	0.140	0.127
-158.735	-200.000	0.129	0.000
-157.720	598.455	-0.042	-0.104
-156.706	-200.000	-0.040	-0.204
-155.691	-149.719	0.295	-0.023
-154.677	106.817	0.320	0.380
-153.662	235.108	0.172	0.283
-152.647	281.360	0.021	-0.038
-151.633	418.707	-0.107	0.229
-150.618	331.065	0.207	0.400
-149.604	9.007	-0.121	-0.091
-148.589	190.555	-0.155	-0.233
-147.574	124.544	0.196	-0.247
-146.560	-200.000	-0.057	-0.302
-145.545	-50.368	-0.353	-0.166
-144.531	-193.660	0.030	-0.000
-143.516	-200.000	-0.011	-0.180
-142.502	-25.996	0.213	-0.125
-141.487	-16.068	-0.163	-0.103
-140.472	-200.000	0.001	0.117
-139.458	800.000	0.169	0.477
-138.443	-200.000	0.013	0.281
-137.429	99.570	0.176	0.203
-136.414	-35.542	-0.212	-0.115
-135.399	-200.000	0.007	0.219
-134.385	168.308	-0.095	0.135
-133.370	-81.819	0.055	-0.018
-132.356	-164.472	0.254	-0.012
-131.341	-152.863	0.097	-0.007
-130.326	-57.247	-0.072	-0.032
-129.312	498.228	0.076	0.174
-128.297	361.878	0.120	0.240
-127.283	-112.371	0.301	-0.060
-126.268	44.439	0.053	0.049
-125.253	-200.000	0.033	-0.150
-124.239	-49.345	0.261	-0.124
-123.224	-63.555	0.101	0.041
-122.210	800.000	-0.087	-0.269
