DTS Sentinel unit serial number:	SN413079Multiplexer serial number:	ORYXHardware model number:	OX4-SRSoftware version number:	ORYX F/W v4.00 Oryx Data Collector v3.7.2.0data status	okinstallation	princeton_trtdifferential loss correction	single-endedforward channel	channel 1reverse channel	N/Adate	2019/09/18time	12:54:35forward acquisition time	60.00reverse acquisition time	0.00gamma	496.2192k internal	0.2316k external	0.2316temperature offset calibration	0.9982default loss term (dB/km)	0.3790temperature slope calibration	1.0000multiplexer offset coefficient	1.0000multiplexer slope coefficient	1.0000fibre end	0.00T internal ref (°C)	33.19T ext. ref 1 (°C)	0.56T ext. ref 2 (°C)	29.48length (m)	temperature (°C)	Stokes	anti-Stokes-747.200	-15.243	-0.108	0.070
-746.185	-200.000	0.003	0.065
-745.171	-200.000	-0.003	0.208
-744.156	571.616	-0.155	0.383
-743.142	91.420	-0.252	0.286
-742.127	-93.111	-0.292	-0.082
-741.112	127.544	0.035	-0.044
-740.098	-182.378	-0.205	0.004
-739.083	-128.657	-0.146	0.021
-738.069	800.000	-0.140	0.404
-737.054	682.786	0.058	0.152
-736.039	-139.918	-0.401	-0.043
-735.025	283.391	0.186	-0.339
-734.010	-64.792	0.151	0.062
-732.996	-93.754	-0.360	-0.100
-731.981	413.363	0.047	0.100
-730.966	226.506	0.114	-0.188
-729.952	-200.000	0.021	0.254
-728.937	174.987	0.059	0.087
-727.923	800.000	-0.064	-0.251
-726.908	-130.580	0.266	0.036
-725.894	-0.891	-0.205	0.147
-724.879	-200.000	-0.082	-0.454
-723.864	-132.694	-0.285	0.037
-722.850	-125.078	0.144	0.022
-721.835	800.000	-0.134	0.532
-720.821	-200.000	0.091	0.435
-719.806	71.350	-0.075	0.079
-718.791	55.105	-0.324	-0.317
-717.777	-200.000	-0.050	-0.306
-716.762	-132.779	0.218	-0.028
-715.748	-86.086	-0.274	-0.086
-714.733	800.000	0.043	0.128
-713.718	-146.797	0.051	-0.004
-712.704	440.559	0.099	-0.219
-711.689	800.000	0.083	-0.314
-710.675	-164.853	0.208	0.009
-709.660	-200.000	0.013	-0.104
-708.645	497.580	-0.111	0.259
-707.631	-4.162	-0.346	0.243
-706.616	413.706	-0.134	0.289
-705.602	-151.603	0.345	0.026
-704.587	103.001	-0.220	0.260
-703.572	-129.490	-0.478	0.067
-702.558	164.807	0.132	0.189
-701.543	-66.330	-0.156	-0.063
-700.529	409.567	-0.092	-0.198
-699.514	115.342	-0.185	0.229
-698.499	-200.000	0.055	0.277
-697.485	-37.123	-0.267	0.145
-696.470	-97.848	-0.519	0.136
-695.456	232.539	-0.159	-0.263
-694.441	183.295	-0.240	0.359
-693.426	-100.889	-0.295	0.073
-692.412	-200.000	0.024	0.348
-691.397	-143.533	-0.213	-0.021
-690.383	-123.277	0.218	-0.035
-689.368	-172.561	0.176	0.006
-688.354	-200.000	0.009	-0.202
-687.339	674.276	-0.025	0.066
-686.324	-200.000	0.046	0.266
-685.310	-152.252	-0.167	-0.012
-684.295	-79.427	0.209	-0.071
-683.281	45.766	-0.129	-0.121
-682.266	719.299	0.112	-0.300
-681.251	108.541	0.163	0.197
-680.237	-64.181	-0.133	0.055
-679.222	45.012	0.240	-0.223
-678.208	38.177	0.170	-0.153
-677.193	139.808	0.043	-0.057
-676.178	71.425	-0.218	0.229
-675.164	-200.000	-0.034	-0.420
-674.149	227.510	-0.151	-0.248
-673.135	-13.948	-0.183	-0.120
-672.120	-200.000	0.004	0.133
-671.105	-200.000	0.058	-0.298
-670.091	-200.000	0.009	0.314
-669.076	-200.000	0.010	0.100
-668.062	-65.099	0.264	0.108
-667.047	511.564	-0.043	0.101
-666.032	-200.000	0.417	-0.002
-665.018	-200.000	-0.002	0.265
-664.003	1.641	-0.112	-0.082
-662.989	737.637	0.007	-0.018
-661.974	-60.956	-0.135	0.058
-660.959	-48.354	-0.093	0.045
-659.945	122.863	0.151	-0.191
-658.930	67.682	-0.020	0.021
-657.916	-42.808	0.047	0.024
-656.901	-148.145	-0.162	-0.014
-655.886	-48.078	-0.115	0.056
-654.872	-200.000	-0.021	-0.146
-653.857	327.284	-0.153	-0.296
-652.843	-132.227	0.142	-0.019
-651.828	-200.000	0.017	0.168
-650.814	800.000	0.020	0.083
-649.799	-200.000	0.034	-0.194
-648.784	800.000	0.071	-0.293
-647.770	30.426	-0.257	0.222
-646.755	800.000	-0.038	0.115
-645.741	354.669	0.077	0.154
-644.726	174.078	0.160	-0.234
-643.711	-14.566	-0.093	0.060
-642.697	332.526	0.139	-0.271
-641.682	-109.953	-0.362	0.076
-640.668	13.379	-0.142	0.111
-639.653	-200.000	-0.014	-0.081
-638.638	-178.921	-0.240	0.005
-637.624	-122.522	0.123	0.020
-636.609	-68.141	-0.248	-0.097
-635.595	-200.000	0.003	0.170
-634.580	-200.000	0.034	0.262
-633.565	-37.453	-0.268	-0.144
-632.551	-200.000	0.046	-0.241
-631.536	-200.000	0.006	0.095
-630.522	319.378	0.094	0.181
-629.507	-58.791	-0.153	0.067
-628.492	14.490	-0.102	-0.080
-627.478	-61.979	0.011	0.005
-626.463	-200.000	0.040	-0.351
-625.449	-52.214	0.310	-0.145
-624.434	800.000	0.047	-0.189
-623.419	101.671	0.193	0.227
-622.405	210.603	0.198	-0.313
-621.390	526.531	-0.092	-0.218
-620.376	800.000	-0.136	0.519
-619.361	150.627	-0.125	0.171
-618.346	800.000	0.068	-0.237
-617.332	-155.601	-0.081	-0.005
-616.317	800.000	0.025	-0.094
-615.303	-108.429	0.256	-0.056
-614.288	-169.582	-0.150	-0.006
-613.273	800.000	0.048	0.155
-612.259	-67.837	-0.222	-0.088
-611.244	55.950	0.180	-0.176
-610.230	6.997	0.095	-0.071
-609.215	41.813	-0.195	-0.178
-608.201	-96.756	0.107	0.028
-607.186	-200.000	-0.026	0.338
-606.171	-28.207	-0.065	-0.038
-605.157	46.903	0.283	-0.265
-604.142	158.613	0.200	0.280
-603.128	-37.199	-0.176	-0.095
-602.113	1.678	0.188	0.137
-601.098	-131.620	0.231	-0.031
-600.084	-93.294	-0.118	-0.033
-599.069	-46.188	0.201	0.099
-598.055	-79.260	0.230	0.078
-597.040	84.540	-0.073	0.081
-596.025	-197.788	-0.150	-0.001
-595.011	15.542	-0.216	0.171
-593.996	241.281	-0.119	0.199
-592.982	40.432	-0.234	0.212
-591.967	147.813	-0.108	-0.146
-590.952	61.747	-0.145	0.146
-589.938	184.129	0.140	0.209
-588.923	800.000	-0.081	0.318
-587.909	117.991	0.136	0.169
-586.894	-13.976	0.099	-0.065
-585.879	496.768	-0.119	0.274
-584.865	800.000	-0.059	0.181
-583.850	-103.412	-0.267	0.063
-582.836	-178.735	0.390	-0.009
-581.821	-200.000	-0.026	0.125
-580.806	-184.733	-0.411	0.007
-579.792	-200.000	-0.013	0.351
-578.777	-200.000	0.012	0.225
-577.763	-11.272	-0.203	0.134
-576.748	240.374	0.204	0.341
-575.733	80.953	0.095	-0.103
-574.719	180.972	-0.267	0.394
-573.704	402.249	0.072	-0.152
-572.690	368.896	0.037	-0.075
-571.675	373.517	-0.067	-0.137
-570.661	-200.000	-0.008	-0.247
-569.646	50.162	0.042	-0.040
-568.631	-141.834	0.495	0.050
-567.617	-84.764	0.143	-0.045
-566.602	-59.269	0.216	-0.094
-565.588	-40.886	0.133	0.069
-564.573	-11.015	0.237	0.157
-563.558	-12.872	-0.291	0.190
-562.544	-200.000	-0.002	0.011
-561.529	-200.000	-0.016	-0.284
-560.515	-47.853	0.244	-0.119
-559.500	-166.188	-0.419	-0.018
-558.485	22.719	-0.180	-0.148
-557.471	73.934	0.190	-0.200
-556.456	-96.105	0.457	-0.122
-555.442	519.637	-0.053	-0.126
-554.427	64.499	-0.105	-0.106
-553.412	-104.500	0.441	0.102
-552.398	194.158	-0.156	-0.237
-551.383	-200.000	0.017	0.293
-550.369	800.000	0.079	-0.267
-549.354	62.671	-0.381	-0.382
-548.339	-159.937	-0.212	0.012
-547.325	-120.687	-0.230	0.039
-546.310	-195.220	0.304	-0.002
-545.296	-77.218	-0.158	-0.055
-544.281	93.889	0.155	-0.177
-543.266	-50.465	0.241	0.114
-542.252	-200.000	-0.028	-0.306
-541.237	73.932	0.327	-0.345
-540.223	377.945	-0.118	-0.242
-539.208	-200.000	-0.023	-0.176
-538.193	-161.270	-0.101	0.005
-537.179	-106.871	-0.247	-0.055
-536.164	800.000	-0.095	-0.344
-535.150	-177.669	-0.286	0.007
-534.135	-3.222	0.210	0.147
-533.121	222.710	0.175	-0.283
-532.106	17.951	-0.114	0.091
-531.091	-98.111	0.106	0.027
-530.077	351.874	-0.026	-0.051
-529.062	178.407	0.145	-0.213
-528.048	-200.000	-0.013	0.308
-527.033	191.632	-0.159	-0.240
-526.018	-163.407	-0.169	0.008
-525.004	-57.928	-0.131	0.057
-523.989	-149.651	0.181	-0.014
-522.975	28.141	0.250	-0.212
-521.960	-41.113	-0.492	-0.255
-520.945	159.629	-0.129	0.181
-519.931	-170.888	-0.063	0.002
-518.916	-128.748	0.121	0.017
-517.902	168.949	0.053	-0.076
-516.887	-200.000	-0.080	-0.384
-515.872	616.527	0.078	0.196
-514.858	220.345	-0.083	0.133
-513.843	11.313	-0.249	-0.192
-512.829	0.747	0.248	0.178
-511.814	-154.099	-0.167	-0.011
-510.799	800.000	0.029	-0.094
-509.785	572.867	0.036	0.088
-508.770	155.378	-0.185	0.256
-507.756	147.381	0.045	-0.060
-506.741	66.721	0.257	0.263
-505.726	545.736	0.055	-0.132
-504.712	-200.000	0.016	0.191
-503.697	-84.842	-0.229	-0.072
-502.683	8.605	0.365	0.276
-501.668	-41.422	0.054	-0.028
-500.653	-200.000	0.036	-0.245
-499.639	-140.797	0.041	0.004
-498.624	-200.000	-0.001	0.078
-497.610	328.896	0.152	0.293
-496.595	14.552	-0.242	-0.190
-495.581	81.067	0.380	0.411
-494.566	-13.506	-0.248	0.162
-493.551	-47.054	-0.149	0.073
-492.537	-64.452	0.101	-0.041
-491.522	281.916	-0.066	-0.118
-490.508	466.510	-0.103	-0.231
-489.493	-200.000	0.033	0.157
-488.478	-200.000	0.002	0.034
-487.464	533.093	-0.066	-0.157
-486.449	-200.000	0.047	-0.238
-485.435	376.765	-0.007	0.014
-484.420	-48.581	-0.178	0.086
-483.405	800.000	-0.066	0.189
-482.391	-115.409	0.167	-0.031
-481.376	140.076	-0.100	-0.132
-480.362	-95.248	0.066	-0.018
-479.347	14.908	0.221	-0.173
-478.332	497.010	-0.106	-0.244
-477.318	-67.747	0.230	0.090
-476.303	-127.432	-0.148	0.022
-475.289	800.000	0.098	-0.419
-474.274	-131.478	-0.247	-0.033
-473.259	21.894	0.065	-0.053
-472.245	54.694	0.222	-0.215
-471.230	124.990	0.189	-0.238
-470.216	-16.400	-0.116	0.073
-469.201	-18.125	-0.246	-0.154
-468.186	-157.198	0.125	-0.008
-467.172	57.482	-0.193	-0.189
-466.157	-200.000	0.125	-0.000
-465.143	800.000	0.035	0.149
-464.128	-200.000	0.012	0.431
-463.113	-48.488	-0.067	0.032
-462.099	26.358	0.244	0.204
-461.084	-118.823	-0.103	-0.018
-460.070	-200.000	0.035	0.271
-459.055	800.000	-0.059	0.190
-458.040	-165.502	-0.088	0.004
-457.026	288.857	-0.205	-0.372
-456.011	-7.494	-0.472	-0.320
-454.997	-111.874	0.265	-0.054
-453.982	496.643	0.117	0.270
-452.968	-5.198	-0.105	0.072
-451.953	800.000	0.086	0.270
-450.938	-200.000	0.010	0.070
-449.924	800.000	0.054	-0.196
-448.909	-142.539	0.143	-0.014
-447.895	-200.000	-0.121	0.000
-446.880	-200.000	-0.022	0.148
-445.865	-23.942	0.192	-0.115
-444.851	48.585	0.090	-0.084
-443.836	176.238	0.059	-0.086
-442.822	-200.000	-0.035	-0.255
-441.807	291.526	-0.045	-0.082
-440.792	-50.954	-0.139	0.065
-439.778	78.464	0.175	0.187
-438.763	1.507	-0.258	-0.186
-437.749	-28.317	-0.123	-0.071
-436.734	-38.729	-0.087	0.046
-435.719	719.154	-0.062	0.164
-434.705	-102.216	-0.134	-0.032
-433.690	-200.000	-0.014	0.462
-432.676	-182.994	-0.221	0.004
-431.661	-35.116	0.119	0.065
-430.646	138.493	-0.081	0.106
-429.632	-81.983	0.185	0.061
-428.617	-22.738	-0.488	0.295
-427.603	-200.000	0.010	-0.097
-426.588	-200.000	0.002	0.032
-425.573	74.405	-0.019	-0.020
-424.559	-12.333	-0.126	0.082
-423.544	150.173	-0.114	0.155
-422.530	-200.000	-0.052	0.325
-421.515	209.679	-0.085	0.133
-420.500	-62.847	-0.542	-0.224
-419.486	52.384	-0.233	0.222
-418.471	-65.685	0.065	-0.026
-417.457	-96.061	-0.395	0.105
-416.442	800.000	0.116	-0.466
-415.428	-45.450	0.220	-0.109
-414.413	234.115	0.103	-0.170
-413.398	-200.000	0.002	0.190
-412.384	256.065	-0.232	-0.399
-411.369	-200.000	0.001	0.022
-410.355	-145.027	0.170	-0.016
-409.340	-200.000	0.021	-0.329
-408.325	-100.117	0.198	-0.049
-407.311	449.607	-0.024	0.052
-406.296	3.345	-0.105	-0.076
-405.282	-133.153	0.192	0.024
-404.267	369.071	0.046	0.093
-403.252	17.064	0.167	0.132
-402.238	322.225	-0.132	0.252
-401.223	-142.412	-0.462	-0.045
-400.209	800.000	-0.125	-0.432
-399.194	13.669	-0.189	-0.146
-398.179	-141.295	0.417	-0.042
-397.165	-24.940	0.316	0.187
-396.150	800.000	0.085	-0.257
-395.136	800.000	-0.059	0.222
-394.121	-200.000	0.046	0.222
-393.106	89.402	-0.028	0.031
-392.092	-32.958	0.117	-0.065
-391.077	-200.000	-0.064	-0.518
-390.063	22.166	0.166	0.135
-389.048	82.276	0.387	0.419
-388.033	-19.711	0.198	0.122
-387.019	242.905	-0.169	0.282
-386.004	-200.000	0.022	0.248
-384.990	-62.170	0.072	-0.030
-383.975	800.000	-0.103	-0.349
-382.960	-101.076	0.280	0.068
-381.946	27.423	0.309	0.260
-380.931	-200.000	-0.002	-0.460
-379.917	-200.000	-0.006	-0.082
-378.902	34.770	-0.169	-0.148
-377.888	-127.779	0.294	-0.042
-376.873	80.484	0.057	-0.061
-375.858	212.374	0.095	-0.149
-374.844	-42.986	0.141	0.071
-373.829	-85.694	0.060	-0.019
-372.815	27.310	0.135	-0.113
-371.800	-28.404	-0.128	-0.074
-370.785	-124.175	0.548	-0.086
-369.771	12.419	0.200	-0.154
-368.756	-2.500	0.210	-0.147
-367.742	279.000	0.018	-0.033
-366.727	-79.972	0.314	0.105
-365.712	440.766	-0.078	0.169
-364.698	270.161	-0.073	0.128
-363.683	-94.695	-0.264	0.072
-362.669	-200.000	0.037	0.180
-361.654	22.263	-0.196	0.160
-360.639	221.119	-0.099	0.159
-359.625	-45.135	0.166	-0.082
-358.610	800.000	-0.111	-0.330
-357.596	678.503	0.140	-0.362
-356.581	33.601	-0.149	-0.129
-355.566	-200.000	-0.013	-0.087
-354.552	-43.875	-0.305	-0.153
-353.537	103.733	-0.218	-0.255
-352.523	366.851	-0.046	-0.092
-351.508	-20.251	-0.262	-0.161
-350.493	86.434	0.110	-0.121
-349.479	-200.000	-0.063	0.291
-348.464	50.731	-0.069	0.065
-347.450	-29.197	0.216	-0.123
-346.435	298.099	0.073	-0.135
-345.420	-19.585	-0.204	-0.126
-344.406	-30.770	0.308	0.174
-343.391	800.000	0.075	-0.230
-342.377	136.595	0.076	-0.099
-341.362	-200.000	-0.031	0.242
-340.348	-49.551	0.218	-0.104
-339.333	28.098	0.231	-0.195
-338.318	-96.650	0.148	-0.039
-337.304	-200.000	-0.004	-0.215
-336.289	31.684	0.144	-0.124
-335.275	-125.468	0.194	0.029
-334.260	30.785	0.283	0.242
-333.245	311.337	-0.045	0.084
-332.231	-37.949	0.231	-0.122
-331.216	-200.000	-0.010	0.056
-330.202	800.000	0.069	0.226
-329.187	-200.000	-0.009	0.116
-328.172	56.415	0.229	-0.221
-327.158	-200.000	-0.023	0.259
-326.143	-119.607	-0.275	0.047
-325.129	-80.633	0.300	-0.099
-324.114	487.693	-0.124	0.282
-323.099	-148.529	0.338	0.028
-322.085	-200.000	-0.006	0.339
-321.070	439.208	0.080	-0.175
-320.056	800.000	0.110	-0.364
-319.041	78.637	0.193	-0.206
-318.026	101.150	-0.194	-0.224
-317.012	-66.175	0.157	-0.062
-315.997	-97.138	-0.165	-0.043
-314.983	-96.531	-0.234	0.062
-313.968	115.021	-0.114	0.138
-312.953	105.197	0.120	-0.141
-311.939	-56.369	0.153	-0.068
-310.924	-98.473	-0.338	0.086
-309.910	-28.500	0.161	0.092
-308.895	-71.065	0.133	0.050
-307.880	-73.455	-0.126	-0.046
-306.866	-187.882	-0.189	-0.002
-305.851	-9.148	-0.173	0.115
-304.837	187.048	-0.076	-0.113
-303.822	-200.000	0.019	-0.277
-302.807	82.111	-0.369	0.398
-301.793	800.000	-0.025	0.107
-300.778	-72.221	0.318	0.118
-299.764	5.981	-0.091	0.067
-298.749	265.188	-0.231	0.400
-297.735	-200.000	0.023	0.187
-296.720	33.510	-0.298	-0.258
-295.705	-58.209	0.214	-0.093
-294.691	-39.423	0.341	-0.178
-293.676	-200.000	0.044	-0.316
-292.662	-123.151	0.069	-0.011
-291.647	-200.000	-0.011	0.131
-290.632	-37.199	0.196	-0.104
-289.618	19.708	0.196	0.157
-288.603	-148.253	-0.205	0.017
-287.589	-171.884	-0.248	-0.008
-286.574	-200.000	0.009	0.236
-285.559	89.325	-0.178	-0.198
-284.545	114.201	0.162	0.196
-283.530	0.945	0.327	0.233
-282.516	331.797	0.246	0.472
-281.501	800.000	0.009	-0.036
-280.486	588.672	-0.159	0.390
-279.472	-152.889	0.143	0.010
-278.457	-200.000	-0.049	0.257
-277.443	138.999	-0.106	0.138
-276.428	-172.946	0.267	-0.008
-275.413	-169.742	-0.269	-0.010
-274.399	800.000	0.037	0.110
-273.384	-120.787	0.458	-0.077
-272.370	800.000	-0.060	-0.169
-271.355	40.653	-0.161	0.144
-270.340	-68.843	0.091	-0.035
-269.326	-171.555	0.217	-0.007
-268.311	-200.000	-0.045	-0.356
-267.297	800.000	0.010	-0.031
-266.282	15.429	-0.301	0.235
-265.267	511.959	-0.053	0.123
-264.253	49.184	-0.286	0.267
-263.238	44.687	-0.139	-0.127
-262.224	36.017	-0.134	-0.117
-261.209	-114.392	0.254	0.049
-260.195	-7.357	-0.071	0.048
-259.180	-200.000	-0.018	-0.253
-258.165	-115.386	0.194	0.036
-257.151	48.886	-0.182	0.170
-256.136	23.216	0.228	-0.186
-255.122	365.660	0.028	-0.056
-254.107	-162.628	-0.445	0.022
-253.092	-146.268	0.487	0.042
-252.078	-75.426	-0.157	-0.056
-251.063	28.367	-0.215	0.181
-250.049	-200.000	-0.023	0.195
-249.034	800.000	-0.019	0.076
-248.019	-200.000	0.041	0.188
-247.005	800.000	-0.053	-0.157
-245.990	59.032	-0.004	-0.004
-244.976	321.637	-0.156	-0.295
-243.961	-90.286	-0.174	-0.050
-242.946	-200.000	-0.004	0.073
-241.932	-147.873	-0.228	-0.019
-240.917	-80.853	-0.185	-0.061
-239.903	65.059	0.168	-0.168
-238.888	144.208	0.226	-0.299
-237.873	800.000	0.024	0.074
-236.859	623.764	-0.170	-0.425
-235.844	494.637	0.064	0.145
-234.830	-5.873	0.211	0.143
-233.815	-200.000	-0.008	0.218
-232.800	-200.000	-0.013	-0.242
-231.786	-112.116	-0.189	0.038
-230.771	-127.861	-0.081	0.012
-229.757	114.892	-0.102	0.123
-228.742	-120.804	0.284	0.047
-227.727	220.375	-0.104	-0.165
-226.713	-152.557	-0.146	0.010
-225.698	44.154	-0.211	0.192
-224.684	800.000	-0.073	0.283
-223.669	44.145	-0.145	0.132
-222.655	342.717	-0.052	-0.101
-221.640	-153.377	0.248	-0.017
-220.625	134.316	-0.210	-0.270
-219.611	20.687	-0.220	-0.177
-218.596	-183.653	-0.429	-0.007
-217.582	-67.681	0.426	-0.165
-216.567	348.833	0.080	0.157
-215.552	92.182	-0.159	-0.178
-214.538	800.000	0.101	0.348
-213.523	566.161	0.137	0.329
-212.509	-62.910	-0.217	0.089
-211.494	491.164	0.033	0.076
-210.479	413.467	0.079	-0.167
-209.465	-15.380	0.187	0.119
-208.450	800.000	-0.029	0.095
-207.436	782.099	0.015	0.041
-206.421	-15.628	0.220	0.139
-205.406	31.239	0.219	-0.186
-204.392	800.000	-0.063	0.253
-203.377	296.067	-0.106	-0.193
-202.363	-11.977	0.171	-0.111
-201.348	-199.198	-0.097	-0.001
-200.333	696.298	0.064	0.167
-199.319	-200.000	0.035	-0.198
-198.304	678.955	0.082	0.212
-197.290	-200.000	-0.062	-0.360
-196.275	-82.732	-0.036	0.011
-195.260	-200.000	-0.005	-0.146
-194.246	-74.308	-0.318	0.114
-193.231	-147.114	-0.210	0.018
-192.217	-55.641	0.313	-0.139
-191.202	96.178	-0.095	-0.108
-190.187	-152.414	-0.289	0.021
-189.173	-200.000	0.008	-0.104
-188.158	26.223	-0.192	0.159
-187.144	125.566	0.180	0.226
-186.129	119.919	-0.168	0.206
-185.114	79.725	0.169	0.179
-184.100	64.682	0.053	-0.053
-183.085	-200.000	0.189	0.000
-182.071	-200.000	0.070	-0.346
-181.056	15.228	-0.181	0.141
-180.042	247.359	-0.094	-0.157
-179.027	-200.000	0.004	-0.326
-178.012	-28.998	-0.288	-0.164
-176.998	91.105	0.226	0.251
-175.983	-200.000	-0.005	0.193
-174.969	265.518	0.071	-0.123
-173.954	800.000	-0.046	0.168
-172.939	637.475	0.053	0.134
-171.925	-39.530	-0.230	0.119
-170.910	-73.593	-0.355	0.128
-169.896	800.000	0.111	0.411
-168.881	189.742	0.028	-0.042
-167.866	785.389	0.026	-0.071
-166.852	-33.431	0.241	0.132
-165.837	169.098	0.093	0.131
-164.823	-200.000	-0.016	-0.109
-163.808	103.259	-0.006	-0.007
-162.793	72.643	0.179	0.185
-161.779	-158.534	-0.189	0.011
-160.764	-94.981	-0.341	0.091
-159.750	-200.000	-0.013	-0.443
-158.735	-114.139	0.170	0.032
-157.720	386.056	-0.093	-0.190
-156.706	-114.111	0.147	0.028
-155.691	-200.000	-0.048	0.213
-154.677	800.000	0.081	0.269
-153.662	-200.000	0.034	-0.194
-152.647	-153.156	0.279	-0.019
-151.633	-71.567	-0.306	0.113
-150.618	800.000	0.060	0.228
-149.604	-200.000	-0.024	0.167
-148.589	-71.497	-0.217	0.080
-147.574	-27.641	-0.244	0.140
-146.560	417.174	0.056	-0.119
-145.545	-200.000	0.025	0.137
-144.531	127.143	0.320	0.402
-143.516	38.530	-0.100	0.089
-142.502	-124.649	0.134	-0.021
-141.487	-38.641	-0.216	0.113
-140.472	630.669	0.117	-0.294
-139.458	65.928	-0.173	-0.173
-138.443	21.724	-0.053	-0.043
-137.429	-118.508	0.225	-0.039
-136.414	-200.000	-0.007	-0.183
-135.399	-112.884	0.236	0.046
-134.385	133.777	0.286	-0.366
-133.370	158.679	0.075	0.102
-132.356	-59.176	0.354	0.151
-131.341	-164.384	0.381	-0.017
-130.326	207.138	-0.065	0.100
-129.312	-200.000	0.050	0.224
-128.297	-129.859	0.264	-0.036
-127.283	-41.468	0.237	-0.121
-126.268	37.944	-0.364	-0.320
-125.253	404.961	0.118	-0.245
-124.239	104.801	-0.094	-0.109
-123.224	-104.350	-0.058	-0.013
-122.210	-31.774	-0.173	0.096
