DTS Sentinel unit serial number:	SN413079Multiplexer serial number:	ORYXHardware model number:	OX4-SRSoftware version number:	ORYX F/W v4.00 Oryx Data Collector v3.7.2.0data status	okinstallation	princeton_trtdifferential loss correction	single-endedforward channel	channel 1reverse channel	N/Adate	2019/09/14time	15:54:35forward acquisition time	60.00reverse acquisition time	0.00gamma	496.2192k internal	0.2295k external	0.2295temperature offset calibration	1.0067default loss term (dB/km)	0.3790temperature slope calibration	1.0000multiplexer offset coefficient	1.0000multiplexer slope coefficient	1.0000fibre end	0.00T internal ref (°C)	38.67T ext. ref 1 (°C)	5.12T ext. ref 2 (°C)	33.31length (m)	temperature (°C)	Stokes	anti-Stokes-747.200	123.396	0.234	-0.300
-746.185	-21.345	0.210	-0.131
-745.171	-200.000	0.005	-0.154
-744.156	196.442	-0.161	0.251
-743.142	-200.000	-0.042	0.266
-742.127	800.000	-0.036	0.128
-741.112	752.343	-0.072	-0.199
-740.098	42.379	-0.099	0.092
-739.083	-132.171	0.082	0.011
-738.069	-149.228	0.108	0.009
-737.054	800.000	0.101	-0.410
-736.039	41.976	-0.256	0.237
-735.025	-44.962	-0.138	0.070
-734.010	-88.335	-0.503	-0.154
-732.996	-41.570	0.163	-0.085
-731.981	-67.359	-0.321	0.129
-730.966	164.211	-0.065	-0.093
-729.952	-48.432	0.101	-0.050
-728.937	2.638	0.327	-0.242
-727.923	-200.000	0.023	-0.104
-726.908	-200.000	0.017	0.229
-725.894	-200.000	0.010	-0.057
-724.879	183.219	-0.272	-0.410
-723.864	-140.999	0.289	-0.030
-722.850	574.376	-0.033	0.082
-721.835	153.447	-0.059	-0.082
-720.821	280.021	0.024	-0.045
-719.806	-11.491	-0.204	0.137
-718.791	-134.980	0.248	0.031
-717.777	-24.105	-0.121	-0.074
-716.762	279.501	0.096	-0.176
-715.748	-106.448	-0.210	-0.048
-714.733	-91.838	-0.148	-0.043
-713.718	-66.737	-0.103	-0.042
-712.704	-168.099	-0.309	-0.012
-711.689	303.595	-0.136	0.258
-710.675	43.404	-0.112	-0.105
-709.660	-162.956	0.073	0.004
-708.645	279.345	0.174	-0.317
-707.631	283.281	-0.088	-0.161
-706.616	-79.723	0.362	-0.124
-705.602	12.040	0.066	0.052
-704.587	259.099	-0.255	0.450
-703.572	-200.000	-0.008	-0.154
-702.558	-200.000	0.045	-0.492
-701.543	-65.788	-0.359	-0.146
-700.529	590.990	-0.028	-0.071
-699.514	216.190	-0.074	-0.119
-698.499	-49.873	0.262	0.127
-697.485	239.452	-0.089	0.152
-696.470	103.323	0.107	0.128
-695.456	35.595	0.017	-0.015
-694.441	-200.000	-0.009	-0.339
-693.426	-36.211	0.241	-0.133
-692.412	145.965	-0.195	0.267
-691.397	-65.273	-0.094	0.039
-690.383	-107.971	0.411	-0.091
-689.368	-43.074	0.222	-0.115
-688.354	448.657	0.200	-0.449
-687.339	-200.000	0.010	-0.312
-686.324	-200.000	-0.002	-0.178
-685.310	-99.459	-0.567	-0.145
-684.295	395.624	0.013	0.027
-683.281	-80.175	-0.186	-0.063
-682.266	666.900	0.066	0.175
-681.251	-200.000	-0.155	-0.001
-680.237	-36.783	0.349	-0.191
-679.222	97.697	-0.394	0.462
-678.208	-120.184	0.048	-0.008
-677.193	392.190	-0.055	0.117
-676.178	-33.136	-0.276	-0.156
-675.164	354.940	0.106	0.214
-674.149	-31.989	-0.061	0.035
-673.135	-45.828	0.259	0.130
-672.120	-200.000	-0.037	-0.433
-671.105	-85.961	-0.188	0.059
-670.091	-122.980	0.281	0.046
-669.076	-124.090	-0.346	-0.055
-668.062	-51.860	0.135	0.064
-667.047	37.475	-0.229	0.207
-666.032	-113.833	0.062	0.012
-665.018	-113.271	0.275	0.055
-664.003	456.334	-0.151	-0.342
-662.989	-84.071	-0.407	0.132
-661.974	133.401	-0.165	-0.218
-660.959	-200.000	-0.012	-0.138
-659.945	776.062	-0.041	-0.114
-658.930	-105.980	0.204	-0.047
-657.916	-90.958	-0.175	0.051
-656.901	28.695	-0.191	-0.165
-655.886	-126.717	-0.151	0.023
-654.872	-200.000	0.036	0.345
-653.857	-74.702	0.109	0.040
-652.843	-121.373	-0.137	0.023
-651.828	-176.882	0.256	0.007
-650.814	-148.291	-0.081	-0.007
-649.799	229.747	-0.051	0.085
-648.784	-139.199	-0.023	-0.002
-647.770	465.945	0.147	-0.336
-646.755	800.000	-0.090	0.357
-645.741	-200.000	0.002	-0.067
-644.726	-200.000	0.013	-0.181
-643.711	101.978	-0.144	-0.171
-642.697	275.305	0.198	-0.358
-641.682	-161.433	0.151	0.008
-640.668	569.594	0.097	-0.240
-639.653	244.714	-0.179	-0.306
-638.638	-25.584	-0.348	-0.209
-637.624	-107.258	-0.184	0.041
-636.609	-74.648	0.104	-0.038
-635.595	32.632	-0.024	-0.021
-634.580	-200.000	0.010	-0.221
-633.565	12.659	-0.194	0.152
-632.551	405.498	-0.069	-0.147
-631.536	621.081	-0.051	0.131
-630.522	-13.298	-0.404	-0.267
-629.507	175.160	-0.010	-0.015
-628.492	22.126	-0.047	-0.039
-627.478	800.000	0.048	-0.158
-626.463	259.478	-0.144	-0.253
-625.449	-200.000	0.031	0.214
-624.434	416.314	-0.114	0.248
-623.419	-200.000	-0.004	0.054
-622.405	-39.301	-0.185	-0.099
-621.390	162.006	-0.264	-0.377
-620.376	451.788	-0.059	0.132
-619.361	23.146	-0.142	0.119
-618.346	357.689	-0.093	-0.189
-617.332	800.000	-0.113	-0.320
-616.317	-53.822	-0.089	-0.041
-615.303	198.354	-0.044	-0.069
-614.288	683.035	0.044	0.116
-613.273	800.000	0.092	-0.324
-612.259	800.000	0.034	-0.130
-611.244	800.000	0.016	0.073
-610.230	-200.000	0.035	0.223
-609.215	-78.194	-0.066	-0.023
-608.201	-42.131	0.037	-0.019
-607.186	800.000	-0.061	0.227
-606.171	-200.000	-0.012	0.112
-605.157	-94.808	0.056	-0.015
-604.142	-155.001	0.066	-0.004
-603.128	-43.542	-0.033	-0.017
-602.113	160.065	-0.112	0.158
-601.098	-72.707	0.177	-0.066
-600.084	9.513	0.043	0.033
-599.069	-200.000	-0.040	0.181
-598.055	117.615	0.164	0.206
-597.040	-2.462	-0.112	0.080
-596.025	-71.489	-0.372	0.141
-595.011	260.377	-0.084	-0.148
-593.996	-69.969	0.177	-0.069
-592.982	-70.674	0.323	-0.124
-591.967	800.000	-0.023	0.080
-590.952	161.817	-0.131	0.186
-589.938	-143.430	0.118	0.011
-588.923	163.555	0.180	0.258
-587.909	4.066	-0.169	-0.125
-586.894	19.415	0.183	-0.149
-585.879	-31.708	0.109	0.062
-584.865	101.356	0.295	-0.349
-583.850	134.835	0.055	0.073
-582.836	-93.590	-0.091	-0.025
-581.821	-121.908	0.193	0.032
-580.806	-140.102	0.390	-0.042
-579.792	590.276	-0.130	0.326
-578.777	-200.000	-0.023	0.318
-577.763	-40.613	0.108	-0.057
-576.748	-6.500	0.275	-0.191
-575.733	800.000	0.057	-0.181
-574.719	-128.063	-0.078	-0.011
-573.704	-193.528	-0.200	-0.002
-572.690	-200.000	-0.014	0.169
-571.675	-200.000	-0.027	-0.213
-570.661	-100.830	-0.188	-0.047
-569.646	-200.000	-0.003	0.200
-568.631	94.854	0.142	-0.164
-567.617	-8.267	-0.117	-0.080
-566.602	-200.000	0.059	0.360
-565.588	210.495	0.126	0.201
-564.573	-111.096	-0.460	0.096
-563.558	4.019	0.031	0.023
-562.544	206.588	0.043	-0.068
-561.529	-17.715	-0.129	0.082
-560.515	800.000	0.085	0.279
-559.500	-186.528	-0.310	0.004
-558.485	408.013	0.111	0.238
-557.471	-200.000	0.016	-0.282
-556.456	-200.000	0.032	-0.172
-555.442	800.000	-0.093	-0.292
-554.427	800.000	-0.162	0.487
-553.412	642.063	0.131	-0.339
-552.398	381.827	-0.060	-0.125
-551.383	-133.913	0.169	0.021
-550.369	-12.493	-0.131	0.087
-549.354	-14.248	-0.191	0.125
-548.339	667.811	-0.175	-0.458
-547.325	92.017	0.163	-0.187
-546.310	227.467	-0.114	-0.188
-545.296	66.708	0.108	-0.111
-544.281	-200.000	-0.031	-0.235
-543.266	-16.589	-0.215	0.138
-542.252	614.224	-0.064	-0.163
-541.237	-167.552	-0.084	-0.003
-540.223	-68.122	0.158	-0.062
-539.208	-96.111	0.110	-0.030
-538.193	88.987	0.123	0.139
-537.179	231.561	-0.089	0.148
-536.164	337.845	0.096	0.190
-535.150	-141.667	0.157	-0.016
-534.135	-164.220	-0.462	0.022
-533.121	115.151	-0.044	-0.055
-532.106	740.769	-0.027	-0.073
-531.091	15.878	-0.203	-0.162
-530.077	-150.593	0.054	0.004
-529.062	-73.525	-0.109	-0.040
-528.048	23.693	-0.204	0.170
-527.033	-84.313	-0.090	0.029
-526.018	132.728	0.097	-0.127
-525.004	23.419	-0.215	0.179
-523.989	-20.947	-0.197	-0.122
-522.975	121.507	-0.116	0.146
-521.960	-174.812	-0.594	0.017
-520.945	26.760	0.125	0.106
-519.931	-124.316	0.225	-0.036
-518.916	48.764	0.274	-0.261
-517.902	730.284	-0.088	-0.238
-516.887	360.532	0.198	0.401
-515.872	-156.850	0.256	-0.016
-514.858	800.000	-0.070	0.200
-513.843	-61.659	-0.237	0.101
-512.829	-96.473	0.412	0.110
-511.814	225.911	-0.046	-0.075
-510.799	800.000	-0.094	-0.277
-509.785	31.450	0.089	-0.078
-508.770	800.000	0.014	-0.051
-507.756	743.186	0.058	-0.159
-506.741	180.523	0.141	0.209
-505.726	-200.000	-0.011	-0.173
-504.712	800.000	-0.080	0.312
-503.697	-96.825	-0.318	-0.085
-502.683	125.444	-0.038	0.048
-501.668	28.716	0.082	-0.071
-500.653	158.487	-0.133	-0.187
-499.639	-120.186	0.301	0.052
-498.624	-59.289	0.124	0.054
-497.610	-186.933	-0.070	-0.001
-496.595	36.774	0.062	-0.055
-495.581	-200.000	0.021	0.139
-494.566	-96.631	-0.445	-0.119
-493.551	-112.514	0.226	-0.046
-492.537	-5.752	0.385	0.267
-491.522	23.579	0.137	-0.114
-490.508	-108.958	-0.038	-0.008
-489.493	292.396	0.081	0.149
-488.478	-200.000	-0.009	-0.208
-487.464	-92.934	-0.147	-0.042
-486.449	-54.801	0.355	-0.162
-485.435	479.768	-0.140	0.321
-484.420	-81.475	-0.124	0.041
-483.405	-137.508	0.232	-0.027
-482.391	52.175	-0.135	0.130
-481.376	45.831	0.077	0.072
-480.362	145.621	0.169	-0.229
-479.347	-200.000	0.012	0.270
-478.332	-127.673	0.235	0.034
-477.318	444.827	-0.100	-0.223
-476.303	194.008	-0.324	-0.497
-475.289	-176.191	-0.399	0.011
-474.274	-32.047	0.384	-0.217
-473.259	800.000	-0.057	-0.212
-472.245	-63.728	-0.238	0.099
-471.230	243.637	-0.090	0.152
-470.216	83.856	0.168	-0.185
-469.201	-10.682	0.332	0.222
-468.186	-110.735	0.176	0.037
-467.172	-66.965	-0.184	0.073
-466.157	33.685	0.170	0.149
-465.143	-200.000	-0.003	0.084
-464.128	67.579	0.174	-0.180
-463.113	522.381	0.025	-0.059
-462.099	60.507	0.103	0.104
-461.084	-200.000	-0.026	0.237
-460.070	800.000	-0.021	-0.086
-459.055	800.000	-0.027	-0.077
-458.040	-200.000	-0.039	-0.192
-457.026	800.000	-0.014	-0.058
-456.011	-18.204	0.137	0.087
-454.997	1.975	0.068	0.049
-453.982	-6.676	0.239	-0.164
-452.968	-138.704	-0.015	0.002
-451.953	800.000	-0.090	0.324
-450.938	800.000	-0.079	0.334
-449.924	800.000	-0.022	0.069
-448.909	-130.799	-0.256	0.035
-447.895	40.323	0.091	-0.083
-446.880	-100.807	-0.399	-0.099
-445.865	205.192	-0.124	-0.194
-444.851	30.313	0.191	0.165
-443.836	74.795	0.201	0.213
-442.822	-48.680	0.050	0.024
-441.807	-67.590	-0.172	-0.068
-440.792	-60.214	0.342	-0.147
-439.778	185.219	0.075	0.113
-438.763	800.000	-0.048	0.163
-437.749	-200.000	-0.013	0.062
-436.734	29.607	0.103	0.088
-435.719	-200.000	-0.036	-0.184
-434.705	-200.000	-0.004	0.196
-433.690	-106.903	0.329	-0.074
-432.676	-24.341	0.118	-0.071
-431.661	-200.000	-0.007	0.152
-430.646	346.105	-0.083	0.164
-429.632	-200.000	0.015	0.081
-428.617	2.279	0.108	-0.079
-427.603	626.305	0.119	-0.304
-426.588	800.000	0.089	-0.302
-425.573	800.000	-0.100	-0.354
-424.559	-200.000	0.005	-0.210
-423.544	449.642	0.134	-0.299
-422.530	-200.000	0.001	0.117
-421.515	115.460	-0.024	-0.030
-420.500	-14.280	-0.161	-0.105
-419.486	-200.000	-0.020	-0.345
-418.471	80.342	0.034	0.037
-417.457	-157.717	-0.044	-0.003
-416.442	765.368	0.141	-0.388
-415.428	-42.695	0.343	-0.176
-414.413	130.620	0.093	0.121
-413.398	-113.181	0.163	-0.032
-412.384	800.000	-0.076	0.243
-411.369	177.766	0.232	-0.341
-410.355	563.500	0.039	0.095
-409.340	800.000	-0.080	-0.267
-408.325	151.317	-0.118	0.162
-407.311	378.978	0.105	0.218
-406.296	363.660	0.074	0.151
-405.282	104.579	0.175	0.208
-404.267	-143.237	0.227	0.022
-403.252	800.000	0.075	-0.309
-402.238	-165.967	-0.291	0.013
-401.223	127.859	-0.074	0.095
-400.209	-200.000	-0.009	0.135
-399.194	-41.681	0.335	0.174
-398.179	-34.186	0.261	-0.144
-397.165	800.000	0.100	-0.339
-396.150	-3.305	-0.220	-0.154
-395.136	-142.360	0.497	0.049
-394.121	-164.010	0.186	-0.009
-393.106	265.682	-0.136	0.239
-392.092	1.379	0.255	0.185
-391.077	-94.548	0.290	0.080
-390.063	-136.715	-0.330	-0.038
-389.048	-119.991	0.203	-0.035
-388.033	-79.727	0.170	0.058
-387.019	353.229	-0.112	0.223
-386.004	29.247	-0.061	-0.053
-384.990	-194.838	-0.270	0.002
-383.975	-43.480	-0.172	-0.088
-382.960	-81.611	0.278	0.092
-381.946	179.754	0.187	0.275
-380.931	-182.691	0.152	-0.003
-379.917	34.410	0.157	0.138
-378.902	602.749	0.056	-0.140
-377.888	-119.841	-0.146	0.025
-376.873	201.228	-0.081	0.126
-375.858	236.189	0.165	0.275
-374.844	93.944	-0.125	-0.143
-373.829	-100.552	0.161	0.040
-372.815	-36.383	-0.289	-0.157
-371.800	53.515	-0.219	-0.212
-370.785	-2.321	-0.090	0.064
-369.771	683.370	0.113	-0.298
-368.756	-0.211	-0.113	0.081
-367.742	391.045	0.077	-0.161
-366.727	19.616	-0.195	0.158
-365.712	-166.511	-0.108	-0.005
-364.698	157.968	-0.041	0.058
-363.683	210.461	0.222	0.352
-362.669	90.638	-0.149	-0.168
-361.654	-200.000	0.003	-0.131
-360.639	-133.694	-0.066	-0.008
-359.625	-104.424	-0.019	-0.005
-358.610	417.360	-0.073	0.157
-357.596	800.000	-0.011	-0.035
-356.581	-134.660	-0.514	-0.063
-355.566	177.244	0.165	-0.242
-354.552	443.720	-0.039	0.085
-353.537	20.039	-0.249	0.202
-352.523	396.687	0.070	0.147
-351.508	-48.863	-0.199	0.096
-350.493	-137.342	-0.367	0.042
-349.479	-66.631	-0.165	-0.066
-348.464	800.000	-0.080	0.316
-347.450	467.259	0.114	0.257
-346.435	-184.563	0.426	-0.007
-345.420	59.610	-0.174	-0.173
-344.406	800.000	0.028	-0.113
-343.391	-24.612	0.130	-0.078
-342.377	625.529	-0.152	0.386
-341.362	182.320	0.035	-0.052
-340.348	-200.000	0.067	-0.343
-339.333	-200.000	0.015	0.244
-338.318	175.633	-0.106	0.154
-337.304	330.028	0.058	-0.112
-336.289	431.585	0.054	-0.117
-335.275	-200.000	0.022	0.200
-334.260	178.031	-0.053	0.078
-333.245	-164.975	-0.237	-0.011
-332.231	-30.458	-0.268	0.153
-331.216	-200.000	-0.019	0.378
-330.202	138.547	-0.208	0.275
-329.187	244.699	0.136	-0.230
-328.172	-107.062	0.163	-0.036
-327.158	5.564	-0.192	0.143
-326.143	-136.325	0.266	0.031
-325.129	-200.000	0.048	0.265
-324.114	800.000	0.057	-0.179
-323.099	800.000	0.039	-0.135
-322.085	800.000	-0.079	-0.268
-321.070	457.930	0.139	-0.310
-320.056	-38.914	0.206	0.109
-319.041	800.000	0.010	0.037
-318.026	-71.391	-0.185	-0.070
-317.012	-49.173	0.308	-0.148
-315.997	140.057	0.258	0.341
-314.983	-200.000	-0.016	-0.294
-313.968	-200.000	-0.018	0.249
-312.953	-200.000	-0.011	0.153
-311.939	-117.187	-0.294	-0.054
-310.924	-200.000	0.003	0.307
-309.910	33.325	-0.207	-0.180
-308.895	90.877	0.252	-0.284
-307.880	-200.000	0.007	-0.214
-306.866	100.625	-0.062	-0.073
-305.851	-178.436	-0.135	0.003
-304.837	-10.404	0.100	0.066
-303.822	800.000	0.057	0.244
-302.807	-183.705	0.315	0.005
-301.793	644.444	0.032	0.082
-300.778	800.000	0.060	-0.200
-299.764	-200.000	-0.021	0.132
-298.749	-200.000	0.014	-0.168
-297.735	-16.852	0.085	-0.054
-296.720	5.796	0.152	0.113
-295.705	249.131	0.039	-0.067
-294.691	165.972	-0.151	-0.215
-293.676	-200.000	0.037	0.303
-292.662	-200.000	0.044	0.260
-291.647	-44.348	-0.121	-0.061
-290.632	-97.592	0.301	-0.078
-289.618	-43.405	0.208	-0.106
-288.603	142.655	0.137	-0.183
-287.589	-200.000	0.058	0.470
-286.574	135.807	0.106	-0.138
-285.559	-127.468	0.099	0.014
-284.545	-34.070	-0.217	-0.120
-283.530	-124.758	-0.102	-0.016
-282.516	-56.576	-0.399	-0.177
-281.501	-42.904	0.122	0.062
-280.486	181.416	0.054	-0.079
-279.472	800.000	0.037	0.104
-278.457	-56.959	0.038	0.017
-277.443	142.680	-0.277	-0.369
-276.428	272.418	-0.109	0.193
-275.413	800.000	-0.036	0.156
-274.399	800.000	-0.043	-0.141
-273.384	-200.000	-0.008	0.387
-272.370	635.706	0.074	0.189
-271.355	482.139	0.068	0.155
-270.340	-59.488	-0.423	0.182
-269.326	456.550	0.026	-0.058
-268.311	-41.577	-0.111	0.057
-267.297	642.152	0.052	-0.132
-266.282	-7.552	0.178	-0.121
-265.267	116.945	0.200	0.247
-264.253	296.147	0.007	-0.013
-263.238	-107.676	0.324	-0.071
-262.224	-165.644	-0.139	-0.006
-261.209	-50.510	-0.252	0.119
-260.195	559.509	-0.043	0.105
-259.180	-100.820	-0.464	0.114
-258.165	-200.000	-0.022	-0.124
-257.151	-43.891	0.017	0.009
-256.136	35.325	-0.151	0.133
-255.122	-90.264	0.318	-0.093
-254.107	156.099	-0.240	-0.332
-253.092	-200.000	0.015	0.082
-252.078	-9.349	-0.351	0.235
-251.063	-119.263	0.224	-0.039
-250.049	21.071	0.100	0.081
-249.034	-200.000	0.011	0.074
-248.019	456.633	0.064	0.142
-247.005	-112.345	-0.236	0.047
-245.990	-129.279	0.256	-0.036
-244.976	-200.000	0.021	-0.150
-243.961	-88.677	0.059	-0.018
-242.946	326.678	0.016	0.031
-241.932	70.801	-0.237	0.245
-240.917	-1.499	-0.188	0.133
-239.903	681.020	-0.049	0.127
-238.888	501.383	0.081	-0.188
-237.873	-17.743	0.086	0.054
-236.859	498.840	-0.173	0.398
-235.844	-200.000	-0.001	0.153
-234.830	-152.386	0.217	0.016
-233.815	-200.000	0.015	-0.105
-232.800	-200.000	0.001	-0.029
-231.786	-200.000	0.024	-0.118
-230.771	-17.639	-0.131	0.083
-229.757	246.265	-0.017	-0.028
-228.742	-200.000	0.028	0.332
-227.727	92.765	0.018	0.020
-226.713	280.735	0.151	-0.270
-225.698	-32.456	-0.151	-0.084
-224.684	800.000	0.046	0.136
-223.669	-99.240	-0.434	0.110
-222.655	209.125	-0.084	-0.132
-221.640	-27.472	0.117	0.068
-220.625	-61.684	0.211	-0.089
-219.611	34.230	0.124	-0.109
-218.596	201.641	-0.202	-0.311
-217.582	264.238	-0.205	-0.357
-216.567	-1.725	0.092	-0.065
-215.552	800.000	-0.036	0.131
-214.538	244.673	0.164	-0.276
-213.523	-200.000	-0.007	-0.086
-212.509	-200.000	-0.003	-0.189
-211.494	506.229	0.050	0.117
-210.479	-200.000	0.005	0.359
-209.465	329.691	0.130	0.251
-208.450	800.000	0.119	0.348
-207.436	-200.000	-0.009	0.241
-206.421	105.283	-0.074	0.087
-205.406	-40.967	0.164	-0.085
-204.392	-200.000	0.042	-0.230
-203.377	344.589	0.136	0.267
-202.363	344.370	0.160	0.315
-201.348	-200.000	0.012	-0.058
-200.333	-33.763	-0.244	-0.135
-199.319	800.000	0.037	0.113
-198.304	-8.305	-0.161	0.109
-197.290	484.061	0.127	-0.289
-196.275	-62.691	0.159	0.066
-195.260	-70.473	-0.163	0.062
-194.246	-200.000	0.002	-0.046
-193.231	-200.000	-0.004	-0.231
-192.217	16.889	0.092	0.073
-191.202	-66.506	0.117	0.046
-190.187	23.345	-0.102	0.084
-189.173	-103.835	0.527	-0.123
-188.158	-93.428	-0.317	-0.088
-187.144	-63.965	-0.352	-0.144
-186.129	-200.000	0.002	-0.183
-185.114	302.956	-0.114	-0.211
-184.100	31.480	-0.109	-0.093
-183.085	290.333	0.139	0.253
-182.071	-129.865	-0.197	0.027
-181.056	-130.166	0.087	0.012
-180.042	800.000	0.120	-0.481
-179.027	-52.529	-0.020	-0.009
-178.012	800.000	-0.053	0.161
-176.998	-139.574	0.215	-0.023
-175.983	503.047	0.188	0.436
-174.969	-142.251	0.466	-0.046
-173.954	-62.519	0.047	0.020
-172.939	-66.833	0.092	-0.036
-171.925	755.312	-0.032	-0.087
-170.910	800.000	-0.098	-0.338
-169.896	589.113	-0.126	-0.309
-168.881	-200.000	0.032	-0.152
-167.866	104.422	-0.201	-0.237
-166.852	158.003	-0.111	0.153
-165.837	800.000	-0.048	0.193
-164.823	800.000	0.066	0.204
-163.808	-200.000	0.030	-0.221
-162.793	-200.000	0.017	-0.118
-161.779	-159.985	-0.085	0.005
-160.764	800.000	0.075	0.245
-159.750	78.979	-0.168	0.179
-158.735	-11.023	-0.288	-0.190
-157.720	-156.887	0.020	0.001
-156.706	800.000	0.106	0.408
-155.691	-114.907	-0.345	0.066
-154.677	94.233	0.224	-0.254
-153.662	682.998	-0.107	0.278
-152.647	181.348	-0.088	0.129
-151.633	413.847	0.090	0.192
-150.618	-200.000	-0.013	0.169
-149.604	-200.000	0.032	-0.192
-148.589	243.086	0.125	-0.210
-147.574	-44.028	-0.168	0.084
-146.560	160.454	0.167	-0.232
-145.545	-200.000	-0.025	0.154
-144.531	434.977	-0.114	0.247
-143.516	60.797	0.107	0.106
-142.502	-150.314	-0.186	-0.014
-141.487	577.471	-0.072	-0.176
-140.472	-200.000	0.019	0.088
-139.458	-200.000	-0.021	0.145
-138.443	-163.941	0.519	-0.024
-137.429	800.000	0.047	0.151
-136.414	281.117	0.157	-0.281
-135.399	-50.849	0.403	-0.189
-134.385	-200.000	-0.006	-0.217
-133.370	800.000	0.085	-0.243
-132.356	-30.648	0.191	0.108
-131.341	-200.000	0.008	0.090
-130.326	73.650	-0.135	-0.141
-129.312	-185.823	0.072	0.001
-128.297	751.322	-0.124	0.335
-127.283	-106.596	-0.319	0.071
-126.268	-180.726	0.207	0.004
-125.253	-200.000	0.101	0.637
-124.239	-200.000	-0.021	-0.144
-123.224	-93.549	-0.193	0.053
-122.210	-46.770	-0.253	-0.124
