DTS Sentinel unit serial number:	SN413079Multiplexer serial number:	ORYXHardware model number:	OX4-SRSoftware version number:	ORYX F/W v4.00 Oryx Data Collector v3.7.2.0data status	okinstallation	princeton_trtdifferential loss correction	single-endedforward channel	channel 1reverse channel	N/Adate	2019/09/13time	05:42:35forward acquisition time	60.00reverse acquisition time	0.00gamma	496.2192k internal	0.2335k external	0.2335temperature offset calibration	1.0154default loss term (dB/km)	0.3790temperature slope calibration	1.0000multiplexer offset coefficient	1.0000multiplexer slope coefficient	1.0000fibre end	0.00T internal ref (°C)	26.19T ext. ref 1 (°C)	4.05T ext. ref 2 (°C)	20.88length (m)	temperature (°C)	Stokes	anti-Stokes-747.200	-80.580	-0.117	-0.039
-746.185	-39.748	-0.211	0.111
-745.171	-14.116	0.323	-0.210
-744.156	-15.780	-0.295	0.189
-743.142	-102.916	-0.076	0.018
-742.127	187.868	0.028	0.042
-741.112	-136.093	-0.124	-0.015
-740.098	-89.039	-0.248	0.074
-739.083	120.639	0.101	0.126
-738.069	-50.791	0.136	0.064
-737.054	-16.020	0.156	-0.100
-736.039	-44.196	-0.323	-0.163
-735.025	-200.000	-0.012	0.140
-734.010	-200.000	0.017	0.082
-732.996	22.381	-0.103	-0.084
-731.981	339.056	-0.108	0.210
-730.966	41.474	-0.157	-0.142
-729.952	362.663	0.024	-0.049
-728.937	83.874	-0.300	-0.329
-727.923	800.000	0.027	-0.080
-726.908	8.582	-0.111	-0.084
-725.894	800.000	-0.026	0.077
-724.879	217.778	0.115	0.184
-723.864	-200.000	-0.046	-0.407
-722.850	16.817	-0.058	-0.046
-721.835	-200.000	0.034	0.274
-720.821	-95.393	0.061	-0.016
-719.806	-89.280	-0.122	-0.036
-718.791	-69.414	-0.241	0.093
-717.777	-69.400	-0.025	0.010
-716.762	-200.000	-0.035	0.427
-715.748	39.523	0.084	-0.075
-714.733	-63.443	-0.078	-0.032
-713.718	-171.298	0.419	0.014
-712.704	-37.763	-0.129	0.069
-711.689	-200.000	0.013	-0.122
-710.675	-136.763	0.265	-0.031
-709.660	-20.416	0.276	0.170
-708.645	32.356	0.061	0.053
-707.631	365.825	-0.131	0.265
-706.616	-188.245	0.044	0.001
-705.602	-200.000	-0.004	0.142
-704.587	509.721	-0.057	0.133
-703.572	-124.930	-0.195	-0.030
-702.558	800.000	-0.073	0.291
-701.543	-164.157	-0.343	-0.016
-700.529	-81.813	0.165	-0.054
-699.514	-200.000	0.048	-0.238
-698.499	-1.207	0.103	-0.073
-697.485	-36.426	0.054	0.029
-696.470	-87.877	-0.107	0.032
-695.456	-200.000	0.014	-0.084
-694.441	297.377	-0.109	-0.201
-693.426	10.592	-0.224	-0.172
-692.412	446.817	0.038	0.084
-691.397	222.984	-0.032	-0.052
-690.383	-125.382	-0.275	-0.042
-689.368	275.730	-0.126	-0.224
-688.354	156.974	0.102	0.141
-687.339	16.711	0.073	0.058
-686.324	-117.951	-0.159	0.028
-685.310	11.528	-0.080	-0.061
-684.295	-200.000	0.002	0.258
-683.281	-93.395	0.139	0.039
-682.266	207.910	0.187	-0.292
-681.251	-41.090	0.205	0.106
-680.237	-198.144	0.172	0.001
-679.222	516.933	-0.129	-0.301
-678.208	-79.862	-0.287	-0.097
-677.193	-200.000	0.009	0.065
-676.178	-0.113	-0.035	-0.025
-675.164	-78.143	-0.143	0.049
-674.149	-171.246	0.233	0.008
-673.135	22.831	-0.212	0.174
-672.120	636.586	-0.118	-0.300
-671.105	119.792	0.223	-0.277
-670.091	404.732	0.139	0.293
-669.076	800.000	0.050	0.149
-668.062	45.850	0.252	0.233
-667.047	101.947	-0.189	0.220
-666.032	352.928	-0.023	0.046
-665.018	235.463	-0.135	-0.224
-664.003	-200.000	-0.023	0.172
-662.989	-75.420	-0.228	0.081
-661.974	800.000	0.105	-0.348
-660.959	800.000	-0.049	0.143
-659.945	-67.274	-0.132	0.052
-658.930	-176.155	0.068	0.002
-657.916	-75.615	0.125	0.045
-656.901	-143.322	0.212	0.020
-655.886	-142.947	0.053	0.005
-654.872	-48.800	0.184	0.088
-653.857	800.000	-0.094	-0.334
-652.843	568.337	-0.141	0.343
-651.828	-200.000	-0.078	0.519
-650.814	61.227	0.150	0.149
-649.799	-48.192	-0.167	-0.081
-648.784	281.479	0.113	-0.203
-647.770	2.006	0.170	0.123
-646.755	118.495	0.189	0.233
-645.741	-150.825	0.067	-0.005
-644.726	38.609	-0.154	-0.138
-643.711	168.500	0.160	-0.228
-642.697	-200.000	0.051	-0.369
-641.682	-33.686	-0.084	0.047
-640.668	10.667	-0.073	-0.056
-639.653	-200.000	0.009	0.350
-638.638	800.000	0.090	-0.253
-637.624	-150.427	-0.281	0.022
-636.609	800.000	0.068	-0.226
-635.595	800.000	0.074	-0.230
-634.580	-200.000	-0.014	0.191
-633.565	-97.360	0.455	-0.119
-632.551	121.593	-0.106	-0.132
-631.536	38.742	-0.202	0.180
-630.522	-13.125	0.204	-0.133
-629.507	800.000	0.062	-0.192
-628.492	451.745	-0.089	-0.196
-627.478	-172.042	-0.070	-0.002
-626.463	10.977	0.155	0.119
-625.449	-158.623	0.203	0.012
-624.434	83.832	-0.154	-0.168
-623.419	-0.288	-0.079	0.056
-622.405	0.007	-0.046	0.033
-621.390	-30.553	0.135	-0.076
-620.376	705.922	0.031	-0.083
-619.361	-118.365	0.138	-0.025
-618.346	-4.167	-0.103	0.071
-617.332	800.000	0.015	-0.053
-616.317	-100.581	-0.167	-0.041
-615.303	4.064	-0.167	0.122
-614.288	49.439	-0.101	0.095
-613.273	-150.030	-0.168	-0.013
-612.259	-200.000	-0.051	-0.288
-611.244	-93.402	0.204	-0.056
-610.230	-200.000	-0.050	0.233
-609.215	-200.000	0.079	0.374
-608.201	-200.000	0.000	0.008
-607.186	-102.622	-0.150	0.036
-606.171	800.000	-0.095	0.408
-605.157	-176.795	-0.373	0.009
-604.142	249.103	-0.017	-0.029
-603.128	-200.000	-0.036	-0.222
-602.113	254.064	0.093	0.159
-601.098	56.056	-0.104	-0.101
-600.084	90.445	-0.145	-0.162
-599.069	-114.743	-0.109	0.021
-598.055	-37.306	0.362	-0.193
-597.040	102.746	-0.160	0.187
-596.025	-27.830	0.381	-0.220
-595.011	-200.000	-0.011	-0.098
-593.996	-82.597	0.164	-0.053
-592.982	435.143	0.111	0.241
-591.967	800.000	-0.096	-0.319
-590.952	-200.000	0.021	-0.236
-589.938	-116.346	-0.267	-0.049
-588.923	-135.721	-0.260	0.031
-587.909	-1.769	-0.215	-0.151
-586.894	230.086	-0.107	-0.174
-585.879	2.227	0.102	0.074
-584.865	-56.033	-0.231	-0.103
-583.850	800.000	0.125	-0.357
-582.836	501.176	-0.051	0.118
-581.821	125.579	-0.081	-0.102
-580.806	-127.832	-0.192	-0.028
-579.792	-52.410	-0.266	-0.123
-578.777	-25.016	0.174	0.103
-577.763	89.880	0.030	0.034
-576.748	186.541	-0.195	-0.290
-575.733	178.795	0.208	0.304
-574.719	-200.000	-0.007	-0.040
-573.704	-200.000	-0.007	-0.079
-572.690	-200.000	0.049	0.221
-571.675	16.435	-0.103	-0.081
-570.661	30.326	-0.128	-0.109
-569.646	637.789	-0.055	0.139
-568.631	13.497	0.075	-0.058
-567.617	-60.687	0.432	-0.183
-566.602	-69.361	-0.066	-0.025
-565.588	-113.673	0.156	-0.030
-564.573	-200.000	0.004	0.083
-563.558	-11.815	-0.093	-0.061
-562.544	-27.726	-0.020	0.012
-561.529	800.000	-0.084	-0.310
-560.515	-69.682	-0.453	-0.173
-559.500	-200.000	-0.018	-0.377
-558.485	-13.045	-0.220	0.143
-557.471	-48.070	0.402	0.194
-556.456	800.000	0.069	-0.269
-555.442	146.542	0.233	0.312
-554.427	-20.189	-0.038	0.024
-553.412	394.895	-0.055	0.115
-552.398	-200.000	0.021	-0.349
-551.383	41.615	0.487	0.439
-550.369	2.041	-0.187	-0.134
-549.354	800.000	0.070	0.284
-548.339	-200.000	-0.023	-0.104
-547.325	-200.000	-0.007	-0.149
-546.310	164.385	-0.079	0.111
-545.296	-14.225	-0.226	0.145
-544.281	232.985	-0.163	-0.268
-543.266	-143.763	-0.036	0.003
-542.252	-60.953	0.192	-0.081
-541.237	800.000	0.064	-0.191
-540.223	-105.884	0.151	-0.034
-539.208	124.095	-0.302	-0.378
-538.193	103.954	0.078	0.092
-537.179	-200.000	0.022	-0.112
-536.164	72.960	0.056	-0.059
-535.150	22.317	0.165	-0.134
-534.135	-80.879	0.074	0.025
-533.121	-95.227	-0.175	0.047
-532.106	-135.461	-0.340	0.040
-531.091	290.759	-0.028	0.051
-530.077	130.678	-0.016	0.021
-529.062	-200.000	0.013	-0.415
-528.048	-200.000	-0.040	0.319
-527.033	78.474	-0.175	0.186
-526.018	-129.540	0.169	-0.023
-525.004	-130.942	-0.072	0.010
-523.989	-200.000	0.026	-0.226
-522.975	-200.000	0.019	0.216
-521.960	227.533	0.161	0.261
-520.945	72.926	0.031	-0.032
-519.931	-200.000	0.015	-0.124
-518.916	-73.996	-0.291	0.105
-517.902	-12.774	-0.192	-0.125
-516.887	-3.510	-0.229	0.158
-515.872	-31.647	-0.098	-0.055
-514.858	-86.605	0.324	0.099
-513.843	-36.423	-0.129	0.069
-512.829	325.281	-0.075	0.143
-511.814	-200.000	0.017	-0.172
-510.799	783.119	0.133	-0.362
-509.785	-200.000	0.012	0.126
-508.770	239.429	0.109	0.181
-507.756	23.299	-0.166	-0.136
-506.741	-200.000	0.034	-0.305
-505.726	770.976	-0.114	-0.308
-504.712	-133.275	-0.138	-0.017
-503.697	-120.450	0.325	-0.055
-502.683	-155.938	0.190	0.012
-501.668	-97.253	0.068	0.018
-500.653	14.152	-0.128	-0.099
-499.639	217.463	0.064	0.101
-498.624	552.579	-0.129	0.307
-497.610	173.626	0.133	0.191
-496.595	50.060	0.335	-0.315
-495.581	-200.000	-0.011	0.087
-494.566	800.000	0.019	0.069
-493.551	800.000	0.084	0.263
-492.537	46.291	0.062	-0.057
-491.522	104.727	0.070	-0.082
-490.508	54.066	0.174	-0.166
-489.493	12.855	-0.228	0.176
-488.478	70.019	-0.385	-0.395
-487.464	2.564	0.154	-0.111
-486.449	800.000	-0.027	0.083
-485.435	112.146	-0.105	0.126
-484.420	-15.743	0.421	-0.267
-483.405	-113.114	-0.127	-0.025
-482.391	129.834	0.076	-0.096
-481.376	-200.000	-0.029	0.127
-480.362	800.000	0.011	0.034
-479.347	-185.828	-0.122	-0.002
-478.332	105.978	0.180	-0.212
-477.318	-69.530	0.265	0.101
-476.303	-150.124	0.094	0.007
-475.289	-38.586	-0.147	-0.077
-474.274	-141.213	0.021	0.002
-473.259	415.208	-0.105	-0.221
-472.245	-3.481	-0.238	0.165
-471.230	653.089	-0.063	-0.159
-470.216	103.756	-0.043	-0.050
-469.201	-106.391	-0.020	-0.004
-468.186	-74.442	0.180	0.065
-467.172	-94.080	-0.190	-0.052
-466.157	-78.540	0.053	-0.018
-465.143	59.740	-0.020	0.020
-464.128	-200.000	-0.021	0.239
-463.113	58.480	0.136	0.132
-462.099	345.814	-0.154	0.300
-461.084	-0.888	-0.227	-0.160
-460.070	-148.665	0.364	0.029
-459.055	-200.000	-0.049	0.307
-458.040	-152.723	0.099	0.007
-457.026	-200.000	0.058	-0.323
-456.011	-200.000	-0.048	0.235
-454.997	-8.693	-0.148	-0.099
-453.982	-200.000	-0.018	-0.305
-452.968	-3.571	0.134	0.093
-451.953	800.000	-0.043	-0.133
-450.938	-200.000	0.006	-0.262
-449.924	-93.677	0.193	-0.053
-448.909	400.454	0.039	0.081
-447.895	-85.509	0.303	0.094
-446.880	-101.542	0.402	-0.097
-445.865	650.298	-0.043	-0.108
-444.851	-123.472	0.004	-0.001
-443.836	-158.174	0.253	0.015
-442.822	461.932	-0.098	-0.216
-441.807	-116.571	0.241	-0.044
-440.792	800.000	0.056	-0.219
-439.778	-200.000	-0.024	0.194
-438.763	800.000	-0.058	0.216
-437.749	277.975	-0.127	0.224
-436.734	-13.483	-0.107	-0.069
-435.719	-79.904	0.087	0.029
-434.705	49.520	0.170	-0.159
-433.690	122.174	0.034	-0.042
-432.676	107.418	0.068	-0.080
-431.661	22.383	0.313	0.254
-430.646	-136.989	0.124	-0.014
-429.632	-200.000	-0.025	0.223
-428.617	-21.799	-0.192	-0.116
-427.603	-62.962	-0.379	-0.155
-426.588	277.519	0.102	0.180
-425.573	91.238	-0.139	-0.155
-424.559	144.512	-0.139	-0.184
-423.544	-200.000	-0.043	-0.193
-422.530	-36.870	-0.170	-0.091
-421.515	-166.031	-0.193	0.008
-420.500	310.547	0.144	0.268
-419.486	-17.423	-0.404	-0.252
-418.471	-12.636	0.109	-0.071
-417.457	-200.000	0.018	-0.325
-416.442	-164.114	-0.177	0.008
-415.428	203.602	-0.200	-0.307
-414.413	-14.155	0.278	0.178
-413.398	155.556	-0.068	-0.093
-412.384	-200.000	0.052	0.421
-411.369	-200.000	-0.066	-0.312
-410.355	-186.907	-0.310	0.004
-409.340	-196.993	0.093	0.001
-408.325	800.000	-0.082	0.341
-407.311	-63.604	-0.303	0.123
-406.296	78.499	0.103	0.109
-405.282	-105.725	0.222	-0.050
-404.267	-149.256	-0.160	-0.013
-403.252	254.552	0.180	0.306
-402.238	800.000	0.035	0.105
-401.223	69.344	0.188	0.192
-400.209	-145.443	-0.112	-0.010
-399.194	-200.000	-0.013	-0.238
-398.179	-63.336	-0.127	-0.052
-397.165	-200.000	0.016	-0.467
-396.150	61.776	-0.178	0.176
-395.136	-200.000	0.046	0.305
-394.121	-163.814	0.098	0.005
-393.106	83.052	0.147	-0.158
-392.092	-30.726	0.191	0.107
-391.077	-200.000	0.008	0.103
-390.063	-135.060	-0.103	0.012
-389.048	-200.000	0.007	0.347
-388.033	800.000	-0.040	-0.139
-387.019	800.000	0.073	-0.257
-386.004	-95.034	0.102	0.027
-384.990	93.198	-0.192	-0.215
-383.975	-200.000	0.005	0.125
-382.960	193.769	-0.021	-0.031
-381.946	-181.673	0.312	-0.006
-380.931	9.673	-0.085	-0.064
-379.917	-84.489	-0.332	0.104
-378.902	15.767	0.291	-0.227
-377.888	-160.738	0.096	0.005
-376.873	-86.695	0.197	0.060
-375.858	44.265	0.115	-0.104
-374.844	-12.387	-0.236	0.153
-373.829	456.618	0.069	0.153
-372.815	800.000	0.070	0.284
-371.800	93.488	0.119	0.134
-370.785	78.173	0.106	0.112
-369.771	-21.424	0.192	0.116
-368.756	222.903	-0.019	-0.030
-367.742	800.000	-0.137	-0.475
-366.727	-130.284	0.199	-0.027
-365.712	56.893	-0.072	-0.069
-364.698	-13.654	-0.082	-0.053
-363.683	139.732	0.067	0.087
-362.669	-200.000	-0.029	0.161
-361.654	-150.177	-0.478	0.037
-360.639	-89.247	-0.276	-0.080
-359.625	519.845	0.129	-0.299
-358.610	-200.000	-0.043	-0.348
-357.596	613.947	-0.085	-0.210
-356.581	7.317	-0.390	0.289
-355.566	71.991	-0.157	0.162
-354.552	-200.000	0.039	-0.179
-353.537	87.490	0.287	-0.314
-352.523	17.632	0.089	0.070
-351.508	-197.484	0.174	-0.001
-350.493	-124.649	-0.253	-0.039
-349.479	208.937	0.014	0.021
-348.464	-152.630	-0.269	-0.019
-347.450	669.376	0.045	-0.115
-346.435	-9.156	0.024	-0.016
-345.420	-111.945	-0.159	0.032
-344.406	-148.451	0.103	0.008
-343.391	186.997	0.155	0.228
-342.377	-96.557	-0.342	-0.089
-341.362	800.000	0.031	0.089
-340.348	-11.480	0.182	-0.118
-339.333	-178.258	0.161	-0.004
-338.318	168.610	-0.127	0.179
-337.304	-74.023	0.132	-0.047
-336.289	-32.050	-0.149	-0.082
-335.275	466.617	0.090	-0.199
-334.260	246.350	-0.129	-0.216
-333.245	800.000	0.077	-0.243
-332.231	-45.470	0.144	0.071
-331.216	-200.000	0.004	-0.044
-330.202	-67.359	-0.149	0.058
-329.187	-200.000	-0.012	0.285
-328.172	153.811	-0.113	0.153
-327.158	-131.135	0.173	-0.023
-326.143	-200.000	0.032	0.168
-325.129	35.618	0.044	-0.038
-324.114	-92.252	0.218	-0.061
-323.099	-14.594	-0.117	-0.075
-322.085	-174.354	0.167	0.005
-321.070	137.596	-0.136	0.176
-320.056	28.620	0.069	0.057
-319.041	81.870	-0.174	0.187
-318.026	-200.000	-0.023	0.287
-317.012	-127.090	0.030	-0.004
-315.997	59.980	0.141	-0.137
-314.983	141.126	0.026	0.034
-313.968	-38.549	-0.287	-0.150
-312.953	94.522	0.171	0.192
-311.939	-200.000	0.005	0.204
-310.924	-200.000	0.048	0.403
-309.910	453.924	0.039	0.086
-308.895	140.468	0.063	-0.083
-307.880	-148.399	0.169	0.014
-306.866	43.243	0.274	-0.247
-305.851	75.413	-0.171	-0.178
-304.837	-25.779	0.149	-0.087
-303.822	-90.347	0.413	-0.118
-302.807	96.588	0.078	-0.088
-301.793	91.916	0.077	0.085
-300.778	-200.000	-0.029	-0.134
-299.764	-51.698	-0.556	0.256
-298.749	800.000	0.125	0.443
-297.735	-200.000	-0.016	0.221
-296.720	800.000	0.145	-0.569
-295.705	-31.184	0.196	-0.109
-294.691	-140.533	-0.067	-0.007
-293.676	67.835	-0.154	-0.156
-292.662	-200.000	0.004	0.313
-291.647	-200.000	-0.018	0.236
-290.632	-18.551	-0.134	0.082
-289.618	-105.672	-0.132	0.029
-288.603	-60.296	0.188	0.079
-287.589	-168.791	-0.327	-0.012
-286.574	601.824	-0.015	-0.037
-285.559	124.430	-0.104	-0.130
-284.545	4.022	-0.239	-0.173
-283.530	251.292	0.134	0.224
-282.516	-200.000	0.039	0.218
-281.501	-83.193	-0.259	-0.082
-280.486	161.661	-0.113	-0.156
-279.472	800.000	0.124	-0.340
-278.457	361.528	0.190	0.376
-277.443	117.835	0.176	0.213
-276.428	-20.926	-0.114	0.069
-275.413	-89.280	-0.211	-0.061
-274.399	-58.124	0.296	-0.127
-273.384	-200.000	0.004	-0.088
-272.370	-28.925	0.073	0.041
-271.355	287.590	-0.116	0.206
-270.340	156.451	-0.116	0.158
-269.326	-32.665	-0.188	-0.103
-268.311	93.198	0.095	-0.106
-267.297	-15.196	0.139	0.088
-266.282	360.056	-0.065	-0.128
-265.267	-125.745	0.219	0.033
-264.253	-200.000	0.013	-0.417
-263.238	-157.506	-0.155	-0.009
-262.224	-200.000	0.070	0.337
-261.209	-150.442	0.382	-0.029
-260.195	800.000	0.051	0.161
-259.180	167.958	-0.123	0.173
-258.165	800.000	-0.105	-0.309
-257.151	800.000	0.049	-0.201
-256.136	-58.506	0.326	0.140
-255.122	102.687	0.028	0.033
-254.107	8.002	-0.227	-0.168
-253.092	243.500	-0.172	0.284
-252.078	800.000	-0.048	0.194
-251.063	726.502	0.051	0.133
-250.049	-131.632	-0.379	-0.049
-249.034	-54.991	0.163	-0.072
-248.019	-7.368	-0.049	-0.033
-247.005	-75.224	-0.196	-0.069
-245.990	235.400	0.207	-0.337
-244.976	-116.872	0.355	0.064
-243.961	42.561	0.090	0.081
-242.946	238.450	0.215	0.352
-241.932	45.974	-0.163	-0.149
-240.917	800.000	0.041	0.117
-239.903	-88.916	0.173	-0.051
-238.888	108.441	-0.049	0.057
-237.873	-200.000	-0.005	0.274
-236.859	190.552	-0.100	0.149
-235.844	-124.122	-0.340	-0.053
-234.830	800.000	-0.081	0.228
-233.815	800.000	0.108	0.401
-232.800	-200.000	0.015	-0.214
-231.786	478.115	0.088	0.196
-230.771	269.006	0.125	0.216
-229.757	-200.000	0.002	-0.049
-228.742	-200.000	0.036	-0.331
-227.727	-58.602	0.190	0.081
-226.713	339.742	0.077	-0.147
-225.698	-62.025	0.108	0.044
-224.684	800.000	-0.114	0.362
-223.669	-67.135	0.278	-0.108
-222.655	-200.000	0.015	-0.164
-221.640	80.111	0.026	0.027
-220.625	80.478	0.087	0.093
-219.611	-162.232	-0.431	0.021
-218.596	-12.528	0.481	0.309
-217.582	-200.000	0.001	0.283
-216.567	148.975	0.074	0.098
-215.552	-50.430	0.124	-0.058
-214.538	408.953	0.130	0.270
-213.523	461.746	0.168	-0.368
-212.509	169.163	-0.082	-0.115
-211.494	-200.000	-0.009	-0.059
-210.479	222.312	-0.227	0.359
-209.465	317.875	0.094	-0.176
-208.450	148.592	-0.203	0.270
-207.436	224.998	0.278	0.443
-206.421	147.731	-0.063	-0.083
-205.406	-101.201	-0.277	-0.067
-204.392	61.110	-0.117	0.114
-203.377	57.870	0.118	0.114
-202.363	-200.000	0.018	-0.172
-201.348	123.661	0.105	-0.130
-200.333	-200.000	0.023	0.110
-199.319	-109.710	-0.379	-0.078
-198.304	217.251	-0.121	-0.190
-197.290	236.169	0.101	0.165
-196.275	772.269	0.050	0.133
-195.260	444.103	0.107	-0.230
-194.246	-31.171	-0.119	0.066
-193.231	800.000	0.104	-0.417
-192.217	29.950	-0.293	-0.245
-191.202	35.957	0.112	-0.097
-190.187	122.460	0.144	0.177
-189.173	-96.342	0.274	0.071
-188.158	31.646	-0.111	-0.094
-187.144	-200.000	0.030	0.143
-186.129	26.842	-0.158	-0.130
-185.114	800.000	0.077	-0.252
-184.100	800.000	-0.039	0.160
-183.085	-200.000	-0.041	0.303
-182.071	33.244	0.090	-0.077
-181.056	365.993	-0.150	0.297
-180.042	-14.794	-0.306	0.193
-179.027	-200.000	-0.008	-0.157
-178.012	-50.548	0.380	0.176
-176.998	800.000	0.055	-0.150
-175.983	-108.204	0.457	0.097
-174.969	-152.912	0.176	-0.012
-173.954	-13.106	-0.251	0.161
-172.939	272.432	0.111	0.192
-171.925	24.288	-0.276	0.224
-170.910	302.920	-0.233	-0.425
-169.896	-104.845	0.365	0.082
-168.881	800.000	-0.085	0.282
-167.866	293.720	-0.143	-0.256
-166.852	800.000	0.088	0.260
-165.837	305.905	-0.007	-0.014
-164.823	610.663	0.110	0.270
-163.808	800.000	-0.096	0.395
-162.793	324.974	0.117	-0.220
-161.779	-105.483	-0.266	0.059
-160.764	-133.405	-0.160	0.020
-159.750	-200.000	-0.055	-0.266
-158.735	-200.000	0.033	0.447
-157.720	-200.000	0.012	0.268
-156.706	-19.464	-0.116	-0.070
-155.691	61.056	-0.148	0.144
-154.677	-8.412	-0.222	0.147
-153.662	52.710	-0.202	0.190
-152.647	-55.193	0.074	-0.033
-151.633	39.219	0.077	-0.067
-150.618	71.540	-0.159	-0.162
-149.604	2.243	0.148	-0.105
-148.589	-58.971	0.094	-0.040
-147.574	75.078	0.118	0.122
-146.560	13.811	-0.091	0.070
-145.545	800.000	-0.079	0.269
-144.531	-2.850	0.131	-0.090
-143.516	-8.002	0.265	-0.176
-142.502	-39.807	-0.729	-0.374
-141.487	-46.110	0.208	-0.100
-140.472	-172.838	0.108	-0.003
-139.458	217.820	0.095	0.149
-138.443	295.559	0.197	-0.354
-137.429	-99.262	0.146	-0.036
-136.414	292.392	0.173	0.309
-135.399	-67.739	0.257	-0.099
-134.385	598.345	-0.064	0.156
-133.370	58.996	0.113	-0.109
-132.356	-200.000	-0.007	0.063
-131.341	-116.169	0.086	-0.016
-130.326	-115.413	0.352	-0.065
-129.312	-132.063	-0.190	-0.024
-128.297	134.626	0.121	-0.154
-127.283	-26.662	0.185	-0.106
-126.268	-42.523	-0.009	-0.004
-125.253	8.223	-0.056	-0.041
-124.239	16.732	-0.190	0.148
-123.224	-200.000	-0.014	-0.062
-122.210	-200.000	0.028	0.237
-121.195	30.780	-0.091	0.076
