DTS Sentinel unit serial number:	SN413079Multiplexer serial number:	ORYXHardware model number:	OX4-SRSoftware version number:	ORYX F/W v4.00 Oryx Data Collector v3.7.2.0data status	okinstallation	princeton_trtdifferential loss correction	single-endedforward channel	channel 1reverse channel	N/Adate	2019/09/16time	00:02:35forward acquisition time	60.00reverse acquisition time	0.00gamma	496.2192k internal	0.2333k external	0.2333temperature offset calibration	0.9976default loss term (dB/km)	0.3790temperature slope calibration	1.0000multiplexer offset coefficient	1.0000multiplexer slope coefficient	1.0000fibre end	0.00T internal ref (°C)	27.81T ext. ref 1 (°C)	9.39T ext. ref 2 (°C)	21.78length (m)	temperature (°C)	Stokes	anti-Stokes-747.200	-107.104	-0.452	-0.100
-746.185	-200.000	0.019	0.205
-745.171	-72.860	0.154	-0.057
-744.156	-125.369	-0.132	0.020
-743.142	-52.273	-0.154	0.072
-742.127	-183.186	-0.298	-0.005
-741.112	800.000	-0.052	0.188
-740.098	23.216	-0.333	0.275
-739.083	43.242	0.189	-0.173
-738.069	271.288	-0.134	0.237
-737.054	43.301	-0.032	0.030
-736.039	-70.357	-0.210	-0.080
-735.025	-111.616	0.480	0.098
-734.010	786.054	-0.194	-0.535
-732.996	-26.265	-0.147	-0.087
-731.981	3.440	-0.105	-0.077
-730.966	-146.600	-0.319	-0.028
-729.952	-200.000	-0.021	-0.355
-728.937	-172.210	0.213	0.007
-727.923	656.336	-0.148	-0.383
-726.908	800.000	0.095	-0.302
-725.894	-200.000	-0.030	0.275
-724.879	118.752	-0.133	0.165
-723.864	202.802	-0.058	-0.090
-722.850	-194.598	0.232	0.002
-721.835	30.558	-0.163	0.140
-720.821	-58.801	-0.134	0.058
-719.806	16.007	0.098	0.077
-718.791	282.920	-0.106	0.192
-717.777	83.305	-0.139	-0.152
-716.762	129.193	0.075	0.096
-715.748	94.055	-0.098	0.112
-714.733	664.084	0.076	-0.198
-713.718	-39.841	-0.044	-0.023
-712.704	-200.000	0.025	0.310
-711.689	-200.000	-0.005	0.108
-710.675	721.444	0.108	-0.289
-709.660	-200.000	0.022	-0.169
-708.645	-84.127	0.391	0.125
-707.631	-123.868	-0.520	-0.082
-706.616	14.438	0.286	-0.224
-705.602	-100.961	-0.409	-0.101
-704.587	63.950	-0.112	0.113
-703.572	-200.000	-0.011	0.066
-702.558	43.763	-0.156	0.143
-701.543	-176.900	0.476	0.012
-700.529	180.602	0.058	-0.085
-699.514	-158.710	-0.285	-0.016
-698.499	20.711	-0.152	-0.123
-697.485	800.000	0.045	-0.158
-696.470	-200.000	-0.010	0.124
-695.456	-200.000	-0.074	-0.340
-694.441	800.000	0.103	0.400
-693.426	-200.000	-0.019	0.143
-692.412	-125.776	0.147	-0.022
-691.397	-200.000	-0.022	0.255
-690.383	-141.670	-0.295	0.030
-689.368	21.210	0.141	-0.115
-688.354	405.278	-0.145	-0.307
-687.339	-153.082	-0.273	-0.019
-686.324	168.117	-0.096	-0.137
-685.310	480.064	-0.025	-0.056
-684.295	-17.385	0.085	-0.054
-683.281	191.009	-0.205	0.309
-682.266	-200.000	-0.061	-0.314
-681.251	47.934	-0.113	0.106
-680.237	-40.387	-0.138	0.072
-679.222	-137.114	-0.081	-0.009
-678.208	35.282	-0.212	0.186
-677.193	-101.153	-0.272	-0.067
-676.178	71.328	0.225	-0.234
-675.164	800.000	0.058	0.193
-674.149	-200.000	-0.004	-0.213
-673.135	800.000	0.016	-0.068
-672.120	-24.618	0.231	0.138
-671.105	-100.109	0.117	0.029
-670.091	138.344	-0.292	0.384
-669.076	-82.664	-0.342	-0.111
-668.062	-88.899	0.222	-0.066
-667.047	26.585	0.123	0.103
-666.032	-200.000	0.008	0.292
-665.018	4.550	0.139	-0.102
-664.003	-20.210	-0.023	-0.014
-662.989	-110.029	-0.116	0.024
-661.974	-200.000	-0.064	-0.478
-660.959	12.573	0.453	-0.350
-659.945	-116.763	-0.174	0.032
-658.930	657.785	-0.108	-0.277
-657.916	26.092	0.118	0.099
-656.901	-200.000	-0.026	-0.156
-655.886	78.763	0.081	0.087
-654.872	381.459	-0.169	-0.348
-653.857	-200.000	-0.009	0.179
-652.843	-200.000	-0.012	0.077
-651.828	-20.270	-0.258	0.159
-650.814	800.000	0.067	0.260
-649.799	-33.978	0.224	0.123
-648.784	54.550	0.282	-0.272
-647.770	-63.970	0.111	0.045
-646.755	800.000	-0.055	0.195
-645.741	-148.557	-0.153	-0.013
-644.726	-118.018	-0.125	-0.022
-643.711	-81.037	-0.068	-0.023
-642.697	-145.231	0.166	-0.015
-641.682	-62.524	-0.173	0.072
-640.668	800.000	-0.055	-0.206
-639.653	-200.000	0.184	-0.000
-638.638	-200.000	0.017	-0.260
-637.624	-141.488	-0.279	0.028
-636.609	44.594	-0.118	0.108
-635.595	62.682	0.319	-0.319
-634.580	-0.677	0.071	0.050
-633.565	-49.800	-0.150	-0.071
-632.551	-200.000	-0.075	0.340
-631.536	-13.811	-0.093	0.060
-630.522	-200.000	0.021	-0.200
-629.507	800.000	-0.102	0.335
-628.492	434.084	0.105	0.229
-627.478	-126.550	0.420	-0.062
-626.463	312.205	-0.094	-0.176
-625.449	800.000	-0.065	-0.250
-624.434	-200.000	-0.022	-0.310
-623.419	28.561	0.024	-0.021
-622.405	138.533	0.247	0.325
-621.390	-200.000	-0.128	-0.001
-620.376	530.667	0.094	0.223
-619.361	800.000	-0.042	-0.165
-618.346	684.350	-0.105	-0.273
-617.332	-146.919	-0.268	0.023
-616.317	-200.000	0.023	0.118
-615.303	197.145	0.065	0.100
-614.288	11.652	0.120	-0.092
-613.273	-66.432	-0.112	-0.045
-612.259	-58.400	0.085	0.037
-611.244	151.228	0.150	-0.204
-610.230	-56.984	-0.019	-0.009
-609.215	-200.000	-0.031	0.423
-608.201	-7.189	-0.053	0.036
-607.186	800.000	-0.010	-0.036
-606.171	-31.592	0.160	-0.090
-605.157	-4.024	0.164	0.114
-604.142	-55.629	-0.124	-0.055
-603.128	269.661	-0.137	0.240
-602.113	-166.981	-0.122	-0.005
-601.098	-200.000	-0.023	-0.157
-600.084	16.316	0.118	0.093
-599.069	-200.000	0.029	-0.183
-598.055	101.873	-0.180	-0.210
-597.040	-24.830	-0.164	-0.098
-596.025	-38.944	-0.351	0.185
-595.011	755.356	-0.056	-0.152
-593.996	58.027	-0.319	0.313
-592.982	-119.607	0.214	0.037
-591.967	800.000	-0.080	-0.257
-590.952	800.000	0.046	-0.191
-589.938	-200.000	-0.018	0.146
-588.923	295.618	0.147	0.270
-587.909	-40.015	-0.235	0.123
-586.894	378.777	0.090	-0.185
-585.879	144.607	0.128	0.171
-584.865	-163.271	-0.120	-0.006
-583.850	-143.317	0.174	-0.017
-582.836	-200.000	0.007	0.208
-581.821	722.204	-0.039	-0.104
-580.806	800.000	-0.038	-0.137
-579.792	-200.000	-0.067	0.308
-578.777	-150.162	-0.196	0.015
-577.763	-105.161	0.401	0.091
-576.748	-13.485	-0.222	-0.144
-575.733	800.000	-0.047	-0.174
-574.719	-22.748	-0.136	-0.082
-573.704	686.636	0.055	-0.144
-572.690	-47.953	-0.093	-0.045
-571.675	573.124	0.080	0.195
-570.661	-200.000	-0.014	0.291
-569.646	-5.406	-0.162	-0.111
-568.631	-200.000	-0.025	0.327
-567.617	27.820	-0.131	-0.110
-566.602	344.292	-0.097	-0.190
-565.588	72.845	-0.136	-0.142
-564.573	800.000	0.037	-0.154
-563.558	-125.388	0.423	-0.064
-562.544	60.612	0.073	-0.072
-561.529	-200.000	0.003	0.272
-560.515	-200.000	-0.010	-0.334
-559.500	-107.988	0.083	-0.018
-558.485	-15.733	0.079	0.051
-557.471	308.015	-0.031	0.057
-556.456	-54.598	-0.130	0.059
-555.442	234.817	-0.058	-0.096
-554.427	53.568	-0.101	0.097
-553.412	130.974	0.248	-0.318
-552.398	482.988	-0.063	0.143
-551.383	-52.807	-0.361	0.166
-550.369	-200.000	-0.009	0.278
-549.354	-130.600	-0.045	-0.006
-548.339	-78.025	0.436	0.150
-547.325	-200.000	0.094	-0.448
-546.310	267.916	0.118	-0.206
-545.296	-200.000	0.017	-0.186
-544.281	-58.420	-0.159	-0.069
-543.266	489.542	0.062	-0.141
-542.252	-108.957	-0.189	0.040
-541.237	62.235	-0.028	-0.028
-540.223	-41.293	-0.167	-0.086
-539.208	-200.000	0.022	-0.248
-538.193	-36.676	-0.201	0.108
-537.179	-200.000	0.018	0.154
-536.164	531.996	-0.027	-0.064
-535.150	-9.653	-0.304	0.202
-534.135	-117.808	0.316	0.057
-533.121	800.000	-0.015	0.058
-532.106	28.687	0.140	0.118
-531.091	747.541	-0.137	-0.367
-530.077	56.443	-0.317	0.307
-529.062	-164.927	0.131	0.006
-528.048	-12.644	0.261	-0.170
-527.033	-167.843	0.191	0.007
-526.018	-78.670	-0.177	0.060
-525.004	146.568	-0.087	0.116
-523.989	17.053	0.026	-0.020
-522.975	-193.163	-0.327	0.003
-521.960	-79.782	-0.209	-0.070
-520.945	17.494	0.082	-0.065
-519.931	-30.248	-0.090	-0.051
-518.916	23.880	-0.129	0.106
-517.902	241.232	0.213	0.354
-516.887	-22.264	0.014	-0.008
-515.872	-200.000	-0.009	-0.136
-514.858	53.087	0.386	0.368
-513.843	-32.034	0.184	-0.103
-512.829	-112.663	0.149	0.029
-511.814	-200.000	0.004	-0.149
-510.799	-200.000	0.020	-0.117
-509.785	515.087	0.060	-0.139
-508.770	-79.289	-0.274	0.093
-507.756	8.609	-0.275	0.206
-506.741	145.905	-0.050	0.067
-505.726	-200.000	0.004	-0.246
-504.712	193.650	0.135	-0.203
-503.697	-65.832	0.035	0.014
-502.683	800.000	-0.032	-0.115
-501.668	82.091	0.133	0.144
-500.653	-53.731	-0.240	-0.109
-499.639	233.254	-0.181	-0.297
-498.624	-200.000	-0.014	0.120
-497.610	176.518	0.012	-0.017
-496.595	105.957	-0.219	-0.258
-495.581	83.594	0.110	0.119
-494.566	-102.809	0.109	-0.026
-493.551	-200.000	0.006	0.271
-492.537	692.280	-0.047	-0.124
-491.522	448.116	0.001	0.003
-490.508	-153.974	-0.202	-0.014
-489.493	384.275	0.093	-0.190
-488.478	-66.445	0.213	0.084
-487.464	-133.708	0.307	0.038
-486.449	179.710	-0.120	0.175
-485.435	699.424	0.078	0.205
-484.420	800.000	-0.031	-0.097
-483.405	-200.000	0.032	0.196
-482.391	-22.385	-0.527	0.318
-481.376	1.980	-0.094	0.067
-480.362	-165.052	0.226	0.010
-479.347	-200.000	-0.019	-0.288
-478.332	-78.699	0.182	-0.062
-477.318	460.009	-0.079	0.175
-476.303	33.550	0.043	0.037
-475.289	-46.842	-0.240	-0.117
-474.274	46.333	-0.049	-0.046
-473.259	-112.938	-0.138	-0.027
-472.245	-100.194	0.280	-0.069
-471.230	-17.414	0.050	-0.031
-470.216	-77.036	0.252	0.088
-469.201	-200.000	0.013	0.067
-468.186	38.175	-0.045	0.040
-467.172	-147.149	-0.225	-0.019
-466.157	-21.381	-0.134	0.081
-465.143	-200.000	0.017	0.242
-464.128	41.407	0.104	0.094
-463.113	-200.000	0.011	0.058
-462.099	-97.915	-0.079	0.020
-461.084	-52.088	0.176	-0.081
-460.070	-143.926	0.221	0.021
-459.055	800.000	-0.047	-0.203
-458.040	-17.584	-0.286	-0.179
-457.026	-88.285	0.317	0.094
-456.011	-102.942	-0.219	-0.052
-454.997	576.874	-0.056	-0.136
-453.982	800.000	0.045	0.159
-452.968	-200.000	-0.021	-0.188
-451.953	-23.813	0.032	-0.019
-450.938	-200.000	-0.038	0.188
-449.924	-119.930	-0.077	-0.013
-448.909	-127.443	0.149	0.022
-447.895	43.781	0.023	0.021
-446.880	-71.893	-0.282	0.104
-445.865	52.492	-0.142	0.135
-444.851	-22.050	0.347	0.210
-443.836	-83.050	0.435	-0.139
-442.822	800.000	0.085	0.363
-441.807	-105.041	0.096	0.022
-440.792	187.765	0.153	-0.227
-439.778	-133.487	-0.186	0.023
-438.763	-13.642	0.348	-0.224
-437.749	800.000	0.053	-0.188
-436.734	800.000	-0.060	0.231
-435.719	273.053	0.047	0.083
-434.705	439.507	-0.026	0.057
-433.690	313.959	-0.051	0.094
-432.676	-200.000	0.022	0.205
-431.661	-200.000	0.014	0.086
-430.646	21.319	0.161	-0.130
-429.632	-82.636	0.156	0.050
-428.617	54.573	-0.103	-0.099
-427.603	42.358	-0.217	0.196
-426.588	-200.000	-0.007	0.183
-425.573	473.023	0.080	0.179
-424.559	-200.000	-0.049	-0.331
-423.544	86.152	-0.141	-0.155
-422.530	355.261	-0.199	-0.393
-421.515	61.049	0.188	-0.186
-420.500	-43.697	0.147	0.074
-419.486	5.678	0.103	-0.076
-418.471	58.637	0.073	-0.071
-417.457	32.378	-0.195	0.167
-416.442	-95.419	-0.156	-0.042
-415.428	238.334	-0.166	0.273
-414.413	20.649	0.336	0.270
-413.398	-148.774	-0.373	-0.030
-412.384	-164.055	0.269	0.012
-411.369	69.865	0.024	0.025
-410.355	640.218	0.047	0.118
-409.340	-109.801	0.196	-0.041
-408.325	-76.234	0.134	-0.047
-407.311	135.919	-0.208	0.269
-406.296	-20.235	-0.224	-0.137
-405.282	433.716	0.142	0.306
-404.267	800.000	0.042	0.142
-403.252	652.640	0.030	0.076
-402.238	409.272	-0.107	-0.226
-401.223	173.212	0.123	-0.177
-400.209	649.908	-0.122	-0.310
-399.194	-43.029	-0.201	-0.101
-398.179	800.000	-0.066	-0.223
-397.165	-23.675	0.112	0.067
-396.150	48.785	-0.299	-0.278
-395.136	-52.217	-0.064	0.029
-394.121	449.832	0.054	-0.117
-393.106	-82.149	-0.275	-0.089
-392.092	-5.818	0.140	0.095
-391.077	37.896	-0.267	0.235
-390.063	113.401	0.046	0.055
-389.048	-166.182	-0.143	0.006
-388.033	795.673	0.099	-0.270
-387.019	-84.004	0.087	-0.028
-386.004	-200.000	-0.034	-0.174
-384.990	-92.250	0.170	0.048
-383.975	14.648	0.157	-0.122
-382.960	638.483	-0.018	-0.046
-381.946	-70.877	-0.039	-0.014
-380.931	371.540	-0.083	-0.167
-379.917	-200.000	0.090	-0.000
-378.902	121.690	-0.212	-0.262
-377.888	-152.974	-0.133	-0.009
-376.873	145.805	-0.120	-0.160
-375.858	-149.220	0.232	-0.018
-374.844	381.963	-0.105	-0.214
-373.829	-199.653	0.158	0.001
-372.815	291.224	0.153	-0.276
-371.800	-101.274	-0.073	0.018
-370.785	-32.880	-0.289	-0.159
-369.771	-200.000	-0.034	0.239
-368.756	-200.000	-0.017	0.129
-367.742	-2.892	0.224	-0.155
-366.727	222.691	0.115	-0.183
-365.712	-11.389	0.145	0.095
-364.698	507.241	-0.048	0.110
-363.683	174.647	0.142	-0.204
-362.669	800.000	0.113	0.414
-361.654	800.000	-0.082	-0.266
-360.639	-200.000	-0.000	-0.129
-359.625	217.757	-0.122	-0.192
-358.610	-71.651	0.019	-0.007
-357.596	456.750	-0.192	0.423
-356.581	-84.767	0.169	0.053
-355.566	-200.000	-0.024	0.145
-354.552	-200.000	-0.021	0.185
-353.537	800.000	-0.025	0.082
-352.523	652.188	0.149	0.377
-351.508	-200.000	0.039	0.185
-350.493	-53.302	-0.038	0.017
-349.479	10.396	0.222	-0.167
-348.464	-39.885	0.207	-0.107
-347.450	161.540	-0.035	0.048
-346.435	-85.657	0.340	0.105
-345.420	-69.421	-0.267	0.102
-344.406	-200.000	-0.001	0.097
-343.391	29.584	-0.180	-0.152
-342.377	-6.137	0.314	-0.212
-341.362	302.405	-0.188	0.344
-340.348	-90.618	0.376	-0.108
-339.333	79.689	-0.093	0.099
-338.318	334.161	0.103	-0.198
-337.304	237.524	-0.076	-0.125
-336.289	-64.617	0.184	-0.074
-335.275	57.215	-0.033	-0.032
-334.260	-64.153	0.114	0.046
-333.245	-125.522	-0.408	0.061
-332.231	-79.183	0.216	0.072
-331.216	800.000	0.099	0.289
-330.202	-200.000	-0.033	-0.259
-329.187	-84.822	-0.155	0.048
-328.172	-47.314	0.449	0.216
-327.158	800.000	0.053	-0.160
-326.143	640.350	0.036	0.091
-325.129	32.657	-0.065	-0.056
-324.114	72.874	-0.063	-0.066
-323.099	446.553	-0.249	-0.542
-322.085	39.190	-0.070	0.062
-321.070	-114.886	0.365	-0.069
-320.056	-200.000	0.046	-0.433
-319.041	-200.000	-0.006	-0.041
-318.026	-200.000	0.082	0.404
-317.012	178.226	-0.111	-0.160
-315.997	-200.000	0.002	0.167
-314.983	655.946	0.069	0.176
-313.968	227.355	0.015	-0.025
-312.953	269.247	0.159	-0.276
-311.939	-200.000	-0.007	-0.172
-310.924	800.000	-0.048	-0.185
-309.910	-61.547	0.122	-0.051
-308.895	442.815	-0.082	-0.177
-307.880	-200.000	-0.017	-0.127
-306.866	800.000	0.126	-0.411
-305.851	-11.628	-0.113	-0.073
-304.837	-132.796	0.276	0.035
-303.822	800.000	0.055	-0.205
-302.807	-200.000	-0.009	0.134
-301.793	288.236	-0.026	0.047
-300.778	57.021	0.156	0.151
-299.764	141.202	-0.142	0.186
-298.749	-20.858	-0.049	0.030
-297.735	-172.299	0.044	0.001
-296.720	73.100	-0.203	0.210
-295.705	-57.746	-0.117	0.051
-294.691	788.637	0.109	-0.296
-293.676	800.000	-0.082	0.282
-292.662	-200.000	0.001	-0.279
-291.647	53.288	0.181	-0.172
-290.632	213.856	0.128	0.200
-289.618	-158.802	-0.217	-0.012
-288.603	-34.575	-0.334	0.181
-287.589	-200.000	-0.055	-0.252
-286.574	-171.726	-0.121	0.004
-285.559	-45.385	0.153	0.075
-284.545	308.410	-0.086	0.159
-283.530	-16.031	0.106	-0.067
-282.516	84.577	-0.054	0.058
-281.501	258.500	-0.074	0.126
-280.486	-136.201	0.088	-0.010
-279.472	31.759	0.121	-0.103
-278.457	800.000	-0.099	0.399
-277.443	800.000	-0.035	0.145
-276.428	110.605	0.325	-0.385
-275.413	210.035	-0.088	0.137
-274.399	-200.000	0.062	0.277
-273.384	-182.624	-0.086	0.002
-272.370	142.744	-0.158	0.207
-271.355	-92.612	0.327	0.090
-270.340	-111.295	-0.304	-0.061
-269.326	142.665	0.133	-0.174
-268.311	77.779	0.119	0.125
-267.297	123.546	-0.125	0.155
-266.282	-56.465	-0.297	0.130
-265.267	-129.561	0.135	-0.018
-264.253	-115.439	-0.166	0.031
-263.238	-26.957	-0.170	-0.098
-262.224	463.137	0.078	0.173
-261.209	75.503	0.017	0.018
-260.195	-120.216	-0.109	0.018
-259.180	-61.691	0.328	0.136
-258.165	175.483	-0.070	0.100
-257.151	-85.730	-0.128	0.039
-256.136	-38.560	-0.120	0.063
-255.122	-97.387	0.199	-0.051
-254.107	-89.413	0.070	0.020
-253.092	-159.686	-0.146	0.008
-252.078	-92.835	0.224	0.062
-251.063	-166.142	-0.197	-0.008
-250.049	-118.427	-0.172	-0.030
-249.034	-36.783	-0.360	0.190
-248.019	314.561	0.074	-0.138
-247.005	283.731	0.069	0.123
-245.990	-75.998	-0.151	0.053
-244.976	-45.443	0.484	-0.237
-243.961	800.000	0.029	-0.080
-242.946	-200.000	-0.004	0.050
-241.932	-120.421	-0.269	0.045
-240.917	461.881	0.165	-0.364
-239.903	-68.293	0.531	-0.204
-238.888	-15.650	0.059	0.037
-237.873	153.797	-0.159	0.215
-236.859	-64.418	0.231	0.093
-235.844	401.867	0.033	0.068
-234.830	10.941	-0.160	0.121
-233.815	800.000	-0.102	0.366
-232.800	-39.148	0.161	0.083
-231.786	-200.000	0.001	0.177
-230.771	-83.856	0.062	0.020
-229.757	54.486	-0.140	-0.133
-228.742	-200.000	0.002	0.027
-227.727	-7.123	0.268	-0.179
-226.713	-200.000	-0.019	0.090
-225.698	522.788	-0.134	0.310
-224.684	131.455	0.179	-0.227
-223.669	800.000	-0.047	-0.166
-222.655	-97.380	-0.214	-0.055
-221.640	-200.000	0.001	-0.275
-220.625	65.007	-0.242	-0.241
-219.611	193.348	-0.125	0.186
-218.596	566.876	0.139	0.333
-217.582	800.000	0.040	0.158
-216.567	-57.188	-0.412	0.179
-215.552	800.000	0.078	-0.258
-214.538	58.984	-0.299	-0.290
-213.523	192.243	0.222	0.329
-212.509	-112.039	-0.148	0.029
-211.494	800.000	0.111	-0.421
-210.479	-34.596	-0.386	0.208
-209.465	800.000	0.124	0.395
-208.450	800.000	-0.030	-0.085
-207.436	-118.816	0.300	-0.052
-206.421	-200.000	-0.028	-0.259
-205.406	42.499	0.090	0.081
-204.392	100.762	-0.079	-0.091
-203.377	-11.256	0.137	-0.089
-202.363	-174.205	-0.401	0.011
-201.348	8.604	-0.236	-0.175
-200.333	-3.775	0.228	-0.156
-199.319	-85.706	-0.116	0.035
-198.304	80.194	-0.086	-0.091
-197.290	-200.000	0.084	-0.382
-196.275	800.000	-0.051	0.158
-195.260	71.063	0.233	-0.238
-194.246	744.281	-0.100	-0.265
-193.231	329.355	-0.094	0.178
-192.217	77.064	0.117	0.122
-191.202	393.507	0.069	0.142
-190.187	335.208	-0.066	-0.126
-189.173	-128.800	-0.144	-0.020
-188.158	-93.071	-0.263	-0.072
-187.144	-54.887	-0.096	-0.043
-186.129	340.865	-0.141	0.270
-185.114	-131.889	-0.108	-0.014
-184.100	-51.542	0.192	-0.088
-183.085	-97.769	0.216	-0.055
-182.071	300.874	0.049	-0.089
-181.056	-5.455	0.362	-0.244
-180.042	-127.124	0.258	-0.037
-179.027	-200.000	0.054	0.233
-178.012	97.795	0.230	0.260
-176.998	-169.727	0.253	-0.009
-175.983	-107.354	0.119	-0.026
-174.969	88.501	0.246	0.268
-173.954	-200.000	-0.048	0.339
-172.939	196.045	-0.263	-0.393
-171.925	-40.441	-0.224	-0.114
-170.910	116.023	0.052	0.063
-169.896	-52.116	0.223	0.102
-168.881	188.655	-0.133	0.196
-167.866	124.603	0.133	0.165
-166.852	164.628	-0.036	-0.050
-165.837	130.643	0.327	-0.412
-164.823	-83.911	-0.165	0.052
-163.808	-63.319	-0.106	-0.043
-162.793	362.750	0.104	0.205
-161.779	-42.339	0.188	-0.094
-160.764	246.742	0.036	0.059
-159.750	219.638	-0.174	-0.273
-158.735	55.048	-0.152	-0.144
-157.720	17.962	-0.288	0.226
-156.706	253.665	-0.195	0.327
-155.691	171.518	-0.232	0.328
-154.677	800.000	0.038	0.112
-153.662	396.399	-0.110	0.226
-152.647	38.442	0.040	-0.035
-151.633	-37.251	0.189	-0.099
-150.618	-126.871	0.229	0.033
-149.604	116.162	-0.097	-0.117
-148.589	-110.222	-0.055	-0.011
-147.574	-180.839	-0.264	0.005
-146.560	-85.080	-0.464	0.143
-145.545	-140.693	-0.343	-0.035
-144.531	-55.889	-0.104	-0.046
-143.516	-67.073	-0.192	0.074
-142.502	94.484	0.274	0.306
-141.487	115.152	0.164	-0.197
-140.472	800.000	0.061	-0.170
-139.458	159.874	0.159	0.217
-138.443	-120.413	-0.212	0.035
-137.429	-105.588	-0.156	-0.035
-136.414	-142.253	0.181	-0.018
-135.399	429.764	0.114	-0.242
-134.385	-155.711	0.220	0.014
-133.370	340.097	0.112	0.215
-132.356	237.213	0.231	-0.376
-131.341	-142.109	-0.408	0.040
-130.326	800.000	0.105	-0.401
-129.312	-200.000	-0.074	-0.357
-128.297	-200.000	0.053	-0.241
-127.283	-9.132	0.241	-0.158
-126.268	485.590	-0.110	-0.246
-125.253	-76.530	0.160	-0.055
-124.239	-200.000	-0.014	0.085
-123.224	412.472	-0.081	-0.169
-122.210	-93.635	0.250	0.068
