DTS Sentinel unit serial number:	SN413079Multiplexer serial number:	ORYXHardware model number:	OX4-SRSoftware version number:	ORYX F/W v4.00 Oryx Data Collector v3.7.2.0data status	okinstallation	princeton_trtdifferential loss correction	single-endedforward channel	channel 1reverse channel	N/Adate	2019/09/18time	09:22:36forward acquisition time	60.00reverse acquisition time	0.00gamma	496.2192k internal	0.2336k external	0.2336temperature offset calibration	0.9966default loss term (dB/km)	0.3790temperature slope calibration	1.0000multiplexer offset coefficient	1.0000multiplexer slope coefficient	1.0000fibre end	0.00T internal ref (°C)	26.05T ext. ref 1 (°C)	0.25T ext. ref 2 (°C)	23.41length (m)	temperature (°C)	Stokes	anti-Stokes-747.200	800.000	0.052	0.147
-746.185	-22.401	-0.368	0.224
-745.171	-200.000	0.074	0.406
-744.156	102.890	-0.299	0.352
-743.142	-168.583	0.145	0.006
-742.127	-37.381	-0.162	0.087
-741.112	800.000	0.023	-0.073
-740.098	-200.000	-0.096	0.437
-739.083	127.055	-0.128	0.162
-738.069	-141.525	-0.431	0.044
-737.054	741.136	0.190	-0.513
-736.039	-200.000	-0.003	-0.237
-735.025	37.718	0.065	0.058
-734.010	48.027	0.242	-0.227
-732.996	-200.000	-0.069	-0.426
-731.981	-101.090	-0.321	0.079
-730.966	800.000	-0.137	0.387
-729.952	185.796	-0.169	-0.251
-728.937	203.128	-0.156	-0.242
-727.923	50.314	-0.312	-0.296
-726.908	144.215	-0.161	0.216
-725.894	-200.000	0.004	0.094
-724.879	3.720	-0.194	-0.142
-723.864	215.589	-0.018	0.029
-722.850	-74.941	0.172	-0.062
-721.835	13.600	-0.216	-0.168
-720.821	16.743	0.136	-0.108
-719.806	-200.000	-0.029	-0.222
-718.791	256.373	-0.164	-0.283
-717.777	-133.165	0.266	0.034
-716.762	-200.000	0.027	0.121
-715.748	19.162	-0.117	0.094
-714.733	-62.612	0.193	-0.080
-713.718	-17.603	-0.267	-0.169
-712.704	-200.000	0.211	-0.001
-711.689	214.822	0.013	-0.021
-710.675	595.020	0.085	-0.210
-709.660	-58.105	-0.125	0.055
-708.645	277.956	-0.241	-0.431
-707.631	172.899	-0.201	-0.290
-706.616	9.652	-0.062	-0.047
-705.602	-200.000	0.042	-0.194
-704.587	800.000	-0.080	0.270
-703.572	-120.405	-0.089	-0.015
-702.558	800.000	-0.039	-0.164
-701.543	207.982	0.178	0.279
-700.529	84.477	0.144	-0.158
-699.514	83.204	-0.097	0.106
-698.499	81.906	0.076	0.082
-697.485	199.893	0.102	-0.157
-696.470	-200.000	-0.002	-0.290
-695.456	-134.444	-0.570	-0.070
-694.441	-200.000	0.009	-0.142
-693.426	-200.000	-0.042	-0.534
-692.412	194.363	0.107	-0.163
-691.397	800.000	0.020	-0.060
-690.383	-8.349	-0.049	-0.033
-689.368	186.216	-0.055	0.082
-688.354	-176.957	0.222	-0.006
-687.339	10.408	-0.271	0.207
-686.324	62.594	-0.085	0.085
-685.310	-138.879	-0.292	0.032
-684.295	-200.000	0.006	-0.209
-683.281	-34.404	0.140	0.077
-682.266	800.000	0.085	0.297
-681.251	-129.010	0.183	-0.026
-680.237	-24.164	-0.045	-0.027
-679.222	-200.000	-0.058	0.262
-678.208	-31.846	0.282	-0.158
-677.193	-15.338	-0.140	0.089
-676.178	-200.000	0.001	0.177
-675.164	10.057	0.120	-0.091
-674.149	74.940	0.213	0.225
-673.135	-200.000	-0.015	-0.099
-672.120	-146.678	-0.160	-0.014
-671.105	-83.447	-0.246	-0.079
-670.091	-79.838	-0.576	-0.194
-669.076	-200.000	0.021	0.098
-668.062	-54.803	0.200	-0.090
-667.047	-200.000	-0.040	0.208
-666.032	800.000	-0.056	-0.179
-665.018	260.189	-0.122	-0.211
-664.003	-200.000	-0.049	0.265
-662.989	322.144	0.217	0.414
-661.974	32.439	-0.080	-0.069
-660.959	730.529	-0.067	-0.179
-659.945	800.000	-0.082	-0.285
-658.930	-89.499	0.163	0.048
-657.916	-74.765	0.132	-0.047
-656.901	-200.000	0.021	-0.198
-655.886	-26.683	0.349	-0.204
-654.872	159.450	-0.198	0.276
-653.857	49.812	-0.070	-0.066
-652.843	-161.222	-0.352	0.018
-651.828	76.442	-0.249	-0.264
-650.814	97.918	-0.116	0.133
-649.799	197.813	0.116	0.178
-648.784	309.658	0.142	-0.266
-647.770	53.383	0.185	-0.177
-646.755	452.764	0.083	-0.183
-645.741	210.336	0.300	0.472
-644.726	161.568	-0.243	0.340
-643.711	800.000	-0.060	0.206
-642.697	-60.082	0.233	-0.099
-641.682	399.691	-0.143	-0.300
-640.668	7.207	0.167	-0.125
-639.653	-16.748	0.340	-0.215
-638.638	607.382	-0.140	-0.350
-637.624	-200.000	-0.012	0.211
-636.609	-61.721	-0.167	-0.070
-635.595	410.922	0.097	0.206
-634.580	-200.000	-0.017	0.134
-633.565	-96.645	-0.021	-0.005
-632.551	8.792	-0.125	-0.094
-631.536	-7.075	-0.130	-0.088
-630.522	-46.803	-0.410	0.201
-629.507	75.878	0.037	-0.039
-628.492	-135.372	0.167	0.020
-627.478	-96.984	-0.186	0.049
-626.463	-200.000	-0.068	-0.339
-625.449	-119.080	0.465	0.081
-624.434	135.766	0.188	-0.244
-623.419	-66.351	-0.298	-0.119
-622.405	-54.884	0.101	-0.046
-621.390	-129.723	0.100	-0.014
-620.376	-30.169	-0.329	0.187
-619.361	-200.000	-0.024	-0.269
-618.346	800.000	0.029	0.117
-617.332	-40.704	0.074	-0.039
-616.317	692.590	0.090	-0.235
-615.303	-18.173	0.123	-0.077
-614.288	-200.000	0.000	-0.217
-613.273	-200.000	-0.031	-0.202
-612.259	800.000	0.070	-0.235
-611.244	-63.620	-0.226	0.093
-610.230	314.457	0.169	0.317
-609.215	-200.000	-0.014	-0.073
-608.201	-8.257	-0.207	0.139
-607.186	11.452	-0.143	-0.109
-606.171	-200.000	-0.044	-0.326
-605.157	-98.534	0.095	-0.024
-604.142	-77.496	-0.444	-0.154
-603.128	-200.000	0.001	-0.247
-602.113	82.453	-0.092	0.099
-601.098	-182.628	-0.071	-0.001
-600.084	26.033	0.291	-0.242
-599.069	195.035	0.055	0.083
-598.055	52.944	-0.120	0.115
-597.040	-73.380	-0.314	0.115
-596.025	249.366	0.118	-0.200
-595.011	286.386	0.146	-0.263
-593.996	-200.000	0.024	-0.368
-592.982	-200.000	-0.003	0.346
-591.967	-11.968	-0.213	0.139
-590.952	22.177	0.149	0.121
-589.938	82.310	-0.146	-0.158
-588.923	-200.000	0.005	0.402
-587.909	-51.092	-0.449	-0.210
-586.894	154.891	0.103	0.142
-585.879	-50.364	0.234	0.111
-584.865	373.184	0.087	0.176
-583.850	-119.879	0.133	0.023
-582.836	145.667	-0.031	-0.042
-581.821	-24.683	-0.114	0.067
-580.806	362.818	-0.055	0.110
-579.792	800.000	-0.040	-0.131
-578.777	-200.000	-0.009	0.084
-577.763	-200.000	-0.017	0.164
-576.748	486.086	-0.074	-0.169
-575.733	800.000	0.093	-0.273
-574.719	90.017	-0.095	-0.106
-573.704	122.448	0.128	-0.159
-572.690	-200.000	0.028	-0.273
-571.675	-76.670	-0.291	0.102
-570.661	227.172	-0.145	-0.236
-569.646	-52.892	-0.332	-0.152
-568.631	-90.464	0.111	-0.032
-567.617	542.885	-0.070	-0.168
-566.602	-36.312	-0.158	0.085
-565.588	47.777	-0.157	0.147
-564.573	-160.164	0.277	-0.015
-563.558	8.471	-0.285	-0.213
-562.544	800.000	0.150	-0.573
-561.529	275.048	-0.060	0.107
-560.515	-39.181	-0.143	-0.075
-559.500	-67.422	-0.138	-0.054
-558.485	-200.000	0.043	-0.250
-557.471	211.362	-0.234	-0.367
-556.456	-200.000	-0.023	-0.127
-555.442	-200.000	-0.011	0.130
-554.427	185.286	-0.123	0.183
-553.412	-50.191	0.268	0.126
-552.398	142.253	-0.018	0.024
-551.383	136.256	0.142	-0.185
-550.369	-200.000	0.036	0.163
-549.354	-128.399	0.318	-0.045
-548.339	-200.000	-0.016	0.145
-547.325	-55.091	-0.042	0.019
-546.310	-94.831	-0.221	0.060
-545.296	800.000	0.035	0.108
-544.281	-68.316	-0.132	0.051
-543.266	287.039	-0.010	0.018
-542.252	403.533	0.091	0.190
-541.237	163.470	0.100	0.140
-540.223	800.000	-0.042	0.183
-539.208	-160.822	0.119	0.006
-538.193	-51.285	0.123	0.058
-537.179	-4.168	0.175	-0.121
-536.164	539.154	-0.108	-0.257
-535.150	-12.142	0.216	-0.141
-534.135	140.908	0.133	-0.175
-533.121	-77.079	0.197	-0.068
-532.106	14.470	-0.312	-0.242
-531.091	47.054	0.326	0.302
-530.077	-200.000	-0.024	0.185
-529.062	90.543	0.035	-0.039
-528.048	8.325	-0.152	0.114
-527.033	800.000	0.070	0.197
-526.018	-22.624	0.137	-0.082
-525.004	633.913	-0.043	-0.109
-523.989	800.000	0.052	0.160
-522.975	-0.416	-0.293	0.207
-521.960	-200.000	-0.004	0.052
-520.945	-72.417	0.136	-0.050
-519.931	-64.337	0.211	-0.085
-518.916	103.833	0.120	-0.141
-517.902	-51.287	-0.348	0.162
-516.887	105.837	0.086	0.101
-515.872	284.647	0.253	-0.454
-514.858	-68.766	-0.281	0.108
-513.843	-19.290	0.225	0.139
-512.829	-146.570	0.256	0.022
-511.814	159.158	0.042	-0.058
-510.799	-76.893	-0.134	0.047
-509.785	-200.000	-0.083	0.361
-508.770	-200.000	0.000	0.027
-507.756	-101.747	-0.185	-0.045
-506.741	-76.645	0.154	-0.054
-505.726	-200.000	0.012	0.079
-504.712	-128.185	-0.256	-0.036
-503.697	-99.818	-0.088	-0.022
-502.683	117.760	0.118	-0.144
-501.668	-200.000	-0.017	0.088
-500.653	-13.306	-0.551	0.356
-499.639	172.376	0.123	-0.176
-498.624	-160.406	-0.277	-0.015
-497.610	-200.000	0.006	0.061
-496.595	435.307	0.157	0.339
-495.581	133.744	-0.089	0.114
-494.566	-200.000	-0.022	0.250
-493.551	434.718	0.171	-0.369
-492.537	366.338	0.087	0.175
-491.522	800.000	0.063	-0.228
-490.508	81.897	0.066	-0.071
-489.493	-200.000	-0.008	-0.082
-488.478	8.230	-0.206	0.154
-487.464	-200.000	-0.042	-0.336
-486.449	-117.185	0.070	-0.013
-485.435	-200.000	-0.033	0.184
-484.420	578.752	-0.022	-0.053
-483.405	800.000	-0.085	0.328
-482.391	800.000	0.063	-0.174
-481.376	-25.018	0.197	0.116
-480.362	-28.578	0.092	-0.053
-479.347	76.915	-0.104	0.110
-478.332	-67.499	0.165	0.064
-477.318	505.841	0.071	-0.164
-476.303	-175.054	-0.200	0.006
-475.289	-18.726	-0.126	0.078
-474.274	-27.499	0.320	0.185
-473.259	34.984	0.117	-0.102
-472.245	800.000	0.080	-0.259
-471.230	-200.000	0.035	0.200
-470.216	-38.528	0.413	0.217
-469.201	-76.843	-0.131	-0.046
-468.186	-129.987	0.041	-0.006
-467.172	-200.000	-0.058	-0.308
-466.157	-200.000	0.017	0.380
-465.143	-79.754	-0.183	0.061
-464.128	227.805	0.124	-0.201
-463.113	-17.775	0.121	-0.076
-462.099	56.199	-0.114	0.110
-461.084	800.000	-0.015	-0.044
-460.070	800.000	-0.017	0.071
-459.055	-0.561	0.151	-0.106
-458.040	-110.217	-0.358	-0.074
-457.026	-200.000	0.036	-0.179
-456.011	-87.513	0.221	-0.066
-454.997	293.582	0.093	0.168
-453.982	219.459	-0.245	0.389
-452.968	357.992	-0.042	-0.084
-451.953	-200.000	0.041	0.331
-450.938	-94.801	-0.204	0.055
-449.924	224.524	-0.241	-0.387
-448.909	-66.193	-0.213	-0.084
-447.895	-38.524	-0.333	-0.175
-446.880	-168.369	0.244	-0.009
-445.865	-87.335	0.085	0.026
-444.851	-200.000	-0.020	0.174
-443.836	-67.637	0.409	0.159
-442.822	-169.189	0.136	-0.005
-441.807	-200.000	0.012	0.328
-440.792	9.923	-0.149	-0.112
-439.778	-200.000	-0.017	-0.415
-438.763	-17.335	-0.271	-0.170
-437.749	-33.290	-0.285	0.156
-436.734	5.891	0.271	0.199
-435.719	800.000	0.097	0.401
-434.705	575.478	0.023	0.056
-433.690	544.588	-0.203	0.481
-432.676	30.704	-0.135	-0.115
-431.661	-200.000	-0.051	-0.269
-430.646	218.655	-0.179	-0.283
-429.632	-200.000	0.012	0.164
-428.617	78.761	0.163	-0.173
-427.603	-200.000	0.007	0.057
-426.588	-97.124	-0.290	0.075
-425.573	-193.266	0.277	0.002
-424.559	12.979	0.077	0.059
-423.544	-200.000	-0.053	0.408
-422.530	800.000	0.148	-0.406
-421.515	5.753	0.304	-0.223
-420.500	-148.487	-0.398	0.032
-419.486	195.932	-0.071	-0.107
-418.471	-200.000	0.049	-0.299
-417.457	800.000	-0.066	-0.267
-416.442	-200.000	-0.002	0.102
-415.428	-117.612	0.196	-0.035
-414.413	255.375	0.103	0.176
-413.398	800.000	0.034	-0.132
-412.384	800.000	0.023	-0.090
-411.369	226.648	0.182	0.293
-410.355	-200.000	-0.066	0.412
-409.340	800.000	-0.059	-0.226
-408.325	206.540	-0.074	0.114
-407.311	45.576	-0.223	0.204
-406.296	-30.776	-0.058	-0.032
-405.282	800.000	0.091	0.273
-404.267	177.142	0.132	-0.190
-403.252	45.176	0.182	-0.166
-402.238	-200.000	-0.013	0.275
-401.223	39.886	0.243	0.216
-400.209	-81.868	-0.254	-0.083
-399.194	691.465	0.030	0.078
-398.179	186.002	0.125	-0.184
-397.165	-200.000	0.025	0.123
-396.150	-99.168	0.169	0.042
-395.136	-62.785	0.224	-0.092
-394.121	-200.000	0.031	-0.212
-393.106	57.424	-0.092	0.089
-392.092	800.000	0.080	-0.268
-391.077	-43.935	0.231	0.115
-390.063	359.271	-0.050	0.098
-389.048	-62.591	-0.223	0.092
-388.033	20.238	-0.247	-0.197
-387.019	800.000	-0.117	-0.330
-386.004	-111.455	0.182	-0.037
-384.990	-121.952	-0.533	-0.087
-383.975	-112.653	0.354	-0.070
-382.960	88.178	-0.067	0.074
-381.946	-200.000	0.030	0.161
-380.931	-200.000	-0.004	-0.136
-379.917	37.117	0.197	-0.172
-378.902	534.759	0.103	-0.241
-377.888	-127.738	-0.139	-0.020
-376.873	-19.448	-0.144	-0.088
-375.858	-23.806	-0.247	-0.147
-374.844	-11.018	-0.338	-0.221
-373.829	-14.522	0.215	0.137
-372.815	80.689	-0.155	0.165
-371.800	298.396	0.119	0.216
-370.785	-170.743	-0.106	0.004
-369.771	-104.732	0.161	-0.037
-368.756	-6.029	0.123	0.083
-367.742	-111.417	-0.250	0.050
-366.727	-77.527	-0.128	0.044
-365.712	18.663	0.216	-0.171
-364.698	-200.000	0.001	-0.212
-363.683	-71.606	-0.217	0.080
-362.669	220.723	-0.208	0.330
-361.654	25.691	0.131	-0.108
-360.639	800.000	-0.043	-0.140
-359.625	209.359	0.171	0.265
-358.610	184.165	-0.019	-0.027
-357.596	-200.000	0.037	-0.262
-356.581	-200.000	-0.056	-0.450
-355.566	46.490	0.235	0.215
-354.552	-200.000	-0.004	0.017
-353.537	-120.309	-0.246	0.041
-352.523	31.412	0.261	0.222
-351.508	-132.365	0.058	-0.007
-350.493	-163.601	-0.174	-0.008
-349.479	71.187	-0.165	-0.169
-348.464	800.000	0.086	-0.364
-347.450	18.755	0.132	-0.104
-346.435	128.815	0.043	-0.054
-345.420	-72.467	0.198	0.072
-344.406	-200.000	0.003	-0.143
-343.391	-16.297	-0.158	-0.099
-342.377	800.000	0.053	0.174
-341.362	32.986	-0.131	-0.112
-340.348	339.860	0.029	-0.057
-339.333	384.751	-0.029	0.060
-338.318	-2.421	0.425	0.294
-337.304	142.048	0.306	0.401
-336.289	-72.684	0.376	-0.137
-335.275	-107.891	-0.257	-0.055
-334.260	684.920	0.036	0.093
-333.245	800.000	0.074	0.303
-332.231	-41.725	-0.184	0.093
-331.216	47.169	0.204	0.188
-330.202	-142.954	0.302	-0.029
-329.187	486.782	0.099	0.222
-328.172	800.000	-0.087	0.337
-327.158	-120.240	-0.225	0.038
-326.143	800.000	0.126	-0.477
-325.129	525.090	0.151	0.351
-324.114	-123.008	0.387	-0.061
-323.099	-200.000	0.003	-0.225
-322.085	-200.000	0.034	0.158
-321.070	-200.000	-0.050	-0.236
-320.056	800.000	-0.080	0.322
-319.041	296.377	0.100	0.182
-318.026	47.696	0.182	0.168
-317.012	-151.437	-0.129	-0.009
-315.997	32.701	0.298	0.254
-314.983	800.000	0.031	-0.110
-313.968	618.355	0.174	0.432
-312.953	46.974	0.029	-0.026
-311.939	230.228	-0.180	0.291
-310.924	-8.170	-0.050	-0.034
-309.910	-38.854	0.109	0.057
-308.895	-155.314	-0.352	0.023
-307.880	800.000	-0.025	0.097
-306.866	-66.643	-0.191	-0.075
-305.851	-53.266	-0.186	0.084
-304.837	-200.000	0.010	-0.148
-303.822	-137.759	0.096	0.011
-302.807	-11.302	0.256	-0.167
-301.793	-200.000	0.015	0.077
-300.778	-200.000	-0.029	0.197
-299.764	800.000	0.061	-0.210
-298.749	17.471	0.022	0.017
-297.735	69.086	-0.205	0.208
-296.720	92.732	-0.104	0.116
-295.705	-97.455	0.284	0.073
-294.691	-18.815	-0.140	-0.086
-293.676	116.287	-0.046	-0.055
-292.662	370.252	-0.029	-0.058
-291.647	-200.000	-0.036	-0.287
-290.632	-52.383	0.230	0.105
-289.618	145.278	0.092	-0.121
-288.603	-84.515	-0.157	0.049
-287.589	45.555	0.122	0.111
-286.574	3.253	-0.225	0.162
-285.559	800.000	0.116	-0.398
-284.545	800.000	-0.060	0.168
-283.530	-73.277	-0.431	0.156
-282.516	-200.000	-0.009	-0.046
-281.501	-138.507	-0.226	0.025
-280.486	-64.090	0.184	-0.074
-279.472	800.000	0.043	-0.122
-278.457	120.891	-0.216	0.265
-277.443	24.927	0.148	0.121
-276.428	-85.544	-0.127	-0.039
-275.413	-79.541	-0.312	-0.104
-274.399	-200.000	0.042	-0.277
-273.384	-200.000	0.003	-0.179
-272.370	26.546	0.083	-0.068
-271.355	248.490	0.098	-0.164
-270.340	-200.000	-0.003	-0.337
-269.326	-78.172	0.465	-0.158
-268.311	369.887	-0.067	0.134
-267.297	-107.847	0.095	0.020
-266.282	-200.000	0.017	0.238
-265.267	-122.861	-0.139	-0.022
-264.253	460.694	-0.004	0.009
-263.238	263.637	0.048	-0.083
-262.224	255.922	-0.041	0.069
-261.209	61.435	-0.094	-0.092
-260.195	61.283	0.373	0.365
-259.180	800.000	0.048	0.197
-258.165	36.830	-0.093	-0.081
-257.151	335.786	0.180	0.344
-256.136	747.727	-0.042	0.111
-255.122	-200.000	-0.001	-0.166
-254.107	-165.899	0.212	0.009
-253.092	-78.184	-0.114	0.039
-252.078	15.244	0.164	-0.127
-251.063	-5.184	0.157	-0.106
-250.049	167.383	0.060	0.084
-249.034	-200.000	-0.086	-0.600
-248.019	616.985	-0.054	0.133
-247.005	14.840	0.323	-0.249
-245.990	800.000	0.038	0.116
-244.976	1.215	-0.121	0.085
-243.961	800.000	-0.098	0.271
-242.946	-85.914	0.444	-0.135
-241.932	-9.914	-0.358	0.234
-240.917	800.000	-0.078	-0.223
-239.903	689.130	0.088	-0.226
-238.888	-89.660	0.206	0.059
-237.873	104.933	0.069	-0.080
-236.859	265.367	-0.203	0.348
-235.844	-37.081	-0.344	-0.182
-234.830	800.000	-0.097	-0.273
-233.815	59.511	0.374	0.362
-232.800	800.000	0.019	0.069
-231.786	152.176	-0.204	0.274
-230.771	158.601	-0.024	-0.033
-229.757	-200.000	0.024	-0.195
-228.742	-67.680	0.162	0.062
-227.727	223.866	-0.120	-0.191
-226.713	-128.127	-0.111	0.016
-225.698	384.453	0.066	0.133
-224.684	800.000	0.077	0.237
-223.669	50.026	-0.141	-0.131
-222.655	114.189	-0.276	-0.330
-221.640	58.924	0.239	0.231
-220.625	-93.754	-0.312	-0.085
-219.611	725.929	-0.039	-0.103
-218.596	82.450	0.153	0.163
-217.582	800.000	-0.161	0.445
-216.567	-79.299	-0.215	-0.072
-215.552	178.349	-0.013	0.018
-214.538	48.874	-0.017	-0.016
-213.523	-1.776	-0.114	-0.079
-212.509	-69.233	-0.219	0.083
-211.494	535.368	0.106	0.247
-210.479	-86.469	-0.119	-0.036
-209.465	800.000	0.030	-0.116
-208.450	-44.595	0.182	0.090
-207.436	-75.578	0.178	-0.062
-206.421	-58.011	-0.120	0.052
-205.406	-72.394	0.062	0.023
-204.392	-38.938	0.317	0.164
-203.377	-200.000	0.006	0.109
-202.363	12.364	-0.115	0.087
-201.348	800.000	0.098	-0.399
-200.333	-200.000	0.061	-0.341
-199.319	77.036	0.141	-0.148
-198.304	29.412	-0.327	0.273
-197.290	-200.000	-0.019	0.248
-196.275	-21.907	0.209	-0.125
-195.260	58.267	-0.180	0.174
-194.246	-200.000	-0.048	-0.316
-193.231	800.000	-0.061	0.217
-192.217	800.000	0.051	0.164
-191.202	-70.263	-0.233	0.087
-190.187	273.143	-0.289	-0.502
-189.173	549.308	-0.141	-0.332
-188.158	37.370	0.304	0.265
-187.144	-162.617	-0.090	0.004
-186.129	183.521	0.041	-0.059
-185.114	-18.493	0.073	-0.045
-184.100	-9.712	0.180	0.118
-183.085	-200.000	-0.014	0.083
-182.071	48.531	0.168	0.155
-181.056	-146.794	-0.345	0.029
-180.042	-176.782	0.195	-0.005
-179.027	58.492	0.189	-0.182
-178.012	175.169	0.154	0.219
-176.998	570.668	-0.107	0.255
-175.983	-12.424	-0.131	0.084
-174.969	-31.252	-0.148	0.082
-173.954	800.000	0.056	0.161
-172.939	110.645	0.054	-0.064
-171.925	-200.000	-0.084	0.429
-170.910	199.666	0.125	-0.188
-169.896	-200.000	0.077	-0.384
-168.881	-199.892	-0.113	-0.001
-167.866	-200.000	0.002	0.244
-166.852	125.512	0.203	-0.252
-165.837	117.923	0.054	0.065
-164.823	-200.000	0.002	-0.071
-163.808	800.000	0.080	0.260
-162.793	-121.604	-0.069	0.011
-161.779	-151.980	-0.285	0.020
-160.764	-200.000	-0.006	-0.084
-159.750	151.109	-0.083	-0.111
-158.735	478.726	0.040	-0.088
-157.720	542.271	-0.122	0.285
-156.706	24.656	0.086	-0.070
-155.691	15.503	-0.155	-0.120
-154.677	-86.869	0.196	0.059
-153.662	83.463	-0.251	-0.268
-152.647	-80.223	0.248	0.081
-151.633	-90.814	-0.385	-0.109
-150.618	-21.982	0.187	-0.111
-149.604	-200.000	-0.027	0.180
-148.589	111.993	0.121	0.143
-147.574	-200.000	0.005	-0.034
-146.560	43.720	0.263	-0.236
-145.545	82.688	0.269	-0.287
-144.531	-24.171	0.299	-0.175
-143.516	325.907	-0.138	-0.259
-142.502	800.000	0.065	0.225
-141.487	-200.000	-0.018	0.453
-140.472	-163.088	0.253	-0.012
-139.458	-45.987	-0.512	0.248
-138.443	55.888	-0.134	0.128
-137.429	219.873	0.165	-0.259
-136.414	-54.185	0.102	0.046
-135.399	68.374	-0.008	-0.008
-134.385	209.754	0.262	-0.403
-133.370	-34.298	0.425	0.229
-132.356	91.283	-0.127	-0.140
-131.341	-48.623	0.271	-0.128
-130.326	-45.874	0.255	-0.124
-129.312	-22.385	-0.154	0.091
-128.297	800.000	0.011	0.036
-127.283	-33.595	0.254	0.137
-126.268	-200.000	0.062	-0.391
-125.253	-78.176	0.358	-0.121
-124.239	-200.000	-0.048	-0.510
-123.224	-107.541	-0.232	-0.050
-122.210	270.023	0.061	-0.104
-121.195	255.613	0.187	-0.314
