DTS Sentinel unit serial number:	SN413079Multiplexer serial number:	ORYXHardware model number:	OX4-SRSoftware version number:	ORYX F/W v4.00 Oryx Data Collector v3.7.2.0data status	okinstallation	princeton_trtdifferential loss correction	single-endedforward channel	channel 1reverse channel	N/Adate	2019/09/12time	13:16:11forward acquisition time	60.00reverse acquisition time	0.00gamma	496.2192k internal	0.2291k external	0.2291temperature offset calibration	1.0045default loss term (dB/km)	0.3790temperature slope calibration	1.0000multiplexer offset coefficient	1.0000multiplexer slope coefficient	1.0000fibre end	0.00T internal ref (°C)	41.00T ext. ref 1 (°C)	2.04T ext. ref 2 (°C)	35.64length (m)	temperature (°C)	Stokes	anti-Stokes-747.200	-111.088	0.232	-0.049
-746.185	-122.913	0.153	-0.025
-745.171	96.532	0.136	-0.159
-744.156	-70.782	-0.289	-0.112
-743.142	209.808	-0.229	0.368
-742.127	-123.409	0.266	0.043
-741.112	-85.667	-0.394	0.125
-740.098	800.000	-0.105	0.323
-739.083	143.154	-0.123	0.167
-738.069	-200.000	-0.015	0.166
-737.054	-40.401	-0.216	-0.115
-736.039	-142.831	-0.103	0.010
-735.025	234.139	-0.058	-0.098
-734.010	746.953	0.103	-0.284
-732.996	568.396	-0.069	-0.172
-731.981	635.939	0.051	0.132
-730.966	800.000	0.041	0.166
-729.952	-200.000	-0.007	-0.103
-728.937	-144.755	-0.185	-0.017
-727.923	166.283	-0.095	0.138
-726.908	-200.000	0.033	0.397
-725.894	206.201	-0.106	0.168
-724.879	800.000	0.036	-0.120
-723.864	800.000	-0.051	-0.149
-722.850	800.000	-0.112	-0.413
-721.835	-200.000	-0.020	-0.216
-720.821	-99.149	-0.364	-0.094
-719.806	-200.000	0.002	-0.094
-718.791	-117.159	0.374	0.070
-717.777	-200.000	-0.141	0.001
-716.762	-200.000	-0.014	-0.093
-715.748	14.640	0.130	-0.104
-714.733	265.354	0.031	-0.055
-713.718	37.765	-0.112	0.102
-712.704	-95.398	-0.227	-0.063
-711.689	411.660	-0.087	-0.189
-710.675	-64.848	0.018	0.007
-709.660	-175.450	0.241	-0.007
-708.645	-200.000	0.033	-0.207
-707.631	93.198	0.104	-0.121
-706.616	-35.777	0.281	0.156
-705.602	372.379	-0.209	-0.434
-704.587	-79.980	-0.204	-0.070
-703.572	18.795	0.209	-0.171
-702.558	-167.328	0.442	0.018
-701.543	26.377	-0.220	0.188
-700.529	800.000	0.053	-0.225
-699.514	-92.747	-0.093	0.026
-698.499	-163.505	-0.087	0.004
-697.485	110.853	-0.277	-0.341
-696.470	-116.954	-0.086	0.016
-695.456	-73.375	-0.214	-0.080
-694.441	24.475	-0.089	-0.075
-693.426	-17.409	-0.253	0.163
-692.412	-200.000	0.003	0.169
-691.397	142.892	0.174	-0.237
-690.383	9.770	0.037	-0.028
-689.368	800.000	0.024	0.088
-688.354	-156.956	0.447	0.028
-687.339	80.435	-0.152	0.168
-686.324	800.000	0.020	0.074
-685.310	16.134	0.207	0.166
-684.295	78.801	0.196	-0.214
-683.281	-200.000	-0.011	-0.076
-682.266	-200.000	0.014	-0.171
-681.251	57.752	-0.083	0.083
-680.237	21.840	0.156	0.130
-679.222	14.754	-0.153	0.122
-678.208	800.000	0.044	0.141
-677.193	-200.000	0.024	0.189
-676.178	-113.531	0.202	0.040
-675.164	-57.187	0.087	0.039
-674.149	55.011	-0.076	0.075
-673.135	44.219	-0.090	-0.084
-672.120	62.014	0.190	0.193
-671.105	407.039	-0.061	0.131
-670.091	-200.000	0.030	-0.143
-669.076	369.482	0.034	-0.071
-668.062	269.678	-0.055	-0.098
-667.047	-118.656	-0.420	0.076
-666.032	-21.831	0.421	0.261
-665.018	-200.000	0.008	0.157
-664.003	93.406	-0.079	-0.091
-662.989	-200.000	0.014	-0.064
-661.974	-200.000	0.003	0.210
-660.959	-200.000	0.076	-0.407
-659.945	-90.917	-0.222	-0.065
-658.930	251.429	0.072	0.125
-657.916	263.106	0.106	0.188
-656.901	71.488	0.140	0.148
-655.886	-200.000	-0.202	-0.000
-654.872	687.231	-0.075	-0.199
-653.857	-199.223	-0.229	0.001
-652.843	-200.000	0.009	-0.080
-651.828	547.980	-0.175	-0.426
-650.814	-45.394	0.084	0.042
-649.799	-200.000	-0.046	-0.221
-648.784	-200.000	-0.013	-0.191
-647.770	-20.394	-0.080	-0.050
-646.755	800.000	0.091	-0.289
-645.741	33.092	-0.396	0.350
-644.726	-145.969	0.352	0.032
-643.711	-76.877	-0.169	0.060
-642.697	800.000	-0.023	0.081
-641.682	235.492	0.107	0.181
-640.668	365.579	0.131	-0.269
-639.653	-180.307	-0.115	-0.002
-638.638	-36.375	0.211	0.116
-637.624	-200.000	-0.017	-0.190
-636.609	-68.888	-0.151	-0.059
-635.595	208.182	0.191	0.304
-634.580	-132.092	0.275	-0.036
-633.565	-49.873	-0.080	-0.039
-632.551	-160.738	-0.286	-0.015
-631.536	-75.962	-0.221	0.080
-630.522	-200.000	0.023	0.163
-629.507	421.861	-0.022	0.047
-628.492	58.962	-0.088	0.088
-627.478	800.000	0.027	-0.104
-626.463	489.210	0.097	0.226
-625.449	-21.171	0.337	0.210
-624.434	-121.363	0.329	-0.056
-623.419	70.720	-0.095	-0.100
-622.405	-200.000	0.087	-0.468
-621.390	-72.280	0.073	0.028
-620.376	-47.548	-0.171	-0.085
-619.361	-200.000	-0.015	-0.131
-618.346	-111.647	-0.703	-0.145
-617.332	-200.000	0.015	0.296
-616.317	72.658	0.125	0.133
-615.303	-11.180	0.239	-0.161
-614.288	456.154	0.163	-0.368
-613.273	452.812	-0.024	0.054
-612.259	-182.456	0.421	-0.008
-611.244	-200.000	-0.040	0.342
-610.230	27.152	0.106	0.090
-609.215	-174.106	-0.226	-0.007
-608.201	86.032	-0.123	-0.138
-607.186	-128.991	-0.372	0.053
-606.171	-112.284	0.115	-0.023
-605.157	121.961	-0.210	-0.267
-604.142	287.304	0.126	0.231
-603.128	-86.896	-0.196	-0.061
-602.113	-200.000	0.009	-0.259
-601.098	-78.387	0.221	0.077
-600.084	342.182	-0.045	0.090
-599.069	-111.858	0.462	0.095
-598.055	-15.896	0.210	0.136
-597.040	-200.000	0.041	0.190
-596.025	-200.000	-0.055	-0.334
-595.011	309.945	-0.109	-0.207
-593.996	-83.384	0.178	-0.058
-592.982	184.082	-0.216	0.326
-591.967	-200.000	-0.018	-0.082
-590.952	137.036	-0.052	-0.070
-589.938	-200.000	-0.047	0.307
-588.923	105.699	-0.093	-0.112
-587.909	800.000	-0.064	0.211
-586.894	123.842	0.215	-0.275
-585.879	-115.783	0.201	0.038
-584.865	-97.612	-0.406	0.107
-583.850	-200.000	-0.028	0.000
-582.836	206.693	-0.109	-0.173
-581.821	59.593	-0.245	-0.246
-580.806	-74.529	0.163	-0.060
-579.792	64.706	0.103	0.106
-578.777	-55.007	-0.187	-0.086
-577.763	-32.936	0.043	0.024
-576.748	-128.505	-0.338	0.049
-575.733	800.000	-0.047	0.151
-574.719	63.695	0.433	-0.442
-573.704	498.592	-0.160	-0.375
-572.690	7.759	0.219	-0.167
-571.675	17.985	-0.302	0.245
-570.661	-200.000	-0.055	-0.362
-569.646	-200.000	-0.061	0.368
-568.631	-200.000	0.038	0.269
-567.617	65.927	-0.126	-0.130
-566.602	-50.261	-0.125	-0.060
-565.588	332.371	0.142	-0.279
-564.573	544.197	-0.061	-0.147
-563.558	-84.246	0.168	-0.054
-562.544	-200.000	0.016	0.167
-561.529	800.000	0.040	-0.123
-560.515	103.578	0.118	-0.141
-559.500	-85.024	-0.366	0.117
-558.485	231.501	0.066	-0.109
-557.471	800.000	0.024	0.076
-556.456	-200.000	-0.039	-0.184
-555.442	-121.952	0.224	0.037
-554.427	800.000	0.090	-0.352
-553.412	244.700	-0.082	-0.140
-552.398	-200.000	-0.021	-0.208
-551.383	415.108	0.172	0.372
-550.369	-200.000	-0.019	0.149
-549.354	-96.740	-0.212	-0.057
-548.339	-13.525	-0.086	-0.056
-547.325	-77.168	-0.291	-0.103
-546.310	-49.329	-0.276	-0.134
-545.296	-61.893	-0.286	0.121
-544.281	-52.382	-0.279	-0.131
-543.266	-90.691	-0.091	0.027
-542.252	800.000	0.017	0.048
-541.237	125.198	-0.143	0.183
-540.223	-134.188	-0.183	0.023
-539.208	75.246	0.113	0.121
-538.193	-116.805	0.196	-0.037
-537.179	334.118	0.110	0.217
-536.164	476.204	0.110	0.253
-535.150	800.000	0.084	0.277
-534.135	96.706	-0.270	-0.315
-533.121	131.266	0.117	0.153
-532.106	756.375	-0.054	-0.148
-531.091	800.000	-0.035	0.121
-530.077	573.462	0.214	-0.530
-529.062	-132.982	-0.347	0.045
-528.048	674.987	0.085	-0.224
-527.033	-38.969	-0.269	0.144
-526.018	145.073	0.081	-0.110
-525.004	301.804	-0.042	-0.079
-523.989	-144.100	0.172	-0.016
-522.975	-23.638	-0.081	0.049
-521.960	-200.000	-0.057	-0.289
-520.945	800.000	0.039	-0.158
-519.931	181.373	-0.064	-0.096
-518.916	-200.000	-0.043	0.247
-517.902	269.873	-0.097	0.173
-516.887	33.880	-0.125	0.110
-515.872	-154.011	0.285	0.020
-514.858	-130.733	-0.353	0.048
-513.843	-48.377	0.256	0.125
-512.829	105.759	-0.096	-0.115
-511.814	72.118	0.089	-0.094
-510.799	-100.916	0.128	0.032
-509.785	-35.100	0.069	-0.038
-508.770	-72.947	0.150	0.056
-507.756	-200.000	0.019	0.087
-506.741	-200.000	-0.022	0.124
-505.726	-200.000	-0.002	-0.160
-504.712	50.049	0.164	-0.157
-503.697	800.000	-0.062	-0.203
-502.683	-102.522	-0.057	-0.014
-501.668	800.000	-0.060	0.205
-500.653	86.121	0.113	0.126
-499.639	-200.000	0.012	0.104
-498.624	-200.000	-0.078	-0.000
-497.610	24.590	0.083	-0.069
-496.595	137.627	-0.137	-0.182
-495.581	-76.347	-0.151	0.054
-494.566	754.547	-0.051	-0.141
-493.551	-66.379	0.117	0.047
-492.537	-11.421	-0.291	-0.194
-491.522	105.537	0.076	0.091
-490.508	800.000	-0.051	0.175
-489.493	638.595	-0.020	0.052
-488.478	-88.638	0.207	0.062
-487.464	534.353	-0.061	0.147
-486.449	83.467	-0.247	0.273
-485.435	56.525	0.167	0.165
-484.420	204.270	-0.148	-0.232
-483.405	-128.447	-0.168	0.024
-482.391	-15.990	-0.227	-0.147
-481.376	-139.620	0.103	-0.011
-480.362	-138.099	0.209	-0.024
-479.347	514.000	0.084	0.198
-478.332	188.482	-0.073	-0.111
-477.318	-124.981	0.174	0.027
-476.303	599.649	-0.079	-0.199
-475.289	-29.759	-0.136	0.078
-474.274	-98.644	0.426	0.110
-473.259	-200.000	-0.432	-0.000
-472.245	-77.276	-0.121	-0.043
-471.230	-200.000	-0.019	-0.123
-470.216	75.426	-0.234	0.250
-469.201	753.927	0.159	0.435
-468.186	-144.945	-0.355	-0.033
-467.172	178.457	-0.146	-0.216
-466.157	-181.962	0.166	-0.003
-465.143	235.828	-0.102	-0.171
-464.128	737.066	-0.075	0.205
-463.113	302.363	0.060	0.113
-462.099	-75.754	-0.415	0.149
-461.084	-200.000	0.003	0.055
-460.070	-23.838	-0.099	0.060
-459.055	-151.209	-0.361	-0.027
-458.040	-92.831	0.306	0.087
-457.026	333.198	-0.088	0.172
-456.011	-200.000	-0.037	0.205
-454.997	315.495	0.037	0.070
-453.982	800.000	-0.181	0.615
-452.968	800.000	0.117	0.370
-451.953	-200.000	0.017	-0.324
-450.938	-41.240	-0.273	0.143
-449.924	-66.078	-0.273	-0.110
-448.909	-200.000	0.033	0.187
-447.895	-40.799	-0.038	-0.020
-446.880	-130.598	-0.120	0.016
-445.865	85.381	-0.082	-0.091
-444.851	-24.958	0.223	0.134
-443.836	234.295	0.100	0.167
-442.822	166.872	-0.266	-0.382
-441.807	152.207	-0.068	-0.095
-440.792	53.142	0.132	-0.128
-439.778	-57.765	0.317	-0.140
-438.763	-118.429	-0.227	-0.041
-437.749	-81.133	0.034	-0.011
-436.734	204.975	0.138	-0.217
-435.719	417.547	-0.138	0.298
-434.705	79.418	-0.162	0.175
-433.690	-141.658	0.048	0.005
-432.676	258.131	0.140	0.244
-431.661	-102.210	-0.224	-0.054
-430.646	-200.000	0.010	0.244
-429.632	22.372	-0.138	0.114
-428.617	-200.000	-0.015	-0.217
-427.603	111.467	-0.148	-0.181
-426.588	-159.841	-0.169	-0.009
-425.573	-4.291	0.177	0.124
-424.559	-200.000	0.006	-0.085
-423.544	-200.000	0.002	0.183
-422.530	-164.941	-0.305	0.014
-421.515	342.561	0.059	-0.117
-420.500	-136.263	-0.183	-0.022
-419.486	18.306	0.193	0.155
-418.471	-59.396	0.168	0.073
-417.457	504.174	-0.106	-0.249
-416.442	-200.000	-0.024	0.353
-415.428	534.057	-0.089	0.212
-414.413	21.185	0.109	0.090
-413.398	-200.000	-0.000	-0.077
-412.384	86.281	0.097	0.109
-411.369	800.000	0.052	0.144
-410.355	-54.554	-0.058	-0.026
-409.340	97.317	0.116	0.134
-408.325	15.376	-0.092	0.073
-407.311	346.379	0.115	0.228
-406.296	-138.277	0.287	0.032
-405.282	429.093	-0.108	-0.236
-404.267	34.977	0.188	0.166
-403.252	18.478	0.066	0.054
-402.238	-200.000	0.025	0.139
-401.223	-13.262	0.111	-0.073
-400.209	-96.605	0.174	-0.046
-399.194	61.350	0.093	-0.093
-398.179	742.196	0.055	0.150
-397.165	-11.225	-0.284	-0.189
-396.150	-181.015	0.339	-0.007
-395.136	22.396	-0.074	-0.061
-394.121	800.000	0.084	-0.271
-393.106	-65.890	0.047	-0.019
-392.092	24.114	-0.107	0.089
-391.077	111.122	-0.214	0.261
-390.063	435.419	-0.075	-0.164
-389.048	-200.000	-0.022	-0.147
-388.033	-120.669	0.213	-0.036
-387.019	8.580	-0.155	0.118
-386.004	-75.596	0.106	-0.038
-384.990	42.611	-0.076	0.070
-383.975	121.432	-0.136	-0.171
-382.960	-59.854	0.408	0.176
-381.946	99.867	-0.145	-0.170
-380.931	6.739	-0.421	0.316
-379.917	-200.000	0.007	0.114
-378.902	24.948	-0.244	-0.204
-377.888	-200.000	0.081	0.386
-376.873	-94.776	-0.187	0.051
-375.858	-41.271	0.115	-0.060
-374.844	623.370	0.110	-0.279
-373.829	339.592	0.143	0.281
-372.815	-200.000	0.015	0.355
-371.800	-46.647	0.217	-0.108
-370.785	53.405	0.275	0.266
-369.771	-62.735	-0.100	-0.042
-368.756	-149.443	0.195	-0.016
-367.742	-100.485	0.199	0.050
-366.727	21.379	0.109	-0.090
-365.712	-200.000	0.027	-0.138
-364.698	347.410	0.086	0.172
-363.683	-23.573	0.204	-0.123
-362.669	800.000	-0.096	-0.271
-361.654	-50.440	0.369	-0.176
-360.639	310.592	0.051	-0.096
-359.625	-200.000	-0.011	0.125
-358.610	-39.818	0.184	-0.097
-357.596	52.890	-0.150	-0.145
-356.581	138.245	0.130	0.171
-355.566	-28.768	-0.098	0.057
-354.552	800.000	-0.087	0.265
-353.537	-175.875	-0.140	0.004
-352.523	26.522	-0.219	-0.185
-351.508	68.729	-0.089	-0.092
-350.493	-200.000	-0.033	0.191
-349.479	182.131	-0.103	-0.153
-348.464	-122.374	0.478	-0.079
-347.450	-200.000	0.020	-0.138
-346.435	127.233	0.259	-0.332
-345.420	-74.924	0.271	-0.098
-344.406	-123.146	-0.377	0.061
-343.391	-34.364	-0.033	-0.018
-342.377	67.133	-0.185	0.190
-341.362	6.375	0.211	0.158
-340.348	654.846	-0.161	-0.415
-339.333	-95.141	-0.090	0.024
-338.318	43.623	-0.237	-0.218
-337.304	-89.861	-0.295	0.087
-336.289	800.000	0.052	-0.210
-335.275	-12.404	0.258	0.170
-334.260	15.639	0.044	-0.035
-333.245	-100.464	0.081	-0.020
-332.231	163.727	-0.155	-0.220
-331.216	-200.000	-0.013	0.181
-330.202	-68.225	-0.143	0.056
-329.187	39.341	0.098	-0.088
-328.172	67.730	0.452	0.466
-327.158	165.000	0.072	-0.103
-326.143	55.367	0.188	-0.183
-325.129	-55.981	0.280	0.126
-324.114	-200.000	-0.031	-0.232
-323.099	106.230	-0.100	-0.119
-322.085	110.099	-0.146	-0.176
-321.070	557.125	0.061	-0.149
-320.056	-43.902	-0.313	0.158
-319.041	179.975	0.140	0.206
-318.026	251.973	-0.081	-0.140
-317.012	113.697	0.256	-0.314
-315.997	-4.896	-0.195	-0.136
-314.983	135.253	0.172	-0.225
-313.968	44.808	0.132	0.122
-312.953	346.857	0.028	0.056
-311.939	-74.152	0.492	-0.179
-310.924	71.582	0.207	0.216
-309.910	615.963	-0.077	-0.195
-308.895	442.394	-0.034	-0.074
-307.880	-108.391	-0.130	-0.028
-306.866	800.000	0.042	-0.166
-305.851	218.699	0.032	0.051
-304.837	12.612	0.264	0.205
-303.822	-200.000	-0.062	0.354
-302.807	-0.363	0.294	0.210
-301.793	-57.261	0.103	-0.046
-300.778	-57.501	-0.190	-0.084
-299.764	-122.899	0.162	-0.026
-298.749	-68.230	-0.291	-0.114
-297.735	-63.411	0.237	-0.098
-296.720	800.000	0.039	0.164
-295.705	-28.810	0.394	0.228
-294.691	-200.000	-0.021	-0.137
-293.676	49.748	-0.220	0.209
-292.662	255.384	-0.149	0.257
-291.647	800.000	-0.070	0.200
-290.632	800.000	-0.080	0.324
-289.618	12.545	-0.266	-0.207
-288.603	-154.402	-0.351	-0.024
-287.589	122.102	-0.165	-0.207
-286.574	166.832	0.282	-0.402
-285.559	151.882	0.176	0.241
-284.545	-200.000	0.023	0.125
-283.530	-199.276	-0.149	0.001
-282.516	-200.000	0.042	-0.269
-281.501	639.628	0.091	-0.234
-280.486	729.385	0.045	0.121
-279.472	-200.000	-0.013	-0.280
-278.457	-40.338	-0.173	0.090
-277.443	-200.000	0.079	0.444
-276.428	85.087	0.089	0.098
-275.413	99.488	0.088	0.102
-274.399	-200.000	0.012	0.278
-273.384	106.604	0.125	0.149
-272.370	-200.000	0.024	0.105
-271.355	-200.000	-0.043	-0.207
-270.340	800.000	0.081	-0.274
-269.326	-14.611	0.244	-0.158
-268.311	-23.653	-0.277	0.167
-267.297	-66.895	0.125	0.050
-266.282	37.546	-0.165	0.147
-265.267	-200.000	0.016	0.122
-264.253	-200.000	-0.019	0.102
-263.238	-200.000	-0.053	0.256
-262.224	-50.902	-0.488	-0.230
-261.209	31.674	-0.093	0.080
-260.195	139.604	0.149	-0.197
-259.180	-122.462	0.189	-0.031
-258.165	85.744	-0.102	-0.112
-257.151	-200.000	-0.074	0.352
-256.136	133.303	-0.083	0.107
-255.122	-20.381	-0.087	-0.054
-254.107	-90.577	-0.227	-0.066
-253.092	251.673	0.134	-0.230
-252.078	-8.883	-0.175	-0.118
-251.063	-200.000	0.002	-0.135
-250.049	99.039	-0.156	0.181
-249.034	800.000	-0.023	-0.072
-248.019	361.656	0.050	-0.100
-247.005	36.637	0.097	-0.086
-245.990	-200.000	0.026	-0.503
-244.976	149.654	0.109	0.148
-243.961	12.316	-0.179	0.139
-242.946	-2.115	-0.137	-0.096
-241.932	594.994	0.094	0.233
-240.917	-57.087	0.446	0.197
-239.903	-43.302	-0.135	0.069
-238.888	-163.344	-0.193	-0.009
-237.873	-146.779	0.309	-0.027
-236.859	-61.670	0.301	-0.127
-235.844	7.916	-0.157	-0.118
-234.830	-106.083	0.070	-0.016
-233.815	25.614	-0.144	0.120
-232.800	-55.754	0.095	0.043
-231.786	800.000	0.069	-0.290
-230.771	-200.000	0.028	-0.142
-229.757	-200.000	0.004	-0.111
-228.742	67.956	0.180	0.185
-227.727	422.927	-0.098	-0.212
-226.713	-30.586	-0.310	-0.176
-225.698	-200.000	-0.028	-0.159
-224.684	458.846	0.042	-0.095
-223.669	-98.083	0.133	-0.034
-222.655	-28.614	-0.099	0.057
-221.640	-200.000	0.025	0.220
-220.625	-92.292	0.442	-0.125
-219.611	-4.062	-0.046	-0.032
-218.596	-200.000	-0.040	0.192
-217.582	81.661	-0.090	0.097
-216.567	-64.590	-0.160	0.065
-215.552	95.452	-0.091	0.105
-214.538	-80.035	-0.223	0.075
-213.523	35.641	0.262	0.231
-212.509	-200.000	0.000	-0.288
-211.494	-72.896	0.187	0.069
-210.479	-118.195	-0.156	0.028
-209.465	-18.992	-0.065	-0.041
-208.450	66.494	0.033	0.034
-207.436	-55.418	0.305	-0.137
-206.421	-194.382	0.157	-0.001
-205.406	-93.170	-0.313	-0.087
-204.392	2.327	-0.072	0.052
-203.377	-56.323	-0.082	-0.036
-202.363	410.180	0.192	0.408
-201.348	-136.112	-0.350	-0.041
-200.333	-200.000	0.004	-0.028
-199.319	-106.738	0.267	0.059
-198.304	-132.263	-0.204	0.026
-197.290	141.755	-0.007	0.009
-196.275	-200.000	-0.039	-0.185
-195.260	391.857	0.123	-0.257
-194.246	-113.129	0.173	-0.034
-193.231	-200.000	0.014	0.114
-192.217	-136.643	0.245	0.028
-191.202	-200.000	0.025	-0.111
-190.187	424.032	-0.118	-0.254
-189.173	85.266	-0.179	0.197
-188.158	73.973	0.068	-0.072
-187.144	-36.561	-0.111	-0.060
-186.129	347.943	0.062	0.122
-185.114	312.583	0.190	0.357
-184.100	-45.381	-0.344	-0.171
-183.085	800.000	0.091	0.313
-182.071	-80.744	-0.085	0.028
-181.056	541.106	-0.116	-0.277
-180.042	-31.148	-0.158	-0.089
-179.027	153.402	0.060	0.083
-178.012	800.000	0.077	0.247
-176.998	-96.656	0.242	0.064
-175.983	800.000	0.073	-0.305
-174.969	117.461	0.108	0.133
-173.954	-43.588	0.396	0.200
-172.939	-200.000	-0.004	0.204
-171.925	-7.912	0.347	-0.234
-170.910	-24.008	0.208	-0.125
-169.896	-34.772	-0.246	0.134
-168.881	800.000	-0.068	0.244
-167.866	35.348	0.273	-0.240
-166.852	-83.993	-0.140	-0.045
-165.837	-200.000	0.010	-0.092
-164.823	301.895	0.042	0.078
-163.808	-152.109	-0.226	0.016
-162.793	-100.782	-0.076	-0.019
-161.779	-200.000	0.067	-0.341
-160.764	416.396	-0.052	-0.111
-159.750	217.321	-0.180	-0.287
-158.735	173.474	0.167	0.241
-157.720	-190.230	0.142	-0.002
-156.706	149.639	-0.137	-0.186
-155.691	343.342	0.143	-0.280
-154.677	25.997	0.096	-0.080
-153.662	-200.000	0.003	0.251
-152.647	94.639	0.168	0.191
-151.633	-62.659	0.487	-0.202
-150.618	315.286	0.073	0.138
-149.604	-200.000	-0.254	-0.001
-148.589	-86.818	0.042	-0.013
-147.574	-200.000	-0.041	-0.273
-146.560	800.000	0.124	-0.349
-145.545	800.000	0.039	-0.144
-144.531	800.000	0.091	0.273
-143.516	-115.038	-0.070	-0.013
-142.502	110.093	-0.176	-0.211
-141.487	46.145	0.245	0.227
-140.472	-3.428	0.355	0.247
-139.458	-112.638	0.447	0.089
-138.443	38.290	0.164	-0.146
-137.429	442.645	-0.054	0.118
-136.414	147.595	0.077	0.104
-135.399	-200.000	-0.005	0.034
-134.385	177.658	0.127	0.184
-133.370	-60.171	-0.042	-0.018
-132.356	800.000	-0.056	-0.184
-131.341	-104.256	-0.148	0.034
-130.326	800.000	-0.022	-0.086
-129.312	202.417	0.139	0.215
-128.297	130.777	-0.118	0.151
-127.283	-114.063	0.064	0.012
-126.268	189.938	0.112	-0.167
-125.253	800.000	0.053	0.178
-124.239	377.014	0.105	0.215
-123.224	-115.767	0.041	0.008
-122.210	207.248	0.181	-0.282
-121.195	-200.000	-0.014	0.073
