DTS Sentinel unit serial number:	SN413079Multiplexer serial number:	ORYXHardware model number:	OX4-SRSoftware version number:	ORYX F/W v4.00 Oryx Data Collector v3.7.2.0data status	okinstallation	princeton_trtdifferential loss correction	single-endedforward channel	channel 1reverse channel	N/Adate	2019/09/14time	12:34:35forward acquisition time	60.00reverse acquisition time	0.00gamma	496.2192k internal	0.2294k external	0.2294temperature offset calibration	1.0084default loss term (dB/km)	0.3790temperature slope calibration	1.0000multiplexer offset coefficient	1.0000multiplexer slope coefficient	1.0000fibre end	0.00T internal ref (°C)	38.00T ext. ref 1 (°C)	4.76T ext. ref 2 (°C)	34.20length (m)	temperature (°C)	Stokes	anti-Stokes-747.200	-15.539	0.293	-0.191
-746.185	-122.125	-0.342	0.057
-745.171	25.805	-0.194	0.165
-744.156	-200.000	-0.048	0.263
-743.142	-138.004	0.212	-0.024
-742.127	308.759	-0.210	0.401
-741.112	215.921	0.080	0.131
-740.098	-69.562	-0.094	0.037
-739.083	38.297	0.135	-0.123
-738.069	-137.963	0.155	0.018
-737.054	392.802	0.161	0.343
-736.039	-104.526	-0.199	0.047
-735.025	-59.240	-0.172	0.076
-734.010	-52.162	0.105	0.050
-732.996	-125.661	-0.176	-0.027
-731.981	250.126	-0.055	-0.096
-730.966	-200.000	0.003	0.228
-729.952	-200.000	0.056	-0.337
-728.937	-200.000	-0.004	-0.035
-727.923	-58.173	0.277	-0.123
-726.908	-97.863	0.130	-0.034
-725.894	330.291	-0.191	-0.375
-724.879	115.177	0.156	-0.195
-723.864	144.591	-0.114	-0.156
-722.850	647.771	-0.062	0.161
-721.835	-59.221	-0.118	-0.052
-720.821	-58.328	0.192	0.085
-719.806	-76.618	-0.293	0.105
-718.791	153.966	0.071	-0.099
-717.777	-166.713	0.298	0.013
-716.762	37.931	-0.246	-0.223
-715.748	-117.491	0.148	0.027
-714.733	462.645	-0.085	0.193
-713.718	800.000	0.120	0.398
-712.704	800.000	-0.065	0.206
-711.689	-69.605	0.214	-0.084
-710.675	-71.055	-0.155	0.059
-709.660	-51.336	-0.255	-0.122
-708.645	-187.867	0.619	0.008
-707.631	47.724	-0.232	-0.221
-706.616	-4.534	0.254	0.179
-705.602	-93.201	0.315	-0.089
-704.587	800.000	-0.100	-0.337
-703.572	242.265	0.020	-0.034
-702.558	222.338	0.236	-0.387
-701.543	-133.697	-0.303	-0.039
-700.529	800.000	0.047	-0.148
-699.514	-73.425	0.133	0.050
-698.499	-80.459	0.175	-0.059
-697.485	-200.000	-0.020	0.195
-696.470	148.098	0.245	0.337
-695.456	115.521	-0.123	0.154
-694.441	-125.416	0.133	0.021
-693.426	-11.211	0.169	-0.114
-692.412	17.374	0.101	0.082
-691.397	100.908	-0.172	0.204
-690.383	533.474	-0.080	0.194
-689.368	330.907	-0.097	0.190
-688.354	-199.810	0.216	-0.001
-687.339	69.547	0.171	0.180
-686.324	-127.383	0.224	-0.033
-685.310	-162.493	-0.544	0.027
-684.295	-55.841	-0.384	-0.175
-683.281	-31.922	-0.291	0.166
-682.266	174.284	-0.141	-0.207
-681.251	209.333	-0.091	0.146
-680.237	30.038	-0.196	0.171
-679.222	-17.309	-0.074	0.047
-678.208	-200.000	0.036	-0.232
-677.193	4.602	-0.097	0.073
-676.178	-104.295	-0.594	-0.141
-675.164	182.586	-0.155	-0.233
-674.149	-18.214	0.098	0.062
-673.135	-84.834	0.113	-0.036
-672.120	104.872	0.087	-0.104
-671.105	234.100	0.086	0.145
-670.091	-200.000	-0.034	0.308
-669.076	800.000	-0.020	-0.090
-668.062	-77.750	-0.252	-0.089
-667.047	800.000	0.094	-0.308
-666.032	-168.864	-0.242	0.009
-665.018	152.431	0.092	-0.128
-664.003	-30.164	-0.032	0.018
-662.989	-59.494	0.114	0.050
-661.974	-101.567	-0.223	0.055
-660.959	222.754	0.246	-0.403
-659.945	-15.437	0.114	-0.074
-658.930	-112.719	-0.075	-0.015
-657.916	-200.000	0.074	-0.402
-656.901	0.603	-0.123	-0.090
-655.886	-114.151	0.183	-0.036
-654.872	-200.000	0.052	0.255
-653.857	800.000	0.005	-0.015
-652.843	70.470	0.276	-0.291
-651.828	591.132	-0.093	-0.233
-650.814	-85.507	-0.285	0.091
-649.799	283.066	0.051	0.093
-648.784	3.912	0.071	-0.053
-647.770	800.000	-0.072	-0.221
-646.755	-30.601	-0.153	-0.088
-645.741	-11.231	-0.151	-0.101
-644.726	-200.000	-0.043	-0.231
-643.711	-141.490	-0.334	-0.034
-642.697	-200.000	0.101	0.492
-641.682	-98.208	-0.122	0.032
-640.668	-45.261	0.163	0.082
-639.653	-200.000	-0.010	0.056
-638.638	-92.596	0.033	-0.009
-637.624	656.018	0.098	-0.257
-636.609	-200.000	0.019	-0.199
-635.595	-200.000	0.002	-0.151
-634.580	-179.985	-0.048	-0.001
-633.565	16.090	0.050	0.040
-632.551	800.000	-0.082	0.236
-631.536	-66.534	0.262	0.106
-630.522	-16.600	0.221	-0.142
-629.507	54.581	-0.082	0.080
-628.492	269.864	0.206	0.369
-627.478	800.000	0.021	0.076
-626.463	422.533	-0.085	-0.185
-625.449	-200.000	-0.013	-0.326
-624.434	49.996	-0.095	0.091
-623.419	-117.752	0.389	-0.071
-622.405	308.370	0.134	0.255
-621.390	239.595	0.021	-0.036
-620.376	-2.556	-0.388	-0.277
-619.361	-87.526	-0.182	-0.056
-618.346	-95.847	-0.272	-0.074
-617.332	-155.287	0.115	-0.008
-616.317	70.666	-0.162	0.170
-615.303	-8.711	0.308	-0.210
-614.288	93.147	-0.043	-0.049
-613.273	446.766	0.033	-0.074
-612.259	-200.000	-0.016	-0.352
-611.244	800.000	-0.006	-0.026
-610.230	-200.000	0.026	0.122
-609.215	263.401	0.133	-0.236
-608.201	-41.133	-0.209	0.110
-607.186	43.535	0.256	0.238
-606.171	-53.300	0.241	-0.113
-605.157	306.949	0.122	-0.231
-604.142	118.856	0.145	-0.182
-603.128	-95.198	0.091	0.025
-602.113	800.000	-0.028	-0.085
-601.098	461.085	0.049	-0.110
-600.084	101.610	0.137	0.162
-599.069	289.882	0.102	0.187
-598.055	-200.000	0.009	0.066
-597.040	12.902	-0.091	-0.072
-596.025	209.266	-0.056	-0.089
-595.011	-200.000	-0.072	-0.359
-593.996	800.000	0.014	-0.055
-592.982	-200.000	-0.023	-0.383
-591.967	-183.276	-0.050	-0.001
-590.952	-36.360	-0.154	-0.084
-589.938	-81.604	-0.400	0.134
-588.923	-26.683	0.100	0.060
-587.909	151.689	0.134	-0.185
-586.894	531.910	0.115	0.276
-585.879	-70.868	0.126	0.048
-584.865	122.682	-0.149	-0.190
-583.850	9.679	-0.421	-0.324
-582.836	169.172	0.190	-0.276
-581.821	344.116	0.059	0.118
-580.806	-130.121	-0.316	0.044
-579.792	-153.091	-0.283	-0.020
-578.777	478.919	0.033	-0.076
-577.763	-70.619	0.222	-0.085
-576.748	-200.000	-0.068	-0.303
-575.733	-179.546	0.328	0.007
-574.719	-106.326	-0.149	0.034
-573.704	-200.000	-0.038	0.252
-572.690	362.273	-0.007	-0.014
-571.675	-86.252	-0.122	-0.038
-570.661	800.000	-0.044	-0.160
-569.646	72.230	-0.058	0.061
-568.631	-42.733	-0.167	-0.086
-567.617	133.978	-0.196	-0.258
-566.602	59.394	0.094	-0.094
-565.588	-146.622	0.094	-0.008
-564.573	726.076	-0.104	0.280
-563.558	-106.277	0.321	-0.073
-562.544	-200.000	0.009	0.064
-561.529	-102.480	0.428	0.104
-560.515	87.882	-0.081	0.091
-559.500	-29.656	-0.190	0.110
-558.485	-61.680	-0.263	-0.112
-557.471	800.000	0.040	-0.113
-556.456	-54.354	-0.283	-0.130
-555.442	437.094	-0.079	-0.174
-554.427	-163.620	-0.110	0.005
-553.412	-33.176	-0.124	0.070
-552.398	-200.000	0.009	0.047
-551.383	-87.101	-0.243	0.075
-550.369	800.000	0.083	0.267
-549.354	-112.965	0.380	0.076
-548.339	-200.000	0.074	0.530
-547.325	-200.000	-0.010	-0.212
-546.310	-47.778	-0.044	-0.021
-545.296	-94.075	-0.234	0.065
-544.281	-200.000	-0.009	0.053
-543.266	305.919	-0.127	-0.240
-542.252	-97.259	0.098	-0.026
-541.237	79.044	0.168	0.182
-540.223	-178.894	0.074	-0.002
-539.208	171.726	-0.070	0.101
-538.193	-200.000	0.041	-0.229
-537.179	15.856	-0.248	0.198
-536.164	15.904	0.113	-0.090
-535.150	664.132	-0.016	0.042
-534.135	-2.398	-0.036	0.025
-533.121	-44.881	-0.007	0.003
-532.106	46.932	0.188	0.178
-531.091	800.000	0.115	0.347
-530.077	-146.519	-0.253	-0.022
-529.062	542.660	-0.032	-0.078
-528.048	157.846	-0.256	-0.360
-527.033	0.455	0.083	0.060
-526.018	664.525	-0.197	-0.515
-525.004	-200.000	0.006	0.084
-523.989	-200.000	0.013	-0.187
-522.975	102.091	0.178	-0.211
-521.960	7.555	-0.160	0.121
-520.945	459.676	0.043	-0.098
-519.931	-200.000	-0.010	-0.144
-518.916	77.578	0.193	0.208
-517.902	-45.606	0.085	-0.043
-516.887	25.587	-0.226	0.191
-515.872	-137.997	0.254	0.029
-514.858	800.000	0.074	-0.218
-513.843	-128.260	-0.359	0.052
-512.829	-200.000	0.008	-0.236
-511.814	-127.517	-0.289	0.043
-510.799	319.285	0.105	0.203
-509.785	-91.011	-0.108	0.032
-508.770	448.636	0.095	-0.211
-507.756	286.525	0.027	0.049
-506.741	800.000	-0.070	-0.226
-505.726	-84.249	-0.181	-0.058
-504.712	-91.619	0.047	0.014
-503.697	800.000	0.026	-0.108
-502.683	-61.241	0.294	-0.126
-501.668	-200.000	-0.018	0.129
-500.653	-1.832	0.057	0.041
-499.639	800.000	0.043	0.160
-498.624	113.352	-0.074	-0.090
-497.610	198.352	-0.125	-0.193
-496.595	-200.000	0.043	0.194
-495.581	230.896	0.219	-0.363
-494.566	21.510	0.325	-0.268
-493.551	-42.318	0.135	-0.070
-492.537	643.611	0.057	-0.146
-491.522	-101.525	0.139	0.034
-490.508	-38.653	-0.113	-0.060
-489.493	-200.000	0.011	0.178
-488.478	354.298	0.091	-0.184
-487.464	-108.514	-0.255	0.056
-486.449	191.524	-0.161	0.246
-485.435	383.831	0.149	0.310
-484.420	35.896	0.102	0.091
-483.405	800.000	-0.027	-0.092
-482.391	15.354	-0.076	-0.060
-481.376	140.187	0.151	-0.201
-480.362	-67.870	-0.270	0.107
-479.347	-200.000	0.013	0.066
-478.332	271.384	0.099	0.176
-477.318	8.942	-0.196	-0.150
-476.303	-43.619	-0.183	0.093
-475.289	62.877	-0.043	-0.044
-474.274	206.592	-0.079	0.124
-473.259	-200.000	0.007	-0.157
-472.245	-200.000	-0.026	-0.180
-471.230	-200.000	0.045	-0.234
-470.216	-107.486	0.128	0.028
-469.201	-71.097	-0.143	-0.054
-468.186	256.282	0.132	-0.228
-467.172	20.865	-0.082	0.067
-466.157	-200.000	-0.034	-0.254
-465.143	800.000	0.158	-0.510
-464.128	-200.000	-0.043	0.390
-463.113	-200.000	-0.032	0.396
-462.099	18.245	0.042	0.034
-461.084	-200.000	-0.023	0.302
-460.070	800.000	0.056	0.235
-459.055	471.363	0.090	0.204
-458.040	47.715	0.146	-0.138
-457.026	800.000	-0.081	-0.236
-456.011	-200.000	0.001	-0.342
-454.997	117.727	0.103	-0.128
-453.982	-109.001	-0.360	-0.078
-452.968	-61.992	0.142	-0.060
-451.953	-68.706	0.245	-0.096
-450.938	-118.829	-0.147	-0.026
-449.924	593.913	0.101	0.253
-448.909	-44.918	0.143	0.072
-447.895	-200.000	0.001	0.314
-446.880	-114.410	-0.572	0.111
-445.865	-55.291	-0.401	-0.182
-444.851	463.429	0.096	0.217
-443.836	451.104	0.058	0.129
-442.822	-108.211	0.135	0.029
-441.807	-200.000	-0.088	0.611
-440.792	-82.871	0.053	0.017
-439.778	30.507	-0.101	-0.087
-438.763	800.000	0.112	-0.460
-437.749	50.888	0.123	0.118
-436.734	37.937	-0.266	-0.239
-435.719	-200.000	-0.093	-0.559
-434.705	-60.968	0.433	0.185
-433.690	-200.000	-0.012	0.191
-432.676	-200.000	-0.021	0.163
-431.661	43.766	-0.056	0.052
-430.646	-71.466	0.122	-0.046
-429.632	-102.535	0.215	-0.052
-428.617	-99.593	0.202	0.051
-427.603	-4.201	-0.114	-0.080
-426.588	-39.560	0.151	0.080
-425.573	-73.672	-0.075	0.028
-424.559	-200.000	0.001	0.131
-423.544	106.028	-0.387	-0.462
-422.530	-33.669	-0.086	-0.048
-421.515	-103.965	-0.071	-0.017
-420.500	-120.983	-0.042	-0.007
-419.486	6.729	-0.305	-0.229
-418.471	-131.318	0.029	0.004
-417.457	95.152	0.156	-0.179
-416.442	227.916	-0.027	0.044
-415.428	123.554	0.210	-0.266
-414.413	-200.000	0.039	0.381
-413.398	116.739	0.207	0.257
-412.384	-63.313	-0.049	-0.020
-411.369	-101.635	0.345	-0.085
-410.355	-200.000	-0.044	0.264
-409.340	502.979	-0.204	0.477
-408.325	-128.238	-0.210	-0.030
-407.311	102.948	-0.221	-0.262
-406.296	675.782	-0.050	0.131
-405.282	-126.846	0.424	-0.063
-404.267	-115.884	-0.217	-0.041
-403.252	-200.000	-0.020	0.104
-402.238	27.885	0.108	0.092
-401.223	-200.000	-0.025	0.118
-400.209	271.966	0.100	-0.179
-399.194	-58.897	0.277	-0.121
-398.179	-200.000	-0.026	0.582
-397.165	-89.532	-0.244	-0.072
-396.150	697.875	0.111	0.295
-395.136	-90.472	-0.062	-0.018
-394.121	-123.693	0.236	0.038
-393.106	-4.163	-0.235	-0.164
-392.092	-151.203	0.300	0.023
-391.077	-3.392	-0.308	-0.216
-390.063	79.602	-0.300	-0.325
-389.048	800.000	-0.084	-0.259
-388.033	346.467	-0.056	0.111
-387.019	271.895	0.104	-0.185
-386.004	-101.613	-0.035	0.009
-384.990	337.151	-0.106	-0.207
-383.975	-27.827	0.339	0.198
-382.960	-153.078	-0.119	0.008
-381.946	-61.032	-0.372	0.158
-380.931	-115.052	-0.147	0.028
-379.917	-57.934	0.233	-0.102
-378.902	-200.000	0.004	-0.255
-377.888	140.691	0.109	0.146
-376.873	800.000	0.049	0.146
-375.858	153.150	-0.238	0.328
-374.844	-153.194	-0.297	-0.021
-373.829	-95.818	0.217	0.058
-372.815	-92.766	0.356	0.100
-371.800	-104.393	0.089	-0.021
-370.785	-63.573	0.134	0.056
-369.771	297.882	0.082	0.151
-368.756	-83.554	-0.419	0.135
-367.742	-200.000	0.072	0.387
-366.727	-200.000	0.066	0.377
-365.712	-21.002	0.278	-0.171
-364.698	-74.698	0.184	0.067
-363.683	84.959	-0.062	0.069
-362.669	-200.000	-0.060	0.320
-361.654	547.938	-0.086	-0.208
-360.639	-200.000	0.036	-0.237
-359.625	-200.000	0.005	0.122
-358.610	153.399	0.166	0.229
-357.596	-81.685	-0.356	0.118
-356.581	645.306	0.067	-0.171
-355.566	-200.000	0.001	-0.117
-354.552	-17.288	0.103	-0.065
-353.537	-92.272	-0.194	0.055
-352.523	87.365	0.139	0.154
-351.508	516.023	-0.135	0.317
-350.493	537.502	0.063	0.150
-349.479	-75.624	-0.190	0.068
-348.464	-132.684	0.295	-0.038
-347.450	-193.811	-0.219	0.002
-346.435	-92.867	-0.366	-0.103
-345.420	-200.000	0.010	0.303
-344.406	-85.437	0.260	-0.082
-343.391	-70.427	-0.191	-0.073
-342.377	319.107	0.086	0.163
-341.362	-77.343	0.493	-0.172
-340.348	-90.233	0.216	0.063
-339.333	-200.000	-0.001	-0.273
-338.318	67.540	0.158	-0.163
-337.304	-200.000	0.040	0.278
-336.289	61.677	-0.215	-0.215
-335.275	61.201	-0.121	-0.121
-334.260	800.000	-0.043	-0.183
-333.245	-200.000	-0.009	-0.173
-332.231	193.085	0.276	0.420
-331.216	-35.370	0.166	0.091
-330.202	65.176	-0.066	-0.067
-329.187	145.681	-0.051	-0.068
-328.172	-200.000	-0.010	0.129
-327.158	96.217	0.093	-0.107
-326.143	-114.585	-0.192	0.037
-325.129	45.538	0.179	0.166
-324.114	126.957	-0.049	-0.063
-323.099	800.000	-0.032	0.140
-322.085	459.234	0.085	-0.191
-321.070	669.188	0.051	0.132
-320.056	-200.000	0.004	0.246
-319.041	-95.234	-0.052	0.014
-318.026	64.034	0.254	0.257
-317.012	-200.000	-0.052	-0.242
-315.997	-13.986	-0.103	-0.067
-314.983	-200.000	0.023	-0.112
-313.968	545.863	-0.023	-0.055
-312.953	800.000	-0.118	-0.438
-311.939	-122.538	-0.450	0.073
-310.924	-200.000	0.007	-0.058
-309.910	-200.000	-0.012	0.074
-308.895	-20.648	0.290	-0.179
-307.880	10.304	-0.140	-0.107
-306.866	-140.268	-0.398	-0.042
-305.851	-27.209	-0.220	0.129
-304.837	-71.445	0.117	0.044
-303.822	20.258	-0.128	0.104
-302.807	-154.777	0.155	0.010
-301.793	130.715	0.356	0.459
-300.778	-135.095	0.107	-0.013
-299.764	800.000	0.069	-0.195
-298.749	426.088	-0.040	0.087
-297.735	-200.000	0.005	-0.316
-296.720	-79.728	-0.131	0.044
-295.705	307.169	0.238	0.445
-294.691	58.399	0.150	0.148
-293.676	17.905	-0.231	-0.185
-292.662	-51.128	-0.204	0.096
-291.647	-200.000	0.040	-0.372
-290.632	229.641	-0.179	0.294
-289.618	-122.666	0.154	0.025
-288.603	-200.000	-0.038	0.258
-287.589	106.934	-0.275	-0.328
-286.574	-106.754	0.065	0.014
-285.559	-200.000	0.026	-0.331
-284.545	136.507	0.176	-0.230
-283.530	-200.000	-0.025	0.126
-282.516	-200.000	0.054	-0.240
-281.501	-63.978	-0.215	0.088
-280.486	-60.273	-0.162	-0.069
-279.472	-200.000	0.051	-0.241
-278.457	108.297	0.260	0.312
-277.443	-200.000	-0.001	-0.087
-276.428	20.337	0.136	0.111
-275.413	109.580	-0.158	0.189
-274.399	-95.223	0.078	-0.021
-273.384	230.738	0.111	-0.183
-272.370	-200.000	0.001	0.124
-271.355	-52.563	-0.173	0.080
-270.340	644.103	0.075	-0.193
-269.326	-5.438	-0.278	0.192
-268.311	350.664	-0.150	0.298
-267.297	800.000	0.198	0.682
-266.282	14.853	0.175	0.137
-265.267	-143.017	0.089	0.009
-264.253	-97.357	0.189	-0.049
-263.238	-49.692	0.350	0.167
-262.224	11.869	0.244	-0.188
-261.209	-35.134	0.071	-0.039
-260.195	147.779	0.078	0.105
-259.180	-46.188	0.209	0.103
-258.165	-121.675	0.391	-0.065
-257.151	-200.000	-0.013	0.317
-256.136	27.638	0.195	-0.165
-255.122	60.970	0.112	0.112
-254.107	-112.415	-0.247	-0.050
-253.092	192.651	-0.210	0.319
-252.078	-200.000	-0.050	0.342
-251.063	19.951	0.137	-0.111
-250.049	65.891	-0.023	0.024
-249.034	-200.000	-0.008	0.227
-248.019	70.258	0.229	0.237
-247.005	800.000	0.094	0.272
-245.990	358.691	0.140	-0.281
-244.976	-90.122	-0.155	-0.045
-243.961	-109.037	0.118	0.025
-242.946	585.700	0.056	-0.139
-241.932	-40.101	0.241	0.126
-240.917	-181.141	0.163	0.003
-239.903	107.612	0.175	0.208
-238.888	-154.212	-0.171	-0.012
-237.873	-107.347	-0.043	0.010
-236.859	-30.203	0.109	-0.062
-235.844	-63.465	0.161	0.066
-234.830	-138.213	-0.190	-0.021
-233.815	-118.643	0.296	0.052
-232.800	63.931	-0.088	0.088
-231.786	-119.899	-0.551	0.095
-230.771	-200.000	0.037	0.191
-229.757	160.416	0.187	0.261
-228.742	-88.264	0.172	-0.052
-227.727	228.075	0.064	-0.104
-226.713	71.167	-0.093	-0.097
-225.698	-200.000	0.015	-0.083
-224.684	800.000	-0.037	-0.112
-223.669	60.658	0.158	-0.157
-222.655	-88.196	0.243	0.073
-221.640	117.076	-0.108	-0.133
-220.625	-200.000	0.039	0.314
-219.611	-79.197	-0.134	0.046
-218.596	231.778	0.017	-0.029
-217.582	22.740	0.153	-0.125
-216.567	-150.906	-0.290	-0.022
-215.552	-31.057	0.094	0.053
-214.538	94.471	-0.068	0.078
-213.523	-100.762	-0.155	0.038
-212.509	-74.143	0.285	-0.103
-211.494	710.660	0.078	-0.206
-210.479	247.592	0.126	-0.214
-209.465	-128.901	0.162	0.023
-208.450	-145.971	-0.069	0.006
-207.436	341.274	0.071	-0.138
-206.421	-200.000	-0.027	-0.698
-205.406	-18.924	0.198	-0.123
-204.392	-119.314	0.433	-0.076
-203.377	-148.711	-0.234	0.019
-202.363	-142.160	0.510	0.051
-201.348	-11.663	0.200	-0.131
-200.333	121.037	-0.046	0.058
-199.319	-200.000	0.015	0.211
-198.304	118.905	0.058	0.072
-197.290	145.652	0.096	-0.129
-196.275	29.134	0.219	0.186
-195.260	-79.056	-0.026	-0.009
-194.246	85.141	0.098	0.108
-193.231	36.298	-0.300	0.265
-192.217	-200.000	0.006	0.126
-191.202	-79.694	-0.135	-0.045
-190.187	-200.000	-0.015	-0.202
-189.173	-106.055	0.138	-0.031
-188.158	173.794	0.065	0.093
-187.144	-28.654	-0.121	-0.070
-186.129	41.227	-0.204	0.184
-185.114	431.312	-0.095	-0.205
-184.100	-200.000	-0.005	-0.281
-183.085	334.018	-0.146	-0.282
-182.071	-172.632	-0.231	0.007
-181.056	408.465	-0.046	-0.097
-180.042	189.006	0.046	-0.069
-179.027	116.655	-0.152	0.187
-178.012	392.201	0.059	0.122
-176.998	-200.000	-0.115	0.556
-175.983	-200.000	-0.016	-0.084
-174.969	45.851	-0.228	0.211
-173.954	124.715	-0.094	-0.119
-172.939	332.481	-0.058	-0.113
-171.925	86.777	0.132	-0.146
-170.910	414.849	-0.060	-0.129
-169.896	15.814	-0.370	-0.291
-168.881	299.639	0.041	0.076
-167.866	47.734	-0.048	-0.045
-166.852	-128.479	-0.199	0.028
-165.837	-200.000	0.063	0.293
-164.823	-44.473	-0.110	0.055
-163.808	-111.376	-0.250	-0.051
-162.793	-106.849	-0.397	-0.088
-161.779	-160.941	-0.257	-0.014
-160.764	-118.171	-0.312	-0.056
-159.750	156.835	-0.126	0.173
-158.735	-41.923	-0.160	-0.082
-157.720	-55.431	-0.078	0.035
-156.706	178.738	0.133	0.195
-155.691	237.472	0.202	-0.334
-154.677	-61.086	-0.243	0.102
-153.662	800.000	-0.085	0.284
-152.647	-112.546	0.265	-0.053
-151.633	800.000	-0.047	-0.149
-150.618	-200.000	0.008	0.094
-149.604	-27.375	0.091	0.053
-148.589	-51.570	-0.239	-0.112
-147.574	-200.000	-0.021	-0.456
-146.560	-84.009	-0.192	-0.061
-145.545	-94.111	-0.180	0.049
-144.531	-117.314	0.358	0.065
-143.516	-11.301	-0.134	0.088
-142.502	59.973	-0.126	-0.124
-141.487	-200.000	0.022	0.300
-140.472	126.637	0.139	-0.176
-139.458	-48.412	-0.302	0.145
-138.443	156.249	-0.109	-0.151
-137.429	800.000	0.076	0.250
-136.414	184.879	0.025	-0.037
-135.399	29.910	0.246	0.210
-134.385	-200.000	-0.045	0.227
-133.370	262.296	-0.094	-0.163
-132.356	-200.000	0.011	-0.159
-131.341	-52.983	-0.116	0.053
-130.326	702.735	0.087	0.229
-129.312	461.200	0.130	0.289
-128.297	153.086	-0.149	-0.203
-127.283	-93.474	0.268	-0.074
-126.268	716.037	-0.065	0.172
-125.253	800.000	0.045	0.182
-124.239	112.778	0.214	0.259
-123.224	800.000	0.146	-0.420
-122.210	-90.999	-0.111	0.032
