DTS Sentinel unit serial number:	SN413079Multiplexer serial number:	ORYXHardware model number:	OX4-SRSoftware version number:	ORYX F/W v4.00 Oryx Data Collector v3.7.2.0data status	okinstallation	princeton_trtdifferential loss correction	single-endedforward channel	channel 1reverse channel	N/Adate	2019/09/15time	04:42:35forward acquisition time	60.00reverse acquisition time	0.00gamma	496.2192k internal	0.2324k external	0.2324temperature offset calibration	0.9992default loss term (dB/km)	0.3790temperature slope calibration	1.0000multiplexer offset coefficient	1.0000multiplexer slope coefficient	1.0000fibre end	0.00T internal ref (°C)	30.81T ext. ref 1 (°C)	4.73T ext. ref 2 (°C)	25.34length (m)	temperature (°C)	Stokes	anti-Stokes-747.200	800.000	0.075	-0.224
-746.185	-200.000	0.004	-0.047
-745.171	-200.000	-0.024	0.229
-744.156	800.000	-0.015	0.055
-743.142	75.850	0.049	0.052
-742.127	676.011	-0.059	0.156
-741.112	134.158	-0.046	-0.061
-740.098	-41.787	-0.195	0.101
-739.083	72.900	0.110	-0.116
-738.069	-150.041	0.154	-0.012
-737.054	-58.283	0.287	0.126
-736.039	-98.344	-0.167	-0.043
-735.025	164.469	0.120	0.170
-734.010	-200.000	-0.043	-0.269
-732.996	23.577	-0.270	-0.224
-731.981	99.692	0.092	-0.108
-730.966	93.146	0.082	-0.093
-729.952	-14.019	0.191	0.124
-728.937	-42.463	-0.186	0.095
-727.923	-200.000	0.037	-0.260
-726.908	-200.000	-0.020	-0.148
-725.894	13.619	-0.226	-0.177
-724.879	46.834	-0.194	0.182
-723.864	8.027	-0.138	0.105
-722.850	108.355	0.110	-0.133
-721.835	58.467	0.290	-0.287
-720.821	-157.533	0.295	-0.018
-719.806	203.973	-0.154	0.241
-718.791	651.803	-0.097	0.251
-717.777	800.000	0.055	-0.197
-716.762	-20.509	0.249	-0.155
-715.748	391.511	0.155	0.325
-714.733	-200.000	-0.003	-0.142
-713.718	-200.000	0.041	-0.365
-712.704	101.350	-0.255	-0.300
-711.689	800.000	-0.118	-0.338
-710.675	800.000	0.074	-0.250
-709.660	-51.677	-0.450	-0.212
-708.645	799.233	-0.087	0.241
-707.631	-109.058	-0.172	0.037
-706.616	-81.974	-0.302	-0.099
-705.602	720.154	-0.066	-0.177
-704.587	187.244	-0.122	0.184
-703.572	528.379	0.142	0.339
-702.558	-200.000	0.010	0.237
-701.543	88.646	-0.159	-0.178
-700.529	378.250	-0.049	-0.100
-699.514	-86.781	0.301	0.093
-698.499	-200.000	0.055	-0.390
-697.485	-62.491	-0.105	-0.044
-696.470	-2.044	0.265	0.188
-695.456	-200.000	-0.001	-0.050
-694.441	158.469	-0.059	0.083
-693.426	62.850	0.210	0.211
-692.412	-54.338	0.223	0.102
-691.397	3.265	-0.109	-0.080
-690.383	-40.476	0.367	0.192
-689.368	-16.323	-0.227	0.145
-688.354	242.810	-0.213	0.360
-687.339	80.127	0.200	0.217
-686.324	-11.834	0.249	0.165
-685.310	249.708	0.138	0.235
-684.295	186.216	-0.088	0.132
-683.281	-200.000	0.003	0.030
-682.266	82.707	-0.267	0.292
-681.251	79.949	0.292	-0.316
-680.237	-26.536	0.427	-0.252
-679.222	252.064	0.101	-0.173
-678.208	-115.860	0.026	0.005
-677.193	-128.125	0.195	0.028
-676.178	-96.350	0.175	0.047
-675.164	110.070	-0.178	-0.215
-674.149	-166.304	-0.133	-0.006
-673.135	-88.064	-0.217	-0.065
-672.120	-97.293	-0.195	-0.051
-671.105	-3.811	0.160	0.112
-670.091	51.017	0.181	0.173
-669.076	800.000	-0.074	-0.208
-668.062	-31.013	-0.296	-0.168
-667.047	-4.829	-0.193	-0.134
-666.032	800.000	0.125	-0.387
-665.018	-124.225	0.260	0.041
-664.003	57.201	-0.155	0.152
-662.989	49.687	0.159	0.151
-661.974	68.186	0.153	-0.158
-660.959	5.898	-0.204	0.152
-659.945	107.955	-0.229	-0.275
-658.930	204.050	0.070	-0.109
-657.916	-37.526	0.179	-0.096
-656.901	800.000	-0.036	0.148
-655.886	-200.000	-0.031	-0.396
-654.872	-200.000	0.007	-0.303
-653.857	-199.101	0.167	-0.001
-652.843	-200.000	-0.019	-0.142
-651.828	-146.378	0.099	0.009
-650.814	-200.000	-0.035	0.315
-649.799	26.077	-0.073	-0.061
-648.784	-200.000	0.001	0.116
-647.770	324.105	0.014	-0.028
-646.755	-200.000	0.066	-0.333
-645.741	22.975	0.230	-0.190
-644.726	182.586	-0.122	-0.181
-643.711	-22.662	0.338	-0.206
-642.697	-200.000	-0.019	0.101
-641.682	75.117	-0.075	-0.079
-640.668	553.605	-0.143	0.347
-639.653	152.295	-0.018	-0.025
-638.638	-200.000	-0.052	0.262
-637.624	-126.230	-0.286	-0.043
-636.609	205.990	-0.132	0.207
-635.595	31.017	0.057	-0.049
-634.580	-200.000	-0.228	0.000
-633.565	483.168	0.128	-0.292
-632.551	800.000	0.021	0.058
-631.536	-126.394	-0.199	-0.030
-630.522	-5.948	-0.230	0.158
-629.507	-152.082	0.349	0.026
-628.492	800.000	0.072	0.225
-627.478	42.864	-0.083	0.076
-626.463	-136.367	-0.161	-0.019
-625.449	-38.161	-0.021	-0.011
-624.434	-200.000	0.078	-0.419
-623.419	800.000	0.077	-0.227
-622.405	92.867	0.061	0.069
-621.390	-24.995	-0.400	0.238
-620.376	800.000	-0.003	-0.010
-619.361	-200.000	-0.000	0.325
-618.346	67.978	-0.240	0.247
-617.332	-200.000	-0.075	-0.355
-616.317	-5.115	0.065	-0.045
-615.303	-49.108	-0.315	0.151
-614.288	72.204	0.131	-0.137
-613.273	241.638	0.208	0.349
-612.259	-137.852	-0.344	0.039
-611.244	-15.901	-0.231	-0.148
-610.230	800.000	-0.081	-0.339
-609.215	-200.000	-0.010	-0.114
-608.201	-63.385	0.133	0.055
-607.186	-68.814	0.074	0.029
-606.171	584.164	0.044	-0.109
-605.157	-200.000	-0.025	0.351
-604.142	-91.763	0.285	-0.081
-603.128	-200.000	-0.001	0.341
-602.113	277.269	0.119	-0.213
-601.098	-200.000	-0.026	0.168
-600.084	800.000	0.034	0.120
-599.069	-140.203	-0.243	-0.026
-598.055	15.822	-0.163	0.128
-597.040	-200.000	0.006	-0.124
-596.025	28.374	-0.200	-0.169
-595.011	-156.320	-0.231	0.015
-593.996	-82.378	0.354	-0.115
-592.982	291.981	0.059	0.108
-591.967	800.000	0.053	0.171
-590.952	512.854	-0.044	0.102
-589.938	-115.182	0.035	-0.007
-588.923	245.817	-0.063	-0.106
-587.909	-27.760	0.163	-0.095
-586.894	-84.301	-0.260	-0.083
-585.879	-160.549	0.251	-0.013
-584.865	187.480	-0.162	0.242
-583.850	295.164	0.062	0.114
-582.836	-28.466	0.264	-0.153
-581.821	1.711	-0.084	-0.060
-580.806	361.145	-0.106	-0.214
-579.792	-43.538	0.090	0.045
-578.777	187.074	-0.216	-0.323
-577.763	-60.223	0.254	0.108
-576.748	-200.000	-0.039	-0.405
-575.733	16.283	-0.314	-0.248
-574.719	-110.318	0.361	-0.075
-573.704	800.000	-0.008	-0.026
-572.690	-200.000	0.168	0.001
-571.675	800.000	-0.086	0.282
-570.661	-84.913	0.192	0.060
-569.646	-200.000	-0.025	0.109
-568.631	-21.192	-0.107	0.066
-567.617	103.222	-0.102	0.120
-566.602	-200.000	-0.019	0.117
-565.588	710.071	-0.070	0.187
-564.573	-200.000	0.010	0.139
-563.558	-58.278	0.326	0.142
-562.544	-149.296	-0.087	0.007
-561.529	459.263	0.086	0.191
-560.515	-175.746	-0.088	0.002
-559.500	-105.641	0.206	0.047
-558.485	-45.505	0.085	0.042
-557.471	-70.613	-0.096	-0.036
-556.456	-44.891	0.222	0.111
-555.442	-158.489	-0.150	-0.009
-554.427	-16.236	-0.270	-0.172
-553.412	-200.000	-0.146	0.000
-552.398	542.747	0.108	0.258
-551.383	800.000	-0.031	0.137
-550.369	-154.999	0.027	0.002
-549.354	145.834	-0.024	-0.032
-548.339	-87.361	0.288	-0.087
-547.325	800.000	0.074	0.303
-546.310	143.277	0.057	-0.076
-545.296	-55.324	0.230	-0.103
-544.281	800.000	-0.046	0.172
-543.266	-5.618	-0.335	0.230
-542.252	624.661	-0.090	-0.227
-541.237	70.252	0.050	-0.052
-540.223	-200.000	-0.004	-0.061
-539.208	800.000	-0.039	0.112
-538.193	354.812	0.047	0.094
-537.179	41.326	0.193	0.175
-536.164	800.000	-0.047	-0.130
-535.150	800.000	-0.032	-0.114
-534.135	76.416	-0.213	-0.226
-533.121	-138.373	0.154	0.017
-532.106	-69.350	-0.209	0.080
-531.091	-124.257	-0.609	0.095
-530.077	138.279	0.201	0.264
-529.062	-138.794	-0.065	-0.007
-528.048	-200.000	0.042	-0.232
-527.033	-76.969	0.088	0.031
-526.018	-200.000	-0.028	0.230
-525.004	662.160	0.102	0.262
-523.989	-79.572	0.292	-0.099
-522.975	181.799	-0.174	-0.257
-521.960	779.525	-0.099	-0.270
-520.945	800.000	0.061	-0.209
-519.931	-147.814	0.158	0.013
-518.916	-177.972	-0.338	0.008
-517.902	40.846	0.111	-0.100
-516.887	27.030	-0.313	0.262
-515.872	-200.000	0.026	0.222
-514.858	-110.131	0.155	-0.032
-513.843	800.000	0.078	-0.218
-512.829	-48.453	0.120	-0.058
-511.814	278.670	-0.056	0.100
-510.799	37.602	-0.290	0.257
-509.785	-131.307	-0.098	-0.013
-508.770	800.000	-0.037	0.129
-507.756	66.450	0.027	0.027
-506.741	178.962	-0.139	-0.204
-505.726	-58.963	-0.064	0.027
-504.712	-200.000	-0.031	-0.190
-503.697	-57.726	-0.205	-0.090
-502.683	67.496	-0.156	-0.159
-501.668	178.120	-0.105	0.153
-500.653	524.034	0.031	-0.074
-499.639	710.903	-0.081	0.215
-498.624	-59.340	0.241	-0.104
-497.610	239.497	-0.069	-0.115
-496.595	92.085	0.116	0.131
-495.581	-200.000	-0.006	0.053
-494.566	607.826	-0.079	-0.197
-493.551	-200.000	-0.013	-0.080
-492.537	-200.000	0.022	0.400
-491.522	515.366	-0.086	-0.200
-490.508	50.548	-0.177	-0.167
-489.493	72.266	0.203	0.211
-488.478	-163.456	-0.317	0.015
-487.464	-163.896	0.341	-0.016
-486.449	-74.850	0.151	0.054
-485.435	-200.000	-0.040	-0.216
-484.420	-121.789	0.237	-0.039
-483.405	-31.864	-0.159	-0.089
-482.391	-200.000	0.040	0.196
-481.376	-39.619	-0.088	-0.046
-480.362	-102.781	-0.173	0.041
-479.347	158.120	0.133	-0.185
-478.332	-200.000	-0.005	-0.110
-477.318	800.000	0.026	-0.093
-476.303	59.794	0.089	-0.088
-475.289	-105.759	0.174	0.039
-474.274	-127.530	0.226	0.033
-473.259	-29.671	-0.238	0.136
-472.245	-200.000	-0.032	-0.182
-471.230	179.784	0.128	0.188
-470.216	373.136	0.031	-0.064
-469.201	-166.122	-0.284	-0.012
-468.186	-9.826	-0.283	-0.188
-467.172	775.304	-0.053	-0.144
-466.157	-200.000	0.001	-0.287
-465.143	86.357	-0.086	-0.095
-464.128	415.929	-0.084	-0.179
-463.113	-54.373	-0.204	-0.092
-462.099	247.011	-0.100	0.168
-461.084	-30.371	-0.153	-0.087
-460.070	-200.000	-0.013	-0.397
-459.055	10.689	0.049	0.037
-458.040	-90.020	-0.198	-0.058
-457.026	51.405	-0.182	-0.173
-456.011	433.160	0.108	0.234
-454.997	515.972	0.068	-0.158
-453.982	800.000	-0.047	-0.157
-452.968	14.628	-0.288	-0.224
-451.953	-112.751	-0.374	-0.074
-450.938	800.000	0.020	-0.082
-449.924	800.000	0.078	-0.244
-448.909	579.124	-0.147	-0.358
-447.895	800.000	0.041	-0.123
-446.880	1.487	0.273	0.196
-445.865	183.696	-0.054	0.079
-444.851	-200.000	-0.056	0.389
-443.836	521.415	-0.075	-0.174
-442.822	-21.134	0.395	0.241
-441.807	332.263	0.048	0.092
-440.792	308.980	0.115	0.215
-439.778	-200.000	0.015	-0.257
-438.763	-31.810	0.218	0.122
-437.749	132.238	0.152	0.195
-436.734	30.155	-0.157	-0.134
-435.719	-139.733	-0.093	0.010
-434.705	-159.566	0.061	0.003
-433.690	451.429	-0.044	0.098
-432.676	-200.000	-0.026	0.277
-431.661	102.482	0.058	-0.067
-430.646	800.000	-0.071	0.280
-429.632	140.230	-0.239	0.314
-428.617	-67.787	0.065	0.026
-427.603	-132.860	0.198	0.025
-426.588	50.035	-0.193	0.182
-425.573	0.842	0.242	-0.173
-424.559	-52.790	-0.267	-0.123
-423.544	-120.828	-0.288	0.048
-422.530	-125.314	0.239	0.036
-421.515	-75.482	0.385	0.137
-420.500	-44.044	0.257	-0.129
-419.486	-200.000	-0.007	-0.333
-418.471	-17.511	-0.180	-0.113
-417.457	123.880	0.143	0.178
-416.442	-151.906	0.275	0.020
-415.428	1.609	-0.210	-0.151
-414.413	82.691	0.191	0.206
-413.398	204.322	-0.076	0.117
-412.384	-102.561	-0.214	-0.051
-411.369	-98.810	0.152	0.039
-410.355	-200.000	-0.045	-0.286
-409.340	800.000	-0.171	0.474
-408.325	-51.826	-0.197	0.091
-407.311	-200.000	-0.065	0.378
-406.296	-96.658	-0.077	0.020
-405.282	-71.017	-0.085	-0.032
-404.267	749.867	-0.065	0.174
-403.252	-145.340	-0.072	0.006
-402.238	-59.086	0.094	-0.040
-401.223	-67.982	-0.057	0.022
-400.209	800.000	-0.055	-0.155
-399.194	640.579	-0.099	0.250
-398.179	-115.799	0.335	-0.062
-397.165	54.077	0.273	0.261
-396.150	-200.000	-0.001	0.208
-395.136	-43.152	0.144	0.073
-394.121	-200.000	0.031	0.251
-393.106	174.227	0.064	0.092
-392.092	91.432	-0.067	-0.074
-391.077	-200.000	0.377	0.000
-390.063	-116.703	-0.292	0.053
-389.048	238.984	0.093	0.155
-388.033	31.234	-0.171	0.146
-387.019	415.642	-0.174	0.369
-386.004	800.000	-0.033	0.112
-384.990	-38.048	0.407	-0.215
-383.975	-200.000	0.037	-0.327
-382.960	178.917	-0.253	0.368
-381.946	17.898	0.174	0.138
-380.931	-90.066	-0.312	-0.090
-379.917	512.195	0.131	-0.305
-378.902	208.727	-0.158	-0.246
-377.888	-70.230	-0.184	0.069
-376.873	-42.230	-0.309	0.157
-375.858	82.053	-0.120	-0.129
-374.844	-63.075	-0.055	0.023
-373.829	-200.000	0.049	-0.222
-372.815	81.219	0.125	-0.134
-371.800	-57.537	0.179	0.078
-370.785	800.000	-0.128	-0.404
-369.771	77.195	-0.098	0.104
-368.756	-90.575	-0.108	-0.031
-367.742	-20.118	-0.184	0.113
-366.727	302.944	0.144	-0.265
-365.712	173.861	-0.146	0.210
-364.698	-138.438	-0.111	-0.012
-363.683	-66.727	-0.235	0.092
-362.669	39.668	-0.183	-0.163
-361.654	-140.555	-0.096	0.010
-360.639	800.000	0.084	0.262
-359.625	-7.357	0.064	0.043
-358.610	-26.787	-0.178	-0.103
-357.596	800.000	-0.041	-0.173
-356.581	-200.000	-0.031	-0.234
-355.566	121.054	-0.183	-0.226
-354.552	-200.000	0.044	0.308
-353.537	-200.000	0.060	-0.272
-352.523	106.922	0.201	-0.238
-351.508	359.262	0.184	0.366
-350.493	85.887	0.055	-0.060
-349.479	-145.857	-0.316	-0.028
-348.464	25.920	0.292	-0.242
-347.450	-87.555	-0.231	0.069
-346.435	-200.000	0.060	-0.306
-345.420	800.000	-0.068	0.206
-344.406	-151.380	0.268	0.020
-343.391	-48.115	-0.427	0.205
-342.377	75.891	-0.102	-0.107
-341.362	-68.676	0.129	-0.050
-340.348	-200.000	0.006	0.093
-339.333	-200.000	-0.020	0.192
-338.318	-54.678	-0.228	0.102
-337.304	800.000	-0.060	-0.258
-336.289	800.000	0.037	0.112
-335.275	522.035	-0.038	-0.090
-334.260	-200.000	0.021	-0.140
-333.245	65.359	-0.183	0.184
-332.231	104.746	-0.063	0.074
-331.216	-102.576	0.185	0.044
-330.202	20.952	-0.307	0.247
-329.187	-12.807	-0.238	-0.154
-328.172	-200.000	-0.012	-0.224
-327.158	40.446	0.186	0.167
-326.143	-154.002	-0.139	0.009
-325.129	-200.000	-0.002	0.148
-324.114	-63.875	-0.323	-0.131
-323.099	-149.014	-0.309	-0.025
-322.085	-80.075	0.242	-0.081
-321.070	-0.209	-0.206	0.146
-320.056	-200.000	-0.016	0.236
-319.041	-89.248	-0.220	-0.064
-318.026	-115.225	-0.114	-0.021
-317.012	-94.431	-0.192	0.052
-315.997	280.875	-0.203	-0.361
-314.983	20.855	0.076	0.061
-313.968	40.372	0.104	0.093
-312.953	800.000	0.159	0.584
-311.939	537.513	-0.142	0.335
-310.924	19.597	0.283	-0.226
-309.910	800.000	0.036	-0.113
-308.895	-143.742	-0.238	0.022
-307.880	424.513	-0.096	0.206
-306.866	-96.345	0.199	0.052
-305.851	-5.682	-0.135	-0.092
-304.837	-200.000	-0.017	-0.342
-303.822	42.299	0.265	-0.239
-302.807	-200.000	0.036	-0.249
-301.793	-15.924	0.111	-0.070
-300.778	-190.268	0.067	0.001
-299.764	-28.035	-0.069	-0.039
-298.749	-156.175	0.333	-0.021
-297.735	21.769	0.109	-0.088
-296.720	-74.854	0.239	0.085
-295.705	9.269	-0.215	-0.161
-294.691	71.403	0.162	0.166
-293.676	178.837	0.173	0.251
-292.662	-200.000	-0.012	-0.104
-291.647	673.184	-0.130	0.336
-290.632	-23.280	0.391	0.233
-289.618	-66.838	-0.223	-0.087
-288.603	103.815	0.080	0.093
-287.589	-141.575	0.097	0.010
-286.574	235.732	0.096	0.157
-285.559	-86.418	0.294	0.089
-284.545	800.000	0.016	0.059
-283.530	13.465	0.141	-0.108
-282.516	-200.000	-0.049	-0.374
-281.501	735.133	-0.068	0.180
-280.486	88.128	-0.192	-0.211
-279.472	-43.246	0.428	0.215
-278.457	239.642	0.126	-0.208
-277.443	-57.828	0.052	0.022
-276.428	-88.660	0.283	-0.083
-275.413	319.042	0.111	0.209
-274.399	-200.000	0.007	-0.144
-273.384	-57.353	0.198	0.086
-272.370	302.459	0.075	-0.137
-271.355	417.454	-0.068	0.145
-270.340	3.390	-0.102	-0.074
-269.326	44.799	-0.183	-0.167
-268.311	-78.365	-0.343	0.116
-267.297	800.000	-0.053	-0.191
-266.282	-7.961	-0.265	-0.177
-265.267	153.825	-0.158	-0.214
-264.253	85.905	0.228	0.249
-263.238	800.000	-0.074	-0.228
-262.224	132.426	0.019	0.025
-261.209	36.369	-0.098	-0.085
-260.195	265.996	0.084	-0.146
-259.180	800.000	0.105	0.296
-258.165	-16.638	-0.185	0.116
-257.151	-200.000	0.024	-0.158
-256.136	800.000	-0.056	-0.201
-255.122	-50.987	0.251	-0.117
-254.107	241.315	-0.055	0.092
-253.092	-20.178	0.146	-0.089
-252.078	102.213	-0.191	0.221
-251.063	-74.639	0.203	0.072
-250.049	-93.986	0.262	0.071
-249.034	-200.000	0.006	-0.075
-248.019	-200.000	0.053	0.472
-247.005	301.615	0.143	0.262
-245.990	800.000	0.035	0.106
-244.976	433.062	0.142	0.304
-243.961	444.466	-0.064	0.138
-242.946	-78.476	0.306	0.104
-241.932	-85.539	0.051	0.016
-240.917	800.000	-0.029	-0.107
-239.903	-64.782	-0.219	-0.088
-238.888	-120.013	-0.273	0.046
-237.873	-87.864	0.251	0.075
-236.859	21.907	-0.167	0.135
-235.844	31.418	-0.329	-0.279
-234.830	800.000	-0.064	0.251
-233.815	-66.690	-0.274	-0.107
-232.800	-54.162	0.337	-0.152
-231.786	-136.220	-0.033	0.004
-230.771	-157.275	0.289	0.017
-229.757	800.000	0.041	0.112
-228.742	-200.000	0.019	0.147
-227.727	-200.000	-0.019	0.083
-226.713	151.513	-0.239	-0.323
-225.698	396.298	-0.070	0.145
-224.684	-102.932	0.077	-0.018
-223.669	-161.854	0.246	-0.012
-222.655	130.379	0.115	0.146
-221.640	12.786	0.188	0.143
-220.625	90.535	0.289	-0.320
-219.611	535.795	-0.023	-0.053
-218.596	141.170	-0.110	0.144
-217.582	390.027	-0.139	-0.286
-216.567	-31.490	0.202	0.112
-215.552	-90.887	0.069	0.020
-214.538	120.660	0.301	-0.370
-213.523	122.883	-0.053	-0.065
-212.509	-93.509	0.052	0.014
-211.494	90.823	0.080	0.088
-210.479	-200.000	-0.003	0.103
-209.465	-6.487	0.155	0.105
-208.450	800.000	0.037	-0.158
-207.436	613.712	0.043	-0.106
-206.421	195.680	0.138	-0.207
-205.406	-108.737	0.275	-0.058
-204.392	-200.000	-0.008	0.167
-203.377	73.900	0.237	0.245
-202.363	-17.882	-0.159	-0.099
-201.348	-131.945	0.289	-0.037
-200.333	-129.207	-0.357	-0.049
-199.319	4.510	0.166	0.120
-198.304	-15.547	-0.072	-0.046
-197.290	395.503	-0.107	-0.221
-196.275	94.386	-0.208	-0.233
-195.260	800.000	-0.027	0.112
-194.246	-82.877	0.142	0.045
-193.231	-7.771	-0.158	0.105
-192.217	-200.000	0.044	0.325
-191.202	-200.000	0.000	-0.113
-190.187	-44.917	0.391	-0.192
-189.173	-200.000	0.063	0.279
-188.158	-159.794	0.192	0.010
-187.144	-28.084	0.284	0.162
-186.129	261.478	0.030	0.051
-185.114	-119.050	0.470	0.081
-184.100	37.785	0.118	0.104
-183.085	-96.113	0.104	-0.027
-182.071	-58.338	-0.154	-0.066
-181.056	85.939	0.195	-0.211
-180.042	94.347	-0.016	-0.018
-179.027	277.422	0.199	-0.350
-178.012	22.282	-0.125	0.101
-176.998	125.832	-0.113	-0.141
-175.983	27.157	0.068	0.057
-174.969	-200.000	-0.011	0.052
-173.954	800.000	0.068	0.246
-172.939	-59.507	-0.048	-0.020
-171.925	-51.354	-0.107	0.049
-170.910	-94.409	0.216	-0.058
-169.896	-7.411	0.086	-0.058
-168.881	800.000	0.039	-0.166
-167.866	84.761	-0.108	-0.117
-166.852	223.073	0.092	-0.146
-165.837	-145.840	-0.255	-0.022
-164.823	-133.020	0.113	-0.014
-163.808	-14.866	0.087	0.055
-162.793	200.363	0.090	-0.137
-161.779	-200.000	-0.068	-0.398
-160.764	291.680	0.142	0.254
-159.750	598.291	-0.140	-0.342
-158.735	-59.216	0.108	-0.046
-157.720	-62.496	0.241	0.099
-156.706	-61.779	-0.188	-0.078
-155.691	-111.228	0.264	-0.053
-154.677	100.813	-0.174	0.200
-153.662	-98.603	0.224	-0.056
-152.647	800.000	0.046	-0.160
-151.633	-200.000	-0.004	-0.466
-150.618	-200.000	-0.065	0.295
-149.604	-120.110	-0.257	-0.043
-148.589	136.698	0.186	-0.240
-147.574	-200.000	0.002	-0.261
-146.560	-81.537	-0.389	-0.126
-145.545	-28.501	0.244	0.139
-144.531	78.015	0.222	0.234
-143.516	9.512	-0.255	-0.190
-142.502	-93.110	0.401	-0.110
-141.487	-200.000	0.054	-0.438
-140.472	392.967	0.124	-0.254
-139.458	222.100	-0.045	-0.071
-138.443	-64.138	-0.191	-0.077
-137.429	12.025	-0.266	-0.201
-136.414	7.690	-0.194	0.143
-135.399	100.264	0.198	0.226
-134.385	-21.575	0.187	-0.113
-133.370	-200.000	0.007	-0.054
-132.356	-92.730	-0.151	-0.042
-131.341	185.723	-0.113	-0.165
-130.326	509.259	0.102	-0.233
-129.312	-200.000	-0.062	0.314
-128.297	-200.000	0.000	-0.207
-127.283	-23.238	-0.274	0.162
-126.268	454.676	0.100	0.218
-125.253	800.000	-0.078	-0.319
-124.239	498.079	-0.023	0.051
-123.224	-47.109	0.426	-0.205
-122.210	-200.000	0.000	0.062
-121.195	-200.000	0.038	-0.194
