DTS Sentinel unit serial number:	SN413079Multiplexer serial number:	ORYXHardware model number:	OX4-SRSoftware version number:	ORYX F/W v4.00 Oryx Data Collector v3.7.2.0data status	okinstallation	princeton_trtdifferential loss correction	single-endedforward channel	channel 1reverse channel	N/Adate	2019/09/18time	04:10:35forward acquisition time	60.00reverse acquisition time	0.00gamma	496.2192k internal	0.2339k external	0.2339temperature offset calibration	0.9979default loss term (dB/km)	0.3790temperature slope calibration	1.0000multiplexer offset coefficient	1.0000multiplexer slope coefficient	1.0000fibre end	0.00T internal ref (°C)	23.28T ext. ref 1 (°C)	0.17T ext. ref 2 (°C)	17.78length (m)	temperature (°C)	Stokes	anti-Stokes-747.200	35.732	0.155	-0.136
-746.185	800.000	-0.054	0.222
-745.171	-200.000	0.006	-0.123
-744.156	-142.140	-0.123	-0.012
-743.142	562.385	0.088	0.212
-742.127	114.491	0.091	0.112
-741.112	146.789	0.213	0.288
-740.098	800.000	-0.037	0.147
-739.083	117.740	0.140	-0.173
-738.069	-11.100	0.343	0.227
-737.054	-38.682	0.044	-0.023
-736.039	-32.403	-0.387	-0.217
-735.025	514.340	0.073	0.170
-734.010	-165.795	-0.334	-0.014
-732.996	0.939	-0.109	-0.078
-731.981	-200.000	-0.027	0.233
-730.966	800.000	0.070	-0.302
-729.952	-200.000	0.015	-0.152
-728.937	800.000	-0.093	-0.392
-727.923	800.000	-0.052	-0.174
-726.908	800.000	-0.188	-0.543
-725.894	380.447	-0.059	0.122
-724.879	4.689	0.269	-0.198
-723.864	-55.555	0.184	-0.083
-722.850	-62.176	-0.347	0.145
-721.835	468.358	0.067	-0.150
-720.821	-200.000	-0.031	-0.304
-719.806	-145.984	-0.122	0.011
-718.791	40.740	0.063	-0.057
-717.777	173.652	-0.322	0.465
-716.762	-200.000	-0.039	-0.430
-715.748	39.665	-0.269	0.242
-714.733	-200.000	0.090	-0.398
-713.718	-200.000	0.024	0.303
-712.704	89.585	0.022	-0.025
-711.689	-200.000	-0.027	0.210
-710.675	428.617	0.014	-0.031
-709.660	-134.025	0.195	0.024
-708.645	-157.493	-0.248	-0.015
-707.631	228.375	-0.146	-0.237
-706.616	-168.298	-0.205	0.008
-705.602	-89.360	0.176	-0.052
-704.587	50.423	0.303	0.287
-703.572	83.491	-0.019	0.021
-702.558	52.709	0.222	0.213
-701.543	100.976	0.134	0.156
-700.529	-43.315	-0.035	-0.018
-699.514	-200.000	0.008	-0.144
-698.499	528.131	-0.033	0.079
-697.485	800.000	0.077	0.218
-696.470	520.233	0.205	-0.481
-695.456	-56.430	0.153	0.068
-694.441	27.752	-0.050	-0.042
-693.426	-82.861	-0.220	0.071
-692.412	293.363	-0.158	-0.289
-691.397	-200.000	-0.033	-0.553
-690.383	630.328	0.092	-0.232
-689.368	-200.000	0.086	0.000
-688.354	-5.209	0.280	-0.193
-687.339	47.905	-0.135	0.126
-686.324	-22.880	0.355	0.214
-685.310	0.576	-0.104	-0.074
-684.295	5.637	-0.142	-0.105
-683.281	800.000	-0.052	0.148
-682.266	330.382	0.067	0.130
-681.251	-141.319	-0.287	0.029
-680.237	-97.785	-0.443	-0.115
-679.222	800.000	0.067	-0.247
-678.208	-118.446	-0.334	-0.059
-677.193	-147.295	-0.240	0.020
-676.178	-200.000	0.005	-0.045
-675.164	7.163	-0.243	0.182
-674.149	-64.835	-0.152	-0.062
-673.135	-110.212	-0.107	0.022
-672.120	-59.370	-0.074	-0.032
-671.105	-145.371	0.312	0.028
-670.091	-15.399	-0.045	0.029
-669.076	-49.617	0.173	0.082
-668.062	-200.000	-0.012	-0.178
-667.047	-140.041	-0.250	0.026
-666.032	-200.000	0.021	0.097
-665.018	-200.000	0.037	-0.177
-664.003	35.802	0.075	-0.066
-662.989	264.203	-0.048	-0.084
-661.974	800.000	-0.049	-0.179
-660.959	-72.777	-0.143	0.052
-659.945	-200.000	0.010	0.093
-658.930	-97.967	-0.275	0.071
-657.916	-200.000	-0.006	0.198
-656.901	800.000	-0.110	0.309
-655.886	-53.043	0.177	-0.082
-654.872	18.497	-0.382	0.305
-653.857	-159.176	0.162	-0.009
-652.843	-54.602	-0.213	0.096
-651.828	-196.371	0.421	0.003
-650.814	550.209	-0.051	-0.123
-649.799	-200.000	-0.011	-0.273
-648.784	571.006	0.052	-0.128
-647.770	293.700	0.151	-0.275
-646.755	202.418	0.059	-0.092
-645.741	789.149	0.114	0.314
-644.726	800.000	0.080	-0.253
-643.711	139.229	-0.066	0.086
-642.697	425.744	-0.040	0.086
-641.682	800.000	-0.012	0.050
-640.668	93.239	-0.324	-0.366
-639.653	-200.000	0.007	-0.227
-638.638	800.000	0.104	-0.379
-637.624	800.000	-0.028	0.084
-636.609	-111.292	-0.219	-0.045
-635.595	-27.454	-0.240	-0.139
-634.580	-127.920	0.158	0.023
-633.565	-76.010	0.337	-0.119
-632.551	800.000	-0.016	0.067
-631.536	210.902	-0.179	0.281
-630.522	-200.000	0.004	0.244
-629.507	-32.198	-0.304	0.170
-628.492	-150.876	-0.016	-0.001
-627.478	800.000	0.031	-0.094
-626.463	-200.000	0.044	0.214
-625.449	32.229	-0.204	0.176
-624.434	-33.532	-0.209	-0.115
-623.419	-111.073	-0.304	0.062
-622.405	694.112	-0.117	-0.306
-621.390	73.889	0.192	0.201
-620.376	-48.385	0.278	-0.134
-619.361	217.555	0.042	-0.067
-618.346	164.118	0.177	0.249
-617.332	-28.375	0.119	0.069
-616.317	597.534	0.030	-0.073
-615.303	-200.000	0.026	0.147
-614.288	202.769	0.146	-0.226
-613.273	-74.215	-0.216	-0.078
-612.259	-122.107	0.288	0.047
-611.244	-200.000	0.041	-0.258
-610.230	-117.001	-0.027	-0.005
-609.215	379.599	0.177	0.362
-608.201	-78.202	0.154	0.053
-607.186	83.414	0.051	-0.055
-606.171	469.519	0.072	0.162
-605.157	-12.279	0.093	-0.061
-604.142	-144.235	-0.167	0.016
-603.128	-53.630	0.153	0.070
-602.113	-124.176	-0.258	-0.040
-601.098	-36.032	0.067	-0.036
-600.084	-200.000	0.050	0.246
-599.069	164.349	0.021	0.030
-598.055	-200.000	0.017	0.080
-597.040	65.740	0.194	-0.196
-596.025	-200.000	0.018	0.139
-595.011	-0.595	0.308	-0.218
-593.996	26.864	-0.172	-0.144
-592.982	158.222	0.063	0.087
-591.967	227.623	0.163	-0.264
-590.952	469.696	-0.085	0.190
-589.938	-110.948	0.097	0.020
-588.923	-23.154	-0.083	0.050
-587.909	11.335	-0.214	0.163
-586.894	-141.344	-0.556	-0.056
-585.879	-1.315	0.265	0.187
-584.865	-62.209	-0.099	0.041
-583.850	-168.451	-0.279	0.011
-582.836	-200.000	-0.029	0.373
-581.821	-191.181	0.106	-0.001
-580.806	4.552	-0.086	-0.063
-579.792	523.306	-0.044	-0.102
-578.777	160.847	0.113	-0.157
-577.763	-95.977	-0.114	0.030
-576.748	-116.997	0.306	0.056
-575.733	800.000	-0.063	-0.176
-574.719	632.210	-0.179	-0.452
-573.704	236.129	-0.036	0.059
-572.690	154.365	-0.119	0.163
-571.675	151.941	-0.206	-0.280
-570.661	359.784	0.006	0.012
-569.646	149.451	-0.101	0.136
-568.631	-103.464	-0.092	-0.022
-567.617	-95.912	-0.173	0.046
-566.602	-51.610	-0.360	0.167
-565.588	62.488	-0.134	-0.133
-564.573	22.195	0.138	-0.112
-563.558	-11.559	-0.197	-0.129
-562.544	695.237	0.082	0.213
-561.529	-200.000	-0.024	0.144
-560.515	302.653	-0.163	-0.300
-559.500	-35.700	-0.132	-0.071
-558.485	-44.763	0.484	-0.240
-557.471	53.974	-0.083	0.080
-556.456	-49.379	0.006	0.003
-555.442	174.018	0.238	0.343
-554.427	800.000	0.035	0.135
-553.412	264.025	-0.130	-0.225
-552.398	-116.248	0.360	-0.066
-551.383	-200.000	-0.038	-0.300
-550.369	-109.894	0.346	0.072
-549.354	-200.000	0.011	-0.367
-548.339	328.594	0.108	-0.207
-547.325	-14.442	-0.377	0.242
-546.310	800.000	-0.011	0.033
-545.296	-75.355	-0.226	0.080
-544.281	-74.518	0.322	0.115
-543.266	-49.696	-0.162	0.077
-542.252	516.259	0.197	0.458
-541.237	-200.000	0.015	0.135
-540.223	207.765	-0.099	-0.154
-539.208	-84.119	-0.318	0.100
-538.193	207.121	0.059	-0.091
-537.179	-200.000	0.028	0.305
-536.164	-94.823	0.353	0.095
-535.150	800.000	0.084	-0.258
-534.135	-86.650	0.191	0.058
-533.121	-167.811	-0.232	-0.009
-532.106	67.829	-0.141	0.144
-531.091	800.000	0.110	0.386
-530.077	747.480	0.078	0.209
-529.062	558.544	-0.130	-0.312
-528.048	-8.450	0.029	-0.019
-527.033	-9.137	-0.121	0.080
-526.018	-43.937	0.245	-0.122
-525.004	105.420	0.166	-0.195
-523.989	81.859	0.108	-0.116
-522.975	-117.556	0.277	0.050
-521.960	-200.000	-0.031	-0.313
-520.945	800.000	-0.036	0.135
-519.931	493.541	0.092	0.209
-518.916	-200.000	0.009	-0.427
-517.902	-70.799	-0.205	0.077
-516.887	53.467	0.145	0.138
-515.872	6.993	-0.239	-0.177
-514.858	-17.891	-0.205	0.128
-513.843	127.324	-0.229	-0.289
-512.829	0.682	0.086	-0.061
-511.814	-81.997	-0.278	0.090
-510.799	-59.257	0.065	-0.028
-509.785	800.000	-0.057	0.201
-508.770	-200.000	-0.001	-0.091
-507.756	-109.922	-0.214	-0.045
-506.741	-120.302	0.130	-0.022
-505.726	30.398	-0.169	0.143
-504.712	-200.000	-0.023	-0.110
-503.697	3.219	-0.105	0.076
-502.683	300.451	-0.132	0.242
-501.668	-72.217	-0.183	0.068
-500.653	96.426	-0.159	-0.181
-499.639	-91.759	-0.072	0.020
-498.624	30.789	-0.234	0.199
-497.610	-77.610	0.213	0.073
-496.595	-89.748	0.039	0.011
-495.581	196.558	-0.204	-0.309
-494.566	201.049	-0.069	-0.105
-493.551	92.518	-0.158	-0.177
-492.537	704.300	0.124	-0.324
-491.522	-200.000	0.014	0.131
-490.508	659.219	0.071	-0.181
-489.493	74.092	-0.121	-0.126
-488.478	45.753	-0.196	0.180
-487.464	452.287	-0.103	-0.227
-486.449	-1.432	0.130	-0.091
-485.435	277.718	0.031	-0.054
-484.420	-79.701	0.297	-0.099
-483.405	-87.662	-0.331	0.099
-482.391	91.238	0.157	0.175
-481.376	-134.870	-0.165	-0.020
-480.362	744.703	0.111	-0.296
-479.347	48.907	0.075	0.070
-478.332	-90.250	-0.117	0.034
-477.318	-168.059	0.110	-0.004
-476.303	41.165	0.119	0.107
-475.289	-132.437	-0.094	-0.012
-474.274	107.682	-0.130	-0.153
-473.259	-200.000	-0.037	-0.364
-472.245	-51.417	0.037	0.017
-471.230	61.598	-0.102	-0.100
-470.216	-200.000	-0.086	-0.446
-469.201	-116.084	0.150	-0.028
-468.186	800.000	-0.056	-0.171
-467.172	-200.000	0.029	-0.397
-466.157	170.238	-0.089	-0.127
-465.143	205.416	-0.156	-0.240
-464.128	10.643	-0.088	0.067
-463.113	11.793	-0.179	0.136
-462.099	-200.000	0.042	0.350
-461.084	110.690	-0.108	0.129
-460.070	-200.000	0.003	-0.308
-459.055	-200.000	-0.031	-0.200
-458.040	-200.000	0.041	0.335
-457.026	-200.000	0.019	0.206
-456.011	48.854	0.240	-0.223
-454.997	-113.647	0.455	0.088
-453.982	-105.393	-0.313	0.071
-452.968	-39.022	0.137	-0.071
-451.953	48.446	-0.103	-0.096
-450.938	141.973	-0.125	-0.164
-449.924	-8.472	-0.076	0.050
-448.909	-55.154	0.364	0.163
-447.895	-92.922	0.280	0.078
-446.880	770.393	-0.123	-0.333
-445.865	-200.000	0.019	-0.094
-444.851	36.056	0.203	-0.177
-443.836	-200.000	-0.052	0.233
-442.822	-40.909	-0.093	-0.048
-441.807	800.000	-0.123	0.386
-440.792	-200.000	0.034	-0.172
-439.778	800.000	0.089	-0.345
-438.763	-18.958	0.191	0.118
-437.749	-89.351	-0.220	0.064
-436.734	-200.000	-0.008	0.136
-435.719	-118.831	0.086	-0.015
-434.705	-200.000	-0.001	0.125
-433.690	349.341	0.191	0.373
-432.676	-200.000	-0.025	-0.208
-431.661	-200.000	-0.164	-0.000
-430.646	274.087	0.110	-0.193
-429.632	-200.000	0.080	0.376
-428.617	-121.884	-0.450	0.074
-427.603	-101.775	0.332	-0.080
-426.588	-200.000	0.030	0.151
-425.573	182.127	-0.124	-0.181
-424.559	-156.457	0.157	0.010
-423.544	98.885	-0.153	0.175
-422.530	279.078	0.014	-0.025
-421.515	42.128	0.150	-0.135
-420.500	-200.000	-0.009	-0.366
-419.486	107.079	-0.150	0.177
-418.471	-71.849	0.096	-0.035
-417.457	36.625	0.236	0.206
-416.442	214.020	-0.137	-0.215
-415.428	-72.864	-0.184	-0.067
-414.413	-44.685	-0.416	0.206
-413.398	-31.237	0.123	0.069
-412.384	91.244	0.158	-0.176
-411.369	10.328	0.318	0.239
-410.355	-52.219	0.088	-0.040
-409.340	-200.000	-0.036	0.368
-408.325	-4.205	0.035	-0.024
-407.311	-133.013	-0.426	-0.054
-406.296	208.303	0.262	-0.406
-405.282	7.118	0.096	0.071
-404.267	-25.040	-0.338	0.198
-403.252	-65.583	0.196	0.078
-402.238	583.539	-0.065	0.157
-401.223	-45.824	-0.181	0.089
-400.209	-200.000	0.046	0.249
-399.194	591.616	0.065	0.158
-398.179	-200.000	-0.039	-0.294
-397.165	-200.000	-0.019	-0.101
-396.150	-8.338	-0.073	-0.049
-395.136	30.842	-0.226	-0.192
-394.121	-82.952	0.093	0.030
-393.106	-200.000	-0.053	-0.452
-392.092	-32.335	0.165	-0.091
-391.077	800.000	0.092	-0.292
-390.063	-26.336	-0.322	-0.187
-389.048	58.603	-0.140	0.136
-388.033	191.045	0.105	0.156
-387.019	268.808	0.072	-0.125
-386.004	-115.679	-0.195	0.036
-384.990	-113.215	-0.310	-0.060
-383.975	531.234	-0.117	0.274
-382.960	-20.510	-0.174	0.106
-381.946	-200.000	0.029	-0.171
-380.931	-161.855	-0.233	0.012
-379.917	-178.305	-0.028	0.001
-378.902	306.884	-0.184	0.338
-377.888	376.012	-0.190	0.383
-376.873	-79.736	0.196	0.065
-375.858	-20.071	0.059	-0.036
-374.844	800.000	-0.061	0.242
-373.829	83.796	0.227	0.245
-372.815	43.775	0.049	0.045
-371.800	-200.000	-0.079	0.397
-370.785	-136.946	0.119	0.013
-369.771	-148.727	0.136	-0.011
-368.756	-200.000	0.075	-0.443
-367.742	-105.920	0.486	-0.108
-366.727	-200.000	0.041	-0.275
-365.712	-200.000	0.015	-0.089
-364.698	86.246	-0.037	0.040
-363.683	283.512	0.147	0.261
-362.669	-57.249	-0.118	0.051
-361.654	-200.000	0.073	0.344
-360.639	-93.987	-0.177	0.048
-359.625	-50.837	0.212	0.098
-358.610	7.993	0.165	-0.122
-357.596	-137.267	0.203	0.023
-356.581	102.267	0.284	0.328
-355.566	-123.664	-0.219	-0.034
-354.552	800.000	-0.034	0.130
-353.537	574.903	-0.051	-0.124
-352.523	421.130	-0.077	-0.162
-351.508	800.000	-0.072	0.274
-350.493	219.381	0.102	-0.160
-349.479	800.000	-0.039	0.144
-348.464	58.537	-0.092	0.090
-347.450	756.136	-0.069	-0.185
-346.435	-200.000	0.047	-0.300
-345.420	30.469	0.081	-0.068
-344.406	54.039	0.079	-0.075
-343.391	-46.291	0.136	-0.066
-342.377	-95.298	-0.109	0.029
-341.362	-189.453	-0.224	0.003
-340.348	-136.353	-0.084	-0.010
-339.333	-200.000	0.055	0.350
-338.318	-13.014	0.231	0.148
-337.304	-153.231	-0.100	-0.007
-336.289	-95.177	0.324	-0.086
-335.275	-27.318	-0.274	0.157
-334.260	135.013	-0.302	0.387
-333.245	-133.602	-0.289	-0.036
-332.231	-56.729	0.230	0.100
-331.216	-101.314	-0.202	0.049
-330.202	-118.244	0.285	0.050
-329.187	-87.596	0.111	-0.033
-328.172	254.176	-0.031	-0.053
-327.158	-195.032	-0.087	0.001
-326.143	32.686	-0.184	-0.157
-325.129	97.592	-0.213	0.242
-324.114	236.145	0.212	0.346
-323.099	800.000	-0.033	-0.111
-322.085	71.896	-0.119	0.122
-321.070	783.436	0.033	-0.089
-320.056	485.422	0.034	0.077
-319.041	-64.632	0.056	-0.022
-318.026	-200.000	-0.009	0.053
-317.012	-137.439	-0.203	-0.023
-315.997	-138.862	-0.141	-0.015
-314.983	-0.222	0.039	0.027
-313.968	430.351	0.110	-0.235
-312.953	195.169	-0.126	0.189
-311.939	-163.457	0.096	-0.004
-310.924	446.355	-0.147	-0.318
-309.910	800.000	0.083	0.306
-308.895	237.508	-0.178	0.291
-307.880	0.851	0.280	0.198
-306.866	246.872	0.201	-0.335
-305.851	-200.000	0.049	0.220
-304.837	-200.000	-0.018	-0.095
-303.822	-200.000	0.002	-0.063
-302.807	76.778	0.060	0.062
-301.793	-34.311	-0.165	-0.089
-300.778	544.782	-0.079	0.185
-299.764	-200.000	-0.017	-0.351
-298.749	-127.078	-0.406	0.059
-297.735	-13.904	0.115	0.074
-296.720	-109.975	-0.311	-0.064
-295.705	101.954	0.187	0.215
-294.691	-200.000	0.004	-0.020
-293.676	-99.920	0.316	0.078
-292.662	-151.016	0.357	-0.027
-291.647	14.693	-0.103	-0.079
-290.632	475.536	-0.039	0.087
-289.618	-115.424	0.391	-0.073
-288.603	126.469	0.262	0.327
-287.589	-147.941	0.247	0.020
-286.574	-200.000	-0.007	-0.103
-285.559	114.712	-0.119	-0.142
-284.545	-146.164	-0.146	-0.013
-283.530	537.953	-0.037	0.087
-282.516	-114.524	-0.157	-0.030
-281.501	-42.148	-0.033	0.017
-280.486	800.000	0.058	0.218
-279.472	800.000	0.030	-0.101
-278.457	-100.972	0.218	0.053
-277.443	-147.518	-0.128	0.011
-276.428	-99.146	-0.169	-0.042
-275.413	-200.000	0.013	0.317
-274.399	256.933	-0.095	-0.161
-273.384	3.660	0.104	0.074
-272.370	-200.000	0.011	-0.616
-271.355	-64.861	-0.127	-0.051
-270.340	411.033	-0.132	0.276
-269.326	20.938	-0.089	0.071
-268.311	-200.000	-0.007	-0.099
-267.297	-105.326	-0.242	0.054
-266.282	5.543	-0.304	0.221
-265.267	-103.760	0.382	0.088
-264.253	-89.176	0.265	0.077
-263.238	-139.595	0.210	0.022
-262.224	-2.210	0.251	0.173
-261.209	-200.000	0.030	0.278
-260.195	-200.000	0.019	0.106
-259.180	1.652	0.185	-0.131
-258.165	-200.000	-0.006	-0.174
-257.151	-62.509	-0.037	-0.015
-256.136	-200.000	-0.084	0.447
-255.122	252.545	0.146	-0.246
-254.107	-200.000	0.019	-0.232
-253.092	-161.119	0.184	0.009
-252.078	1.446	0.150	0.106
-251.063	167.139	0.094	-0.132
-250.049	-54.198	0.395	0.176
-249.034	341.314	0.100	-0.192
-248.019	-200.000	-0.016	-0.095
-247.005	321.356	0.119	0.223
-245.990	-122.947	-0.050	0.008
-244.976	215.064	-0.066	0.103
-243.961	-200.000	-0.017	0.250
-242.946	-200.000	0.013	0.214
-241.932	-200.000	-0.042	-0.473
-240.917	-56.775	-0.219	-0.095
-239.903	800.000	0.058	0.184
-238.888	104.514	-0.220	0.254
-237.873	27.853	0.137	-0.114
-236.859	586.409	-0.081	0.196
-235.844	83.549	-0.073	0.078
-234.830	733.766	0.056	-0.147
-233.815	-66.499	0.220	-0.086
-232.800	-200.000	-0.005	-0.022
-231.786	243.610	-0.060	0.100
-230.771	-131.779	0.148	-0.019
-229.757	349.504	-0.071	0.137
-228.742	800.000	0.058	0.162
-227.727	-174.430	0.270	0.008
-226.713	-80.779	0.148	-0.048
-225.698	114.271	0.093	-0.111
-224.684	-200.000	0.032	-0.202
-223.669	800.000	0.010	0.039
-222.655	743.747	-0.045	-0.119
-221.640	-200.000	-0.017	0.124
-220.625	92.149	-0.166	0.184
-219.611	-157.401	-0.355	0.021
-218.596	99.051	0.221	0.251
-217.582	800.000	0.048	-0.152
-216.567	33.097	-0.049	0.042
-215.552	359.725	-0.081	0.160
-214.538	-102.539	0.268	0.063
-213.523	-7.491	0.123	0.082
-212.509	312.473	-0.078	0.144
-211.494	59.890	-0.072	-0.070
-210.479	-88.034	0.454	0.134
-209.465	-108.474	0.078	0.017
-208.450	-10.414	0.242	0.158
-207.436	-143.738	0.125	0.012
-206.421	-120.062	-0.287	-0.048
-205.406	-175.645	-0.097	0.003
-204.392	318.150	-0.207	0.386
-203.377	-143.052	-0.166	0.016
-202.363	176.957	-0.159	-0.227
-201.348	172.767	0.096	0.135
-200.333	98.360	-0.266	-0.301
-199.319	-165.036	0.331	-0.014
-198.304	-67.637	0.307	0.118
-197.290	-200.000	-0.014	-0.062
-196.275	705.193	0.090	-0.232
-195.260	-169.709	0.315	0.011
-194.246	0.118	-0.111	-0.078
-193.231	65.664	0.090	0.090
-192.217	-123.617	-0.056	-0.009
-191.202	62.921	-0.208	-0.204
-190.187	398.936	0.061	-0.125
-189.173	-26.162	-0.172	0.099
-188.158	140.621	-0.164	0.212
-187.144	16.730	-0.418	-0.324
-186.129	186.276	-0.084	0.122
-185.114	-200.000	-0.014	-0.105
-184.100	310.272	-0.107	0.197
-183.085	706.375	-0.086	-0.223
-182.071	-70.740	0.209	-0.077
-181.056	70.236	0.249	0.252
-180.042	-82.425	-0.134	0.043
-179.027	-200.000	-0.027	-0.203
-178.012	-164.586	0.124	-0.006
-176.998	135.404	-0.122	-0.156
-175.983	-53.443	0.141	-0.063
-174.969	-200.000	0.066	0.341
-173.954	24.193	-0.368	-0.298
-172.939	12.849	0.146	-0.110
-171.925	36.424	0.218	-0.188
-170.910	-117.120	-0.085	0.015
-169.896	379.844	-0.147	-0.295
-168.881	-18.299	0.195	-0.120
-167.866	88.384	-0.104	-0.113
-166.852	-200.000	0.015	0.375
-165.837	-106.880	0.083	-0.018
-164.823	-68.283	0.118	0.045
-163.808	-10.721	0.184	-0.119
-162.793	-123.722	0.182	0.028
-161.779	-200.000	0.033	-0.337
-160.764	58.542	0.151	-0.145
-159.750	-52.363	-0.298	-0.135
-158.735	-122.614	-0.267	0.042
-157.720	142.798	-0.258	-0.336
-156.706	239.557	0.154	-0.251
-155.691	118.284	-0.043	0.052
-154.677	638.369	0.064	-0.159
-153.662	-77.514	0.006	0.002
-152.647	-97.087	0.160	-0.041
-151.633	263.902	0.151	0.258
-150.618	-46.835	0.323	0.155
-149.604	32.216	0.368	-0.311
-148.589	-47.989	-0.119	-0.057
-147.574	275.434	0.130	0.226
-146.560	800.000	-0.082	-0.305
-145.545	800.000	-0.027	0.112
-144.531	510.707	0.112	0.255
-143.516	-68.111	0.141	0.054
-142.502	92.352	-0.187	-0.206
-141.487	22.643	0.189	0.152
-140.472	-200.000	0.018	0.329
-139.458	-22.144	-0.298	0.177
-138.443	-128.216	0.093	0.013
-137.429	238.001	-0.025	0.040
-136.414	-127.762	0.172	0.024
-135.399	334.796	0.120	-0.228
-134.385	263.903	0.098	-0.166
-133.370	-48.485	-0.226	0.107
-132.356	500.968	0.103	-0.233
-131.341	44.672	0.174	0.157
-130.326	-200.000	0.013	0.459
-129.312	-85.815	-0.033	-0.010
-128.297	513.834	0.086	0.195
-127.283	-129.347	-0.279	0.038
-126.268	90.862	-0.175	0.192
-125.253	-144.821	-0.148	-0.013
-124.239	611.292	0.054	-0.132
-123.224	-200.000	-0.074	0.405
-122.210	260.978	-0.198	0.335
-121.195	506.611	0.126	0.286
