DTS Sentinel unit serial number:	SN413079Multiplexer serial number:	ORYXHardware model number:	OX4-SRSoftware version number:	ORYX F/W v4.00 Oryx Data Collector v3.7.2.0data status	okinstallation	princeton_trtdifferential loss correction	single-endedforward channel	channel 1reverse channel	N/Adate	2019/09/19time	06:50:35forward acquisition time	60.00reverse acquisition time	0.00gamma	496.2192k internal	0.2342k external	0.2342temperature offset calibration	1.0017default loss term (dB/km)	0.3790temperature slope calibration	1.0000multiplexer offset coefficient	1.0000multiplexer slope coefficient	1.0000fibre end	0.00T internal ref (°C)	19.00T ext. ref 1 (°C)	0.56T ext. ref 2 (°C)	12.69length (m)	temperature (°C)	Stokes	anti-Stokes-747.200	441.944	0.048	0.105
-746.185	103.610	-0.212	0.249
-745.171	47.185	0.454	-0.424
-744.156	-112.646	-0.188	0.038
-743.142	32.341	0.185	0.160
-742.127	-40.336	-0.035	-0.018
-741.112	147.154	0.176	0.238
-740.098	239.976	-0.185	0.309
-739.083	68.086	0.139	0.142
-738.069	-128.029	0.035	-0.005
-737.054	-176.848	-0.155	0.004
-736.039	-200.000	0.047	0.308
-735.025	9.222	0.231	0.175
-734.010	-85.564	-0.255	0.079
-732.996	-200.000	-0.012	-0.101
-731.981	-21.903	-0.147	0.090
-730.966	248.630	-0.103	0.174
-729.952	800.000	0.029	0.103
-728.937	-200.000	-0.008	-0.080
-727.923	154.483	0.104	0.143
-726.908	-200.000	-0.047	-0.272
-725.894	-108.221	-0.260	0.056
-724.879	-68.844	-0.216	0.083
-723.864	-200.000	-0.008	0.280
-722.850	-200.000	-0.057	0.291
-721.835	-200.000	0.021	0.446
-720.821	-116.407	-0.243	0.045
-719.806	269.941	0.150	0.264
-718.791	-131.037	-0.060	-0.008
-717.777	16.320	0.200	-0.158
-716.762	-17.988	0.136	0.085
-715.748	-170.643	-0.257	0.009
-714.733	-44.227	0.165	0.083
-713.718	149.155	-0.153	0.207
-712.704	-158.340	0.170	0.010
-711.689	-152.100	0.237	0.017
-710.675	800.000	0.082	-0.236
-709.660	279.239	-0.197	-0.351
-708.645	800.000	0.023	0.098
-707.631	800.000	-0.110	-0.386
-706.616	73.097	-0.035	0.037
-705.602	-127.880	-0.121	-0.017
-704.587	520.547	-0.143	0.336
-703.572	117.379	0.133	0.163
-702.558	-123.407	0.344	-0.055
-701.543	24.419	0.187	0.155
-700.529	-12.242	0.161	-0.105
-699.514	800.000	-0.106	0.308
-698.499	65.194	0.185	0.187
-697.485	371.421	0.027	-0.055
-696.470	-6.529	-0.261	-0.177
-695.456	189.919	-0.238	0.357
-694.441	-114.946	-0.299	-0.057
-693.426	130.833	-0.083	-0.107
-692.412	-200.000	0.013	0.371
-691.397	131.034	-0.076	0.098
-690.383	-200.000	0.011	0.124
-689.368	-200.000	0.055	-0.370
-688.354	36.177	-0.323	-0.285
-687.339	112.516	0.139	-0.168
-686.324	-200.000	0.003	-0.106
-685.310	-86.928	-0.284	-0.086
-684.295	12.134	-0.190	-0.146
-683.281	718.252	0.074	0.197
-682.266	-200.000	-0.028	-0.205
-681.251	-77.602	-0.209	-0.072
-680.237	204.950	-0.166	-0.257
-679.222	-200.000	0.019	0.235
-678.208	-59.485	-0.168	0.072
-677.193	-158.354	0.318	-0.018
-676.178	50.754	0.159	-0.150
-675.164	-200.000	-0.006	0.145
-674.149	52.755	0.091	0.087
-673.135	59.143	-0.197	-0.193
-672.120	371.588	-0.177	0.359
-671.105	505.967	-0.138	0.319
-670.091	-129.749	0.272	-0.037
-669.076	-119.005	-0.367	-0.064
-668.062	-89.119	-0.217	-0.064
-667.047	352.022	-0.084	0.165
-666.032	167.204	-0.137	0.194
-665.018	261.468	-0.117	-0.203
-664.003	-200.000	-0.015	-0.317
-662.989	-180.306	0.291	0.006
-661.974	185.458	0.174	0.258
-660.959	-72.953	-0.174	-0.064
-659.945	38.990	-0.202	-0.180
-658.930	-78.893	0.244	-0.083
-657.916	-42.682	0.232	-0.118
-656.901	-92.139	0.382	0.108
-655.886	28.284	-0.204	0.172
-654.872	800.000	0.090	0.315
-653.857	-8.518	0.076	-0.051
-652.843	125.041	-0.097	0.121
-651.828	-200.000	-0.040	0.476
-650.814	798.033	-0.092	-0.252
-649.799	-112.734	-0.281	0.056
-648.784	-63.497	-0.248	-0.102
-647.770	163.372	0.081	0.113
-646.755	207.622	0.102	-0.159
-645.741	-172.899	0.084	0.003
-644.726	58.840	0.088	0.087
-643.711	-56.222	-0.182	0.081
-642.697	-34.628	0.210	-0.115
-641.682	-148.198	0.333	-0.027
-640.668	-111.781	0.160	-0.032
-639.653	-80.368	0.251	-0.084
-638.638	17.516	-0.308	-0.244
-637.624	29.272	-0.275	-0.233
-636.609	390.645	-0.120	-0.248
-635.595	-27.563	0.065	0.038
-634.580	-41.645	0.137	-0.070
-633.565	-102.848	-0.343	-0.081
-632.551	800.000	0.093	0.267
-631.536	800.000	0.043	0.145
-630.522	25.165	0.186	0.154
-629.507	521.590	-0.161	0.377
-628.492	-75.611	0.184	-0.065
-627.478	35.306	0.166	-0.146
-626.463	-56.145	-0.392	-0.174
-625.449	-200.000	-0.010	-0.259
-624.434	-200.000	-0.086	0.381
-623.419	707.476	-0.098	0.259
-622.405	-200.000	0.016	-0.104
-621.390	382.897	-0.036	0.074
-620.376	-49.977	0.485	-0.229
-619.361	8.714	-0.072	0.054
-618.346	77.524	-0.168	-0.178
-617.332	-97.795	0.181	-0.047
-616.317	-200.000	-0.008	-0.049
-615.303	800.000	0.038	0.104
-614.288	-131.121	-0.324	0.043
-613.273	-49.738	-0.174	-0.083
-612.259	-135.816	0.373	0.044
-611.244	-108.143	-0.148	0.032
-610.230	-86.378	-0.123	0.038
-609.215	-156.356	-0.163	0.010
-608.201	800.000	0.105	-0.443
-607.186	-38.821	0.191	-0.100
-606.171	-170.244	0.067	0.002
-605.157	3.751	-0.149	-0.108
-604.142	224.617	-0.081	0.131
-603.128	-200.000	0.089	0.000
-602.113	699.071	-0.058	-0.152
-601.098	-200.000	-0.017	0.385
-600.084	-101.269	-0.093	0.023
-599.069	-200.000	-0.017	-0.196
-598.055	78.710	-0.056	-0.060
-597.040	10.775	-0.063	-0.048
-596.025	94.938	-0.108	-0.122
-595.011	-200.000	-0.004	-0.296
-593.996	-61.211	0.239	0.100
-592.982	-75.133	0.195	0.069
-591.967	64.570	0.018	0.018
-590.952	10.176	-0.047	0.036
-589.938	800.000	-0.074	-0.258
-588.923	-129.805	-0.287	0.039
-587.909	-28.631	-0.101	-0.058
-586.894	-200.000	0.042	-0.247
-585.879	-60.799	0.451	-0.190
-584.865	800.000	0.087	-0.262
-583.850	-78.645	-0.232	-0.079
-582.836	800.000	0.037	0.116
-581.821	391.235	-0.092	-0.190
-580.806	-189.328	0.387	0.005
-579.792	-156.083	0.276	0.017
-578.777	-200.000	-0.001	-0.079
-577.763	-96.450	0.241	-0.063
-576.748	379.071	0.072	0.146
-575.733	-110.845	-0.102	-0.021
-574.719	2.236	0.274	-0.197
-573.704	-93.708	-0.278	0.076
-572.690	111.899	0.036	-0.043
-571.675	246.156	0.048	0.080
-570.661	-84.955	-0.161	0.050
-569.646	15.485	-0.174	0.136
-568.631	319.642	0.040	-0.075
-567.617	565.683	0.054	-0.131
-566.602	-140.459	-0.335	-0.035
-565.588	-200.000	0.002	0.092
-564.573	22.375	0.294	0.239
-563.558	-162.236	0.105	-0.005
-562.544	-24.057	0.193	-0.114
-561.529	-26.063	0.440	-0.258
-560.515	81.808	0.051	0.055
-559.500	-200.000	0.036	-0.262
-558.485	463.788	-0.210	-0.466
-557.471	-97.630	-0.275	0.071
-556.456	-136.310	-0.170	-0.020
-555.442	-26.024	-0.144	0.084
-554.427	91.619	0.185	0.206
-553.412	800.000	-0.060	0.232
-552.398	-200.000	0.002	-0.049
-551.383	-1.667	0.128	0.090
-550.369	800.000	0.043	-0.136
-549.354	177.303	0.236	-0.342
-548.339	800.000	-0.092	0.294
-547.325	-39.310	-0.442	-0.230
-546.310	62.637	0.132	0.131
-545.296	-34.125	-0.290	0.158
-544.281	94.473	0.109	0.123
-543.266	-200.000	0.025	0.163
-542.252	-9.306	-0.105	0.070
-541.237	-82.881	-0.320	0.103
-540.223	-43.198	-0.054	-0.027
-539.208	-138.753	-0.267	-0.029
-538.193	9.243	0.074	-0.056
-537.179	-71.967	-0.191	0.070
-536.164	-17.398	0.170	-0.107
-535.150	800.000	-0.031	-0.088
-534.135	-60.834	-0.190	-0.080
-533.121	-47.038	-0.179	-0.087
-532.106	19.198	-0.142	-0.113
-531.091	-129.045	-0.414	-0.058
-530.077	773.632	0.163	-0.442
-529.062	-200.000	-0.058	-0.393
-528.048	-83.832	-0.327	-0.103
-527.033	-153.629	0.367	-0.025
-526.018	131.211	0.107	-0.137
-525.004	-152.051	-0.298	-0.022
-523.989	64.989	-0.040	-0.040
-522.975	680.083	0.100	-0.259
-521.960	19.127	-0.175	0.139
-520.945	-200.000	0.054	-0.380
-519.931	-7.913	-0.032	0.021
-518.916	-98.061	0.164	-0.042
-517.902	83.705	-0.211	0.229
-516.887	82.004	0.149	-0.160
-515.872	-47.430	0.401	-0.194
-514.858	-57.480	-0.140	-0.061
-513.843	139.742	0.115	-0.150
-512.829	-200.000	-0.047	-0.347
-511.814	68.565	0.226	0.230
-510.799	-119.586	0.353	0.061
-509.785	91.372	-0.081	0.091
-508.770	-187.340	-0.700	-0.009
-507.756	-68.178	-0.123	0.048
-506.741	225.227	0.267	0.429
-505.726	800.000	-0.109	-0.353
-504.712	44.741	-0.115	-0.105
-503.697	27.763	-0.046	0.039
-502.683	25.197	-0.127	0.105
-501.668	82.496	0.141	0.152
-500.653	261.306	0.187	-0.322
-499.639	3.414	-0.466	0.337
-498.624	31.044	-0.254	0.216
-497.610	300.379	-0.026	0.048
-496.595	-200.000	0.012	0.187
-495.581	162.165	-0.247	0.343
-494.566	-10.529	-0.065	-0.043
-493.551	-164.058	-0.231	-0.011
-492.537	-200.000	0.028	0.415
-491.522	-3.375	0.122	0.084
-490.508	575.533	0.010	0.024
-489.493	-53.650	0.176	-0.080
-488.478	-137.126	-0.327	-0.037
-487.464	304.161	-0.124	-0.228
-486.449	-200.000	-0.033	0.258
-485.435	-96.065	0.196	0.052
-484.420	-133.240	0.358	0.045
-483.405	114.402	-0.070	0.085
-482.391	-128.790	-0.217	-0.030
-481.376	-200.000	-0.054	-0.310
-480.362	413.117	-0.138	-0.291
-479.347	-56.965	0.044	-0.019
-478.332	-41.944	-0.135	0.069
-477.318	-200.000	0.010	0.052
-476.303	14.467	-0.069	0.054
-475.289	-200.000	0.088	0.448
-474.274	-73.544	0.199	0.072
-473.259	674.242	-0.027	-0.070
-472.245	3.643	-0.108	-0.078
-471.230	-99.414	0.219	-0.055
-470.216	-200.000	-0.006	0.105
-469.201	-200.000	0.018	0.163
-468.186	175.643	-0.136	0.196
-467.172	-186.857	0.393	0.005
-466.157	55.854	-0.165	0.158
-465.143	-144.060	0.148	-0.014
-464.128	800.000	-0.143	-0.423
-463.113	109.483	-0.380	-0.451
-462.099	-154.914	0.309	0.020
-461.084	-79.650	0.375	0.125
-460.070	-117.902	-0.061	0.011
-459.055	22.395	0.057	0.046
-458.040	-200.000	0.020	-0.198
-457.026	800.000	-0.055	0.224
-456.011	-36.798	-0.146	0.078
-454.997	-40.253	0.066	-0.034
-453.982	59.530	-0.260	-0.254
-452.968	163.517	-0.188	-0.262
-451.953	-105.514	-0.351	-0.079
-450.938	68.609	0.192	0.195
-449.924	-124.183	-0.092	-0.014
-448.909	-142.291	-0.265	-0.026
-447.895	-200.000	-0.005	0.290
-446.880	312.156	-0.024	-0.045
-445.865	-179.425	-0.368	0.008
-444.851	-102.926	0.227	0.053
-443.836	11.194	0.237	-0.180
-442.822	293.204	-0.142	-0.257
-441.807	-36.576	0.327	-0.174
-440.792	-128.721	0.164	-0.023
-439.778	53.513	0.051	0.049
-438.763	-47.040	-0.175	-0.084
-437.749	-166.518	0.123	-0.005
-436.734	75.838	0.143	0.149
-435.719	-151.916	-0.217	0.016
-434.705	-50.407	0.159	-0.075
-433.690	98.345	0.236	-0.269
-432.676	-200.000	-0.021	0.259
-431.661	-200.000	0.014	0.208
-430.646	93.781	-0.075	0.084
-429.632	-81.490	-0.242	-0.079
-428.617	-200.000	-0.036	-0.268
-427.603	189.745	-0.105	0.156
-426.588	80.336	-0.036	0.039
-425.573	-16.433	-0.327	0.205
-424.559	-91.805	0.145	-0.041
-423.544	800.000	0.061	0.183
-422.530	376.075	0.066	-0.133
-421.515	800.000	0.009	0.036
-420.500	31.356	-0.444	0.377
-419.486	175.789	0.132	-0.190
-418.471	219.868	0.138	0.218
-417.457	-85.650	-0.402	-0.123
-416.442	-200.000	-0.006	0.082
-415.428	141.197	0.069	0.090
-414.413	68.341	-0.066	-0.066
-413.398	-7.247	-0.189	0.126
-412.384	-24.761	0.099	-0.058
-411.369	-18.066	0.109	0.067
-410.355	-200.000	0.013	0.072
-409.340	-158.872	-0.311	0.018
-408.325	-109.929	0.226	0.047
-407.311	-111.582	-0.222	-0.045
-406.296	100.370	0.131	0.150
-405.282	-19.218	0.204	0.125
-404.267	-200.000	-0.006	0.167
-403.252	104.502	0.170	0.198
-402.238	338.330	0.227	0.437
-401.223	-200.000	-0.001	0.472
-400.209	-68.943	-0.087	0.033
-399.194	-200.000	-0.030	-0.202
-398.179	-87.559	-0.060	-0.018
-397.165	235.541	0.090	-0.148
-396.150	20.312	0.165	-0.131
-395.136	281.040	-0.042	0.075
-394.121	87.420	0.216	-0.236
-393.106	39.698	0.189	0.167
-392.092	-200.000	0.013	-0.068
-391.077	-187.972	0.257	-0.003
-390.063	-40.383	0.414	0.213
-389.048	304.095	0.070	0.128
-388.033	14.073	-0.306	-0.235
-387.019	-200.000	-0.044	-0.275
-386.004	-139.545	0.037	0.004
-384.990	103.885	-0.276	-0.321
-383.975	-33.274	-0.126	-0.069
-382.960	675.536	-0.129	0.331
-381.946	-52.334	-0.381	-0.174
-380.931	-84.046	0.417	-0.131
-379.917	375.891	-0.053	0.107
-378.902	-53.353	-0.032	0.015
-377.888	-12.526	-0.102	0.066
-376.873	13.044	-0.146	-0.111
-375.858	800.000	-0.018	0.059
-374.844	126.031	0.116	0.145
-373.829	-121.856	-0.304	-0.050
-372.815	-141.390	0.242	0.024
-371.800	187.683	0.170	-0.251
-370.785	561.064	-0.040	-0.096
-369.771	-99.356	0.237	-0.059
-368.756	-95.998	0.235	0.062
-367.742	400.986	0.096	-0.198
-366.727	28.176	0.101	0.084
-365.712	800.000	-0.105	-0.301
-364.698	-190.599	0.041	0.000
-363.683	-91.700	0.226	0.064
-362.669	102.724	-0.221	0.255
-361.654	490.501	0.138	0.311
-360.639	800.000	-0.049	0.148
-359.625	-200.000	-0.014	0.118
-358.610	395.318	-0.167	0.344
-357.596	23.050	-0.068	-0.055
-356.581	-49.065	0.376	-0.177
-355.566	-200.000	-0.044	0.320
-354.552	-130.395	-0.123	0.016
-353.537	-200.000	0.075	0.340
-352.523	-149.572	0.099	-0.008
-351.508	5.532	-0.324	0.236
-350.493	-57.275	0.263	-0.114
-349.479	-65.027	-0.217	0.086
-348.464	88.908	0.263	0.289
-347.450	658.363	0.054	0.138
-346.435	185.475	0.067	-0.098
-345.420	335.249	-0.070	-0.134
-344.406	800.000	-0.037	0.112
-343.391	339.559	-0.149	-0.286
-342.377	-65.108	0.243	-0.097
-341.362	-170.718	0.125	0.004
-340.348	-123.108	-0.338	-0.054
-339.333	472.521	-0.134	-0.297
-338.318	320.085	-0.081	0.152
-337.304	112.688	-0.176	0.210
-336.289	-53.963	-0.202	0.091
-335.275	155.095	-0.228	-0.309
-334.260	-113.359	0.173	0.034
-333.245	52.746	0.122	-0.115
-332.231	271.459	0.136	0.237
-331.216	-166.000	-0.263	0.011
-330.202	57.895	-0.161	-0.155
-329.187	536.601	0.045	0.104
-328.172	-24.296	0.200	0.118
-327.158	-72.937	-0.253	-0.091
-326.143	-17.933	0.266	0.165
-325.129	-100.461	0.167	0.041
-324.114	-73.964	0.074	0.027
-323.099	-200.000	0.010	-0.161
-322.085	-200.000	-0.030	-0.206
-321.070	190.960	-0.111	0.164
-320.056	-136.999	0.329	-0.037
-319.041	-13.044	-0.298	0.191
-318.026	800.000	0.079	0.244
-317.012	800.000	-0.181	-0.521
-315.997	800.000	0.058	0.238
-314.983	-52.254	0.286	-0.130
-313.968	262.123	-0.116	0.198
-312.953	800.000	0.083	-0.250
-311.939	3.756	-0.077	-0.055
-310.924	-133.062	0.071	-0.009
-309.910	69.149	0.137	0.139
-308.895	-113.636	0.084	-0.016
-307.880	-166.514	-0.267	0.011
-306.866	2.507	-0.285	-0.203
-305.851	-35.771	-0.062	-0.033
-304.837	-29.613	0.185	0.104
-303.822	35.502	0.146	0.126
-302.807	20.996	0.132	0.106
-301.793	110.051	0.217	0.256
-300.778	-200.000	-0.008	-0.083
-299.764	-200.000	-0.007	0.075
-298.749	292.312	-0.113	0.203
-297.735	137.437	0.265	0.341
-296.720	74.041	-0.307	-0.317
-295.705	32.778	-0.371	0.316
-294.691	-102.758	0.291	0.068
-293.676	399.969	-0.040	0.082
-292.662	-200.000	0.010	0.074
-291.647	111.966	0.227	-0.270
-290.632	-96.160	-0.150	-0.039
-289.618	-200.000	0.010	-0.103
-288.603	-200.000	0.018	-0.157
-287.589	571.457	0.105	-0.252
-286.574	-58.382	-0.228	-0.097
-285.559	-178.485	0.136	0.003
-284.545	-200.000	-0.004	0.290
-283.530	-200.000	-0.023	0.157
-282.516	-144.630	0.058	-0.005
-281.501	-54.806	0.119	0.053
-280.486	-200.000	-0.014	-0.123
-279.472	-126.705	-0.308	-0.045
-278.457	580.529	0.117	-0.282
-277.443	249.556	0.024	0.040
-276.428	73.772	0.102	0.106
-275.413	-41.675	-0.062	0.031
-274.399	53.605	-0.486	-0.458
-273.384	109.677	0.102	0.120
-272.370	-47.867	-0.068	-0.032
-271.355	739.621	-0.095	0.252
-270.340	734.234	0.122	-0.322
-269.326	-87.637	-0.008	0.002
-268.311	800.000	0.035	0.118
-267.297	-195.339	-0.221	0.002
-266.282	97.270	-0.180	0.204
-265.267	136.979	0.298	0.383
-264.253	-7.251	-0.135	-0.090
-263.238	-42.167	-0.196	-0.099
-262.224	-126.905	0.197	0.028
-261.209	77.923	0.160	0.168
-260.195	178.369	-0.137	0.197
-259.180	375.644	0.147	0.294
-258.165	-200.000	-0.044	-0.243
-257.151	253.414	-0.088	0.147
-256.136	49.532	0.158	0.146
-255.122	24.520	0.308	-0.251
-254.107	-200.000	-0.003	0.127
-253.092	-57.212	-0.141	-0.061
-252.078	-200.000	-0.026	0.194
-251.063	-90.748	0.346	-0.098
-250.049	-200.000	0.014	0.256
-249.034	800.000	-0.038	0.115
-248.019	419.534	0.152	-0.319
-247.005	-95.259	-0.258	-0.068
-245.990	-132.328	0.008	0.001
-244.976	108.560	0.086	-0.100
-243.961	-115.837	0.226	0.042
-242.946	6.003	0.263	0.191
-241.932	522.570	0.047	-0.108
-240.917	-47.101	0.083	-0.040
-239.903	-200.000	0.020	0.519
-238.888	133.103	0.235	-0.297
-237.873	-200.000	0.004	-0.096
-236.859	-40.993	0.236	-0.120
-235.844	140.259	-0.203	-0.262
-234.830	-200.000	-0.007	0.239
-233.815	-200.000	0.022	0.117
-232.800	-124.796	0.248	-0.038
-231.786	56.756	-0.239	0.229
-230.771	112.626	0.154	0.183
-229.757	-200.000	0.017	0.087
-228.742	-49.029	-0.140	0.066
-227.727	800.000	-0.069	0.203
-226.713	-67.410	-0.124	0.048
-225.698	51.151	0.198	0.184
-224.684	-116.148	-0.126	0.023
-223.669	115.294	0.112	-0.134
-222.655	107.225	-0.079	0.092
-221.640	-156.066	0.279	0.017
-220.625	-113.997	0.149	-0.028
-219.611	-81.824	-0.084	-0.027
-218.596	-14.957	0.127	0.080
-217.582	242.375	-0.102	-0.168
-216.567	67.867	-0.163	-0.164
-215.552	-152.047	0.182	0.013
-214.538	-151.230	0.227	0.017
-213.523	409.227	0.121	0.252
-212.509	25.273	-0.084	0.068
-211.494	-152.011	0.259	-0.018
-210.479	29.159	0.084	0.070
-209.465	-200.000	0.058	0.283
-208.450	800.000	-0.002	-0.006
-207.436	-145.651	-0.211	-0.018
-206.421	238.648	-0.054	-0.088
-205.406	-200.000	-0.018	0.254
-204.392	-105.009	-0.233	-0.052
-203.377	122.202	0.137	0.168
-202.363	484.050	0.070	-0.155
-201.348	-122.600	-0.257	-0.041
-200.333	73.700	-0.149	-0.153
-199.319	20.273	0.252	-0.199
-198.304	-125.994	-0.273	0.040
-197.290	-129.163	0.159	-0.022
-196.275	-200.000	-0.017	-0.178
-195.260	85.368	0.008	-0.009
-194.246	-30.853	0.134	-0.074
-193.231	-200.000	0.023	-0.310
-192.217	-104.221	0.440	-0.100
-191.202	-25.166	0.204	0.119
-190.187	-59.180	0.415	-0.175
-189.173	2.615	0.183	-0.130
-188.158	-0.563	0.193	-0.134
-187.144	-200.000	0.010	-0.254
-186.129	21.816	-0.069	0.055
-185.114	103.691	0.066	0.076
-184.100	75.929	-0.142	-0.147
-183.085	-34.527	-0.189	-0.102
-182.071	237.914	0.044	-0.071
-181.056	267.259	-0.092	0.158
-180.042	12.933	0.128	-0.097
-179.027	21.035	0.053	-0.042
-178.012	115.899	0.082	-0.098
-176.998	521.142	0.148	-0.340
-175.983	-200.000	-0.150	-0.000
-174.969	674.697	0.045	-0.113
-173.954	800.000	0.063	0.241
-172.939	-14.185	0.258	-0.163
-171.925	26.494	-0.160	0.131
-170.910	22.316	-0.250	0.200
-169.896	-112.867	-0.146	-0.028
-168.881	218.296	0.102	0.160
-167.866	107.714	0.097	0.113
-166.852	-200.000	0.089	0.502
-165.837	-3.809	-0.288	-0.196
-164.823	9.970	-0.081	-0.060
-163.808	102.709	0.208	-0.238
-162.793	-62.667	0.383	-0.155
-161.779	800.000	0.017	-0.047
-160.764	11.437	-0.232	0.174
-159.750	-11.417	-0.116	-0.075
-158.735	800.000	-0.022	0.082
-157.720	327.581	-0.046	-0.087
-156.706	-177.383	-0.398	0.010
-155.691	240.123	0.088	0.144
-154.677	-74.588	-0.200	0.071
-153.662	-100.608	-0.274	-0.066
-152.647	-183.842	0.166	-0.003
-151.633	800.000	-0.040	0.132
-150.618	-36.905	0.176	-0.092
-149.604	-104.671	0.174	0.039
-148.589	-106.910	-0.295	0.064
-147.574	43.864	0.120	0.107
-146.560	-79.505	-0.165	0.055
-145.545	-200.000	-0.043	-0.188
-144.531	-3.890	-0.237	0.161
-143.516	212.990	0.102	0.158
-142.502	75.816	0.219	-0.227
-141.487	162.096	0.171	0.234
-140.472	-113.817	-0.268	-0.051
-139.458	800.000	0.162	0.452
-138.443	-34.754	-0.121	-0.065
-137.429	771.988	-0.104	-0.277
-136.414	259.501	0.167	0.282
-135.399	-79.261	0.290	0.096
-134.385	-129.204	-0.280	-0.038
-133.370	474.796	0.113	0.249
-132.356	151.491	0.082	-0.109
-131.341	-200.000	-0.018	-0.184
-130.326	143.649	0.035	-0.046
-129.312	-200.000	0.002	0.043
-128.297	525.230	0.007	-0.016
-127.283	-200.000	0.121	0.788
-126.268	18.967	0.099	0.077
-125.253	-101.974	0.259	0.061
-124.239	59.044	-0.141	0.135
-123.224	-200.000	-0.016	-0.199
-122.210	39.928	0.119	-0.104
-121.195	-76.170	-0.129	0.045
-120.180	-146.335	0.291	-0.025
