DTS Sentinel unit serial number:	SN413079Multiplexer serial number:	ORYXHardware model number:	OX4-SRSoftware version number:	ORYX F/W v4.00 Oryx Data Collector v3.7.2.0data status	okinstallation	princeton_trtdifferential loss correction	single-endedforward channel	channel 1reverse channel	N/Adate	2019/09/13time	18:58:35forward acquisition time	60.00reverse acquisition time	0.00gamma	496.2192k internal	0.2322k external	0.2322temperature offset calibration	1.0126default loss term (dB/km)	0.3790temperature slope calibration	1.0000multiplexer offset coefficient	1.0000multiplexer slope coefficient	1.0000fibre end	0.00T internal ref (°C)	32.00T ext. ref 1 (°C)	3.95T ext. ref 2 (°C)	25.30length (m)	temperature (°C)	Stokes	anti-Stokes-747.200	160.406	0.082	0.115
-746.185	-50.240	-0.112	0.054
-745.171	-96.529	0.295	-0.079
-744.156	800.000	0.041	0.146
-743.142	-99.298	0.283	0.072
-742.127	400.635	0.089	0.188
-741.112	203.386	-0.108	-0.170
-740.098	-110.898	0.071	0.015
-739.083	-130.827	-0.046	-0.006
-738.069	-17.145	0.117	-0.074
-737.054	222.829	-0.070	0.113
-736.039	-111.726	-0.348	0.071
-735.025	18.719	-0.167	-0.135
-734.010	34.806	0.159	-0.141
-732.996	-200.000	0.014	-0.294
-731.981	-200.000	0.007	-0.167
-730.966	800.000	0.057	-0.171
-729.952	358.135	0.058	0.118
-728.937	6.946	0.244	-0.183
-727.923	645.602	-0.123	-0.317
-726.908	-16.448	0.167	-0.107
-725.894	-111.258	-0.220	0.045
-724.879	128.197	-0.129	0.166
-723.864	84.115	0.179	-0.197
-722.850	-200.000	-0.011	-0.132
-721.835	427.602	-0.115	0.251
-720.821	-88.117	0.262	-0.079
-719.806	-179.218	0.347	-0.008
-718.791	-200.000	-0.006	0.038
-717.777	-200.000	-0.030	0.136
-716.762	-80.995	-0.171	0.057
-715.748	32.516	-0.115	-0.100
-714.733	-64.346	0.135	-0.056
-713.718	-29.297	-0.167	0.097
-712.704	-36.954	-0.128	-0.069
-711.689	-28.813	0.454	-0.263
-710.675	-30.313	0.414	0.237
-709.660	19.931	-0.207	-0.168
-708.645	-200.000	-0.013	0.125
-707.631	11.281	0.427	-0.330
-706.616	152.396	-0.119	0.165
-705.602	-36.269	-0.190	0.103
-704.587	-31.145	-0.211	0.120
-703.572	-194.859	-0.314	0.002
-702.558	210.483	-0.120	0.190
-701.543	-93.383	0.285	0.080
-700.529	301.219	-0.185	-0.344
-699.514	-200.000	-0.020	-0.199
-698.499	89.941	-0.172	0.194
-697.485	733.836	-0.170	-0.460
-696.470	-144.619	0.447	0.042
-695.456	-119.812	-0.269	-0.047
-694.441	-200.000	-0.050	0.269
-693.426	-39.213	0.153	-0.081
-692.412	350.143	-0.180	-0.358
-691.397	800.000	-0.064	-0.212
-690.383	88.596	0.145	0.163
-689.368	-151.558	-0.305	-0.023
-688.354	6.959	-0.154	0.116
-687.339	-52.158	0.155	0.073
-686.324	-200.000	0.022	0.184
-685.310	800.000	0.080	0.293
-684.295	-200.000	0.050	0.297
-683.281	-200.000	-0.025	0.146
-682.266	-3.627	0.184	-0.129
-681.251	-200.000	-0.033	0.150
-680.237	-30.823	0.167	0.095
-679.222	331.945	0.093	-0.181
-678.208	-42.888	-0.126	0.064
-677.193	-200.000	0.007	-0.037
-676.178	-104.176	0.236	-0.055
-675.164	-68.395	-0.174	0.068
-674.149	-144.387	-0.296	0.028
-673.135	-88.919	-0.144	0.043
-672.120	128.020	-0.031	-0.040
-671.105	84.712	-0.091	0.100
-670.091	37.546	0.215	-0.192
-669.076	-78.057	-0.380	0.132
-668.062	-129.079	-0.081	0.011
-667.047	-63.174	-0.262	-0.109
-666.032	140.720	0.192	0.255
-665.018	800.000	-0.064	0.183
-664.003	800.000	-0.043	0.158
-662.989	-147.722	0.115	0.010
-661.974	-200.000	-0.013	0.184
-660.959	471.148	0.081	-0.183
-659.945	354.556	0.103	-0.207
-658.930	-87.759	-0.075	0.023
-657.916	16.712	-0.229	-0.182
-656.901	24.462	-0.330	0.275
-655.886	-30.225	0.139	-0.080
-654.872	800.000	0.012	-0.045
-653.857	736.094	0.051	-0.138
-652.843	11.577	-0.050	0.039
-651.828	-18.807	-0.030	0.019
-650.814	24.257	-0.225	-0.187
-649.799	364.785	0.079	-0.161
-648.784	372.713	0.092	0.189
-647.770	-90.726	-0.117	-0.034
-646.755	-129.384	-0.357	-0.050
-645.741	-200.000	0.045	-0.224
-644.726	-31.217	0.303	-0.172
-643.711	-200.000	-0.401	0.002
-642.697	-200.000	0.003	0.266
-641.682	-122.305	0.300	0.049
-640.668	279.058	-0.097	-0.173
-639.653	800.000	0.088	0.265
-638.638	123.928	0.085	-0.107
-637.624	-127.962	0.233	-0.034
-636.609	-200.000	-0.007	-0.366
-635.595	-5.917	-0.163	-0.113
-634.580	-200.000	0.027	0.265
-633.565	-11.607	0.351	0.232
-632.551	-200.000	0.062	-0.277
-631.536	-3.461	-0.133	-0.093
-630.522	417.205	-0.020	-0.043
-629.507	104.628	-0.163	0.193
-628.492	4.476	-0.239	-0.177
-627.478	146.914	0.119	-0.161
-626.463	-16.505	0.055	0.035
-625.449	-200.000	0.053	0.328
-624.434	-200.000	0.420	-0.002
-623.419	-200.000	0.019	0.102
-622.405	-200.000	-0.044	0.213
-621.390	-117.367	0.092	0.017
-620.376	4.256	-0.195	-0.144
-619.361	6.037	-0.143	0.106
-618.346	-57.889	0.322	-0.141
-617.332	-200.000	0.035	0.230
-616.317	-85.005	-0.193	0.061
-615.303	-200.000	0.047	-0.408
-614.288	-200.000	-0.012	-0.082
-613.273	168.238	-0.171	0.245
-612.259	6.511	-0.122	-0.091
-611.244	163.873	-0.219	-0.309
-610.230	87.542	0.287	-0.320
-609.215	82.818	0.153	-0.167
-608.201	-200.000	-0.014	-0.314
-607.186	800.000	-0.041	-0.139
-606.171	237.703	0.102	0.169
-605.157	364.460	-0.063	-0.128
-604.142	-138.814	-0.238	0.026
-603.128	-102.054	-0.019	-0.005
-602.113	-198.537	0.300	-0.002
-601.098	147.297	0.132	-0.178
-600.084	21.476	-0.221	-0.180
-599.069	108.156	-0.249	-0.298
-598.055	-200.000	0.005	0.031
-597.040	479.703	0.238	-0.542
-596.025	440.556	0.024	-0.052
-595.011	-102.728	-0.228	0.055
-593.996	-61.359	-0.121	0.051
-592.982	129.888	-0.065	0.083
-591.967	78.790	0.056	0.060
-590.952	293.234	-0.109	-0.199
-589.938	-37.583	-0.134	0.071
-588.923	53.343	0.062	-0.060
-587.909	-29.863	0.144	-0.082
-586.894	529.788	0.101	0.239
-585.879	70.050	0.139	0.144
-584.865	-36.122	0.192	-0.104
-583.850	472.375	-0.042	-0.095
-582.836	567.783	-0.054	0.131
-581.821	-127.500	0.231	-0.034
-580.806	800.000	-0.055	-0.213
-579.792	-119.411	-0.053	-0.009
-578.777	800.000	0.211	-0.611
-577.763	-126.374	0.119	0.018
-576.748	-200.000	0.207	-0.001
-575.733	-91.690	0.073	-0.021
-574.719	329.323	-0.052	-0.101
-573.704	800.000	0.053	-0.153
-572.690	-200.000	0.038	-0.228
-571.675	-88.257	-0.124	0.037
-570.661	-29.248	-0.120	0.069
-569.646	-30.632	-0.226	0.128
-568.631	48.946	-0.136	-0.128
-567.617	800.000	-0.113	-0.398
-566.602	-200.000	0.028	0.213
-565.588	51.218	-0.086	0.082
-564.573	171.412	-0.084	0.121
-563.558	-200.000	-0.001	0.176
-562.544	-19.840	0.254	0.158
-561.529	31.371	-0.228	-0.197
-560.515	-200.000	-0.030	0.226
-559.500	-110.934	-0.298	0.062
-558.485	99.754	-0.163	-0.189
-557.471	4.429	-0.085	0.062
-556.456	176.203	0.069	-0.101
-555.442	-76.822	-0.155	-0.054
-554.427	-94.473	-0.177	0.048
-553.412	800.000	0.024	0.083
-552.398	558.785	-0.160	0.388
-551.383	250.711	-0.115	0.196
-550.369	146.998	-0.189	-0.255
-549.354	-155.360	0.275	-0.018
-548.339	-200.000	-0.025	0.271
-547.325	-14.492	-0.225	0.145
-546.310	-92.568	0.120	0.034
-545.296	-114.939	-0.022	-0.004
-544.281	-18.999	0.012	0.008
-543.266	-200.000	0.057	-0.383
-542.252	-200.000	0.003	0.217
-541.237	319.293	-0.062	-0.117
-540.223	-123.599	0.060	0.010
-539.208	800.000	-0.106	-0.344
-538.193	178.809	-0.200	-0.292
-537.179	309.111	0.050	0.093
-536.164	-54.907	-0.393	0.177
-535.150	102.360	-0.136	0.160
-534.135	-137.046	0.055	0.006
-533.121	111.940	0.121	-0.146
-532.106	-100.721	0.444	0.110
-531.091	-98.232	0.190	-0.049
-530.077	-3.542	0.111	-0.077
-529.062	-72.390	-0.220	0.082
-528.048	-200.000	0.004	0.096
-527.033	157.778	-0.234	-0.324
-526.018	260.916	0.161	-0.280
-525.004	800.000	0.086	0.270
-523.989	-200.000	-0.014	0.154
-522.975	-200.000	0.002	0.246
-521.960	-114.573	0.156	-0.030
-520.945	-189.301	0.270	0.003
-519.931	800.000	-0.081	-0.326
-518.916	800.000	0.069	-0.220
-517.902	-200.000	0.032	-0.354
-516.887	-34.211	0.207	-0.114
-515.872	-176.873	0.074	-0.002
-514.858	572.408	-0.112	0.273
-513.843	800.000	0.052	0.154
-512.829	10.966	-0.279	0.214
-511.814	46.303	0.235	0.218
-510.799	-200.000	0.073	0.395
-509.785	-48.541	-0.338	0.163
-508.770	-141.406	0.146	0.015
-507.756	-200.000	0.002	0.039
-506.741	-21.169	0.127	0.078
-505.726	51.748	-0.280	-0.266
-504.712	-145.166	-0.298	0.027
-503.697	-149.841	0.307	0.024
-502.683	-200.000	0.022	0.141
-501.668	-196.075	-0.113	0.001
-500.653	86.800	-0.097	-0.107
-499.639	-82.766	0.317	0.103
-498.624	-125.763	-0.197	0.030
-497.610	-79.981	0.127	-0.043
-496.595	82.872	0.280	0.305
-495.581	-25.480	-0.336	0.199
-494.566	-200.000	0.028	0.188
-493.551	-156.670	0.111	0.007
-492.537	176.540	-0.052	-0.076
-491.522	-200.000	0.012	0.114
-490.508	241.018	-0.104	-0.174
-489.493	800.000	-0.076	0.303
-488.478	549.804	0.080	-0.193
-487.464	42.896	0.279	-0.254
-486.449	-146.902	-0.363	0.031
-485.435	800.000	0.090	0.269
-484.420	116.128	-0.139	0.170
-483.405	15.008	0.249	-0.195
-482.391	-200.000	0.005	0.282
-481.376	34.462	0.291	-0.254
-480.362	-138.562	-0.205	0.022
-479.347	-19.288	0.184	-0.114
-478.332	-121.913	0.045	-0.007
-477.318	-96.410	-0.355	0.094
-476.303	-106.843	0.172	-0.038
-475.289	91.565	-0.122	-0.138
-474.274	-153.635	-0.133	-0.009
-473.259	-200.000	-0.038	0.452
-472.245	46.486	0.215	0.199
-471.230	-33.470	-0.256	0.141
-470.216	800.000	0.067	0.270
-469.201	53.274	-0.168	-0.161
-468.186	-200.000	0.003	-0.202
-467.172	-44.628	0.282	0.141
-466.157	800.000	0.014	0.059
-465.143	-159.325	-0.330	0.018
-464.128	118.066	0.089	-0.110
-463.113	-24.086	0.213	-0.127
-462.099	27.790	-0.143	0.121
-461.084	-143.014	-0.328	0.032
-460.070	367.799	0.074	-0.150
-459.055	540.740	0.219	-0.521
-458.040	-54.891	-0.273	-0.123
-457.026	31.832	-0.140	0.120
-456.011	-115.238	-0.116	-0.022
-454.997	-133.197	0.119	0.015
-453.982	100.306	-0.032	0.037
-452.968	129.292	0.179	0.228
-451.953	257.325	0.074	0.128
-450.938	-124.011	-0.239	0.038
-449.924	-200.000	-0.027	0.164
-448.909	-200.000	0.013	0.305
-447.895	37.796	-0.150	0.133
-446.880	27.924	0.235	0.198
-445.865	-80.576	0.218	0.073
-444.851	-93.197	0.073	-0.020
-443.836	102.552	0.097	0.114
-442.822	135.096	-0.098	0.127
-441.807	-200.000	-0.068	-0.382
-440.792	262.914	0.115	0.199
-439.778	-113.504	-0.091	0.018
-438.763	118.471	-0.112	0.138
-437.749	-184.325	0.204	-0.003
-436.734	800.000	0.043	-0.162
-435.719	41.623	-0.229	0.207
-434.705	-78.080	-0.026	-0.009
-433.690	-152.108	-0.103	0.007
-432.676	-11.742	0.072	0.047
-431.661	-153.066	-0.316	0.022
-430.646	-67.163	0.165	0.065
-429.632	-200.000	0.013	-0.273
-428.617	14.516	-0.165	0.128
-427.603	1.781	-0.114	0.082
-426.588	-21.826	-0.318	0.193
-425.573	-200.000	0.022	-0.260
-424.559	-106.858	-0.270	-0.060
-423.544	-44.319	0.474	0.237
-422.530	404.213	-0.100	-0.211
-421.515	-100.268	0.378	-0.094
-420.500	185.364	-0.163	0.241
-419.486	108.495	0.086	-0.103
-418.471	-176.383	0.199	-0.005
-417.457	144.128	0.114	0.152
-416.442	-99.671	0.182	0.046
-415.428	-5.431	-0.311	-0.213
-414.413	89.119	-0.278	0.309
-413.398	800.000	-0.024	0.092
-412.384	58.073	-0.218	-0.213
-411.369	-107.800	-0.267	0.058
-410.355	-127.030	0.322	0.047
-409.340	102.485	0.085	-0.099
-408.325	-200.000	0.007	-0.391
-407.311	-97.661	0.191	-0.049
-406.296	11.519	-0.267	-0.204
-405.282	188.252	0.060	-0.089
-404.267	-28.092	0.231	0.133
-403.252	358.235	0.138	0.275
-402.238	-69.765	-0.079	0.030
-401.223	800.000	0.053	-0.208
-400.209	-67.415	0.211	0.082
-399.194	-40.546	-0.264	0.137
-398.179	800.000	0.023	-0.098
-397.165	-67.648	0.182	0.071
-396.150	-178.013	-0.223	-0.005
-395.136	-12.739	0.132	0.086
-394.121	74.311	-0.106	0.111
-393.106	-71.408	0.253	0.095
-392.092	-200.000	0.002	0.012
-391.077	-200.000	0.009	0.100
-390.063	-128.128	0.160	0.023
-389.048	183.844	0.034	0.050
-388.033	-38.440	-0.208	-0.109
-387.019	-200.000	0.019	-0.125
-386.004	-2.901	-0.312	-0.217
-384.990	218.060	-0.118	0.188
-383.975	-39.677	-0.091	0.048
-382.960	-32.496	0.074	-0.041
-381.946	246.431	0.067	-0.113
-380.931	505.493	0.098	0.225
-379.917	-200.000	0.022	0.211
-378.902	-200.000	0.086	0.595
-377.888	-200.000	-0.008	0.117
-376.873	-137.830	0.330	-0.037
-375.858	365.931	-0.100	0.201
-374.844	103.880	-0.130	-0.152
-373.829	800.000	0.036	-0.120
-372.815	-50.454	0.093	0.044
-371.800	-12.799	0.189	0.123
-370.785	526.614	-0.082	-0.193
-369.771	16.516	0.317	-0.249
-368.756	800.000	0.022	0.095
-367.742	-140.291	0.453	-0.047
-366.727	-102.852	-0.412	-0.097
-365.712	60.824	-0.116	-0.114
-364.698	33.691	0.050	-0.043
-363.683	129.054	-0.152	0.192
-362.669	30.287	0.071	-0.061
-361.654	800.000	0.032	-0.109
-360.639	33.088	0.194	-0.167
-359.625	441.780	0.048	-0.105
-358.610	-152.699	-0.102	0.007
-357.596	-91.288	-0.269	-0.077
-356.581	-73.623	0.352	-0.127
-355.566	145.516	0.112	-0.149
-354.552	800.000	0.158	0.570
-353.537	-139.585	-0.396	0.042
-352.523	-122.820	0.336	-0.054
-351.508	-200.000	-0.004	-0.054
-350.493	-43.098	0.094	0.047
-349.479	169.093	-0.130	0.185
-348.464	371.174	-0.047	0.095
-347.450	800.000	0.078	0.245
-346.435	-15.735	0.082	-0.052
-345.420	-15.517	0.244	-0.155
-344.406	-110.261	-0.324	-0.067
-343.391	-115.831	-0.277	0.052
-342.377	800.000	-0.115	-0.363
-341.362	77.643	0.023	0.024
-340.348	-53.164	-0.042	-0.019
-339.333	115.711	-0.145	0.177
-338.318	-145.567	0.131	0.012
-337.304	-173.678	0.102	0.003
-336.289	402.117	0.042	0.088
-335.275	185.906	0.243	-0.359
-334.260	73.582	0.089	0.093
-333.245	800.000	-0.043	0.142
-332.231	-112.927	0.160	-0.031
-331.216	-43.385	-0.109	-0.055
-330.202	-69.454	-0.229	0.087
-329.187	-200.000	0.033	0.219
-328.172	-47.603	0.084	0.040
-327.158	-178.557	0.205	-0.005
-326.143	-200.000	0.048	0.208
-325.129	-200.000	-0.061	0.329
-324.114	-143.074	0.306	0.029
-323.099	-86.657	0.286	-0.087
-322.085	47.609	-0.465	-0.431
-321.070	513.022	0.088	-0.203
-320.056	-130.816	0.193	0.026
-319.041	15.769	-0.339	0.265
-318.026	-136.676	0.144	0.017
-317.012	-168.775	-0.288	-0.011
-315.997	268.320	-0.124	-0.216
-314.983	107.715	-0.137	0.162
-313.968	364.203	0.064	0.128
-312.953	70.446	-0.103	0.105
-311.939	-10.665	-0.133	-0.087
-310.924	77.593	0.354	-0.375
-309.910	-54.004	-0.032	0.014
-308.895	101.956	0.282	0.327
-307.880	-200.000	-0.010	-0.100
-306.866	65.481	0.237	-0.238
-305.851	-6.501	-0.165	-0.112
-304.837	165.421	0.074	-0.104
-303.822	-200.000	-0.014	0.211
-302.807	49.443	0.330	-0.308
-301.793	-118.553	-0.548	-0.096
-300.778	297.830	-0.099	-0.180
-299.764	488.319	0.150	-0.340
-298.749	800.000	-0.042	-0.162
-297.735	800.000	0.074	0.223
-296.720	158.327	0.078	-0.108
-295.705	213.850	0.252	-0.395
-294.691	330.805	-0.088	-0.168
-293.676	-113.059	0.091	0.018
-292.662	19.548	-0.247	-0.197
-291.647	-81.044	0.167	0.055
-290.632	109.625	-0.132	0.157
-289.618	-48.746	-0.222	-0.106
-288.603	-29.987	0.167	0.094
-287.589	77.590	0.175	0.185
-286.574	-200.000	0.040	0.204
-285.559	-126.350	-0.359	0.053
-284.545	-63.251	-0.212	0.087
-283.530	271.393	0.112	0.195
-282.516	207.238	-0.096	0.149
-281.501	63.495	-0.165	0.164
-280.486	221.120	-0.072	-0.115
-279.472	499.013	-0.100	0.229
-278.457	-40.696	0.227	0.117
-277.443	-131.252	-0.113	-0.015
-276.428	112.428	-0.066	-0.079
-275.413	213.425	-0.154	-0.241
-274.399	-42.757	0.159	0.080
-273.384	-200.000	0.037	-0.245
-272.370	-82.996	0.263	0.084
-271.355	-113.922	0.145	-0.028
-270.340	-63.459	-0.206	0.084
-269.326	119.573	-0.343	-0.421
-268.311	-3.153	-0.138	0.096
-267.297	121.517	0.063	-0.078
-266.282	103.804	-0.175	-0.204
-265.267	800.000	-0.067	0.187
-264.253	-29.833	-0.249	0.141
-263.238	-200.000	0.004	-0.226
-262.224	-126.488	0.133	-0.020
-261.209	4.303	-0.117	0.085
-260.195	-45.347	-0.101	0.050
-259.180	-200.000	0.014	0.090
-258.165	-129.545	0.323	0.044
-257.151	-65.388	0.273	-0.109
-256.136	-115.212	0.218	0.041
-255.122	-200.000	-0.011	-0.191
-254.107	-111.495	0.214	-0.043
-253.092	-108.661	-0.250	0.053
-252.078	-37.962	0.281	0.148
-251.063	800.000	-0.082	0.299
-250.049	113.816	0.143	-0.172
-249.034	264.601	0.089	0.153
-248.019	380.940	-0.134	0.272
-247.005	-96.124	-0.111	-0.029
-245.990	-200.000	-0.056	0.250
-244.976	-200.000	-0.003	0.044
-243.961	-80.062	-0.128	0.042
-242.946	-68.930	0.247	0.094
-241.932	292.523	0.036	0.065
-240.917	123.436	0.099	0.123
-239.903	-93.120	-0.065	-0.018
-238.888	176.447	-0.166	-0.238
-237.873	93.269	-0.083	-0.093
-236.859	179.587	-0.157	0.228
-235.844	253.187	-0.134	-0.227
-234.830	468.411	-0.250	-0.556
-233.815	162.959	-0.163	-0.227
-232.800	-200.000	-0.031	0.137
-231.786	-200.000	0.031	0.221
-230.771	-200.000	-0.076	0.389
-229.757	51.438	-0.153	0.144
-228.742	-126.819	-0.243	0.036
-227.727	-27.980	0.319	0.183
-226.713	-200.000	-0.010	0.113
-225.698	-40.121	0.246	0.127
-224.684	101.526	0.300	0.346
-223.669	-200.000	0.007	0.041
-222.655	-18.544	0.302	0.187
-221.640	-144.236	-0.147	0.014
-220.625	-59.311	0.184	-0.078
-219.611	205.833	-0.187	-0.287
-218.596	-200.000	-0.035	-0.207
-217.582	-9.041	0.139	0.092
-216.567	380.275	-0.044	0.090
-215.552	-64.032	-0.073	0.029
-214.538	696.347	-0.049	-0.127
-213.523	-177.352	-0.035	-0.001
-212.509	39.607	-0.151	-0.134
-211.494	118.853	0.103	-0.126
-210.479	800.000	0.027	-0.106
-209.465	-200.000	-0.021	-0.619
-208.450	-99.572	-0.504	0.125
-207.436	-6.403	-0.314	0.212
-206.421	51.728	-0.136	-0.128
-205.406	-69.896	0.174	-0.066
-204.392	-200.000	-0.013	-0.164
-203.377	238.114	-0.069	-0.114
-202.363	-158.944	0.339	-0.019
-201.348	-133.776	0.341	-0.042
-200.333	260.927	-0.038	0.065
-199.319	59.985	0.043	-0.042
-198.304	83.889	0.315	-0.340
-197.290	-60.335	-0.216	-0.091
-196.275	100.204	0.105	-0.120
-195.260	66.509	-0.224	-0.225
-194.246	-83.356	0.362	0.115
-193.231	-200.000	0.054	0.251
-192.217	462.258	-0.085	0.187
-191.202	-107.473	0.162	0.035
-190.187	-200.000	0.005	0.085
-189.173	134.735	-0.173	0.222
-188.158	-49.461	0.156	0.074
-187.144	490.552	-0.073	0.165
-186.129	-98.688	0.083	-0.021
-185.114	-34.452	0.160	-0.087
-184.100	800.000	0.137	0.514
-183.085	696.835	0.014	0.036
-182.071	-125.866	0.157	0.023
-181.056	22.248	-0.258	-0.208
-180.042	-132.423	0.205	0.026
-179.027	-39.325	0.323	-0.168
-178.012	-1.831	0.227	-0.158
-176.998	-44.346	0.143	0.071
-175.983	-116.503	0.037	0.007
-174.969	-115.833	-0.204	0.038
-173.954	-97.005	-0.108	-0.028
-172.939	-39.149	0.300	-0.156
-171.925	800.000	0.073	-0.306
-170.910	-112.187	-0.152	-0.030
-169.896	-85.607	0.166	0.051
-168.881	-21.805	-0.095	-0.057
-167.866	-139.245	0.161	-0.017
-166.852	-200.000	0.009	0.170
-165.837	-15.994	-0.278	-0.175
-164.823	-12.787	-0.424	0.273
-163.808	-99.130	0.398	-0.099
-162.793	-200.000	0.032	0.153
-161.779	-200.000	-0.077	-0.333
-160.764	326.772	0.113	-0.214
-159.750	-16.214	-0.226	0.142
-158.735	-52.821	0.135	0.061
-157.720	-152.465	-0.330	0.023
-156.706	22.267	-0.063	0.051
-155.691	80.934	-0.100	0.107
-154.677	-200.000	-0.018	0.159
-153.662	-44.832	-0.205	0.101
-152.647	465.200	-0.050	-0.110
-151.633	-200.000	0.001	0.070
-150.618	-200.000	-0.007	0.273
-149.604	-122.992	0.093	0.015
-148.589	42.504	-0.162	-0.145
-147.574	-67.227	0.264	0.102
-146.560	47.080	0.219	-0.201
-145.545	800.000	-0.070	0.254
-144.531	546.704	0.084	0.199
-143.516	-157.714	-0.234	0.014
-142.502	-200.000	0.030	0.251
-141.487	65.268	-0.061	0.061
-140.472	106.509	0.137	-0.160
-139.458	-108.294	0.367	0.078
-138.443	264.831	0.074	-0.128
-137.429	-93.375	0.142	-0.039
-136.414	-70.231	-0.345	-0.129
-135.399	109.719	0.097	0.114
-134.385	-4.604	-0.146	-0.099
-133.370	800.000	0.108	-0.355
-132.356	-200.000	-0.020	-0.145
-131.341	-39.188	-0.222	0.115
-130.326	36.410	0.114	-0.099
-129.312	298.729	0.097	-0.176
-128.297	17.484	0.156	-0.122
-127.283	45.328	-0.125	0.114
-126.268	-16.736	0.161	-0.100
-125.253	800.000	0.116	-0.363
-124.239	178.773	-0.093	-0.134
-123.224	800.000	-0.019	-0.058
-122.210	129.635	-0.037	-0.047
-121.195	13.344	-0.067	0.051
