DTS Sentinel unit serial number:	SN413079Multiplexer serial number:	ORYXHardware model number:	OX4-SRSoftware version number:	ORYX F/W v4.00 Oryx Data Collector v3.7.2.0data status	okinstallation	princeton_trtdifferential loss correction	single-endedforward channel	channel 1reverse channel	N/Adate	2019/09/16time	09:10:35forward acquisition time	60.00reverse acquisition time	0.00gamma	496.2192k internal	0.2324k external	0.2324temperature offset calibration	0.9974default loss term (dB/km)	0.3790temperature slope calibration	1.0000multiplexer offset coefficient	1.0000multiplexer slope coefficient	1.0000fibre end	0.00T internal ref (°C)	30.92T ext. ref 1 (°C)	12.10T ext. ref 2 (°C)	28.24length (m)	temperature (°C)	Stokes	anti-Stokes-747.200	-200.000	0.006	0.189
-746.185	477.956	0.080	0.183
-745.171	18.124	-0.238	-0.192
-744.156	800.000	-0.028	0.084
-743.142	-123.002	-0.266	-0.043
-742.127	66.027	-0.082	0.084
-741.112	437.987	0.150	-0.329
-740.098	-200.000	0.001	0.305
-739.083	-93.343	-0.131	-0.037
-738.069	-11.105	-0.126	0.084
-737.054	202.254	-0.233	-0.362
-736.039	-200.000	-0.072	-0.423
-735.025	-68.685	-0.211	-0.082
-734.010	83.236	0.193	-0.212
-732.996	-67.748	-0.523	-0.207
-731.981	-0.685	0.174	0.124
-730.966	213.310	-0.178	0.284
-729.952	-200.000	0.001	-0.362
-728.937	-9.075	0.109	-0.074
-727.923	541.363	-0.016	-0.039
-726.908	-112.027	-0.324	-0.066
-725.894	22.312	0.146	-0.120
-724.879	-125.875	0.199	-0.030
-723.864	69.204	-0.124	-0.128
-722.850	800.000	0.060	0.250
-721.835	210.085	0.099	0.156
-720.821	800.000	-0.089	-0.360
-719.806	-150.554	-0.184	0.014
-718.791	35.206	-0.165	-0.146
-717.777	-149.337	-0.145	0.012
-716.762	-171.033	-0.279	0.010
-715.748	-29.975	-0.104	-0.059
-714.733	-0.060	0.156	0.112
-713.718	-106.549	0.170	0.038
-712.704	408.220	0.064	-0.137
-711.689	340.940	0.056	-0.110
-710.675	-13.583	0.293	-0.191
-709.660	19.813	0.020	0.016
-708.645	-76.505	-0.217	0.077
-707.631	-200.000	-0.002	0.024
-706.616	15.563	0.188	0.149
-705.602	-93.584	0.140	-0.039
-704.587	-110.422	0.229	0.048
-703.572	-92.102	-0.161	0.046
-702.558	424.932	0.097	0.211
-701.543	15.986	0.141	-0.112
-700.529	383.799	-0.096	-0.199
-699.514	14.587	-0.360	0.283
-698.499	571.892	-0.089	-0.219
-697.485	-98.838	0.216	0.055
-696.470	57.273	0.226	-0.222
-695.456	3.950	0.200	-0.147
-694.441	101.321	0.090	0.106
-693.426	-200.000	0.003	0.203
-692.412	-114.209	0.127	0.025
-691.397	123.414	-0.045	-0.056
-690.383	-83.917	0.102	-0.033
-689.368	800.000	0.105	-0.297
-688.354	684.569	0.041	0.109
-687.339	261.008	0.106	-0.185
-686.324	81.292	-0.284	0.309
-685.310	-31.700	0.253	-0.143
-684.295	-145.427	-0.283	-0.026
-683.281	703.109	-0.167	-0.444
-682.266	92.227	-0.098	0.111
-681.251	30.370	0.077	0.067
-680.237	-14.601	0.083	-0.054
-679.222	239.308	0.072	-0.121
-678.208	-118.896	-0.301	-0.053
-677.193	-15.212	-0.181	0.116
-676.178	-151.107	-0.284	-0.021
-675.164	-12.403	0.216	0.142
-674.149	-91.258	-0.164	-0.047
-673.135	66.612	0.195	0.199
-672.120	800.000	0.059	0.174
-671.105	-182.171	-0.058	-0.001
-670.091	152.278	0.051	0.069
-669.076	58.019	0.102	0.100
-668.062	-10.113	-0.291	0.195
-667.047	119.061	0.092	-0.115
-666.032	800.000	-0.091	-0.291
-665.018	800.000	-0.070	-0.257
-664.003	1.974	0.106	0.077
-662.989	-8.707	-0.343	0.231
-661.974	2.202	-0.303	0.221
-660.959	-104.202	0.144	-0.034
-659.945	591.115	-0.082	-0.204
-658.930	1.750	0.235	-0.171
-657.916	-1.617	-0.039	-0.028
-656.901	39.405	0.089	-0.080
-655.886	-200.000	-0.017	0.448
-654.872	-200.000	-0.024	0.147
-653.857	-11.685	-0.158	0.104
-652.843	-48.119	-0.249	-0.121
-651.828	-13.991	0.234	-0.152
-650.814	-108.218	-0.152	-0.033
-649.799	145.696	-0.160	0.216
-648.784	800.000	0.040	-0.111
-647.770	110.663	-0.255	-0.308
-646.755	-62.365	0.040	0.017
-645.741	40.929	0.253	-0.229
-644.726	-108.768	-0.365	0.079
-643.711	262.144	0.139	0.243
-642.697	-200.000	0.103	0.505
-641.682	24.096	-0.371	0.308
-640.668	268.714	0.086	-0.151
-639.653	-200.000	0.029	-0.247
-638.638	-56.832	-0.245	0.109
-637.624	-127.107	0.340	-0.050
-636.609	-200.000	-0.013	0.115
-635.595	44.541	0.087	-0.080
-634.580	-200.000	0.043	-0.209
-633.565	366.276	0.046	-0.093
-632.551	-200.000	0.009	-0.154
-631.536	800.000	-0.101	-0.341
-630.522	622.230	-0.116	0.293
-629.507	22.245	-0.150	-0.123
-628.492	98.940	-0.037	-0.043
-627.478	708.688	0.113	-0.300
-626.463	-26.220	0.188	0.111
-625.449	-200.000	-0.014	-0.203
-624.434	208.614	0.051	0.081
-623.419	-123.341	0.432	0.069
-622.405	-145.270	0.159	-0.014
-621.390	12.615	0.272	-0.211
-620.376	-60.914	0.179	-0.076
-619.361	133.372	0.081	-0.105
-618.346	395.248	-0.086	-0.179
-617.332	-5.964	-0.152	0.105
-616.317	800.000	0.046	-0.164
-615.303	800.000	-0.066	-0.232
-614.288	-6.752	0.189	-0.129
-613.273	-63.862	-0.070	-0.029
-612.259	145.647	-0.179	-0.241
-611.244	104.333	-0.151	-0.179
-610.230	96.253	0.108	-0.124
-609.215	-90.706	-0.278	-0.081
-608.201	-137.167	-0.245	0.028
-607.186	216.136	0.141	-0.225
-606.171	541.899	0.067	-0.159
-605.157	800.000	-0.079	-0.222
-604.142	-200.000	0.019	0.171
-603.128	-80.575	-0.207	-0.069
-602.113	460.811	-0.040	0.089
-601.098	-104.908	0.125	-0.029
-600.084	-67.086	-0.319	-0.126
-599.069	257.242	0.038	-0.065
-598.055	-200.000	0.004	-0.034
-597.040	-200.000	-0.031	0.163
-596.025	14.640	0.088	-0.069
-595.011	800.000	-0.067	0.256
-593.996	281.908	-0.146	0.262
-592.982	-200.000	0.041	0.220
-591.967	275.519	0.139	0.247
-590.952	15.362	-0.143	0.112
-589.938	-106.267	0.224	-0.050
-588.923	80.715	-0.125	0.135
-587.909	-200.000	0.067	0.328
-586.894	-136.908	0.204	0.024
-585.879	-72.879	0.379	-0.140
-584.865	401.723	-0.082	0.172
-583.850	-118.267	-0.264	-0.047
-582.836	-115.127	0.072	-0.014
-581.821	-200.000	0.014	-0.242
-580.806	-200.000	-0.031	-0.247
-579.792	-200.000	0.053	-0.262
-578.777	37.961	-0.117	-0.104
-577.763	482.599	-0.051	-0.117
-576.748	-99.246	-0.157	-0.040
-575.733	-200.000	0.041	-0.341
-574.719	-61.662	0.282	-0.119
-573.704	393.599	0.072	0.151
-572.690	-200.000	0.051	-0.234
-571.675	-42.066	-0.335	0.172
-570.661	800.000	-0.068	0.218
-569.646	800.000	0.020	0.063
-568.631	-156.700	0.045	-0.003
-567.617	133.942	-0.186	-0.241
-566.602	-60.523	-0.226	-0.096
-565.588	800.000	0.038	-0.141
-564.573	-158.981	-0.038	-0.002
-563.558	800.000	0.053	0.217
-562.544	233.271	-0.163	0.269
-561.529	370.058	-0.039	0.078
-560.515	312.476	0.106	0.199
-559.500	-200.000	-0.021	0.227
-558.485	51.709	-0.061	0.059
-557.471	-200.000	0.014	-0.293
-556.456	-200.000	0.022	-0.120
-555.442	-149.170	-0.170	0.014
-554.427	800.000	0.084	0.301
-553.412	-200.000	0.023	0.241
-552.398	-21.463	-0.093	-0.057
-551.383	-116.129	-0.211	0.039
-550.369	-13.509	-0.182	-0.118
-549.354	-168.871	-0.139	-0.005
-548.339	-200.000	0.063	0.337
-547.325	800.000	0.016	0.063
-546.310	-93.296	-0.248	0.069
-545.296	-200.000	0.031	0.158
-544.281	-23.988	-0.132	-0.079
-543.266	-200.000	-0.036	0.179
-542.252	8.549	-0.091	0.068
-541.237	-38.370	-0.090	-0.048
-540.223	-200.000	-0.011	0.314
-539.208	1.596	-0.188	0.135
-538.193	-75.897	0.119	0.042
-537.179	-200.000	0.365	0.002
-536.164	181.674	0.100	0.148
-535.150	94.922	-0.197	-0.225
-534.135	-135.577	0.358	0.043
-533.121	446.430	0.052	-0.114
-532.106	-200.000	-0.004	-0.054
-531.091	26.165	0.066	-0.055
-530.077	162.422	0.005	-0.007
-529.062	-200.000	0.065	-0.311
-528.048	-71.478	-0.302	-0.113
-527.033	-5.957	0.207	0.141
-526.018	623.818	0.053	0.133
-525.004	138.880	0.122	0.161
-523.989	-95.506	-0.028	-0.008
-522.975	-200.000	0.000	0.060
-521.960	-39.558	-0.074	0.039
-520.945	-103.593	0.221	-0.052
-519.931	-132.119	0.013	0.002
-518.916	-184.733	-0.180	-0.003
-517.902	-40.077	-0.128	0.067
-516.887	800.000	0.066	-0.184
-515.872	8.231	0.196	0.148
-514.858	-124.237	0.220	-0.034
-513.843	28.863	0.239	-0.203
-512.829	103.605	-0.281	0.330
-511.814	-36.306	-0.160	-0.086
-510.799	-200.000	-0.005	-0.079
-509.785	283.380	-0.074	-0.132
-508.770	370.257	0.131	-0.265
-507.756	-26.620	0.148	-0.087
-506.741	-67.112	-0.253	0.100
-505.726	-155.630	0.176	0.011
-504.712	-200.000	0.007	-0.096
-503.697	-102.470	0.484	-0.116
-502.683	19.596	-0.233	0.187
-501.668	800.000	-0.087	-0.250
-500.653	192.197	-0.051	-0.076
-499.639	-200.000	-0.051	0.249
-498.624	640.483	-0.054	-0.138
-497.610	800.000	-0.055	-0.154
-496.595	-67.421	-0.231	0.091
-495.581	-132.796	0.109	0.014
-494.566	25.033	-0.075	0.062
-493.551	789.323	0.092	-0.253
-492.537	-200.000	-0.011	0.149
-491.522	-86.877	-0.099	0.030
-490.508	-200.000	0.000	0.108
-489.493	-125.409	0.167	-0.025
-488.478	30.394	-0.038	0.033
-487.464	42.626	-0.089	0.081
-486.449	85.557	-0.198	0.217
-485.435	-200.000	0.031	0.229
-484.420	800.000	0.109	-0.410
-483.405	199.952	-0.095	-0.146
-482.391	-38.525	-0.039	0.021
-481.376	-200.000	-0.025	0.188
-480.362	-200.000	0.011	0.130
-479.347	-98.874	-0.172	-0.044
-478.332	800.000	0.041	-0.161
-477.318	38.109	0.089	-0.079
-476.303	198.460	0.172	-0.262
-475.289	349.902	0.040	0.079
-474.274	655.709	0.065	0.165
-473.259	-200.000	0.026	0.232
-472.245	-200.000	0.080	-0.453
-471.230	67.832	0.057	0.059
-470.216	679.112	-0.094	0.244
-469.201	-83.500	-0.140	0.045
-468.186	-200.000	-0.028	0.179
-467.172	52.361	-0.252	0.240
-466.157	13.326	-0.081	0.063
-465.143	800.000	0.105	0.336
-464.128	66.421	-0.227	0.231
-463.113	196.955	0.063	0.097
-462.099	-200.000	-0.003	0.046
-461.084	-200.000	0.026	-0.239
-460.070	-120.916	-0.263	-0.044
-459.055	800.000	0.066	-0.266
-458.040	-80.509	-0.027	-0.009
-457.026	108.832	-0.202	-0.240
-456.011	-74.891	-0.346	-0.124
-454.997	-200.000	0.003	-0.363
-453.982	130.797	-0.199	-0.255
-452.968	-13.989	0.243	0.157
-451.953	269.443	-0.089	0.155
-450.938	-200.000	-0.006	-0.484
-449.924	20.325	0.148	0.119
-448.909	-158.164	-0.334	0.019
-447.895	-90.157	-0.154	-0.045
-446.880	-76.605	-0.190	0.067
-445.865	63.596	-0.200	-0.201
-444.851	67.831	0.105	0.107
-443.836	113.898	0.184	0.223
-442.822	45.216	-0.156	0.143
-441.807	-200.000	0.080	0.378
-440.792	-120.966	-0.055	-0.009
-439.778	64.505	0.288	0.290
-438.763	-41.377	0.289	-0.148
-437.749	129.834	-0.040	-0.051
-436.734	504.232	-0.100	0.230
-435.719	800.000	0.052	-0.209
-434.705	534.648	0.156	0.369
-433.690	-96.147	0.181	0.048
-432.676	160.475	-0.141	-0.196
-431.661	-132.783	0.169	0.021
-430.646	-200.000	-0.029	-0.448
-429.632	800.000	0.021	0.084
-428.617	-193.780	-0.235	0.002
-427.603	-0.119	-0.194	-0.138
-426.588	800.000	-0.074	0.227
-425.573	241.153	0.119	-0.199
-424.559	-200.000	0.037	-0.163
-423.544	-30.859	-0.184	0.104
-422.530	800.000	-0.018	-0.068
-421.515	17.001	-0.073	0.058
-420.500	-115.450	0.242	-0.046
-419.486	-32.588	0.157	0.087
-418.471	-60.195	-0.211	0.090
-417.457	-200.000	-0.006	0.186
-416.442	-200.000	-0.017	0.131
-415.428	-200.000	-0.008	0.080
-414.413	119.683	-0.265	-0.327
-413.398	149.235	0.176	-0.238
-412.384	-115.358	-0.343	0.064
-411.369	-74.550	0.121	-0.044
-410.355	-127.583	-0.272	0.039
-409.340	-195.848	-0.342	-0.002
-408.325	-125.644	0.288	-0.043
-407.311	170.930	0.185	-0.264
-406.296	-68.788	-0.065	-0.025
-405.282	-200.000	0.013	-0.078
-404.267	-200.000	-0.058	-0.425
-403.252	90.841	-0.120	-0.134
-402.238	19.335	0.208	-0.167
-401.223	-166.314	0.059	0.002
-400.209	-47.878	-0.129	0.062
-399.194	-106.052	0.040	-0.009
-398.179	-129.614	-0.204	0.028
-397.165	467.126	-0.054	-0.119
-396.150	16.636	-0.217	-0.171
-395.136	573.167	-0.051	-0.124
-394.121	-94.661	0.161	-0.044
-393.106	-152.082	-0.393	0.028
-392.092	237.440	-0.176	0.291
-391.077	166.251	0.155	0.219
-390.063	-84.917	-0.186	0.058
-389.048	-200.000	-0.005	-0.027
-388.033	-42.605	0.121	-0.061
-387.019	800.000	0.040	-0.123
-386.004	-200.000	0.049	0.213
-384.990	522.239	-0.043	0.101
-383.975	14.007	0.291	-0.226
-382.960	-200.000	0.004	0.052
-381.946	-200.000	-0.016	-0.119
-380.931	-63.086	-0.058	-0.024
-379.917	359.526	0.120	0.240
-378.902	449.285	-0.247	-0.543
-377.888	-200.000	-0.021	0.191
-376.873	-64.190	0.359	-0.146
-375.858	-82.337	0.133	0.043
-374.844	-124.507	0.281	-0.043
-373.829	617.223	-0.044	0.110
-372.815	800.000	-0.046	-0.199
-371.800	-200.000	0.005	-0.062
-370.785	346.085	0.163	0.318
-369.771	174.933	-0.073	-0.105
-368.756	-200.000	-0.032	0.250
-367.742	7.121	0.258	0.192
-366.727	-27.615	0.158	-0.091
-365.712	-200.000	-0.057	-0.309
-364.698	314.780	-0.118	-0.221
-363.683	250.961	-0.156	-0.264
-362.669	-86.392	-0.273	0.083
-361.654	28.645	0.147	0.124
-360.639	651.750	0.054	-0.138
-359.625	-200.000	0.013	0.328
-358.610	47.078	0.305	-0.282
-357.596	211.112	-0.110	-0.172
-356.581	-200.000	-0.018	0.136
-355.566	-94.296	0.284	0.077
-354.552	48.591	-0.122	-0.113
-353.537	-135.943	-0.251	-0.029
-352.523	310.970	0.094	-0.174
-351.508	-95.784	0.410	-0.109
-350.493	-42.181	0.098	0.050
-349.479	-132.775	0.113	-0.014
-348.464	-14.371	0.247	0.158
-347.450	-200.000	-0.053	-0.380
-346.435	-136.805	-0.156	-0.018
-345.420	-104.412	0.179	-0.041
-344.406	-113.270	-0.325	0.063
-343.391	363.754	-0.050	-0.100
-342.377	148.009	-0.106	-0.142
-341.362	12.255	-0.116	-0.089
-340.348	-125.671	-0.081	0.012
-339.333	-200.000	0.017	-0.111
-338.318	159.668	0.072	-0.100
-337.304	-44.561	-0.197	0.098
-336.289	220.503	-0.175	0.279
-335.275	-30.195	0.042	0.024
-334.260	800.000	-0.036	0.149
-333.245	-93.097	-0.213	0.059
-332.231	-24.684	0.230	0.136
-331.216	-67.018	-0.059	-0.023
-330.202	800.000	-0.126	0.443
-329.187	-81.486	0.385	-0.126
-328.172	-200.000	0.016	0.253
-327.158	374.290	-0.111	-0.224
-326.143	-200.000	0.017	-0.106
-325.129	24.057	-0.153	-0.125
-324.114	308.786	0.184	0.341
-323.099	800.000	-0.015	0.050
-322.085	149.285	-0.063	-0.085
-321.070	-100.334	0.286	-0.070
-320.056	133.269	-0.108	-0.138
-319.041	-28.681	-0.415	-0.237
-318.026	231.941	0.058	0.095
-317.012	-100.801	0.498	0.122
-315.997	73.891	0.240	0.250
-314.983	-200.000	0.000	0.211
-313.968	76.379	0.228	0.240
-312.953	-200.000	-0.012	-0.246
-311.939	10.523	0.161	-0.122
-310.924	-4.492	0.038	0.026
-309.910	443.858	0.061	-0.132
-308.895	214.659	0.149	0.235
-307.880	-132.373	0.294	0.038
-306.866	-200.000	-0.034	0.187
-305.851	133.208	0.162	-0.208
-304.837	-200.000	-0.002	0.235
-303.822	-95.660	-0.238	0.063
-302.807	-49.457	-0.132	0.062
-301.793	800.000	0.035	0.109
-300.778	-47.958	0.332	-0.159
-299.764	146.862	-0.050	0.066
-298.749	153.104	0.127	-0.172
-297.735	352.712	0.118	0.233
-296.720	-68.046	0.151	0.058
-295.705	92.095	-0.116	0.129
-294.691	-200.000	-0.033	0.196
-293.676	27.110	-0.092	-0.077
-292.662	-127.083	0.161	-0.023
-291.647	-68.070	0.091	-0.035
-290.632	-93.194	-0.121	0.033
-289.618	-130.780	-0.244	0.032
-288.603	260.785	0.210	0.360
-287.589	86.111	0.022	-0.024
-286.574	61.175	0.212	0.209
-285.559	-62.030	-0.166	-0.069
-284.545	-130.879	0.078	0.010
-283.530	-88.479	0.156	-0.046
-282.516	-200.000	0.012	0.059
-281.501	-94.589	0.053	0.014
-280.486	-200.000	-0.031	-0.224
-279.472	350.020	0.127	0.249
-278.457	727.148	0.071	-0.187
-277.443	-55.396	0.272	-0.121
-276.428	56.951	0.268	0.259
-275.413	-200.000	-0.006	-0.404
-274.399	-200.000	0.003	-0.181
-273.384	24.584	0.158	-0.129
-272.370	218.468	-0.155	0.245
-271.355	800.000	0.042	-0.147
-270.340	-43.673	-0.193	-0.096
-269.326	800.000	0.034	-0.136
-268.311	-43.993	-0.086	-0.043
-267.297	66.973	-0.032	-0.032
-266.282	311.789	0.078	0.144
-265.267	75.990	0.120	-0.126
-264.253	435.837	-0.072	0.156
-263.238	-29.879	0.100	0.056
-262.224	800.000	-0.028	0.117
-261.209	-64.543	0.319	0.128
-260.195	223.911	0.054	-0.086
-259.180	-200.000	0.044	0.264
-258.165	141.212	0.077	0.100
-257.151	-76.060	-0.169	0.059
-256.136	800.000	-0.031	-0.098
-255.122	-139.020	-0.047	0.005
-254.107	-200.000	-0.025	-0.130
-253.092	0.923	-0.238	0.169
-252.078	52.179	0.115	-0.109
-251.063	22.783	-0.159	-0.129
-250.049	-149.554	-0.117	-0.009
-249.034	148.525	-0.290	0.388
-248.019	139.388	0.106	0.139
-247.005	0.367	-0.073	0.051
-245.990	166.371	0.131	-0.184
-244.976	-200.000	-0.006	0.059
-243.961	107.330	-0.180	0.212
-242.946	800.000	-0.059	-0.184
-241.932	-139.978	0.191	0.020
-240.917	649.168	-0.100	0.254
-239.903	-200.000	-0.014	0.252
-238.888	9.442	0.044	0.033
-237.873	-86.559	-0.112	0.034
-236.859	800.000	0.070	0.259
-235.844	552.376	0.187	-0.443
-234.830	-44.726	-0.272	-0.134
-233.815	-196.652	0.345	0.002
-232.800	-80.242	0.137	-0.045
-231.786	198.345	0.133	-0.202
-230.771	638.990	-0.069	-0.173
-229.757	-34.797	0.248	0.134
-228.742	51.836	0.074	-0.070
-227.727	-52.207	-0.067	-0.031
-226.713	33.030	0.235	-0.201
-225.698	-29.308	-0.177	0.100
-224.684	-200.000	-0.049	0.000
-223.669	359.930	-0.104	-0.206
-222.655	23.734	0.163	0.133
-221.640	-42.982	-0.237	-0.119
-220.625	800.000	-0.026	0.108
-219.611	-150.436	-0.500	-0.038
-218.596	29.362	0.410	-0.344
-217.582	800.000	-0.084	0.272
-216.567	65.943	-0.053	-0.053
-215.552	800.000	-0.096	0.378
-214.538	19.109	0.111	0.088
-213.523	-101.647	-0.232	-0.056
-212.509	82.937	0.099	-0.106
-211.494	270.778	0.056	-0.098
-210.479	-3.259	0.183	0.126
-209.465	115.332	-0.093	0.113
-208.450	9.581	0.242	-0.181
-207.436	-38.980	0.276	0.144
-206.421	-158.353	0.226	0.013
-205.406	-200.000	0.011	-0.239
-204.392	561.145	-0.180	-0.431
-203.377	14.550	0.101	-0.078
-202.363	-36.985	-0.340	-0.180
-201.348	800.000	0.037	-0.109
-200.333	-200.000	0.004	0.260
-199.319	-200.000	-0.052	-0.308
-198.304	77.082	-0.168	0.176
-197.290	594.488	0.049	0.120
-196.275	-200.000	0.043	-0.257
-195.260	-200.000	0.000	0.051
-194.246	-82.187	0.141	-0.045
-193.231	-86.694	0.069	-0.021
-192.217	-107.073	0.059	-0.013
-191.202	239.854	0.113	0.185
-190.187	-173.152	0.121	0.004
-189.173	603.351	0.082	0.200
-188.158	-83.071	0.118	-0.037
-187.144	-200.000	0.023	0.290
-186.129	800.000	-0.072	-0.287
-185.114	134.448	-0.073	0.094
-184.100	-103.208	-0.185	0.043
-183.085	41.701	-0.117	-0.105
-182.071	174.855	0.214	0.306
-181.056	128.813	-0.374	0.471
-180.042	-47.829	-0.227	-0.109
-179.027	800.000	-0.067	-0.194
-178.012	132.443	-0.124	0.157
-176.998	660.125	-0.082	0.208
-175.983	-71.687	-0.191	0.070
-174.969	-200.000	0.003	0.209
-173.954	4.633	0.082	0.060
-172.939	-33.527	0.457	0.249
-171.925	-37.035	0.150	-0.079
-170.910	212.155	-0.230	-0.358
-169.896	-200.000	-0.002	-0.061
-168.881	4.730	0.123	-0.089
-167.866	800.000	-0.037	-0.138
-166.852	314.069	0.123	0.228
-165.837	-115.441	-0.168	-0.031
-164.823	-1.237	0.343	0.239
-163.808	800.000	-0.042	0.117
-162.793	-40.878	0.053	0.027
-161.779	-200.000	0.355	0.001
-160.764	105.572	-0.166	0.193
-159.750	800.000	-0.083	0.287
-158.735	-9.519	0.129	-0.085
-157.720	-30.040	-0.259	-0.146
-156.706	-94.923	-0.298	0.080
-155.691	482.878	0.071	0.160
-154.677	184.231	-0.099	0.144
-153.662	800.000	0.057	0.233
-152.647	-160.108	-0.160	-0.009
-151.633	800.000	-0.074	-0.310
-150.618	800.000	-0.059	-0.171
-149.604	-57.917	-0.134	0.058
-148.589	-24.626	-0.169	-0.099
-147.574	-50.935	0.355	0.164
-146.560	75.185	0.192	0.200
-145.545	-119.975	0.320	-0.054
-144.531	-98.807	-0.086	-0.021
-143.516	254.861	-0.101	-0.170
-142.502	-200.000	-0.018	0.078
-141.487	-114.096	-0.294	-0.056
-140.472	800.000	-0.027	-0.115
-139.458	136.183	-0.065	-0.084
-138.443	72.268	-0.105	-0.108
-137.429	-200.000	0.018	0.158
-136.414	-200.000	0.040	-0.185
-135.399	124.559	-0.174	0.216
-134.385	189.262	0.027	-0.039
-133.370	800.000	0.071	0.196
-132.356	0.472	0.196	0.138
-131.341	800.000	0.148	0.505
-130.326	137.412	0.112	-0.145
-129.312	-51.495	0.165	0.076
-128.297	-200.000	0.036	0.253
-127.283	79.692	0.159	0.169
-126.268	316.583	-0.267	0.497
-125.253	0.408	0.194	-0.136
-124.239	30.228	-0.192	-0.162
-123.224	88.309	-0.078	-0.085
-122.210	53.192	-0.158	-0.149
-121.195	-200.000	0.107	-0.484
