DTS Sentinel unit serial number:	SN413079Multiplexer serial number:	ORYXHardware model number:	OX4-SRSoftware version number:	ORYX F/W v4.00 Oryx Data Collector v3.7.2.0data status	okinstallation	princeton_trtdifferential loss correction	single-endedforward channel	channel 1reverse channel	N/Adate	2019/09/14time	01:30:35forward acquisition time	60.00reverse acquisition time	0.00gamma	496.2192k internal	0.2336k external	0.2336temperature offset calibration	1.0078default loss term (dB/km)	0.3790temperature slope calibration	1.0000multiplexer offset coefficient	1.0000multiplexer slope coefficient	1.0000fibre end	0.00T internal ref (°C)	26.44T ext. ref 1 (°C)	3.19T ext. ref 2 (°C)	21.49length (m)	temperature (°C)	Stokes	anti-Stokes-747.200	140.293	0.079	-0.105
-746.185	37.258	-0.303	0.269
-745.171	-81.753	0.236	-0.078
-744.156	220.068	0.074	0.119
-743.142	800.000	0.055	-0.170
-742.127	-107.804	-0.339	0.074
-741.112	-33.516	-0.196	-0.109
-740.098	-38.525	0.150	0.079
-739.083	-113.965	-0.165	-0.032
-738.069	251.198	-0.101	-0.172
-737.054	72.115	0.186	-0.194
-736.039	-157.299	-0.470	0.029
-735.025	-200.000	0.084	0.508
-734.010	-158.427	-0.248	-0.014
-732.996	364.418	0.199	-0.403
-731.981	-200.000	0.010	-0.095
-730.966	50.335	-0.226	0.214
-729.952	-126.117	0.059	-0.009
-728.937	-19.509	-0.156	0.097
-727.923	800.000	-0.082	-0.234
-726.908	-98.153	-0.305	0.079
-725.894	50.322	0.086	0.082
-724.879	-199.029	-0.258	0.001
-723.864	-200.000	-0.011	0.077
-722.850	-200.000	0.040	-0.345
-721.835	-200.000	-0.019	0.343
-720.821	800.000	0.078	-0.308
-719.806	792.688	0.126	-0.348
-718.791	387.756	-0.141	-0.293
-717.777	-15.221	0.184	0.118
-716.762	-168.938	-0.113	-0.004
-715.748	23.263	-0.122	0.101
-714.733	99.335	0.086	0.099
-713.718	23.916	-0.196	-0.162
-712.704	-39.658	-0.154	-0.081
-711.689	-43.347	-0.051	0.026
-710.675	548.310	0.148	0.356
-709.660	-133.880	-0.194	0.024
-708.645	89.135	-0.142	-0.159
-707.631	-141.091	-0.306	-0.031
-706.616	103.672	0.164	-0.194
-705.602	155.662	0.121	0.167
-704.587	800.000	0.079	-0.244
-703.572	-83.834	-0.392	-0.125
-702.558	24.775	-0.029	0.024
-701.543	-200.000	-0.042	-0.230
-700.529	406.915	0.125	-0.265
-699.514	-24.900	0.231	0.138
-698.499	178.489	0.067	0.099
-697.485	-200.000	0.041	0.185
-696.470	-107.414	0.105	-0.023
-695.456	35.123	0.201	-0.176
-694.441	-200.000	0.007	0.190
-693.426	-98.334	0.460	0.118
-692.412	-138.530	0.036	0.004
-691.397	35.716	-0.330	0.291
-690.383	229.736	0.143	-0.234
-689.368	-41.907	-0.076	0.039
-688.354	242.198	0.102	-0.171
-687.339	61.530	-0.092	0.091
-686.324	29.557	0.087	-0.074
-685.310	362.301	0.085	0.170
-684.295	291.692	0.103	-0.187
-683.281	-200.000	0.002	-0.039
-682.266	-70.973	-0.266	0.100
-681.251	18.819	0.176	0.142
-680.237	142.194	-0.072	-0.096
-679.222	-14.317	-0.171	-0.110
-678.208	65.643	0.198	0.201
-677.193	-72.133	-0.163	-0.060
-676.178	-5.581	0.364	-0.250
-675.164	47.067	-0.104	-0.097
-674.149	-96.888	0.305	-0.080
-673.135	-10.694	0.207	-0.137
-672.120	520.257	0.095	-0.224
-671.105	519.185	-0.131	0.308
-670.091	-120.493	0.077	0.013
-669.076	37.984	-0.139	0.124
-668.062	76.094	-0.367	-0.388
-667.047	-200.000	-0.052	0.450
-666.032	-200.000	-0.006	-0.140
-665.018	-1.579	-0.065	-0.046
-664.003	-63.214	-0.042	0.017
-662.989	-21.750	0.106	-0.065
-661.974	-96.626	0.097	-0.026
-660.959	53.368	-0.135	-0.130
-659.945	-93.290	-0.417	0.116
-658.930	-200.000	0.039	0.319
-657.916	-52.117	-0.242	-0.112
-656.901	-138.002	0.377	-0.042
-655.886	-45.366	0.172	0.086
-654.872	2.075	-0.364	0.263
-653.857	800.000	-0.070	0.296
-652.843	-200.000	0.047	0.262
-651.828	-200.000	0.012	-0.093
-650.814	336.271	0.148	0.288
-649.799	-120.056	0.398	-0.068
-648.784	800.000	0.029	-0.097
-647.770	356.039	-0.076	0.152
-646.755	7.260	-0.117	-0.087
-645.741	-40.505	0.315	-0.163
-644.726	-106.830	-0.236	-0.052
-643.711	800.000	-0.125	0.417
-642.697	190.540	0.152	-0.229
-641.682	430.151	0.024	-0.051
-640.668	800.000	-0.062	-0.240
-639.653	-200.000	-0.050	0.266
-638.638	-200.000	0.033	0.188
-637.624	117.092	-0.043	-0.053
-636.609	-200.000	0.009	-0.115
-635.595	669.791	0.103	-0.267
-634.580	-39.221	0.318	-0.167
-633.565	-63.574	-0.479	0.197
-632.551	-200.000	0.032	0.357
-631.536	4.374	-0.038	0.028
-630.522	241.511	0.183	-0.306
-629.507	-200.000	0.010	-0.182
-628.492	-163.892	-0.156	0.007
-627.478	33.190	-0.133	-0.115
-626.463	-200.000	0.016	0.218
-625.449	-200.000	0.033	0.224
-624.434	386.958	-0.089	-0.184
-623.419	-200.000	0.027	0.159
-622.405	28.068	-0.267	-0.225
-621.390	60.733	0.091	0.090
-620.376	-72.556	-0.236	-0.087
-619.361	-200.000	-0.013	0.133
-618.346	519.898	-0.116	0.271
-617.332	-2.147	0.294	0.206
-616.317	29.479	0.269	0.229
-615.303	3.066	0.241	-0.175
-614.288	759.071	0.098	-0.265
-613.273	-200.000	0.019	0.255
-612.259	-64.924	-0.324	-0.131
-611.244	800.000	0.054	0.214
-610.230	0.125	0.263	-0.187
-609.215	2.798	0.312	-0.226
-608.201	-14.829	0.123	-0.079
-607.186	-200.000	0.019	-0.216
-606.171	-70.926	-0.242	0.091
-605.157	95.226	0.116	0.132
-604.142	713.903	0.040	-0.105
-603.128	101.683	-0.209	-0.244
-602.113	-200.000	0.000	0.042
-601.098	13.684	0.239	-0.186
-600.084	385.827	0.032	-0.066
-599.069	-105.670	0.071	-0.016
-598.055	146.878	0.039	-0.052
-597.040	1.529	-0.253	-0.182
-596.025	-21.561	-0.254	0.155
-595.011	380.878	0.065	-0.133
-593.996	142.817	-0.077	0.102
-592.982	-200.000	0.022	0.228
-591.967	-72.279	-0.385	0.142
-590.952	132.798	-0.068	-0.088
-589.938	-154.311	0.228	0.015
-588.923	-140.409	-0.156	-0.016
-587.909	423.545	-0.043	0.092
-586.894	677.105	0.068	0.176
-585.879	-82.642	-0.147	-0.047
-584.865	-18.818	-0.132	-0.082
-583.850	-135.914	0.202	-0.024
-582.836	-79.639	0.300	-0.101
-581.821	-200.000	-0.017	-0.183
-580.806	800.000	-0.103	-0.445
-579.792	637.010	-0.060	0.153
-578.777	27.596	0.090	0.075
-577.763	-10.075	-0.250	0.166
-576.748	115.635	-0.140	0.171
-575.733	131.552	-0.192	-0.246
-574.719	-96.300	-0.230	0.061
-573.704	-200.000	0.015	0.167
-572.690	245.608	-0.057	0.096
-571.675	29.050	0.121	-0.103
-570.661	34.270	0.102	-0.089
-569.646	758.798	-0.109	0.293
-568.631	-29.719	0.151	0.086
-567.617	-200.000	-0.014	0.071
-566.602	86.325	-0.063	-0.069
-565.588	-200.000	-0.044	-0.320
-564.573	-15.441	0.429	-0.273
-563.558	-5.533	0.344	0.235
-562.544	-200.000	-0.023	0.289
-561.529	-62.293	-0.220	0.091
-560.515	800.000	-0.059	-0.192
-559.500	-101.789	-0.337	0.081
-558.485	65.525	-0.189	0.191
-557.471	-200.000	0.030	-0.149
-556.456	-8.443	-0.259	0.173
-555.442	-200.000	-0.002	0.138
-554.427	-200.000	0.023	-0.117
-553.412	-89.748	-0.209	-0.061
-552.398	-87.068	-0.187	-0.057
-551.383	-200.000	0.019	0.190
-550.369	-37.681	0.161	-0.086
-549.354	-160.869	-0.164	-0.009
-548.339	-63.738	0.099	0.040
-547.325	-121.311	-0.045	-0.007
-546.310	-156.271	-0.198	-0.012
-545.296	-39.633	0.242	0.126
-544.281	-86.198	0.192	-0.059
-543.266	673.804	-0.105	0.271
-542.252	-50.907	-0.299	-0.140
-541.237	-87.273	-0.330	-0.100
-540.223	70.354	0.082	-0.085
-539.208	407.215	-0.111	0.233
-538.193	-200.000	-0.003	0.056
-537.179	408.204	-0.110	0.231
-536.164	800.000	0.024	0.097
-535.150	194.127	-0.057	0.086
-534.135	384.563	0.145	0.298
-533.121	-179.479	0.197	0.004
-532.106	112.789	-0.173	0.209
-531.091	800.000	0.037	-0.103
-530.077	-149.110	0.300	0.024
-529.062	-13.450	-0.106	0.068
-528.048	-200.000	0.040	0.195
-527.033	-36.844	-0.253	0.135
-526.018	452.803	-0.047	0.103
-525.004	726.553	0.128	-0.339
-523.989	-64.001	0.165	-0.067
-522.975	16.131	-0.430	0.337
-521.960	21.690	-0.070	-0.057
-520.945	-121.171	0.234	-0.039
-519.931	-33.053	0.300	0.166
-518.916	-106.474	0.361	-0.080
-517.902	-140.982	0.433	-0.044
-516.887	-200.000	-0.020	-0.162
-515.872	331.559	-0.050	0.096
-514.858	24.041	0.076	-0.063
-513.843	171.827	0.221	-0.316
-512.829	-88.484	-0.199	-0.059
-511.814	-5.998	-0.083	-0.056
-510.799	260.973	0.068	-0.118
-509.785	98.203	-0.089	-0.102
-508.770	-200.000	0.007	0.101
-507.756	386.305	-0.046	0.095
-506.741	-200.000	0.033	-0.182
-505.726	111.214	0.137	0.164
-504.712	-142.354	-0.303	0.030
-503.697	-44.033	0.031	-0.016
-502.683	-200.000	-0.001	-0.139
-501.668	720.023	0.054	-0.141
-500.653	-130.793	-0.082	0.011
-499.639	800.000	0.081	0.245
-498.624	-200.000	0.046	0.206
-497.610	252.445	0.112	-0.190
-496.595	144.317	-0.150	-0.199
-495.581	-61.461	-0.053	-0.022
-494.566	-163.358	0.222	0.011
-493.551	129.653	0.171	0.217
-492.537	420.340	-0.066	-0.141
-491.522	-200.000	0.006	-0.125
-490.508	-200.000	0.073	-0.363
-489.493	-76.036	-0.263	-0.092
-488.478	800.000	0.029	-0.098
-487.464	65.220	-0.226	0.227
-486.449	86.817	-0.194	0.212
-485.435	-7.326	-0.259	0.175
-484.420	800.000	0.112	-0.312
-483.405	63.132	-0.223	0.222
-482.391	-200.000	0.012	-0.221
-481.376	31.345	0.349	0.298
-480.362	800.000	0.037	0.130
-479.347	-148.443	-0.092	-0.008
-478.332	125.781	-0.113	0.142
-477.318	-107.754	0.275	0.060
-476.303	-73.145	-0.191	-0.070
-475.289	129.964	0.273	-0.347
-474.274	-200.000	0.093	0.431
-473.259	93.831	-0.218	-0.245
-472.245	-200.000	-0.014	0.109
-471.230	800.000	0.072	-0.287
-470.216	32.342	0.212	0.182
-469.201	403.347	-0.067	0.141
-468.186	-108.095	-0.487	-0.105
-467.172	102.133	-0.127	0.147
-466.157	-200.000	-0.044	-0.238
-465.143	-62.998	-0.149	-0.061
-464.128	800.000	0.020	-0.081
-463.113	-169.411	0.010	-0.000
-462.099	-98.542	-0.265	0.067
-461.084	-86.409	-0.289	-0.088
-460.070	-132.301	0.222	0.029
-459.055	-93.864	-0.173	-0.047
-458.040	107.966	-0.109	0.129
-457.026	200.078	-0.241	-0.367
-456.011	104.552	-0.263	-0.308
-454.997	13.931	-0.075	0.058
-453.982	270.617	-0.226	-0.394
-452.968	-75.031	-0.148	-0.053
-451.953	97.275	-0.151	0.172
-450.938	-34.962	-0.375	0.203
-449.924	9.494	0.443	0.333
-448.909	-200.000	-0.002	-0.095
-447.895	-72.094	-0.282	-0.104
-446.880	-200.000	0.016	-0.129
-445.865	-124.613	-0.106	0.016
-444.851	-30.455	-0.249	0.140
-443.836	163.822	0.140	-0.195
-442.822	683.327	0.063	-0.163
-441.807	299.570	0.166	-0.303
-440.792	-47.317	-0.030	0.015
-439.778	800.000	-0.069	-0.200
-438.763	-176.546	0.108	-0.003
-437.749	-200.000	0.008	-0.157
-436.734	-70.207	0.093	0.035
-435.719	-106.210	-0.156	-0.035
-434.705	36.193	0.246	0.215
-433.690	-200.000	-0.052	0.277
-432.676	-136.083	-0.207	0.024
-431.661	-65.237	0.342	-0.136
-430.646	75.563	-0.259	-0.272
-429.632	445.981	-0.091	-0.198
-428.617	100.297	0.241	-0.277
-427.603	-200.000	0.001	-0.224
-426.588	406.328	-0.094	-0.196
-425.573	58.000	0.251	-0.244
-424.559	-120.303	-0.346	-0.058
-423.544	-196.171	0.195	-0.001
-422.530	-36.643	-0.174	-0.093
-421.515	-99.081	0.104	-0.026
-420.500	-130.481	0.250	0.033
-419.486	800.000	-0.052	0.165
-418.471	-200.000	0.008	0.124
-417.457	-200.000	-0.006	0.223
-416.442	-200.000	0.052	0.252
-415.428	26.538	-0.102	0.085
-414.413	-163.300	0.349	-0.017
-413.398	67.587	-0.096	-0.098
-412.384	-23.646	-0.128	0.076
-411.369	800.000	-0.025	-0.086
-410.355	-200.000	-0.029	-0.185
-409.340	-140.129	0.217	0.023
-408.325	-11.725	0.245	0.160
-407.311	41.208	0.130	0.116
-406.296	-13.782	0.229	0.147
-405.282	280.649	-0.128	0.227
-404.267	-32.567	0.078	0.043
-403.252	-78.243	-0.127	-0.043
-402.238	27.476	0.192	-0.160
-401.223	-200.000	0.019	-0.166
-400.209	-105.772	-0.063	-0.014
-399.194	492.155	-0.039	0.089
-398.179	-200.000	-0.002	0.128
-397.165	-157.969	0.208	0.012
-396.150	-2.445	-0.108	-0.075
-395.136	800.000	-0.094	0.336
-394.121	-192.804	-0.369	0.003
-393.106	234.095	0.078	0.127
-392.092	800.000	-0.010	0.042
-391.077	132.423	0.153	0.195
-390.063	-22.037	-0.170	-0.102
-389.048	-51.669	0.027	0.013
-388.033	79.465	-0.050	-0.053
-387.019	175.369	-0.157	-0.225
-386.004	-67.222	0.149	0.058
-384.990	142.964	0.094	-0.124
-383.975	-103.049	-0.603	-0.141
-382.960	59.542	0.068	-0.067
-381.946	-72.470	0.072	-0.026
-380.931	-99.529	-0.107	0.027
-379.917	204.433	-0.025	-0.039
-378.902	-84.677	-0.078	-0.024
-377.888	-89.513	-0.349	0.102
-376.873	-5.503	0.228	0.155
-375.858	-134.825	0.193	-0.023
-374.844	-43.430	-0.080	-0.040
-373.829	-200.000	0.024	-0.117
-372.815	61.284	-0.188	0.185
-371.800	456.230	0.077	0.168
-370.785	347.550	-0.144	-0.280
-369.771	-200.000	-0.015	0.297
-368.756	800.000	-0.058	0.234
-367.742	-200.000	-0.035	-0.159
-366.727	-200.000	-0.030	-0.280
-365.712	-167.767	0.404	0.016
-364.698	-114.347	0.175	-0.033
-363.683	-100.291	0.148	0.036
-362.669	-200.000	-0.014	-0.139
-361.654	-200.000	-0.007	-0.102
-360.639	101.855	0.154	0.178
-359.625	-200.000	0.063	0.339
-358.610	-28.039	0.577	-0.330
-357.596	-119.430	-0.276	0.047
-356.581	-108.197	0.057	0.012
-355.566	-145.639	0.261	0.023
-354.552	-49.402	0.134	-0.063
-353.537	193.123	-0.138	0.206
-352.523	-116.469	0.218	0.040
-351.508	171.799	-0.023	0.032
-350.493	-93.207	0.364	0.100
-349.479	71.661	-0.156	-0.160
-348.464	-132.832	-0.378	-0.048
-347.450	-131.437	0.080	-0.010
-346.435	-200.000	0.041	0.384
-345.420	-27.574	0.092	0.053
-344.406	-200.000	-0.037	-0.365
-343.391	36.543	-0.155	-0.135
-342.377	-200.000	-0.012	0.259
-341.362	-60.759	0.269	-0.113
-340.348	800.000	-0.093	-0.290
-339.333	-24.805	-0.172	0.101
-338.318	340.736	0.137	0.265
-337.304	-200.000	0.002	0.500
-336.289	415.152	-0.171	-0.361
-335.275	291.930	0.169	0.305
-334.260	90.632	-0.097	0.108
-333.245	56.125	-0.443	-0.425
-332.231	640.055	0.041	0.102
-331.216	81.645	0.201	-0.215
-330.202	48.394	-0.184	0.171
-329.187	-173.964	-0.238	-0.007
-328.172	-200.000	-0.026	-0.250
-327.158	-18.259	0.250	-0.155
-326.143	1.142	-0.091	-0.065
-325.129	-200.000	0.054	-0.267
-324.114	800.000	0.035	0.102
-323.099	-66.123	0.259	-0.102
-322.085	-31.408	0.083	-0.046
-321.070	2.342	0.529	-0.378
-320.056	147.798	0.118	-0.157
-319.041	-29.355	0.151	-0.085
-318.026	54.082	0.272	-0.258
-317.012	-20.523	0.112	-0.068
-315.997	33.217	0.260	-0.222
-314.983	-200.000	-0.007	0.172
-313.968	109.165	0.020	0.023
-312.953	-1.475	-0.045	-0.031
-311.939	800.000	0.029	-0.121
-310.924	0.756	-0.011	0.008
-309.910	-130.899	0.188	-0.025
-308.895	-200.000	0.002	-0.191
-307.880	-23.596	-0.269	-0.159
-306.866	84.950	0.240	-0.260
-305.851	84.033	-0.137	-0.148
-304.837	-111.694	0.363	0.073
-303.822	-124.270	0.271	0.042
-302.807	-200.000	-0.023	0.237
-301.793	25.108	-0.103	-0.084
-300.778	800.000	0.059	-0.170
-299.764	193.081	0.061	-0.091
-298.749	-200.000	-0.021	0.112
-297.735	-81.750	0.278	0.090
-296.720	-200.000	-0.047	-0.245
-295.705	-79.730	-0.149	-0.049
-294.691	-142.492	0.153	-0.015
-293.676	-52.904	-0.310	-0.141
-292.662	-148.956	-0.401	-0.032
-291.647	-132.076	0.230	0.030
-290.632	-26.192	-0.195	-0.113
-289.618	-36.093	-0.144	0.077
-288.603	127.155	-0.069	-0.086
-287.589	800.000	0.096	0.307
-286.574	-118.615	0.273	0.048
-285.559	800.000	-0.072	-0.244
-284.545	-200.000	-0.069	0.344
-283.530	347.175	-0.117	0.228
-282.516	-131.502	0.184	0.024
-281.501	-14.122	0.122	0.078
-280.486	-144.200	0.223	-0.021
-279.472	800.000	-0.148	-0.429
-278.457	800.000	-0.068	-0.201
-277.443	-200.000	-0.009	0.064
-276.428	492.697	0.108	0.244
-275.413	315.503	-0.129	0.240
-274.399	-200.000	0.011	0.191
-273.384	391.577	-0.022	-0.045
-272.370	-200.000	-0.016	-0.215
-271.355	-83.676	-0.139	0.044
-270.340	-96.283	-0.352	0.092
-269.326	1.373	0.203	0.144
-268.311	457.520	-0.051	0.111
-267.297	188.476	-0.240	0.354
-266.282	177.118	-0.126	0.181
-265.267	-133.267	0.127	0.016
-264.253	800.000	-0.075	0.226
-263.238	-139.647	-0.211	-0.022
-262.224	440.618	0.083	0.178
-261.209	-200.000	-0.012	0.129
-260.195	800.000	0.020	0.081
-259.180	54.441	0.205	0.194
-258.165	70.547	0.127	0.130
-257.151	-93.295	0.257	0.070
-256.136	2.263	-0.158	0.113
-255.122	55.194	0.121	-0.116
-254.107	317.517	-0.231	0.431
-253.092	41.928	-0.307	0.274
-252.078	28.954	-0.277	-0.231
-251.063	77.685	0.230	0.241
-250.049	-164.771	-0.095	0.004
-249.034	-163.838	0.332	-0.015
-248.019	565.326	-0.090	0.215
-247.005	329.061	-0.108	-0.205
-245.990	-58.889	-0.002	0.001
-244.976	-200.000	-0.026	-0.214
-243.961	-161.902	0.276	-0.014
-242.946	-0.166	0.185	0.130
-241.932	-106.760	0.269	-0.059
-240.917	800.000	-0.032	0.131
-239.903	20.695	0.110	-0.088
-238.888	-94.573	-0.290	-0.078
-237.873	-200.000	-0.054	0.424
-236.859	-200.000	-0.011	0.172
-235.844	-164.713	-0.052	0.002
-234.830	261.860	-0.061	-0.103
-233.815	28.215	0.075	-0.063
-232.800	800.000	0.094	0.361
-231.786	-200.000	0.063	-0.372
-230.771	19.792	0.113	0.090
-229.757	-41.892	0.048	-0.024
-228.742	-74.390	0.184	-0.065
-227.727	800.000	0.112	-0.307
-226.713	296.967	0.093	0.168
-225.698	-28.765	0.089	0.050
-224.684	-60.397	0.291	-0.122
-223.669	-200.000	0.020	0.210
-222.655	24.327	0.110	-0.089
-221.640	-13.932	-0.208	0.132
-220.625	-167.612	-0.083	0.003
-219.611	-27.506	-0.177	-0.101
-218.596	800.000	-0.060	0.170
-217.582	-92.796	-0.120	0.033
-216.567	800.000	0.078	0.223
-215.552	-88.271	-0.313	0.092
-214.538	-200.000	0.082	-0.499
-213.523	-200.000	0.075	-0.355
-212.509	-160.984	-0.305	-0.016
-211.494	127.454	-0.073	-0.091
-210.479	-200.000	0.017	0.152
-209.465	543.740	-0.204	0.479
-208.450	-200.000	0.041	0.280
-207.436	-43.040	0.169	-0.084
-206.421	-20.481	0.360	-0.217
-205.406	-108.057	-0.172	-0.037
-204.392	173.832	0.113	0.160
-203.377	-200.000	-0.009	-0.212
-202.363	476.240	-0.112	-0.249
-201.348	589.176	-0.207	-0.502
-200.333	70.959	-0.016	0.016
-199.319	7.734	0.383	-0.282
-198.304	-200.000	0.062	-0.285
-197.290	-103.372	-0.131	-0.030
-196.275	147.231	0.041	-0.055
-195.260	-200.000	0.034	-0.158
-194.246	-27.302	0.098	-0.056
-193.231	-25.636	-0.037	0.022
-192.217	-142.203	0.299	0.029
-191.202	137.430	0.095	0.122
-190.187	110.342	-0.077	-0.091
-189.173	141.569	-0.193	0.251
-188.158	-200.000	-0.048	0.351
-187.144	-29.641	0.236	0.132
-186.129	800.000	0.009	0.039
-185.114	-36.095	0.161	0.086
-184.100	192.896	-0.057	0.085
-183.085	-101.641	-0.201	-0.048
-182.071	800.000	0.096	-0.358
-181.056	-200.000	-0.038	-0.337
-180.042	70.496	-0.237	0.241
-179.027	-0.774	-0.422	-0.294
-178.012	-3.055	-0.182	0.125
-176.998	-43.808	-0.159	0.079
-175.983	-200.000	0.009	0.145
-174.969	205.667	-0.097	0.148
-173.954	49.647	0.172	0.159
-172.939	68.400	0.261	0.263
-171.925	34.248	-0.098	-0.084
-170.910	-177.838	0.218	-0.005
-169.896	-102.529	-0.093	0.022
-168.881	249.518	0.120	0.201
-167.866	-85.788	0.431	0.131
-166.852	156.474	-0.098	0.132
-165.837	416.590	0.100	-0.210
-164.823	800.000	-0.021	-0.072
-163.808	780.810	0.085	-0.229
-162.793	-200.000	-0.038	-0.171
-161.779	-200.000	-0.009	0.270
-160.764	-74.525	0.209	-0.074
-159.750	-47.018	0.071	-0.034
-158.735	-12.775	-0.051	-0.032
-157.720	281.639	0.263	0.463
-156.706	-53.928	-0.198	0.088
-155.691	-120.410	-0.071	0.012
-154.677	-72.638	-0.311	-0.113
-153.662	-76.272	-0.176	-0.061
-152.647	194.184	0.110	-0.163
-151.633	-200.000	-0.025	0.351
-150.618	176.158	-0.161	0.230
-149.604	-82.770	0.132	0.042
-148.589	-200.000	0.075	-0.331
-147.574	-116.107	-0.243	0.044
-146.560	-78.677	0.327	-0.110
-145.545	-200.000	-0.019	0.106
-144.531	54.803	0.174	-0.165
-143.516	800.000	-0.059	0.235
-142.502	7.372	-0.333	-0.244
-141.487	-52.531	-0.199	-0.090
-140.472	-200.000	0.049	-0.350
-139.458	-200.000	-0.020	-0.148
-138.443	466.720	0.170	0.374
-137.429	309.960	-0.043	-0.079
-136.414	0.221	-0.056	-0.039
-135.399	-175.568	-0.106	0.003
-134.385	-137.765	-0.257	-0.028
-133.370	-67.050	-0.143	-0.055
-132.356	-60.147	0.160	-0.067
-131.341	-200.000	-0.016	0.190
-130.326	-189.573	0.202	0.002
-129.312	-38.888	-0.103	0.053
-128.297	-200.000	0.062	-0.316
-127.283	60.334	0.192	-0.186
-126.268	170.189	0.282	0.395
-125.253	-43.560	-0.263	0.130
-124.239	-8.634	-0.296	0.195
-123.224	-23.379	0.134	-0.079
-122.210	52.090	-0.090	-0.084
