DTS Sentinel unit serial number:	SN413079Multiplexer serial number:	ORYXHardware model number:	OX4-SRSoftware version number:	ORYX F/W v4.00 Oryx Data Collector v3.7.2.0data status	okinstallation	princeton_trtdifferential loss correction	single-endedforward channel	channel 1reverse channel	N/Adate	2019/09/13time	23:30:35forward acquisition time	60.00reverse acquisition time	0.00gamma	496.2192k internal	0.2337k external	0.2337temperature offset calibration	1.0081default loss term (dB/km)	0.3790temperature slope calibration	1.0000multiplexer offset coefficient	1.0000multiplexer slope coefficient	1.0000fibre end	0.00T internal ref (°C)	26.84T ext. ref 1 (°C)	3.18T ext. ref 2 (°C)	20.97length (m)	temperature (°C)	Stokes	anti-Stokes-747.200	427.633	-0.117	-0.253
-746.185	-118.856	-0.395	0.070
-745.171	800.000	-0.036	-0.122
-744.156	455.724	0.115	-0.256
-743.142	-86.851	0.015	0.005
-742.127	-200.000	-0.015	-0.155
-741.112	-200.000	0.032	-0.147
-740.098	40.184	-0.160	0.144
-739.083	-145.550	-0.121	0.011
-738.069	-117.097	0.055	0.010
-737.054	-29.938	0.141	-0.080
-736.039	-161.892	-0.192	-0.010
-735.025	-200.000	0.002	0.306
-734.010	-33.559	-0.174	-0.096
-732.996	-63.332	0.094	-0.039
-731.981	475.322	0.106	-0.240
-730.966	434.129	-0.145	-0.315
-729.952	-200.000	0.019	-0.311
-728.937	-200.000	0.029	0.128
-727.923	-146.102	-0.225	-0.020
-726.908	-53.060	-0.465	-0.214
-725.894	-99.478	0.177	-0.045
-724.879	-10.470	-0.184	0.122
-723.864	-200.000	0.001	-0.105
-722.850	800.000	0.070	0.295
-721.835	800.000	-0.118	-0.387
-720.821	800.000	0.048	0.192
-719.806	-122.790	-0.362	0.059
-718.791	27.213	0.064	-0.054
-717.777	-39.075	0.181	0.095
-716.762	59.899	0.098	0.097
-715.748	-200.000	0.023	0.185
-714.733	729.998	-0.127	0.339
-713.718	800.000	-0.127	-0.382
-712.704	-200.000	0.051	0.637
-711.689	377.961	0.029	0.060
-710.675	135.120	-0.043	0.056
-709.660	-107.548	-0.339	-0.074
-708.645	-169.203	-0.222	-0.008
-707.631	86.401	0.154	-0.170
-706.616	6.180	-0.192	-0.142
-705.602	-200.000	-0.004	0.064
-704.587	-78.305	-0.098	-0.034
-703.572	35.920	0.245	0.216
-702.558	245.791	-0.255	0.430
-701.543	-114.108	-0.158	0.031
-700.529	-14.970	-0.214	0.137
-699.514	-200.000	-0.009	0.267
-698.499	272.065	0.199	-0.352
-697.485	-26.184	-0.190	-0.112
-696.470	308.727	-0.161	-0.302
-695.456	-200.000	-0.007	-0.447
-694.441	-96.095	-0.224	0.060
-693.426	308.631	-0.031	0.057
-692.412	299.606	-0.096	0.177
-691.397	154.699	-0.131	0.180
-690.383	330.955	-0.049	-0.094
-689.368	-174.863	0.258	-0.007
-688.354	800.000	0.107	0.376
-687.339	-80.834	0.313	-0.104
-686.324	140.276	-0.212	0.281
-685.310	480.940	-0.173	-0.392
-684.295	800.000	-0.082	-0.248
-683.281	126.737	-0.166	0.210
-682.266	276.342	0.044	-0.079
-681.251	26.600	0.114	-0.095
-680.237	122.563	-0.190	0.238
-679.222	206.865	0.159	-0.248
-678.208	93.726	-0.025	0.028
-677.193	-133.610	-0.335	-0.042
-676.178	-200.000	0.001	0.276
-675.164	28.993	0.016	-0.013
-674.149	115.481	-0.227	0.278
-673.135	159.581	-0.190	-0.265
-672.120	800.000	-0.023	-0.096
-671.105	599.198	0.025	-0.063
-670.091	117.384	0.139	0.171
-669.076	26.194	-0.139	-0.116
-668.062	316.482	0.049	-0.093
-667.047	-200.000	0.012	-0.138
-666.032	482.938	-0.060	-0.135
-665.018	-102.831	0.349	-0.083
-664.003	33.105	0.156	-0.136
-662.989	172.109	0.094	-0.135
-661.974	-200.000	-0.026	0.238
-660.959	-50.203	0.212	0.101
-659.945	-200.000	0.003	-0.228
-658.930	-111.652	-0.276	-0.056
-657.916	-200.000	0.004	-0.117
-656.901	-200.000	-0.017	0.117
-655.886	-113.445	-0.324	-0.064
-654.872	800.000	-0.038	-0.112
-653.857	69.998	-0.195	-0.201
-652.843	800.000	0.120	0.335
-651.828	-140.366	-0.626	-0.065
-650.814	114.389	-0.240	0.293
-649.799	800.000	0.038	0.155
-648.784	489.091	-0.175	-0.400
-647.770	-158.094	-0.264	0.016
-646.755	169.908	-0.150	0.214
-645.741	-200.000	0.119	0.000
-644.726	-200.000	0.002	-0.156
-643.711	209.109	-0.126	0.197
-642.697	-30.539	0.156	0.088
-641.682	-7.212	-0.103	0.070
-640.668	173.298	0.099	0.143
-639.653	-90.815	-0.433	-0.125
-638.638	-8.399	-0.044	-0.030
-637.624	-69.868	0.097	0.037
-636.609	437.790	-0.070	0.154
-635.595	-200.000	-0.011	-0.362
-634.580	33.658	-0.228	0.198
-633.565	-39.579	-0.117	-0.061
-632.551	-200.000	-0.019	0.215
-631.536	-200.000	0.002	0.026
-630.522	-200.000	0.059	-0.314
-629.507	101.114	-0.133	-0.155
-628.492	-200.000	-0.000	-0.220
-627.478	-200.000	-0.041	0.183
-626.463	-45.996	0.326	0.161
-625.449	53.265	-0.256	0.245
-624.434	-86.896	-0.202	-0.062
-623.419	-83.970	0.110	-0.035
-622.405	-107.987	-0.114	0.025
-621.390	543.561	-0.125	-0.298
-620.376	-30.330	0.040	0.023
-619.361	729.959	0.086	0.230
-618.346	111.583	0.033	0.039
-617.332	-76.964	-0.112	-0.039
-616.317	-14.806	-0.233	-0.149
-615.303	36.438	-0.190	0.168
-614.288	-94.183	0.104	-0.028
-613.273	800.000	0.081	-0.260
-612.259	-200.000	-0.033	-0.167
-611.244	150.780	-0.133	-0.181
-610.230	-200.000	0.018	-0.332
-609.215	-200.000	-0.009	-0.195
-608.201	-118.608	0.404	-0.071
-607.186	800.000	0.032	-0.133
-606.171	72.526	-0.144	-0.150
-605.157	465.485	0.164	0.367
-604.142	-109.796	-0.118	-0.025
-603.128	86.899	0.108	-0.119
-602.113	-200.000	0.003	0.014
-601.098	-157.460	0.206	-0.012
-600.084	476.727	0.067	0.151
-599.069	-8.491	-0.258	0.173
-598.055	319.597	0.077	0.146
-597.040	343.325	0.164	0.321
-596.025	800.000	0.010	-0.028
-595.011	537.766	0.037	-0.089
-593.996	505.830	-0.120	0.278
-592.982	-183.609	-0.100	0.002
-591.967	-188.207	0.246	0.003
-590.952	110.984	0.168	0.201
-589.938	67.388	-0.196	0.200
-588.923	-200.000	0.009	0.067
-587.909	175.180	0.089	0.128
-586.894	-44.790	-0.095	0.047
-585.879	-35.026	-0.196	0.107
-584.865	-58.443	0.158	0.068
-583.850	-128.076	0.102	0.015
-582.836	106.829	-0.240	0.285
-581.821	-200.000	-0.058	-0.466
-580.806	-78.492	-0.262	0.090
-579.792	-54.887	0.230	-0.104
-578.777	156.175	0.150	-0.206
-577.763	-181.450	0.183	0.004
-576.748	64.738	0.326	0.328
-575.733	150.979	0.215	0.291
-574.719	10.440	-0.238	0.181
-573.704	800.000	0.070	-0.206
-572.690	800.000	-0.057	-0.199
-571.675	138.689	0.033	-0.043
-570.661	-142.995	-0.267	0.026
-569.646	-200.000	0.011	-0.343
-568.631	-84.496	-0.117	-0.037
-567.617	55.581	0.061	-0.059
-566.602	15.062	0.040	0.031
-565.588	-89.497	0.269	-0.079
-564.573	-200.000	0.013	-0.060
-563.558	558.103	-0.099	0.238
-562.544	-200.000	-0.019	-0.173
-561.529	800.000	0.119	-0.335
-560.515	175.526	-0.127	-0.184
-559.500	197.140	0.144	-0.219
-558.485	-200.000	-0.000	-0.197
-557.471	275.256	0.211	0.372
-556.456	-31.384	0.281	0.158
-555.442	351.414	0.121	0.238
-554.427	-11.597	0.181	0.119
-553.412	-192.269	0.268	0.003
-552.398	800.000	0.092	0.277
-551.383	-3.221	0.260	-0.181
-550.369	-136.251	0.138	-0.016
-549.354	800.000	0.045	-0.125
-548.339	-200.000	-0.007	0.033
-547.325	800.000	-0.066	0.218
-546.310	-200.000	0.009	0.067
-545.296	-182.401	-0.387	0.007
-544.281	33.105	-0.203	-0.175
-543.266	38.494	0.154	-0.137
-542.252	115.953	0.144	-0.175
-541.237	24.744	0.240	-0.198
-540.223	350.218	0.058	0.114
-539.208	238.122	0.086	0.142
-538.193	-73.965	-0.095	0.034
-537.179	741.636	-0.074	-0.199
-536.164	88.016	-0.077	0.086
-535.150	275.912	-0.076	0.134
-534.135	-12.721	0.273	-0.177
-533.121	-53.680	-0.103	-0.047
-532.106	-200.000	-0.025	-0.383
-531.091	114.087	-0.141	0.171
-530.077	-200.000	-0.006	0.077
-529.062	-8.703	-0.054	0.036
-528.048	-200.000	-0.031	0.188
-527.033	325.990	-0.120	-0.229
-526.018	-200.000	-0.017	0.356
-525.004	385.403	-0.172	0.353
-523.989	46.656	0.218	-0.201
-522.975	443.964	-0.091	-0.198
-521.960	-176.107	-0.145	0.004
-520.945	-200.000	-0.052	0.254
-519.931	62.692	0.100	0.100
-518.916	-31.446	0.138	0.077
-517.902	13.938	-0.220	-0.171
-516.887	-35.191	0.165	0.089
-515.872	-178.789	0.225	-0.005
-514.858	440.328	0.128	-0.278
-513.843	-74.811	0.080	0.029
-512.829	205.711	0.210	0.325
-511.814	83.443	-0.174	0.188
-510.799	333.021	0.201	0.386
-509.785	-126.779	-0.429	0.063
-508.770	-50.347	-0.235	-0.110
-507.756	-200.000	0.021	0.206
-506.741	-6.303	0.207	-0.141
-505.726	-200.000	-0.003	-0.087
-504.712	-200.000	0.004	0.064
-503.697	800.000	0.024	-0.096
-502.683	-200.000	0.004	-0.046
-501.668	-146.190	0.109	-0.010
-500.653	-179.451	0.095	-0.002
-499.639	-200.000	-0.051	-0.224
-498.624	-200.000	0.151	0.000
-497.610	-59.995	0.092	-0.039
-496.595	-145.015	-0.268	-0.024
-495.581	488.233	0.027	-0.061
-494.566	800.000	-0.068	-0.285
-493.551	272.773	0.161	-0.282
-492.537	-200.000	0.036	-0.342
-491.522	197.357	-0.081	-0.123
-490.508	-140.046	-0.084	-0.009
-489.493	-200.000	0.007	0.043
-488.478	-40.723	-0.163	-0.084
-487.464	-9.676	-0.140	0.093
-486.449	26.265	-0.279	0.231
-485.435	66.856	-0.182	0.184
-484.420	60.985	0.215	0.212
-483.405	-200.000	0.011	-0.142
-482.391	-147.123	-0.173	0.015
-481.376	-66.100	-0.112	-0.044
-480.362	144.563	-0.067	0.089
-479.347	-71.846	0.095	0.035
-478.332	-181.966	0.299	-0.006
-477.318	-17.687	0.269	-0.168
-476.303	-200.000	0.016	-0.300
-475.289	-67.282	0.020	0.008
-474.274	299.318	-0.052	0.095
-473.259	-200.000	0.039	0.328
-472.245	-9.191	0.028	-0.019
-471.230	-200.000	-0.003	-0.093
-470.216	-101.713	0.074	-0.018
-469.201	-132.398	-0.104	0.013
-468.186	73.660	0.193	-0.201
-467.172	254.454	0.081	-0.138
-466.157	-200.000	-0.001	-0.081
-465.143	-124.152	0.121	0.019
-464.128	-200.000	-0.039	0.238
-463.113	-200.000	0.300	0.000
-462.099	90.687	0.101	-0.113
-461.084	169.662	0.334	-0.474
-460.070	326.351	-0.121	0.230
-459.055	72.114	-0.303	-0.313
-458.040	203.398	0.058	-0.088
-457.026	48.622	0.116	0.108
-456.011	69.843	0.283	0.289
-454.997	-1.613	0.191	0.134
-453.982	-73.674	-0.100	-0.036
-452.968	163.591	-0.127	-0.177
-451.953	202.833	0.044	-0.067
-450.938	155.595	-0.118	-0.162
-449.924	-124.947	-0.190	0.029
-448.909	40.526	0.065	-0.058
-447.895	131.897	-0.127	-0.163
-446.880	-200.000	0.001	-0.012
-445.865	76.748	0.222	0.234
-444.851	800.000	-0.027	-0.081
-443.836	-122.796	-0.165	0.026
-442.822	81.035	-0.112	0.120
-441.807	-200.000	0.047	-0.289
-440.792	-200.000	-0.000	-0.058
-439.778	110.860	0.132	0.158
-438.763	67.560	0.086	-0.087
-437.749	-13.237	0.141	0.091
-436.734	-78.070	-0.268	-0.091
-435.719	-182.489	-0.162	-0.003
-434.705	-110.536	0.156	0.032
-433.690	529.737	0.039	-0.091
-432.676	144.224	0.086	-0.114
-431.661	351.493	0.017	-0.034
-430.646	-200.000	-0.008	0.060
-429.632	-34.444	-0.116	-0.063
-428.617	-2.436	-0.376	0.261
-427.603	110.398	-0.146	0.174
-426.588	-136.815	0.261	0.030
-425.573	208.957	-0.075	0.116
-424.559	-200.000	-0.048	0.226
-423.544	-200.000	0.034	-0.249
-422.530	73.127	0.056	0.058
-421.515	-200.000	0.015	0.135
-420.500	-200.000	-0.004	-0.193
-419.486	-129.602	-0.291	-0.040
-418.471	-200.000	-0.017	0.184
-417.457	149.740	-0.160	-0.215
-416.442	122.330	-0.097	-0.121
-415.428	146.584	0.093	-0.124
-414.413	197.231	0.019	-0.029
-413.398	23.732	-0.265	0.216
-412.384	-107.113	-0.061	-0.013
-411.369	-54.972	0.207	0.092
-410.355	-145.028	-0.306	-0.028
-409.340	800.000	-0.038	0.163
-408.325	123.328	0.170	0.211
-407.311	32.298	0.088	-0.076
-406.296	37.402	0.147	-0.129
-405.282	-200.000	-0.015	-0.253
-404.267	-54.786	-0.385	-0.172
-403.252	-128.842	-0.045	-0.006
-402.238	-200.000	-0.048	0.368
-401.223	800.000	-0.049	0.146
-400.209	-30.256	0.396	0.223
-399.194	-183.210	-0.178	-0.003
-398.179	453.058	-0.033	-0.072
-397.165	270.739	-0.028	-0.048
-396.150	-20.962	-0.396	0.240
-395.136	145.113	0.155	-0.205
-394.121	-11.004	0.243	0.159
-393.106	-107.601	0.110	-0.024
-392.092	-89.099	0.182	0.053
-391.077	551.298	0.068	0.162
-390.063	-61.447	-0.111	0.046
-389.048	347.256	-0.167	0.325
-388.033	-118.228	-0.361	-0.064
-387.019	-6.884	0.190	-0.128
-386.004	800.000	-0.020	0.070
-384.990	-200.000	0.017	0.230
-383.975	-37.792	-0.097	0.051
-382.960	-103.687	0.155	-0.036
-381.946	366.288	0.120	0.240
-380.931	-200.000	0.042	0.291
-379.917	800.000	-0.091	-0.373
-378.902	37.926	-0.433	-0.381
-377.888	-63.980	0.161	0.065
-376.873	230.780	0.063	-0.102
-375.858	-200.000	0.019	0.137
-374.844	-200.000	-0.009	0.072
-373.829	-200.000	-0.022	-0.554
-372.815	800.000	0.066	-0.206
-371.800	800.000	-0.066	0.213
-370.785	-200.000	0.042	-0.202
-369.771	-200.000	0.034	0.191
-368.756	70.416	0.216	-0.221
-367.742	152.405	0.284	0.383
-366.727	800.000	0.109	0.366
-365.712	208.037	0.124	-0.192
-364.698	-200.000	0.022	-0.327
-363.683	-29.273	0.120	0.068
-362.669	238.359	0.059	-0.097
-361.654	183.533	-0.116	-0.169
-360.639	-59.755	-0.111	-0.047
-359.625	800.000	0.042	-0.137
-358.610	-200.000	-0.008	0.195
-357.596	49.152	0.171	-0.159
-356.581	414.010	0.041	-0.086
-355.566	97.933	0.117	-0.133
-354.552	-69.237	0.400	-0.152
-353.537	112.363	-0.077	0.092
-352.523	-83.983	-0.672	0.211
-351.508	-200.000	-0.039	-0.249
-350.493	198.856	0.225	0.340
-349.479	800.000	0.110	-0.375
-348.464	-200.000	0.009	-0.079
-347.450	323.788	0.021	-0.040
-346.435	-200.000	-0.029	-0.336
-345.420	103.717	-0.178	-0.206
-344.406	-200.000	-0.001	0.010
-343.391	-182.041	0.131	-0.002
-342.377	61.515	0.176	-0.173
-341.362	46.953	0.346	-0.318
-340.348	173.478	0.045	0.064
-339.333	796.046	0.038	-0.102
-338.318	-118.618	-0.146	0.026
-337.304	74.826	0.187	-0.194
-336.289	417.653	-0.022	-0.046
-335.275	635.112	-0.173	0.434
-334.260	156.659	0.172	-0.235
-333.245	364.440	-0.272	0.541
-332.231	8.830	-0.241	0.179
-331.216	-200.000	0.041	0.268
-330.202	233.204	-0.094	-0.153
-329.187	-8.626	-0.313	0.207
-328.172	345.680	0.056	0.108
-327.158	-16.138	0.241	0.151
-326.143	402.123	-0.066	0.136
-325.129	238.638	-0.151	-0.247
-324.114	-87.476	-0.300	-0.090
-323.099	156.996	-0.181	-0.246
-322.085	-110.376	-0.111	0.023
-321.070	-69.981	0.214	-0.080
-320.056	-200.000	-0.005	-0.105
-319.041	206.927	-0.005	-0.008
-318.026	-35.923	0.297	-0.159
-317.012	800.000	0.020	0.072
-315.997	216.225	-0.099	0.155
-314.983	133.835	0.217	0.277
-313.968	-116.469	0.325	0.059
-312.953	-200.000	-0.003	0.248
-311.939	-27.575	-0.120	-0.069
-310.924	557.155	-0.094	0.224
-309.910	-79.832	-0.254	0.084
-308.895	339.204	-0.082	0.158
-307.880	218.995	0.075	0.119
-306.866	-200.000	0.003	-0.084
-305.851	-200.000	-0.024	0.228
-304.837	-8.240	-0.017	-0.011
-303.822	800.000	-0.007	0.026
-302.807	-26.544	0.442	-0.256
-301.793	-160.272	-0.273	-0.015
-300.778	370.346	0.068	0.136
-299.764	639.238	-0.076	0.191
-298.749	-200.000	0.005	0.185
-297.735	57.429	0.150	0.145
-296.720	96.084	0.252	-0.284
-295.705	-200.000	-0.026	-0.377
-294.691	287.100	-0.159	0.284
-293.676	-61.195	-0.263	0.109
-292.662	318.354	-0.046	0.085
-291.647	-143.800	-0.240	-0.022
-290.632	126.004	0.203	-0.253
-289.618	-177.790	-0.194	0.005
-288.603	-110.390	0.172	-0.035
-287.589	-39.849	-0.174	0.089
-286.574	-200.000	0.002	-0.364
-285.559	800.000	0.051	-0.154
-284.545	20.805	-0.211	-0.168
-283.530	272.730	0.097	0.169
-282.516	-200.000	0.004	-0.182
-281.501	-200.000	0.003	-0.291
-280.486	800.000	0.087	0.273
-279.472	632.944	-0.206	-0.514
-278.457	8.630	-0.226	-0.167
-277.443	269.173	-0.084	-0.145
-276.428	-154.259	0.291	-0.019
-275.413	83.508	-0.264	0.284
-274.399	-84.235	0.274	-0.086
-273.384	73.055	-0.267	-0.275
-272.370	800.000	0.065	0.186
-271.355	256.388	0.086	0.146
-270.340	800.000	-0.030	0.110
-269.326	800.000	0.035	-0.113
-268.311	-20.145	0.386	0.235
-267.297	191.847	-0.192	0.286
-266.282	431.010	0.077	0.165
-265.267	54.831	-0.193	-0.184
-264.253	235.051	-0.047	-0.077
-263.238	-78.618	0.145	0.049
-262.224	-154.164	-0.319	0.021
-261.209	800.000	-0.077	-0.292
-260.195	1.042	-0.363	0.256
-259.180	-200.000	0.014	-0.211
-258.165	30.774	-0.053	-0.044
-257.151	-88.756	0.426	0.125
-256.136	214.386	0.050	-0.078
-255.122	251.824	-0.050	-0.084
-254.107	116.284	0.181	0.219
-253.092	-40.294	0.284	0.146
-252.078	-200.000	-0.045	0.192
-251.063	-175.647	-0.352	0.009
-250.049	-96.919	-0.081	0.021
-249.034	107.666	0.253	-0.297
-248.019	40.539	0.239	-0.212
-247.005	162.782	-0.115	-0.159
-245.990	120.306	0.037	-0.045
-244.976	113.509	0.021	0.025
-243.961	-43.136	0.183	-0.091
-242.946	-111.326	-0.369	-0.074
-241.932	-51.278	-0.025	-0.011
-240.917	-23.974	-0.114	0.067
-239.903	121.224	0.166	-0.204
-238.888	-200.000	0.006	0.053
-237.873	315.671	0.131	0.243
-236.859	800.000	-0.088	-0.274
-235.844	74.152	-0.190	0.196
-234.830	-200.000	-0.022	0.189
-233.815	800.000	0.080	0.282
-232.800	800.000	-0.092	0.253
-231.786	-47.162	0.088	-0.042
-230.771	-126.784	-0.057	0.008
-229.757	415.656	0.085	-0.177
-228.742	-200.000	0.114	0.513
-227.727	-80.125	-0.195	0.064
-226.713	-200.000	-0.018	-0.142
-225.698	-159.725	-0.288	-0.016
-224.684	2.034	0.206	-0.147
-223.669	800.000	-0.091	0.252
-222.655	145.905	-0.135	0.177
-221.640	-200.000	-0.002	-0.300
-220.625	-83.000	0.118	0.037
-219.611	800.000	0.133	-0.410
-218.596	20.967	0.275	0.220
-217.582	-154.950	-0.347	0.022
-216.567	-200.000	0.108	0.473
-215.552	82.916	0.365	0.391
-214.538	-200.000	-0.075	0.441
-213.523	49.568	0.099	-0.092
-212.509	-200.000	0.000	-0.475
-211.494	23.828	0.175	-0.142
-210.479	406.961	-0.147	-0.306
-209.465	-39.893	-0.196	0.101
-208.450	-87.258	-0.137	0.041
-207.436	-145.592	0.046	0.004
-206.421	145.624	0.161	0.212
-205.406	-76.281	0.252	-0.087
-204.392	301.759	0.062	0.114
-203.377	-94.668	0.167	0.045
-202.363	175.187	-0.117	-0.166
-201.348	-43.228	0.054	0.027
-200.333	-200.000	-0.017	-0.170
-199.319	-155.011	0.316	0.020
-198.304	-102.929	0.061	-0.014
-197.290	92.711	-0.058	-0.064
-196.275	800.000	-0.066	0.241
-195.260	-7.910	0.191	0.126
-194.246	281.754	-0.116	-0.204
-193.231	-173.561	-0.349	-0.010
-192.217	-149.429	0.085	-0.007
-191.202	-99.594	-0.366	-0.090
-190.187	-143.763	0.286	0.027
-189.173	-13.761	-0.007	0.005
-188.158	72.833	0.046	0.047
-187.144	-200.000	-0.016	-0.174
-186.129	-125.926	0.294	0.043
-185.114	172.148	-0.168	-0.238
-184.100	-189.190	0.268	0.003
-183.085	-200.000	0.011	0.304
-182.071	153.358	0.069	-0.093
-181.056	-27.235	0.113	0.065
-180.042	-88.511	-0.116	-0.034
-179.027	-55.006	-0.342	-0.151
-178.012	-7.114	0.125	0.083
-176.998	-52.475	-0.070	-0.032
-175.983	-110.342	0.172	0.035
-174.969	800.000	-0.043	0.120
-173.954	-57.068	-0.274	-0.119
-172.939	-200.000	0.046	-0.265
-171.925	800.000	0.066	0.215
-170.910	-93.400	-0.064	0.017
-169.896	477.079	-0.016	-0.036
-168.881	-200.000	-0.036	0.341
-167.866	544.989	-0.026	0.060
-166.852	-200.000	-0.021	0.279
-165.837	-123.391	-0.186	0.029
-164.823	791.630	0.089	-0.241
-163.808	-58.942	0.369	0.157
-162.793	-61.632	-0.522	-0.215
-161.779	-23.220	-0.100	0.059
-160.764	357.848	-0.024	-0.047
-159.750	-200.000	0.062	0.308
-158.735	-106.805	0.250	-0.055
-157.720	2.409	-0.105	0.075
-156.706	147.320	-0.070	-0.093
-155.691	-61.021	-0.278	-0.115
-154.677	622.216	-0.126	-0.310
-153.662	16.503	0.077	0.060
-152.647	115.308	-0.099	-0.119
-151.633	800.000	-0.094	0.259
-150.618	273.056	-0.057	-0.099
-149.604	83.416	0.051	-0.055
-148.589	-91.785	0.410	0.114
-147.574	-108.520	0.185	0.039
-146.560	-63.271	0.297	0.120
-145.545	800.000	-0.064	-0.187
-144.531	18.162	0.259	-0.202
-143.516	322.819	0.061	0.114
-142.502	-164.616	0.072	-0.003
-141.487	277.174	-0.065	0.114
-140.472	16.947	0.076	0.059
-139.458	117.137	0.095	-0.114
-138.443	13.353	0.164	0.125
-137.429	-71.100	-0.177	-0.065
-136.414	66.519	0.193	0.193
-135.399	-26.985	-0.309	0.177
-134.385	-200.000	0.027	-0.157
-133.370	-15.674	0.164	0.103
-132.356	-160.674	0.201	-0.010
-131.341	-120.778	0.271	0.045
-130.326	252.897	0.063	-0.105
-129.312	543.169	0.051	-0.120
-128.297	216.280	-0.062	-0.097
-127.283	-100.345	-0.325	0.079
-126.268	-116.873	0.216	0.039
-125.253	-200.000	0.010	0.183
-124.239	-86.233	0.037	-0.011
-123.224	-200.000	0.043	-0.245
-122.210	-200.000	0.060	-0.280
