DTS Sentinel unit serial number:	SN413079Multiplexer serial number:	ORYXHardware model number:	OX4-SRSoftware version number:	ORYX F/W v4.00 Oryx Data Collector v3.7.2.0data status	okinstallation	princeton_trtdifferential loss correction	single-endedforward channel	channel 1reverse channel	N/Adate	2019/09/14time	08:42:35forward acquisition time	60.00reverse acquisition time	0.00gamma	496.2192k internal	0.2326k external	0.2326temperature offset calibration	1.0072default loss term (dB/km)	0.3790temperature slope calibration	1.0000multiplexer offset coefficient	1.0000multiplexer slope coefficient	1.0000fibre end	0.00T internal ref (°C)	29.00T ext. ref 1 (°C)	3.66T ext. ref 2 (°C)	26.46length (m)	temperature (°C)	Stokes	anti-Stokes-747.200	25.829	0.134	-0.113
-746.185	72.736	-0.047	-0.049
-745.171	-29.399	-0.371	-0.214
-744.156	-114.408	-0.232	-0.045
-743.142	-48.813	0.030	0.014
-742.127	-110.312	-0.457	0.096
-741.112	-170.586	0.181	-0.006
-740.098	77.542	-0.126	0.135
-739.083	63.788	0.114	0.115
-738.069	-73.646	-0.189	0.070
-737.054	604.106	0.029	0.072
-736.039	800.000	-0.078	-0.329
-735.025	-20.113	0.038	-0.024
-734.010	-200.000	-0.079	-0.379
-732.996	92.647	-0.236	-0.268
-731.981	-26.497	0.214	-0.127
-730.966	-105.644	0.119	-0.027
-729.952	-55.968	-0.402	-0.181
-728.937	-124.563	-0.639	-0.100
-727.923	109.135	0.163	-0.197
-726.908	172.385	0.141	0.205
-725.894	-51.776	-0.134	0.063
-724.879	758.192	-0.052	0.143
-723.864	-4.255	-0.224	-0.156
-722.850	7.979	0.257	0.194
-721.835	-138.765	0.353	0.039
-720.821	16.208	-0.048	0.038
-719.806	277.674	-0.125	0.224
-718.791	-118.019	0.139	0.025
-717.777	-89.694	0.189	-0.056
-716.762	385.621	0.028	0.059
-715.748	-49.787	0.155	0.074
-714.733	-33.225	-0.077	-0.043
-713.718	-26.015	0.143	-0.085
-712.704	504.301	-0.053	-0.124
-711.689	73.258	-0.452	-0.477
-710.675	46.013	-0.095	-0.088
-709.660	-200.000	-0.013	0.358
-708.645	264.675	0.106	-0.186
-707.631	-200.000	0.101	-0.490
-706.616	-131.762	-0.173	0.023
-705.602	-27.673	-0.111	-0.065
-704.587	-94.269	-0.037	0.010
-703.572	156.986	-0.081	-0.113
-702.558	-185.810	-0.125	-0.002
-701.543	30.672	-0.241	-0.208
-700.529	-122.672	-0.104	-0.017
-699.514	48.584	-0.056	-0.053
-698.499	800.000	-0.087	-0.383
-697.485	94.878	-0.154	-0.176
-696.470	-200.000	0.019	-0.184
-695.456	-131.434	-0.193	-0.026
-694.441	5.262	-0.127	-0.095
-693.426	354.819	-0.146	0.292
-692.412	800.000	-0.031	0.108
-691.397	-142.715	0.074	-0.007
-690.383	87.071	-0.273	0.304
-689.368	201.220	-0.065	-0.101
-688.354	62.242	0.117	-0.117
-687.339	11.412	0.168	-0.129
-686.324	-70.230	-0.264	-0.101
-685.310	80.662	0.152	-0.165
-684.295	-200.000	0.052	-0.304
-683.281	800.000	0.031	0.103
-682.266	197.750	0.198	-0.304
-681.251	105.504	0.131	-0.156
-680.237	-16.426	0.046	-0.029
-679.222	-138.312	-0.300	0.033
-678.208	-113.364	0.237	-0.047
-677.193	25.562	-0.201	-0.168
-676.178	-44.404	-0.335	-0.169
-675.164	104.890	0.034	0.040
-674.149	-200.000	-0.017	-0.181
-673.135	800.000	0.089	-0.313
-672.120	433.301	-0.257	0.562
-671.105	-57.619	0.165	0.073
-670.091	-40.712	-0.173	-0.090
-669.076	86.864	0.083	-0.092
-668.062	-200.000	-0.091	0.466
-667.047	-43.231	-0.142	-0.072
-666.032	-19.079	0.110	0.069
-665.018	-200.000	-0.023	-0.323
-664.003	-200.000	0.017	-0.111
-662.989	-108.841	-0.168	0.036
-661.974	528.454	-0.077	-0.182
-660.959	10.192	0.100	0.077
-659.945	453.487	0.029	0.065
-658.930	800.000	-0.062	0.193
-657.916	-126.835	0.260	-0.039
-656.901	116.992	0.275	0.340
-655.886	-200.000	0.011	0.385
-654.872	800.000	-0.046	-0.196
-653.857	-200.000	0.037	0.186
-652.843	49.066	0.121	0.115
-651.828	-60.722	-0.274	0.117
-650.814	23.116	-0.190	0.156
-649.799	-55.632	-0.326	-0.147
-648.784	66.184	-0.201	0.205
-647.770	-16.853	0.073	-0.046
-646.755	216.632	0.103	0.164
-645.741	-25.459	0.006	-0.004
-644.726	-145.210	0.089	-0.008
-643.711	71.205	-0.165	0.171
-642.697	3.321	0.050	0.036
-641.682	-103.668	0.040	-0.009
-640.668	74.819	0.037	0.039
-639.653	-200.000	-0.030	-0.365
-638.638	-178.302	-0.187	-0.004
-637.624	-125.627	-0.098	0.015
-636.609	307.341	0.070	-0.132
-635.595	-37.338	-0.232	-0.125
-634.580	-15.484	-0.070	0.045
-633.565	460.332	0.026	-0.059
-632.551	-200.000	-0.066	-0.352
-631.536	800.000	-0.082	-0.275
-630.522	-36.256	-0.239	-0.130
-629.507	242.850	0.172	0.290
-628.492	-174.180	0.211	-0.006
-627.478	58.572	-0.046	0.046
-626.463	228.710	-0.042	0.069
-625.449	-123.353	0.220	-0.035
-624.434	800.000	0.012	0.053
-623.419	765.912	-0.115	-0.315
-622.405	-35.361	0.170	-0.093
-621.390	-200.000	0.027	0.239
-620.376	-59.469	-0.154	-0.066
-619.361	-75.812	-0.128	0.046
-618.346	-102.867	-0.216	-0.052
-617.332	98.393	0.195	-0.225
-616.317	307.702	-0.011	0.021
-615.303	-159.068	-0.289	-0.016
-614.288	-159.331	0.233	0.013
-613.273	-200.000	0.057	0.336
-612.259	-131.796	-0.180	-0.024
-611.244	172.283	0.049	-0.070
-610.230	505.719	-0.069	-0.161
-609.215	-72.996	-0.223	-0.082
-608.201	-95.383	-0.398	-0.107
-607.186	685.368	-0.069	-0.181
-606.171	-200.000	-0.005	0.107
-605.157	9.918	-0.170	0.129
-604.142	-139.376	-0.362	0.039
-603.128	-200.000	0.005	0.041
-602.113	-106.892	-0.349	-0.078
-601.098	93.501	0.090	0.102
-600.084	-167.289	-0.112	-0.005
-599.069	-200.000	-0.012	-0.265
-598.055	46.883	-0.161	0.150
-597.040	122.841	0.069	0.086
-596.025	-200.000	-0.006	0.232
-595.011	-37.578	-0.167	0.089
-593.996	-200.000	-0.063	-0.352
-592.982	49.588	-0.156	0.147
-591.967	37.151	0.208	-0.185
-590.952	561.865	-0.133	0.323
-589.938	187.270	-0.158	0.236
-588.923	-200.000	-0.033	-0.187
-587.909	-101.175	-0.113	0.028
-586.894	-96.643	0.203	0.054
-585.879	-137.699	0.072	-0.008
-584.865	-118.342	0.182	-0.032
-583.850	-122.642	0.309	-0.050
-582.836	50.371	-0.018	0.017
-581.821	-200.000	0.026	-0.113
-580.806	225.624	-0.179	0.291
-579.792	86.910	0.093	-0.102
-578.777	157.727	0.268	-0.373
-577.763	536.893	0.108	-0.257
-576.748	148.849	0.166	-0.225
-575.733	326.502	-0.124	0.239
-574.719	160.164	0.118	-0.164
-573.704	-46.741	0.398	-0.195
-572.690	-145.698	0.112	-0.010
-571.675	-200.000	-0.009	0.234
-570.661	623.014	0.052	-0.131
-569.646	800.000	-0.036	-0.147
-568.631	49.403	-0.058	0.055
-567.617	-148.299	-0.181	0.015
-566.602	-153.086	-0.201	0.014
-565.588	800.000	0.048	-0.167
-564.573	800.000	0.126	-0.413
-563.558	482.625	-0.100	-0.227
-562.544	550.625	0.065	-0.155
-561.529	-47.477	0.216	0.105
-560.515	532.784	-0.067	-0.158
-559.500	76.138	-0.245	-0.259
-558.485	82.847	-0.167	0.182
-557.471	-200.000	0.020	0.674
-556.456	-136.694	-0.248	0.029
-555.442	-200.000	0.001	-0.118
-554.427	-70.804	-0.244	0.092
-553.412	-93.444	0.135	0.037
-552.398	248.083	0.090	0.152
-551.383	-18.159	-0.135	-0.084
-550.369	-47.792	0.212	0.103
-549.354	-13.728	-0.143	-0.093
-548.339	-200.000	0.023	-0.140
-547.325	-41.860	0.215	-0.110
-546.310	-200.000	0.062	0.324
-545.296	-200.000	-0.018	-0.337
-544.281	130.575	0.071	-0.091
-543.266	800.000	0.018	0.075
-542.252	-131.625	-0.372	0.049
-541.237	113.284	0.289	-0.351
-540.223	-200.000	0.047	-0.238
-539.208	-116.804	0.097	0.018
-538.193	610.518	-0.096	0.241
-537.179	-200.000	0.061	0.302
-536.164	-98.363	-0.196	-0.050
-535.150	5.503	-0.287	-0.212
-534.135	-51.528	0.095	-0.044
-533.121	18.608	0.175	-0.140
-532.106	83.996	-0.297	0.324
-531.091	-200.000	0.016	0.383
-530.077	-0.657	0.128	-0.091
-529.062	-122.019	0.128	0.021
-528.048	19.404	-0.124	0.100
-527.033	800.000	-0.064	-0.246
-526.018	-187.677	0.364	0.005
-525.004	-5.999	0.080	0.055
-523.989	-168.014	0.192	-0.008
-522.975	800.000	-0.047	0.157
-521.960	634.161	0.120	0.304
-520.945	-200.000	0.017	-0.080
-519.931	-200.000	0.007	-0.121
-518.916	-200.000	0.003	-0.267
-517.902	-200.000	-0.005	0.289
-516.887	-11.522	-0.303	0.199
-515.872	161.476	-0.030	-0.042
-514.858	-200.000	0.024	-0.158
-513.843	800.000	0.040	-0.116
-512.829	-200.000	0.004	-0.020
-511.814	-77.925	-0.078	-0.027
-510.799	50.058	-0.195	0.184
-509.785	761.941	-0.116	-0.315
-508.770	-45.191	0.172	-0.085
-507.756	26.419	-0.262	0.219
-506.741	221.660	0.165	0.265
-505.726	21.570	-0.402	-0.327
-504.712	-136.693	-0.266	0.031
-503.697	-200.000	0.022	-0.139
-502.683	307.714	0.197	-0.368
-501.668	800.000	-0.064	0.245
-500.653	-200.000	0.033	-0.287
-499.639	-200.000	0.010	-0.125
-498.624	263.897	-0.057	-0.099
-497.610	-6.412	0.107	-0.073
-496.595	151.112	-0.080	0.108
-495.581	-122.840	-0.154	-0.025
-494.566	-49.441	-0.143	-0.068
-493.551	52.306	-0.045	-0.042
-492.537	-49.852	-0.011	-0.005
-491.522	-200.000	0.063	-0.397
-490.508	135.860	-0.164	-0.213
-489.493	-11.775	0.329	0.216
-488.478	800.000	0.093	-0.353
-487.464	-39.567	0.344	-0.180
-486.449	-200.000	0.011	-0.315
-485.435	390.403	-0.035	0.072
-484.420	226.775	0.168	-0.273
-483.405	-160.138	0.254	-0.014
-482.391	-29.237	-0.100	0.057
-481.376	84.483	0.181	-0.198
-480.362	19.822	-0.187	0.150
-479.347	-142.300	-0.218	-0.021
-478.332	100.176	-0.019	-0.021
-477.318	125.578	0.198	0.249
-476.303	-83.105	-0.156	-0.050
-475.289	109.637	0.316	0.378
-474.274	-11.133	0.192	0.127
-473.259	1.637	-0.128	-0.092
-472.245	207.690	-0.148	-0.230
-471.230	800.000	0.046	-0.166
-470.216	320.082	0.130	-0.246
-469.201	71.297	0.219	0.227
-468.186	35.716	-0.148	-0.129
-467.172	-200.000	0.010	-0.117
-466.157	-15.687	-0.076	0.048
-465.143	82.533	-0.142	-0.154
-464.128	-200.000	-0.000	-0.029
-463.113	-200.000	0.047	0.263
-462.099	-32.563	0.282	0.157
-461.084	639.543	-0.126	-0.320
-460.070	-82.798	0.187	-0.060
-459.055	-95.199	0.247	0.066
-458.040	-75.701	-0.134	-0.047
-457.026	3.126	-0.262	-0.190
-456.011	-11.077	-0.237	0.156
-454.997	-80.176	0.218	0.073
-453.982	9.481	-0.168	-0.126
-452.968	-14.359	-0.202	-0.130
-451.953	-39.786	0.269	0.140
-450.938	334.603	-0.057	0.110
-449.924	47.346	-0.114	0.106
-448.909	49.340	0.259	-0.243
-447.895	54.368	0.005	-0.005
-446.880	-200.000	-0.002	0.065
-445.865	-147.834	0.144	-0.012
-444.851	277.107	0.146	0.260
-443.836	-136.119	-0.066	-0.008
-442.822	48.502	-0.147	0.137
-441.807	162.761	-0.162	-0.227
-440.792	9.092	0.129	0.097
-439.778	74.578	0.376	0.394
-438.763	459.863	-0.101	0.225
-437.749	-102.094	0.212	0.051
-436.734	-74.624	0.143	0.051
-435.719	412.899	0.121	-0.256
-434.705	-200.000	-0.040	-0.291
-433.690	-110.509	-0.146	-0.030
-432.676	29.985	0.102	-0.087
-431.661	332.489	0.172	-0.330
-430.646	203.315	-0.213	0.328
-429.632	800.000	0.104	0.337
-428.617	211.088	0.157	-0.245
-427.603	-94.776	-0.233	0.063
-426.588	-21.901	-0.077	-0.047
-425.573	7.417	-0.111	0.082
-424.559	800.000	-0.034	-0.112
-423.544	398.127	-0.185	0.385
-422.530	-200.000	-0.001	-0.227
-421.515	-147.515	0.260	0.022
-420.500	90.294	0.194	-0.217
-419.486	-23.959	-0.032	-0.019
-418.471	-37.891	-0.131	0.069
-417.457	588.560	0.056	-0.137
-416.442	-200.000	0.003	0.474
-415.428	9.074	0.081	-0.061
-414.413	38.411	0.231	0.205
-413.398	-150.324	-0.202	-0.016
-412.384	-93.330	-0.074	0.021
-411.369	372.540	-0.128	-0.259
-410.355	-99.836	-0.205	-0.051
-409.340	-39.769	-0.359	-0.187
-408.325	-142.570	-0.093	0.009
-407.311	800.000	0.018	0.059
-406.296	83.893	0.086	0.093
-405.282	636.623	-0.075	0.189
-404.267	454.137	-0.025	0.056
-403.252	70.233	-0.041	-0.042
-402.238	-9.098	-0.393	-0.262
-401.223	-46.192	0.389	0.191
-400.209	61.667	0.140	0.138
-399.194	-200.000	-0.075	-0.395
-398.179	385.875	-0.032	0.067
-397.165	-23.328	0.051	-0.030
-396.150	-200.000	0.019	-0.386
-395.136	543.570	-0.084	-0.200
-394.121	333.313	-0.078	0.150
-393.106	186.280	0.040	0.059
-392.092	-200.000	-0.051	-0.332
-391.077	-133.838	0.087	-0.011
-390.063	-171.071	0.086	-0.003
-389.048	-33.021	0.244	0.135
-388.033	5.178	-0.278	-0.204
-387.019	-93.989	-0.411	-0.112
-386.004	345.737	0.088	-0.172
-384.990	-150.875	-0.093	0.007
-383.975	-52.443	0.163	0.075
-382.960	705.878	-0.111	0.292
-381.946	-200.000	0.036	0.165
-380.931	50.079	0.200	0.188
-379.917	-16.513	-0.359	0.226
-378.902	-72.156	-0.104	0.039
-377.888	-56.896	0.410	-0.180
-376.873	-200.000	-0.035	0.234
-375.858	236.535	-0.129	-0.213
-374.844	-200.000	0.002	-0.017
-373.829	800.000	-0.050	-0.209
-372.815	208.782	0.095	-0.147
-371.800	60.056	0.134	0.132
-370.785	75.142	0.079	-0.083
-369.771	51.662	-0.123	0.117
-368.756	-104.330	0.202	0.047
-367.742	234.012	-0.116	-0.190
-366.727	-166.778	0.331	0.014
-365.712	800.000	0.024	0.092
-364.698	-120.711	0.097	0.016
-363.683	-125.094	-0.471	0.072
-362.669	-200.000	-0.084	0.488
-361.654	67.543	0.173	0.176
-360.639	533.737	0.042	-0.098
-359.625	-200.000	0.012	-0.294
-358.610	-200.000	-0.000	0.084
-357.596	-21.637	0.168	0.102
-356.581	145.560	-0.075	-0.100
-355.566	-62.589	0.051	0.021
-354.552	-35.791	0.268	0.144
-353.537	444.230	-0.031	-0.069
-352.523	192.041	0.159	0.238
-351.508	-37.442	0.413	-0.219
-350.493	47.404	-0.157	0.145
-349.479	-3.369	0.039	-0.027
-348.464	198.038	-0.118	0.180
-347.450	315.797	0.049	0.093
-346.435	161.279	0.066	-0.092
-345.420	417.255	-0.059	-0.125
-344.406	253.930	-0.087	0.147
-343.391	800.000	-0.058	0.180
-342.377	-200.000	0.016	-0.299
-341.362	-28.127	-0.321	0.184
-340.348	-46.185	0.265	0.129
-339.333	-200.000	0.078	0.375
-338.318	378.811	0.035	-0.070
-337.304	96.026	0.065	-0.073
-336.289	-153.830	0.117	-0.008
-335.275	376.884	-0.042	0.085
-334.260	800.000	-0.098	-0.307
-333.245	317.629	0.117	-0.221
-332.231	-94.274	0.259	0.070
-331.216	-37.871	0.119	0.063
-330.202	547.912	-0.063	0.150
-329.187	164.194	-0.136	0.190
-328.172	-168.491	-0.104	-0.004
-327.158	-123.324	0.119	-0.019
-326.143	-174.809	-0.103	0.003
-325.129	-200.000	-0.006	0.194
-324.114	-76.706	0.175	-0.061
-323.099	30.617	0.088	-0.075
-322.085	554.649	-0.046	-0.111
-321.070	-119.860	0.060	0.010
-320.056	345.089	-0.059	0.114
-319.041	-53.989	0.119	0.054
-318.026	265.698	0.058	-0.100
-317.012	575.712	0.121	-0.294
-315.997	-76.226	-0.235	-0.082
-314.983	-122.894	-0.394	0.063
-313.968	763.734	-0.106	0.286
-312.953	-200.000	0.021	-0.148
-311.939	800.000	-0.095	0.390
-310.924	18.263	-0.151	0.119
-309.910	-141.918	0.225	0.022
-308.895	4.724	0.145	-0.106
-307.880	-54.259	0.136	0.061
-306.866	-62.296	-0.046	0.019
-305.851	800.000	-0.037	-0.159
-304.837	800.000	0.086	0.283
-303.822	-162.790	0.210	-0.010
-302.807	241.983	0.247	0.409
-301.793	569.628	0.080	-0.193
-300.778	-80.171	0.079	0.026
-299.764	-200.000	-0.017	0.139
-298.749	-200.000	-0.117	0.000
-297.735	-129.765	0.123	0.017
-296.720	-200.000	-0.001	-0.179
-295.705	542.951	-0.055	-0.130
-294.691	174.272	-0.088	0.126
-293.676	-200.000	-0.034	-0.189
-292.662	-135.130	0.305	-0.036
-291.647	-93.527	0.162	-0.044
-290.632	-73.464	0.130	-0.047
-289.618	-110.769	-0.221	0.045
-288.603	-145.481	-0.291	0.026
-287.589	352.348	0.205	0.402
-286.574	441.570	-0.102	-0.220
-285.559	250.509	0.026	-0.044
-284.545	573.054	-0.140	-0.337
-283.530	-90.557	0.215	-0.062
-282.516	800.000	0.062	-0.237
-281.501	122.770	-0.176	-0.218
-280.486	-76.585	-0.228	-0.079
-279.472	162.885	0.111	-0.154
-278.457	-200.000	-0.036	0.306
-277.443	-76.745	-0.460	0.160
-276.428	211.324	0.115	0.179
-275.413	-141.261	0.397	-0.040
-274.399	4.006	0.279	0.202
-273.384	800.000	-0.076	0.295
-272.370	-113.364	0.153	-0.030
-271.355	598.638	0.025	0.060
-270.340	800.000	-0.088	0.281
-269.326	-86.431	0.097	0.029
-268.311	-44.863	-0.132	-0.065
-267.297	-200.000	0.008	0.064
-266.282	-90.969	0.224	0.064
-265.267	-29.632	0.086	0.049
-264.253	-73.969	-0.173	0.062
-263.238	-91.043	-0.375	-0.107
-262.224	324.372	-0.183	0.346
-261.209	-119.435	0.350	-0.060
-260.195	570.233	0.121	0.292
-259.180	190.792	-0.047	-0.070
-258.165	-74.009	0.067	-0.024
-257.151	-80.261	-0.086	-0.029
-256.136	14.402	0.175	-0.135
-255.122	-45.637	-0.162	-0.079
-254.107	-5.051	-0.213	-0.145
-253.092	167.337	-0.024	0.033
-252.078	228.746	0.180	0.290
-251.063	-200.000	0.015	-0.243
-250.049	-23.738	-0.300	-0.178
-249.034	-24.869	0.266	-0.156
-248.019	17.791	-0.148	0.117
-247.005	-6.142	0.167	0.113
-245.990	800.000	0.005	-0.017
-244.976	14.272	-0.135	0.104
-243.961	800.000	0.015	-0.065
-242.946	241.238	0.219	0.362
-241.932	427.928	0.123	0.262
-240.917	-155.881	-0.084	-0.005
-239.903	-200.000	-0.053	-0.348
-238.888	-200.000	0.039	0.284
-237.873	159.812	0.165	-0.228
-236.859	-18.899	-0.094	0.058
-235.844	392.488	-0.082	-0.169
-234.830	-173.136	0.242	0.007
-233.815	748.949	0.052	-0.137
-232.800	-102.912	-0.077	-0.018
-231.786	-104.001	0.479	0.110
-230.771	-11.993	-0.105	-0.068
-229.757	-84.776	0.301	-0.094
-228.742	-200.000	-0.026	0.201
-227.727	716.789	-0.080	0.210
-226.713	596.448	0.129	0.316
-225.698	-78.313	0.274	-0.093
-224.684	-93.551	-0.238	0.065
-223.669	-95.825	-0.280	-0.074
-222.655	-200.000	0.004	0.296
-221.640	72.131	0.134	0.138
-220.625	221.152	0.129	-0.205
-219.611	208.659	-0.085	-0.132
-218.596	75.729	0.179	0.187
-217.582	211.907	0.142	0.221
-216.567	66.864	0.210	-0.211
-215.552	-23.959	-0.273	0.161
-214.538	-200.000	-0.011	0.280
-213.523	57.944	-0.092	0.089
-212.509	-56.706	-0.375	-0.164
-211.494	407.287	0.101	-0.210
-210.479	800.000	-0.085	-0.233
-209.465	224.166	-0.168	0.268
-208.450	-200.000	-0.031	0.170
-207.436	212.983	0.180	0.281
-206.421	-30.015	-0.295	-0.166
-205.406	-177.454	-0.204	0.005
-204.392	-112.127	-0.036	-0.007
-203.377	92.600	-0.232	-0.259
-202.363	175.550	-0.168	-0.241
-201.348	-16.575	0.032	0.020
-200.333	-67.952	-0.187	0.072
-199.319	-114.036	-0.139	-0.027
-198.304	-5.914	-0.172	-0.116
-197.290	-62.358	0.147	-0.060
-196.275	39.207	0.090	-0.079
-195.260	80.717	-0.045	0.048
-194.246	-89.203	-0.555	0.162
-193.231	378.880	0.107	0.216
-192.217	359.728	0.146	0.287
-191.202	164.829	0.019	0.027
-190.187	596.365	-0.084	0.205
-189.173	224.711	0.022	0.035
-188.158	-200.000	-0.026	0.170
-187.144	113.441	-0.063	0.076
-186.129	-200.000	0.038	0.352
-185.114	-200.000	0.017	0.232
-184.100	-48.320	-0.224	0.107
-183.085	721.234	0.057	-0.149
-182.071	-57.035	0.255	0.111
-181.056	420.876	-0.158	-0.333
-180.042	-200.000	-0.024	-0.383
-179.027	-111.524	0.139	-0.028
-178.012	-63.048	-0.397	-0.162
-176.998	445.739	0.114	-0.246
-175.983	800.000	-0.063	0.243
-174.969	-200.000	0.013	-0.188
-173.954	-39.442	0.072	0.037
-172.939	-9.890	-0.036	0.024
-171.925	-47.225	0.128	0.061
-170.910	485.893	-0.080	0.179
-169.896	61.670	0.028	-0.027
-168.881	-97.116	-0.084	-0.022
-167.866	40.690	0.200	-0.178
-166.852	800.000	0.100	0.321
-165.837	-75.793	0.340	-0.119
-164.823	88.519	-0.150	0.164
-163.808	-106.907	0.113	-0.025
-162.793	52.123	-0.053	0.050
-161.779	-127.461	0.158	-0.023
-160.764	149.086	0.123	-0.163
-159.750	-11.051	-0.109	0.071
-158.735	-56.268	-0.063	-0.028
-157.720	289.929	0.168	0.300
-156.706	-8.381	0.099	-0.066
-155.691	325.683	0.153	-0.288
-154.677	19.061	0.283	0.224
-153.662	-18.735	0.238	0.146
-152.647	102.805	-0.155	-0.179
-151.633	300.651	0.069	0.125
-150.618	-37.809	0.337	0.177
-149.604	15.040	-0.071	-0.055
-148.589	-200.000	-0.012	0.246
-147.574	635.537	0.029	0.072
-146.560	213.428	0.142	-0.222
-145.545	-40.760	0.162	0.083
-144.531	26.467	-0.205	0.169
-143.516	-72.985	-0.173	-0.063
-142.502	57.504	0.216	-0.208
-141.487	150.940	0.091	-0.122
-140.472	-200.000	-0.002	-0.032
-139.458	-200.000	0.019	0.096
-138.443	102.829	-0.202	0.233
-137.429	800.000	0.059	0.181
-136.414	-200.000	0.001	-0.179
-135.399	48.608	0.231	0.214
-134.385	-136.134	0.130	-0.015
-133.370	-21.614	0.188	-0.113
-132.356	-6.178	-0.302	0.203
-131.341	-7.986	-0.175	-0.116
-130.326	199.931	0.184	-0.278
-129.312	-78.639	-0.217	-0.073
-128.297	17.304	0.121	0.095
-127.283	-200.000	-0.063	0.319
-126.268	-200.000	-0.304	-0.001
-125.253	-200.000	0.013	0.084
-124.239	110.876	-0.246	-0.291
-123.224	185.444	0.058	-0.085
-122.210	-200.000	-0.020	0.198
-121.195	-200.000	0.025	-0.212
