DTS Sentinel unit serial number:	SN413079Multiplexer serial number:	ORYXHardware model number:	OX4-SRSoftware version number:	ORYX F/W v4.00 Oryx Data Collector v3.7.2.0data status	okinstallation	princeton_trtdifferential loss correction	single-endedforward channel	channel 1reverse channel	N/Adate	2019/09/10time	19:44:11forward acquisition time	60.00reverse acquisition time	0.00gamma	496.2192k internal	0.2322k external	0.2322temperature offset calibration	0.9931default loss term (dB/km)	0.3790temperature slope calibration	1.0000multiplexer offset coefficient	1.0000multiplexer slope coefficient	1.0000fibre end	0.00T internal ref (°C)	33.06T ext. ref 1 (°C)	-0.31T ext. ref 2 (°C)	25.94length (m)	temperature (°C)	Stokes	anti-Stokes-747.200	-109.551	-0.199	0.043
-746.185	128.786	-0.094	0.121
-745.171	-200.000	-0.003	0.502
-744.156	72.437	-0.083	0.087
-743.142	24.109	0.104	0.086
-742.127	-32.297	-0.115	0.065
-741.112	45.761	-0.021	0.020
-740.098	-85.552	-0.227	0.071
-739.083	456.466	-0.032	0.071
-738.069	-200.000	0.037	0.248
-737.054	170.512	-0.075	0.109
-736.039	-200.000	-0.014	-0.309
-735.025	162.928	0.066	0.093
-734.010	218.533	-0.151	-0.244
-732.996	70.434	-0.294	-0.307
-731.981	-2.854	0.148	0.104
-730.966	-106.792	0.080	0.018
-729.952	-129.650	0.324	0.045
-728.937	-4.428	-0.284	-0.198
-727.923	52.073	-0.111	0.106
-726.908	46.480	-0.054	-0.050
-725.894	800.000	-0.079	0.322
-724.879	-79.859	0.230	0.078
-723.864	-177.565	-0.155	-0.004
-722.850	-6.484	-0.317	-0.218
-721.835	-77.059	-0.377	-0.133
-720.821	-88.703	-0.238	0.071
-719.806	-80.450	-0.482	0.162
-718.791	717.827	-0.100	-0.268
-717.777	-200.000	0.007	0.190
-716.762	-51.042	-0.115	0.055
-715.748	-64.218	-0.393	0.162
-714.733	-200.000	-0.066	-0.431
-713.718	-200.000	-0.005	-0.106
-712.704	215.062	-0.011	-0.018
-711.689	-102.092	-0.113	-0.027
-710.675	385.846	-0.032	0.068
-709.660	800.000	-0.084	0.248
-708.645	24.703	-0.167	-0.140
-707.631	-200.000	-0.000	0.137
-706.616	-70.170	-0.316	0.121
-705.602	212.660	-0.175	0.278
-704.587	-78.547	0.283	0.098
-703.572	20.313	-0.179	0.146
-702.558	-58.752	0.111	-0.049
-701.543	-47.958	-0.095	-0.046
-700.529	284.572	0.022	-0.041
-699.514	127.114	-0.092	-0.118
-698.499	-200.000	-0.019	0.221
-697.485	-200.000	0.014	-0.166
-696.470	800.000	-0.047	0.160
-695.456	87.464	-0.331	0.370
-694.441	-53.854	0.256	0.118
-693.426	-200.000	0.012	-0.353
-692.412	-91.477	-0.377	0.109
-691.397	89.489	0.061	-0.069
-690.383	-12.557	-0.190	0.125
-689.368	-83.558	-0.458	0.148
-688.354	800.000	0.029	-0.090
-687.339	800.000	-0.089	0.374
-686.324	-55.152	-0.259	-0.117
-685.310	-58.964	-0.421	-0.183
-684.295	3.451	0.124	-0.091
-683.281	-11.415	-0.061	0.041
-682.266	194.000	-0.217	0.331
-681.251	99.542	-0.079	0.092
-680.237	-200.000	0.016	-0.105
-679.222	-99.763	0.343	0.087
-678.208	47.644	0.168	-0.158
-677.193	-115.082	-0.442	-0.085
-676.178	190.703	0.084	0.127
-675.164	800.000	0.054	0.169
-674.149	-151.492	-0.019	-0.001
-673.135	800.000	-0.125	0.352
-672.120	33.956	0.018	0.016
-671.105	-51.248	-0.347	-0.164
-670.091	-58.300	0.398	-0.175
-669.076	-200.000	-0.012	-0.210
-668.062	-74.934	-0.136	-0.049
-667.047	800.000	-0.054	-0.173
-666.032	137.208	0.283	-0.373
-665.018	-140.223	0.219	-0.023
-664.003	212.159	0.164	-0.261
-662.989	14.781	-0.178	0.140
-661.974	74.772	-0.144	-0.152
-660.959	188.933	0.041	-0.062
-659.945	218.863	-0.197	0.317
-658.930	-62.537	-0.376	-0.157
-657.916	297.276	-0.181	0.335
-656.901	800.000	-0.061	0.256
-655.886	292.530	0.113	0.207
-654.872	-104.312	-0.106	0.025
-653.857	629.502	-0.021	0.055
-652.843	-200.000	-0.030	0.132
-651.828	-200.000	-0.041	0.263
-650.814	-30.874	-0.083	0.047
-649.799	100.507	0.181	0.212
-648.784	-56.042	0.165	-0.074
-647.770	-80.001	-0.091	0.031
-646.755	-83.007	0.256	0.083
-645.741	800.000	0.055	0.184
-644.726	154.965	-0.282	-0.390
-643.711	-116.427	-0.175	-0.033
-642.697	761.906	-0.081	0.222
-641.682	62.836	-0.153	-0.154
-640.668	-126.446	-0.123	-0.018
-639.653	800.000	0.019	0.067
-638.638	-48.529	-0.181	0.088
-637.624	-200.000	0.052	-0.319
-636.609	660.893	-0.138	0.356
-635.595	-107.608	0.129	-0.028
-634.580	-200.000	-0.006	-0.099
-633.565	-200.000	-0.032	0.150
-632.551	136.065	-0.169	-0.222
-631.536	-95.467	0.130	0.035
-630.522	-31.306	-0.217	-0.123
-629.507	-101.478	0.143	0.035
-628.492	-103.461	-0.078	-0.019
-627.478	120.926	-0.187	0.234
-626.463	-67.066	-0.268	0.106
-625.449	419.117	0.134	0.288
-624.434	800.000	-0.050	0.212
-623.419	105.572	-0.257	0.306
-622.405	-200.000	0.006	0.136
-621.390	-63.048	0.111	0.046
-620.376	118.017	-0.150	-0.186
-619.361	-200.000	0.042	0.288
-618.346	601.510	-0.054	0.134
-617.332	-73.992	-0.132	0.048
-616.317	180.287	-0.033	0.048
-615.303	-15.914	-0.045	-0.029
-614.288	-34.971	-0.194	-0.107
-613.273	-67.750	-0.312	-0.123
-612.259	-200.000	0.003	-0.295
-611.244	-200.000	0.019	-0.126
-610.230	147.102	0.102	0.138
-609.215	-130.589	-0.304	0.041
-608.201	-35.399	0.200	0.109
-607.186	800.000	0.140	0.471
-606.171	-105.182	0.390	0.090
-605.157	35.619	-0.177	-0.156
-604.142	-34.487	0.406	-0.223
-603.128	315.683	-0.074	0.140
-602.113	-96.597	-0.045	-0.012
-601.098	109.189	-0.123	0.148
-600.084	-19.211	0.110	-0.069
-599.069	72.182	-0.150	0.157
-598.055	110.069	-0.038	-0.045
-597.040	68.158	0.232	-0.238
-596.025	-200.000	0.003	-0.437
-595.011	-71.965	-0.319	0.119
-593.996	-200.000	0.053	-0.518
-592.982	800.000	-0.057	0.187
-591.967	-200.000	0.028	-0.199
-590.952	126.330	-0.218	-0.277
-589.938	610.756	-0.033	0.083
-588.923	24.145	-0.278	0.231
-587.909	-47.627	-0.117	0.057
-586.894	800.000	-0.055	-0.196
-585.879	800.000	0.047	-0.207
-584.865	294.719	0.197	-0.362
-583.850	50.355	0.057	-0.054
-582.836	-200.000	0.006	-0.044
-581.821	-56.950	0.191	0.085
-580.806	-95.856	0.222	-0.059
-579.792	592.963	0.076	-0.189
-578.777	422.171	-0.055	0.118
-577.763	6.143	0.161	-0.120
-576.748	-36.648	-0.108	-0.058
-575.733	-70.810	-0.315	0.119
-574.719	-60.155	-0.175	0.075
-573.704	-200.000	-0.007	-0.260
-572.690	137.421	0.223	-0.292
-571.675	-92.560	0.447	-0.126
-570.661	-68.507	-0.027	-0.010
-569.646	-100.782	-0.129	-0.032
-568.631	-38.407	-0.216	0.115
-567.617	-29.413	0.379	-0.218
-566.602	39.801	0.141	-0.127
-565.588	-1.971	-0.115	-0.081
-564.573	206.534	-0.054	0.085
-563.558	-90.703	-0.300	-0.087
-562.544	-18.585	-0.211	-0.132
-561.529	-90.846	-0.189	-0.055
-560.515	-94.091	0.252	0.069
-559.500	12.014	-0.153	-0.118
-558.485	-56.952	-0.201	0.089
-557.471	-143.060	-0.494	0.048
-556.456	523.224	-0.096	-0.227
-555.442	-143.251	0.190	0.018
-554.427	-47.072	-0.217	0.106
-553.412	-65.239	-0.097	-0.039
-552.398	93.523	-0.118	0.134
-551.383	-158.894	-0.069	0.004
-550.369	50.364	-0.077	-0.073
-549.354	-200.000	0.006	-0.054
-548.339	800.000	-0.069	0.221
-547.325	150.087	0.133	0.181
-546.310	-132.877	-0.261	0.033
-545.296	-200.000	0.031	-0.202
-544.281	46.595	-0.290	-0.270
-543.266	-7.617	0.153	0.104
-542.252	800.000	-0.018	0.072
-541.237	-167.144	-0.455	-0.019
-540.223	800.000	0.022	-0.066
-539.208	-36.656	0.228	-0.123
-538.193	119.460	0.086	0.106
-537.179	-39.405	-0.377	-0.198
-536.164	-102.833	0.024	-0.006
-535.150	800.000	0.077	0.261
-534.135	800.000	-0.106	0.427
-533.121	131.315	0.257	0.331
-532.106	676.490	0.148	-0.386
-531.091	800.000	0.029	0.097
-530.077	-119.685	0.251	-0.043
-529.062	-200.000	-0.041	0.292
-528.048	227.382	-0.224	0.365
-527.033	-118.231	-0.291	0.052
-526.018	-200.000	-0.016	-0.174
-525.004	129.517	0.187	0.240
-523.989	44.398	0.062	-0.057
-522.975	-172.341	-0.039	0.001
-521.960	-8.982	-0.240	0.161
-520.945	-51.819	0.372	-0.173
-519.931	626.391	0.065	0.163
-518.916	-200.000	0.005	0.053
-517.902	-34.493	0.187	0.102
-516.887	-18.909	0.158	0.098
-515.872	324.207	-0.040	0.077
-514.858	-7.281	-0.297	-0.201
-513.843	-200.000	0.043	-0.274
-512.829	482.983	-0.041	-0.093
-511.814	800.000	-0.065	-0.241
-510.799	150.877	-0.259	0.353
-509.785	78.953	-0.216	-0.231
-508.770	62.922	0.100	-0.100
-507.756	-200.000	0.061	0.406
-506.741	-200.000	0.024	0.211
-505.726	-170.360	-0.124	0.004
-504.712	-120.734	-0.026	0.004
-503.697	160.570	0.118	-0.164
-502.683	-133.658	-0.203	-0.025
-501.668	800.000	-0.096	-0.328
-500.653	-181.296	0.042	-0.001
-499.639	-200.000	-0.023	-0.181
-498.624	-91.405	0.401	-0.115
-497.610	18.849	-0.286	-0.229
-496.595	-100.522	0.216	-0.053
-495.581	-200.000	-0.078	-0.445
-494.566	-38.003	0.419	-0.223
-493.551	123.622	-0.100	0.126
-492.537	78.203	0.323	-0.345
-491.522	16.126	0.186	-0.146
-490.508	-26.412	-0.226	-0.133
-489.493	471.705	0.053	-0.120
-488.478	-59.786	-0.035	-0.015
-487.464	-85.241	0.239	0.075
-486.449	-200.000	-0.065	0.302
-485.435	-19.660	-0.221	0.136
-484.420	-200.000	-0.010	0.411
-483.405	-195.300	0.153	-0.001
-482.391	-47.169	0.149	-0.073
-481.376	377.212	-0.072	0.148
-480.362	132.066	-0.109	0.140
-479.347	177.514	-0.124	0.181
-478.332	-67.414	-0.243	0.095
-477.318	-21.689	-0.119	0.072
-476.303	-45.014	0.113	0.056
-475.289	-41.549	-0.179	0.092
-474.274	-180.094	-0.332	0.007
-473.259	504.282	0.096	0.222
-472.245	-200.000	-0.041	0.252
-471.230	243.969	-0.115	-0.194
-470.216	-153.071	0.350	-0.025
-469.201	-200.000	-0.026	0.150
-468.186	160.280	-0.159	-0.222
-467.172	-150.502	-0.207	-0.016
-466.157	-138.282	0.227	0.025
-465.143	800.000	0.024	0.082
-464.128	800.000	0.069	-0.256
-463.113	-200.000	-0.054	-0.294
-462.099	-200.000	0.016	0.185
-461.084	717.348	-0.059	0.156
-460.070	407.344	0.129	-0.273
-459.055	28.747	0.075	-0.063
-458.040	-22.563	0.127	-0.077
-457.026	-200.000	-0.022	0.286
-456.011	45.231	-0.117	0.108
-454.997	-200.000	0.008	-0.071
-453.982	-124.900	0.080	0.012
-452.968	-11.804	0.307	-0.201
-451.953	-49.199	-0.329	-0.157
-450.938	-67.839	0.148	-0.058
-449.924	-11.327	0.130	-0.086
-448.909	-128.910	0.289	0.041
-447.895	440.476	0.096	-0.209
-446.880	187.732	-0.152	-0.226
-445.865	-34.761	0.169	-0.092
-444.851	-200.000	0.013	0.283
-443.836	-7.372	0.115	0.078
-442.822	800.000	-0.034	-0.117
-441.807	95.870	0.079	0.091
-440.792	800.000	-0.055	0.224
-439.778	-48.628	0.098	0.047
-438.763	800.000	-0.008	-0.030
-437.749	-166.533	-0.412	-0.017
-436.734	389.001	0.059	0.122
-435.719	-5.834	-0.035	0.024
-434.705	800.000	-0.150	0.456
-433.690	-120.196	0.347	-0.059
-432.676	330.726	-0.070	-0.135
-431.661	-200.000	0.025	0.236
-430.646	162.404	0.042	0.059
-429.632	800.000	0.007	0.026
-428.617	260.192	0.148	-0.255
-427.603	0.008	-0.183	-0.130
-426.588	-112.888	0.344	0.068
-425.573	-153.072	-0.219	0.015
-424.559	-200.000	0.007	-0.051
-423.544	74.587	0.079	-0.083
-422.530	-102.670	0.165	-0.039
-421.515	75.860	-0.087	-0.092
-420.500	-133.469	-0.138	0.017
-419.486	-86.882	0.193	0.059
-418.471	-141.540	0.140	0.014
-417.457	800.000	0.069	-0.195
-416.442	205.643	-0.092	-0.143
-415.428	800.000	-0.081	0.244
-414.413	-43.500	0.187	-0.094
-413.398	-58.218	0.227	-0.099
-412.384	-127.971	0.086	-0.012
-411.369	800.000	0.081	-0.232
-410.355	143.860	0.091	0.120
-409.340	231.911	-0.224	0.367
-408.325	-4.919	0.352	-0.242
-407.311	-10.748	-0.191	-0.126
-406.296	-200.000	0.064	0.286
-405.282	251.405	0.141	-0.239
-404.267	800.000	-0.085	-0.239
-403.252	-31.147	0.199	0.112
-402.238	-62.275	-0.059	0.024
-401.223	293.679	-0.104	-0.190
-400.209	-105.667	0.153	0.034
-399.194	-200.000	0.019	0.095
-398.179	-123.838	-0.031	0.005
-397.165	800.000	0.088	-0.303
-396.150	-93.357	-0.072	-0.020
-395.136	192.382	-0.118	-0.178
-394.121	718.818	-0.048	-0.128
-393.106	-200.000	-0.004	0.059
-392.092	-129.892	0.194	0.026
-391.077	27.487	0.022	-0.018
-390.063	250.301	0.081	-0.138
-389.048	52.712	-0.314	0.299
-388.033	38.093	0.005	0.005
-387.019	-200.000	0.049	-0.266
-386.004	800.000	-0.102	-0.282
-384.990	-57.800	0.151	-0.066
-383.975	-159.488	-0.258	0.014
-382.960	53.137	0.237	-0.226
-381.946	-200.000	-0.019	0.182
-380.931	-0.614	0.147	0.104
-379.917	122.005	0.059	-0.073
-378.902	-83.294	0.365	-0.117
-377.888	11.110	0.015	-0.012
-376.873	36.684	0.476	0.419
-375.858	657.993	-0.095	-0.244
-374.844	8.822	-0.250	0.188
-373.829	205.315	0.198	-0.306
-372.815	-45.531	-0.206	0.101
-371.800	800.000	-0.141	0.481
-370.785	800.000	-0.044	0.127
-369.771	7.149	-0.092	0.068
-368.756	117.541	-0.129	0.157
-367.742	-200.000	-0.018	-0.117
-366.727	92.167	0.032	0.036
-365.712	347.351	0.124	-0.242
-364.698	-200.000	-0.036	0.209
-363.683	-144.664	-0.235	0.022
-362.669	55.775	-0.177	-0.171
-361.654	-118.526	-0.296	-0.052
-360.639	282.108	0.247	0.441
-359.625	298.631	-0.105	0.193
-358.610	41.916	-0.037	0.033
-357.596	-82.383	-0.159	-0.051
-356.581	-43.078	0.183	-0.092
-355.566	505.179	-0.095	0.218
-354.552	-79.089	-0.150	-0.051
-353.537	64.127	-0.082	0.082
-352.523	-20.184	0.171	-0.105
-351.508	-7.819	0.131	-0.088
-350.493	-93.954	0.143	0.039
-349.479	-145.224	-0.136	-0.012
-348.464	-105.721	-0.112	0.025
-347.450	755.139	0.125	0.337
-346.435	706.398	-0.115	-0.303
-345.420	-9.390	0.092	0.061
-344.406	800.000	0.012	0.037
-343.391	-200.000	-0.012	-0.097
-342.377	-200.000	0.032	-0.338
-341.362	753.241	0.103	0.276
-340.348	-30.102	-0.250	0.141
-339.333	269.308	-0.083	-0.145
-338.318	616.082	0.064	-0.159
-337.304	-126.291	0.299	-0.044
-336.289	-99.227	-0.359	-0.090
-335.275	-123.248	0.225	0.036
-334.260	279.421	0.152	-0.270
-333.245	-200.000	-0.073	-0.358
-332.231	800.000	-0.077	-0.254
-331.216	800.000	0.044	-0.168
-330.202	-169.502	0.178	-0.006
-329.187	-109.012	0.223	0.047
-328.172	147.063	0.138	-0.184
-327.158	115.759	-0.074	0.090
-326.143	-165.142	0.342	0.015
-325.129	-79.624	-0.112	-0.038
-324.114	108.842	-0.315	0.374
-323.099	-40.438	0.371	0.192
-322.085	400.332	-0.136	0.283
-321.070	-87.135	0.166	0.050
-320.056	-200.000	-0.005	0.224
-319.041	-137.668	-0.146	-0.016
-318.026	726.427	-0.158	0.419
-317.012	-82.893	-0.355	-0.114
-315.997	800.000	-0.019	-0.052
-314.983	-200.000	-0.010	-0.112
-313.968	32.080	-0.250	0.214
-312.953	0.837	0.223	-0.159
-311.939	341.291	-0.088	0.170
-310.924	-112.084	-0.246	0.049
-309.910	17.083	0.008	0.007
-308.895	-11.879	0.268	0.175
-307.880	538.547	-0.068	0.160
-306.866	153.305	-0.201	-0.273
-305.851	800.000	0.068	-0.231
-304.837	-144.543	0.209	0.019
-303.822	-200.000	0.010	0.127
-302.807	37.282	-0.100	-0.088
-301.793	-158.713	-0.423	0.024
-300.778	139.607	0.259	-0.339
-299.764	258.913	0.088	0.150
-298.749	-32.886	-0.354	0.195
-297.735	-200.000	-0.035	-0.191
-296.720	69.632	0.048	-0.049
-295.705	-54.736	0.127	-0.057
-294.691	-175.182	-0.101	-0.003
-293.676	-200.000	-0.014	-0.065
-292.662	-15.273	-0.152	-0.096
-291.647	-34.701	-0.247	0.134
-290.632	-158.597	0.124	-0.007
-289.618	497.594	-0.137	-0.313
-288.603	198.223	-0.171	0.260
-287.589	-22.828	-0.257	-0.154
-286.574	-200.000	0.003	0.171
-285.559	13.714	-0.059	0.046
-284.545	204.435	0.090	0.139
-283.530	800.000	-0.045	0.140
-282.516	-200.000	0.058	0.258
-281.501	98.734	-0.167	0.191
-280.486	-96.771	-0.207	0.054
-279.472	106.841	0.151	0.178
-278.457	-200.000	-0.025	0.194
-277.443	133.842	0.080	0.103
-276.428	-200.000	0.002	0.170
-275.413	-127.791	0.019	0.003
-274.399	-147.758	-0.093	0.008
-273.384	800.000	-0.062	-0.186
-272.370	44.909	0.256	-0.233
-271.355	-78.047	0.352	-0.120
-270.340	-81.265	0.166	-0.054
-269.326	-200.000	-0.034	-0.274
-268.311	-141.968	-0.157	0.015
-267.297	-112.297	0.334	0.066
-266.282	-152.700	0.358	0.025
-265.267	265.645	-0.081	-0.139
-264.253	289.837	0.078	-0.141
-263.238	800.000	0.043	0.181
-262.224	247.745	0.235	-0.393
-261.209	18.329	-0.216	0.171
-260.195	800.000	0.082	-0.311
-259.180	249.712	0.168	-0.283
-258.165	-48.573	0.238	-0.114
-257.151	-73.499	-0.354	0.128
-256.136	-117.541	-0.229	-0.041
-255.122	115.277	0.145	-0.175
-254.107	-50.132	0.205	0.096
-253.092	-200.000	0.042	-0.278
-252.078	319.470	-0.237	0.445
-251.063	-200.000	-0.004	-0.070
-250.049	-55.017	0.217	-0.097
-249.034	249.530	0.020	0.033
-248.019	-83.806	0.272	-0.086
-247.005	-200.000	0.022	0.168
-245.990	249.088	0.092	0.155
-244.976	-200.000	-0.009	0.203
-243.961	-14.357	-0.199	-0.127
-242.946	-8.992	-0.168	0.112
-241.932	179.524	0.189	-0.275
-240.917	250.944	-0.077	0.129
-239.903	60.446	0.258	-0.253
-238.888	-100.040	0.289	-0.071
-237.873	261.645	0.079	0.135
-236.859	-125.177	0.213	-0.032
-235.844	-200.000	-0.017	0.177
-234.830	503.901	-0.071	0.164
-233.815	496.926	0.098	-0.223
-232.800	-200.000	-0.011	0.310
-231.786	-120.778	0.299	0.050
-230.771	-200.000	0.023	0.225
-229.757	-200.000	-0.002	0.014
-228.742	2.286	-0.139	0.100
-227.727	412.535	0.116	-0.244
-226.713	107.505	0.165	-0.194
-225.698	-131.221	0.258	-0.034
-224.684	-146.970	-0.043	0.004
-223.669	519.966	-0.112	0.260
-222.655	-148.491	0.210	-0.017
-221.640	-200.000	-0.024	-0.124
-220.625	724.116	0.053	0.139
-219.611	-149.202	-0.262	-0.021
-218.596	-200.000	0.048	-0.303
-217.582	800.000	0.029	-0.083
-216.567	238.736	-0.243	0.399
-215.552	-200.000	-0.018	0.232
-214.538	-140.799	0.247	-0.025
-213.523	35.247	0.250	0.217
-212.509	-200.000	-0.079	0.381
-211.494	121.244	0.036	0.044
-210.479	162.206	-0.113	-0.157
-209.465	-20.903	-0.059	0.036
-208.450	-200.000	0.056	0.500
-207.436	701.811	-0.040	0.105
-206.421	-200.000	0.019	-0.094
-205.406	123.995	0.232	-0.288
-204.392	142.977	-0.076	0.100
-203.377	-200.000	0.060	-0.266
-202.363	648.604	-0.096	0.242
-201.348	-171.285	-0.216	0.007
-200.333	65.251	0.126	0.126
-199.319	-200.000	-0.020	-0.170
-198.304	-200.000	-0.095	-0.730
-197.290	95.129	-0.157	0.177
-196.275	231.086	-0.094	0.152
-195.260	-135.570	0.057	0.007
-194.246	686.860	-0.131	0.340
-193.231	-76.473	0.212	-0.074
-192.217	800.000	-0.240	-0.661
-191.202	552.414	0.132	-0.313
-190.187	755.199	-0.061	-0.163
-189.173	-123.324	0.271	0.043
-188.158	800.000	0.044	0.168
-187.144	520.431	-0.041	0.094
-186.129	-83.829	-0.369	-0.116
-185.114	1.121	-0.142	0.101
-184.100	-137.114	0.081	-0.009
-183.085	109.803	0.222	0.263
-182.071	-140.869	0.306	0.031
-181.056	207.637	0.004	-0.006
-180.042	36.016	-0.093	0.081
-179.027	24.513	-0.110	-0.090
-178.012	106.270	-0.075	0.088
-176.998	711.040	0.032	-0.084
-175.983	-178.091	0.410	-0.010
-174.969	138.763	0.133	0.173
-173.954	-25.242	0.165	-0.097
-172.939	398.379	-0.069	-0.142
-171.925	-137.400	0.342	-0.038
-170.910	-87.242	0.137	0.041
-169.896	-189.219	0.071	-0.001
-168.881	-139.050	0.172	-0.018
-167.866	-200.000	0.075	0.414
-166.852	19.062	-0.110	-0.087
-165.837	49.302	-0.203	0.188
-164.823	532.179	0.120	0.281
-163.808	787.788	-0.110	-0.297
-162.793	16.186	-0.053	0.041
-161.779	-200.000	-0.001	-0.093
-160.764	-152.888	-0.297	-0.021
-159.750	15.268	-0.036	0.028
-158.735	800.000	0.020	0.071
-157.720	21.835	-0.066	0.053
-156.706	296.056	-0.156	0.282
-155.691	149.840	0.142	0.190
-154.677	-200.000	0.042	-0.245
-153.662	-200.000	-0.012	0.148
-152.647	-46.196	-0.101	-0.049
-151.633	-114.233	-0.145	-0.028
-150.618	-200.000	0.004	0.030
-149.604	249.430	-0.093	-0.156
-148.589	-29.834	-0.246	0.139
-147.574	-200.000	0.011	-0.085
-146.560	800.000	-0.058	0.220
-145.545	-40.206	0.124	-0.063
-144.531	-117.684	-0.121	0.022
-143.516	414.411	-0.134	0.281
-142.502	-60.858	-0.095	-0.040
-141.487	421.524	-0.195	0.413
-140.472	-137.377	0.079	0.009
-139.458	800.000	0.066	-0.231
-138.443	17.691	0.424	0.333
-137.429	-200.000	-0.011	-0.100
-136.414	529.501	0.147	0.342
-135.399	41.194	-0.128	0.114
-134.385	-79.017	0.317	0.106
-133.370	-117.136	-0.113	-0.020
-132.356	61.479	-0.120	0.118
-131.341	-36.061	-0.385	0.205
-130.326	-59.239	0.057	-0.024
-129.312	-57.733	-0.264	0.114
-128.297	800.000	0.071	0.226
-127.283	-200.000	-0.024	0.332
-126.268	-107.656	0.119	0.026
-125.253	-113.761	0.184	-0.035
-124.239	800.000	0.025	-0.104
-123.224	800.000	0.096	0.329
-122.210	9.912	0.164	0.123
