DTS Sentinel unit serial number:	SN413079Multiplexer serial number:	ORYXHardware model number:	OX4-SRSoftware version number:	ORYX F/W v4.00 Oryx Data Collector v3.7.2.0data status	okinstallation	princeton_trtdifferential loss correction	single-endedforward channel	channel 1reverse channel	N/Adate	2019/09/18time	10:06:35forward acquisition time	60.00reverse acquisition time	0.00gamma	496.2192k internal	0.2330k external	0.2330temperature offset calibration	0.9974default loss term (dB/km)	0.3790temperature slope calibration	1.0000multiplexer offset coefficient	1.0000multiplexer slope coefficient	1.0000fibre end	0.00T internal ref (°C)	27.62T ext. ref 1 (°C)	0.32T ext. ref 2 (°C)	24.15length (m)	temperature (°C)	Stokes	anti-Stokes-747.200	128.069	0.180	-0.231
-746.185	-200.000	-0.035	-0.271
-745.171	-83.691	-0.174	0.056
-744.156	800.000	-0.053	0.153
-743.142	-200.000	0.037	0.327
-742.127	201.053	0.124	0.192
-741.112	-160.192	-0.237	0.013
-740.098	162.643	-0.054	0.077
-739.083	641.641	-0.123	0.317
-738.069	-200.000	-0.030	0.193
-737.054	715.415	-0.088	0.234
-736.039	-194.389	-0.445	0.004
-735.025	-200.000	0.007	0.258
-734.010	-200.000	-0.027	-0.220
-732.996	101.611	-0.176	-0.207
-731.981	370.522	-0.135	0.275
-730.966	438.546	0.101	0.222
-729.952	-41.459	0.119	-0.062
-728.937	198.419	0.175	0.270
-727.923	124.747	0.056	-0.071
-726.908	-200.000	0.067	0.378
-725.894	72.113	0.064	0.067
-724.879	80.768	-0.228	0.248
-723.864	113.345	-0.147	-0.179
-722.850	-184.213	0.250	0.004
-721.835	-80.597	-0.385	0.129
-720.821	120.099	-0.073	0.092
-719.806	800.000	0.095	0.360
-718.791	-48.191	-0.157	0.076
-717.777	249.936	0.127	-0.218
-716.762	-200.000	0.000	0.007
-715.748	-161.014	0.080	0.004
-714.733	1.323	-0.052	-0.037
-713.718	3.133	-0.208	0.152
-712.704	-200.000	0.002	-0.079
-711.689	-200.000	0.028	0.213
-710.675	56.292	0.128	-0.125
-709.660	-200.000	-0.017	0.113
-708.645	-57.489	0.278	-0.123
-707.631	17.546	-0.101	0.081
-706.616	-62.236	-0.248	0.104
-705.602	3.787	0.075	0.055
-704.587	-68.538	-0.120	-0.047
-703.572	800.000	0.030	0.097
-702.558	-79.174	-0.218	0.074
-701.543	800.000	-0.050	-0.186
-700.529	140.659	0.089	-0.119
-699.514	800.000	-0.047	-0.141
-698.499	-34.505	0.042	-0.023
-697.485	311.047	-0.162	-0.306
-696.470	-200.000	-0.039	-0.270
-695.456	61.799	0.427	-0.428
-694.441	-200.000	0.043	0.273
-693.426	-19.976	-0.202	0.125
-692.412	-200.000	0.000	0.047
-691.397	-83.072	-0.189	-0.061
-690.383	194.389	-0.181	-0.275
-689.368	-168.856	0.084	0.003
-688.354	-200.000	-0.017	-0.090
-687.339	800.000	0.117	-0.357
-686.324	-11.721	0.095	-0.063
-685.310	-78.729	0.214	-0.073
-684.295	79.900	0.185	0.200
-683.281	-137.743	0.078	0.009
-682.266	-83.061	-0.497	0.161
-681.251	-97.450	-0.029	0.007
-680.237	218.994	0.081	0.130
-679.222	27.098	-0.126	-0.107
-678.208	26.640	0.175	0.147
-677.193	181.985	0.105	-0.156
-676.178	-160.068	0.274	0.015
-675.164	-75.246	0.172	-0.062
-674.149	800.000	0.055	-0.221
-673.135	800.000	-0.077	0.251
-672.120	800.000	0.065	0.214
-671.105	59.928	-0.203	0.201
-670.091	443.372	-0.212	-0.467
-669.076	-200.000	-0.023	0.235
-668.062	475.413	-0.027	-0.061
-667.047	274.076	-0.272	-0.483
-666.032	14.753	0.126	0.099
-665.018	-200.000	0.023	-0.380
-664.003	39.870	-0.089	-0.080
-662.989	-42.603	-0.240	0.123
-661.974	44.391	-0.160	-0.147
-660.959	-92.866	-0.214	-0.060
-659.945	-33.519	0.162	0.090
-658.930	-16.324	0.099	0.063
-657.916	-93.277	-0.099	0.028
-656.901	-73.539	-0.190	-0.070
-655.886	-200.000	0.045	0.423
-654.872	-57.419	-0.131	0.058
-653.857	465.649	0.135	0.304
-652.843	393.837	-0.077	0.161
-651.828	122.909	0.156	0.195
-650.814	-18.467	-0.160	0.100
-649.799	79.498	-0.270	-0.290
-648.784	-195.732	0.097	-0.001
-647.770	-4.241	-0.323	0.224
-646.755	-154.429	0.334	0.022
-645.741	-200.000	0.020	0.170
-644.726	-200.000	-0.005	0.466
-643.711	483.331	0.174	-0.396
-642.697	149.472	0.175	-0.238
-641.682	-154.825	0.123	-0.008
-640.668	8.830	0.019	0.014
-639.653	-151.959	-0.436	-0.032
-638.638	-200.000	0.021	0.109
-637.624	42.351	0.119	0.108
-636.609	800.000	-0.011	0.040
-635.595	-22.507	0.152	0.092
-634.580	-120.516	-0.310	-0.053
-633.565	14.518	-0.073	-0.057
-632.551	47.816	0.050	0.047
-631.536	-39.016	0.412	-0.217
-630.522	800.000	0.098	-0.349
-629.507	310.280	-0.069	-0.130
-628.492	-200.000	0.019	0.095
-627.478	334.650	-0.098	0.190
-626.463	-4.922	-0.096	-0.066
-625.449	-58.122	-0.310	0.136
-624.434	603.315	-0.072	-0.180
-623.419	-127.183	-0.087	0.013
-622.405	800.000	-0.149	0.418
-621.390	-200.000	-0.136	-0.000
-620.376	-200.000	-0.007	-0.294
-619.361	118.952	0.058	0.072
-618.346	30.683	-0.075	0.064
-617.332	134.862	-0.091	-0.119
-616.317	-89.405	-0.118	0.035
-615.303	-31.859	-0.067	0.038
-614.288	-86.261	-0.101	0.031
-613.273	81.040	0.196	-0.211
-612.259	-200.000	0.008	-0.182
-611.244	-15.503	0.129	-0.083
-610.230	800.000	0.098	0.292
-609.215	-112.694	-0.395	0.079
-608.201	257.916	0.174	0.301
-607.186	113.007	-0.187	-0.227
-606.171	539.285	0.098	-0.233
-605.157	615.418	0.086	-0.217
-604.142	800.000	-0.079	0.225
-603.128	490.488	0.071	-0.162
-602.113	-200.000	0.062	-0.297
-601.098	186.444	-0.085	-0.127
-600.084	-104.829	-0.303	-0.070
-599.069	-158.538	-0.203	0.012
-598.055	-200.000	0.006	0.199
-597.040	-3.738	0.068	-0.047
-596.025	-37.625	-0.082	0.044
-595.011	-108.783	-0.282	-0.060
-593.996	108.049	-0.089	-0.107
-592.982	-59.664	0.201	-0.086
-591.967	65.824	0.077	0.078
-590.952	73.055	-0.044	0.046
-589.938	102.419	0.210	-0.246
-588.923	-200.000	-0.014	-0.452
-587.909	-74.016	0.334	-0.121
-586.894	-37.773	-0.247	-0.132
-585.879	-70.651	0.116	0.044
-584.865	76.535	-0.233	0.247
-583.850	647.614	-0.049	-0.126
-582.836	-179.590	0.565	-0.012
-581.821	-23.167	-0.094	-0.057
-580.806	121.350	0.079	0.098
-579.792	-200.000	0.023	0.265
-578.777	348.943	0.102	0.201
-577.763	208.159	-0.095	-0.148
-576.748	-88.270	-0.401	0.120
-575.733	303.835	-0.079	0.147
-574.719	71.673	-0.066	0.069
-573.704	800.000	0.082	-0.328
-572.690	-48.647	-0.259	0.124
-571.675	800.000	-0.023	-0.083
-570.661	-104.292	0.383	0.089
-569.646	332.381	-0.190	-0.367
-568.631	-200.000	-0.076	0.337
-567.617	174.984	-0.124	-0.180
-566.602	493.121	-0.118	-0.271
-565.588	-72.138	-0.369	-0.137
-564.573	-200.000	0.009	0.228
-563.558	-132.221	0.145	0.019
-562.544	159.673	-0.076	-0.105
-561.529	97.732	-0.105	-0.120
-560.515	-136.116	-0.315	0.037
-559.500	-200.000	0.017	-0.075
-558.485	800.000	0.154	-0.467
-557.471	-131.997	-0.176	0.023
-556.456	21.106	-0.196	-0.159
-555.442	343.433	-0.148	-0.289
-554.427	-200.000	-0.010	-0.153
-553.412	-200.000	0.015	-0.397
-552.398	15.273	-0.155	-0.121
-551.383	-3.803	-0.204	-0.142
-550.369	800.000	-0.020	0.062
-549.354	590.023	0.154	-0.379
-548.339	-57.320	0.123	-0.054
-547.325	666.440	-0.057	-0.148
-546.310	-87.347	-0.430	-0.130
-545.296	407.343	0.090	-0.190
-544.281	-200.000	0.026	-0.411
-543.266	327.492	-0.090	0.172
-542.252	-94.539	-0.255	0.069
-541.237	800.000	0.082	0.289
-540.223	152.534	0.150	-0.204
-539.208	-200.000	-0.071	0.348
-538.193	800.000	0.066	-0.225
-537.179	-116.134	-0.219	0.041
-536.164	-40.250	0.065	0.034
-535.150	800.000	-0.088	-0.253
-534.135	-200.000	0.046	-0.204
-533.121	-74.809	0.270	-0.097
-532.106	373.530	-0.204	-0.415
-531.091	-98.843	-0.186	0.047
-530.077	-111.022	0.109	-0.022
-529.062	-38.609	-0.135	-0.071
-528.048	800.000	0.053	-0.170
-527.033	-89.181	0.091	-0.027
-526.018	295.503	0.080	-0.146
-525.004	-160.421	-0.236	0.013
-523.989	99.150	0.209	0.241
-522.975	-161.132	-0.287	-0.015
-521.960	199.982	-0.208	-0.318
-520.945	-200.000	0.044	-0.211
-519.931	800.000	0.019	-0.078
-518.916	800.000	-0.016	0.064
-517.902	-123.936	0.105	0.016
-516.887	-62.324	0.171	-0.071
-515.872	-151.559	-0.153	-0.011
-514.858	358.291	0.074	-0.147
-513.843	-121.090	-0.210	0.035
-512.829	-200.000	0.010	-0.062
-511.814	-200.000	0.014	0.248
-510.799	-120.430	0.295	-0.050
-509.785	-200.000	-0.037	0.368
-508.770	-45.077	-0.100	-0.050
-507.756	211.579	-0.038	0.060
-506.741	45.158	-0.128	0.117
-505.726	60.596	0.188	-0.186
-504.712	-200.000	-0.002	0.017
-503.697	16.126	0.255	0.200
-502.683	-93.185	-0.234	-0.065
-501.668	15.943	-0.359	-0.282
-500.653	800.000	-0.090	0.308
-499.639	341.936	-0.101	-0.197
-498.624	34.850	0.136	-0.119
-497.610	373.057	0.137	-0.278
-496.595	-200.000	-0.034	0.252
-495.581	-200.000	-0.020	0.345
-494.566	-100.675	-0.405	-0.100
-493.551	800.000	-0.082	-0.304
-492.537	-200.000	-0.087	0.391
-491.522	-39.259	-0.062	0.032
-490.508	100.103	0.235	-0.272
-489.493	-87.504	0.331	-0.100
-488.478	-200.000	-0.010	-0.066
-487.464	-153.626	-0.408	-0.028
-486.449	-200.000	0.025	-0.150
-485.435	-120.151	-0.184	0.031
-484.420	-200.000	-0.044	0.216
-483.405	-200.000	-0.012	-0.361
-482.391	-81.022	-0.159	0.053
-481.376	-117.312	0.213	-0.039
-480.362	-127.377	0.490	0.071
-479.347	176.997	-0.143	-0.207
-478.332	-69.642	0.353	-0.134
-477.318	366.952	-0.085	-0.170
-476.303	-106.308	-0.208	-0.046
-475.289	800.000	-0.129	-0.495
-474.274	800.000	-0.051	-0.163
-473.259	489.882	0.013	-0.029
-472.245	800.000	-0.042	0.132
-471.230	-72.958	0.241	-0.088
-470.216	88.410	-0.236	-0.261
-469.201	-7.873	-0.125	-0.084
-468.186	-200.000	-0.025	-0.192
-467.172	236.622	0.098	0.161
-466.157	-21.558	-0.368	-0.224
-465.143	394.454	0.050	0.104
-464.128	800.000	-0.102	0.320
-463.113	-48.785	0.309	0.148
-462.099	-200.000	0.004	0.342
-461.084	-200.000	-0.007	-0.033
-460.070	-115.208	-0.059	-0.011
-459.055	50.958	-0.067	-0.063
-458.040	-106.422	0.276	0.061
-457.026	-165.054	-0.221	-0.010
-456.011	90.602	0.110	0.123
-454.997	-200.000	0.017	0.155
-453.982	-119.211	0.112	-0.019
-452.968	38.347	0.266	0.236
-451.953	49.043	-0.082	-0.076
-450.938	-102.291	-0.163	0.039
-449.924	-14.039	0.229	-0.147
-448.909	-200.000	-0.028	-0.292
-447.895	34.614	0.072	0.063
-446.880	-200.000	-0.322	0.001
-445.865	-200.000	0.006	-0.179
-444.851	-91.842	-0.062	-0.017
-443.836	800.000	0.017	-0.051
-442.822	-164.859	0.213	0.009
-441.807	-86.727	0.238	0.073
-440.792	-200.000	-0.052	-0.242
-439.778	800.000	-0.032	-0.105
-438.763	-97.508	-0.173	-0.045
-437.749	9.092	-0.312	-0.235
-436.734	188.987	0.148	0.221
-435.719	-87.656	-0.376	0.113
-434.705	800.000	0.066	0.278
-433.690	10.169	-0.340	0.257
-432.676	324.126	0.141	0.267
-431.661	-28.603	-0.185	-0.106
-430.646	-73.105	0.449	-0.164
-429.632	261.387	-0.204	0.352
-428.617	414.528	0.013	-0.028
-427.603	-112.345	-0.230	-0.046
-426.588	173.718	0.277	-0.398
-425.573	-200.000	0.016	-0.215
-424.559	24.532	0.211	-0.174
-423.544	211.229	0.113	-0.176
-422.530	-81.731	-0.154	0.050
-421.515	-66.814	0.118	-0.047
-420.500	642.630	0.012	-0.030
-419.486	82.534	-0.104	0.112
-418.471	-137.892	0.301	-0.033
-417.457	319.950	0.191	0.360
-416.442	240.365	-0.073	0.121
-415.428	-200.000	0.013	0.220
-414.413	237.146	-0.052	0.086
-413.398	800.000	-0.070	0.252
-412.384	-62.956	-0.337	0.139
-411.369	-112.999	-0.177	-0.035
-410.355	800.000	0.074	-0.297
-409.340	54.064	0.084	-0.080
-408.325	800.000	-0.066	0.268
-407.311	68.968	0.181	0.185
-406.296	272.319	-0.101	-0.177
-405.282	800.000	0.072	-0.259
-404.267	-200.000	0.023	-0.271
-403.252	257.250	0.048	-0.081
-402.238	-156.067	0.614	-0.039
-401.223	-47.109	-0.048	0.023
-400.209	127.722	0.252	0.318
-399.194	-105.666	0.188	0.042
-398.179	-200.000	-0.048	-0.386
-397.165	-200.000	0.013	-0.207
-396.150	-72.932	-0.252	0.092
-395.136	17.096	-0.072	0.057
-394.121	-200.000	-0.057	0.487
-393.106	-200.000	-0.055	-0.271
-392.092	-92.890	0.432	-0.120
-391.077	680.273	0.027	0.070
-390.063	474.398	0.183	0.410
-389.048	-200.000	0.008	0.127
-388.033	166.743	-0.085	-0.120
-387.019	158.613	-0.038	0.053
-386.004	501.389	0.091	0.208
-384.990	119.539	0.344	0.423
-383.975	4.053	-0.277	-0.202
-382.960	105.187	-0.036	0.042
-381.946	-131.475	0.151	0.020
-380.931	-200.000	0.004	0.047
-379.917	139.153	-0.102	-0.133
-378.902	-103.375	-0.137	0.032
-377.888	-122.464	-0.031	0.005
-376.873	5.789	0.191	0.140
-375.858	251.510	0.071	-0.121
-374.844	-200.000	-0.002	-0.120
-373.829	-107.345	-0.291	0.064
-372.815	-116.568	-0.253	0.046
-371.800	800.000	0.200	0.559
-370.785	736.538	0.043	-0.115
-369.771	-17.275	0.241	0.151
-368.756	207.683	-0.144	-0.223
-367.742	-108.049	-0.198	-0.043
-366.727	38.040	-0.243	0.214
-365.712	236.502	0.062	-0.101
-364.698	-157.593	0.083	0.005
-363.683	-200.000	0.005	-0.132
-362.669	35.580	-0.060	-0.052
-361.654	800.000	0.040	0.131
-360.639	-44.033	0.100	-0.050
-359.625	38.326	0.127	-0.112
-358.610	-200.000	0.042	-0.197
-357.596	800.000	0.056	0.154
-356.581	141.127	0.173	0.226
-355.566	54.254	0.324	0.309
-354.552	-200.000	0.040	0.263
-353.537	182.252	-0.162	0.237
-352.523	151.720	-0.021	-0.028
-351.508	110.985	-0.069	0.082
-350.493	-164.466	0.527	0.024
-349.479	-77.096	0.104	0.036
-348.464	-146.247	0.058	0.005
-347.450	800.000	-0.035	0.119
-346.435	1.606	0.143	0.102
-345.420	-194.741	-0.134	0.001
-344.406	206.562	0.168	0.259
-343.391	719.419	0.084	0.221
-342.377	-200.000	-0.032	-0.437
-341.362	-15.673	0.297	0.188
-340.348	-139.949	0.155	0.016
-339.333	112.392	-0.051	-0.061
-338.318	168.549	-0.163	-0.230
-337.304	-200.000	0.011	0.186
-336.289	319.382	0.142	0.266
-335.275	-84.517	0.231	-0.072
-334.260	-200.000	0.023	0.348
-333.245	148.153	-0.010	0.013
-332.231	78.740	0.124	-0.132
-331.216	800.000	0.095	-0.267
-330.202	-24.057	0.136	0.081
-329.187	79.369	0.165	-0.175
-328.172	-177.053	-0.085	0.002
-327.158	153.064	0.080	-0.108
-326.143	-21.568	-0.147	-0.089
-325.129	394.301	0.071	0.146
-324.114	29.555	-0.106	0.089
-323.099	684.721	-0.049	0.127
-322.085	436.180	-0.199	0.429
-321.070	28.386	-0.119	0.099
-320.056	584.218	-0.093	0.227
-319.041	-79.127	0.039	-0.013
-318.026	46.387	-0.112	-0.103
-317.012	-60.702	-0.205	-0.086
-315.997	-165.360	-0.197	-0.009
-314.983	800.000	-0.032	-0.129
-313.968	-104.512	-0.120	-0.027
-312.953	133.026	0.066	0.085
-311.939	150.534	-0.159	0.214
-310.924	350.496	0.090	0.176
-309.910	38.125	0.141	0.125
-308.895	-145.282	0.370	0.033
-307.880	28.172	0.167	-0.140
-306.866	-119.704	0.140	0.024
-305.851	-83.834	0.015	-0.005
-304.837	-103.420	-0.348	0.081
-303.822	-21.081	0.289	0.175
-302.807	-104.099	-0.173	0.040
-301.793	-24.227	0.197	-0.116
-300.778	800.000	-0.155	0.560
-299.764	-200.000	0.012	-0.097
-298.749	141.244	0.110	0.143
-297.735	232.505	-0.141	-0.229
-296.720	-200.000	0.009	0.222
-295.705	800.000	0.111	0.415
-294.691	-200.000	-0.031	0.176
-293.676	70.731	-0.058	-0.059
-292.662	-70.757	0.035	-0.013
-291.647	614.053	-0.056	-0.138
-290.632	-108.724	0.115	-0.024
-289.618	-117.266	-0.257	-0.046
-288.603	181.740	0.215	0.313
-287.589	-128.645	0.326	-0.046
-286.574	32.880	-0.288	0.247
-285.559	-191.599	0.297	-0.003
-284.545	44.859	0.289	-0.263
-283.530	208.711	-0.187	0.289
-282.516	123.139	0.119	0.148
-281.501	800.000	-0.079	-0.255
-280.486	95.031	0.123	-0.139
-279.472	294.427	-0.079	-0.142
-278.457	219.621	0.088	-0.139
-277.443	-25.880	0.134	0.078
-276.428	-157.309	0.325	0.019
-275.413	-33.037	0.176	0.096
-274.399	-163.731	0.099	-0.005
-273.384	279.100	-0.146	0.257
-272.370	-200.000	0.030	-0.138
-271.355	-200.000	-0.057	0.394
-270.340	800.000	0.028	-0.114
-269.326	-121.636	0.216	-0.035
-268.311	379.428	0.045	0.092
-267.297	-47.143	-0.404	-0.195
-266.282	250.827	0.084	-0.141
-265.267	386.300	-0.044	-0.089
-264.253	131.454	-0.093	-0.118
-263.238	-131.718	0.245	0.032
-262.224	-62.661	-0.376	0.154
-261.209	143.885	0.132	-0.173
-260.195	-39.244	-0.324	0.168
-259.180	448.613	0.118	-0.257
-258.165	-47.956	0.262	-0.125
-257.151	800.000	-0.104	0.287
-256.136	-4.745	-0.287	0.196
-255.122	81.577	0.249	-0.266
-254.107	-47.442	0.094	0.045
-253.092	503.201	0.045	0.103
-252.078	557.383	0.109	0.259
-251.063	-200.000	0.032	-0.146
-250.049	245.243	0.127	-0.211
-249.034	-60.469	0.313	0.131
-248.019	356.471	0.080	-0.158
-247.005	-102.646	0.139	0.033
-245.990	-56.744	-0.118	-0.052
-244.976	-200.000	-0.015	0.273
-243.961	-200.000	-0.055	0.464
-242.946	-72.606	-0.312	-0.114
-241.932	2.010	-0.023	0.016
-240.917	800.000	-0.080	-0.297
-239.903	-200.000	0.047	-0.291
-238.888	-139.259	0.178	-0.019
-237.873	-86.961	-0.267	0.080
-236.859	-200.000	-0.005	0.108
-235.844	-139.403	0.118	-0.012
-234.830	475.844	0.111	-0.247
-233.815	-200.000	0.023	-0.230
-232.800	65.640	0.225	0.225
-231.786	39.532	0.216	-0.191
-230.771	800.000	-0.048	0.199
-229.757	39.494	0.033	0.029
-228.742	-104.482	0.487	-0.111
-227.727	150.448	-0.085	0.114
-226.713	227.957	-0.122	0.197
-225.698	800.000	-0.045	0.148
-224.684	-200.000	-0.023	-0.309
-223.669	343.210	-0.196	-0.379
-222.655	-20.720	-0.087	0.053
-221.640	143.070	0.262	0.343
-220.625	-200.000	0.021	-0.119
-219.611	87.862	0.194	-0.212
-218.596	-3.321	-0.130	0.089
-217.582	-200.000	-0.033	0.179
-216.567	800.000	0.062	-0.186
-215.552	-21.226	0.209	0.126
-214.538	52.593	0.116	0.110
-213.523	-189.453	-0.207	-0.002
-212.509	-14.812	-0.007	-0.004
-211.494	-59.395	-0.114	0.048
-210.479	341.847	0.147	0.284
-209.465	-200.000	-0.073	0.379
-208.450	98.853	-0.089	-0.102
-207.436	-120.730	0.208	-0.035
-206.421	-200.000	-0.012	-0.167
-205.406	191.871	0.049	-0.073
-204.392	-157.834	-0.269	-0.016
-203.377	800.000	-0.079	0.253
-202.363	-16.796	0.356	0.222
-201.348	202.266	-0.137	0.209
-200.333	800.000	-0.067	0.221
-199.319	27.029	-0.232	-0.192
-198.304	-197.463	0.103	0.001
-197.290	800.000	-0.050	0.203
-196.275	800.000	0.084	-0.249
-195.260	144.888	0.073	-0.096
-194.246	-126.922	-0.409	-0.059
-193.231	-160.852	-0.351	0.018
-192.217	-126.380	0.106	0.016
-191.202	800.000	-0.083	-0.295
-190.187	-80.392	0.155	-0.051
-189.173	800.000	-0.104	0.294
-188.158	-45.737	0.052	0.025
-187.144	-185.233	-0.156	-0.002
-186.129	-200.000	0.028	0.296
-185.114	113.848	-0.058	-0.069
-184.100	-200.000	0.028	-0.143
-183.085	-200.000	-0.063	0.296
-182.071	413.305	-0.029	0.060
-181.056	-200.000	-0.030	-0.314
-180.042	307.021	-0.160	0.293
-179.027	-155.673	0.320	-0.020
-178.012	59.770	-0.185	-0.180
-176.998	112.729	-0.321	-0.383
-175.983	-200.000	0.350	-0.001
-174.969	-200.000	0.002	0.050
-173.954	800.000	0.066	-0.185
-172.939	-151.671	0.186	-0.014
-171.925	-158.355	-0.230	-0.013
-170.910	1.794	-0.230	0.163
-169.896	800.000	-0.073	0.224
-168.881	800.000	-0.063	0.173
-167.866	21.029	0.109	0.087
-166.852	-93.498	0.280	0.076
-165.837	292.801	-0.097	0.175
-164.823	36.923	0.201	0.175
-163.808	-147.444	0.266	0.022
-162.793	800.000	0.038	-0.148
-161.779	800.000	-0.044	0.142
-160.764	605.426	0.152	0.373
-159.750	214.250	-0.076	0.118
-158.735	115.407	0.145	0.174
-157.720	-200.000	0.008	-0.557
-156.706	-17.867	0.260	-0.161
-155.691	636.199	-0.081	-0.202
-154.677	11.236	-0.353	0.266
-153.662	-200.000	0.001	0.029
-152.647	800.000	-0.026	0.081
-151.633	-200.000	-0.022	0.273
-150.618	-93.213	-0.061	-0.017
-149.604	-69.573	0.385	0.145
-148.589	721.792	0.040	0.106
-147.574	-38.798	0.122	0.063
-146.560	-200.000	-0.052	0.296
-145.545	-107.926	-0.159	-0.034
-144.531	-105.470	0.287	0.064
-143.516	800.000	0.172	0.472
-142.502	-200.000	-0.056	-0.306
-141.487	-3.517	0.052	0.036
-140.472	-61.605	0.099	-0.041
-139.458	-123.724	0.171	-0.027
-138.443	-120.033	0.228	0.038
-137.429	154.584	0.129	0.175
-136.414	-63.168	-0.397	0.161
-135.399	87.207	0.242	-0.263
-134.385	79.417	-0.222	0.234
-133.370	-4.499	-0.256	0.174
-132.356	-200.000	0.034	0.327
-131.341	-200.000	-0.021	-0.140
-130.326	-73.262	0.172	0.062
-129.312	-142.676	0.295	-0.028
-128.297	488.071	-0.187	0.420
-127.283	800.000	-0.068	-0.196
-126.268	-114.599	0.014	-0.003
-125.253	15.655	0.092	-0.071
-124.239	-146.166	-0.118	0.010
-123.224	-200.000	-0.036	0.234
-122.210	-200.000	-0.022	0.174
