DTS Sentinel unit serial number:	SN413079Multiplexer serial number:	ORYXHardware model number:	OX4-SRSoftware version number:	ORYX F/W v4.00 Oryx Data Collector v3.7.2.0data status	okinstallation	princeton_trtdifferential loss correction	single-endedforward channel	channel 1reverse channel	N/Adate	2019/09/18time	18:30:35forward acquisition time	60.00reverse acquisition time	0.00gamma	496.2192k internal	0.2294k external	0.2294temperature offset calibration	1.0017default loss term (dB/km)	0.3790temperature slope calibration	1.0000multiplexer offset coefficient	1.0000multiplexer slope coefficient	1.0000fibre end	0.00T internal ref (°C)	38.31T ext. ref 1 (°C)	0.94T ext. ref 2 (°C)	30.88length (m)	temperature (°C)	Stokes	anti-Stokes-747.200	-200.000	-0.006	0.045
-746.185	82.362	0.227	0.252
-745.171	796.198	0.111	0.312
-744.156	-92.319	-0.161	0.046
-743.142	-85.390	0.250	-0.080
-742.127	117.062	-0.034	-0.043
-741.112	432.316	-0.075	0.166
-740.098	-200.000	-0.021	0.170
-739.083	800.000	0.084	0.260
-738.069	-200.000	-0.027	0.266
-737.054	-81.834	-0.138	0.046
-736.039	-83.963	-0.615	-0.200
-735.025	-62.556	-0.155	0.066
-734.010	-57.794	-0.354	-0.158
-732.996	-64.995	0.107	0.044
-731.981	69.552	0.032	-0.034
-730.966	-87.450	-0.319	0.099
-729.952	-66.817	-0.226	-0.091
-728.937	465.948	-0.049	-0.113
-727.923	-43.094	-0.247	-0.128
-726.908	-69.475	-0.271	-0.106
-725.894	21.805	-0.217	0.180
-724.879	-74.684	0.134	0.049
-723.864	-200.000	-0.019	0.309
-722.850	-110.934	-0.275	-0.058
-721.835	-27.071	0.105	-0.063
-720.821	800.000	0.049	0.214
-719.806	623.391	-0.200	-0.516
-718.791	800.000	0.037	-0.106
-717.777	97.920	-0.140	0.165
-716.762	-121.801	0.169	0.029
-715.748	-40.837	-0.046	0.024
-714.733	-101.084	-0.198	-0.049
-713.718	25.392	0.295	0.251
-712.704	-150.894	-0.266	0.021
-711.689	-94.040	-0.237	0.066
-710.675	800.000	0.030	0.101
-709.660	-96.004	0.170	-0.046
-708.645	-200.000	-0.041	-0.381
-707.631	800.000	0.089	0.333
-706.616	151.333	-0.037	0.052
-705.602	463.130	0.027	0.061
-704.587	41.975	-0.210	-0.194
-703.572	-162.676	-0.424	0.021
-702.558	15.587	-0.129	-0.104
-701.543	58.005	0.044	0.044
-700.529	-200.000	0.011	-0.093
-699.514	-200.000	-0.004	0.106
-698.499	63.144	-0.105	0.107
-697.485	-200.000	0.031	-0.201
-696.470	125.179	0.088	0.113
-695.456	800.000	-0.082	0.346
-694.441	-200.000	0.007	0.057
-693.426	-124.923	0.444	0.070
-692.412	21.954	0.105	-0.088
-691.397	151.298	0.077	0.106
-690.383	251.577	0.048	-0.083
-689.368	339.353	0.085	0.169
-688.354	-106.325	0.193	0.044
-687.339	800.000	0.020	-0.076
-686.324	-154.050	0.162	-0.011
-685.310	565.117	0.067	0.166
-684.295	800.000	-0.012	0.042
-683.281	800.000	-0.084	-0.301
-682.266	-37.488	0.225	-0.123
-681.251	-32.979	0.151	-0.086
-680.237	-200.000	0.020	-0.267
-679.222	83.430	-0.129	0.143
-678.208	-59.383	-0.173	0.076
-677.193	476.715	0.146	-0.337
-676.178	-141.275	-0.228	0.024
-675.164	-124.460	-0.098	-0.016
-674.149	58.464	-0.228	0.229
-673.135	104.126	-0.188	-0.226
-672.120	56.269	-0.110	0.109
-671.105	-113.703	-0.218	0.043
-670.091	-44.732	-0.122	0.062
-669.076	-27.212	-0.113	0.067
-668.062	-192.584	-0.070	-0.001
-667.047	-36.205	-0.292	-0.161
-666.032	-112.149	0.139	-0.028
-665.018	-0.732	-0.354	-0.256
-664.003	320.774	0.016	0.030
-662.989	-111.448	0.160	0.033
-661.974	-67.473	-0.204	0.082
-660.959	-83.254	0.059	-0.019
-659.945	18.774	0.224	-0.183
-658.930	206.097	-0.053	-0.084
-657.916	800.000	-0.053	-0.231
-656.901	-200.000	0.051	-0.306
-655.886	32.155	0.134	-0.118
-654.872	-182.457	0.373	0.007
-653.857	-55.970	0.187	-0.085
-652.843	-153.791	0.094	0.007
-651.828	-57.473	-0.229	-0.102
-650.814	-35.186	-0.135	0.075
-649.799	-200.000	-0.004	-0.125
-648.784	-57.324	-0.097	0.044
-647.770	-150.294	0.156	0.012
-646.755	-78.314	0.236	-0.083
-645.741	375.444	-0.036	-0.074
-644.726	208.108	-0.218	-0.347
-643.711	136.533	-0.076	0.101
-642.697	9.020	0.164	0.126
-641.682	-200.000	0.067	-0.319
-640.668	238.173	-0.105	0.177
-639.653	-43.466	-0.111	-0.057
-638.638	-35.324	-0.223	-0.123
-637.624	-100.182	0.207	-0.052
-636.609	-88.442	0.554	-0.168
-635.595	26.102	0.152	-0.129
-634.580	-167.251	0.261	0.011
-633.565	167.001	-0.058	0.084
-632.551	-84.162	-0.291	0.094
-631.536	91.309	0.098	-0.112
-630.522	-200.000	-0.008	-0.124
-629.507	-125.016	-0.238	0.037
-628.492	-200.000	0.025	-0.354
-627.478	-200.000	-0.041	-0.235
-626.463	366.770	0.099	-0.204
-625.449	-1.074	-0.288	-0.207
-624.434	-53.862	0.130	-0.060
-623.419	152.112	-0.237	-0.329
-622.405	255.420	-0.200	-0.349
-621.390	-43.404	0.369	-0.190
-620.376	130.807	-0.113	0.148
-619.361	406.746	0.121	-0.259
-618.346	-93.200	0.132	-0.037
-617.332	395.528	0.062	0.132
-616.317	-20.949	0.084	-0.052
-615.303	-50.817	-0.347	-0.166
-614.288	-105.186	0.232	-0.054
-613.273	800.000	0.063	0.200
-612.259	-200.000	-0.026	0.131
-611.244	14.698	0.216	0.172
-610.230	-79.506	0.338	-0.116
-609.215	-92.945	0.310	0.088
-608.201	61.432	0.148	-0.149
-607.186	373.157	0.166	0.344
-606.171	39.234	-0.200	-0.182
-605.157	577.908	0.136	-0.339
-604.142	5.819	0.182	0.137
-603.128	-118.311	0.169	-0.030
-602.113	-200.000	-0.018	0.161
-601.098	107.456	0.148	-0.180
-600.084	251.121	-0.128	-0.221
-599.069	-200.000	0.024	0.234
-598.055	-102.873	-0.338	0.082
-597.040	800.000	-0.041	-0.131
-596.025	-65.073	-0.321	0.132
-595.011	501.348	-0.026	0.062
-593.996	800.000	-0.023	-0.099
-592.982	28.555	-0.082	0.070
-591.967	-53.359	0.398	0.185
-590.952	324.428	0.055	0.106
-589.938	544.801	0.027	-0.066
-588.923	287.101	0.091	-0.166
-587.909	-123.612	-0.432	0.070
-586.894	-200.000	0.035	0.228
-585.879	-107.656	0.254	0.056
-584.865	-0.275	0.312	-0.226
-583.850	800.000	-0.068	0.279
-582.836	516.039	0.139	-0.331
-581.821	-186.431	0.089	-0.001
-580.806	351.208	-0.062	0.125
-579.792	-181.873	0.193	0.004
-578.777	-200.000	0.011	0.195
-577.763	800.000	0.063	0.228
-576.748	-200.000	0.031	0.233
-575.733	98.610	-0.064	0.075
-574.719	-68.626	0.285	-0.112
-573.704	800.000	-0.072	-0.302
-572.690	800.000	0.015	0.059
-571.675	21.323	-0.098	-0.081
-570.661	61.596	-0.167	0.169
-569.646	800.000	-0.064	0.201
-568.631	145.356	-0.179	-0.244
-567.617	-200.000	-0.035	-0.321
-566.602	119.971	0.199	-0.250
-565.588	172.522	-0.174	-0.254
-564.573	-200.000	-0.030	0.192
-563.558	-119.684	-0.308	0.054
-562.544	-126.181	0.197	0.030
-561.529	-153.127	-0.179	-0.013
-560.515	128.062	-0.188	0.243
-559.500	667.578	-0.045	-0.119
-558.485	800.000	0.026	0.080
-557.471	-133.252	0.204	-0.026
-556.456	282.427	0.056	-0.102
-555.442	-164.586	0.222	-0.010
-554.427	-147.711	-0.308	0.026
-553.412	-5.337	0.011	-0.007
-552.398	-45.359	0.343	-0.173
-551.383	-200.000	0.023	-0.250
-550.369	-37.403	-0.238	-0.129
-549.354	-155.049	-0.046	-0.003
-548.339	-45.974	0.204	-0.102
-547.325	-35.432	-0.255	-0.141
-546.310	800.000	-0.026	0.115
-545.296	687.747	0.095	-0.251
-544.281	-39.587	0.260	0.138
-543.266	-65.305	-0.240	0.098
-542.252	80.238	-0.144	0.157
-541.237	-161.514	0.268	0.014
-540.223	437.833	-0.128	0.283
-539.208	-96.350	-0.103	0.028
-538.193	549.490	-0.145	-0.352
-537.179	-145.481	0.178	0.016
-536.164	-53.399	-0.427	-0.199
-535.150	-25.219	0.205	0.123
-534.135	600.016	-0.016	-0.039
-533.121	61.763	-0.195	-0.197
-532.106	-44.931	-0.251	0.127
-531.091	-190.311	-0.477	-0.005
-530.077	28.154	-0.195	-0.167
-529.062	191.961	-0.253	-0.387
-528.048	84.251	-0.075	-0.083
-527.033	626.924	-0.175	0.447
-526.018	-87.184	-0.118	0.036
-525.004	-200.000	-0.022	-0.132
-523.989	576.384	-0.082	-0.203
-522.975	800.000	-0.056	0.189
-521.960	94.996	0.139	-0.160
-520.945	-200.000	0.088	-0.400
-519.931	-200.000	0.054	0.274
-518.916	-121.700	-0.394	-0.066
-517.902	-101.845	0.034	0.008
-516.887	-200.000	-0.043	0.264
-515.872	-200.000	0.003	0.094
-514.858	237.097	-0.211	0.354
-513.843	363.817	-0.160	-0.326
-512.829	-200.000	0.064	0.440
-511.814	800.000	-0.095	-0.314
-510.799	15.335	-0.190	-0.151
-509.785	800.000	-0.017	-0.050
-508.770	-46.555	0.093	0.046
-507.756	371.999	0.061	0.125
-506.741	800.000	0.075	-0.268
-505.726	800.000	0.040	0.149
-504.712	-200.000	0.032	-0.202
-503.697	233.683	-0.077	0.128
-502.683	-47.689	0.136	0.067
-501.668	-104.097	0.148	-0.035
-500.653	134.582	0.275	-0.361
-499.639	-71.866	-0.208	-0.078
-498.624	-121.884	-0.276	-0.046
-497.610	-200.000	-0.003	-0.041
-496.595	800.000	-0.076	0.295
-495.581	783.583	-0.231	0.641
-494.566	-22.793	-0.202	-0.124
-493.551	465.224	0.009	-0.021
-492.537	-34.058	-0.031	-0.017
-491.522	-81.732	-0.080	-0.026
-490.508	-37.376	0.100	-0.054
-489.493	639.012	0.032	-0.082
-488.478	160.048	0.103	-0.145
-487.464	123.532	0.078	0.098
-486.449	800.000	-0.014	0.058
-485.435	-87.870	0.080	-0.024
-484.420	119.846	-0.152	0.190
-483.405	-58.634	0.265	-0.116
-482.391	800.000	0.047	-0.161
-481.376	-51.196	-0.093	0.044
-480.362	800.000	-0.046	0.140
-479.347	127.999	-0.111	0.142
-478.332	35.928	0.136	0.121
-477.318	70.551	0.114	-0.120
-476.303	-25.219	-0.182	0.109
-475.289	-99.409	0.259	-0.066
-474.274	-43.350	0.192	-0.098
-473.259	-35.226	0.297	0.164
-472.245	-200.000	-0.020	0.247
-471.230	46.983	-0.103	-0.097
-470.216	-63.525	-0.140	-0.058
-469.201	228.870	0.103	-0.170
-468.186	800.000	-0.055	-0.167
-467.172	-33.866	-0.198	-0.110
-466.157	86.326	-0.145	-0.162
-465.143	-200.000	0.014	-0.150
-464.128	133.443	0.135	0.177
-463.113	-86.995	-0.227	-0.070
-462.099	-200.000	0.279	-0.000
-461.084	-71.264	-0.396	0.150
-460.070	-200.000	-0.012	0.179
-459.055	-200.000	-0.010	0.062
-458.040	-62.686	-0.363	0.152
-457.026	451.578	0.127	-0.284
-456.011	-120.499	0.174	-0.030
-454.997	360.451	0.087	0.177
-453.982	-119.764	0.229	-0.040
-452.968	-34.250	0.084	-0.047
-451.953	-101.338	0.348	-0.086
-450.938	800.000	0.118	-0.335
-449.924	97.069	0.240	0.278
-448.909	8.043	0.167	-0.127
-447.895	294.188	-0.091	-0.168
-446.880	136.889	-0.089	0.118
-445.865	-38.334	0.066	-0.035
-444.851	42.171	-0.121	-0.111
-443.836	31.812	-0.297	-0.258
-442.822	76.890	0.112	0.120
-441.807	65.685	0.224	0.229
-440.792	-25.252	-0.113	0.068
-439.778	26.985	0.123	-0.104
-438.763	564.208	-0.105	-0.256
-437.749	-10.106	0.152	0.102
-436.734	-29.492	0.171	0.099
-435.719	-88.034	0.086	-0.026
-434.705	-200.000	0.054	-0.355
-433.690	800.000	0.103	0.341
-432.676	800.000	-0.134	0.400
-431.661	58.047	0.302	-0.299
-430.646	38.287	-0.029	0.026
-429.632	800.000	0.056	0.221
-428.617	515.865	0.058	0.136
-427.603	86.213	-0.176	0.196
-426.588	46.847	0.317	-0.298
-425.573	-115.972	-0.231	-0.043
-424.559	-117.818	-0.198	-0.036
-423.544	-121.495	0.151	0.025
-422.530	-200.000	-0.014	0.313
-421.515	-200.000	-0.035	-0.233
-420.500	583.588	0.035	-0.087
-419.486	-150.081	-0.213	-0.017
-418.471	-112.573	0.301	-0.061
-417.457	257.885	-0.087	0.151
-416.442	344.114	0.056	0.111
-415.428	193.628	-0.116	-0.177
-414.413	115.292	0.078	-0.097
-413.398	-200.000	-0.029	0.135
-412.384	-138.805	0.106	0.012
-411.369	228.722	-0.089	-0.146
-410.355	-200.000	-0.017	-0.082
-409.340	160.553	-0.063	-0.089
-408.325	800.000	-0.067	0.272
-407.311	-200.000	-0.007	0.305
-406.296	-116.777	0.243	0.045
-405.282	800.000	0.134	-0.385
-404.267	401.338	-0.088	-0.187
-403.252	-101.734	-0.202	0.049
-402.238	-143.652	-0.326	0.031
-401.223	-200.000	0.024	-0.206
-400.209	37.069	-0.322	0.287
-399.194	682.801	-0.135	0.356
-398.179	800.000	-0.016	-0.047
-397.165	-19.390	0.089	0.056
-396.150	484.634	-0.054	0.125
-395.136	-200.000	0.035	0.229
-394.121	-68.349	-0.214	-0.084
-393.106	-77.895	-0.064	0.022
-392.092	136.084	0.123	0.161
-391.077	-182.682	0.204	0.004
-390.063	-119.089	-0.180	0.032
-389.048	658.692	0.082	0.213
-388.033	685.819	-0.038	0.099
-387.019	-140.304	-0.361	-0.038
-386.004	-42.318	0.273	0.140
-384.990	334.761	-0.118	0.230
-383.975	286.297	0.031	0.056
-382.960	-200.000	-0.039	0.401
-381.946	-3.541	-0.042	-0.030
-380.931	-71.962	0.139	-0.052
-379.917	-200.000	-0.039	0.208
-378.902	-108.145	-0.191	0.042
-377.888	-200.000	-0.023	0.114
-376.873	-65.768	-0.330	0.133
-375.858	800.000	0.106	0.328
-374.844	558.025	-0.075	-0.183
-373.829	-93.806	-0.134	0.037
-372.815	800.000	0.070	-0.261
-371.800	151.967	-0.107	0.147
-370.785	-200.000	0.050	0.421
-369.771	53.456	-0.216	-0.209
-368.756	-116.627	0.120	0.022
-367.742	184.826	0.188	-0.280
-366.727	708.752	-0.008	0.022
-365.712	154.408	0.146	-0.202
-364.698	-15.455	-0.147	0.095
-363.683	-16.620	-0.089	0.056
-362.669	-24.207	0.035	-0.021
-361.654	-64.579	0.021	-0.009
-360.639	-141.093	0.129	0.013
-359.625	-131.412	-0.227	0.030
-358.610	-71.729	-0.151	-0.057
-357.596	224.671	0.195	0.318
-356.581	54.453	-0.162	0.158
-355.566	163.439	0.054	-0.076
-354.552	-160.597	-0.313	0.017
-353.537	-141.330	-0.092	-0.009
-352.523	591.512	-0.109	0.270
-351.508	-113.876	0.314	-0.061
-350.493	274.791	0.169	0.302
-349.479	-103.944	0.117	0.028
-348.464	800.000	-0.087	-0.250
-347.450	30.814	0.079	-0.068
-346.435	-200.000	-0.034	-0.169
-345.420	-99.581	-0.174	0.044
-344.406	160.460	0.102	0.143
-343.391	800.000	-0.075	0.255
-342.377	0.021	-0.051	-0.036
-341.362	-200.000	-0.018	-0.278
-340.348	624.022	0.074	-0.188
-339.333	45.882	0.099	-0.092
-338.318	158.827	0.078	-0.110
-337.304	800.000	0.076	0.291
-336.289	-78.598	-0.216	0.074
-335.275	-140.280	-0.470	-0.049
-334.260	202.762	-0.123	-0.192
-333.245	800.000	0.013	-0.051
-332.231	492.423	0.093	-0.214
-331.216	-31.924	0.013	-0.007
-330.202	157.493	-0.138	0.192
-329.187	325.420	-0.173	0.333
-328.172	62.244	0.144	0.145
-327.158	-200.000	0.063	0.326
-326.143	-143.104	-0.188	0.018
-325.129	86.820	-0.141	-0.156
-324.114	-174.305	-0.073	0.002
-323.099	570.268	0.115	-0.282
-322.085	-200.000	-0.040	-0.318
-321.070	800.000	-0.103	-0.427
-320.056	-37.711	0.192	-0.103
-319.041	-200.000	0.019	-0.098
-318.026	800.000	0.105	-0.324
-317.012	800.000	-0.080	0.294
-315.997	-113.019	0.155	-0.031
-314.983	55.785	0.112	-0.109
-313.968	-31.312	0.129	-0.073
-312.953	-200.000	-0.013	-0.192
-311.939	249.976	0.037	-0.063
-310.924	-200.000	-0.008	-0.117
-309.910	31.178	0.125	0.108
-308.895	61.190	-0.098	0.098
-307.880	208.318	-0.115	-0.180
-306.866	337.757	-0.127	-0.248
-305.851	-87.306	-0.182	-0.056
-304.837	800.000	-0.094	0.345
-303.822	-200.000	0.017	0.291
-302.807	-104.483	-0.154	0.036
-301.793	800.000	-0.057	-0.187
-300.778	-180.313	-0.067	0.001
-299.764	462.185	-0.163	0.366
-298.749	7.008	0.120	-0.090
-297.735	35.516	-0.303	0.267
-296.720	103.804	0.094	0.111
-295.705	131.363	0.148	-0.191
-294.691	-200.000	0.016	0.146
-293.676	115.678	0.162	-0.199
-292.662	219.374	-0.156	0.251
-291.647	514.154	0.142	0.332
-290.632	-200.000	0.010	-0.097
-289.618	-32.957	0.194	0.108
-288.603	-156.395	0.162	0.010
-287.589	124.240	-0.186	0.235
-286.574	101.694	-0.086	0.101
-285.559	42.436	0.146	0.133
-284.545	183.109	0.212	-0.314
-283.530	-15.596	0.215	0.138
-282.516	-200.000	-0.032	0.154
-281.501	62.560	-0.107	0.107
-280.486	40.352	0.120	-0.109
-279.472	-98.692	0.234	0.060
-278.457	-75.182	0.093	0.033
-277.443	-3.328	0.226	-0.158
-276.428	-54.603	-0.178	0.081
-275.413	-65.608	0.039	0.016
-274.399	6.533	0.054	0.040
-273.384	61.677	0.021	0.021
-272.370	800.000	-0.061	-0.255
-271.355	800.000	-0.088	-0.272
-270.340	800.000	-0.056	0.231
-269.326	-151.108	0.152	0.011
-268.311	-106.506	-0.248	-0.056
-267.297	-200.000	-0.040	-0.278
-266.282	800.000	0.035	-0.098
-265.267	-200.000	-0.005	0.085
-264.253	191.994	0.170	-0.258
-263.238	-200.000	-0.010	0.480
-262.224	-88.893	-0.144	-0.043
-261.209	-200.000	0.040	-0.191
-260.195	-200.000	-0.005	0.244
-259.180	-60.526	-0.212	0.090
-258.165	25.594	0.119	0.099
-257.151	-104.973	0.110	0.025
-256.136	52.176	0.153	0.147
-255.122	192.889	0.101	-0.153
-254.107	-200.000	-0.032	-0.379
-253.092	-200.000	0.023	0.383
-252.078	68.544	0.207	0.212
-251.063	21.352	-0.190	0.155
-250.049	-200.000	-0.030	0.272
-249.034	-29.577	-0.200	0.115
-248.019	-87.157	-0.167	0.051
-247.005	125.921	-0.025	-0.032
-245.990	168.087	0.043	0.062
-244.976	-200.000	-0.032	-0.271
-243.961	-119.715	-0.214	0.037
-242.946	353.597	-0.065	0.128
-241.932	-200.000	-0.001	0.075
-240.917	-200.000	0.019	0.357
-239.903	-70.825	-0.289	0.109
-238.888	-150.041	-0.176	-0.014
-237.873	-64.351	0.233	0.095
-236.859	704.236	0.018	-0.049
-235.844	-200.000	-0.267	-0.001
-234.830	120.978	-0.237	-0.296
-233.815	-200.000	-0.009	-0.208
-232.800	9.060	-0.151	-0.114
-231.786	-79.231	-0.294	-0.100
-230.771	800.000	0.174	-0.548
-229.757	-3.765	-0.306	0.213
-228.742	-200.000	-0.004	0.307
-227.727	-114.376	0.433	0.083
-226.713	177.366	-0.061	-0.090
-225.698	-200.000	0.009	-0.162
-224.684	-103.794	-0.214	-0.050
-223.669	800.000	0.069	0.210
-222.655	-200.000	-0.007	-0.231
-221.640	-99.061	0.398	-0.101
-220.625	-173.506	-0.267	0.008
-219.611	800.000	-0.108	0.382
-218.596	532.717	0.054	-0.129
-217.582	800.000	-0.032	-0.113
-216.567	24.978	0.072	-0.060
-215.552	346.199	0.028	-0.055
-214.538	-98.329	-0.149	0.038
-213.523	36.680	-0.152	0.134
-212.509	-200.000	-0.016	0.282
-211.494	33.569	0.166	0.144
-210.479	-46.430	0.161	0.079
-209.465	-49.838	0.099	0.047
-208.450	-12.952	0.204	0.133
-207.436	800.000	-0.066	-0.195
-206.421	762.381	-0.073	-0.197
-205.406	-200.000	0.003	-0.114
-204.392	800.000	0.151	0.445
-203.377	187.286	-0.114	-0.170
-202.363	-75.591	0.230	-0.082
-201.348	-80.913	0.476	-0.158
-200.333	287.249	-0.140	-0.253
-199.319	-165.616	0.108	0.005
-198.304	-59.295	0.400	0.172
-197.290	-200.000	0.080	-0.388
-196.275	-85.174	0.299	0.094
-195.260	-17.161	0.295	-0.186
-194.246	18.738	0.195	-0.156
-193.231	-200.000	0.087	0.451
-192.217	-138.032	-0.232	0.026
-191.202	18.597	-0.126	-0.101
-190.187	12.108	0.123	0.094
-189.173	-200.000	0.155	-0.782
-188.158	90.442	0.099	-0.111
-187.144	-46.805	0.351	0.172
-186.129	-200.000	0.080	-0.534
-185.114	675.579	-0.096	0.250
-184.100	126.987	0.111	-0.141
-183.085	-200.000	-0.048	0.353
-182.071	-119.665	0.555	0.096
-181.056	35.024	0.121	0.106
-180.042	102.939	-0.152	0.178
-179.027	-146.520	-0.209	-0.018
-178.012	13.254	0.195	0.151
-176.998	73.301	0.182	-0.191
-175.983	800.000	0.012	0.033
-174.969	338.333	-0.167	0.326
-173.954	-33.724	0.088	0.049
-172.939	-63.263	0.242	0.100
-171.925	538.097	-0.078	-0.186
-170.910	43.416	0.172	0.157
-169.896	-86.291	-0.149	0.046
-168.881	52.770	-0.185	-0.176
-167.866	112.169	-0.074	0.089
-166.852	-22.242	-0.282	0.171
-165.837	385.418	-0.137	-0.283
-164.823	29.422	-0.103	0.087
-163.808	-200.000	-0.006	0.042
-162.793	-30.947	-0.192	0.108
-161.779	-200.000	0.019	0.234
-160.764	86.951	0.068	-0.075
-159.750	129.654	0.097	-0.124
-158.735	-105.454	-0.162	-0.037
-157.720	-62.896	0.183	-0.076
-156.706	-57.455	-0.270	-0.118
-155.691	1.948	0.266	0.191
-154.677	-132.950	0.120	0.015
-153.662	201.713	-0.040	0.062
-152.647	596.539	-0.082	0.204
-151.633	-94.314	0.238	0.065
-150.618	126.490	-0.124	-0.157
-149.604	164.026	0.027	-0.038
-148.589	800.000	-0.048	0.201
-147.574	-120.122	0.116	0.020
-146.560	-2.786	-0.269	0.188
-145.545	-196.730	0.297	0.002
-144.531	160.655	-0.162	0.226
-143.516	44.423	0.160	0.147
-142.502	-25.824	0.197	0.116
-141.487	-63.543	-0.176	-0.072
-140.472	292.588	-0.047	0.086
-139.458	-12.483	0.148	-0.096
-138.443	-112.451	-0.369	0.074
-137.429	-146.959	-0.114	-0.010
-136.414	800.000	0.061	0.225
-135.399	-47.168	0.101	-0.049
-134.385	8.515	-0.093	-0.070
-133.370	800.000	0.090	-0.263
-132.356	-200.000	0.020	0.181
-131.341	-200.000	-0.091	0.409
-130.326	-32.732	-0.254	0.141
-129.312	48.452	0.238	0.222
-128.297	206.387	-0.058	-0.091
-127.283	227.353	-0.050	-0.081
-126.268	676.257	0.065	0.170
-125.253	-47.552	-0.191	0.093
-124.239	364.509	-0.116	-0.232
-123.224	-63.492	0.283	0.116
-122.210	-78.335	0.093	0.032
-121.195	800.000	0.002	-0.005
