DTS Sentinel unit serial number:	SN413079Multiplexer serial number:	ORYXHardware model number:	OX4-SRSoftware version number:	ORYX F/W v4.00 Oryx Data Collector v3.7.2.0data status	okinstallation	princeton_trtdifferential loss correction	single-endedforward channel	channel 1reverse channel	N/Adate	2019/09/15time	08:22:35forward acquisition time	60.00reverse acquisition time	0.00gamma	496.2192k internal	0.2322k external	0.2322temperature offset calibration	0.9993default loss term (dB/km)	0.3790temperature slope calibration	1.0000multiplexer offset coefficient	1.0000multiplexer slope coefficient	1.0000fibre end	0.00T internal ref (°C)	31.33T ext. ref 1 (°C)	5.00T ext. ref 2 (°C)	28.50length (m)	temperature (°C)	Stokes	anti-Stokes-747.200	-76.985	0.067	-0.024
-746.185	-200.000	0.062	0.295
-745.171	800.000	-0.052	0.172
-744.156	800.000	-0.079	0.303
-743.142	800.000	-0.048	-0.176
-742.127	800.000	0.121	0.401
-741.112	781.198	-0.035	-0.097
-740.098	134.881	0.081	-0.107
-739.083	-161.514	0.026	-0.001
-738.069	-70.245	-0.204	0.078
-737.054	-94.949	0.068	-0.019
-736.039	97.373	-0.279	0.324
-735.025	164.340	0.234	0.333
-734.010	-200.000	-0.006	-0.167
-732.996	-133.719	-0.292	0.037
-731.981	-3.384	-0.337	-0.237
-730.966	-9.160	0.151	-0.102
-729.952	-70.270	-0.269	0.103
-728.937	662.366	0.089	-0.232
-727.923	-102.642	-0.168	-0.040
-726.908	-23.408	-0.214	-0.130
-725.894	130.676	-0.105	0.136
-724.879	800.000	0.046	0.145
-723.864	160.928	-0.173	-0.244
-722.850	-19.055	-0.223	-0.140
-721.835	206.020	-0.109	0.171
-720.821	-5.857	0.182	0.126
-719.806	-153.542	0.033	-0.002
-718.791	161.289	-0.117	-0.165
-717.777	15.389	-0.239	-0.189
-716.762	-45.863	0.204	-0.102
-715.748	800.000	-0.109	-0.430
-714.733	-200.000	0.014	0.346
-713.718	-200.000	0.005	0.237
-712.704	145.486	0.190	-0.257
-711.689	87.952	0.054	0.060
-710.675	-162.038	-0.055	0.003
-709.660	-19.823	0.151	-0.094
-708.645	-18.670	0.136	0.085
-707.631	800.000	-0.042	-0.127
-706.616	452.183	-0.064	-0.142
-705.602	-200.000	0.029	-0.176
-704.587	350.820	0.026	0.051
-703.572	-158.759	-0.107	-0.006
-702.558	139.357	-0.086	0.115
-701.543	-74.422	0.230	-0.084
-700.529	-192.337	-0.200	0.002
-699.514	-104.243	-0.349	0.082
-698.499	-45.891	0.106	0.053
-697.485	116.601	0.115	-0.143
-696.470	72.696	0.026	-0.028
-695.456	-68.075	0.068	0.027
-694.441	725.088	-0.037	0.099
-693.426	-124.434	0.280	0.044
-692.412	-125.175	0.108	-0.017
-691.397	-58.726	-0.228	-0.100
-690.383	-44.957	-0.173	-0.087
-689.368	-32.110	0.289	0.163
-688.354	-2.550	-0.113	-0.080
-687.339	800.000	-0.068	0.222
-686.324	62.864	0.291	-0.294
-685.310	-82.397	-0.611	-0.200
-684.295	-41.953	-0.122	-0.063
-683.281	-15.942	-0.316	-0.203
-682.266	-200.000	0.042	0.238
-681.251	50.385	0.213	-0.203
-680.237	-200.000	0.000	0.004
-679.222	137.609	-0.139	-0.183
-678.208	-72.968	-0.725	-0.268
-677.193	-113.059	-0.252	0.050
-676.178	258.344	-0.161	0.280
-675.164	-37.127	0.126	-0.068
-674.149	-54.382	0.186	0.085
-673.135	-200.000	0.043	-0.376
-672.120	-165.503	0.178	0.008
-671.105	354.786	0.054	-0.109
-670.091	53.824	0.239	-0.231
-669.076	-200.000	0.056	0.382
-668.062	147.590	0.168	0.228
-667.047	125.972	-0.134	-0.171
-666.032	91.579	0.222	-0.252
-665.018	-115.786	-0.089	-0.017
-664.003	490.406	0.055	0.126
-662.989	268.693	0.041	0.072
-661.974	-170.974	-0.368	-0.013
-660.959	18.368	0.013	-0.010
-659.945	-184.242	-0.073	-0.001
-658.930	-55.351	0.168	-0.076
-657.916	132.234	0.070	-0.091
-656.901	373.198	0.069	-0.141
-655.886	-200.000	-0.006	-0.058
-654.872	-71.294	0.104	-0.039
-653.857	59.054	-0.128	-0.127
-652.843	88.653	0.166	-0.186
-651.828	-152.475	-0.388	-0.028
-650.814	148.956	0.051	-0.069
-649.799	74.352	0.031	0.033
-648.784	-85.443	-0.169	-0.053
-647.770	-97.984	0.294	-0.076
-646.755	-138.457	-0.181	0.020
-645.741	13.969	-0.148	0.116
-644.726	-200.000	0.020	-0.105
-643.711	-72.504	0.056	0.021
-642.697	105.818	0.074	-0.088
-641.682	62.706	-0.248	0.249
-640.668	-76.799	0.022	0.008
-639.653	-108.753	-0.132	0.028
-638.638	800.000	-0.040	-0.133
-637.624	-136.169	-0.240	-0.028
-636.609	-101.167	-0.369	0.091
-635.595	-110.671	0.141	-0.029
-634.580	121.293	0.088	0.110
-633.565	-85.141	0.476	0.150
-632.551	-132.855	0.055	0.007
-631.536	-81.083	0.234	-0.078
-630.522	-137.573	-0.182	0.021
-629.507	800.000	-0.026	0.104
-628.492	668.291	-0.043	-0.112
-627.478	-92.769	-0.223	-0.063
-626.463	51.245	-0.220	-0.210
-625.449	92.422	-0.139	0.158
-624.434	443.180	0.087	-0.191
-623.419	-122.594	0.133	0.022
-622.405	351.559	-0.070	-0.140
-621.390	39.489	-0.148	0.133
-620.376	176.819	0.166	-0.242
-619.361	-75.096	-0.233	0.084
-618.346	-59.611	0.123	-0.053
-617.332	800.000	0.016	0.057
-616.317	-200.000	0.002	-0.070
-615.303	264.648	-0.173	-0.304
-614.288	-12.955	-0.072	0.047
-613.273	-10.735	-0.160	-0.107
-612.259	-0.761	0.142	-0.101
-611.244	-18.254	0.060	0.038
-610.230	-177.070	-0.274	-0.007
-609.215	213.887	-0.137	0.218
-608.201	800.000	0.055	0.164
-607.186	12.376	0.118	0.091
-606.171	-19.512	-0.113	-0.071
-605.157	-96.629	-0.294	-0.078
-604.142	800.000	0.007	-0.032
-603.128	800.000	0.051	-0.174
-602.113	-200.000	-0.038	-0.262
-601.098	-92.111	-0.131	-0.037
-600.084	-200.000	-0.048	0.383
-599.069	347.339	0.179	0.355
-598.055	23.277	0.080	-0.066
-597.040	-200.000	-0.064	-0.292
-596.025	-200.000	-0.022	-0.194
-595.011	-133.310	-0.269	0.034
-593.996	-200.000	0.058	0.337
-592.982	80.872	0.214	-0.231
-591.967	274.026	-0.079	0.141
-590.952	-42.077	0.428	-0.220
-589.938	-128.671	-0.333	-0.047
-588.923	800.000	-0.013	-0.040
-587.909	145.218	-0.033	0.044
-586.894	-64.423	-0.168	-0.069
-585.879	-36.105	0.260	-0.141
-584.865	32.778	-0.128	-0.111
-583.850	-91.089	0.102	0.029
-582.836	43.443	-0.105	0.097
-581.821	800.000	-0.060	-0.201
-580.806	-200.000	0.079	-0.603
-579.792	-160.360	-0.394	-0.021
-578.777	-171.136	0.218	0.007
-577.763	-4.368	-0.223	-0.155
-576.748	167.091	0.182	-0.259
-575.733	7.065	0.066	0.049
-574.719	69.523	-0.066	-0.068
-573.704	162.607	0.068	0.096
-572.690	-200.000	-0.003	0.267
-571.675	-65.982	-0.273	-0.109
-570.661	800.000	0.015	0.057
-569.646	-200.000	0.021	-0.120
-568.631	320.788	-0.061	0.117
-567.617	-84.280	-0.364	0.116
-566.602	150.424	0.110	-0.150
-565.588	-55.394	0.093	0.042
-564.573	76.946	-0.137	0.146
-563.558	768.980	0.046	0.126
-562.544	28.586	-0.137	0.116
-561.529	-200.000	-0.035	0.272
-560.515	338.247	-0.136	0.265
-559.500	-17.056	0.366	0.232
-558.485	-50.179	-0.176	-0.084
-557.471	-42.703	-0.275	0.140
-556.456	-29.015	0.160	-0.092
-555.442	-36.109	-0.155	-0.084
-554.427	-200.000	-0.076	0.373
-553.412	800.000	-0.025	-0.091
-552.398	-200.000	-0.002	0.166
-551.383	0.433	-0.063	-0.045
-550.369	335.099	-0.117	0.227
-549.354	348.844	0.062	0.122
-548.339	-200.000	-0.032	0.192
-547.325	246.864	0.142	-0.240
-546.310	28.679	-0.097	-0.083
-545.296	-200.000	-0.282	-0.001
-544.281	226.619	0.089	-0.146
-543.266	-200.000	0.003	0.101
-542.252	153.407	0.116	-0.160
-541.237	-100.422	-0.154	0.038
-540.223	398.921	-0.113	0.237
-539.208	-200.000	0.036	-0.180
-538.193	-200.000	-0.017	-0.141
-537.179	212.642	-0.062	0.099
-536.164	56.087	-0.187	-0.181
-535.150	-200.000	-0.068	0.354
-534.135	-60.416	0.276	-0.118
-533.121	800.000	-0.124	-0.430
-532.106	-76.300	-0.129	-0.045
-531.091	79.961	-0.259	-0.279
-530.077	189.808	0.249	-0.374
-529.062	294.883	-0.060	0.109
-528.048	-69.512	-0.147	-0.056
-527.033	-35.286	-0.089	-0.049
-526.018	-20.644	0.188	-0.116
-525.004	800.000	-0.043	-0.148
-523.989	-66.355	0.256	-0.102
-522.975	-200.000	0.073	0.440
-521.960	15.180	-0.253	0.199
-520.945	-19.012	-0.097	0.061
-519.931	188.083	0.169	0.253
-518.916	15.948	0.066	-0.052
-517.902	-200.000	-0.010	-0.072
-516.887	-42.527	0.114	0.058
-515.872	38.059	0.020	0.018
-514.858	-107.694	0.185	0.040
-513.843	-200.000	-0.435	0.002
-512.829	546.907	-0.046	0.109
-511.814	-200.000	-0.041	0.249
-510.799	-70.425	0.148	-0.056
-509.785	307.171	-0.178	0.333
-508.770	-200.000	-0.077	-0.416
-507.756	222.735	-0.219	0.353
-506.741	-200.000	-0.007	-0.252
-505.726	-39.871	-0.142	0.074
-504.712	-87.808	0.138	0.042
-503.697	104.230	0.152	0.179
-502.683	-200.000	0.020	0.242
-501.668	229.496	-0.087	0.143
-500.653	747.991	-0.046	-0.124
-499.639	-192.261	0.236	-0.002
-498.624	-200.000	-0.016	-0.113
-497.610	-74.749	-0.364	-0.131
-496.595	-200.000	-0.024	-0.369
-495.581	800.000	0.029	-0.123
-494.566	26.774	0.180	0.151
-493.551	90.798	0.126	0.141
-492.537	60.640	-0.162	0.160
-491.522	-200.000	-0.040	-0.222
-490.508	-73.826	-0.230	0.083
-489.493	-200.000	0.038	-0.229
-488.478	-64.468	0.110	-0.045
-487.464	-45.111	0.279	-0.139
-486.449	-200.000	0.003	0.195
-485.435	-62.114	-0.138	-0.058
-484.420	800.000	0.084	0.282
-483.405	134.895	-0.188	-0.244
-482.391	-200.000	0.007	0.091
-481.376	399.533	0.102	-0.213
-480.362	662.677	-0.104	0.267
-479.347	-149.629	0.373	-0.029
-478.332	800.000	0.116	0.421
-477.318	-84.064	-0.065	-0.021
-476.303	-66.612	0.150	0.059
-475.289	-200.000	0.074	-0.379
-474.274	-102.577	-0.083	0.020
-473.259	43.624	-0.223	-0.204
-472.245	172.680	0.199	-0.286
-471.230	-54.768	0.132	-0.060
-470.216	-145.051	-0.061	0.006
-469.201	32.191	-0.076	-0.065
-468.186	-152.612	-0.242	0.017
-467.172	14.629	0.130	-0.101
-466.157	-200.000	-0.028	-0.155
-465.143	-118.253	-0.103	-0.018
-464.128	-129.561	0.277	0.038
-463.113	-23.744	-0.024	-0.014
-462.099	-120.552	-0.211	0.036
-461.084	700.003	0.096	0.252
-460.070	7.541	0.079	-0.059
-459.055	104.947	-0.161	-0.190
-458.040	800.000	0.091	-0.263
-457.026	-200.000	-0.006	-0.161
-456.011	-131.934	0.186	-0.024
-454.997	25.927	0.111	-0.092
-453.982	-200.000	0.022	0.248
-452.968	-112.820	-0.255	-0.050
-451.953	800.000	-0.082	0.305
-450.938	-19.183	-0.111	-0.069
-449.924	-33.250	0.132	-0.073
-448.909	19.337	0.160	-0.129
-447.895	565.789	0.095	0.229
-446.880	29.020	-0.156	-0.132
-445.865	-109.881	0.142	-0.030
-444.851	-91.923	0.296	0.084
-443.836	-115.493	0.221	-0.042
-442.822	-200.000	-0.066	-0.392
-441.807	-42.510	-0.110	-0.056
-440.792	132.994	0.085	0.110
-439.778	-36.734	-0.211	-0.113
-438.763	-80.580	-0.295	0.098
-437.749	-130.569	0.352	0.047
-436.734	28.963	-0.090	-0.076
-435.719	800.000	-0.033	0.117
-434.705	89.275	0.071	0.079
-433.690	-184.730	-0.228	-0.004
-432.676	261.212	0.100	-0.173
-431.661	-67.471	-0.175	0.068
-430.646	48.220	-0.067	-0.063
-429.632	695.455	-0.101	-0.265
-428.617	140.380	-0.099	0.130
-427.603	800.000	-0.068	-0.272
-426.588	68.620	0.131	0.135
-425.573	83.577	0.124	0.134
-424.559	-176.519	-0.224	0.006
-423.544	329.952	-0.123	-0.237
-422.530	335.099	0.152	0.293
-421.515	-200.000	-0.007	0.145
-420.500	449.550	0.073	0.160
-419.486	22.012	0.090	0.073
-418.471	-125.301	0.098	0.015
-417.457	-26.167	0.144	0.085
-416.442	83.176	0.043	0.047
-415.428	784.378	0.023	0.063
-414.413	9.450	-0.308	-0.232
-413.398	-39.731	0.154	0.080
-412.384	338.916	0.077	0.150
-411.369	-200.000	-0.034	-0.166
-410.355	-152.332	-0.175	0.013
-409.340	-200.000	0.046	-0.219
-408.325	-128.488	-0.191	-0.027
-407.311	18.233	0.110	0.087
-406.296	-130.157	0.101	-0.014
-405.282	-67.254	-0.204	0.080
-404.267	800.000	0.039	0.139
-403.252	-25.714	0.162	0.095
-402.238	-67.945	0.028	0.011
-401.223	154.044	0.096	-0.131
-400.209	-12.096	0.079	0.051
-399.194	-6.391	0.210	-0.143
-398.179	499.966	0.087	-0.199
-397.165	129.177	0.078	0.099
-396.150	93.312	0.264	-0.298
-395.136	800.000	-0.094	-0.357
-394.121	800.000	-0.098	0.387
-393.106	-96.609	0.055	-0.014
-392.092	800.000	-0.026	-0.105
-391.077	-200.000	0.048	0.394
-390.063	-200.000	-0.032	0.163
-389.048	-200.000	0.060	0.312
-388.033	-104.994	-0.169	0.039
-387.019	141.139	-0.067	-0.088
-386.004	227.412	-0.052	-0.084
-384.990	-47.993	-0.290	0.140
-383.975	-182.625	-0.179	0.003
-382.960	681.352	-0.167	0.432
-381.946	-200.000	0.023	-0.112
-380.931	-132.948	0.136	0.017
-379.917	30.241	-0.096	0.081
-378.902	-96.784	-0.088	0.023
-377.888	-58.995	0.049	0.021
-376.873	146.086	-0.036	0.049
-375.858	800.000	0.036	-0.113
-374.844	-200.000	0.613	0.001
-373.829	181.049	0.102	-0.149
-372.815	-126.122	0.198	-0.030
-371.800	-136.926	-0.056	0.006
-370.785	65.618	0.111	-0.112
-369.771	-200.000	-0.039	0.320
-368.756	377.208	0.053	0.107
-367.742	800.000	0.117	-0.346
-366.727	800.000	0.096	-0.268
-365.712	-200.000	0.021	-0.178
-364.698	148.245	-0.024	0.033
-363.683	-91.168	0.256	0.073
-362.669	-200.000	0.003	0.014
-361.654	-28.152	0.285	-0.164
-360.639	-200.000	-0.005	-0.136
-359.625	219.567	0.141	-0.225
-358.610	261.823	0.150	0.259
-357.596	-36.150	-0.220	-0.118
-356.581	162.911	0.080	-0.112
-355.566	49.738	-0.139	-0.130
-354.552	-26.662	0.285	-0.166
-353.537	800.000	-0.063	0.207
-352.523	-14.642	-0.157	-0.100
-351.508	-19.994	-0.350	0.215
-350.493	55.391	0.035	0.033
-349.479	313.615	-0.089	0.167
-348.464	18.557	-0.193	0.153
-347.450	-200.000	-0.164	0.000
-346.435	-127.516	-0.211	0.030
-345.420	-48.265	0.193	-0.093
-344.406	-200.000	0.025	-0.112
-343.391	-200.000	-0.018	-0.196
-342.377	800.000	0.065	-0.214
-341.362	39.800	0.091	-0.081
-340.348	301.868	-0.059	-0.109
-339.333	800.000	0.059	0.217
-338.318	259.255	-0.072	0.123
-337.304	-97.537	-0.185	0.048
-336.289	-49.038	-0.179	0.085
-335.275	-81.352	0.350	0.115
-334.260	-200.000	0.028	-0.185
-333.245	-43.045	0.157	0.079
-332.231	-38.048	-0.091	0.048
-331.216	-200.000	-0.007	-0.142
-330.202	-1.763	-0.113	-0.079
-329.187	800.000	0.097	0.301
-328.172	800.000	0.021	-0.091
-327.158	-58.247	-0.168	0.073
-326.143	45.736	0.270	0.248
-325.129	800.000	0.128	0.450
-324.114	68.274	0.231	-0.235
-323.099	-114.276	-0.390	-0.075
-322.085	133.938	0.063	-0.081
-321.070	774.286	-0.094	-0.256
-320.056	800.000	-0.111	-0.362
-319.041	199.389	-0.027	-0.041
-318.026	800.000	0.050	-0.159
-317.012	-117.856	0.147	-0.026
-315.997	-38.673	0.220	0.115
-314.983	2.366	0.174	0.125
-313.968	800.000	-0.086	-0.241
-312.953	-122.732	-0.384	0.062
-311.939	800.000	-0.031	0.109
-310.924	-32.222	0.119	-0.066
-309.910	-51.437	-0.259	0.120
-308.895	250.632	0.069	0.117
-307.880	85.789	0.054	-0.059
-306.866	-24.575	0.152	-0.090
-305.851	43.586	-0.061	-0.055
-304.837	-58.037	0.267	0.116
-303.822	-170.164	0.150	0.005
-302.807	-82.364	0.238	0.077
-301.793	-35.679	-0.153	-0.082
-300.778	-36.168	0.334	-0.179
-299.764	182.088	0.269	-0.394
-298.749	8.319	-0.144	0.108
-297.735	416.699	-0.042	-0.089
-296.720	800.000	-0.019	-0.058
-295.705	130.917	-0.217	-0.276
-294.691	-136.007	0.365	0.043
-293.676	138.803	0.096	0.125
-292.662	160.172	0.043	0.060
-291.647	800.000	0.024	-0.076
-290.632	424.359	-0.123	-0.264
-289.618	800.000	-0.051	0.210
-288.603	412.474	0.127	0.267
-287.589	163.336	0.144	-0.200
-286.574	-26.686	0.322	-0.187
-285.559	11.372	-0.462	0.352
-284.545	408.600	-0.126	-0.264
-283.530	800.000	-0.068	0.219
-282.516	-165.871	-0.112	-0.005
-281.501	334.512	-0.129	-0.248
-280.486	-45.560	-0.038	0.019
-279.472	-88.512	0.285	-0.084
-278.457	800.000	-0.092	0.368
-277.443	106.105	0.147	-0.173
-276.428	-200.000	-0.034	-0.193
-275.413	-200.000	0.054	-0.269
-274.399	-101.749	0.370	-0.089
-273.384	-93.607	-0.403	-0.110
-272.370	-200.000	-0.034	-0.273
-271.355	-200.000	-0.000	0.224
-270.340	121.042	0.305	0.377
-269.326	-200.000	-0.028	-0.177
-268.311	11.109	0.171	-0.130
-267.297	-123.505	0.164	0.026
-266.282	400.242	-0.029	-0.061
-265.267	-41.556	-0.113	0.058
-264.253	193.481	0.088	0.132
-263.238	642.158	-0.041	-0.105
-262.224	-83.534	-0.033	-0.011
-261.209	-147.717	0.294	0.024
-260.195	800.000	-0.076	0.214
-259.180	52.429	-0.128	-0.121
-258.165	84.419	0.167	0.181
-257.151	108.862	-0.114	-0.136
-256.136	-97.865	-0.336	0.086
-255.122	-151.351	-0.290	0.021
-254.107	-78.508	-0.110	0.037
-253.092	246.764	-0.082	0.136
-252.078	-107.774	0.363	-0.078
-251.063	-181.451	0.180	0.003
-250.049	-78.466	0.087	0.030
-249.034	2.951	0.271	0.195
-248.019	344.721	-0.118	0.229
-247.005	497.262	0.059	0.135
-245.990	245.934	-0.068	0.113
-244.976	-200.000	-0.024	0.111
-243.961	258.180	-0.073	0.125
-242.946	210.690	0.170	0.265
-241.932	800.000	0.025	-0.075
-240.917	-51.550	-0.111	0.051
-239.903	-200.000	-0.022	-0.158
-238.888	-124.505	-0.139	-0.021
-237.873	-104.574	0.176	-0.040
-236.859	-101.101	0.263	-0.064
-235.844	-66.437	0.383	0.151
-234.830	-125.939	0.075	0.011
-233.815	182.698	-0.201	0.294
-232.800	-75.024	-0.336	0.119
-231.786	-57.117	0.072	-0.031
-230.771	-180.861	-0.137	-0.003
-229.757	8.294	-0.168	-0.125
-228.742	87.246	0.099	0.108
-227.727	74.303	0.060	-0.063
-226.713	-34.272	-0.053	0.029
-225.698	-136.055	-0.261	0.030
-224.684	329.320	-0.116	0.221
-223.669	-200.000	0.002	0.180
-222.655	-67.218	-0.279	0.109
-221.640	159.545	0.204	-0.281
-220.625	4.654	0.076	-0.056
-219.611	-53.242	-0.232	-0.105
-218.596	-109.680	-0.345	-0.072
-217.582	154.407	-0.131	0.178
-216.567	707.822	0.100	0.261
-215.552	-141.967	0.214	-0.021
-214.538	88.504	0.096	0.105
-213.523	-107.003	0.128	-0.028
-212.509	56.654	-0.094	-0.090
-211.494	70.827	0.092	-0.094
-210.479	-52.831	0.401	0.183
-209.465	86.418	0.097	0.105
-208.450	7.924	0.285	-0.212
-207.436	800.000	0.062	-0.242
-206.421	-200.000	0.090	0.000
-205.406	252.783	-0.186	0.315
-204.392	-136.722	0.428	0.049
-203.377	-89.784	-0.325	-0.094
-202.363	62.807	0.139	-0.137
-201.348	-62.519	0.220	-0.090
-200.333	-1.995	0.132	-0.092
-199.319	9.774	-0.138	0.104
-198.304	-190.516	0.188	-0.002
-197.290	19.469	-0.381	0.303
-196.275	46.300	-0.150	0.138
-195.260	255.944	-0.159	0.270
-194.246	41.183	-0.151	0.135
-193.231	-102.442	0.304	0.072
-192.217	-200.000	-0.001	-0.090
-191.202	235.141	-0.014	0.022
-190.187	104.088	0.071	0.082
-189.173	-14.041	-0.268	0.171
-188.158	-183.167	0.310	0.005
-187.144	39.995	-0.171	-0.152
-186.129	-200.000	0.198	0.001
-185.114	70.385	-0.073	0.074
-184.100	450.608	-0.066	-0.144
-183.085	111.680	0.095	0.113
-182.071	41.720	-0.288	0.258
-181.056	-109.477	0.266	0.055
-180.042	-59.509	0.192	0.081
-179.027	-148.501	0.299	-0.024
-178.012	-54.487	-0.173	0.077
-176.998	800.000	0.102	-0.349
-175.983	-200.000	0.004	0.154
-174.969	82.823	-0.106	-0.114
-173.954	-37.453	0.411	-0.217
-172.939	-200.000	-0.005	0.134
-171.925	485.760	0.185	0.417
-170.910	219.741	-0.040	0.063
-169.896	232.724	-0.084	-0.136
-168.881	-200.000	0.023	0.130
-167.866	-90.588	-0.157	-0.045
-166.852	-150.920	0.115	0.009
-165.837	-106.694	-0.190	-0.042
-164.823	800.000	0.140	-0.436
-163.808	-200.000	0.018	-0.142
-162.793	257.649	-0.182	-0.310
-161.779	-200.000	-0.005	0.081
-160.764	-59.167	0.204	0.087
-159.750	-200.000	-0.007	0.171
-158.735	800.000	-0.047	0.147
-157.720	579.179	-0.049	-0.118
-156.706	-200.000	-0.005	0.077
-155.691	10.945	-0.063	0.048
-154.677	-70.956	-0.171	-0.064
-153.662	-108.271	0.221	0.047
-152.647	-156.195	-0.117	0.007
-151.633	16.885	-0.065	0.051
-150.618	800.000	0.070	-0.242
-149.604	800.000	-0.099	-0.361
-148.589	-60.224	0.255	0.107
-147.574	800.000	-0.090	-0.377
-146.560	-153.298	0.209	-0.014
-145.545	-124.793	0.480	0.073
-144.531	-200.000	0.028	-0.267
-143.516	64.256	-0.101	-0.101
-142.502	-195.733	0.143	0.001
-141.487	-96.974	0.175	0.045
-140.472	160.482	0.067	0.093
-139.458	800.000	-0.020	0.057
-138.443	436.459	-0.047	0.102
-137.429	4.583	-0.276	0.200
-136.414	52.703	0.223	-0.210
-135.399	-200.000	-0.065	0.319
-134.385	188.230	-0.111	0.164
-133.370	-186.306	-0.099	-0.001
-132.356	-7.746	0.046	-0.031
-131.341	-117.233	0.240	0.043
-130.326	6.977	-0.271	0.200
-129.312	-200.000	-0.004	0.029
-128.297	-172.306	0.109	-0.003
-127.283	74.766	-0.077	-0.079
-126.268	145.159	-0.110	-0.146
-125.253	15.545	0.085	-0.066
-124.239	267.702	0.190	0.328
-123.224	-184.496	-0.070	-0.001
-122.210	-87.318	-0.325	-0.097
-121.195	-9.351	0.091	-0.060
