DTS Sentinel unit serial number:	SN413079Multiplexer serial number:	ORYXHardware model number:	OX4-SRSoftware version number:	ORYX F/W v4.00 Oryx Data Collector v3.7.2.0data status	okinstallation	princeton_trtdifferential loss correction	single-endedforward channel	channel 1reverse channel	N/Adate	2019/09/14time	21:06:35forward acquisition time	60.00reverse acquisition time	0.00gamma	496.2192k internal	0.2317k external	0.2317temperature offset calibration	1.0013default loss term (dB/km)	0.3790temperature slope calibration	1.0000multiplexer offset coefficient	1.0000multiplexer slope coefficient	1.0000fibre end	0.00T internal ref (°C)	33.06T ext. ref 1 (°C)	4.74T ext. ref 2 (°C)	27.85length (m)	temperature (°C)	Stokes	anti-Stokes-747.200	46.270	0.117	-0.109
-746.185	-18.527	-0.358	0.226
-745.171	-65.200	0.179	0.073
-744.156	-82.609	-0.127	-0.042
-743.142	-40.210	-0.253	-0.133
-742.127	4.297	-0.172	0.128
-741.112	195.400	-0.029	0.044
-740.098	-166.179	0.242	-0.010
-739.083	-64.962	-0.299	-0.122
-738.069	800.000	-0.100	0.387
-737.054	51.113	-0.035	-0.033
-736.039	142.338	-0.090	0.121
-735.025	-200.000	-0.076	0.000
-734.010	800.000	0.044	-0.176
-732.996	206.925	0.139	0.219
-731.981	-129.930	-0.095	-0.013
-730.966	-170.765	-0.151	0.005
-729.952	-200.000	-0.001	0.098
-728.937	563.422	0.116	0.285
-727.923	7.644	-0.118	-0.089
-726.908	174.315	-0.092	-0.135
-725.894	171.663	-0.177	0.257
-724.879	46.734	0.300	0.281
-723.864	-43.712	-0.173	0.088
-722.850	169.560	0.071	0.102
-721.835	-72.597	-0.145	-0.054
-720.821	-85.426	0.123	0.039
-719.806	396.347	-0.167	-0.354
-718.791	89.085	-0.130	0.146
-717.777	-41.278	-0.301	0.157
-716.762	800.000	0.037	0.117
-715.748	146.613	-0.163	-0.222
-714.733	-156.957	-0.276	0.017
-713.718	-103.128	-0.149	0.036
-712.704	-163.240	-0.292	0.014
-711.689	100.893	-0.315	-0.371
-710.675	15.717	-0.121	0.096
-709.660	772.882	-0.091	0.250
-708.645	-200.000	0.027	-0.193
-707.631	800.000	0.037	0.163
-706.616	-194.444	0.287	-0.002
-705.602	98.704	0.139	-0.162
-704.587	-60.465	0.048	-0.021
-703.572	-35.979	-0.012	-0.007
-702.558	800.000	0.036	0.143
-701.543	-76.315	-0.296	-0.105
-700.529	82.872	0.125	0.137
-699.514	489.625	-0.026	-0.059
-698.499	41.863	0.255	0.234
-697.485	56.966	0.097	-0.096
-696.470	-103.356	-0.414	-0.099
-695.456	289.926	-0.050	0.091
-694.441	-21.563	0.146	0.090
-693.426	-200.000	0.049	-0.254
-692.412	188.942	-0.188	-0.285
-691.397	213.848	0.078	0.125
-690.383	372.802	0.026	0.053
-689.368	-94.678	0.129	0.035
-688.354	29.661	-0.279	-0.240
-687.339	-2.425	-0.299	0.212
-686.324	65.310	-0.181	0.184
-685.310	-81.609	-0.374	-0.124
-684.295	97.395	0.037	0.043
-683.281	-63.429	-0.391	-0.162
-682.266	118.193	0.134	0.167
-681.251	-146.427	-0.197	-0.017
-680.237	62.148	0.252	-0.254
-679.222	-200.000	-0.003	-0.017
-678.208	214.344	0.118	-0.188
-677.193	427.799	0.066	-0.144
-676.178	558.180	0.072	0.176
-675.164	260.114	-0.090	-0.157
-674.149	-86.193	-0.251	-0.078
-673.135	244.990	0.095	-0.161
-672.120	-137.918	-0.098	-0.011
-671.105	800.000	0.076	0.248
-670.091	-200.000	-0.104	0.481
-669.076	150.788	-0.163	-0.224
-668.062	800.000	-0.029	-0.107
-667.047	-71.040	0.234	-0.089
-666.032	309.641	0.009	0.017
-665.018	-200.000	-0.021	0.122
-664.003	800.000	-0.023	0.089
-662.989	184.130	0.131	-0.195
-661.974	-17.020	-0.112	-0.071
-660.959	-155.391	0.465	-0.030
-659.945	800.000	-0.049	-0.167
-658.930	36.927	-0.097	0.086
-657.916	-84.224	0.164	0.053
-656.901	172.539	0.151	0.219
-655.886	-200.000	-0.017	0.148
-654.872	103.338	-0.116	0.137
-653.857	800.000	-0.131	-0.444
-652.843	-155.142	-0.173	0.011
-651.828	-200.000	0.018	-0.135
-650.814	-178.636	0.326	-0.008
-649.799	622.212	0.181	-0.459
-648.784	421.354	0.179	0.386
-647.770	253.799	0.062	0.106
-646.755	800.000	-0.009	0.038
-645.741	108.769	0.121	0.146
-644.726	65.512	-0.055	-0.056
-643.711	110.626	-0.163	0.197
-642.697	9.816	-0.119	0.091
-641.682	-73.955	-0.188	0.069
-640.668	800.000	0.136	-0.465
-639.653	115.781	-0.104	0.129
-638.638	-90.643	-0.158	-0.046
-637.624	800.000	0.050	0.217
-636.609	121.063	-0.240	0.301
-635.595	-200.000	-0.020	-0.133
-634.580	-74.855	-0.109	-0.039
-633.565	-122.290	0.062	0.010
-632.551	-100.861	-0.177	0.044
-631.536	-103.551	-0.438	0.104
-630.522	-155.785	0.118	0.008
-629.507	800.000	-0.098	0.417
-628.492	212.441	0.131	-0.209
-627.478	95.592	-0.153	0.176
-626.463	-25.300	-0.126	0.075
-625.449	635.786	0.018	-0.046
-624.434	37.075	0.232	0.207
-623.419	800.000	0.031	-0.128
-622.405	26.856	-0.142	-0.120
-621.390	800.000	-0.082	0.340
-620.376	800.000	-0.046	0.131
-619.361	109.635	-0.081	-0.097
-618.346	-131.620	0.044	0.006
-617.332	-127.669	0.233	-0.034
-616.317	-200.000	-0.017	0.095
-615.303	4.623	0.109	-0.081
-614.288	-142.299	0.222	-0.022
-613.273	800.000	0.063	-0.235
-612.259	42.922	-0.093	-0.085
-611.244	286.841	0.109	0.198
-610.230	-7.013	0.391	-0.267
-609.215	13.801	-0.210	0.165
-608.201	-79.727	-0.072	-0.024
-607.186	800.000	0.012	-0.051
-606.171	573.951	0.088	-0.217
-605.157	-18.092	-0.403	0.254
-604.142	800.000	0.047	-0.180
-603.128	-83.321	0.165	-0.053
-602.113	73.049	0.094	0.099
-601.098	-91.465	0.312	-0.090
-600.084	-200.000	0.058	0.338
-599.069	169.147	-0.266	-0.382
-598.055	349.928	0.050	-0.098
-597.040	-13.845	-0.214	0.140
-596.025	59.609	-0.295	-0.293
-595.011	-81.888	-0.151	-0.050
-593.996	194.585	0.110	-0.168
-592.982	-98.310	0.425	0.110
-591.967	800.000	0.107	-0.313
-590.952	-107.484	-0.384	-0.085
-589.938	40.253	-0.151	-0.136
-588.923	-200.000	0.006	-0.393
-587.909	-1.478	0.087	0.062
-586.894	800.000	-0.020	0.081
-585.879	-200.000	0.026	0.160
-584.865	800.000	-0.123	0.373
-583.850	77.062	-0.221	0.237
-582.836	-115.440	-0.632	-0.120
-581.821	282.447	-0.133	-0.240
-580.806	44.659	0.216	-0.200
-579.792	-154.151	-0.059	0.004
-578.777	-60.890	0.255	0.109
-577.763	-169.069	0.162	-0.006
-576.748	-123.630	0.083	0.013
-575.733	373.523	0.043	-0.088
-574.719	800.000	-0.043	-0.182
-573.704	152.459	-0.111	-0.153
-572.690	32.813	0.212	0.184
-571.675	-89.995	-0.185	0.054
-570.661	-172.507	0.143	-0.005
-569.646	-109.788	0.154	0.032
-568.631	-103.115	0.398	0.095
-567.617	223.553	-0.074	0.119
-566.602	56.749	-0.150	-0.147
-565.588	739.910	0.110	-0.296
-564.573	-121.505	0.182	-0.030
-563.558	33.515	-0.140	-0.122
-562.544	-49.654	-0.124	0.059
-561.529	-125.848	0.340	0.052
-560.515	-84.408	-0.184	-0.059
-559.500	-74.433	-0.411	0.149
-558.485	68.251	-0.079	-0.081
-557.471	-30.082	0.299	0.171
-556.456	177.768	0.027	0.039
-555.442	19.287	-0.044	0.035
-554.427	-177.162	0.257	0.006
-553.412	56.019	-0.223	-0.217
-552.398	-200.000	-0.025	-0.297
-551.383	-168.641	0.256	-0.010
-550.369	-195.787	0.137	-0.001
-549.354	362.216	-0.041	-0.083
-548.339	-136.209	-0.101	-0.012
-547.325	-161.388	-0.137	-0.007
-546.310	108.335	-0.236	-0.282
-545.296	-79.222	0.121	-0.041
-544.281	-63.834	0.207	-0.085
-543.266	-134.281	0.179	-0.022
-542.252	-200.000	0.022	0.116
-541.237	-71.073	-0.247	0.093
-540.223	-192.502	0.296	-0.003
-539.208	340.684	0.105	-0.206
-538.193	41.118	0.207	-0.188
-537.179	-47.507	-0.378	0.185
-536.164	-200.000	0.001	-0.119
-535.150	-123.676	0.131	-0.021
-534.135	87.524	0.056	0.063
-533.121	637.255	-0.039	-0.099
-532.106	524.946	0.136	-0.321
-531.091	-28.329	0.131	-0.076
-530.077	-89.369	-0.018	0.005
-529.062	-48.871	0.091	-0.044
-528.048	272.819	0.090	-0.160
-527.033	-30.998	-0.200	-0.113
-526.018	-122.561	-0.250	0.041
-525.004	503.066	0.165	0.382
-523.989	-200.000	0.026	0.147
-522.975	-200.000	-0.023	-0.281
-521.960	-61.740	-0.139	0.059
-520.945	-34.396	-0.156	-0.086
-519.931	368.979	0.074	0.151
-518.916	-124.545	0.296	-0.046
-517.902	27.029	0.198	-0.167
-516.887	-200.000	-0.014	-0.253
-515.872	-39.834	0.091	0.048
-514.858	-54.755	-0.100	0.045
-513.843	170.936	0.118	0.170
-512.829	-200.000	0.047	0.252
-511.814	-200.000	-0.022	0.187
-510.799	-76.274	-0.127	0.045
-509.785	143.743	-0.058	0.078
-508.770	154.125	-0.153	-0.210
-507.756	-200.000	-0.008	0.216
-506.741	88.274	0.238	0.265
-505.726	94.033	0.058	-0.066
-504.712	1.019	-0.292	-0.210
-503.697	0.010	0.127	-0.091
-502.683	197.571	0.158	0.241
-501.668	50.690	-0.048	-0.045
-500.653	119.908	0.195	0.242
-499.639	207.164	-0.137	0.214
-498.624	18.897	-0.085	-0.069
-497.610	289.214	-0.173	-0.315
-496.595	309.278	-0.038	-0.072
-495.581	-38.830	-0.119	0.063
-494.566	-123.095	-0.230	-0.037
-493.551	86.630	-0.214	-0.236
-492.537	-149.087	-0.411	-0.033
-491.522	121.836	0.021	-0.026
-490.508	-107.317	0.243	-0.054
-489.493	-17.685	-0.311	-0.196
-488.478	-200.000	0.028	-0.237
-487.464	800.000	-0.096	0.336
-486.449	-126.333	0.158	-0.024
-485.435	-200.000	-0.059	0.696
-484.420	-200.000	-0.005	-0.028
-483.405	800.000	-0.034	-0.129
-482.391	-99.026	0.169	0.043
-481.376	33.550	0.151	0.132
-480.362	-137.415	-0.339	0.038
-479.347	-26.872	0.262	-0.154
-478.332	597.888	-0.065	-0.160
-477.318	780.258	-0.045	-0.123
-476.303	-153.599	-0.137	0.010
-475.289	204.559	0.123	-0.192
-474.274	72.915	-0.089	-0.093
-473.259	-56.377	-0.298	0.133
-472.245	506.099	-0.055	-0.128
-471.230	-154.390	0.420	0.028
-470.216	-163.866	0.193	-0.009
-469.201	-200.000	-0.055	-0.502
-468.186	-127.974	-0.352	-0.051
-467.172	156.552	0.130	0.179
-466.157	-20.783	0.277	-0.170
-465.143	73.250	-0.270	0.283
-464.128	53.573	-0.095	0.092
-463.113	368.640	-0.044	0.089
-462.099	-77.905	-0.146	0.050
-461.084	-134.194	-0.141	0.017
-460.070	-168.067	-0.133	0.005
-459.055	27.333	-0.219	-0.184
-458.040	196.441	-0.168	-0.255
-457.026	-14.268	-0.304	0.196
-456.011	-107.949	0.114	0.025
-454.997	-126.767	-0.374	-0.055
-453.982	67.149	-0.310	0.316
-452.968	-116.617	0.191	-0.035
-451.953	-200.000	-0.053	0.328
-450.938	-200.000	-0.034	-0.286
-449.924	166.898	-0.120	-0.171
-448.909	183.601	0.237	-0.351
-447.895	-200.000	-0.021	0.207
-446.880	-200.000	0.004	-0.052
-445.865	-107.775	-0.310	0.068
-444.851	60.606	0.150	0.148
-443.836	-8.047	-0.090	-0.061
-442.822	800.000	-0.081	-0.327
-441.807	-79.166	0.391	0.133
-440.792	-146.310	-0.282	-0.025
-439.778	51.874	0.351	0.334
-438.763	-155.119	0.434	0.028
-437.749	271.841	0.049	0.086
-436.734	-5.876	0.132	0.090
-435.719	239.679	-0.128	0.213
-434.705	-120.240	-0.260	0.044
-433.690	318.245	-0.069	0.131
-432.676	-60.925	-0.257	0.109
-431.661	-200.000	0.034	-0.188
-430.646	-75.311	-0.230	0.082
-429.632	800.000	0.094	-0.295
-428.617	39.397	0.055	-0.049
-427.603	-17.066	0.202	0.128
-426.588	-200.000	-0.003	0.189
-425.573	108.362	0.216	-0.258
-424.559	-162.141	0.298	-0.015
-423.544	800.000	-0.064	-0.218
-422.530	800.000	0.160	-0.456
-421.515	392.164	-0.155	-0.323
-420.500	-59.559	-0.427	-0.183
-419.486	-177.311	0.078	-0.002
-418.471	-126.749	0.285	-0.042
-417.457	-112.759	0.143	-0.028
-416.442	-0.758	0.252	-0.179
-415.428	743.539	-0.093	0.249
-414.413	449.675	0.080	-0.177
-413.398	-200.000	-0.042	0.278
-412.384	2.176	0.140	0.101
-411.369	-104.963	-0.194	-0.044
-410.355	-200.000	-0.069	0.416
-409.340	208.109	0.132	-0.206
-408.325	-113.739	0.323	0.063
-407.311	-165.913	0.208	-0.009
-406.296	337.038	0.017	0.033
-405.282	-43.485	-0.222	-0.112
-404.267	-80.650	0.119	-0.040
-403.252	682.040	0.051	-0.132
-402.238	-200.000	-0.093	0.545
-401.223	163.283	-0.080	-0.113
-400.209	-200.000	-0.003	0.048
-399.194	348.577	-0.112	0.220
-398.179	-163.131	0.205	-0.010
-397.165	-155.152	-0.152	0.010
-396.150	77.751	-0.057	0.060
-395.136	162.108	0.044	-0.061
-394.121	-65.497	0.246	-0.099
-393.106	-84.465	-0.076	-0.024
-392.092	675.465	-0.130	-0.337
-391.077	-62.590	0.208	0.086
-390.063	-144.607	0.292	0.027
-389.048	-200.000	0.013	-0.215
-388.033	-200.000	-0.030	-0.165
-387.019	-81.150	-0.179	0.059
-386.004	-45.346	-0.154	-0.076
-384.990	-55.578	-0.226	0.101
-383.975	581.678	-0.113	-0.277
-382.960	491.334	-0.014	0.032
-381.946	52.057	0.044	-0.041
-380.931	54.707	-0.072	0.070
-379.917	-170.598	0.181	0.006
-378.902	-169.921	-0.071	0.003
-377.888	168.275	-0.053	-0.075
-376.873	82.146	0.172	0.186
-375.858	-84.172	0.259	-0.082
-374.844	378.786	-0.131	-0.267
-373.829	-143.321	-0.232	0.022
-372.815	81.404	0.262	-0.283
-371.800	-200.000	-0.003	-0.166
-370.785	-121.301	-0.268	-0.045
-369.771	-50.047	-0.234	-0.111
-368.756	-50.828	0.170	-0.080
-367.742	-6.535	-0.050	0.034
-366.727	455.728	-0.047	-0.104
-365.712	-9.263	-0.064	-0.043
-364.698	800.000	-0.120	-0.445
-363.683	800.000	-0.126	-0.350
-362.669	197.310	0.116	0.177
-361.654	193.292	-0.150	0.226
-360.639	-74.342	-0.053	-0.019
-359.625	42.952	0.284	0.258
-358.610	11.127	0.064	0.049
-357.596	107.030	-0.209	0.248
-356.581	18.933	-0.088	0.070
-355.566	45.486	-0.237	0.218
-354.552	-200.000	0.011	-0.087
-353.537	-137.384	-0.133	0.015
-352.523	-200.000	0.022	-0.162
-351.508	-200.000	0.143	0.000
-350.493	-200.000	-0.067	0.352
-349.479	-200.000	-0.006	0.159
-348.464	-200.000	0.024	-0.166
-347.450	352.425	-0.113	-0.223
-346.435	-166.942	0.152	-0.006
-345.420	-45.322	0.220	-0.109
-344.406	-55.972	0.052	-0.023
-343.391	-4.009	-0.134	0.093
-342.377	230.168	0.044	-0.071
-341.362	80.596	0.164	-0.176
-340.348	3.186	-0.311	0.226
-339.333	-183.250	0.401	0.007
-338.318	-200.000	0.039	0.188
-337.304	36.720	-0.044	-0.039
-336.289	-200.000	-0.011	-0.241
-335.275	24.509	0.189	0.156
-334.260	-200.000	0.035	-0.181
-333.245	800.000	-0.073	-0.249
-332.231	-101.203	-0.119	-0.029
-331.216	-110.477	0.374	0.077
-330.202	-149.336	-0.176	-0.014
-329.187	488.140	-0.115	-0.261
-328.172	98.048	0.094	-0.108
-327.158	-126.316	0.231	-0.034
-326.143	79.752	0.248	0.265
-325.129	286.506	0.224	0.403
-324.114	-140.022	-0.174	0.018
-323.099	800.000	-0.160	0.490
-322.085	-60.888	0.302	0.127
-321.070	-118.756	-0.153	0.027
-320.056	-17.563	0.113	-0.071
-319.041	14.700	-0.143	-0.111
-318.026	57.349	0.052	0.050
-317.012	180.812	-0.211	0.308
-315.997	-200.000	-0.041	-0.191
-314.983	63.433	0.083	0.083
-313.968	73.810	-0.036	-0.038
-312.953	319.311	0.025	0.047
-311.939	-102.450	-0.021	-0.005
-310.924	-200.000	-0.001	-0.161
-309.910	-134.080	-0.111	0.014
-308.895	41.195	-0.079	0.071
-307.880	-32.724	-0.225	0.125
-306.866	171.168	-0.097	0.139
-305.851	55.043	0.153	0.147
-304.837	114.357	-0.034	-0.041
-303.822	-123.279	0.184	0.029
-302.807	469.079	-0.160	0.358
-301.793	-33.534	0.142	-0.078
-300.778	-200.000	0.020	-0.291
-299.764	-200.000	0.049	-0.216
-298.749	-104.570	0.255	0.059
-297.735	-200.000	-0.047	0.222
-296.720	-94.460	-0.111	0.030
-295.705	467.155	0.034	-0.075
-294.691	746.995	-0.050	0.134
-293.676	60.255	0.201	0.198
-292.662	800.000	0.092	-0.278
-291.647	-99.099	0.468	0.118
-290.632	-200.000	0.051	-0.279
-289.618	11.378	0.189	-0.144
-288.603	-43.052	0.132	0.066
-287.589	-85.849	-0.183	-0.056
-286.574	53.291	-0.127	-0.121
-285.559	-200.000	0.001	-0.010
-284.545	359.892	-0.119	-0.236
-283.530	380.803	0.035	0.072
-282.516	-200.000	-0.006	0.239
-281.501	-145.360	-0.109	-0.010
-280.486	-131.001	-0.291	0.039
-279.472	-200.000	0.008	0.228
-278.457	-98.150	-0.096	-0.025
-277.443	344.305	0.115	-0.224
-276.428	-46.424	0.349	-0.171
-275.413	14.743	-0.104	-0.081
-274.399	-75.273	-0.201	0.071
-273.384	213.968	-0.239	0.375
-272.370	35.243	-0.061	0.053
-271.355	-200.000	0.022	-0.266
-270.340	-86.945	-0.198	-0.060
-269.326	-34.927	0.044	0.024
-268.311	-200.000	0.016	-0.147
-267.297	-90.705	0.177	0.051
-266.282	-200.000	-0.029	0.194
-265.267	-200.000	0.001	0.012
-264.253	58.856	-0.093	0.091
-263.238	136.451	0.196	0.255
-262.224	-169.685	-0.162	0.006
-261.209	250.977	-0.130	0.220
-260.195	-200.000	0.019	-0.112
-259.180	141.619	-0.270	0.356
-258.165	-200.000	0.043	-0.317
-257.151	105.011	-0.061	0.072
-256.136	43.379	0.321	0.291
-255.122	-200.000	-0.035	0.254
-254.107	-35.176	0.400	-0.216
-253.092	559.419	-0.033	0.080
-252.078	-200.000	-0.003	0.139
-251.063	-151.305	0.206	-0.015
-250.049	-63.854	0.137	0.056
-249.034	-170.402	-0.234	-0.008
-248.019	-200.000	-0.006	-0.115
-247.005	17.934	0.236	0.186
-245.990	3.738	-0.224	-0.163
-244.976	8.179	0.136	0.102
-243.961	800.000	-0.096	0.386
-242.946	-200.000	0.012	-0.166
-241.932	-7.549	0.139	-0.094
-240.917	22.969	0.163	-0.132
-239.903	-119.780	-0.189	0.032
-238.888	800.000	-0.052	0.164
-237.873	729.628	-0.104	0.275
-236.859	-8.573	-0.239	0.159
-235.844	223.206	-0.058	-0.093
-234.830	36.608	-0.130	-0.114
-233.815	-44.224	0.218	-0.109
-232.800	178.711	-0.109	0.159
-231.786	-39.730	-0.280	-0.145
-230.771	62.738	0.056	-0.055
-229.757	-173.381	-0.347	0.010
-228.742	7.213	0.242	0.179
-227.727	-189.793	0.219	-0.002
-226.713	162.555	-0.034	0.047
-225.698	-77.556	0.112	-0.039
-224.684	-31.112	-0.081	-0.045
-223.669	-13.173	0.170	-0.110
-222.655	-200.000	0.023	-0.106
-221.640	-110.676	-0.230	0.047
-220.625	32.786	0.129	-0.111
-219.611	-7.547	0.387	0.260
-218.596	800.000	0.063	-0.219
-217.582	-149.552	0.527	0.041
-216.567	-200.000	0.067	0.330
-215.552	-69.141	-0.194	0.074
-214.538	-200.000	0.044	0.316
-213.523	15.369	-0.151	0.117
-212.509	372.784	0.120	-0.241
-211.494	181.357	0.053	-0.077
-210.479	-170.606	-0.186	0.006
-209.465	89.494	0.166	-0.184
-208.450	-91.590	-0.176	0.050
-207.436	330.673	-0.157	0.300
-206.421	13.632	0.219	-0.169
-205.406	509.378	-0.115	0.266
-204.392	-16.551	0.150	-0.094
-203.377	-200.000	-0.017	-0.145
-202.363	800.000	0.051	-0.143
-201.348	-106.793	0.265	-0.058
-200.333	800.000	-0.042	0.172
-199.319	145.732	-0.125	-0.167
-198.304	37.665	0.243	-0.214
-197.290	-110.648	0.065	0.013
-196.275	268.326	0.073	0.127
-195.260	-200.000	-0.005	-0.121
-194.246	-200.000	0.003	0.049
-193.231	-200.000	-0.014	0.071
-192.217	-103.671	0.155	-0.036
-191.202	-200.000	0.020	-0.099
-190.187	-80.067	-0.156	-0.052
-189.173	194.534	0.077	0.116
-188.158	10.389	-0.205	0.155
-187.144	800.000	0.037	0.102
-186.129	-82.601	0.064	-0.021
-185.114	-77.431	-0.267	-0.092
-184.100	-200.000	0.002	-0.178
-183.085	-125.953	0.155	-0.023
-182.071	-200.000	-0.055	-0.275
-181.056	800.000	-0.080	-0.255
-180.042	91.471	0.158	0.176
-179.027	743.693	0.007	-0.019
-178.012	-158.300	0.051	-0.003
-176.998	81.674	0.220	0.236
-175.983	-200.000	-0.009	0.062
-174.969	-14.495	-0.227	-0.145
-173.954	-200.000	-0.008	0.107
-172.939	-130.867	0.192	-0.025
-171.925	-41.494	-0.031	0.016
-170.910	106.561	-0.083	-0.098
-169.896	423.246	-0.108	0.230
-168.881	258.966	0.123	-0.210
-167.866	800.000	0.071	0.252
-166.852	260.462	0.140	0.240
-165.837	57.153	0.222	0.215
-164.823	800.000	0.009	0.032
-163.808	-200.000	-0.100	0.500
-162.793	150.385	-0.077	-0.103
-161.779	-200.000	-0.007	-0.229
-160.764	-137.764	-0.564	0.063
-159.750	-200.000	0.220	-0.001
-158.735	-200.000	-0.006	0.155
-157.720	212.537	0.197	-0.308
-156.706	147.762	0.132	0.176
-155.691	-48.765	-0.136	0.065
-154.677	-64.808	0.322	0.129
-153.662	245.028	0.115	0.192
-152.647	-84.786	-0.204	0.064
-151.633	-12.501	-0.387	-0.250
-150.618	-124.809	0.261	0.040
-149.604	-20.682	0.157	0.095
-148.589	525.101	0.188	-0.438
-147.574	-177.079	-0.426	0.011
-146.560	-44.014	0.192	-0.095
-145.545	32.755	0.192	0.164
-144.531	-200.000	-0.028	-0.435
-143.516	-133.315	-0.249	0.031
-142.502	625.077	0.072	-0.179
-141.487	147.900	0.058	0.078
-140.472	93.695	-0.131	0.147
-139.458	-35.262	0.049	0.027
-138.443	-99.034	0.200	0.050
-137.429	-162.048	-0.110	-0.005
-136.414	-200.000	0.009	-0.294
-135.399	-19.406	0.118	-0.073
-134.385	-20.426	0.233	-0.142
-133.370	-63.550	-0.101	-0.041
-132.356	353.107	0.166	-0.325
-131.341	232.784	0.064	-0.104
-130.326	-200.000	-0.027	-0.271
-129.312	-46.167	-0.161	0.078
-128.297	239.209	0.049	-0.081
-127.283	-180.621	-0.264	0.005
-126.268	56.847	-0.108	-0.104
-125.253	800.000	0.036	-0.122
-124.239	69.590	-0.053	0.054
-123.224	-200.000	-0.014	0.378
-122.210	-200.000	-0.003	0.155
