DTS Sentinel unit serial number:	SN413079Multiplexer serial number:	ORYXHardware model number:	OX4-SRSoftware version number:	ORYX F/W v4.00 Oryx Data Collector v3.7.2.0data status	okinstallation	princeton_trtdifferential loss correction	single-endedforward channel	channel 1reverse channel	N/Adate	2019/09/14time	00:42:35forward acquisition time	60.00reverse acquisition time	0.00gamma	496.2192k internal	0.2337k external	0.2337temperature offset calibration	1.0077default loss term (dB/km)	0.3790temperature slope calibration	1.0000multiplexer offset coefficient	1.0000multiplexer slope coefficient	1.0000fibre end	0.00T internal ref (°C)	26.44T ext. ref 1 (°C)	3.16T ext. ref 2 (°C)	21.00length (m)	temperature (°C)	Stokes	anti-Stokes-747.200	800.000	0.081	0.281
-746.185	800.000	-0.069	-0.218
-745.171	15.015	0.171	-0.134
-744.156	-52.983	-0.294	-0.136
-743.142	800.000	0.029	0.109
-742.127	141.421	-0.134	0.178
-741.112	-29.515	0.217	-0.125
-740.098	-200.000	-0.033	0.355
-739.083	115.705	0.025	0.031
-738.069	-162.060	-0.320	0.016
-737.054	-200.000	-0.023	-0.104
-736.039	702.331	-0.011	0.029
-735.025	-200.000	-0.022	-0.101
-734.010	39.814	-0.205	-0.185
-732.996	-60.502	-0.029	0.012
-731.981	509.073	0.061	0.142
-730.966	732.054	0.018	-0.047
-729.952	800.000	0.052	-0.217
-728.937	-109.940	-0.174	-0.037
-727.923	4.050	-0.159	-0.117
-726.908	800.000	0.134	-0.371
-725.894	-53.600	-0.155	0.071
-724.879	-67.771	0.165	-0.065
-723.864	-119.000	-0.184	-0.032
-722.850	-200.000	-0.040	-0.331
-721.835	-200.000	-0.102	-0.509
-720.821	147.413	-0.069	0.093
-719.806	123.046	-0.288	-0.362
-718.791	2.127	-0.136	-0.098
-717.777	20.052	-0.104	0.084
-716.762	-154.647	-0.340	-0.023
-715.748	-86.615	-0.128	-0.039
-714.733	-200.000	-0.001	-0.120
-713.718	196.793	-0.165	-0.253
-712.704	-117.083	0.065	0.012
-711.689	-173.435	0.360	-0.011
-710.675	48.053	-0.154	0.144
-709.660	-155.857	0.082	-0.005
-708.645	64.562	-0.263	-0.265
-707.631	-104.660	-0.081	-0.019
-706.616	800.000	0.033	-0.094
-705.602	272.208	0.151	0.267
-704.587	-44.510	-0.261	-0.131
-703.572	196.497	0.021	-0.032
-702.558	-125.867	-0.159	0.024
-701.543	234.004	0.009	0.015
-700.529	110.584	-0.212	0.256
-699.514	124.169	0.143	0.180
-698.499	194.626	-0.056	-0.085
-697.485	-170.400	-0.138	0.005
-696.470	-75.741	0.440	0.156
-695.456	181.830	0.171	-0.252
-694.441	-101.445	-0.382	-0.093
-693.426	-100.521	0.083	-0.021
-692.412	210.184	0.185	0.291
-691.397	-200.000	0.025	-0.223
-690.383	800.000	0.118	-0.331
-689.368	-200.000	-0.061	-0.495
-688.354	724.559	0.020	-0.055
-687.339	800.000	-0.027	0.112
-686.324	539.274	-0.091	-0.216
-685.310	-200.000	0.008	-0.271
-684.295	238.555	0.082	-0.136
-683.281	63.571	0.344	-0.346
-682.266	-91.906	-0.269	-0.076
-681.251	9.078	-0.237	-0.179
-680.237	-127.238	-0.366	-0.054
-679.222	-200.000	0.018	-0.292
-678.208	455.220	-0.039	0.087
-677.193	32.173	-0.170	0.147
-676.178	363.633	-0.053	-0.107
-675.164	681.980	-0.101	-0.262
-674.149	378.377	-0.139	0.284
-673.135	-128.878	0.158	-0.022
-672.120	-69.711	-0.110	0.042
-671.105	-200.000	-0.008	0.112
-670.091	440.597	0.033	-0.071
-669.076	5.059	-0.165	0.121
-668.062	800.000	0.004	0.012
-667.047	-9.960	-0.137	-0.091
-666.032	-9.664	0.171	-0.114
-665.018	-181.667	-0.187	-0.004
-664.003	365.236	-0.169	-0.341
-662.989	-200.000	0.003	-0.190
-661.974	219.424	-0.015	0.023
-660.959	-134.343	-0.350	-0.043
-659.945	-85.108	-0.124	0.039
-658.930	-0.348	0.293	-0.208
-657.916	-200.000	-0.013	-0.066
-656.901	37.393	0.169	0.150
-655.886	-143.068	0.395	0.038
-654.872	72.634	-0.290	0.302
-653.857	-200.000	0.022	-0.218
-652.843	800.000	-0.041	-0.121
-651.828	-169.550	-0.097	-0.004
-650.814	305.354	-0.080	-0.148
-649.799	-104.027	0.161	-0.038
-648.784	31.694	-0.044	0.038
-647.770	411.424	-0.086	0.182
-646.755	-25.376	-0.378	0.223
-645.741	-200.000	0.007	-0.090
-644.726	-40.421	0.051	-0.026
-643.711	-72.521	0.095	0.035
-642.697	-200.000	0.046	-0.280
-641.682	-50.705	-0.169	-0.079
-640.668	-200.000	0.033	0.242
-639.653	145.205	-0.208	-0.278
-638.638	-36.594	0.166	0.089
-637.624	74.020	0.317	0.333
-636.609	-200.000	-0.042	0.196
-635.595	-81.859	-0.289	0.095
-634.580	93.688	-0.121	0.137
-633.565	-88.919	0.409	-0.121
-632.551	216.127	0.280	-0.444
-631.536	800.000	-0.070	-0.249
-630.522	-73.380	-0.381	-0.139
-629.507	621.231	-0.167	-0.420
-628.492	-15.991	0.152	-0.096
-627.478	8.595	0.124	-0.093
-626.463	56.803	-0.022	0.021
-625.449	0.399	-0.295	0.210
-624.434	92.667	0.180	0.203
-623.419	600.956	-0.133	-0.330
-622.405	-78.028	0.301	-0.103
-621.390	39.388	0.121	0.108
-620.376	800.000	0.034	0.137
-619.361	-86.256	-0.067	0.021
-618.346	-73.315	-0.120	-0.044
-617.332	-200.000	-0.010	-0.117
-616.317	-18.695	0.198	-0.124
-615.303	36.102	-0.274	0.241
-614.288	-12.550	0.153	0.099
-613.273	-200.000	0.011	0.063
-612.259	40.852	0.047	-0.042
-611.244	800.000	-0.126	-0.465
-610.230	101.550	-0.267	-0.311
-609.215	-31.505	0.296	-0.166
-608.201	194.054	-0.157	0.237
-607.186	-71.584	-0.205	-0.076
-606.171	129.312	-0.094	-0.120
-605.157	5.524	0.112	0.083
-604.142	47.975	0.050	0.047
-603.128	-42.716	-0.231	0.117
-602.113	-93.858	-0.197	-0.054
-601.098	219.961	0.093	-0.149
-600.084	225.269	-0.158	0.255
-599.069	-109.577	-0.298	-0.063
-598.055	226.956	0.103	-0.166
-597.040	121.003	-0.165	-0.205
-596.025	-200.000	0.059	0.320
-595.011	-99.288	0.097	0.025
-593.996	118.538	-0.220	-0.271
-592.982	-200.000	-0.003	-0.119
-591.967	381.859	-0.108	-0.221
-590.952	-3.012	0.049	-0.034
-589.938	-120.650	0.334	0.056
-588.923	212.203	-0.163	0.257
-587.909	-27.906	0.186	0.107
-586.894	126.387	0.065	0.082
-585.879	800.000	0.097	0.400
-584.865	-200.000	0.043	0.235
-583.850	-110.160	0.204	0.042
-582.836	-200.000	-0.006	0.180
-581.821	-200.000	0.000	-0.124
-580.806	-82.832	-0.105	0.034
-579.792	800.000	0.087	-0.280
-578.777	-108.072	0.084	-0.018
-577.763	330.734	-0.122	0.234
-576.748	-85.498	-0.242	-0.075
-575.733	39.903	0.061	-0.055
-574.719	-119.621	0.232	0.040
-573.704	800.000	0.115	-0.367
-572.690	170.955	-0.015	0.021
-571.675	-200.000	-0.033	-0.172
-570.661	-104.884	0.163	-0.037
-569.646	800.000	0.089	-0.286
-568.631	-112.854	-0.456	-0.090
-567.617	54.941	-0.112	-0.108
-566.602	-49.100	-0.134	-0.064
-565.588	-57.755	-0.214	-0.094
-564.573	9.573	0.197	-0.148
-563.558	211.953	-0.168	0.263
-562.544	636.558	-0.092	-0.234
-561.529	-8.416	-0.111	0.075
-560.515	-200.000	-0.109	-0.476
-559.500	-24.154	-0.207	0.123
-558.485	-13.549	0.168	-0.108
-557.471	62.089	0.325	0.323
-556.456	-200.000	0.014	0.107
-555.442	-29.924	0.022	0.012
-554.427	220.982	0.190	0.304
-553.412	-188.472	-0.231	-0.003
-552.398	268.197	0.229	-0.400
-551.383	125.845	-0.106	0.133
-550.369	-2.728	0.080	-0.056
-549.354	-197.069	-0.240	-0.002
-548.339	703.469	-0.125	0.329
-547.325	-88.232	-0.328	-0.098
-546.310	-75.411	-0.223	-0.079
-545.296	465.050	-0.141	-0.313
-544.281	35.746	-0.175	-0.153
-543.266	-200.000	0.024	-0.108
-542.252	-38.810	-0.093	-0.049
-541.237	298.525	-0.139	0.255
-540.223	172.152	0.183	0.262
-539.208	-200.000	0.005	0.071
-538.193	800.000	0.055	-0.208
-537.179	385.566	-0.242	-0.498
-536.164	-148.842	0.270	0.022
-535.150	-200.000	-0.022	-0.119
-534.135	-200.000	-0.033	-0.160
-533.121	-200.000	-0.009	-0.228
-532.106	-39.413	0.323	-0.169
-531.091	330.969	0.124	0.238
-530.077	-16.812	0.258	-0.163
-529.062	139.671	0.046	0.060
-528.048	800.000	0.045	-0.146
-527.033	88.321	-0.025	-0.028
-526.018	-57.737	0.348	-0.152
-525.004	196.742	0.051	-0.078
-523.989	-164.092	0.128	-0.006
-522.975	-200.000	-0.055	-0.257
-521.960	24.609	0.199	0.164
-520.945	800.000	-0.013	-0.047
-519.931	161.909	0.114	0.159
-518.916	-33.531	-0.341	-0.188
-517.902	269.951	0.065	0.114
-516.887	800.000	-0.066	0.228
-515.872	800.000	-0.015	0.047
-514.858	-200.000	0.379	-0.001
-513.843	233.007	0.043	0.071
-512.829	73.427	-0.223	-0.232
-511.814	646.470	-0.079	-0.201
-510.799	-200.000	-0.051	-0.229
-509.785	-166.201	-0.223	0.009
-508.770	800.000	-0.072	0.198
-507.756	95.934	-0.163	-0.186
-506.741	96.164	0.055	-0.063
-505.726	-73.874	-0.121	0.044
-504.712	34.389	0.095	0.083
-503.697	15.349	-0.081	-0.063
-502.683	-188.010	0.228	0.003
-501.668	122.692	-0.043	0.053
-500.653	-200.000	-0.015	-0.125
-499.639	-22.177	-0.424	-0.256
-498.624	704.261	0.071	0.186
-497.610	-60.848	0.309	0.130
-496.595	-200.000	-0.115	0.507
-495.581	-78.216	-0.283	-0.097
-494.566	-12.637	-0.041	-0.027
-493.551	-200.000	0.006	-0.182
-492.537	-200.000	-0.027	0.185
-491.522	800.000	0.064	-0.245
-490.508	20.456	0.224	-0.180
-489.493	129.149	-0.119	-0.151
-488.478	-200.000	-0.044	0.221
-487.464	-43.435	-0.157	-0.079
-486.449	530.118	0.102	-0.240
-485.435	-137.967	-0.086	0.010
-484.420	-60.802	-0.247	-0.104
-483.405	-164.839	0.081	0.004
-482.391	-200.000	0.072	-0.452
-481.376	-200.000	0.008	0.123
-480.362	60.128	-0.135	-0.133
-479.347	41.651	-0.144	0.130
-478.332	120.816	0.124	0.153
-477.318	10.769	0.131	0.099
-476.303	-76.064	-0.150	0.053
-475.289	-164.638	0.258	0.012
-474.274	-52.245	0.270	-0.124
-473.259	141.422	0.093	-0.122
-472.245	-200.000	0.025	0.346
-471.230	-117.654	-0.191	-0.034
-470.216	-9.522	0.055	-0.037
-469.201	350.828	-0.107	-0.210
-468.186	-200.000	-0.061	0.374
-467.172	202.151	0.207	-0.317
-466.157	-200.000	-0.010	-0.084
-465.143	-197.557	-0.359	-0.002
-464.128	138.094	-0.030	-0.040
-463.113	169.058	0.052	0.073
-462.099	97.980	-0.067	0.076
-461.084	-154.751	0.183	0.012
-460.070	-77.255	-0.051	-0.018
-459.055	800.000	0.107	0.312
-458.040	211.243	0.154	-0.241
-457.026	528.017	0.062	-0.146
-456.011	-88.690	0.208	0.061
-454.997	240.964	0.085	0.141
-453.982	-183.051	0.180	-0.003
-452.968	174.979	-0.058	-0.083
-451.953	30.212	-0.351	-0.297
-450.938	41.033	0.259	-0.232
-449.924	-104.514	-0.125	0.029
-448.909	-56.729	0.183	-0.080
-447.895	-77.071	0.247	-0.086
-446.880	-200.000	0.028	0.352
-445.865	-140.826	0.287	-0.029
-444.851	-200.000	-0.009	0.180
-443.836	-60.455	0.260	0.110
-442.822	-25.411	-0.043	0.025
-441.807	-200.000	-0.023	0.124
-440.792	563.370	0.078	0.188
-439.778	388.012	0.153	-0.315
-438.763	-200.000	-0.014	0.110
-437.749	-108.757	0.351	-0.074
-436.734	461.821	-0.096	0.213
-435.719	-88.066	-0.385	-0.115
-434.705	55.898	-0.093	0.090
-433.690	8.417	-0.164	-0.122
-432.676	-84.244	0.122	0.038
-431.661	431.991	-0.016	-0.034
-430.646	153.120	0.155	0.211
-429.632	-200.000	0.003	0.137
-428.617	-32.616	0.418	-0.231
-427.603	-186.016	-0.065	-0.001
-426.588	29.000	-0.134	-0.112
-425.573	800.000	-0.033	0.134
-424.559	102.176	0.281	0.325
-423.544	-121.330	0.228	-0.038
-422.530	800.000	0.041	-0.128
-421.515	-127.627	-0.191	0.027
-420.500	137.227	-0.151	-0.195
-419.486	-125.802	0.342	-0.051
-418.471	216.955	-0.133	-0.210
-417.457	-52.684	0.208	-0.095
-416.442	49.275	-0.237	0.221
-415.428	20.602	0.327	0.262
-414.413	-200.000	0.061	0.447
-413.398	579.186	-0.051	0.123
-412.384	-200.000	-0.016	-0.124
-411.369	800.000	0.092	0.371
-410.355	-159.507	-0.367	0.020
-409.340	-200.000	0.032	-0.266
-408.325	148.520	0.086	0.115
-407.311	592.841	-0.079	0.193
-406.296	564.205	0.108	-0.259
-405.282	-75.071	-0.385	0.137
-404.267	121.589	0.123	-0.152
-403.252	447.043	0.125	-0.272
-402.238	-200.000	-0.005	-0.130
-401.223	800.000	0.073	-0.316
-400.209	800.000	-0.048	0.145
-399.194	176.729	0.118	0.169
-398.179	308.098	-0.181	0.334
-397.165	800.000	0.058	0.217
-396.150	313.021	-0.102	0.189
-395.136	2.111	0.127	-0.091
-394.121	-83.899	0.266	-0.084
-393.106	-200.000	0.012	0.113
-392.092	173.800	0.037	0.053
-391.077	-200.000	0.013	0.228
-390.063	-48.450	0.204	-0.097
-389.048	64.696	-0.232	-0.232
-388.033	-131.252	0.255	-0.034
-387.019	800.000	0.062	0.187
-386.004	198.246	-0.043	0.064
-384.990	-118.474	0.195	0.034
-383.975	800.000	0.084	-0.239
-382.960	116.828	-0.079	0.096
-381.946	-200.000	0.008	-0.131
-380.931	-24.265	-0.303	0.179
-379.917	148.238	-0.102	-0.136
-378.902	-136.703	-0.216	-0.025
-377.888	330.703	-0.185	-0.352
-376.873	-48.508	0.594	0.283
-375.858	59.957	0.057	0.055
-374.844	-69.948	-0.361	-0.136
-373.829	210.522	-0.216	-0.336
-372.815	72.620	0.106	-0.110
-371.800	-200.000	0.041	0.270
-370.785	90.742	-0.075	-0.083
-369.771	-200.000	-0.040	0.292
-368.756	-93.567	0.127	-0.035
-367.742	119.204	-0.083	0.102
-366.727	294.118	0.067	0.121
-365.712	-133.512	0.142	-0.018
-364.698	-43.829	-0.203	-0.101
-363.683	663.647	0.141	0.359
-362.669	-4.077	-0.167	0.114
-361.654	-129.278	0.260	0.036
-360.639	-1.866	0.218	-0.151
-359.625	-68.899	0.059	0.023
-358.610	-109.627	0.117	0.024
-357.596	11.532	-0.125	0.095
-356.581	-37.183	0.192	0.102
-355.566	800.000	0.055	-0.193
-354.552	-56.565	0.151	-0.066
-353.537	-140.418	0.493	0.051
-352.523	-142.139	-0.275	0.027
-351.508	92.934	0.191	0.214
-350.493	19.883	0.103	0.082
-349.479	-35.776	0.106	-0.057
-348.464	14.130	0.090	-0.070
-347.450	-84.079	-0.207	0.065
-346.435	-37.269	0.116	-0.061
-345.420	-200.000	0.090	0.432
-344.406	6.013	0.202	-0.148
-343.391	186.142	-0.157	-0.231
-342.377	237.633	-0.209	-0.342
-341.362	309.746	-0.136	0.252
-340.348	738.521	0.041	-0.108
-339.333	-200.000	0.013	-0.247
-338.318	287.257	-0.175	0.312
-337.304	-200.000	-0.057	-0.264
-336.289	-39.454	-0.171	-0.089
-335.275	-119.070	-0.244	0.042
-334.260	-15.689	0.103	0.065
-333.245	-200.000	0.027	-0.172
-332.231	306.619	-0.066	0.121
-331.216	1.180	-0.104	0.074
-330.202	167.742	-0.166	0.233
-329.187	43.294	0.280	0.252
-328.172	-139.038	-0.315	0.034
-327.158	67.619	-0.129	-0.130
-326.143	-144.470	-0.368	-0.034
-325.129	64.875	-0.112	-0.111
-324.114	800.000	0.084	0.321
-323.099	-200.000	0.016	0.157
-322.085	-57.953	0.108	-0.046
-321.070	89.177	0.064	-0.070
-320.056	-158.801	0.194	0.011
-319.041	559.345	-0.059	-0.142
-318.026	800.000	-0.047	0.183
-317.012	-200.000	-0.048	0.247
-315.997	-200.000	0.001	0.310
-314.983	-67.136	0.190	0.074
-313.968	-39.703	0.111	-0.058
-312.953	29.236	-0.159	0.133
-311.939	-156.155	-0.140	0.009
-310.924	-43.223	0.279	0.139
-309.910	29.834	0.203	-0.171
-308.895	-29.495	0.248	0.140
-307.880	-77.942	0.196	-0.067
-306.866	-200.000	-0.070	0.399
-305.851	-200.000	-0.016	0.151
-304.837	-141.499	0.392	0.039
-303.822	114.234	-0.035	-0.042
-302.807	182.623	0.078	0.114
-301.793	-200.000	-0.017	-0.214
-300.778	800.000	0.080	0.241
-299.764	169.555	-0.108	0.151
-298.749	83.910	-0.180	0.194
-297.735	469.569	-0.162	0.359
-296.720	292.242	0.231	0.415
-295.705	130.112	-0.049	0.061
-294.691	47.868	0.190	-0.175
-293.676	-110.798	-0.276	-0.056
-292.662	-83.144	-0.217	0.069
-291.647	256.793	0.118	0.199
-290.632	-117.699	0.149	0.026
-289.618	218.038	-0.131	-0.205
-288.603	88.522	0.134	-0.146
-287.589	-200.000	-0.014	-0.070
-286.574	196.646	-0.063	-0.094
-285.559	800.000	-0.113	-0.365
-284.545	-113.064	-0.252	-0.049
-283.530	174.388	-0.124	-0.176
-282.516	193.759	0.049	0.073
-281.501	105.397	-0.205	-0.239
-280.486	-200.000	-0.018	0.374
-279.472	12.904	-0.084	-0.064
-278.457	-115.685	-0.102	0.019
-277.443	222.366	0.136	0.216
-276.428	168.113	0.082	-0.115
-275.413	14.517	-0.135	-0.104
-274.399	800.000	-0.031	0.091
-273.384	-25.110	0.010	-0.006
-272.370	112.033	0.139	0.166
-271.355	-109.525	-0.395	-0.082
-270.340	-92.331	0.280	0.078
-269.326	170.042	-0.250	0.352
-268.311	14.575	-0.214	0.165
-267.297	-95.144	0.214	-0.057
-266.282	744.502	-0.057	-0.151
-265.267	336.356	0.109	0.208
-264.253	-200.000	0.023	0.159
-263.238	-88.036	0.230	-0.068
-262.224	-87.921	0.278	0.082
-261.209	338.416	0.101	0.193
-260.195	19.972	0.041	-0.033
-259.180	-100.995	0.254	-0.061
-258.165	40.907	-0.257	0.228
-257.151	327.556	-0.354	0.670
-256.136	-200.000	-0.011	-0.190
-255.122	-200.000	-0.010	-0.256
-254.107	-101.885	0.099	0.024
-253.092	-83.131	-0.035	0.011
-252.078	800.000	0.054	-0.153
-251.063	-131.482	0.269	-0.035
-250.049	-163.984	-0.129	-0.006
-249.034	-200.000	-0.025	-0.138
-248.019	-103.644	-0.351	-0.081
-247.005	-87.154	-0.214	-0.064
-245.990	-125.168	0.085	-0.013
-244.976	108.608	0.106	-0.124
-243.961	-118.785	-0.212	-0.037
-242.946	800.000	-0.111	0.303
-241.932	-86.715	0.045	-0.014
-240.917	84.261	0.284	-0.305
-239.903	14.762	0.059	-0.045
-238.888	-70.549	0.220	0.082
-237.873	-59.106	-0.431	0.183
-236.859	-96.927	-0.307	-0.079
-235.844	43.022	-0.147	-0.132
-234.830	275.301	0.034	0.060
-233.815	9.060	-0.110	0.082
-232.800	-31.018	0.132	-0.073
-231.786	86.286	-0.063	-0.068
-230.771	800.000	-0.052	-0.184
-229.757	-71.048	0.104	0.038
-228.742	179.718	-0.158	0.228
-227.727	-200.000	-0.028	0.318
-226.713	-80.272	0.119	0.039
-225.698	-200.000	0.008	0.165
-224.684	60.104	-0.155	0.151
-223.669	-162.188	0.494	-0.024
-222.655	-200.000	-0.031	0.152
-221.640	-41.559	-0.331	0.167
-220.625	-200.000	-0.016	-0.211
-219.611	207.197	-0.119	-0.183
-218.596	-119.249	-0.279	-0.048
-217.582	-166.643	-0.114	0.005
-216.567	-10.548	0.643	0.419
-215.552	-89.067	-0.054	0.016
-214.538	-200.000	0.028	0.199
-213.523	-200.000	-0.014	-0.082
-212.509	-200.000	-0.051	0.367
-211.494	-146.227	0.195	0.017
-210.479	800.000	-0.041	-0.133
-209.465	102.530	0.188	0.216
-208.450	30.200	-0.127	-0.106
-207.436	704.712	-0.089	0.231
-206.421	151.275	0.040	-0.053
-205.406	800.000	0.107	-0.444
-204.392	0.097	0.530	-0.371
-203.377	-110.103	-0.241	-0.049
-202.363	-107.623	0.427	-0.092
-201.348	-88.083	0.065	0.019
-200.333	58.018	0.200	0.192
-199.319	-200.000	-0.054	-0.361
-198.304	800.000	-0.112	-0.330
-197.290	71.854	-0.130	0.133
-196.275	800.000	-0.060	-0.187
-195.260	-118.224	-0.202	-0.035
-194.246	-40.206	-0.108	0.055
-193.231	-142.168	-0.047	-0.005
-192.217	241.149	-0.056	-0.092
-191.202	4.541	-0.188	-0.135
-190.187	279.038	-0.037	0.065
-189.173	-65.021	-0.287	0.114
-188.158	350.952	-0.166	0.324
-187.144	-30.946	-0.109	-0.061
-186.129	800.000	0.079	-0.224
-185.114	-99.935	0.405	-0.099
-184.100	-105.015	0.245	0.055
-183.085	-123.051	-0.275	0.043
-182.071	50.027	0.220	0.204
-181.056	207.241	-0.129	0.198
-180.042	275.123	-0.081	-0.140
-179.027	-149.669	-0.446	0.034
-178.012	-137.455	0.386	0.043
-176.998	-72.066	0.218	0.079
-175.983	117.770	-0.130	0.157
-174.969	64.087	0.024	-0.024
-173.954	613.687	0.089	0.220
-172.939	-104.156	-0.377	-0.086
-171.925	-200.000	-0.045	-0.282
-170.910	-45.652	0.022	-0.011
-169.896	-167.008	0.253	-0.010
-168.881	1.996	0.336	-0.238
-167.866	-13.211	0.208	-0.132
-166.852	-200.000	0.006	-0.324
-165.837	30.753	-0.391	0.329
-164.823	50.348	0.084	-0.078
-163.808	25.575	-0.142	-0.116
-162.793	-82.051	-0.293	0.094
-161.779	31.348	-0.063	0.053
-160.764	-97.975	0.382	0.097
-159.750	-200.000	0.004	0.059
-158.735	38.967	-0.279	-0.245
-157.720	-200.000	0.010	-0.404
-156.706	62.149	0.219	0.214
-155.691	-19.302	-0.364	0.222
-154.677	-32.629	0.104	-0.057
-153.662	-200.000	-0.011	-0.369
-152.647	106.340	-0.059	0.068
-151.633	72.447	-0.150	-0.154
-150.618	221.775	0.079	-0.124
-149.604	-200.000	-0.019	-0.384
-148.589	-151.559	0.374	-0.027
-147.574	-40.177	-0.203	-0.104
-146.560	63.954	0.148	-0.146
-145.545	711.452	-0.123	-0.320
-144.531	50.324	-0.175	-0.162
-143.516	800.000	0.048	0.171
-142.502	45.873	0.175	0.159
-141.487	-188.489	0.336	0.004
-140.472	-56.902	0.265	0.115
-139.458	800.000	-0.119	-0.371
-138.443	800.000	-0.117	-0.391
-137.429	-94.665	0.244	-0.065
-136.414	-93.928	-0.217	0.058
-135.399	800.000	0.041	0.134
-134.385	-138.140	-0.050	-0.005
-133.370	-200.000	-0.008	-0.106
-132.356	-200.000	-0.075	-0.360
-131.341	134.984	-0.193	0.245
-130.326	212.406	-0.103	0.159
-129.312	44.337	0.251	0.226
-128.297	744.343	-0.066	-0.173
-127.283	116.050	-0.221	-0.265
-126.268	-126.852	-0.112	-0.016
-125.253	-200.000	-0.020	0.128
-124.239	-35.550	0.137	-0.073
-123.224	800.000	0.067	-0.232
-122.210	-27.173	-0.103	0.059
