DTS Sentinel unit serial number:	SN413079Multiplexer serial number:	ORYXHardware model number:	OX4-SRSoftware version number:	ORYX F/W v4.00 Oryx Data Collector v3.7.2.0data status	okinstallation	princeton_trtdifferential loss correction	single-endedforward channel	channel 1reverse channel	N/Adate	2019/09/12time	12:44:11forward acquisition time	60.00reverse acquisition time	0.00gamma	496.2192k internal	0.2291k external	0.2291temperature offset calibration	1.0040default loss term (dB/km)	0.3790temperature slope calibration	1.0000multiplexer offset coefficient	1.0000multiplexer slope coefficient	1.0000fibre end	0.00T internal ref (°C)	40.55T ext. ref 1 (°C)	2.04T ext. ref 2 (°C)	37.63length (m)	temperature (°C)	Stokes	anti-Stokes-747.200	47.287	0.287	0.273
-746.185	-50.669	-0.172	0.083
-745.171	800.000	-0.061	-0.226
-744.156	-200.000	-0.018	0.427
-743.142	-185.938	-0.461	-0.007
-742.127	-200.000	0.045	0.423
-741.112	-137.092	-0.166	-0.019
-740.098	-200.000	-0.032	0.511
-739.083	-181.457	0.258	0.005
-738.069	-200.000	-0.117	-0.000
-737.054	-200.000	-0.040	0.217
-736.039	-12.162	-0.096	0.064
-735.025	-96.072	-0.250	0.068
-734.010	-119.581	-0.454	-0.080
-732.996	-139.799	-0.246	-0.027
-731.981	159.144	-0.201	-0.286
-730.966	800.000	0.077	0.254
-729.952	72.111	0.209	0.223
-728.937	-200.000	0.005	-0.176
-727.923	297.159	0.136	0.255
-726.908	-87.466	-0.181	0.056
-725.894	-149.361	0.111	-0.009
-724.879	148.024	-0.070	-0.096
-723.864	-66.710	-0.114	0.046
-722.850	-76.699	-0.090	-0.032
-721.835	-4.961	0.057	-0.040
-720.821	-200.000	-0.021	0.120
-719.806	-200.000	-0.044	0.336
-718.791	189.832	-0.022	-0.034
-717.777	-115.606	-0.336	0.065
-716.762	83.025	0.302	0.336
-715.748	-126.886	0.340	-0.051
-714.733	5.832	0.015	-0.011
-713.718	-50.229	0.200	-0.097
-712.704	-200.000	-0.060	-0.344
-711.689	2.420	-0.143	-0.106
-710.675	-133.290	-0.418	0.054
-709.660	-111.325	0.214	0.045
-708.645	-135.342	-0.279	-0.034
-707.631	-200.000	-0.003	-0.028
-706.616	75.271	-0.021	0.023
-705.602	551.249	0.121	-0.298
-704.587	-54.139	-0.227	0.106
-703.572	-131.994	0.432	-0.058
-702.558	-31.144	0.106	0.061
-701.543	-29.451	-0.018	-0.011
-700.529	24.329	-0.145	-0.122
-699.514	-17.211	0.066	0.042
-698.499	-41.058	-0.128	0.067
-697.485	1.901	0.263	-0.194
-696.470	82.057	-0.141	-0.157
-695.456	-150.275	-0.257	-0.020
-694.441	-200.000	-0.024	0.130
-693.426	73.576	0.013	0.014
-692.412	800.000	0.059	-0.229
-691.397	-89.257	0.249	-0.075
-690.383	613.229	0.087	-0.223
-689.368	800.000	-0.140	-0.430
-688.354	-93.524	-0.262	-0.074
-687.339	29.582	-0.166	0.144
-686.324	-110.482	0.131	-0.028
-685.310	-79.892	-0.185	-0.063
-684.295	611.650	0.042	0.108
-683.281	-129.812	0.108	0.015
-682.266	-75.461	0.170	-0.062
-681.251	-20.487	-0.176	0.110
-680.237	135.831	-0.124	-0.165
-679.222	-75.660	0.280	0.102
-678.208	-162.068	-0.073	-0.004
-677.193	-119.351	0.382	-0.068
-676.178	-129.564	-0.048	0.007
-675.164	30.443	-0.210	0.184
-674.149	800.000	-0.041	0.175
-673.135	-200.000	0.010	-0.126
-672.120	-120.132	0.018	0.003
-671.105	19.729	-0.065	0.054
-670.091	-71.239	0.340	-0.130
-669.076	203.524	-0.080	-0.126
-668.062	255.525	-0.042	0.073
-667.047	13.157	0.080	0.063
-666.032	-200.000	-0.004	0.156
-665.018	-0.326	0.199	0.145
-664.003	100.214	0.084	0.100
-662.989	-200.000	0.065	-0.323
-661.974	-0.840	-0.259	-0.188
-660.959	-26.187	-0.211	0.126
-659.945	800.000	0.048	0.146
-658.930	-28.477	-0.027	-0.016
-657.916	-200.000	0.023	0.187
-656.901	524.231	-0.077	-0.185
-655.886	-53.352	-0.101	0.047
-654.872	-200.000	0.022	-0.124
-653.857	800.000	0.029	-0.098
-652.843	23.139	0.120	-0.101
-651.828	-0.100	-0.154	0.112
-650.814	-200.000	0.010	-0.180
-649.799	800.000	-0.117	-0.414
-648.784	-30.909	-0.189	-0.109
-647.770	18.687	-0.169	0.138
-646.755	-200.000	0.022	0.142
-645.741	-84.379	0.174	-0.056
-644.726	22.060	-0.208	0.173
-643.711	61.351	0.125	0.126
-642.697	-162.956	-0.125	-0.006
-641.682	299.599	0.005	0.009
-640.668	-200.000	-0.004	-0.054
-639.653	-77.366	-0.290	0.103
-638.638	-129.997	0.159	-0.022
-637.624	50.010	0.119	0.115
-636.609	-15.715	-0.103	0.067
-635.595	8.802	-0.545	-0.419
-634.580	-158.314	0.109	-0.006
-633.565	126.898	-0.050	-0.064
-632.551	-5.654	0.200	-0.140
-631.536	-93.518	-0.042	-0.012
-630.522	-200.000	0.055	0.390
-629.507	270.875	0.106	0.190
-628.492	152.482	-0.053	-0.073
-627.478	800.000	-0.069	-0.236
-626.463	82.608	-0.046	-0.051
-625.449	-74.739	0.197	-0.072
-624.434	398.391	0.076	0.161
-623.419	-40.123	-0.090	-0.048
-622.405	-22.229	0.169	0.105
-621.390	473.653	0.038	-0.088
-620.376	-60.081	-0.358	-0.156
-619.361	127.910	-0.226	-0.293
-618.346	800.000	0.041	-0.151
-617.332	132.991	-0.204	-0.268
-616.317	245.794	-0.013	0.023
-615.303	226.647	-0.108	-0.179
-614.288	-200.000	0.057	-0.479
-613.273	253.542	0.078	-0.136
-612.259	-41.512	-0.160	0.084
-611.244	-110.337	0.064	-0.014
-610.230	-127.280	-0.129	-0.019
-609.215	-27.115	-0.050	-0.029
-608.201	209.073	0.024	-0.038
-607.186	-45.718	0.602	0.303
-606.171	800.000	0.108	-0.444
-605.157	-111.496	-0.124	-0.026
-604.142	160.246	-0.078	-0.111
-603.128	-113.729	0.214	0.043
-602.113	-87.827	-0.211	0.065
-601.098	800.000	-0.154	-0.438
-600.084	-74.881	-0.244	0.089
-599.069	-98.237	-0.132	0.035
-598.055	-148.775	0.130	0.011
-597.040	-156.319	-0.163	-0.010
-596.025	30.451	-0.187	-0.163
-595.011	800.000	0.027	-0.119
-593.996	-61.851	0.236	-0.101
-592.982	462.436	0.092	-0.209
-591.967	96.956	0.092	-0.107
-590.952	-53.165	0.151	0.071
-589.938	-200.000	0.009	-0.076
-588.923	688.100	0.053	0.141
-587.909	7.982	0.183	-0.139
-586.894	800.000	0.019	-0.065
-585.879	-50.570	0.120	0.057
-584.865	204.096	0.170	0.268
-583.850	-100.801	-0.100	-0.025
-582.836	-200.000	0.040	0.202
-581.821	44.648	0.146	-0.136
-580.806	107.392	-0.024	0.029
-579.792	-200.000	0.012	-0.248
-578.777	-183.659	-0.180	-0.003
-577.763	510.532	-0.100	0.237
-576.748	17.981	0.300	0.243
-575.733	-200.000	-0.036	0.224
-574.719	-159.391	0.332	-0.019
-573.704	539.066	-0.119	-0.289
-572.690	-36.141	-0.128	0.070
-571.675	-9.758	-0.179	0.121
-570.661	60.628	-0.029	-0.029
-569.646	-182.486	-0.113	0.002
-568.631	263.698	0.066	0.117
-567.617	-101.774	-0.097	0.024
-566.602	758.725	0.078	-0.214
-565.588	-191.940	0.274	0.003
-564.573	311.100	-0.099	-0.189
-563.558	-166.070	-0.205	-0.009
-562.544	-178.417	-0.164	-0.004
-561.529	-200.000	-0.001	-0.171
-560.515	-150.378	0.352	0.028
-559.500	-174.574	-0.121	-0.004
-558.485	15.605	0.188	0.150
-557.471	693.230	-0.067	0.178
-556.456	496.628	-0.167	0.391
-555.442	-173.122	-0.286	0.009
-554.427	-200.000	-0.044	-0.312
-553.412	115.458	0.125	-0.155
-552.398	-115.641	-0.392	0.075
-551.383	-79.536	0.208	0.071
-550.369	-149.481	0.271	0.022
-549.354	-200.000	0.033	0.239
-548.339	47.446	0.231	0.219
-547.325	92.940	-0.091	-0.105
-546.310	-170.043	-0.069	0.002
-545.296	10.173	-0.143	-0.111
-544.281	800.000	-0.041	0.172
-543.266	18.071	0.202	-0.163
-542.252	-81.610	0.162	-0.054
-541.237	-176.316	-0.254	0.007
-540.223	404.616	-0.048	-0.104
-539.208	-200.000	-0.009	0.132
-538.193	12.443	0.314	0.246
-537.179	3.298	-0.153	-0.113
-536.164	800.000	-0.025	0.103
-535.150	-21.797	-0.089	-0.055
-534.135	-200.000	0.003	0.022
-533.121	-31.220	-0.051	0.029
-532.106	-200.000	0.017	0.175
-531.091	-164.138	0.319	-0.015
-530.077	201.591	0.190	-0.297
-529.062	800.000	0.035	-0.151
-528.048	800.000	-0.069	0.275
-527.033	11.585	0.047	0.037
-526.018	32.853	0.108	0.095
-525.004	510.603	-0.083	-0.195
-523.989	234.742	-0.085	0.143
-522.975	-200.000	-0.009	-0.133
-521.960	-200.000	0.002	-0.129
-520.945	68.500	-0.294	0.306
-519.931	739.372	0.062	0.169
-518.916	-200.000	-0.011	0.089
-517.902	-55.042	-0.324	-0.148
-516.887	800.000	0.046	0.179
-515.872	-200.000	0.005	0.317
-514.858	6.115	-0.118	0.088
-513.843	-130.085	0.519	0.072
-512.829	-102.278	0.252	0.061
-511.814	-165.346	0.103	0.005
-510.799	-200.000	0.455	0.002
-509.785	800.000	0.016	0.055
-508.770	-92.206	-0.164	-0.047
-507.756	153.759	-0.123	-0.172
-506.741	465.197	-0.046	-0.104
-505.726	323.764	-0.208	0.403
-504.712	7.041	-0.277	-0.209
-503.697	308.107	-0.050	0.095
-502.683	-200.000	0.005	0.279
-501.668	-141.607	0.331	0.034
-500.653	-61.787	0.303	-0.129
-499.639	-55.331	-0.122	-0.056
-498.624	-200.000	0.001	0.034
-497.610	-84.584	0.283	0.091
-496.595	148.648	-0.118	0.162
-495.581	201.645	-0.069	0.107
-494.566	800.000	0.106	0.364
-493.551	-151.935	-0.192	0.014
-492.537	-200.000	-0.003	0.199
-491.522	192.027	0.102	-0.156
-490.508	281.236	-0.171	0.310
-489.493	-15.119	-0.107	0.069
-488.478	-200.000	0.003	0.076
-487.464	60.969	0.149	-0.149
-486.449	-18.046	-0.240	0.152
-485.435	-61.054	-0.244	-0.105
-484.420	-200.000	-0.020	0.201
-483.405	-31.680	-0.291	0.166
-482.391	-200.000	0.028	0.433
-481.376	62.052	0.111	-0.113
-480.362	800.000	0.073	-0.223
-479.347	779.820	0.022	0.061
-478.332	406.487	0.183	-0.392
-477.318	-44.022	0.280	0.143
-476.303	-18.108	0.187	-0.119
-475.289	-16.738	-0.092	0.059
-474.274	93.995	0.133	0.153
-473.259	21.519	-0.144	0.119
-472.245	-115.060	0.200	-0.038
-471.230	-65.141	0.166	0.068
-470.216	800.000	-0.100	0.285
-469.201	-83.442	-0.202	0.066
-468.186	-104.677	0.121	0.028
-467.172	-59.916	-0.185	-0.080
-466.157	-143.049	0.222	-0.022
-465.143	-153.598	0.108	0.008
-464.128	22.972	-0.224	0.186
-463.113	-123.028	0.098	-0.016
-462.099	228.609	0.044	0.073
-461.084	-87.708	0.390	-0.119
-460.070	118.056	0.076	-0.094
-459.055	575.368	0.077	0.190
-458.040	-3.542	0.038	-0.027
-457.026	264.236	0.204	-0.360
-456.011	-30.134	0.339	-0.195
-454.997	-200.000	0.003	-0.103
-453.982	-200.000	0.007	0.254
-452.968	71.064	0.008	0.008
-451.953	414.646	0.083	-0.179
-450.938	101.284	-0.021	-0.025
-449.924	154.830	0.100	-0.139
-448.909	-87.932	0.221	-0.067
-447.895	60.006	0.056	0.056
-446.880	770.131	-0.120	-0.332
-445.865	-200.000	0.003	0.179
-444.851	-200.000	0.051	0.429
-443.836	-200.000	0.030	-0.138
-442.822	-200.000	0.054	-0.256
-441.807	255.883	-0.162	-0.282
-440.792	162.243	-0.110	-0.157
-439.778	-200.000	0.041	0.397
-438.763	-91.115	-0.355	0.103
-437.749	-18.301	-0.191	-0.121
-436.734	108.607	-0.057	-0.068
-435.719	547.476	0.100	0.241
-434.705	-62.291	-0.403	0.170
-433.690	4.128	0.033	-0.025
-432.676	-200.000	-0.007	-0.119
-431.661	-138.429	-0.357	0.040
-430.646	-200.000	0.072	-0.334
-429.632	-200.000	-0.043	-0.318
-428.617	800.000	-0.052	0.204
-427.603	800.000	0.076	0.248
-426.588	83.820	-0.215	0.238
-425.573	800.000	0.056	-0.180
-424.559	-152.795	0.113	0.008
-423.544	74.809	0.073	-0.077
-422.530	83.814	0.067	-0.074
-421.515	-200.000	0.015	-0.173
-420.500	263.852	0.097	-0.170
-419.486	190.281	0.121	0.183
-418.471	-10.323	-0.156	-0.105
-417.457	-137.797	-0.102	0.012
-416.442	-82.933	-0.350	0.114
-415.428	-59.922	0.229	-0.099
-414.413	-41.865	-0.277	0.144
-413.398	133.686	0.031	-0.040
-412.384	-200.000	-0.056	-0.353
-411.369	-200.000	-0.080	-0.382
-410.355	692.355	0.101	0.267
-409.340	52.863	-0.113	0.109
-408.325	-14.805	-0.211	0.137
-407.311	240.598	0.060	0.100
-406.296	-200.000	0.000	-0.028
-405.282	136.557	-0.076	-0.101
-404.267	-200.000	0.072	-0.430
-403.252	63.603	-0.313	-0.317
-402.238	149.172	0.110	-0.151
-401.223	-64.564	0.157	-0.064
-400.209	295.465	-0.051	-0.095
-399.194	47.204	-0.096	0.090
-398.179	697.308	0.044	0.116
-397.165	-200.000	-0.024	-0.179
-396.150	-12.094	0.235	0.155
-395.136	24.570	0.072	0.060
-394.121	631.591	-0.153	-0.392
-393.106	3.427	0.088	-0.065
-392.092	-116.803	0.278	0.051
-391.077	732.334	-0.071	-0.191
-390.063	-141.860	-0.172	-0.017
-389.048	-118.124	0.271	0.049
-388.033	-173.961	-0.340	-0.010
-387.019	800.000	0.083	-0.302
-386.004	679.917	-0.014	0.037
-384.990	394.612	0.174	0.365
-383.975	-89.256	0.247	-0.074
-382.960	-200.000	0.027	0.167
-381.946	120.474	0.066	0.082
-380.931	-34.499	0.083	0.046
-379.917	21.736	0.196	-0.161
-378.902	-200.000	-0.023	-0.136
-377.888	-173.596	-0.210	0.006
-376.873	150.510	-0.185	0.253
-375.858	-200.000	-0.011	0.061
-374.844	-91.611	-0.285	-0.082
-373.829	-21.724	0.053	-0.033
-372.815	-7.581	-0.436	0.297
-371.800	114.955	-0.165	0.203
-370.785	800.000	-0.080	0.244
-369.771	800.000	-0.087	-0.261
-368.756	-11.247	-0.418	-0.278
-367.742	100.863	0.226	-0.265
-366.727	-127.758	-0.253	0.037
-365.712	-117.339	0.378	0.069
-364.698	-43.565	0.174	0.089
-363.683	800.000	0.074	0.306
-362.669	675.680	0.027	0.070
-361.654	82.366	-0.207	-0.226
-360.639	55.934	-0.233	-0.228
-359.625	13.685	0.021	-0.016
-358.610	-200.000	-0.024	0.233
-357.596	-141.283	0.243	-0.025
-356.581	-40.571	0.259	0.136
-355.566	800.000	0.074	0.277
-354.552	800.000	-0.028	0.091
-353.537	117.761	-0.267	0.331
-352.523	11.105	-0.222	-0.171
-351.508	-122.515	0.226	-0.037
-350.493	2.909	0.248	0.181
-349.479	-197.834	-0.387	0.002
-348.464	-123.509	-0.095	0.015
-347.450	83.800	0.012	-0.013
-346.435	-45.047	0.105	-0.052
-345.420	-49.317	0.357	0.172
-344.406	159.196	-0.065	-0.092
-343.391	800.000	0.092	-0.299
-342.377	-200.000	0.386	-0.001
-341.362	-84.181	0.125	0.040
-340.348	800.000	-0.044	0.152
-339.333	-200.000	0.020	0.122
-338.318	149.912	-0.191	0.261
-337.304	-121.043	-0.235	-0.040
-336.289	-152.090	-0.407	-0.030
-335.275	-124.007	-0.319	-0.051
-334.260	266.971	-0.296	-0.521
-333.245	6.713	-0.175	0.131
-332.231	-26.205	-0.109	0.064
-331.216	-125.174	-0.060	-0.009
-330.202	-164.472	-0.086	-0.004
-329.187	264.169	-0.072	0.127
-328.172	-18.783	0.238	0.149
-327.158	-8.831	-0.070	-0.047
-326.143	283.050	-0.098	-0.178
-325.129	-77.574	0.215	-0.075
-324.114	800.000	-0.056	-0.163
-323.099	-119.187	0.056	-0.010
-322.085	-100.237	-0.329	-0.082
-321.070	800.000	-0.034	-0.111
-320.056	-8.306	0.135	-0.091
-319.041	-10.587	0.124	0.083
-318.026	21.381	0.067	-0.055
-317.012	-3.463	-0.165	0.115
-315.997	145.340	0.309	0.416
-314.983	492.636	-0.097	-0.223
-313.968	-200.000	0.018	0.086
-312.953	105.300	0.067	-0.079
-311.939	-84.132	-0.283	-0.090
-310.924	197.495	0.122	-0.187
-309.910	-29.678	-0.085	0.049
-308.895	-63.901	-0.494	0.203
-307.880	-97.134	0.076	0.020
-306.866	-88.355	0.331	-0.100
-305.851	-15.893	0.056	-0.036
-304.837	17.145	0.063	0.050
-303.822	800.000	-0.066	-0.281
-302.807	-140.359	0.270	0.028
-301.793	-200.000	0.150	-0.000
-300.778	392.063	-0.127	-0.265
-299.764	-200.000	-0.007	0.259
-298.749	800.000	0.021	0.061
-297.735	-28.904	-0.007	-0.004
-296.720	800.000	-0.047	0.172
-295.705	-121.174	-0.084	0.014
-294.691	-151.264	0.331	0.025
-293.676	-138.474	0.266	0.029
-292.662	-108.705	0.348	-0.075
-291.647	718.588	-0.068	0.183
-290.632	-111.172	0.240	0.049
-289.618	207.225	-0.212	0.333
-288.603	800.000	-0.149	0.529
-287.589	-99.404	0.238	0.060
-286.574	84.627	-0.112	0.123
-285.559	47.545	-0.101	0.095
-284.545	155.504	-0.089	-0.123
-283.530	-120.017	0.192	-0.033
-282.516	-200.000	-0.048	-0.235
-281.501	-14.367	-0.373	-0.241
-280.486	800.000	-0.127	-0.360
-279.472	-57.044	0.304	0.135
-278.457	-200.000	-0.010	0.129
-277.443	-132.660	0.076	0.010
-276.428	127.266	-0.200	-0.255
-275.413	-200.000	-0.020	-0.239
-274.399	800.000	-0.043	0.139
-273.384	-200.000	-0.020	0.114
-272.370	-200.000	-0.063	0.355
-271.355	36.568	0.152	-0.135
-270.340	-82.411	-0.243	0.079
-269.326	-104.089	0.130	-0.030
-268.311	-60.646	0.284	0.121
-267.297	-74.519	-0.295	-0.107
-266.282	164.796	-0.068	-0.096
-265.267	44.826	-0.238	-0.220
-264.253	800.000	-0.038	0.134
-263.238	-120.541	-0.221	0.038
-262.224	-121.251	0.323	-0.054
-261.209	-59.771	-0.166	-0.071
-260.195	800.000	-0.050	-0.165
-259.180	-200.000	-0.002	-0.472
-258.165	-128.925	0.275	0.039
-257.151	75.966	0.113	-0.120
-256.136	-152.647	0.170	0.012
-255.122	-0.011	0.081	0.058
-254.107	800.000	0.005	-0.014
-253.092	74.426	-0.272	-0.287
-252.078	-6.669	0.093	0.064
-251.063	126.647	-0.112	0.143
-250.049	17.283	0.190	0.151
-249.034	-200.000	-0.024	-0.293
-248.019	-36.676	-0.364	-0.196
-247.005	139.964	-0.050	-0.066
-245.990	-68.339	0.341	0.133
-244.976	407.839	0.013	0.027
-243.961	158.744	0.179	-0.250
-242.946	98.284	-0.151	-0.174
-241.932	4.592	0.211	-0.156
-240.917	-85.222	0.146	-0.046
-239.903	-85.082	-0.295	-0.093
-238.888	-181.038	0.249	-0.005
-237.873	-170.657	-0.334	-0.012
-236.859	3.509	-0.023	-0.017
-235.844	-6.931	-0.208	0.142
-234.830	-114.087	0.491	0.095
-233.815	212.482	-0.081	-0.128
-232.800	149.325	0.209	0.284
-231.786	-0.377	0.078	-0.055
-230.771	119.475	0.109	-0.136
-229.757	-128.654	0.207	-0.029
-228.742	-200.000	-0.010	-0.104
-227.727	612.550	-0.194	-0.488
-226.713	-114.327	-0.093	-0.018
-225.698	137.225	0.057	0.075
-224.684	-71.283	-0.055	0.021
-223.669	-127.436	0.297	-0.043
-222.655	-68.416	-0.069	-0.027
-221.640	-200.000	0.009	-0.577
-220.625	693.833	0.076	-0.200
-219.611	-50.294	0.250	-0.119
-218.596	712.263	0.098	-0.260
-217.582	-115.299	-0.157	0.030
-216.567	-34.567	0.015	0.008
-215.552	616.150	0.167	0.420
-214.538	800.000	-0.055	-0.192
-213.523	-61.338	0.091	-0.039
-212.509	800.000	0.112	0.359
-211.494	-181.858	-0.311	-0.006
-210.479	49.667	0.003	0.003
-209.465	8.954	-0.103	0.078
-208.450	157.305	0.159	0.220
-207.436	602.444	-0.037	0.091
-206.421	-89.483	0.220	0.065
-205.406	-123.036	-0.083	0.013
-204.392	800.000	-0.031	0.128
-203.377	-170.577	0.222	-0.008
-202.363	19.626	0.113	-0.091
-201.348	-200.000	0.055	-0.408
-200.333	-110.100	0.525	0.110
-199.319	-80.025	0.020	0.007
-198.304	149.223	0.226	-0.306
-197.290	-24.643	0.243	-0.145
-196.275	-18.736	-0.161	-0.100
-195.260	254.054	0.085	-0.146
-194.246	-200.000	0.053	-0.266
-193.231	-17.120	-0.246	0.155
-192.217	385.717	-0.034	-0.070
-191.202	-9.028	-0.257	0.173
-190.187	-98.670	0.175	-0.045
-189.173	-9.728	-0.377	0.252
-188.158	-11.532	0.294	-0.193
-187.144	-200.000	-0.031	0.364
-186.129	544.817	-0.087	0.208
-185.114	-176.525	-0.254	-0.007
-184.100	48.309	-0.094	0.088
-183.085	-40.844	0.175	0.091
-182.071	204.120	0.090	0.140
-181.056	-14.427	0.169	-0.109
-180.042	-200.000	0.019	-0.301
-179.027	128.080	-0.024	-0.030
-178.012	13.833	0.126	0.098
-176.998	800.000	-0.097	-0.279
-175.983	99.787	0.080	0.093
-174.969	246.214	-0.239	0.404
-173.954	104.120	-0.092	-0.108
-172.939	63.515	-0.130	0.131
-171.925	-33.779	0.196	-0.108
-170.910	-200.000	0.007	0.035
-169.896	-200.000	-0.056	0.391
-168.881	89.924	-0.179	-0.200
-167.866	755.227	0.101	-0.274
-166.852	800.000	-0.075	0.246
-165.837	583.527	-0.049	0.121
-164.823	-200.000	0.003	0.186
-163.808	800.000	0.158	0.559
-162.793	-94.343	0.307	-0.084
-161.779	800.000	-0.049	0.192
-160.764	43.474	0.076	0.069
-159.750	348.864	-0.183	0.361
-158.735	-14.571	-0.176	0.113
-157.720	655.440	0.126	0.325
-156.706	-200.000	-0.019	0.464
-155.691	-154.424	-0.182	0.012
-154.677	-97.367	-0.133	0.035
-153.662	-83.106	0.033	0.011
-152.647	98.448	-0.183	-0.211
-151.633	428.400	-0.120	0.259
-150.618	-130.568	0.131	0.018
-149.604	-200.000	-0.028	-0.380
-148.589	204.275	0.125	-0.194
-147.574	800.000	0.121	0.367
-146.560	-162.693	-0.477	0.023
-145.545	301.440	0.148	0.274
-144.531	-200.000	-0.006	0.075
-143.516	408.498	-0.061	0.129
-142.502	-62.010	0.211	0.088
-141.487	300.944	0.205	0.378
-140.472	-3.747	0.078	0.054
-139.458	44.669	0.214	0.196
-138.443	-68.614	-0.239	0.093
-137.429	800.000	-0.070	0.298
-136.414	143.073	-0.059	0.078
-135.399	280.252	-0.102	-0.183
-134.385	-50.763	-0.183	0.086
-133.370	-33.419	-0.205	0.113
-132.356	800.000	0.049	0.212
-131.341	161.737	0.160	0.224
-130.326	2.705	0.160	0.116
-129.312	117.884	0.178	0.219
-128.297	25.165	0.402	0.334
-127.283	306.223	-0.115	-0.214
-126.268	-90.774	-0.285	-0.082
-125.253	47.759	0.112	-0.104
-124.239	271.886	-0.220	0.387
-123.224	523.427	0.045	0.107
-122.210	-35.295	0.117	-0.064
-121.195	-3.691	0.058	0.040
