DTS Sentinel unit serial number:	SN413079Multiplexer serial number:	ORYXHardware model number:	OX4-SRSoftware version number:	ORYX F/W v4.00 Oryx Data Collector v3.7.2.0data status	okinstallation	princeton_trtdifferential loss correction	single-endedforward channel	channel 1reverse channel	N/Adate	2019/09/12time	11:16:11forward acquisition time	60.00reverse acquisition time	0.00gamma	496.2192k internal	0.2296k external	0.2296temperature offset calibration	1.0043default loss term (dB/km)	0.3790temperature slope calibration	1.0000multiplexer offset coefficient	1.0000multiplexer slope coefficient	1.0000fibre end	0.00T internal ref (°C)	38.94T ext. ref 1 (°C)	1.95T ext. ref 2 (°C)	36.31length (m)	temperature (°C)	Stokes	anti-Stokes-747.200	-18.169	0.489	-0.313
-746.185	196.927	-0.086	-0.135
-745.171	-58.763	0.218	0.096
-744.156	-113.713	-0.333	0.066
-743.142	-200.000	-0.028	-0.224
-742.127	-200.000	-0.041	0.314
-741.112	-200.000	0.041	-0.260
-740.098	252.759	0.029	0.050
-739.083	436.345	-0.048	-0.108
-738.069	471.204	0.012	0.029
-737.054	-200.000	-0.019	0.135
-736.039	179.181	0.061	0.091
-735.025	520.615	0.187	0.449
-734.010	-77.860	-0.099	-0.035
-732.996	-59.083	-0.137	-0.060
-731.981	367.159	-0.043	-0.090
-730.966	-176.486	0.097	-0.003
-729.952	-60.528	0.434	-0.188
-728.937	269.906	-0.221	-0.396
-727.923	62.992	-0.295	0.301
-726.908	-200.000	0.037	0.218
-725.894	263.311	0.084	-0.148
-724.879	13.194	-0.253	0.200
-723.864	800.000	-0.081	-0.264
-722.850	108.652	-0.120	0.146
-721.835	281.245	-0.125	-0.228
-720.821	-33.581	0.175	0.099
-719.806	-200.000	-0.018	0.123
-718.791	385.829	-0.082	0.173
-717.777	4.406	-0.170	-0.127
-716.762	-82.308	-0.210	0.070
-715.748	-200.000	0.067	0.310
-714.733	-97.939	0.117	-0.031
-713.718	800.000	-0.062	-0.259
-712.704	-22.930	-0.265	-0.163
-711.689	27.774	-0.289	-0.249
-710.675	-54.895	0.286	0.132
-709.660	800.000	0.068	0.290
-708.645	200.623	0.129	-0.203
-707.631	-200.000	0.003	-0.345
-706.616	294.933	0.160	0.300
-705.602	-113.292	-0.295	-0.059
-704.587	-66.928	-0.147	-0.059
-703.572	-115.019	0.357	0.069
-702.558	-112.321	-0.127	0.026
-701.543	302.899	-0.072	0.136
-700.529	225.940	0.077	-0.128
-699.514	-200.000	0.019	0.123
-698.499	53.808	0.027	0.027
-697.485	308.672	-0.073	-0.139
-696.470	-148.062	0.076	-0.006
-695.456	800.000	-0.075	0.297
-694.441	-104.283	-0.157	-0.037
-693.426	102.415	-0.118	0.140
-692.412	35.470	-0.173	-0.155
-691.397	-142.630	-0.371	0.037
-690.383	-94.272	-0.134	0.037
-689.368	65.609	-0.066	-0.068
-688.354	576.970	-0.083	0.207
-687.339	-143.858	-0.099	-0.010
-686.324	11.270	0.041	0.032
-685.310	324.061	-0.107	0.209
-684.295	31.360	-0.100	0.087
-683.281	-200.000	0.003	0.236
-682.266	30.088	0.256	0.222
-681.251	-28.332	-0.361	0.212
-680.237	-90.378	-0.174	0.051
-679.222	800.000	0.045	-0.143
-678.208	169.307	0.092	0.134
-677.193	14.605	0.101	0.080
-676.178	265.487	-0.055	0.099
-675.164	-59.671	-0.131	0.057
-674.149	-81.317	-0.324	0.109
-673.135	-144.089	-0.197	0.019
-672.120	800.000	-0.009	-0.027
-671.105	145.161	-0.155	0.211
-670.091	800.000	-0.054	0.186
-669.076	-200.000	0.043	-0.262
-668.062	419.171	0.025	-0.054
-667.047	693.447	-0.052	0.139
-666.032	-200.000	0.006	-0.191
-665.018	218.708	0.017	-0.028
-664.003	47.294	-0.305	-0.289
-662.989	-200.000	-0.067	-0.305
-661.974	-21.217	-0.077	-0.048
-660.959	196.196	-0.139	-0.216
-659.945	-200.000	0.019	0.112
-658.930	-54.381	0.093	0.043
-657.916	-75.983	-0.256	0.092
-656.901	-196.538	0.432	0.003
-655.886	-112.613	0.132	0.027
-654.872	-45.686	-0.136	-0.068
-653.857	-200.000	0.089	0.401
-652.843	66.291	-0.080	0.083
-651.828	-200.000	0.062	0.318
-650.814	487.427	0.042	-0.098
-649.799	800.000	0.033	-0.124
-648.784	-59.603	-0.232	0.101
-647.770	-200.000	0.086	-0.424
-646.755	7.702	0.203	-0.155
-645.741	-49.124	-0.142	-0.069
-644.726	800.000	-0.083	0.278
-643.711	-67.370	-0.182	-0.073
-642.697	-32.751	-0.351	0.199
-641.682	-97.341	0.176	0.047
-640.668	-188.325	0.358	0.005
-639.653	220.244	0.067	-0.109
-638.638	-94.150	0.475	-0.132
-637.624	-61.933	-0.375	-0.160
-636.609	-26.868	-0.225	0.134
-635.595	-11.747	-0.061	-0.041
-634.580	-200.000	-0.033	-0.195
-633.565	-165.835	-0.164	-0.007
-632.551	-31.814	-0.135	-0.077
-631.536	218.726	-0.125	0.203
-630.522	378.397	-0.106	-0.221
-629.507	436.266	0.147	-0.325
-628.492	197.621	0.163	-0.254
-627.478	800.000	0.012	0.034
-626.463	318.110	-0.165	0.318
-625.449	-54.401	-0.069	-0.032
-624.434	-7.648	0.138	-0.095
-623.419	56.753	-0.147	0.146
-622.405	800.000	0.050	-0.213
-621.390	257.848	-0.158	0.276
-620.376	-167.340	0.290	-0.012
-619.361	79.375	-0.123	-0.134
-618.346	-37.915	0.302	-0.163
-617.332	-200.000	-0.018	-0.113
-616.317	218.908	-0.102	0.165
-615.303	-200.000	0.019	0.096
-614.288	222.714	0.088	0.144
-613.273	205.053	0.060	0.095
-612.259	207.333	-0.067	0.106
-611.244	-78.029	-0.114	0.040
-610.230	-119.218	-0.301	0.053
-609.215	-102.736	0.300	0.073
-608.201	800.000	0.023	0.098
-607.186	117.634	0.148	0.185
-606.171	24.458	0.218	-0.184
-605.157	-61.807	0.051	-0.022
-604.142	-106.005	-0.118	-0.027
-603.128	-70.281	-0.207	-0.080
-602.113	-162.107	0.157	0.008
-601.098	233.874	0.074	0.124
-600.084	-94.601	0.321	0.089
-599.069	-200.000	-0.006	0.212
-598.055	605.249	0.096	-0.243
-597.040	65.589	0.167	0.171
-596.025	192.354	-0.080	0.122
-595.011	-87.509	-0.208	0.064
-593.996	61.524	-0.106	0.107
-592.982	107.061	0.169	0.204
-591.967	6.072	-0.239	0.180
-590.952	-95.479	-0.112	-0.031
-589.938	-200.000	0.000	-0.216
-588.923	-200.000	0.002	-0.048
-587.909	-81.266	-0.227	0.076
-586.894	-200.000	-0.029	-0.254
-585.879	-111.579	-0.281	-0.058
-584.865	-2.997	0.144	-0.102
-583.850	524.128	0.154	-0.368
-582.836	669.238	-0.035	0.092
-581.821	16.371	0.255	-0.204
-580.806	89.354	-0.228	0.258
-579.792	-81.488	-0.098	0.033
-578.777	-200.000	-0.067	-0.343
-577.763	-105.903	0.061	0.014
-576.748	26.270	-0.120	0.102
-575.733	62.061	-0.140	0.142
-574.719	-46.126	0.104	-0.052
-573.704	-69.015	0.119	0.047
-572.690	12.080	-0.091	0.071
-571.675	-98.446	0.085	0.022
-570.661	800.000	-0.082	0.320
-569.646	249.691	-0.060	0.104
-568.631	-200.000	-0.014	0.144
-567.617	-200.000	-0.019	-0.257
-566.602	154.241	0.057	0.080
-565.588	217.862	0.051	0.083
-564.573	800.000	-0.060	-0.247
-563.558	301.322	-0.054	0.102
-562.544	-124.964	0.276	0.043
-561.529	-200.000	-0.075	-0.510
-560.515	-5.055	0.058	0.041
-559.500	-200.000	0.007	0.184
-558.485	264.696	-0.087	-0.154
-557.471	-150.427	-0.288	-0.022
-556.456	24.029	-0.117	-0.098
-555.442	287.133	-0.035	0.064
-554.427	512.206	0.049	0.115
-553.412	-200.000	-0.017	-0.087
-552.398	-200.000	0.019	-0.323
-551.383	800.000	0.067	0.283
-550.369	800.000	0.081	-0.318
-549.354	-51.110	0.232	0.110
-548.339	-13.426	0.216	0.142
-547.325	-200.000	0.029	0.136
-546.310	-131.849	0.132	0.017
-545.296	-6.917	-0.163	-0.112
-544.281	800.000	-0.047	0.166
-543.266	-200.000	-0.089	-0.412
-542.252	114.556	-0.235	-0.291
-541.237	-13.743	0.134	0.088
-540.223	-133.148	-0.185	-0.024
-539.208	-84.322	-0.105	0.034
-538.193	-146.444	0.344	0.030
-537.179	-115.927	0.303	0.057
-536.164	54.633	-0.113	-0.111
-535.150	16.775	0.136	-0.109
-534.135	520.647	-0.082	-0.196
-533.121	-138.830	0.113	0.012
-532.106	-200.000	-0.051	-0.225
-531.091	489.284	0.096	-0.223
-530.077	544.138	-0.253	-0.613
-529.062	-154.477	-0.035	0.002
-528.048	374.105	-0.086	-0.178
-527.033	-72.502	0.097	-0.036
-526.018	800.000	-0.073	-0.239
-525.004	-200.000	0.015	-0.110
-523.989	14.063	-0.209	0.165
-522.975	622.212	-0.124	0.315
-521.960	18.996	0.059	0.048
-520.945	-22.286	-0.143	0.088
-519.931	-200.000	-0.019	0.101
-518.916	352.872	-0.186	-0.373
-517.902	30.755	-0.117	0.101
-516.887	22.516	-0.171	0.142
-515.872	800.000	-0.053	-0.176
-514.858	-62.547	-0.336	0.141
-513.843	337.486	0.239	0.470
-512.829	494.975	-0.033	-0.078
-511.814	130.390	-0.127	0.165
-510.799	48.400	-0.313	0.297
-509.785	-115.007	-0.104	-0.020
-508.770	-71.504	0.435	-0.165
-507.756	290.390	0.104	0.192
-506.741	46.548	-0.094	-0.089
-505.726	-0.998	0.111	-0.080
-504.712	236.870	0.057	-0.096
-503.697	168.154	0.091	-0.130
-502.683	95.167	0.106	0.123
-501.668	-200.000	0.023	-0.114
-500.653	-111.895	0.011	-0.002
-499.639	35.904	0.209	-0.186
-498.624	-73.911	0.156	-0.057
-497.610	-20.572	-0.165	-0.102
-496.595	346.284	0.062	0.124
-495.581	-33.853	-0.206	0.115
-494.566	-73.778	0.178	0.065
-493.551	681.529	-0.091	0.240
-492.537	-45.999	-0.096	-0.048
-491.522	-200.000	-0.001	-0.079
-490.508	-200.000	0.021	-0.154
-489.493	-127.385	-0.153	0.023
-488.478	-51.554	-0.215	-0.102
-487.464	538.543	-0.069	-0.166
-486.449	27.924	-0.162	0.138
-485.435	-174.397	0.032	-0.001
-484.420	-139.169	0.293	-0.032
-483.405	33.410	-0.236	-0.207
-482.391	-13.964	-0.100	0.065
-481.376	-91.941	-0.316	-0.090
-480.362	-200.000	-0.008	0.131
-479.347	114.242	-0.232	0.285
-478.332	-133.304	0.255	0.033
-477.318	196.469	0.096	-0.147
-476.303	800.000	0.082	0.253
-475.289	800.000	-0.073	-0.228
-474.274	-94.828	0.261	-0.072
-473.259	682.445	-0.085	0.225
-472.245	-41.984	0.219	0.113
-471.230	155.745	0.133	-0.185
-470.216	42.850	0.133	-0.123
-469.201	278.192	-0.127	-0.229
-468.186	19.654	0.134	0.109
-467.172	-186.679	-0.325	-0.005
-466.157	-163.076	-0.125	0.006
-465.143	-184.080	0.116	-0.002
-464.128	217.681	-0.082	-0.132
-463.113	127.906	-0.118	-0.152
-462.099	-200.000	-0.038	-0.295
-461.084	800.000	-0.099	0.327
-460.070	-3.969	-0.092	-0.064
-459.055	-149.927	0.113	-0.009
-458.040	-22.271	-0.351	-0.215
-457.026	-65.255	0.227	0.092
-456.011	-96.308	0.088	-0.023
-454.997	102.321	0.048	0.057
-453.982	164.650	-0.009	-0.013
-452.968	-133.609	0.268	0.034
-451.953	-20.969	-0.037	0.023
-450.938	-73.019	0.121	-0.045
-449.924	66.035	0.021	0.021
-448.909	-200.000	0.001	-0.204
-447.895	-31.553	0.219	0.124
-446.880	-18.882	0.187	-0.118
-445.865	-84.841	-0.441	-0.140
-444.851	-114.550	0.177	-0.034
-443.836	50.942	0.168	0.161
-442.822	-76.362	0.065	0.023
-441.807	-200.000	-0.012	0.255
-440.792	-42.435	0.085	0.044
-439.778	-112.282	0.326	0.066
-438.763	-28.350	0.141	-0.082
-437.749	159.394	-0.085	0.120
-436.734	800.000	0.088	0.294
-435.719	-200.000	-0.033	-0.348
-434.705	18.239	-0.073	-0.059
-433.690	-77.725	-0.118	-0.041
-432.676	165.225	-0.118	0.169
-431.661	170.475	0.105	0.152
-430.646	638.551	-0.169	-0.434
-429.632	578.211	0.059	-0.146
-428.617	-18.517	-0.127	-0.080
-427.603	-70.588	0.075	0.029
-426.588	-200.000	0.019	-0.226
-425.573	734.750	-0.014	-0.038
-424.559	94.005	-0.186	0.213
-423.544	104.184	0.156	0.185
-422.530	114.169	-0.214	-0.263
-421.515	71.570	-0.020	-0.021
-420.500	-61.528	-0.192	-0.081
-419.486	800.000	0.050	0.211
-418.471	800.000	0.105	0.346
-417.457	-200.000	0.010	-0.083
-416.442	-17.839	-0.119	-0.076
-415.428	-200.000	-0.058	-0.301
-414.413	800.000	0.061	-0.196
-413.398	224.991	0.143	0.234
-412.384	-119.763	0.067	-0.012
-411.369	-125.575	0.246	0.038
-410.355	-122.334	-0.219	-0.036
-409.340	-200.000	-0.024	0.123
-408.325	-200.000	0.022	0.116
-407.311	-100.142	0.051	0.013
-406.296	-200.000	-0.012	-0.069
-405.282	36.286	0.142	0.127
-404.267	-87.194	0.169	-0.052
-403.252	-94.945	0.194	-0.053
-402.238	-123.818	-0.132	0.021
-401.223	272.991	0.038	-0.068
-400.209	-200.000	0.062	-0.362
-399.194	67.328	-0.232	0.238
-398.179	1.782	0.126	0.091
-397.165	-146.242	0.196	0.017
-396.150	-17.413	0.170	-0.108
-395.136	-200.000	0.043	0.312
-394.121	-91.755	-0.256	0.073
-393.106	766.453	-0.075	-0.206
-392.092	800.000	0.083	-0.260
-391.077	-18.956	-0.071	0.045
-390.063	-138.136	0.099	0.011
-389.048	124.629	-0.211	-0.267
-388.033	800.000	0.051	-0.194
-387.019	-108.162	0.194	-0.042
-386.004	599.715	-0.028	0.069
-384.990	-46.669	-0.320	0.158
-383.975	-108.441	0.243	0.053
-382.960	800.000	0.107	-0.379
-381.946	23.149	0.291	-0.240
-380.931	-86.997	-0.112	-0.034
-379.917	454.391	0.190	-0.424
-378.902	-112.046	-0.217	-0.044
-377.888	102.410	0.138	-0.162
-376.873	183.691	-0.152	0.227
-375.858	-98.970	0.248	-0.063
-374.844	-69.981	0.181	0.070
-373.829	-94.507	0.174	-0.048
-372.815	705.008	-0.101	-0.269
-371.800	-111.747	0.184	-0.038
-370.785	-168.651	0.020	-0.001
-369.771	-129.377	0.262	0.037
-368.756	-23.897	0.165	-0.100
-367.742	19.147	0.248	-0.201
-366.727	50.552	-0.273	0.260
-365.712	-154.462	-0.125	0.008
-364.698	211.827	0.220	0.350
-363.683	549.193	-0.153	-0.369
-362.669	800.000	-0.105	-0.295
-361.654	291.780	-0.065	-0.120
-360.639	118.097	0.248	0.308
-359.625	800.000	-0.074	-0.214
-358.610	-166.181	-0.063	0.003
-357.596	-200.000	-0.050	0.346
-356.581	-200.000	0.001	-0.352
-355.566	-71.223	-0.177	0.067
-354.552	-200.000	-0.040	0.180
-353.537	549.638	0.078	0.188
-352.523	-153.503	0.111	-0.008
-351.508	800.000	-0.052	0.224
-350.493	-75.208	-0.225	0.081
-349.479	-200.000	0.051	-0.270
-348.464	-57.980	0.207	-0.091
-347.450	254.406	-0.138	0.238
-346.435	800.000	0.115	0.414
-345.420	50.067	-0.328	0.312
-344.406	57.547	-0.048	-0.047
-343.391	800.000	-0.034	0.108
-342.377	-200.000	0.003	-0.118
-341.362	-86.448	0.112	-0.034
-340.348	733.841	-0.196	-0.528
-339.333	-159.012	0.185	-0.011
-338.318	-200.000	-0.035	0.190
-337.304	279.050	0.154	-0.277
-336.289	128.584	-0.198	-0.253
-335.275	137.679	0.052	-0.069
-334.260	-200.000	-0.015	0.340
-333.245	-22.941	0.091	0.055
-332.231	-82.035	-0.096	0.031
-331.216	350.550	-0.111	-0.221
-330.202	-200.000	-0.007	-0.037
-329.187	99.835	0.309	-0.360
-328.172	-73.627	-0.322	0.118
-327.158	479.846	0.028	-0.064
-326.143	129.982	-0.107	-0.138
-325.129	-117.330	0.312	0.057
-324.114	-200.000	-0.011	0.099
-323.099	-15.671	0.148	0.095
-322.085	772.108	-0.096	-0.263
-321.070	-15.989	-0.194	0.124
-320.056	-94.499	-0.094	-0.026
-319.041	18.999	-0.290	0.234
-318.026	-43.848	0.200	-0.101
-317.012	127.723	-0.244	0.311
-315.997	-43.845	-0.239	0.121
-314.983	-51.309	0.113	-0.053
-313.968	-108.405	0.191	0.041
-312.953	-123.328	-0.081	-0.013
-311.939	448.457	-0.010	0.023
-310.924	-35.205	-0.286	-0.156
-309.910	-76.587	0.243	-0.086
-308.895	120.157	0.158	-0.197
-307.880	724.406	-0.057	-0.152
-306.866	-200.000	0.024	0.222
-305.851	800.000	0.020	-0.061
-304.837	-99.128	-0.104	0.026
-303.822	-10.717	0.149	0.099
-302.807	220.564	0.144	0.231
-301.793	-92.853	-0.216	0.061
-300.778	197.476	-0.195	-0.299
-299.764	-112.266	-0.140	0.028
-298.749	-200.000	-0.005	-0.334
-297.735	-48.523	-0.296	-0.143
-296.720	355.078	-0.088	-0.176
-295.705	-200.000	-0.038	-0.396
-294.691	187.291	-0.196	0.294
-293.676	418.864	0.087	-0.186
-292.662	800.000	0.111	0.376
-291.647	-86.318	0.141	-0.044
-290.632	-67.578	0.120	-0.047
-289.618	-21.472	0.121	-0.074
-288.603	-200.000	0.006	-0.046
-287.589	800.000	-0.057	0.207
-286.574	-64.874	-0.415	0.169
-285.559	45.393	0.196	0.182
-284.545	81.685	0.125	0.135
-283.530	271.611	0.027	-0.048
-282.516	-116.145	-0.236	0.044
-281.501	-200.000	0.006	0.120
-280.486	259.974	0.214	0.371
-279.472	22.595	0.029	-0.024
-278.457	800.000	-0.079	0.241
-277.443	178.237	0.110	0.161
-276.428	-123.590	-0.296	-0.047
-275.413	80.871	0.059	0.063
-274.399	-6.462	0.416	0.285
-273.384	31.633	-0.294	-0.254
-272.370	232.924	-0.152	0.251
-271.355	485.247	-0.057	0.131
-270.340	55.313	0.066	-0.064
-269.326	-69.984	-0.243	0.093
-268.311	-8.243	0.328	-0.222
-267.297	-200.000	-0.012	0.167
-266.282	-18.286	-0.321	-0.201
-265.267	-200.000	-0.063	-0.316
-264.253	-91.741	0.235	0.067
-263.238	131.702	-0.310	0.400
-262.224	-200.000	0.032	-0.388
-261.209	-134.771	-0.110	-0.013
-260.195	399.876	0.067	0.140
-259.180	-172.208	-0.189	0.006
-258.165	64.193	0.086	0.087
-257.151	-142.257	-0.225	0.022
-256.136	153.267	0.240	0.329
-255.122	-11.138	-0.114	0.075
-254.107	172.449	-0.137	-0.197
-253.092	503.553	-0.062	0.143
-252.078	-37.466	0.270	0.145
-251.063	-55.179	0.191	-0.086
-250.049	-82.503	-0.104	-0.034
-249.034	-186.298	0.194	0.003
-248.019	-191.808	0.350	-0.003
-247.005	-114.875	-0.134	0.026
-245.990	241.749	0.159	0.267
-244.976	416.496	0.060	0.128
-243.961	259.288	-0.207	-0.358
-242.946	366.251	0.058	-0.117
-241.932	800.000	0.110	-0.347
-240.917	-57.905	-0.264	-0.116
-239.903	-146.323	0.379	0.033
-238.888	-159.935	-0.190	-0.010
-237.873	625.240	0.036	0.092
-236.859	-94.218	0.242	-0.066
-235.844	-200.000	-0.007	0.129
-234.830	-200.000	0.012	0.147
-233.815	15.786	-0.064	-0.050
-232.800	-71.371	0.404	0.152
-231.786	-77.198	-0.109	0.038
-230.771	-31.195	0.233	-0.132
-229.757	66.858	-0.169	0.172
-228.742	158.740	0.152	0.212
-227.727	519.027	-0.009	0.020
-226.713	-171.601	0.175	-0.006
-225.698	224.925	0.016	-0.026
-224.684	216.616	0.084	-0.133
-223.669	-150.881	-0.324	-0.025
-222.655	131.513	0.287	-0.369
-221.640	183.519	0.070	0.104
-220.625	-200.000	-0.023	0.136
-219.611	800.000	0.103	0.305
-218.596	-118.381	-0.094	-0.017
-217.582	-200.000	0.027	0.186
-216.567	-200.000	0.012	0.086
-215.552	-200.000	0.042	0.263
-214.538	85.041	-0.155	-0.170
-213.523	-200.000	0.016	0.164
-212.509	-65.451	0.166	-0.067
-211.494	-200.000	-0.057	-0.353
-210.479	800.000	-0.096	-0.331
-209.465	56.426	-0.047	0.046
-208.450	-200.000	0.026	0.153
-207.436	-14.282	0.241	0.155
-206.421	24.316	0.181	-0.149
-205.406	-11.495	-0.157	-0.103
-204.392	-91.249	-0.188	0.054
-203.377	-200.000	-0.002	0.266
-202.363	-200.000	-0.036	-0.171
-201.348	415.060	0.054	-0.116
-200.333	-129.221	-0.396	-0.055
-199.319	22.991	0.186	0.152
-198.304	-68.129	-0.085	-0.033
-197.290	189.877	-0.223	0.334
-196.275	183.755	0.264	0.390
-195.260	-23.828	-0.143	-0.086
-194.246	47.652	0.034	-0.032
-193.231	139.922	0.174	0.230
-192.217	-95.581	0.200	-0.054
-191.202	627.239	0.041	-0.103
-190.187	800.000	-0.046	0.167
-189.173	18.276	0.214	0.171
-188.158	141.325	0.196	0.260
-187.144	304.987	0.327	0.608
-186.129	-200.000	-0.001	0.254
-185.114	331.818	0.025	-0.048
-184.100	27.580	-0.319	0.269
-183.085	-200.000	-0.039	-0.223
-182.071	24.675	-0.174	0.144
-181.056	800.000	-0.033	-0.127
-180.042	-200.000	-0.005	-0.265
-179.027	-161.106	0.259	-0.014
-178.012	128.625	0.015	-0.019
-176.998	-87.961	-0.140	0.042
-175.983	-25.861	0.135	-0.080
-174.969	-33.005	0.238	0.132
-173.954	65.563	0.182	0.184
-172.939	800.000	0.013	-0.055
-171.925	187.999	-0.025	0.038
-170.910	476.661	0.117	0.264
-169.896	273.669	0.096	0.170
-168.881	800.000	-0.067	0.190
-167.866	42.104	-0.162	-0.147
-166.852	-66.004	-0.159	0.063
-165.837	17.011	-0.136	-0.108
-164.823	-140.569	0.192	0.020
-163.808	-95.729	-0.261	0.070
-162.793	310.953	0.060	-0.112
-161.779	-10.094	0.178	0.118
-160.764	262.920	-0.111	0.192
-159.750	290.909	-0.218	-0.396
-158.735	10.254	-0.236	0.179
-157.720	34.223	-0.167	0.146
-156.706	-66.194	-0.139	-0.055
-155.691	-49.473	0.106	-0.051
-154.677	616.896	-0.127	0.318
-153.662	-155.229	0.288	-0.019
-152.647	-145.787	-0.125	0.011
-151.633	366.396	-0.022	0.044
-150.618	-44.081	0.266	-0.133
-149.604	-12.343	-0.385	-0.251
-148.589	800.000	0.071	-0.268
-147.574	744.835	0.067	-0.180
-146.560	193.208	0.215	-0.325
-145.545	650.629	0.130	0.333
-144.531	42.951	-0.404	0.368
-143.516	132.151	-0.069	0.089
-142.502	495.437	-0.075	-0.171
-141.487	751.063	0.129	0.347
-140.472	-69.546	-0.152	0.058
-139.458	216.896	0.156	0.247
-138.443	70.512	-0.365	0.376
-137.429	167.560	-0.011	-0.016
-136.414	-145.871	0.216	0.019
-135.399	800.000	-0.077	0.215
-134.385	-146.277	-0.307	-0.027
-133.370	-78.472	-0.062	0.021
-132.356	49.400	0.091	0.086
-131.341	-103.583	0.527	-0.123
-130.326	-107.925	0.201	0.044
-129.312	-33.265	0.053	-0.029
-128.297	-26.932	0.162	0.094
-127.283	-139.925	-0.124	0.013
-126.268	239.467	-0.193	-0.320
-125.253	5.056	-0.013	-0.009
-124.239	16.474	0.204	0.161
-123.224	-192.653	-0.146	-0.001
-122.210	-108.783	-0.127	-0.027
-121.195	-150.626	0.261	-0.020
