DTS Sentinel unit serial number:	SN413079Multiplexer serial number:	ORYXHardware model number:	OX4-SRSoftware version number:	ORYX F/W v4.00 Oryx Data Collector v3.7.2.0data status	okinstallation	princeton_trtdifferential loss correction	single-endedforward channel	channel 1reverse channel	N/Adate	2019/09/18time	03:06:35forward acquisition time	60.00reverse acquisition time	0.00gamma	496.2192k internal	0.2340k external	0.2340temperature offset calibration	0.9977default loss term (dB/km)	0.3790temperature slope calibration	1.0000multiplexer offset coefficient	1.0000multiplexer slope coefficient	1.0000fibre end	0.00T internal ref (°C)	22.75T ext. ref 1 (°C)	0.16T ext. ref 2 (°C)	16.90length (m)	temperature (°C)	Stokes	anti-Stokes-747.200	25.363	0.120	0.100
-746.185	-47.641	-0.052	0.025
-745.171	-200.000	0.018	-0.224
-744.156	-38.194	0.182	-0.097
-743.142	-107.162	-0.144	0.032
-742.127	63.695	-0.111	0.112
-741.112	-163.233	-0.203	0.010
-740.098	800.000	-0.058	0.190
-739.083	-55.582	0.111	-0.050
-738.069	-200.000	-0.029	0.402
-737.054	-200.000	0.034	0.406
-736.039	-83.329	-0.315	0.101
-735.025	225.727	0.099	0.161
-734.010	705.717	-0.043	-0.113
-732.996	18.823	0.203	-0.163
-731.981	513.121	0.027	0.063
-730.966	-15.504	-0.311	0.199
-729.952	447.522	-0.062	-0.138
-728.937	-69.682	0.158	0.061
-727.923	-200.000	0.018	-0.108
-726.908	-200.000	-0.278	0.001
-725.894	417.705	-0.164	0.350
-724.879	-87.117	-0.201	-0.061
-723.864	573.390	-0.015	0.037
-722.850	800.000	-0.056	0.227
-721.835	496.184	-0.109	-0.250
-720.821	800.000	0.035	-0.136
-719.806	473.098	-0.090	-0.202
-718.791	-39.842	-0.257	-0.134
-717.777	-59.963	-0.047	0.020
-716.762	220.280	0.150	-0.240
-715.748	-200.000	0.019	-0.096
-714.733	-100.505	-0.272	-0.067
-713.718	413.683	0.174	-0.371
-712.704	-186.604	0.400	-0.006
-711.689	-63.588	-0.070	0.029
-710.675	-200.000	-0.000	0.062
-709.660	602.263	-0.025	0.062
-708.645	-45.835	-0.213	-0.105
-707.631	-40.638	0.262	-0.136
-706.616	-58.322	0.337	0.147
-705.602	-200.000	0.027	0.126
-704.587	-200.000	-0.004	-0.138
-703.572	-68.410	0.228	-0.089
-702.558	642.968	-0.193	0.492
-701.543	565.873	0.144	-0.351
-700.529	800.000	0.038	0.124
-699.514	-183.059	0.206	0.004
-698.499	125.276	-0.038	-0.048
-697.485	-124.499	0.464	-0.072
-696.470	-200.000	-0.005	-0.115
-695.456	-97.788	-0.194	0.050
-694.441	488.308	0.100	-0.229
-693.426	-65.975	-0.434	-0.173
-692.412	-85.888	-0.286	0.089
-691.397	800.000	0.071	-0.307
-690.383	-40.636	-0.225	-0.117
-689.368	21.679	-0.110	-0.090
-688.354	33.094	0.278	-0.241
-687.339	-200.000	-0.015	0.123
-686.324	454.442	0.122	-0.270
-685.310	-200.000	0.027	-0.120
-684.295	467.408	-0.090	-0.201
-683.281	79.744	-0.291	-0.312
-682.266	175.230	0.094	0.137
-681.251	531.050	-0.073	0.173
-680.237	-138.076	0.274	0.030
-679.222	143.003	-0.061	-0.081
-678.208	-103.805	-0.257	0.060
-677.193	800.000	0.031	-0.093
-676.178	90.169	-0.123	0.137
-675.164	80.058	0.057	-0.062
-674.149	-3.409	-0.094	-0.065
-673.135	48.515	0.232	-0.217
-672.120	-200.000	0.020	-0.104
-671.105	800.000	-0.101	-0.300
-670.091	744.571	0.106	0.284
-669.076	72.417	0.475	-0.495
-668.062	800.000	0.064	-0.177
-667.047	-200.000	-0.019	-0.106
-666.032	210.306	-0.023	0.036
-665.018	-37.001	0.169	0.091
-664.003	-17.548	0.230	-0.144
-662.989	-174.924	0.173	0.005
-661.974	346.359	-0.104	0.204
-660.959	190.119	0.118	0.178
-659.945	-200.000	0.014	-0.293
-658.930	800.000	0.096	-0.381
-657.916	-69.485	-0.305	0.117
-656.901	-36.846	0.181	0.097
-655.886	70.172	-0.340	0.351
-654.872	594.013	0.023	-0.056
-653.857	115.811	-0.161	-0.197
-652.843	-200.000	-0.001	0.096
-651.828	91.157	-0.101	0.113
-650.814	49.296	0.174	-0.163
-649.799	15.288	0.100	-0.079
-648.784	375.561	0.112	-0.229
-647.770	194.450	0.129	-0.195
-646.755	-148.074	-0.268	-0.022
-645.741	-200.000	-0.039	-0.495
-644.726	350.114	0.087	-0.171
-643.711	29.495	0.101	0.086
-642.697	-85.121	-0.135	0.042
-641.682	221.714	0.221	-0.355
-640.668	335.975	0.090	0.175
-639.653	-18.774	-0.273	0.170
-638.638	-104.340	-0.487	-0.113
-637.624	-169.699	-0.260	-0.009
-636.609	800.000	-0.057	0.176
-635.595	335.711	0.114	0.222
-634.580	800.000	-0.043	-0.136
-633.565	210.556	-0.057	0.090
-632.551	-100.695	0.220	0.054
-631.536	55.719	0.076	0.073
-630.522	-59.333	-0.114	-0.049
-629.507	204.896	0.121	0.187
-628.492	800.000	-0.042	0.162
-627.478	13.231	-0.109	0.084
-626.463	172.464	-0.252	0.362
-625.449	620.712	-0.178	-0.446
-624.434	-99.104	0.100	-0.025
-623.419	48.041	-0.149	0.139
-622.405	800.000	-0.038	0.116
-621.390	-120.778	-0.298	-0.050
-620.376	-1.900	-0.171	0.120
-619.361	183.525	-0.008	0.012
-618.346	24.438	-0.298	0.246
-617.332	-168.350	-0.193	0.007
-616.317	800.000	0.067	-0.222
-615.303	70.675	-0.006	0.006
-614.288	800.000	-0.039	0.136
-613.273	-78.228	-0.307	0.105
-612.259	40.184	-0.215	0.192
-611.244	-162.877	0.217	0.011
-610.230	-24.577	0.177	-0.105
-609.215	800.000	0.098	0.275
-608.201	144.431	0.094	0.126
-607.186	-160.113	0.212	-0.011
-606.171	-200.000	0.012	0.092
-605.157	800.000	-0.057	0.222
-604.142	27.183	0.216	0.181
-603.128	2.685	0.156	-0.113
-602.113	375.725	0.107	0.217
-601.098	-200.000	0.027	0.167
-600.084	43.441	0.109	-0.099
-599.069	-105.966	-0.082	0.018
-598.055	113.659	-0.130	0.157
-597.040	111.331	-0.045	0.053
-596.025	-67.573	0.109	-0.043
-595.011	800.000	0.135	0.373
-593.996	-39.999	-0.197	0.103
-592.982	800.000	0.031	0.085
-591.967	-53.821	-0.283	-0.128
-590.952	800.000	-0.074	0.246
-589.938	-62.893	0.083	-0.034
-588.923	374.590	-0.077	-0.156
-587.909	-126.815	0.327	-0.048
-586.894	-200.000	0.011	0.319
-585.879	-96.731	-0.331	-0.087
-584.865	92.457	0.187	0.210
-583.850	-200.000	0.006	0.253
-582.836	-200.000	0.022	0.266
-581.821	-21.898	0.124	-0.075
-580.806	-169.825	-0.225	-0.008
-579.792	-200.000	-0.054	0.313
-578.777	92.498	-0.285	-0.320
-577.763	34.603	-0.137	0.120
-576.748	-112.239	-0.064	0.013
-575.733	-117.269	-0.147	-0.027
-574.719	307.301	0.182	0.337
-573.704	-131.837	-0.182	0.024
-572.690	84.675	-0.079	-0.086
-571.675	49.297	-0.194	-0.182
-570.661	329.484	0.197	-0.378
-569.646	-51.688	-0.232	-0.108
-568.631	228.509	-0.104	-0.168
-567.617	-89.894	-0.304	0.089
-566.602	-200.000	-0.047	0.296
-565.588	323.433	0.153	-0.291
-564.573	-94.585	-0.247	0.067
-563.558	-200.000	0.083	0.446
-562.544	52.925	0.094	-0.090
-561.529	-52.818	-0.303	0.139
-560.515	-28.034	0.246	0.141
-559.500	179.180	-0.058	0.085
-558.485	-2.077	-0.191	0.134
-557.471	-200.000	0.018	-0.122
-556.456	49.284	-0.202	-0.189
-555.442	-25.643	0.259	-0.152
-554.427	-10.313	-0.242	-0.160
-553.412	-4.655	-0.218	-0.150
-552.398	131.352	-0.090	0.115
-551.383	-200.000	0.046	0.222
-550.369	-200.000	-0.023	-0.131
-549.354	-89.597	0.162	-0.047
-548.339	-200.000	-0.035	-0.407
-547.325	473.502	0.114	0.255
-546.310	289.567	0.027	-0.049
-545.296	340.853	0.166	0.322
-544.281	214.845	0.102	-0.160
-543.266	-168.553	-0.240	-0.009
-542.252	-12.870	0.095	0.062
-541.237	800.000	-0.055	-0.193
-540.223	66.192	-0.235	0.238
-539.208	-12.351	-0.096	-0.062
-538.193	-200.000	-0.014	0.099
-537.179	79.390	-0.024	-0.026
-536.164	125.437	0.085	0.107
-535.150	-64.549	0.217	-0.087
-534.135	-19.539	0.105	0.064
-533.121	800.000	0.015	0.047
-532.106	3.041	-0.183	-0.132
-531.091	-200.000	-0.031	0.167
-530.077	417.468	-0.135	-0.287
-529.062	-200.000	-0.011	-0.305
-528.048	-150.051	0.331	-0.026
-527.033	495.846	0.026	-0.059
-526.018	-24.704	-0.286	0.169
-525.004	341.576	-0.176	-0.343
-523.989	144.500	0.047	0.062
-522.975	-200.000	-0.007	0.169
-521.960	76.838	0.148	-0.156
-520.945	-105.697	-0.059	0.013
-519.931	151.243	-0.154	0.209
-518.916	-53.386	-0.373	0.170
-517.902	800.000	0.048	-0.152
-516.887	-19.496	0.105	0.065
-515.872	-200.000	-0.031	-0.208
-514.858	34.213	-0.140	-0.122
-513.843	800.000	-0.060	0.191
-512.829	-169.097	0.264	0.010
-511.814	683.702	0.027	-0.071
-510.799	-90.309	-0.232	-0.067
-509.785	-120.850	0.250	0.042
-508.770	20.701	0.227	0.183
-507.756	-29.729	-0.469	-0.266
-506.741	-134.779	0.470	0.057
-505.726	800.000	0.074	0.264
-504.712	-200.000	-0.014	0.167
-503.697	294.614	-0.088	0.160
-502.683	-88.534	-0.351	0.104
-501.668	-162.331	-0.429	0.021
-500.653	116.854	0.118	-0.144
-499.639	-59.583	-0.205	-0.087
-498.624	26.156	0.164	0.136
-497.610	100.036	-0.101	-0.116
-496.595	-97.441	0.222	0.057
-495.581	20.482	0.272	0.219
-494.566	-65.218	-0.244	0.098
-493.551	-1.708	-0.056	-0.039
-492.537	800.000	-0.135	-0.463
-491.522	-119.429	0.206	-0.036
-490.508	-63.647	0.100	-0.041
-489.493	-190.022	-0.118	0.001
-488.478	-2.830	-0.345	-0.239
-487.464	281.059	-0.086	-0.152
-486.449	-200.000	0.026	0.346
-485.435	-13.738	-0.395	-0.254
-484.420	-119.778	-0.411	0.070
-483.405	800.000	0.004	0.012
-482.391	-122.602	0.285	-0.046
-481.376	-171.737	0.245	0.008
-480.362	340.125	0.155	0.300
-479.347	108.269	-0.112	-0.133
-478.332	101.968	0.096	0.111
-477.318	-93.735	-0.259	-0.071
-476.303	-200.000	-0.001	0.216
-475.289	137.846	0.095	0.123
-474.274	185.380	0.094	-0.138
-473.259	110.881	-0.149	-0.178
-472.245	276.837	-0.109	0.192
-471.230	30.171	0.150	-0.127
-470.216	-163.332	0.209	0.010
-469.201	-74.067	-0.110	-0.040
-468.186	159.631	0.009	-0.012
-467.172	313.788	-0.177	0.331
-466.157	-163.181	0.401	0.019
-465.143	215.660	-0.214	0.337
-464.128	-200.000	-0.008	-0.075
-463.113	800.000	-0.063	-0.191
-462.099	-200.000	0.027	-0.419
-461.084	-114.385	-0.334	-0.064
-460.070	204.777	0.117	0.181
-459.055	77.320	0.163	-0.172
-458.040	-121.931	0.368	0.060
-457.026	-119.575	-0.148	-0.025
-456.011	800.000	0.030	0.098
-454.997	-200.000	0.001	0.266
-453.982	29.579	-0.327	0.276
-452.968	216.348	0.161	-0.254
-451.953	800.000	-0.075	-0.224
-450.938	800.000	0.034	0.122
-449.924	-121.503	0.118	0.019
-448.909	800.000	-0.116	0.364
-447.895	800.000	-0.061	-0.206
-446.880	-200.000	0.018	-0.146
-445.865	9.079	-0.118	-0.088
-444.851	67.530	0.173	-0.175
-443.836	154.079	0.090	0.122
-442.822	-200.000	0.020	-0.110
-441.807	-68.063	0.189	-0.073
-440.792	-8.971	0.038	-0.025
-439.778	396.276	-0.035	-0.072
-438.763	-200.000	0.029	-0.156
-437.749	31.771	0.079	-0.067
-436.734	-166.518	0.195	-0.008
-435.719	370.636	-0.064	0.129
-434.705	-200.000	-0.020	0.217
-433.690	-36.761	-0.156	0.083
-432.676	-10.022	-0.109	0.072
-431.661	-83.224	0.027	-0.009
-430.646	472.638	-0.108	-0.242
-429.632	-15.005	-0.084	-0.053
-428.617	-39.160	-0.255	0.133
-427.603	-52.221	0.185	0.085
-426.588	719.941	0.107	-0.282
-425.573	-68.007	0.281	0.108
-424.559	517.326	0.092	-0.214
-423.544	87.347	-0.133	0.145
-422.530	-85.101	-0.224	-0.069
-421.515	-11.258	-0.151	-0.098
-420.500	-69.869	-0.183	-0.069
-419.486	-185.685	0.316	0.005
-418.471	-44.524	-0.204	0.101
-417.457	-141.060	0.205	0.021
-416.442	-200.000	-0.088	0.501
-415.428	306.018	-0.128	-0.235
-414.413	103.659	0.136	0.158
-413.398	-18.214	0.063	-0.039
-412.384	-200.000	0.043	0.246
-411.369	-63.032	0.174	-0.071
-410.355	420.652	-0.064	0.136
-409.340	-59.411	0.196	0.083
-408.325	-0.249	-0.048	-0.034
-407.311	229.180	-0.195	-0.315
-406.296	-175.540	0.580	0.016
-405.282	-34.822	0.228	0.123
-404.267	206.620	0.149	-0.229
-403.252	-120.405	0.237	0.040
-402.238	-198.282	0.083	-0.000
-401.223	-10.439	-0.036	-0.024
-400.209	90.615	-0.234	0.259
-399.194	-141.842	-0.315	0.031
-398.179	-11.788	0.336	-0.218
-397.165	-97.650	-0.215	0.055
-396.150	-194.850	-0.054	0.000
-395.136	-97.619	0.270	-0.069
-394.121	-200.000	0.003	-0.284
-393.106	-94.618	0.036	0.010
-392.092	-27.221	0.095	0.055
-391.077	-200.000	-0.037	-0.217
-390.063	24.417	0.127	-0.104
-389.048	-17.637	-0.204	-0.127
-388.033	800.000	0.091	0.269
-387.019	339.631	-0.087	0.168
-386.004	-9.194	0.337	0.222
-384.990	-53.721	0.210	-0.095
-383.975	-66.372	-0.127	0.050
-382.960	492.178	-0.061	0.138
-381.946	580.294	-0.023	-0.055
-380.931	-110.000	0.097	-0.020
-379.917	88.868	0.065	0.071
-378.902	-200.000	0.027	-0.173
-377.888	-200.000	0.018	0.123
-376.873	-110.523	-0.026	-0.005
-375.858	747.530	-0.078	-0.207
-374.844	-177.867	0.449	0.011
-373.829	-200.000	-0.016	0.238
-372.815	-60.119	0.269	0.113
-371.800	-103.529	-0.223	-0.052
-370.785	218.564	-0.025	-0.039
-369.771	-200.000	0.114	-0.593
-368.756	-67.382	-0.365	-0.142
-367.742	1.563	-0.267	0.190
-366.727	-141.098	-0.236	-0.024
-365.712	73.072	0.164	-0.169
-364.698	-74.996	-0.163	0.058
-363.683	-133.151	-0.290	-0.036
-362.669	-187.264	-0.337	-0.005
-361.654	752.793	0.099	-0.264
-360.639	336.715	-0.130	0.249
-359.625	34.476	-0.147	-0.127
-358.610	172.152	0.174	0.247
-357.596	762.886	0.124	-0.332
-356.581	213.602	-0.098	0.153
-355.566	-82.008	-0.152	0.049
-354.552	29.773	-0.090	-0.076
-353.537	-34.077	0.222	0.121
-352.523	62.038	0.142	-0.140
-351.508	-27.074	-0.191	-0.110
-350.493	80.929	0.087	-0.092
-349.479	-47.897	-0.121	-0.058
-348.464	-149.156	-0.127	0.010
-347.450	800.000	-0.020	-0.079
-346.435	468.008	-0.066	0.147
-345.420	14.783	0.132	-0.102
-344.406	-200.000	0.008	-0.197
-343.391	-76.571	-0.053	-0.018
-342.377	-187.258	-0.096	0.001
-341.362	-200.000	0.014	0.241
-340.348	-72.345	-0.084	-0.031
-339.333	60.259	0.110	0.107
-338.318	455.866	-0.052	0.114
-337.304	-76.810	0.438	0.151
-336.289	-200.000	-0.027	-0.228
-335.275	743.491	-0.042	0.112
-334.260	124.576	0.122	0.152
-333.245	-200.000	-0.006	0.090
-332.231	-5.493	0.093	-0.063
-331.216	-200.000	0.002	-0.199
-330.202	232.319	-0.229	0.371
-329.187	-200.000	-0.083	0.000
-328.172	798.831	-0.158	0.430
-327.158	105.920	-0.080	0.094
-326.143	-200.000	-0.059	0.350
-325.129	-96.384	0.282	0.074
-324.114	800.000	0.016	0.063
-323.099	-137.627	0.388	0.043
-322.085	-200.000	0.022	0.244
-321.070	41.387	-0.042	-0.037
-320.056	-24.400	0.193	0.113
-319.041	800.000	-0.030	0.089
-318.026	35.286	-0.209	0.181
-317.012	385.734	-0.086	0.176
-315.997	29.611	0.256	-0.215
-314.983	213.951	0.124	0.193
-313.968	229.775	-0.056	0.089
-312.953	-104.354	-0.239	0.055
-311.939	-119.387	0.498	-0.085
-310.924	313.679	-0.102	-0.188
-309.910	-200.000	0.024	0.142
-308.895	154.356	-0.083	-0.113
-307.880	-67.701	-0.208	-0.080
-306.866	348.888	0.139	-0.271
-305.851	41.838	-0.172	-0.154
-304.837	-200.000	0.010	0.294
-303.822	-105.390	0.070	-0.016
-302.807	-41.708	0.350	-0.177
-301.793	53.219	-0.106	0.100
-300.778	-86.100	-0.197	0.060
-299.764	-117.797	-0.416	-0.074
-298.749	710.924	-0.037	-0.096
-297.735	-108.896	-0.223	-0.047
-296.720	-200.000	-0.023	0.115
-295.705	-65.581	-0.047	-0.018
-294.691	117.043	0.307	0.371
-293.676	800.000	-0.064	-0.260
-292.662	26.134	-0.157	0.129
-291.647	-200.000	-0.077	-0.375
-290.632	-76.290	0.127	-0.044
-289.618	28.374	-0.142	-0.118
-288.603	104.186	-0.225	-0.261
-287.589	800.000	-0.049	0.135
-286.574	105.334	0.103	-0.120
-285.559	169.906	-0.048	-0.067
-284.545	-77.627	0.221	-0.075
-283.530	13.567	-0.194	-0.148
-282.516	238.064	0.174	-0.285
-281.501	-17.804	0.198	-0.122
-280.486	-200.000	0.001	0.016
-279.472	337.779	0.020	-0.038
-278.457	-121.526	-0.306	-0.050
-277.443	-67.788	0.265	0.102
-276.428	-200.000	0.076	0.338
-275.413	-33.534	0.213	-0.116
-274.399	-91.089	0.171	-0.048
-273.384	15.674	-0.144	0.111
-272.370	-61.726	-0.536	0.221
-271.355	-121.487	-0.213	-0.035
-270.340	-75.108	0.420	0.148
-269.326	78.530	-0.201	-0.211
-268.311	-81.714	0.262	-0.085
-267.297	94.561	-0.145	-0.163
-266.282	401.223	-0.087	-0.179
-265.267	-200.000	0.029	-0.208
-264.253	-200.000	-0.046	0.199
-263.238	-200.000	-0.039	-0.224
-262.224	-110.691	0.389	-0.079
-261.209	-200.000	-0.047	-0.225
-260.195	461.994	0.064	0.140
-259.180	472.733	-0.031	0.068
-258.165	-92.225	0.324	-0.090
-257.151	21.705	0.044	-0.035
-256.136	-18.802	0.257	-0.157
-255.122	-200.000	0.013	0.234
-254.107	-200.000	-0.008	0.048
-253.092	6.299	0.060	0.044
-252.078	779.450	0.080	0.214
-251.063	-41.547	-0.238	-0.120
-250.049	-67.882	0.069	0.027
-249.034	43.116	0.165	-0.148
-248.019	-200.000	-0.036	-0.229
-247.005	-67.427	0.095	0.037
-245.990	-13.931	0.278	-0.176
-244.976	-200.000	0.054	-0.240
-243.961	414.404	-0.051	-0.108
-242.946	-11.742	0.334	0.216
-241.932	-22.391	-0.290	0.173
-240.917	-60.621	0.082	-0.034
-239.903	800.000	0.034	-0.124
-238.888	-200.000	-0.011	-0.065
-237.873	349.412	0.072	-0.140
-236.859	34.842	0.212	0.182
-235.844	-200.000	0.082	0.426
-234.830	59.936	0.106	-0.103
-233.815	800.000	0.092	0.319
-232.800	108.180	0.049	0.057
-231.786	-15.645	-0.200	-0.126
-230.771	188.020	0.066	-0.096
-229.757	-80.228	0.217	-0.072
-228.742	-200.000	0.013	-0.086
-227.727	-49.709	-0.113	-0.053
-226.713	800.000	-0.027	-0.077
-225.698	-7.663	-0.119	-0.079
-224.684	0.760	-0.165	-0.116
-223.669	800.000	0.042	-0.153
-222.655	-200.000	0.045	0.294
-221.640	185.897	0.121	0.177
-220.625	-5.514	-0.142	-0.096
-219.611	-122.689	-0.492	0.078
-218.596	242.117	-0.071	0.116
-217.582	-200.000	0.057	0.250
-216.567	-59.497	0.089	0.038
-215.552	800.000	0.099	-0.277
-214.538	-91.850	-0.185	0.052
-213.523	5.145	0.126	-0.091
-212.509	-52.201	-0.326	-0.148
-211.494	-41.033	0.244	-0.124
-210.479	15.029	0.409	0.315
-209.465	412.966	-0.091	-0.190
-208.450	-200.000	0.012	-0.260
-207.436	-67.288	0.208	0.080
-206.421	800.000	0.039	-0.112
-205.406	-200.000	0.017	-0.241
-204.392	-65.918	-0.170	0.067
-203.377	-61.864	0.042	0.017
-202.363	165.870	-0.094	-0.131
-201.348	-82.115	0.117	-0.037
-200.333	31.655	0.210	0.177
-199.319	293.015	-0.106	0.190
-198.304	-121.609	0.358	0.058
-197.290	243.295	0.087	-0.142
-196.275	45.348	-0.203	-0.184
-195.260	-200.000	-0.036	-0.281
-194.246	-27.539	0.143	0.082
-193.231	-107.700	0.150	0.032
-192.217	-120.856	0.385	-0.064
-191.202	-105.884	0.013	0.003
-190.187	325.535	0.092	-0.172
-189.173	3.223	0.257	0.184
-188.158	478.484	-0.128	-0.285
-187.144	800.000	0.037	-0.146
-186.129	69.437	-0.119	-0.120
-185.114	-149.941	-0.165	0.013
-184.100	-90.775	-0.072	-0.020
-183.085	-200.000	0.022	0.125
-182.071	18.789	-0.161	0.127
-181.056	65.489	0.027	-0.026
-180.042	-13.005	0.120	-0.076
-179.027	800.000	0.043	0.131
-178.012	-150.285	0.355	0.027
-176.998	-134.161	-0.480	0.058
-175.983	800.000	0.083	-0.233
-174.969	85.825	0.037	0.039
-173.954	-200.000	0.037	0.222
-172.939	-66.990	0.125	0.049
-171.925	800.000	-0.058	-0.198
-170.910	-68.851	0.130	0.049
-169.896	-190.095	0.195	-0.002
-168.881	28.691	0.208	0.173
-167.866	800.000	-0.020	-0.077
-166.852	75.125	0.138	-0.142
-165.837	-49.758	0.180	0.084
-164.823	-24.157	-0.413	-0.242
-163.808	-161.347	0.268	0.014
-162.793	800.000	0.101	0.281
-161.779	-71.772	0.148	-0.054
-160.764	-96.776	-0.192	-0.050
-159.750	196.453	0.101	-0.151
-158.735	186.232	-0.142	-0.207
-157.720	-200.000	0.011	-0.111
-156.706	-105.634	-0.162	0.036
-155.691	-79.834	0.137	0.045
-154.677	113.668	0.144	-0.172
-153.662	566.363	-0.085	-0.203
-152.647	-41.864	0.371	0.186
-151.633	2.659	0.278	-0.197
-150.618	-41.083	-0.177	-0.090
-149.604	69.758	0.205	0.207
-148.589	276.330	0.016	0.027
-147.574	-200.000	0.011	-0.188
-146.560	-200.000	-0.012	0.148
-145.545	-45.693	0.353	-0.171
-144.531	-200.000	-0.008	0.100
-143.516	-139.214	0.278	0.029
-142.502	-200.000	-0.068	0.367
-141.487	800.000	-0.038	-0.146
-140.472	113.150	-0.073	-0.086
-139.458	-145.637	0.067	-0.006
-138.443	319.903	0.140	-0.260
-137.429	-180.616	-0.054	-0.001
-136.414	33.822	-0.218	-0.186
-135.399	277.756	-0.109	0.190
-134.385	-73.480	-0.081	-0.029
-133.370	248.404	0.138	-0.228
-132.356	20.364	-0.149	0.118
-131.341	-24.320	0.122	0.071
-130.326	-63.941	0.246	0.098
-129.312	-97.406	0.040	-0.010
-128.297	41.194	-0.075	-0.066
-127.283	19.625	0.249	0.196
-126.268	35.055	-0.088	-0.075
-125.253	-200.000	0.037	0.219
-124.239	-100.868	-0.347	-0.083
-123.224	33.179	0.162	0.137
-122.210	-109.082	-0.192	-0.040
-121.195	191.789	0.175	-0.259
