DTS Sentinel unit serial number:	SN413079Multiplexer serial number:	ORYXHardware model number:	OX4-SRSoftware version number:	ORYX F/W v4.00 Oryx Data Collector v3.7.2.0data status	okinstallation	princeton_trtdifferential loss correction	single-endedforward channel	channel 1reverse channel	N/Adate	2019/09/15time	18:14:35forward acquisition time	60.00reverse acquisition time	0.00gamma	496.2192k internal	0.2291k external	0.2291temperature offset calibration	0.9931default loss term (dB/km)	0.3790temperature slope calibration	1.0000multiplexer offset coefficient	1.0000multiplexer slope coefficient	1.0000fibre end	0.00T internal ref (°C)	44.53T ext. ref 1 (°C)	6.59T ext. ref 2 (°C)	39.02length (m)	temperature (°C)	Stokes	anti-Stokes-747.200	-200.000	-0.009	-0.096
-746.185	21.775	-0.135	-0.112
-745.171	800.000	0.043	0.136
-744.156	-66.750	-0.346	0.140
-743.142	466.893	-0.046	-0.105
-742.127	286.570	-0.015	0.029
-741.112	-103.129	0.290	0.070
-740.098	-0.378	0.134	-0.098
-739.083	-3.960	-0.235	-0.167
-738.069	-200.000	0.022	0.187
-737.054	485.135	0.103	0.240
-736.039	-83.458	0.317	0.104
-735.025	54.665	0.251	0.248
-734.010	-53.083	-0.245	0.115
-732.996	-51.013	-0.349	-0.168
-731.981	-27.395	-0.247	0.147
-730.966	352.649	-0.073	-0.147
-729.952	252.542	0.104	-0.182
-728.937	95.873	-0.120	0.140
-727.923	-200.000	0.003	-0.175
-726.908	-200.000	-0.074	0.389
-725.894	58.040	-0.097	-0.097
-724.879	196.487	-0.055	0.085
-723.864	-200.000	0.048	-0.225
-722.850	59.618	0.121	0.122
-721.835	700.762	-0.098	0.264
-720.821	-42.170	-0.235	-0.123
-719.806	-122.327	-0.135	0.023
-718.791	800.000	-0.103	0.388
-717.777	-200.000	-0.012	-0.233
-716.762	-112.692	0.045	0.009
-715.748	-68.381	0.187	0.074
-714.733	-26.218	-0.301	0.181
-713.718	800.000	-0.075	-0.222
-712.704	238.825	-0.115	-0.195
-711.689	-129.911	0.092	0.013
-710.675	800.000	0.033	-0.129
-709.660	-200.000	0.024	0.417
-708.645	99.252	-0.204	-0.241
-707.631	682.773	0.027	-0.072
-706.616	107.882	0.121	0.147
-705.602	3.773	0.433	-0.323
-704.587	-200.000	-0.018	0.127
-703.572	-52.083	-0.101	0.048
-702.558	-200.000	-0.035	-0.253
-701.543	800.000	0.073	-0.215
-700.529	-200.000	-0.000	0.105
-699.514	299.046	-0.111	-0.208
-698.499	-194.431	0.234	0.002
-697.485	-200.000	0.001	-0.233
-696.470	-131.906	-0.121	0.016
-695.456	655.462	-0.061	-0.160
-694.441	9.940	0.157	-0.122
-693.426	321.335	-0.219	-0.426
-692.412	8.162	-0.153	0.118
-691.397	35.986	0.063	-0.057
-690.383	-200.000	0.044	0.276
-689.368	721.214	-0.060	0.162
-688.354	-68.224	-0.088	0.035
-687.339	352.173	0.100	0.202
-686.324	800.000	-0.103	0.385
-685.310	-57.316	-0.084	-0.038
-684.295	-131.828	-0.249	0.033
-683.281	7.556	-0.185	-0.142
-682.266	-70.544	0.300	0.116
-681.251	-93.207	0.297	0.084
-680.237	72.263	0.141	-0.150
-679.222	542.988	0.060	-0.147
-678.208	-200.000	-0.013	0.299
-677.193	-130.128	0.072	-0.010
-676.178	236.001	-0.074	-0.125
-675.164	19.932	0.363	-0.299
-674.149	135.980	0.160	0.212
-673.135	-22.429	0.204	-0.126
-672.120	-54.308	-0.194	-0.090
-671.105	-13.069	0.095	0.063
-670.091	31.135	-0.031	0.027
-669.076	389.156	-0.054	0.115
-668.062	-54.377	-0.114	-0.053
-667.047	-113.157	0.333	-0.067
-666.032	84.488	0.059	0.066
-665.018	-200.000	-0.005	-0.082
-664.003	90.065	0.228	-0.260
-662.989	115.213	0.069	-0.087
-661.974	-200.000	0.063	-0.365
-660.959	32.870	0.100	0.089
-659.945	253.462	0.106	0.184
-658.930	191.732	-0.064	0.098
-657.916	-172.694	-0.306	-0.010
-656.901	-50.352	0.166	-0.080
-655.886	27.055	-0.229	-0.196
-654.872	-17.888	-0.102	-0.066
-653.857	2.867	-0.177	0.131
-652.843	123.991	-0.106	0.136
-651.828	-47.996	0.161	-0.080
-650.814	-44.003	0.153	0.079
-649.799	-23.981	0.276	0.169
-648.784	800.000	0.036	0.153
-647.770	-42.129	-0.122	0.064
-646.755	83.505	-0.259	-0.288
-645.741	-36.614	-0.273	0.150
-644.726	-200.000	-0.001	-0.333
-643.711	-200.000	0.027	0.211
-642.697	-141.596	-0.377	-0.039
-641.682	14.330	0.069	0.055
-640.668	-200.000	0.017	0.096
-639.653	166.469	0.114	0.165
-638.638	800.000	-0.088	0.348
-637.624	37.863	0.107	0.097
-636.609	37.675	0.095	0.086
-635.595	637.536	-0.079	-0.205
-634.580	205.879	0.071	0.113
-633.565	-71.320	0.189	0.072
-632.551	-145.154	-0.457	0.042
-631.536	21.862	-0.263	-0.219
-630.522	371.531	0.109	0.225
-629.507	-28.081	0.313	0.184
-628.492	165.056	0.145	0.209
-627.478	147.548	-0.237	0.325
-626.463	-152.310	0.296	-0.022
-625.449	-150.459	-0.136	0.011
-624.434	642.053	-0.129	-0.334
-623.419	4.027	0.170	-0.127
-622.405	498.208	0.049	0.115
-621.390	131.831	-0.161	0.211
-620.376	-79.616	-0.241	-0.083
-619.361	9.912	-0.046	0.035
-618.346	-168.121	0.101	0.004
-617.332	800.000	-0.015	-0.043
-616.317	-136.447	-0.251	0.030
-615.303	48.400	0.052	-0.050
-614.288	-47.264	-0.148	0.074
-613.273	159.793	0.099	-0.140
-612.259	221.696	0.185	-0.302
-611.244	20.658	0.137	0.113
-610.230	375.878	-0.036	-0.075
-609.215	512.384	-0.103	-0.245
-608.201	291.859	0.085	-0.158
-607.186	59.805	-0.082	0.082
-606.171	182.853	-0.079	-0.119
-605.157	14.881	0.114	-0.091
-604.142	-141.724	-0.277	-0.028
-603.128	503.721	-0.056	-0.131
-602.113	-95.313	-0.095	-0.026
-601.098	-200.000	-0.026	0.251
-600.084	415.272	-0.066	0.144
-599.069	68.508	0.154	-0.161
-598.055	-200.000	-0.043	-0.267
-597.040	38.360	0.172	0.156
-596.025	-151.261	-0.482	-0.037
-595.011	-154.430	-0.232	0.016
-593.996	-200.000	-0.009	0.312
-592.982	28.329	-0.182	-0.157
-591.967	-158.050	0.087	0.005
-590.952	399.937	-0.108	0.230
-589.938	-12.986	-0.270	0.179
-588.923	123.391	0.087	0.111
-587.909	164.706	-0.083	-0.119
-586.894	-26.171	0.178	0.107
-585.879	-108.348	0.024	0.005
-584.865	800.000	0.030	0.085
-583.850	-163.008	-0.211	0.010
-582.836	-24.049	-0.267	-0.162
-581.821	267.383	0.067	-0.120
-580.806	-110.944	0.136	-0.028
-579.792	38.180	0.092	0.084
-578.777	-29.820	-0.303	0.176
-577.763	58.632	-0.089	-0.089
-576.748	89.846	0.160	-0.182
-575.733	-99.504	-0.165	-0.042
-574.719	-50.033	-0.232	-0.112
-573.704	45.113	0.223	-0.209
-572.690	-65.287	0.210	0.086
-571.675	487.464	-0.117	-0.272
-570.661	-5.229	0.166	-0.116
-569.646	10.763	0.085	-0.066
-568.631	-5.005	0.049	0.034
-567.617	-11.122	-0.204	-0.137
-566.602	12.433	0.040	0.031
-565.588	88.523	0.122	-0.138
-564.573	6.551	0.141	-0.107
-563.558	-93.326	0.198	0.056
-562.544	-83.791	-0.251	0.081
-561.529	5.589	0.071	0.053
-560.515	618.293	0.125	0.320
-559.500	572.438	-0.059	0.147
-558.485	-144.103	-0.128	0.012
-557.471	270.944	-0.046	-0.082
-556.456	-200.000	-0.015	-0.237
-555.442	-200.000	-0.009	0.237
-554.427	-17.364	0.285	0.183
-553.412	-88.511	0.288	-0.087
-552.398	389.609	0.073	0.154
-551.383	-54.311	0.047	0.022
-550.369	603.571	0.021	-0.052
-549.354	-22.019	0.077	0.048
-548.339	-67.500	0.126	0.050
-547.325	202.616	-0.342	0.537
-546.310	-83.246	-0.217	0.071
-545.296	-80.527	-0.236	0.080
-544.281	-129.867	-0.266	-0.037
-543.266	80.004	-0.280	-0.306
-542.252	-33.432	-0.302	-0.170
-541.237	-30.181	0.131	0.075
-540.223	585.751	0.044	-0.111
-539.208	142.244	-0.148	0.200
-538.193	300.782	0.121	-0.226
-537.179	-35.724	-0.188	-0.104
-536.164	-104.274	-0.198	-0.047
-535.150	-200.000	0.036	0.181
-534.135	-61.741	-0.280	0.119
-533.121	-150.786	-0.208	-0.016
-532.106	43.815	0.217	-0.202
-531.091	-200.000	-0.014	-0.405
-530.077	-122.196	0.160	-0.027
-529.062	800.000	-0.046	0.137
-528.048	-80.390	-0.713	-0.242
-527.033	-114.423	0.153	0.030
-526.018	466.567	-0.119	-0.271
-525.004	800.000	-0.068	0.194
-523.989	-159.819	-0.256	-0.014
-522.975	80.335	0.157	0.172
-521.960	85.917	-0.112	0.125
-520.945	-33.037	0.300	0.169
-519.931	322.376	0.044	0.084
-518.916	-85.808	0.309	0.097
-517.902	-200.000	0.006	-0.123
-516.887	210.977	0.090	-0.143
-515.872	-200.000	-0.008	0.163
-514.858	-118.846	0.415	0.074
-513.843	-115.867	0.068	0.013
-512.829	93.191	-0.145	-0.167
-511.814	75.289	-0.110	-0.118
-510.799	-114.061	-0.061	0.012
-509.785	-33.613	0.225	0.126
-508.770	368.302	-0.199	-0.409
-507.756	-65.959	0.341	-0.138
-506.741	-49.442	-0.117	-0.057
-505.726	130.924	0.035	0.046
-504.712	800.000	-0.053	0.233
-503.697	-165.899	-0.194	0.008
-502.683	-122.292	0.183	-0.030
-501.668	-200.000	-0.029	-0.136
-500.653	-94.944	0.163	0.045
-499.639	503.816	0.064	-0.150
-498.624	397.809	0.081	-0.173
-497.610	-93.139	0.245	-0.069
-496.595	-200.000	-0.039	0.180
-495.581	-126.470	0.148	0.022
-494.566	34.745	-0.096	0.085
-493.551	183.202	-0.044	-0.066
-492.537	-100.854	0.026	0.007
-491.522	27.364	0.164	0.140
-490.508	67.609	-0.180	-0.187
-489.493	-109.215	-0.311	-0.067
-488.478	-54.344	0.105	0.048
-487.464	512.783	-0.046	-0.110
-486.449	13.230	-0.055	-0.043
-485.435	246.563	-0.019	0.033
-484.420	30.491	-0.086	0.075
-483.405	363.902	0.086	0.176
-482.391	-200.000	0.008	0.056
-481.376	800.000	0.028	0.092
-480.362	-79.809	-0.329	0.112
-479.347	-80.571	-0.113	0.038
-478.332	314.042	0.147	0.280
-477.318	248.302	0.150	-0.257
-476.303	-50.543	-0.216	0.103
-475.289	66.905	0.120	-0.123
-474.274	-138.959	0.093	0.010
-473.259	-200.000	0.002	0.324
-472.245	350.100	-0.113	-0.227
-471.230	-5.562	0.249	0.173
-470.216	142.994	-0.102	-0.138
-469.201	800.000	0.136	0.510
-468.186	800.000	0.002	-0.008
-467.172	800.000	-0.019	-0.082
-466.157	-39.493	0.323	0.172
-465.143	-90.102	0.090	0.027
-464.128	-200.000	0.025	0.267
-463.113	-84.521	-0.189	0.061
-462.099	-71.006	-0.136	-0.052
-461.084	-1.491	-0.585	-0.418
-460.070	-200.000	-0.009	-0.139
-459.055	800.000	-0.055	-0.242
-458.040	197.644	0.165	-0.255
-457.026	235.434	0.127	0.213
-456.011	7.002	-0.196	0.148
-454.997	650.988	-0.031	-0.081
-453.982	-35.478	-0.343	-0.189
-452.968	-66.478	0.393	-0.158
-451.953	24.195	0.170	-0.142
-450.938	-168.702	-0.480	-0.018
-449.924	40.071	-0.167	-0.152
-448.909	-119.989	0.255	-0.044
-447.895	-131.697	-0.325	-0.043
-446.880	295.573	-0.128	-0.238
-445.865	-50.386	-0.171	0.082
-444.851	-78.894	-0.280	0.097
-443.836	-31.825	-0.113	0.064
-442.822	800.000	-0.042	-0.126
-441.807	-89.324	0.146	-0.044
-440.792	-8.853	0.442	-0.300
-439.778	-31.430	-0.355	0.202
-438.763	-46.867	0.231	-0.114
-437.749	-126.418	0.054	-0.008
-436.734	48.148	-0.063	0.060
-435.719	-141.352	-0.267	-0.027
-434.705	65.283	0.055	0.057
-433.690	289.278	-0.105	-0.193
-432.676	-76.687	0.179	-0.063
-431.661	186.795	0.073	-0.110
-430.646	11.338	-0.280	-0.217
-429.632	-200.000	0.029	0.200
-428.617	11.612	0.092	-0.072
-427.603	-22.329	-0.251	0.154
-426.588	-35.399	0.095	0.052
-425.573	-87.185	0.242	-0.074
-424.559	-40.931	0.341	-0.178
-423.544	129.939	0.056	0.072
-422.530	-200.000	0.010	0.301
-421.515	433.143	-0.087	-0.191
-420.500	84.299	-0.134	-0.148
-419.486	-200.000	0.019	0.175
-418.471	-60.234	0.403	0.174
-417.457	132.047	0.113	0.147
-416.442	323.716	-0.066	0.128
-415.428	281.346	-0.156	-0.282
-414.413	51.317	-0.270	0.259
-413.398	6.167	-0.113	0.085
-412.384	774.334	-0.075	0.207
-411.369	-60.038	-0.165	0.071
-410.355	800.000	-0.034	-0.111
-409.340	280.886	-0.108	0.195
-408.325	-101.270	-0.220	-0.054
-407.311	-86.629	0.363	0.112
-406.296	-128.794	0.127	0.018
-405.282	-75.783	-0.246	-0.088
-404.267	-200.000	0.025	0.368
-403.252	467.732	-0.073	0.166
-402.238	-65.421	0.186	0.075
-401.223	26.195	0.067	-0.057
-400.209	-38.067	0.268	0.144
-399.194	-200.000	-0.027	0.126
-398.179	800.000	0.029	-0.087
-397.165	58.383	-0.172	0.171
-396.150	-21.907	-0.387	0.238
-395.136	33.078	0.241	-0.211
-394.121	-115.202	0.054	-0.010
-393.106	373.018	-0.149	-0.307
-392.092	-91.912	-0.219	-0.063
-391.077	231.607	0.238	0.395
-390.063	351.064	0.071	0.141
-389.048	-122.378	0.178	0.029
-388.033	78.892	0.038	0.041
-387.019	-155.259	-0.068	-0.004
-386.004	800.000	0.091	0.258
-384.990	53.071	0.199	0.192
-383.975	599.586	0.185	-0.464
-382.960	787.147	0.019	0.052
-381.946	-106.114	-0.166	-0.038
-380.931	185.575	-0.107	0.160
-379.917	69.253	0.049	-0.051
-378.902	13.617	0.336	-0.263
-377.888	-63.926	-0.136	0.056
-376.873	-122.915	-0.129	-0.021
-375.858	223.032	0.068	0.111
-374.844	-154.257	-0.292	0.020
-373.829	147.408	-0.067	-0.091
-372.815	85.074	-0.026	0.029
-371.800	-164.645	-0.173	-0.008
-370.785	800.000	-0.058	-0.227
-369.771	602.422	0.049	-0.122
-368.756	-200.000	-0.038	0.405
-367.742	-100.504	-0.255	0.064
-366.727	-31.442	-0.150	0.085
-365.712	-12.432	-0.254	-0.167
-364.698	177.649	0.047	0.070
-363.683	-89.367	-0.183	0.054
-362.669	386.623	-0.103	-0.214
-361.654	296.819	0.128	-0.237
-360.639	104.793	0.057	0.068
-359.625	235.502	0.225	0.375
-358.610	-200.000	-0.049	0.241
-357.596	674.869	0.136	0.357
-356.581	-97.008	0.066	-0.017
-355.566	-142.188	0.111	0.011
-354.552	-29.837	0.240	0.138
-353.537	-42.244	-0.179	0.092
-352.523	332.927	-0.025	0.050
-351.508	-19.876	-0.242	-0.151
-350.493	-200.000	0.025	-0.209
-349.479	548.212	0.072	-0.173
-348.464	-84.128	0.076	0.024
-347.450	111.659	-0.235	0.286
-346.435	-174.457	0.103	0.003
-345.420	499.677	0.061	-0.141
-344.406	9.564	0.253	-0.193
-343.391	-200.000	-0.010	-0.106
-342.377	-110.105	0.283	-0.060
-341.362	800.000	0.022	0.068
-340.348	-109.903	-0.215	-0.045
-339.333	-200.000	0.044	-0.264
-338.318	-93.034	0.325	0.091
-337.304	-142.669	0.202	0.020
-336.289	-76.538	-0.102	0.036
-335.275	-24.914	0.021	0.012
-334.260	-118.770	-0.128	0.023
-333.245	-56.381	-0.210	0.094
-332.231	800.000	0.045	-0.183
-331.216	321.266	-0.145	0.278
-330.202	-144.866	0.225	-0.021
-329.187	440.199	0.166	-0.365
-328.172	-188.909	-0.583	-0.007
-327.158	458.128	0.122	-0.272
-326.143	800.000	-0.047	0.174
-325.129	800.000	-0.044	0.152
-324.114	94.767	-0.224	-0.257
-323.099	-76.734	-0.575	0.203
-322.085	-107.897	0.117	0.026
-321.070	-150.462	0.242	0.019
-320.056	-16.798	0.185	0.118
-319.041	-200.000	0.000	0.028
-318.026	69.051	0.162	0.168
-317.012	-16.300	0.393	0.251
-315.997	220.251	0.063	0.102
-314.983	-148.334	0.156	0.013
-313.968	-7.695	0.240	-0.163
-312.953	86.140	0.154	-0.171
-311.939	-94.026	0.196	0.054
-310.924	175.768	-0.088	0.129
-309.910	-200.000	-0.027	0.145
-308.895	-200.000	-0.019	0.110
-307.880	800.000	-0.044	0.176
-306.866	-16.106	0.269	0.172
-305.851	-153.147	-0.059	0.004
-304.837	-81.847	0.155	0.051
-303.822	44.418	-0.075	0.070
-302.807	252.772	0.153	0.263
-301.793	-200.000	-0.022	-0.130
-300.778	160.544	-0.238	-0.335
-299.764	-97.835	0.216	-0.056
-298.749	392.262	-0.109	-0.228
-297.735	-159.549	-0.061	0.003
-296.720	800.000	-0.105	0.344
-295.705	-200.000	-0.013	-0.074
-294.691	385.292	0.082	-0.170
-293.676	177.512	-0.059	0.087
-292.662	-95.771	0.263	-0.071
-291.647	-147.110	0.204	0.018
-290.632	-33.500	-0.255	-0.142
-289.618	504.712	-0.064	-0.149
-288.603	797.596	0.095	0.263
-287.589	-144.746	-0.350	0.032
-286.574	-99.487	-0.165	0.042
-285.559	34.162	0.060	-0.053
-284.545	-1.509	-0.048	-0.034
-283.530	-84.974	0.193	-0.061
-282.516	-200.000	0.002	-0.228
-281.501	-30.621	-0.094	-0.054
-280.486	-69.992	-0.236	0.091
-279.472	52.657	-0.024	0.023
-278.457	-17.223	0.201	0.127
-277.443	-86.134	0.177	0.055
-276.428	130.356	-0.177	0.228
-275.413	-124.087	-0.151	-0.024
-274.399	42.658	0.189	0.173
-273.384	-200.000	-0.008	0.118
-272.370	-83.480	0.383	-0.123
-271.355	153.221	-0.208	-0.286
-270.340	308.752	0.093	0.175
-269.326	58.364	-0.218	-0.215
-268.311	57.779	0.254	0.249
-267.297	165.640	0.162	0.230
-266.282	-69.862	-0.070	-0.027
-265.267	47.443	-0.140	0.131
-264.253	254.045	-0.137	0.235
-263.238	-200.000	-0.006	0.281
-262.224	141.537	0.213	0.283
-261.209	-37.043	0.204	0.110
-260.195	26.023	-0.149	-0.125
-259.180	6.907	0.240	0.180
-258.165	111.145	-0.047	0.057
-257.151	-200.000	0.081	0.360
-256.136	111.605	0.012	0.015
-255.122	137.537	-0.050	0.066
-254.107	-46.392	0.120	0.059
-253.092	136.226	-0.067	-0.088
-252.078	325.620	-0.039	0.076
-251.063	146.795	-0.180	-0.243
-250.049	-131.851	0.171	-0.022
-249.034	-33.137	0.250	-0.139
-248.019	561.830	-0.085	-0.206
-247.005	586.126	0.055	0.136
-245.990	328.399	-0.106	0.204
-244.976	-200.000	-0.021	0.168
-243.961	177.522	-0.145	0.212
-242.946	-200.000	-0.038	-0.244
-241.932	-12.152	-0.111	0.073
-240.917	283.362	-0.104	-0.188
-239.903	800.000	0.043	-0.137
-238.888	-148.504	0.249	-0.020
-237.873	115.530	0.229	0.281
-236.859	-36.726	0.180	0.097
-235.844	52.466	-0.121	0.116
-234.830	800.000	-0.078	0.327
-233.815	-10.828	-0.191	-0.127
-232.800	41.607	-0.151	0.137
-231.786	-200.000	0.001	0.139
-230.771	192.540	0.101	-0.153
-229.757	800.000	0.050	-0.185
-228.742	79.779	0.252	-0.271
-227.727	-57.120	-0.222	-0.098
-226.713	-200.000	-0.020	-0.298
-225.698	-124.647	-0.189	0.029
-224.684	11.062	0.150	-0.115
-223.669	-98.573	0.208	0.053
-222.655	-18.840	0.266	-0.167
-221.640	-200.000	0.018	-0.093
-220.625	-122.815	-0.118	0.019
-219.611	-11.137	-0.091	-0.060
-218.596	800.000	0.027	-0.105
-217.582	-47.157	-0.107	-0.052
-216.567	-42.656	0.185	0.095
-215.552	-182.412	0.313	-0.006
-214.538	800.000	-0.019	-0.073
-213.523	-26.786	0.055	0.032
-212.509	667.093	0.129	0.335
-211.494	125.011	-0.334	-0.422
-210.479	-160.510	-0.260	0.014
-209.465	27.234	-0.147	-0.123
-208.450	152.805	0.221	-0.302
-207.436	-200.000	0.061	-0.484
-206.421	87.151	0.102	-0.113
-205.406	529.251	0.182	-0.430
-204.392	-21.243	-0.031	-0.019
-203.377	-104.873	-0.305	-0.070
-202.363	-80.558	0.279	-0.093
-201.348	202.512	0.225	-0.349
-200.333	-200.000	-0.017	0.125
-199.319	298.515	-0.162	-0.299
-198.304	7.775	0.090	0.068
-197.290	-34.263	-0.375	0.206
-196.275	-152.585	0.329	0.024
-195.260	39.846	0.126	0.114
-194.246	233.737	0.081	0.133
-193.231	-200.000	0.013	-0.214
-192.217	100.731	-0.215	-0.250
-191.202	-177.443	0.290	-0.007
-190.187	-200.000	-0.020	-0.228
-189.173	75.652	0.159	0.168
-188.158	-176.735	0.197	-0.005
-187.144	-169.524	-0.297	-0.011
-186.129	-152.408	-0.223	0.016
-185.114	-144.351	0.242	-0.023
-184.100	-44.807	-0.083	0.041
-183.085	-67.305	0.170	0.067
-182.071	1.138	0.174	-0.125
-181.056	800.000	0.099	-0.344
-180.042	101.743	0.202	-0.236
-179.027	-141.886	-0.313	-0.031
-178.012	7.773	0.136	0.102
-176.998	797.067	-0.062	-0.170
-175.983	38.205	-0.049	-0.043
-174.969	-54.116	-0.118	-0.054
-173.954	59.575	-0.199	-0.197
-172.939	273.588	0.037	-0.066
-171.925	-124.834	0.526	-0.081
-170.910	-200.000	-0.009	0.454
-169.896	412.768	0.099	0.211
-168.881	664.712	0.029	-0.075
-167.866	-110.569	-0.312	-0.065
-166.852	-62.069	0.053	-0.022
-165.837	46.890	0.089	-0.083
-164.823	-108.220	0.266	-0.058
-163.808	59.369	-0.158	-0.156
-162.793	-11.436	-0.105	0.069
-161.779	-110.759	0.360	0.074
-160.764	178.653	-0.116	0.170
-159.750	12.796	0.168	-0.130
-158.735	490.522	0.028	-0.064
-157.720	-140.341	0.227	-0.024
-156.706	2.923	0.311	-0.226
-155.691	36.222	0.222	0.196
-154.677	172.043	0.167	-0.241
-153.662	0.779	0.031	0.022
-152.647	800.000	-0.030	-0.118
-151.633	68.737	0.084	-0.086
-150.618	127.252	0.166	0.211
-149.604	-200.000	0.400	0.002
-148.589	-138.099	0.099	-0.011
-147.574	59.473	-0.220	0.217
-146.560	87.631	-0.014	0.015
-145.545	-200.000	0.033	0.198
-144.531	244.487	0.058	0.097
-143.516	99.226	-0.277	-0.320
-142.502	-68.955	-0.248	0.096
-141.487	-13.930	0.144	-0.093
-140.472	-154.964	0.381	0.025
-139.458	-200.000	0.008	0.164
-138.443	-13.320	-0.214	0.139
-137.429	800.000	-0.035	-0.120
-136.414	-71.795	-0.386	-0.144
-135.399	-98.519	0.238	-0.061
-134.385	0.728	-0.149	-0.106
-133.370	102.555	-0.248	-0.290
-132.356	-200.000	-0.004	0.370
-131.341	-125.506	0.073	0.011
-130.326	238.618	-0.088	0.146
-129.312	-104.724	0.318	-0.073
-128.297	800.000	-0.063	0.178
-127.283	43.158	-0.196	0.179
-126.268	95.270	-0.256	-0.292
-125.253	-102.710	-0.435	0.104
-124.239	-200.000	-0.017	0.235
-123.224	-24.580	0.101	-0.060
-122.210	20.109	-0.166	0.134
-121.195	-148.606	-0.293	0.024
-120.180	800.000	0.053	-0.149
-119.166	-5.821	0.011	0.008
