DTS Sentinel unit serial number:	SN413079Multiplexer serial number:	ORYXHardware model number:	OX4-SRSoftware version number:	ORYX F/W v4.00 Oryx Data Collector v3.7.2.0data status	okinstallation	princeton_trtdifferential loss correction	single-endedforward channel	channel 1reverse channel	N/Adate	2019/09/16time	16:30:36forward acquisition time	60.00reverse acquisition time	0.00gamma	496.2192k internal	0.2294k external	0.2294temperature offset calibration	0.9959default loss term (dB/km)	0.3790temperature slope calibration	1.0000multiplexer offset coefficient	1.0000multiplexer slope coefficient	1.0000fibre end	0.00T internal ref (°C)	40.19T ext. ref 1 (°C)	15.09T ext. ref 2 (°C)	33.87length (m)	temperature (°C)	Stokes	anti-Stokes-747.200	-200.000	-0.002	0.021
-746.185	800.000	-0.056	0.247
-745.171	-3.445	0.173	0.123
-744.156	774.434	0.027	-0.076
-743.142	-200.000	-0.046	0.223
-742.127	191.341	0.036	0.056
-741.112	207.992	0.083	0.132
-740.098	-90.919	-0.220	-0.065
-739.083	-78.294	0.230	0.081
-738.069	315.149	0.171	0.329
-737.054	-200.000	-0.007	-0.095
-736.039	-31.015	-0.257	0.148
-735.025	239.116	-0.063	0.107
-734.010	-10.986	-0.307	-0.207
-732.996	154.158	0.253	-0.355
-731.981	-70.383	0.150	0.058
-730.966	-200.000	0.012	-0.254
-729.952	-126.549	-0.064	0.010
-728.937	-75.789	-0.153	-0.056
-727.923	97.792	0.060	0.071
-726.908	-50.153	0.280	0.136
-725.894	800.000	-0.097	-0.321
-724.879	619.651	0.071	-0.182
-723.864	-200.000	-0.019	0.333
-722.850	316.937	0.135	-0.261
-721.835	-200.000	-0.050	-0.355
-720.821	-85.713	0.233	-0.074
-719.806	800.000	0.014	-0.056
-718.791	-143.480	0.307	0.030
-717.777	-92.094	0.247	0.071
-716.762	258.454	0.116	-0.204
-715.748	800.000	-0.045	-0.176
-714.733	-200.000	0.094	-0.455
-713.718	800.000	-0.063	0.213
-712.704	63.163	0.276	-0.283
-711.689	534.708	0.030	-0.074
-710.675	-200.000	-0.018	-0.111
-709.660	29.103	0.078	-0.067
-708.645	-72.176	0.243	0.092
-707.631	23.507	-0.201	-0.169
-706.616	-24.227	0.030	0.018
-705.602	478.534	-0.069	0.159
-704.587	-61.057	-0.218	-0.094
-703.572	161.487	-0.145	0.207
-702.558	433.077	0.137	-0.304
-701.543	-41.990	0.115	-0.060
-700.529	-118.862	0.283	0.051
-699.514	19.162	-0.226	-0.185
-698.499	150.483	0.137	-0.190
-697.485	180.440	-0.228	-0.342
-696.470	1.814	0.252	-0.185
-695.456	-129.627	0.104	-0.015
-694.441	-200.000	-0.022	0.133
-693.426	358.426	0.110	0.224
-692.412	-46.437	0.209	-0.105
-691.397	-17.343	0.267	0.172
-690.383	-32.061	-0.108	-0.062
-689.368	149.531	0.096	-0.133
-688.354	75.022	-0.136	-0.146
-687.339	532.431	-0.067	-0.162
-686.324	-7.948	0.041	0.028
-685.310	-200.000	-0.019	-0.438
-684.295	-71.834	-0.160	-0.061
-683.281	181.396	0.120	-0.179
-682.266	-89.822	-0.132	-0.039
-681.251	68.235	-0.302	0.315
-680.237	260.023	0.104	0.184
-679.222	1.985	0.088	0.065
-678.208	-196.978	0.147	-0.001
-677.193	-6.749	0.066	-0.046
-676.178	-45.394	-0.156	0.079
-675.164	33.622	-0.279	-0.247
-674.149	18.912	0.284	-0.232
-673.135	42.681	-0.187	0.174
-672.120	-200.000	0.035	-0.188
-671.105	264.383	0.094	-0.167
-670.091	-200.000	0.015	0.119
-669.076	-200.000	-0.065	-0.423
-668.062	800.000	-0.087	-0.279
-667.047	-145.756	-0.425	0.039
-666.032	800.000	-0.061	-0.201
-665.018	50.786	-0.159	0.154
-664.003	45.796	-0.182	0.171
-662.989	-200.000	-0.018	-0.156
-661.974	-122.152	0.172	0.029
-660.959	28.671	-0.083	0.072
-659.945	-200.000	-0.035	-0.221
-658.930	351.681	-0.088	-0.178
-657.916	-69.805	-0.252	-0.098
-656.901	71.541	-0.117	0.124
-655.886	-170.163	0.154	0.006
-654.872	136.335	0.231	-0.307
-653.857	-200.000	-0.004	-0.206
-652.843	215.404	-0.149	-0.241
-651.828	-146.276	0.119	0.011
-650.814	-69.640	-0.216	0.084
-649.799	-200.000	0.016	0.216
-648.784	800.000	-0.011	0.034
-647.770	183.674	-0.279	-0.420
-646.755	220.191	0.162	-0.265
-645.741	-200.000	0.020	-0.104
-644.726	-36.207	-0.140	-0.077
-643.711	800.000	-0.082	0.265
-642.697	14.698	0.399	0.317
-641.682	100.518	-0.008	-0.009
-640.668	236.142	0.072	-0.122
-639.653	-43.415	-0.165	-0.085
-638.638	368.372	0.157	-0.324
-637.624	8.521	0.152	0.117
-636.609	96.271	-0.090	0.105
-635.595	-132.780	0.289	0.038
-634.580	-32.002	0.259	0.148
-633.565	205.784	0.078	0.123
-632.551	-200.000	0.054	-0.361
-631.536	800.000	0.048	0.140
-630.522	226.071	0.141	-0.234
-629.507	200.209	-0.086	-0.135
-628.492	-182.056	-0.069	0.001
-627.478	-128.637	0.239	-0.034
-626.463	-12.927	-0.016	0.011
-625.449	-175.616	0.132	0.004
-624.434	65.763	-0.222	-0.229
-623.419	489.895	0.116	0.270
-622.405	-57.317	0.316	0.142
-621.390	72.041	-0.208	0.220
-620.376	800.000	-0.068	0.255
-619.361	800.000	0.033	-0.108
-618.346	222.474	0.064	0.104
-617.332	189.872	0.140	0.214
-616.317	77.975	0.007	0.008
-615.303	495.366	-0.025	0.058
-614.288	546.309	0.047	0.114
-613.273	199.384	0.179	0.280
-612.259	5.718	0.202	-0.152
-611.244	109.621	0.094	0.115
-610.230	-200.000	-0.026	0.237
-609.215	81.984	0.118	-0.130
-608.201	-200.000	0.005	-0.338
-607.186	178.084	-0.037	-0.055
-606.171	-95.210	-0.153	-0.042
-605.157	69.576	0.182	-0.191
-604.142	-200.000	-0.020	-0.562
-603.128	222.071	-0.116	-0.189
-602.113	68.961	0.280	-0.292
-601.098	-200.000	-0.027	-0.212
-600.084	-105.495	-0.332	-0.077
-599.069	-21.535	-0.104	-0.064
-598.055	123.419	-0.165	-0.210
-597.040	92.102	0.111	0.127
-596.025	-57.073	-0.080	0.036
-595.011	77.059	0.012	-0.013
-593.996	-158.255	-0.075	0.004
-592.982	300.777	0.069	-0.130
-591.967	-200.000	-0.015	-0.248
-590.952	-0.503	-0.160	0.116
-589.938	-44.752	0.052	0.026
-588.923	-53.355	0.038	0.018
-587.909	800.000	0.044	-0.180
-586.894	-145.761	-0.235	0.021
-585.879	-165.802	-0.088	0.004
-584.865	-79.314	-0.257	0.089
-583.850	800.000	0.076	0.299
-582.836	800.000	0.060	0.192
-581.821	81.954	0.159	-0.175
-580.806	-173.914	0.186	-0.006
-579.792	-167.701	0.354	-0.014
-578.777	10.176	0.269	0.208
-577.763	-71.632	0.037	-0.014
-576.748	132.263	-0.160	-0.210
-575.733	-200.000	-0.416	-0.001
-574.719	-16.574	-0.075	0.048
-573.704	764.247	0.091	0.252
-572.690	-63.701	0.424	0.176
-571.675	333.808	-0.250	-0.491
-570.661	287.142	0.189	0.348
-569.646	800.000	-0.075	-0.260
-568.631	800.000	0.033	0.124
-567.617	-67.385	-0.518	0.207
-566.602	357.644	-0.103	-0.208
-565.588	-54.660	0.071	0.033
-564.573	-200.000	-0.014	-0.138
-563.558	-80.740	-0.169	-0.057
-562.544	89.381	0.044	0.050
-561.529	-108.555	-0.267	-0.058
-560.515	-124.598	-0.080	0.013
-559.500	-200.000	-0.036	-0.267
-558.485	-200.000	0.008	-0.219
-557.471	22.085	0.267	-0.221
-556.456	46.542	-0.070	0.066
-555.442	-135.117	0.053	0.007
-554.427	-70.385	0.185	-0.071
-553.412	-200.000	0.005	0.028
-552.398	800.000	0.056	0.218
-551.383	-128.705	-0.449	-0.064
-550.369	-5.706	0.313	0.218
-549.354	-64.520	-0.219	0.090
-548.339	662.644	-0.020	-0.052
-547.325	-200.000	0.009	-0.064
-546.310	-200.000	-0.000	0.024
-545.296	59.694	0.147	0.147
-544.281	73.574	-0.082	0.087
-543.266	123.983	-0.099	-0.126
-542.252	8.239	0.250	-0.191
-541.237	18.167	-0.142	0.115
-540.223	-200.000	0.010	-0.065
-539.208	588.191	0.099	-0.247
-538.193	-21.627	-0.209	0.129
-537.179	175.795	-0.098	0.144
-536.164	-200.000	-0.005	-0.102
-535.150	234.991	-0.081	0.135
-534.135	800.000	-0.100	0.321
-533.121	800.000	0.051	0.213
-532.106	-21.768	0.092	-0.057
-531.091	-200.000	0.009	0.454
-530.077	-200.000	0.006	-0.218
-529.062	128.230	-0.280	0.361
-528.048	641.377	0.039	-0.100
-527.033	-147.581	0.118	-0.010
-526.018	16.433	-0.092	-0.074
-525.004	-55.602	0.278	-0.126
-523.989	45.683	0.145	0.136
-522.975	-72.530	0.257	0.096
-521.960	-65.479	0.162	-0.066
-520.945	180.786	0.122	0.181
-519.931	-200.000	0.012	-0.099
-518.916	75.763	0.067	0.072
-517.902	234.224	-0.088	-0.146
-516.887	216.059	0.057	-0.092
-515.872	87.199	-0.059	0.066
-514.858	640.468	-0.054	0.141
-513.843	-62.577	0.110	-0.046
-512.829	145.441	0.150	0.203
-511.814	-149.814	0.074	0.006
-510.799	-200.000	-0.023	-0.106
-509.785	-200.000	0.010	-0.265
-508.770	51.923	-0.190	0.183
-507.756	38.793	-0.126	-0.114
-506.741	-100.905	-0.117	0.029
-505.726	107.606	-0.022	-0.027
-504.712	-170.516	0.257	0.009
-503.697	-153.964	-0.158	-0.011
-502.683	70.994	-0.101	0.106
-501.668	-26.707	-0.100	0.059
-500.653	800.000	0.015	-0.052
-499.639	-70.292	0.342	0.131
-498.624	78.375	0.088	-0.095
-497.610	137.371	-0.255	0.338
-496.595	-129.355	-0.024	0.003
-495.581	13.602	-0.321	0.252
-494.566	-51.123	-0.179	-0.085
-493.551	-139.618	-0.197	0.021
-492.537	-182.928	-0.140	-0.003
-491.522	-151.704	-0.180	-0.013
-490.508	-22.397	0.448	-0.275
-489.493	-200.000	-0.033	0.162
-488.478	-51.048	0.151	-0.072
-487.464	-200.000	-0.004	0.172
-486.449	-177.190	0.018	-0.000
-485.435	173.587	0.266	-0.389
-484.420	-200.000	-0.006	-0.081
-483.405	-159.317	-0.127	0.007
-482.391	76.408	-0.065	-0.070
-481.376	60.417	0.110	-0.110
-480.362	800.000	0.026	-0.103
-479.347	33.806	0.437	-0.385
-478.332	-114.927	-0.197	-0.038
-477.318	142.406	0.140	0.188
-476.303	-118.982	0.241	-0.043
-475.289	-200.000	-0.017	0.087
-474.274	68.253	0.115	0.119
-473.259	-200.000	-0.014	-0.226
-472.245	-10.188	0.248	0.166
-471.230	406.842	0.148	0.315
-470.216	189.380	0.080	-0.122
-469.201	-200.000	-0.007	-0.149
-468.186	65.974	0.115	0.118
-467.172	-4.938	-0.240	-0.167
-466.157	-115.174	-0.309	0.059
-465.143	472.222	-0.108	0.246
-464.128	800.000	0.016	-0.051
-463.113	161.174	0.133	-0.188
-462.099	-107.488	-0.188	0.042
-461.084	75.662	-0.225	0.241
-460.070	-200.000	0.084	-0.476
-459.055	-119.117	-0.298	0.053
-458.040	-9.562	-0.148	-0.100
-457.026	-87.076	-0.051	0.016
-456.011	422.419	-0.108	0.234
-454.997	20.553	-0.157	-0.128
-453.982	257.360	0.051	-0.090
-452.968	-93.835	-0.116	-0.032
-451.953	268.078	0.058	0.103
-450.938	-27.686	-0.201	0.118
-449.924	-29.266	0.230	0.133
-448.909	-200.000	0.065	0.295
-447.895	800.000	0.036	0.124
-446.880	-200.000	0.048	0.304
-445.865	-200.000	0.003	0.299
-444.851	-8.332	-0.027	-0.018
-443.836	800.000	0.015	-0.051
-442.822	71.237	-0.320	0.335
-441.807	-200.000	0.018	0.178
-440.792	-200.000	-0.117	-0.001
-439.778	215.946	0.153	0.246
-438.763	9.980	-0.131	-0.100
-437.749	-47.768	-0.195	-0.095
-436.734	-200.000	0.000	0.072
-435.719	24.637	0.147	-0.123
-434.705	-7.057	0.299	-0.205
-433.690	-120.642	0.266	-0.045
-432.676	-58.565	0.259	0.113
-431.661	-38.024	0.161	0.087
-430.646	-146.928	0.105	-0.009
-429.632	-108.517	-0.165	0.036
-428.617	-113.109	0.123	0.024
-427.603	-62.122	0.086	0.036
-426.588	-134.579	0.355	0.044
-425.573	-200.000	0.042	0.365
-424.559	-33.556	0.289	-0.161
-423.544	12.622	0.014	0.011
-422.530	-135.854	-0.106	0.013
-421.515	540.347	-0.091	-0.218
-420.500	410.280	-0.146	-0.313
-419.486	25.978	0.247	0.208
-418.471	594.069	-0.135	0.337
-417.457	-109.404	0.248	0.053
-416.442	800.000	0.066	-0.200
-415.428	46.091	0.227	-0.212
-414.413	424.102	-0.116	0.253
-413.398	-200.000	0.019	0.367
-412.384	800.000	-0.068	-0.223
-411.369	456.668	0.031	-0.069
-410.355	36.792	0.081	0.072
-409.340	-7.367	-0.128	0.087
-408.325	-94.835	0.245	0.067
-407.311	-145.994	-0.437	0.039
-406.296	-200.000	-0.031	0.258
-405.282	-57.632	-0.438	0.194
-404.267	89.374	-0.212	-0.238
-403.252	71.816	-0.115	-0.120
-402.238	-200.000	0.057	-0.421
-401.223	-200.000	-0.022	0.398
-400.209	800.000	0.093	-0.270
-399.194	750.142	0.049	-0.135
-398.179	800.000	-0.013	-0.058
-397.165	473.125	-0.105	0.239
-396.150	137.112	0.145	-0.191
-395.136	-200.000	0.001	0.208
-394.121	0.040	-0.181	-0.130
-393.106	261.102	0.115	0.202
-392.092	-200.000	-0.086	0.000
-391.077	22.309	0.178	-0.147
-390.063	-119.187	0.226	0.040
-389.048	262.087	-0.014	-0.024
-388.033	-200.000	-0.004	-0.056
-387.019	-200.000	0.121	-0.598
-386.004	-151.562	-0.070	0.005
-384.990	-200.000	0.051	0.437
-383.975	-1.400	0.470	0.335
-382.960	63.772	0.083	-0.084
-381.946	800.000	-0.046	0.182
-380.931	-200.000	0.013	0.169
-379.917	-105.438	-0.070	0.016
-378.902	-200.000	-0.011	-0.145
-377.888	159.325	0.176	0.246
-376.873	207.482	-0.090	-0.142
-375.858	-143.613	0.191	0.018
-374.844	-47.966	-0.245	-0.119
-373.829	81.455	-0.104	-0.113
-372.815	-200.000	0.005	0.032
-371.800	800.000	-0.047	-0.199
-370.785	-154.872	-0.252	0.017
-369.771	141.905	-0.025	0.033
-368.756	-200.000	-0.051	0.375
-367.742	800.000	-0.100	-0.312
-366.727	52.889	-0.209	0.201
-365.712	-51.098	-0.120	-0.057
-364.698	-200.000	0.018	-0.107
-363.683	90.389	-0.094	-0.106
-362.669	576.141	-0.033	0.082
-361.654	208.438	-0.300	0.472
-360.639	245.336	0.192	-0.326
-359.625	18.740	0.205	0.165
-358.610	-135.147	0.088	-0.011
-357.596	-34.033	0.431	0.239
-356.581	70.365	-0.178	-0.185
-355.566	-200.000	-0.031	-0.348
-354.552	-161.014	-0.228	-0.012
-353.537	-31.841	0.133	0.075
-352.523	29.825	0.188	0.161
-351.508	152.657	0.208	-0.286
-350.493	579.784	-0.073	-0.179
-349.479	-102.988	-0.311	-0.074
-348.464	91.102	-0.082	0.093
-347.450	-200.000	0.032	0.207
-346.435	35.189	-0.134	0.118
-345.420	-119.339	0.318	-0.056
-344.406	-157.421	0.272	-0.016
-343.391	800.000	0.076	-0.307
-342.377	384.600	0.085	-0.175
-341.362	-25.907	-0.180	-0.107
-340.348	-177.503	0.030	-0.001
-339.333	800.000	-0.148	-0.453
-338.318	-200.000	-0.059	-0.406
-337.304	-174.103	0.255	-0.008
-336.289	-200.000	0.009	0.153
-335.275	101.622	-0.120	-0.141
-334.260	-94.166	-0.329	0.091
-333.245	245.389	0.121	0.205
-332.231	-200.000	0.012	-0.248
-331.216	145.520	-0.270	-0.364
-330.202	705.975	0.082	0.218
-329.187	-85.960	-0.429	-0.133
-328.172	800.000	0.135	-0.445
-327.158	-31.652	-0.140	0.079
-326.143	-1.984	0.124	-0.088
-325.129	-137.115	0.347	-0.040
-324.114	-200.000	0.010	-0.148
-323.099	-26.458	0.160	-0.094
-322.085	-178.094	0.268	-0.006
-321.070	-43.848	-0.210	-0.106
-320.056	79.147	0.025	-0.027
-319.041	-157.645	0.174	0.010
-318.026	-108.241	-0.365	0.079
-317.012	800.000	-0.027	0.105
-315.997	336.555	-0.079	0.154
-314.983	-0.643	-0.263	0.187
-313.968	-79.977	0.348	0.118
-312.953	-63.538	0.107	-0.044
-311.939	-22.653	-0.072	0.043
-310.924	-153.011	0.194	-0.014
-309.910	281.609	0.083	-0.149
-308.895	-192.680	-0.122	-0.001
-307.880	-34.263	0.113	0.062
-306.866	-118.412	-0.212	-0.038
-305.851	-28.975	-0.122	-0.071
-304.837	-91.129	0.207	0.060
-303.822	-69.074	-0.110	-0.043
-302.807	-118.154	0.168	-0.030
-301.793	-0.595	-0.071	-0.051
-300.778	587.378	0.166	-0.412
-299.764	-45.898	-0.074	-0.037
-298.749	-44.236	-0.104	-0.052
-297.735	800.000	0.026	0.079
-296.720	-200.000	-0.058	0.293
-295.705	-172.631	0.268	-0.008
-294.691	-131.668	-0.313	0.041
-293.676	-200.000	0.015	0.085
-292.662	-108.264	0.246	0.054
-291.647	-32.111	0.022	0.012
-290.632	-44.270	-0.295	0.149
-289.618	-45.861	-0.223	0.111
-288.603	-200.000	-0.014	-0.136
-287.589	-31.796	-0.023	-0.013
-286.574	800.000	-0.015	0.044
-285.559	229.932	-0.055	-0.090
-284.545	-200.000	-0.002	0.159
-283.530	169.067	0.023	-0.033
-282.516	98.665	-0.035	0.041
-281.501	-200.000	0.029	0.259
-280.486	-4.947	-0.174	-0.121
-279.472	430.229	0.087	-0.189
-278.457	-62.624	-0.258	-0.107
-277.443	220.106	0.096	-0.154
-276.428	800.000	0.069	-0.302
-275.413	-133.571	0.280	0.035
-274.399	-178.626	0.106	0.002
-273.384	-200.000	-0.001	0.239
-272.370	-200.000	0.049	0.306
-271.355	-121.955	0.175	-0.029
-270.340	-9.686	0.239	-0.160
-269.326	800.000	-0.023	-0.098
-268.311	4.767	0.161	0.119
-267.297	-57.844	-0.211	-0.093
-266.282	-30.674	-0.363	0.206
-265.267	-76.810	-0.266	-0.093
-264.253	-200.000	-0.032	-0.171
-263.238	-66.504	0.162	0.065
-262.224	382.993	-0.025	0.052
-261.209	281.262	0.100	0.179
-260.195	-10.082	-0.334	0.222
-259.180	-83.291	-0.212	0.068
-258.165	-113.099	-0.474	0.094
-257.151	800.000	0.064	-0.278
-256.136	-146.579	-0.233	-0.020
-255.122	42.476	-0.202	-0.184
-254.107	244.793	-0.054	0.092
-253.092	-126.671	-0.012	-0.002
-252.078	-200.000	-0.033	-0.248
-251.063	-200.000	-0.044	0.273
-250.049	-73.812	-0.160	-0.058
-249.034	-176.742	0.523	-0.013
-248.019	-26.758	-0.284	-0.166
-247.005	-77.152	-0.099	-0.034
-245.990	169.668	-0.123	0.176
-244.976	15.520	-0.117	-0.092
-243.961	-29.542	0.239	0.137
-242.946	22.900	0.105	-0.086
-241.932	-200.000	0.011	0.136
-240.917	-101.314	-0.247	0.060
-239.903	-48.809	-0.191	0.092
-238.888	800.000	-0.049	-0.213
-237.873	-17.102	0.348	-0.220
-236.859	101.565	-0.029	0.034
-235.844	-113.941	-0.228	0.044
-234.830	183.205	-0.192	0.285
-233.815	-87.802	0.164	0.049
-232.800	-40.631	-0.153	0.080
-231.786	800.000	-0.083	0.286
-230.771	-50.668	0.297	0.140
-229.757	-169.695	0.198	0.007
-228.742	437.229	0.075	0.163
-227.727	-54.019	0.190	-0.086
-226.713	-125.807	-0.474	-0.072
-225.698	382.280	-0.143	-0.295
-224.684	-200.000	-0.023	-0.122
-223.669	-15.144	-0.069	0.044
-222.655	-190.894	0.099	-0.001
-221.640	-83.979	-0.124	-0.040
-220.625	2.894	-0.200	-0.145
-219.611	800.000	-0.090	-0.321
-218.596	100.339	0.146	-0.170
-217.582	41.598	0.124	-0.113
-216.567	800.000	0.049	0.210
-215.552	49.375	-0.314	0.296
-214.538	800.000	0.049	-0.185
-213.523	-0.949	0.154	-0.109
-212.509	-200.000	-0.053	0.270
-211.494	-64.850	-0.072	0.029
-210.479	-22.313	-0.263	-0.160
-209.465	256.233	-0.142	-0.245
-208.450	39.997	0.297	0.267
-207.436	138.375	0.135	-0.177
-206.421	142.003	-0.098	-0.130
-205.406	34.485	-0.066	-0.058
-204.392	-200.000	-0.001	0.072
-203.377	-99.631	0.118	-0.030
-202.363	54.490	0.222	0.214
-201.348	-195.209	0.307	-0.002
-200.333	800.000	-0.111	-0.424
-199.319	-55.208	0.106	0.048
-198.304	-65.400	-0.037	-0.015
-197.290	459.083	0.058	-0.128
-196.275	-200.000	-0.005	0.087
-195.260	218.804	-0.202	0.324
-194.246	119.084	0.149	-0.184
-193.231	-60.917	-0.139	-0.059
-192.217	26.946	0.156	0.131
-191.202	-43.441	0.022	0.011
-190.187	619.388	0.054	0.135
-189.173	-159.326	0.237	-0.013
-188.158	-39.594	0.166	0.087
-187.144	-1.853	0.094	0.066
-186.129	-69.546	-0.234	-0.090
-185.114	50.215	0.113	0.106
-184.100	-2.606	0.015	-0.011
-183.085	77.688	-0.140	0.149
-182.071	-71.791	-0.170	-0.064
-181.056	7.555	0.226	0.169
-180.042	-105.429	0.215	-0.049
-179.027	-68.193	0.237	-0.092
-178.012	-200.000	-0.272	0.001
-176.998	386.730	0.070	0.144
-175.983	153.179	-0.087	-0.120
-174.969	800.000	0.081	-0.292
-173.954	-133.027	-0.230	-0.029
-172.939	126.408	-0.146	0.185
-171.925	165.361	-0.119	0.168
-170.910	-200.000	-0.040	-0.353
-169.896	178.152	-0.224	-0.327
-168.881	449.032	-0.063	-0.138
-167.866	-200.000	0.025	0.370
-166.852	18.662	-0.152	0.121
-165.837	800.000	0.122	0.385
-164.823	165.587	0.129	0.183
-163.808	-139.677	0.253	-0.027
-162.793	-200.000	0.010	0.267
-161.779	363.082	0.063	-0.127
-160.764	-195.835	-0.175	0.001
-159.750	-200.000	-0.035	0.210
-158.735	800.000	-0.065	0.223
-157.720	800.000	-0.119	0.377
-156.706	338.052	-0.096	-0.186
-155.691	103.218	0.109	-0.128
-154.677	-200.000	-0.007	-0.188
-153.662	-98.379	0.111	0.028
-152.647	800.000	0.008	-0.027
-151.633	-53.007	-0.030	0.014
-150.618	-68.979	-0.391	-0.151
-149.604	-19.728	0.212	0.131
-148.589	-200.000	-0.022	0.134
-147.574	-6.956	0.187	0.127
-146.560	800.000	0.045	-0.192
-145.545	136.931	-0.151	-0.197
-144.531	73.287	-0.066	-0.069
-143.516	-45.138	0.042	0.021
-142.502	-200.000	-0.011	0.071
-141.487	12.054	0.259	-0.199
-140.472	-137.300	0.232	0.026
-139.458	800.000	0.137	0.510
-138.443	293.377	-0.031	0.056
-137.429	116.903	-0.097	-0.118
-136.414	-114.104	-0.195	0.038
-135.399	-94.678	-0.207	-0.056
-134.385	-73.587	-0.257	-0.093
-133.370	-144.020	0.296	-0.028
-132.356	-70.699	-0.438	0.165
-131.341	220.507	-0.067	0.108
-130.326	-75.743	0.257	0.091
-129.312	75.368	-0.240	-0.253
-128.297	-75.838	0.142	-0.050
-127.283	-21.146	0.250	0.153
-126.268	-12.188	0.143	0.094
-125.253	800.000	0.052	0.186
-124.239	-200.000	-0.026	0.114
-123.224	138.212	0.034	0.044
-122.210	69.943	0.071	0.074
-121.195	-200.000	0.050	-0.342
