DTS Sentinel unit serial number:	SN413079Multiplexer serial number:	ORYXHardware model number:	OX4-SRSoftware version number:	ORYX F/W v4.00 Oryx Data Collector v3.7.2.0data status	okinstallation	princeton_trtdifferential loss correction	single-endedforward channel	channel 1reverse channel	N/Adate	2019/09/12time	20:06:34forward acquisition time	15.00reverse acquisition time	0.00gamma	496.2192k internal	0.2324k external	0.2324temperature offset calibration	1.0132default loss term (dB/km)	0.3790temperature slope calibration	1.0000multiplexer offset coefficient	1.0000multiplexer slope coefficient	1.0000fibre end	0.00T internal ref (°C)	31.62T ext. ref 1 (°C)	3.40T ext. ref 2 (°C)	26.27length (m)	temperature (°C)	Stokes	anti-Stokes-747.200	264.935	-0.511	0.898
-746.185	-200.000	0.104	0.838
-745.171	-63.871	0.352	0.145
-744.156	-200.000	0.038	0.340
-743.142	800.000	0.241	-0.703
-742.127	-113.061	-0.640	-0.128
-741.112	-3.061	0.286	0.202
-740.098	-108.836	-0.678	0.146
-739.083	246.336	0.378	0.644
-738.069	91.925	0.484	0.550
-737.054	-200.000	-0.002	0.058
-736.039	-49.766	-1.347	-0.646
-735.025	-97.533	-0.883	0.231
-734.010	-45.709	0.886	-0.442
-732.996	-200.000	-0.064	-0.290
-731.981	116.363	-0.214	0.265
-730.966	-1.163	-0.436	-0.311
-729.952	-133.665	-0.452	-0.057
-728.937	77.207	-0.479	-0.513
-727.923	-128.344	-0.554	0.080
-726.908	310.594	0.170	-0.321
-725.894	239.054	0.294	-0.493
-724.879	-79.454	-0.644	0.220
-723.864	744.271	-0.090	-0.245
-722.850	-126.230	0.165	0.025
-721.835	94.700	0.546	0.626
-720.821	-111.801	0.877	-0.179
-719.806	-7.891	0.446	0.304
-718.791	-18.793	-0.093	0.058
-717.777	-77.146	-0.796	0.280
-716.762	-200.000	0.054	-0.381
-715.748	-40.193	-0.808	-0.424
-714.733	730.500	-0.168	-0.454
-713.718	-200.000	0.014	-0.941
-712.704	621.128	-0.087	0.221
-711.689	-66.579	0.138	0.055
-710.675	16.443	0.199	-0.158
-709.660	185.587	0.543	-0.814
-708.645	-35.449	-0.799	0.437
-707.631	-8.460	0.336	0.228
-706.616	800.000	-0.116	-0.480
-705.602	407.090	-0.220	-0.470
-704.587	800.000	-0.223	-0.916
-703.572	-26.201	-0.760	0.450
-702.558	-57.186	-0.783	-0.347
-701.543	3.991	0.260	0.191
-700.529	189.233	0.133	0.201
-699.514	800.000	0.161	0.633
-698.499	345.390	0.203	-0.401
-697.485	800.000	-0.147	-0.503
-696.470	-200.000	0.038	0.199
-695.456	-75.918	-0.484	0.173
-694.441	158.007	0.264	-0.369
-693.426	-118.421	0.405	-0.072
-692.412	80.778	-0.520	0.565
-691.397	128.874	-0.499	-0.641
-690.383	368.451	-0.225	-0.459
-689.368	113.199	-0.269	0.329
-688.354	800.000	-0.195	0.719
-687.339	-200.000	0.024	0.903
-686.324	42.536	-0.351	0.322
-685.310	-136.297	0.818	0.096
-684.295	-200.000	0.026	0.881
-683.281	-27.684	-0.195	0.114
-682.266	-104.610	-0.545	-0.127
-681.251	800.000	0.233	0.715
-680.237	411.786	-0.231	-0.494
-679.222	-145.709	0.538	-0.048
-678.208	379.843	-0.459	0.948
-677.193	604.886	-0.152	0.381
-676.178	93.027	0.277	0.315
-675.164	-140.550	0.801	-0.084
-674.149	99.429	0.173	0.201
-673.135	-167.718	-0.443	-0.018
-672.120	225.213	-0.232	-0.378
-671.105	16.899	0.066	0.053
-670.091	800.000	-0.078	-0.217
-669.076	-200.000	-0.036	-0.628
-668.062	203.069	0.217	0.338
-667.047	-200.000	0.137	0.960
-666.032	-116.000	-0.056	0.010
-665.018	-68.679	-0.145	0.056
-664.003	515.680	-0.257	0.604
-662.989	-5.999	0.295	-0.203
-661.974	310.250	0.074	-0.139
-660.959	-200.000	0.047	0.596
-659.945	-87.938	0.749	0.227
-658.930	22.262	0.508	0.418
-657.916	-200.000	-0.019	0.455
-656.901	-16.642	0.710	0.452
-655.886	769.486	0.035	0.097
-654.872	638.654	0.071	0.181
-653.857	75.669	-0.349	0.371
-652.843	-200.000	0.054	0.318
-651.828	-0.489	-0.373	-0.266
-650.814	-41.437	-0.099	0.051
-649.799	217.086	0.403	-0.646
-648.784	21.089	-0.144	-0.117
-647.770	-200.000	0.012	1.056
-646.755	248.323	0.118	-0.201
-645.741	79.176	0.345	-0.372
-644.726	-200.000	0.045	-0.370
-643.711	210.469	-0.117	0.185
-642.697	800.000	0.128	-0.448
-641.682	-28.799	0.565	0.327
-640.668	427.767	-0.243	0.526
-639.653	150.077	-0.200	0.273
-638.638	-0.280	-0.757	-0.541
-637.624	-80.395	-0.351	0.118
-636.609	243.402	-0.323	-0.545
-635.595	-164.659	0.777	-0.035
-634.580	800.000	-0.178	-0.518
-633.565	-61.822	-0.726	0.305
-632.551	-9.438	0.541	0.363
-631.536	-94.021	-0.344	0.095
-630.522	291.084	0.349	-0.637
-629.507	800.000	-0.322	-1.185
-628.492	-31.397	0.587	0.332
-627.478	-166.667	-0.649	-0.027
-626.463	-43.801	-0.676	-0.342
-625.449	20.971	0.752	0.612
-624.434	-176.005	-0.538	-0.014
-623.419	800.000	0.046	0.188
-622.405	143.087	0.443	0.593
-621.390	-200.000	0.173	-1.099
-620.376	480.852	0.360	-0.821
-619.361	56.510	-0.146	-0.143
-618.346	800.000	0.212	-0.899
-617.332	310.846	-0.128	0.241
-616.317	120.994	-0.407	0.509
-615.303	-39.339	0.903	0.476
-614.288	-86.220	-0.524	0.162
-613.273	57.866	0.519	0.510
-612.259	-168.400	0.778	-0.030
-611.244	136.017	0.020	0.026
-610.230	2.771	-0.561	0.409
-609.215	-87.179	-0.648	-0.198
-608.201	51.699	0.452	-0.431
-607.186	125.959	-0.094	-0.119
-606.171	200.276	0.289	-0.446
-605.157	277.629	-0.546	-0.975
-604.142	172.680	0.120	0.173
-603.128	145.384	-0.483	0.650
-602.113	-157.470	-0.351	0.021
-601.098	313.581	-0.252	-0.476
-600.084	-55.687	-0.379	0.170
-599.069	-200.000	0.016	0.190
-598.055	689.902	0.117	-0.306
-597.040	-59.238	-0.741	0.321
-596.025	43.865	-0.215	0.197
-595.011	668.357	0.357	0.926
-593.996	-19.701	-0.274	0.170
-592.982	-56.124	0.956	0.427
-591.967	-139.729	-0.672	-0.072
-590.952	-89.989	-0.910	0.266
-589.938	800.000	-0.255	0.987
-588.923	-81.138	0.439	-0.146
-587.909	-44.772	0.333	-0.167
-586.894	-44.233	0.231	0.116
-585.879	800.000	-0.065	0.258
-584.865	412.127	0.070	-0.148
-583.850	-200.000	-0.037	-0.575
-582.836	-150.339	-0.604	0.047
-581.821	216.224	0.160	-0.255
-580.806	637.946	0.025	0.064
-579.792	800.000	0.036	0.125
-578.777	-5.539	0.452	-0.311
-577.763	76.370	-0.611	0.649
-576.748	-155.859	0.729	0.047
-575.733	37.898	-0.485	-0.432
-574.719	13.619	0.531	0.414
-573.704	-51.673	-0.652	0.305
-572.690	-118.723	-0.570	0.101
-571.675	-135.386	-0.197	-0.024
-570.661	195.836	-0.374	0.571
-569.646	-200.000	0.055	0.670
-568.631	-200.000	0.064	-0.421
-567.617	-200.000	0.025	-0.117
-566.602	213.996	-0.448	-0.710
-565.588	-200.000	-0.023	0.505
-564.573	-200.000	0.068	0.361
-563.558	-42.690	0.509	0.260
-562.544	-200.000	-0.017	-0.129
-561.529	800.000	0.104	-0.398
-560.515	240.647	0.150	0.252
-559.500	-200.000	0.082	-1.031
-558.485	-112.784	-0.288	-0.057
-557.471	-187.062	-0.886	-0.012
-556.456	50.598	-0.525	-0.498
-555.442	119.593	-0.463	0.575
-554.427	104.308	-0.233	0.275
-553.412	-200.000	0.120	-0.994
-552.398	146.481	0.558	-0.752
-551.383	-72.539	-0.104	-0.039
-550.369	105.651	0.442	-0.524
-549.354	153.373	0.426	-0.585
-548.339	-200.000	-0.005	-0.284
-547.325	-171.881	-0.835	0.027
-546.310	800.000	-0.100	0.350
-545.296	385.227	0.280	0.579
-544.281	322.815	-0.422	0.805
-543.266	106.634	0.434	-0.516
-542.252	-0.465	0.996	0.708
-541.237	-193.720	0.737	0.006
-540.223	-101.858	0.883	0.214
-539.208	-128.048	1.044	0.150
-538.193	-137.436	0.290	-0.033
-537.179	-99.692	-0.793	0.199
-536.164	800.000	-0.183	0.582
-535.150	188.361	0.451	-0.675
-534.135	411.688	0.166	-0.353
-533.121	800.000	-0.218	0.758
-532.106	-200.000	-0.018	0.444
-531.091	-90.433	-0.188	-0.055
-530.077	800.000	0.048	0.147
-529.062	-57.061	0.244	-0.107
-528.048	524.486	-0.295	0.693
-527.033	266.620	0.088	0.153
-526.018	414.306	-0.156	0.332
-525.004	-200.000	0.079	-0.718
-523.989	119.253	-0.394	-0.488
-522.975	-121.824	0.445	0.073
-521.960	-135.687	-0.337	-0.040
-520.945	-11.467	0.183	0.120
-519.931	800.000	0.063	-0.201
-518.916	-137.888	0.634	0.071
-517.902	353.761	-0.234	0.466
-516.887	443.572	0.195	0.427
-515.872	102.271	-0.276	-0.323
-514.858	29.741	0.541	-0.461
-513.843	-200.000	0.063	0.317
-512.829	-17.319	-0.697	-0.439
-511.814	764.592	-0.216	-0.587
-510.799	243.687	-0.178	0.298
-509.785	379.145	-0.155	0.317
-508.770	-126.574	-0.389	0.058
-507.756	-113.038	0.773	0.153
-506.741	-200.000	-0.023	-0.751
-505.726	445.939	-0.049	-0.108
-504.712	-47.100	0.785	-0.383
-503.697	-125.253	-0.299	-0.046
-502.683	800.000	-0.088	-0.256
-501.668	800.000	-0.073	-0.228
-500.653	619.845	-0.190	-0.479
-499.639	-170.039	-0.172	-0.006
-498.624	-117.254	0.465	-0.084
-497.610	-184.796	-0.753	0.012
-496.595	-200.000	0.029	-0.800
-495.581	386.881	-0.191	-0.395
-494.566	11.445	-0.737	0.565
-493.551	-59.109	0.560	0.241
-492.537	-173.310	0.219	-0.007
-491.522	-30.541	0.165	-0.094
-490.508	8.593	-0.651	0.490
-489.493	527.332	0.293	-0.691
-488.478	-43.146	-0.084	0.042
-487.464	123.818	0.258	0.323
-486.449	437.125	-0.144	0.314
-485.435	203.647	-0.310	0.480
-484.420	-95.152	0.397	-0.107
-483.405	800.000	-0.131	-0.377
-482.391	258.737	0.070	0.121
-481.376	-182.371	0.522	0.010
-480.362	-200.000	0.065	-0.326
-479.347	189.173	0.278	-0.416
-478.332	-41.469	-0.172	0.088
-477.318	-114.765	-0.495	-0.094
-476.303	-86.030	-0.775	-0.239
-475.289	398.972	-0.240	0.502
-474.274	800.000	-0.130	0.471
-473.259	182.124	-0.282	-0.415
-472.245	-160.193	-0.338	0.018
-471.230	-68.314	0.450	0.175
-470.216	-54.974	-0.562	0.253
-469.201	-200.000	-0.036	0.340
-468.186	-200.000	0.207	1.008
-467.172	439.003	0.157	-0.342
-466.157	-200.000	-0.028	-0.224
-465.143	53.608	0.293	0.281
-464.128	-111.306	-0.391	-0.080
-463.113	800.000	-0.243	-0.677
-462.099	-67.928	0.436	-0.170
-461.084	53.212	-0.407	0.389
-460.070	78.559	0.239	-0.255
-459.055	52.149	-0.258	0.246
-458.040	-103.820	0.540	-0.126
-457.026	110.980	0.546	-0.656
-456.011	-200.000	0.094	0.761
-454.997	16.613	-0.114	0.090
-453.982	447.450	-0.177	0.389
-452.968	-41.180	0.173	-0.089
-451.953	-114.456	-0.345	0.066
-450.938	-152.661	0.636	0.045
-449.924	800.000	-0.115	-0.408
-448.909	-4.266	-0.253	0.175
-447.895	-200.000	-0.216	-0.969
-446.880	-108.597	0.130	0.028
-445.865	287.870	0.186	0.335
-444.851	-150.192	-0.806	0.062
-443.836	209.574	-0.299	0.468
-442.822	-50.768	0.404	0.190
-441.807	120.388	0.461	-0.571
-440.792	-37.361	-0.422	-0.225
-439.778	-96.969	-0.265	-0.069
-438.763	30.263	-0.234	-0.199
-437.749	51.256	-0.500	-0.474
-436.734	-113.999	-0.406	-0.078
-435.719	-115.947	0.315	0.059
-434.705	-140.279	-0.519	0.054
-433.690	271.530	0.189	-0.331
-432.676	273.664	0.240	-0.424
-431.661	83.679	0.325	0.354
-430.646	-200.000	0.110	0.483
-429.632	198.783	0.399	0.609
-428.617	-200.000	-0.073	-0.574
-427.603	-31.887	-0.781	-0.436
-426.588	-93.824	0.184	0.051
-425.573	65.007	-0.352	0.354
-424.559	-200.000	-0.021	0.464
-423.544	4.442	0.941	0.688
-422.530	-8.180	0.449	0.301
-421.515	-200.000	-0.035	-0.156
-420.500	-65.946	-0.451	-0.180
-419.486	653.355	-0.061	0.155
-418.471	-200.000	-0.078	-0.591
-417.457	-200.000	-0.128	1.092
-416.442	-44.118	0.346	0.173
-415.428	-82.643	0.290	0.094
-414.413	-17.806	0.767	0.480
-413.398	320.614	-0.048	0.090
-412.384	412.127	-0.127	-0.270
-411.369	800.000	0.088	0.291
-410.355	-60.390	-0.342	0.145
-409.340	-192.753	-0.412	-0.004
-408.325	9.973	0.939	0.710
-407.311	348.336	-0.071	0.140
-406.296	701.194	0.219	-0.576
-405.282	800.000	-0.038	0.147
-404.267	-200.000	0.114	0.793
-403.252	104.075	0.205	-0.240
-402.238	-200.000	-0.172	0.890
-401.223	17.911	-0.810	0.643
-400.209	800.000	-0.070	0.252
-399.194	114.602	-0.899	-1.091
-398.179	463.385	-0.186	-0.415
-397.165	-21.090	-0.481	0.293
-396.150	-111.009	-0.462	-0.094
-395.136	800.000	0.127	-0.365
-394.121	23.374	0.459	0.376
-393.106	24.652	-0.051	0.042
-392.092	75.350	0.249	0.262
-391.077	152.675	-0.519	0.706
-390.063	-79.535	0.416	-0.140
-389.048	18.139	0.460	0.366
-388.033	-127.478	-0.123	-0.018
-387.019	800.000	0.059	0.182
-386.004	62.610	0.546	-0.544
-384.990	800.000	-0.158	0.492
-383.975	-116.606	-0.966	0.177
-382.960	-146.908	0.384	0.033
-381.946	100.567	-0.561	0.648
-380.931	800.000	0.231	-0.993
-379.917	319.528	-0.212	0.400
-378.902	300.395	0.415	-0.761
-377.888	800.000	0.055	-0.221
-376.873	91.818	0.704	0.788
-375.858	714.355	0.147	-0.388
-374.844	81.556	0.424	-0.457
-373.829	436.702	-0.090	0.195
-372.815	-133.895	-0.612	-0.076
-371.800	-184.193	1.080	0.018
-370.785	-78.656	-0.294	-0.100
-369.771	125.324	-0.239	-0.300
-368.756	800.000	-0.123	0.456
-367.742	517.112	-0.177	0.411
-366.727	-94.102	-0.595	-0.162
-365.712	-40.236	-0.718	0.372
-364.698	14.291	-0.508	0.394
-363.683	-200.000	-0.031	-1.009
-362.669	104.511	0.152	-0.178
-361.654	64.264	0.531	0.531
-360.639	800.000	0.191	0.539
-359.625	-200.000	0.034	0.582
-358.610	452.358	-0.075	-0.166
-357.596	-200.000	0.024	0.332
-356.581	-200.000	0.081	0.488
-355.566	255.154	-0.313	-0.533
-354.552	-7.944	0.084	-0.056
-353.537	411.420	-0.122	0.258
-352.523	277.427	-0.404	0.714
-351.508	-200.000	-0.013	0.297
-350.493	-67.730	1.053	-0.410
-349.479	342.516	-0.166	-0.323
-348.464	-200.000	-0.008	0.411
-347.450	166.197	0.023	-0.033
-346.435	11.137	0.435	-0.331
-345.420	-77.418	-0.161	-0.056
-344.406	-126.903	-0.819	0.120
-343.391	-139.977	-0.160	-0.017
-342.377	225.342	0.651	-1.048
-341.362	99.042	-0.080	0.092
-340.348	-200.000	-0.025	0.580
-339.333	-128.289	0.735	0.104
-338.318	32.011	-0.428	0.366
-337.304	-200.000	-0.131	-0.611
-336.289	-149.316	0.422	0.033
-335.275	259.078	0.130	-0.223
-334.260	-200.000	-0.093	0.674
-333.245	-200.000	0.091	-0.491
-332.231	16.216	-0.287	0.225
-331.216	84.861	-0.176	0.191
-330.202	-130.834	-0.235	0.031
-329.187	-200.000	-0.169	-1.008
-328.172	-74.932	-0.474	-0.169
-327.158	100.056	-0.446	-0.514
-326.143	800.000	-0.153	-0.518
-325.129	-200.000	0.106	0.644
-324.114	-154.247	0.272	-0.018
-323.099	-172.635	1.170	-0.037
-322.085	-165.694	-0.453	-0.019
-321.070	-200.000	0.137	-0.711
-320.056	-106.265	0.605	0.134
-319.041	140.756	-0.308	-0.404
-318.026	800.000	0.101	0.319
-317.012	-55.052	0.365	0.163
-315.997	-50.591	-0.185	0.086
-314.983	174.300	-0.560	-0.803
-313.968	-200.000	0.100	0.528
-312.953	-200.000	0.032	0.316
-311.939	-33.064	-0.436	0.240
-310.924	40.422	-0.137	-0.123
-309.910	191.399	0.275	-0.411
-308.895	155.153	-0.698	-0.952
-307.880	-103.969	0.719	-0.166
-306.866	-200.000	-0.047	-0.287
-305.851	-25.720	0.574	-0.336
-304.837	-200.000	-0.005	0.290
-303.822	-79.036	0.464	-0.156
-302.807	2.367	-0.431	0.309
-301.793	-200.000	0.029	-0.832
-300.778	-112.216	-0.546	-0.109
-299.764	92.497	-0.569	-0.637
-298.749	800.000	0.102	-0.316
-297.735	-71.509	-0.432	-0.160
-296.720	11.540	-0.593	0.451
-295.705	800.000	0.271	1.140
-294.691	-16.225	-0.210	0.132
-293.676	81.589	0.462	0.496
-292.662	800.000	0.122	-0.463
-291.647	-30.532	-1.064	0.598
-290.632	63.308	0.706	0.702
-289.618	-200.000	-0.004	0.383
-288.603	-9.937	0.852	0.562
-287.589	-150.036	0.248	0.019
-286.574	602.899	-0.245	-0.605
-285.559	284.608	-0.536	-0.956
-284.545	237.862	0.221	-0.364
-283.530	-97.879	0.576	-0.148
-282.516	-200.000	-0.020	0.100
-281.501	-116.123	0.608	0.112
-280.486	9.702	0.522	-0.392
-279.472	-167.764	-0.616	-0.024
-278.457	-16.650	0.297	-0.186
-277.443	102.723	0.350	-0.406
-276.428	19.371	-0.366	-0.291
-275.413	112.796	0.093	-0.112
-274.399	-200.000	0.011	0.443
-273.384	-200.000	0.158	1.043
-272.370	-200.000	-0.037	0.519
-271.355	-200.000	0.032	-0.374
-270.340	800.000	0.203	-0.773
-269.326	31.100	-0.494	-0.420
-268.311	-139.010	0.229	0.025
-267.297	371.969	0.392	-0.788
-266.282	-52.494	0.358	-0.164
-265.267	-200.000	-0.052	0.315
-264.253	-145.972	0.449	-0.039
-263.238	-7.222	0.829	-0.557
-262.224	-117.818	0.342	-0.061
-261.209	-200.000	0.014	-0.095
-260.195	-4.105	0.096	0.066
-259.180	800.000	0.038	0.154
-258.165	-200.000	-0.075	-0.475
-257.151	800.000	0.111	0.311
-256.136	-200.000	-0.003	-0.170
-255.122	-105.342	-0.290	0.065
-254.107	129.905	0.726	-0.919
-253.092	-200.000	0.020	-0.579
-252.078	459.043	-0.203	0.448
-251.063	800.000	-0.132	0.405
-250.049	-18.206	-0.477	0.295
-249.034	-130.847	0.215	0.029
-248.019	140.712	0.368	0.481
-247.005	-200.000	0.002	-0.206
-245.990	451.661	0.020	0.045
-244.976	-71.534	0.067	-0.025
-243.961	172.345	-0.515	-0.734
-242.946	162.412	-0.209	-0.290
-241.932	549.788	0.207	-0.491
-240.917	-39.951	0.585	0.302
-239.903	800.000	0.035	-0.129
-238.888	-97.398	-0.806	-0.208
-237.873	-143.261	-0.662	-0.063
-236.859	506.508	-0.212	0.487
-235.844	57.211	0.186	-0.180
-234.830	-101.503	0.322	0.077
-233.815	-64.404	0.132	-0.053
-232.800	-41.723	0.734	0.373
-231.786	-35.295	-0.388	-0.209
-230.771	110.650	-0.089	-0.106
-229.757	-106.558	0.487	0.107
-228.742	-131.267	0.211	-0.028
-227.727	800.000	0.224	-0.704
-226.713	414.103	-0.158	-0.332
-225.698	200.714	0.457	-0.695
-224.684	113.078	-0.297	-0.356
-223.669	105.391	-0.250	-0.292
-222.655	-97.201	1.147	-0.296
-221.640	44.711	-0.685	0.623
-220.625	94.648	0.228	0.257
-219.611	-32.661	0.277	0.152
-218.596	-19.483	-0.583	0.357
-217.582	579.635	0.317	-0.768
-216.567	119.671	-0.398	-0.488
-215.552	143.720	-0.602	0.793
-214.538	106.871	-0.136	0.159
-213.523	517.128	-0.142	0.329
-212.509	-85.646	-0.385	0.118
-211.494	-91.785	0.467	-0.131
-210.479	288.263	0.558	0.998
-209.465	53.453	0.167	0.158
-208.450	-64.998	0.145	-0.058
-207.436	-26.144	1.231	0.715
-206.421	24.098	0.670	0.547
-205.406	58.943	0.465	0.452
-204.392	366.887	-0.069	-0.137
-203.377	-200.000	-0.063	-0.324
-202.363	-166.666	0.529	-0.022
-201.348	-9.958	0.188	0.124
-200.333	27.981	-0.157	0.131
-199.319	-114.858	-0.311	-0.059
-198.304	-200.000	0.073	0.639
-197.290	66.758	-0.548	-0.551
-196.275	8.426	-0.441	-0.328
-195.260	65.386	0.272	0.272
-194.246	800.000	-0.308	-0.946
-193.231	343.683	0.137	-0.265
-192.217	612.947	0.178	0.440
-191.202	-105.770	-0.541	-0.121
-190.187	137.823	0.218	0.283
-189.173	-200.000	-0.082	0.654
-188.158	33.868	0.341	-0.293
-187.144	-9.004	0.795	-0.526
-186.129	-200.000	0.077	-0.556
-185.114	-94.150	-0.346	-0.094
-184.100	190.702	0.493	-0.732
-183.085	-11.458	-0.217	-0.141
-182.071	-108.970	0.160	-0.034
-181.056	-95.476	0.297	-0.079
-180.042	75.933	0.451	0.470
-179.027	169.680	-0.148	-0.209
-178.012	800.000	0.141	0.429
-176.998	88.437	-0.442	0.485
-175.983	636.004	-0.090	-0.225
-174.969	-200.000	-0.101	0.580
-173.954	-24.861	0.757	0.444
-172.939	173.686	-0.202	-0.289
-171.925	-162.471	0.717	-0.035
-170.910	-91.684	-0.612	-0.172
-169.896	-6.948	-0.182	-0.122
-168.881	56.668	-0.330	0.317
-167.866	-142.036	-0.623	0.061
-166.852	-112.965	0.585	-0.114
-165.837	0.058	0.630	0.443
-164.823	485.156	-0.336	-0.755
-163.808	68.846	-0.407	-0.412
-162.793	269.244	0.392	0.679
-161.779	-49.344	0.173	0.082
-160.764	-0.668	0.511	0.358
-159.750	-7.640	-0.274	0.183
-158.735	-126.281	-0.413	-0.061
-157.720	-2.750	-0.617	-0.426
-156.706	8.788	-0.763	0.568
-155.691	-112.297	-0.535	-0.106
-154.677	-11.098	-0.578	0.376
-153.662	-173.536	-0.361	0.011
-152.647	105.830	-0.423	0.494
-151.633	152.254	0.399	0.537
-150.618	-0.439	0.224	-0.157
-149.604	-89.118	0.341	-0.099
-148.589	-64.357	0.720	-0.289
-147.574	-166.311	-0.712	-0.030
-146.560	27.801	-0.897	0.745
-145.545	707.760	0.079	0.207
-144.531	60.495	-0.469	-0.458
-143.516	-200.000	0.001	-0.357
-142.502	-37.841	-0.822	-0.431
-141.487	-180.108	0.676	-0.014
-140.472	-200.000	0.055	-0.284
-139.458	-34.883	0.390	0.210
-138.443	-143.291	-0.759	-0.072
-137.429	82.188	-0.436	0.466
-136.414	219.861	-0.446	-0.705
-135.399	73.262	-0.171	-0.176
-134.385	-200.000	0.033	0.231
-133.370	800.000	-0.184	0.789
-132.356	-200.000	0.153	0.850
-131.341	156.690	-0.901	1.226
-130.326	56.928	-0.229	0.220
-129.312	-200.000	0.040	-0.258
-128.297	800.000	-0.149	-0.501
-127.283	205.994	0.324	-0.497
-126.268	17.436	0.480	-0.376
-125.253	4.108	0.247	0.178
-124.239	-41.883	0.258	-0.130
-123.224	590.506	-0.060	0.147
-122.210	14.358	0.364	-0.280
-121.195	-17.365	-0.395	0.245
