DTS Sentinel unit serial number:	SN413079Multiplexer serial number:	ORYXHardware model number:	OX4-SRSoftware version number:	ORYX F/W v4.00 Oryx Data Collector v3.7.2.0data status	okinstallation	princeton_trtdifferential loss correction	single-endedforward channel	channel 1reverse channel	N/Adate	2019/09/14time	21:42:35forward acquisition time	60.00reverse acquisition time	0.00gamma	496.2192k internal	0.2319k external	0.2319temperature offset calibration	1.0009default loss term (dB/km)	0.3790temperature slope calibration	1.0000multiplexer offset coefficient	1.0000multiplexer slope coefficient	1.0000fibre end	0.00T internal ref (°C)	32.80T ext. ref 1 (°C)	4.76T ext. ref 2 (°C)	27.69length (m)	temperature (°C)	Stokes	anti-Stokes-747.200	-11.856	-0.158	-0.105
-746.185	-74.312	-0.335	-0.123
-745.171	-86.987	-0.083	-0.026
-744.156	196.746	-0.085	0.131
-743.142	-104.728	0.158	0.037
-742.127	368.671	0.093	0.191
-741.112	72.226	0.109	0.115
-740.098	540.859	0.064	0.155
-739.083	-101.961	-0.058	-0.014
-738.069	-200.000	0.050	-0.265
-737.054	-12.077	0.162	-0.108
-736.039	38.613	-0.296	-0.267
-735.025	667.045	-0.113	0.295
-734.010	402.964	-0.173	0.368
-732.996	607.016	0.118	-0.297
-731.981	101.121	-0.156	0.184
-730.966	675.984	0.027	0.071
-729.952	14.248	0.300	0.237
-728.937	398.026	-0.170	-0.360
-727.923	800.000	-0.175	-0.604
-726.908	-134.967	-0.389	-0.048
-725.894	49.223	-0.090	-0.085
-724.879	-90.895	-0.289	0.084
-723.864	33.990	-0.045	0.039
-722.850	775.711	-0.065	-0.180
-721.835	-18.629	-0.145	-0.091
-720.821	42.231	-0.332	0.304
-719.806	469.097	0.033	0.075
-718.791	-128.746	-0.436	-0.062
-717.777	-119.055	-0.275	0.049
-716.762	800.000	0.066	-0.244
-715.748	698.313	-0.112	-0.297
-714.733	-116.600	0.296	0.055
-713.718	-26.309	0.156	-0.093
-712.704	89.622	-0.031	0.035
-711.689	-100.338	0.104	0.026
-710.675	127.939	-0.147	0.189
-709.660	800.000	-0.126	-0.392
-708.645	-6.273	0.134	0.093
-707.631	-72.199	-0.107	-0.040
-706.616	-79.519	-0.131	-0.045
-705.602	800.000	0.061	0.213
-704.587	-55.058	0.257	0.117
-703.572	-200.000	0.049	-0.448
-702.558	23.490	0.152	0.127
-701.543	-55.337	0.213	-0.096
-700.529	-200.000	-0.044	0.207
-699.514	-200.000	-0.005	-0.073
-698.499	-200.000	-0.022	-0.202
-697.485	-155.528	-0.185	-0.012
-696.470	-200.000	-0.039	0.297
-695.456	145.002	-0.164	0.222
-694.441	-64.232	-0.135	0.056
-693.426	-200.000	-0.053	0.420
-692.412	-160.681	0.354	-0.019
-691.397	-200.000	0.003	0.325
-690.383	160.686	-0.067	0.095
-689.368	313.843	0.113	0.214
-688.354	171.747	-0.161	-0.234
-687.339	120.468	-0.260	-0.326
-686.324	-170.807	0.505	-0.018
-685.310	-22.706	0.075	-0.046
-684.295	96.520	-0.371	-0.429
-683.281	-200.000	-0.011	-0.156
-682.266	27.520	0.260	-0.220
-681.251	153.699	-0.039	-0.054
-680.237	-88.092	0.182	0.055
-679.222	-168.757	-0.245	0.009
-678.208	-184.983	0.176	-0.003
-677.193	-99.115	-0.253	-0.065
-676.178	-200.000	-0.028	-0.233
-675.164	-200.000	0.004	-0.148
-674.149	-53.176	0.142	-0.066
-673.135	-57.745	-0.332	-0.147
-672.120	91.160	-0.302	-0.341
-671.105	-72.584	0.228	-0.085
-670.091	-108.529	-0.201	0.044
-669.076	-200.000	-0.012	0.126
-668.062	27.559	-0.316	0.268
-667.047	69.442	-0.182	-0.189
-666.032	337.316	0.049	0.097
-665.018	-1.668	0.227	0.161
-664.003	387.089	-0.057	0.119
-662.989	-194.467	-0.203	-0.002
-661.974	-105.736	-0.197	-0.045
-660.959	177.496	-0.116	-0.170
-659.945	-57.116	-0.228	-0.101
-658.930	-89.755	-0.163	0.048
-657.916	-200.000	0.016	-0.071
-656.901	-113.215	0.279	-0.055
-655.886	-40.012	-0.133	-0.070
-654.872	595.055	0.207	-0.516
-653.857	83.542	-0.310	0.341
-652.843	21.302	-0.119	0.097
-651.828	-15.601	-0.231	-0.149
-650.814	346.291	0.137	-0.273
-649.799	-200.000	0.040	-0.235
-648.784	-117.429	0.188	-0.034
-647.770	-26.156	-0.101	-0.060
-646.755	-115.553	-0.125	0.024
-645.741	416.690	-0.018	0.039
-644.726	612.597	-0.052	0.130
-643.711	-51.046	-0.063	0.030
-642.697	20.830	0.223	-0.182
-641.682	-136.977	0.240	0.028
-640.668	-46.134	-0.116	-0.058
-639.653	-108.803	0.205	-0.044
-638.638	-129.396	-0.036	0.005
-637.624	672.409	-0.033	-0.086
-636.609	-97.098	0.277	0.073
-635.595	253.757	-0.155	0.268
-634.580	-85.477	0.177	0.056
-633.565	-200.000	0.039	0.312
-632.551	32.314	0.166	-0.145
-631.536	-19.172	-0.272	0.170
-630.522	-200.000	0.019	-0.306
-629.507	-112.430	0.297	0.060
-628.492	-4.079	0.302	-0.211
-627.478	-54.780	-0.238	-0.108
-626.463	6.747	0.314	-0.235
-625.449	50.686	0.205	0.196
-624.434	-200.000	0.010	0.184
-623.419	-200.000	-0.005	0.272
-622.405	-23.958	-0.115	0.070
-621.390	329.704	0.088	0.170
-620.376	800.000	0.041	0.123
-619.361	-169.672	-0.033	0.001
-618.346	-135.253	0.235	0.028
-617.332	16.820	-0.041	-0.032
-616.317	291.733	-0.104	-0.190
-615.303	-91.461	-0.350	-0.101
-614.288	-117.711	0.521	-0.094
-613.273	-100.564	0.211	0.052
-612.259	14.139	0.088	0.069
-611.244	-138.846	0.124	-0.014
-610.230	-74.436	-0.015	-0.005
-609.215	800.000	0.057	0.200
-608.201	21.533	-0.037	0.030
-607.186	-82.366	-0.249	0.081
-606.171	-35.375	-0.060	0.033
-605.157	800.000	0.003	-0.012
-604.142	297.446	0.204	-0.377
-603.128	574.660	0.092	0.225
-602.113	-200.000	-0.040	0.182
-601.098	-82.505	0.052	-0.017
-600.084	257.769	-0.154	0.267
-599.069	-88.322	-0.242	-0.073
-598.055	169.333	0.135	0.194
-597.040	604.382	-0.089	-0.224
-596.025	254.061	0.025	0.043
-595.011	116.855	-0.215	-0.265
-593.996	-200.000	0.041	-0.288
-592.982	-75.148	0.257	-0.092
-591.967	800.000	-0.074	0.249
-590.952	572.643	0.061	-0.151
-589.938	-200.000	0.015	-0.211
-588.923	-200.000	-0.013	-0.086
-587.909	28.675	-0.183	-0.156
-586.894	-75.395	0.277	-0.099
-585.879	-200.000	0.012	0.309
-584.865	15.325	0.166	-0.131
-583.850	-25.826	0.252	-0.149
-582.836	-111.054	0.133	0.028
-581.821	-200.000	0.015	0.103
-580.806	134.265	-0.039	0.051
-579.792	-57.062	0.181	0.080
-578.777	-73.254	0.126	-0.046
-577.763	263.730	0.024	0.041
-576.748	167.064	0.237	-0.337
-575.733	-200.000	-0.004	0.141
-574.719	-200.000	-0.017	0.123
-573.704	-56.544	-0.181	-0.081
-572.690	-130.527	-0.206	-0.028
-571.675	-136.611	-0.368	0.043
-570.661	-8.261	-0.126	0.085
-569.646	102.509	-0.215	-0.252
-568.631	332.001	-0.033	0.064
-567.617	61.103	0.194	-0.194
-566.602	346.853	0.182	-0.359
-565.588	-103.339	-0.545	-0.129
-564.573	71.606	0.073	0.076
-563.558	-200.000	-0.048	-0.331
-562.544	686.777	-0.042	0.110
-561.529	-149.491	0.129	-0.010
-560.515	12.029	-0.035	-0.027
-559.500	174.255	0.059	0.085
-558.485	-12.097	0.148	0.098
-557.471	-101.019	0.450	0.111
-556.456	5.077	0.139	0.103
-555.442	-54.384	-0.245	0.112
-554.427	-116.017	-0.134	0.025
-553.412	-117.041	-0.152	0.028
-552.398	31.196	-0.123	-0.106
-551.383	-63.405	0.168	0.070
-550.369	197.631	0.104	-0.159
-549.354	-98.375	0.143	-0.037
-548.339	-80.730	-0.261	0.087
-547.325	-151.985	-0.327	0.024
-546.310	48.193	0.138	0.129
-545.296	520.670	-0.017	0.041
-544.281	-200.000	0.016	0.117
-543.266	-200.000	-0.012	-0.294
-542.252	226.635	0.203	-0.331
-541.237	-79.352	-0.046	-0.016
-540.223	800.000	-0.067	-0.203
-539.208	31.822	0.042	-0.036
-538.193	-163.522	-0.094	0.004
-537.179	-117.635	-0.163	0.030
-536.164	518.976	0.087	0.205
-535.150	-91.470	-0.334	0.096
-534.135	798.761	0.079	0.219
-533.121	-200.000	0.032	-0.310
-532.106	800.000	0.036	-0.142
-531.091	-138.694	0.381	-0.042
-530.077	9.471	-0.071	-0.054
-529.062	-97.450	0.112	-0.029
-528.048	-39.443	0.125	0.066
-527.033	-142.978	0.341	0.033
-526.018	800.000	0.028	0.108
-525.004	-163.382	-0.277	-0.013
-523.989	-46.278	0.122	-0.060
-522.975	-59.668	-0.059	0.026
-521.960	800.000	0.023	0.094
-520.945	-200.000	-0.011	-0.129
-519.931	97.147	-0.098	-0.113
-518.916	471.640	-0.123	-0.278
-517.902	-86.747	-0.083	0.026
-516.887	-55.479	0.256	-0.115
-515.872	32.068	0.066	-0.057
-514.858	-167.453	0.215	-0.009
-513.843	-53.535	0.038	0.018
-512.829	35.005	0.062	-0.055
-511.814	800.000	-0.021	0.077
-510.799	44.681	-0.105	-0.096
-509.785	395.993	0.065	-0.136
-508.770	-200.000	-0.019	-0.138
-507.756	-200.000	-0.003	0.016
-506.741	100.608	-0.183	0.213
-505.726	-177.148	-0.037	0.001
-504.712	-44.787	0.154	-0.077
-503.697	-64.909	0.161	0.065
-502.683	-200.000	-0.017	-0.103
-501.668	19.688	-0.110	-0.089
-500.653	-105.621	-0.133	-0.030
-499.639	-133.226	-0.153	0.019
-498.624	-200.000	0.020	-0.375
-497.610	-67.378	0.315	-0.124
-496.595	-200.000	0.002	0.121
-495.581	9.054	-0.066	0.050
-494.566	-200.000	0.023	0.115
-493.551	-200.000	-0.000	0.117
-492.537	-181.294	0.075	-0.001
-491.522	46.552	-0.148	0.138
-490.508	57.412	0.082	-0.081
-489.493	-91.638	-0.476	-0.136
-488.478	-33.776	0.158	-0.087
-487.464	-200.000	-0.074	0.370
-486.449	596.608	-0.041	0.103
-485.435	-52.697	0.181	0.084
-484.420	-79.292	-0.330	-0.112
-483.405	110.922	-0.262	-0.316
-482.391	-75.917	-0.325	-0.115
-481.376	-30.438	-0.231	0.131
-480.362	-170.397	-0.030	-0.001
-479.347	-2.605	-0.060	-0.042
-478.332	800.000	-0.062	0.219
-477.318	-200.000	-0.014	-0.188
-476.303	193.292	0.163	-0.246
-475.289	800.000	0.049	-0.153
-474.274	-109.818	0.348	-0.073
-473.259	-200.000	-0.017	-0.311
-472.245	800.000	0.056	0.184
-471.230	218.275	-0.170	0.272
-470.216	-97.953	-0.212	0.055
-469.201	-200.000	-0.007	0.079
-468.186	146.604	-0.031	-0.042
-467.172	58.627	0.073	0.072
-466.157	800.000	-0.040	0.148
-465.143	-200.000	-0.006	0.369
-464.128	-65.823	-0.354	0.142
-463.113	0.210	0.256	-0.183
-462.099	-200.000	0.074	-0.373
-461.084	-136.154	0.264	0.031
-460.070	-67.463	-0.239	0.094
-459.055	-13.575	0.221	0.143
-458.040	-200.000	-0.001	-0.030
-457.026	417.848	0.118	-0.252
-456.011	-22.164	-0.255	0.155
-454.997	-100.127	-0.198	-0.049
-453.982	66.873	0.120	-0.122
-452.968	238.689	0.055	0.091
-451.953	800.000	-0.032	0.091
-450.938	-200.000	0.004	-0.174
-449.924	-31.895	0.062	-0.034
-448.909	-26.944	0.239	0.140
-447.895	-87.750	0.176	-0.053
-446.880	-115.796	0.318	0.059
-445.865	-105.361	0.106	-0.024
-444.851	800.000	-0.105	-0.402
-443.836	800.000	0.044	0.132
-442.822	-165.855	0.180	0.008
-441.807	39.406	0.256	0.229
-440.792	62.194	-0.252	0.251
-439.778	-200.000	-0.013	0.341
-438.763	-20.871	0.214	0.131
-437.749	-200.000	-0.000	-0.159
-436.734	800.000	0.111	-0.356
-435.719	-200.000	0.008	-0.063
-434.705	-52.697	-0.233	-0.108
-433.690	225.133	0.096	-0.155
-432.676	-127.656	-0.204	0.029
-431.661	67.570	-0.201	-0.205
-430.646	-200.000	-0.013	0.213
-429.632	-200.000	-0.032	0.182
-428.617	800.000	0.029	0.116
-427.603	-185.432	-0.233	-0.004
-426.588	765.322	-0.069	-0.187
-425.573	-9.639	-0.221	-0.147
-424.559	-133.399	-0.088	-0.011
-423.544	-200.000	-0.038	0.293
-422.530	333.390	-0.136	0.263
-421.515	715.488	0.055	-0.145
-420.500	800.000	0.056	-0.174
-419.486	800.000	0.100	-0.285
-418.471	-189.129	0.222	-0.003
-417.457	-65.777	-0.262	-0.105
-416.442	-200.000	0.052	-0.283
-415.428	-27.910	0.077	-0.044
-414.413	-59.490	-0.170	-0.073
-413.398	-82.238	-0.432	0.140
-412.384	800.000	0.043	0.185
-411.369	47.663	-0.274	0.256
-410.355	800.000	0.049	0.167
-409.340	210.452	-0.123	0.193
-408.325	-31.123	-0.135	-0.076
-407.311	-200.000	0.008	0.103
-406.296	115.429	-0.150	-0.182
-405.282	-65.319	0.079	0.032
-404.267	-135.285	0.083	0.010
-403.252	-107.411	0.298	0.065
-402.238	-124.486	0.216	-0.034
-401.223	130.641	0.098	0.125
-400.209	-189.746	0.271	-0.003
-399.194	-106.988	0.283	0.063
-398.179	428.715	0.171	-0.369
-397.165	-34.006	0.186	0.102
-396.150	142.887	-0.144	-0.192
-395.136	32.535	-0.204	-0.176
-394.121	43.720	-0.179	-0.164
-393.106	800.000	-0.053	0.166
-392.092	-146.054	0.159	0.014
-391.077	-200.000	-0.055	-0.249
-390.063	800.000	-0.025	0.084
-389.048	620.974	-0.143	0.360
-388.033	-90.968	-0.187	0.054
-387.019	-200.000	0.007	0.162
-386.004	303.232	0.100	0.185
-384.990	598.920	0.048	0.118
-383.975	270.006	0.094	0.165
-382.960	333.148	-0.116	-0.223
-381.946	141.088	-0.024	-0.032
-380.931	253.776	0.166	0.284
-379.917	800.000	0.078	0.281
-378.902	-153.610	-0.294	0.020
-377.888	94.066	0.094	-0.106
-376.873	-125.583	0.132	0.020
-375.858	9.430	-0.129	0.098
-374.844	97.951	-0.256	0.294
-373.829	-105.317	0.263	-0.060
-372.815	-103.618	0.095	-0.022
-371.800	680.424	-0.057	0.149
-370.785	14.423	-0.174	-0.135
-369.771	-119.881	-0.217	-0.037
-368.756	500.154	-0.077	-0.178
-367.742	-200.000	0.070	-0.309
-366.727	136.840	0.085	-0.110
-365.712	67.386	0.190	-0.194
-364.698	-169.861	-0.174	0.006
-363.683	85.283	0.176	-0.192
-362.669	800.000	-0.116	-0.414
-361.654	156.863	-0.059	0.081
-360.639	60.972	0.069	0.068
-359.625	800.000	0.110	0.329
-358.610	709.183	-0.078	-0.205
-357.596	-200.000	0.009	0.246
-356.581	722.735	-0.028	0.074
-355.566	10.231	0.307	0.233
-354.552	1.674	0.060	0.043
-353.537	729.725	-0.088	-0.233
-352.523	-87.513	0.355	-0.107
-351.508	-1.415	0.070	0.049
-350.493	-167.347	0.211	0.008
-349.479	800.000	-0.114	-0.414
-348.464	284.642	-0.117	-0.210
-347.450	36.294	0.053	0.047
-346.435	-82.143	0.228	-0.074
-345.420	312.155	-0.075	-0.140
-344.406	-200.000	0.015	0.223
-343.391	-44.792	-0.507	-0.252
-342.377	-79.454	-0.233	-0.079
-341.362	-200.000	-0.023	0.392
-340.348	266.758	-0.118	0.205
-339.333	-200.000	0.009	0.166
-338.318	111.021	-0.163	0.195
-337.304	190.474	0.128	0.192
-336.289	-111.717	-0.135	0.027
-335.275	-102.281	-0.230	0.055
-334.260	800.000	0.084	0.278
-333.245	445.796	-0.118	0.259
-332.231	-200.000	0.022	-0.128
-331.216	242.085	0.120	-0.201
-330.202	109.728	0.052	0.062
-329.187	5.552	0.003	0.002
-328.172	39.837	0.251	-0.225
-327.158	800.000	0.053	-0.195
-326.143	34.211	0.145	0.126
-325.129	52.786	0.113	-0.107
-324.114	265.511	0.069	0.120
-323.099	22.173	-0.139	-0.113
-322.085	-200.000	0.006	0.052
-321.070	-200.000	0.020	0.110
-320.056	800.000	-0.073	0.208
-319.041	-23.487	-0.201	0.120
-318.026	-111.586	0.307	0.062
-317.012	-100.888	-0.169	0.041
-315.997	-74.788	0.207	-0.074
-314.983	14.633	0.075	-0.059
-313.968	113.269	-0.162	-0.196
-312.953	198.213	0.013	-0.020
-311.939	125.657	-0.198	0.249
-310.924	338.232	-0.124	0.240
-309.910	-61.878	-0.070	-0.029
-308.895	-200.000	-0.059	0.495
-307.880	-58.557	-0.078	0.034
-306.866	342.478	-0.077	-0.150
-305.851	72.180	0.117	-0.121
-304.837	-200.000	0.023	0.143
-303.822	266.808	0.049	0.085
-302.807	27.236	-0.134	-0.112
-301.793	168.644	0.194	-0.275
-300.778	-200.000	0.060	-0.275
-299.764	682.977	-0.023	0.059
-298.749	-150.215	-0.191	-0.015
-297.735	-142.823	-0.137	0.013
-296.720	89.778	0.267	0.296
-295.705	-168.248	-0.375	-0.014
-294.691	214.664	-0.167	-0.263
-293.676	-49.151	-0.120	0.057
-292.662	219.481	0.173	-0.276
-291.647	-84.550	0.279	-0.087
-290.632	94.740	-0.135	0.153
-289.618	53.483	-0.162	0.155
-288.603	-132.329	0.151	-0.019
-287.589	211.849	-0.001	-0.002
-286.574	173.233	-0.205	-0.293
-285.559	27.979	-0.054	-0.045
-284.545	-200.000	0.006	0.174
-283.530	-143.057	0.283	-0.027
-282.516	-27.238	0.037	0.021
-281.501	-76.377	-0.237	-0.083
-280.486	-200.000	0.002	0.146
-279.472	-82.024	-0.186	0.060
-278.457	62.173	0.148	-0.147
-277.443	32.432	0.311	-0.267
-276.428	-45.227	-0.224	-0.111
-275.413	302.080	0.163	0.300
-274.399	-122.538	0.248	-0.040
-273.384	35.366	-0.347	0.302
-272.370	800.000	0.123	-0.392
-271.355	-49.382	0.045	-0.022
-270.340	800.000	0.037	0.137
-269.326	800.000	-0.067	0.197
-268.311	-129.900	-0.050	-0.007
-267.297	2.680	0.062	0.045
-266.282	177.165	-0.178	0.258
-265.267	144.118	0.064	-0.085
-264.253	663.722	-0.120	-0.308
-263.238	-200.000	-0.053	-0.432
-262.224	268.619	-0.035	0.061
-261.209	378.160	0.140	-0.285
-260.195	-81.160	-0.283	-0.093
-259.180	-200.000	0.001	-0.202
-258.165	124.142	-0.015	0.019
-257.151	65.469	0.158	-0.159
-256.136	18.944	0.354	0.282
-255.122	800.000	-0.026	0.098
-254.107	-149.326	-0.033	-0.003
-253.092	276.051	0.092	0.163
-252.078	-142.219	-0.139	-0.014
-251.063	-200.000	-0.039	0.252
-250.049	103.415	0.108	-0.126
-249.034	-29.742	0.239	0.135
-248.019	800.000	0.046	-0.149
-247.005	-183.368	-0.361	-0.006
-245.990	800.000	-0.036	-0.135
-244.976	-3.202	-0.052	0.036
-243.961	-99.567	-0.162	-0.040
-242.946	15.908	0.135	0.106
-241.932	438.202	-0.024	-0.051
-240.917	800.000	-0.029	-0.095
-239.903	0.690	0.147	-0.104
-238.888	800.000	-0.048	-0.186
-237.873	-168.109	-0.151	0.006
-236.859	40.622	0.203	0.182
-235.844	60.598	0.041	-0.041
-234.830	41.319	-0.251	-0.225
-233.815	-115.299	0.332	0.062
-232.800	-85.992	-0.332	-0.102
-231.786	31.435	-0.192	0.164
-230.771	121.075	0.131	0.162
-229.757	94.511	0.049	0.055
-228.742	349.233	0.081	0.158
-227.727	101.809	-0.102	0.118
-226.713	61.123	0.116	0.114
-225.698	-50.305	-0.306	0.143
-224.684	67.395	0.189	-0.192
-223.669	800.000	-0.110	-0.350
-222.655	307.549	0.037	0.069
-221.640	140.598	0.145	0.190
-220.625	-200.000	-0.027	0.164
-219.611	-176.162	-0.181	-0.005
-218.596	-145.401	-0.110	0.010
-217.582	-200.000	0.002	-0.075
-216.567	-200.000	-0.021	-0.134
-215.552	-147.026	-0.123	0.010
-214.538	-200.000	-0.035	0.166
-213.523	-109.633	-0.100	-0.021
-212.509	-155.032	0.069	0.004
-211.494	-21.928	-0.328	0.198
-210.479	78.816	0.188	-0.199
-209.465	283.169	-0.187	-0.333
-208.450	66.674	-0.168	0.170
-207.436	20.160	0.123	0.098
-206.421	179.017	-0.234	0.340
-205.406	800.000	-0.071	0.232
-204.392	252.922	-0.127	0.215
-203.377	-200.000	-0.002	0.118
-202.363	388.258	-0.018	-0.037
-201.348	-200.000	0.021	0.184
-200.333	-178.247	-0.211	0.005
-199.319	-24.709	-0.032	-0.019
-198.304	800.000	0.090	0.315
-197.290	-200.000	0.004	0.267
-196.275	-112.699	0.087	-0.017
-195.260	13.092	-0.114	0.087
-194.246	800.000	-0.047	-0.133
-193.231	800.000	0.086	-0.275
-192.217	-27.666	0.133	0.077
-191.202	-75.827	0.389	0.136
-190.187	-200.000	0.027	-0.268
-189.173	50.831	-0.326	-0.306
-188.158	148.505	0.205	-0.275
-187.144	-27.659	0.067	-0.038
-186.129	-102.392	-0.195	-0.046
-185.114	-200.000	0.283	0.000
-184.100	340.638	-0.083	0.161
-183.085	186.024	-0.220	-0.324
-182.071	25.717	-0.236	0.195
-181.056	-107.730	0.403	0.087
-180.042	-21.877	0.255	0.153
-179.027	800.000	-0.123	-0.355
-178.012	637.038	0.053	-0.132
-176.998	21.075	-0.070	-0.056
-175.983	-120.097	-0.358	-0.061
-174.969	177.846	-0.150	0.217
-173.954	800.000	0.036	-0.105
-172.939	-113.704	0.391	0.075
-171.925	-21.331	0.189	-0.114
-170.910	420.407	-0.095	-0.200
-169.896	-58.866	0.121	0.052
-168.881	604.668	-0.069	0.170
-167.866	-45.074	-0.394	0.194
-166.852	-66.898	0.210	0.082
-165.837	469.404	-0.146	0.325
-164.823	-64.854	0.250	0.100
-163.808	122.526	0.064	-0.079
-162.793	-200.000	-0.016	0.212
-161.779	368.698	-0.070	0.140
-160.764	2.213	-0.392	0.280
-159.750	-200.000	-0.034	-0.157
-158.735	177.535	0.225	0.325
-157.720	-200.000	0.000	-0.083
-156.706	73.465	0.174	-0.180
-155.691	-200.000	0.027	-0.253
-154.677	-151.556	-0.286	-0.021
-153.662	-200.000	0.045	0.218
-152.647	184.474	0.015	-0.023
-151.633	-42.807	0.457	0.230
-150.618	-200.000	0.001	0.375
-149.604	-4.873	0.169	-0.115
-148.589	218.032	0.256	0.403
-147.574	-169.324	0.184	-0.007
-146.560	113.481	-0.332	0.398
-145.545	-34.697	0.189	0.102
-144.531	47.970	-0.125	-0.116
-143.516	-133.955	-0.347	-0.042
-142.502	640.001	0.046	0.115
-141.487	10.426	-0.223	-0.168
-140.472	-87.326	-0.105	-0.031
-139.458	341.635	-0.165	-0.318
-138.443	-152.787	0.322	0.023
-137.429	299.099	-0.073	-0.133
-136.414	23.730	-0.233	-0.189
-135.399	-156.712	-0.039	0.002
-134.385	-82.579	-0.322	0.103
-133.370	-106.692	-0.185	0.041
-132.356	472.183	-0.164	-0.366
-131.341	334.043	-0.092	0.176
-130.326	71.691	0.063	-0.064
-129.312	-60.073	0.080	0.034
-128.297	598.811	0.162	0.397
-127.283	-200.000	-0.017	0.248
-126.268	-200.000	0.004	-0.062
-125.253	21.054	0.312	-0.250
-124.239	326.858	0.078	0.147
-123.224	-200.000	0.008	0.121
-122.210	-200.000	-0.005	0.102
