DTS Sentinel unit serial number:	SN413079Multiplexer serial number:	ORYXHardware model number:	OX4-SRSoftware version number:	ORYX F/W v4.00 Oryx Data Collector v3.7.2.0data status	okinstallation	princeton_trtdifferential loss correction	single-endedforward channel	channel 1reverse channel	N/Adate	2019/09/15time	22:46:35forward acquisition time	60.00reverse acquisition time	0.00gamma	496.2192k internal	0.2331k external	0.2331temperature offset calibration	0.9968default loss term (dB/km)	0.3790temperature slope calibration	1.0000multiplexer offset coefficient	1.0000multiplexer slope coefficient	1.0000fibre end	0.00T internal ref (°C)	28.81T ext. ref 1 (°C)	8.87T ext. ref 2 (°C)	22.34length (m)	temperature (°C)	Stokes	anti-Stokes-747.200	-53.164	-0.305	0.141
-746.185	-52.889	-0.268	0.124
-745.171	-200.000	-0.002	-0.243
-744.156	104.364	-0.042	0.049
-743.142	-200.000	0.024	-0.313
-742.127	-200.000	0.029	0.366
-741.112	-126.991	0.250	-0.037
-740.098	-200.000	-0.060	-0.342
-739.083	-5.206	0.113	0.078
-738.069	-17.951	-0.266	0.168
-737.054	-200.000	-0.015	-0.352
-736.039	-200.000	-0.014	-0.206
-735.025	-46.058	0.064	-0.032
-734.010	240.308	-0.261	-0.438
-732.996	60.683	-0.076	-0.075
-731.981	-49.366	-0.436	0.209
-730.966	-39.043	-0.108	0.057
-729.952	-54.894	-0.270	-0.123
-728.937	96.739	-0.032	-0.036
-727.923	149.410	-0.023	0.032
-726.908	-128.158	-0.311	-0.045
-725.894	-194.754	-0.148	-0.001
-724.879	60.808	-0.134	-0.134
-723.864	-200.000	-0.028	-0.213
-722.850	-16.855	0.224	-0.143
-721.835	194.584	0.120	-0.183
-720.821	398.898	-0.093	0.196
-719.806	800.000	0.054	0.227
-718.791	800.000	-0.036	0.141
-717.777	800.000	-0.050	0.151
-716.762	181.211	-0.059	0.087
-715.748	159.299	0.051	-0.071
-714.733	-200.000	-0.059	-0.366
-713.718	34.040	-0.257	0.225
-712.704	-105.928	0.285	-0.065
-711.689	-40.684	0.155	-0.081
-710.675	266.369	0.186	-0.326
-709.660	-137.366	0.156	-0.018
-708.645	-5.714	-0.198	0.136
-707.631	-200.000	0.017	0.158
-706.616	40.640	-0.187	0.169
-705.602	480.840	-0.097	-0.220
-704.587	-6.180	-0.169	0.116
-703.572	-63.257	0.215	0.089
-702.558	187.321	0.073	-0.109
-701.543	-200.000	-0.039	-0.229
-700.529	-200.000	0.040	-0.269
-699.514	459.239	-0.185	-0.414
-698.499	-200.000	-0.036	-0.265
-697.485	776.006	-0.065	-0.177
-696.470	-200.000	-0.009	0.047
-695.456	-200.000	0.002	-0.116
-694.441	8.590	0.374	-0.283
-693.426	23.663	-0.222	-0.183
-692.412	320.509	-0.094	-0.180
-691.397	-3.782	0.208	-0.145
-690.383	105.982	0.103	-0.122
-689.368	21.161	0.122	-0.099
-688.354	-136.145	-0.108	0.013
-687.339	614.769	-0.014	0.035
-686.324	-111.804	0.335	0.068
-685.310	-195.370	-0.156	-0.001
-684.295	-28.839	-0.176	-0.102
-683.281	13.628	0.169	0.132
-682.266	-200.000	0.024	0.314
-681.251	4.553	0.304	-0.224
-680.237	-200.000	-0.038	0.289
-679.222	55.035	0.165	0.160
-678.208	48.585	-0.122	-0.114
-677.193	-100.735	0.203	-0.050
-676.178	30.771	0.135	-0.116
-675.164	-39.249	-0.178	0.094
-674.149	-125.330	0.172	0.026
-673.135	800.000	0.033	0.143
-672.120	-98.122	0.315	-0.081
-671.105	175.843	-0.159	-0.231
-670.091	289.333	-0.038	-0.070
-669.076	142.624	-0.065	0.087
-668.062	800.000	-0.099	-0.380
-667.047	246.760	0.070	-0.118
-666.032	32.111	-0.180	-0.156
-665.018	-200.000	-0.171	-0.000
-664.003	-161.517	0.090	0.005
-662.989	-122.160	-0.354	0.058
-661.974	-57.933	-0.085	-0.037
-660.959	170.519	0.220	-0.316
-659.945	134.390	-0.088	0.115
-658.930	20.309	-0.129	-0.104
-657.916	-179.793	-0.121	-0.003
-656.901	-116.056	0.087	0.016
-655.886	472.315	0.139	-0.314
-654.872	369.422	0.117	0.237
-653.857	53.690	-0.118	0.114
-652.843	-89.582	-0.148	-0.044
-651.828	120.941	-0.212	0.265
-650.814	23.199	0.124	0.102
-649.799	-53.849	-0.090	-0.041
-648.784	73.514	-0.110	0.115
-647.770	-200.000	0.028	-0.345
-646.755	-175.824	-0.276	-0.007
-645.741	-52.555	0.109	0.051
-644.726	464.699	-0.093	-0.208
-643.711	-137.027	0.265	-0.030
-642.697	435.222	0.023	0.050
-641.682	3.490	-0.137	0.100
-640.668	-90.404	-0.324	0.094
-639.653	-140.895	-0.405	0.042
-638.638	800.000	-0.176	-0.565
-637.624	79.349	0.268	0.288
-636.609	85.071	-0.259	-0.284
-635.595	-200.000	-0.040	-0.212
-634.580	206.645	0.188	-0.294
-633.565	-117.305	0.389	-0.071
-632.551	-200.000	-0.001	-0.148
-631.536	-200.000	-0.008	0.063
-630.522	-136.593	-0.256	-0.030
-629.507	-200.000	-0.017	-0.171
-628.492	602.389	-0.091	-0.227
-627.478	800.000	0.158	-0.445
-626.463	36.786	0.143	-0.127
-625.449	800.000	-0.027	-0.104
-624.434	-70.395	0.350	-0.133
-623.419	497.271	0.085	-0.196
-622.405	-77.662	0.162	-0.056
-621.390	80.441	0.083	-0.089
-620.376	-9.051	0.134	0.090
-619.361	34.080	0.068	0.059
-618.346	172.931	-0.191	0.275
-617.332	-197.603	-0.203	0.001
-616.317	-77.946	0.337	-0.116
-615.303	-50.457	-0.216	-0.102
-614.288	-176.840	-0.274	-0.007
-613.273	-200.000	-0.027	-0.156
-612.259	77.661	0.215	-0.230
-611.244	268.096	0.095	0.166
-610.230	-67.433	0.140	-0.055
-609.215	328.165	0.163	-0.314
-608.201	439.967	0.080	0.175
-607.186	145.085	-0.100	0.134
-606.171	-2.408	-0.139	0.097
-605.157	184.719	-0.143	-0.212
-604.142	-42.274	0.235	0.120
-603.128	671.749	0.048	-0.125
-602.113	-112.313	-0.421	-0.084
-601.098	-88.196	0.236	-0.071
-600.084	-143.728	-0.111	-0.011
-599.069	-200.000	0.040	-0.309
-598.055	-136.767	0.232	0.027
-597.040	-73.095	-0.228	0.084
-596.025	-116.728	0.179	0.033
-595.011	-200.000	-0.022	0.130
-593.996	-145.501	-0.136	0.012
-592.982	252.818	-0.081	0.139
-591.967	179.508	0.092	0.135
-590.952	-72.662	0.221	-0.082
-589.938	800.000	-0.049	-0.177
-588.923	598.893	0.039	-0.098
-587.909	-95.301	-0.339	-0.091
-586.894	800.000	0.044	-0.194
-585.879	-81.828	0.234	0.077
-584.865	-31.428	0.187	-0.105
-583.850	-103.086	0.127	0.030
-582.836	-151.161	0.286	-0.021
-581.821	-133.448	0.106	0.013
-580.806	800.000	-0.050	0.192
-579.792	-154.649	-0.624	-0.042
-578.777	6.070	-0.197	-0.146
-577.763	-147.085	0.351	0.030
-576.748	304.901	0.106	0.197
-575.733	667.782	-0.103	-0.266
-574.719	216.408	0.213	-0.339
-573.704	303.954	-0.068	-0.125
-572.690	19.766	0.285	-0.230
-571.675	41.727	-0.289	-0.262
-570.661	109.779	-0.187	0.224
-569.646	800.000	0.065	-0.207
-568.631	-200.000	-0.007	-0.347
-567.617	-155.670	-0.138	-0.009
-566.602	173.223	0.218	-0.315
-565.588	-107.009	-0.306	0.068
-564.573	-151.040	0.179	-0.013
-563.558	-200.000	-0.008	0.088
-562.544	-79.297	0.227	-0.077
-561.529	-57.349	0.181	-0.079
-560.515	16.407	0.376	-0.296
-559.500	-79.478	-0.082	0.028
-558.485	-61.198	0.133	-0.056
-557.471	490.866	-0.110	-0.251
-556.456	38.406	0.250	-0.223
-555.442	36.018	-0.189	-0.166
-554.427	271.910	-0.087	-0.154
-553.412	463.423	-0.096	-0.214
-552.398	-173.117	-0.317	-0.010
-551.383	-67.006	-0.216	-0.085
-550.369	46.406	-0.148	-0.137
-549.354	407.543	0.147	0.309
-548.339	51.877	-0.156	0.148
-547.325	-32.801	-0.206	0.114
-546.310	84.260	-0.106	-0.116
-545.296	800.000	-0.026	-0.100
-544.281	-77.304	-0.139	0.048
-543.266	263.632	0.201	0.348
-542.252	-200.000	-0.005	0.022
-541.237	34.297	-0.035	0.030
-540.223	339.204	-0.029	-0.057
-539.208	-82.663	0.085	0.027
-538.193	-200.000	-0.032	0.208
-537.179	-27.223	0.071	0.042
-536.164	222.732	0.079	-0.127
-535.150	-89.616	0.367	0.107
-534.135	123.810	-0.194	-0.244
-533.121	-195.861	-0.309	-0.002
-532.106	92.137	0.157	-0.177
-531.091	671.057	0.081	-0.209
-530.077	-200.000	-0.010	0.077
-529.062	-84.152	-0.259	-0.082
-528.048	-200.000	-0.012	0.199
-527.033	-200.000	0.028	-0.146
-526.018	54.836	-0.184	0.177
-525.004	1.524	0.111	-0.080
-523.989	-77.285	0.068	-0.024
-522.975	-127.083	-0.399	0.058
-521.960	122.970	-0.123	0.154
-520.945	-189.182	0.215	0.003
-519.931	-119.523	-0.160	-0.028
-518.916	-56.180	0.444	0.197
-517.902	-64.634	-0.043	-0.017
-516.887	130.950	0.070	0.090
-515.872	-93.938	0.357	-0.098
-514.858	3.256	0.124	0.090
-513.843	234.847	0.257	-0.422
-512.829	65.032	-0.118	0.118
-511.814	68.444	0.290	0.297
-510.799	-123.189	0.106	0.017
-509.785	-200.000	-0.045	-0.269
-508.770	190.559	0.095	0.143
-507.756	-68.056	0.060	-0.023
-506.741	-88.397	0.113	-0.034
-505.726	-67.662	-0.329	-0.128
-504.712	789.446	0.097	-0.265
-503.697	176.267	-0.144	0.208
-502.683	-15.880	-0.298	-0.189
-501.668	-6.270	0.295	-0.201
-500.653	1.490	-0.230	-0.165
-499.639	542.532	-0.093	0.221
-498.624	-46.590	-0.367	0.179
-497.610	800.000	0.094	0.361
-496.595	286.698	-0.055	-0.098
-495.581	55.008	0.121	0.116
-494.566	37.117	0.172	0.152
-493.551	-43.607	-0.101	0.051
-492.537	-119.581	0.314	0.054
-491.522	44.430	-0.236	0.216
-490.508	281.784	-0.127	0.228
-489.493	-69.021	-0.121	0.047
-488.478	-2.086	-0.046	-0.032
-487.464	-200.000	0.034	-0.179
-486.449	219.176	0.379	-0.604
-485.435	173.785	-0.171	-0.246
-484.420	318.238	-0.273	0.515
-483.405	186.035	0.031	0.045
-482.391	400.294	-0.099	-0.207
-481.376	-167.163	-0.233	-0.009
-480.362	317.115	0.093	-0.176
-479.347	133.137	0.091	0.118
-478.332	64.701	0.173	0.174
-477.318	307.308	0.099	-0.184
-476.303	54.690	0.025	0.024
-475.289	-103.973	0.402	0.093
-474.274	279.408	-0.089	0.158
-473.259	59.027	0.163	0.160
-472.245	238.440	0.071	-0.117
-471.230	-148.084	-0.280	-0.023
-470.216	-200.000	-0.048	-0.228
-469.201	-32.379	-0.094	-0.052
-468.186	83.677	0.080	0.087
-467.172	-193.769	-0.254	0.002
-466.157	-11.164	-0.091	0.060
-465.143	656.965	-0.078	0.199
-464.128	237.726	-0.083	0.137
-463.113	-78.958	0.118	-0.040
-462.099	-200.000	-0.018	0.167
-461.084	28.977	-0.088	0.074
-460.070	-200.000	0.013	-0.129
-459.055	-81.308	-0.120	-0.040
-458.040	105.659	0.047	0.055
-457.026	184.226	0.177	-0.261
-456.011	126.064	-0.155	0.195
-454.997	-35.226	0.324	0.176
-453.982	-98.243	-0.341	0.087
-452.968	-57.277	0.439	-0.192
-451.953	147.019	-0.156	0.208
-450.938	302.477	0.036	-0.067
-449.924	68.662	-0.078	0.080
-448.909	-53.779	0.197	0.089
-447.895	47.590	-0.257	0.239
-446.880	-200.000	0.000	0.072
-445.865	-200.000	0.014	-0.229
-444.851	-129.696	0.095	-0.013
-443.836	92.731	0.158	-0.178
-442.822	32.816	-0.109	-0.094
-441.807	-59.106	0.189	-0.081
-440.792	54.605	-0.219	0.210
-439.778	648.171	-0.090	0.229
-438.763	529.208	-0.153	0.360
-437.749	-96.387	0.047	-0.012
-436.734	-69.196	-0.203	-0.078
-435.719	-200.000	-0.006	-0.087
-434.705	63.059	0.079	-0.079
-433.690	-200.000	-0.072	0.430
-432.676	-69.588	-0.123	0.047
-431.661	-21.703	-0.526	-0.319
-430.646	49.483	-0.094	0.088
-429.632	4.211	-0.155	-0.113
-428.617	-140.941	0.206	-0.021
-427.603	88.768	0.070	-0.078
-426.588	800.000	-0.087	0.282
-425.573	-53.192	-0.214	0.098
-424.559	800.000	0.023	0.093
-423.544	-138.581	-0.273	-0.030
-422.530	-150.273	-0.258	0.020
-421.515	560.057	0.075	0.181
-420.500	39.275	-0.062	-0.056
-419.486	363.967	-0.054	-0.109
-418.471	-12.496	0.091	-0.059
-417.457	108.757	-0.112	0.133
-416.442	95.374	-0.220	-0.249
-415.428	-116.961	-0.150	0.027
-414.413	-166.034	-0.401	0.017
-413.398	-133.064	0.147	-0.019
-412.384	19.896	-0.378	0.302
-411.369	-200.000	0.050	-0.239
-410.355	-61.556	0.132	0.055
-409.340	121.318	0.227	0.281
-408.325	212.576	-0.122	-0.191
-407.311	-15.687	-0.110	-0.070
-406.296	800.000	-0.034	-0.124
-405.282	49.447	-0.064	-0.060
-404.267	3.252	-0.008	0.006
-403.252	-137.403	-0.195	0.022
-402.238	-104.693	0.074	0.017
-401.223	-66.858	-0.169	-0.066
-400.209	567.702	0.018	-0.043
-399.194	553.100	0.090	-0.215
-398.179	193.762	-0.067	-0.100
-397.165	104.992	-0.163	-0.190
-396.150	-37.496	0.085	0.045
-395.136	31.368	0.140	-0.119
-394.121	252.628	-0.187	0.317
-393.106	-142.285	0.220	0.022
-392.092	-53.977	0.255	-0.115
-391.077	-200.000	0.046	0.228
-390.063	-200.000	-0.027	0.125
-389.048	272.859	0.147	-0.257
-388.033	101.249	0.212	0.245
-387.019	-138.114	-0.074	0.008
-386.004	57.074	0.097	-0.094
-384.990	800.000	0.089	-0.324
-383.975	-31.842	0.350	-0.195
-382.960	-94.659	-0.109	-0.030
-381.946	800.000	0.104	0.347
-380.931	-27.214	-0.068	0.039
-379.917	-200.000	0.001	-0.056
-378.902	-200.000	0.002	0.103
-377.888	-90.190	0.246	-0.071
-376.873	-68.903	0.231	0.089
-375.858	114.635	0.205	-0.248
-374.844	800.000	0.076	0.219
-373.829	80.027	-0.128	-0.137
-372.815	222.729	0.223	0.356
-371.800	-200.000	0.020	0.129
-370.785	194.452	0.238	0.357
-369.771	-104.803	-0.106	-0.024
-368.756	-200.000	-0.030	-0.305
-367.742	236.839	-0.183	0.301
-366.727	800.000	-0.049	0.185
-365.712	-174.132	0.223	0.006
-364.698	620.028	-0.132	0.329
-363.683	800.000	0.021	-0.075
-362.669	-118.818	0.071	-0.012
-361.654	800.000	0.025	-0.095
-360.639	-27.472	0.219	-0.126
-359.625	8.279	0.124	0.092
-358.610	398.769	-0.237	-0.491
-357.596	-104.826	-0.290	-0.066
-356.581	171.403	-0.214	0.304
-355.566	11.387	-0.180	0.137
-354.552	12.787	-0.114	-0.088
-353.537	-23.293	-0.152	-0.091
-352.523	134.862	-0.027	-0.035
-351.508	-200.000	-0.049	0.249
-350.493	25.331	0.331	-0.273
-349.479	-5.215	0.041	-0.028
-348.464	-83.587	-0.101	-0.032
-347.450	-200.000	0.010	-0.050
-346.435	-42.740	-0.364	0.183
-345.420	-33.792	-0.054	0.030
-344.406	-50.578	-0.334	-0.156
-343.391	253.250	-0.051	0.087
-342.377	8.453	0.145	0.108
-341.362	213.649	0.145	0.227
-340.348	83.460	-0.117	0.127
-339.333	153.752	-0.116	0.158
-338.318	-53.107	-0.094	-0.043
-337.304	17.650	-0.067	0.053
-336.289	-132.158	0.374	-0.048
-335.275	64.114	0.053	-0.053
-334.260	-33.760	-0.160	-0.088
-333.245	800.000	0.032	-0.115
-332.231	129.320	0.210	-0.266
-331.216	-56.660	0.054	0.024
-330.202	-72.501	0.383	-0.140
-329.187	87.881	0.227	0.250
-328.172	282.735	-0.063	-0.112
-327.158	800.000	0.110	-0.325
-326.143	-200.000	0.018	-0.094
-325.129	-200.000	0.032	-0.344
-324.114	89.288	-0.105	0.116
-323.099	-45.962	-0.291	-0.142
-322.085	-132.074	-0.140	0.018
-321.070	800.000	0.067	-0.245
-320.056	421.322	-0.100	-0.211
-319.041	-101.850	-0.188	-0.045
-318.026	-27.434	-0.081	-0.047
-317.012	-161.145	0.188	-0.010
-315.997	268.076	0.090	-0.156
-314.983	283.969	-0.141	0.250
-313.968	800.000	0.086	0.265
-312.953	-122.075	-0.299	-0.049
-311.939	-29.665	-0.194	0.110
-310.924	286.909	0.130	-0.232
-309.910	-31.159	-0.171	0.095
-308.895	-114.307	-0.436	0.083
-307.880	-97.351	-0.106	-0.027
-306.866	-111.841	-0.359	-0.072
-305.851	800.000	-0.034	0.134
-304.837	-74.143	0.049	0.017
-303.822	-8.357	-0.075	-0.050
-302.807	-111.025	0.292	0.059
-301.793	-147.712	-0.071	-0.006
-300.778	-200.000	0.028	-0.245
-299.764	800.000	0.048	0.191
-298.749	-200.000	-0.040	0.181
-297.735	-141.150	0.270	-0.027
-296.720	10.712	0.125	-0.094
-295.705	-33.185	0.136	-0.075
-294.691	32.559	0.114	-0.097
-293.676	232.048	0.177	0.287
-292.662	207.934	-0.253	0.390
-291.647	-179.206	0.298	0.007
-290.632	800.000	0.101	-0.311
-289.618	-200.000	0.039	0.303
-288.603	59.633	-0.111	-0.108
-287.589	-101.899	0.198	0.047
-286.574	55.814	0.187	0.179
-285.559	95.998	0.318	-0.359
-284.545	345.695	0.109	-0.211
-283.530	-32.857	0.197	-0.108
-282.516	800.000	-0.077	0.310
-281.501	243.187	-0.105	-0.174
-280.486	3.883	0.245	0.177
-279.472	55.134	0.346	0.330
-278.457	-200.000	-0.038	-0.218
-277.443	-200.000	0.003	0.141
-276.428	-7.485	-0.226	-0.151
-275.413	-125.007	-0.111	0.017
-274.399	-107.274	-0.126	-0.027
-273.384	800.000	0.007	0.024
-272.370	177.701	0.050	0.073
-271.355	-168.070	-0.354	-0.014
-270.340	-200.000	-0.003	0.013
-269.326	-98.641	-0.247	0.062
-268.311	800.000	0.132	0.399
-267.297	3.782	-0.269	0.194
-266.282	-200.000	-0.064	0.303
-265.267	288.907	0.144	0.258
-264.253	-99.689	0.130	0.032
-263.238	-189.337	0.130	0.002
-262.224	-111.757	-0.130	-0.026
-261.209	-200.000	-0.013	0.208
-260.195	-61.324	0.304	-0.126
-259.180	-101.758	0.146	-0.035
-258.165	-185.675	-0.353	0.005
-257.151	174.244	0.159	-0.227
-256.136	800.000	-0.034	-0.103
-255.122	-4.392	0.086	-0.059
-254.107	-181.294	-0.210	-0.004
-253.092	-117.417	0.146	-0.026
-252.078	302.442	-0.099	0.181
-251.063	80.232	-0.102	-0.108
-250.049	7.289	-0.285	0.210
-249.034	-200.000	0.015	0.218
-248.019	129.110	-0.096	0.121
-247.005	26.864	0.109	0.090
-245.990	759.829	0.021	0.055
-244.976	-77.382	0.134	0.046
-243.961	-45.715	0.066	-0.032
-242.946	-39.926	0.254	0.131
-241.932	181.932	-0.184	-0.268
-240.917	-200.000	0.007	0.093
-239.903	13.040	0.132	0.101
-238.888	800.000	0.034	0.100
-237.873	26.248	-0.041	0.034
-236.859	-140.683	0.092	0.009
-235.844	-89.266	0.102	0.030
-234.830	800.000	0.092	0.397
-233.815	-110.808	0.098	-0.020
-232.800	297.610	-0.169	-0.307
-231.786	-61.358	-0.172	-0.071
-230.771	286.724	0.085	-0.152
-229.757	800.000	-0.103	-0.354
-228.742	800.000	-0.024	0.072
-227.727	-200.000	0.054	-0.261
-226.713	800.000	-0.028	-0.086
-225.698	-200.000	0.005	-0.268
-224.684	490.682	-0.223	-0.503
-223.669	800.000	0.012	0.038
-222.655	-162.329	-0.060	-0.003
-221.640	-48.370	-0.182	-0.086
-220.625	-69.531	0.125	0.047
-219.611	-132.887	-0.335	0.042
-218.596	21.133	0.179	0.143
-217.582	-70.854	-0.096	0.036
-216.567	-1.840	-0.075	-0.052
-215.552	151.636	-0.187	0.251
-214.538	20.905	0.165	-0.131
-213.523	-9.334	-0.375	-0.247
-212.509	39.189	0.169	-0.149
-211.494	634.494	0.035	-0.087
-210.479	121.980	-0.081	0.100
-209.465	199.489	0.113	0.171
-208.450	22.470	-0.014	0.011
-207.436	800.000	-0.069	0.249
-206.421	112.788	0.147	0.176
-205.406	8.134	-0.090	0.067
-204.392	454.392	-0.211	0.460
-203.377	-200.000	0.034	0.154
-202.363	-44.113	-0.110	0.054
-201.348	-16.651	0.380	0.237
-200.333	18.484	0.231	0.182
-199.319	126.985	-0.262	0.327
-198.304	525.036	-0.040	-0.092
-197.290	-78.993	-0.159	-0.053
-196.275	-200.000	-0.019	0.414
-195.260	-181.789	0.177	-0.003
-194.246	228.560	0.204	-0.327
-193.231	31.015	0.209	0.177
-192.217	73.465	-0.076	0.078
-191.202	800.000	0.187	0.571
-190.187	-107.528	0.325	-0.070
-189.173	54.939	-0.072	0.068
-188.158	-95.957	0.041	-0.011
-187.144	-4.559	0.259	0.176
-186.129	149.274	0.130	0.174
-185.114	-118.842	0.294	-0.051
-184.100	-77.198	-0.215	-0.074
-183.085	127.944	0.080	-0.100
-182.071	-154.455	-0.285	-0.019
-181.056	-200.000	-0.010	-0.156
-180.042	-17.010	-0.203	0.126
-179.027	800.000	-0.041	0.138
-178.012	14.378	0.110	-0.085
-176.998	-177.551	-0.232	-0.006
-175.983	-21.490	0.248	-0.149
-174.969	22.661	-0.090	0.072
-173.954	97.688	0.141	-0.160
-172.939	-156.708	-0.277	0.017
-171.925	-103.098	-0.102	-0.024
-170.910	335.686	0.148	0.283
-169.896	800.000	-0.065	0.275
-168.881	-80.003	0.082	-0.027
-167.866	14.538	0.147	0.113
-166.852	-200.000	-0.009	0.320
-165.837	-46.326	0.273	0.132
-164.823	-131.362	-0.029	0.004
-163.808	-162.334	0.061	0.003
-162.793	228.080	0.202	0.324
-161.779	246.890	0.098	0.162
-160.764	25.164	0.177	0.144
-159.750	-96.327	-0.058	0.015
-158.735	329.329	0.099	0.187
-157.720	566.425	0.087	-0.207
-156.706	-47.521	0.278	0.133
-155.691	293.522	0.052	-0.093
-154.677	-105.402	-0.100	-0.022
-153.662	87.905	0.236	0.257
-152.647	102.068	-0.156	-0.179
-151.633	-39.111	0.069	-0.036
-150.618	-200.000	0.020	0.259
-149.604	-119.027	0.122	0.021
-148.589	800.000	0.026	-0.106
-147.574	-200.000	-0.052	-0.312
-146.560	197.762	-0.098	0.147
-145.545	-200.000	0.001	0.171
-144.531	800.000	-0.097	0.411
-143.516	110.509	-0.223	-0.264
-142.502	800.000	0.078	0.220
-141.487	-73.054	0.171	0.062
-140.472	88.085	-0.173	0.188
-139.458	-21.386	0.071	-0.043
-138.443	-200.000	0.025	-0.148
-137.429	-131.348	0.132	0.017
-136.414	800.000	0.052	-0.160
-135.399	-68.129	0.348	-0.133
-134.385	-117.045	-0.381	0.068
-133.370	800.000	-0.040	0.167
-132.356	243.260	0.198	0.327
-131.341	-178.517	0.110	-0.002
-130.326	-30.444	-0.176	0.098
-129.312	800.000	0.013	0.034
-128.297	800.000	-0.031	0.118
-127.283	49.445	0.168	0.155
-126.268	268.326	-0.157	-0.270
-125.253	-137.682	-0.427	0.047
-124.239	800.000	0.056	-0.188
-123.224	-179.859	-0.027	-0.001
-122.210	-200.000	0.013	0.118
-121.195	-30.196	0.104	0.058
