DTS Sentinel unit serial number:	SN413079Multiplexer serial number:	ORYXHardware model number:	OX4-SRSoftware version number:	ORYX F/W v4.00 Oryx Data Collector v3.7.2.0data status	okinstallation	princeton_trtdifferential loss correction	single-endedforward channel	channel 1reverse channel	N/Adate	2019/09/13time	01:06:35forward acquisition time	60.00reverse acquisition time	0.00gamma	496.2192k internal	0.2330k external	0.2330temperature offset calibration	1.0138default loss term (dB/km)	0.3790temperature slope calibration	1.0000multiplexer offset coefficient	1.0000multiplexer slope coefficient	1.0000fibre end	0.00T internal ref (°C)	28.00T ext. ref 1 (°C)	3.68T ext. ref 2 (°C)	22.55length (m)	temperature (°C)	Stokes	anti-Stokes-747.200	65.546	0.128	-0.131
-746.185	800.000	-0.061	0.260
-745.171	235.532	0.087	0.144
-744.156	-6.693	-0.134	-0.092
-743.142	800.000	0.082	0.292
-742.127	800.000	-0.109	0.455
-741.112	-108.342	-0.030	-0.007
-740.098	-98.528	-0.281	0.072
-739.083	-200.000	0.017	0.168
-738.069	-35.450	-0.209	0.114
-737.054	-83.514	0.355	0.114
-736.039	72.421	-0.089	-0.093
-735.025	-141.425	0.314	0.032
-734.010	179.328	-0.209	-0.307
-732.996	-106.715	-0.285	0.064
-731.981	432.418	-0.082	0.179
-730.966	-200.000	-0.005	-0.108
-729.952	-200.000	0.021	-0.195
-728.937	-15.393	-0.306	0.197
-727.923	800.000	-0.061	-0.226
-726.908	10.709	0.106	0.081
-725.894	800.000	0.098	0.276
-724.879	95.123	-0.026	0.030
-723.864	-75.592	-0.115	-0.041
-722.850	-135.655	0.048	-0.006
-721.835	-28.174	0.194	-0.113
-720.821	-79.019	0.235	-0.080
-719.806	-0.256	0.054	-0.038
-718.791	100.749	-0.077	0.090
-717.777	800.000	-0.049	0.211
-716.762	58.477	-0.187	-0.185
-715.748	-57.595	0.037	0.016
-714.733	139.421	0.157	-0.207
-713.718	-41.629	0.214	-0.111
-712.704	357.671	0.134	0.268
-711.689	-94.034	-0.269	-0.074
-710.675	-36.677	-0.219	-0.119
-709.660	180.246	-0.016	0.023
-708.645	-194.298	-0.454	-0.004
-707.631	-123.527	-0.205	-0.033
-706.616	-200.000	0.020	0.228
-705.602	-51.062	0.198	-0.093
-704.587	124.982	0.251	-0.318
-703.572	310.848	-0.113	0.214
-702.558	-200.000	0.014	0.305
-701.543	11.815	0.133	0.103
-700.529	220.851	-0.125	-0.201
-699.514	-46.610	-0.253	0.125
-698.499	-168.753	-0.246	-0.009
-697.485	-118.204	0.361	0.065
-696.470	-7.335	0.031	-0.021
-695.456	160.199	-0.053	-0.074
-694.441	-200.000	-0.037	0.253
-693.426	506.354	0.026	0.060
-692.412	0.642	-0.042	0.030
-691.397	49.063	-0.096	0.091
-690.383	-157.417	0.186	-0.011
-689.368	-200.000	0.007	-0.049
-688.354	-20.591	-0.441	-0.272
-687.339	280.998	-0.132	-0.238
-686.324	-7.787	0.147	0.100
-685.310	-200.000	0.019	0.091
-684.295	23.651	0.185	-0.153
-683.281	800.000	0.067	-0.213
-682.266	-200.000	-0.067	-0.334
-681.251	34.211	-0.230	-0.202
-680.237	50.175	-0.182	-0.173
-679.222	67.043	0.228	-0.233
-678.208	184.660	-0.162	-0.242
-677.193	800.000	0.064	0.182
-676.178	-5.295	0.084	-0.058
-675.164	-106.677	-0.354	-0.079
-674.149	220.450	-0.152	0.245
-673.135	166.347	0.073	0.105
-672.120	191.171	0.200	0.303
-671.105	36.894	0.168	-0.149
-670.091	800.000	-0.037	0.104
-669.076	800.000	0.077	-0.247
-668.062	-45.903	-0.430	0.213
-667.047	-150.724	0.277	0.021
-666.032	-145.637	0.451	-0.040
-665.018	382.381	-0.079	-0.163
-664.003	-78.133	0.213	-0.074
-662.989	-67.048	0.121	-0.048
-661.974	94.480	-0.172	0.196
-660.959	24.443	0.278	0.231
-659.945	343.582	-0.122	0.241
-658.930	607.934	0.110	0.276
-657.916	-37.026	-0.241	-0.130
-656.901	-95.812	-0.232	-0.062
-655.886	-102.626	0.165	0.040
-654.872	800.000	-0.087	0.322
-653.857	-200.000	-0.027	0.164
-652.843	-35.557	-0.101	-0.055
-651.828	-154.164	-0.140	-0.009
-650.814	-124.467	0.151	0.024
-649.799	-80.922	-0.099	-0.033
-648.784	310.038	-0.265	0.497
-647.770	350.365	-0.100	0.197
-646.755	-5.299	-0.132	-0.091
-645.741	-26.704	-0.167	-0.098
-644.726	775.006	0.020	-0.055
-643.711	-71.919	0.070	-0.026
-642.697	25.530	0.091	0.076
-641.682	72.958	0.177	-0.185
-640.668	-17.699	-0.017	0.011
-639.653	800.000	-0.039	-0.157
-638.638	-200.000	0.021	-0.097
-637.624	148.601	0.202	-0.274
-636.609	-61.098	-0.152	0.064
-635.595	-108.875	0.043	-0.009
-634.580	-6.483	-0.183	0.125
-633.565	-73.863	-0.306	-0.112
-632.551	63.112	-0.060	0.060
-631.536	264.069	0.202	-0.352
-630.522	-60.735	-0.303	-0.129
-629.507	-15.894	-0.154	-0.098
-628.492	-181.900	-0.236	-0.005
-627.478	-34.659	-0.186	0.102
-626.463	105.219	-0.028	-0.033
-625.449	124.212	-0.063	0.080
-624.434	-200.000	0.041	0.293
-623.419	417.863	-0.157	-0.336
-622.405	115.018	-0.089	0.109
-621.390	-130.478	0.315	-0.043
-620.376	169.676	0.149	-0.214
-619.361	-200.000	0.005	-0.120
-618.346	259.328	-0.181	-0.314
-617.332	800.000	-0.114	-0.451
-616.317	-105.278	-0.117	-0.027
-615.303	57.173	-0.133	-0.130
-614.288	-132.882	-0.018	-0.002
-613.273	-17.193	0.146	-0.092
-612.259	77.060	-0.048	0.051
-611.244	800.000	-0.019	-0.077
-610.230	49.822	-0.361	0.341
-609.215	33.099	0.264	-0.229
-608.201	-111.081	-0.399	0.082
-607.186	25.094	-0.287	0.238
-606.171	182.202	0.140	0.207
-605.157	238.062	0.208	0.346
-604.142	800.000	0.042	-0.167
-603.128	-75.018	-0.028	0.010
-602.113	-69.453	-0.099	-0.038
-601.098	28.423	0.215	-0.182
-600.084	-200.000	0.083	-0.373
-599.069	139.994	0.033	-0.044
-598.055	-54.556	-0.415	0.188
-597.040	-49.504	-0.247	-0.118
-596.025	-142.167	-0.188	0.019
-595.011	506.114	-0.132	-0.307
-593.996	-200.000	-0.036	0.389
-592.982	1.602	0.069	-0.049
-591.967	110.992	0.055	-0.066
-590.952	109.033	-0.145	0.174
-589.938	-71.352	-0.177	-0.066
-588.923	-41.154	-0.184	0.095
-587.909	-127.478	-0.125	-0.018
-586.894	298.651	0.137	0.253
-585.879	-200.000	-0.002	0.060
-584.865	-102.842	-0.225	0.054
-583.850	-167.787	0.174	-0.007
-582.836	212.335	-0.064	-0.102
-581.821	-200.000	-0.024	-0.149
-580.806	-87.265	0.282	0.086
-579.792	317.253	-0.018	-0.034
-578.777	11.397	0.224	-0.172
-577.763	-93.701	-0.172	0.047
-576.748	-109.683	-0.077	-0.016
-575.733	-6.065	-0.198	-0.135
-574.719	-200.000	0.031	-0.198
-573.704	-171.999	-0.276	-0.009
-572.690	156.531	-0.132	0.183
-571.675	-169.204	0.379	0.014
-570.661	-13.897	0.189	0.122
-569.646	133.362	-0.104	-0.135
-568.631	2.239	-0.193	-0.140
-567.617	-123.354	-0.218	-0.035
-566.602	38.554	0.248	-0.221
-565.588	165.534	0.205	-0.290
-564.573	800.000	0.054	0.166
-563.558	-113.465	-0.215	-0.042
-562.544	-200.000	-0.012	-0.080
-561.529	-93.474	-0.099	0.027
-560.515	800.000	0.093	-0.294
-559.500	-134.510	0.372	-0.045
-558.485	-29.199	-0.163	-0.094
-557.471	490.039	-0.133	-0.304
-556.456	-82.816	0.464	0.150
-555.442	-61.676	-0.175	0.073
-554.427	-144.065	0.166	0.016
-553.412	240.843	-0.264	0.440
-552.398	-122.267	-0.192	-0.031
-551.383	74.292	0.269	0.282
-550.369	100.125	0.093	0.107
-549.354	-33.931	-0.107	0.059
-548.339	-101.636	-0.294	0.071
-547.325	165.371	0.094	-0.132
-546.310	-58.370	-0.367	-0.159
-545.296	-81.603	0.244	-0.080
-544.281	98.657	0.144	0.166
-543.266	-30.767	0.043	0.024
-542.252	-51.842	0.132	-0.061
-541.237	800.000	0.016	-0.048
-540.223	68.998	-0.133	-0.137
-539.208	218.135	0.121	-0.194
-538.193	38.926	-0.197	0.176
-537.179	800.000	0.026	0.093
-536.164	-189.482	0.560	-0.007
-535.150	-72.899	0.110	0.040
-534.135	-200.000	0.026	0.269
-533.121	-200.000	0.024	0.252
-532.106	-200.000	0.039	-0.289
-531.091	-166.930	-0.143	-0.006
-530.077	800.000	0.101	0.343
-529.062	800.000	0.034	0.114
-528.048	45.607	0.124	0.114
-527.033	-200.000	0.024	-0.223
-526.018	-200.000	0.046	0.274
-525.004	-131.641	-0.344	0.045
-523.989	90.031	0.213	-0.237
-522.975	-112.795	-0.143	0.028
-521.960	-200.000	-0.000	-0.109
-520.945	-200.000	0.021	0.097
-519.931	-200.000	0.063	0.336
-518.916	-123.077	-0.113	0.018
-517.902	458.863	-0.167	-0.372
-516.887	501.180	-0.139	0.320
-515.872	800.000	0.071	0.205
-514.858	90.139	0.134	0.149
-513.843	-200.000	-0.026	0.173
-512.829	159.875	0.172	0.239
-511.814	-82.653	0.106	0.034
-510.799	9.994	0.094	-0.071
-509.785	-150.281	-0.096	0.007
-508.770	800.000	0.023	-0.071
-507.756	84.196	0.266	0.290
-506.741	470.505	-0.172	-0.386
-505.726	-200.000	-0.009	0.120
-504.712	-82.099	0.149	0.049
-503.697	233.358	-0.141	-0.231
-502.683	151.757	0.213	0.289
-501.668	-57.971	-0.140	-0.061
-500.653	-200.000	0.027	0.134
-499.639	-57.815	0.217	0.095
-498.624	-200.000	-0.011	0.054
-497.610	-120.575	0.377	0.064
-496.595	800.000	-0.100	-0.277
-495.581	-105.913	-0.114	-0.026
-494.566	-73.548	-0.166	0.060
-493.551	550.469	-0.058	-0.139
-492.537	-35.769	0.312	0.168
-491.522	8.403	-0.178	-0.134
-490.508	-200.000	-0.021	0.164
-489.493	-200.000	0.071	-0.329
-488.478	-200.000	0.008	-0.371
-487.464	-73.299	-0.236	0.086
-486.449	800.000	-0.012	0.037
-485.435	-200.000	-0.026	-0.171
-484.420	-136.670	0.231	-0.027
-483.405	-113.632	-0.276	0.054
-482.391	56.614	0.236	-0.229
-481.376	215.806	-0.143	-0.227
-480.362	139.425	0.094	0.124
-479.347	5.422	-0.120	0.088
-478.332	-16.805	0.314	-0.198
-477.318	-108.445	0.305	0.065
-476.303	-200.000	-0.038	0.252
-475.289	800.000	0.050	0.214
-474.274	-200.000	-0.024	0.209
-473.259	58.532	0.034	-0.033
-472.245	-200.000	-0.014	-0.064
-471.230	54.572	-0.049	-0.047
-470.216	-48.515	0.202	0.097
-469.201	-200.000	-0.026	-0.182
-468.186	95.670	0.104	-0.119
-467.172	-200.000	-0.008	-0.146
-466.157	136.510	0.142	0.185
-465.143	800.000	-0.059	-0.193
-464.128	294.932	-0.206	0.375
-463.113	-103.231	0.483	-0.114
-462.099	-68.570	-0.144	-0.056
-461.084	-12.782	-0.143	-0.093
-460.070	-68.114	0.236	0.091
-459.055	500.535	-0.139	-0.319
-458.040	-200.000	-0.040	-0.257
-457.026	-200.000	0.018	0.183
-456.011	-200.000	-0.027	0.153
-454.997	46.984	-0.034	-0.032
-453.982	312.082	-0.115	-0.216
-452.968	215.347	-0.085	-0.135
-451.953	-25.217	0.184	0.108
-450.938	-94.769	-0.111	0.030
-449.924	800.000	0.028	0.114
-448.909	-49.913	-0.287	0.136
-447.895	-2.631	0.175	-0.122
-446.880	-114.357	-0.070	0.013
-445.865	-85.284	-0.282	-0.088
-444.851	-60.196	0.375	-0.159
-443.836	166.207	-0.137	0.193
-442.822	292.068	-0.132	-0.239
-441.807	800.000	0.058	0.195
-440.792	800.000	-0.127	0.410
-439.778	-162.746	0.221	0.011
-438.763	103.601	0.101	-0.119
-437.749	86.238	-0.305	-0.334
-436.734	-108.859	-0.265	0.056
-435.719	-63.342	0.207	0.085
-434.705	800.000	-0.074	-0.313
-433.690	-36.199	0.060	-0.032
-432.676	-200.000	0.023	0.365
-431.661	800.000	-0.048	-0.133
-430.646	-6.297	0.073	-0.049
-429.632	-200.000	0.025	-0.315
-428.617	-200.000	0.014	0.116
-427.603	-87.460	-0.071	0.021
-426.588	-117.428	0.509	0.092
-425.573	-101.160	-0.131	0.032
-424.559	181.468	-0.142	0.208
-423.544	489.096	0.046	-0.104
-422.530	-200.000	0.025	0.325
-421.515	-163.496	-0.397	-0.019
-420.500	163.690	0.242	-0.339
-419.486	585.920	0.007	-0.017
-418.471	-200.000	0.013	0.122
-417.457	-73.260	-0.097	0.035
-416.442	-61.278	0.202	-0.085
-415.428	44.840	0.059	-0.054
-414.413	-14.149	-0.158	-0.102
-413.398	-14.702	-0.187	-0.120
-412.384	800.000	0.079	-0.249
-411.369	-78.335	-0.144	-0.049
-410.355	-118.706	0.252	0.044
-409.340	800.000	0.061	0.190
-408.325	-111.630	-0.094	-0.019
-407.311	-200.000	-0.001	-0.016
-406.296	732.533	-0.083	0.221
-405.282	84.656	-0.291	0.317
-404.267	51.655	-0.108	0.102
-403.252	-200.000	0.030	-0.256
-402.238	4.157	-0.046	0.033
-401.223	-55.693	0.246	0.109
-400.209	54.671	-0.111	-0.106
-399.194	-44.433	0.337	-0.167
-398.179	174.771	-0.086	-0.124
-397.165	-27.105	0.057	0.033
-396.150	-115.626	0.228	0.042
-395.136	-5.845	0.103	-0.070
-394.121	-158.794	0.177	-0.010
-393.106	-93.839	-0.093	0.025
-392.092	89.882	-0.327	0.363
-391.077	-96.831	0.233	-0.061
-390.063	-45.406	0.189	-0.093
-389.048	-200.000	0.005	0.030
-388.033	-91.618	0.193	-0.055
-387.019	-200.000	0.074	-0.524
-386.004	800.000	-0.052	0.188
-384.990	216.105	0.112	0.176
-383.975	-200.000	-0.011	-0.103
-382.960	205.899	0.093	-0.143
-381.946	-200.000	-0.010	-0.226
-380.931	135.002	-0.207	0.267
-379.917	-200.000	-0.035	0.197
-378.902	800.000	-0.062	0.223
-377.888	12.612	0.027	-0.021
-376.873	-200.000	0.086	0.386
-375.858	-200.000	0.022	-0.267
-374.844	24.273	-0.183	-0.150
-373.829	355.946	0.067	0.132
-372.815	-200.000	-0.027	-0.173
-371.800	-43.754	-0.338	-0.169
-370.785	-115.326	-0.026	0.005
-369.771	800.000	-0.055	0.165
-368.756	-170.092	0.242	0.009
-367.742	-200.000	0.004	-0.054
-366.727	-200.000	0.001	-0.350
-365.712	-50.393	0.159	-0.074
-364.698	-200.000	-0.023	-0.285
-363.683	254.800	-0.051	0.087
-362.669	-94.878	0.306	-0.082
-361.654	184.447	0.015	-0.021
-360.639	-62.595	-0.117	0.048
-359.625	-109.964	0.125	-0.026
-358.610	38.027	0.164	-0.144
-357.596	-93.027	0.291	-0.080
-356.581	33.989	0.213	0.184
-355.566	-200.000	-0.236	0.001
-354.552	-161.209	0.220	-0.011
-353.537	-176.060	-0.204	0.005
-352.523	665.790	-0.038	0.096
-351.508	360.161	0.086	0.170
-350.493	-200.000	0.003	0.106
-349.479	-145.316	0.312	0.028
-348.464	-200.000	-0.052	-0.307
-347.450	458.472	-0.075	0.166
-346.435	-200.000	-0.000	-0.164
-345.420	6.216	0.219	0.161
-344.406	-19.466	-0.333	-0.205
-343.391	-93.527	0.119	0.033
-342.377	-200.000	-0.010	-0.045
-341.362	594.239	0.082	-0.201
-340.348	800.000	0.053	-0.186
-339.333	-113.664	0.423	0.082
-338.318	305.613	-0.158	0.292
-337.304	-200.000	0.051	-0.302
-336.289	0.213	0.160	0.113
-335.275	-200.000	-0.010	0.074
-334.260	377.542	0.077	0.155
-333.245	-200.000	0.028	0.291
-332.231	-90.538	0.207	-0.059
-331.216	62.023	-0.198	-0.196
-330.202	-200.000	0.025	-0.239
-329.187	-200.000	-0.062	-0.277
-328.172	110.326	-0.072	-0.086
-327.158	-200.000	-0.005	0.042
-326.143	-59.528	-0.043	-0.018
-325.129	-114.105	-0.238	0.046
-324.114	-58.328	0.376	-0.162
-323.099	-8.763	0.198	-0.132
-322.085	-92.522	0.115	-0.032
-321.070	-66.168	0.144	0.057
-320.056	-33.260	-0.121	-0.066
-319.041	1.906	-0.274	0.196
-318.026	355.698	0.150	-0.295
-317.012	-20.352	-0.148	0.090
-315.997	-111.032	0.250	0.051
-314.983	286.700	0.194	0.347
-313.968	-200.000	-0.016	0.442
-312.953	1.079	-0.065	0.046
-311.939	800.000	0.031	-0.097
-310.924	-200.000	-0.043	-0.210
-309.910	-71.031	0.185	-0.069
-308.895	142.480	-0.095	0.125
-307.880	256.442	0.187	0.318
-306.866	-0.724	-0.120	-0.085
-305.851	46.553	-0.081	0.074
-304.837	-116.181	0.083	0.015
-303.822	-130.303	-0.080	0.011
-302.807	209.509	0.019	0.030
-301.793	39.904	-0.070	-0.062
-300.778	-195.536	-0.350	0.003
-299.764	-5.023	0.102	0.069
-298.749	800.000	0.051	-0.141
-297.735	-19.032	0.102	-0.063
-296.720	800.000	0.097	-0.296
-295.705	75.200	0.103	-0.108
-294.691	-76.668	0.239	-0.083
-293.676	-25.135	-0.094	-0.055
-292.662	-90.378	0.206	0.059
-291.647	-76.329	0.300	0.105
-290.632	176.780	0.203	0.292
-289.618	-200.000	-0.050	0.309
-288.603	800.000	-0.027	0.107
-287.589	195.367	0.080	-0.120
-286.574	-200.000	-0.001	-0.132
-285.559	-113.285	-0.240	-0.047
-284.545	-116.015	-0.751	0.138
-283.530	-200.000	-0.016	0.191
-282.516	566.472	-0.082	-0.197
-281.501	34.471	0.265	0.229
-280.486	800.000	0.119	0.328
-279.472	124.918	0.188	0.234
-278.457	495.320	-0.078	-0.178
-277.443	-71.743	0.232	0.086
-276.428	-200.000	-0.006	0.072
-275.413	-200.000	-0.376	0.000
-274.399	800.000	-0.038	0.150
-273.384	-85.893	-0.211	0.064
-272.370	684.619	-0.015	0.038
-271.355	-170.201	-0.278	0.010
-270.340	800.000	0.048	-0.204
-269.326	434.560	-0.096	0.206
-268.311	581.909	0.030	-0.073
-267.297	-89.813	-0.304	-0.088
-266.282	800.000	-0.091	0.356
-265.267	39.408	0.280	-0.248
-264.253	-33.603	0.113	0.061
-263.238	128.674	0.099	0.124
-262.224	-200.000	0.016	-0.098
-261.209	800.000	0.049	-0.194
-260.195	-84.712	-0.230	0.072
-259.180	-89.696	-0.057	-0.017
-258.165	-99.501	-0.323	0.080
-257.151	0.291	-0.140	-0.098
-256.136	800.000	0.053	-0.190
-255.122	161.326	0.072	0.099
-254.107	-195.032	-0.215	-0.002
-253.092	39.037	0.223	0.197
-252.078	-93.522	-0.141	-0.039
-251.063	-200.000	0.004	0.021
-250.049	-127.326	-0.331	-0.048
-249.034	-200.000	-0.013	0.106
-248.019	328.563	-0.150	-0.285
-247.005	157.129	0.157	-0.215
-245.990	-34.363	0.094	-0.051
-244.976	15.651	0.028	-0.022
-243.961	118.789	-0.291	-0.355
-242.946	34.493	-0.344	-0.297
-241.932	0.099	0.221	0.156
-240.917	660.871	-0.109	-0.278
-239.903	76.654	-0.135	0.141
-238.888	800.000	-0.100	0.341
-237.873	-15.762	0.377	0.237
-236.859	-200.000	-0.016	0.128
-235.844	-178.407	-0.143	0.003
-234.830	-141.756	0.306	0.030
-233.815	-41.510	0.355	0.180
-232.800	136.462	-0.095	-0.122
-231.786	-15.635	0.102	-0.064
-230.771	-200.000	0.025	-0.192
-229.757	-79.609	-0.056	-0.019
-228.742	375.203	-0.102	0.205
-227.727	-200.000	0.004	-0.114
-226.713	-22.930	0.206	-0.122
-225.698	1.042	0.187	-0.133
-224.684	-12.456	0.118	-0.076
-223.669	-200.000	-0.037	0.180
-222.655	800.000	0.025	0.098
-221.640	225.149	-0.124	-0.198
-220.625	-39.796	0.071	0.037
-219.611	-100.791	-0.286	0.070
-218.596	-200.000	0.005	0.074
-217.582	800.000	0.073	0.201
-216.567	-118.531	-0.309	0.054
-215.552	800.000	0.054	-0.180
-214.538	-84.256	0.099	-0.031
-213.523	275.908	-0.069	-0.121
-212.509	-200.000	0.013	0.070
-211.494	140.205	0.043	0.057
-210.479	-200.000	0.009	0.453
-209.465	8.841	-0.281	0.209
-208.450	-45.413	0.149	0.073
-207.436	682.394	0.104	0.266
-206.421	-200.000	0.035	0.292
-205.406	70.484	-0.076	0.077
-204.392	324.234	-0.047	-0.088
-203.377	-200.000	-0.010	0.484
-202.363	-200.000	-0.072	0.367
-201.348	27.571	0.111	0.092
-200.333	-109.909	-0.286	-0.059
-199.319	455.794	-0.151	0.330
-198.304	194.959	0.098	-0.146
-197.290	219.002	-0.156	0.246
-196.275	370.502	0.058	0.115
-195.260	319.750	-0.064	0.120
-194.246	-67.179	0.250	-0.097
-193.231	800.000	0.072	0.198
-192.217	241.853	0.170	0.279
-191.202	-1.033	-0.202	-0.141
-190.187	-7.564	0.353	0.235
-189.173	800.000	0.073	0.288
-188.158	-94.822	0.279	0.075
-187.144	501.923	0.053	-0.121
-186.129	-109.634	-0.188	-0.039
-185.114	-200.000	-0.009	-0.051
-184.100	-163.507	0.313	0.015
-183.085	360.883	0.072	0.141
-182.071	-2.310	0.231	0.159
-181.056	-15.033	0.091	-0.057
-180.042	-3.405	-0.173	-0.118
-179.027	-200.000	0.056	0.260
-178.012	-131.606	0.184	0.024
-176.998	-98.843	0.121	0.030
-175.983	189.371	-0.095	-0.140
-174.969	-200.000	0.017	0.194
-173.954	233.177	-0.202	-0.327
-172.939	-166.713	0.240	-0.010
-171.925	-200.000	0.031	-0.367
-170.910	800.000	0.066	0.205
-169.896	-106.399	-0.217	0.048
-168.881	21.953	0.319	-0.256
-167.866	413.634	0.097	-0.204
-166.852	53.884	-0.201	0.190
-165.837	30.722	-0.096	0.081
-164.823	-122.694	0.134	0.021
-163.808	522.779	0.140	-0.324
-162.793	77.820	0.175	-0.184
-161.779	19.065	-0.140	-0.111
-160.764	-36.908	0.027	0.014
-159.750	-200.000	0.039	-0.272
-158.735	212.263	-0.148	0.230
-157.720	-200.000	0.031	-0.213
-156.706	266.520	0.088	-0.152
-155.691	320.412	-0.311	-0.581
-154.677	115.501	-0.290	-0.349
-153.662	-200.000	-0.012	-0.102
-152.647	-130.737	-0.255	0.034
-151.633	47.973	-0.277	0.254
-150.618	66.651	-0.163	0.163
-149.604	717.280	0.147	-0.385
-148.589	344.490	-0.130	0.251
-147.574	21.145	-0.185	0.148
-146.560	-20.963	0.289	-0.174
-145.545	-169.253	-0.166	0.006
-144.531	-22.058	0.048	0.029
-143.516	108.210	0.076	-0.089
-142.502	135.881	0.031	0.039
-141.487	116.624	0.292	0.352
-140.472	27.614	0.209	-0.173
-139.458	-200.000	-0.001	0.016
-138.443	-157.655	0.503	0.030
-137.429	800.000	0.120	0.380
-136.414	-200.000	-0.034	0.229
-135.399	256.159	0.195	0.330
-134.385	87.270	-0.066	0.072
-133.370	392.883	0.086	0.175
-132.356	610.993	-0.011	0.027
-131.341	-200.000	0.114	-0.585
-130.326	-4.044	0.204	-0.139
-129.312	-13.320	-0.058	-0.037
-128.297	368.767	-0.091	0.180
-127.283	671.113	-0.066	-0.169
-126.268	-178.450	-0.097	-0.002
-125.253	-106.850	-0.212	0.046
-124.239	-165.607	-0.219	0.009
-123.224	-6.067	0.185	0.124
-122.210	-169.371	-0.332	-0.012
-121.195	-159.133	-0.470	0.026
