DTS Sentinel unit serial number:	SN413079Multiplexer serial number:	ORYXHardware model number:	OX4-SRSoftware version number:	ORYX F/W v4.00 Oryx Data Collector v3.7.2.0data status	okinstallation	princeton_trtdifferential loss correction	single-endedforward channel	channel 1reverse channel	N/Adate	2019/09/12time	09:04:11forward acquisition time	60.00reverse acquisition time	0.00gamma	496.2192k internal	0.2308k external	0.2308temperature offset calibration	1.0036default loss term (dB/km)	0.3790temperature slope calibration	1.0000multiplexer offset coefficient	1.0000multiplexer slope coefficient	1.0000fibre end	0.00T internal ref (°C)	34.36T ext. ref 1 (°C)	1.77T ext. ref 2 (°C)	31.84length (m)	temperature (°C)	Stokes	anti-Stokes-747.200	139.945	0.144	0.193
-746.185	-71.619	0.171	0.065
-745.171	-86.221	-0.201	0.063
-744.156	800.000	0.053	0.194
-743.142	-69.480	0.127	0.050
-742.127	-61.033	-0.460	0.197
-741.112	-102.826	0.083	-0.020
-740.098	-200.000	0.053	0.320
-739.083	2.011	-0.246	-0.180
-738.069	-88.208	-0.138	-0.042
-737.054	800.000	-0.133	-0.455
-736.039	777.570	0.078	-0.215
-735.025	-101.916	-0.087	0.021
-734.010	-200.000	0.001	-0.015
-732.996	636.606	-0.141	-0.365
-731.981	-200.000	0.005	0.053
-730.966	-120.204	0.176	-0.031
-729.952	-40.472	-0.016	-0.008
-728.937	-64.600	0.091	0.037
-727.923	300.832	-0.113	-0.211
-726.908	63.833	0.025	0.025
-725.894	6.927	0.172	0.130
-724.879	25.805	0.230	-0.194
-723.864	-123.128	0.162	-0.026
-722.850	-117.908	0.198	0.036
-721.835	626.221	-0.060	-0.153
-720.821	-33.463	-0.077	-0.043
-719.806	292.527	0.096	-0.177
-718.791	800.000	-0.134	-0.395
-717.777	-200.000	0.005	-0.129
-716.762	-1.427	0.192	0.137
-715.748	-32.947	-0.209	0.118
-714.733	-200.000	0.044	0.228
-713.718	-108.739	-0.099	0.021
-712.704	-110.398	-0.211	0.045
-711.689	800.000	0.063	0.237
-710.675	-200.000	-0.004	-0.111
-709.660	218.947	-0.083	0.135
-708.645	55.349	0.120	0.118
-707.631	-48.433	-0.399	-0.195
-706.616	134.607	-0.163	0.214
-705.602	-31.103	0.133	-0.076
-704.587	-116.933	0.156	-0.029
-703.572	9.157	-0.259	-0.198
-702.558	127.292	-0.187	-0.241
-701.543	767.120	0.215	-0.594
-700.529	-90.157	0.292	0.086
-699.514	-200.000	0.035	0.204
-698.499	-131.508	-0.243	-0.032
-697.485	-90.463	-0.205	0.060
-696.470	800.000	-0.085	-0.315
-695.456	-172.643	-0.086	0.003
-694.441	-0.765	0.117	-0.084
-693.426	-200.000	0.042	0.329
-692.412	-39.614	-0.168	-0.089
-691.397	652.453	0.135	-0.352
-690.383	-134.920	0.250	-0.031
-689.368	-97.473	0.217	-0.057
-688.354	-58.566	-0.228	0.100
-687.339	101.993	-0.287	0.339
-686.324	-200.000	-0.024	-0.228
-685.310	-72.863	0.545	-0.203
-684.295	186.461	-0.229	0.345
-683.281	286.676	-0.034	0.063
-682.266	-123.215	0.323	-0.052
-681.251	-101.168	0.309	0.077
-680.237	63.464	-0.239	0.243
-679.222	171.839	-0.051	-0.074
-678.208	-42.647	0.151	0.078
-677.193	365.594	0.138	0.283
-676.178	29.677	0.136	0.117
-675.164	486.406	0.220	-0.508
-674.149	176.153	-0.149	-0.220
-673.135	-115.473	-0.035	-0.007
-672.120	46.312	-0.285	0.268
-671.105	-200.000	-0.016	-0.329
-670.091	110.304	-0.019	0.023
-669.076	551.761	0.024	-0.059
-668.062	125.878	-0.121	-0.155
-667.047	754.071	0.148	-0.405
-666.032	75.343	0.062	-0.067
-665.018	-200.000	-0.012	0.337
-664.003	-200.000	0.006	0.035
-662.989	-128.127	0.065	0.009
-661.974	-122.210	-0.322	0.053
-660.959	226.560	0.068	-0.112
-659.945	405.854	-0.104	-0.222
-658.930	-150.238	-0.327	-0.026
-657.916	-200.000	-0.028	0.128
-656.901	170.029	-0.069	0.100
-655.886	127.559	0.287	-0.370
-654.872	-71.319	0.223	-0.084
-653.857	286.597	-0.045	0.083
-652.843	323.900	-0.075	0.146
-651.828	786.929	0.041	-0.115
-650.814	800.000	-0.025	0.086
-649.799	60.294	0.185	0.185
-648.784	800.000	-0.038	-0.154
-647.770	-155.554	0.132	0.009
-646.755	167.981	-0.105	0.151
-645.741	-89.817	-0.345	0.102
-644.726	-66.570	0.247	0.099
-643.711	91.407	0.275	-0.313
-642.697	392.994	-0.161	-0.338
-641.682	26.923	-0.192	-0.163
-640.668	63.588	-0.212	0.215
-639.653	-59.627	-0.220	0.095
-638.638	-200.000	0.000	0.269
-637.624	-200.000	-0.005	0.024
-636.609	800.000	-0.004	-0.012
-635.595	800.000	0.085	-0.250
-634.580	173.524	-0.184	-0.269
-633.565	800.000	0.060	0.197
-632.551	303.390	0.107	-0.201
-631.536	59.502	-0.159	-0.159
-630.522	-100.759	0.100	0.025
-629.507	10.132	0.034	0.026
-628.492	-82.274	-0.236	-0.078
-627.478	800.000	0.075	0.228
-626.463	418.101	-0.176	0.381
-625.449	41.236	-0.056	-0.052
-624.434	360.150	-0.083	0.168
-623.419	-200.000	0.075	0.348
-622.405	-200.000	0.003	0.441
-621.390	-98.912	-0.168	0.043
-620.376	-200.000	0.042	0.426
-619.361	107.016	0.212	0.254
-618.346	-157.671	0.183	0.011
-617.332	85.897	-0.119	-0.133
-616.317	-184.372	0.219	0.004
-615.303	800.000	-0.033	0.117
-614.288	223.462	-0.070	0.114
-613.273	6.734	0.174	-0.131
-612.259	-31.635	0.149	-0.085
-611.244	524.598	-0.119	-0.283
-610.230	-119.194	-0.184	-0.032
-609.215	-14.006	0.086	-0.056
-608.201	-130.981	-0.128	0.017
-607.186	-140.414	-0.219	-0.023
-606.171	250.868	0.132	-0.227
-605.157	-118.556	-0.374	0.067
-604.142	158.189	0.062	-0.087
-603.128	800.000	-0.034	0.146
-602.113	-0.653	-0.226	-0.162
-601.098	8.749	0.146	0.111
-600.084	-163.711	0.076	0.004
-599.069	-48.176	0.162	0.079
-598.055	-200.000	-0.002	-0.097
-597.040	800.000	-0.087	0.321
-596.025	17.986	-0.309	0.249
-595.011	552.642	-0.055	0.133
-593.996	85.038	-0.116	-0.128
-592.982	-140.006	0.211	-0.023
-591.967	186.668	0.149	-0.224
-590.952	-95.429	0.042	0.011
-589.938	782.364	0.070	0.193
-588.923	465.161	-0.062	-0.141
-587.909	-200.000	-0.002	-0.008
-586.894	-200.000	-0.017	0.308
-585.879	262.752	0.172	-0.302
-584.865	-9.767	0.172	-0.116
-583.850	127.679	-0.061	-0.078
-582.836	-200.000	0.014	0.122
-581.821	-29.470	0.238	0.138
-580.806	153.571	-0.111	0.154
-579.792	-200.000	-0.022	0.101
-578.777	-127.636	0.130	0.019
-577.763	-200.000	-0.056	0.379
-576.748	207.321	-0.109	0.171
-575.733	116.511	-0.086	-0.107
-574.719	-51.367	-0.192	0.091
-573.704	753.297	-0.080	-0.218
-572.690	800.000	-0.069	0.251
-571.675	149.623	0.052	0.071
-570.661	-35.638	-0.373	-0.204
-569.646	800.000	-0.079	0.350
-568.631	426.174	0.023	0.051
-567.617	170.669	0.252	-0.364
-566.602	-200.000	-0.026	-0.138
-565.588	396.280	0.099	-0.209
-564.573	108.588	0.240	0.289
-563.558	49.137	-0.483	-0.458
-562.544	-189.064	-0.206	-0.002
-561.529	152.790	-0.135	0.186
-560.515	-200.000	-0.047	-0.259
-559.500	-52.686	0.211	-0.098
-558.485	283.892	0.048	0.087
-557.471	742.487	0.055	0.150
-556.456	140.994	0.155	-0.206
-555.442	-170.965	-0.028	0.001
-554.427	682.733	-0.086	-0.227
-553.412	-26.651	-0.233	-0.137
-552.398	-78.397	-0.198	-0.068
-551.383	19.239	-0.169	0.137
-550.369	-79.346	-0.121	-0.041
-549.354	-200.000	0.077	-0.403
-548.339	18.281	-0.297	-0.239
-547.325	-10.971	0.269	-0.179
-546.310	200.830	-0.096	0.149
-545.296	-94.347	0.102	0.028
-544.281	-200.000	-0.016	0.128
-543.266	-200.000	0.045	0.306
-542.252	-81.394	0.150	-0.050
-541.237	-93.602	-0.155	-0.043
-540.223	13.013	0.201	0.157
-539.208	159.439	-0.132	-0.186
-538.193	678.273	0.062	-0.163
-537.179	380.057	0.100	0.206
-536.164	246.166	-0.008	-0.013
-535.150	-137.793	0.100	0.011
-534.135	53.171	-0.260	-0.251
-533.121	-123.886	0.260	-0.041
-532.106	-200.000	0.027	0.347
-531.091	-77.607	0.080	0.028
-530.077	247.241	0.031	0.052
-529.062	458.610	-0.064	0.144
-528.048	-71.696	-0.177	-0.067
-527.033	422.269	0.105	0.228
-526.018	47.415	-0.310	0.292
-525.004	73.458	0.102	-0.107
-523.989	105.320	-0.090	0.107
-522.975	265.040	-0.092	-0.162
-521.960	800.000	-0.062	-0.256
-520.945	-65.501	-0.214	0.087
-519.931	800.000	0.061	0.260
-518.916	63.088	-0.213	-0.215
-517.902	123.997	-0.235	0.297
-516.887	185.980	0.200	0.300
-515.872	217.014	0.017	-0.027
-514.858	-82.459	-0.142	0.047
-513.843	114.838	-0.087	-0.106
-512.829	119.883	0.121	-0.151
-511.814	-24.032	0.378	-0.228
-510.799	489.339	-0.207	-0.477
-509.785	188.343	0.115	0.173
-508.770	800.000	0.068	-0.229
-507.756	-148.770	-0.046	0.004
-506.741	599.429	0.058	0.146
-505.726	800.000	-0.005	-0.023
-504.712	48.235	-0.158	0.149
-503.697	-137.913	0.318	-0.036
-502.683	-21.170	0.116	-0.071
-501.668	419.808	0.082	-0.177
-500.653	-109.926	0.094	-0.020
-499.639	800.000	0.041	0.142
-498.624	2.139	-0.127	-0.093
-497.610	-92.495	-0.123	0.035
-496.595	-12.041	0.083	0.055
-495.581	-200.000	0.006	-0.345
-494.566	-46.989	-0.285	-0.140
-493.551	-19.279	-0.239	-0.149
-492.537	7.911	-0.090	0.068
-491.522	-108.968	0.279	0.060
-490.508	-98.682	0.344	0.088
-489.493	-101.629	0.315	0.077
-488.478	-19.092	-0.121	0.076
-487.464	-200.000	-0.028	0.144
-486.449	31.510	-0.094	0.082
-485.435	-13.314	-0.240	0.157
-484.420	800.000	-0.067	0.221
-483.405	208.566	-0.042	-0.066
-482.391	-48.769	0.185	-0.090
-481.376	-155.083	-0.105	-0.007
-480.362	431.920	-0.075	0.163
-479.347	44.826	0.439	0.406
-478.332	-112.415	-0.395	0.079
-477.318	486.303	-0.102	-0.233
-476.303	800.000	-0.067	0.220
-475.289	800.000	0.092	-0.356
-474.274	-200.000	0.061	-0.275
-473.259	94.565	0.120	0.137
-472.245	-96.609	0.097	-0.026
-471.230	-101.131	0.201	-0.049
-470.216	800.000	0.053	0.172
-469.201	800.000	-0.108	-0.356
-468.186	-21.726	-0.152	0.093
-467.172	105.523	-0.073	0.087
-466.157	-200.000	0.002	-0.409
-465.143	-200.000	-0.020	0.103
-464.128	430.052	-0.063	-0.136
-463.113	162.322	0.120	-0.170
-462.099	-125.344	-0.131	-0.020
-461.084	54.739	0.127	-0.124
-460.070	-200.000	0.001	-0.116
-459.055	-94.421	0.113	0.031
-458.040	-48.636	0.231	-0.112
-457.026	-39.520	-0.149	-0.078
-456.011	-33.665	0.150	0.083
-454.997	-92.281	0.200	0.057
-453.982	-116.834	-0.103	0.019
-452.968	-36.477	-0.315	-0.170
-451.953	-23.859	0.098	-0.059
-450.938	-200.000	-0.051	-0.295
-449.924	-89.163	-0.300	0.089
-448.909	-200.000	0.050	0.270
-447.895	175.360	-0.156	0.226
-446.880	223.044	0.088	0.143
-445.865	12.697	0.170	0.132
-444.851	155.504	-0.055	-0.076
-443.836	-17.519	-0.281	-0.178
-442.822	-21.358	0.234	0.143
-441.807	134.546	-0.053	0.070
-440.792	2.140	0.338	0.246
-439.778	334.676	0.068	0.133
-438.763	-200.000	0.021	0.094
-437.749	178.646	-0.102	-0.149
-436.734	800.000	-0.032	0.092
-435.719	126.527	0.109	-0.139
-434.705	103.825	-0.161	-0.190
-433.690	222.401	0.092	-0.149
-432.676	-200.000	0.042	0.232
-431.661	-200.000	-0.005	-0.305
-430.646	-117.226	-0.162	0.030
-429.632	106.662	0.150	-0.178
-428.617	-200.000	-0.036	-0.358
-427.603	90.685	0.211	-0.238
-426.588	15.588	0.130	0.103
-425.573	-141.396	-0.187	0.019
-424.559	-119.820	0.238	-0.041
-423.544	-171.810	0.075	-0.002
-422.530	-132.876	-0.507	0.065
-421.515	-6.539	-0.305	-0.209
-420.500	-200.000	-0.003	-0.420
-419.486	-5.565	-0.177	0.122
-418.471	510.014	0.047	-0.109
-417.457	758.087	0.025	-0.067
-416.442	-81.514	0.217	-0.072
-415.428	-200.000	-0.010	0.177
-414.413	95.755	0.183	0.210
-413.398	393.127	0.132	0.275
-412.384	481.619	0.056	-0.128
-411.369	-200.000	-0.069	-0.365
-410.355	18.077	-0.063	-0.051
-409.340	475.412	-0.159	0.361
-408.325	441.413	0.139	-0.306
-407.311	117.994	-0.153	-0.189
-406.296	-200.000	-0.008	-0.353
-405.282	60.106	-0.172	0.171
-404.267	-117.705	0.207	-0.037
-403.252	47.483	-0.114	0.106
-402.238	-94.216	-0.492	0.135
-401.223	80.757	-0.385	0.416
-400.209	-104.046	-0.131	-0.031
-399.194	-200.000	0.044	0.217
-398.179	27.809	0.246	0.208
-397.165	373.391	-0.083	-0.169
-396.150	317.718	0.202	0.384
-395.136	26.980	-0.303	0.255
-394.121	-125.466	0.035	-0.005
-393.106	57.604	-0.273	-0.267
-392.092	757.013	-0.128	0.348
-391.077	-74.867	0.174	-0.063
-390.063	72.346	-0.272	0.284
-389.048	-200.000	0.036	0.287
-388.033	87.953	0.186	0.206
-387.019	20.507	-0.160	0.130
-386.004	-122.238	-0.211	-0.035
-384.990	497.694	-0.087	0.202
-383.975	23.577	0.066	-0.054
-382.960	-200.000	0.036	-0.264
-381.946	-88.669	0.083	0.025
-380.931	635.201	-0.021	-0.052
-379.917	-114.244	-0.082	0.016
-378.902	13.363	-0.222	0.172
-377.888	5.447	0.066	0.049
-376.873	80.670	-0.139	0.151
-375.858	-12.502	-0.206	-0.135
-374.844	-158.083	0.143	-0.008
-373.829	166.089	0.071	-0.100
-372.815	162.119	-0.119	0.168
-371.800	-156.886	-0.133	0.008
-370.785	-200.000	0.002	0.046
-369.771	800.000	0.043	-0.125
-368.756	252.689	-0.064	-0.109
-367.742	230.667	-0.025	-0.041
-366.727	70.656	0.239	0.248
-365.712	-76.831	0.251	-0.088
-364.698	-200.000	-0.000	0.035
-363.683	-200.000	-0.018	0.122
-362.669	45.504	-0.320	-0.296
-361.654	-36.177	0.191	0.103
-360.639	162.143	0.098	0.138
-359.625	-200.000	-0.006	0.045
-358.610	30.382	-0.189	-0.161
-357.596	343.895	-0.212	-0.416
-356.581	-200.000	0.317	0.002
-355.566	-200.000	0.001	0.038
-354.552	800.000	-0.139	-0.400
-353.537	383.160	0.046	-0.094
-352.523	135.914	0.219	0.285
-351.508	722.725	0.039	-0.103
-350.493	-12.272	-0.152	-0.099
-349.479	263.705	0.026	-0.045
-348.464	-75.914	-0.055	0.019
-347.450	-192.311	-0.207	0.002
-346.435	155.989	-0.091	-0.126
-345.420	288.008	-0.165	-0.298
-344.406	800.000	-0.043	0.174
-343.391	42.854	0.163	-0.149
-342.377	800.000	-0.037	-0.116
-341.362	112.282	0.108	0.131
-340.348	-111.039	0.120	0.025
-339.333	-200.000	-0.006	0.196
-338.318	90.178	-0.168	-0.188
-337.304	-79.936	-0.344	0.116
-336.289	69.109	0.192	0.197
-335.275	-69.176	-0.120	-0.046
-334.260	-3.196	-0.217	0.151
-333.245	614.068	-0.124	0.311
-332.231	69.364	0.085	-0.087
-331.216	-45.807	0.168	0.083
-330.202	57.306	0.283	0.277
-329.187	800.000	0.105	-0.302
-328.172	-116.999	0.377	0.069
-327.158	-107.036	0.195	0.043
-326.143	12.685	0.239	-0.185
-325.129	-140.353	0.233	-0.024
-324.114	214.772	0.094	0.149
-323.099	-200.000	0.062	-0.294
-322.085	-200.000	0.064	0.633
-321.070	-58.304	0.194	0.085
-320.056	-162.061	0.429	-0.022
-319.041	-48.278	0.076	0.037
-318.026	-200.000	0.062	-0.387
-317.012	93.587	0.024	-0.027
-315.997	116.228	0.107	0.131
-314.983	-200.000	-0.076	-0.395
-313.968	8.518	-0.157	-0.118
-312.953	-146.276	0.149	-0.013
-311.939	-147.472	0.356	-0.030
-310.924	-200.000	0.031	-0.252
-309.910	-36.887	0.046	-0.025
-308.895	-176.185	-0.146	-0.004
-307.880	-41.569	-0.225	-0.116
-306.866	35.755	0.320	0.281
-305.851	-200.000	0.006	-0.197
-304.837	205.171	-0.050	-0.078
-303.822	230.075	0.176	-0.287
-302.807	124.947	-0.262	0.330
-301.793	55.727	-0.213	-0.206
-300.778	-57.741	0.133	-0.058
-299.764	-194.696	0.142	-0.001
-298.749	-200.000	-0.012	-0.169
-297.735	800.000	-0.139	-0.540
-296.720	-200.000	0.025	0.135
-295.705	-49.005	-0.195	-0.093
-294.691	-94.052	-0.399	0.109
-293.676	-200.000	0.001	0.053
-292.662	-57.828	0.262	0.114
-291.647	-95.386	0.443	-0.119
-290.632	57.723	-0.077	0.075
-289.618	693.293	-0.176	0.460
-288.603	-151.427	0.026	-0.002
-287.589	-200.000	0.019	-0.365
-286.574	471.993	0.022	-0.049
-285.559	498.757	-0.046	-0.107
-284.545	-47.573	-0.101	-0.049
-283.530	-182.294	0.356	-0.007
-282.516	-54.190	0.082	0.037
-281.501	800.000	-0.065	-0.198
-280.486	-110.297	-0.389	0.081
-279.472	800.000	-0.041	-0.143
-278.457	-99.236	-0.178	0.045
-277.443	800.000	-0.064	-0.216
-276.428	91.707	-0.128	-0.144
-275.413	-146.470	0.043	0.004
-274.399	800.000	-0.085	-0.350
-273.384	-86.721	0.476	0.145
-272.370	-11.381	0.201	0.132
-271.355	-48.514	0.081	-0.039
-270.340	368.344	-0.123	-0.248
-269.326	116.690	-0.081	-0.099
-268.311	-123.779	0.221	-0.035
-267.297	-87.913	-0.346	0.104
-266.282	91.700	0.326	-0.366
-265.267	800.000	0.094	-0.267
-264.253	-13.207	0.241	-0.156
-263.238	-128.842	-0.132	-0.018
-262.224	54.181	0.139	0.133
-261.209	46.683	-0.169	0.156
-260.195	423.726	0.173	-0.371
-259.180	153.711	-0.167	-0.229
-258.165	800.000	0.079	-0.288
-257.151	74.635	-0.097	0.102
-256.136	-13.084	0.454	-0.294
-255.122	-6.793	0.132	0.090
-254.107	800.000	-0.107	0.338
-253.092	618.130	-0.091	0.227
-252.078	-200.000	0.016	0.305
-251.063	-200.000	-0.037	0.273
-250.049	-200.000	0.022	0.150
-249.034	653.596	-0.069	0.178
-248.019	-92.252	-0.379	-0.107
-247.005	-56.421	-0.101	0.045
-245.990	91.796	-0.349	0.392
-244.976	-121.835	0.201	0.033
-243.961	-200.000	-0.013	0.186
-242.946	-82.978	0.257	-0.083
-241.932	175.985	-0.079	0.114
-240.917	32.804	0.231	-0.200
-239.903	268.167	-0.102	-0.177
-238.888	-62.554	-0.210	0.087
-237.873	-139.733	0.209	0.022
-236.859	-73.316	0.110	0.040
-235.844	-141.261	-0.333	-0.034
-234.830	-72.272	0.279	-0.103
-233.815	147.634	-0.147	0.198
-232.800	-200.000	0.019	0.275
-231.786	33.290	0.125	0.108
-230.771	-5.509	-0.055	0.038
-229.757	-200.000	0.073	-0.336
-228.742	24.425	-0.153	0.126
-227.727	-24.518	0.127	-0.075
-226.713	47.858	0.101	-0.094
-225.698	-109.237	0.166	0.035
-224.684	85.359	0.027	0.029
-223.669	57.965	0.125	-0.122
-222.655	18.889	0.110	0.087
-221.640	3.665	0.163	0.119
-220.625	-85.041	0.066	0.021
-219.611	800.000	0.052	0.206
-218.596	-200.000	-0.013	0.153
-217.582	-200.000	0.021	0.110
-216.567	-109.241	-0.257	0.054
-215.552	-200.000	-0.064	0.413
-214.538	-176.271	0.311	0.008
-213.523	-46.743	-0.353	0.172
-212.509	-54.518	-0.224	-0.101
-211.494	800.000	0.042	-0.154
-210.479	127.520	-0.075	-0.095
-209.465	143.400	0.045	0.060
-208.450	-200.000	0.055	0.251
-207.436	-74.927	-0.028	0.010
-206.421	288.712	0.043	-0.078
-205.406	471.274	0.108	-0.242
-204.392	244.610	0.015	-0.025
-203.377	-14.369	-0.092	0.059
-202.363	33.663	0.203	0.176
-201.348	-125.293	-0.280	-0.043
-200.333	-53.722	0.318	0.145
-199.319	-124.586	0.128	-0.020
-198.304	144.478	0.127	0.168
-197.290	75.346	0.154	0.161
-196.275	-131.277	-0.141	-0.019
-195.260	-6.527	-0.322	-0.218
-194.246	-200.000	0.045	-0.342
-193.231	234.450	-0.124	-0.203
-192.217	-122.760	0.134	-0.022
-191.202	-44.171	0.175	-0.087
-190.187	37.652	0.102	-0.090
-189.173	-18.410	0.082	-0.051
-188.158	-90.454	0.091	0.026
-187.144	-200.000	0.363	-0.001
-186.129	-16.766	-0.198	0.124
-185.114	800.000	0.001	-0.002
-184.100	411.574	0.132	0.279
-183.085	152.923	0.071	-0.096
-182.071	-200.000	0.005	0.060
-181.056	135.657	0.208	-0.270
-180.042	39.360	-0.176	-0.156
-179.027	131.327	-0.148	-0.190
-178.012	68.713	0.188	-0.192
-176.998	-41.024	-0.395	0.203
-175.983	800.000	0.054	-0.205
-174.969	-90.178	-0.268	0.077
-173.954	95.917	0.039	0.044
-172.939	10.571	-0.053	0.040
-171.925	-36.959	0.041	0.022
-170.910	800.000	-0.028	0.111
-169.896	-29.832	0.114	0.064
-168.881	693.402	-0.059	0.153
-167.866	-200.000	-0.059	0.313
-166.852	-86.564	0.127	0.039
-165.837	-127.299	0.465	-0.067
-164.823	800.000	0.094	-0.382
-163.808	-200.000	0.043	-0.196
-162.793	278.897	-0.008	0.014
-161.779	85.346	-0.164	-0.179
-160.764	-53.214	0.195	0.089
-159.750	-200.000	0.060	-0.282
-158.735	63.805	-0.038	-0.038
-157.720	137.063	0.090	0.117
-156.706	63.088	0.136	0.135
-155.691	-200.000	0.022	0.127
-154.677	299.437	0.113	0.208
-153.662	-200.000	-0.043	0.286
-152.647	-198.269	-0.339	0.002
-151.633	-200.000	0.018	0.120
-150.618	-200.000	0.022	-0.224
-149.604	800.000	0.113	-0.319
-148.589	62.533	0.107	0.106
-147.574	-138.416	0.098	-0.011
-146.560	115.758	-0.124	0.150
-145.545	1.801	0.092	0.065
-144.531	800.000	0.094	0.275
-143.516	-17.416	-0.191	0.119
-142.502	-200.000	0.086	0.456
-141.487	-114.113	0.058	0.011
-140.472	193.344	0.156	0.234
-139.458	-200.000	0.017	0.163
-138.443	197.294	-0.257	0.390
-137.429	-1.024	-0.179	-0.126
-136.414	6.899	-0.158	0.117
-135.399	-167.613	0.148	0.006
-134.385	291.808	-0.023	0.042
-133.370	12.423	0.332	0.254
-132.356	-200.000	0.008	0.239
-131.341	37.085	-0.105	0.092
-130.326	-31.409	-0.250	0.139
-129.312	-200.000	-0.012	-0.168
-128.297	-53.258	0.143	0.065
-127.283	218.552	-0.230	0.365
-126.268	-200.000	-0.035	0.265
-125.253	-136.181	-0.111	-0.013
-124.239	-177.983	-0.187	-0.004
-123.224	-200.000	-0.052	-0.257
-122.210	-52.314	0.257	0.118
-121.195	-105.651	0.240	0.054
-120.180	800.000	-0.101	0.353
