DTS Sentinel unit serial number:	SN413079Multiplexer serial number:	ORYXHardware model number:	OX4-SRSoftware version number:	ORYX F/W v4.00 Oryx Data Collector v3.7.2.0data status	okinstallation	princeton_trtdifferential loss correction	single-endedforward channel	channel 1reverse channel	N/Adate	2019/09/18time	23:30:35forward acquisition time	60.00reverse acquisition time	0.00gamma	496.2192k internal	0.2341k external	0.2341temperature offset calibration	1.0020default loss term (dB/km)	0.3790temperature slope calibration	1.0000multiplexer offset coefficient	1.0000multiplexer slope coefficient	1.0000fibre end	0.00T internal ref (°C)	23.67T ext. ref 1 (°C)	0.78T ext. ref 2 (°C)	16.69length (m)	temperature (°C)	Stokes	anti-Stokes-747.200	800.000	0.029	-0.098
-746.185	-7.274	-0.105	0.071
-745.171	18.992	0.130	0.104
-744.156	-23.698	-0.297	0.179
-743.142	-12.866	0.115	-0.075
-742.127	432.505	-0.094	0.204
-741.112	119.637	-0.141	-0.175
-740.098	741.927	-0.091	0.245
-739.083	800.000	-0.067	0.197
-738.069	-66.681	-0.250	0.099
-737.054	-200.000	0.028	0.184
-736.039	105.124	-0.124	-0.147
-735.025	800.000	0.031	0.128
-734.010	800.000	-0.052	0.206
-732.996	162.737	0.045	0.063
-731.981	36.470	0.086	-0.076
-730.966	-37.233	-0.070	0.037
-729.952	239.021	0.191	-0.317
-728.937	-200.000	0.006	-0.322
-727.923	-105.826	-0.451	0.102
-726.908	710.910	-0.104	0.274
-725.894	-71.649	-0.415	-0.155
-724.879	63.001	-0.233	-0.233
-723.864	74.078	-0.146	-0.154
-722.850	-200.000	0.021	0.097
-721.835	100.452	-0.219	-0.254
-720.821	124.000	0.094	-0.118
-719.806	-43.316	-0.420	0.213
-718.791	336.044	-0.174	0.338
-717.777	331.418	0.035	-0.068
-716.762	264.397	-0.159	-0.277
-715.748	-78.909	-0.085	-0.029
-714.733	-10.229	0.192	-0.128
-713.718	-200.000	-0.040	-0.267
-712.704	-16.879	-0.197	0.125
-711.689	-58.756	-0.054	0.024
-710.675	800.000	-0.065	0.199
-709.660	-200.000	0.039	0.213
-708.645	-72.175	0.350	-0.130
-707.631	115.020	0.117	0.142
-706.616	800.000	0.075	0.213
-705.602	-21.176	-0.089	-0.054
-704.587	-200.000	-0.023	0.103
-703.572	-200.000	0.034	0.151
-702.558	-47.304	-0.199	0.097
-701.543	-200.000	0.008	0.082
-700.529	335.219	-0.127	0.247
-699.514	-110.787	0.372	-0.077
-698.499	-145.403	-0.414	0.037
-697.485	55.443	-0.212	0.205
-696.470	40.598	-0.199	0.180
-695.456	-181.961	0.198	-0.004
-694.441	43.370	0.183	0.167
-693.426	-47.662	0.224	0.109
-692.412	223.251	-0.078	-0.126
-691.397	-90.830	-0.253	0.073
-690.383	13.434	0.066	0.051
-689.368	9.751	-0.249	-0.189
-688.354	154.349	-0.081	0.112
-687.339	-200.000	0.002	0.046
-686.324	-200.000	0.015	-0.116
-685.310	-23.271	0.201	-0.121
-684.295	-118.432	0.050	0.009
-683.281	452.449	-0.126	-0.279
-682.266	21.970	-0.390	-0.318
-681.251	304.147	0.137	-0.254
-680.237	-65.486	0.287	-0.115
-679.222	573.628	0.138	0.336
-678.208	-126.369	0.113	0.017
-677.193	-25.194	-0.032	-0.019
-676.178	5.421	-0.205	-0.151
-675.164	488.365	-0.100	-0.228
-674.149	-127.819	-0.253	-0.036
-673.135	-55.016	0.073	-0.033
-672.120	14.849	0.167	-0.130
-671.105	-200.000	0.009	0.086
-670.091	233.433	0.039	0.064
-669.076	-200.000	-0.031	-0.188
-668.062	-200.000	-0.021	0.172
-667.047	267.657	-0.151	-0.264
-666.032	-118.847	0.262	-0.046
-665.018	-2.617	0.050	0.035
-664.003	59.753	-0.355	0.350
-662.989	-116.482	0.524	-0.097
-661.974	60.031	0.097	-0.095
-660.959	98.449	-0.084	0.097
-659.945	-200.000	0.038	-0.190
-658.930	-200.000	0.012	-0.059
-657.916	10.294	-0.076	0.058
-656.901	-200.000	0.011	-0.298
-655.886	84.324	0.056	-0.061
-654.872	800.000	-0.038	0.158
-653.857	-200.000	0.042	-0.312
-652.843	-92.331	-0.220	0.062
-651.828	7.353	-0.237	-0.176
-650.814	443.501	-0.048	-0.105
-649.799	-200.000	0.007	-0.044
-648.784	57.877	-0.055	0.054
-647.770	9.838	-0.317	-0.240
-646.755	-200.000	0.003	-0.114
-645.741	479.708	-0.075	-0.169
-644.726	-94.500	-0.153	0.042
-643.711	800.000	-0.039	0.157
-642.697	463.482	0.143	0.318
-641.682	-187.020	0.347	0.005
-640.668	-92.951	0.228	-0.064
-639.653	183.108	-0.130	0.192
-638.638	-200.000	0.012	0.193
-637.624	355.129	-0.151	0.300
-636.609	-98.927	-0.027	0.007
-635.595	6.166	0.159	0.117
-634.580	-25.709	-0.170	-0.100
-633.565	-200.000	-0.024	0.149
-632.551	-53.298	-0.353	0.161
-631.536	110.218	0.117	-0.140
-630.522	108.504	-0.059	0.070
-629.507	-200.000	0.011	-0.147
-628.492	147.642	0.166	0.224
-627.478	-200.000	-0.034	0.205
-626.463	-34.166	0.395	-0.217
-625.449	84.024	0.138	0.150
-624.434	-200.000	0.103	-0.542
-623.419	-103.874	-0.129	0.030
-622.405	22.735	0.217	-0.177
-621.390	800.000	0.029	0.088
-620.376	-200.000	0.022	-0.181
-619.361	-32.863	-0.123	-0.068
-618.346	130.565	0.300	0.383
-617.332	228.123	-0.093	-0.152
-616.317	277.193	-0.199	-0.353
-615.303	-28.903	-0.223	0.128
-614.288	-135.045	0.289	0.035
-613.273	-108.344	0.153	-0.033
-612.259	-200.000	0.022	-0.204
-611.244	-200.000	-0.008	0.102
-610.230	-56.680	-0.228	-0.101
-609.215	303.290	0.050	0.092
-608.201	-114.659	0.396	-0.076
-607.186	-12.583	0.228	-0.148
-606.171	-111.921	-0.394	-0.079
-605.157	-200.000	-0.034	-0.239
-604.142	-200.000	0.045	0.202
-603.128	-127.585	0.184	0.027
-602.113	686.048	0.121	-0.316
-601.098	142.186	-0.107	-0.142
-600.084	-200.000	-0.031	-0.289
-599.069	-200.000	-0.017	0.180
-598.055	80.750	0.215	-0.231
-597.040	325.840	0.174	-0.333
-596.025	197.135	-0.131	0.199
-595.011	-86.964	-0.198	-0.060
-593.996	208.277	-0.021	0.032
-592.982	800.000	-0.156	0.493
-591.967	736.344	0.090	0.241
-590.952	-74.909	0.328	0.117
-589.938	-132.425	-0.197	0.025
-588.923	0.447	-0.093	0.067
-587.909	800.000	-0.075	-0.249
-586.894	126.835	0.098	-0.124
-585.879	28.037	-0.169	-0.142
-584.865	185.665	-0.067	-0.100
-583.850	92.911	-0.087	-0.098
-582.836	-200.000	0.008	-0.135
-581.821	619.086	-0.066	0.166
-580.806	671.655	0.020	-0.051
-579.792	-25.525	0.085	-0.050
-578.777	-16.157	-0.498	-0.315
-577.763	-86.066	0.271	-0.083
-576.748	57.790	0.099	-0.096
-575.733	-32.687	0.086	-0.048
-574.719	-200.000	0.065	-0.476
-573.704	-77.492	0.199	-0.069
-572.690	346.189	-0.072	-0.141
-571.675	460.443	0.072	0.160
-570.661	-96.592	0.141	-0.037
-569.646	-200.000	-0.018	-0.310
-568.631	51.714	0.316	-0.299
-567.617	416.973	-0.074	-0.157
-566.602	437.168	-0.044	0.095
-565.588	19.715	-0.076	0.061
-564.573	800.000	0.116	0.372
-563.558	-200.000	0.022	0.217
-562.544	55.446	0.126	-0.121
-561.529	-95.740	0.134	-0.036
-560.515	431.833	0.067	0.144
-559.500	-200.000	0.007	0.342
-558.485	124.836	0.104	-0.131
-557.471	-26.090	-0.226	-0.132
-556.456	213.513	-0.133	0.210
-555.442	100.902	0.037	-0.043
-554.427	6.137	0.192	0.142
-553.412	800.000	0.050	0.196
-552.398	36.155	0.188	0.165
-551.383	800.000	0.064	-0.220
-550.369	800.000	0.053	-0.167
-549.354	-146.138	0.313	0.027
-548.339	10.061	0.051	-0.038
-547.325	25.409	0.085	0.070
-546.310	274.874	0.191	0.336
-545.296	-195.576	-0.232	-0.002
-544.281	-138.537	-0.208	-0.023
-543.266	49.959	-0.267	0.250
-542.252	-77.091	-0.095	0.033
-541.237	-186.585	-0.102	0.001
-540.223	-30.281	0.150	-0.085
-539.208	-200.000	-0.040	-0.207
-538.193	800.000	-0.204	-0.570
-537.179	106.894	0.108	0.128
-536.164	-53.359	0.262	0.119
-535.150	-110.090	0.309	-0.064
-534.135	-200.000	0.002	-0.320
-533.121	27.652	0.132	-0.111
-532.106	740.710	-0.046	0.124
-531.091	31.572	0.258	-0.220
-530.077	800.000	0.026	-0.072
-529.062	-65.469	0.118	-0.047
-528.048	-137.188	-0.320	0.036
-527.033	-121.564	0.069	0.011
-526.018	-65.894	0.116	0.046
-525.004	594.852	0.021	-0.051
-523.989	432.295	0.097	-0.210
-522.975	800.000	0.069	-0.275
-521.960	138.367	-0.085	-0.111
-520.945	127.828	-0.204	0.257
-519.931	752.030	-0.099	-0.265
-518.916	358.003	-0.094	-0.187
-517.902	-200.000	-0.052	0.392
-516.887	48.567	0.052	0.048
-515.872	59.495	0.214	0.209
-514.858	-200.000	0.069	0.000
-513.843	-170.045	-0.160	0.006
-512.829	-200.000	-0.008	0.050
-511.814	-159.927	-0.415	-0.023
-510.799	18.387	0.080	0.063
-509.785	358.662	0.070	-0.139
-508.770	-57.274	0.062	0.027
-507.756	-9.124	0.242	-0.161
-506.741	-53.318	-0.276	0.126
-505.726	800.000	-0.028	-0.087
-504.712	-1.642	0.046	-0.032
-503.697	31.238	0.120	0.102
-502.683	211.075	0.090	-0.141
-501.668	-98.460	0.393	-0.100
-500.653	75.306	-0.092	-0.097
-499.639	-200.000	-0.031	-0.324
-498.624	-200.000	0.034	-0.175
-497.610	-94.852	-0.168	-0.045
-496.595	-65.872	0.315	-0.125
-495.581	-200.000	0.006	-0.422
-494.566	222.139	0.207	-0.330
-493.551	-67.487	-0.181	-0.070
-492.537	-76.069	0.236	-0.083
-491.522	-200.000	0.002	-0.358
-490.508	-3.939	-0.201	-0.139
-489.493	712.107	-0.086	0.226
-488.478	-83.139	-0.392	0.125
-487.464	-200.000	-0.020	-0.217
-486.449	-200.000	-0.065	-0.394
-485.435	-123.067	-0.083	-0.013
-484.420	25.325	0.037	-0.030
-483.405	-80.874	-0.272	0.090
-482.391	-191.964	-0.272	0.003
-481.376	46.747	0.178	-0.164
-480.362	204.108	-0.098	-0.151
-479.347	-159.268	-0.251	0.014
-478.332	155.335	0.140	0.191
-477.318	591.722	-0.069	0.170
-476.303	800.000	0.054	0.149
-475.289	-19.312	-0.120	0.074
-474.274	800.000	-0.040	-0.165
-473.259	-200.000	0.027	-0.299
-472.245	-88.971	0.141	0.041
-471.230	62.499	-0.171	-0.169
-470.216	-116.977	0.503	0.091
-469.201	-117.628	-0.109	0.019
-468.186	-33.009	-0.096	-0.053
-467.172	115.621	-0.258	-0.312
-466.157	533.868	0.042	0.098
-465.143	800.000	0.152	0.473
-464.128	243.274	0.186	0.309
-463.113	-79.454	-0.079	-0.026
-462.099	717.791	0.160	0.421
-461.084	197.268	0.070	0.105
-460.070	-200.000	0.004	-0.077
-459.055	131.676	-0.173	0.221
-458.040	-67.608	0.129	0.050
-457.026	700.841	0.100	0.262
-456.011	157.062	-0.049	0.067
-454.997	800.000	-0.007	0.026
-453.982	-71.666	-0.150	-0.056
-452.968	-136.476	-0.227	-0.026
-451.953	306.758	0.088	0.163
-450.938	144.576	0.172	0.227
-449.924	8.626	0.224	0.167
-448.909	-97.830	-0.244	0.063
-447.895	-200.000	0.052	-0.427
-446.880	100.342	0.297	0.341
-445.865	393.368	-0.047	0.097
-444.851	-200.000	0.000	0.051
-443.836	-124.852	-0.353	-0.054
-442.822	-75.019	-0.078	0.028
-441.807	-94.613	-0.280	-0.075
-440.792	41.261	0.282	0.253
-439.778	-117.937	-0.073	0.013
-438.763	256.274	-0.116	-0.197
-437.749	-200.000	-0.015	0.269
-436.734	-200.000	-0.017	-0.241
-435.719	78.007	-0.182	0.192
-434.705	-18.149	0.039	0.024
-433.690	-43.182	-0.350	-0.176
-432.676	106.544	0.141	0.165
-431.661	-56.106	-0.073	0.032
-430.646	-200.000	0.005	-0.108
-429.632	121.928	0.060	-0.074
-428.617	-200.000	0.008	0.246
-427.603	-200.000	0.018	0.134
-426.588	-80.217	0.279	-0.092
-425.573	-34.925	0.359	0.194
-424.559	293.635	-0.042	-0.076
-423.544	141.091	-0.191	0.249
-422.530	-133.309	-0.283	-0.035
-421.515	354.302	0.120	-0.236
-420.500	51.087	-0.375	0.352
-419.486	-200.000	-0.019	-0.243
-418.471	-24.207	0.183	-0.108
-417.457	-200.000	-0.005	-0.137
-416.442	209.482	0.207	0.320
-415.428	-95.987	0.274	-0.072
-414.413	386.971	0.080	0.163
-413.398	-54.726	-0.262	-0.117
-412.384	614.816	0.141	-0.351
-411.369	-103.623	-0.215	0.050
-410.355	-200.000	-0.023	0.311
-409.340	800.000	0.082	0.351
-408.325	800.000	-0.114	0.317
-407.311	-125.374	-0.325	0.049
-406.296	735.862	-0.051	-0.136
-405.282	800.000	-0.087	-0.302
-404.267	42.356	-0.104	0.093
-403.252	-55.752	-0.299	-0.132
-402.238	-84.324	-0.054	0.017
-401.223	-64.827	-0.080	-0.032
-400.209	156.498	0.087	0.118
-399.194	-161.320	0.294	0.015
-398.179	12.486	-0.120	-0.091
-397.165	-62.661	-0.044	0.018
-396.150	-86.818	-0.198	-0.060
-395.136	-46.551	-0.330	-0.160
-394.121	-4.081	-0.116	-0.080
-393.106	139.814	-0.221	-0.288
-392.092	83.461	-0.143	0.154
-391.077	-43.945	-0.011	-0.005
-390.063	487.255	0.130	0.292
-389.048	-200.000	-0.006	0.209
-388.033	-97.069	-0.077	0.020
-387.019	-147.834	0.291	0.024
-386.004	-76.208	-0.022	0.008
-384.990	512.338	-0.096	0.221
-383.975	-200.000	0.042	-0.261
-382.960	-14.569	0.396	0.252
-381.946	-200.000	-0.013	-0.232
-380.931	-200.000	0.015	-0.131
-379.917	524.326	0.081	-0.189
-378.902	800.000	0.032	-0.092
-377.888	-27.646	0.154	0.088
-376.873	104.954	0.082	0.095
-375.858	-32.846	-0.282	0.155
-374.844	-167.510	-0.140	-0.006
-373.829	-16.275	0.220	-0.138
-372.815	-146.552	-0.153	0.013
-371.800	-17.758	0.091	-0.057
-370.785	13.819	0.018	-0.014
-369.771	77.664	-0.044	0.046
-368.756	-130.937	-0.302	0.040
-367.742	-7.140	-0.229	-0.154
-366.727	45.511	0.100	0.091
-365.712	37.134	-0.089	0.078
-364.698	524.678	-0.083	0.194
-363.683	-29.533	-0.160	0.090
-362.669	-101.708	0.099	-0.024
-361.654	183.194	-0.212	-0.309
-360.639	73.779	-0.082	-0.085
-359.625	106.797	-0.091	0.107
-358.610	-50.371	-0.292	0.136
-357.596	-26.586	0.199	0.115
-356.581	-10.149	0.181	0.118
-355.566	-200.000	-0.039	-0.253
-354.552	-81.593	-0.116	0.038
-353.537	-113.697	-0.514	0.099
-352.523	-136.964	0.232	0.026
-351.508	-129.690	0.147	-0.020
-350.493	-119.068	-0.222	-0.038
-349.479	-126.253	0.309	0.046
-348.464	-93.613	-0.145	-0.040
-347.450	-165.519	-0.276	-0.012
-346.435	441.650	-0.092	-0.199
-345.420	103.352	0.025	-0.029
-344.406	-126.187	0.489	0.072
-343.391	-135.934	0.144	-0.017
-342.377	-38.638	-0.228	0.119
-341.362	-0.843	-0.171	-0.120
-340.348	289.234	-0.022	-0.039
-339.333	141.471	-0.250	0.327
-338.318	-119.957	0.174	-0.029
-337.304	-200.000	-0.017	-0.264
-336.289	-20.732	0.294	-0.178
-335.275	-44.178	0.093	-0.046
-334.260	296.115	0.018	0.032
-333.245	-60.606	-0.101	-0.042
-332.231	-134.619	-0.183	-0.022
-331.216	43.564	-0.081	0.073
-330.202	64.946	0.087	-0.087
-329.187	-61.202	-0.183	0.076
-328.172	189.687	-0.089	-0.132
-327.158	153.552	0.232	0.313
-326.143	-200.000	-0.036	0.294
-325.129	139.584	-0.241	0.312
-324.114	268.578	0.088	0.152
-323.099	800.000	0.234	0.640
-322.085	-133.110	0.334	-0.042
-321.070	134.626	-0.199	-0.255
-320.056	-164.484	0.087	-0.004
-319.041	-16.275	-0.163	0.102
-318.026	-88.705	-0.238	0.070
-317.012	-6.663	-0.215	-0.144
-315.997	-192.168	0.147	-0.001
-314.983	800.000	0.054	-0.207
-313.968	-200.000	-0.047	-0.233
-312.953	-52.823	0.271	0.123
-311.939	123.268	-0.044	-0.055
-310.924	13.647	-0.206	0.158
-309.910	-200.000	0.051	0.417
-308.895	-91.286	0.138	-0.039
-307.880	134.136	-0.052	0.066
-306.866	-200.000	-0.072	-0.363
-305.851	-78.469	-0.181	-0.061
-304.837	-200.000	-0.005	-0.087
-303.822	232.212	0.051	-0.082
-302.807	-200.000	-0.002	0.022
-301.793	134.460	0.168	-0.214
-300.778	-200.000	-0.013	0.232
-299.764	-104.934	0.194	0.044
-298.749	319.791	0.155	0.290
-297.735	58.883	0.141	0.136
-296.720	-200.000	0.021	-0.222
-295.705	-101.140	0.163	-0.039
-294.691	144.776	-0.179	-0.235
-293.676	460.674	0.113	-0.248
-292.662	24.304	0.323	0.263
-291.647	536.284	0.069	-0.161
-290.632	-200.000	0.007	0.135
-289.618	-146.797	0.499	0.042
-288.603	800.000	0.106	0.438
-287.589	38.384	0.085	-0.075
-286.574	-106.097	0.234	-0.052
-285.559	-12.523	0.067	-0.043
-284.545	-80.085	0.114	-0.038
-283.530	-125.370	-0.226	0.034
-282.516	-200.000	-0.001	0.016
-281.501	-135.362	0.138	0.016
-280.486	27.710	-0.058	0.048
-279.472	-169.436	0.306	-0.011
-278.457	800.000	-0.193	-0.569
-277.443	-125.771	-0.363	-0.054
-276.428	-152.432	-0.243	-0.017
-275.413	-200.000	-0.004	-0.018
-274.399	-142.284	-0.108	-0.011
-273.384	264.054	0.103	-0.177
-272.370	13.839	0.042	0.032
-271.355	-157.992	0.405	-0.024
-270.340	-200.000	-0.007	-0.274
-269.326	-46.531	-0.156	0.075
-268.311	128.526	-0.219	0.274
-267.297	207.604	0.094	0.144
-266.282	-200.000	0.028	0.145
-265.267	800.000	-0.057	-0.211
-264.253	-200.000	-0.056	-0.261
-263.238	-54.597	-0.421	0.187
-262.224	-2.901	0.246	-0.169
-261.209	170.629	0.100	-0.142
-260.195	711.772	0.097	-0.253
-259.180	47.153	0.120	-0.110
-258.165	34.042	-0.130	-0.112
-257.151	-104.724	0.361	0.082
-256.136	-145.871	-0.140	0.012
-255.122	152.977	-0.110	0.147
-254.107	-119.919	0.181	-0.031
-253.092	90.903	0.203	0.224
-252.078	-200.000	-0.005	0.267
-251.063	-200.000	0.032	0.502
-250.049	352.118	-0.069	0.134
-249.034	-200.000	0.027	-0.256
-248.019	168.573	0.108	-0.151
-247.005	115.066	-0.257	0.308
-245.990	-200.000	-0.004	0.129
-244.976	-88.332	-0.313	-0.092
-243.961	800.000	0.079	0.271
-242.946	23.434	-0.240	0.194
-241.932	-116.823	-0.015	0.003
-240.917	66.105	0.329	0.328
-239.903	-152.566	0.260	0.018
-238.888	264.096	-0.100	-0.171
-237.873	-120.772	0.033	-0.005
-236.859	437.091	0.167	0.357
-235.844	-200.000	0.010	-0.256
-234.830	-200.000	0.064	0.475
-233.815	306.405	0.063	0.116
-232.800	78.427	-0.155	0.163
-231.786	-67.542	0.370	-0.143
-230.771	-30.183	-0.153	-0.086
-229.757	-122.556	0.416	0.066
-228.742	-40.839	0.218	0.111
-227.727	91.543	0.217	0.240
-226.713	-200.000	-0.015	0.086
-225.698	-104.146	-0.095	-0.022
-224.684	149.000	-0.185	-0.245
-223.669	486.528	-0.131	-0.294
-222.655	-146.593	-0.279	-0.024
-221.640	558.715	0.052	-0.123
-220.625	384.722	0.054	-0.110
-219.611	-10.094	0.230	0.150
-218.596	71.053	-0.183	0.186
-217.582	-28.914	-0.048	0.027
-216.567	-200.000	0.061	0.296
-215.552	-134.987	0.342	-0.041
-214.538	-200.000	-0.049	0.233
-213.523	274.621	0.156	-0.272
-212.509	-86.060	-0.015	0.005
-211.494	-200.000	-0.032	0.290
-210.479	800.000	-0.101	-0.281
-209.465	-22.605	0.226	-0.134
-208.450	-200.000	-0.032	0.294
-207.436	-74.631	-0.428	0.151
-206.421	-45.341	0.343	0.167
-205.406	39.145	0.376	0.330
-204.392	-95.156	-0.376	-0.099
-203.377	-200.000	-0.036	0.308
-202.363	-127.253	0.218	-0.031
-201.348	800.000	0.126	-0.362
-200.333	-157.837	-0.229	0.013
-199.319	-61.268	-0.240	-0.099
-198.304	679.902	-0.119	-0.304
-197.290	-78.705	-0.211	-0.071
-196.275	800.000	0.052	0.210
-195.260	-143.530	-0.285	0.027
-194.246	-107.151	0.276	0.060
-193.231	800.000	-0.048	0.176
-192.217	79.923	0.187	0.197
-191.202	73.170	-0.082	-0.085
-190.187	139.880	0.104	0.135
-189.173	-157.978	0.316	0.018
-188.158	10.808	-0.262	0.196
-187.144	-200.000	-0.055	0.540
-186.129	-200.000	0.040	0.220
-185.114	439.199	-0.169	-0.362
-184.100	-200.000	-0.025	-0.296
-183.085	116.058	-0.169	0.203
-182.071	800.000	0.083	-0.331
-181.056	800.000	-0.058	-0.185
-180.042	319.458	-0.084	0.156
-179.027	-200.000	-0.064	0.282
-178.012	-23.650	0.173	0.102
-176.998	-200.000	-0.072	-0.388
-175.983	-27.480	-0.204	-0.116
-174.969	800.000	0.099	0.419
-173.954	180.517	-0.153	-0.221
-172.939	247.111	0.127	-0.211
-171.925	119.404	-0.107	-0.130
-170.910	800.000	-0.027	0.080
-169.896	28.481	-0.331	-0.274
-168.881	-200.000	0.107	-0.703
-167.866	-70.403	-0.194	-0.072
-166.852	-200.000	-0.013	0.117
-165.837	610.828	0.141	-0.346
-164.823	377.714	0.091	0.182
-163.808	196.785	-0.033	0.050
-162.793	-200.000	0.009	-0.128
-161.779	-200.000	0.009	-0.048
-160.764	25.120	0.055	-0.045
-159.750	155.523	-0.102	-0.137
-158.735	4.572	0.505	0.363
-157.720	131.211	-0.202	0.255
-156.706	800.000	-0.082	-0.290
-155.691	-124.174	-0.315	-0.048
-154.677	-75.958	0.321	-0.111
-153.662	-96.486	-0.169	-0.044
-152.647	151.484	-0.120	0.160
-151.633	-33.255	-0.487	0.264
-150.618	-200.000	-0.017	0.117
-149.604	-7.445	-0.092	-0.061
-148.589	179.277	0.098	0.141
-147.574	128.352	-0.083	0.104
-146.560	-200.000	0.003	0.154
-145.545	800.000	0.033	-0.131
-144.531	-27.478	-0.018	0.010
-143.516	800.000	-0.028	-0.082
-142.502	374.789	-0.016	-0.031
-141.487	557.507	-0.191	0.450
-140.472	500.968	0.175	0.394
-139.458	195.688	0.083	0.123
-138.443	70.482	-0.192	0.195
-137.429	-11.205	-0.176	0.114
-136.414	-200.000	-0.043	0.272
-135.399	800.000	-0.007	-0.024
-134.385	-127.716	-0.198	0.028
-133.370	-87.827	0.125	0.037
-132.356	-60.627	-0.156	0.065
-131.341	323.007	0.195	0.363
-130.326	-200.000	-0.028	0.203
-129.312	800.000	0.103	-0.397
-128.297	-200.000	-0.002	0.137
-127.283	71.497	0.080	-0.081
-126.268	71.587	-0.059	0.060
-125.253	-13.121	0.028	-0.018
-124.239	800.000	0.067	0.218
-123.224	135.439	0.030	0.039
-122.210	196.680	0.132	-0.197
