DTS Sentinel unit serial number:	SN413079Multiplexer serial number:	ORYXHardware model number:	OX4-SRSoftware version number:	ORYX F/W v4.00 Oryx Data Collector v3.7.2.0data status	okinstallation	princeton_trtdifferential loss correction	single-endedforward channel	channel 1reverse channel	N/Adate	2019/09/14time	09:10:35forward acquisition time	60.00reverse acquisition time	0.00gamma	496.2192k internal	0.2325k external	0.2325temperature offset calibration	1.0069default loss term (dB/km)	0.3790temperature slope calibration	1.0000multiplexer offset coefficient	1.0000multiplexer slope coefficient	1.0000fibre end	0.00T internal ref (°C)	30.47T ext. ref 1 (°C)	3.77T ext. ref 2 (°C)	28.50length (m)	temperature (°C)	Stokes	anti-Stokes-747.200	5.503	0.143	0.106
-746.185	20.933	-0.174	0.143
-745.171	16.342	0.165	-0.131
-744.156	-76.473	-0.243	0.086
-743.142	800.000	-0.110	-0.350
-742.127	800.000	0.029	0.100
-741.112	-200.000	-0.021	-0.104
-740.098	-34.240	0.227	-0.126
-739.083	516.700	-0.058	-0.138
-738.069	-200.000	-0.079	0.499
-737.054	-44.014	-0.138	0.070
-736.039	8.637	-0.074	0.056
-735.025	-100.654	0.082	-0.020
-734.010	-10.764	-0.314	-0.210
-732.996	658.313	0.072	-0.186
-731.981	-77.162	-0.163	-0.057
-730.966	800.000	0.097	0.302
-729.952	800.000	-0.096	-0.267
-728.937	392.345	0.085	-0.178
-727.923	-11.057	-0.277	-0.185
-726.908	-148.712	-0.135	-0.011
-725.894	-78.414	0.173	-0.060
-724.879	-200.000	-0.036	-0.232
-723.864	6.744	-0.044	0.033
-722.850	80.910	-0.206	-0.224
-721.835	-200.000	0.014	0.158
-720.821	-200.000	-0.050	-0.232
-719.806	457.044	0.105	-0.236
-718.791	-200.000	-0.003	-0.293
-717.777	255.170	0.102	-0.176
-716.762	1.127	-0.051	0.037
-715.748	8.009	0.117	-0.088
-714.733	-167.857	-0.238	0.009
-713.718	-200.000	0.068	0.303
-712.704	-200.000	-0.041	-0.202
-711.689	109.040	-0.151	-0.182
-710.675	249.775	-0.082	-0.140
-709.660	119.231	-0.034	0.042
-708.645	-64.885	-0.275	-0.112
-707.631	125.308	-0.221	0.281
-706.616	-59.829	0.117	0.050
-705.602	11.571	0.224	-0.173
-704.587	198.153	0.108	-0.167
-703.572	800.000	0.122	-0.505
-702.558	117.629	-0.170	0.211
-701.543	-118.190	0.460	0.083
-700.529	-46.797	-0.651	-0.321
-699.514	800.000	0.070	-0.277
-698.499	-200.000	-0.006	-0.118
-697.485	73.026	0.056	-0.059
-696.470	498.961	0.142	-0.329
-695.456	-200.000	0.005	-0.251
-694.441	82.850	0.218	0.238
-693.426	83.394	0.099	-0.109
-692.412	-200.000	0.009	0.072
-691.397	-180.681	0.137	-0.003
-690.383	-200.000	0.000	-0.181
-689.368	-78.532	-0.372	0.128
-688.354	111.048	0.267	-0.324
-687.339	800.000	0.038	-0.157
-686.324	-200.000	0.027	-0.145
-685.310	102.852	-0.223	0.262
-684.295	-200.000	0.006	-0.163
-683.281	359.742	0.110	0.221
-682.266	-61.383	0.145	0.061
-681.251	-200.000	0.057	-0.263
-680.237	-200.000	-0.009	-0.400
-679.222	213.657	-0.071	-0.112
-678.208	-110.134	0.121	0.025
-677.193	335.053	0.032	0.062
-676.178	-164.679	0.234	0.011
-675.164	800.000	0.073	0.234
-674.149	-16.998	0.346	-0.220
-673.135	-200.000	-0.027	0.124
-672.120	-89.627	-0.425	0.125
-671.105	-200.000	0.026	-0.297
-670.091	-99.959	0.137	0.034
-669.076	258.519	-0.190	0.330
-668.062	-101.366	-0.139	-0.034
-667.047	56.355	0.095	-0.093
-666.032	374.943	-0.116	-0.238
-665.018	-200.000	-0.019	-0.446
-664.003	-200.000	-0.038	-0.199
-662.989	71.266	0.094	0.098
-661.974	-120.486	0.225	0.038
-660.959	443.337	-0.069	-0.153
-659.945	-84.935	-0.130	0.041
-658.930	97.842	0.102	0.118
-657.916	7.949	0.244	0.184
-656.901	-75.009	-0.406	0.146
-655.886	800.000	-0.018	-0.064
-654.872	-200.000	-0.022	-0.122
-653.857	-78.855	-0.377	-0.129
-652.843	-200.000	-0.009	-0.525
-651.828	-151.817	-0.264	-0.019
-650.814	168.504	-0.145	0.208
-649.799	-200.000	-0.032	-0.224
-648.784	-120.385	0.201	0.034
-647.770	800.000	-0.031	-0.127
-646.755	211.305	-0.097	-0.154
-645.741	-67.160	0.348	-0.138
-644.726	84.936	0.074	-0.082
-643.711	353.399	0.212	0.422
-642.697	56.270	-0.149	-0.146
-641.682	-171.056	-0.288	-0.010
-640.668	43.253	-0.225	0.207
-639.653	-200.000	0.006	-0.480
-638.638	93.676	0.230	-0.262
-637.624	52.733	-0.056	0.054
-636.609	-200.000	-0.003	0.135
-635.595	-200.000	0.009	0.116
-634.580	540.173	-0.067	0.161
-633.565	800.000	-0.030	0.106
-632.551	124.482	-0.138	0.175
-631.536	212.704	0.116	-0.184
-630.522	800.000	-0.073	0.286
-629.507	-118.211	-0.142	0.025
-628.492	-127.484	-0.240	-0.035
-627.478	95.564	-0.123	0.141
-626.463	-200.000	0.025	-0.222
-625.449	-111.911	0.226	0.046
-624.434	-200.000	0.061	-0.305
-623.419	-140.845	0.348	0.036
-622.405	-200.000	-0.028	0.205
-621.390	-40.774	0.055	0.029
-620.376	-151.448	-0.179	-0.013
-619.361	-16.151	-0.285	0.182
-618.346	-2.654	-0.349	-0.245
-617.332	191.797	0.156	0.236
-616.317	-141.704	0.062	0.006
-615.303	151.784	0.190	0.260
-614.288	605.049	0.081	0.203
-613.273	21.489	-0.272	-0.222
-612.259	173.320	0.046	-0.067
-611.244	800.000	-0.025	-0.075
-610.230	-33.141	-0.216	0.120
-609.215	22.900	-0.150	-0.124
-608.201	157.479	-0.170	-0.237
-607.186	125.094	0.087	0.111
-606.171	-200.000	-0.001	0.122
-605.157	-200.000	-0.028	0.244
-604.142	-104.233	0.327	0.076
-603.128	138.941	-0.152	0.201
-602.113	67.424	-0.063	-0.065
-601.098	112.632	-0.241	0.293
-600.084	295.668	0.008	-0.014
-599.069	71.877	0.052	0.054
-598.055	-49.635	-0.236	-0.113
-597.040	-4.634	-0.215	-0.149
-596.025	-164.689	-0.164	-0.007
-595.011	29.907	-0.111	0.095
-593.996	800.000	0.103	-0.387
-592.982	711.816	0.157	-0.417
-591.967	800.000	-0.061	0.220
-590.952	-169.889	0.191	-0.007
-589.938	676.110	0.019	-0.049
-588.923	-81.176	-0.218	0.072
-587.909	-126.233	-0.284	0.043
-586.894	101.259	-0.182	-0.213
-585.879	603.704	0.059	0.146
-584.865	-98.012	-0.093	0.024
-583.850	21.636	0.185	0.151
-582.836	-41.254	0.078	0.040
-581.821	263.863	-0.114	-0.199
-580.806	155.443	-0.281	0.387
-579.792	800.000	-0.037	0.131
-578.777	-22.477	0.135	0.082
-577.763	-100.963	-0.148	-0.036
-576.748	-77.370	0.088	0.031
-575.733	189.597	-0.093	-0.139
-574.719	6.919	0.133	-0.099
-573.704	139.458	-0.184	-0.243
-572.690	-118.215	-0.400	-0.071
-571.675	-11.222	0.310	-0.205
-570.661	800.000	-0.118	0.357
-569.646	800.000	0.088	0.293
-568.631	-200.000	-0.006	0.028
-567.617	-99.598	0.051	0.013
-566.602	-36.236	-0.060	-0.033
-565.588	609.363	0.101	0.252
-564.573	-35.098	0.240	0.131
-563.558	-144.379	0.164	-0.015
-562.544	-124.546	0.113	0.018
-561.529	46.947	-0.260	-0.242
-560.515	-200.000	0.012	0.134
-559.500	-50.043	-0.296	-0.141
-558.485	495.535	0.008	0.018
-557.471	-30.161	0.258	0.147
-556.456	367.190	-0.057	0.115
-555.442	-74.857	0.154	-0.055
-554.427	155.455	0.150	-0.206
-553.412	35.762	-0.153	0.134
-552.398	253.605	0.083	-0.143
-551.383	-24.385	-0.229	0.137
-550.369	248.253	0.141	0.239
-549.354	547.886	0.040	-0.096
-548.339	-29.247	0.132	0.076
-547.325	-134.835	-0.334	-0.041
-546.310	534.192	-0.084	0.199
-545.296	418.070	0.235	0.504
-544.281	-200.000	0.008	0.387
-543.266	299.896	-0.129	0.238
-542.252	91.624	0.390	-0.439
-541.237	350.930	0.096	-0.191
-540.223	-47.115	0.223	0.109
-539.208	-101.080	-0.184	-0.045
-538.193	314.216	-0.109	-0.205
-537.179	383.002	-0.109	0.225
-536.164	59.360	0.152	-0.150
-535.150	-76.739	0.155	-0.054
-534.135	85.934	-0.117	-0.129
-533.121	-112.226	0.149	-0.030
-532.106	-198.710	0.087	-0.000
-531.091	-12.211	-0.063	-0.041
-530.077	-145.001	-0.167	0.015
-529.062	-45.005	-0.180	-0.090
-528.048	-66.927	-0.205	0.081
-527.033	-200.000	-0.027	-0.179
-526.018	-44.785	-0.347	0.173
-525.004	57.620	-0.200	-0.196
-523.989	-39.228	0.154	0.081
-522.975	800.000	-0.097	-0.381
-521.960	-118.416	0.040	-0.007
-520.945	1.859	0.212	-0.153
-519.931	800.000	0.060	-0.241
-518.916	32.445	-0.120	-0.103
-517.902	-1.890	-0.071	-0.050
-516.887	744.684	0.093	-0.251
-515.872	-126.276	0.457	0.068
-514.858	800.000	0.021	-0.071
-513.843	800.000	-0.046	-0.178
-512.829	184.982	-0.130	-0.192
-511.814	44.913	0.188	0.173
-510.799	154.602	-0.136	-0.187
-509.785	22.626	-0.270	0.221
-508.770	800.000	-0.008	0.035
-507.756	-24.896	-0.020	-0.012
-506.741	18.325	-0.062	-0.049
-505.726	-46.988	-0.247	-0.121
-504.712	154.428	0.082	0.112
-503.697	-36.957	-0.240	-0.128
-502.683	785.127	0.075	-0.205
-501.668	800.000	-0.049	-0.155
-500.653	-28.812	-0.125	0.072
-499.639	800.000	0.096	-0.278
-498.624	293.421	-0.090	0.164
-497.610	217.977	0.022	-0.035
-496.595	163.653	0.143	0.201
-495.581	283.973	0.044	0.079
-494.566	800.000	0.041	-0.130
-493.551	138.047	0.108	-0.141
-492.537	-59.459	-0.093	-0.040
-491.522	800.000	-0.067	0.239
-490.508	36.622	0.170	-0.150
-489.493	-83.174	0.191	-0.061
-488.478	-97.859	-0.300	-0.077
-487.464	-61.610	0.229	-0.096
-486.449	-200.000	-0.022	0.225
-485.435	-134.733	-0.056	0.007
-484.420	250.948	0.057	0.097
-483.405	509.243	0.095	-0.221
-482.391	52.324	0.139	-0.133
-481.376	-86.476	0.137	-0.042
-480.362	19.864	0.229	-0.184
-479.347	-134.614	-0.365	0.044
-478.332	370.920	-0.009	0.018
-477.318	-200.000	-0.011	-0.072
-476.303	1.590	0.246	-0.177
-475.289	49.302	-0.131	0.123
-474.274	13.864	0.082	-0.064
-473.259	3.140	-0.133	0.097
-472.245	-200.000	0.005	-0.332
-471.230	-200.000	0.032	-0.164
-470.216	-92.269	-0.191	-0.054
-469.201	260.738	0.092	-0.158
-468.186	130.129	-0.051	-0.066
-467.172	-18.922	0.085	0.052
-466.157	-73.876	-0.115	0.042
-465.143	53.161	0.211	0.202
-464.128	257.015	0.395	0.677
-463.113	-118.558	-0.186	-0.033
-462.099	72.774	0.183	0.191
-461.084	-51.205	-0.304	-0.142
-460.070	8.421	0.157	-0.118
-459.055	333.877	0.124	-0.239
-458.040	800.000	0.079	0.261
-457.026	-167.198	0.131	0.005
-456.011	-71.319	0.102	-0.038
-454.997	-17.920	-0.099	-0.062
-453.982	126.600	0.298	0.376
-452.968	-65.435	-0.133	0.053
-451.953	102.189	0.164	-0.191
-450.938	9.827	-0.190	-0.144
-449.924	13.673	-0.201	-0.156
-448.909	-175.862	-0.132	0.004
-447.895	-200.000	-0.033	-0.196
-446.880	-65.311	0.352	-0.141
-445.865	-123.957	0.290	-0.046
-444.851	-3.673	0.196	-0.136
-443.836	-98.311	-0.203	-0.052
-442.822	-200.000	0.050	-0.264
-441.807	177.003	0.215	-0.313
-440.792	771.252	0.073	0.199
-439.778	800.000	-0.020	0.062
-438.763	36.665	0.265	-0.233
-437.749	-140.798	-0.495	0.051
-436.734	-200.000	-0.033	-0.209
-435.719	-200.000	0.011	-0.091
-434.705	550.754	0.119	0.284
-433.690	-200.000	0.015	0.152
-432.676	-138.547	-0.080	-0.009
-431.661	-4.770	0.265	-0.182
-430.646	395.245	0.047	0.097
-429.632	28.950	-0.421	-0.356
-428.617	800.000	-0.010	0.039
-427.603	-128.666	0.538	-0.076
-426.588	-200.000	0.013	-0.205
-425.573	79.313	0.225	-0.240
-424.559	800.000	-0.117	0.323
-423.544	-88.382	0.304	-0.091
-422.530	-78.047	-0.233	0.080
-421.515	-114.094	0.319	0.061
-420.500	-62.657	0.146	0.061
-419.486	-2.886	0.257	0.179
-418.471	105.715	0.152	0.179
-417.457	7.726	0.324	0.242
-416.442	-200.000	0.021	0.312
-415.428	192.480	-0.111	0.167
-414.413	800.000	-0.152	-0.442
-413.398	800.000	-0.071	-0.201
-412.384	800.000	-0.097	-0.290
-411.369	-157.449	0.298	-0.018
-410.355	11.177	-0.216	0.165
-409.340	-25.697	-0.165	0.097
-408.325	-200.000	0.025	-0.115
-407.311	333.774	0.082	0.158
-406.296	208.047	0.088	0.136
-405.282	-23.362	0.088	0.053
-404.267	-125.390	0.269	0.041
-403.252	-72.522	-0.116	0.043
-402.238	-140.478	-0.104	-0.011
-401.223	106.551	-0.046	-0.055
-400.209	-200.000	0.029	0.198
-399.194	67.812	0.190	-0.193
-398.179	244.222	0.144	0.241
-397.165	-200.000	0.001	-0.046
-396.150	-158.318	0.150	0.009
-395.136	65.716	-0.142	0.143
-394.121	-88.236	-0.174	0.052
-393.106	23.891	-0.177	0.145
-392.092	-200.000	0.002	0.113
-391.077	800.000	-0.038	-0.118
-390.063	-200.000	0.106	0.000
-389.048	126.579	-0.055	0.069
-388.033	-200.000	0.093	-0.519
-387.019	-128.105	0.108	0.015
-386.004	-200.000	-0.049	0.266
-384.990	-200.000	-0.014	0.316
-383.975	-17.241	0.304	-0.191
-382.960	-200.000	0.014	-0.197
-381.946	-100.912	-0.025	0.006
-380.931	-200.000	0.218	-0.001
-379.917	23.743	0.082	0.067
-378.902	-64.365	0.224	0.091
-377.888	37.742	0.177	0.156
-376.873	329.859	0.077	0.148
-375.858	-200.000	-0.028	-0.227
-374.844	60.767	0.133	0.131
-373.829	-200.000	0.018	-0.298
-372.815	-200.000	0.015	-0.385
-371.800	27.882	0.176	0.147
-370.785	800.000	0.033	0.120
-369.771	-76.982	0.127	0.044
-368.756	-6.032	0.253	-0.172
-367.742	-200.000	0.021	0.105
-366.727	-60.459	-0.294	-0.124
-365.712	-125.719	0.160	0.024
-364.698	-142.724	0.240	-0.023
-363.683	-78.754	0.173	0.059
-362.669	-54.104	-0.082	0.037
-361.654	-24.942	-0.164	-0.097
-360.639	-185.887	0.132	-0.002
-359.625	-152.910	-0.105	0.007
-358.610	169.141	-0.041	0.058
-357.596	-113.467	-0.159	-0.031
-356.581	-129.300	0.218	-0.030
-355.566	101.040	-0.215	-0.249
-354.552	-41.008	-0.106	-0.054
-353.537	-103.371	0.102	0.024
-352.523	-66.252	0.495	0.196
-351.508	-40.372	0.219	0.113
-350.493	146.812	-0.274	0.366
-349.479	118.770	-0.201	0.247
-348.464	-200.000	0.014	0.126
-347.450	-200.000	0.047	-0.277
-346.435	-200.000	-0.035	0.432
-345.420	-50.681	0.088	0.041
-344.406	-66.710	-0.235	0.093
-343.391	-140.087	-0.326	-0.034
-342.377	-10.883	-0.189	0.124
-341.362	-114.317	-0.218	-0.042
-340.348	53.732	0.249	0.237
-339.333	-65.697	0.277	-0.110
-338.318	800.000	0.034	0.099
-337.304	-63.867	0.193	0.079
-336.289	15.630	-0.262	0.204
-335.275	278.354	-0.127	-0.224
-334.260	-63.688	-0.104	0.042
-333.245	327.593	-0.097	-0.184
-332.231	800.000	-0.033	-0.118
-331.216	14.400	0.324	0.251
-330.202	-23.758	-0.050	-0.030
-329.187	408.705	-0.108	0.227
-328.172	-55.831	-0.240	-0.106
-327.158	-95.603	-0.207	-0.055
-326.143	-13.031	-0.046	0.030
-325.129	-200.000	0.027	-0.366
-324.114	-136.767	-0.538	0.062
-323.099	-200.000	-0.003	-0.063
-322.085	40.383	0.124	-0.111
-321.070	23.826	-0.276	0.226
-320.056	-200.000	0.026	-0.225
-319.041	-200.000	-0.006	-0.029
-318.026	-152.245	-0.238	-0.017
-317.012	-200.000	-0.014	0.276
-315.997	499.279	0.262	0.598
-314.983	258.389	-0.193	0.330
-313.968	-181.779	0.093	0.002
-312.953	128.536	-0.166	0.210
-311.939	800.000	0.024	0.075
-310.924	328.779	0.031	-0.059
-309.910	-105.249	0.136	0.031
-308.895	543.622	-0.072	0.171
-307.880	-200.000	0.078	-0.408
-306.866	13.562	0.343	0.264
-305.851	123.774	-0.068	0.085
-304.837	-200.000	0.006	0.211
-303.822	84.283	-0.088	0.096
-302.807	-161.073	0.182	0.009
-301.793	-200.000	-0.003	-0.391
-300.778	332.017	0.146	-0.280
-299.764	53.265	0.272	-0.258
-298.749	-75.664	0.217	0.076
-297.735	293.248	0.047	-0.085
-296.720	-29.073	-0.129	-0.074
-295.705	50.281	0.111	-0.104
-294.691	242.554	0.088	0.146
-293.676	21.398	0.237	0.191
-292.662	82.575	0.033	-0.035
-291.647	-156.707	-0.024	0.001
-290.632	800.000	0.092	-0.275
-289.618	-16.706	0.124	0.078
-288.603	28.870	-0.231	-0.194
-287.589	-65.344	-0.099	0.039
-286.574	53.342	-0.295	-0.280
-285.559	800.000	-0.041	-0.144
-284.545	-92.976	-0.166	-0.046
-283.530	-107.600	-0.334	0.072
-282.516	800.000	-0.052	-0.195
-281.501	-120.448	0.212	-0.036
-280.486	800.000	0.016	-0.046
-279.472	-120.098	0.215	-0.037
-278.457	-45.666	-0.158	-0.078
-277.443	-200.000	0.014	0.064
-276.428	-200.000	-0.044	0.362
-275.413	174.308	-0.160	-0.229
-274.399	245.484	-0.163	-0.272
-273.384	-200.000	0.019	0.147
-272.370	-172.649	-0.104	0.003
-271.355	-13.378	0.213	-0.137
-270.340	37.909	-0.043	0.038
-269.326	249.324	0.137	0.230
-268.311	-146.649	-0.383	0.033
-267.297	87.088	0.053	0.058
-266.282	-50.940	-0.211	0.098
-265.267	35.529	0.051	0.044
-264.253	-200.000	0.042	-0.185
-263.238	800.000	-0.031	-0.116
-262.224	-3.087	-0.093	-0.064
-261.209	-38.878	0.085	-0.044
-260.195	91.208	-0.124	0.138
-259.180	370.005	0.137	0.275
-258.165	245.758	-0.074	-0.123
-257.151	-200.000	0.025	-0.116
-256.136	67.108	0.274	-0.276
-255.122	28.798	0.149	0.125
-254.107	-4.659	0.417	0.285
-253.092	20.141	0.198	0.158
-252.078	-200.000	-0.030	0.322
-251.063	17.165	-0.122	-0.096
-250.049	669.299	-0.066	-0.169
-249.034	-19.823	-0.223	-0.136
-248.019	800.000	-0.006	-0.021
-247.005	79.668	-0.169	-0.180
-245.990	189.282	0.003	-0.005
-244.976	231.298	-0.220	0.356
-243.961	105.983	0.186	0.218
-242.946	-162.852	-0.286	0.014
-241.932	800.000	-0.021	-0.075
-240.917	56.694	-0.120	0.116
-239.903	-95.505	-0.016	-0.004
-238.888	605.988	-0.067	-0.166
-237.873	-143.928	-0.133	0.012
-236.859	769.775	0.023	0.061
-235.844	143.988	0.037	0.049
-234.830	-89.377	-0.326	-0.095
-233.815	217.125	0.028	-0.044
-232.800	-200.000	-0.013	0.302
-231.786	-200.000	0.056	0.343
-230.771	467.096	-0.135	-0.298
-229.757	-27.413	0.299	0.172
-228.742	778.427	-0.039	-0.104
-227.727	438.420	0.160	-0.346
-226.713	-200.000	-0.005	-0.198
-225.698	582.091	0.136	-0.330
-224.684	506.074	-0.013	0.031
-223.669	447.154	0.081	-0.175
-222.655	-127.172	0.143	-0.021
-221.640	-200.000	-0.023	0.150
-220.625	493.289	-0.045	-0.102
-219.611	11.318	0.194	-0.147
-218.596	51.525	0.138	-0.130
-217.582	-200.000	0.016	0.305
-216.567	-118.549	0.300	-0.052
-215.552	-200.000	-0.000	-0.041
-214.538	-200.000	0.011	0.067
-213.523	92.229	-0.076	0.085
-212.509	93.526	0.057	0.064
-211.494	39.877	-0.095	-0.084
-210.479	-31.277	0.038	-0.021
-209.465	169.721	-0.055	0.078
-208.450	294.278	-0.136	0.245
-207.436	363.450	-0.120	0.238
-206.421	77.090	0.261	-0.274
-205.406	-188.580	0.209	-0.003
-204.392	-187.408	-0.323	0.004
-203.377	193.695	0.262	0.392
-202.363	-36.392	0.208	0.111
-201.348	-200.000	-0.068	-0.454
-200.333	800.000	-0.091	0.318
-199.319	800.000	0.011	0.039
-198.304	-121.761	-0.024	0.004
-197.290	800.000	0.092	-0.293
-196.275	-200.000	-0.022	-0.294
-195.260	-40.046	-0.198	0.102
-194.246	-30.962	0.331	0.185
-193.231	-200.000	-0.016	-0.132
-192.217	492.116	0.038	-0.085
-191.202	-112.542	0.135	0.027
-190.187	800.000	0.053	0.224
-189.173	110.453	-0.263	-0.312
-188.158	11.540	-0.148	0.112
-187.144	174.233	0.115	0.164
-186.129	-153.189	-0.453	-0.031
-185.114	-127.556	0.417	0.060
-184.100	-119.107	-0.194	0.034
-183.085	-148.843	-0.289	0.023
-182.071	-130.186	0.382	0.051
-181.056	-62.821	-0.039	0.016
-180.042	83.418	-0.199	0.214
-179.027	-63.190	-0.325	0.132
-178.012	165.624	-0.116	0.162
-176.998	197.263	0.087	0.131
-175.983	42.529	-0.120	0.108
-174.969	-200.000	-0.009	-0.321
-173.954	96.000	0.057	0.064
-172.939	-148.020	-0.434	0.036
-171.925	-84.392	-0.211	0.066
-170.910	245.107	-0.120	-0.200
-169.896	-149.188	-0.293	0.023
-168.881	-200.000	-0.005	0.156
-167.866	476.624	0.120	-0.267
-166.852	140.690	0.115	0.149
-165.837	-53.578	0.116	0.052
-164.823	-79.287	0.037	0.012
-163.808	303.262	-0.180	0.329
-162.793	-125.508	-0.349	0.052
-161.779	57.607	-0.110	-0.106
-160.764	-160.489	0.173	0.009
-159.750	32.590	-0.123	-0.104
-158.735	-200.000	-0.011	-0.093
-157.720	-94.076	-0.202	-0.055
-156.706	-2.771	0.098	0.067
-155.691	-103.308	0.315	-0.073
-154.677	136.949	-0.099	-0.127
-153.662	800.000	0.028	-0.112
-152.647	800.000	-0.026	-0.096
-151.633	-49.809	-0.101	0.047
-150.618	-43.737	0.225	-0.112
-149.604	50.234	-0.021	0.020
-148.589	-94.720	0.271	0.073
-147.574	649.514	0.024	0.060
-146.560	-88.471	0.127	0.037
-145.545	487.145	-0.105	-0.236
-144.531	-44.863	-0.266	-0.131
-143.516	800.000	0.107	0.324
-142.502	-127.023	0.197	-0.029
-141.487	-78.831	0.353	-0.119
-140.472	-46.559	-0.236	-0.114
-139.458	800.000	-0.046	0.184
-138.443	3.566	0.087	0.062
-137.429	-25.433	-0.094	0.055
-136.414	-51.687	-0.157	-0.072
-135.399	10.709	0.141	-0.106
-134.385	-65.125	0.457	0.181
-133.370	424.575	0.095	-0.201
-132.356	-200.000	0.018	-0.315
-131.341	0.323	-0.229	0.161
-130.326	-200.000	-0.037	0.302
-129.312	-151.024	0.296	-0.022
-128.297	115.834	0.111	0.134
-127.283	-89.573	-0.032	-0.009
-126.268	70.789	-0.114	0.116
-125.253	-179.826	0.092	-0.002
-124.239	156.002	-0.168	0.229
-123.224	-60.640	0.127	0.053
-122.210	800.000	-0.024	-0.080
-121.195	800.000	-0.067	-0.281
