DTS Sentinel unit serial number:	SN413079Multiplexer serial number:	ORYXHardware model number:	OX4-SRSoftware version number:	ORYX F/W v4.00 Oryx Data Collector v3.7.2.0data status	okinstallation	princeton_trtdifferential loss correction	single-endedforward channel	channel 1reverse channel	N/Adate	2019/09/18time	14:02:35forward acquisition time	60.00reverse acquisition time	0.00gamma	496.2192k internal	0.2312k external	0.2312temperature offset calibration	0.9984default loss term (dB/km)	0.3790temperature slope calibration	1.0000multiplexer offset coefficient	1.0000multiplexer slope coefficient	1.0000fibre end	0.00T internal ref (°C)	34.48T ext. ref 1 (°C)	0.66T ext. ref 2 (°C)	28.99length (m)	temperature (°C)	Stokes	anti-Stokes-747.200	-37.612	-0.123	0.067
-746.185	125.662	0.134	0.172
-745.171	-200.000	0.032	0.258
-744.156	120.298	-0.087	0.110
-743.142	-200.000	0.006	-0.089
-742.127	99.048	-0.261	0.305
-741.112	-59.363	0.217	-0.095
-740.098	-200.000	0.025	0.315
-739.083	110.873	-0.131	-0.160
-738.069	185.619	0.178	-0.268
-737.054	-81.932	-0.165	0.055
-736.039	38.517	-0.224	0.203
-735.025	548.016	-0.045	0.108
-734.010	27.631	-0.142	-0.121
-732.996	-200.000	0.029	0.237
-731.981	-200.000	-0.019	0.256
-730.966	-200.000	0.013	-0.176
-729.952	800.000	-0.127	-0.355
-728.937	74.467	0.153	0.164
-727.923	107.156	0.135	-0.163
-726.908	-8.350	-0.259	0.177
-725.894	-178.957	-0.251	-0.006
-724.879	-125.128	-0.188	-0.029
-723.864	-14.987	-0.073	0.047
-722.850	-200.000	-0.035	-0.247
-721.835	-78.891	0.070	-0.024
-720.821	107.807	-0.133	-0.161
-719.806	85.740	-0.116	-0.129
-718.791	-151.064	-0.150	0.011
-717.777	-97.135	-0.217	0.058
-716.762	47.603	0.108	-0.102
-715.748	109.428	-0.078	-0.094
-714.733	-40.794	-0.416	0.218
-713.718	-101.234	-0.138	0.034
-712.704	350.336	-0.072	0.144
-711.689	74.784	-0.142	0.151
-710.675	1.013	0.206	-0.150
-709.660	8.742	0.167	-0.127
-708.645	-200.000	-0.090	0.000
-707.631	76.109	-0.090	0.096
-706.616	-200.000	-0.004	0.240
-705.602	-147.882	0.292	0.025
-704.587	-74.857	-0.186	-0.067
-703.572	-140.306	-0.134	-0.014
-702.558	-200.000	-0.014	-0.066
-701.543	800.000	0.039	0.118
-700.529	282.645	0.064	-0.116
-699.514	126.335	-0.073	-0.094
-698.499	-200.000	0.025	0.235
-697.485	365.969	-0.139	0.283
-696.470	46.777	0.223	-0.210
-695.456	-200.000	-0.005	-0.182
-694.441	73.947	0.208	-0.221
-693.426	607.909	0.111	0.279
-692.412	-153.454	0.209	-0.015
-691.397	-200.000	0.002	-0.102
-690.383	65.658	0.274	0.281
-689.368	276.780	-0.155	-0.280
-688.354	171.213	-0.058	-0.084
-687.339	-104.743	-0.167	0.039
-686.324	4.922	0.088	0.066
-685.310	800.000	0.086	-0.246
-684.295	35.745	0.191	0.170
-683.281	66.461	-0.165	-0.170
-682.266	75.208	-0.086	-0.092
-681.251	247.155	-0.091	-0.156
-680.237	178.990	-0.194	0.287
-679.222	-86.570	0.162	0.050
-678.208	10.617	-0.068	0.052
-677.193	436.373	-0.158	-0.348
-676.178	-70.726	0.307	0.117
-675.164	-172.247	-0.152	0.005
-674.149	255.701	-0.172	0.299
-673.135	336.962	0.073	-0.143
-672.120	-38.227	-0.180	-0.097
-671.105	392.091	-0.094	0.197
-670.091	-195.238	-0.312	0.002
-669.076	-125.256	0.066	-0.010
-668.062	-8.502	-0.295	-0.200
-667.047	196.542	-0.133	-0.204
-666.032	-53.898	-0.439	0.202
-665.018	-134.477	0.255	0.032
-664.003	-148.554	0.241	-0.020
-662.989	211.685	-0.028	-0.045
-661.974	-200.000	0.029	-0.152
-660.959	93.574	0.216	-0.248
-659.945	-159.483	0.206	-0.012
-658.930	54.086	-0.244	-0.237
-657.916	-26.512	0.222	0.131
-656.901	-200.000	-0.063	0.331
-655.886	656.281	0.123	-0.320
-654.872	-102.421	-0.365	-0.089
-653.857	141.787	0.164	0.220
-652.843	313.227	-0.180	-0.343
-651.828	-149.915	0.361	0.029
-650.814	298.180	-0.182	-0.339
-649.799	53.296	-0.101	0.097
-648.784	-135.024	0.069	-0.008
-647.770	65.182	-0.061	-0.062
-646.755	52.883	0.201	0.194
-645.741	-49.463	-0.216	-0.104
-644.726	436.831	-0.170	-0.374
-643.711	297.698	0.048	0.090
-642.697	131.552	0.116	-0.151
-641.682	-91.848	-0.188	0.054
-640.668	-18.652	0.239	-0.150
-639.653	51.195	0.219	-0.210
-638.638	-77.448	0.213	-0.075
-637.624	115.829	-0.121	-0.149
-636.609	185.846	0.111	-0.166
-635.595	800.000	-0.056	-0.198
-634.580	365.902	0.111	-0.226
-633.565	-200.000	0.045	0.253
-632.551	89.071	-0.217	-0.244
-631.536	-200.000	0.032	-0.181
-630.522	328.839	-0.082	-0.160
-629.507	-200.000	0.004	0.148
-628.492	14.591	0.127	-0.100
-627.478	-41.483	-0.233	0.121
-626.463	28.572	-0.194	0.166
-625.449	-103.000	-0.206	-0.049
-624.434	60.860	-0.232	0.232
-623.419	-150.518	0.300	0.023
-622.405	-94.562	0.182	0.050
-621.390	-200.000	-0.015	-0.116
-620.376	418.220	0.177	0.382
-619.361	-102.564	-0.150	0.036
-618.346	-175.352	0.248	0.007
-617.332	-74.641	-0.326	0.118
-616.317	66.304	-0.318	0.326
-615.303	-29.803	-0.301	0.173
-614.288	458.616	-0.042	0.094
-613.273	800.000	-0.049	-0.143
-612.259	-200.000	-0.016	-0.238
-611.244	279.212	-0.119	0.214
-610.230	466.798	-0.100	0.227
-609.215	-67.757	-0.116	-0.046
-608.201	-119.733	-0.184	-0.032
-607.186	-200.000	0.009	-0.256
-606.171	120.838	-0.131	0.165
-605.157	85.836	-0.078	0.087
-604.142	-38.649	-0.167	0.089
-603.128	-133.688	0.331	-0.042
-602.113	800.000	0.093	-0.323
-601.098	45.013	0.256	0.238
-600.084	-71.061	-0.112	-0.043
-599.069	-95.580	0.262	-0.071
-598.055	46.992	0.148	-0.139
-597.040	-200.000	-0.222	-0.000
-596.025	-146.235	0.089	0.008
-595.011	14.512	-0.076	0.060
-593.996	-14.961	0.247	-0.160
-592.982	800.000	-0.076	0.249
-591.967	409.323	-0.018	-0.038
-590.952	56.778	0.139	-0.137
-589.938	-200.000	0.028	-0.236
-588.923	-200.000	0.016	-0.348
-587.909	239.457	-0.183	0.307
-586.894	-68.764	-0.346	0.135
-585.879	-76.691	-0.179	-0.063
-584.865	192.138	-0.044	0.068
-583.850	-58.826	-0.163	-0.071
-582.836	734.258	0.163	-0.441
-581.821	8.023	0.175	-0.133
-580.806	-54.286	-0.209	0.096
-579.792	-33.059	-0.254	-0.142
-578.777	84.603	-0.258	0.285
-577.763	457.148	0.045	0.100
-576.748	-115.606	0.209	0.040
-575.733	148.234	-0.070	-0.095
-574.719	167.924	-0.085	-0.121
-573.704	-109.084	0.181	-0.039
-572.690	-3.850	0.217	0.152
-571.675	34.615	-0.093	0.082
-570.661	230.179	0.156	0.257
-569.646	-200.000	-0.022	0.109
-568.631	-200.000	0.003	-0.058
-567.617	-126.745	0.146	-0.022
-566.602	800.000	0.018	-0.059
-565.588	129.163	0.047	-0.060
-564.573	58.228	-0.097	-0.096
-563.558	258.930	0.166	-0.288
-562.544	-28.183	-0.147	0.086
-561.529	188.036	-0.122	0.184
-560.515	-200.000	-0.013	0.217
-559.500	-32.649	0.141	0.079
-558.485	-87.486	0.291	-0.089
-557.471	2.255	-0.212	0.154
-556.456	-79.058	0.248	0.085
-555.442	-160.682	-0.203	0.011
-554.427	-200.000	-0.008	0.128
-553.412	557.956	-0.051	-0.125
-552.398	-200.000	-0.012	-0.209
-551.383	-45.738	-0.173	0.086
-550.369	-200.000	-0.071	0.320
-549.354	-45.956	-0.139	0.069
-548.339	170.697	-0.078	-0.112
-547.325	27.910	0.275	0.233
-546.310	108.970	0.036	0.043
-545.296	241.469	-0.174	-0.293
-544.281	-45.038	0.246	-0.123
-543.266	393.781	-0.100	0.210
-542.252	0.081	-0.030	-0.022
-541.237	-200.000	-0.023	-0.429
-540.223	105.734	0.297	-0.353
-539.208	357.713	-0.085	0.170
-538.193	345.138	0.182	0.359
-537.179	-40.172	-0.517	-0.271
-536.164	-200.000	-0.015	-0.302
-535.150	-20.934	0.275	-0.169
-534.135	71.912	0.134	-0.140
-533.121	38.332	0.169	-0.151
-532.106	305.376	-0.195	0.364
-531.091	-24.985	0.150	0.090
-530.077	215.990	-0.064	-0.102
-529.062	122.774	0.129	0.162
-528.048	138.763	-0.214	0.283
-527.033	77.215	0.246	0.263
-526.018	73.222	0.152	-0.160
-525.004	48.627	0.168	-0.158
-523.989	202.910	0.077	0.120
-522.975	-76.173	-0.209	0.074
-521.960	-53.115	-0.108	-0.050
-520.945	113.058	-0.050	0.062
-519.931	-200.000	0.021	0.179
-518.916	428.963	-0.047	0.102
-517.902	138.915	-0.202	0.267
-516.887	-60.330	-0.080	-0.034
-515.872	-34.175	-0.170	0.094
-514.858	88.101	0.125	0.139
-513.843	-200.000	0.004	-0.254
-512.829	-35.187	-0.175	0.096
-511.814	-111.403	-0.247	-0.051
-510.799	546.029	-0.036	0.086
-509.785	-200.000	-0.038	-0.287
-508.770	800.000	0.052	0.217
-507.756	205.763	-0.095	0.148
-506.741	256.560	-0.106	0.183
-505.726	-106.615	0.126	0.028
-504.712	483.498	0.052	0.120
-503.697	2.672	-0.099	0.072
-502.683	37.426	-0.136	-0.122
-501.668	102.855	0.089	-0.105
-500.653	461.312	-0.143	-0.320
-499.639	-2.372	0.354	0.250
-498.624	-93.508	-0.268	0.074
-497.610	-35.312	0.208	-0.114
-496.595	7.875	-0.256	-0.193
-495.581	204.703	-0.103	-0.161
-494.566	80.607	0.268	0.290
-493.551	-73.045	-0.158	-0.058
-492.537	-91.490	-0.331	-0.095
-491.522	-200.000	-0.013	-0.141
-490.508	240.307	-0.109	-0.183
-489.493	800.000	0.027	-0.084
-488.478	-100.376	0.358	0.089
-487.464	-98.330	0.070	-0.018
-486.449	800.000	0.106	-0.297
-485.435	-200.000	0.011	0.085
-484.420	-56.490	-0.131	0.058
-483.405	664.168	-0.191	-0.496
-482.391	79.798	-0.065	0.070
-481.376	568.169	-0.101	-0.245
-480.362	26.564	-0.299	0.251
-479.347	787.973	0.061	0.167
-478.332	139.112	0.156	-0.206
-477.318	-157.443	-0.091	0.005
-476.303	800.000	0.073	0.281
-475.289	-200.000	0.018	-0.194
-474.274	-89.071	0.107	0.032
-473.259	-50.545	0.631	0.299
-472.245	-17.198	0.039	-0.024
-471.230	736.977	0.057	-0.153
-470.216	-200.000	-0.009	-0.295
-469.201	-124.585	0.188	0.029
-468.186	-106.855	0.287	0.064
-467.172	27.926	0.203	-0.171
-466.157	-78.842	0.130	-0.044
-465.143	-20.485	-0.080	-0.049
-464.128	800.000	-0.046	-0.166
-463.113	800.000	-0.052	0.197
-462.099	-65.640	0.177	-0.071
-461.084	-200.000	-0.014	0.108
-460.070	187.541	0.095	-0.142
-459.055	-167.478	-0.307	0.012
-458.040	-46.880	0.241	0.118
-457.026	-126.339	-0.109	-0.016
-456.011	-100.555	0.225	0.056
-454.997	-44.381	-0.123	-0.062
-453.982	358.427	-0.034	0.068
-452.968	800.000	-0.114	0.318
-451.953	-200.000	-0.070	-0.374
-450.938	-200.000	0.034	-0.322
-449.924	-200.000	-0.019	-0.213
-448.909	-103.931	0.058	0.014
-447.895	-26.377	-0.111	-0.065
-446.880	275.590	0.031	0.055
-445.865	-141.335	-0.093	-0.009
-444.851	-50.804	0.202	0.095
-443.836	190.188	0.049	0.073
-442.822	-87.346	0.211	-0.064
-441.807	69.119	-0.188	-0.194
-440.792	-47.873	-0.247	0.120
-439.778	-200.000	0.021	0.155
-438.763	47.560	-0.087	-0.081
-437.749	-61.297	-0.160	-0.067
-436.734	161.409	0.162	0.227
-435.719	-195.623	0.198	-0.001
-434.705	1.600	-0.081	0.058
-433.690	152.552	-0.232	0.318
-432.676	2.630	-0.178	0.129
-431.661	157.337	0.275	0.381
-430.646	-160.082	0.090	-0.005
-429.632	-142.948	0.045	0.004
-428.617	62.429	-0.144	-0.144
-427.603	-200.000	0.047	0.476
-426.588	36.823	0.079	0.070
-425.573	-0.183	-0.164	-0.117
-424.559	67.172	0.200	0.205
-423.544	-106.404	-0.148	-0.033
-422.530	127.347	0.082	0.104
-421.515	800.000	0.013	0.039
-420.500	-87.036	0.297	0.091
-419.486	330.320	-0.075	-0.144
-418.471	-77.955	-0.240	0.083
-417.457	-97.378	-0.073	-0.019
-416.442	572.989	-0.137	-0.335
-415.428	-32.175	-0.274	-0.153
-414.413	-104.890	0.027	-0.006
-413.398	583.860	-0.258	0.634
-412.384	496.343	0.180	0.414
-411.369	252.790	0.119	-0.203
-410.355	61.537	0.151	-0.151
-409.340	800.000	-0.068	0.213
-408.325	-160.437	-0.188	-0.010
-407.311	46.455	0.092	0.085
-406.296	487.905	0.069	0.157
-405.282	498.558	0.049	-0.113
-404.267	-99.744	0.235	-0.059
-403.252	-33.601	0.321	-0.178
-402.238	-148.911	0.298	-0.024
-401.223	243.991	-0.158	-0.265
-400.209	457.811	0.032	0.071
-399.194	104.280	-0.228	-0.269
-398.179	-31.917	-0.388	-0.218
-397.165	369.267	-0.091	0.185
-396.150	-12.783	0.207	0.135
-395.136	-200.000	0.017	0.090
-394.121	-200.000	-0.005	-0.651
-393.106	-200.000	-0.003	-0.120
-392.092	473.615	-0.046	-0.104
-391.077	-71.058	0.548	0.206
-390.063	-163.608	-0.182	0.009
-389.048	-62.829	-0.248	0.103
-388.033	-124.227	0.144	-0.023
-387.019	42.384	0.141	0.129
-386.004	-130.557	-0.333	0.045
-384.990	-200.000	-0.073	-0.338
-383.975	267.067	0.118	-0.206
-382.960	9.555	0.251	-0.190
-381.946	-81.840	-0.071	0.023
-380.931	800.000	-0.052	-0.205
-379.917	105.989	0.171	-0.202
-378.902	-100.206	-0.192	-0.048
-377.888	-114.395	-0.115	0.022
-376.873	-200.000	-0.006	0.128
-375.858	-94.549	-0.067	-0.018
-374.844	-89.247	0.110	0.033
-373.829	-117.909	-0.119	0.021
-372.815	229.953	0.156	0.255
-371.800	-49.295	0.019	-0.009
-370.785	283.339	0.055	0.099
-369.771	35.820	-0.094	-0.082
-368.756	-11.412	0.300	0.197
-367.742	430.723	-0.039	0.085
-366.727	-30.073	0.115	0.065
-365.712	145.951	-0.092	-0.123
-364.698	-200.000	-0.006	0.058
-363.683	291.320	0.140	-0.254
-362.669	45.551	-0.154	0.142
-361.654	-158.011	0.245	-0.014
-360.639	-200.000	0.042	-0.230
-359.625	-131.336	-0.613	-0.081
-358.610	50.267	0.233	-0.220
-357.596	800.000	-0.030	-0.115
-356.581	5.529	-0.060	-0.044
-355.566	91.403	0.171	0.192
-354.552	78.256	0.210	-0.224
-353.537	-115.939	0.172	-0.032
-352.523	380.634	0.078	-0.161
-351.508	-200.000	0.000	0.169
-350.493	-82.398	-0.141	-0.046
-349.479	800.000	0.063	-0.179
-348.464	-155.086	0.148	0.010
-347.450	-56.399	-0.279	0.124
-346.435	672.252	0.123	-0.318
-345.420	-164.757	-0.056	0.003
-344.406	314.252	0.053	-0.100
-343.391	-149.347	-0.138	-0.011
-342.377	-134.130	-0.227	-0.028
-341.362	224.998	-0.031	-0.050
-340.348	-83.438	-0.037	0.012
-339.333	-200.000	0.001	-0.110
-338.318	324.763	-0.123	-0.234
-337.304	-181.122	-0.261	0.005
-336.289	-63.998	-0.290	0.118
-335.275	-69.604	0.171	-0.065
-334.260	127.852	0.090	-0.114
-333.245	-91.167	0.101	-0.029
-332.231	-200.000	-0.057	0.381
-331.216	800.000	-0.036	0.101
-330.202	81.545	0.211	-0.228
-329.187	0.169	0.195	-0.139
-328.172	-76.675	-0.325	0.114
-327.158	-116.101	0.110	0.020
-326.143	-18.352	-0.246	-0.154
-325.129	56.761	0.194	-0.189
-324.114	158.588	0.018	0.025
-323.099	459.302	-0.085	-0.189
-322.085	109.507	-0.032	-0.038
-321.070	-73.640	0.181	-0.066
-320.056	-200.000	0.010	0.261
-319.041	-200.000	0.020	0.490
-318.026	800.000	-0.071	-0.250
-317.012	-43.784	-0.203	0.102
-315.997	-103.170	0.032	0.008
-314.983	-102.555	-0.149	0.036
-313.968	649.491	0.031	-0.079
-312.953	16.551	0.313	0.247
-311.939	800.000	-0.094	0.373
-310.924	-200.000	0.017	0.173
-309.910	-200.000	0.139	0.627
-308.895	214.384	0.150	-0.237
-307.880	-200.000	0.004	0.203
-306.866	-54.952	-0.095	-0.042
-305.851	800.000	-0.094	-0.360
-304.837	-200.000	0.010	-0.234
-303.822	62.482	0.199	0.198
-302.807	-154.316	-0.135	-0.009
-301.793	85.356	-0.086	0.094
-300.778	-200.000	0.018	0.140
-299.764	-36.746	-0.108	-0.058
-298.749	606.932	-0.073	-0.181
-297.735	-200.000	-0.012	0.149
-296.720	16.845	0.175	0.138
-295.705	233.146	0.023	0.037
-294.691	800.000	-0.055	0.156
-293.676	-200.000	0.068	0.455
-292.662	800.000	0.069	0.237
-291.647	-200.000	-0.013	-0.101
-290.632	-116.899	0.115	0.021
-289.618	301.590	0.123	-0.226
-288.603	129.636	0.039	-0.049
-287.589	-147.153	0.160	-0.014
-286.574	-200.000	0.027	0.335
-285.559	-175.452	0.144	0.004
-284.545	800.000	-0.006	0.027
-283.530	-118.195	0.126	0.022
-282.516	100.029	-0.231	-0.267
-281.501	245.180	0.034	0.056
-280.486	800.000	0.041	-0.150
-279.472	800.000	-0.039	0.150
-278.457	55.333	-0.164	-0.159
-277.443	-4.679	-0.341	-0.234
-276.428	659.092	0.124	0.317
-275.413	207.146	0.096	0.148
-274.399	233.585	-0.083	-0.136
-273.384	359.298	0.032	-0.064
-272.370	-56.610	0.255	-0.113
-271.355	85.835	-0.254	-0.278
-270.340	-32.031	-0.383	-0.214
-269.326	800.000	-0.097	-0.377
-268.311	-200.000	0.005	0.037
-267.297	121.247	-0.132	0.164
-266.282	-137.069	0.364	-0.041
-265.267	429.515	-0.130	0.279
-264.253	-200.000	-0.046	0.209
-263.238	-34.459	-0.192	-0.105
-262.224	23.147	0.050	0.041
-261.209	-167.794	0.088	0.003
-260.195	-200.000	0.004	0.121
-259.180	-31.265	-0.181	0.101
-258.165	30.776	0.141	-0.120
-257.151	-3.534	0.114	0.079
-256.136	-200.000	-0.017	-0.223
-255.122	112.960	0.059	0.071
-254.107	-90.147	0.277	-0.080
-253.092	-200.000	0.034	0.271
-252.078	32.790	-0.299	-0.258
-251.063	800.000	0.059	-0.168
-250.049	191.650	0.066	0.099
-249.034	-81.483	0.136	-0.044
-248.019	-69.441	-0.240	0.092
-247.005	415.235	-0.026	0.054
-245.990	-32.660	0.148	0.082
-244.976	19.221	-0.236	0.188
-243.961	-9.685	0.197	0.131
-242.946	-14.357	0.234	-0.150
-241.932	397.797	-0.097	0.202
-240.917	243.163	0.038	0.063
-239.903	800.000	-0.041	0.138
-238.888	101.465	0.127	0.147
-237.873	-200.000	0.011	-0.125
-236.859	-47.669	0.169	0.082
-235.844	146.870	-0.044	-0.058
-234.830	-71.106	-0.048	0.018
-233.815	101.074	0.144	0.166
-232.800	-130.735	-0.015	-0.002
-231.786	800.000	0.079	-0.316
-230.771	-200.000	0.000	0.246
-229.757	200.713	0.083	0.127
-228.742	-74.077	0.069	0.025
-227.727	-147.341	0.151	0.013
-226.713	-89.928	-0.262	0.076
-225.698	-153.429	-0.189	0.013
-224.684	-200.000	-0.029	-0.336
-223.669	296.134	-0.047	-0.086
-222.655	218.626	-0.242	0.385
-221.640	0.505	-0.190	0.135
-220.625	-44.688	-0.247	-0.123
-219.611	-200.000	-0.042	-0.186
-218.596	70.234	0.301	0.309
-217.582	-36.734	-0.381	0.203
-216.567	-162.700	0.344	-0.017
-215.552	-140.707	-0.195	-0.020
-214.538	-200.000	-0.013	0.122
-213.523	59.219	0.130	0.127
-212.509	800.000	0.073	-0.202
-211.494	89.625	0.090	0.100
-210.479	-200.000	-0.010	0.250
-209.465	-54.499	0.475	-0.214
-208.450	-25.067	-0.373	-0.220
-207.436	-43.629	0.146	0.073
-206.421	-200.000	-0.076	-0.350
-205.406	134.430	0.093	-0.120
-204.392	-38.620	0.103	0.054
-203.377	800.000	-0.035	-0.106
-202.363	268.634	-0.161	-0.281
-201.348	83.876	0.164	-0.178
-200.333	-152.307	0.391	-0.028
-199.319	290.895	0.153	-0.275
-198.304	-200.000	0.009	-0.381
-197.290	-79.056	-0.422	-0.142
-196.275	-50.989	0.222	-0.103
-195.260	-8.908	-0.319	0.212
-194.246	800.000	-0.059	0.221
-193.231	505.218	0.151	0.348
-192.217	-200.000	0.016	-0.231
-191.202	-187.024	0.033	-0.000
-190.187	-176.552	0.228	0.006
-189.173	-200.000	-0.028	0.188
-188.158	-128.825	-0.230	0.032
-187.144	800.000	-0.126	-0.355
-186.129	-67.590	0.153	-0.059
-185.114	-108.474	-0.338	0.072
-184.100	800.000	-0.006	-0.027
-183.085	-22.137	0.346	-0.208
-182.071	161.200	0.030	0.041
-181.056	-44.986	-0.306	-0.151
-180.042	-108.443	-0.336	0.072
-179.027	-127.832	0.348	-0.050
-178.012	732.670	0.085	-0.225
-176.998	261.372	0.213	0.366
-175.983	-116.148	-0.109	0.020
-174.969	-200.000	-0.004	-0.273
-173.954	123.485	-0.329	0.409
-172.939	-200.000	-0.025	0.618
-171.925	-81.630	0.168	0.055
-170.910	800.000	-0.058	-0.168
-169.896	54.190	0.202	-0.192
-168.881	279.686	0.119	-0.212
-167.866	229.982	-0.117	0.190
-166.852	800.000	-0.151	0.463
-165.837	-14.679	0.117	-0.075
-164.823	-75.049	0.163	-0.058
-163.808	-120.335	0.172	-0.029
-162.793	133.519	0.220	0.282
-161.779	-15.452	0.158	-0.100
-160.764	-129.999	-0.126	0.017
-159.750	-151.288	0.290	-0.022
-158.735	151.717	-0.221	0.298
-157.720	-129.416	0.196	0.027
-156.706	48.152	0.047	-0.043
-155.691	800.000	0.050	-0.199
-154.677	152.341	-0.099	0.134
-153.662	-122.740	-0.413	0.066
-152.647	800.000	0.068	-0.202
-151.633	397.733	0.152	0.314
-150.618	-93.568	0.317	-0.087
-149.604	517.490	0.064	-0.148
-148.589	-64.330	-0.424	0.171
-147.574	-164.056	0.051	-0.002
-146.560	-200.000	0.001	0.387
-145.545	250.861	-0.081	-0.137
-144.531	213.496	0.102	-0.160
-143.516	33.316	-0.178	-0.153
-142.502	28.545	0.192	0.161
-141.487	-8.313	-0.174	0.116
-140.472	-99.253	-0.094	0.023
-139.458	74.132	0.205	-0.213
-138.443	800.000	-0.047	0.144
-137.429	-94.840	0.288	-0.077
-136.414	-97.011	0.215	0.056
-135.399	182.639	-0.155	0.227
-134.385	-121.214	-0.217	-0.036
-133.370	-7.009	0.412	0.277
-132.356	-107.515	-0.247	-0.053
-131.341	-200.000	0.052	-0.241
-130.326	-100.752	-0.150	-0.037
-129.312	532.514	-0.123	-0.288
-128.297	11.776	0.284	-0.216
-127.283	200.350	0.115	-0.175
-126.268	800.000	0.108	-0.383
-125.253	-200.000	-0.015	-0.195
-124.239	800.000	0.070	-0.207
-123.224	-200.000	-0.084	-0.391
-122.210	355.803	-0.064	0.126
-121.195	118.744	-0.187	-0.229
