DTS Sentinel unit serial number:	SN413079Multiplexer serial number:	ORYXHardware model number:	OX4-SRSoftware version number:	ORYX F/W v4.00 Oryx Data Collector v3.7.2.0data status	okinstallation	princeton_trtdifferential loss correction	single-endedforward channel	channel 1reverse channel	N/Adate	2019/09/17time	13:38:35forward acquisition time	60.00reverse acquisition time	0.00gamma	496.2192k internal	0.2305k external	0.2305temperature offset calibration	0.9972default loss term (dB/km)	0.3790temperature slope calibration	1.0000multiplexer offset coefficient	1.0000multiplexer slope coefficient	1.0000fibre end	0.00T internal ref (°C)	34.83T ext. ref 1 (°C)	0.41T ext. ref 2 (°C)	31.94length (m)	temperature (°C)	Stokes	anti-Stokes-747.200	-104.180	0.139	0.033
-746.185	800.000	-0.075	0.237
-745.171	-200.000	-0.095	0.000
-744.156	-200.000	-0.002	0.291
-743.142	128.271	0.064	0.083
-742.127	-177.595	-0.163	-0.004
-741.112	541.960	0.085	0.207
-740.098	800.000	-0.055	-0.235
-739.083	-200.000	-0.056	-0.399
-738.069	-156.229	-0.114	-0.007
-737.054	-119.689	0.307	-0.054
-736.039	-86.322	-0.182	-0.057
-735.025	19.031	0.111	-0.090
-734.010	-98.087	-0.104	0.027
-732.996	499.651	-0.114	0.268
-731.981	-109.710	0.074	-0.016
-730.966	151.043	0.149	-0.206
-729.952	800.000	-0.101	-0.291
-728.937	373.079	-0.166	-0.343
-727.923	-15.707	-0.417	0.270
-726.908	800.000	-0.115	0.473
-725.894	256.798	-0.068	0.119
-724.879	794.519	0.031	-0.086
-723.864	-93.647	-0.175	-0.049
-722.850	-26.173	-0.160	-0.096
-721.835	-149.264	0.279	0.023
-720.821	594.519	-0.151	-0.380
-719.806	-24.913	0.165	-0.099
-718.791	-61.178	-0.115	0.049
-717.777	118.393	-0.136	0.170
-716.762	-91.707	0.080	-0.023
-715.748	-200.000	0.010	-0.149
-714.733	800.000	0.071	-0.276
-713.718	-27.485	0.122	-0.072
-712.704	36.065	-0.139	-0.125
-711.689	206.011	-0.084	-0.133
-710.675	-200.000	-0.003	-0.127
-709.660	70.128	-0.100	-0.105
-708.645	-49.420	0.168	-0.081
-707.631	76.846	0.076	-0.082
-706.616	-73.423	-0.123	0.046
-705.602	-4.307	0.303	-0.213
-704.587	178.496	0.044	-0.066
-703.572	-200.000	-0.023	-0.117
-702.558	800.000	-0.064	0.214
-701.543	-125.468	-0.017	0.003
-700.529	7.526	0.048	0.036
-699.514	47.064	0.319	0.302
-698.499	73.233	0.092	0.098
-697.485	110.479	-0.078	0.096
-696.470	-141.742	0.261	0.027
-695.456	-5.428	-0.139	0.097
-694.441	-103.067	-0.468	-0.113
-693.426	226.952	0.091	-0.149
-692.412	58.725	0.231	-0.231
-691.397	-179.962	0.289	-0.006
-690.383	584.870	-0.153	-0.382
-689.368	208.577	-0.079	-0.125
-688.354	-70.505	-0.096	-0.037
-687.339	8.171	-0.153	-0.117
-686.324	207.416	-0.221	-0.350
-685.310	121.402	-0.061	0.078
-684.295	39.814	-0.078	0.071
-683.281	-200.000	-0.007	0.365
-682.266	-54.238	0.253	-0.117
-681.251	800.000	-0.042	-0.125
-680.237	-200.000	0.080	-0.392
-679.222	-200.000	0.004	-0.110
-678.208	-65.429	-0.282	-0.115
-677.193	-200.000	0.009	-0.390
-676.178	278.533	-0.091	0.164
-675.164	112.636	0.322	0.396
-674.149	-78.088	0.053	-0.018
-673.135	-86.694	0.262	-0.081
-672.120	48.191	0.195	-0.185
-671.105	-200.000	-0.077	-0.382
-670.091	-39.459	0.122	-0.065
-669.076	159.091	0.107	0.151
-668.062	1.999	0.034	-0.025
-667.047	-200.000	-0.022	-0.143
-666.032	233.650	0.071	0.118
-665.018	516.197	0.051	-0.121
-664.003	-43.143	0.139	-0.072
-662.989	-200.000	0.047	-0.427
-661.974	174.313	-0.130	-0.191
-660.959	54.634	0.059	-0.057
-659.945	84.354	0.092	-0.102
-658.930	-200.000	-0.062	-0.370
-657.916	58.132	-0.230	-0.229
-656.901	149.440	-0.168	-0.231
-655.886	64.320	0.159	0.162
-654.872	800.000	-0.081	-0.231
-653.857	-183.266	-0.177	0.003
-652.843	800.000	-0.084	-0.267
-651.828	800.000	0.136	-0.391
-650.814	294.749	0.124	-0.229
-649.799	-73.182	-0.044	-0.016
-648.784	322.055	-0.107	0.206
-647.770	122.057	0.210	-0.265
-646.755	-16.180	0.082	0.053
-645.741	-57.845	-0.165	-0.073
-644.726	-137.260	0.195	-0.022
-643.711	127.812	-0.142	0.183
-642.697	-153.754	0.271	-0.019
-641.682	-50.164	-0.217	0.104
-640.668	-200.000	0.032	0.191
-639.653	496.499	0.165	-0.385
-638.638	67.164	-0.563	-0.582
-637.624	-142.101	-0.442	0.045
-636.609	-136.014	-0.122	0.015
-635.595	255.055	0.085	-0.148
-634.580	241.284	-0.154	0.261
-633.565	800.000	-0.032	-0.096
-632.551	733.370	0.033	-0.088
-631.536	800.000	-0.017	-0.063
-630.522	53.215	0.139	-0.135
-629.507	-94.021	0.212	-0.059
-628.492	-200.000	-0.032	-0.290
-627.478	-22.854	-0.137	-0.084
-626.463	-72.467	-0.261	0.098
-625.449	-61.485	-0.322	-0.137
-624.434	-118.162	0.255	0.046
-623.419	622.699	-0.042	0.107
-622.405	-13.139	0.071	-0.046
-621.390	293.151	-0.075	-0.139
-620.376	227.999	0.112	0.184
-619.361	-109.112	0.182	-0.039
-618.346	-22.288	0.113	0.069
-617.332	-24.853	0.104	-0.063
-616.317	-44.866	-0.118	0.059
-615.303	18.631	0.171	0.139
-614.288	-17.277	0.154	-0.098
-613.273	-172.816	-0.182	-0.006
-612.259	-98.614	-0.133	0.034
-611.244	117.001	0.226	0.281
-610.230	120.297	-0.051	-0.064
-609.215	-28.114	0.242	0.142
-608.201	5.132	-0.157	-0.117
-607.186	-96.107	-0.473	-0.127
-606.171	800.000	0.053	0.152
-605.157	-129.412	0.193	-0.027
-604.142	800.000	0.059	-0.182
-603.128	363.757	-0.155	0.314
-602.113	-28.513	-0.283	-0.165
-601.098	97.356	-0.221	0.256
-600.084	-200.000	-0.043	0.247
-599.069	-163.327	-0.156	-0.008
-598.055	-93.153	-0.170	-0.048
-597.040	5.382	-0.069	-0.051
-596.025	800.000	-0.073	0.209
-595.011	-200.000	0.027	-0.209
-593.996	78.827	0.069	-0.075
-592.982	-152.634	0.137	-0.010
-591.967	-75.133	0.071	-0.026
-590.952	-125.664	0.240	0.037
-589.938	145.436	-0.112	0.152
-588.923	626.266	0.015	0.037
-587.909	-126.566	-0.185	-0.028
-586.894	-200.000	-0.040	0.205
-585.879	135.862	-0.064	-0.084
-584.865	-149.133	0.282	-0.023
-583.850	268.248	-0.048	0.085
-582.836	-139.171	-0.275	0.030
-581.821	-190.142	0.214	-0.002
-580.806	800.000	-0.047	0.175
-579.792	-23.374	-0.111	-0.068
-578.777	-200.000	0.004	0.053
-577.763	102.845	0.175	0.207
-576.748	-67.595	0.260	-0.103
-575.733	212.377	-0.141	0.224
-574.719	572.448	-0.108	-0.265
-573.704	1.699	0.047	-0.034
-572.690	-144.007	-0.008	-0.001
-571.675	8.023	0.065	0.049
-570.661	-200.000	-0.023	0.122
-569.646	31.107	0.118	-0.102
-568.631	-200.000	-0.011	-0.101
-567.617	-83.251	-0.219	-0.071
-566.602	609.573	-0.027	-0.068
-565.588	800.000	-0.005	-0.018
-564.573	61.297	-0.078	-0.079
-563.558	-200.000	0.003	-0.036
-562.544	-200.000	-0.004	-0.197
-561.529	800.000	0.015	-0.042
-560.515	-97.175	0.074	-0.020
-559.500	289.260	-0.057	-0.105
-558.485	364.988	-0.192	0.390
-557.471	-193.104	0.145	0.001
-556.456	-34.395	0.255	-0.141
-555.442	-111.924	-0.313	-0.064
-554.427	-34.095	0.296	-0.164
-553.412	0.996	0.276	-0.200
-552.398	-49.647	0.115	0.055
-551.383	-19.142	0.420	0.263
-550.369	150.758	0.158	-0.217
-549.354	-200.000	0.023	-0.194
-548.339	320.277	0.014	0.026
-547.325	800.000	-0.035	-0.107
-546.310	323.634	0.059	-0.113
-545.296	201.831	0.055	0.086
-544.281	-25.106	-0.185	-0.111
-543.266	59.726	0.027	-0.027
-542.252	623.356	0.074	0.188
-541.237	-91.153	-0.203	0.059
-540.223	-69.098	0.115	-0.045
-539.208	474.594	-0.067	-0.153
-538.193	800.000	0.144	-0.523
-537.179	-60.435	0.254	-0.109
-536.164	5.920	-0.176	0.131
-535.150	-73.949	-0.100	-0.037
-534.135	20.649	0.097	0.080
-533.121	-100.283	-0.225	-0.056
-532.106	772.946	-0.067	0.184
-531.091	-55.765	-0.547	-0.247
-530.077	-200.000	0.048	-0.463
-529.062	121.865	0.074	0.093
-528.048	86.063	0.227	-0.252
-527.033	-130.375	0.398	-0.054
-526.018	-68.826	0.176	0.069
-525.004	-119.290	-0.188	-0.033
-523.989	-110.116	-0.379	-0.080
-522.975	-105.888	-0.306	-0.070
-521.960	-200.000	-0.011	-0.189
-520.945	-129.347	0.131	0.018
-519.931	-33.598	-0.207	-0.115
-518.916	-200.000	-0.002	-0.019
-517.902	800.000	-0.090	-0.274
-516.887	350.795	-0.167	0.334
-515.872	-43.931	-0.204	0.103
-514.858	578.363	0.048	-0.118
-513.843	-62.575	-0.108	-0.045
-512.829	-138.700	0.188	0.021
-511.814	-27.837	-0.149	0.087
-510.799	-16.514	0.124	0.079
-509.785	463.652	0.088	0.199
-508.770	6.299	-0.289	-0.217
-507.756	-200.000	-0.042	-0.383
-506.741	-200.000	0.003	-0.388
-505.726	355.994	-0.100	0.201
-504.712	335.496	-0.106	0.208
-503.697	-68.903	0.217	0.084
-502.683	361.922	0.155	0.314
-501.668	673.521	0.061	0.159
-500.653	-200.000	0.009	0.117
-499.639	-77.736	0.199	0.069
-498.624	122.131	0.112	0.142
-497.610	167.251	-0.110	-0.158
-496.595	-40.360	-0.162	-0.085
-495.581	590.192	-0.033	0.083
-494.566	142.589	-0.219	0.293
-493.551	9.383	-0.125	0.095
-492.537	67.117	0.183	-0.187
-491.522	289.475	0.006	0.010
-490.508	670.251	0.110	-0.288
-489.493	-200.000	-0.015	0.256
-488.478	800.000	0.061	-0.218
-487.464	703.823	-0.092	0.244
-486.449	800.000	-0.067	-0.209
-485.435	-200.000	-0.041	-0.285
-484.420	-143.936	0.224	-0.021
-483.405	800.000	0.056	-0.162
-482.391	597.253	0.051	-0.127
-481.376	-149.400	0.198	-0.016
-480.362	-200.000	-0.414	-0.001
-479.347	55.864	-0.187	0.182
-478.332	-170.680	0.357	0.012
-477.318	124.251	-0.125	0.159
-476.303	83.497	0.100	0.110
-475.289	-26.252	0.042	-0.025
-474.274	763.702	-0.114	0.312
-473.259	77.578	-0.048	-0.051
-472.245	-200.000	-0.043	-0.296
-471.230	44.062	-0.180	0.166
-470.216	800.000	-0.064	0.235
-469.201	18.095	0.078	0.062
-468.186	126.615	-0.171	0.218
-467.172	-51.342	0.352	0.166
-466.157	544.477	0.079	0.189
-465.143	-57.093	0.163	0.072
-464.128	241.110	-0.068	0.113
-463.113	-200.000	0.012	-0.217
-462.099	-171.067	0.116	0.004
-461.084	-200.000	-0.007	-0.176
-460.070	-60.883	-0.299	-0.128
-459.055	71.766	0.060	0.063
-458.040	-76.315	-0.052	0.019
-457.026	-20.878	0.367	-0.226
-456.011	1.475	-0.200	-0.145
-454.997	-121.633	-0.103	-0.017
-453.982	651.433	-0.114	-0.293
-452.968	-200.000	0.041	0.307
-451.953	681.580	0.109	0.285
-450.938	136.357	0.134	-0.176
-449.924	-55.744	0.234	-0.105
-448.909	-200.000	0.005	-0.371
-447.895	204.471	0.061	-0.095
-446.880	356.030	0.020	0.039
-445.865	-200.000	0.043	-0.347
-444.851	283.682	0.048	0.086
-443.836	33.620	-0.105	-0.092
-442.822	396.397	-0.200	0.420
-441.807	-200.000	0.031	-0.435
-440.792	-59.644	-0.270	-0.116
-439.778	-66.545	-0.216	0.086
-438.763	-60.794	0.175	0.075
-437.749	-200.000	-0.004	0.153
-436.734	-155.118	-0.359	0.024
-435.719	6.907	-0.118	0.089
-434.705	-200.000	-0.009	0.324
-433.690	-200.000	-0.033	0.233
-432.676	202.895	-0.036	-0.056
-431.661	800.000	-0.067	0.208
-430.646	211.870	-0.167	-0.265
-429.632	-200.000	0.028	-0.281
-428.617	270.584	0.106	0.187
-427.603	-22.774	0.208	-0.126
-426.588	221.149	0.072	0.117
-425.573	608.742	0.077	-0.194
-424.559	-200.000	-0.016	0.159
-423.544	66.505	-0.245	0.250
-422.530	157.934	-0.163	-0.226
-421.515	-200.000	-0.052	0.257
-420.500	-112.545	0.194	-0.039
-419.486	277.158	0.106	-0.190
-418.471	800.000	-0.041	-0.172
-417.457	800.000	0.020	0.074
-416.442	-11.599	-0.190	0.125
-415.428	-67.914	-0.113	0.044
-414.413	-140.005	0.087	-0.009
-413.398	-17.736	-0.064	-0.041
-412.384	17.622	-0.234	0.187
-411.369	-96.838	0.199	-0.052
-410.355	91.299	-0.113	0.128
-409.340	133.467	-0.170	-0.221
-408.325	205.046	-0.177	0.275
-407.311	-24.305	0.277	-0.166
-406.296	1.983	-0.227	-0.165
-405.282	-200.000	-0.037	0.249
-404.267	-7.629	0.160	0.109
-403.252	-177.765	0.369	-0.009
-402.238	-26.951	-0.149	0.087
-401.223	91.843	-0.194	0.219
-400.209	-200.000	0.008	0.065
-399.194	-200.000	0.023	-0.230
-398.179	-148.059	0.273	0.023
-397.165	-75.819	0.226	0.080
-396.150	245.158	0.091	-0.154
-395.136	-92.901	0.084	0.023
-394.121	102.540	-0.287	-0.337
-393.106	-200.000	-0.033	-0.282
-392.092	-114.554	-0.034	0.007
-391.077	254.194	-0.156	0.267
-390.063	-189.706	-0.274	0.003
-389.048	184.336	-0.147	-0.219
-388.033	-18.487	0.177	0.111
-387.019	758.887	-0.029	-0.079
-386.004	-40.246	0.104	-0.054
-384.990	-200.000	0.005	0.184
-383.975	345.312	-0.058	-0.114
-382.960	69.115	-0.102	0.105
-381.946	-51.208	-0.206	0.097
-380.931	31.618	-0.307	0.265
-379.917	394.891	0.088	-0.183
-378.902	46.265	-0.249	-0.231
-377.888	-53.110	0.254	-0.117
-376.873	-7.678	0.192	-0.130
-375.858	-106.798	-0.231	-0.051
-374.844	88.482	0.248	-0.277
-373.829	-200.000	-0.039	-0.231
-372.815	-200.000	0.010	0.215
-371.800	800.000	0.026	-0.113
-370.785	237.872	0.052	-0.087
-369.771	-41.968	0.092	0.047
-368.756	800.000	0.078	-0.275
-367.742	-95.089	0.122	0.033
-366.727	-200.000	-0.058	-0.296
-365.712	373.632	0.039	0.079
-364.698	372.625	0.119	0.243
-363.683	-90.292	-0.067	-0.020
-362.669	770.936	-0.042	0.114
-361.654	-200.000	0.016	-0.077
-360.639	800.000	0.048	0.147
-359.625	-94.957	-0.130	0.035
-358.610	56.298	-0.245	-0.238
-357.596	-48.207	0.384	0.186
-356.581	-44.030	-0.155	0.078
-355.566	115.422	0.245	0.300
-354.552	-102.238	0.251	-0.060
-353.537	725.058	0.081	0.216
-352.523	-154.298	-0.375	0.025
-351.508	-49.072	0.224	-0.107
-350.493	800.000	-0.099	0.276
-349.479	686.284	0.070	0.184
-348.464	15.727	-0.142	0.112
-347.450	-200.000	0.011	0.056
-346.435	-200.000	-0.012	-0.078
-345.420	-179.593	-0.053	-0.001
-344.406	800.000	0.028	0.117
-343.391	800.000	-0.096	-0.305
-342.377	-92.340	0.259	-0.073
-341.362	-108.411	-0.229	-0.049
-340.348	347.325	0.209	-0.412
-339.333	-144.323	0.242	-0.023
-338.318	800.000	0.012	-0.038
-337.304	337.012	-0.196	-0.381
-336.289	-200.000	0.010	-0.228
-335.275	173.310	-0.166	0.240
-334.260	-96.195	0.026	-0.007
-333.245	305.910	0.188	0.351
-332.231	-15.036	0.165	0.106
-331.216	-108.840	0.207	0.044
-330.202	-96.133	0.154	0.041
-329.187	264.253	-0.044	-0.077
-328.172	205.442	0.116	-0.180
-327.158	-200.000	-0.021	-0.368
-326.143	800.000	-0.079	-0.315
-325.129	-68.908	-0.296	0.114
-324.114	-189.572	0.092	-0.001
-323.099	-200.000	-0.251	-0.001
-322.085	-34.369	-0.208	0.114
-321.070	33.555	-0.274	-0.239
-320.056	4.052	-0.086	-0.063
-319.041	-100.945	-0.359	0.088
-318.026	67.942	0.100	0.102
-317.012	-200.000	-0.002	0.114
-315.997	194.727	-0.131	0.199
-314.983	-200.000	-0.018	0.314
-313.968	-57.455	0.283	-0.124
-312.953	-200.000	0.007	0.160
-311.939	-10.493	0.275	0.182
-310.924	110.009	0.112	0.135
-309.910	800.000	0.048	-0.208
-308.895	-139.296	0.198	-0.021
-307.880	-200.000	-0.034	0.158
-306.866	-200.000	-0.006	0.276
-305.851	673.424	-0.096	0.250
-304.837	115.310	0.236	-0.289
-303.822	800.000	0.028	-0.079
-302.807	-82.593	0.145	0.047
-301.793	-82.646	-0.056	-0.018
-300.778	-23.880	0.091	0.054
-299.764	-179.751	0.487	0.011
-298.749	-97.620	0.219	0.057
-297.735	251.798	-0.129	-0.220
-296.720	-200.000	-0.010	0.259
-295.705	61.373	-0.107	0.107
-294.691	379.866	-0.011	-0.022
-293.676	800.000	-0.048	-0.206
-292.662	800.000	0.073	-0.238
-291.647	153.029	0.244	0.334
-290.632	-101.087	0.323	-0.079
-289.618	-27.363	-0.468	0.272
-288.603	-119.267	-0.094	0.016
-287.589	717.916	-0.122	-0.324
-286.574	-149.284	-0.073	0.006
-285.559	-200.000	0.009	-0.170
-284.545	18.099	-0.124	-0.099
-283.530	-22.686	0.109	0.066
-282.516	463.242	-0.074	0.165
-281.501	-118.124	0.200	-0.036
-280.486	-129.144	0.253	0.035
-279.472	-200.000	0.050	-0.362
-278.457	-95.076	-0.083	0.022
-277.443	-200.000	0.017	-0.114
-276.428	-78.637	-0.230	-0.078
-275.413	546.325	0.068	0.163
-274.399	48.021	-0.342	-0.320
-273.384	800.000	0.157	0.518
-272.370	-120.764	0.159	0.027
-271.355	-70.321	-0.111	-0.042
-270.340	800.000	0.042	0.158
-269.326	89.068	0.153	0.170
-268.311	433.972	0.109	0.236
-267.297	800.000	-0.076	-0.277
-266.282	-200.000	0.034	-0.158
-265.267	800.000	-0.084	0.330
-264.253	-94.010	0.188	-0.052
-263.238	51.176	-0.130	-0.123
-262.224	631.137	-0.050	-0.126
-261.209	385.079	-0.082	0.169
-260.195	-200.000	-0.018	0.172
-259.180	177.602	-0.120	0.175
-258.165	458.913	0.087	0.194
-257.151	164.987	-0.121	0.171
-256.136	171.756	-0.076	0.109
-255.122	55.727	0.133	0.128
-254.107	-95.691	-0.259	-0.069
-253.092	28.821	0.309	-0.262
-252.078	-200.000	0.096	0.000
-251.063	-126.894	0.447	0.066
-250.049	-44.024	0.108	-0.054
-249.034	-108.044	-0.123	-0.027
-248.019	-83.953	-0.256	0.081
-247.005	-45.486	-0.183	0.091
-245.990	-146.590	0.081	0.007
-244.976	-95.816	-0.154	0.041
-243.961	-200.000	0.012	0.116
-242.946	-68.505	0.099	-0.038
-241.932	-103.969	-0.230	0.053
-240.917	-10.267	-0.201	-0.133
-239.903	-75.734	0.225	0.080
-238.888	800.000	0.096	0.267
-237.873	-126.624	-0.051	-0.008
-236.859	-3.889	0.182	-0.126
-235.844	-19.238	-0.162	-0.101
-234.830	123.356	-0.131	0.164
-233.815	395.031	-0.181	-0.377
-232.800	-200.000	-0.008	0.086
-231.786	-106.957	-0.026	0.006
-230.771	800.000	-0.021	0.071
-229.757	-128.698	0.142	-0.020
-228.742	-3.025	0.065	0.045
-227.727	-51.406	0.083	-0.039
-226.713	597.134	-0.157	-0.389
-225.698	-200.000	0.013	0.077
-224.684	-95.530	0.050	0.013
-223.669	108.056	0.184	-0.219
-222.655	-200.000	-0.006	0.131
-221.640	179.451	-0.099	-0.145
-220.625	-101.347	-0.130	0.032
-219.611	150.264	0.099	-0.134
-218.596	-144.696	0.543	0.050
-217.582	800.000	0.074	-0.319
-216.567	775.830	-0.076	0.207
-215.552	371.987	-0.019	0.038
-214.538	355.832	0.043	-0.085
-213.523	19.145	-0.131	-0.105
-212.509	-8.491	0.218	0.146
-211.494	231.792	-0.228	0.373
-210.479	11.441	-0.257	0.196
-209.465	-111.942	-0.095	0.019
-208.450	-84.034	0.122	-0.039
-207.436	-43.486	0.350	-0.176
-206.421	111.193	0.260	0.312
-205.406	16.606	-0.205	0.161
-204.392	-133.484	-0.210	-0.026
-203.377	-200.000	0.007	-0.041
-202.363	504.074	-0.121	-0.279
-201.348	523.173	0.143	0.334
-200.333	-103.104	0.482	0.114
-199.319	20.013	-0.042	-0.034
-198.304	100.931	-0.144	0.167
-197.290	378.571	0.147	-0.300
-196.275	46.509	0.031	0.029
-195.260	-137.676	-0.126	-0.014
-194.246	-18.251	-0.216	0.134
-193.231	14.715	0.387	0.301
-192.217	123.417	-0.250	0.312
-191.202	800.000	-0.104	-0.299
-190.187	-2.182	0.171	0.119
-189.173	-160.957	-0.065	-0.003
-188.158	41.988	-0.185	0.167
-187.144	271.252	0.084	0.147
-186.129	85.669	-0.048	0.053
-185.114	2.043	-0.161	0.115
-184.100	238.217	-0.080	-0.132
-183.085	-49.459	-0.254	0.121
-182.071	167.035	-0.090	-0.128
-181.056	12.713	0.248	0.191
-180.042	-200.000	0.038	-0.224
-179.027	2.894	-0.222	-0.160
-178.012	-8.564	-0.116	-0.078
-176.998	-200.000	-0.022	-0.166
-175.983	-50.850	0.202	-0.095
-174.969	-92.128	-0.135	-0.038
-173.954	180.680	0.107	0.156
-172.939	-200.000	0.013	-0.177
-171.925	-200.000	0.009	0.068
-170.910	-200.000	0.003	0.119
-169.896	77.590	-0.100	-0.106
-168.881	82.315	0.205	0.221
-167.866	-200.000	-0.067	-0.334
-166.852	107.387	0.059	-0.070
-165.837	-49.344	0.193	-0.091
-164.823	-36.167	0.156	0.084
-163.808	800.000	0.073	0.283
-162.793	-138.996	-0.099	-0.011
-161.779	-73.387	0.189	0.069
-160.764	-106.739	0.481	0.106
-159.750	170.744	0.119	0.169
-158.735	-47.524	0.239	0.115
-157.720	110.202	0.084	0.100
-156.706	-200.000	-0.037	0.228
-155.691	-119.192	0.295	-0.051
-154.677	-8.775	-0.260	-0.173
-153.662	-65.840	-0.138	0.055
-152.647	-26.123	0.420	0.245
-151.633	-23.378	-0.208	-0.124
-150.618	-39.787	-0.038	-0.020
-149.604	29.553	-0.220	-0.186
-148.589	800.000	0.144	0.402
-147.574	-200.000	0.040	0.652
-146.560	-113.851	-0.149	-0.029
-145.545	78.429	-0.096	-0.102
-144.531	800.000	0.025	0.077
-143.516	-200.000	-0.008	-0.190
-142.502	49.089	-0.182	0.170
-141.487	-31.991	-0.274	0.153
-140.472	-11.021	0.254	0.166
-139.458	800.000	0.046	-0.149
-138.443	-97.666	-0.214	-0.055
-137.429	800.000	0.126	0.370
-136.414	-200.000	-0.013	0.340
-135.399	-118.950	0.166	-0.029
-134.385	-135.056	0.374	0.045
-133.370	-144.865	-0.380	-0.035
-132.356	276.036	-0.202	0.357
-131.341	-200.000	-0.026	0.297
-130.326	800.000	0.072	0.306
-129.312	-200.000	-0.070	-0.342
-128.297	-10.633	0.130	0.085
-127.283	71.211	0.119	-0.123
-126.268	800.000	0.032	-0.112
-125.253	-200.000	-0.038	-0.293
-124.239	26.315	-0.109	0.090
-123.224	-46.163	-0.124	0.061
-122.210	800.000	0.036	0.120
