DTS Sentinel unit serial number:	SN413079Multiplexer serial number:	ORYXHardware model number:	OX4-SRSoftware version number:	ORYX F/W v4.00 Oryx Data Collector v3.7.2.0data status	okinstallation	princeton_trtdifferential loss correction	single-endedforward channel	channel 1reverse channel	N/Adate	2019/09/12time	20:07:34forward acquisition time	15.00reverse acquisition time	0.00gamma	496.2192k internal	0.2323k external	0.2323temperature offset calibration	1.0134default loss term (dB/km)	0.3790temperature slope calibration	1.0000multiplexer offset coefficient	1.0000multiplexer slope coefficient	1.0000fibre end	0.00T internal ref (°C)	31.62T ext. ref 1 (°C)	3.43T ext. ref 2 (°C)	26.26length (m)	temperature (°C)	Stokes	anti-Stokes-747.200	58.358	-0.915	-0.907
-746.185	-109.643	0.229	-0.049
-745.171	800.000	0.036	0.101
-744.156	800.000	-0.134	0.425
-743.142	-156.095	1.279	0.082
-742.127	20.369	-0.378	-0.309
-741.112	-200.000	0.006	-0.389
-740.098	793.006	-0.268	0.745
-739.083	109.449	-0.558	0.674
-738.069	162.075	0.117	0.165
-737.054	128.472	-0.585	-0.752
-736.039	800.000	0.060	0.193
-735.025	371.097	0.210	0.431
-734.010	-188.711	-1.360	-0.017
-732.996	800.000	-0.249	0.864
-731.981	800.000	-0.185	-0.544
-730.966	800.000	0.206	-0.642
-729.952	81.880	0.401	-0.438
-728.937	53.319	0.346	-0.335
-727.923	14.810	0.739	-0.584
-726.908	56.753	-0.115	0.113
-725.894	800.000	0.214	-0.691
-724.879	300.666	-0.192	0.357
-723.864	260.741	0.307	0.535
-722.850	271.650	-0.476	0.846
-721.835	432.714	0.366	-0.801
-720.821	-141.692	-0.165	-0.017
-719.806	408.493	0.380	-0.812
-718.791	-70.348	-0.169	0.065
-717.777	-200.000	-0.038	-0.613
-716.762	800.000	0.314	0.916
-715.748	-5.787	-0.480	-0.331
-714.733	-4.663	-0.221	0.154
-713.718	-74.661	0.320	0.116
-712.704	342.340	0.328	0.647
-711.689	69.430	0.783	0.813
-710.675	-66.670	-0.381	-0.152
-709.660	-200.000	0.056	0.273
-708.645	62.529	-0.296	-0.298
-707.631	-137.097	0.442	-0.051
-706.616	-115.701	-1.056	-0.200
-705.602	-200.000	0.036	-0.356
-704.587	-200.000	-0.052	-0.580
-703.572	-200.000	0.088	-0.396
-702.558	800.000	0.066	0.233
-701.543	800.000	-0.082	-0.304
-700.529	800.000	0.051	0.186
-699.514	-22.624	-0.175	0.107
-698.499	250.993	-0.374	0.642
-697.485	-145.735	0.478	0.043
-696.470	20.620	-0.228	0.186
-695.456	16.719	0.336	0.268
-694.441	212.251	-0.298	-0.473
-693.426	-127.795	0.539	-0.078
-692.412	88.850	-0.364	0.408
-691.397	-116.916	-1.169	0.215
-690.383	-88.494	-0.458	-0.138
-689.368	-27.355	-0.244	0.143
-688.354	-173.361	0.634	0.019
-687.339	800.000	-0.133	-0.437
-686.324	76.110	0.356	0.380
-685.310	10.352	-0.143	0.110
-684.295	-138.979	-0.602	-0.066
-683.281	-200.000	0.025	-0.465
-682.266	800.000	0.159	-0.495
-681.251	800.000	0.116	-0.455
-680.237	97.871	0.210	0.243
-679.222	-7.361	0.157	-0.107
-678.208	308.198	0.312	0.587
-677.193	-35.868	-0.195	0.106
-676.178	220.369	-0.444	-0.717
-675.164	-50.772	-1.200	-0.569
-674.149	-74.739	0.453	0.164
-673.135	125.215	-0.246	-0.313
-672.120	-200.000	-0.002	0.052
-671.105	-200.000	0.030	0.571
-670.091	76.580	0.384	0.410
-669.076	-65.885	0.441	-0.178
-668.062	44.676	0.318	0.294
-667.047	-40.138	0.172	-0.090
-666.032	158.793	-0.306	-0.428
-665.018	738.085	0.281	-0.758
-664.003	54.415	-0.640	0.621
-662.989	-11.633	-0.360	-0.238
-661.974	-79.361	0.386	-0.132
-660.959	800.000	0.157	0.521
-659.945	-200.000	0.225	0.997
-658.930	-200.000	-0.002	0.779
-657.916	-200.000	-0.017	-0.383
-656.901	675.838	0.192	-0.502
-655.886	31.088	0.318	0.274
-654.872	-200.000	-0.029	-0.860
-653.857	105.865	0.397	-0.473
-652.843	-41.380	0.341	-0.177
-651.828	98.267	-0.156	-0.180
-650.814	-43.347	0.147	0.075
-649.799	36.309	-0.140	-0.124
-648.784	76.524	-0.538	0.574
-647.770	-20.506	-0.455	0.281
-646.755	-200.000	0.122	-0.881
-645.741	-122.149	-0.802	0.132
-644.726	-84.059	-0.201	0.064
-643.711	13.845	-0.113	-0.088
-642.697	-44.312	0.435	-0.219
-641.682	-17.522	0.684	0.433
-640.668	-200.000	0.116	-0.882
-639.653	63.310	-0.270	-0.273
-638.638	250.466	0.012	0.020
-637.624	36.913	0.146	0.130
-636.609	-27.219	0.431	-0.252
-635.595	14.984	0.336	-0.264
-634.580	8.042	0.209	-0.158
-633.565	62.103	0.489	0.490
-632.551	-114.185	0.424	-0.082
-631.536	-200.000	0.023	-0.628
-630.522	198.135	-0.319	-0.490
-629.507	800.000	0.164	-0.541
-628.492	47.795	-0.638	0.598
-627.478	353.865	-0.411	0.820
-626.463	55.178	0.259	-0.252
-625.449	1.900	0.200	-0.145
-624.434	-51.743	-0.413	0.193
-623.419	20.681	0.622	0.506
-622.405	-73.847	-0.315	-0.115
-621.390	-136.784	0.715	0.083
-620.376	220.802	0.388	-0.626
-619.361	-119.440	-0.413	-0.072
-618.346	232.003	0.407	0.671
-617.332	667.556	0.209	0.543
-616.317	-135.743	0.235	-0.028
-615.303	-121.637	1.167	-0.194
-614.288	-59.501	0.242	-0.105
-613.273	800.000	0.114	0.380
-612.259	-71.590	0.471	0.177
-611.244	92.093	-0.295	0.334
-610.230	-148.468	0.273	-0.022
-609.215	-92.555	-0.782	-0.221
-608.201	-38.134	0.235	-0.125
-607.186	64.787	0.307	0.311
-606.171	96.413	-0.050	0.057
-605.157	-39.753	-0.541	0.284
-604.142	-84.212	0.555	0.177
-603.128	-165.988	0.434	-0.019
-602.113	-200.000	-0.040	0.406
-601.098	-41.668	-0.256	0.132
-600.084	8.720	-0.885	-0.669
-599.069	-200.000	0.019	-0.386
-598.055	-56.942	1.257	0.557
-597.040	205.737	0.193	0.302
-596.025	700.687	0.168	-0.443
-595.011	420.165	0.040	-0.086
-593.996	-25.962	0.204	0.121
-592.982	386.228	-0.248	-0.514
-591.967	136.633	0.249	-0.326
-590.952	-91.255	-0.158	0.045
-589.938	635.709	-0.065	0.166
-588.923	-200.000	0.018	0.179
-587.909	-186.017	-0.082	-0.001
-586.894	201.498	0.312	-0.482
-585.879	363.534	-0.359	0.723
-584.865	-200.000	0.076	0.546
-583.850	-39.890	0.563	-0.295
-582.836	-102.133	0.327	0.079
-581.821	602.348	-0.275	-0.685
-580.806	395.500	-0.113	-0.236
-579.792	-12.869	0.300	-0.196
-578.777	-134.175	0.558	0.069
-577.763	336.997	-0.375	0.731
-576.748	455.453	-0.239	0.532
-575.733	2.740	0.193	-0.141
-574.719	800.000	0.231	-0.706
-573.704	800.000	0.313	0.897
-572.690	800.000	-0.222	-0.696
-571.675	-200.000	-0.003	-0.022
-570.661	30.046	0.784	0.670
-569.646	32.584	0.378	-0.328
-568.631	52.865	0.130	0.125
-567.617	-79.878	-0.294	-0.099
-566.602	185.836	-0.316	-0.470
-565.588	-19.689	0.883	-0.548
-564.573	-147.625	-1.512	0.128
-563.558	-200.000	0.086	0.412
-562.544	-200.000	0.090	-0.481
-561.529	-43.345	-0.273	0.138
-560.515	246.022	0.128	0.217
-559.500	-130.867	0.061	-0.008
-558.485	-62.603	0.980	0.408
-557.471	-11.554	-0.559	-0.368
-556.456	-140.126	-0.332	-0.035
-555.442	143.388	0.490	0.655
-554.427	23.567	0.295	-0.244
-553.412	-159.619	-0.431	-0.024
-552.398	-25.921	0.389	0.230
-551.383	-187.898	-1.029	-0.013
-550.369	45.469	-0.696	0.644
-549.354	-200.000	0.137	0.702
-548.339	61.312	-0.109	0.108
-547.325	-200.000	-0.158	0.777
-546.310	-100.636	0.293	0.072
-545.296	-75.259	-0.288	0.103
-544.281	776.443	0.222	-0.609
-543.266	-200.000	-0.085	1.112
-542.252	218.679	0.403	0.645
-541.237	158.304	-0.178	-0.248
-540.223	-60.949	0.302	-0.128
-539.208	211.817	0.506	-0.798
-538.193	-101.658	0.783	-0.190
-537.179	800.000	-0.050	0.212
-536.164	70.610	0.123	-0.127
-535.150	-200.000	-0.032	-0.231
-534.135	-200.000	0.043	-0.543
-533.121	194.027	-0.119	0.181
-532.106	134.145	0.093	-0.120
-531.091	-164.727	-0.805	-0.036
-530.077	59.263	0.142	0.140
-529.062	-87.212	-0.208	-0.063
-528.048	-65.834	-0.542	-0.217
-527.033	-200.000	-0.033	-0.833
-526.018	-9.897	-0.511	0.340
-525.004	-200.000	0.011	0.124
-523.989	-64.445	0.836	0.340
-522.975	-115.143	-0.958	0.182
-521.960	-124.146	0.364	-0.057
-520.945	133.104	0.065	-0.084
-519.931	6.219	0.406	0.301
-518.916	95.866	-0.344	-0.393
-517.902	319.750	0.332	-0.631
-516.887	-119.032	0.153	0.027
-515.872	755.543	-0.076	0.206
-514.858	-123.089	0.383	-0.062
-513.843	-157.769	0.639	-0.038
-512.829	18.639	0.331	-0.265
-511.814	236.767	-0.149	-0.248
-510.799	-200.000	0.055	-0.694
-509.785	244.493	0.250	-0.421
-508.770	800.000	-0.225	-0.982
-507.756	177.930	-0.113	0.165
-506.741	-200.000	-0.119	0.642
-505.726	106.692	-0.081	0.097
-504.712	-163.748	-0.248	0.012
-503.697	-42.906	-1.119	-0.568
-502.683	245.857	0.410	-0.690
-501.668	-200.000	0.054	0.499
-500.653	-200.000	-1.190	0.002
-499.639	-119.746	0.537	-0.093
-498.624	688.806	-0.405	1.059
-497.610	-200.000	-0.045	-0.866
-496.595	52.447	0.413	-0.394
-495.581	444.740	-0.076	0.167
-494.566	96.752	-0.301	-0.345
-493.551	-24.381	0.360	-0.215
-492.537	-200.000	-0.189	0.908
-491.522	-69.359	-0.391	-0.150
-490.508	344.257	0.335	-0.657
-489.493	232.066	0.386	-0.634
-488.478	-200.000	0.166	0.775
-487.464	-86.866	0.998	-0.305
-486.449	77.352	-0.495	-0.527
-485.435	-25.942	-0.932	0.548
-484.420	-200.000	-0.086	0.499
-483.405	-200.000	-0.004	0.439
-482.391	-19.498	0.213	0.132
-481.376	-173.390	-0.796	-0.024
-480.362	-200.000	0.291	-0.001
-479.347	201.459	-0.235	0.362
-478.332	-184.482	0.481	-0.008
-477.318	-92.311	0.783	0.220
-476.303	-94.805	0.009	0.002
-475.289	800.000	-0.166	0.552
-474.274	-200.000	-0.007	0.057
-473.259	34.491	-0.567	-0.495
-472.245	-94.237	-0.630	-0.172
-471.230	-162.844	-0.364	0.018
-470.216	-117.001	0.618	-0.113
-469.201	-200.000	0.042	-0.212
-468.186	181.647	-0.337	0.496
-467.172	162.451	0.283	0.396
-466.157	252.170	-0.422	-0.719
-465.143	3.971	0.111	-0.081
-464.128	-112.870	0.480	0.095
-463.113	158.019	-0.437	0.606
-462.099	-71.967	0.690	0.256
-461.084	47.294	-0.218	0.203
-460.070	118.345	0.499	-0.614
-459.055	-99.905	-0.228	-0.057
-458.040	-75.981	-0.316	-0.112
-457.026	199.201	-0.213	0.326
-456.011	64.895	-0.551	0.556
-454.997	73.888	0.053	0.056
-453.982	-103.058	1.037	-0.245
-452.968	45.875	0.352	-0.325
-451.953	-74.806	0.554	0.199
-450.938	-200.000	0.061	-0.360
-449.924	-178.788	0.306	0.007
-448.909	89.504	-0.104	-0.116
-447.895	800.000	-0.198	0.836
-446.880	215.711	-0.316	-0.501
-445.865	37.038	0.331	0.292
-444.851	-152.380	0.422	0.030
-443.836	51.885	0.232	-0.220
-442.822	-81.035	-0.068	-0.022
-441.807	136.896	-0.127	-0.165
-440.792	-127.573	-0.587	0.085
-439.778	49.630	-0.119	-0.112
-438.763	-200.000	-0.200	-1.140
-437.749	-171.828	-0.400	-0.013
-436.734	-15.847	-0.554	0.352
-435.719	89.205	-0.892	-0.991
-434.705	800.000	0.090	0.344
-433.690	447.430	-0.258	-0.566
-432.676	9.909	-0.379	0.287
-431.661	800.000	-0.093	-0.386
-430.646	-89.730	0.364	-0.106
-429.632	700.409	-0.114	-0.300
-428.617	274.005	-0.619	1.092
-427.603	-200.000	0.048	0.640
-426.588	459.927	-0.099	0.220
-425.573	-93.644	-0.419	-0.115
-424.559	111.774	0.216	0.260
-423.544	-30.027	-0.105	-0.059
-422.530	-200.000	0.054	0.689
-421.515	67.893	-0.202	-0.206
-420.500	-11.890	-0.275	-0.180
-419.486	-200.000	-0.075	-0.691
-418.471	-76.110	-0.925	0.326
-417.457	-72.079	1.107	-0.410
-416.442	-160.058	-0.380	0.021
-415.428	431.599	-0.385	-0.831
-414.413	800.000	-0.364	-1.047
-413.398	-84.034	0.455	0.144
-412.384	-200.000	-0.049	0.955
-411.369	-84.628	0.590	0.185
-410.355	-39.662	0.066	-0.035
-409.340	130.871	0.350	-0.447
-408.325	-195.056	0.521	0.004
-407.311	504.785	0.107	-0.247
-406.296	729.556	-0.093	0.246
-405.282	54.045	-0.228	0.218
-404.267	222.121	-0.295	-0.472
-403.252	330.429	0.230	0.441
-402.238	-45.127	-0.135	-0.067
-401.223	-31.343	-0.280	0.157
-400.209	64.843	0.108	0.109
-399.194	-98.714	0.839	0.213
-398.179	800.000	0.219	-0.650
-397.165	176.158	-0.575	0.832
-396.150	262.455	-0.326	0.564
-395.136	-180.541	0.402	-0.008
-394.121	408.874	0.590	-1.244
-393.106	210.716	-0.459	-0.719
-392.092	-200.000	0.042	0.299
-391.077	800.000	0.085	0.255
-390.063	-166.435	0.559	0.023
-389.048	800.000	0.064	0.179
-388.033	-125.432	-0.452	0.069
-387.019	310.060	-0.329	0.612
-386.004	54.402	-0.076	0.073
-384.990	-200.000	0.080	0.460
-383.975	36.575	-0.387	-0.340
-382.960	-28.850	-0.494	0.282
-381.946	150.832	0.242	-0.328
-380.931	800.000	-0.157	0.467
-379.917	-6.806	-0.332	-0.225
-378.902	-200.000	-0.005	0.085
-377.888	-200.000	-0.061	0.373
-376.873	-29.703	-0.765	0.435
-375.858	-19.725	0.299	-0.184
-374.844	800.000	0.128	0.514
-373.829	-95.483	-0.568	-0.152
-372.815	800.000	0.149	0.476
-371.800	17.175	-0.359	-0.284
-370.785	-12.919	0.380	0.246
-369.771	-200.000	0.155	0.807
-368.756	800.000	0.257	-0.757
-367.742	-150.387	0.300	0.023
-366.727	-200.000	-0.029	-0.423
-365.712	347.969	-0.034	-0.067
-364.698	-107.518	0.233	0.051
-363.683	800.000	0.463	-1.439
-362.669	-200.000	0.063	-0.361
-361.654	296.610	-0.408	0.744
-360.639	138.009	-0.533	-0.695
-359.625	-141.292	0.171	0.017
-358.610	-200.000	-0.039	0.985
-357.596	16.303	-0.401	0.315
-356.581	-200.000	-0.091	-0.478
-355.566	-4.694	0.554	-0.381
-354.552	800.000	-0.068	-0.298
-353.537	139.186	-0.130	-0.170
-352.523	9.552	0.230	0.174
-351.508	200.626	-0.568	0.868
-350.493	-200.000	0.141	0.732
-349.479	-165.860	0.575	-0.025
-348.464	458.958	-0.257	-0.568
-347.450	800.000	0.039	0.131
-346.435	-200.000	0.085	0.000
-345.420	-163.700	-1.093	0.051
-344.406	-138.659	-0.307	0.033
-343.391	-105.749	0.636	-0.143
-342.377	-109.047	-0.112	0.024
-341.362	-169.716	0.587	-0.021
-340.348	-69.732	-0.343	0.130
-339.333	317.921	-0.222	0.417
-338.318	800.000	0.131	0.454
-337.304	-139.816	0.655	-0.069
-336.289	-39.504	-0.699	-0.364
-335.275	-21.080	0.507	-0.308
-334.260	800.000	0.068	-0.219
-333.245	42.687	0.322	0.291
-332.231	582.851	-0.205	0.499
-331.216	83.832	0.872	-0.946
-330.202	221.248	0.530	-0.846
-329.187	-69.771	-0.583	-0.221
-328.172	665.582	0.173	0.444
-327.158	180.777	-0.312	0.455
-326.143	206.414	0.498	-0.770
-325.129	-157.536	-1.110	-0.066
-324.114	-200.000	0.110	0.513
-323.099	-200.000	0.091	-0.445
-322.085	800.000	-0.031	0.094
-321.070	-12.349	-0.219	0.142
-320.056	40.650	-0.371	-0.332
-319.041	-106.076	-0.679	-0.152
-318.026	800.000	0.024	-0.083
-317.012	19.202	0.430	-0.343
-315.997	-91.981	0.740	-0.208
-314.983	-60.006	-0.296	0.126
-313.968	789.577	-0.140	-0.382
-312.953	34.419	-0.996	-0.863
-311.939	480.475	-0.248	0.560
-310.924	-77.184	0.394	-0.136
-309.910	-141.521	-0.410	-0.041
-308.895	-99.309	0.456	-0.114
-307.880	800.000	0.163	0.593
-306.866	-200.000	0.031	0.291
-305.851	572.470	-0.275	-0.665
-304.837	144.628	0.266	-0.352
-303.822	-131.855	-0.448	0.058
-302.807	-147.493	-0.413	0.035
-301.793	13.341	-0.573	0.441
-300.778	-22.607	0.713	0.428
-299.764	-146.769	0.356	0.031
-298.749	-76.364	-0.543	0.190
-297.735	263.929	0.393	0.679
-296.720	-43.135	0.208	-0.105
-295.705	-115.626	-0.417	0.078
-294.691	-99.179	-0.937	0.235
-293.676	190.390	-0.054	-0.080
-292.662	-200.000	-0.008	-0.318
-291.647	-165.167	-0.445	-0.020
-290.632	-146.379	-0.394	-0.034
-289.618	-0.105	-0.332	-0.235
-288.603	-111.128	0.753	-0.153
-287.589	-200.000	0.001	0.244
-286.574	-77.211	-0.563	0.194
-285.559	206.528	-0.389	-0.602
-284.545	-200.000	-0.102	1.133
-283.530	332.658	0.276	-0.529
-282.516	55.144	-0.072	-0.069
-281.501	150.819	-0.580	0.782
-280.486	172.976	-0.122	0.174
-279.472	64.907	-0.200	0.200
-278.457	18.328	0.211	0.167
-277.443	691.247	0.127	-0.330
-276.428	678.378	0.239	-0.617
-275.413	-69.383	0.292	0.111
-274.399	-98.988	-0.080	-0.020
-273.384	-31.881	0.389	-0.216
-272.370	-75.415	0.377	-0.133
-271.355	247.828	0.318	-0.534
-270.340	-200.000	0.100	-0.613
-269.326	215.925	0.230	0.363
-268.311	165.107	0.248	-0.347
-267.297	-109.212	0.947	-0.199
-266.282	60.852	0.254	0.250
-265.267	-118.319	-0.603	0.106
-264.253	-200.000	0.081	-0.901
-263.238	-200.000	-0.104	0.708
-262.224	698.061	-0.170	0.442
-261.209	-200.000	0.031	-1.467
-260.195	145.148	-0.060	-0.079
-259.180	124.748	-0.067	0.084
-258.165	-22.085	0.582	-0.350
-257.151	-171.481	-0.496	0.016
-256.136	-200.000	0.031	-0.370
-255.122	-91.208	-0.807	-0.229
-254.107	-86.604	0.853	0.259
-253.092	-200.000	-0.131	-0.712
-252.078	-164.169	-0.398	-0.018
-251.063	61.944	0.240	-0.237
-250.049	-200.000	-0.046	0.320
-249.034	282.384	-0.432	-0.767
-248.019	0.003	0.374	-0.264
-247.005	-33.415	-0.731	-0.400
-245.990	-120.667	0.669	-0.112
-244.976	-98.337	-0.185	0.047
-243.961	16.507	0.454	-0.355
-242.946	518.704	0.266	0.616
-241.932	629.562	-0.221	0.554
-240.917	356.943	0.255	0.503
-239.903	88.134	0.315	0.346
-238.888	-47.371	-0.330	0.159
-237.873	-97.589	-0.405	-0.104
-236.859	470.990	0.155	0.345
-235.844	-128.601	-0.496	-0.069
-234.830	-116.960	-0.331	0.060
-233.815	-145.580	1.153	0.102
-232.800	180.313	0.294	-0.427
-231.786	-183.167	0.354	0.006
-230.771	-60.394	0.351	0.148
-229.757	-200.000	-0.010	-0.126
-228.742	-17.397	-0.722	-0.450
-227.727	-200.000	0.046	0.546
-226.713	499.053	-0.219	0.498
-225.698	800.000	0.123	-0.398
-224.684	-92.478	0.287	-0.080
-223.669	-49.576	-0.531	-0.250
-222.655	-131.746	0.672	0.087
-221.640	165.229	-0.205	0.287
-220.625	-144.380	-0.647	-0.059
-219.611	195.435	0.440	-0.661
-218.596	-200.000	0.111	-0.657
-217.582	-64.030	0.586	-0.237
-216.567	111.443	0.564	-0.673
-215.552	537.805	-0.089	0.209
-214.538	28.523	-0.303	0.253
-213.523	-200.000	0.060	-0.633
-212.509	-200.000	0.075	0.912
-211.494	800.000	-0.274	0.769
-210.479	800.000	0.222	-0.949
-209.465	-200.000	0.016	-0.464
-208.450	725.994	-0.225	0.592
-207.436	-131.231	-0.358	0.047
-206.421	-200.000	0.051	-0.915
-205.406	-14.897	-0.828	0.525
-204.392	93.328	-0.384	0.429
-203.377	-39.720	0.357	0.185
-202.363	20.141	-0.483	-0.386
-201.348	55.801	0.260	0.249
-200.333	-51.545	0.667	-0.308
-199.319	-61.578	-0.285	0.118
-198.304	-166.661	0.624	-0.026
-197.290	800.000	-0.096	-0.269
-196.275	-67.727	0.656	0.254
-195.260	-53.781	-0.471	-0.212
-194.246	282.032	-0.199	0.353
-193.231	-12.414	0.142	0.091
-192.217	-104.378	0.663	-0.152
-191.202	800.000	-0.111	-0.305
-190.187	-200.000	0.006	0.028
-189.173	176.046	-0.216	0.311
-188.158	92.530	-0.172	-0.191
-187.144	-200.000	-0.065	-0.452
-186.129	445.315	0.428	-0.928
-185.114	101.537	-0.583	-0.672
-184.100	283.306	-0.285	0.506
-183.085	-119.477	-0.470	-0.081
-182.071	80.819	-0.270	-0.287
-181.056	-200.000	0.036	-0.218
-180.042	-27.766	-0.566	0.324
-179.027	-35.470	0.433	0.232
-178.012	-123.021	-0.398	-0.063
-176.998	330.842	0.036	0.069
-175.983	1.184	0.370	0.262
-174.969	-121.554	0.237	0.039
-173.954	-132.588	-0.577	-0.073
-172.939	132.632	-0.136	0.173
-171.925	800.000	0.085	0.283
-170.910	199.474	0.341	0.516
-169.896	511.766	-0.301	0.692
-168.881	-93.315	0.097	0.027
-167.866	60.365	0.829	0.810
-166.852	800.000	-0.111	0.406
-165.837	141.429	0.346	0.452
-164.823	-105.191	-0.224	0.050
-163.808	99.685	-0.256	-0.293
-162.793	-130.154	-0.544	0.073
-161.779	-200.000	-0.111	1.317
-160.764	374.425	-0.472	0.949
-159.750	-93.266	0.513	0.141
-158.735	-32.542	-0.310	0.170
-157.720	-7.834	0.215	0.143
-156.706	-200.000	-0.019	-0.133
-155.691	147.631	0.683	0.908
-154.677	-35.401	0.934	-0.501
-153.662	-156.056	-0.124	0.008
-152.647	115.230	-0.659	0.794
-151.633	8.005	0.543	0.402
-150.618	291.189	0.185	0.333
-149.604	-108.206	-0.699	0.149
-148.589	800.000	-0.135	0.454
-147.574	-58.668	-0.496	0.212
-146.560	-57.120	0.585	-0.254
-145.545	-70.570	-0.133	-0.050
-144.531	-200.000	0.085	-0.510
-143.516	134.786	0.309	0.396
-142.502	-200.000	-0.092	0.631
-141.487	-23.125	0.679	-0.404
-140.472	-71.364	0.156	0.058
-139.458	298.425	-0.385	0.699
-138.443	150.837	-0.215	-0.289
-137.429	-111.310	1.028	0.207
-136.414	152.722	0.507	-0.684
-135.399	79.152	0.363	-0.384
-134.385	564.925	-0.214	0.510
-133.370	129.722	0.412	-0.520
-132.356	-24.062	-0.668	-0.394
-131.341	535.158	0.302	0.706
-130.326	-4.039	0.830	0.567
-129.312	-200.000	-0.016	0.613
-128.297	-194.575	0.349	0.003
-127.283	-200.000	-0.034	0.561
-126.268	-122.014	-0.292	0.047
-125.253	334.059	0.222	-0.424
-124.239	800.000	0.250	-0.729
-123.224	-200.000	-0.020	-0.470
-122.210	100.345	0.322	-0.368
-121.195	-60.281	-0.827	-0.347
