DTS Sentinel unit serial number:	SN413079Multiplexer serial number:	ORYXHardware model number:	OX4-SRSoftware version number:	ORYX F/W v4.00 Oryx Data Collector v3.7.2.0data status	okinstallation	princeton_trtdifferential loss correction	single-endedforward channel	channel 1reverse channel	N/Adate	2019/09/17time	19:14:35forward acquisition time	60.00reverse acquisition time	0.00gamma	496.2192k internal	0.2299k external	0.2299temperature offset calibration	0.9975default loss term (dB/km)	0.3790temperature slope calibration	1.0000multiplexer offset coefficient	1.0000multiplexer slope coefficient	1.0000fibre end	0.00T internal ref (°C)	38.77T ext. ref 1 (°C)	0.27T ext. ref 2 (°C)	27.01length (m)	temperature (°C)	Stokes	anti-Stokes-747.200	-65.934	-0.030	0.012
-746.185	404.476	0.182	0.392
-745.171	800.000	0.060	0.257
-744.156	-136.263	-0.392	-0.047
-743.142	-96.114	0.193	-0.052
-742.127	-62.225	-0.120	-0.051
-741.112	-35.692	0.054	-0.030
-740.098	161.678	-0.129	0.184
-739.083	-142.415	0.207	0.021
-738.069	74.369	-0.099	0.106
-737.054	-200.000	-0.029	-0.253
-736.039	-200.000	0.046	-0.320
-735.025	118.034	0.157	0.197
-734.010	36.416	-0.079	-0.071
-732.996	-87.679	-0.234	-0.072
-731.981	44.208	-0.250	0.234
-730.966	-127.019	0.208	-0.031
-729.952	800.000	0.060	0.257
-728.937	79.545	-0.310	-0.340
-727.923	-59.575	-0.386	0.169
-726.908	-200.000	0.058	-0.378
-725.894	800.000	-0.042	-0.142
-724.879	123.511	-0.236	-0.301
-723.864	-19.763	-0.263	0.166
-722.850	-186.132	-0.297	-0.004
-721.835	-18.005	0.108	-0.069
-720.821	-60.776	-0.087	0.037
-719.806	-11.322	-0.437	-0.293
-718.791	26.569	-0.194	0.165
-717.777	-9.956	0.360	-0.244
-716.762	800.000	-0.079	-0.281
-715.748	-200.000	0.035	-0.179
-714.733	78.560	-0.154	-0.168
-713.718	-23.638	0.075	-0.046
-712.704	-97.038	-0.135	-0.036
-711.689	-37.592	-0.262	0.142
-710.675	65.697	-0.033	0.034
-709.660	141.794	-0.114	-0.154
-708.645	22.888	-0.146	-0.122
-707.631	-8.836	-0.306	0.209
-706.616	-200.000	0.008	0.126
-705.602	-200.000	0.030	0.242
-704.587	-200.000	0.019	0.212
-703.572	-59.036	-0.148	0.065
-702.558	800.000	-0.074	-0.241
-701.543	645.379	-0.008	0.020
-700.529	72.200	-0.107	-0.113
-699.514	83.664	-0.257	-0.286
-698.499	397.105	0.214	-0.455
-697.485	-124.068	0.081	0.013
-696.470	43.200	-0.149	-0.138
-695.456	135.533	-0.105	0.139
-694.441	-200.000	0.024	-0.403
-693.426	-200.000	0.022	-0.477
-692.412	43.363	0.299	-0.278
-691.397	-151.021	0.305	-0.023
-690.383	-7.885	0.338	-0.232
-689.368	-8.262	-0.062	-0.043
-688.354	800.000	-0.052	0.216
-687.339	318.301	0.064	-0.123
-686.324	-200.000	-0.036	-0.231
-685.310	-28.935	-0.086	-0.050
-684.295	-93.102	-0.221	0.063
-683.281	510.039	0.143	-0.337
-682.266	210.496	0.087	-0.138
-681.251	534.271	0.030	-0.072
-680.237	428.491	-0.196	-0.432
-679.222	109.169	-0.053	-0.065
-678.208	54.091	0.064	-0.062
-677.193	-58.249	-0.107	0.047
-676.178	149.538	-0.056	0.077
-675.164	622.557	-0.064	-0.165
-674.149	-149.486	-0.374	-0.030
-673.135	-159.607	0.346	0.020
-672.120	96.091	0.221	-0.257
-671.105	-85.153	-0.167	-0.053
-670.091	800.000	-0.056	0.228
-669.076	134.875	-0.085	-0.112
-668.062	-200.000	-0.009	-0.216
-667.047	352.961	-0.153	-0.308
-666.032	-10.114	0.333	-0.225
-665.018	-28.121	-0.118	-0.070
-664.003	-30.660	-0.319	-0.184
-662.989	-168.980	-0.592	-0.023
-661.974	800.000	0.107	-0.352
-660.959	13.085	0.154	0.121
-659.945	-200.000	-0.011	-0.166
-658.930	-78.675	-0.175	0.061
-657.916	171.450	-0.031	0.045
-656.901	145.906	-0.101	-0.137
-655.886	-200.000	-0.085	-0.426
-654.872	158.360	-0.051	-0.071
-653.857	-200.000	0.007	0.167
-652.843	800.000	0.007	0.021
-651.828	124.842	-0.077	-0.098
-650.814	230.649	0.085	0.142
-649.799	459.297	-0.158	-0.357
-648.784	482.525	0.035	-0.080
-647.770	-200.000	-0.056	-0.308
-646.755	103.691	-0.107	-0.127
-645.741	-175.806	0.125	-0.003
-644.726	-41.937	0.174	0.090
-643.711	-96.102	-0.159	-0.043
-642.697	800.000	0.032	-0.093
-641.682	-75.111	0.402	-0.146
-640.668	44.631	-0.188	0.176
-639.653	-100.604	-0.216	0.054
-638.638	92.743	0.247	0.283
-637.624	-200.000	0.042	-0.312
-636.609	-96.721	-0.182	-0.049
-635.595	172.498	0.040	0.058
-634.580	-13.290	-0.125	0.083
-633.565	-16.110	-0.182	-0.118
-632.551	635.629	0.054	-0.138
-631.536	-87.186	0.194	0.060
-630.522	-200.000	0.018	-0.133
-629.507	-56.373	-0.212	-0.096
-628.492	-200.000	-0.024	-0.141
-627.478	113.157	-0.154	-0.189
-626.463	195.960	-0.212	-0.328
-625.449	800.000	-0.178	0.554
-624.434	730.892	0.015	-0.040
-623.419	-142.423	0.311	0.031
-622.405	-153.794	0.187	-0.013
-621.390	221.002	0.190	-0.310
-620.376	800.000	0.150	-0.469
-619.361	-163.097	-0.192	0.009
-618.346	-200.000	0.025	0.154
-617.332	257.722	0.041	0.072
-616.317	91.266	-0.130	0.149
-615.303	12.954	-0.203	-0.159
-614.288	-13.856	0.037	-0.024
-613.273	-165.255	-0.104	0.005
-612.259	-64.954	-0.191	-0.078
-611.244	1.284	-0.147	-0.107
-610.230	-61.062	-0.170	0.073
-609.215	-200.000	-0.011	0.159
-608.201	213.403	-0.036	-0.058
-607.186	-106.136	0.214	-0.049
-606.171	800.000	0.061	0.230
-605.157	-25.966	-0.277	0.165
-604.142	14.118	-0.248	-0.196
-603.128	-12.296	0.081	0.054
-602.113	-6.950	0.095	-0.065
-601.098	-200.000	0.016	-0.154
-600.084	-200.000	0.084	0.462
-599.069	201.123	0.302	0.472
-598.055	-92.636	-0.192	-0.054
-597.040	800.000	-0.096	-0.391
-596.025	70.157	0.085	-0.090
-595.011	-131.997	-0.154	0.020
-593.996	800.000	-0.045	0.166
-592.982	-43.307	-0.280	0.144
-591.967	-47.442	0.049	0.024
-590.952	156.961	-0.188	-0.263
-589.938	-57.098	-0.077	0.034
-588.923	-16.886	-0.498	-0.319
-587.909	170.408	-0.100	-0.145
-586.894	-186.709	0.283	0.004
-585.879	-56.999	0.316	-0.142
-584.865	-70.283	0.076	-0.029
-583.850	12.539	0.154	-0.120
-582.836	-25.309	-0.174	0.104
-581.821	-200.000	0.014	0.321
-580.806	-96.679	-0.059	-0.016
-579.792	67.712	0.307	-0.318
-578.777	800.000	-0.056	-0.179
-577.763	54.114	0.101	0.098
-576.748	-41.410	0.192	0.100
-575.733	800.000	0.084	0.255
-574.719	-200.000	-0.077	0.390
-573.704	-200.000	0.046	-0.228
-572.690	-200.000	0.027	-0.166
-571.675	-200.000	0.066	-0.000
-570.661	800.000	0.056	0.190
-569.646	800.000	-0.073	0.308
-568.631	159.543	0.048	-0.068
-567.617	-98.150	0.275	0.072
-566.602	-200.000	0.346	0.001
-565.588	153.134	-0.098	0.136
-564.573	74.707	-0.139	-0.148
-563.558	151.067	0.215	0.297
-562.544	-134.719	0.432	-0.053
-561.529	-140.921	0.082	-0.009
-560.515	-104.811	0.197	0.046
-559.500	-140.997	-0.292	0.030
-558.485	-129.111	-0.046	0.007
-557.471	-200.000	0.048	0.229
-556.456	497.000	-0.094	0.218
-555.442	-200.000	-0.009	-0.208
-554.427	-200.000	-0.002	0.102
-553.412	380.655	-0.035	-0.073
-552.398	185.454	0.173	-0.260
-551.383	-127.460	0.445	-0.065
-550.369	-167.740	-0.086	0.003
-549.354	1.981	0.177	0.129
-548.339	108.299	-0.123	0.148
-547.325	226.834	0.242	-0.398
-546.310	92.954	-0.143	-0.164
-545.296	800.000	0.039	-0.117
-544.281	800.000	0.041	-0.158
-543.266	60.875	0.147	0.148
-542.252	122.352	-0.124	-0.157
-541.237	800.000	0.047	0.145
-540.223	-120.113	0.281	-0.049
-539.208	72.223	-0.181	-0.191
-538.193	117.180	-0.117	-0.145
-537.179	800.000	-0.023	0.079
-536.164	21.012	0.242	-0.199
-535.150	-147.450	0.380	-0.032
-534.135	235.233	-0.145	-0.242
-533.121	-200.000	-0.030	0.222
-532.106	-79.332	-0.241	0.083
-531.091	723.716	0.041	0.111
-530.077	152.978	-0.074	-0.102
-529.062	122.103	-0.099	0.125
-528.048	-26.258	0.088	-0.052
-527.033	119.978	-0.202	-0.253
-526.018	118.572	0.255	0.318
-525.004	374.171	0.068	-0.139
-523.989	17.821	-0.224	0.181
-522.975	-200.000	0.038	-0.309
-521.960	-28.594	-0.218	0.127
-520.945	800.000	-0.034	-0.128
-519.931	-9.802	0.094	-0.063
-518.916	-200.000	-0.017	0.147
-517.902	4.408	-0.197	-0.146
-516.887	-171.559	0.189	-0.006
-515.872	-200.000	0.003	-0.027
-514.858	542.664	-0.183	-0.441
-513.843	66.330	0.267	-0.275
-512.829	47.938	-0.175	0.166
-511.814	-138.502	-0.262	0.029
-510.799	-200.000	-0.018	0.125
-509.785	47.423	-0.101	-0.095
-508.770	800.000	-0.108	-0.319
-507.756	-60.159	0.252	0.109
-506.741	800.000	0.076	0.235
-505.726	-36.378	0.091	0.049
-504.712	-176.718	0.377	0.010
-503.697	227.540	-0.237	0.390
-502.683	17.516	-0.157	0.126
-501.668	-200.000	-0.005	-0.024
-500.653	32.329	-0.064	0.056
-499.639	-76.896	-0.220	0.078
-498.624	-80.334	-0.085	0.029
-497.610	25.889	-0.113	-0.095
-496.595	-200.000	0.077	-0.404
-495.581	142.818	-0.216	0.290
-494.566	-200.000	-0.107	0.514
-493.551	-87.911	-0.204	0.062
-492.537	-16.726	0.122	0.078
-491.522	303.545	0.077	-0.144
-490.508	-25.095	0.224	0.134
-489.493	-45.987	-0.392	0.195
-488.478	107.360	-0.130	-0.156
-487.464	664.720	-0.120	-0.314
-486.449	-18.742	-0.201	-0.127
-485.435	-8.060	0.108	0.073
-484.420	164.806	0.246	0.350
-483.405	-97.391	0.336	0.088
-482.391	800.000	-0.028	-0.084
-481.376	800.000	-0.187	-0.592
-480.362	72.067	-0.308	0.323
-479.347	-59.055	0.181	0.079
-478.332	-120.285	-0.266	0.046
-477.318	-200.000	0.032	0.158
-476.303	50.747	0.105	0.100
-475.289	800.000	-0.057	0.228
-474.274	-95.069	-0.565	-0.154
-473.259	-200.000	0.024	-0.299
-472.245	-43.150	-0.049	-0.025
-471.230	524.766	0.131	-0.312
-470.216	-119.219	0.351	-0.062
-469.201	-200.000	-0.002	0.488
-468.186	273.147	-0.215	0.383
-467.172	725.668	-0.038	0.102
-466.157	-65.649	0.060	-0.024
-465.143	-89.360	-0.098	0.029
-464.128	-80.922	0.254	-0.085
-463.113	-59.217	0.126	0.055
-462.099	107.804	0.093	0.112
-461.084	356.702	-0.035	-0.070
-460.070	-200.000	-0.039	0.221
-459.055	-200.000	-0.006	0.209
-458.040	-156.380	0.331	0.021
-457.026	-126.085	0.038	0.006
-456.011	-21.801	0.386	-0.237
-454.997	-200.000	0.014	-0.491
-453.982	-127.949	0.236	0.034
-452.968	150.899	0.332	0.455
-451.953	-119.880	0.387	0.067
-450.938	-50.747	0.104	-0.049
-449.924	-200.000	0.015	0.101
-448.909	42.581	-0.124	-0.114
-447.895	-200.000	0.023	0.387
-446.880	233.725	-0.162	-0.269
-445.865	-200.000	0.031	-0.327
-444.851	314.502	-0.077	0.146
-443.836	-35.744	-0.003	0.002
-442.822	-93.545	-0.308	-0.086
-441.807	-87.384	0.438	-0.134
-440.792	24.561	0.278	-0.232
-439.778	-84.459	-0.143	-0.046
-438.763	110.638	0.164	0.199
-437.749	141.533	0.135	-0.180
-436.734	800.000	0.063	0.177
-435.719	-200.000	0.034	0.369
-434.705	25.690	-0.054	-0.045
-433.690	-190.308	-0.193	0.002
-432.676	138.675	0.140	-0.185
-431.661	-200.000	-0.018	-0.241
-430.646	36.385	-0.056	0.050
-429.632	800.000	-0.032	-0.107
-428.617	-200.000	-0.022	-0.124
-427.603	-35.975	-0.039	-0.021
-426.588	-153.652	-0.451	-0.031
-425.573	30.941	-0.227	-0.196
-424.559	63.311	-0.146	0.147
-423.544	43.323	-0.204	0.188
-422.530	163.727	0.091	-0.130
-421.515	0.685	-0.167	0.120
-420.500	231.543	0.179	0.295
-419.486	642.375	0.071	0.182
-418.471	774.727	0.099	-0.272
-417.457	800.000	-0.055	-0.196
-416.442	123.336	-0.049	-0.062
-415.428	59.895	-0.115	-0.115
-414.413	-114.250	0.366	-0.071
-413.398	-82.157	-0.109	-0.036
-412.384	316.309	-0.140	-0.266
-411.369	800.000	0.173	-0.525
-410.355	-200.000	-0.018	0.163
-409.340	-74.422	0.345	-0.125
-408.325	64.605	-0.059	0.060
-407.311	28.833	-0.132	-0.112
-406.296	-68.650	0.354	-0.138
-405.282	419.652	-0.121	-0.260
-404.267	16.858	-0.066	0.052
-403.252	-200.000	0.004	-0.043
-402.238	-120.793	-0.099	-0.017
-401.223	697.992	-0.081	0.214
-400.209	1.248	0.163	-0.118
-399.194	-92.422	0.467	-0.132
-398.179	707.975	0.068	0.182
-397.165	-129.164	-0.145	0.020
-396.150	-90.990	-0.405	0.117
-395.136	800.000	0.037	-0.123
-394.121	800.000	0.081	0.309
-393.106	188.687	0.079	-0.120
-392.092	-45.013	0.140	-0.070
-391.077	-166.303	-0.341	0.014
-390.063	-200.000	0.076	-0.000
-389.048	52.765	0.213	-0.205
-388.033	48.817	0.130	-0.123
-387.019	-45.277	-0.078	-0.039
-386.004	-175.325	0.107	-0.003
-384.990	800.000	0.062	0.222
-383.975	-200.000	-0.039	0.201
-382.960	-77.944	-0.177	0.061
-381.946	-200.000	0.006	-0.056
-380.931	19.248	-0.225	0.182
-379.917	800.000	-0.083	0.243
-378.902	-200.000	-0.016	0.130
-377.888	103.378	-0.208	0.246
-376.873	-185.786	-0.162	0.002
-375.858	800.000	0.056	0.230
-374.844	-75.888	-0.252	-0.090
-373.829	800.000	0.036	0.149
-372.815	-71.996	0.161	0.060
-371.800	215.354	-0.184	-0.293
-370.785	193.862	-0.188	-0.287
-369.771	-55.412	0.292	-0.132
-368.756	-200.000	0.012	-0.247
-367.742	-28.415	0.209	-0.121
-366.727	-112.962	-0.396	-0.079
-365.712	-120.469	-0.132	0.023
-364.698	693.959	-0.115	0.304
-363.683	-200.000	0.022	0.177
-362.669	-92.824	-0.119	-0.034
-361.654	35.131	0.220	0.194
-360.639	-75.687	-0.034	-0.012
-359.625	-86.535	0.106	0.033
-358.610	59.846	0.173	0.171
-357.596	15.737	-0.257	0.203
-356.581	63.105	-0.083	0.083
-355.566	502.029	-0.014	-0.033
-354.552	250.580	-0.271	-0.462
-353.537	25.399	0.093	0.077
-352.523	-44.370	0.345	-0.174
-351.508	-21.629	-0.062	0.038
-350.493	800.000	-0.085	0.245
-349.479	293.673	-0.100	0.184
-348.464	-167.729	-0.413	0.016
-347.450	28.044	0.127	0.108
-346.435	-3.964	0.319	0.223
-345.420	-199.272	0.256	0.001
-344.406	-13.146	-0.208	-0.136
-343.391	82.946	0.197	0.215
-342.377	-200.000	-0.009	0.114
-341.362	800.000	0.015	0.060
-340.348	800.000	0.050	0.210
-339.333	66.249	0.145	0.147
-338.318	277.156	-0.064	-0.114
-337.304	-79.515	0.055	-0.019
-336.289	-17.757	0.210	-0.132
-335.275	-1.944	-0.161	-0.114
-334.260	107.378	0.092	0.110
-333.245	-200.000	0.035	-0.175
-332.231	15.031	0.178	0.140
-331.216	-77.706	-0.154	0.054
-330.202	-142.843	-0.409	-0.040
-329.187	-200.000	-0.051	0.316
-328.172	-200.000	-0.010	0.157
-327.158	-200.000	0.054	0.242
-326.143	800.000	-0.122	-0.394
-325.129	-62.049	-0.063	0.026
-324.114	-32.416	0.109	0.061
-323.099	-200.000	-0.031	0.144
-322.085	-200.000	-0.065	0.430
-321.070	-200.000	-0.003	-0.065
-320.056	104.294	0.127	0.150
-319.041	-200.000	0.040	-0.191
-318.026	-200.000	0.021	-0.239
-317.012	-51.101	0.253	0.119
-315.997	-41.242	-0.199	-0.103
-314.983	2.281	0.092	0.067
-313.968	-138.804	0.265	0.029
-312.953	-200.000	0.011	-0.157
-311.939	124.778	-0.068	-0.086
-310.924	302.598	-0.139	-0.259
-309.910	800.000	-0.007	0.020
-308.895	-70.404	0.206	0.078
-307.880	-159.869	0.190	0.010
-306.866	800.000	-0.050	-0.166
-305.851	192.223	-0.155	-0.234
-304.837	222.786	0.062	-0.101
-303.822	-200.000	-0.041	0.345
-302.807	-137.002	-0.203	0.023
-301.793	43.658	-0.213	-0.195
-300.778	-59.929	-0.209	0.090
-299.764	-60.255	-0.130	-0.056
-298.749	800.000	-0.090	-0.251
-297.735	-109.518	-0.285	-0.060
-296.720	318.250	0.096	-0.183
-295.705	241.562	0.158	-0.265
-294.691	322.865	-0.090	0.172
-293.676	-200.000	0.019	0.100
-292.662	60.412	-0.294	-0.292
-291.647	-108.078	-0.054	0.012
-290.632	2.595	-0.125	0.091
-289.618	149.662	-0.047	0.064
-288.603	7.690	0.214	0.161
-287.589	-64.491	-0.135	-0.055
-286.574	800.000	-0.058	-0.228
-285.559	-179.211	-0.097	-0.002
-284.545	-200.000	-0.054	0.263
-283.530	-90.112	0.206	-0.060
-282.516	-116.845	-0.230	-0.042
-281.501	36.100	-0.030	-0.027
-280.486	363.619	-0.063	0.128
-279.472	-200.000	0.004	0.060
-278.457	-200.000	0.140	0.000
-277.443	800.000	-0.039	-0.145
-276.428	127.136	0.145	-0.184
-275.413	-98.515	0.160	0.041
-274.399	71.607	-0.244	-0.254
-273.384	125.168	0.070	0.088
-272.370	-95.607	0.147	-0.039
-271.355	593.244	-0.124	0.308
-270.340	211.230	-0.039	-0.061
-269.326	97.804	0.156	0.179
-268.311	-200.000	-0.028	-0.254
-267.297	-31.495	0.267	0.150
-266.282	-97.004	-0.413	0.108
-265.267	800.000	0.066	0.283
-264.253	-200.000	-0.001	-0.007
-263.238	99.970	-0.053	0.062
-262.224	-17.576	-0.229	-0.144
-261.209	-200.000	-0.010	-0.281
-260.195	166.252	-0.041	-0.059
-259.180	-200.000	0.006	0.173
-258.165	-98.200	0.046	0.012
-257.151	119.752	-0.191	0.237
-256.136	-200.000	-0.006	0.378
-255.122	651.155	-0.155	0.397
-254.107	-67.334	0.196	0.077
-253.092	-43.311	0.230	0.117
-252.078	34.060	-0.138	0.120
-251.063	-200.000	-0.007	0.390
-250.049	-75.830	0.347	-0.123
-249.034	-17.470	0.183	0.115
-248.019	-74.044	-0.109	0.039
-247.005	442.973	-0.146	-0.320
-245.990	18.021	-0.117	0.093
-244.976	-125.316	-0.211	0.032
-243.961	492.339	0.105	-0.240
-242.946	-4.914	-0.139	0.096
-241.932	66.555	-0.104	0.106
-240.917	126.119	-0.040	-0.050
-239.903	-200.000	0.025	-0.163
-238.888	379.450	-0.131	-0.268
-237.873	-130.202	0.211	-0.029
-236.859	800.000	-0.078	-0.262
-235.844	-138.115	-0.152	-0.017
-234.830	-48.564	0.137	-0.066
-233.815	-200.000	-0.030	-0.134
-232.800	-18.433	0.140	-0.087
-231.786	-200.000	0.000	-0.010
-230.771	-30.400	-0.208	-0.118
-229.757	80.735	0.309	0.333
-228.742	-119.319	-0.327	0.057
-227.727	553.455	-0.037	-0.089
-226.713	-200.000	-0.020	0.278
-225.698	-200.000	-0.021	0.250
-224.684	-21.187	-0.116	-0.071
-223.669	-96.609	0.241	0.064
-222.655	-63.025	-0.238	-0.098
-221.640	12.435	-0.229	0.176
-220.625	-62.673	-0.275	0.114
-219.611	-200.000	-0.003	0.132
-218.596	800.000	-0.022	-0.075
-217.582	-141.242	0.176	-0.018
-216.567	313.448	0.127	0.239
-215.552	-77.589	-0.047	-0.016
-214.538	800.000	-0.079	-0.327
-213.523	85.681	0.151	-0.166
-212.509	800.000	0.046	-0.157
-211.494	-151.471	-0.231	0.017
-210.479	31.564	0.104	0.090
-209.465	176.903	-0.138	0.200
-208.450	-200.000	-0.005	0.065
-207.436	800.000	-0.079	-0.297
-206.421	-135.157	0.182	0.022
-205.406	129.030	-0.138	-0.176
-204.392	54.985	0.134	-0.129
-203.377	99.739	0.118	0.136
-202.363	22.137	0.284	-0.231
-201.348	800.000	-0.141	-0.449
-200.333	-200.000	-0.010	-0.157
-199.319	-31.984	-0.072	-0.040
-198.304	-200.000	0.018	0.289
-197.290	-52.967	0.348	0.160
-196.275	74.668	0.168	-0.176
-195.260	96.279	0.269	0.307
-194.246	-200.000	-0.006	0.127
-193.231	56.731	0.054	-0.052
-192.217	608.163	0.121	0.302
-191.202	-120.208	0.236	0.040
-190.187	800.000	-0.049	-0.158
-189.173	311.869	-0.111	0.209
-188.158	-200.000	-0.024	-0.128
-187.144	117.119	0.054	-0.067
-186.129	-0.301	-0.180	-0.128
-185.114	-128.851	-0.050	0.007
-184.100	27.107	-0.410	-0.343
-183.085	495.773	0.032	-0.074
-182.071	-121.675	-0.196	0.032
-181.056	-104.755	-0.342	0.078
-180.042	-66.491	-0.058	-0.023
-179.027	76.902	0.283	0.299
-178.012	-102.953	0.359	0.085
-176.998	-158.247	-0.170	-0.010
-175.983	44.104	-0.070	-0.064
-174.969	-104.500	0.224	0.052
-173.954	-15.701	-0.284	-0.181
-172.939	-172.505	-0.213	0.007
-171.925	-200.000	0.002	0.068
-170.910	-78.023	-0.246	0.084
-169.896	-105.917	0.260	0.058
-168.881	-150.115	0.144	0.011
-167.866	-200.000	0.010	0.154
-166.852	-41.482	-0.250	-0.128
-165.837	17.568	0.116	0.092
-164.823	-200.000	-0.028	-0.144
-163.808	-104.921	0.200	-0.046
-162.793	-138.084	0.522	-0.058
-161.779	636.586	0.118	0.300
-160.764	8.454	0.201	0.151
-159.750	-25.765	0.199	0.117
-158.735	319.077	0.198	-0.374
-157.720	587.083	-0.256	-0.628
-156.706	-105.184	0.108	0.025
-155.691	-148.484	0.097	0.008
-154.677	462.208	0.064	0.142
-153.662	38.356	0.074	0.066
-152.647	130.113	0.271	0.346
-151.633	-200.000	0.069	0.308
-150.618	-12.631	-0.044	0.029
-149.604	-95.341	-0.115	-0.031
-148.589	-30.062	0.191	0.108
-147.574	-16.890	0.127	0.080
-146.560	-46.179	-0.170	-0.083
-145.545	-97.454	0.365	0.095
-144.531	-58.547	0.238	-0.103
-143.516	85.053	-0.137	0.150
-142.502	64.986	0.121	0.122
-141.487	8.107	-0.274	-0.205
-140.472	455.625	0.154	-0.341
-139.458	-76.791	0.259	0.090
-138.443	-51.279	-0.269	0.126
-137.429	800.000	0.026	0.106
-136.414	168.121	-0.316	-0.448
-135.399	-200.000	-0.029	0.211
-134.385	-137.153	0.095	-0.011
-133.370	134.685	0.095	-0.123
-132.356	-200.000	0.004	-0.145
-131.341	-66.249	0.295	-0.117
-130.326	-200.000	-0.031	-0.290
-129.312	-105.909	0.035	0.008
-128.297	22.474	-0.070	0.057
-127.283	-20.314	-0.088	-0.054
-126.268	-145.076	0.220	0.020
-125.253	-21.791	-0.103	-0.063
-124.239	-56.911	0.256	-0.112
-123.224	609.031	-0.100	0.249
-122.210	67.741	0.150	-0.153
