DTS Sentinel unit serial number:	SN413079Multiplexer serial number:	ORYXHardware model number:	OX4-SRSoftware version number:	ORYX F/W v4.00 Oryx Data Collector v3.7.2.0data status	okinstallation	princeton_trtdifferential loss correction	single-endedforward channel	channel 1reverse channel	N/Adate	2019/09/18time	05:38:35forward acquisition time	60.00reverse acquisition time	0.00gamma	496.2192k internal	0.2340k external	0.2340temperature offset calibration	0.9983default loss term (dB/km)	0.3790temperature slope calibration	1.0000multiplexer offset coefficient	1.0000multiplexer slope coefficient	1.0000fibre end	0.00T internal ref (°C)	23.37T ext. ref 1 (°C)	0.19T ext. ref 2 (°C)	16.93length (m)	temperature (°C)	Stokes	anti-Stokes-747.200	11.190	-0.116	0.089
-746.185	-200.000	0.000	-0.003
-745.171	601.004	0.155	0.387
-744.156	50.611	-0.112	-0.106
-743.142	5.625	-0.119	0.088
-742.127	99.918	-0.226	-0.263
-741.112	-35.198	0.287	-0.156
-740.098	-75.197	-0.225	0.080
-739.083	-35.277	-0.151	-0.083
-738.069	176.410	-0.132	0.193
-737.054	800.000	0.027	-0.120
-736.039	-200.000	-0.012	-0.143
-735.025	-77.873	0.083	-0.029
-734.010	644.831	-0.126	-0.322
-732.996	-120.986	-0.273	-0.046
-731.981	800.000	-0.090	-0.339
-730.966	800.000	0.040	0.172
-729.952	-200.000	0.014	-0.261
-728.937	800.000	-0.103	0.431
-727.923	10.172	-0.040	-0.031
-726.908	34.411	-0.216	-0.189
-725.894	-134.234	-0.128	0.016
-724.879	55.065	0.016	-0.016
-723.864	458.793	0.082	0.183
-722.850	86.465	-0.268	-0.296
-721.835	279.113	0.209	-0.373
-720.821	130.797	-0.233	0.299
-719.806	-11.558	-0.081	-0.053
-718.791	-140.752	-0.178	-0.018
-717.777	275.521	0.108	0.191
-716.762	188.519	0.267	-0.400
-715.748	-43.291	0.031	0.016
-714.733	-110.843	0.036	0.007
-713.718	242.222	-0.155	0.260
-712.704	20.571	0.262	0.212
-711.689	-4.596	0.131	-0.091
-710.675	644.428	-0.076	-0.195
-709.660	-200.000	0.029	-0.146
-708.645	800.000	-0.028	-0.114
-707.631	271.143	-0.062	0.110
-706.616	-23.217	-0.282	0.170
-705.602	-111.167	-0.075	0.015
-704.587	-200.000	-0.035	0.280
-703.572	-200.000	-0.008	-0.186
-702.558	20.139	0.249	0.201
-701.543	800.000	0.033	-0.108
-700.529	-48.179	0.257	0.124
-699.514	80.486	-0.178	0.192
-698.499	-100.242	0.263	-0.065
-697.485	-146.052	-0.181	-0.016
-696.470	-200.000	0.012	0.152
-695.456	-159.661	0.287	0.016
-694.441	135.305	-0.015	0.019
-693.426	691.408	-0.113	0.295
-692.412	65.519	0.161	0.163
-691.397	88.631	0.166	-0.185
-690.383	-15.520	-0.043	0.027
-689.368	23.314	-0.280	0.230
-688.354	293.130	0.114	-0.208
-687.339	-19.740	0.204	-0.126
-686.324	-200.000	-0.002	0.130
-685.310	-200.000	0.013	-0.093
-684.295	-29.148	-0.055	0.031
-683.281	-157.969	0.128	-0.008
-682.266	-200.000	0.003	0.230
-681.251	-186.968	-0.193	-0.003
-680.237	800.000	-0.094	0.399
-679.222	-200.000	-0.058	-0.451
-678.208	-96.298	0.149	0.040
-677.193	-5.079	-0.308	-0.212
-676.178	-184.062	0.104	0.002
-675.164	298.053	-0.065	0.120
-674.149	-118.871	-0.324	-0.057
-673.135	322.559	0.120	-0.229
-672.120	-43.328	0.210	-0.106
-671.105	-200.000	-0.087	0.431
-670.091	-128.162	0.127	-0.018
-669.076	18.909	-0.138	-0.111
-668.062	-65.118	-0.216	0.087
-667.047	-63.952	0.320	-0.131
-666.032	-56.373	0.294	0.131
-665.018	-200.000	-0.024	-0.160
-664.003	156.494	0.097	-0.133
-662.989	800.000	-0.015	-0.045
-661.974	-46.147	-0.295	0.145
-660.959	-200.000	-0.004	0.100
-659.945	-170.923	-0.058	-0.002
-658.930	-52.241	-0.094	-0.044
-657.916	313.754	0.072	-0.135
-656.901	484.924	-0.086	0.196
-655.886	276.401	-0.056	0.099
-654.872	-52.160	-0.245	-0.114
-653.857	-121.678	-0.229	0.038
-652.843	-200.000	0.018	0.288
-651.828	82.525	-0.117	0.127
-650.814	11.077	-0.032	-0.024
-649.799	186.443	0.072	-0.107
-648.784	314.959	-0.101	-0.191
-647.770	-41.160	0.018	-0.009
-646.755	-153.347	-0.141	-0.010
-645.741	-200.000	-0.016	0.083
-644.726	-200.000	-0.019	0.388
-643.711	544.447	-0.132	0.315
-642.697	800.000	-0.162	-0.518
-641.682	182.485	0.067	-0.098
-640.668	-143.671	-0.055	0.005
-639.653	84.077	-0.011	0.012
-638.638	7.239	0.203	0.151
-637.624	26.924	0.180	0.151
-636.609	-135.852	-0.379	0.045
-635.595	7.648	-0.248	-0.185
-634.580	338.677	-0.067	0.130
-633.565	4.559	-0.109	-0.080
-632.551	-123.821	-0.263	-0.041
-631.536	-200.000	0.006	0.237
-630.522	800.000	-0.073	0.284
-629.507	86.837	0.039	-0.042
-628.492	-122.515	-0.125	0.020
-627.478	14.564	0.056	0.044
-626.463	58.034	-0.200	-0.196
-625.449	11.811	0.312	-0.239
-624.434	39.030	0.298	0.266
-623.419	-150.862	-0.070	0.005
-622.405	134.547	-0.142	0.184
-621.390	-57.638	-0.235	0.103
-620.376	-11.492	-0.078	-0.051
-619.361	185.499	0.194	0.288
-618.346	-110.420	-0.292	-0.060
-617.332	-163.107	0.240	0.012
-616.317	196.068	0.207	-0.314
-615.303	-200.000	0.015	-0.213
-614.288	-69.419	-0.273	-0.105
-613.273	-121.200	0.347	-0.058
-612.259	-79.188	-0.041	-0.014
-611.244	-200.000	-0.014	-0.159
-610.230	53.745	-0.254	0.244
-609.215	800.000	-0.131	0.368
-608.201	338.825	0.122	0.236
-607.186	-98.851	0.084	0.021
-606.171	-5.584	0.163	0.111
-605.157	-138.086	0.178	0.020
-604.142	-120.610	0.096	-0.016
-603.128	-150.539	-0.312	0.024
-602.113	-142.163	0.270	-0.027
-601.098	-50.551	-0.259	-0.122
-600.084	16.513	-0.172	-0.135
-599.069	-33.841	0.237	-0.130
-598.055	69.866	-0.124	-0.127
-597.040	-26.901	-0.203	0.118
-596.025	91.852	-0.032	0.036
-595.011	373.195	0.151	0.306
-593.996	800.000	0.049	0.195
-592.982	-135.120	-0.228	-0.027
-591.967	65.868	-0.191	-0.193
-590.952	3.312	0.179	-0.130
-589.938	210.306	0.117	0.183
-588.923	-200.000	0.035	-0.231
-587.909	-200.000	0.056	-0.294
-586.894	-9.505	-0.082	0.055
-585.879	-24.161	0.028	0.017
-584.865	24.187	-0.148	-0.122
-583.850	227.575	0.020	-0.032
-582.836	-80.245	-0.207	-0.069
-581.821	-56.819	0.340	0.150
-580.806	82.682	-0.158	0.171
-579.792	800.000	-0.119	-0.372
-578.777	154.726	0.096	-0.132
-577.763	-200.000	-0.001	-0.222
-576.748	-37.500	0.108	-0.058
-575.733	800.000	0.024	0.089
-574.719	-6.838	-0.141	-0.096
-573.704	476.996	-0.214	-0.482
-572.690	-156.820	-0.197	-0.012
-571.675	800.000	-0.040	-0.126
-570.661	193.872	0.065	0.099
-569.646	-187.671	-0.203	-0.003
-568.631	-200.000	0.016	-0.200
-567.617	-96.364	-0.105	-0.028
-566.602	151.623	-0.104	-0.141
-565.588	96.886	0.121	-0.138
-564.573	800.000	-0.011	-0.048
-563.558	-200.000	0.031	-0.144
-562.544	-36.524	-0.309	-0.166
-561.529	694.181	-0.044	-0.116
-560.515	-112.685	-0.154	-0.030
-559.500	-135.177	-0.318	-0.038
-558.485	-127.572	0.192	0.028
-557.471	-200.000	0.000	-0.288
-556.456	71.673	-0.275	-0.285
-555.442	-32.628	-0.131	0.073
-554.427	82.460	0.096	0.104
-553.412	-106.211	0.350	-0.078
-552.398	800.000	0.057	0.188
-551.383	-200.000	0.001	-0.269
-550.369	21.134	0.100	0.080
-549.354	156.501	-0.049	-0.068
-548.339	60.538	-0.257	0.253
-547.325	315.186	-0.066	-0.124
-546.310	-3.461	0.116	-0.081
-545.296	-200.000	-0.013	0.155
-544.281	230.952	0.229	-0.373
-543.266	-74.206	0.375	0.135
-542.252	4.401	0.388	0.283
-541.237	-84.377	-0.252	-0.079
-540.223	63.540	-0.272	0.271
-539.208	-61.488	-0.221	-0.092
-538.193	-200.000	0.009	-0.115
-537.179	-15.950	0.024	-0.015
-536.164	-167.162	0.172	0.007
-535.150	88.179	0.150	-0.166
-534.135	-19.975	-0.100	-0.061
-533.121	-82.130	-0.399	-0.129
-532.106	131.991	-0.200	0.255
-531.091	-200.000	-0.018	0.137
-530.077	-106.572	0.171	0.038
-529.062	-200.000	-0.019	-0.349
-528.048	71.696	0.141	-0.146
-527.033	-200.000	0.072	-0.382
-526.018	760.209	-0.171	-0.461
-525.004	202.648	0.060	-0.092
-523.989	302.660	-0.189	-0.347
-522.975	36.897	0.254	-0.223
-521.960	-33.178	-0.074	-0.041
-520.945	370.028	0.027	-0.055
-519.931	42.312	-0.125	0.113
-518.916	516.660	0.190	-0.441
-517.902	-158.394	0.117	-0.007
-516.887	495.764	-0.087	-0.199
-515.872	185.102	0.092	-0.135
-514.858	-64.159	0.323	-0.131
-513.843	-200.000	0.033	0.227
-512.829	118.441	0.250	-0.307
-511.814	12.981	-0.131	-0.100
-510.799	85.563	-0.091	-0.100
-509.785	96.195	-0.298	-0.338
-508.770	800.000	-0.058	0.250
-507.756	-200.000	-0.005	-0.048
-506.741	36.814	0.083	-0.073
-505.726	-77.155	-0.304	0.105
-504.712	-200.000	0.044	0.306
-503.697	-200.000	0.039	0.342
-502.683	-31.433	-0.189	-0.106
-501.668	87.960	-0.093	-0.102
-500.653	-40.837	-0.278	-0.143
-499.639	6.890	-0.236	-0.175
-498.624	-136.205	0.046	0.005
-497.610	-40.212	0.104	0.054
-496.595	-60.704	-0.113	-0.048
-495.581	87.920	-0.268	0.295
-494.566	267.615	-0.122	0.213
-493.551	-85.945	-0.226	0.070
-492.537	-38.610	-0.260	0.137
-491.522	-80.992	-0.057	-0.019
-490.508	-167.109	-0.198	-0.008
-489.493	-51.847	-0.291	-0.135
-488.478	-87.018	0.083	0.025
-487.464	267.514	0.136	0.236
-486.449	27.099	0.086	-0.072
-485.435	68.275	-0.247	0.251
-484.420	-129.828	0.243	-0.033
-483.405	-159.593	0.079	-0.004
-482.391	-100.884	-0.144	0.035
-481.376	306.141	0.046	0.085
-480.362	800.000	0.086	0.303
-479.347	-18.070	0.107	0.066
-478.332	-67.005	-0.392	-0.153
-477.318	-200.000	-0.005	-0.264
-476.303	-200.000	0.003	0.253
-475.289	-200.000	0.029	-0.237
-474.274	242.469	0.234	0.388
-473.259	-200.000	0.003	-0.228
-472.245	454.374	-0.093	0.204
-471.230	80.842	0.129	0.138
-470.216	-200.000	-0.005	0.351
-469.201	800.000	-0.095	-0.366
-468.186	-142.017	-0.499	0.049
-467.172	-103.346	-0.264	0.062
-466.157	-88.260	0.351	0.104
-465.143	-200.000	-0.056	0.256
-464.128	0.727	-0.055	-0.039
-463.113	10.442	0.261	0.197
-462.099	-200.000	-0.023	-0.315
-461.084	-71.191	-0.188	-0.070
-460.070	774.722	-0.054	-0.146
-459.055	-113.815	0.239	-0.046
-458.040	-73.196	-0.097	0.035
-457.026	30.901	-0.165	0.140
-456.011	-114.901	0.083	0.016
-454.997	800.000	0.101	-0.430
-453.982	-31.718	-0.064	-0.035
-452.968	79.579	-0.092	0.098
-451.953	400.650	-0.104	-0.216
-450.938	-12.425	-0.124	-0.080
-449.924	348.929	-0.125	0.245
-448.909	-158.991	0.035	-0.002
-447.895	800.000	0.035	-0.102
-446.880	261.532	0.071	-0.122
-445.865	62.827	0.175	0.174
-444.851	800.000	-0.020	0.067
-443.836	-107.202	0.362	-0.079
-442.822	-98.502	0.296	-0.075
-441.807	743.848	0.115	0.305
-440.792	-200.000	0.016	0.221
-439.778	800.000	0.044	0.160
-438.763	71.132	-0.325	-0.334
-437.749	77.731	0.085	-0.090
-436.734	-200.000	0.001	-0.141
-435.719	-28.026	0.308	-0.176
-434.705	343.905	-0.173	-0.337
-433.690	800.000	-0.051	0.195
-432.676	-141.748	-0.344	-0.034
-431.661	309.905	0.158	0.292
-430.646	-54.621	0.167	-0.075
-429.632	-100.937	-0.278	-0.068
-428.617	800.000	0.022	-0.079
-427.603	800.000	-0.040	-0.161
-426.588	62.918	-0.090	0.089
-425.573	800.000	0.021	-0.082
-424.559	5.584	-0.176	0.129
-423.544	308.384	-0.028	0.051
-422.530	800.000	-0.068	-0.200
-421.515	-124.791	0.306	0.047
-420.500	800.000	0.089	-0.279
-419.486	-200.000	-0.086	0.528
-418.471	639.243	0.055	0.139
-417.457	-151.299	-0.137	0.010
-416.442	44.727	0.287	0.261
-415.428	-200.000	0.033	0.301
-414.413	24.540	0.295	0.242
-413.398	318.264	-0.042	-0.078
-412.384	80.724	-0.100	-0.107
-411.369	-120.386	0.107	-0.018
-410.355	-200.000	-0.085	0.451
-409.340	596.778	-0.016	-0.039
-408.325	31.435	-0.091	0.077
-407.311	-74.239	-0.179	-0.064
-406.296	-67.966	-0.144	-0.056
-405.282	524.923	0.166	0.385
-404.267	-200.000	0.012	0.057
-403.252	800.000	0.125	-0.398
-402.238	-55.546	-0.136	-0.060
-401.223	-49.569	0.093	-0.044
-400.209	-46.354	-0.050	-0.025
-399.194	222.002	-0.163	0.260
-398.179	800.000	0.042	-0.176
-397.165	-160.582	-0.279	0.015
-396.150	-28.435	-0.269	-0.154
-395.136	800.000	-0.050	-0.147
-394.121	800.000	-0.016	-0.052
-393.106	-200.000	0.000	0.039
-392.092	-96.777	0.332	0.086
-391.077	-37.422	0.301	0.159
-390.063	-200.000	0.000	-0.075
-389.048	-200.000	0.005	-0.090
-388.033	121.411	0.126	0.155
-387.019	-194.836	0.291	0.002
-386.004	70.565	0.052	0.053
-384.990	270.752	-0.112	-0.195
-383.975	-131.779	0.147	0.019
-382.960	-81.651	-0.104	0.034
-381.946	10.951	-0.166	-0.125
-380.931	-102.335	0.084	-0.020
-379.917	-84.939	0.240	-0.075
-378.902	-103.899	-0.136	0.031
-377.888	-57.020	0.126	-0.055
-376.873	-39.315	0.182	0.095
-375.858	126.375	0.092	-0.114
-374.844	-183.057	-0.160	-0.003
-373.829	-126.061	-0.377	0.056
-372.815	356.391	0.021	0.042
-371.800	-128.509	0.062	0.009
-370.785	800.000	0.103	0.418
-369.771	148.755	-0.087	-0.117
-368.756	-98.203	-0.206	-0.052
-367.742	800.000	-0.105	0.308
-366.727	21.415	0.140	0.113
-365.712	73.811	-0.086	0.089
-364.698	-69.723	0.370	0.140
-363.683	-69.404	0.033	0.012
-362.669	147.328	-0.075	0.100
-361.654	25.327	-0.139	-0.114
-360.639	405.078	0.104	-0.217
-359.625	-200.000	0.020	-0.226
-358.610	-138.702	0.060	-0.007
-357.596	-200.000	-0.031	0.301
-356.581	109.712	0.125	0.148
-355.566	-200.000	0.007	0.070
-354.552	-8.298	-0.136	0.091
-353.537	-200.000	0.026	-0.198
-352.523	-43.079	0.106	-0.053
-351.508	-200.000	0.087	-0.383
-350.493	167.288	-0.234	0.328
-349.479	-88.377	-0.243	0.072
-348.464	-2.738	0.210	-0.145
-347.450	473.677	0.130	0.289
-346.435	-200.000	0.016	0.114
-345.420	730.600	-0.012	0.032
-344.406	800.000	-0.068	-0.226
-343.391	182.157	0.144	0.209
-342.377	-55.466	0.360	0.159
-341.362	-200.000	-0.038	0.287
-340.348	-200.000	-0.030	-0.227
-339.333	434.062	0.149	0.319
-338.318	-200.000	-0.009	-0.198
-337.304	14.774	0.196	0.151
-336.289	-125.767	0.233	0.035
-335.275	278.480	0.135	-0.238
-334.260	271.374	0.142	-0.247
-333.245	-84.204	0.197	-0.061
-332.231	194.623	-0.061	0.091
-331.216	670.627	0.163	-0.417
-330.202	113.406	0.071	0.084
-329.187	94.992	-0.178	0.200
-328.172	-14.992	0.271	-0.171
-327.158	594.710	0.054	-0.131
-326.143	-200.000	0.009	0.192
-325.129	-68.784	0.169	0.064
-324.114	23.818	-0.174	-0.141
-323.099	-173.532	0.179	0.005
-322.085	-200.000	-0.039	0.322
-321.070	23.225	-0.069	0.056
-320.056	102.255	-0.203	0.234
-319.041	-114.568	0.147	0.028
-318.026	-104.784	0.266	0.060
-317.012	226.488	-0.179	0.287
-315.997	229.918	-0.097	0.156
-314.983	229.946	0.154	0.249
-313.968	800.000	-0.020	0.064
-312.953	31.519	-0.052	0.044
-311.939	-200.000	-0.028	0.308
-310.924	68.722	-0.144	-0.145
-309.910	800.000	0.058	0.230
-308.895	83.276	-0.126	-0.135
-307.880	-200.000	0.048	0.327
-306.866	318.518	-0.103	0.192
-305.851	-147.141	0.108	0.009
-304.837	72.378	0.239	-0.246
-303.822	164.364	-0.139	-0.193
-302.807	-88.027	0.132	0.039
-301.793	100.006	-0.114	0.130
-300.778	-77.233	0.253	-0.087
-299.764	800.000	0.026	0.105
-298.749	-63.390	-0.047	-0.019
-297.735	800.000	-0.023	0.081
-296.720	477.753	-0.073	-0.162
-295.705	-161.652	-0.188	-0.009
-294.691	656.162	-0.049	-0.123
-293.676	-135.709	-0.174	-0.020
-292.662	-94.455	0.130	0.035
-291.647	331.065	-0.015	-0.029
-290.632	-14.786	-0.107	0.067
-289.618	-200.000	0.015	-0.075
-288.603	436.836	-0.078	-0.167
-287.589	107.380	0.048	-0.057
-286.574	604.789	-0.135	-0.332
-285.559	-32.487	0.095	-0.052
-284.545	-200.000	-0.001	-0.297
-283.530	306.791	0.218	-0.400
-282.516	212.942	-0.092	-0.143
-281.501	189.117	-0.196	-0.289
-280.486	-179.994	0.080	-0.002
-279.472	-89.848	0.117	0.034
-278.457	-200.000	0.243	-0.000
-277.443	47.343	-0.175	0.160
-276.428	800.000	0.073	-0.308
-275.413	800.000	-0.160	-0.584
-274.399	-191.207	-0.230	0.002
-273.384	217.041	0.117	-0.184
-272.370	-200.000	-0.015	-0.097
-271.355	37.155	0.203	-0.177
-270.340	-200.000	-0.034	-0.182
-269.326	-47.358	0.190	0.091
-268.311	-19.391	-0.204	-0.124
-267.297	-82.047	0.269	-0.086
-266.282	800.000	0.085	0.264
-265.267	800.000	-0.102	0.310
-264.253	-95.985	-0.111	0.029
-263.238	-200.000	-0.004	0.220
-262.224	-77.141	-0.062	-0.021
-261.209	-113.513	-0.282	-0.054
-260.195	-100.767	0.210	-0.051
-259.180	-41.728	-0.245	0.124
-258.165	-59.099	0.269	-0.114
-257.151	-43.246	0.245	0.122
-256.136	800.000	-0.034	-0.129
-255.122	214.106	0.153	-0.238
-254.107	92.395	0.185	0.205
-253.092	370.145	0.088	0.176
-252.078	-200.000	-0.006	0.069
-251.063	786.817	0.107	0.290
-250.049	196.759	0.122	0.183
-249.034	-134.887	0.190	0.023
-248.019	-200.000	0.032	-0.275
-247.005	800.000	0.037	0.110
-245.990	-200.000	-0.041	0.300
-244.976	-58.228	0.087	-0.037
-243.961	-200.000	0.026	0.244
-242.946	216.631	-0.032	0.051
-241.932	-34.452	-0.292	0.157
-240.917	430.563	-0.092	-0.197
-239.903	-109.720	0.397	0.082
-238.888	-58.110	-0.119	-0.051
-237.873	-60.621	0.266	-0.111
-236.859	52.200	-0.235	0.220
-235.844	-200.000	0.046	-0.361
-234.830	800.000	0.015	0.055
-233.815	64.792	0.056	0.056
-232.800	35.075	-0.096	0.082
-231.786	-200.000	-0.062	0.274
-230.771	800.000	-0.002	-0.007
-229.757	315.965	-0.203	0.377
-228.742	-57.492	-0.155	0.067
-227.727	125.259	-0.163	0.202
-226.713	-51.285	-0.079	0.036
-225.698	-124.893	0.410	-0.062
-224.684	-132.684	-0.129	0.016
-223.669	218.833	-0.201	0.315
-222.655	-87.806	0.094	-0.028
-221.640	-200.000	-0.002	0.167
-220.625	-200.000	-0.001	0.144
-219.611	-16.102	0.050	0.031
-218.596	-117.335	-0.124	0.022
-217.582	-68.389	-0.279	-0.106
-216.567	279.418	0.038	-0.066
-215.552	-15.034	-0.196	0.123
-214.538	266.395	0.086	-0.148
-213.523	20.774	-0.107	0.085
-212.509	-41.286	0.058	0.029
-211.494	-200.000	0.032	-0.357
-210.479	800.000	0.122	-0.358
-209.465	-200.000	-0.008	0.228
-208.450	-200.000	-0.007	0.055
-207.436	85.245	-0.235	-0.253
-206.421	-28.055	0.206	0.117
-205.406	-93.510	0.190	-0.052
-204.392	-155.851	-0.123	-0.008
-203.377	91.624	-0.084	0.093
-202.363	-32.343	0.177	-0.097
-201.348	344.006	0.134	0.257
-200.333	365.977	-0.078	-0.155
-199.319	-71.781	0.224	0.082
-198.304	236.547	0.185	0.301
-197.290	-34.214	0.138	0.075
-196.275	179.688	0.240	-0.344
-195.260	-200.000	0.015	0.200
-194.246	143.391	0.084	-0.110
-193.231	-200.000	-0.000	0.182
-192.217	73.498	0.075	-0.077
-191.202	-149.114	0.390	0.031
-190.187	12.227	0.223	-0.168
-189.173	87.671	-0.092	0.100
-188.158	403.744	0.122	-0.252
-187.144	-56.617	-0.041	0.018
-186.129	-200.000	-0.014	0.364
-185.114	223.019	0.286	0.453
-184.100	164.067	-0.157	0.217
-183.085	78.149	-0.144	-0.151
-182.071	55.471	-0.175	-0.166
-181.056	171.218	-0.021	-0.029
-180.042	414.257	0.060	0.126
-179.027	296.453	0.060	0.108
-178.012	-81.697	-0.280	-0.090
-176.998	-7.559	-0.018	0.012
-175.983	-200.000	0.018	-0.087
-174.969	-36.015	0.168	-0.089
-173.954	-83.953	-0.029	-0.009
-172.939	31.913	-0.345	-0.292
-171.925	15.038	0.168	0.129
-170.910	-200.000	0.050	0.264
-169.896	-200.000	0.410	0.001
-168.881	-200.000	-0.024	0.349
-167.866	-200.000	-0.008	0.058
-166.852	78.091	-0.245	-0.256
-165.837	-83.784	-0.341	-0.107
-164.823	-23.573	0.114	0.067
-163.808	-62.212	-0.135	0.055
-162.793	55.440	0.105	-0.100
-161.779	-122.634	0.141	-0.022
-160.764	-1.093	0.185	-0.128
-159.750	21.681	-0.112	0.089
-158.735	-70.213	0.290	-0.108
-157.720	75.132	0.080	0.083
-156.706	67.195	0.300	0.299
-155.691	52.415	-0.298	0.279
-154.677	-23.527	0.257	-0.151
-153.662	73.880	0.162	0.166
-152.647	416.864	-0.085	-0.178
-151.633	-200.000	-0.019	-0.204
-150.618	-108.077	0.323	-0.069
-149.604	-200.000	-0.026	0.230
-148.589	-200.000	-0.002	0.113
-147.574	31.602	0.066	0.056
-146.560	800.000	-0.117	0.342
-145.545	-15.376	0.056	0.035
-144.531	-47.605	0.511	0.243
-143.516	-26.866	0.239	-0.137
-142.502	-112.746	0.332	-0.065
-141.487	213.115	-0.037	0.057
-140.472	-62.800	0.222	-0.090
-139.458	-200.000	-0.052	-0.232
-138.443	800.000	-0.088	0.265
-137.429	-89.956	0.082	-0.023
-136.414	222.485	0.130	0.204
-135.399	-200.000	-0.026	-0.439
-134.385	-61.625	0.473	0.194
-133.370	-4.603	0.067	-0.045
-132.356	444.295	-0.130	0.280
-131.341	-69.122	0.201	-0.076
-130.326	-132.182	0.316	-0.040
-129.312	135.730	0.175	-0.223
-128.297	45.391	-0.263	-0.237
-127.283	-41.637	-0.197	0.099
-126.268	-88.713	-0.191	-0.056
-125.253	-200.000	0.004	-0.087
-124.239	63.685	0.138	0.136
-123.224	-63.323	-0.103	0.041
-122.210	-200.000	0.021	-0.176
-121.195	-10.638	0.056	-0.036
