DTS Sentinel unit serial number:	SN413079Multiplexer serial number:	ORYXHardware model number:	OX4-SRSoftware version number:	ORYX F/W v4.00 Oryx Data Collector v3.7.2.0data status	okinstallation	princeton_trtdifferential loss correction	single-endedforward channel	channel 1reverse channel	N/Adate	2019/09/13time	06:58:35forward acquisition time	60.00reverse acquisition time	0.00gamma	496.2192k internal	0.2336k external	0.2336temperature offset calibration	1.0156default loss term (dB/km)	0.3790temperature slope calibration	1.0000multiplexer offset coefficient	1.0000multiplexer slope coefficient	1.0000fibre end	0.00T internal ref (°C)	26.00T ext. ref 1 (°C)	4.11T ext. ref 2 (°C)	20.91length (m)	temperature (°C)	Stokes	anti-Stokes-747.200	-59.330	0.176	-0.076
-746.185	-87.629	0.244	0.074
-745.171	22.061	-0.270	-0.221
-744.156	-137.393	-0.181	0.021
-743.142	-51.420	0.328	-0.154
-742.127	800.000	-0.125	0.373
-741.112	296.968	0.072	0.133
-740.098	95.527	-0.166	0.191
-739.083	-200.000	0.012	-0.379
-738.069	-62.799	0.289	0.120
-737.054	60.585	0.095	0.095
-736.039	-200.000	0.002	0.264
-735.025	162.376	0.045	0.063
-734.010	-12.070	-0.302	0.198
-732.996	571.936	-0.179	0.437
-731.981	-200.000	0.006	0.373
-730.966	38.820	-0.201	0.180
-729.952	193.473	-0.183	0.279
-728.937	91.321	-0.108	-0.122
-727.923	398.327	-0.046	0.097
-726.908	-37.722	-0.218	0.117
-725.894	800.000	0.079	0.224
-724.879	-144.417	-0.127	-0.012
-723.864	-44.079	-0.307	0.155
-722.850	-133.721	0.352	0.044
-721.835	390.957	-0.149	-0.310
-720.821	37.251	-0.185	-0.165
-719.806	34.142	0.195	-0.171
-718.791	195.092	-0.025	-0.038
-717.777	13.275	-0.258	0.201
-716.762	210.862	0.027	0.043
-715.748	34.814	-0.157	-0.138
-714.733	174.082	-0.173	0.250
-713.718	693.709	0.021	0.056
-712.704	-107.502	0.075	0.016
-711.689	159.867	0.128	-0.179
-710.675	751.414	0.042	0.113
-709.660	-200.000	-0.024	-0.157
-708.645	-200.000	-0.003	-0.262
-707.631	567.890	0.073	0.178
-706.616	467.291	-0.122	0.274
-705.602	-200.000	-0.027	-0.151
-704.587	-200.000	0.055	-0.256
-703.572	-179.628	-0.106	0.002
-702.558	-59.741	0.160	-0.069
-701.543	-76.115	-0.159	-0.056
-700.529	51.137	-0.126	-0.120
-699.514	472.805	-0.141	-0.319
-698.499	35.361	-0.201	0.177
-697.485	98.332	0.101	-0.116
-696.470	259.404	-0.167	0.289
-695.456	26.441	-0.172	-0.144
-694.441	-200.000	0.013	-0.214
-693.426	354.034	0.244	0.487
-692.412	-135.996	0.110	-0.013
-691.397	800.000	0.072	-0.207
-690.383	800.000	0.070	0.281
-689.368	678.213	-0.051	0.133
-688.354	-200.000	-0.062	-0.440
-687.339	-28.277	-0.215	-0.124
-686.324	54.925	0.180	0.174
-685.310	-118.712	0.083	-0.015
-684.295	162.837	-0.084	-0.119
-683.281	205.361	0.065	0.101
-682.266	573.471	0.087	0.213
-681.251	31.522	-0.055	0.047
-680.237	34.211	0.300	0.262
-679.222	-200.000	0.002	0.044
-678.208	800.000	-0.006	0.020
-677.193	127.526	-0.208	-0.265
-676.178	-52.440	-0.241	0.112
-675.164	-109.624	0.182	-0.038
-674.149	84.414	0.164	0.180
-673.135	-104.884	-0.361	0.083
-672.120	-200.000	-0.020	0.293
-671.105	-88.062	0.146	-0.044
-670.091	-200.000	-0.000	-0.064
-669.076	75.093	0.102	-0.108
-668.062	63.021	-0.084	0.085
-667.047	22.023	0.090	0.073
-666.032	116.624	0.050	-0.061
-665.018	-79.058	-0.303	-0.103
-664.003	800.000	-0.061	0.187
-662.989	229.123	0.160	0.261
-661.974	209.062	0.031	-0.048
-660.959	-78.664	-0.308	0.105
-659.945	800.000	0.086	-0.291
-658.930	132.729	0.042	-0.055
-657.916	-200.000	0.037	0.237
-656.901	234.654	0.105	-0.173
-655.886	29.850	-0.275	-0.234
-654.872	-87.342	-0.301	-0.091
-653.857	-119.295	0.215	0.037
-652.843	-200.000	-0.021	-0.369
-651.828	-200.000	-0.016	-0.290
-650.814	-200.000	0.019	-0.165
-649.799	-146.586	0.336	0.029
-648.784	-46.279	-0.185	-0.091
-647.770	55.800	0.185	0.179
-646.755	-177.128	0.128	0.003
-645.741	19.423	0.087	0.070
-644.726	225.094	0.125	0.202
-643.711	29.445	0.264	0.225
-642.697	-58.483	0.212	-0.092
-641.682	37.468	-0.114	0.101
-640.668	-200.000	0.053	-0.420
-639.653	-185.911	-0.216	0.003
-638.638	68.589	-0.107	-0.110
-637.624	-125.062	0.145	0.022
-636.609	5.877	-0.058	-0.043
-635.595	-135.749	-0.318	0.038
-634.580	211.609	-0.081	-0.127
-633.565	611.606	-0.105	0.264
-632.551	-62.725	-0.215	-0.089
-631.536	82.839	0.086	-0.094
-630.522	38.373	-0.151	-0.135
-629.507	-41.655	-0.109	0.056
-628.492	540.400	-0.039	0.094
-627.478	54.745	-0.207	0.199
-626.463	527.411	0.089	-0.211
-625.449	11.584	0.171	0.131
-624.434	164.073	0.089	0.126
-623.419	-60.366	-0.335	-0.142
-622.405	-98.760	0.272	0.069
-621.390	329.619	0.166	-0.319
-620.376	-162.019	0.137	0.007
-619.361	143.069	0.131	-0.173
-618.346	90.777	0.363	-0.406
-617.332	1.597	0.129	-0.093
-616.317	189.589	-0.015	-0.022
-615.303	-6.566	0.080	0.055
-614.288	-200.000	0.013	0.239
-613.273	-170.262	0.496	0.017
-612.259	-28.054	0.142	0.082
-611.244	229.901	-0.195	-0.319
-610.230	58.688	-0.289	-0.283
-609.215	195.396	0.165	0.251
-608.201	-200.000	-0.005	0.066
-607.186	-200.000	-0.020	-0.184
-606.171	800.000	0.031	0.090
-605.157	-200.000	-0.002	-0.137
-604.142	-16.373	0.171	-0.109
-603.128	54.610	-0.331	0.318
-602.113	-200.000	-0.001	-0.060
-601.098	-72.099	0.212	-0.078
-600.084	-54.864	0.112	-0.050
-599.069	-200.000	-0.060	0.367
-598.055	-82.749	0.210	-0.068
-597.040	-200.000	0.027	-0.132
-596.025	-200.000	-0.049	-0.279
-595.011	800.000	0.115	-0.344
-593.996	495.698	0.119	-0.273
-592.982	-200.000	0.060	-0.321
-591.967	398.628	-0.028	-0.059
-590.952	406.588	0.063	0.132
-589.938	199.503	-0.178	0.272
-588.923	93.075	0.183	-0.207
-587.909	86.845	-0.184	-0.203
-586.894	235.143	-0.018	-0.029
-585.879	-95.572	-0.069	0.018
-584.865	-81.505	0.263	-0.086
-583.850	-200.000	0.043	0.469
-582.836	-177.422	0.124	0.003
-581.821	227.649	-0.048	0.078
-580.806	-105.767	-0.040	-0.009
-579.792	480.949	-0.031	-0.071
-578.777	-80.848	-0.152	-0.050
-577.763	-58.030	0.066	-0.029
-576.748	800.000	-0.123	0.453
-575.733	800.000	-0.032	-0.089
-574.719	-108.239	-0.280	-0.060
-573.704	-13.824	0.098	0.063
-572.690	-52.707	0.203	0.094
-571.675	332.411	-0.141	0.271
-570.661	-200.000	0.009	0.239
-569.646	6.134	-0.218	0.161
-568.631	-64.543	-0.081	0.033
-567.617	-10.911	0.156	0.103
-566.602	121.017	-0.174	-0.216
-565.588	258.788	-0.123	0.212
-564.573	94.732	-0.195	0.222
-563.558	800.000	0.059	-0.232
-562.544	-200.000	-0.008	-0.215
-561.529	-200.000	-0.028	-0.225
-560.515	160.708	0.195	-0.271
-559.500	73.100	-0.305	0.318
-558.485	128.808	0.034	0.043
-557.471	468.047	-0.070	0.157
-556.456	-200.000	0.057	-0.282
-555.442	5.838	0.081	-0.060
-554.427	49.581	0.272	0.256
-553.412	47.246	0.113	0.105
-552.398	411.294	-0.048	0.102
-551.383	84.929	0.243	0.265
-550.369	273.137	-0.149	-0.262
-549.354	-200.000	-0.113	0.000
-548.339	291.222	0.059	-0.107
-547.325	58.783	-0.159	0.156
-546.310	800.000	-0.029	-0.113
-545.296	201.329	-0.260	-0.399
-544.281	800.000	-0.053	0.203
-543.266	195.817	-0.175	-0.265
-542.252	800.000	0.017	0.063
-541.237	286.258	0.059	0.106
-540.223	-79.372	-0.059	0.020
-539.208	78.863	0.095	-0.101
-538.193	-25.221	0.438	-0.259
-537.179	401.035	0.139	-0.290
-536.164	-200.000	-0.044	-0.205
-535.150	-37.513	0.165	-0.088
-534.135	800.000	-0.060	0.185
-533.121	800.000	0.103	0.310
-532.106	-96.868	-0.122	-0.032
-531.091	349.878	0.218	-0.428
-530.077	665.562	0.031	0.080
-529.062	-200.000	-0.016	0.118
-528.048	-200.000	-0.033	0.257
-527.033	800.000	-0.069	0.250
-526.018	7.205	-0.106	-0.078
-525.004	800.000	-0.029	0.118
-523.989	149.664	-0.024	0.032
-522.975	-120.755	-0.185	-0.031
-521.960	39.049	0.184	0.164
-520.945	-114.713	0.324	0.062
-519.931	800.000	-0.116	-0.374
-518.916	-200.000	0.047	-0.336
-517.902	322.274	-0.009	-0.018
-516.887	-142.673	-0.387	0.038
-515.872	-116.351	0.115	0.021
-514.858	36.526	0.057	0.050
-513.843	96.280	-0.141	0.161
-512.829	-112.221	-0.174	-0.035
-511.814	-109.530	0.181	0.038
-510.799	-7.071	-0.147	0.099
-509.785	51.355	-0.250	-0.236
-508.770	84.107	0.102	-0.111
-507.756	37.159	0.234	-0.206
-506.741	-11.585	-0.075	-0.049
-505.726	-110.970	0.114	-0.023
-504.712	439.983	0.050	0.110
-503.697	80.429	-0.086	0.093
-502.683	-10.884	-0.156	0.103
-501.668	800.000	0.034	0.134
-500.653	-102.422	-0.165	-0.039
-499.639	-86.526	-0.309	0.094
-498.624	-117.487	0.400	0.072
-497.610	673.507	0.079	0.203
-496.595	106.953	-0.211	-0.249
-495.581	282.635	0.177	-0.316
-494.566	-4.283	-0.209	0.144
-493.551	-160.638	0.159	0.008
-492.537	154.382	0.116	-0.158
-491.522	-111.472	-0.478	-0.097
-490.508	-200.000	-0.014	0.153
-489.493	800.000	-0.035	0.143
-488.478	117.742	-0.190	-0.232
-487.464	-200.000	-0.060	-0.439
-486.449	-200.000	0.013	-0.167
-485.435	-95.359	0.216	-0.058
-484.420	714.106	-0.040	-0.106
-483.405	-120.246	0.047	-0.008
-482.391	11.362	0.241	-0.183
-481.376	-200.000	0.044	-0.307
-480.362	800.000	-0.119	0.348
-479.347	140.848	0.232	0.304
-478.332	255.951	0.109	-0.185
-477.318	-84.780	-0.333	-0.104
-476.303	-200.000	-0.053	-0.245
-475.289	299.433	-0.136	-0.249
-474.274	-200.000	-0.015	0.108
-473.259	-200.000	0.024	0.268
-472.245	800.000	0.085	-0.240
-471.230	46.301	0.204	0.188
-470.216	21.870	-0.299	0.242
-469.201	75.634	-0.130	-0.137
-468.186	800.000	0.013	-0.036
-467.172	-48.098	0.279	-0.134
-466.157	-150.408	-0.129	-0.010
-465.143	-44.942	0.270	0.134
-464.128	255.731	0.055	0.093
-463.113	-200.000	-0.054	-0.240
-462.099	-49.834	0.109	-0.051
-461.084	-128.024	-0.161	-0.023
-460.070	31.454	-0.055	0.047
-459.055	-106.813	0.245	0.054
-458.040	651.204	0.104	0.265
-457.026	89.425	-0.165	0.183
-456.011	-36.735	0.170	-0.091
-454.997	-93.551	0.276	-0.076
-453.982	-111.041	-0.223	-0.045
-452.968	39.300	-0.104	-0.092
-451.953	797.207	0.123	-0.335
-450.938	-2.457	-0.081	0.057
-449.924	534.861	-0.108	-0.255
-448.909	105.783	0.061	-0.071
-447.895	800.000	-0.074	-0.233
-446.880	-62.418	-0.246	0.102
-445.865	157.379	-0.136	0.187
-444.851	44.043	0.237	-0.215
-443.836	-200.000	-0.010	-0.311
-442.822	-5.343	0.031	-0.021
-441.807	-114.736	-0.376	0.071
-440.792	-200.000	-0.012	0.126
-439.778	-200.000	0.005	-0.178
-438.763	89.277	-0.039	0.043
-437.749	800.000	0.081	0.234
-436.734	-35.079	0.264	0.143
-435.719	64.395	-0.109	-0.109
-434.705	492.241	0.076	0.173
-433.690	-200.000	-0.060	0.421
-432.676	755.896	0.161	0.432
-431.661	-157.951	-0.445	0.026
-430.646	800.000	0.059	0.209
-429.632	119.181	-0.054	0.066
-428.617	-200.000	0.000	0.158
-427.603	-200.000	0.047	0.331
-426.588	-200.000	0.006	0.087
-425.573	-118.875	0.088	0.015
-424.559	54.701	-0.228	-0.218
-423.544	-61.424	-0.345	-0.144
-422.530	49.441	-0.239	-0.223
-421.515	-110.620	-0.369	0.076
-420.500	257.126	-0.072	-0.123
-419.486	187.909	-0.198	-0.293
-418.471	-200.000	-0.008	-0.290
-417.457	800.000	0.092	0.365
-416.442	277.205	-0.128	-0.226
-415.428	800.000	0.008	-0.033
-414.413	-34.521	0.271	0.147
-413.398	-200.000	0.015	0.116
-412.384	159.319	-0.182	0.250
-411.369	318.124	-0.184	-0.346
-410.355	-124.496	-0.339	0.052
-409.340	95.146	0.098	0.111
-408.325	-129.394	0.102	0.014
-407.311	232.422	-0.080	-0.130
-406.296	247.768	0.114	0.191
-405.282	11.117	0.158	-0.120
-404.267	-20.445	-0.172	0.105
-403.252	194.180	0.189	0.283
-402.238	47.507	-0.311	0.288
-401.223	800.000	0.019	-0.082
-400.209	-135.978	-0.087	0.010
-399.194	-96.070	-0.163	-0.043
-398.179	-70.838	0.208	0.078
-397.165	411.769	0.031	-0.066
-396.150	49.293	0.368	0.343
-395.136	162.100	-0.149	0.207
-394.121	36.765	-0.358	-0.313
-393.106	100.092	-0.193	0.221
-392.092	86.844	-0.096	0.105
-391.077	718.328	0.017	0.046
-390.063	-36.841	0.141	0.075
-389.048	60.971	0.206	-0.203
-388.033	-200.000	0.043	-0.281
-387.019	523.404	-0.041	-0.096
-386.004	8.567	-0.160	-0.119
-384.990	173.023	-0.200	0.286
-383.975	645.645	-0.115	0.291
-382.960	65.568	-0.153	-0.153
-381.946	60.662	-0.163	-0.160
-380.931	-50.974	-0.230	0.107
-379.917	174.872	0.082	0.118
-378.902	-65.395	-0.073	0.029
-377.888	230.353	-0.082	0.132
-376.873	135.798	-0.113	0.146
-375.858	522.173	0.073	0.169
-374.844	-48.210	-0.222	0.106
-373.829	800.000	0.041	0.135
-372.815	-90.500	0.240	0.069
-371.800	118.270	0.261	-0.319
-370.785	-200.000	-0.003	-0.196
-369.771	61.040	0.249	-0.245
-368.756	-62.865	-0.248	-0.101
-367.742	-166.345	-0.348	-0.014
-366.727	344.807	0.036	-0.071
-365.712	37.068	-0.219	0.192
-364.698	-75.212	-0.019	-0.007
-363.683	-3.134	-0.168	0.116
-362.669	-106.934	0.153	-0.033
-361.654	-200.000	0.000	-0.483
-360.639	-200.000	0.100	-0.519
-359.625	-100.369	0.283	0.069
-358.610	-108.133	0.397	-0.085
-357.596	30.303	0.320	-0.270
-356.581	408.168	-0.081	0.169
-355.566	185.005	0.193	0.283
-354.552	-26.394	0.197	-0.114
-353.537	800.000	0.043	0.148
-352.523	-200.000	0.074	0.000
-351.508	204.179	-0.268	0.411
-350.493	800.000	0.026	0.102
-349.479	-37.572	0.047	0.025
-348.464	-155.712	0.336	-0.021
-347.450	-200.000	-0.004	0.168
-346.435	311.688	-0.064	-0.119
-345.420	-107.226	-0.199	0.043
-344.406	-200.000	0.001	-0.152
-343.391	-200.000	-0.013	-0.068
-342.377	307.678	0.124	0.229
-341.362	585.025	-0.167	-0.406
-340.348	-4.704	0.007	0.005
-339.333	68.722	0.097	-0.098
-338.318	-200.000	0.018	0.142
-337.304	-200.000	0.000	-0.194
-336.289	136.923	-0.226	-0.292
-335.275	181.750	-0.153	0.222
-334.260	-182.244	0.383	0.007
-333.245	-44.454	-0.151	-0.075
-332.231	-200.000	-0.026	0.323
-331.216	-24.551	0.316	0.186
-330.202	-200.000	-0.036	-0.254
-329.187	-45.152	-0.153	-0.075
-328.172	135.683	0.257	0.330
-327.158	23.453	0.160	0.130
-326.143	-200.000	0.024	-0.401
-325.129	800.000	0.046	0.169
-324.114	-35.759	0.099	0.053
-323.099	-200.000	-0.031	0.328
-322.085	-139.635	-0.143	-0.015
-321.070	-78.636	-0.042	0.014
-320.056	64.122	0.069	-0.069
-319.041	-122.461	0.061	0.010
-318.026	56.651	0.259	0.249
-317.012	-200.000	-0.014	-0.136
-315.997	800.000	-0.026	-0.080
-314.983	800.000	-0.060	-0.164
-313.968	-60.470	0.129	0.054
-312.953	-106.143	-0.262	0.058
-311.939	216.450	0.062	0.097
-310.924	-71.885	-0.240	-0.088
-309.910	463.839	0.167	-0.369
-308.895	100.813	0.160	0.184
-307.880	618.586	-0.020	0.051
-306.866	-200.000	0.019	-0.169
-305.851	26.912	0.117	-0.097
-304.837	283.785	0.228	-0.404
-303.822	569.500	-0.072	0.173
-302.807	-78.719	0.306	0.103
-301.793	114.938	0.114	0.138
-300.778	-200.000	-0.006	0.339
-299.764	7.067	-0.345	0.254
-298.749	800.000	0.043	0.128
-297.735	60.092	0.248	-0.242
-296.720	800.000	0.060	0.202
-295.705	-130.126	0.299	-0.040
-294.691	-66.537	-0.209	0.082
-293.676	-200.000	-0.054	-0.242
-292.662	-7.774	-0.322	0.214
-291.647	-200.000	0.007	-0.233
-290.632	668.047	-0.085	0.216
-289.618	105.504	-0.175	-0.204
-288.603	146.851	0.144	0.192
-287.589	800.000	0.056	-0.218
-286.574	-57.448	-0.407	-0.176
-285.559	192.241	-0.140	-0.209
-284.545	800.000	0.090	0.255
-283.530	800.000	0.123	0.467
-282.516	346.426	0.046	0.089
-281.501	418.600	-0.094	0.198
-280.486	-60.807	0.278	0.116
-279.472	800.000	-0.037	0.157
-278.457	800.000	0.035	-0.108
-277.443	38.354	0.228	0.201
-276.428	26.990	0.037	-0.030
-275.413	-200.000	-0.010	-0.095
-274.399	-200.000	0.024	0.120
-273.384	-115.279	-0.313	-0.058
-272.370	-200.000	0.010	-0.049
-271.355	14.539	-0.019	0.014
-270.340	-89.390	-0.216	0.063
-269.326	-200.000	0.008	0.264
-268.311	-30.544	-0.191	0.107
-267.297	154.259	0.308	0.417
-266.282	-109.811	0.202	0.042
-265.267	690.897	-0.036	0.093
-264.253	32.742	-0.097	-0.083
-263.238	135.128	0.147	0.188
-262.224	-200.000	0.011	0.081
-261.209	-77.078	0.239	-0.082
-260.195	800.000	-0.025	0.093
-259.180	-82.274	0.168	0.054
-258.165	-92.913	-0.256	0.070
-257.151	199.014	0.034	0.051
-256.136	-2.722	-0.241	-0.166
-255.122	-200.000	0.000	-0.082
-254.107	92.796	-0.191	0.212
-253.092	55.111	0.071	-0.067
-252.078	451.580	-0.125	-0.271
-251.063	38.046	-0.213	0.186
-250.049	346.045	-0.137	0.266
-249.034	-200.000	0.007	0.379
-248.019	22.105	0.156	-0.125
-247.005	91.825	-0.019	-0.021
-245.990	-12.687	-0.023	0.015
-244.976	-200.000	-0.014	-0.158
-243.961	113.090	0.283	-0.337
-242.946	143.260	-0.225	-0.296
-241.932	98.627	0.126	-0.143
-240.917	800.000	0.091	0.275
-239.903	120.524	-0.246	-0.301
-238.888	-66.407	0.301	0.118
-237.873	356.106	-0.033	-0.064
-236.859	-55.577	0.260	0.115
-235.844	19.218	-0.180	-0.142
-234.830	-130.779	0.223	-0.029
-233.815	-55.717	0.110	0.049
-232.800	780.880	-0.114	-0.307
-231.786	233.710	-0.116	-0.189
-230.771	-200.000	-0.001	0.206
-229.757	-3.250	0.321	-0.220
-228.742	168.037	0.131	-0.183
-227.727	-68.331	-0.433	-0.165
-226.713	-70.623	0.085	0.032
-225.698	-200.000	-0.025	-0.147
-224.684	-200.000	0.008	0.071
-223.669	-98.673	-0.292	0.073
-222.655	-29.112	-0.322	0.182
-221.640	-193.584	0.219	-0.002
-220.625	-148.473	0.196	-0.016
-219.611	383.336	-0.209	0.422
-218.596	-133.835	0.253	0.031
-217.582	93.463	0.159	-0.177
-216.567	-26.033	0.163	-0.094
-215.552	126.430	0.013	0.016
-214.538	28.454	0.368	-0.306
-213.523	-35.079	0.084	-0.045
-212.509	-34.715	-0.399	0.215
-211.494	-2.673	-0.238	0.164
-210.479	-7.174	0.085	-0.056
-209.465	306.485	-0.183	0.335
-208.450	92.608	-0.204	0.227
-207.436	800.000	0.044	-0.136
-206.421	237.565	0.134	0.218
-205.406	-104.170	0.348	0.080
-204.392	-84.573	-0.105	0.032
-203.377	-200.000	-0.004	-0.365
-202.363	-146.179	0.191	-0.017
-201.348	-19.909	-0.028	0.017
-200.333	394.513	0.082	-0.168
-199.319	800.000	-0.042	0.178
-198.304	74.011	-0.206	-0.212
-197.290	-200.000	-0.012	0.131
-196.275	-97.198	-0.225	0.058
-195.260	800.000	0.018	-0.065
-194.246	611.929	0.090	0.221
-193.231	22.532	-0.211	-0.170
-192.217	-200.000	0.003	0.337
-191.202	317.871	0.026	-0.048
-190.187	-74.868	-0.092	-0.032
-189.173	-87.068	0.120	-0.036
-188.158	-111.694	-0.245	-0.049
-187.144	-120.491	0.337	-0.056
-186.129	-200.000	-0.003	0.448
-185.114	350.974	0.118	0.229
-184.100	-111.254	0.089	0.018
-183.085	-133.186	0.137	0.017
-182.071	-89.841	0.408	0.117
-181.056	-200.000	0.034	0.170
-180.042	-200.000	0.014	-0.078
-179.027	158.513	-0.187	-0.255
-178.012	4.983	0.120	0.087
-176.998	-22.824	0.181	0.107
-175.983	304.889	-0.079	0.145
-174.969	-22.662	-0.194	-0.115
-173.954	-200.000	-0.009	0.043
-172.939	-200.000	-0.006	-0.537
-171.925	-79.853	-0.408	0.135
-170.910	758.712	-0.130	-0.345
-169.896	53.156	0.181	-0.171
-168.881	171.359	-0.199	0.281
-167.866	339.859	0.126	-0.241
-166.852	800.000	-0.013	-0.044
-165.837	36.306	-0.105	-0.091
-164.823	-44.492	0.277	-0.136
-163.808	-200.000	0.055	0.261
-162.793	-89.473	0.125	-0.036
-161.779	-139.265	0.053	-0.006
-160.764	-200.000	-0.033	-0.309
-159.750	-22.329	-0.304	-0.181
-158.735	-134.916	-0.069	-0.008
-157.720	-120.704	0.063	0.010
-156.706	219.016	0.120	0.189
-155.691	99.191	-0.111	0.126
-154.677	-60.879	0.131	-0.055
-153.662	-92.052	-0.172	-0.048
-152.647	94.133	0.090	-0.100
-151.633	-200.000	-0.013	-0.086
-150.618	-58.038	-0.214	0.092
-149.604	725.776	0.129	-0.338
-148.589	312.291	0.060	-0.110
-147.574	755.009	0.029	-0.077
-146.560	90.948	-0.170	-0.187
-145.545	-200.000	0.018	0.093
-144.531	421.114	-0.084	0.177
-143.516	-186.493	0.142	-0.002
-142.502	167.410	0.091	-0.126
-141.487	108.989	0.206	0.242
-140.472	420.460	-0.138	-0.290
-139.458	29.954	-0.117	-0.098
-138.443	-179.499	0.412	0.009
-137.429	-91.157	0.087	-0.025
-136.414	-75.008	-0.178	-0.063
-135.399	-81.497	0.398	-0.128
-134.385	-27.788	-0.268	0.153
-133.370	148.222	-0.036	0.048
-132.356	-200.000	0.047	-0.279
-131.341	-112.052	-0.114	0.023
-130.326	-64.866	0.113	-0.045
-129.312	83.848	0.053	-0.057
-128.297	-200.000	-0.057	0.438
-127.283	800.000	-0.037	0.109
-126.268	-200.000	0.012	-0.174
-125.253	-92.826	-0.089	0.024
-124.239	-200.000	-0.009	-0.192
-123.224	-116.966	0.407	0.073
-122.210	447.241	0.072	-0.156
-121.195	-0.653	0.118	-0.082
-120.180	-105.810	-0.135	0.030
