DTS Sentinel unit serial number:	SN413079Multiplexer serial number:	ORYXHardware model number:	OX4-SRSoftware version number:	ORYX F/W v4.00 Oryx Data Collector v3.7.2.0data status	okinstallation	princeton_trtdifferential loss correction	single-endedforward channel	channel 1reverse channel	N/Adate	2019/09/11time	07:44:11forward acquisition time	60.00reverse acquisition time	0.00gamma	496.2192k internal	0.2323k external	0.2323temperature offset calibration	0.9924default loss term (dB/km)	0.3790temperature slope calibration	1.0000multiplexer offset coefficient	1.0000multiplexer slope coefficient	1.0000fibre end	0.00T internal ref (°C)	31.56T ext. ref 1 (°C)	0.18T ext. ref 2 (°C)	27.68length (m)	temperature (°C)	Stokes	anti-Stokes-747.200	379.047	-0.036	0.075
-746.185	-82.813	-0.274	0.090
-745.171	-200.000	0.003	-0.084
-744.156	-142.289	0.223	-0.022
-743.142	-29.842	-0.138	0.079
-742.127	99.345	0.103	0.121
-741.112	-116.463	0.101	-0.019
-740.098	-200.000	0.038	0.250
-739.083	-127.106	0.297	-0.044
-738.069	141.444	-0.172	0.230
-737.054	-200.000	-0.009	-0.128
-736.039	520.644	-0.093	0.219
-735.025	-200.000	-0.006	-0.096
-734.010	-0.071	0.136	0.098
-732.996	-2.570	-0.159	-0.112
-731.981	-72.663	-0.476	-0.177
-730.966	-200.000	-0.056	-0.485
-729.952	-13.190	-0.144	0.094
-728.937	106.348	-0.112	-0.134
-727.923	-59.617	0.194	-0.084
-726.908	800.000	0.060	-0.249
-725.894	-39.333	-0.131	0.069
-724.879	-20.187	-0.228	-0.142
-723.864	800.000	0.066	-0.234
-722.850	-200.000	-0.032	-0.316
-721.835	19.995	0.166	0.135
-720.821	20.884	-0.280	0.229
-719.806	800.000	-0.068	-0.253
-718.791	-200.000	0.005	-0.243
-717.777	-100.158	-0.105	-0.026
-716.762	-69.887	0.114	0.044
-715.748	70.138	0.279	0.291
-714.733	-177.036	-0.205	-0.005
-713.718	-31.834	-0.029	-0.016
-712.704	-200.000	0.014	0.076
-711.689	800.000	0.040	0.153
-710.675	-86.716	-0.175	-0.054
-709.660	-100.056	-0.077	-0.019
-708.645	-200.000	0.016	0.317
-707.631	-39.453	-0.162	-0.085
-706.616	779.933	-0.141	0.388
-705.602	-200.000	0.016	0.104
-704.587	-41.634	-0.140	0.073
-703.572	272.444	0.057	-0.102
-702.558	-56.617	-0.024	0.011
-701.543	422.147	0.134	-0.290
-700.529	103.085	-0.298	-0.352
-699.514	-40.161	-0.035	0.019
-698.499	-104.100	0.335	-0.079
-697.485	-28.279	-0.214	0.125
-696.470	-150.909	-0.454	-0.035
-695.456	126.414	-0.076	-0.096
-694.441	-200.000	0.017	0.263
-693.426	-82.834	-0.184	0.060
-692.412	-200.000	0.016	0.224
-691.397	119.828	-0.095	0.118
-690.383	113.966	-0.162	-0.198
-689.368	-59.780	-0.275	0.119
-688.354	81.066	0.101	0.109
-687.339	-31.122	-0.215	-0.122
-686.324	87.358	-0.426	-0.475
-685.310	-200.000	0.015	-0.108
-684.295	87.370	0.117	-0.130
-683.281	565.033	0.152	-0.370
-682.266	-74.397	-0.142	-0.052
-681.251	800.000	-0.060	-0.230
-680.237	29.420	-0.152	0.130
-679.222	109.272	0.190	0.229
-678.208	-139.835	-0.151	-0.016
-677.193	-200.000	0.053	-0.310
-676.178	-110.040	0.484	0.102
-675.164	-200.000	-0.050	-0.323
-674.149	-120.591	0.278	-0.047
-673.135	-40.277	0.345	0.181
-672.120	-200.000	-0.226	-0.001
-671.105	-107.509	-0.227	-0.050
-670.091	-136.240	0.158	0.019
-669.076	62.308	-0.262	0.263
-668.062	-107.649	-0.109	-0.024
-667.047	387.545	0.127	-0.265
-666.032	-144.530	-0.172	0.016
-665.018	62.784	-0.115	-0.116
-664.003	-162.751	0.141	-0.007
-662.989	-58.329	0.202	0.088
-661.974	800.000	0.055	0.193
-660.959	800.000	0.035	0.116
-659.945	-70.430	0.233	-0.089
-658.930	-117.029	0.315	0.058
-657.916	106.294	0.144	-0.172
-656.901	-200.000	-0.020	0.127
-655.886	-76.746	-0.233	0.082
-654.872	-69.580	-0.273	0.105
-653.857	-131.988	-0.181	0.024
-652.843	-200.000	-0.072	-0.530
-651.828	-200.000	-0.021	-0.282
-650.814	800.000	0.031	-0.092
-649.799	-156.265	0.449	-0.028
-648.784	-79.236	-0.376	-0.128
-647.770	481.664	-0.114	-0.260
-646.755	-200.000	-0.017	0.085
-645.741	53.968	-0.181	-0.175
-644.726	-73.625	0.312	-0.114
-643.711	-72.474	-0.028	-0.010
-642.697	-200.000	-0.004	0.101
-641.682	-67.297	-0.300	0.119
-640.668	-200.000	-0.004	0.359
-639.653	-48.703	-0.157	0.076
-638.638	326.904	0.184	-0.354
-637.624	48.188	-0.158	-0.149
-636.609	144.687	-0.202	-0.271
-635.595	-22.363	0.096	0.059
-634.580	-116.588	0.049	0.009
-633.565	-99.295	-0.270	-0.069
-632.551	52.537	0.136	-0.131
-631.536	51.692	-0.062	-0.060
-630.522	-12.024	0.151	-0.099
-629.507	-200.000	-0.063	-0.452
-628.492	-179.518	0.316	-0.007
-627.478	42.199	-0.089	-0.082
-626.463	-7.717	-0.122	0.083
-625.449	6.635	-0.149	0.111
-624.434	-200.000	0.081	-0.366
-623.419	-26.006	-0.135	-0.080
-622.405	800.000	-0.022	-0.096
-621.390	-200.000	0.044	0.213
-620.376	0.365	-0.127	-0.091
-619.361	800.000	-0.056	0.225
-618.346	704.010	-0.044	-0.117
-617.332	234.773	-0.174	0.288
-616.317	800.000	0.031	0.124
-615.303	-200.000	0.001	0.265
-614.288	-200.000	0.010	0.196
-613.273	147.675	0.099	-0.134
-612.259	46.110	0.233	0.216
-611.244	-200.000	-0.005	0.048
-610.230	800.000	0.063	0.262
-609.215	-200.000	-0.038	-0.466
-608.201	-16.651	0.251	-0.160
-607.186	119.483	-0.147	-0.183
-606.171	-200.000	0.021	-0.198
-605.157	-105.139	0.212	0.049
-604.142	-200.000	0.002	0.054
-603.128	-13.049	0.115	-0.075
-602.113	44.912	0.105	0.097
-601.098	78.998	-0.075	0.080
-600.084	800.000	0.080	0.343
-599.069	-79.950	0.215	-0.072
-598.055	-200.000	0.020	0.097
-597.040	-109.316	0.248	-0.053
-596.025	800.000	0.109	-0.355
-595.011	-131.927	0.288	0.038
-593.996	-122.270	-0.431	-0.071
-592.982	147.436	0.163	0.221
-591.967	-73.970	0.125	-0.046
-590.952	-30.454	-0.038	-0.022
-589.938	540.949	0.104	-0.250
-588.923	-70.791	0.198	-0.075
-587.909	-97.359	-0.109	0.028
-586.894	297.830	-0.158	-0.291
-585.879	-84.050	-0.490	-0.156
-584.865	-66.015	0.204	0.082
-583.850	-49.995	0.303	-0.144
-582.836	800.000	0.030	-0.126
-581.821	-41.552	-0.304	-0.157
-580.806	-40.049	-0.022	0.012
-579.792	800.000	-0.064	-0.280
-578.777	-96.870	0.130	-0.034
-577.763	-124.621	-0.202	0.032
-576.748	-200.000	-0.033	0.256
-575.733	-154.747	0.103	0.007
-574.719	165.678	0.097	0.137
-573.704	-56.144	-0.058	-0.026
-572.690	-200.000	-0.005	-0.107
-571.675	-105.890	0.386	0.087
-570.661	3.504	0.322	-0.235
-569.646	-34.839	-0.154	-0.084
-568.631	97.064	0.053	0.061
-567.617	-200.000	0.098	0.452
-566.602	-14.922	0.059	0.038
-565.588	59.059	0.136	0.134
-564.573	490.048	0.077	-0.176
-563.558	2.564	0.190	0.138
-562.544	-49.146	-0.132	-0.063
-561.529	-127.018	0.073	-0.011
-560.515	-200.000	-0.005	-0.219
-559.500	777.174	-0.118	0.324
-558.485	653.853	0.011	-0.027
-557.471	-200.000	0.069	0.361
-556.456	380.448	0.020	-0.041
-555.442	148.918	-0.103	-0.139
-554.427	-200.000	-0.021	-0.334
-553.412	499.577	0.118	-0.272
-552.398	662.359	-0.112	0.289
-551.383	800.000	-0.043	-0.180
-550.369	-200.000	0.002	0.431
-549.354	-200.000	0.039	0.284
-548.339	-200.000	-0.030	-0.221
-547.325	-128.264	0.304	0.043
-546.310	-200.000	0.101	0.448
-545.296	-105.776	-0.348	-0.079
-544.281	800.000	0.099	-0.297
-543.266	-200.000	0.069	-0.312
-542.252	109.460	-0.012	0.014
-541.237	338.589	-0.081	-0.158
-540.223	26.769	-0.183	-0.154
-539.208	317.830	0.093	-0.175
-538.193	208.317	0.079	-0.123
-537.179	400.133	0.026	-0.055
-536.164	-96.540	0.179	0.047
-535.150	261.777	0.096	-0.166
-534.135	-160.877	0.286	-0.015
-533.121	-17.368	-0.328	-0.207
-532.106	-200.000	0.020	-0.142
-531.091	-81.589	-0.125	0.041
-530.077	-200.000	-0.018	0.416
-529.062	-145.661	0.166	0.015
-528.048	-141.007	-0.090	0.009
-527.033	-165.488	0.201	0.009
-526.018	800.000	-0.022	-0.072
-525.004	-164.231	-0.320	0.015
-523.989	-200.000	-0.011	-0.259
-522.975	-80.108	-0.157	-0.053
-521.960	66.524	-0.198	-0.202
-520.945	61.995	0.311	-0.310
-519.931	-143.819	-0.229	0.022
-518.916	-45.220	0.024	-0.012
-517.902	-169.065	-0.230	-0.009
-516.887	188.277	-0.090	-0.134
-515.872	733.305	0.060	-0.160
-514.858	626.653	0.043	-0.108
-513.843	-200.000	-0.045	-0.257
-512.829	113.695	-0.019	0.023
-511.814	-133.377	-0.055	-0.007
-510.799	469.402	0.113	-0.255
-509.785	-107.337	-0.332	0.073
-508.770	51.597	-0.119	0.113
-507.756	-106.327	0.127	0.028
-506.741	-200.000	0.032	0.268
-505.726	177.742	0.167	0.244
-504.712	-70.482	-0.132	-0.050
-503.697	-96.282	0.150	-0.040
-502.683	800.000	-0.039	-0.165
-501.668	427.658	-0.029	-0.063
-500.653	-83.138	0.043	0.014
-499.639	-156.079	0.158	0.010
-498.624	4.246	0.130	-0.095
-497.610	-4.356	0.212	0.146
-496.595	51.721	-0.130	-0.124
-495.581	11.797	-0.279	0.214
-494.566	72.307	0.297	0.310
-493.551	-200.000	-0.014	0.376
-492.537	-200.000	0.047	-0.274
-491.522	-78.686	-0.124	-0.042
-490.508	-36.349	-0.216	0.116
-489.493	330.808	-0.110	-0.212
-488.478	-38.856	0.036	0.019
-487.464	351.774	0.173	-0.343
-486.449	474.440	0.039	-0.089
-485.435	800.000	0.018	0.054
-484.420	-97.900	0.068	-0.017
-483.405	-113.254	0.530	-0.104
-482.391	472.761	0.200	0.449
-481.376	82.607	0.265	0.287
-480.362	-65.913	0.160	-0.064
-479.347	138.068	0.220	0.288
-478.332	800.000	0.057	0.226
-477.318	346.858	-0.042	0.082
-476.303	800.000	-0.014	-0.045
-475.289	-200.000	-0.001	-0.027
-474.274	1.293	-0.126	0.091
-473.259	-60.687	0.246	-0.104
-472.245	800.000	0.077	0.267
-471.230	-80.901	0.179	0.059
-470.216	-200.000	-0.009	0.282
-469.201	150.858	0.181	0.246
-468.186	-69.457	0.242	0.093
-467.172	108.085	0.188	-0.223
-466.157	12.121	-0.272	-0.209
-465.143	-200.000	0.019	0.136
-464.128	12.734	-0.207	0.160
-463.113	-200.000	-0.024	-0.114
-462.099	161.004	0.055	0.076
-461.084	95.951	-0.040	-0.045
-460.070	-73.919	0.098	-0.036
-459.055	60.473	-0.289	0.286
-458.040	726.533	-0.131	0.350
-457.026	-96.819	-0.191	0.050
-456.011	128.656	0.107	0.136
-454.997	100.354	0.181	-0.209
-453.982	-200.000	0.001	0.126
-452.968	-35.167	-0.229	0.125
-451.953	109.038	0.119	-0.142
-450.938	-141.788	0.110	0.011
-449.924	800.000	0.024	0.075
-448.909	-200.000	0.037	0.279
-447.895	-94.807	-0.298	-0.081
-446.880	-200.000	-0.010	0.349
-445.865	-113.097	-0.265	-0.052
-444.851	-86.027	-0.194	0.060
-443.836	469.178	-0.125	0.279
-442.822	-20.134	-0.174	-0.107
-441.807	637.636	0.139	0.353
-440.792	116.974	-0.327	0.401
-439.778	-66.551	-0.057	-0.023
-438.763	-13.206	0.178	-0.115
-437.749	-173.983	-0.490	-0.014
-436.734	-200.000	-0.020	-0.266
-435.719	69.756	-0.093	0.096
-434.705	-89.906	0.129	-0.038
-433.690	-200.000	-0.050	-0.336
-432.676	768.056	0.109	0.296
-431.661	-105.034	-0.152	0.035
-430.646	392.078	-0.097	-0.200
-429.632	80.905	-0.078	0.083
-428.617	-66.105	0.239	-0.095
-427.603	-200.000	-0.005	0.122
-426.588	-200.000	-0.004	0.327
-425.573	-200.000	0.011	-0.071
-424.559	171.208	-0.190	-0.271
-423.544	800.000	0.071	-0.251
-422.530	-127.405	-0.242	-0.035
-421.515	-102.618	-0.148	0.035
-420.500	-35.729	0.325	0.176
-419.486	-25.190	-0.204	0.121
-418.471	137.553	0.016	-0.021
-417.457	-151.469	0.352	0.026
-416.442	-5.058	0.158	-0.108
-415.428	14.176	-0.245	-0.190
-414.413	4.046	-0.121	-0.088
-413.398	800.000	0.105	0.389
-412.384	-15.984	0.291	-0.184
-411.369	135.869	-0.093	-0.121
-410.355	-76.873	-0.269	-0.094
-409.340	-34.140	0.340	-0.186
-408.325	323.516	-0.149	-0.284
-407.311	-19.562	0.179	-0.110
-406.296	-200.000	-0.008	0.122
-405.282	-60.495	-0.085	0.036
-404.267	-30.163	-0.290	0.165
-403.252	-100.431	-0.447	0.110
-402.238	178.124	-0.193	0.281
-401.223	438.042	0.149	-0.325
-400.209	-126.097	0.333	-0.050
-399.194	-87.424	-0.210	-0.063
-398.179	80.947	0.340	0.365
-397.165	177.301	0.165	-0.239
-396.150	-108.576	0.355	-0.076
-395.136	164.016	-0.142	0.199
-394.121	-200.000	-0.036	0.240
-393.106	-200.000	-0.011	0.193
-392.092	293.881	0.122	0.221
-391.077	11.840	-0.224	0.171
-390.063	-91.159	-0.081	0.023
-389.048	511.434	0.081	0.188
-388.033	23.461	0.245	0.200
-387.019	-132.327	0.284	0.037
-386.004	-39.587	-0.155	-0.081
-384.990	66.231	-0.207	-0.210
-383.975	38.312	-0.085	0.076
-382.960	316.877	0.044	0.082
-381.946	354.459	-0.216	0.427
-380.931	-200.000	-0.052	0.285
-379.917	-33.345	0.281	0.155
-378.902	-200.000	0.012	0.173
-377.888	480.409	0.158	-0.357
-376.873	53.516	0.152	0.145
-375.858	-200.000	-0.106	0.000
-374.844	461.715	-0.019	0.042
-373.829	142.108	0.299	0.395
-372.815	-41.852	0.144	0.073
-371.800	47.442	0.280	-0.260
-370.785	418.556	-0.140	-0.299
-369.771	-49.915	0.228	0.108
-368.756	-35.477	0.110	-0.060
-367.742	-9.119	0.039	-0.026
-366.727	800.000	0.036	-0.156
-365.712	687.924	-0.095	-0.247
-364.698	-116.256	-0.026	-0.005
-363.683	162.543	-0.124	-0.173
-362.669	25.939	-0.214	0.178
-361.654	-57.832	0.122	0.053
-360.639	-200.000	-0.005	-0.221
-359.625	-93.110	0.102	-0.028
-358.610	-200.000	0.003	0.017
-357.596	-135.627	-0.208	0.025
-356.581	3.700	-0.035	0.025
-355.566	245.564	0.132	0.221
-354.552	-161.453	0.160	0.008
-353.537	373.415	-0.123	0.248
-352.523	800.000	0.010	-0.032
-351.508	240.056	0.213	-0.354
-350.493	-140.115	0.228	0.024
-349.479	-105.180	0.353	-0.080
-348.464	-100.649	-0.122	-0.030
-347.450	-99.957	0.292	0.072
-346.435	414.678	0.080	-0.168
-345.420	34.542	-0.180	-0.156
-344.406	264.095	-0.073	-0.125
-343.391	-0.750	0.107	-0.076
-342.377	-91.225	0.265	-0.075
-341.362	-101.017	-0.154	0.038
-340.348	242.572	-0.066	0.110
-339.333	-138.543	-0.087	-0.009
-338.318	169.286	0.159	0.225
-337.304	101.485	-0.074	0.086
-336.289	176.040	-0.274	-0.395
-335.275	81.444	-0.098	0.105
-334.260	-88.705	0.041	-0.012
-333.245	-200.000	-0.016	0.151
-332.231	-136.985	0.201	-0.023
-331.216	-91.428	0.486	-0.138
-330.202	11.697	-0.256	0.196
-329.187	-200.000	0.038	-0.184
-328.172	-200.000	-0.021	-0.154
-327.158	-200.000	0.006	0.365
-326.143	-95.703	0.273	-0.072
-325.129	-30.335	0.441	-0.248
-324.114	-91.563	-0.174	0.049
-323.099	-82.423	-0.017	-0.005
-322.085	-200.000	0.006	0.038
-321.070	-64.578	-0.248	-0.100
-320.056	32.677	-0.076	0.065
-319.041	-200.000	-0.001	0.082
-318.026	225.415	0.184	0.296
-317.012	102.514	-0.053	-0.062
-315.997	50.617	0.183	0.172
-314.983	-200.000	-0.001	0.180
-313.968	296.604	-0.056	-0.103
-312.953	-200.000	0.046	-0.291
-311.939	-115.002	0.446	0.084
-310.924	-59.102	-0.057	0.024
-309.910	-29.856	0.334	-0.189
-308.895	-85.564	0.222	-0.068
-307.880	-200.000	-0.002	0.464
-306.866	800.000	-0.052	-0.178
-305.851	800.000	0.013	-0.045
-304.837	-174.984	0.118	0.003
-303.822	70.757	0.107	0.110
-302.807	-8.837	0.426	0.283
-301.793	-162.530	-0.305	-0.015
-300.778	800.000	0.091	-0.317
-299.764	-200.000	0.026	-0.292
-298.749	-69.887	0.191	0.072
-297.735	-162.292	0.240	-0.012
-296.720	-27.191	0.291	-0.168
-295.705	-43.139	-0.053	0.027
-294.691	-160.964	-0.205	-0.011
-293.676	136.171	-0.166	0.215
-292.662	-200.000	-0.029	-0.159
-291.647	325.126	-0.113	0.214
-290.632	-69.993	-0.105	0.040
-289.618	-173.865	0.196	-0.006
-288.603	-33.559	0.052	0.029
-287.589	-8.966	-0.111	0.074
-286.574	800.000	0.072	-0.240
-285.559	800.000	-0.102	-0.400
-284.545	-110.568	-0.466	-0.096
-283.530	-133.453	-0.164	0.020
-282.516	36.855	-0.057	-0.050
-281.501	800.000	0.014	-0.041
-280.486	-50.088	0.169	-0.079
-279.472	-67.422	-0.207	-0.081
-278.457	-178.686	-0.345	-0.008
-277.443	275.372	-0.141	0.248
-276.428	-200.000	0.030	-0.175
-275.413	-22.903	0.111	-0.067
-274.399	125.750	-0.132	-0.166
-273.384	-200.000	0.008	0.169
-272.370	220.328	-0.203	0.323
-271.355	800.000	0.047	0.145
-270.340	408.974	-0.063	0.132
-269.326	-96.671	0.239	-0.062
-268.311	800.000	0.057	0.210
-267.297	-200.000	0.026	-0.225
-266.282	-93.507	-0.160	0.044
-265.267	46.717	0.100	-0.092
-264.253	-81.516	-0.400	0.130
-263.238	328.089	0.152	-0.289
-262.224	-55.422	-0.344	-0.153
-261.209	-200.000	0.004	-0.025
-260.195	619.998	-0.177	0.441
-259.180	-43.228	0.187	0.094
-258.165	5.481	0.101	0.074
-257.151	90.780	0.178	-0.198
-256.136	800.000	0.065	-0.270
-255.122	171.820	-0.069	-0.099
-254.107	2.487	-0.228	-0.164
-253.092	-200.000	0.080	-0.471
-252.078	32.244	-0.145	0.124
-251.063	-115.349	-0.325	-0.061
-250.049	-13.093	0.115	0.074
-249.034	-169.186	0.153	-0.006
-248.019	109.078	-0.033	-0.040
-247.005	744.457	0.084	-0.224
-245.990	-147.388	-0.092	0.008
-244.976	-93.093	0.254	-0.070
-243.961	-200.000	0.004	-0.050
-242.946	-71.753	-0.182	0.067
-241.932	-116.624	-0.301	-0.055
-240.917	-200.000	0.046	-0.231
-239.903	-86.797	-0.305	-0.092
-238.888	-72.819	0.035	-0.013
-237.873	136.296	-0.211	-0.272
-236.859	-153.975	-0.236	0.016
-235.844	-63.204	-0.284	0.116
-234.830	76.139	0.195	0.205
-233.815	62.184	-0.241	-0.238
-232.800	800.000	-0.048	0.174
-231.786	35.197	-0.124	0.108
-230.771	-200.000	-0.018	0.121
-229.757	-29.603	-0.388	0.219
-228.742	-113.428	-0.260	0.051
-227.727	-185.192	0.443	-0.007
-226.713	-68.275	-0.109	0.042
-225.698	-7.594	-0.179	0.120
-224.684	-200.000	-0.004	-0.137
-223.669	44.558	-0.058	0.052
-222.655	151.973	-0.319	0.430
-221.640	-73.439	-0.108	0.039
-220.625	-101.171	-0.057	-0.014
-219.611	73.056	-0.074	0.076
-218.596	174.869	0.069	-0.098
-217.582	-200.000	0.007	-0.164
-216.567	-81.072	-0.058	-0.019
-215.552	800.000	-0.128	-0.363
-214.538	27.340	0.230	-0.191
-213.523	-66.939	-0.145	0.057
-212.509	800.000	0.097	0.380
-211.494	95.720	0.171	0.193
-210.479	-200.000	0.336	-0.001
-209.465	-120.546	-0.344	0.058
-208.450	-67.376	-0.090	-0.035
-207.436	14.044	-0.084	-0.065
-206.421	21.920	-0.089	0.072
-205.406	-54.250	-0.091	-0.041
-204.392	12.596	-0.107	0.082
-203.377	-84.291	-0.157	-0.049
-202.363	800.000	0.055	0.175
-201.348	-144.147	-0.234	-0.022
-200.333	800.000	-0.096	0.307
-199.319	-200.000	0.030	-0.347
-198.304	323.596	0.127	0.239
-197.290	3.437	-0.138	-0.099
-196.275	-198.581	0.032	0.000
-195.260	800.000	0.045	0.161
-194.246	187.229	-0.132	-0.194
-193.231	-56.834	0.171	0.075
-192.217	253.393	0.099	0.166
-191.202	-200.000	0.035	-0.411
-190.187	-200.000	-0.035	-0.205
-189.173	-149.542	0.120	0.009
-188.158	53.743	-0.134	0.127
-187.144	800.000	0.100	0.311
-186.129	-122.435	0.028	-0.005
-185.114	306.652	-0.111	0.205
-184.100	118.506	0.131	0.160
-183.085	112.046	-0.212	-0.253
-182.071	-57.419	0.088	0.038
-181.056	5.206	0.152	-0.111
-180.042	-60.891	-0.209	0.087
-179.027	-87.500	-0.298	0.089
-178.012	-54.545	-0.180	0.080
-176.998	-57.702	0.219	-0.095
-175.983	-135.259	-0.356	0.042
-174.969	-200.000	0.025	0.158
-173.954	-136.517	0.275	-0.031
-172.939	54.421	0.202	0.192
-171.925	74.396	-0.113	0.118
-170.910	0.960	-0.249	0.176
-169.896	-200.000	-0.033	0.188
-168.881	14.974	0.338	0.261
-167.866	-200.000	0.023	-0.110
-166.852	-68.538	-0.017	-0.007
-165.837	55.683	-0.178	0.170
-164.823	220.007	0.149	-0.236
-163.808	377.968	0.063	-0.127
-162.793	-81.949	0.277	0.089
-161.779	-200.000	-0.016	-0.238
-160.764	-200.000	-0.014	-0.065
-159.750	-156.682	-0.092	-0.006
-158.735	-81.371	-0.284	-0.092
-157.720	52.650	-0.259	-0.244
-156.706	-29.570	-0.083	-0.047
-155.691	-117.319	0.203	-0.036
-154.677	98.163	0.084	-0.096
-153.662	-200.000	0.023	-0.414
-152.647	-200.000	0.007	0.230
-151.633	-43.793	-0.227	-0.113
-150.618	9.267	-0.229	0.170
-149.604	-150.549	0.169	-0.013
-148.589	526.416	-0.075	0.174
-147.574	91.131	-0.131	-0.145
-146.560	197.794	0.055	0.083
-145.545	-85.849	-0.210	0.064
-144.531	-51.653	0.135	-0.062
-143.516	-200.000	0.245	0.001
-142.502	41.589	0.075	-0.067
-141.487	-55.036	0.266	0.118
-140.472	19.862	0.169	0.134
-139.458	791.746	0.084	0.226
-138.443	6.821	0.034	0.025
-137.429	-84.386	0.191	-0.060
-136.414	-200.000	0.044	-0.310
-135.399	-163.644	0.201	-0.009
-134.385	-178.292	0.316	0.007
-133.370	46.834	-0.192	0.176
-132.356	-200.000	0.063	-0.409
-131.341	-91.844	-0.179	-0.050
-130.326	-200.000	-0.017	0.297
-129.312	25.389	-0.092	-0.075
-128.297	-200.000	0.035	0.151
-127.283	430.913	0.091	0.194
-126.268	-200.000	0.006	-0.288
-125.253	1.805	-0.164	-0.117
-124.239	-20.596	0.064	0.039
-123.224	-171.962	0.242	0.008
-122.210	-137.974	0.158	0.017
