DTS Sentinel unit serial number:	SN413079Multiplexer serial number:	ORYXHardware model number:	OX4-SRSoftware version number:	ORYX F/W v4.00 Oryx Data Collector v3.7.2.0data status	okinstallation	princeton_trtdifferential loss correction	single-endedforward channel	channel 1reverse channel	N/Adate	2019/09/16time	21:14:35forward acquisition time	60.00reverse acquisition time	0.00gamma	496.2192k internal	0.2324k external	0.2324temperature offset calibration	0.9948default loss term (dB/km)	0.3790temperature slope calibration	1.0000multiplexer offset coefficient	1.0000multiplexer slope coefficient	1.0000fibre end	0.00T internal ref (°C)	31.75T ext. ref 1 (°C)	0.05T ext. ref 2 (°C)	25.53length (m)	temperature (°C)	Stokes	anti-Stokes-747.200	-127.033	0.223	0.033
-746.185	118.270	-0.163	0.203
-745.171	126.499	-0.078	0.100
-744.156	-43.596	-0.296	0.151
-743.142	517.266	0.020	0.048
-742.127	105.498	-0.210	0.250
-741.112	-94.190	0.331	-0.091
-740.098	102.598	0.091	0.107
-739.083	15.409	0.276	0.219
-738.069	-26.892	-0.143	0.084
-737.054	800.000	-0.090	0.291
-736.039	307.715	-0.051	-0.096
-735.025	-188.545	0.342	0.004
-734.010	-1.946	-0.149	-0.105
-732.996	-85.933	-0.240	-0.075
-731.981	-200.000	-0.043	-0.260
-730.966	800.000	-0.043	-0.160
-729.952	-200.000	-0.024	-0.312
-728.937	-62.110	0.147	-0.062
-727.923	-200.000	0.012	-0.226
-726.908	154.963	-0.051	0.071
-725.894	800.000	-0.074	-0.220
-724.879	800.000	-0.077	0.320
-723.864	324.608	0.108	-0.208
-722.850	-121.502	0.034	0.006
-721.835	-47.720	-0.388	-0.190
-720.821	-118.392	0.157	-0.028
-719.806	442.326	-0.101	-0.224
-718.791	800.000	0.078	-0.282
-717.777	50.917	-0.020	0.019
-716.762	-62.174	0.104	0.044
-715.748	-200.000	-0.051	-0.242
-714.733	283.078	-0.103	-0.187
-713.718	340.253	-0.057	0.112
-712.704	-200.000	-0.030	-0.206
-711.689	335.478	-0.178	0.347
-710.675	44.004	-0.253	-0.234
-709.660	-100.358	-0.330	0.083
-708.645	-63.140	0.328	0.136
-707.631	-164.885	-0.054	0.002
-706.616	-142.955	-0.212	0.021
-705.602	404.408	0.135	-0.286
-704.587	800.000	0.027	0.112
-703.572	56.898	0.138	-0.135
-702.558	262.944	-0.089	-0.156
-701.543	-200.000	0.014	0.156
-700.529	800.000	0.095	-0.324
-699.514	-78.735	-0.465	0.160
-698.499	74.727	0.185	0.196
-697.485	800.000	0.102	-0.438
-696.470	-10.848	0.361	-0.240
-695.456	296.004	0.051	0.095
-694.441	20.472	-0.065	-0.053
-693.426	5.714	0.248	-0.185
-692.412	81.427	-0.135	-0.147
-691.397	42.228	-0.142	-0.130
-690.383	222.149	0.078	0.127
-689.368	684.564	-0.110	-0.290
-688.354	598.751	0.107	-0.268
-687.339	-30.263	0.184	0.105
-686.324	-93.078	0.299	-0.084
-685.310	-67.453	0.109	0.043
-684.295	-200.000	0.009	0.043
-683.281	53.369	-0.120	-0.116
-682.266	16.418	0.131	-0.104
-681.251	193.994	0.122	0.185
-680.237	43.438	-0.046	-0.043
-679.222	-200.000	0.026	0.185
-678.208	-37.280	-0.163	0.088
-677.193	800.000	-0.052	0.223
-676.178	53.521	0.137	-0.132
-675.164	238.461	-0.089	0.150
-674.149	-87.193	-0.170	0.052
-673.135	-41.602	-0.281	0.145
-672.120	-26.507	0.354	0.209
-671.105	-43.527	-0.105	-0.053
-670.091	-200.000	0.041	0.216
-669.076	800.000	-0.055	-0.225
-668.062	-93.097	0.430	-0.120
-667.047	-66.694	-0.164	-0.065
-666.032	750.324	-0.061	-0.167
-665.018	-200.000	0.018	-0.294
-664.003	-99.232	0.120	-0.031
-662.989	-155.836	-0.149	-0.010
-661.974	-47.481	0.170	0.083
-660.959	109.809	-0.154	0.186
-659.945	-200.000	0.013	0.113
-658.930	-200.000	0.010	-0.564
-657.916	800.000	0.055	0.206
-656.901	73.597	0.214	0.225
-655.886	-112.553	0.127	0.026
-654.872	-200.000	-0.035	0.233
-653.857	52.323	0.110	0.105
-652.843	23.682	0.112	0.093
-651.828	71.663	0.186	-0.194
-650.814	682.210	-0.056	-0.146
-649.799	-60.640	-0.137	-0.058
-648.784	-65.216	0.109	0.044
-647.770	145.786	-0.053	0.071
-646.755	-177.194	-0.234	-0.006
-645.741	800.000	0.078	-0.226
-644.726	94.843	0.164	-0.188
-643.711	350.857	0.119	0.236
-642.697	220.687	0.040	-0.064
-641.682	103.782	0.281	-0.332
-640.668	800.000	-0.082	-0.234
-639.653	89.925	-0.115	-0.129
-638.638	800.000	0.090	-0.274
-637.624	-25.458	0.183	-0.109
-636.609	-200.000	-0.030	-0.215
-635.595	-102.221	0.278	-0.067
-634.580	-181.270	-0.160	-0.003
-633.565	501.740	0.120	-0.278
-632.551	262.223	-0.133	-0.232
-631.536	-75.633	0.179	0.064
-630.522	-57.569	0.365	0.161
-629.507	-200.000	-0.016	-0.378
-628.492	-42.105	0.141	-0.072
-627.478	-123.852	-0.202	-0.032
-626.463	-65.876	0.170	0.068
-625.449	-200.000	-0.009	-0.179
-624.434	-37.551	0.351	0.188
-623.419	-56.506	0.126	0.056
-622.405	800.000	-0.039	0.159
-621.390	-35.786	-0.279	0.152
-620.376	91.406	0.251	0.283
-619.361	-173.265	-0.233	-0.007
-618.346	800.000	0.053	0.163
-617.332	-68.169	0.316	-0.124
-616.317	800.000	-0.028	0.108
-615.303	-123.347	0.084	0.013
-614.288	-158.686	0.251	0.014
-613.273	-30.139	0.037	-0.021
-612.259	164.597	-0.256	-0.363
-611.244	-200.000	0.017	0.092
-610.230	102.496	-0.093	-0.109
-609.215	-107.628	0.084	0.019
-608.201	-152.675	-0.296	0.021
-607.186	-110.878	0.278	0.057
-606.171	-38.217	-0.287	-0.153
-605.157	88.877	0.104	0.116
-604.142	800.000	0.049	0.206
-603.128	250.566	0.068	-0.116
-602.113	38.603	0.252	-0.226
-601.098	800.000	0.030	0.098
-600.084	-200.000	0.034	0.181
-599.069	-170.193	-0.260	-0.009
-598.055	-125.013	-0.068	-0.010
-597.040	-65.493	0.183	-0.074
-596.025	550.008	0.050	-0.120
-595.011	-169.689	0.217	-0.008
-593.996	92.458	-0.186	0.211
-592.982	352.240	0.136	-0.271
-591.967	-84.475	0.333	-0.106
-590.952	-10.740	0.157	0.104
-589.938	800.000	0.046	-0.131
-588.923	-19.526	-0.357	-0.222
-587.909	-156.469	0.134	0.008
-586.894	681.905	0.015	0.039
-585.879	-20.967	-0.094	-0.058
-584.865	-16.496	0.231	-0.147
-583.850	-122.117	0.186	-0.031
-582.836	31.338	0.228	-0.196
-581.821	-49.478	-0.241	-0.115
-580.806	800.000	-0.032	0.100
-579.792	310.907	-0.073	-0.137
-578.777	800.000	0.050	-0.167
-577.763	58.526	-0.123	-0.121
-576.748	800.000	0.069	-0.213
-575.733	-11.498	-0.087	-0.057
-574.719	-79.726	-0.239	-0.081
-573.704	75.896	-0.131	0.139
-572.690	-100.080	-0.416	0.104
-571.675	-94.059	0.262	0.072
-570.661	-165.890	-0.193	0.008
-569.646	-45.153	-0.115	-0.057
-568.631	-200.000	-0.039	-0.259
-567.617	-43.788	-0.178	-0.090
-566.602	-39.772	0.301	0.158
-565.588	-78.747	0.250	-0.086
-564.573	175.491	0.162	-0.235
-563.558	27.711	-0.098	-0.083
-562.544	-154.740	-0.291	-0.019
-561.529	800.000	0.057	-0.227
-560.515	-20.947	0.132	0.081
-559.500	361.289	0.101	-0.202
-558.485	193.133	0.164	-0.249
-557.471	40.902	0.215	-0.195
-556.456	70.083	-0.092	-0.095
-555.442	174.409	-0.115	-0.167
-554.427	-8.109	0.206	0.139
-553.412	-36.899	0.155	0.083
-552.398	-33.165	0.057	-0.032
-551.383	-76.156	-0.264	-0.093
-550.369	-200.000	0.036	-0.280
-549.354	-200.000	0.057	-0.263
-548.339	620.222	-0.126	-0.318
-547.325	-200.000	-0.017	0.287
-546.310	-164.256	0.136	-0.006
-545.296	-82.391	-0.140	-0.046
-544.281	-100.638	-0.113	0.028
-543.266	-95.710	-0.202	0.054
-542.252	-200.000	-0.000	0.051
-541.237	-112.449	-0.343	-0.069
-540.223	62.374	0.040	0.040
-539.208	60.909	0.174	-0.173
-538.193	-14.778	0.189	-0.122
-537.179	-103.687	-0.371	0.087
-536.164	190.097	-0.135	-0.202
-535.150	557.535	0.185	0.447
-534.135	730.772	0.084	0.225
-533.121	-200.000	-0.005	-0.113
-532.106	122.812	0.085	0.107
-531.091	30.269	0.030	0.026
-530.077	64.469	0.073	-0.073
-529.062	129.091	-0.156	0.200
-528.048	-123.391	-0.207	-0.033
-527.033	-200.000	0.033	-0.188
-526.018	60.204	-0.103	0.102
-525.004	-56.195	0.067	0.030
-523.989	-200.000	-0.015	0.096
-522.975	-67.755	0.231	-0.090
-521.960	800.000	-0.091	0.285
-520.945	-200.000	0.012	-0.336
-519.931	349.439	0.036	0.072
-518.916	-177.930	0.096	-0.002
-517.902	-89.608	0.074	0.022
-516.887	121.609	0.060	0.075
-515.872	-200.000	0.038	0.228
-514.858	695.181	0.083	0.219
-513.843	267.378	0.119	-0.209
-512.829	-200.000	0.015	0.240
-511.814	-200.000	0.001	-0.255
-510.799	800.000	-0.064	0.187
-509.785	14.905	0.156	0.122
-508.770	800.000	0.027	-0.086
-507.756	735.374	-0.049	-0.130
-506.741	-89.661	-0.172	0.051
-505.726	800.000	-0.018	-0.061
-504.712	18.248	-0.077	-0.061
-503.697	-28.384	-0.100	0.058
-502.683	-116.685	-0.111	0.020
-501.668	38.631	-0.029	0.026
-500.653	-95.437	-0.267	0.072
-499.639	-200.000	-0.004	0.187
-498.624	800.000	-0.093	0.355
-497.610	800.000	-0.045	-0.142
-496.595	-71.135	0.210	0.079
-495.581	304.837	-0.085	-0.159
-494.566	85.966	-0.195	0.214
-493.551	-82.083	0.141	0.046
-492.537	31.982	-0.171	-0.147
-491.522	-135.039	-0.206	-0.025
-490.508	800.000	0.039	-0.167
-489.493	56.954	-0.340	-0.331
-488.478	-8.200	-0.186	-0.125
-487.464	280.196	-0.087	-0.156
-486.449	-115.505	0.200	0.038
-485.435	179.377	0.185	0.270
-484.420	69.708	-0.085	0.087
-483.405	225.242	0.017	-0.028
-482.391	-186.887	-0.145	0.002
-481.376	34.729	-0.294	0.257
-480.362	24.585	-0.025	0.021
-479.347	89.967	-0.151	-0.169
-478.332	-200.000	-0.000	-0.003
-477.318	800.000	0.029	0.096
-476.303	130.785	-0.185	0.237
-475.289	-200.000	-0.048	0.224
-474.274	22.325	0.355	-0.290
-473.259	243.268	0.059	-0.100
-472.245	390.894	-0.115	-0.239
-471.230	-200.000	0.044	-0.379
-470.216	-200.000	-0.013	-0.154
-469.201	186.383	-0.145	0.215
-468.186	371.171	0.075	0.151
-467.172	28.427	0.241	-0.204
-466.157	3.253	0.200	-0.145
-465.143	-141.157	0.206	-0.021
-464.128	388.243	-0.189	0.389
-463.113	-200.000	0.002	-0.160
-462.099	268.872	-0.030	-0.052
-461.084	-54.898	0.100	0.045
-460.070	-100.868	-0.288	0.071
-459.055	-72.078	0.292	-0.108
-458.040	207.513	0.071	-0.110
-457.026	21.015	0.123	-0.099
-456.011	-64.186	0.108	0.044
-454.997	114.515	-0.257	0.313
-453.982	40.305	-0.102	0.091
-452.968	163.495	-0.053	0.075
-451.953	-200.000	-0.024	0.134
-450.938	182.677	-0.137	-0.202
-449.924	718.509	-0.211	0.559
-448.909	-141.629	0.356	-0.036
-447.895	141.967	-0.138	0.183
-446.880	-200.000	-0.015	0.241
-445.865	448.219	0.052	-0.114
-444.851	114.962	-0.277	0.338
-443.836	-3.108	0.267	-0.186
-442.822	165.156	-0.084	0.119
-441.807	-136.137	-0.070	-0.008
-440.792	-200.000	0.026	-0.293
-439.778	81.398	0.164	-0.176
-438.763	169.219	-0.175	0.248
-437.749	86.132	-0.053	0.058
-436.734	112.395	-0.052	0.062
-435.719	-94.205	0.223	0.061
-434.705	-83.616	0.086	-0.027
-433.690	330.985	0.046	0.088
-432.676	22.802	0.021	-0.017
-431.661	175.017	-0.034	-0.049
-430.646	-146.256	0.334	0.029
-429.632	254.401	-0.063	-0.108
-428.617	242.793	0.065	-0.108
-427.603	39.394	-0.226	0.201
-426.588	800.000	-0.059	0.180
-425.573	-200.000	-0.021	-0.111
-424.559	-41.826	-0.094	-0.048
-423.544	-149.122	0.177	-0.014
-422.530	97.760	-0.100	0.115
-421.515	-10.777	-0.231	0.152
-420.500	-200.000	-0.002	-0.226
-419.486	268.371	0.091	0.160
-418.471	800.000	-0.029	-0.102
-417.457	-200.000	-0.032	-0.281
-416.442	-28.216	0.253	0.145
-415.428	456.904	-0.141	-0.311
-414.413	200.536	0.110	-0.168
-413.398	-92.769	-0.112	0.031
-412.384	-200.000	-0.046	-0.262
-411.369	18.984	0.079	0.063
-410.355	-140.040	-0.263	0.028
-409.340	23.388	0.143	0.117
-408.325	50.859	-0.319	0.301
-407.311	-200.000	0.065	0.358
-406.296	418.430	0.008	0.017
-405.282	800.000	-0.067	-0.249
-404.267	-200.000	0.013	-0.472
-403.252	183.694	-0.173	0.255
-402.238	35.232	-0.060	0.052
-401.223	487.682	-0.040	-0.091
-400.209	-95.321	0.059	0.016
-399.194	81.643	-0.146	0.157
-398.179	-119.242	0.074	-0.013
-397.165	-32.193	0.156	0.087
-396.150	6.466	0.248	0.183
-395.136	-162.895	-0.262	-0.013
-394.121	201.463	-0.148	0.227
-393.106	-72.447	-0.297	-0.109
-392.092	-52.058	0.353	0.163
-391.077	-135.419	0.219	-0.026
-390.063	106.088	0.141	-0.167
-389.048	26.169	0.155	-0.128
-388.033	-200.000	-0.028	0.213
-387.019	-200.000	0.042	0.303
-386.004	800.000	-0.114	0.340
-384.990	-142.008	0.101	-0.010
-383.975	-32.791	0.097	-0.053
-382.960	-72.008	0.235	-0.087
-381.946	-46.031	-0.115	-0.057
-380.931	-200.000	0.006	0.107
-379.917	800.000	-0.110	-0.336
-378.902	-200.000	0.025	0.310
-377.888	-200.000	0.036	0.338
-376.873	800.000	-0.077	-0.215
-375.858	800.000	0.021	-0.068
-374.844	608.582	-0.103	0.257
-373.829	-15.518	-0.327	0.208
-372.815	-71.808	0.187	-0.069
-371.800	800.000	0.060	0.171
-370.785	559.670	0.039	-0.095
-369.771	-200.000	0.026	0.115
-368.756	-200.000	0.017	-0.298
-367.742	-98.614	-0.082	0.021
-366.727	-137.212	0.209	-0.024
-365.712	800.000	0.019	-0.054
-364.698	-120.697	-0.088	-0.015
-363.683	-135.722	0.028	-0.003
-362.669	548.930	-0.206	0.491
-361.654	383.765	0.115	-0.235
-360.639	-145.313	0.399	0.036
-359.625	299.518	-0.136	0.249
-358.610	-200.000	-0.028	-0.311
-357.596	-26.965	0.145	-0.084
-356.581	-153.289	0.149	-0.010
-355.566	179.801	-0.201	0.293
-354.552	395.669	0.128	0.265
-353.537	207.590	-0.123	0.192
-352.523	281.033	0.026	-0.046
-351.508	14.629	-0.201	-0.156
-350.493	-39.182	-0.228	-0.119
-349.479	800.000	-0.061	-0.179
-348.464	-200.000	0.015	0.073
-347.450	-200.000	0.016	-0.086
-346.435	211.654	0.078	0.122
-345.420	-27.457	-0.318	-0.184
-344.406	-75.838	0.185	0.065
-343.391	800.000	0.092	0.324
-342.377	-122.227	-0.387	-0.063
-341.362	208.245	0.173	0.268
-340.348	-98.078	-0.358	0.092
-339.333	-200.000	-0.033	0.470
-338.318	-118.292	0.148	0.026
-337.304	800.000	0.068	0.249
-336.289	88.374	0.111	-0.122
-335.275	12.234	0.345	-0.264
-334.260	-52.874	-0.308	0.141
-333.245	583.740	-0.067	-0.163
-332.231	-147.656	0.243	0.020
-331.216	-104.338	0.132	-0.030
-330.202	-90.531	-0.273	-0.078
-329.187	-172.943	0.154	0.005
-328.172	289.560	0.079	-0.143
-327.158	-10.415	-0.183	0.120
-326.143	106.689	0.135	0.159
-325.129	127.584	-0.272	0.342
-324.114	-200.000	-0.030	-0.250
-323.099	-27.281	-0.286	-0.165
-322.085	-23.884	0.074	0.044
-321.070	-95.908	0.446	-0.118
-320.056	-113.034	0.059	0.012
-319.041	78.532	-0.381	-0.404
-318.026	-25.502	0.237	0.139
-317.012	-41.515	-0.160	0.082
-315.997	-126.630	-0.147	0.022
-314.983	-70.654	0.367	-0.138
-313.968	-169.030	-0.206	-0.008
-312.953	800.000	0.014	0.045
-311.939	-28.339	0.234	0.134
-310.924	-25.276	-0.168	0.099
-309.910	-200.000	-0.019	0.233
-308.895	-114.018	0.283	-0.054
-307.880	96.723	-0.132	-0.151
-306.866	260.451	-0.129	-0.222
-305.851	-200.000	-0.075	-0.436
-304.837	116.329	-0.301	-0.366
-303.822	187.282	-0.130	-0.192
-302.807	-99.728	0.118	0.029
-301.793	55.541	-0.071	0.069
-300.778	235.311	0.199	0.326
-299.764	800.000	0.129	0.513
-298.749	-134.818	-0.196	-0.024
-297.735	-17.839	-0.218	-0.136
-296.720	166.391	-0.360	-0.506
-295.705	-200.000	-0.001	-0.210
-294.691	194.413	-0.205	0.308
-293.676	-200.000	-0.009	0.078
-292.662	-27.615	0.379	-0.218
-291.647	146.816	0.151	-0.201
-290.632	408.425	-0.097	-0.204
-289.618	57.596	-0.144	0.140
-288.603	302.997	-0.120	0.220
-287.589	800.000	0.052	0.200
-286.574	47.141	-0.125	-0.115
-285.559	-200.000	0.013	-0.340
-284.545	-49.116	-0.295	-0.140
-283.530	-47.423	0.080	0.039
-282.516	-145.754	-0.171	0.015
-281.501	62.666	0.210	0.209
-280.486	69.432	0.131	0.134
-279.472	121.188	-0.100	0.124
-278.457	80.661	0.200	0.214
-277.443	-89.968	-0.130	0.038
-276.428	273.143	-0.057	0.099
-275.413	-200.000	-0.036	-0.292
-274.399	503.126	-0.083	0.190
-273.384	226.238	0.215	-0.345
-272.370	274.390	-0.112	-0.196
-271.355	800.000	-0.056	-0.158
-270.340	-200.000	-0.006	0.113
-269.326	-76.029	0.123	-0.043
-268.311	748.400	-0.037	-0.100
-267.297	-128.140	0.078	-0.011
-266.282	134.782	-0.112	-0.144
-265.267	-200.000	0.022	0.220
-264.253	-200.000	0.041	-0.308
-263.238	521.638	-0.160	-0.372
-262.224	-200.000	-0.030	-0.145
-261.209	-113.002	0.310	-0.061
-260.195	-37.712	0.202	-0.106
-259.180	-16.057	0.366	-0.231
-258.165	-8.181	-0.313	0.209
-257.151	-110.448	0.236	-0.049
-256.136	-53.933	-0.133	0.060
-255.122	-80.199	-0.403	-0.134
-254.107	385.577	0.216	0.442
-253.092	-183.757	0.155	0.003
-252.078	-3.899	0.161	0.110
-251.063	-46.386	0.371	-0.181
-250.049	69.761	-0.153	-0.156
-249.034	-163.468	-0.472	0.022
-248.019	-4.478	0.144	-0.098
-247.005	23.451	0.037	-0.030
-245.990	20.437	0.212	0.169
-244.976	-112.725	0.295	0.058
-243.961	89.702	-0.361	0.399
-242.946	97.303	0.065	-0.074
-241.932	-29.414	0.268	0.152
-240.917	-7.059	-0.148	-0.100
-239.903	56.294	-0.120	0.115
-238.888	95.934	-0.142	0.161
-237.873	-187.919	-0.140	-0.002
-236.859	-64.265	0.284	0.114
-235.844	140.121	0.200	0.260
-234.830	426.671	-0.086	0.184
-233.815	-200.000	0.063	-0.294
-232.800	-129.860	0.415	0.056
-231.786	119.120	0.094	0.115
-230.771	52.219	0.081	-0.076
-229.757	151.305	0.014	-0.019
-228.742	4.354	0.152	-0.110
-227.727	88.887	0.118	0.130
-226.713	268.532	0.174	0.301
-225.698	-12.206	0.130	0.084
-224.684	77.644	-0.142	-0.150
-223.669	-50.998	0.244	-0.113
-222.655	-146.953	0.209	-0.018
-221.640	161.750	0.043	-0.060
-220.625	-135.365	0.175	0.021
-219.611	-0.364	-0.273	-0.192
-218.596	-150.299	-0.229	0.017
-217.582	451.861	0.166	0.363
-216.567	105.779	0.053	-0.063
-215.552	-200.000	-0.026	-0.160
-214.538	-18.235	-0.136	0.084
-213.523	-173.624	-0.240	0.007
-212.509	5.449	-0.130	0.095
-211.494	152.382	0.079	0.107
-210.479	158.161	-0.209	0.286
-209.465	-102.363	-0.264	-0.062
-208.450	800.000	0.031	0.130
-207.436	125.136	-0.121	-0.150
-206.421	-200.000	0.041	-0.337
-205.406	430.663	0.038	-0.080
-204.392	41.571	0.225	0.202
-203.377	-60.012	0.256	-0.108
-202.363	800.000	-0.008	-0.024
-201.348	85.676	0.043	-0.047
-200.333	-12.912	-0.133	0.086
-199.319	-126.629	0.316	-0.046
-198.304	-200.000	0.022	0.132
-197.290	54.451	0.062	0.059
-196.275	1.306	-0.095	0.067
-195.260	119.717	0.194	0.238
-194.246	-63.480	-0.367	0.149
-193.231	112.288	0.071	0.085
-192.217	-48.090	0.161	0.077
-191.202	800.000	-0.046	0.138
-190.187	-200.000	-0.097	-0.513
-189.173	21.875	0.203	0.164
-188.158	-42.828	-0.096	-0.048
-187.144	-77.230	0.007	-0.002
-186.129	-70.013	0.297	0.112
-185.114	588.390	-0.064	-0.154
-184.100	11.849	0.104	0.079
-183.085	390.513	-0.039	0.080
-182.071	-103.211	0.263	0.061
-181.056	-67.719	0.241	0.093
-180.042	-107.598	0.228	0.049
-179.027	32.114	-0.172	-0.146
-178.012	153.692	0.261	0.352
-176.998	-200.000	-0.068	0.300
-175.983	161.531	-0.267	-0.369
-174.969	13.291	-0.399	-0.305
-173.954	43.827	-0.145	-0.131
-172.939	-102.199	-0.037	0.009
-171.925	243.479	-0.199	0.330
-170.910	-200.000	0.091	0.461
-169.896	174.549	-0.079	-0.113
-168.881	724.251	0.116	0.304
-167.866	129.259	-0.133	0.168
-166.852	8.453	-0.257	-0.191
-165.837	-72.674	0.307	-0.112
-164.823	305.420	-0.088	-0.162
-163.808	-59.618	-0.168	-0.071
-162.793	-200.000	0.020	0.243
-161.779	-200.000	-0.016	-0.170
-160.764	800.000	-0.032	-0.096
-159.750	117.066	0.126	0.153
-158.735	-33.401	-0.229	0.125
-157.720	583.421	-0.127	0.306
-156.706	-0.468	-0.275	0.193
-155.691	87.208	-0.303	0.331
-154.677	182.821	-0.099	0.144
-153.662	56.948	-0.157	-0.151
-152.647	-183.107	0.214	-0.004
-151.633	11.907	-0.247	-0.187
-150.618	-36.873	-0.182	-0.096
-149.604	800.000	0.045	0.193
-148.589	-179.883	-0.308	0.007
-147.574	800.000	-0.094	-0.289
-146.560	-200.000	-0.032	0.187
-145.545	2.233	0.251	-0.179
-144.531	800.000	-0.049	-0.151
-143.516	68.995	-0.021	-0.022
-142.502	174.347	0.142	-0.203
-141.487	-92.898	-0.147	0.041
-140.472	800.000	-0.029	0.110
-139.458	234.525	0.092	-0.150
-138.443	421.869	-0.133	-0.282
-137.429	-136.481	0.142	0.016
-136.414	206.622	-0.049	-0.075
-135.399	-31.819	-0.026	-0.014
-134.385	61.289	0.042	-0.041
-133.370	76.844	-0.071	-0.074
-132.356	-110.045	0.124	0.026
-131.341	-200.000	0.038	-0.244
-130.326	-117.198	-0.029	-0.005
-129.312	102.273	0.101	-0.116
-128.297	-200.000	-0.001	0.008
-127.283	-29.953	0.335	-0.188
-126.268	-200.000	-0.007	0.267
-125.253	-74.872	-0.024	-0.009
-124.239	64.081	0.030	-0.029
-123.224	6.601	-0.101	-0.074
-122.210	-143.055	0.204	0.019
-121.195	800.000	0.058	0.216
