DTS Sentinel unit serial number:	SN413079Multiplexer serial number:	ORYXHardware model number:	OX4-SRSoftware version number:	ORYX F/W v4.00 Oryx Data Collector v3.7.2.0data status	okinstallation	princeton_trtdifferential loss correction	single-endedforward channel	channel 1reverse channel	N/Adate	2019/09/14time	17:22:35forward acquisition time	60.00reverse acquisition time	0.00gamma	496.2192k internal	0.2295k external	0.2295temperature offset calibration	1.0051default loss term (dB/km)	0.3790temperature slope calibration	1.0000multiplexer offset coefficient	1.0000multiplexer slope coefficient	1.0000fibre end	0.00T internal ref (°C)	37.81T ext. ref 1 (°C)	5.06T ext. ref 2 (°C)	32.58length (m)	temperature (°C)	Stokes	anti-Stokes-747.200	540.145	-0.055	0.134
-746.185	-9.803	0.234	-0.159
-745.171	-200.000	-0.021	0.214
-744.156	4.450	-0.260	0.195
-743.142	-200.000	-0.041	0.283
-742.127	605.136	0.149	0.379
-741.112	-96.723	0.174	0.047
-740.098	-200.000	-0.008	0.270
-739.083	-200.000	0.010	0.095
-738.069	44.786	-0.038	-0.036
-737.054	-85.790	-0.181	-0.057
-736.039	74.611	-0.232	0.250
-735.025	-200.000	-0.020	-0.117
-734.010	-200.000	-0.410	-0.000
-732.996	638.461	0.136	-0.352
-731.981	-65.374	-0.232	0.095
-730.966	-102.736	-0.232	0.056
-729.952	186.740	-0.164	0.250
-728.937	74.800	0.053	0.057
-727.923	222.851	0.280	-0.461
-726.908	49.045	-0.149	0.143
-725.894	800.000	-0.106	-0.327
-724.879	424.459	0.100	0.219
-723.864	333.181	-0.072	-0.142
-722.850	-138.565	-0.417	-0.047
-721.835	-191.700	-0.588	0.006
-720.821	369.038	-0.082	-0.169
-719.806	800.000	-0.067	-0.211
-718.791	800.000	0.108	-0.305
-717.777	438.416	0.064	0.143
-716.762	-29.793	0.168	-0.098
-715.748	706.335	0.028	0.076
-714.733	-140.268	0.051	0.005
-713.718	28.907	0.137	0.119
-712.704	-17.798	-0.156	0.100
-711.689	-200.000	0.028	-0.178
-710.675	329.101	0.075	-0.146
-709.660	117.138	-0.181	0.227
-708.645	-122.265	0.374	0.062
-707.631	-21.577	-0.041	0.026
-706.616	271.390	-0.071	0.128
-705.602	91.619	-0.109	-0.124
-704.587	68.080	0.136	0.142
-703.572	-200.000	-0.021	-0.113
-702.558	-200.000	0.024	-0.289
-701.543	31.809	0.108	-0.095
-700.529	-200.000	-0.035	0.224
-699.514	109.240	-0.029	0.036
-698.499	80.125	-0.170	-0.186
-697.485	97.488	-0.153	0.179
-696.470	-146.611	-0.198	-0.018
-695.456	-200.000	0.005	-0.140
-694.441	82.836	-0.197	-0.218
-693.426	-200.000	-0.009	-0.069
-692.412	24.229	-0.191	-0.161
-691.397	-12.593	-0.433	-0.288
-690.383	-154.356	-0.169	0.012
-689.368	-200.000	-0.087	0.495
-688.354	-138.161	-0.453	-0.051
-687.339	-88.249	-0.237	-0.072
-686.324	-180.151	-0.063	-0.001
-685.310	-47.494	0.282	-0.140
-684.295	580.706	-0.063	-0.157
-683.281	657.578	-0.056	-0.147
-682.266	20.616	0.248	-0.205
-681.251	-124.301	-0.208	-0.033
-680.237	476.454	0.113	-0.260
-679.222	-121.902	-0.159	-0.027
-678.208	-200.000	0.018	-0.290
-677.193	131.862	0.106	-0.139
-676.178	165.614	-0.051	-0.074
-675.164	230.784	-0.163	-0.271
-674.149	-83.698	0.191	-0.062
-673.135	-200.000	-0.003	-0.058
-672.120	-68.418	-0.170	-0.067
-671.105	148.000	-0.174	-0.239
-670.091	-166.190	-0.121	-0.005
-669.076	-129.909	-0.228	0.032
-668.062	83.617	-0.067	0.074
-667.047	-180.857	-0.317	0.007
-666.032	-7.715	-0.206	-0.142
-665.018	330.265	-0.149	-0.293
-664.003	-102.817	0.179	0.043
-662.989	535.617	0.034	0.083
-661.974	386.770	-0.118	-0.249
-660.959	-47.321	-0.309	0.153
-659.945	79.746	0.346	0.378
-658.930	466.400	-0.111	0.254
-657.916	41.880	-0.251	0.232
-656.901	-200.000	0.017	-0.136
-655.886	383.926	0.144	-0.301
-654.872	524.913	0.108	-0.259
-653.857	6.027	-0.190	0.144
-652.843	800.000	-0.093	-0.293
-651.828	-200.000	0.037	0.292
-650.814	-112.659	-0.284	-0.058
-649.799	800.000	-0.063	0.204
-648.784	-34.224	-0.161	-0.090
-647.770	-200.000	-0.006	0.170
-646.755	-200.000	-0.091	-0.000
-645.741	-200.000	-0.005	-0.132
-644.726	-200.000	-0.002	0.065
-643.711	800.000	-0.103	0.388
-642.697	-74.322	-0.249	0.092
-641.682	618.127	0.055	0.140
-640.668	-72.737	0.242	-0.091
-639.653	519.465	0.061	-0.146
-638.638	-70.850	-0.239	-0.092
-637.624	-200.000	-0.023	-0.156
-636.609	-200.000	-0.056	-0.472
-635.595	199.203	-0.014	0.021
-634.580	295.620	0.023	0.043
-633.565	8.931	0.044	0.034
-632.551	-200.000	0.002	0.100
-631.536	-200.000	0.013	-0.352
-630.522	76.150	0.242	0.260
-629.507	-116.950	-0.261	-0.049
-628.492	752.092	-0.120	-0.329
-627.478	-97.337	0.306	-0.081
-626.463	-122.915	0.319	-0.052
-625.449	-113.533	0.293	-0.058
-624.434	-200.000	-0.014	-0.243
-623.419	-99.977	0.052	0.013
-622.405	-129.849	-0.104	0.015
-621.390	70.971	-0.039	0.041
-620.376	-200.000	-0.012	-0.233
-619.361	62.445	0.141	-0.143
-618.346	-200.000	-0.026	-0.292
-617.332	167.516	-0.032	0.047
-616.317	173.981	0.095	0.140
-615.303	-35.380	-0.299	-0.165
-614.288	-96.462	0.376	-0.101
-613.273	-200.000	0.011	-0.267
-612.259	-200.000	0.018	-0.100
-611.244	800.000	0.057	-0.185
-610.230	252.210	-0.141	0.244
-609.215	-68.146	0.098	-0.039
-608.201	-116.671	-0.244	0.046
-607.186	-200.000	0.038	-0.257
-606.171	-12.377	0.292	0.194
-605.157	800.000	-0.082	0.328
-604.142	-200.000	-0.011	0.113
-603.128	307.043	-0.093	-0.176
-602.113	800.000	-0.053	-0.231
-601.098	-35.233	0.197	-0.109
-600.084	128.679	-0.078	-0.101
-599.069	-163.534	-0.126	0.006
-598.055	19.802	-0.152	0.125
-597.040	151.256	0.121	-0.167
-596.025	800.000	0.023	-0.090
-595.011	-144.922	-0.222	-0.021
-593.996	-118.167	-0.089	0.016
-592.982	-1.300	0.165	0.118
-591.967	-200.000	-0.025	-0.350
-590.952	74.657	-0.130	-0.139
-589.938	732.910	-0.038	0.103
-588.923	-163.727	0.131	-0.006
-587.909	-31.371	-0.400	0.229
-586.894	-121.064	-0.179	-0.030
-585.879	-144.903	-0.134	0.012
-584.865	-178.902	0.238	0.005
-583.850	32.988	0.097	0.085
-582.836	154.543	0.224	-0.313
-581.821	402.299	-0.039	-0.083
-580.806	185.334	0.009	-0.014
-579.792	800.000	-0.062	-0.188
-578.777	800.000	-0.064	0.192
-577.763	-49.070	-0.100	0.049
-576.748	800.000	0.052	0.206
-575.733	800.000	-0.047	0.193
-574.719	-77.247	0.125	0.044
-573.704	800.000	0.053	0.201
-572.690	-112.805	0.214	-0.043
-571.675	6.601	0.345	-0.260
-570.661	-200.000	0.009	0.192
-569.646	169.646	-0.144	0.209
-568.631	-164.039	0.009	0.000
-567.617	-192.634	-0.081	0.001
-566.602	-24.890	-0.057	-0.034
-565.588	-130.593	0.229	-0.031
-564.573	-200.000	-0.000	-0.068
-563.558	-47.929	-0.150	0.074
-562.544	25.003	-0.093	0.078
-561.529	500.348	-0.111	-0.259
-560.515	-200.000	0.093	-0.446
-559.500	-200.000	-0.020	-0.514
-558.485	200.089	0.093	-0.145
-557.471	-24.437	0.216	-0.131
-556.456	-200.000	0.019	0.089
-555.442	-10.439	0.226	0.152
-554.427	800.000	-0.061	0.223
-553.412	-200.000	0.011	-0.406
-552.398	-200.000	-0.258	0.001
-551.383	-53.044	0.056	0.026
-550.369	71.683	0.263	0.277
-549.354	523.646	-0.068	-0.162
-548.339	732.277	0.121	-0.327
-547.325	333.376	-0.093	-0.183
-546.310	-76.607	-0.487	-0.173
-545.296	-31.485	0.124	-0.071
-544.281	800.000	-0.154	-0.551
-543.266	800.000	-0.038	0.167
-542.252	-9.455	0.263	0.178
-541.237	-200.000	-0.039	0.176
-540.223	-4.602	0.287	-0.201
-539.208	-130.424	0.047	-0.007
-538.193	-68.871	0.304	0.119
-537.179	800.000	0.027	0.115
-536.164	-152.508	-0.137	-0.010
-535.150	70.125	0.132	0.138
-534.135	800.000	-0.110	0.374
-533.121	153.500	0.133	0.185
-532.106	123.542	-0.195	-0.248
-531.091	-181.882	-0.191	-0.004
-530.077	-54.124	-0.139	-0.064
-529.062	-49.825	0.051	-0.025
-528.048	800.000	0.158	-0.471
-527.033	-128.104	-0.561	-0.081
-526.018	-102.114	0.300	-0.073
-525.004	-200.000	-0.013	0.143
-523.989	303.880	-0.179	0.336
-522.975	68.807	0.193	0.201
-521.960	309.320	-0.063	0.119
-520.945	22.163	-0.122	-0.101
-519.931	800.000	-0.029	-0.117
-518.916	-200.000	0.018	0.252
-517.902	128.817	0.104	-0.135
-516.887	-42.020	-0.131	0.068
-515.872	471.874	-0.108	-0.246
-514.858	800.000	-0.054	-0.198
-513.843	-123.281	-0.400	-0.065
-512.829	-200.000	0.032	-0.188
-511.814	622.958	-0.107	-0.272
-510.799	-22.713	0.167	-0.102
-509.785	7.358	0.193	0.146
-508.770	-160.636	-0.297	-0.016
-507.756	203.560	0.111	-0.174
-506.741	140.527	0.257	-0.344
-505.726	-200.000	0.013	0.320
-504.712	63.863	-0.039	-0.040
-503.697	149.258	-0.055	0.075
-502.683	24.293	0.107	-0.089
-501.668	2.550	-0.234	0.172
-500.653	225.853	0.130	0.212
-499.639	-96.326	0.223	0.060
-498.624	-32.709	0.109	-0.062
-497.610	141.847	0.150	-0.201
-496.595	800.000	-0.045	0.194
-495.581	395.258	-0.116	-0.244
-494.566	-147.304	0.226	0.019
-493.551	-38.062	-0.361	0.194
-492.537	-38.127	0.100	0.053
-491.522	38.237	0.057	0.052
-490.508	243.457	0.063	0.107
-489.493	72.612	-0.067	-0.071
-488.478	-48.722	0.057	-0.028
-487.464	157.715	0.098	0.138
-486.449	41.548	0.086	-0.079
-485.435	-152.223	0.057	-0.004
-484.420	9.963	-0.262	0.201
-483.405	800.000	0.015	-0.060
-482.391	-200.000	0.028	0.289
-481.376	55.324	0.250	0.244
-480.362	-43.393	-0.234	-0.120
-479.347	-67.925	-0.195	0.077
-478.332	-44.564	-0.344	0.174
-477.318	62.835	-0.199	0.201
-476.303	402.263	-0.048	0.102
-475.289	-19.071	0.289	-0.182
-474.274	800.000	0.053	0.183
-473.259	-137.236	-0.272	0.031
-472.245	-194.953	0.094	-0.001
-471.230	-178.123	0.130	0.003
-470.216	-124.050	0.362	0.058
-469.201	-60.401	-0.289	0.124
-468.186	-200.000	-0.054	0.332
-467.172	-200.000	0.041	-0.195
-466.157	484.976	-0.191	-0.440
-465.143	-42.622	-0.331	-0.170
-464.128	121.573	0.054	0.069
-463.113	-79.613	0.316	-0.108
-462.099	-128.942	0.195	0.028
-461.084	-200.000	-0.017	-0.145
-460.070	-149.811	0.199	0.016
-459.055	-200.000	-0.003	0.031
-458.040	-149.388	0.053	-0.004
-457.026	22.149	-0.107	0.088
-456.011	234.489	0.148	-0.247
-454.997	104.049	-0.095	0.112
-453.982	668.479	0.125	-0.327
-452.968	128.836	-0.094	-0.121
-451.953	24.094	-0.316	0.263
-450.938	-200.000	0.005	0.072
-449.924	-98.411	-0.083	-0.021
-448.909	-182.149	-0.195	0.004
-447.895	-119.724	0.163	0.029
-446.880	19.481	-0.081	0.065
-445.865	-141.907	-0.317	-0.032
-444.851	-62.804	-0.198	-0.083
-443.836	28.708	-0.140	0.119
-442.822	359.933	-0.114	0.230
-441.807	60.410	-0.086	0.086
-440.792	-13.404	0.055	-0.036
-439.778	-18.983	0.209	0.131
-438.763	800.000	-0.110	0.459
-437.749	118.199	-0.289	0.359
-436.734	-151.603	-0.086	-0.006
-435.719	-23.431	-0.253	0.153
-434.705	-98.482	0.258	-0.067
-433.690	72.494	0.200	-0.211
-432.676	197.900	-0.078	0.121
-431.661	-69.078	0.279	-0.108
-430.646	125.453	-0.082	-0.105
-429.632	-103.575	-0.427	-0.101
-428.617	-200.000	0.015	0.257
-427.603	800.000	-0.113	-0.418
-426.588	-200.000	-0.056	0.281
-425.573	-120.302	0.186	0.032
-424.559	-200.000	-0.029	0.346
-423.544	-19.031	0.345	0.216
-422.530	30.427	-0.027	0.023
-421.515	777.128	-0.058	-0.160
-420.500	117.521	-0.154	0.191
-419.486	47.603	-0.029	-0.027
-418.471	-200.000	0.005	0.256
-417.457	83.843	-0.172	-0.190
-416.442	297.145	0.254	-0.470
-415.428	44.253	-0.159	-0.147
-414.413	160.573	0.088	-0.124
-413.398	800.000	0.024	0.094
-412.384	-3.075	0.103	0.072
-411.369	52.534	-0.014	-0.013
-410.355	-125.291	-0.218	0.034
-409.340	-133.126	-0.257	-0.033
-408.325	-95.120	0.246	0.067
-407.311	-200.000	-0.004	0.114
-406.296	-126.739	-0.010	-0.002
-405.282	74.900	0.204	-0.216
-404.267	117.674	-0.224	0.278
-403.252	391.990	0.176	-0.369
-402.238	-10.373	-0.192	-0.128
-401.223	174.207	0.200	0.291
-400.209	735.898	0.213	0.575
-399.194	-34.487	-0.164	-0.090
-398.179	95.174	0.261	-0.300
-397.165	-83.960	0.157	-0.050
-396.150	12.170	0.090	-0.070
-395.136	2.170	0.146	0.107
-394.121	-200.000	-0.068	0.418
-393.106	127.106	0.183	0.234
-392.092	-200.000	0.018	-0.200
-391.077	7.028	0.104	0.078
-390.063	-200.000	0.048	-0.241
-389.048	-200.000	0.067	-0.305
-388.033	-127.651	0.282	-0.041
-387.019	149.608	-0.069	-0.094
-386.004	-0.948	-0.120	0.085
-384.990	-6.447	0.160	0.110
-383.975	133.260	-0.082	-0.106
-382.960	202.862	-0.099	0.153
-381.946	-36.824	-0.070	-0.038
-380.931	-33.403	0.189	0.105
-379.917	-82.599	0.222	0.073
-378.902	171.151	0.154	-0.223
-377.888	87.933	-0.245	0.273
-376.873	-200.000	0.013	0.239
-375.858	-14.377	0.187	-0.121
-374.844	800.000	0.175	0.503
-373.829	215.678	-0.258	0.412
-372.815	-20.700	-0.094	0.058
-371.800	-200.000	0.014	0.186
-370.785	800.000	-0.095	0.268
-369.771	247.086	0.142	-0.241
-368.756	222.096	0.029	-0.047
-367.742	-200.000	0.000	0.177
-366.727	406.748	0.033	0.071
-365.712	262.238	0.157	-0.274
-364.698	297.709	0.120	-0.222
-363.683	-0.536	0.231	-0.165
-362.669	119.610	-0.113	-0.141
-361.654	110.908	0.045	-0.054
-360.639	95.327	0.164	-0.188
-359.625	171.755	0.154	-0.223
-358.610	800.000	0.060	0.175
-357.596	-17.367	-0.269	-0.171
-356.581	451.902	-0.098	-0.218
-355.566	-200.000	-0.002	-0.117
-354.552	-33.224	-0.359	0.200
-353.537	-49.899	0.176	-0.084
-352.523	-114.212	0.163	0.032
-351.508	-101.831	-0.299	-0.073
-350.493	800.000	0.077	0.274
-349.479	800.000	-0.037	0.159
-348.464	-200.000	-0.015	-0.119
-347.450	162.690	-0.074	-0.104
-346.435	175.251	0.290	-0.422
-345.420	125.695	0.063	-0.080
-344.406	-200.000	-0.060	0.438
-343.391	109.213	0.137	-0.165
-342.377	-31.429	-0.009	0.005
-341.362	-35.392	0.156	-0.085
-340.348	245.689	0.040	-0.068
-339.333	497.745	-0.027	0.062
-338.318	-34.875	-0.319	0.175
-337.304	207.638	-0.067	-0.106
-336.289	-160.790	-0.307	0.016
-335.275	-86.205	0.158	-0.049
-334.260	800.000	0.033	0.131
-333.245	-106.597	-0.135	-0.030
-332.231	-92.630	-0.315	0.089
-331.216	-68.846	-0.392	0.152
-330.202	229.101	-0.046	-0.076
-329.187	800.000	0.043	-0.152
-328.172	-7.838	0.353	0.240
-327.158	800.000	-0.125	-0.353
-326.143	-200.000	-0.026	-0.167
-325.129	-200.000	0.028	-0.151
-324.114	-105.789	0.244	-0.055
-323.099	1.529	0.323	0.234
-322.085	-59.045	-0.281	-0.122
-321.070	-22.657	-0.097	0.059
-320.056	11.154	-0.154	0.119
-319.041	-70.487	-0.100	-0.038
-318.026	-200.000	-0.005	0.115
-317.012	-106.865	0.482	0.107
-315.997	188.792	-0.107	-0.161
-314.983	800.000	-0.033	-0.133
-313.968	-41.792	0.273	0.141
-312.953	-200.000	-0.009	-0.122
-311.939	569.400	-0.123	0.301
-310.924	800.000	0.046	0.185
-309.910	-200.000	-0.023	0.201
-308.895	-139.120	-0.346	-0.038
-307.880	-186.038	0.130	-0.002
-306.866	-105.511	-0.112	0.026
-305.851	-5.096	0.151	-0.104
-304.837	-200.000	-0.002	-0.293
-303.822	-90.366	-0.224	-0.065
-302.807	-127.168	0.213	-0.031
-301.793	-200.000	0.027	-0.216
-300.778	528.845	0.112	-0.267
-299.764	-200.000	-0.027	-0.227
-298.749	-82.414	-0.143	0.047
-297.735	-200.000	0.022	-0.222
-296.720	-159.626	-0.133	0.007
-295.705	65.510	0.208	-0.211
-294.691	-23.307	0.016	0.010
-293.676	-86.595	-0.145	0.045
-292.662	-5.614	0.091	-0.063
-291.647	-7.149	0.160	0.109
-290.632	641.948	-0.121	0.309
-289.618	-160.174	-0.150	0.008
-288.603	-107.384	0.168	-0.037
-287.589	-49.503	0.198	-0.095
-286.574	272.913	-0.057	-0.102
-285.559	-48.004	0.105	0.051
-284.545	-123.812	-0.139	0.022
-283.530	-98.555	-0.332	-0.085
-282.516	-52.810	0.109	-0.050
-281.501	-114.160	0.149	0.029
-280.486	367.138	0.095	0.193
-279.472	-100.608	0.144	0.036
-278.457	-108.149	0.148	-0.032
-277.443	-96.054	-0.078	-0.021
-276.428	-200.000	0.016	0.146
-275.413	780.862	-0.090	-0.247
-274.399	-200.000	-0.006	-0.184
-273.384	-64.892	0.216	-0.088
-272.370	800.000	0.081	0.278
-271.355	9.357	0.050	0.038
-270.340	-21.470	0.314	-0.192
-269.326	-91.292	-0.307	-0.088
-268.311	-178.271	0.460	0.011
-267.297	800.000	-0.126	-0.407
-266.282	-200.000	-0.001	-0.157
-265.267	25.117	-0.162	-0.135
-264.253	50.642	0.062	0.059
-263.238	-88.287	-0.099	0.030
-262.224	-182.438	-0.049	-0.001
-261.209	20.228	0.139	0.113
-260.195	27.302	0.104	0.088
-259.180	800.000	0.040	-0.161
-258.165	30.383	-0.078	-0.067
-257.151	6.328	0.128	0.095
-256.136	-113.412	-0.330	-0.065
-255.122	800.000	-0.119	0.393
-254.107	-56.056	-0.045	0.020
-253.092	29.231	0.294	0.250
-252.078	170.556	-0.018	-0.026
-251.063	-50.743	0.039	-0.019
-250.049	-20.680	0.057	-0.035
-249.034	800.000	-0.050	-0.141
-248.019	212.499	0.220	-0.348
-247.005	-200.000	-0.033	0.204
-245.990	-145.236	-0.278	0.025
-244.976	-200.000	-0.024	-0.259
-243.961	-115.858	0.185	-0.035
-242.946	92.068	-0.108	0.122
-241.932	227.790	-0.136	-0.222
-240.917	-101.079	0.203	0.050
-239.903	-12.312	-0.052	0.034
-238.888	800.000	0.074	-0.247
-237.873	-92.724	0.256	0.072
-236.859	-55.957	0.198	0.088
-235.844	68.580	-0.205	-0.211
-234.830	-162.933	0.104	0.005
-233.815	800.000	0.066	0.258
-232.800	-200.000	-0.009	-0.262
-231.786	-200.000	-0.025	0.365
-230.771	-200.000	-0.008	-0.101
-229.757	-33.447	-0.166	-0.092
-228.742	-200.000	-0.001	0.073
-227.727	111.767	-0.165	-0.199
-226.713	-200.000	-0.011	-0.176
-225.698	11.209	0.137	0.105
-224.684	46.631	-0.315	0.293
-223.669	67.925	0.116	-0.119
-222.655	-200.000	0.003	-0.154
-221.640	-171.611	0.413	-0.014
-220.625	-56.552	-0.081	-0.036
-219.611	800.000	0.023	0.067
-218.596	178.890	0.161	0.236
-217.582	197.422	0.056	0.086
-216.567	284.808	-0.095	0.171
-215.552	156.299	-0.068	0.094
-214.538	28.557	0.230	0.195
-213.523	-44.266	-0.284	0.142
-212.509	128.702	0.117	0.150
-211.494	777.471	0.080	-0.218
-210.479	-200.000	0.010	0.169
-209.465	-123.327	0.046	0.007
-208.450	-100.710	0.129	0.032
-207.436	-108.194	0.232	-0.050
-206.421	361.214	-0.096	0.192
-205.406	-52.691	0.041	0.019
-204.392	76.858	-0.245	-0.260
-203.377	352.917	-0.134	0.267
-202.363	-200.000	0.004	-0.139
-201.348	215.301	-0.097	-0.154
-200.333	-107.011	-0.166	0.037
-199.319	-23.889	-0.248	0.148
-198.304	583.717	-0.036	0.088
-197.290	490.563	-0.174	0.399
-196.275	-200.000	-0.006	0.046
-195.260	9.575	0.197	-0.149
-194.246	-36.693	-0.133	0.071
-193.231	-80.865	-0.187	-0.062
-192.217	17.651	0.241	0.191
-191.202	127.777	0.313	0.398
-190.187	-100.375	0.043	0.011
-189.173	-152.755	-0.270	-0.019
-188.158	285.979	-0.131	-0.236
-187.144	-143.232	-0.188	0.018
-186.129	117.180	0.051	0.063
-185.114	491.606	-0.107	-0.244
-184.100	63.889	0.183	-0.184
-183.085	113.623	0.220	-0.267
-182.071	-4.708	-0.118	-0.081
-181.056	587.978	-0.097	0.238
-180.042	-200.000	0.009	-0.062
-179.027	-73.572	-0.081	0.029
-178.012	-60.979	-0.242	0.102
-176.998	-156.355	0.283	-0.018
-175.983	-14.140	0.072	-0.046
-174.969	-200.000	0.019	0.222
-173.954	800.000	-0.069	0.277
-172.939	800.000	0.021	0.064
-171.925	784.050	-0.102	0.279
-170.910	-200.000	0.054	0.414
-169.896	149.643	-0.123	0.166
-168.881	-67.311	-0.132	0.052
-167.866	184.089	-0.037	0.055
-166.852	175.046	-0.205	0.297
-165.837	79.686	-0.161	0.173
-164.823	-200.000	-0.056	0.265
-163.808	-200.000	0.011	-0.202
-162.793	-200.000	0.003	0.072
-161.779	403.487	0.130	-0.273
-160.764	96.806	-0.264	0.302
-159.750	-172.572	-0.240	-0.008
-158.735	30.108	-0.184	-0.157
-157.720	251.840	0.254	0.431
-156.706	-187.233	0.184	0.003
-155.691	152.322	-0.072	-0.098
-154.677	-28.398	-0.154	0.089
-153.662	-20.260	0.255	-0.157
-152.647	-200.000	0.120	0.001
-151.633	250.328	0.050	0.085
-150.618	-200.000	0.001	0.071
-149.604	-61.517	-0.163	0.068
-148.589	-200.000	0.055	0.277
-147.574	117.837	0.066	0.081
-146.560	-36.336	-0.190	0.102
-145.545	-47.738	0.362	-0.175
-144.531	-200.000	-0.012	-0.135
-143.516	-11.587	0.048	0.031
-142.502	46.517	-0.119	0.110
-141.487	800.000	0.032	-0.141
-140.472	295.314	0.068	-0.124
-139.458	800.000	0.136	0.491
-138.443	-55.553	0.170	0.076
-137.429	254.402	0.059	-0.100
-136.414	-10.965	0.171	-0.112
-135.399	83.962	0.115	0.125
-134.385	-30.232	-0.128	-0.072
-133.370	800.000	-0.041	0.172
-132.356	-89.022	-0.150	-0.044
-131.341	-11.538	-0.378	0.248
-130.326	-200.000	0.005	0.094
-129.312	-45.167	-0.386	-0.192
-128.297	-138.802	0.185	0.020
-127.283	-92.493	0.139	-0.039
-126.268	79.934	-0.035	-0.038
-125.253	800.000	-0.032	-0.113
-124.239	-83.471	-0.205	-0.065
-123.224	-179.410	-0.107	-0.002
-122.210	-78.208	-0.258	-0.089
