DTS Sentinel unit serial number:	SN413079Multiplexer serial number:	ORYXHardware model number:	OX4-SRSoftware version number:	ORYX F/W v4.00 Oryx Data Collector v3.7.2.0data status	okinstallation	princeton_trtdifferential loss correction	single-endedforward channel	channel 1reverse channel	N/Adate	2019/09/17time	13:42:35forward acquisition time	60.00reverse acquisition time	0.00gamma	496.2192k internal	0.2305k external	0.2305temperature offset calibration	0.9969default loss term (dB/km)	0.3790temperature slope calibration	1.0000multiplexer offset coefficient	1.0000multiplexer slope coefficient	1.0000fibre end	0.00T internal ref (°C)	34.97T ext. ref 1 (°C)	0.41T ext. ref 2 (°C)	32.18length (m)	temperature (°C)	Stokes	anti-Stokes-747.200	-3.794	0.084	0.059
-746.185	800.000	0.059	0.262
-745.171	-200.000	-0.057	0.363
-744.156	-187.700	0.186	-0.002
-743.142	408.330	0.150	0.323
-742.127	476.909	-0.039	0.089
-741.112	-200.000	-0.030	-0.291
-740.098	110.861	-0.293	0.359
-739.083	800.000	-0.011	0.046
-738.069	-83.613	-0.122	0.040
-737.054	551.910	0.128	0.314
-736.039	26.921	-0.117	-0.100
-735.025	73.736	0.226	-0.241
-734.010	800.000	0.056	-0.182
-732.996	-43.283	0.194	-0.100
-731.981	-41.072	0.256	0.135
-730.966	-148.189	0.127	-0.011
-729.952	800.000	-0.002	-0.009
-728.937	800.000	0.041	-0.154
-727.923	-130.372	-0.480	0.066
-726.908	-200.000	0.013	-0.203
-725.894	-15.177	-0.075	0.049
-724.879	-83.197	0.136	-0.045
-723.864	103.340	-0.088	0.104
-722.850	76.237	-0.081	0.087
-721.835	4.949	-0.184	0.138
-720.821	-132.510	-0.140	-0.018
-719.806	-120.126	-0.052	0.009
-718.791	244.401	-0.087	0.149
-717.777	-200.000	-0.024	0.000
-716.762	120.463	0.011	-0.014
-715.748	59.069	0.120	-0.120
-714.733	-136.254	0.377	0.045
-713.718	26.797	-0.214	0.182
-712.704	-190.213	0.241	0.003
-711.689	-200.000	-0.045	-0.220
-710.675	36.793	0.219	-0.197
-709.660	-79.629	-0.326	-0.112
-708.645	561.547	-0.069	-0.170
-707.631	-200.000	-0.006	-0.035
-706.616	27.690	-0.175	0.150
-705.602	302.153	0.166	-0.311
-704.587	-200.000	0.056	-0.573
-703.572	345.329	-0.083	-0.166
-702.558	-81.887	0.333	0.111
-701.543	41.794	-0.276	0.254
-700.529	45.545	0.195	-0.183
-699.514	476.623	-0.130	-0.300
-698.499	-124.759	-0.228	-0.036
-697.485	573.234	-0.029	0.073
-696.470	4.134	-0.049	-0.036
-695.456	-42.251	-0.163	0.085
-694.441	166.636	0.121	-0.174
-693.426	-122.394	-0.124	-0.020
-692.412	-200.000	-0.001	-0.190
-691.397	11.675	-0.116	0.090
-690.383	774.154	-0.139	-0.386
-689.368	-39.508	-0.370	-0.197
-688.354	-200.000	0.000	-0.202
-687.339	14.712	-0.319	0.253
-686.324	-31.805	-0.147	0.084
-685.310	-134.623	0.231	0.029
-684.295	209.471	-0.075	-0.119
-683.281	19.561	-0.020	-0.016
-682.266	-73.466	0.036	-0.013
-681.251	315.039	0.067	0.128
-680.237	66.683	-0.212	0.219
-679.222	-183.172	0.233	0.004
-678.208	-200.000	-0.003	-0.207
-677.193	56.072	-0.085	0.083
-676.178	-136.787	-0.167	-0.020
-675.164	-20.414	-0.152	-0.095
-674.149	-94.610	0.179	0.049
-673.135	192.944	0.079	0.121
-672.120	-18.304	-0.163	0.103
-671.105	-20.353	0.238	-0.149
-670.091	172.899	0.302	-0.442
-669.076	20.369	-0.204	0.167
-668.062	35.766	-0.079	-0.070
-667.047	-200.000	0.008	0.069
-666.032	-190.768	-0.217	-0.002
-665.018	72.292	-0.092	-0.097
-664.003	-18.759	-0.098	0.062
-662.989	800.000	0.050	-0.154
-661.974	28.156	0.112	-0.096
-660.959	192.378	-0.196	0.300
-659.945	-153.442	0.298	0.021
-658.930	800.000	0.116	-0.340
-657.916	-10.409	0.100	-0.067
-656.901	367.250	-0.096	0.198
-655.886	9.365	0.278	-0.214
-654.872	249.848	0.057	0.099
-653.857	64.007	-0.341	0.348
-652.843	25.099	-0.133	-0.112
-651.828	-200.000	-0.053	-0.346
-650.814	-200.000	0.037	-0.186
-649.799	-25.541	-0.076	-0.046
-648.784	78.664	0.277	-0.300
-647.770	-27.928	0.099	0.058
-646.755	291.087	0.146	-0.269
-645.741	-200.000	0.023	-0.327
-644.726	172.085	-0.054	0.079
-643.711	100.976	0.086	-0.102
-642.697	24.923	0.126	-0.106
-641.682	-200.000	-0.101	0.596
-640.668	535.357	0.096	0.230
-639.653	-200.000	0.003	0.061
-638.638	573.639	0.053	-0.130
-637.624	-126.563	-0.213	-0.032
-636.609	591.748	-0.169	-0.422
-635.595	-139.315	-0.347	-0.038
-634.580	284.933	-0.050	0.091
-633.565	-69.780	-0.285	0.110
-632.551	234.785	0.029	-0.048
-631.536	181.183	-0.187	0.279
-630.522	-161.029	-0.257	-0.014
-629.507	-200.000	0.175	-0.001
-628.492	708.442	0.088	0.236
-627.478	-200.000	0.009	0.227
-626.463	-41.985	-0.142	-0.074
-625.449	13.836	0.068	0.054
-624.434	-91.078	-0.094	-0.027
-623.419	-78.558	-0.296	-0.102
-622.405	-93.519	-0.242	-0.068
-621.390	650.417	-0.117	0.304
-620.376	-200.000	-0.009	-0.097
-619.361	106.566	-0.192	-0.231
-618.346	267.355	0.159	-0.282
-617.332	-146.847	-0.378	0.033
-616.317	-82.130	0.217	-0.072
-615.303	800.000	-0.052	0.192
-614.288	186.564	-0.230	-0.347
-613.273	-111.168	-0.278	-0.058
-612.259	764.120	-0.094	-0.259
-611.244	48.285	-0.143	-0.135
-610.230	245.400	0.052	0.088
-609.215	-6.974	0.175	-0.121
-608.201	194.020	0.205	-0.315
-607.186	-66.018	-0.056	0.022
-606.171	136.580	-0.213	-0.281
-605.157	-11.575	0.214	-0.142
-604.142	-77.481	0.357	0.125
-603.128	671.681	-0.094	-0.246
-602.113	-200.000	0.003	-0.353
-601.098	-46.939	0.237	-0.117
-600.084	54.513	0.149	-0.145
-599.069	41.817	-0.386	-0.355
-598.055	392.675	-0.084	0.177
-597.040	71.025	-0.207	0.217
-596.025	-200.000	0.020	0.202
-595.011	-200.000	0.010	-0.186
-593.996	46.128	-0.422	-0.396
-592.982	214.001	0.065	-0.105
-591.967	-128.709	0.297	-0.042
-590.952	-26.614	-0.165	0.098
-589.938	-200.000	0.019	-0.245
-588.923	440.120	0.038	0.085
-587.909	-73.855	0.291	0.107
-586.894	425.478	0.092	0.200
-585.879	46.432	-0.064	-0.060
-584.865	-136.668	-0.244	0.029
-583.850	19.054	-0.141	0.114
-582.836	-200.000	-0.033	0.221
-581.821	162.823	-0.177	-0.251
-580.806	675.420	-0.032	-0.084
-579.792	5.672	-0.122	-0.091
-578.777	-77.559	-0.202	-0.071
-577.763	-58.269	-0.059	-0.026
-576.748	-200.000	-0.024	0.262
-575.733	537.774	-0.014	-0.034
-574.719	723.624	0.142	0.383
-573.704	-200.000	-0.022	0.343
-572.690	-32.090	-0.144	-0.082
-571.675	140.218	0.183	-0.243
-570.661	-200.000	0.004	0.054
-569.646	-79.576	0.275	-0.094
-568.631	-200.000	0.042	-0.408
-567.617	-200.000	-0.053	0.261
-566.602	-153.388	0.169	-0.012
-565.588	-31.777	0.375	0.213
-564.573	-200.000	0.055	0.255
-563.558	-200.000	-0.025	-0.227
-562.544	133.968	-0.134	0.175
-561.529	71.339	0.150	-0.158
-560.515	434.653	-0.052	-0.115
-559.500	-2.540	-0.217	-0.153
-558.485	40.995	-0.126	-0.115
-557.471	-178.341	0.366	0.009
-556.456	141.863	-0.230	-0.307
-555.442	-101.043	0.134	-0.033
-554.427	-1.971	0.136	-0.096
-553.412	233.888	-0.147	0.245
-552.398	800.000	0.073	0.223
-551.383	567.263	-0.072	0.177
-550.369	-1.548	0.115	0.082
-549.354	-111.423	0.155	0.032
-548.339	-31.099	0.235	0.134
-547.325	52.265	0.168	-0.162
-546.310	111.841	-0.254	0.309
-545.296	169.179	0.247	0.356
-544.281	407.519	-0.037	-0.079
-543.266	-21.142	0.256	-0.158
-542.252	-106.243	-0.240	0.054
-541.237	800.000	-0.101	-0.326
-540.223	-41.999	-0.297	-0.154
-539.208	376.695	0.193	0.398
-538.193	149.345	-0.048	-0.066
-537.179	62.456	0.133	0.135
-536.164	800.000	0.059	0.201
-535.150	360.312	-0.091	-0.183
-534.135	60.428	0.139	0.139
-533.121	537.132	0.030	0.072
-532.106	-78.589	-0.336	0.116
-531.091	-65.765	-0.085	0.034
-530.077	-71.957	0.503	0.189
-529.062	800.000	0.115	-0.368
-528.048	-141.760	-0.146	-0.015
-527.033	-163.493	-0.224	0.011
-526.018	-200.000	0.005	-0.077
-525.004	-200.000	0.047	-0.217
-523.989	-110.316	0.066	-0.014
-522.975	800.000	-0.124	0.433
-521.960	-200.000	-0.055	-0.273
-520.945	159.787	-0.161	-0.227
-519.931	-2.925	0.234	0.165
-518.916	800.000	-0.087	-0.286
-517.902	-141.886	-0.176	0.018
-516.887	-14.169	0.159	-0.104
-515.872	41.152	0.300	0.273
-514.858	-6.108	0.136	0.094
-513.843	24.058	0.253	0.211
-512.829	-68.575	-0.375	-0.146
-511.814	447.821	0.078	0.173
-510.799	-200.000	-0.006	-0.095
-509.785	244.598	0.104	-0.176
-508.770	-102.376	0.059	-0.014
-507.756	18.827	-0.295	-0.238
-506.741	183.657	-0.069	0.102
-505.726	-100.969	0.301	0.075
-504.712	433.596	0.087	0.191
-503.697	800.000	0.051	0.164
-502.683	354.600	0.100	-0.200
-501.668	-40.750	0.322	-0.168
-500.653	-175.052	0.295	-0.008
-499.639	627.394	0.088	-0.223
-498.624	665.330	-0.058	0.151
-497.610	-105.425	0.107	0.025
-496.595	800.000	-0.096	-0.304
-495.581	288.132	0.070	0.127
-494.566	-200.000	-0.024	-0.170
-493.551	91.108	0.170	-0.192
-492.537	-154.783	-0.131	-0.009
-491.522	180.032	0.122	0.180
-490.508	800.000	-0.020	0.056
-489.493	-200.000	0.009	-0.099
-488.478	145.314	-0.141	0.190
-487.464	90.995	0.094	0.106
-486.449	-171.975	-0.200	0.007
-485.435	107.702	-0.098	0.118
-484.420	-200.000	0.040	0.344
-483.405	359.475	-0.214	-0.430
-482.391	800.000	-0.141	0.411
-481.376	-25.734	0.192	0.114
-480.362	171.238	-0.029	-0.043
-479.347	-64.461	-0.195	0.080
-478.332	58.281	-0.136	0.134
-477.318	38.978	-0.184	-0.165
-476.303	74.489	-0.228	0.242
-475.289	-117.680	-0.150	0.027
-474.274	-200.000	-0.012	0.082
-473.259	-145.179	-0.257	0.023
-472.245	-100.858	-0.163	-0.040
-471.230	426.068	0.118	0.257
-470.216	800.000	-0.030	0.086
-469.201	-200.000	-0.012	-0.235
-468.186	192.936	-0.104	-0.159
-467.172	-104.415	-0.123	0.029
-466.157	622.528	0.048	0.122
-465.143	800.000	0.058	-0.188
-464.128	7.660	0.091	-0.068
-463.113	-43.207	0.165	0.084
-462.099	-83.595	0.215	-0.069
-461.084	66.003	0.024	0.024
-460.070	36.972	-0.103	-0.091
-459.055	-200.000	0.038	-0.341
-458.040	-4.354	0.118	-0.082
-457.026	-116.267	0.071	-0.013
-456.011	281.222	0.237	0.426
-454.997	-69.755	-0.353	-0.136
-453.982	42.624	-0.071	0.065
-452.968	-200.000	0.043	-0.196
-451.953	78.117	0.110	-0.118
-450.938	38.598	-0.191	0.172
-449.924	-26.583	0.284	0.168
-448.909	-114.375	0.126	-0.024
-447.895	322.238	-0.098	0.188
-446.880	646.800	0.079	0.204
-445.865	-105.165	0.292	0.067
-444.851	-147.863	0.160	-0.013
-443.836	-163.426	0.567	-0.027
-442.822	-7.309	-0.094	0.064
-441.807	82.364	-0.195	-0.213
-440.792	-200.000	0.071	0.505
-439.778	-2.486	-0.080	-0.057
-438.763	15.006	0.108	-0.085
-437.749	298.860	0.053	0.097
-436.734	-200.000	-0.017	0.169
-435.719	230.975	0.077	-0.127
-434.705	-66.064	0.240	-0.096
-433.690	-173.161	-0.308	-0.009
-432.676	-155.163	0.289	-0.019
-431.661	178.499	0.201	0.295
-430.646	86.494	-0.086	-0.095
-429.632	-89.817	-0.187	-0.055
-428.617	5.125	0.331	-0.245
-427.603	210.462	0.132	-0.208
-426.588	51.349	-0.075	0.072
-425.573	52.918	0.057	-0.055
-424.559	83.572	0.217	0.238
-423.544	-162.581	-0.393	0.019
-422.530	2.731	-0.174	-0.127
-421.515	-9.692	-0.403	-0.270
-420.500	9.321	0.228	-0.174
-419.486	-15.815	0.140	-0.090
-418.471	-200.000	0.026	-0.134
-417.457	677.580	-0.083	-0.217
-416.442	800.000	0.067	0.220
-415.428	-200.000	0.005	-0.139
-414.413	-200.000	-0.014	-0.063
-413.398	-200.000	-0.025	0.268
-412.384	216.997	0.121	0.193
-411.369	-76.261	0.434	0.154
-410.355	131.907	0.112	-0.145
-409.340	266.746	-0.154	0.271
-408.325	169.587	0.138	0.199
-407.311	-200.000	0.035	0.169
-406.296	169.696	0.288	-0.414
-405.282	-129.460	0.178	0.025
-404.267	-200.000	-0.052	-0.263
-403.252	-34.751	-0.007	0.004
-402.238	-142.306	-0.341	-0.034
-401.223	300.237	0.132	0.245
-400.209	-143.837	0.167	-0.016
-399.194	-200.000	-0.060	-0.275
-398.179	-67.333	0.146	0.057
-397.165	-21.464	0.171	-0.105
-396.150	-62.202	-0.205	-0.086
-395.136	111.789	0.191	-0.231
-394.121	2.803	-0.044	-0.032
-393.106	-117.678	-0.473	0.086
-392.092	0.703	0.097	-0.070
-391.077	20.206	0.419	-0.339
-390.063	-118.333	0.223	0.040
-389.048	631.521	0.050	0.126
-388.033	-10.448	0.132	0.088
-387.019	3.272	0.210	0.153
-386.004	-119.525	0.151	0.026
-384.990	230.287	-0.115	0.188
-383.975	-200.000	-0.024	-0.127
-382.960	-7.116	0.216	0.147
-381.946	-69.939	-0.087	0.033
-380.931	-200.000	-0.050	0.386
-379.917	72.673	-0.166	-0.174
-378.902	-75.967	-0.249	-0.088
-377.888	-52.948	0.319	-0.147
-376.873	-17.390	-0.211	0.134
-375.858	290.876	0.112	0.204
-374.844	278.089	-0.054	0.096
-373.829	-58.839	0.215	-0.093
-372.815	-200.000	0.070	-0.404
-371.800	-71.583	0.293	-0.110
-370.785	184.733	-0.098	0.146
-369.771	515.196	-0.189	0.442
-368.756	98.899	0.091	-0.105
-367.742	-200.000	0.031	-0.316
-366.727	-85.575	0.418	0.130
-365.712	-200.000	-0.060	-0.373
-364.698	-93.969	-0.254	-0.070
-363.683	136.632	-0.091	-0.119
-362.669	800.000	0.110	-0.312
-361.654	225.590	0.070	-0.114
-360.639	-200.000	0.017	0.303
-359.625	800.000	-0.073	0.258
-358.610	-102.863	-0.213	0.051
-357.596	-168.167	-0.125	-0.005
-356.581	800.000	0.042	0.118
-355.566	9.802	-0.115	0.087
-354.552	-200.000	-0.018	-0.134
-353.537	7.414	-0.245	-0.183
-352.523	112.504	0.131	0.160
-351.508	55.477	0.313	0.303
-350.493	344.750	0.118	0.231
-349.479	181.783	-0.088	0.130
-348.464	-55.497	-0.146	0.066
-347.450	470.914	0.116	-0.261
-346.435	132.668	-0.032	0.042
-345.420	-115.133	0.198	0.038
-344.406	-59.112	-0.080	0.035
-343.391	-117.631	-0.294	0.053
-342.377	-200.000	-0.019	0.219
-341.362	-131.823	-0.328	-0.043
-340.348	-200.000	-0.036	-0.225
-339.333	125.621	0.082	0.104
-338.318	-37.495	-0.133	0.071
-337.304	-36.617	0.289	0.156
-336.289	-117.158	0.107	-0.019
-335.275	800.000	-0.084	-0.251
-334.260	-200.000	-0.032	-0.154
-333.245	-200.000	-0.038	0.197
-332.231	-200.000	0.006	-0.110
-331.216	-34.914	-0.225	-0.123
-330.202	7.362	0.209	0.156
-329.187	-47.254	0.192	0.093
-328.172	-139.447	-0.171	-0.018
-327.158	-200.000	-0.061	-0.379
-326.143	-74.489	-0.210	-0.076
-325.129	780.559	-0.046	0.127
-324.114	-25.337	-0.090	-0.053
-323.099	-105.999	-0.119	0.027
-322.085	-200.000	-0.014	0.090
-321.070	-89.517	-0.244	0.072
-320.056	-38.079	0.270	0.143
-319.041	800.000	-0.032	0.124
-318.026	-148.189	-0.264	-0.022
-317.012	26.255	-0.311	-0.260
-315.997	66.167	-0.421	0.428
-314.983	70.122	0.158	0.163
-313.968	1.036	-0.271	0.195
-312.953	800.000	-0.051	-0.185
-311.939	118.661	-0.230	0.285
-310.924	310.708	0.042	-0.080
-309.910	-8.335	-0.208	0.140
-308.895	295.385	-0.087	-0.159
-307.880	197.241	0.161	-0.246
-306.866	800.000	-0.005	-0.017
-305.851	-42.354	-0.273	-0.139
-304.837	1.504	-0.313	0.225
-303.822	-106.065	0.137	-0.031
-302.807	160.783	-0.229	0.320
-301.793	-169.201	0.265	0.010
-300.778	93.375	0.127	-0.144
-299.764	-56.047	0.090	-0.040
-298.749	-27.611	0.079	-0.046
-297.735	-200.000	-0.001	-0.275
-296.720	646.391	0.029	-0.074
-295.705	-47.071	-0.424	0.207
-294.691	27.154	0.202	0.170
-293.676	407.641	0.059	0.124
-292.662	-75.564	0.275	0.098
-291.647	-115.891	0.151	-0.028
-290.632	231.685	0.110	-0.180
-289.618	36.200	-0.097	-0.085
-288.603	-200.000	-0.004	-0.227
-287.589	139.924	0.174	-0.230
-286.574	169.070	-0.148	-0.211
-285.559	-52.656	0.329	-0.152
-284.545	-72.159	-0.236	0.088
-283.530	-200.000	-0.024	0.264
-282.516	-60.323	-0.167	-0.071
-281.501	179.347	-0.142	0.208
-280.486	16.487	-0.061	0.048
-279.472	-118.162	0.076	0.014
-278.457	-200.000	0.023	-0.206
-277.443	-195.966	0.088	0.001
-276.428	8.357	-0.231	0.174
-275.413	-31.636	-0.169	-0.095
-274.399	800.000	-0.088	0.296
-273.384	42.596	-0.225	0.205
-272.370	248.997	0.099	-0.168
-271.355	-95.554	-0.357	0.096
-270.340	800.000	-0.016	0.056
-269.326	-85.246	-0.220	-0.069
-268.311	64.515	-0.108	0.108
-267.297	58.958	0.181	0.178
-266.282	800.000	-0.096	-0.418
-265.267	800.000	0.103	-0.319
-264.253	85.309	0.178	0.195
-263.238	-54.359	0.127	0.057
-262.224	176.632	-0.036	-0.052
-261.209	68.026	-0.287	0.294
-260.195	-73.072	-0.149	0.055
-259.180	197.036	0.057	0.087
-258.165	-47.817	-0.196	-0.095
-257.151	67.340	0.191	-0.195
-256.136	-161.398	0.297	0.015
-255.122	-105.371	-0.158	0.036
-254.107	133.387	0.086	0.111
-253.092	800.000	-0.032	0.110
-252.078	188.280	0.020	-0.029
-251.063	-200.000	0.000	-0.192
-250.049	-5.709	0.291	-0.199
-249.034	-200.000	-0.032	0.295
-248.019	83.251	-0.040	-0.044
-247.005	-200.000	-0.039	-0.247
-245.990	-60.300	0.237	0.101
-244.976	-14.532	0.120	0.077
-243.961	800.000	-0.110	-0.381
-242.946	168.576	-0.115	0.163
-241.932	25.415	0.146	-0.121
-240.917	14.442	-0.207	-0.161
-239.903	43.982	0.118	-0.108
-238.888	-0.053	0.033	-0.024
-237.873	-45.222	-0.375	-0.186
-236.859	143.615	0.081	0.107
-235.844	-200.000	-0.002	-0.177
-234.830	0.111	0.200	0.142
-233.815	800.000	0.087	-0.299
-232.800	-200.000	0.007	-0.103
-231.786	-65.856	0.231	0.092
-230.771	-98.377	-0.357	-0.091
-229.757	-75.481	-0.399	0.142
-228.742	204.898	0.058	0.090
-227.727	277.406	0.119	0.211
-226.713	-21.331	-0.360	0.219
-225.698	-39.068	0.132	-0.069
-224.684	784.026	0.073	-0.200
-223.669	173.260	0.123	0.177
-222.655	179.380	0.131	0.191
-221.640	582.839	-0.105	0.257
-220.625	365.282	0.031	-0.063
-219.611	57.624	0.206	-0.201
-218.596	-41.461	-0.332	0.170
-217.582	48.109	0.179	0.167
-216.567	397.738	0.168	0.349
-215.552	-87.795	0.489	0.147
-214.538	800.000	-0.069	-0.264
-213.523	-18.817	-0.307	-0.190
-212.509	266.335	0.126	0.219
-211.494	-35.011	0.185	-0.100
-210.479	116.277	-0.167	-0.203
-209.465	-86.654	-0.141	-0.043
-208.450	-40.771	-0.068	0.035
-207.436	-36.474	-0.347	0.186
-206.421	-200.000	-0.004	-0.325
-205.406	65.741	-0.076	0.077
-204.392	-103.658	0.292	-0.068
-203.377	62.728	0.201	0.201
-202.363	-66.143	-0.208	0.082
-201.348	-15.279	0.114	-0.073
-200.333	241.159	-0.049	-0.081
-199.319	-153.007	0.131	-0.009
-198.304	-8.835	-0.180	-0.120
-197.290	-200.000	-0.003	0.030
-196.275	-200.000	0.007	0.271
-195.260	-150.595	0.200	-0.015
-194.246	60.448	-0.234	-0.231
-193.231	-200.000	-0.021	-0.139
-192.217	256.528	-0.058	0.099
-191.202	-120.388	-0.228	0.039
-190.187	-0.264	-0.284	-0.201
-189.173	800.000	-0.108	0.350
-188.158	-36.451	-0.184	-0.099
-187.144	128.711	0.090	0.114
-186.129	298.604	0.183	-0.336
-185.114	-28.657	0.430	0.247
-184.100	85.535	-0.064	-0.070
-183.085	-114.699	-0.634	-0.121
-182.071	-67.545	0.109	-0.043
-181.056	-116.691	0.103	-0.019
-180.042	239.321	0.134	0.221
-179.027	9.810	0.164	0.124
-178.012	-70.817	0.214	0.080
-176.998	-135.953	0.071	0.008
-175.983	-20.507	0.141	0.086
-174.969	-81.654	-0.132	0.043
-173.954	178.322	0.125	-0.182
-172.939	-200.000	-0.008	0.065
-171.925	-27.503	-0.027	-0.015
-170.910	106.566	0.152	-0.180
-169.896	-200.000	-0.046	0.223
-168.881	564.333	0.062	0.149
-167.866	-102.144	0.205	0.049
-166.852	86.021	-0.045	-0.049
-165.837	-112.300	0.132	0.026
-164.823	-24.457	0.185	-0.110
-163.808	272.217	0.044	0.076
-162.793	-106.843	0.049	-0.011
-161.779	-107.458	0.300	0.065
-160.764	-20.470	0.216	-0.132
-159.750	-200.000	0.009	0.192
-158.735	370.883	0.018	-0.036
-157.720	-119.608	0.148	0.025
-156.706	-200.000	-0.048	0.237
-155.691	678.978	0.077	-0.199
-154.677	12.556	0.127	0.097
-153.662	-77.216	-0.348	0.121
-152.647	-167.319	-0.425	-0.017
-151.633	28.720	0.241	0.203
-150.618	-104.010	0.126	-0.029
-149.604	-200.000	-0.063	0.315
-148.589	-62.526	0.200	-0.083
-147.574	-88.522	-0.126	-0.037
-146.560	-200.000	-0.053	-0.299
-145.545	-104.675	0.270	-0.062
-144.531	-176.345	-0.360	-0.009
-143.516	-200.000	-0.035	0.475
-142.502	40.301	-0.187	0.167
-141.487	-108.377	-0.195	0.042
-140.472	374.036	-0.088	0.178
-139.458	372.971	-0.063	-0.128
-138.443	-112.440	-0.161	-0.032
-137.429	181.498	0.022	0.032
-136.414	-200.000	0.037	0.183
-135.399	800.000	-0.114	0.432
-134.385	800.000	-0.123	0.419
-133.370	-156.835	0.136	-0.008
-132.356	-200.000	-0.029	-0.333
-131.341	800.000	0.145	-0.570
-130.326	-88.194	0.164	-0.049
-129.312	-200.000	0.071	0.338
-128.297	-95.683	-0.091	0.024
-127.283	191.412	-0.155	0.231
-126.268	-76.440	0.389	0.136
-125.253	-125.284	0.041	-0.006
-124.239	-28.731	0.163	0.093
-123.224	-141.022	0.147	-0.015
-122.210	-125.320	-0.108	-0.016
-121.195	800.000	0.092	0.263
