DTS Sentinel unit serial number:	SN413079Multiplexer serial number:	ORYXHardware model number:	OX4-SRSoftware version number:	ORYX F/W v4.00 Oryx Data Collector v3.7.2.0data status	okinstallation	princeton_trtdifferential loss correction	single-endedforward channel	channel 1reverse channel	N/Adate	2019/09/18time	12:10:35forward acquisition time	60.00reverse acquisition time	0.00gamma	496.2192k internal	0.2323k external	0.2323temperature offset calibration	0.9982default loss term (dB/km)	0.3790temperature slope calibration	1.0000multiplexer offset coefficient	1.0000multiplexer slope coefficient	1.0000fibre end	0.00T internal ref (°C)	31.67T ext. ref 1 (°C)	0.50T ext. ref 2 (°C)	27.16length (m)	temperature (°C)	Stokes	anti-Stokes-747.200	153.825	0.148	0.205
-746.185	300.314	-0.084	0.157
-745.171	-200.000	-0.011	0.492
-744.156	-99.597	0.245	0.062
-743.142	-89.222	0.190	0.057
-742.127	-74.509	-0.314	-0.114
-741.112	-200.000	-0.044	0.347
-740.098	6.947	-0.059	-0.045
-739.083	77.986	-0.081	-0.087
-738.069	12.358	-0.218	-0.169
-737.054	-65.591	0.050	-0.020
-736.039	58.968	0.129	0.128
-735.025	-115.785	0.084	-0.016
-734.010	-121.260	0.490	-0.083
-732.996	-200.000	-0.292	-0.001
-731.981	-113.583	-0.206	0.041
-730.966	-176.633	-0.399	-0.010
-729.952	800.000	0.024	0.098
-728.937	800.000	-0.056	-0.199
-727.923	-103.291	-0.263	0.063
-726.908	-13.160	0.118	0.077
-725.894	71.242	0.221	0.232
-724.879	-112.392	0.125	-0.025
-723.864	-105.540	-0.245	0.056
-722.850	-200.000	0.033	-0.165
-721.835	-200.000	-0.231	-0.001
-720.821	-200.000	-0.063	-0.287
-719.806	-147.687	0.190	0.016
-718.791	-200.000	-0.028	0.138
-717.777	337.209	-0.265	0.519
-716.762	-200.000	0.029	0.189
-715.748	-142.161	0.205	-0.020
-714.733	137.179	-0.221	0.292
-713.718	335.881	-0.089	0.174
-712.704	348.249	-0.138	-0.274
-711.689	-98.454	0.134	0.034
-710.675	215.595	-0.214	0.343
-709.660	-200.000	0.028	-0.423
-708.645	-62.914	0.145	-0.060
-707.631	-51.808	0.275	-0.129
-706.616	-68.446	-0.020	0.008
-705.602	222.108	-0.166	-0.269
-704.587	-132.493	0.262	-0.034
-703.572	-200.000	-0.008	-0.142
-702.558	-76.647	-0.234	0.083
-701.543	800.000	0.037	0.103
-700.529	57.883	0.032	-0.031
-699.514	385.840	0.025	0.053
-698.499	-200.000	-0.020	0.211
-697.485	-200.000	-0.006	-0.342
-696.470	285.763	-0.071	-0.129
-695.456	800.000	-0.096	0.307
-694.441	212.188	0.153	0.243
-693.426	-90.268	0.242	-0.071
-692.412	-90.851	-0.161	0.047
-691.397	122.471	0.058	0.073
-690.383	800.000	-0.016	-0.070
-689.368	-46.382	0.112	-0.055
-688.354	15.326	0.241	-0.191
-687.339	-197.630	0.118	-0.001
-686.324	800.000	0.028	0.101
-685.310	17.614	0.132	-0.106
-684.295	513.426	-0.219	-0.514
-683.281	-59.745	-0.146	0.063
-682.266	-194.804	-0.466	0.004
-681.251	91.652	-0.103	-0.117
-680.237	2.037	0.288	-0.209
-679.222	1.332	0.163	-0.118
-678.208	44.729	-0.256	-0.237
-677.193	746.651	0.118	-0.320
-676.178	-71.704	0.228	-0.086
-675.164	-64.700	0.180	0.073
-674.149	-15.669	-0.171	0.110
-673.135	-200.000	0.060	-0.296
-672.120	62.018	0.079	-0.080
-671.105	-132.656	0.288	-0.037
-670.091	121.643	0.070	-0.088
-669.076	-166.111	-0.233	0.010
-668.062	615.976	0.029	-0.072
-667.047	-148.109	0.125	-0.010
-666.032	-200.000	-0.100	-0.463
-665.018	-200.000	-0.015	-0.155
-664.003	644.079	-0.064	0.165
-662.989	-187.706	0.236	0.003
-661.974	350.259	0.046	-0.091
-660.959	-117.458	0.156	-0.028
-659.945	552.904	-0.096	-0.231
-658.930	-135.566	0.262	0.031
-657.916	-105.142	0.144	-0.033
-656.901	-87.890	0.278	0.084
-655.886	139.448	0.270	0.358
-654.872	61.567	0.078	-0.078
-653.857	-200.000	0.058	-0.266
-652.843	685.060	-0.051	0.135
-651.828	-16.348	-0.626	0.400
-650.814	111.158	0.213	0.258
-649.799	-200.000	-0.010	-0.083
-648.784	-76.970	-0.220	0.077
-647.770	-200.000	0.043	-0.196
-646.755	-68.386	-0.212	-0.083
-645.741	-200.000	0.003	-0.075
-644.726	-200.000	0.005	-0.099
-643.711	72.533	0.049	0.052
-642.697	27.025	-0.017	0.014
-641.682	800.000	0.013	0.040
-640.668	-87.244	0.072	-0.022
-639.653	435.738	-0.033	-0.072
-638.638	-113.198	-0.194	0.038
-637.624	420.541	0.095	-0.204
-636.609	90.341	0.134	0.151
-635.595	-8.233	0.274	-0.186
-634.580	187.346	0.164	-0.245
-633.565	23.502	-0.136	-0.113
-632.551	-200.000	-0.008	-0.057
-631.536	-19.940	-0.122	0.076
-630.522	-76.508	0.119	0.042
-629.507	-91.209	0.173	-0.050
-628.492	-118.926	0.147	-0.026
-627.478	-200.000	0.002	-0.301
-626.463	-80.012	-0.199	0.067
-625.449	-98.477	0.397	-0.102
-624.434	-133.481	-0.140	0.018
-623.419	-11.866	0.137	-0.091
-622.405	-13.040	0.107	0.070
-621.390	-94.478	0.091	0.025
-620.376	-77.156	-0.387	-0.135
-619.361	-200.000	-0.031	0.164
-618.346	-200.000	0.004	-0.052
-617.332	-200.000	0.036	0.361
-616.317	-14.074	0.351	0.228
-615.303	-200.000	0.044	0.225
-614.288	22.027	0.099	-0.081
-613.273	34.575	-0.492	-0.432
-612.259	20.615	0.177	-0.144
-611.244	1.880	-0.347	0.251
-610.230	153.844	0.126	0.174
-609.215	800.000	0.073	0.205
-608.201	30.508	0.156	-0.134
-607.186	-200.000	-0.019	0.135
-606.171	-20.244	-0.179	-0.111
-605.157	587.053	-0.104	0.257
-604.142	-118.977	-0.442	0.078
-603.128	-91.423	-0.188	-0.054
-602.113	25.636	-0.305	-0.255
-601.098	-200.000	0.023	0.241
-600.084	-112.203	-0.122	-0.025
-599.069	-158.324	0.263	0.015
-598.055	-200.000	0.037	-0.375
-597.040	-43.534	-0.012	-0.006
-596.025	800.000	0.071	0.218
-595.011	67.078	-0.170	0.174
-593.996	-45.304	-0.190	-0.095
-592.982	55.736	-0.388	0.377
-591.967	90.243	-0.260	-0.292
-590.952	386.511	-0.071	-0.146
-589.938	18.914	0.233	0.188
-588.923	-9.240	0.217	0.146
-587.909	-200.000	-0.012	0.055
-586.894	232.269	-0.095	0.157
-585.879	-145.699	-0.146	-0.013
-584.865	388.689	-0.161	-0.336
-583.850	-81.539	0.028	0.009
-582.836	98.925	0.240	0.278
-581.821	10.830	0.039	0.030
-580.806	-200.000	-0.013	0.355
-579.792	-167.405	-0.077	-0.003
-578.777	139.248	-0.104	-0.138
-577.763	148.380	0.062	-0.084
-576.748	-85.940	0.073	0.023
-575.733	-113.613	-0.249	0.049
-574.719	308.697	0.122	0.229
-573.704	-137.184	-0.197	-0.023
-572.690	216.029	-0.078	0.124
-571.675	-130.970	-0.294	-0.039
-570.661	-39.316	0.105	-0.055
-569.646	178.928	0.188	-0.276
-568.631	46.549	0.122	0.113
-567.617	151.796	-0.105	0.143
-566.602	-200.000	0.017	0.156
-565.588	198.425	-0.145	-0.222
-564.573	800.000	0.071	-0.264
-563.558	-200.000	0.001	0.519
-562.544	54.950	0.253	0.245
-561.529	800.000	-0.049	-0.144
-560.515	800.000	-0.134	-0.390
-559.500	-86.712	-0.257	-0.079
-558.485	448.387	-0.080	-0.176
-557.471	31.980	0.134	0.116
-556.456	-200.000	0.000	-0.113
-555.442	761.889	-0.119	-0.323
-554.427	358.477	0.126	0.253
-553.412	-200.000	0.033	0.173
-552.398	86.892	0.067	-0.074
-551.383	95.934	-0.209	-0.239
-550.369	-124.121	-0.167	0.026
-549.354	174.211	0.087	0.126
-548.339	-200.000	0.062	0.328
-547.325	800.000	0.067	0.219
-546.310	-133.050	-0.578	-0.073
-545.296	112.393	-0.375	-0.455
-544.281	-88.673	-0.266	0.079
-543.266	-76.485	0.156	-0.055
-542.252	-200.000	-0.007	0.049
-541.237	-200.000	0.016	-0.242
-540.223	217.608	0.066	0.105
-539.208	413.509	-0.095	-0.203
-538.193	-200.000	-0.053	-0.323
-537.179	-60.175	-0.199	-0.085
-536.164	263.811	-0.058	0.101
-535.150	-189.101	-0.321	-0.004
-534.135	93.222	0.109	-0.123
-533.121	-200.000	0.001	-0.143
-532.106	-13.528	0.110	-0.072
-531.091	-200.000	0.014	0.248
-530.077	-68.672	0.130	-0.051
-529.062	204.728	-0.177	-0.276
-528.048	-109.954	-0.223	-0.047
-527.033	-54.147	-0.125	-0.057
-526.018	-24.808	0.271	0.161
-525.004	800.000	0.052	0.210
-523.989	800.000	0.080	-0.231
-522.975	-200.000	0.019	-0.269
-521.960	800.000	-0.013	0.039
-520.945	-158.852	0.279	0.016
-519.931	207.596	-0.115	0.179
-518.916	75.948	0.191	-0.203
-517.902	208.035	-0.098	-0.153
-516.887	-135.222	-0.165	0.020
-515.872	-37.840	-0.141	0.075
-514.858	286.656	-0.057	0.103
-513.843	800.000	0.042	0.146
-512.829	-128.995	-0.544	0.076
-511.814	144.039	0.282	-0.377
-510.799	631.952	-0.074	-0.188
-509.785	113.006	0.018	-0.021
-508.770	-68.869	0.220	0.085
-507.756	-98.657	0.284	0.073
-506.741	-33.384	0.260	0.144
-505.726	-77.048	-0.197	0.069
-504.712	-122.779	0.103	0.017
-503.697	-200.000	-0.003	-0.069
-502.683	62.834	0.105	-0.105
-501.668	-60.086	0.156	-0.067
-500.653	-200.000	-0.004	-0.227
-499.639	-200.000	-0.030	0.167
-498.624	15.945	0.286	0.225
-497.610	319.271	0.150	-0.284
-496.595	-200.000	-0.022	-0.339
-495.581	-52.744	0.198	0.091
-494.566	-200.000	0.035	0.218
-493.551	-38.566	0.169	0.089
-492.537	-152.189	0.108	-0.008
-491.522	-25.218	-0.043	-0.025
-490.508	-200.000	-0.031	0.265
-489.493	-200.000	-0.003	0.347
-488.478	-89.521	-0.102	0.030
-487.464	-191.287	0.183	0.002
-486.449	800.000	0.091	0.299
-485.435	800.000	0.025	-0.069
-484.420	-31.446	-0.240	-0.135
-483.405	52.989	-0.213	0.204
-482.391	47.371	0.083	-0.077
-481.376	-88.985	0.349	0.103
-480.362	113.361	-0.241	0.293
-479.347	379.852	0.058	-0.119
-478.332	-165.790	0.162	-0.007
-477.318	158.940	0.082	-0.114
-476.303	508.892	-0.148	0.343
-475.289	-77.584	-0.259	0.090
-474.274	-93.235	-0.069	0.019
-473.259	191.227	-0.168	-0.253
-472.245	-95.377	0.169	-0.045
-471.230	-45.573	0.204	-0.101
-470.216	800.000	-0.072	0.223
-469.201	-200.000	0.043	0.245
-468.186	800.000	-0.069	0.219
-467.172	-200.000	-0.038	-0.452
-466.157	-200.000	-0.028	-0.271
-465.143	-168.883	0.260	0.010
-464.128	-200.000	-0.011	0.062
-463.113	12.479	0.149	0.114
-462.099	-200.000	0.002	0.153
-461.084	-55.616	-0.094	-0.042
-460.070	-200.000	-0.022	-0.120
-459.055	-200.000	0.065	-0.284
-458.040	-200.000	0.039	0.203
-457.026	195.262	-0.050	-0.076
-456.011	388.314	0.019	-0.040
-454.997	-166.886	-0.092	-0.004
-453.982	800.000	0.018	0.076
-452.968	136.684	-0.172	0.224
-451.953	-131.032	-0.248	0.033
-450.938	271.981	0.076	0.133
-449.924	36.540	0.029	0.025
-448.909	248.328	-0.071	-0.120
-447.895	800.000	-0.022	0.087
-446.880	166.948	-0.039	-0.055
-445.865	-200.000	-0.000	-0.017
-444.851	-200.000	0.001	-0.173
-443.836	-200.000	0.018	-0.285
-442.822	-126.785	0.200	0.030
-441.807	-200.000	-0.008	0.158
-440.792	41.938	0.243	0.220
-439.778	595.851	-0.038	0.095
-438.763	-200.000	0.047	-0.460
-437.749	-200.000	0.003	0.150
-436.734	37.497	-0.303	0.268
-435.719	-36.577	0.240	-0.129
-434.705	-110.178	0.204	-0.042
-433.690	71.626	0.218	0.226
-432.676	-149.392	-0.357	0.028
-431.661	-76.168	0.307	0.108
-430.646	-56.868	-0.241	0.106
-429.632	34.229	0.179	-0.155
-428.617	-35.497	-0.242	-0.131
-427.603	-101.127	-0.107	0.026
-426.588	131.014	0.122	0.156
-425.573	-0.628	-0.224	0.159
-424.559	63.480	0.061	0.061
-423.544	800.000	0.083	-0.287
-422.530	294.819	-0.101	0.185
-421.515	800.000	0.085	-0.338
-420.500	495.213	-0.136	0.312
-419.486	99.045	0.058	-0.067
-418.471	-92.716	-0.015	-0.004
-417.457	34.558	0.291	-0.253
-416.442	74.977	-0.185	-0.194
-415.428	-42.839	-0.168	-0.085
-414.413	696.495	0.035	-0.091
-413.398	-132.195	0.262	-0.034
-412.384	-18.047	-0.270	-0.168
-411.369	68.654	-0.118	0.121
-410.355	-25.374	-0.189	-0.112
-409.340	-98.146	-0.121	-0.031
-408.325	82.373	0.339	0.367
-407.311	82.765	0.032	-0.034
-406.296	150.935	0.182	-0.247
-405.282	-100.947	0.276	0.067
-404.267	360.603	0.113	-0.225
-403.252	498.983	-0.122	-0.280
-402.238	107.973	-0.050	0.060
-401.223	403.709	-0.192	0.403
-400.209	171.349	-0.175	-0.251
-399.194	699.804	-0.060	-0.157
-398.179	-26.511	-0.161	0.094
-397.165	94.884	0.282	0.320
-396.150	583.610	0.207	0.506
-395.136	100.540	0.156	0.181
-394.121	-200.000	-0.012	0.056
-393.106	515.401	-0.079	0.185
-392.092	-93.054	-0.093	-0.026
-391.077	-200.000	-0.007	-0.335
-390.063	773.208	-0.164	-0.446
-389.048	-79.628	0.565	-0.190
-388.033	-38.905	0.119	-0.062
-387.019	222.050	0.057	0.092
-386.004	136.378	-0.172	0.223
-384.990	120.599	-0.163	-0.202
-383.975	-112.414	0.343	-0.068
-382.960	-11.823	-0.254	-0.166
-381.946	139.803	-0.128	-0.168
-380.931	25.572	0.358	-0.297
-379.917	83.923	0.326	0.355
-378.902	244.184	0.066	-0.111
-377.888	3.198	0.133	-0.096
-376.873	102.504	-0.224	0.261
-375.858	93.776	0.082	-0.093
-374.844	241.269	-0.157	0.262
-373.829	799.365	-0.080	-0.220
-372.815	-50.839	-0.376	0.176
-371.800	268.955	-0.022	0.038
-370.785	-83.709	-0.238	-0.076
-369.771	-200.000	0.015	-0.274
-368.756	245.953	0.037	0.063
-367.742	-41.693	0.160	0.082
-366.727	-200.000	0.037	-0.250
-365.712	-15.320	0.157	-0.100
-364.698	-134.712	0.387	-0.047
-363.683	-44.414	-0.037	-0.018
-362.669	3.105	-0.360	0.260
-361.654	-50.049	-0.308	-0.145
-360.639	-46.941	0.129	0.063
-359.625	306.233	0.066	-0.122
-358.610	-200.000	0.075	-0.460
-357.596	-66.190	0.200	-0.079
-356.581	41.287	-0.128	0.115
-355.566	-200.000	-0.015	-0.218
-354.552	800.000	-0.049	0.141
-353.537	-15.249	-0.265	0.169
-352.523	261.124	-0.040	-0.069
-351.508	181.255	-0.066	-0.097
-350.493	-200.000	0.025	0.307
-349.479	-91.768	0.444	-0.125
-348.464	703.528	-0.070	-0.183
-347.450	41.806	0.274	-0.247
-346.435	-20.951	-0.357	0.217
-345.420	-146.844	-0.089	0.008
-344.406	96.569	0.156	0.177
-343.391	222.092	0.140	-0.224
-342.377	48.378	0.247	0.230
-341.362	-94.128	-0.115	0.031
-340.348	800.000	0.050	0.185
-339.333	-42.386	-0.052	-0.026
-338.318	800.000	0.091	0.283
-337.304	-98.501	0.107	0.027
-336.289	800.000	0.103	0.319
-335.275	-109.447	0.434	0.091
-334.260	-62.341	0.186	-0.077
-333.245	76.823	-0.202	-0.213
-332.231	-200.000	-0.021	0.287
-331.216	-68.707	-0.026	-0.010
-330.202	-200.000	-0.016	0.178
-329.187	-200.000	0.040	0.325
-328.172	-109.062	0.382	-0.081
-327.158	-24.179	-0.072	-0.043
-326.143	59.019	0.053	0.052
-325.129	-12.962	0.489	0.316
-324.114	-200.000	-0.001	0.257
-323.099	266.363	0.254	0.441
-322.085	38.684	-0.386	-0.343
-321.070	562.014	-0.038	-0.090
-320.056	-70.022	0.139	-0.053
-319.041	-200.000	-0.029	-0.151
-318.026	-83.221	0.059	0.019
-317.012	-44.175	0.141	0.070
-315.997	-200.000	-0.027	-0.125
-314.983	-23.739	0.218	-0.130
-313.968	-26.447	-0.305	0.178
-312.953	800.000	0.113	0.349
-311.939	-22.025	0.230	0.139
-310.924	-62.349	0.398	-0.165
-309.910	-200.000	0.091	0.426
-308.895	800.000	-0.075	-0.298
-307.880	-163.176	0.153	0.007
-306.866	41.750	0.043	0.038
-305.851	549.622	0.057	0.137
-304.837	-44.437	0.105	-0.052
-303.822	365.797	-0.064	0.127
-302.807	128.420	0.114	-0.144
-301.793	207.593	0.099	0.153
-300.778	-14.044	-0.186	-0.119
-299.764	-27.988	-0.388	-0.223
-298.749	442.652	0.225	-0.489
-297.735	29.330	-0.106	0.089
-296.720	55.482	0.139	0.133
-295.705	30.064	0.105	-0.089
-294.691	800.000	0.043	0.154
-293.676	-167.964	0.306	-0.012
-292.662	800.000	0.020	0.073
-291.647	-200.000	-0.043	-0.227
-290.632	-200.000	0.019	0.309
-289.618	-200.000	0.007	0.035
-288.603	72.185	0.153	-0.158
-287.589	800.000	-0.057	0.182
-286.574	364.951	-0.175	0.350
-285.559	-200.000	-0.002	-0.067
-284.545	133.741	0.047	0.061
-283.530	31.808	-0.274	-0.234
-282.516	-154.119	-0.255	0.017
-281.501	282.807	-0.251	-0.446
-280.486	-200.000	-0.006	0.379
-279.472	497.038	-0.060	0.138
-278.457	-200.000	-0.000	-0.136
-277.443	-54.533	-0.177	0.080
-276.428	303.452	-0.146	-0.268
-275.413	800.000	0.080	-0.336
-274.399	139.184	-0.181	0.236
-273.384	70.393	0.203	0.208
-272.370	70.461	-0.146	-0.149
-271.355	-67.951	0.153	-0.059
-270.340	800.000	-0.110	-0.386
-269.326	-39.025	-0.104	0.054
-268.311	75.833	-0.135	0.142
-267.297	-89.494	-0.422	-0.123
-266.282	-161.050	-0.264	-0.014
-265.267	-200.000	-0.001	-0.066
-264.253	34.416	-0.393	0.340
-263.238	-105.604	0.234	-0.053
-262.224	-99.157	-0.250	-0.063
-261.209	-115.897	0.256	-0.047
-260.195	-89.182	-0.152	-0.044
-259.180	-183.022	0.294	-0.005
-258.165	-200.000	0.027	-0.269
-257.151	649.254	0.093	0.236
-256.136	-7.851	-0.200	0.134
-255.122	267.809	-0.066	0.114
-254.107	-16.148	0.172	0.109
-253.092	-173.202	0.138	0.004
-252.078	800.000	0.025	-0.088
-251.063	-101.632	-0.186	0.045
-250.049	509.155	0.019	0.043
-249.034	-116.637	0.560	0.102
-248.019	-89.519	0.292	0.085
-247.005	-47.204	0.079	-0.038
-245.990	-132.865	0.163	-0.021
-244.976	-42.457	0.059	0.030
-243.961	-200.000	0.032	0.328
-242.946	-200.000	0.053	-0.237
-241.932	16.405	-0.389	0.304
-240.917	-200.000	-0.018	0.512
-239.903	44.593	0.046	0.042
-238.888	11.442	-0.108	0.082
-237.873	-104.227	-0.108	-0.025
-236.859	67.612	0.218	-0.220
-235.844	152.861	-0.124	0.168
-234.830	167.754	-0.051	0.072
-233.815	-139.474	-0.529	-0.056
-232.800	252.425	-0.207	-0.350
-231.786	800.000	-0.026	-0.085
-230.771	-132.982	-0.233	-0.029
-229.757	-200.000	0.020	-0.088
-228.742	-64.774	0.076	-0.030
-227.727	800.000	0.033	0.094
-226.713	-158.175	-0.293	0.017
-225.698	-82.969	0.295	0.094
-224.684	-51.444	-0.335	-0.155
-223.669	420.305	-0.110	0.233
-222.655	-140.631	0.332	0.034
-221.640	-200.000	-0.017	0.106
-220.625	716.440	0.086	-0.226
-219.611	-172.904	-0.191	-0.006
-218.596	15.929	-0.206	0.160
-217.582	-154.299	-0.208	-0.014
-216.567	-47.309	0.135	-0.065
-215.552	84.638	-0.114	-0.123
-214.538	-18.815	0.168	-0.104
-213.523	-84.941	0.108	-0.033
-212.509	340.020	0.064	-0.124
-211.494	-129.192	0.225	0.031
-210.479	69.007	-0.047	0.048
-209.465	104.132	-0.125	0.146
-208.450	204.662	0.078	0.119
-207.436	-200.000	0.008	-0.268
-206.421	800.000	-0.120	0.413
-205.406	-200.000	-0.012	-0.205
-204.392	-200.000	-0.050	0.262
-203.377	109.998	-0.178	0.211
-202.363	-68.244	-0.240	-0.092
-201.348	-182.006	0.107	-0.002
-200.333	-200.000	-0.018	0.456
-199.319	66.956	-0.246	0.248
-198.304	-200.000	0.031	-0.179
-197.290	88.616	-0.048	-0.052
-196.275	-200.000	0.029	0.168
-195.260	800.000	0.087	0.281
-194.246	-132.779	0.138	0.017
-193.231	800.000	0.048	-0.145
-192.217	-43.067	0.132	0.066
-191.202	-86.901	0.207	0.062
-190.187	188.035	-0.079	-0.116
-189.173	-60.363	-0.191	-0.080
-188.158	605.144	0.096	-0.236
-187.144	187.097	-0.182	-0.268
-186.129	622.075	0.083	-0.207
-185.114	-13.766	-0.146	0.093
-184.100	-200.000	0.034	0.284
-183.085	-73.633	-0.167	0.060
-182.071	1.084	0.187	-0.133
-181.056	334.450	0.159	-0.304
-180.042	408.911	0.047	-0.097
-179.027	67.783	-0.055	-0.055
-178.012	163.179	0.148	0.205
-176.998	-164.380	0.170	0.008
-175.983	-127.724	0.069	0.010
-174.969	84.625	-0.087	-0.094
-173.954	-200.000	0.056	-0.307
-172.939	205.732	0.051	-0.078
-171.925	83.314	-0.371	-0.399
-170.910	-83.101	0.103	-0.033
-169.896	-51.840	0.145	0.067
-168.881	-200.000	0.010	-0.093
-167.866	-155.068	0.408	-0.026
-166.852	392.925	-0.148	0.305
-165.837	140.367	0.141	-0.184
-164.823	-8.059	-0.218	0.145
-163.808	17.996	-0.011	-0.009
-162.793	243.054	0.052	-0.085
-161.779	-149.991	-0.272	-0.021
-160.764	-141.445	0.304	-0.030
-159.750	236.972	0.133	0.218
-158.735	471.483	-0.007	0.016
-157.720	265.514	0.045	-0.078
-156.706	-14.493	0.045	0.029
-155.691	143.671	-0.247	-0.324
-154.677	88.881	-0.155	-0.170
-153.662	-172.379	0.350	0.011
-152.647	-200.000	-0.028	-0.399
-151.633	-86.487	0.248	0.075
-150.618	-53.405	-0.204	0.092
-149.604	17.377	0.218	-0.171
-148.589	-112.988	0.429	0.084
-147.574	168.886	-0.036	-0.050
-146.560	101.550	-0.107	-0.123
-145.545	109.661	0.131	-0.155
-144.531	-102.457	-0.264	-0.062
-143.516	-119.631	0.097	0.017
-142.502	-200.000	0.019	-0.159
-141.487	-200.000	-0.012	0.163
-140.472	-37.408	-0.086	-0.046
-139.458	108.463	0.117	0.138
-138.443	800.000	0.051	-0.168
-137.429	-138.257	-0.153	0.017
-136.414	29.356	-0.172	0.144
-135.399	800.000	-0.064	0.179
-134.385	-200.000	0.017	0.108
-133.370	45.032	0.221	0.201
-132.356	-200.000	-0.028	-0.409
-131.341	6.520	-0.217	0.159
-130.326	-89.155	0.350	-0.102
-129.312	-55.552	0.229	0.101
-128.297	-134.724	-0.087	0.010
-127.283	21.140	0.258	-0.206
-126.268	-200.000	0.094	0.426
-125.253	800.000	-0.038	0.119
-124.239	-133.220	0.241	-0.030
-123.224	7.561	0.363	-0.268
-122.210	464.706	-0.156	-0.344
-121.195	90.433	-0.272	0.300
