DTS Sentinel unit serial number:	SN413079Multiplexer serial number:	ORYXHardware model number:	OX4-SRSoftware version number:	ORYX F/W v4.00 Oryx Data Collector v3.7.2.0data status	okinstallation	princeton_trtdifferential loss correction	single-endedforward channel	channel 1reverse channel	N/Adate	2019/09/19time	12:22:35forward acquisition time	60.00reverse acquisition time	0.00gamma	496.2192k internal	0.2334k external	0.2334temperature offset calibration	1.0007default loss term (dB/km)	0.3790temperature slope calibration	1.0000multiplexer offset coefficient	1.0000multiplexer slope coefficient	1.0000fibre end	0.00T internal ref (°C)	26.73T ext. ref 1 (°C)	0.86T ext. ref 2 (°C)	24.03length (m)	temperature (°C)	Stokes	anti-Stokes-747.200	-47.442	0.219	0.107
-746.185	102.818	-0.206	0.243
-745.171	97.649	0.109	0.125
-744.156	40.303	-0.383	0.346
-743.142	-200.000	-0.032	0.281
-742.127	-200.000	-0.037	0.315
-741.112	69.614	-0.136	0.141
-740.098	42.817	0.109	-0.100
-739.083	-200.000	-0.016	-0.248
-738.069	213.569	0.177	0.281
-737.054	800.000	-0.099	0.378
-736.039	490.778	0.102	0.235
-735.025	800.000	-0.078	0.330
-734.010	-200.000	-0.186	-0.001
-732.996	800.000	-0.112	-0.400
-731.981	-151.763	-0.240	-0.018
-730.966	41.514	-0.290	0.263
-729.952	-200.000	-0.014	0.425
-728.937	-46.907	-0.157	0.077
-727.923	-95.682	0.187	0.050
-726.908	-200.000	-0.057	0.343
-725.894	-200.000	0.018	0.130
-724.879	13.047	-0.212	0.165
-723.864	42.106	-0.042	-0.038
-722.850	-33.683	-0.222	0.123
-721.835	-200.000	0.029	0.165
-720.821	-200.000	0.045	-0.200
-719.806	800.000	0.048	0.201
-718.791	-121.043	0.186	-0.031
-717.777	73.197	0.081	-0.085
-716.762	-193.431	-0.384	0.003
-715.748	98.722	-0.203	0.235
-714.733	-152.479	0.145	0.010
-713.718	-200.000	0.037	-0.304
-712.704	800.000	-0.106	-0.339
-711.689	85.769	0.245	-0.271
-710.675	391.121	0.112	-0.234
-709.660	410.217	0.095	0.203
-708.645	-88.351	0.074	-0.022
-707.631	187.396	0.255	0.382
-706.616	-81.454	0.058	0.019
-705.602	-104.351	-0.090	-0.021
-704.587	-1.034	0.238	0.169
-703.572	-200.000	-0.031	0.236
-702.558	611.559	-0.084	-0.210
-701.543	-77.964	0.304	-0.105
-700.529	-180.418	0.224	-0.005
-699.514	434.766	-0.123	-0.268
-698.499	-125.074	0.216	-0.033
-697.485	-119.252	-0.256	-0.045
-696.470	6.953	-0.096	0.072
-695.456	292.432	-0.045	-0.082
-694.441	7.169	0.236	0.177
-693.426	119.648	-0.192	0.239
-692.412	800.000	0.021	0.061
-691.397	-137.100	0.127	0.015
-690.383	48.636	0.133	0.125
-689.368	-200.000	0.036	0.249
-688.354	-200.000	0.018	-0.223
-687.339	36.812	-0.152	-0.134
-686.324	800.000	0.071	0.310
-685.310	4.543	-0.090	0.066
-684.295	365.608	0.163	0.329
-683.281	-163.675	-0.337	-0.016
-682.266	-200.000	-0.058	0.352
-681.251	-17.261	-0.145	0.092
-680.237	37.337	0.015	-0.014
-679.222	287.029	0.136	0.246
-678.208	-24.023	-0.086	-0.051
-677.193	-36.023	-0.171	-0.092
-676.178	167.868	0.056	-0.080
-675.164	-179.556	-0.062	-0.001
-674.149	-175.489	0.275	-0.007
-673.135	149.862	-0.021	0.028
-672.120	-1.194	-0.138	-0.098
-671.105	-200.000	0.003	0.388
-670.091	232.971	-0.178	0.293
-669.076	154.151	-0.172	-0.236
-668.062	800.000	-0.130	0.369
-667.047	-158.544	0.314	-0.018
-666.032	-113.353	0.262	-0.051
-665.018	-172.795	-0.408	0.013
-664.003	-83.684	0.113	0.036
-662.989	-10.312	0.151	-0.100
-661.974	35.481	-0.218	-0.191
-660.959	619.080	-0.055	-0.137
-659.945	-29.540	-0.120	0.069
-658.930	556.942	0.087	0.211
-657.916	-14.419	-0.217	0.140
-656.901	137.813	0.075	-0.098
-655.886	-28.938	-0.358	-0.206
-654.872	-56.112	0.078	0.035
-653.857	63.309	-0.120	-0.121
-652.843	26.499	-0.051	0.042
-651.828	313.939	0.110	-0.207
-650.814	-14.748	0.108	-0.069
-649.799	-58.983	0.270	-0.117
-648.784	371.358	-0.079	-0.160
-647.770	800.000	-0.003	0.012
-646.755	-125.194	-0.132	-0.020
-645.741	298.441	0.164	-0.301
-644.726	-200.000	-0.012	-0.239
-643.711	-66.250	0.318	-0.127
-642.697	-200.000	0.031	-0.279
-641.682	-19.565	-0.107	-0.066
-640.668	-112.641	-0.175	-0.035
-639.653	76.889	0.122	0.130
-638.638	-95.504	-0.040	0.011
-637.624	-50.223	-0.253	-0.120
-636.609	-200.000	0.021	0.102
-635.595	101.504	0.130	0.152
-634.580	18.215	0.193	0.154
-633.565	101.614	0.117	-0.137
-632.551	32.189	-0.376	-0.325
-631.536	-166.284	-0.421	-0.018
-630.522	57.496	0.091	-0.089
-629.507	84.523	-0.180	-0.198
-628.492	669.432	-0.055	0.143
-627.478	800.000	0.111	-0.317
-626.463	123.950	0.115	-0.145
-625.449	-125.820	0.133	-0.020
-624.434	-200.000	-0.014	-0.171
-623.419	-105.440	0.021	0.005
-622.405	-125.653	0.104	0.016
-621.390	387.257	-0.089	-0.183
-620.376	800.000	0.103	0.339
-619.361	159.515	0.092	-0.127
-618.346	-13.767	-0.223	-0.145
-617.332	800.000	-0.046	0.191
-616.317	-71.825	-0.188	0.070
-615.303	-4.383	0.104	-0.072
-614.288	-200.000	-0.017	0.090
-613.273	-200.000	-0.022	-0.105
-612.259	581.158	-0.138	-0.337
-611.244	55.302	0.142	0.138
-610.230	-132.675	0.022	-0.003
-609.215	-128.983	0.068	-0.010
-608.201	-200.000	0.059	0.355
-607.186	-200.000	0.003	0.193
-606.171	-116.876	0.227	-0.042
-605.157	4.704	0.216	-0.159
-604.142	12.687	0.025	0.019
-603.128	-200.000	-0.054	-0.317
-602.113	466.425	-0.025	-0.057
-601.098	-160.932	-0.250	-0.013
-600.084	465.307	0.111	0.247
-599.069	800.000	-0.070	-0.217
-598.055	-171.814	0.482	-0.016
-597.040	-200.000	-0.068	0.532
-596.025	17.207	0.089	-0.070
-595.011	-168.651	-0.347	0.013
-593.996	-80.843	-0.076	-0.025
-592.982	-12.062	0.339	-0.222
-591.967	-181.504	-0.273	0.005
-590.952	24.669	-0.018	-0.015
-589.938	280.091	0.146	0.261
-588.923	112.925	-0.233	0.282
-587.909	-104.534	0.102	0.023
-586.894	30.896	-0.305	-0.261
-585.879	-200.000	-0.034	-0.235
-584.865	50.043	0.074	-0.070
-583.850	18.378	0.147	-0.117
-582.836	-80.029	0.179	0.060
-581.821	800.000	-0.095	0.273
-580.806	504.803	-0.066	0.153
-579.792	-90.884	0.145	-0.042
-578.777	-99.790	0.214	0.054
-577.763	-174.460	-0.379	-0.011
-576.748	-200.000	0.074	-0.337
-575.733	-53.910	-0.200	-0.091
-574.719	-200.000	-0.055	0.000
-573.704	-200.000	0.008	-0.225
-572.690	6.930	-0.019	0.014
-571.675	150.245	0.198	-0.269
-570.661	-144.865	0.327	-0.030
-569.646	-40.625	-0.450	0.233
-568.631	35.114	-0.010	0.009
-567.617	-88.379	-0.380	0.113
-566.602	-25.969	0.324	0.191
-565.588	-200.000	0.020	-0.113
-564.573	-29.011	-0.142	-0.082
-563.558	66.972	0.145	-0.147
-562.544	-93.177	0.301	0.083
-561.529	100.607	0.161	-0.186
-560.515	-153.359	-0.070	0.005
-559.500	-72.692	-0.296	-0.109
-558.485	-45.703	-0.239	-0.118
-557.471	-30.429	0.239	0.135
-556.456	-122.066	0.406	-0.066
-555.442	106.299	-0.090	-0.107
-554.427	191.070	-0.119	0.179
-553.412	-39.278	-0.341	0.179
-552.398	312.998	0.169	-0.317
-551.383	-22.733	0.257	0.155
-550.369	-81.080	-0.009	-0.003
-549.354	-44.067	0.259	-0.130
-548.339	24.785	-0.181	0.150
-547.325	-44.400	-0.091	-0.046
-546.310	800.000	-0.050	-0.155
-545.296	316.228	0.063	0.119
-544.281	-164.326	0.317	-0.014
-543.266	68.154	0.119	0.122
-542.252	539.895	-0.063	-0.150
-541.237	-46.427	-0.236	-0.115
-540.223	-123.462	0.213	-0.034
-539.208	107.508	0.088	0.105
-538.193	365.545	0.026	-0.053
-537.179	-119.801	0.245	0.042
-536.164	47.463	-0.115	0.107
-535.150	1.921	0.091	0.065
-534.135	-40.260	-0.126	-0.066
-533.121	178.878	-0.062	0.091
-532.106	-6.904	-0.172	-0.117
-531.091	800.000	-0.059	0.242
-530.077	-158.958	0.476	-0.027
-529.062	501.846	-0.058	0.134
-528.048	-49.073	0.119	-0.057
-527.033	28.566	-0.143	0.121
-526.018	348.373	0.212	-0.417
-525.004	133.366	0.167	0.216
-523.989	800.000	-0.043	0.126
-522.975	-200.000	0.055	0.298
-521.960	663.297	-0.118	-0.304
-520.945	153.979	0.051	-0.070
-519.931	-120.929	-0.156	0.026
-518.916	-101.193	-0.211	0.051
-517.902	800.000	0.057	0.195
-516.887	325.442	0.012	0.024
-515.872	-200.000	0.031	-0.159
-514.858	800.000	-0.059	0.214
-513.843	-172.193	0.174	-0.006
-512.829	-43.950	-0.373	-0.187
-511.814	-200.000	-0.006	0.025
-510.799	-46.692	0.137	-0.067
-509.785	-102.801	-0.158	0.037
-508.770	230.741	0.122	0.198
-507.756	195.057	0.209	0.316
-506.741	-61.602	-0.266	0.111
-505.726	-85.749	-0.084	-0.026
-504.712	-200.000	-0.513	-0.001
-503.697	-106.075	0.128	-0.029
-502.683	66.069	-0.101	-0.102
-501.668	55.501	-0.085	0.081
-500.653	-200.000	0.004	0.024
-499.639	800.000	-0.027	-0.108
-498.624	800.000	-0.079	-0.264
-497.610	-43.362	-0.178	0.090
-496.595	-200.000	0.019	0.091
-495.581	409.259	0.093	-0.196
-494.566	-1.298	-0.152	-0.107
-493.551	-11.243	0.084	-0.055
-492.537	-200.000	-0.001	-0.016
-491.522	-54.388	-0.304	0.137
-490.508	92.853	0.081	0.091
-489.493	-88.983	0.072	0.021
-488.478	150.169	0.029	-0.040
-487.464	-112.301	-0.222	0.044
-486.449	205.585	0.121	-0.187
-485.435	-200.000	-0.017	0.174
-484.420	730.768	0.066	0.176
-483.405	-200.000	0.035	0.237
-482.391	-2.073	-0.197	-0.138
-481.376	800.000	0.045	-0.165
-480.362	-200.000	-0.053	0.414
-479.347	-62.880	-0.172	-0.071
-478.332	-142.762	-0.333	-0.032
-477.318	-181.873	-0.247	0.005
-476.303	-200.000	0.037	-0.282
-475.289	-139.821	0.199	-0.021
-474.274	-200.000	0.004	0.158
-473.259	-83.487	0.247	0.079
-472.245	355.631	-0.037	-0.072
-471.230	800.000	-0.130	-0.426
-470.216	-33.929	-0.160	0.088
-469.201	-8.072	0.119	-0.080
-468.186	-68.234	-0.066	0.026
-467.172	36.728	0.125	0.110
-466.157	146.373	0.029	0.038
-465.143	-200.000	0.005	-0.257
-464.128	27.592	-0.078	-0.065
-463.113	-200.000	-0.013	-0.100
-462.099	16.494	-0.107	-0.084
-461.084	51.252	-0.133	0.125
-460.070	98.137	0.173	0.198
-459.055	-104.975	-0.122	0.028
-458.040	-17.439	-0.236	-0.147
-457.026	321.796	-0.177	0.335
-456.011	272.384	0.078	-0.136
-454.997	-54.302	0.129	0.058
-453.982	47.128	0.165	-0.153
-452.968	-14.325	-0.065	0.041
-451.953	-116.497	0.144	0.026
-450.938	800.000	0.092	0.261
-449.924	-174.140	-0.081	0.002
-448.909	-79.563	-0.290	0.097
-447.895	-47.132	0.190	-0.092
-446.880	-200.000	0.018	0.204
-445.865	800.000	0.095	-0.279
-444.851	52.961	-0.062	0.059
-443.836	304.401	0.205	0.378
-442.822	628.848	0.143	-0.360
-441.807	117.403	-0.170	-0.208
-440.792	-90.604	0.322	-0.093
-439.778	-25.937	0.029	-0.017
-438.763	-26.603	-0.249	-0.145
-437.749	800.000	0.045	0.179
-436.734	15.296	-0.150	-0.117
-435.719	800.000	0.132	-0.485
-434.705	-200.000	0.029	-0.473
-433.690	128.341	0.006	-0.008
-432.676	800.000	0.046	-0.142
-431.661	-0.576	-0.139	-0.098
-430.646	47.297	-0.201	0.185
-429.632	-200.000	0.003	-0.337
-428.617	-44.041	-0.424	0.211
-427.603	15.562	-0.268	0.209
-426.588	271.457	0.167	0.292
-425.573	25.967	0.108	0.089
-424.559	-72.875	0.183	0.067
-423.544	-200.000	-0.011	-0.072
-422.530	-69.628	0.218	0.083
-421.515	187.829	0.092	0.136
-420.500	-5.092	-0.328	0.224
-419.486	202.861	0.051	-0.078
-418.471	-129.391	0.250	0.034
-417.457	425.108	-0.175	0.373
-416.442	265.967	-0.119	0.206
-415.428	-200.000	-0.007	0.082
-414.413	-95.211	0.307	0.082
-413.398	294.573	0.152	0.275
-412.384	201.677	0.082	-0.126
-411.369	-169.757	0.223	0.008
-410.355	95.914	-0.061	0.069
-409.340	78.007	0.284	0.300
-408.325	800.000	0.050	0.172
-407.311	-23.165	0.257	-0.154
-406.296	529.720	0.057	0.134
-405.282	-117.750	0.247	0.044
-404.267	-134.945	-0.328	-0.039
-403.252	139.220	-0.187	0.243
-402.238	574.932	0.046	0.111
-401.223	-94.587	-0.088	0.024
-400.209	-200.000	-0.052	-0.342
-399.194	346.285	-0.132	-0.257
-398.179	403.177	0.065	0.135
-397.165	99.684	0.120	-0.137
-396.150	-91.891	-0.125	0.035
-395.136	72.858	-0.084	-0.087
-394.121	-162.820	0.207	-0.010
-393.106	-33.359	-0.259	0.142
-392.092	430.646	-0.091	0.195
-391.077	-103.905	-0.172	0.040
-390.063	-200.000	0.038	0.169
-389.048	-93.367	0.408	0.112
-388.033	495.171	-0.063	0.143
-387.019	-59.894	-0.396	-0.168
-386.004	15.294	-0.184	0.143
-384.990	-12.463	0.067	-0.043
-383.975	63.272	-0.311	0.309
-382.960	-69.094	0.148	-0.057
-381.946	333.731	-0.073	0.139
-380.931	73.309	0.101	0.104
-379.917	78.833	0.223	-0.236
-378.902	-154.974	0.206	-0.013
-377.888	35.044	0.275	-0.238
-376.873	-139.577	-0.235	-0.025
-375.858	-192.388	-0.040	-0.000
-374.844	-200.000	0.042	0.289
-373.829	231.587	-0.077	0.124
-372.815	800.000	-0.081	-0.239
-371.800	184.622	-0.049	0.072
-370.785	-38.696	0.214	0.112
-369.771	-190.788	-0.517	0.005
-368.756	92.702	0.206	0.231
-367.742	30.222	-0.219	-0.185
-366.727	-200.000	0.014	0.088
-365.712	800.000	0.097	0.297
-364.698	-50.833	0.338	0.157
-363.683	-22.445	-0.242	-0.145
-362.669	-27.329	0.209	-0.120
-361.654	303.789	0.138	-0.253
-360.639	-200.000	0.002	-0.054
-359.625	-107.218	0.248	0.054
-358.610	-50.378	-0.176	0.082
-357.596	-174.705	-0.161	0.005
-356.581	23.149	0.320	-0.260
-355.566	800.000	-0.030	-0.125
-354.552	72.852	-0.203	-0.209
-353.537	170.496	-0.104	-0.148
-352.523	-134.189	0.220	0.027
-351.508	171.501	-0.039	-0.055
-350.493	556.937	-0.030	0.071
-349.479	-200.000	-0.055	-0.347
-348.464	-67.607	0.225	-0.087
-347.450	-87.090	-0.265	-0.080
-346.435	273.332	0.065	0.114
-345.420	-108.036	0.092	-0.020
-344.406	13.212	-0.296	0.227
-343.391	-56.995	-0.170	-0.074
-342.377	117.412	0.145	0.177
-341.362	-7.813	0.262	0.175
-340.348	800.000	-0.079	0.233
-339.333	-67.284	0.141	0.055
-338.318	555.806	-0.035	0.083
-337.304	172.377	-0.150	-0.214
-336.289	308.760	0.122	-0.226
-335.275	141.673	-0.019	-0.025
-334.260	11.315	-0.084	0.064
-333.245	-98.206	0.271	0.069
-332.231	-154.796	-0.200	-0.013
-331.216	-11.101	0.160	0.105
-330.202	-200.000	0.077	-0.391
-329.187	-60.771	-0.197	-0.083
-328.172	77.912	0.057	0.060
-327.158	-72.110	0.302	0.111
-326.143	-54.837	-0.081	-0.036
-325.129	58.303	-0.203	0.197
-324.114	-200.000	-0.019	0.307
-323.099	-50.722	0.393	0.183
-322.085	-200.000	0.036	-0.457
-321.070	366.641	0.067	-0.133
-320.056	130.282	0.157	-0.199
-319.041	120.933	-0.224	-0.275
-318.026	-200.000	-0.035	0.209
-317.012	-200.000	-0.033	-0.399
-315.997	800.000	-0.082	-0.245
-314.983	131.497	-0.237	0.302
-313.968	-104.367	-0.107	-0.024
-312.953	-200.000	0.013	0.237
-311.939	180.173	-0.072	-0.104
-310.924	119.982	-0.226	0.276
-309.910	133.495	0.079	-0.101
-308.895	-200.000	0.007	-0.165
-307.880	31.077	-0.018	0.015
-306.866	1.825	0.386	0.275
-305.851	-156.935	0.085	0.005
-304.837	92.320	0.091	0.101
-303.822	800.000	-0.111	-0.357
-302.807	-200.000	-0.030	-0.129
-301.793	-28.547	-0.160	-0.091
-300.778	342.631	-0.042	0.080
-299.764	297.642	-0.195	0.354
-298.749	-200.000	0.023	0.371
-297.735	800.000	-0.049	0.195
-296.720	37.959	-0.431	0.379
-295.705	-36.219	-0.213	0.113
-294.691	-104.973	0.189	-0.043
-293.676	-130.623	0.336	0.045
-292.662	397.765	0.015	0.031
-291.647	-23.818	-0.215	0.127
-290.632	-200.000	-0.016	-0.211
-289.618	449.415	-0.096	0.209
-288.603	-49.080	0.367	-0.173
-287.589	-29.838	-0.122	-0.069
-286.574	142.048	-0.051	-0.067
-285.559	800.000	0.048	0.176
-284.545	800.000	0.152	0.638
-283.530	800.000	-0.044	0.172
-282.516	179.660	-0.181	0.262
-281.501	-82.837	0.313	-0.100
-280.486	-143.780	-0.179	0.017
-279.472	800.000	-0.039	0.154
-278.457	800.000	0.180	0.497
-277.443	232.663	0.139	-0.225
-276.428	-151.744	0.173	-0.013
-275.413	103.116	0.010	0.012
-274.399	166.434	0.044	-0.061
-273.384	4.450	-0.164	0.119
-272.370	-132.767	0.234	-0.029
-271.355	-173.026	-0.172	-0.005
-270.340	8.421	0.258	-0.192
-269.326	800.000	0.047	-0.135
-268.311	-148.847	-0.029	-0.002
-267.297	800.000	0.039	-0.149
-266.282	528.740	-0.056	-0.131
-265.267	-87.636	-0.173	0.052
-264.253	53.290	-0.040	-0.037
-263.238	-200.000	-0.055	0.253
-262.224	602.446	-0.081	0.199
-261.209	-5.063	0.249	0.169
-260.195	115.751	0.233	0.281
-259.180	-142.449	-0.095	-0.009
-258.165	512.100	-0.020	0.046
-257.151	-145.107	-0.353	-0.032
-256.136	-200.000	0.043	-0.250
-255.122	-95.554	0.325	0.086
-254.107	422.174	0.086	-0.182
-253.092	-58.932	-0.364	-0.155
-252.078	-200.000	-0.002	0.172
-251.063	45.092	-0.082	0.074
-250.049	-76.493	0.059	-0.020
-249.034	-200.000	0.029	-0.168
-248.019	338.105	0.082	0.158
-247.005	134.418	-0.080	0.103
-245.990	20.887	0.199	0.159
-244.976	-114.299	0.172	0.033
-243.961	-200.000	-0.000	0.177
-242.946	-200.000	0.013	0.167
-241.932	50.469	-0.272	0.254
-240.917	-200.000	-0.074	-0.364
-239.903	-22.098	0.284	-0.170
-238.888	-200.000	-0.044	-0.192
-237.873	-200.000	-0.019	0.092
-236.859	70.492	0.167	-0.171
-235.844	120.807	-0.147	-0.181
-234.830	362.154	0.152	-0.301
-233.815	233.098	0.114	-0.185
-232.800	40.432	-0.230	-0.204
-231.786	-200.000	-0.005	0.204
-230.771	-116.063	0.505	0.093
-229.757	-2.390	0.059	0.041
-228.742	-200.000	-0.066	0.292
-227.727	-94.471	-0.256	0.069
-226.713	-10.656	0.353	-0.230
-225.698	28.353	-0.104	0.087
-224.684	-200.000	-0.047	0.262
-223.669	800.000	0.047	0.167
-222.655	133.873	0.185	-0.236
-221.640	800.000	-0.030	-0.084
-220.625	-25.195	-0.043	0.025
-219.611	-153.504	-0.082	0.006
-218.596	-158.948	-0.311	-0.017
-217.582	-57.486	0.103	-0.044
-216.567	17.826	-0.173	-0.136
-215.552	491.000	0.086	0.195
-214.538	89.091	-0.278	-0.304
-213.523	-9.329	-0.268	-0.176
-212.509	800.000	-0.024	0.070
-211.494	122.662	-0.305	-0.375
-210.479	401.916	0.101	-0.209
-209.465	765.358	0.073	0.195
-208.450	168.066	0.123	-0.172
-207.436	-200.000	-0.027	0.339
-206.421	800.000	-0.009	-0.029
-205.406	-200.000	0.073	-0.466
-204.392	89.143	0.153	0.168
-203.377	-200.000	0.036	-0.243
-202.363	117.212	0.121	0.147
-201.348	221.425	-0.073	-0.116
-200.333	512.133	0.039	-0.089
-199.319	473.005	-0.071	-0.157
-198.304	-55.423	0.179	0.079
-197.290	61.708	0.199	0.195
-196.275	8.104	0.083	-0.062
-195.260	45.005	-0.211	-0.192
-194.246	121.042	0.227	0.278
-193.231	23.271	-0.358	0.289
-192.217	-138.473	0.396	-0.043
-191.202	225.999	-0.111	-0.177
-190.187	248.801	-0.111	0.185
-189.173	-72.378	0.141	-0.051
-188.158	154.402	0.070	0.095
-187.144	115.353	-0.226	-0.271
-186.129	25.178	-0.331	-0.271
-185.114	-200.000	0.010	0.302
-184.100	128.745	-0.173	0.216
-183.085	800.000	0.006	0.016
-182.071	-200.000	0.010	-0.257
-181.056	79.685	0.068	0.072
-180.042	139.450	-0.142	0.183
-179.027	145.710	0.039	0.051
-178.012	-82.912	0.310	0.098
-176.998	175.854	-0.251	-0.358
-175.983	-200.000	-0.044	-0.323
-174.969	800.000	-0.014	0.042
-173.954	-43.553	-0.167	-0.083
-172.939	165.797	0.102	-0.143
-171.925	-7.954	0.113	0.075
-170.910	-23.090	0.146	0.087
-169.896	-200.000	-0.012	0.144
-168.881	-77.889	-0.139	-0.047
-167.866	-82.629	-0.045	-0.014
-166.852	-60.989	-0.195	-0.081
-165.837	527.199	0.159	0.368
-164.823	-111.990	0.129	0.026
-163.808	8.884	0.117	-0.087
-162.793	-96.407	0.264	-0.069
-161.779	-173.505	-0.177	-0.005
-160.764	293.421	-0.133	-0.239
-159.750	-64.840	0.107	-0.043
-158.735	800.000	0.023	-0.070
-157.720	-106.506	0.267	-0.059
-156.706	12.097	-0.166	0.126
-155.691	-72.977	0.046	0.017
-154.677	169.541	0.048	0.068
-153.662	800.000	-0.045	-0.186
-152.647	-85.764	-0.067	-0.020
-151.633	-200.000	-0.002	0.105
-150.618	800.000	0.062	0.200
-149.604	-200.000	-0.087	0.427
-148.589	-200.000	-0.025	0.133
-147.574	-100.853	0.077	0.019
-146.560	-200.000	-0.042	-0.197
-145.545	-61.426	-0.365	0.151
-144.531	-90.224	-0.159	-0.045
-143.516	90.776	-0.273	-0.300
-142.502	-200.000	-0.018	0.265
-141.487	97.931	0.057	-0.064
-140.472	56.685	0.078	-0.075
-139.458	97.849	0.125	0.142
-138.443	39.971	0.072	-0.064
-137.429	-200.000	0.014	-0.179
-136.414	-72.123	-0.264	-0.096
-135.399	-200.000	0.012	-0.345
-134.385	-200.000	-0.095	0.000
-133.370	-200.000	0.009	-0.153
-132.356	22.997	-0.341	-0.274
-131.341	420.290	0.193	0.406
-130.326	12.138	0.059	0.044
-129.312	79.332	0.194	0.204
-128.297	-200.000	-0.018	0.218
-127.283	-102.528	0.074	0.017
-126.268	800.000	0.087	0.237
-125.253	97.524	-0.192	0.217
-124.239	-169.300	0.224	-0.008
-123.224	369.878	-0.165	0.328
-122.210	-200.000	0.011	-0.204
-121.195	800.000	0.129	-0.447
-120.180	-9.840	-0.196	-0.128
