DTS Sentinel unit serial number:	SN413079Multiplexer serial number:	ORYXHardware model number:	OX4-SRSoftware version number:	ORYX F/W v4.00 Oryx Data Collector v3.7.2.0data status	okinstallation	princeton_trtdifferential loss correction	single-endedforward channel	channel 1reverse channel	N/Adate	2019/09/16time	21:30:35forward acquisition time	60.00reverse acquisition time	0.00gamma	496.2192k internal	0.2325k external	0.2325temperature offset calibration	0.9954default loss term (dB/km)	0.3790temperature slope calibration	1.0000multiplexer offset coefficient	1.0000multiplexer slope coefficient	1.0000fibre end	0.00T internal ref (°C)	31.48T ext. ref 1 (°C)	0.05T ext. ref 2 (°C)	25.54length (m)	temperature (°C)	Stokes	anti-Stokes-747.200	800.000	-0.019	-0.078
-746.185	32.905	-0.289	0.252
-745.171	-116.753	0.164	0.030
-744.156	55.129	0.081	0.079
-743.142	220.289	0.021	-0.034
-742.127	-150.614	-0.061	0.005
-741.112	-200.000	0.043	-0.475
-740.098	109.596	-0.066	-0.079
-739.083	208.169	-0.187	-0.295
-738.069	41.206	0.247	-0.225
-737.054	-127.933	-0.228	-0.033
-736.039	-45.407	-0.342	-0.171
-735.025	-66.556	-0.131	0.052
-734.010	-200.000	-0.085	-0.438
-732.996	538.094	0.054	0.128
-731.981	106.571	-0.284	-0.340
-730.966	-128.505	-0.618	-0.088
-729.952	-200.000	0.071	0.460
-728.937	-200.000	-0.011	0.132
-727.923	292.936	0.134	-0.246
-726.908	31.884	-0.294	-0.256
-725.894	-200.000	-0.014	0.084
-724.879	-200.000	-0.019	-0.153
-723.864	-200.000	0.041	-0.258
-722.850	256.680	0.105	-0.182
-721.835	-143.557	-0.169	-0.016
-720.821	-200.000	0.063	-0.345
-719.806	-200.000	-0.018	-0.216
-718.791	-200.000	-0.032	0.248
-717.777	-14.760	-0.121	-0.078
-716.762	-69.713	-0.168	0.065
-715.748	-55.637	0.163	-0.074
-714.733	-200.000	-0.007	-0.121
-713.718	-200.000	0.012	-0.426
-712.704	221.882	0.050	0.082
-711.689	-200.000	0.003	-0.101
-710.675	-79.285	-0.073	-0.025
-709.660	31.349	0.199	-0.173
-708.645	-200.000	0.034	-0.377
-707.631	-178.142	-0.303	0.007
-706.616	24.818	0.191	0.159
-705.602	-20.928	0.448	-0.276
-704.587	49.189	0.113	0.107
-703.572	-140.775	0.242	0.025
-702.558	-41.110	-0.126	-0.065
-701.543	800.000	-0.072	0.212
-700.529	626.165	-0.078	-0.198
-699.514	20.616	0.117	-0.095
-698.499	-137.194	-0.369	-0.042
-697.485	-110.538	0.092	-0.019
-696.470	800.000	-0.050	-0.141
-695.456	137.760	0.102	-0.135
-694.441	800.000	0.122	0.456
-693.426	-200.000	-0.070	0.357
-692.412	-66.965	0.401	0.159
-691.397	-200.000	0.014	-0.081
-690.383	-68.013	0.143	0.056
-689.368	243.014	0.140	-0.236
-688.354	-73.467	0.150	-0.055
-687.339	-74.938	0.185	-0.067
-686.324	289.881	-0.151	0.276
-685.310	-8.963	-0.254	0.172
-684.295	181.428	0.195	-0.289
-683.281	271.641	0.060	-0.106
-682.266	-200.000	-0.023	-0.107
-681.251	800.000	-0.007	-0.024
-680.237	5.917	-0.071	-0.053
-679.222	-52.729	0.322	0.149
-678.208	-27.223	0.155	-0.091
-677.193	701.888	-0.068	-0.179
-676.178	-105.607	0.248	-0.057
-675.164	386.170	-0.036	-0.075
-674.149	-82.036	0.233	-0.077
-673.135	10.643	0.090	-0.069
-672.120	-200.000	-0.050	-0.237
-671.105	800.000	-0.034	-0.142
-670.091	-6.786	-0.066	0.045
-669.076	-200.000	0.034	-0.163
-668.062	-124.057	-0.134	0.021
-667.047	75.981	-0.178	0.189
-666.032	-126.111	0.085	-0.013
-665.018	-200.000	0.002	0.056
-664.003	127.717	-0.063	0.081
-662.989	169.597	0.085	0.122
-661.974	-68.779	-0.283	0.110
-660.959	245.556	0.162	-0.274
-659.945	-72.135	0.129	-0.048
-658.930	-46.451	-0.201	-0.099
-657.916	20.705	0.059	0.048
-656.901	46.637	-0.081	-0.076
-655.886	-40.285	-0.203	-0.106
-654.872	-100.672	0.304	0.076
-653.857	705.726	0.113	-0.300
-652.843	-200.000	0.022	0.107
-651.828	617.340	0.044	0.112
-650.814	88.083	0.227	0.253
-649.799	4.300	0.153	-0.112
-648.784	-87.130	0.278	-0.085
-647.770	62.581	0.213	0.214
-646.755	800.000	0.104	-0.438
-645.741	-137.658	0.210	-0.024
-644.726	-175.552	0.280	-0.008
-643.711	-2.892	-0.206	0.144
-642.697	-0.598	-0.147	-0.105
-641.682	104.964	-0.155	-0.183
-640.668	-58.260	-0.140	0.061
-639.653	-128.541	-0.107	0.015
-638.638	141.065	0.160	-0.213
-637.624	-200.000	-0.016	-0.315
-636.609	83.434	0.179	-0.196
-635.595	-42.202	-0.202	0.104
-634.580	300.807	0.137	-0.253
-633.565	270.141	-0.028	0.049
-632.551	72.583	-0.138	-0.145
-631.536	-42.653	0.145	-0.074
-630.522	-37.516	0.143	0.077
-629.507	239.520	0.175	-0.292
-628.492	126.662	-0.124	-0.158
-627.478	-159.517	0.349	0.019
-626.463	24.885	-0.177	0.147
-625.449	-76.581	-0.221	-0.078
-624.434	-28.076	0.165	0.096
-623.419	82.051	-0.261	-0.284
-622.405	97.447	0.126	-0.145
-621.390	-200.000	0.004	0.106
-620.376	4.536	-0.125	0.092
-619.361	-79.903	0.108	0.036
-618.346	357.172	0.007	-0.014
-617.332	-129.377	-0.177	0.025
-616.317	-70.274	-0.216	-0.082
-615.303	516.062	0.076	0.177
-614.288	-200.000	0.007	-0.184
-613.273	-200.000	-0.080	-0.414
-612.259	103.865	-0.226	-0.267
-611.244	800.000	-0.098	-0.332
-610.230	-77.130	0.313	0.110
-609.215	-200.000	-0.003	0.195
-608.201	40.848	0.069	-0.062
-607.186	321.438	-0.075	0.143
-606.171	-200.000	-0.023	0.116
-605.157	20.692	-0.103	-0.083
-604.142	800.000	0.067	-0.231
-603.128	-27.678	-0.143	0.083
-602.113	-200.000	0.021	0.157
-601.098	-58.425	0.165	0.072
-600.084	-133.215	0.262	-0.033
-599.069	441.284	0.063	0.137
-598.055	108.022	-0.125	0.149
-597.040	-200.000	-0.022	-0.113
-596.025	-71.828	-0.078	-0.029
-595.011	90.738	-0.163	-0.183
-593.996	800.000	-0.048	-0.178
-592.982	-35.564	0.413	-0.225
-591.967	294.077	-0.084	0.154
-590.952	-93.901	0.317	-0.087
-589.938	-43.037	-0.249	-0.127
-588.923	-0.115	0.192	-0.137
-587.909	-54.660	0.094	0.043
-586.894	-200.000	0.046	-0.273
-585.879	-125.073	-0.065	0.010
-584.865	-86.911	0.210	-0.064
-583.850	-200.000	-0.015	0.098
-582.836	-24.865	-0.042	-0.025
-581.821	-68.737	-0.261	-0.101
-580.806	233.404	-0.113	-0.186
-579.792	800.000	-0.030	-0.085
-578.777	800.000	-0.063	-0.190
-577.763	-88.016	0.216	-0.065
-576.748	-200.000	0.028	-0.174
-575.733	231.901	0.143	-0.235
-574.719	800.000	-0.078	-0.225
-573.704	-46.565	-0.299	-0.147
-572.690	800.000	-0.125	0.356
-571.675	229.144	0.102	0.168
-570.661	790.314	-0.098	-0.269
-569.646	734.708	-0.110	-0.296
-568.631	-26.550	0.159	0.094
-567.617	82.850	0.243	-0.264
-566.602	132.220	0.173	0.224
-565.588	171.370	-0.131	-0.188
-564.573	800.000	0.013	-0.052
-563.558	256.247	-0.064	-0.109
-562.544	-58.968	0.147	-0.064
-561.529	91.065	-0.180	0.203
-560.515	117.563	-0.256	0.315
-559.500	-200.000	0.002	0.051
-558.485	-69.296	-0.234	-0.090
-557.471	-118.848	0.129	0.023
-556.456	-49.775	-0.176	-0.084
-555.442	319.231	0.134	-0.254
-554.427	-200.000	0.008	0.343
-553.412	-200.000	-0.007	-0.070
-552.398	285.195	0.038	0.068
-551.383	788.971	-0.044	-0.121
-550.369	-81.794	-0.276	0.091
-549.354	-200.000	-0.001	0.268
-548.339	-144.786	0.330	0.030
-547.325	-200.000	-0.023	0.283
-546.310	-169.619	0.209	0.008
-545.296	-89.793	-0.202	-0.059
-544.281	-184.044	-0.152	0.003
-543.266	-181.797	0.173	-0.003
-542.252	-200.000	0.029	0.262
-541.237	-134.637	0.169	0.021
-540.223	21.785	-0.332	0.271
-539.208	-200.000	0.006	-0.177
-538.193	-182.220	-0.229	-0.004
-537.179	800.000	-0.049	0.192
-536.164	536.129	0.116	0.275
-535.150	90.226	-0.068	0.076
-534.135	-34.862	-0.139	0.076
-533.121	-200.000	-0.002	0.099
-532.106	-200.000	0.003	-0.058
-531.091	-34.363	-0.309	0.170
-530.077	101.552	-0.210	-0.245
-529.062	-14.351	0.189	-0.122
-528.048	-200.000	0.020	-0.098
-527.033	79.384	0.156	0.167
-526.018	-52.942	0.174	-0.080
-525.004	734.485	-0.062	-0.167
-523.989	800.000	-0.047	-0.182
-522.975	259.079	0.191	0.330
-521.960	102.834	0.165	0.193
-520.945	-200.000	-0.011	0.367
-519.931	9.263	-0.230	-0.174
-518.916	-127.107	-0.172	0.025
-517.902	800.000	0.045	0.148
-516.887	-75.687	0.025	-0.009
-515.872	-15.542	-0.132	0.084
-514.858	-157.231	-0.109	-0.007
-513.843	4.848	0.144	-0.106
-512.829	-40.317	0.059	0.031
-511.814	-151.207	-0.357	-0.027
-510.799	-200.000	-0.012	0.164
-509.785	-68.516	-0.207	-0.080
-508.770	604.409	0.099	-0.246
-507.756	-200.000	-0.053	-0.280
-506.741	36.527	-0.169	0.149
-505.726	221.453	-0.052	0.083
-504.712	-6.124	-0.217	-0.148
-503.697	97.270	-0.129	0.148
-502.683	-12.359	-0.249	-0.163
-501.668	-83.931	-0.091	-0.029
-500.653	-200.000	0.009	0.069
-499.639	777.651	-0.096	-0.263
-498.624	326.069	-0.096	0.183
-497.610	800.000	-0.010	-0.030
-496.595	40.498	-0.082	0.074
-495.581	-9.531	0.257	-0.171
-494.566	101.576	0.172	0.200
-493.551	32.035	-0.187	-0.161
-492.537	-200.000	-0.036	-0.214
-491.522	-200.000	-0.003	-0.034
-490.508	-200.000	-0.027	0.160
-489.493	-90.708	-0.210	-0.061
-488.478	276.761	-0.049	-0.087
-487.464	-63.253	-0.361	-0.149
-486.449	-94.364	0.359	-0.098
-485.435	79.266	0.135	-0.145
-484.420	-147.037	-0.200	-0.017
-483.405	-200.000	0.018	-0.391
-482.391	-6.994	-0.364	-0.247
-481.376	-5.272	-0.154	-0.106
-480.362	-14.172	-0.048	0.031
-479.347	-200.000	-0.092	-0.552
-478.332	178.827	-0.134	-0.195
-477.318	-200.000	-0.023	-0.159
-476.303	-87.495	-0.156	-0.047
-475.289	-184.367	0.343	-0.006
-474.274	-6.335	-0.317	0.216
-473.259	800.000	0.007	-0.025
-472.245	61.234	0.123	-0.122
-471.230	-104.302	-0.285	0.066
-470.216	-60.603	-0.268	0.114
-469.201	438.038	-0.058	-0.126
-468.186	-44.220	0.201	-0.101
-467.172	69.285	0.239	-0.246
-466.157	268.284	0.070	0.123
-465.143	800.000	0.095	0.282
-464.128	3.763	0.161	0.117
-463.113	-143.531	-0.372	0.035
-462.099	-103.303	-0.024	0.006
-461.084	800.000	0.032	-0.111
-460.070	509.929	0.124	-0.287
-459.055	-197.622	-0.222	0.001
-458.040	130.938	-0.145	0.186
-457.026	-40.551	0.325	0.168
-456.011	280.099	-0.053	0.095
-454.997	-200.000	-0.076	0.396
-453.982	-200.000	-0.030	0.237
-452.968	800.000	0.051	-0.168
-451.953	14.303	-0.089	0.069
-450.938	-59.998	-0.146	-0.062
-449.924	167.100	0.240	0.339
-448.909	370.874	0.097	-0.197
-447.895	-127.525	-0.546	-0.079
-446.880	40.296	0.271	-0.244
-445.865	-72.532	0.313	0.115
-444.851	139.865	-0.095	-0.125
-443.836	-8.978	-0.191	-0.128
-442.822	-90.701	0.119	0.034
-441.807	800.000	0.046	-0.127
-440.792	-69.898	0.172	0.065
-439.778	149.455	-0.173	0.233
-438.763	-4.809	0.168	-0.115
-437.749	-80.338	0.261	-0.087
-436.734	-200.000	-0.032	0.152
-435.719	-200.000	-0.046	-0.206
-434.705	-20.061	0.167	-0.103
-433.690	-200.000	-0.013	0.191
-432.676	329.458	-0.025	-0.049
-431.661	-72.924	-0.222	-0.081
-430.646	19.822	0.268	0.215
-429.632	-49.935	0.501	0.237
-428.617	453.749	0.103	-0.227
-427.603	254.811	0.080	-0.136
-426.588	-54.706	-0.352	-0.158
-425.573	221.637	0.032	-0.051
-424.559	23.149	-0.269	0.220
-423.544	68.674	0.127	-0.130
-422.530	-200.000	-0.057	0.373
-421.515	267.280	-0.062	0.108
-420.500	-200.000	0.004	-0.116
-419.486	205.772	0.093	0.145
-418.471	660.696	0.075	0.193
-417.457	670.307	-0.015	0.038
-416.442	93.398	0.151	0.170
-415.428	-88.258	0.290	0.086
-414.413	566.054	0.115	-0.278
-413.398	-127.032	0.438	0.064
-412.384	396.184	0.071	-0.147
-411.369	-26.512	-0.220	-0.128
-410.355	-65.613	0.275	-0.110
-409.340	148.321	-0.142	-0.190
-408.325	-83.308	0.275	0.088
-407.311	-158.736	0.139	0.008
-406.296	338.114	-0.083	0.161
-405.282	-200.000	0.022	0.124
-404.267	-6.110	-0.319	-0.217
-403.252	-151.684	0.047	-0.003
-402.238	286.233	0.057	-0.103
-401.223	46.445	0.222	0.205
-400.209	289.089	0.110	0.199
-399.194	144.563	-0.009	0.012
-398.179	115.125	-0.043	0.052
-397.165	451.989	-0.075	0.165
-396.150	177.404	0.155	-0.225
-395.136	-200.000	0.068	0.378
-394.121	679.251	-0.103	0.266
-393.106	-50.647	-0.040	0.019
-392.092	6.132	0.203	0.150
-391.077	-29.661	0.454	0.258
-390.063	-200.000	-0.067	0.349
-389.048	-200.000	-0.005	-0.226
-388.033	105.727	0.087	-0.102
-387.019	-152.548	-0.185	0.013
-386.004	-200.000	0.053	-0.471
-384.990	-109.037	0.029	0.006
-383.975	800.000	0.026	0.081
-382.960	177.266	-0.050	-0.073
-381.946	-13.729	0.040	-0.026
-380.931	-100.151	-0.403	0.100
-379.917	-70.419	0.074	0.028
-378.902	-200.000	-0.055	0.275
-377.888	-200.000	0.006	0.221
-376.873	246.814	-0.145	-0.244
-375.858	147.993	-0.215	-0.288
-374.844	200.496	0.115	-0.176
-373.829	-200.000	0.104	-0.485
-372.815	64.170	-0.099	-0.099
-371.800	-140.707	-0.223	0.023
-370.785	800.000	-0.015	-0.053
-369.771	59.578	0.135	-0.133
-368.756	-164.420	-0.159	0.007
-367.742	-116.429	0.398	0.073
-366.727	-200.000	-0.023	0.322
-365.712	-58.563	0.291	-0.125
-364.698	-57.932	0.080	0.035
-363.683	-13.614	-0.237	0.152
-362.669	268.031	0.101	0.176
-361.654	315.138	0.058	-0.108
-360.639	-17.804	0.198	-0.123
-359.625	-54.255	0.145	0.065
-358.610	262.722	-0.077	0.133
-357.596	53.530	-0.113	0.108
-356.581	135.556	-0.088	0.114
-355.566	-146.546	0.383	-0.033
-354.552	-100.171	0.461	-0.114
-353.537	800.000	0.079	-0.254
-352.523	-200.000	-0.036	-0.294
-351.508	30.085	0.136	-0.115
-350.493	-137.690	-0.056	-0.006
-349.479	4.095	-0.113	0.082
-348.464	-61.077	-0.075	0.032
-347.450	-7.427	-0.251	0.169
-346.435	-91.385	0.110	-0.031
-345.420	800.000	-0.027	0.079
-344.406	-200.000	0.003	-0.288
-343.391	-200.000	0.012	0.366
-342.377	-105.089	0.061	-0.014
-341.362	-200.000	0.003	-0.329
-340.348	800.000	0.125	0.386
-339.333	78.392	0.041	0.043
-338.318	-80.409	-0.086	0.029
-337.304	-57.014	0.229	0.100
-336.289	425.322	-0.027	0.057
-335.275	-200.000	-0.020	0.187
-334.260	46.619	0.159	0.146
-333.245	87.797	0.181	-0.199
-332.231	587.496	-0.049	0.121
-331.216	204.290	0.239	0.368
-330.202	25.893	0.243	-0.201
-329.187	56.222	-0.284	0.274
-328.172	800.000	-0.079	-0.217
-327.158	-200.000	0.001	0.325
-326.143	-68.113	-0.294	-0.114
-325.129	394.828	0.036	-0.075
-324.114	519.317	0.101	0.234
-323.099	-31.423	-0.239	0.133
-322.085	507.882	-0.045	-0.103
-321.070	177.904	-0.087	-0.126
-320.056	800.000	0.068	-0.287
-319.041	125.090	0.087	-0.109
-318.026	-200.000	-0.016	-0.144
-317.012	207.343	0.097	0.150
-315.997	-200.000	-0.035	0.185
-314.983	18.763	0.094	-0.074
-313.968	-21.027	-0.162	-0.099
-312.953	-200.000	0.006	0.150
-311.939	98.131	-0.328	-0.375
-310.924	126.699	-0.115	-0.144
-309.910	-103.837	0.256	-0.059
-308.895	283.447	0.051	0.091
-307.880	2.304	-0.274	-0.197
-306.866	-147.584	-0.145	-0.012
-305.851	-200.000	-0.063	-0.366
-304.837	-83.940	-0.337	0.106
-303.822	-150.554	0.252	0.019
-302.807	-200.000	-0.027	-0.139
-301.793	800.000	-0.058	-0.167
-300.778	-81.654	0.147	-0.048
-299.764	-149.020	-0.031	0.002
-298.749	-79.959	-0.173	-0.058
-297.735	-200.000	-0.053	0.325
-296.720	104.426	-0.277	0.324
-295.705	704.204	0.130	0.340
-294.691	149.182	0.199	-0.267
-293.676	-97.930	-0.062	-0.016
-292.662	174.266	-0.152	0.218
-291.647	-200.000	-0.008	-0.181
-290.632	391.550	0.134	0.276
-289.618	373.187	0.030	-0.060
-288.603	-200.000	-0.027	-0.292
-287.589	800.000	-0.067	-0.253
-286.574	-88.684	-0.122	0.036
-285.559	117.399	-0.193	0.235
-284.545	-4.565	-0.076	-0.052
-283.530	-46.328	0.115	0.056
-282.516	224.596	-0.112	0.179
-281.501	-45.104	-0.110	0.054
-280.486	168.168	-0.189	-0.266
-279.472	354.623	-0.074	0.145
-278.457	-200.000	0.032	-0.154
-277.443	-117.598	-0.067	0.012
-276.428	800.000	-0.151	0.603
-275.413	-52.857	-0.112	0.051
-274.399	800.000	-0.036	0.144
-273.384	221.081	0.094	0.150
-272.370	-42.980	0.033	-0.016
-271.355	-200.000	0.003	0.100
-270.340	189.697	-0.108	-0.160
-269.326	-120.078	-0.079	0.013
-268.311	33.092	-0.184	0.158
-267.297	123.726	0.100	-0.125
-266.282	399.193	0.082	0.170
-265.267	-200.000	-0.004	0.189
-264.253	610.514	-0.009	-0.021
-263.238	-200.000	-0.038	-0.244
-262.224	-57.792	0.105	0.045
-261.209	-91.912	0.201	0.056
-260.195	-10.967	0.208	-0.136
-259.180	-121.653	0.043	0.007
-258.165	-121.543	0.123	0.020
-257.151	75.447	-0.032	0.034
-256.136	97.974	0.092	-0.105
-255.122	453.135	-0.066	0.145
-254.107	-18.941	-0.229	-0.141
-253.092	-97.743	0.164	-0.042
-252.078	-67.457	0.210	-0.082
-251.063	-200.000	-0.022	-0.127
-250.049	-36.260	-0.140	0.075
-249.034	-97.592	0.221	-0.057
-248.019	470.826	-0.078	0.173
-247.005	32.713	-0.307	0.263
-245.990	-200.000	-0.014	0.140
-244.976	107.783	0.059	-0.070
-243.961	198.993	0.104	0.157
-242.946	800.000	-0.045	0.175
-241.932	27.978	0.111	0.092
-240.917	77.096	0.233	0.245
-239.903	68.281	-0.191	-0.193
-238.888	725.095	-0.139	-0.366
-237.873	-200.000	0.226	0.001
-236.859	-38.343	-0.185	0.097
-235.844	422.529	-0.147	0.313
-234.830	-75.946	0.098	-0.034
-233.815	360.505	-0.121	0.240
-232.800	800.000	0.087	0.372
-231.786	-200.000	0.184	-0.001
-230.771	256.051	-0.119	0.203
-229.757	-85.661	-0.238	0.073
-228.742	402.789	0.049	0.102
-227.727	-110.636	0.312	0.064
-226.713	257.132	-0.100	-0.171
-225.698	32.833	-0.138	0.118
-224.684	-186.916	-0.113	-0.002
-223.669	-14.075	0.075	-0.048
-222.655	-116.879	-0.082	-0.015
-221.640	800.000	-0.019	0.075
-220.625	-200.000	0.045	-0.208
-219.611	-200.000	0.031	0.204
-218.596	309.282	-0.078	-0.145
-217.582	-15.284	-0.356	0.225
-216.567	-178.733	-0.357	-0.008
-215.552	46.300	0.167	0.153
-214.538	-8.043	-0.250	0.166
-213.523	108.701	-0.180	0.212
-212.509	800.000	0.033	-0.102
-211.494	-124.303	-0.215	-0.033
-210.479	98.201	0.045	-0.052
-209.465	-200.000	-0.022	-0.139
-208.450	-64.166	0.076	0.031
-207.436	417.286	-0.041	-0.088
-206.421	151.793	0.167	0.225
-205.406	73.074	0.158	0.163
-204.392	785.880	-0.089	-0.242
-203.377	80.990	0.125	0.133
-202.363	184.819	0.145	-0.212
-201.348	-90.165	0.033	-0.010
-200.333	-128.110	-0.187	0.027
-199.319	-42.578	0.148	-0.074
-198.304	-103.476	-0.186	0.043
-197.290	65.666	-0.092	-0.092
-196.275	-20.646	0.234	-0.142
-195.260	256.702	0.132	-0.224
-194.246	216.998	0.054	-0.085
-193.231	282.189	0.093	-0.165
-192.217	146.975	-0.213	0.283
-191.202	-18.421	0.247	0.152
-190.187	-89.713	0.426	0.123
-189.173	-200.000	0.094	-0.520
-188.158	102.609	0.235	-0.271
-187.144	-23.048	-0.101	-0.060
-186.129	-200.000	-0.026	0.256
-185.114	-70.092	0.324	0.122
-184.100	-113.166	0.093	-0.018
-183.085	24.493	0.185	0.151
-182.071	287.661	0.127	-0.226
-181.056	141.063	-0.132	0.172
-180.042	2.083	-0.031	0.022
-179.027	-10.783	0.340	0.222
-178.012	22.941	-0.344	-0.279
-176.998	49.654	0.271	0.252
-175.983	-85.301	0.168	-0.052
-174.969	271.699	-0.106	0.185
-173.954	-51.984	0.068	0.031
-172.939	114.107	0.074	-0.089
-171.925	76.669	-0.034	-0.035
-170.910	82.295	0.191	-0.204
-169.896	-200.000	-0.001	-0.079
-168.881	116.345	-0.187	0.226
-167.866	-184.142	-0.241	0.004
-166.852	-34.581	-0.087	-0.047
-165.837	251.143	0.104	0.174
-164.823	378.969	-0.115	0.233
-163.808	-10.854	0.214	0.140
-162.793	-8.124	-0.248	-0.165
-161.779	-200.000	0.029	0.350
-160.764	236.897	-0.243	0.398
-159.750	149.010	-0.186	0.248
-158.735	-200.000	0.028	0.180
-157.720	-66.649	0.218	0.085
-156.706	-200.000	0.023	-0.177
-155.691	5.395	0.325	0.236
-154.677	-200.000	-0.003	0.239
-153.662	64.083	0.179	-0.178
-152.647	800.000	-0.020	-0.067
-151.633	-116.184	-0.063	0.012
-150.618	-200.000	0.013	-0.106
-149.604	203.107	-0.060	-0.091
-148.589	114.075	0.067	-0.081
-147.574	-200.000	0.036	0.401
-146.560	10.041	-0.307	-0.230
-145.545	87.822	0.134	0.146
-144.531	108.097	0.321	-0.378
-143.516	60.349	0.124	0.121
-142.502	-110.433	-0.234	0.048
-141.487	-34.155	-0.153	0.083
-140.472	-2.212	0.247	0.171
-139.458	533.975	-0.072	-0.167
-138.443	261.024	-0.110	0.187
-137.429	-73.722	-0.172	0.062
-136.414	-29.747	0.108	-0.061
-135.399	-131.866	0.130	0.017
-134.385	-200.000	0.024	0.224
-133.370	-101.525	-0.115	-0.028
-132.356	8.084	0.097	0.072
-131.341	-83.055	0.109	0.035
-130.326	-44.124	-0.501	0.248
-129.312	256.305	0.115	0.195
-128.297	-44.916	0.121	0.060
-127.283	-114.412	0.188	-0.036
-126.268	138.110	0.160	-0.206
-125.253	-200.000	0.003	-0.042
-124.239	116.692	0.222	0.268
-123.224	448.231	0.089	0.193
-122.210	-157.078	0.192	-0.012
-121.195	-200.000	0.087	-0.432
