DTS Sentinel unit serial number:	SN413079Multiplexer serial number:	ORYXHardware model number:	OX4-SRSoftware version number:	ORYX F/W v4.00 Oryx Data Collector v3.7.2.0data status	okinstallation	princeton_trtdifferential loss correction	single-endedforward channel	channel 1reverse channel	N/Adate	2019/09/14time	09:50:35forward acquisition time	60.00reverse acquisition time	0.00gamma	496.2192k internal	0.2316k external	0.2316temperature offset calibration	1.0069default loss term (dB/km)	0.3790temperature slope calibration	1.0000multiplexer offset coefficient	1.0000multiplexer slope coefficient	1.0000fibre end	0.00T internal ref (°C)	32.52T ext. ref 1 (°C)	3.94T ext. ref 2 (°C)	30.70length (m)	temperature (°C)	Stokes	anti-Stokes-747.200	800.000	0.100	-0.286
-746.185	-58.486	-0.053	-0.023
-745.171	25.952	0.198	-0.168
-744.156	-46.180	0.114	0.057
-743.142	800.000	-0.029	-0.091
-742.127	-152.584	-0.479	0.035
-741.112	-125.087	-0.490	-0.076
-740.098	800.000	0.072	0.313
-739.083	91.531	-0.128	0.146
-738.069	88.389	-0.185	0.208
-737.054	800.000	0.043	0.165
-736.039	120.836	-0.138	-0.174
-735.025	25.090	0.178	-0.150
-734.010	-98.874	-0.286	0.074
-732.996	-128.538	0.153	-0.022
-731.981	-17.834	-0.212	-0.134
-730.966	-110.577	-0.135	-0.028
-729.952	-67.120	-0.158	0.063
-728.937	226.943	-0.110	-0.181
-727.923	12.998	-0.216	-0.169
-726.908	-119.740	-0.225	-0.039
-725.894	-200.000	0.020	-0.221
-724.879	-169.457	-0.329	-0.012
-723.864	-200.000	0.010	0.176
-722.850	800.000	0.066	0.271
-721.835	800.000	-0.105	-0.463
-720.821	728.955	-0.089	0.240
-719.806	-200.000	0.002	0.115
-718.791	-145.546	-0.362	0.033
-717.777	-118.268	-0.201	-0.036
-716.762	800.000	-0.023	0.100
-715.748	29.400	0.072	0.062
-714.733	-200.000	-0.040	-0.208
-713.718	-130.474	0.160	0.022
-712.704	-18.551	0.282	-0.178
-711.689	82.967	-0.065	-0.071
-710.675	-200.000	-0.042	-0.196
-709.660	800.000	-0.092	-0.299
-708.645	-141.742	-0.026	0.003
-707.631	-136.780	-0.482	-0.056
-706.616	217.040	0.117	-0.189
-705.602	800.000	0.072	-0.259
-704.587	213.714	0.147	0.234
-703.572	-73.984	-0.140	0.051
-702.558	37.737	0.120	-0.108
-701.543	-200.000	-0.033	0.242
-700.529	-95.403	-0.266	0.072
-699.514	-27.649	-0.288	0.169
-698.499	21.034	-0.258	-0.211
-697.485	-200.000	-0.003	-0.301
-696.470	-93.165	0.042	0.012
-695.456	-78.173	-0.345	0.120
-694.441	41.460	-0.250	-0.229
-693.426	-144.781	-0.242	-0.022
-692.412	-15.799	-0.099	-0.064
-691.397	293.362	-0.105	-0.193
-690.383	152.413	-0.254	0.351
-689.368	33.494	0.141	0.124
-688.354	-200.000	0.027	-0.145
-687.339	-93.397	-0.142	-0.040
-686.324	-167.115	-0.122	0.005
-685.310	140.826	-0.120	0.161
-684.295	254.292	-0.106	-0.183
-683.281	-42.252	-0.251	0.129
-682.266	-21.329	-0.150	0.093
-681.251	-200.000	-0.005	0.194
-680.237	-79.098	0.178	0.061
-679.222	-200.000	0.059	-0.303
-678.208	-141.731	0.337	-0.034
-677.193	800.000	0.056	0.202
-676.178	-200.000	-0.013	0.069
-675.164	-122.677	-0.113	0.019
-674.149	113.755	-0.107	-0.132
-673.135	7.123	-0.264	0.199
-672.120	-113.670	0.080	-0.016
-671.105	-200.000	0.004	-0.083
-670.091	-124.649	-0.119	0.019
-669.076	-57.765	-0.310	-0.137
-668.062	-200.000	0.050	0.223
-667.047	-200.000	0.103	-0.512
-666.032	118.173	0.115	-0.143
-665.018	342.576	0.127	-0.251
-664.003	800.000	-0.039	0.113
-662.989	-200.000	0.014	0.307
-661.974	800.000	-0.012	-0.044
-660.959	800.000	0.032	-0.109
-659.945	-46.758	0.156	0.077
-658.930	-33.368	-0.077	-0.043
-657.916	-57.160	0.128	-0.057
-656.901	19.479	0.170	-0.138
-655.886	132.900	-0.091	-0.119
-654.872	155.936	-0.264	-0.367
-653.857	438.430	0.089	-0.195
-652.843	398.870	0.067	-0.141
-651.828	97.542	0.103	-0.119
-650.814	213.889	-0.160	-0.255
-649.799	-95.906	0.209	0.056
-648.784	-61.032	0.152	0.065
-647.770	7.478	-0.251	-0.189
-646.755	-70.000	0.118	-0.045
-645.741	170.098	0.096	-0.138
-644.726	133.271	-0.015	-0.020
-643.711	-71.806	0.271	0.102
-642.697	-34.771	-0.056	0.031
-641.682	-200.000	0.003	-0.061
-640.668	15.835	0.258	0.205
-639.653	155.540	-0.166	0.231
-638.638	178.782	-0.057	0.084
-637.624	170.443	-0.087	-0.126
-636.609	-91.400	0.255	0.073
-635.595	800.000	0.034	0.103
-634.580	137.560	-0.149	-0.196
-633.565	-200.000	-0.001	0.057
-632.551	744.668	-0.026	0.071
-631.536	-40.979	-0.084	-0.044
-630.522	654.175	-0.037	-0.095
-629.507	-192.871	0.231	-0.002
-628.492	-2.170	-0.224	-0.158
-627.478	64.404	0.219	-0.222
-626.463	70.435	-0.157	-0.163
-625.449	518.028	-0.018	-0.042
-624.434	800.000	0.101	-0.309
-623.419	-109.393	-0.378	-0.081
-622.405	-87.481	0.092	0.028
-621.390	-110.041	-0.199	0.042
-620.376	750.077	0.112	-0.305
-619.361	311.577	-0.119	0.225
-618.346	-46.143	0.288	0.143
-617.332	625.972	0.116	0.295
-616.317	516.934	0.065	0.153
-615.303	24.188	0.238	-0.198
-614.288	355.963	0.108	-0.217
-613.273	-78.877	-0.178	0.061
-612.259	-7.905	-0.113	0.077
-611.244	-129.639	-0.270	0.038
-610.230	-117.241	0.044	0.008
-609.215	-38.506	-0.166	0.088
-608.201	-166.128	-0.072	0.003
-607.186	-200.000	0.042	-0.250
-606.171	-149.909	-0.184	0.015
-605.157	-200.000	-0.035	0.162
-604.142	800.000	-0.072	-0.255
-603.128	53.409	0.242	-0.234
-602.113	506.135	0.170	-0.398
-601.098	-89.630	-0.082	-0.024
-600.084	-200.000	0.007	0.235
-599.069	-101.378	0.193	-0.047
-598.055	-20.319	-0.190	0.118
-597.040	-147.355	0.123	0.011
-596.025	141.784	0.152	-0.203
-595.011	-200.000	-0.030	-0.367
-593.996	86.854	-0.077	-0.085
-592.982	-200.000	-0.011	-0.053
-591.967	-124.373	-0.057	-0.009
-590.952	53.258	-0.241	-0.232
-589.938	800.000	0.056	0.210
-588.923	-29.902	-0.125	0.072
-587.909	418.306	0.108	0.231
-586.894	129.046	-0.263	-0.337
-585.879	105.264	-0.164	-0.195
-584.865	-200.000	-0.013	-0.071
-583.850	-91.080	0.207	0.060
-582.836	19.206	0.168	0.135
-581.821	800.000	0.065	-0.245
-580.806	86.008	0.116	0.128
-579.792	362.323	-0.067	0.134
-578.777	-11.711	-0.269	0.178
-577.763	16.724	-0.184	0.146
-576.748	57.276	-0.185	-0.181
-575.733	152.984	0.121	-0.167
-574.719	-200.000	-0.067	-0.519
-573.704	-95.805	-0.238	-0.064
-572.690	202.056	0.200	-0.311
-571.675	-31.465	0.146	-0.083
-570.661	-52.434	0.017	0.008
-569.646	537.213	-0.058	0.139
-568.631	800.000	-0.050	0.204
-567.617	-152.577	-0.154	0.011
-566.602	-138.677	0.062	-0.007
-565.588	214.862	-0.171	0.273
-564.573	89.892	-0.146	-0.164
-563.558	-62.193	-0.055	0.023
-562.544	-91.144	0.078	0.022
-561.529	-192.109	0.080	-0.001
-560.515	800.000	0.075	-0.223
-559.500	-5.395	-0.349	0.241
-558.485	800.000	0.070	0.222
-557.471	164.157	-0.112	-0.159
-556.456	-159.345	0.231	0.013
-555.442	-158.918	-0.300	0.017
-554.427	-165.452	0.173	-0.008
-553.412	-28.788	-0.077	0.044
-552.398	111.634	0.066	-0.081
-551.383	137.099	-0.133	0.175
-550.369	-85.084	0.340	-0.107
-549.354	-151.890	-0.100	0.007
-548.339	56.334	0.126	-0.123
-547.325	-54.233	-0.183	-0.083
-546.310	-200.000	-0.000	-0.028
-545.296	-127.956	0.227	0.033
-544.281	547.021	0.137	-0.329
-543.266	220.215	-0.248	0.399
-542.252	-98.231	-0.423	-0.109
-541.237	48.883	-0.204	-0.193
-540.223	800.000	0.062	0.193
-539.208	-37.458	0.179	-0.096
-538.193	17.246	-0.172	-0.137
-537.179	-26.861	0.364	-0.214
-536.164	4.960	-0.223	-0.165
-535.150	150.380	0.115	0.157
-534.135	254.117	-0.161	0.277
-533.121	-200.000	0.030	-0.177
-532.106	594.801	0.117	-0.292
-531.091	-153.787	0.071	0.005
-530.077	-53.407	-0.361	-0.166
-529.062	800.000	0.032	-0.108
-528.048	-100.563	0.041	-0.010
-527.033	-28.448	-0.135	-0.078
-526.018	48.745	0.155	-0.146
-525.004	-200.000	0.009	0.120
-523.989	-14.965	0.111	-0.071
-522.975	-141.109	0.177	-0.018
-521.960	-103.112	-0.104	-0.025
-520.945	0.315	0.202	-0.145
-519.931	-135.725	-0.216	-0.026
-518.916	162.836	-0.112	0.158
-517.902	800.000	0.093	0.336
-516.887	138.806	-0.097	-0.128
-515.872	423.551	0.076	-0.164
-514.858	-15.992	0.185	-0.118
-513.843	-26.659	0.196	0.115
-512.829	800.000	-0.060	0.244
-511.814	-24.280	0.118	0.071
-510.799	-87.057	-0.275	-0.084
-509.785	-200.000	0.032	0.182
-508.770	-200.000	-0.012	0.169
-507.756	119.891	0.248	0.308
-506.741	-32.595	0.204	-0.114
-505.726	-41.008	0.127	0.066
-504.712	-139.323	0.232	0.025
-503.697	23.362	-0.198	0.163
-502.683	339.574	-0.179	-0.350
-501.668	159.295	-0.014	-0.019
-500.653	-128.069	0.410	-0.059
-499.639	-34.815	0.174	-0.095
-498.624	171.382	0.121	-0.175
-497.610	-99.581	0.110	-0.028
-496.595	-161.625	0.074	0.004
-495.581	296.532	0.107	0.197
-494.566	87.378	0.181	0.201
-493.551	95.835	0.229	0.262
-492.537	-200.000	-0.008	0.044
-491.522	800.000	-0.049	-0.147
-490.508	250.685	-0.090	-0.154
-489.493	-59.516	0.261	0.113
-488.478	-200.000	-0.015	-0.101
-487.464	186.733	-0.078	-0.116
-486.449	-63.629	-0.200	-0.082
-485.435	130.444	0.034	-0.044
-484.420	19.511	-0.265	0.213
-483.405	-200.000	0.089	0.000
-482.391	-148.944	-0.126	0.010
-481.376	-200.000	-0.006	-0.066
-480.362	-200.000	-0.017	0.088
-479.347	-54.792	0.259	0.117
-478.332	250.503	0.167	-0.284
-477.318	-44.530	0.208	-0.104
-476.303	29.616	0.240	-0.204
-475.289	218.056	0.044	0.071
-474.274	66.094	-0.098	0.099
-473.259	293.311	0.156	-0.285
-472.245	131.830	-0.130	-0.168
-471.230	-200.000	-0.002	-0.271
-470.216	-200.000	0.010	0.146
-469.201	-200.000	0.040	0.200
-468.186	-99.325	-0.364	0.092
-467.172	-149.516	0.184	-0.015
-466.157	-128.833	-0.055	-0.008
-465.143	405.218	-0.146	0.309
-464.128	-58.293	-0.203	0.088
-463.113	12.562	0.175	0.135
-462.099	292.866	-0.132	0.241
-461.084	-200.000	0.011	0.261
-460.070	109.131	-0.173	0.208
-459.055	-79.675	0.177	0.060
-458.040	-28.585	-0.293	-0.169
-457.026	210.471	0.091	0.143
-456.011	-121.562	0.243	-0.040
-454.997	293.107	0.071	-0.131
-453.982	-72.058	-0.372	0.139
-452.968	800.000	-0.077	0.336
-451.953	76.203	0.249	0.264
-450.938	206.607	-0.126	0.197
-449.924	-126.978	-0.117	0.017
-448.909	-200.000	0.030	-0.153
-447.895	-41.328	0.204	-0.105
-446.880	-147.908	-0.288	-0.024
-445.865	-68.015	-0.141	0.055
-444.851	800.000	-0.128	-0.362
-443.836	-200.000	-0.022	0.132
-442.822	82.944	0.173	-0.188
-441.807	-29.446	0.126	0.072
-440.792	11.773	-0.178	-0.137
-439.778	800.000	0.112	-0.481
-438.763	-89.149	-0.235	-0.069
-437.749	400.049	-0.101	-0.213
-436.734	-155.108	-0.244	0.016
-435.719	95.683	-0.181	-0.207
-434.705	-37.826	0.093	-0.050
-433.690	112.215	0.153	-0.185
-432.676	800.000	-0.076	-0.223
-431.661	-41.086	0.225	-0.116
-430.646	11.485	-0.253	0.194
-429.632	105.329	-0.199	0.236
-428.617	-61.854	-0.122	-0.051
-427.603	171.674	-0.035	-0.050
-426.588	6.028	-0.267	-0.198
-425.573	-100.643	0.152	0.038
-424.559	800.000	0.071	-0.238
-423.544	3.011	0.122	0.088
-422.530	-200.000	0.044	0.212
-421.515	-200.000	0.017	-0.168
-420.500	-91.073	-0.058	0.017
-419.486	-200.000	0.013	-0.118
-418.471	-200.000	0.056	-0.247
-417.457	316.499	0.146	0.277
-416.442	-61.274	0.334	-0.141
-415.428	-183.485	0.075	0.001
-414.413	1.890	0.175	0.126
-413.398	-44.074	0.231	0.116
-412.384	-140.527	0.050	-0.005
-411.369	-200.000	0.035	0.228
-410.355	-200.000	-0.009	0.039
-409.340	405.586	-0.035	0.075
-408.325	-133.937	0.272	-0.034
-407.311	121.482	0.098	0.122
-406.296	-178.330	-0.211	-0.005
-405.282	124.173	0.273	0.343
-404.267	800.000	-0.028	0.112
-403.252	-32.185	-0.415	0.232
-402.238	573.104	-0.038	0.094
-401.223	-102.157	0.233	-0.056
-400.209	201.882	-0.170	-0.262
-399.194	206.173	-0.161	0.251
-398.179	11.958	-0.102	0.078
-397.165	-49.843	0.053	0.025
-396.150	800.000	-0.035	0.114
-395.136	440.741	0.053	-0.116
-394.121	140.210	0.239	-0.316
-393.106	372.564	-0.095	-0.193
-392.092	-87.172	0.248	0.075
-391.077	-63.686	0.331	-0.136
-390.063	800.000	0.036	0.141
-389.048	295.219	0.183	-0.335
-388.033	-195.963	-0.424	-0.003
-387.019	-125.413	-0.055	-0.008
-386.004	800.000	-0.011	-0.035
-384.990	-8.848	-0.145	0.097
-383.975	-121.932	0.062	-0.010
-382.960	475.652	0.016	0.036
-381.946	137.498	0.165	-0.216
-380.931	-200.000	0.030	0.190
-379.917	1.788	0.140	-0.100
-378.902	40.397	-0.086	0.077
-377.888	88.087	0.078	-0.086
-376.873	-200.000	-0.026	0.423
-375.858	800.000	-0.066	-0.211
-374.844	-103.863	-0.391	-0.091
-373.829	-13.576	0.105	0.068
-372.815	297.906	0.096	-0.176
-371.800	-159.125	-0.095	-0.005
-370.785	108.561	-0.069	-0.083
-369.771	287.698	0.095	-0.171
-368.756	-56.879	0.199	0.088
-367.742	168.830	0.071	-0.102
-366.727	-120.443	0.220	-0.037
-365.712	621.558	-0.101	-0.253
-364.698	541.161	-0.148	0.353
-363.683	-41.125	-0.284	0.146
-362.669	-196.051	-0.386	-0.003
-361.654	28.791	0.063	-0.053
-360.639	-66.590	-0.337	0.133
-359.625	-100.731	0.280	0.069
-358.610	800.000	0.085	0.303
-357.596	42.175	-0.124	-0.112
-356.581	-8.636	-0.232	-0.156
-355.566	698.060	0.103	0.271
-354.552	167.395	-0.046	0.066
-353.537	-200.000	0.005	0.122
-352.523	532.815	-0.033	-0.078
-351.508	4.405	0.252	-0.184
-350.493	461.054	0.080	-0.177
-349.479	585.539	0.060	-0.146
-348.464	10.391	-0.156	0.119
-347.450	800.000	-0.074	0.282
-346.435	-86.362	-0.139	-0.043
-345.420	495.796	-0.010	0.024
-344.406	-52.220	0.172	0.079
-343.391	-105.203	-0.225	-0.051
-342.377	-126.314	0.179	0.027
-341.362	-200.000	-0.002	0.062
-340.348	-200.000	0.023	0.262
-339.333	-40.445	-0.319	0.165
-338.318	-200.000	-0.038	-0.239
-337.304	-200.000	0.007	-0.382
-336.289	-173.848	-0.177	-0.005
-335.275	-12.470	-0.156	0.101
-334.260	-200.000	0.022	0.360
-333.245	-200.000	0.050	0.234
-332.231	170.695	0.135	-0.193
-331.216	-200.000	-0.011	0.100
-330.202	-152.236	-0.100	0.007
-329.187	-200.000	-0.024	-0.402
-328.172	-200.000	-0.025	-0.379
-327.158	-47.325	-0.314	-0.153
-326.143	5.300	-0.096	0.071
-325.129	-200.000	0.039	-0.284
-324.114	-135.291	-0.123	0.015
-323.099	260.809	0.101	0.174
-322.085	-44.628	0.378	-0.188
-321.070	-122.740	0.061	-0.010
-320.056	36.067	0.095	-0.083
-319.041	-63.370	-0.099	0.041
-318.026	106.768	0.233	0.276
-317.012	-109.225	-0.313	0.066
-315.997	536.993	-0.080	-0.190
-314.983	-69.974	0.131	-0.050
-313.968	800.000	-0.162	-0.469
-312.953	-41.215	0.387	0.199
-311.939	131.434	0.230	-0.294
-310.924	617.670	-0.044	0.111
-309.910	159.044	0.058	0.080
-308.895	-200.000	0.021	0.344
-307.880	78.537	-0.277	0.295
-306.866	66.036	0.230	0.232
-305.851	-112.585	0.130	0.026
-304.837	96.142	-0.124	-0.142
-303.822	-73.349	-0.149	0.054
-302.807	-73.875	-0.290	-0.105
-301.793	-159.172	-0.232	0.013
-300.778	109.432	0.246	0.293
-299.764	211.817	0.208	0.326
-298.749	239.996	0.118	0.195
-297.735	-101.380	0.268	-0.065
-296.720	226.310	0.059	-0.096
-295.705	-200.000	-0.076	-0.463
-294.691	-19.930	0.187	-0.115
-293.676	-25.841	0.263	0.154
-292.662	-200.000	0.009	0.084
-291.647	-200.000	0.007	-0.146
-290.632	-200.000	0.061	0.509
-289.618	-200.000	0.041	0.296
-288.603	-146.905	-0.382	-0.033
-287.589	-4.289	0.134	-0.092
-286.574	643.126	0.179	0.454
-285.559	199.380	0.168	0.256
-284.545	-95.036	-0.170	-0.046
-283.530	-15.100	-0.342	-0.218
-282.516	64.787	0.130	-0.130
-281.501	800.000	0.035	-0.121
-280.486	-200.000	-0.099	-0.491
-279.472	120.964	0.173	0.214
-278.457	-149.146	0.229	0.018
-277.443	168.082	-0.066	-0.093
-276.428	-21.190	0.174	0.106
-275.413	-200.000	-0.013	0.245
-274.399	800.000	-0.094	-0.314
-273.384	-141.050	-0.185	-0.019
-272.370	-200.000	0.073	0.375
-271.355	256.609	0.105	0.179
-270.340	-70.564	-0.162	-0.061
-269.326	-112.121	-0.283	0.057
-268.311	207.630	0.120	-0.186
-267.297	-49.048	0.059	-0.028
-266.282	-200.000	-0.000	-0.097
-265.267	194.804	0.167	-0.252
-264.253	603.417	0.086	0.213
-263.238	-97.775	-0.091	0.023
-262.224	-200.000	0.034	0.179
-261.209	796.128	-0.027	-0.075
-260.195	-132.146	0.077	0.010
-259.180	-107.840	-0.214	-0.046
-258.165	125.796	-0.099	0.124
-257.151	126.277	-0.216	-0.272
-256.136	800.000	0.062	-0.172
-255.122	-122.867	-0.023	-0.004
-254.107	-200.000	-0.010	-0.140
-253.092	-200.000	0.020	-0.210
-252.078	-40.392	0.423	0.219
-251.063	88.458	-0.190	-0.209
-250.049	-27.954	-0.135	-0.078
-249.034	-12.120	-0.158	0.103
-248.019	-200.000	-0.041	-0.197
-247.005	277.085	0.137	-0.242
-245.990	-48.075	-0.096	-0.046
-244.976	-200.000	-0.013	0.065
-243.961	-200.000	-0.004	0.036
-242.946	87.900	0.060	0.066
-241.932	-96.120	0.191	0.050
-240.917	-154.305	-0.307	-0.021
-239.903	87.775	0.210	-0.231
-238.888	-117.843	0.151	-0.027
-237.873	50.278	-0.073	0.069
-236.859	-24.065	0.175	0.104
-235.844	-32.655	-0.211	-0.117
-234.830	-10.299	0.330	-0.217
-233.815	-153.171	-0.527	-0.037
-232.800	103.334	-0.087	-0.102
-231.786	800.000	-0.086	0.271
-230.771	-181.648	0.269	0.005
-229.757	101.267	-0.186	0.215
-228.742	596.395	-0.144	0.354
-227.727	171.371	0.019	0.027
-226.713	41.016	-0.137	0.123
-225.698	31.837	0.270	-0.231
-224.684	-163.156	-0.304	0.015
-223.669	-200.000	0.001	0.057
-222.655	553.326	0.094	0.224
-221.640	54.669	-0.331	0.317
-220.625	-8.641	-0.058	0.038
-219.611	311.998	0.037	0.070
-218.596	255.453	-0.121	-0.206
-217.582	-69.189	-0.478	-0.182
-216.567	575.093	0.066	0.159
-215.552	683.032	-0.028	0.073
-214.538	-93.085	0.531	0.147
-213.523	-200.000	0.002	-0.130
-212.509	-17.099	0.069	-0.043
-211.494	-200.000	-0.022	0.194
-210.479	-200.000	-0.010	0.135
-209.465	86.457	0.149	0.163
-208.450	-109.409	0.127	-0.027
-207.436	-200.000	0.011	-0.196
-206.421	0.380	0.121	0.086
-205.406	-158.998	-0.152	0.009
-204.392	-32.378	0.015	-0.008
-203.377	800.000	0.062	0.202
-202.363	-144.334	0.049	-0.004
-201.348	-166.630	0.179	0.007
-200.333	197.907	-0.117	0.177
-199.319	91.988	0.028	0.031
-198.304	-180.002	-0.265	0.006
-197.290	-181.862	-0.132	0.002
-196.275	-46.403	0.343	0.167
-195.260	173.234	-0.068	0.097
-194.246	-98.221	0.201	-0.051
-193.231	-82.906	-0.107	0.034
-192.217	13.788	-0.115	0.089
-191.202	77.973	0.205	0.217
-190.187	-200.000	0.007	0.091
-189.173	166.101	-0.226	0.318
-188.158	55.616	0.143	-0.137
-187.144	-74.094	0.392	-0.141
-186.129	438.658	0.102	-0.221
-185.114	-98.932	-0.223	0.056
-184.100	-133.683	-0.108	0.013
-183.085	-106.959	0.245	-0.054
-182.071	-172.621	0.248	-0.008
-181.056	-174.506	0.017	-0.000
-180.042	547.155	0.136	0.322
-179.027	-200.000	0.021	0.270
-178.012	72.409	-0.119	0.123
-176.998	-79.154	0.259	0.087
-175.983	63.105	-0.299	-0.297
-174.969	378.929	-0.072	-0.145
-173.954	224.269	-0.147	-0.236
-172.939	35.912	-0.104	0.091
-171.925	-9.156	0.356	-0.236
-170.910	-23.854	-0.774	0.459
-169.896	-109.816	0.365	-0.076
-168.881	264.885	0.106	-0.182
-167.866	-200.000	0.002	-0.068
-166.852	-200.000	0.045	0.205
-165.837	-53.573	-0.200	0.090
-164.823	2.550	-0.124	0.089
-163.808	800.000	-0.097	-0.359
-162.793	-184.685	-0.310	-0.005
-161.779	800.000	0.063	0.211
-160.764	-6.765	-0.164	0.111
-159.750	9.694	0.183	-0.138
-158.735	-144.236	0.210	0.019
-157.720	408.764	0.131	0.275
-156.706	68.644	0.114	0.116
-155.691	-200.000	-0.032	0.145
-154.677	-21.589	0.166	0.100
-153.662	60.248	-0.168	0.165
-152.647	97.797	-0.163	-0.185
-151.633	-73.848	-0.123	-0.044
-150.618	-200.000	0.010	-0.117
-149.604	-60.259	0.284	0.120
-148.589	66.368	0.029	0.029
-147.574	-100.001	0.210	0.052
-146.560	800.000	0.128	-0.357
-145.545	13.526	-0.177	-0.136
-144.531	122.953	0.143	-0.177
-143.516	4.278	-0.349	-0.253
-142.502	124.854	0.183	-0.229
-141.487	-91.721	0.178	0.050
-140.472	147.978	0.127	-0.169
-139.458	800.000	0.066	0.235
-138.443	528.330	0.042	-0.098
-137.429	117.758	-0.045	0.055
-136.414	-200.000	-0.015	-0.097
-135.399	-50.401	-0.327	-0.153
-134.385	-200.000	0.008	0.174
-133.370	-200.000	0.001	-0.066
-132.356	15.486	0.346	0.269
-131.341	270.189	0.188	0.327
-130.326	-153.437	-0.456	-0.031
-129.312	-200.000	-0.038	-0.239
-128.297	46.658	-0.294	-0.270
-127.283	-200.000	-0.001	0.021
-126.268	464.028	0.108	0.238
-125.253	-200.000	-0.043	0.305
-124.239	188.602	-0.176	0.260
-123.224	430.472	-0.051	0.109
-122.210	-11.127	0.260	0.169
