DTS Sentinel unit serial number:	SN413079Multiplexer serial number:	ORYXHardware model number:	OX4-SRSoftware version number:	ORYX F/W v4.00 Oryx Data Collector v3.7.2.0data status	okinstallation	princeton_trtdifferential loss correction	single-endedforward channel	channel 1reverse channel	N/Adate	2019/09/12time	19:57:34forward acquisition time	15.00reverse acquisition time	0.00gamma	496.2192k internal	0.2323k external	0.2323temperature offset calibration	1.0134default loss term (dB/km)	0.3790temperature slope calibration	1.0000multiplexer offset coefficient	1.0000multiplexer slope coefficient	1.0000fibre end	0.00T internal ref (°C)	31.81T ext. ref 1 (°C)	3.47T ext. ref 2 (°C)	26.39length (m)	temperature (°C)	Stokes	anti-Stokes-747.200	-139.193	-0.164	0.018
-746.185	-13.112	0.381	-0.250
-745.171	246.393	-0.276	-0.470
-744.156	-38.080	-0.153	-0.082
-743.142	-144.770	0.666	-0.062
-742.127	-200.000	0.150	0.759
-741.112	800.000	-0.152	0.601
-740.098	101.557	0.158	-0.186
-739.083	136.204	-0.240	0.315
-738.069	800.000	0.110	-0.388
-737.054	34.062	-0.460	0.405
-736.039	-24.992	-0.441	-0.264
-735.025	-99.092	-0.930	0.238
-734.010	-200.000	0.049	-0.242
-732.996	-125.934	-0.668	-0.102
-731.981	-200.000	0.014	-0.579
-730.966	-118.469	0.458	-0.082
-729.952	-50.512	-0.783	0.373
-728.937	800.000	-0.148	-0.445
-727.923	-200.000	0.049	-0.637
-726.908	-142.552	-0.744	0.074
-725.894	689.292	-0.251	-0.663
-724.879	800.000	0.059	-0.203
-723.864	58.557	0.030	-0.029
-722.850	173.005	-0.167	0.243
-721.835	189.658	-0.254	0.385
-720.821	-89.370	0.340	-0.101
-719.806	127.513	-0.202	-0.259
-718.791	71.895	0.069	0.073
-717.777	-200.000	-0.008	0.195
-716.762	-200.000	0.189	-1.003
-715.748	28.959	0.245	0.210
-714.733	290.555	-0.186	0.341
-713.718	-158.054	0.982	-0.058
-712.704	-111.563	0.302	-0.062
-711.689	197.512	-0.377	-0.581
-710.675	-104.185	0.773	0.181
-709.660	-55.170	-0.507	-0.230
-708.645	508.708	-0.225	0.527
-707.631	-128.244	0.309	0.044
-706.616	-104.838	-0.143	0.033
-705.602	800.000	0.140	-0.453
-704.587	11.907	0.507	0.393
-703.572	-50.250	1.016	-0.485
-702.558	-22.882	0.094	0.057
-701.543	449.649	-0.179	-0.399
-700.529	293.962	-0.160	0.295
-699.514	-20.335	-0.405	-0.251
-698.499	-200.000	-0.040	-0.343
-697.485	800.000	-0.340	-1.056
-696.470	261.731	0.383	-0.669
-695.456	-142.894	-0.628	-0.061
-694.441	-134.158	-0.469	-0.058
-693.426	-26.023	0.245	0.145
-692.412	-200.000	0.111	0.928
-691.397	502.298	-0.149	0.348
-690.383	55.018	0.176	-0.172
-689.368	708.893	-0.476	-1.269
-688.354	-200.000	-0.093	-0.521
-687.339	105.471	0.551	0.656
-686.324	139.627	-0.387	-0.514
-685.310	47.798	0.509	-0.479
-684.295	-146.477	-0.508	0.045
-683.281	60.987	0.331	-0.331
-682.266	-200.000	-0.053	0.337
-681.251	-165.349	-0.105	-0.005
-680.237	-154.454	-0.558	0.038
-679.222	6.760	0.476	0.357
-678.208	-200.000	0.086	-0.501
-677.193	-38.639	-0.634	-0.337
-676.178	-200.000	-0.016	-1.223
-675.164	-64.518	0.267	-0.109
-674.149	-38.483	0.420	0.224
-673.135	-61.147	0.321	0.137
-672.120	-200.000	0.055	-0.438
-671.105	-200.000	-0.002	0.085
-670.091	18.972	-0.160	0.129
-669.076	90.077	-0.236	-0.266
-668.062	800.000	-0.025	-0.087
-667.047	7.208	-0.623	-0.468
-666.032	43.221	0.589	-0.542
-665.018	-111.053	0.548	-0.113
-664.003	-64.777	-0.513	0.209
-662.989	122.771	-0.161	-0.203
-661.974	7.571	-0.705	-0.531
-660.959	172.204	-0.524	-0.759
-659.945	214.168	0.778	1.239
-658.930	-87.912	0.244	-0.074
-657.916	800.000	0.180	-0.589
-656.901	800.000	0.019	-0.085
-655.886	-37.991	0.803	-0.429
-654.872	800.000	0.190	-0.539
-653.857	-1.457	-0.330	0.235
-652.843	-200.000	0.153	-0.709
-651.828	-185.732	-0.276	0.004
-650.814	800.000	-0.087	-0.243
-649.799	-200.000	0.134	-0.731
-648.784	268.052	-0.178	-0.313
-647.770	-165.575	0.321	0.014
-646.755	-200.000	0.022	-0.132
-645.741	800.000	0.126	0.512
-644.726	16.652	-0.292	0.232
-643.711	800.000	0.019	0.057
-642.697	501.317	-0.092	-0.213
-641.682	-95.922	0.486	-0.130
-640.668	-1.334	0.226	0.161
-639.653	20.605	-0.603	-0.491
-638.638	-101.259	-0.594	-0.146
-637.624	-200.000	-0.102	0.563
-636.609	96.545	0.489	0.563
-635.595	124.506	-0.366	0.463
-634.580	-132.056	0.409	-0.053
-633.565	257.545	-0.346	0.598
-632.551	-78.555	-0.665	-0.229
-631.536	-127.437	-0.389	-0.057
-630.522	800.000	0.141	0.452
-629.507	115.164	-1.006	1.235
-628.492	-200.000	-0.569	0.002
-627.478	800.000	0.150	-0.507
-626.463	-200.000	0.043	0.592
-625.449	-132.803	0.745	-0.096
-624.434	800.000	-0.194	-0.600
-623.419	-195.087	-0.149	0.001
-622.405	-121.826	-0.619	0.103
-621.390	-81.602	0.309	-0.102
-620.376	-119.515	-0.340	0.059
-619.361	63.544	0.176	0.177
-618.346	-20.739	0.568	0.350
-617.332	449.083	-0.456	-1.009
-616.317	800.000	-0.230	-0.661
-615.303	-200.000	-0.020	-0.197
-614.288	354.618	-0.314	0.626
-613.273	-151.366	-1.277	0.096
-612.259	107.269	0.491	-0.587
-611.244	-35.709	0.346	0.188
-610.230	-68.133	-0.695	0.272
-609.215	-34.705	-0.089	0.049
-608.201	-147.666	-0.765	-0.065
-607.186	800.000	-0.148	0.540
-606.171	-95.779	-1.047	0.281
-605.157	-12.949	-0.362	-0.237
-604.142	192.875	0.381	-0.578
-603.128	-92.931	-0.313	0.088
-602.113	298.608	-0.277	-0.512
-601.098	-200.000	-0.142	1.038
-600.084	-200.000	0.128	-1.400
-599.069	139.326	0.275	-0.363
-598.055	176.193	-0.217	0.317
-597.040	-200.000	-0.042	-0.192
-596.025	-132.933	0.561	0.072
-595.011	24.826	0.214	-0.178
-593.996	-1.856	-0.313	0.221
-592.982	337.433	-0.293	-0.571
-591.967	-130.285	0.660	0.090
-590.952	800.000	0.042	-0.168
-589.938	125.161	-0.171	-0.216
-588.923	120.363	-0.836	1.042
-587.909	30.939	0.412	-0.355
-586.894	28.521	-0.533	-0.452
-585.879	-27.562	0.183	-0.107
-584.865	204.627	-0.284	-0.442
-583.850	98.836	-0.456	0.529
-582.836	-200.000	-0.006	0.495
-581.821	135.759	-0.520	0.680
-580.806	800.000	-0.235	0.792
-579.792	800.000	-0.145	-0.496
-578.777	800.000	0.187	-0.523
-577.763	-200.000	-0.065	0.552
-576.748	800.000	-0.089	-0.281
-575.733	-200.000	0.060	0.561
-574.719	800.000	0.133	-0.482
-573.704	-70.383	0.846	0.322
-572.690	101.373	-0.318	0.371
-571.675	-200.000	0.071	0.405
-570.661	800.000	0.118	0.468
-569.646	-200.000	-0.038	-0.302
-568.631	-53.724	0.201	-0.092
-567.617	-130.941	-0.675	0.091
-566.602	-148.715	0.594	-0.048
-565.588	224.079	-0.082	0.133
-564.573	298.985	-0.543	-1.002
-563.558	-35.194	-0.491	-0.268
-562.544	384.523	0.032	0.067
-561.529	-30.717	-0.953	0.540
-560.515	-200.000	-0.060	0.598
-559.500	-166.016	-0.682	0.029
-558.485	-94.149	0.758	-0.208
-557.471	-60.638	-0.207	0.088
-556.456	158.080	-0.417	0.580
-555.442	39.552	-0.503	0.452
-554.427	30.351	0.752	0.644
-553.412	25.626	0.615	-0.513
-552.398	-200.000	0.114	-0.532
-551.383	-118.170	-0.619	-0.111
-550.369	-41.266	0.702	-0.363
-549.354	800.000	-0.128	-0.477
-548.339	-200.000	-0.008	0.292
-547.325	-200.000	0.047	-0.429
-546.310	-200.000	0.001	0.365
-545.296	-123.726	0.607	0.096
-544.281	-200.000	0.055	0.750
-543.266	-63.148	0.482	-0.199
-542.252	-18.804	-0.343	-0.214
-541.237	135.183	-0.162	-0.211
-540.223	158.289	0.488	-0.679
-539.208	263.906	-0.432	0.753
-538.193	-200.000	-0.107	0.506
-537.179	46.182	-0.687	0.638
-536.164	291.828	0.358	0.653
-535.150	478.441	-0.075	0.169
-534.135	608.958	0.122	0.305
-533.121	-200.000	0.122	0.980
-532.106	-0.789	-0.520	-0.369
-531.091	-16.087	0.665	-0.424
-530.077	-5.085	-0.532	0.367
-529.062	-15.782	0.506	-0.323
-528.048	564.514	-0.189	0.460
-527.033	367.038	0.195	-0.394
-526.018	-200.000	0.012	-0.359
-525.004	148.937	-0.405	-0.549
-523.989	-53.416	0.715	0.328
-522.975	-43.130	0.468	-0.237
-521.960	-200.000	0.064	0.675
-520.945	-200.000	0.098	-0.848
-519.931	76.290	-0.396	-0.420
-518.916	-200.000	0.155	0.937
-517.902	91.698	0.449	-0.505
-516.887	-54.568	-0.239	0.108
-515.872	255.382	-0.125	0.215
-514.858	-14.540	-0.440	-0.283
-513.843	339.562	-0.213	0.416
-512.829	80.650	-0.248	0.267
-511.814	-200.000	-0.072	0.963
-510.799	800.000	-0.332	0.926
-509.785	-69.315	-1.012	-0.389
-508.770	467.448	-0.140	0.314
-507.756	-119.598	0.250	-0.043
-506.741	197.981	-0.476	0.729
-505.726	343.088	0.295	0.577
-504.712	-71.856	0.441	-0.164
-503.697	-2.244	-0.354	0.249
-502.683	-144.859	0.621	-0.057
-501.668	373.423	0.187	-0.380
-500.653	-145.659	-0.399	-0.036
-499.639	-48.251	0.324	-0.156
-498.624	107.228	0.347	-0.412
-497.610	-82.010	0.565	-0.185
-496.595	800.000	-0.227	0.632
-495.581	109.015	-0.393	-0.470
-494.566	-200.000	0.045	0.312
-493.551	325.869	-0.266	-0.509
-492.537	-84.712	-0.186	0.058
-491.522	-200.000	0.010	-0.511
-490.508	-28.068	-0.487	0.282
-489.493	60.579	0.041	0.041
-488.478	-200.000	-0.027	0.129
-487.464	-200.000	-0.005	0.049
-486.449	800.000	0.049	-0.152
-485.435	-22.354	0.134	-0.081
-484.420	-137.122	0.129	0.015
-483.405	-167.547	1.059	0.042
-482.391	-65.101	-0.504	0.203
-481.376	97.886	-0.653	-0.750
-480.362	101.371	0.583	0.679
-479.347	103.796	0.202	-0.237
-478.332	-200.000	-0.011	0.091
-477.318	395.242	0.041	-0.085
-476.303	132.866	0.472	-0.609
-475.289	64.886	0.552	0.557
-474.274	797.845	0.309	-0.851
-473.259	-200.000	-0.045	-0.428
-472.245	-200.000	-0.013	0.537
-471.230	-106.771	-0.282	0.063
-470.216	273.834	-0.293	0.518
-469.201	-19.762	0.075	0.046
-468.186	22.372	0.349	-0.285
-467.172	-81.698	-0.472	0.155
-466.157	-49.805	0.635	0.301
-465.143	-77.763	0.407	-0.140
-464.128	69.824	0.444	-0.458
-463.113	-144.648	0.967	-0.089
-462.099	-200.000	-0.052	0.466
-461.084	800.000	-0.127	0.521
-460.070	42.227	-0.095	0.086
-459.055	-9.139	1.049	-0.701
-458.040	-200.000	-0.046	-0.292
-457.026	-97.279	0.450	-0.117
-456.011	-200.000	-0.018	-0.168
-454.997	114.282	0.885	-1.076
-453.982	236.269	-0.098	0.162
-452.968	-104.418	-0.524	0.121
-451.953	196.570	0.695	1.057
-450.938	800.000	0.238	0.742
-449.924	60.881	-0.502	0.498
-448.909	-127.664	0.475	0.069
-447.895	800.000	-0.272	0.829
-446.880	93.147	-0.380	0.429
-445.865	-62.604	0.549	-0.227
-444.851	453.202	-0.306	0.677
-443.836	-191.500	0.317	-0.003
-442.822	178.563	0.433	-0.631
-441.807	18.893	0.726	-0.581
-440.792	10.006	0.076	-0.058
-439.778	544.443	0.225	-0.536
-438.763	94.724	0.575	0.653
-437.749	-30.438	-0.546	-0.309
-436.734	-148.502	-0.599	-0.049
-435.719	-44.368	-0.149	0.074
-434.705	-200.000	0.176	0.775
-433.690	800.000	0.154	-0.442
-432.676	-17.342	0.158	-0.099
-431.661	226.502	0.030	0.048
-430.646	205.442	-0.351	-0.543
-429.632	800.000	0.144	0.446
-428.617	474.441	0.019	-0.042
-427.603	-33.039	-0.473	-0.262
-426.588	-17.970	0.661	-0.413
-425.573	540.628	-0.487	1.157
-424.559	-52.556	0.127	0.058
-423.544	-93.712	-0.569	-0.156
-422.530	181.361	0.311	-0.456
-421.515	-73.781	-0.451	0.163
-420.500	-70.041	-1.170	-0.444
-419.486	344.142	-0.127	-0.249
-418.471	-80.372	0.620	-0.206
-417.457	368.343	0.101	0.204
-416.442	111.748	-0.390	-0.469
-415.428	-8.913	-0.870	-0.581
-414.413	800.000	-0.227	-0.805
-413.398	-200.000	0.142	-0.692
-412.384	-72.506	-0.715	0.263
-411.369	-126.658	0.307	0.045
-410.355	29.954	0.186	0.158
-409.340	683.862	0.235	0.610
-408.325	-146.235	0.020	-0.002
-407.311	-78.960	-0.685	0.232
-406.296	96.493	-0.384	0.438
-405.282	-44.680	0.052	-0.026
-404.267	-200.000	-0.157	0.857
-403.252	-200.000	0.078	0.845
-402.238	142.724	0.245	-0.325
-401.223	-200.000	0.049	-0.226
-400.209	312.989	-0.315	0.590
-399.194	-200.000	0.024	0.625
-398.179	-200.000	0.001	0.706
-397.165	94.161	-0.178	-0.201
-396.150	235.629	-0.200	-0.330
-395.136	-104.890	-0.604	-0.138
-394.121	499.632	-0.176	-0.404
-393.106	-61.948	0.342	0.143
-392.092	-200.000	0.085	-0.496
-391.077	-70.457	-0.496	0.187
-390.063	-200.000	0.012	0.227
-389.048	800.000	-0.140	-0.489
-388.033	28.309	0.232	0.195
-387.019	-159.884	-1.048	-0.057
-386.004	-200.000	0.038	0.449
-384.990	-200.000	0.092	0.928
-383.975	-92.029	-1.047	-0.295
-382.960	-173.427	0.475	-0.014
-381.946	-133.591	-0.534	0.067
-380.931	-63.250	0.375	0.154
-379.917	-74.154	0.447	0.161
-378.902	374.093	0.160	-0.324
-377.888	-180.306	-0.529	0.011
-376.873	265.191	-0.552	-0.957
-375.858	800.000	0.126	0.427
-374.844	-200.000	-0.066	0.462
-373.829	28.638	-0.207	0.174
-372.815	-150.694	0.383	-0.029
-371.800	184.141	0.164	0.241
-370.785	800.000	0.087	-0.258
-369.771	351.258	-0.156	-0.307
-368.756	-73.549	0.243	-0.088
-367.742	36.154	0.253	-0.221
-366.727	-19.090	-0.416	-0.257
-365.712	60.748	0.246	-0.242
-364.698	322.558	0.058	0.110
-363.683	138.249	0.216	0.281
-362.669	432.756	-0.120	-0.258
-361.654	-36.384	-0.247	-0.132
-360.639	33.955	0.584	-0.506
-359.625	288.909	0.182	-0.328
-358.610	-11.718	-0.277	-0.181
-357.596	51.531	0.579	0.547
-356.581	220.753	-0.236	0.377
-355.566	15.794	0.415	0.325
-354.552	-96.402	-0.140	-0.037
-353.537	-66.803	-0.441	-0.174
-352.523	-36.794	0.095	0.051
-351.508	51.083	-0.892	-0.842
-350.493	15.571	-0.301	0.235
-349.479	68.607	-0.474	0.483
-348.464	158.566	0.177	0.244
-347.450	-200.000	0.017	-0.583
-346.435	-61.361	0.287	0.120
-345.420	-200.000	-0.054	-0.535
-344.406	377.828	0.244	0.497
-343.391	234.960	-0.343	-0.562
-342.377	74.145	0.622	0.649
-341.362	800.000	-0.067	0.271
-340.348	800.000	-0.067	-0.203
-339.333	-132.286	0.163	-0.021
-338.318	-66.259	-0.141	0.056
-337.304	800.000	0.160	0.671
-336.289	-200.000	0.020	0.094
-335.275	376.821	-0.145	0.295
-334.260	-113.374	1.119	0.218
-333.245	453.236	-0.138	-0.304
-332.231	-15.779	-0.289	-0.183
-331.216	-200.000	0.103	0.830
-330.202	-99.623	-0.068	0.017
-329.187	800.000	0.152	0.531
-328.172	185.565	0.286	0.422
-327.158	-200.000	0.048	0.712
-326.143	-200.000	0.072	-0.726
-325.129	217.076	0.135	0.213
-324.114	-200.000	-0.018	0.548
-323.099	20.755	-0.275	0.221
-322.085	510.353	0.085	0.197
-321.070	-200.000	0.108	-0.794
-320.056	-123.150	-0.191	0.030
-319.041	-115.989	0.544	0.101
-318.026	232.793	0.630	-1.029
-317.012	71.274	0.246	-0.253
-315.997	-200.000	0.047	-0.432
-314.983	-117.604	0.460	-0.082
-313.968	-167.177	0.397	-0.016
-312.953	1.708	-0.209	-0.149
-311.939	-200.000	0.003	-0.926
-310.924	108.277	0.354	-0.419
-309.910	112.617	0.348	-0.418
-308.895	649.250	-0.067	0.170
-307.880	-200.000	0.058	0.322
-306.866	-139.413	-0.607	-0.065
-305.851	4.941	0.662	-0.483
-304.837	162.842	-0.362	-0.504
-303.822	237.249	0.394	-0.647
-302.807	-108.355	-0.820	-0.176
-301.793	-3.076	-0.758	-0.525
-300.778	184.222	0.215	0.317
-299.764	-200.000	-0.014	0.220
-298.749	-200.000	0.093	-0.567
-297.735	800.000	0.141	0.584
-296.720	800.000	0.263	-0.840
-295.705	-101.202	0.492	-0.119
-294.691	3.683	-0.528	-0.383
-293.676	800.000	-0.186	-0.601
-292.662	-121.667	0.466	-0.077
-291.647	800.000	0.088	-0.243
-290.632	800.000	0.216	-0.823
-289.618	148.269	0.322	-0.432
-288.603	-14.261	0.889	0.568
-287.589	-19.399	-0.284	-0.175
-286.574	-135.391	-0.626	-0.074
-285.559	-200.000	0.145	0.834
-284.545	1.980	0.428	0.306
-283.530	-20.588	0.056	0.034
-282.516	18.703	0.351	-0.278
-281.501	-24.031	1.076	0.638
-280.486	-111.705	-0.070	0.014
-279.472	116.815	-0.527	-0.642
-278.457	107.517	0.535	0.631
-277.443	450.703	0.366	-0.801
-276.428	229.374	-0.250	0.404
-275.413	800.000	0.288	1.215
-274.399	800.000	-0.074	0.254
-273.384	-160.176	-0.167	0.009
-272.370	3.878	0.977	-0.708
-271.355	482.248	0.497	-1.118
-270.340	104.274	0.346	0.404
-269.326	-200.000	0.006	0.427
-268.311	-200.000	-0.153	-0.974
-267.297	596.359	-0.107	-0.263
-266.282	163.712	-0.118	-0.164
-265.267	20.859	0.275	0.221
-264.253	-50.361	-0.127	-0.059
-263.238	317.108	-0.348	-0.652
-262.224	-115.308	-0.401	0.075
-261.209	-16.570	0.519	-0.326
-260.195	-200.000	-0.002	-0.297
-259.180	-89.875	-0.455	0.132
-258.165	800.000	0.231	0.760
-257.151	-52.731	0.121	-0.055
-256.136	312.398	-0.449	-0.835
-255.122	-55.642	0.459	0.204
-254.107	36.508	0.248	-0.217
-253.092	736.363	-0.121	-0.321
-252.078	80.008	-0.217	-0.231
-251.063	-84.094	-0.953	0.300
-250.049	-143.734	-0.973	0.091
-249.034	-23.424	-0.448	0.267
-248.019	800.000	-0.082	-0.244
-247.005	135.145	0.107	0.138
-245.990	-110.767	0.447	0.091
-244.976	-106.887	0.587	-0.129
-243.961	800.000	-0.179	-0.659
-242.946	35.779	-0.807	-0.703
-241.932	390.630	0.041	0.084
-240.917	-4.433	0.050	0.034
-239.903	382.222	-0.132	-0.270
-238.888	-200.000	-0.043	0.226
-237.873	-200.000	0.005	-0.053
-236.859	-19.778	0.242	0.148
-235.844	800.000	0.294	0.803
-234.830	-42.750	-0.731	0.368
-233.815	800.000	0.026	0.073
-232.800	-2.878	0.205	-0.141
-231.786	-15.233	0.799	0.506
-230.771	76.924	0.202	-0.212
-229.757	-177.465	-0.477	0.012
-228.742	297.458	-0.122	0.222
-227.727	-86.564	0.438	-0.133
-226.713	-200.000	-0.043	-0.267
-225.698	-30.426	0.402	-0.226
-224.684	-200.000	-0.060	0.906
-223.669	776.345	0.246	-0.665
-222.655	-200.000	0.014	0.125
-221.640	-57.043	0.228	-0.100
-220.625	-200.000	0.071	-0.884
-219.611	800.000	-0.257	0.938
-218.596	800.000	-0.077	0.315
-217.582	-75.042	1.059	-0.375
-216.567	-66.709	0.445	0.175
-215.552	-200.000	-0.158	0.907
-214.538	123.255	0.094	-0.116
-213.523	-200.000	-0.019	0.235
-212.509	-194.806	0.413	-0.003
-211.494	-200.000	-0.013	0.257
-210.479	29.438	0.189	0.159
-209.465	263.899	0.189	0.326
-208.450	58.051	0.411	0.399
-207.436	54.780	0.744	0.710
-206.421	341.414	0.139	0.270
-205.406	19.604	-0.355	-0.282
-204.392	800.000	0.122	-0.493
-203.377	-200.000	-0.205	-0.893
-202.363	-200.000	0.008	-0.178
-201.348	2.847	-0.558	0.400
-200.333	43.807	-0.521	-0.472
-199.319	-200.000	0.004	-0.632
-198.304	91.897	-0.747	-0.831
-197.290	280.051	0.247	-0.437
-196.275	-27.544	0.629	0.361
-195.260	-60.838	-0.555	-0.232
-194.246	166.410	-0.437	-0.612
-193.231	-200.000	-0.143	-0.748
-192.217	702.496	-0.300	0.782
-191.202	-70.945	0.487	0.181
-190.187	-124.003	-0.211	-0.033
-189.173	-29.898	-0.519	-0.292
-188.158	-7.047	-0.291	-0.195
-187.144	-36.258	-0.064	0.034
-186.129	533.578	0.230	0.538
-185.114	-200.000	-0.038	-0.405
-184.100	748.902	-0.014	-0.038
-183.085	311.215	-0.299	-0.554
-182.071	333.033	0.461	-0.879
-181.056	-77.740	0.416	0.142
-180.042	800.000	0.155	-0.481
-179.027	-200.000	0.025	-0.190
-178.012	9.573	0.474	0.355
-176.998	-200.000	0.009	-0.171
-175.983	-69.893	0.172	-0.065
-174.969	-115.391	0.794	0.148
-173.954	800.000	0.167	-0.519
-172.939	-19.871	-0.657	0.401
-171.925	-49.119	0.453	0.214
-170.910	682.944	-0.306	0.789
-169.896	159.688	-0.467	-0.643
-168.881	523.162	-0.442	1.025
-167.866	772.808	-0.094	-0.254
-166.852	-101.416	-1.080	-0.260
-165.837	196.845	0.563	0.847
-164.823	800.000	0.058	0.193
-163.808	-200.000	0.015	-0.206
-162.793	-104.674	0.245	-0.056
-161.779	26.771	0.403	-0.333
-160.764	-135.072	0.555	-0.066
-159.750	181.431	-0.648	0.942
-158.735	128.979	0.310	0.391
-157.720	49.127	0.547	-0.507
-156.706	-200.000	0.026	-0.582
-155.691	800.000	0.096	-0.311
-154.677	-200.000	0.061	0.266
-153.662	-129.394	0.511	0.070
-152.647	-162.635	-0.334	0.016
-151.633	-106.144	0.420	-0.093
-150.618	215.492	0.424	-0.663
-149.604	-184.996	0.808	0.013
-148.589	352.100	-0.291	0.569
-147.574	362.991	-0.261	0.516
-146.560	-44.974	-0.938	0.461
-145.545	-1.754	-0.251	0.174
-144.531	18.062	-0.455	0.358
-143.516	296.020	0.211	0.382
-142.502	-200.000	-0.020	-1.031
-141.487	10.999	0.174	0.131
-140.472	-200.000	-0.947	0.002
-139.458	-77.932	-1.021	0.347
-138.443	-162.753	0.347	-0.017
-137.429	-107.327	-0.350	0.076
-136.414	-116.605	0.500	0.091
-135.399	67.746	0.593	-0.598
-134.385	320.723	-0.336	0.629
-133.370	-200.000	0.053	-0.465
-132.356	800.000	-0.053	-0.185
-131.341	19.329	0.291	-0.231
-130.326	-115.729	0.313	0.058
-129.312	-34.072	-0.204	0.111
-128.297	-200.000	-0.031	0.322
-127.283	222.612	0.048	0.076
-126.268	142.183	-0.439	0.574
-125.253	-200.000	0.007	-0.137
-124.239	-35.151	-0.541	-0.290
-123.224	-12.277	0.745	-0.480
-122.210	70.675	0.171	-0.174
