DTS Sentinel unit serial number:	SN413079Multiplexer serial number:	ORYXHardware model number:	OX4-SRSoftware version number:	ORYX F/W v4.00 Oryx Data Collector v3.7.2.0data status	okinstallation	princeton_trtdifferential loss correction	single-endedforward channel	channel 1reverse channel	N/Adate	2019/09/10time	18:32:11forward acquisition time	60.00reverse acquisition time	0.00gamma	496.2192k internal	0.2306k external	0.2306temperature offset calibration	0.9929default loss term (dB/km)	0.3790temperature slope calibration	1.0000multiplexer offset coefficient	1.0000multiplexer slope coefficient	1.0000fibre end	0.00T internal ref (°C)	35.80T ext. ref 1 (°C)	-0.31T ext. ref 2 (°C)	27.89length (m)	temperature (°C)	Stokes	anti-Stokes-747.200	286.901	0.131	-0.240
-746.185	261.053	0.012	-0.021
-745.171	-144.708	-0.283	-0.027
-744.156	-75.710	0.320	-0.116
-743.142	286.123	0.097	0.179
-742.127	-163.464	-0.215	0.010
-741.112	-64.529	-0.108	0.045
-740.098	100.442	0.078	0.092
-739.083	-200.000	-0.007	0.152
-738.069	-200.000	-0.009	0.107
-737.054	-200.000	-0.018	0.198
-736.039	800.000	0.035	0.131
-735.025	-56.067	-0.182	-0.082
-734.010	-49.085	-0.348	0.170
-732.996	1.689	-0.309	-0.226
-731.981	205.536	-0.181	-0.286
-730.966	-89.901	-0.139	0.041
-729.952	-79.363	0.141	0.048
-728.937	277.474	-0.105	-0.190
-727.923	-20.246	-0.149	0.093
-726.908	-160.473	-0.274	0.015
-725.894	218.958	0.098	0.160
-724.879	-121.672	0.134	0.022
-723.864	-77.350	0.324	-0.114
-722.850	9.553	-0.282	0.217
-721.835	23.470	-0.066	0.056
-720.821	-71.618	-0.072	-0.027
-719.806	417.513	-0.077	0.166
-718.791	-200.000	0.041	0.218
-717.777	45.135	-0.198	0.185
-716.762	210.027	0.154	0.246
-715.748	312.060	0.029	-0.055
-714.733	172.729	-0.014	0.021
-713.718	-50.494	0.246	0.118
-712.704	-200.000	0.002	0.019
-711.689	-22.535	-0.164	0.101
-710.675	-83.584	-0.294	-0.095
-709.660	-103.821	-0.208	-0.049
-708.645	106.806	0.246	-0.297
-707.631	800.000	0.066	0.275
-706.616	-169.889	0.258	0.009
-705.602	-8.450	-0.213	0.145
-704.587	179.436	-0.134	0.199
-703.572	-200.000	0.066	0.296
-702.558	-200.000	-0.010	0.247
-701.543	-142.159	0.290	0.029
-700.529	39.953	-0.153	-0.140
-699.514	622.874	-0.157	-0.402
-698.499	102.559	0.233	-0.277
-697.485	-47.686	-0.225	-0.111
-696.470	-69.482	-0.385	0.150
-695.456	-5.728	0.276	0.192
-694.441	-133.280	0.160	0.021
-693.426	451.403	-0.037	0.084
-692.412	-162.886	0.230	0.011
-691.397	800.000	-0.052	-0.173
-690.383	-125.269	0.298	0.046
-689.368	-200.000	-0.005	0.106
-688.354	603.881	0.128	0.323
-687.339	-155.036	-0.094	0.006
-686.324	-94.415	-0.141	-0.039
-685.310	800.000	-0.096	0.420
-684.295	118.160	-0.160	-0.201
-683.281	-15.605	-0.046	0.030
-682.266	313.412	-0.286	-0.545
-681.251	-90.189	0.386	-0.114
-680.237	800.000	-0.049	-0.188
-679.222	-122.448	0.296	-0.049
-678.208	-200.000	0.062	-0.334
-677.193	-65.493	0.134	-0.054
-676.178	42.529	-0.081	0.075
-675.164	142.782	-0.130	0.176
-674.149	-99.592	-0.109	-0.028
-673.135	-151.186	-0.147	0.011
-672.120	-133.828	0.314	-0.040
-671.105	224.584	0.055	-0.090
-670.091	153.026	0.240	-0.333
-669.076	9.761	-0.261	-0.201
-668.062	301.218	0.157	0.294
-667.047	70.330	0.076	-0.079
-666.032	70.864	-0.068	0.072
-665.018	-4.085	0.024	0.017
-664.003	15.548	-0.381	-0.303
-662.989	-200.000	-0.023	-0.154
-661.974	120.653	-0.243	0.306
-660.959	-41.534	0.046	-0.024
-659.945	60.140	-0.209	-0.209
-658.930	-20.623	-0.163	-0.102
-657.916	-200.000	-0.001	-0.124
-656.901	-79.568	-0.180	-0.061
-655.886	368.245	-0.151	-0.310
-654.872	-62.364	-0.221	0.093
-653.857	-64.849	0.145	0.060
-652.843	121.783	0.013	0.016
-651.828	-9.262	-0.274	-0.185
-650.814	289.533	0.058	0.106
-649.799	-134.897	0.130	0.016
-648.784	-111.752	-0.216	0.044
-647.770	573.452	0.137	0.339
-646.755	-125.704	0.020	-0.003
-645.741	-5.668	-0.101	0.070
-644.726	-140.950	-0.143	-0.015
-643.711	52.448	0.109	-0.105
-642.697	-73.827	0.096	0.035
-641.682	-96.233	0.260	0.070
-640.668	56.090	-0.157	-0.155
-639.653	-94.140	-0.265	0.074
-638.638	-12.772	0.316	-0.209
-637.624	-200.000	0.042	-0.255
-636.609	66.145	0.176	-0.181
-635.595	-95.496	-0.167	-0.046
-634.580	62.903	-0.200	-0.202
-633.565	-200.000	-0.019	-0.241
-632.551	-200.000	-0.161	0.001
-631.536	800.000	-0.084	0.265
-630.522	-131.355	-0.205	0.027
-629.507	-200.000	0.018	-0.286
-628.492	188.466	0.040	0.060
-627.478	144.066	-0.059	-0.080
-626.463	-200.000	-0.009	-0.084
-625.449	687.102	-0.085	0.224
-624.434	-199.628	0.227	-0.001
-623.419	-40.184	0.080	0.042
-622.405	800.000	0.030	-0.133
-621.390	-168.599	-0.302	0.012
-620.376	-7.599	0.423	-0.289
-619.361	-82.572	-0.030	0.010
-618.346	-19.364	-0.178	-0.112
-617.332	800.000	-0.060	-0.214
-616.317	-0.102	-0.349	-0.252
-615.303	-200.000	0.021	-0.207
-614.288	-95.099	0.179	0.049
-613.273	-123.150	-0.327	-0.053
-612.259	-117.941	-0.558	-0.101
-611.244	-200.000	0.056	-0.342
-610.230	-200.000	0.012	-0.166
-609.215	800.000	-0.023	0.070
-608.201	167.470	-0.238	-0.342
-607.186	-143.975	-0.166	-0.016
-606.171	173.751	0.138	0.201
-605.157	-200.000	-0.014	-0.260
-604.142	40.646	0.149	0.136
-603.128	-57.984	0.209	-0.092
-602.113	-200.000	0.007	0.165
-601.098	-200.000	0.004	-0.212
-600.084	-131.422	-0.321	-0.043
-599.069	-200.000	-0.016	-0.273
-598.055	-87.184	0.209	0.064
-597.040	-200.000	-0.021	-0.095
-596.025	668.720	0.045	0.118
-595.011	-84.950	0.058	-0.018
-593.996	-146.357	0.193	0.017
-592.982	-200.000	-0.051	0.248
-591.967	312.179	-0.089	0.168
-590.952	-99.846	-0.117	-0.029
-589.938	73.211	0.216	-0.228
-588.923	14.959	-0.385	0.305
-587.909	118.291	0.172	0.215
-586.894	-6.182	-0.245	0.169
-585.879	80.659	-0.050	-0.055
-584.865	-114.560	-0.189	0.037
-583.850	98.971	0.038	0.044
-582.836	133.350	0.238	0.312
-581.821	68.871	-0.201	0.209
-580.806	-91.754	-0.134	-0.038
-579.792	-178.755	0.045	-0.001
-578.777	-153.870	0.281	-0.019
-577.763	-153.216	0.149	-0.011
-576.748	-200.000	0.072	-0.448
-575.733	502.415	-0.123	0.286
-574.719	800.000	0.060	0.259
-573.704	-16.257	0.290	0.186
-572.690	800.000	0.034	-0.150
-571.675	-82.710	0.212	0.069
-570.661	-200.000	0.084	-0.427
-569.646	-130.826	0.423	-0.057
-568.631	-113.033	-0.169	-0.034
-567.617	800.000	0.087	-0.246
-566.602	244.918	-0.018	0.031
-565.588	212.566	0.061	0.097
-564.573	45.557	-0.147	-0.138
-563.558	198.729	0.135	-0.209
-562.544	58.881	-0.119	-0.119
-561.529	475.792	0.030	-0.069
-560.515	-92.217	-0.261	0.074
-559.500	800.000	0.062	0.245
-558.485	-200.000	-0.025	0.174
-557.471	745.029	0.093	-0.252
-556.456	-51.108	-0.488	0.231
-555.442	345.291	0.176	0.350
-554.427	115.201	-0.142	0.175
-553.412	-79.082	-0.207	0.071
-552.398	800.000	0.039	-0.126
-551.383	-115.458	0.505	0.096
-550.369	-130.122	-0.174	-0.024
-549.354	800.000	0.076	-0.251
-548.339	107.542	-0.221	0.265
-547.325	37.548	-0.124	-0.111
-546.310	-92.581	-0.056	-0.016
-545.296	800.000	-0.056	0.216
-544.281	115.758	-0.063	-0.078
-543.266	-19.170	-0.072	0.045
-542.252	28.897	0.274	0.235
-541.237	-182.826	-0.090	0.002
-540.223	-14.302	0.158	-0.103
-539.208	-136.707	0.071	0.008
-538.193	274.421	0.130	-0.232
-537.179	-113.464	0.164	-0.032
-536.164	188.157	-0.401	-0.605
-535.150	-200.000	0.111	0.526
-534.135	800.000	-0.050	0.140
-533.121	-140.567	0.183	0.019
-532.106	578.241	0.079	-0.196
-531.091	-141.497	0.179	-0.018
-530.077	800.000	0.078	0.226
-529.062	-92.604	0.298	-0.084
-528.048	-200.000	0.050	0.388
-527.033	-62.031	-0.233	0.098
-526.018	43.236	0.045	-0.042
-525.004	800.000	0.072	-0.314
-523.989	-200.000	-0.014	-0.402
-522.975	68.771	-0.204	-0.212
-521.960	-99.881	0.394	0.099
-520.945	60.157	0.316	0.315
-519.931	-200.000	0.020	-0.369
-518.916	514.014	-0.088	-0.206
-517.902	-48.435	0.035	0.017
-516.887	-125.815	-0.319	0.049
-515.872	99.307	0.061	0.071
-514.858	-200.000	-0.026	-0.242
-513.843	-200.000	0.061	0.282
-512.829	167.985	-0.260	0.372
-511.814	92.526	-0.027	0.031
-510.799	-53.768	-0.252	-0.116
-509.785	-127.699	0.310	-0.045
-508.770	800.000	0.075	0.224
-507.756	-91.398	-0.249	0.072
-506.741	800.000	0.043	0.128
-505.726	800.000	-0.054	0.168
-504.712	185.901	0.210	-0.315
-503.697	800.000	0.074	-0.240
-502.683	-13.995	-0.219	0.143
-501.668	149.071	0.170	-0.231
-500.653	800.000	0.103	-0.390
-499.639	147.098	0.279	-0.379
-498.624	-98.691	0.075	0.019
-497.610	-39.516	-0.063	0.033
-496.595	148.004	-0.224	0.304
-495.581	73.840	-0.233	0.246
-494.566	-50.021	0.134	-0.064
-493.551	-124.915	0.349	-0.054
-492.537	-200.000	0.001	0.118
-491.522	-84.933	0.127	0.040
-490.508	71.792	0.276	-0.289
-489.493	162.568	-0.142	-0.201
-488.478	257.824	-0.081	-0.141
-487.464	132.681	0.144	0.187
-486.449	-200.000	-0.025	-0.288
-485.435	12.731	-0.201	-0.157
-484.420	-200.000	-0.005	-0.207
-483.405	11.688	-0.224	-0.173
-482.391	-20.843	-0.328	0.203
-481.376	87.565	-0.183	-0.204
-480.362	-101.223	-0.245	-0.060
-479.347	-82.173	0.216	0.071
-478.332	208.291	-0.112	0.177
-477.318	-103.030	-0.146	0.035
-476.303	-90.377	-0.331	-0.097
-475.289	333.917	0.119	0.231
-474.274	-58.215	0.128	-0.056
-473.259	800.000	0.058	-0.165
-472.245	-152.263	0.241	-0.018
-471.230	-164.938	0.203	-0.009
-470.216	-200.000	-0.051	0.289
-469.201	-200.000	0.008	-0.038
-468.186	-91.468	-0.162	0.047
-467.172	-200.000	0.009	-0.114
-466.157	-82.478	0.153	-0.050
-465.143	-200.000	0.005	0.068
-464.128	91.603	-0.169	-0.191
-463.113	-143.730	0.113	-0.011
-462.099	-200.000	-0.009	-0.095
-461.084	-200.000	0.022	-0.218
-460.070	239.796	0.043	-0.071
-459.055	-164.777	0.260	0.012
-458.040	800.000	-0.042	-0.121
-457.026	-126.631	-0.078	-0.012
-456.011	800.000	0.036	0.146
-454.997	-138.371	-0.296	0.033
-453.982	70.314	-0.104	-0.108
-452.968	-172.137	-0.131	-0.004
-451.953	-133.496	-0.111	-0.014
-450.938	-200.000	0.108	0.548
-449.924	-200.000	0.003	0.375
-448.909	-47.470	0.248	-0.121
-447.895	-89.070	-0.090	0.027
-446.880	99.855	-0.111	-0.129
-445.865	-78.534	-0.137	0.047
-444.851	11.954	0.207	0.160
-443.836	-44.014	-0.235	-0.119
-442.822	23.137	0.345	-0.285
-441.807	-200.000	0.064	-0.428
-440.792	-61.169	-0.182	0.077
-439.778	89.062	-0.199	0.222
-438.763	268.195	-0.277	-0.488
-437.749	18.332	0.130	0.105
-436.734	-114.561	-0.165	-0.032
-435.719	56.558	-0.076	0.074
-434.705	44.913	-0.055	-0.051
-433.690	63.251	-0.049	-0.050
-432.676	-152.998	0.313	0.022
-431.661	-70.409	0.225	0.086
-430.646	550.205	-0.014	0.033
-429.632	95.280	-0.137	0.157
-428.617	64.497	0.164	-0.166
-427.603	-5.089	0.228	-0.157
-426.588	281.457	0.160	0.289
-425.573	35.108	0.201	0.177
-424.559	512.292	0.176	0.413
-423.544	82.967	-0.110	0.120
-422.530	-36.178	-0.101	0.055
-421.515	367.342	-0.100	-0.202
-420.500	72.130	0.223	0.233
-419.486	800.000	-0.065	-0.269
-418.471	-58.502	0.408	0.178
-417.457	-121.512	-0.121	0.020
-416.442	-200.000	0.004	-0.112
-415.428	672.374	-0.040	0.104
-414.413	-200.000	0.155	-0.000
-413.398	-26.264	0.250	-0.147
-412.384	-90.485	0.155	0.045
-411.369	6.119	0.166	-0.123
-410.355	-73.185	0.179	0.066
-409.340	16.535	-0.251	0.199
-408.325	129.428	0.040	-0.051
-407.311	154.212	0.056	-0.077
-406.296	-121.749	0.137	-0.023
-405.282	186.828	0.091	-0.136
-404.267	501.075	0.034	-0.078
-403.252	-127.943	0.289	-0.042
-402.238	130.932	-0.023	-0.030
-401.223	-200.000	-0.091	0.515
-400.209	-139.374	0.432	0.047
-399.194	-200.000	-0.014	-0.069
-398.179	-82.463	-0.186	0.060
-397.165	-158.324	0.412	0.024
-396.150	-65.263	-0.133	-0.054
-395.136	-118.429	-0.211	-0.038
-394.121	41.851	-0.011	-0.010
-393.106	800.000	-0.097	0.331
-392.092	-18.487	0.091	0.057
-391.077	193.739	0.003	0.004
-390.063	-67.716	0.163	0.064
-389.048	-127.808	0.060	-0.009
-388.033	-114.351	0.129	0.025
-387.019	113.453	-0.217	-0.264
-386.004	800.000	-0.089	0.313
-384.990	708.203	-0.095	0.253
-383.975	38.082	-0.376	0.336
-382.960	-200.000	-0.008	0.321
-381.946	800.000	-0.058	0.188
-380.931	-82.857	-0.106	0.034
-379.917	-200.000	0.055	-0.336
-378.902	800.000	-0.025	-0.098
-377.888	-53.957	-0.268	-0.122
-376.873	482.600	-0.076	0.174
-375.858	434.747	0.120	0.261
-374.844	-115.605	-0.050	-0.009
-373.829	-28.182	0.204	-0.118
-372.815	257.314	-0.085	0.147
-371.800	456.368	0.173	-0.385
-370.785	112.309	-0.187	-0.227
-369.771	-26.587	-0.192	-0.113
-368.756	100.982	-0.033	-0.038
-367.742	-119.263	-0.199	-0.035
-366.727	800.000	-0.052	0.158
-365.712	-200.000	0.010	-0.453
-364.698	59.741	-0.157	-0.156
-363.683	-108.932	0.459	0.098
-362.669	545.579	0.168	-0.403
-361.654	324.367	0.081	-0.154
-360.639	-97.968	0.261	-0.067
-359.625	-98.365	0.104	0.027
-358.610	24.780	0.231	-0.192
-357.596	174.910	0.075	0.109
-356.581	-47.775	0.238	0.116
-355.566	800.000	-0.137	0.472
-354.552	208.687	-0.153	0.239
-353.537	-200.000	-0.054	0.341
-352.523	300.653	-0.128	0.237
-351.508	800.000	-0.068	0.293
-350.493	-169.995	-0.220	0.008
-349.479	75.400	-0.118	0.124
-348.464	-200.000	-0.007	-0.147
-347.450	-76.726	0.327	-0.115
-346.435	-200.000	-0.000	0.075
-345.420	-105.534	-0.342	0.078
-344.406	-200.000	-0.010	-0.140
-343.391	-172.121	0.117	0.004
-342.377	132.503	0.005	-0.006
-341.362	-43.153	-0.057	0.029
-340.348	170.210	0.062	0.089
-339.333	-69.427	0.108	-0.042
-338.318	58.909	-0.271	-0.267
-337.304	-87.781	-0.257	0.077
-336.289	-45.058	-0.180	-0.090
-335.275	13.428	-0.226	0.175
-334.260	-93.890	0.150	0.041
-333.245	117.597	0.175	0.216
-332.231	-100.477	-0.308	-0.076
-331.216	120.311	-0.159	0.197
-330.202	437.582	-0.096	0.210
-329.187	-29.038	0.176	-0.101
-328.172	-200.000	-0.068	0.366
-327.158	-200.000	0.003	-0.021
-326.143	215.185	-0.181	0.287
-325.129	-9.780	0.292	0.195
-324.114	5.302	0.089	0.066
-323.099	-40.987	0.070	0.036
-322.085	-88.782	0.225	-0.067
-321.070	571.338	-0.166	0.405
-320.056	-200.000	0.029	0.160
-319.041	-26.579	-0.252	-0.148
-318.026	-107.539	0.137	0.030
-317.012	-115.819	-0.031	-0.006
-315.997	92.155	0.138	0.155
-314.983	335.215	-0.184	-0.357
-313.968	27.955	-0.263	0.222
-312.953	-200.000	0.030	-0.216
-311.939	-108.432	0.355	0.076
-310.924	-200.000	-0.029	0.160
-309.910	214.821	0.189	0.300
-308.895	239.126	-0.062	0.104
-307.880	-200.000	0.009	0.285
-306.866	-200.000	0.018	0.272
-305.851	-200.000	-0.012	-0.334
-304.837	-70.042	0.326	-0.124
-303.822	-70.448	-0.166	0.063
-302.807	3.321	-0.291	0.212
-301.793	-22.884	-0.171	-0.103
-300.778	-90.722	0.088	-0.025
-299.764	91.584	-0.016	0.018
-298.749	-68.468	-0.378	-0.147
-297.735	239.261	0.170	-0.282
-296.720	-3.960	-0.338	-0.234
-295.705	-154.484	-0.421	-0.028
-294.691	734.150	-0.101	0.271
-293.676	-175.691	-0.115	-0.003
-292.662	64.946	0.192	-0.194
-291.647	-18.406	0.155	0.097
-290.632	-11.810	0.168	0.110
-289.618	78.313	-0.052	0.056
-288.603	-97.579	0.313	-0.081
-287.589	-200.000	-0.021	-0.272
-286.574	-130.342	-0.102	-0.014
-285.559	85.553	-0.051	0.056
-284.545	51.796	-0.234	-0.222
-283.530	-96.309	0.301	-0.080
-282.516	76.566	0.100	0.105
-281.501	139.052	-0.126	0.165
-280.486	800.000	0.068	-0.234
-279.472	162.870	0.124	-0.174
-278.457	-200.000	0.003	0.121
-277.443	-110.440	0.244	-0.051
-276.428	136.344	0.010	-0.013
-275.413	64.554	-0.250	-0.252
-274.399	225.315	-0.052	-0.083
-273.384	-115.143	0.368	-0.070
-272.370	354.058	0.142	-0.283
-271.355	800.000	0.045	-0.160
-270.340	-56.010	0.315	0.140
-269.326	-166.384	-0.167	0.007
-268.311	57.107	0.147	-0.143
-267.297	-200.000	0.037	-0.178
-266.282	-40.594	0.106	-0.055
-265.267	405.147	0.092	-0.194
-264.253	-114.763	-0.348	-0.066
-263.238	207.157	-0.109	0.170
-262.224	207.621	0.073	-0.113
-261.209	-125.527	-0.053	-0.008
-260.195	67.428	0.219	0.224
-259.180	-138.681	0.463	-0.051
-258.165	-200.000	0.002	-0.240
-257.151	-200.000	-0.039	-0.254
-256.136	-200.000	-0.011	0.169
-255.122	-91.251	-0.265	0.076
-254.107	31.427	-0.137	-0.118
-253.092	1.641	-0.174	0.125
-252.078	113.413	0.082	0.099
-251.063	-57.459	-0.322	-0.141
-250.049	-109.194	0.281	-0.060
-249.034	75.628	0.371	-0.391
-248.019	352.714	-0.192	0.381
-247.005	127.514	0.098	-0.124
-245.990	-139.776	-0.227	-0.024
-244.976	-200.000	0.009	-0.061
-243.961	-83.698	-0.394	-0.125
-242.946	22.737	0.279	0.228
-241.932	-77.861	0.158	-0.054
-240.917	371.735	-0.036	-0.072
-239.903	26.136	0.095	-0.079
-238.888	9.536	-0.180	0.136
-237.873	800.000	-0.031	-0.096
-236.859	-200.000	-0.014	-0.149
-235.844	-34.122	-0.051	-0.028
-234.830	-51.181	0.229	0.107
-233.815	-147.015	-0.126	-0.011
-232.800	-200.000	0.043	0.455
-231.786	-200.000	-0.063	-0.300
-230.771	-35.199	-0.337	-0.183
-229.757	800.000	0.078	-0.222
-228.742	-200.000	-0.028	0.153
-227.727	-200.000	-0.067	-0.309
-226.713	-88.478	0.298	0.088
-225.698	69.483	-0.115	-0.118
-224.684	81.443	-0.129	-0.139
-223.669	370.334	0.069	-0.139
-222.655	116.559	0.150	-0.183
-221.640	800.000	0.059	0.235
-220.625	134.808	0.063	-0.081
-219.611	457.335	-0.167	0.369
-218.596	-83.012	0.599	-0.193
-217.582	-130.679	0.285	-0.038
-216.567	222.109	-0.080	0.128
-215.552	331.626	0.137	0.263
-214.538	96.625	-0.180	-0.205
-213.523	-200.000	-0.036	-0.213
-212.509	-200.000	-0.003	0.274
-211.494	20.868	0.103	0.083
-210.479	-77.535	-0.092	-0.032
-209.465	41.418	0.119	-0.107
-208.450	800.000	0.076	-0.294
-207.436	-41.319	0.107	0.055
-206.421	-61.948	-0.342	0.143
-205.406	62.750	-0.072	0.072
-204.392	78.715	-0.243	0.259
-203.377	-38.377	0.337	0.177
-202.363	800.000	-0.081	-0.239
-201.348	-135.800	-0.191	0.022
-200.333	-200.000	-0.025	-0.231
-199.319	-200.000	0.040	0.188
-198.304	355.436	-0.031	0.062
-197.290	800.000	-0.110	0.351
-196.275	53.214	-0.181	0.173
-195.260	277.753	0.071	0.126
-194.246	-143.232	0.132	-0.013
-193.231	-121.457	0.095	-0.016
-192.217	56.771	0.108	0.105
-191.202	-86.395	-0.234	0.071
-190.187	93.985	-0.119	0.135
-189.173	800.000	0.038	0.136
-188.158	-71.783	-0.112	-0.042
-187.144	48.071	0.173	0.161
-186.129	800.000	0.019	-0.077
-185.114	-25.124	-0.364	0.215
-184.100	289.288	0.137	0.248
-183.085	-63.718	0.063	0.026
-182.071	-62.629	0.343	-0.142
-181.056	800.000	-0.068	-0.268
-180.042	76.422	0.155	0.163
-179.027	-200.000	0.066	-0.471
-178.012	-38.766	0.208	-0.109
-176.998	636.414	-0.038	0.095
-175.983	-129.166	0.091	0.013
-174.969	800.000	0.018	0.059
-173.954	-200.000	-0.024	-0.190
-172.939	236.486	0.067	-0.110
-171.925	-83.444	0.060	-0.019
-170.910	-200.000	-0.002	0.374
-169.896	583.946	0.044	0.108
-168.881	-115.122	0.020	0.004
-167.866	-42.401	0.168	0.085
-166.852	-0.893	-0.280	0.197
-165.837	-71.338	-0.138	0.051
-164.823	-31.988	-0.192	-0.107
-163.808	-167.658	-0.327	0.013
-162.793	17.467	0.062	0.049
-161.779	-200.000	0.015	0.223
-160.764	6.828	-0.086	-0.064
-159.750	-200.000	-0.012	-0.156
-158.735	33.152	-0.433	0.374
-157.720	-33.085	-0.256	0.141
-156.706	-200.000	-0.002	-0.066
-155.691	-200.000	-0.024	-0.185
-154.677	64.251	0.185	-0.185
-153.662	200.421	0.032	0.048
-152.647	284.041	0.013	0.022
-151.633	227.344	-0.261	0.422
-150.618	-118.238	-0.528	0.093
-149.604	252.215	0.137	0.232
-148.589	-30.159	0.194	0.110
-147.574	222.331	0.133	0.212
-146.560	-200.000	0.001	0.250
-145.545	-47.139	0.170	0.082
-144.531	-200.000	0.037	0.167
-143.516	-142.756	0.334	0.032
-142.502	197.115	0.053	-0.080
-141.487	800.000	0.077	-0.288
-140.472	96.943	-0.092	-0.105
-139.458	-200.000	0.007	-0.239
-138.443	218.090	-0.186	-0.295
-137.429	-164.398	-0.134	-0.006
-136.414	800.000	-0.083	-0.242
-135.399	33.442	-0.154	-0.133
-134.385	-53.475	-0.303	-0.138
-133.370	569.700	-0.065	-0.156
-132.356	-200.000	-0.003	0.207
-131.341	99.215	-0.099	0.114
-130.326	800.000	0.064	0.267
-129.312	-45.770	-0.219	0.107
-128.297	-178.316	0.360	0.008
-127.283	-52.535	0.230	0.106
-126.268	22.129	-0.287	-0.233
-125.253	-81.697	-0.146	0.048
-124.239	173.297	-0.157	0.225
-123.224	-17.635	0.143	-0.089
-122.210	800.000	-0.082	0.294
-121.195	-185.670	-0.069	-0.001
