DTS Sentinel unit serial number:	SN413079Multiplexer serial number:	ORYXHardware model number:	OX4-SRSoftware version number:	ORYX F/W v4.00 Oryx Data Collector v3.7.2.0data status	okinstallation	princeton_trtdifferential loss correction	single-endedforward channel	channel 1reverse channel	N/Adate	2019/09/11time	07:12:11forward acquisition time	60.00reverse acquisition time	0.00gamma	496.2192k internal	0.2328k external	0.2328temperature offset calibration	0.9917default loss term (dB/km)	0.3790temperature slope calibration	1.0000multiplexer offset coefficient	1.0000multiplexer slope coefficient	1.0000fibre end	0.00T internal ref (°C)	30.44T ext. ref 1 (°C)	-0.09T ext. ref 2 (°C)	26.59length (m)	temperature (°C)	Stokes	anti-Stokes-747.200	800.000	-0.054	-0.183
-746.185	91.112	-0.163	-0.184
-745.171	352.264	0.029	0.058
-744.156	481.071	-0.039	-0.090
-743.142	66.379	0.207	0.212
-742.127	-3.488	0.350	-0.246
-741.112	-118.462	0.237	-0.042
-740.098	-19.927	-0.307	-0.191
-739.083	-26.165	0.188	-0.112
-738.069	-66.961	-0.121	0.048
-737.054	-200.000	0.019	0.439
-736.039	-109.139	-0.259	-0.056
-735.025	-100.247	-0.065	0.016
-734.010	-81.873	0.203	-0.067
-732.996	-132.293	-0.304	0.040
-731.981	711.859	-0.045	0.120
-730.966	-119.414	0.441	0.077
-729.952	44.681	-0.259	-0.240
-728.937	-10.352	-0.166	-0.111
-727.923	1.174	0.237	0.171
-726.908	-165.895	0.034	0.001
-725.894	-200.000	0.015	-0.153
-724.879	-85.311	0.062	0.020
-723.864	-200.000	0.021	0.178
-722.850	444.118	-0.065	-0.142
-721.835	26.428	-0.167	-0.141
-720.821	-173.431	-0.279	-0.008
-719.806	28.110	0.228	-0.194
-718.791	622.771	-0.116	0.295
-717.777	-127.251	0.463	0.068
-716.762	59.718	0.128	0.127
-715.748	-34.723	0.185	0.102
-714.733	130.310	-0.064	0.083
-713.718	-79.496	0.235	-0.080
-712.704	-139.153	-0.487	0.053
-711.689	-24.499	-0.372	0.223
-710.675	-200.000	-0.068	0.322
-709.660	42.633	0.147	-0.134
-708.645	-95.081	-0.329	-0.089
-707.631	594.221	0.124	-0.308
-706.616	-77.879	-0.091	0.031
-705.602	800.000	0.097	0.296
-704.587	606.897	-0.124	-0.312
-703.572	-27.985	0.371	-0.216
-702.558	117.206	0.099	-0.123
-701.543	800.000	-0.020	-0.059
-700.529	-200.000	0.011	0.294
-699.514	-200.000	-0.007	0.212
-698.499	72.797	0.422	0.443
-697.485	747.491	-0.037	-0.101
-696.470	429.471	-0.074	-0.162
-695.456	22.119	-0.220	-0.180
-694.441	-55.595	0.136	0.061
-693.426	-159.193	-0.218	-0.012
-692.412	178.012	0.027	-0.040
-691.397	-26.822	-0.322	0.189
-690.383	-27.270	-0.069	-0.040
-689.368	-23.695	-0.121	-0.073
-688.354	-147.505	-0.158	-0.013
-687.339	-125.509	0.500	-0.077
-686.324	-59.388	0.393	0.170
-685.310	63.228	0.020	-0.020
-684.295	-29.908	0.058	-0.033
-683.281	-200.000	-0.018	0.271
-682.266	25.984	0.219	0.183
-681.251	-140.195	0.044	0.005
-680.237	199.866	-0.155	0.240
-679.222	-200.000	-0.071	0.342
-678.208	-99.906	0.151	-0.038
-677.193	-104.825	0.138	-0.032
-676.178	-89.740	-0.101	-0.030
-675.164	412.194	0.099	-0.212
-674.149	-200.000	0.018	-0.090
-673.135	-5.615	0.353	-0.243
-672.120	-148.552	-0.322	-0.026
-671.105	-200.000	0.005	-0.335
-670.091	-98.636	-0.279	0.071
-669.076	11.427	0.205	0.157
-668.062	-200.000	0.016	-0.126
-667.047	-200.000	0.023	0.246
-666.032	-200.000	0.012	0.067
-665.018	199.686	0.076	0.117
-664.003	699.518	-0.031	0.082
-662.989	191.972	0.052	0.079
-661.974	-47.573	0.052	-0.025
-660.959	-200.000	0.007	0.115
-659.945	98.201	-0.118	-0.137
-658.930	800.000	-0.019	0.056
-657.916	-200.000	-0.060	-0.298
-656.901	-106.603	0.238	0.053
-655.886	134.006	0.186	0.242
-654.872	-35.398	-0.133	0.073
-653.857	126.440	-0.158	0.201
-652.843	-200.000	-0.024	0.318
-651.828	-200.000	-0.004	-0.033
-650.814	45.606	-0.074	-0.068
-649.799	-200.000	-0.024	-0.250
-648.784	9.792	-0.220	0.167
-647.770	57.527	0.154	0.151
-646.755	138.196	-0.239	-0.315
-645.741	215.901	0.062	-0.099
-644.726	763.124	0.157	-0.427
-643.711	118.111	0.169	-0.209
-642.697	57.613	0.141	0.138
-641.682	-40.301	-0.236	-0.123
-640.668	-200.000	0.034	-0.236
-639.653	237.362	0.118	-0.196
-638.638	-169.582	0.248	0.009
-637.624	422.023	0.079	0.170
-636.609	-146.324	-0.174	0.015
-635.595	-200.000	-0.002	-0.443
-634.580	-153.954	-0.063	-0.004
-633.565	-94.441	0.114	-0.031
-632.551	432.787	0.098	0.214
-631.536	496.224	0.030	0.070
-630.522	110.236	0.170	0.205
-629.507	212.929	0.041	0.064
-628.492	153.265	-0.212	-0.292
-627.478	-150.822	0.320	-0.024
-626.463	-37.242	-0.245	-0.132
-625.449	-200.000	0.033	-0.181
-624.434	513.108	0.079	-0.184
-623.419	-133.360	-0.313	0.040
-622.405	649.046	0.082	-0.210
-621.390	612.837	0.049	-0.123
-620.376	3.454	-0.357	0.261
-619.361	658.325	-0.056	-0.145
-618.346	369.071	-0.201	0.408
-617.332	0.222	-0.228	-0.163
-616.317	54.422	0.252	-0.243
-615.303	5.264	-0.243	-0.180
-614.288	478.635	0.074	0.167
-613.273	1.523	-0.170	-0.123
-612.259	-68.970	0.405	-0.156
-611.244	28.709	0.183	-0.156
-610.230	-97.658	0.193	-0.050
-609.215	-200.000	0.008	0.291
-608.201	800.000	-0.038	0.129
-607.186	-128.195	-0.407	-0.058
-606.171	447.779	0.076	0.168
-605.157	250.080	-0.071	-0.120
-604.142	800.000	0.030	0.129
-603.128	-68.584	0.141	0.055
-602.113	-91.927	-0.214	0.061
-601.098	7.928	-0.058	0.043
-600.084	-113.236	0.494	-0.097
-599.069	-45.606	-0.218	-0.108
-598.055	-100.722	-0.183	0.045
-597.040	-200.000	-0.029	-0.249
-596.025	237.286	-0.207	0.344
-595.011	800.000	-0.125	0.539
-593.996	-63.322	0.165	-0.068
-592.982	-112.974	0.196	-0.039
-591.967	-200.000	0.033	0.258
-590.952	69.526	-0.240	-0.248
-589.938	63.735	-0.049	0.049
-588.923	-181.348	0.308	0.006
-587.909	23.366	0.041	-0.034
-586.894	800.000	0.033	0.117
-585.879	-164.778	-0.231	-0.010
-584.865	35.732	0.259	0.228
-583.850	-145.608	0.139	0.012
-582.836	228.872	-0.255	0.416
-581.821	-66.676	-0.304	0.121
-580.806	581.677	0.156	-0.384
-579.792	423.412	-0.053	0.114
-578.777	514.865	-0.084	0.195
-577.763	-90.572	0.115	0.033
-576.748	14.158	0.080	0.063
-575.733	17.929	0.092	-0.074
-574.719	-71.161	0.274	0.103
-573.704	14.629	-0.071	-0.055
-572.690	111.846	-0.083	-0.101
-571.675	-200.000	-0.027	-0.140
-570.661	352.213	0.039	-0.078
-569.646	-200.000	0.055	-0.298
-568.631	-48.666	0.257	-0.124
-567.617	-190.419	-0.123	0.001
-566.602	591.835	0.082	-0.202
-565.588	352.197	-0.130	0.258
-564.573	103.658	-0.283	-0.332
-563.558	-80.978	0.132	-0.044
-562.544	-68.840	-0.361	-0.140
-561.529	85.532	-0.260	-0.285
-560.515	22.534	-0.262	-0.214
-559.500	201.151	-0.249	0.383
-558.485	99.279	-0.141	-0.163
-557.471	59.150	0.038	0.038
-556.456	374.565	0.094	0.191
-555.442	-200.000	0.008	0.070
-554.427	12.923	-0.106	0.082
-553.412	74.429	0.052	0.055
-552.398	62.560	0.167	-0.167
-551.383	350.522	0.039	-0.078
-550.369	52.131	0.075	0.072
-549.354	562.655	0.077	-0.186
-548.339	391.359	0.087	-0.180
-547.325	-200.000	-0.044	0.272
-546.310	-200.000	-0.011	0.273
-545.296	369.804	-0.066	-0.133
-544.281	-122.062	0.344	-0.056
-543.266	398.635	-0.048	-0.100
-542.252	6.723	-0.238	-0.177
-541.237	193.686	-0.051	-0.077
-540.223	-105.932	0.237	0.053
-539.208	58.897	-0.189	-0.186
-538.193	-57.645	0.304	-0.133
-537.179	508.621	0.033	0.076
-536.164	-200.000	0.011	-0.122
-535.150	-146.020	0.449	-0.040
-534.135	-6.415	-0.106	-0.073
-533.121	-200.000	0.015	0.122
-532.106	-66.767	0.072	0.028
-531.091	-171.237	0.133	0.004
-530.077	-137.975	-0.257	0.029
-529.062	-200.000	-0.044	-0.194
-528.048	-200.000	0.007	0.100
-527.033	-146.347	0.292	0.026
-526.018	800.000	-0.074	-0.207
-525.004	25.088	0.240	-0.199
-523.989	12.057	0.333	-0.256
-522.975	-200.000	-0.027	0.240
-521.960	800.000	-0.044	-0.194
-520.945	155.459	0.024	0.033
-519.931	156.142	-0.084	0.115
-518.916	-86.341	0.023	-0.007
-517.902	49.922	-0.119	0.112
-516.887	-122.391	0.210	-0.034
-515.872	-200.000	0.058	0.314
-514.858	-200.000	0.008	0.067
-513.843	-200.000	-0.002	0.296
-512.829	15.325	0.398	-0.312
-511.814	-200.000	0.024	0.182
-510.799	-97.562	0.073	-0.019
-509.785	1.829	0.132	0.095
-508.770	161.029	0.077	0.108
-507.756	-106.342	0.085	0.019
-506.741	87.753	0.064	-0.071
-505.726	172.665	0.142	-0.204
-504.712	-200.000	0.020	-0.187
-503.697	-200.000	-0.022	0.298
-502.683	-200.000	0.036	-0.219
-501.668	-30.206	-0.245	0.139
-500.653	800.000	0.044	-0.170
-499.639	104.787	0.153	-0.180
-498.624	123.386	0.172	-0.215
-497.610	-76.482	-0.039	0.014
-496.595	-56.840	0.225	-0.099
-495.581	-200.000	-0.053	0.310
-494.566	17.556	-0.275	0.218
-493.551	-200.000	0.017	-0.160
-492.537	-151.574	0.380	-0.028
-491.522	-15.674	-0.260	0.166
-490.508	-81.414	-0.042	0.014
-489.493	49.845	-0.106	0.100
-488.478	220.468	0.063	0.100
-487.464	800.000	-0.006	0.026
-486.449	-127.401	-0.309	-0.045
-485.435	-43.683	-0.158	-0.079
-484.420	-31.534	-0.183	-0.103
-483.405	100.119	-0.223	-0.258
-482.391	117.826	-0.169	0.208
-481.376	-48.822	-0.093	-0.045
-480.362	-200.000	-0.028	0.173
-479.347	-64.888	-0.385	0.155
-478.332	581.545	0.136	0.333
-477.318	-52.185	0.316	-0.146
-476.303	800.000	-0.143	0.491
-475.289	45.759	-0.204	0.188
-474.274	-123.074	-0.053	0.008
-473.259	491.701	-0.075	0.172
-472.245	-10.863	-0.211	0.139
-471.230	-79.176	-0.235	0.079
-470.216	148.267	0.114	-0.153
-469.201	-18.362	-0.115	0.072
-468.186	-34.527	0.267	0.146
-467.172	-81.039	-0.161	-0.053
-466.157	800.000	0.002	-0.010
-465.143	-200.000	0.054	-0.328
-464.128	-141.842	-0.066	0.007
-463.113	246.306	-0.190	-0.320
-462.099	-98.015	-0.163	0.042
-461.084	-64.575	0.425	0.172
-460.070	398.404	0.190	-0.395
-459.055	-51.951	0.208	0.096
-458.040	98.300	-0.054	0.062
-457.026	46.810	0.214	0.198
-456.011	-200.000	-0.005	-0.132
-454.997	299.961	-0.069	-0.126
-453.982	-79.266	-0.160	0.054
-452.968	-4.571	-0.375	-0.258
-451.953	-200.000	0.017	-0.426
-450.938	-200.000	0.016	0.250
-449.924	-200.000	0.010	-0.089
-448.909	-126.646	-0.219	-0.032
-447.895	-16.098	0.123	0.078
-446.880	-140.240	-0.397	0.041
-445.865	-200.000	-0.003	-0.029
-444.851	391.766	-0.130	0.270
-443.836	-81.006	0.280	0.092
-442.822	110.595	0.126	-0.151
-441.807	215.487	0.183	-0.289
-440.792	800.000	-0.129	-0.375
-439.778	-36.642	-0.154	-0.082
-438.763	-98.242	-0.102	0.026
-437.749	169.543	-0.157	0.224
-436.734	-53.874	-0.161	-0.073
-435.719	-59.994	0.128	-0.055
-434.705	-200.000	-0.024	0.194
-433.690	-200.000	-0.020	0.167
-432.676	-59.074	-0.108	0.046
-431.661	-113.831	0.391	-0.076
-430.646	267.474	-0.114	-0.199
-429.632	-73.773	0.245	0.089
-428.617	-104.371	-0.225	-0.052
-427.603	-5.436	0.015	0.010
-426.588	-107.955	-0.269	0.058
-425.573	-53.977	0.146	0.066
-424.559	-55.536	0.167	0.075
-423.544	703.979	0.043	0.112
-422.530	-186.027	-0.204	-0.003
-421.515	135.489	-0.102	0.132
-420.500	800.000	-0.100	-0.421
-419.486	-200.000	-0.025	-0.187
-418.471	171.058	0.041	0.058
-417.457	170.728	-0.184	0.262
-416.442	63.756	0.148	-0.148
-415.428	-152.812	-0.181	-0.013
-414.413	595.208	0.123	0.302
-413.398	-200.000	0.018	0.167
-412.384	-200.000	0.032	0.355
-411.369	130.939	0.102	0.130
-410.355	-47.170	0.210	0.102
-409.340	-184.351	-0.401	0.007
-408.325	393.622	0.062	0.129
-407.311	-81.031	-0.373	0.123
-406.296	283.278	0.066	0.119
-405.282	-188.000	0.058	-0.001
-404.267	32.716	-0.113	-0.097
-403.252	-153.510	-0.287	-0.020
-402.238	1.254	0.271	-0.194
-401.223	-200.000	0.003	0.194
-400.209	231.307	0.118	0.192
-399.194	-64.427	0.150	-0.060
-398.179	59.046	0.038	-0.037
-397.165	618.698	-0.049	-0.123
-396.150	601.670	-0.123	-0.305
-395.136	75.551	0.201	0.211
-394.121	-58.374	0.073	0.032
-393.106	800.000	0.019	0.059
-392.092	-127.578	0.120	-0.017
-391.077	-18.494	-0.109	-0.068
-390.063	387.950	-0.162	0.332
-389.048	49.034	0.125	-0.116
-388.033	-108.029	0.326	-0.070
-387.019	7.235	-0.162	-0.120
-386.004	-73.282	-0.318	-0.115
-384.990	800.000	-0.044	-0.123
-383.975	-200.000	0.006	0.226
-382.960	143.234	0.275	0.364
-381.946	-0.588	0.154	-0.108
-380.931	-3.025	-0.323	0.224
-379.917	-107.322	0.283	0.062
-378.902	79.638	-0.105	0.112
-377.888	-62.908	-0.189	0.078
-376.873	-69.942	0.093	0.035
-375.858	-109.208	-0.335	0.071
-374.844	-200.000	-0.058	-0.426
-373.829	-57.214	-0.121	-0.053
-372.815	-98.793	-0.219	-0.055
-371.800	-200.000	0.028	-0.159
-370.785	-20.554	0.050	0.030
-369.771	-99.398	0.308	-0.077
-368.756	-133.456	0.247	0.031
-367.742	-64.231	-0.169	0.068
-366.727	624.698	0.071	0.179
-365.712	-51.669	0.197	-0.091
-364.698	-6.832	0.197	0.133
-363.683	800.000	-0.042	0.130
-362.669	-86.067	-0.102	-0.031
-361.654	-134.610	-0.302	-0.037
-360.639	-200.000	-0.019	0.115
-359.625	570.618	-0.080	-0.193
-358.610	800.000	0.091	-0.327
-357.596	82.548	0.094	-0.102
-356.581	-6.458	-0.327	0.221
-355.566	-200.000	-0.015	0.255
-354.552	800.000	0.093	0.278
-353.537	-108.469	0.346	-0.074
-352.523	-31.901	0.101	0.056
-351.508	-122.005	-0.324	-0.053
-350.493	8.175	-0.114	-0.085
-349.479	-117.280	0.108	0.019
-348.464	21.892	-0.113	-0.091
-347.450	473.016	0.068	-0.152
-346.435	-48.698	-0.095	0.045
-345.420	-36.999	0.342	-0.182
-344.406	531.782	-0.018	0.043
-343.391	714.152	0.088	0.231
-342.377	124.765	-0.134	-0.168
-341.362	-92.330	0.365	0.102
-340.348	522.578	0.011	0.026
-339.333	19.044	-0.228	0.181
-338.318	30.934	0.072	-0.061
-337.304	-103.247	0.370	-0.087
-336.289	-57.000	0.254	-0.111
-335.275	62.413	-0.097	0.096
-334.260	800.000	-0.102	0.306
-333.245	-200.000	-0.058	-0.400
-332.231	191.141	0.176	0.263
-331.216	-200.000	-0.047	-0.337
-330.202	132.232	0.093	-0.118
-329.187	-134.605	0.118	-0.014
-328.172	-200.000	0.014	0.085
-327.158	-50.786	0.092	-0.043
-326.143	304.870	-0.183	0.337
-325.129	800.000	0.022	0.064
-324.114	-123.495	0.292	0.046
-323.099	-88.180	-0.149	0.044
-322.085	-38.544	0.218	0.114
-321.070	-155.761	-0.441	0.028
-320.056	-115.479	-0.115	0.022
-319.041	-114.575	-0.343	-0.065
-318.026	-200.000	-0.007	0.200
-317.012	-74.819	0.365	0.130
-315.997	-110.915	0.324	0.066
-314.983	-200.000	-0.036	0.297
-313.968	0.847	-0.224	-0.159
-312.953	335.401	0.198	0.380
-311.939	-39.889	-0.228	0.118
-310.924	51.894	-0.246	0.232
-309.910	800.000	-0.064	-0.206
-308.895	-200.000	0.032	0.396
-307.880	-95.884	-0.405	0.107
-306.866	436.195	-0.049	-0.106
-305.851	188.123	-0.090	0.133
-304.837	28.683	0.260	0.218
-303.822	-161.661	0.153	-0.008
-302.807	800.000	-0.140	0.538
-301.793	606.662	-0.050	0.124
-300.778	-34.164	-0.333	0.181
-299.764	-145.571	-0.244	-0.022
-298.749	-72.331	0.139	-0.051
-297.735	-200.000	0.034	0.431
-296.720	-58.486	-0.121	-0.052
-295.705	-200.000	-0.005	-0.155
-294.691	800.000	-0.086	-0.310
-293.676	48.380	-0.134	0.124
-292.662	496.165	0.132	-0.300
-291.647	-76.083	0.233	-0.082
-290.632	143.184	0.072	-0.095
-289.618	800.000	0.028	-0.098
-288.603	800.000	0.031	-0.127
-287.589	506.209	0.101	0.233
-286.574	179.123	0.162	0.235
-285.559	-200.000	0.039	-0.266
-284.545	-124.310	-0.309	0.048
-283.530	800.000	-0.009	0.037
-282.516	-96.066	0.167	0.044
-281.501	354.399	-0.172	-0.339
-280.486	-112.988	0.213	0.042
-279.472	77.916	0.152	-0.160
-278.457	-133.742	-0.123	0.015
-277.443	-59.220	-0.118	-0.050
-276.428	-164.784	0.064	-0.003
-275.413	-126.019	0.241	-0.036
-274.399	800.000	-0.065	-0.180
-273.384	-9.321	-0.068	0.045
-272.370	16.373	-0.113	-0.088
-271.355	130.866	-0.286	-0.363
-270.340	-21.095	0.276	-0.167
-269.326	-121.334	0.230	-0.038
-268.311	145.739	-0.099	-0.132
-267.297	338.924	0.085	0.163
-266.282	-80.356	0.151	0.050
-265.267	-91.398	0.227	-0.064
-264.253	-127.998	0.259	-0.037
-263.238	-24.284	-0.219	0.129
-262.224	-196.244	0.089	-0.001
-261.209	16.808	-0.306	-0.239
-260.195	-108.641	-0.196	0.042
-259.180	32.893	-0.225	-0.193
-258.165	75.442	0.202	0.211
-257.151	-200.000	-0.032	-0.220
-256.136	-51.429	0.104	0.048
-255.122	-200.000	0.014	-0.246
-254.107	-200.000	-0.047	0.333
-253.092	-86.480	-0.192	0.058
-252.078	-50.920	0.227	0.105
-251.063	-200.000	-0.037	-0.414
-250.049	-43.291	0.453	0.227
-249.034	-16.916	0.313	0.195
-248.019	-200.000	0.022	0.216
-247.005	-71.116	0.138	0.051
-245.990	-171.094	0.328	0.011
-244.976	-200.000	-0.028	-0.172
-243.961	318.289	-0.070	0.130
-242.946	-192.822	0.331	-0.003
-241.932	-200.000	-0.006	-0.366
-240.917	767.506	0.034	-0.092
-239.903	-52.780	-0.239	0.109
-238.888	248.166	0.059	-0.099
-237.873	126.138	-0.249	-0.311
-236.859	-41.573	0.276	-0.140
-235.844	485.529	-0.061	0.138
-234.830	229.268	-0.149	0.241
-233.815	-200.000	-0.022	0.264
-232.800	800.000	-0.092	-0.369
-231.786	-200.000	-0.306	0.001
-230.771	-114.825	-0.304	-0.057
-229.757	-122.524	0.145	0.023
-228.742	116.827	0.074	-0.089
-227.727	-86.999	0.152	-0.046
-226.713	142.081	-0.142	0.186
-225.698	-200.000	-0.018	0.196
-224.684	800.000	-0.090	-0.304
-223.669	674.461	0.105	-0.269
-222.655	-200.000	0.055	0.452
-221.640	-101.735	0.122	-0.029
-220.625	94.733	-0.166	0.186
-219.611	-200.000	0.018	0.123
-218.596	-87.637	-0.132	0.039
-217.582	-78.210	-0.391	0.133
-216.567	304.942	0.079	0.145
-215.552	57.566	0.124	-0.120
-214.538	106.820	0.147	-0.172
-213.523	-111.274	0.123	0.025
-212.509	800.000	-0.079	0.254
-211.494	-30.423	0.306	0.171
-210.479	31.419	0.218	0.185
-209.465	124.016	-0.222	-0.275
-208.450	19.975	0.052	0.042
-207.436	-200.000	0.015	-0.130
-206.421	800.000	-0.124	-0.340
-205.406	103.740	-0.449	0.520
-204.392	-145.578	0.308	0.027
-203.377	-97.976	0.211	0.054
-202.363	-50.409	0.137	-0.064
-201.348	54.920	0.452	0.431
-200.333	-200.000	-0.011	0.053
-199.319	187.568	0.210	-0.309
-198.304	47.558	-0.126	0.116
-197.290	290.318	-0.030	-0.054
-196.275	800.000	-0.011	0.045
-195.260	120.196	-0.271	0.331
-194.246	345.951	-0.053	0.103
-193.231	536.374	0.080	-0.186
-192.217	-200.000	-0.003	0.237
-191.202	84.892	-0.243	0.262
-190.187	350.858	-0.069	0.135
-189.173	800.000	-0.015	0.055
-188.158	209.318	0.212	-0.327
-187.144	151.868	-0.107	-0.144
-186.129	-128.707	0.143	0.020
-185.114	800.000	-0.020	0.062
-184.100	-134.097	-0.342	0.042
-183.085	201.225	0.089	-0.135
-182.071	-161.050	-0.196	-0.010
-181.056	-200.000	0.007	0.119
-180.042	217.838	0.055	-0.086
-179.027	790.176	0.088	0.239
-178.012	561.779	0.100	0.238
-176.998	-65.539	-0.305	-0.121
-175.983	232.500	0.036	-0.058
-174.969	-73.510	0.249	0.090
-173.954	800.000	-0.089	-0.249
-172.939	266.812	0.086	-0.148
-171.925	-200.000	0.052	-0.360
-170.910	411.106	0.127	0.266
-169.896	800.000	-0.063	0.229
-168.881	521.483	-0.079	-0.183
-167.866	298.626	-0.120	-0.218
-166.852	312.471	0.250	-0.462
-165.837	-87.364	-0.196	-0.058
-164.823	-191.019	-0.274	0.003
-163.808	501.374	-0.052	-0.118
-162.793	129.275	0.137	0.172
-161.779	-149.019	0.187	0.015
-160.764	81.290	0.267	-0.284
-159.750	68.242	0.103	0.104
-158.735	27.389	0.090	0.075
-157.720	-200.000	-0.009	-0.183
-156.706	127.880	-0.119	-0.149
-155.691	-102.431	-0.325	0.077
-154.677	-51.672	0.272	-0.125
-153.662	-34.222	-0.186	-0.101
-152.647	329.289	-0.098	-0.185
-151.633	-200.000	-0.051	-0.239
-150.618	140.991	-0.177	0.230
-149.604	46.842	-0.159	-0.145
-148.589	-200.000	0.018	0.085
-147.574	-56.090	-0.111	0.049
-146.560	-200.000	0.036	-0.197
-145.545	271.556	0.127	0.221
-144.531	-200.000	-0.062	0.363
-143.516	69.025	0.092	-0.093
-142.502	-164.707	-0.083	0.004
-141.487	-124.809	-0.051	0.008
-140.472	355.166	0.023	0.045
-139.458	-137.238	-0.138	-0.015
-138.443	-200.000	0.026	0.148
-137.429	228.342	-0.082	-0.132
-136.414	-121.212	0.200	-0.033
-135.399	-75.262	-0.308	0.108
-134.385	57.850	-0.268	-0.258
-133.370	64.766	-0.122	-0.121
-132.356	-138.316	0.530	0.058
-131.341	-200.000	0.031	0.157
-130.326	-158.334	0.291	-0.017
-129.312	186.805	0.066	0.097
-128.297	800.000	-0.059	0.166
-127.283	-200.000	0.010	0.251
-126.268	233.013	0.056	0.090
-125.253	531.795	-0.080	0.185
-124.239	252.702	-0.080	-0.135
-123.224	780.225	-0.065	0.174
-122.210	-91.411	-0.146	0.041
-121.195	-35.497	-0.177	0.094
