DTS Sentinel unit serial number:	SN413079Multiplexer serial number:	ORYXHardware model number:	OX4-SRSoftware version number:	ORYX F/W v4.00 Oryx Data Collector v3.7.2.0data status	okinstallation	princeton_trtdifferential loss correction	single-endedforward channel	channel 1reverse channel	N/Adate	2019/09/11time	15:12:11forward acquisition time	60.00reverse acquisition time	0.00gamma	496.2192k internal	0.2292k external	0.2292temperature offset calibration	0.9987default loss term (dB/km)	0.3790temperature slope calibration	1.0000multiplexer offset coefficient	1.0000multiplexer slope coefficient	1.0000fibre end	0.00T internal ref (°C)	43.00T ext. ref 1 (°C)	0.95T ext. ref 2 (°C)	36.46length (m)	temperature (°C)	Stokes	anti-Stokes-747.200	310.092	-0.097	0.185
-746.185	-72.345	-0.240	-0.091
-745.171	284.692	0.095	0.175
-744.156	800.000	0.030	-0.125
-743.142	-99.686	0.242	-0.062
-742.127	642.940	-0.173	0.452
-741.112	-200.000	-0.031	0.398
-740.098	-91.263	-0.329	0.096
-739.083	-200.000	0.014	-0.199
-738.069	-158.941	0.169	-0.010
-737.054	-116.329	-0.078	0.015
-736.039	-3.616	-0.206	0.146
-735.025	36.538	-0.065	-0.058
-734.010	800.000	0.042	0.150
-732.996	180.259	-0.072	0.109
-731.981	-200.000	0.019	0.275
-730.966	34.152	0.108	0.096
-729.952	234.940	0.053	-0.089
-728.937	-59.747	-0.365	-0.160
-727.923	-32.227	0.055	0.031
-726.908	-200.000	-0.015	0.090
-725.894	-65.929	-0.193	0.079
-724.879	800.000	-0.100	0.300
-723.864	800.000	-0.047	0.145
-722.850	145.257	0.060	-0.083
-721.835	161.517	0.017	0.024
-720.821	-80.410	-0.219	-0.075
-719.806	-200.000	-0.015	0.149
-718.791	327.408	-0.091	0.179
-717.777	73.885	-0.110	0.118
-716.762	98.208	-0.047	0.056
-715.748	-22.726	0.061	-0.038
-714.733	-200.000	0.030	0.242
-713.718	-18.752	0.115	0.073
-712.704	-200.000	0.034	-0.196
-711.689	-121.573	0.110	-0.019
-710.675	-78.673	-0.228	0.080
-709.660	69.627	-0.100	0.105
-708.645	-11.319	0.166	-0.112
-707.631	-20.461	0.242	0.152
-706.616	18.796	0.258	-0.211
-705.602	-12.073	0.350	-0.235
-704.587	-46.570	0.190	0.095
-703.572	-60.628	-0.164	0.071
-702.558	-200.000	-0.051	0.253
-701.543	64.456	0.236	0.243
-700.529	-200.000	0.017	-0.332
-699.514	668.076	-0.121	-0.321
-698.499	628.904	0.088	-0.228
-697.485	53.809	-0.196	-0.192
-696.470	-71.345	0.113	0.043
-695.456	207.636	-0.066	0.106
-694.441	-200.000	0.056	-0.249
-693.426	1.971	0.071	0.052
-692.412	155.533	0.135	0.189
-691.397	-96.774	0.274	-0.074
-690.383	-97.840	0.005	-0.001
-689.368	-200.000	0.007	-0.146
-688.354	-200.000	-0.004	0.172
-687.339	24.740	0.245	-0.207
-686.324	114.545	-0.120	0.150
-685.310	-172.185	-0.495	0.016
-684.295	117.291	0.099	-0.125
-683.281	-200.000	0.023	0.435
-682.266	-200.000	0.026	0.219
-681.251	-91.536	-0.234	-0.068
-680.237	105.309	-0.068	0.082
-679.222	99.290	-0.166	0.196
-678.208	-100.928	0.256	-0.064
-677.193	-125.229	0.194	-0.030
-676.178	-153.576	0.240	-0.017
-675.164	800.000	-0.041	0.132
-674.149	73.485	0.035	0.037
-673.135	86.912	0.092	-0.104
-672.120	243.083	-0.110	-0.188
-671.105	-127.841	0.343	0.050
-670.091	365.328	0.214	-0.439
-669.076	-172.994	0.072	-0.002
-668.062	195.257	-0.102	-0.158
-667.047	-3.889	-0.258	-0.183
-666.032	246.149	-0.035	0.061
-665.018	-200.000	-0.005	-0.081
-664.003	158.359	0.043	0.060
-662.989	94.496	0.194	-0.224
-661.974	-96.032	0.213	0.058
-660.959	-111.637	-0.316	0.065
-659.945	-99.781	-0.393	-0.100
-658.930	87.442	-0.045	0.050
-657.916	-126.058	-0.174	0.027
-656.901	-200.000	-0.019	0.138
-655.886	-101.088	0.039	0.010
-654.872	-35.826	0.331	0.183
-653.857	140.049	0.215	0.290
-652.843	275.433	-0.076	-0.138
-651.828	-200.000	0.004	-0.273
-650.814	-200.000	0.056	-0.282
-649.799	-69.072	0.070	0.027
-648.784	-76.653	-0.053	0.019
-647.770	38.027	-0.162	0.147
-646.755	212.533	-0.058	0.093
-645.741	-160.644	-0.353	-0.019
-644.726	-200.000	0.006	-0.132
-643.711	575.380	0.094	-0.235
-642.697	6.289	-0.402	0.304
-641.682	631.571	0.171	-0.441
-640.668	-134.515	0.166	0.021
-639.653	-37.839	-0.127	0.069
-638.638	129.728	-0.139	-0.181
-637.624	-41.209	-0.228	0.120
-636.609	800.000	0.063	-0.259
-635.595	32.460	-0.091	0.080
-634.580	-100.778	-0.023	0.006
-633.565	177.921	0.291	-0.433
-632.551	438.146	-0.118	0.262
-631.536	207.082	0.130	0.207
-630.522	800.000	-0.081	0.291
-629.507	115.739	-0.087	0.108
-628.492	-42.853	0.111	-0.058
-627.478	-199.001	-0.190	-0.001
-626.463	-200.000	-0.024	-0.230
-625.449	-73.715	0.414	-0.154
-624.434	-105.863	-0.094	-0.022
-623.419	-18.820	-0.131	-0.083
-622.405	105.420	-0.248	-0.299
-621.390	60.000	0.099	-0.100
-620.376	179.199	0.127	0.190
-619.361	-3.381	-0.171	-0.121
-618.346	-200.000	-0.006	-0.039
-617.332	-121.039	-0.278	-0.047
-616.317	254.861	-0.265	0.461
-615.303	-87.193	0.135	0.042
-614.288	-200.000	-0.014	0.159
-613.273	301.644	-0.061	-0.115
-612.259	-200.000	0.007	-0.190
-611.244	-200.000	-0.050	-0.358
-610.230	-83.638	-0.050	0.016
-609.215	-200.000	0.012	0.226
-608.201	-30.072	-0.269	-0.156
-607.186	60.220	0.156	-0.157
-606.171	-117.429	0.248	-0.046
-605.157	130.467	-0.168	-0.219
-604.142	-150.478	0.314	0.025
-603.128	-13.843	-0.171	-0.113
-602.113	-88.381	0.231	0.070
-601.098	553.295	-0.123	0.301
-600.084	94.547	-0.108	-0.125
-599.069	35.217	-0.153	0.137
-598.055	-143.677	-0.190	-0.018
-597.040	86.241	-0.155	0.174
-596.025	710.695	0.065	0.176
-595.011	45.433	0.229	0.216
-593.996	-164.218	0.394	0.018
-592.982	-200.000	-0.060	-0.454
-591.967	-87.371	-0.344	0.106
-590.952	-1.353	0.219	0.158
-589.938	-173.477	0.205	-0.006
-588.923	378.430	-0.044	0.092
-587.909	-34.791	0.180	-0.100
-586.894	-111.790	0.136	-0.028
-585.879	-35.248	-0.119	0.066
-584.865	-34.855	0.270	-0.150
-583.850	800.000	-0.023	0.091
-582.836	-101.574	0.133	0.033
-581.821	-109.031	-0.121	0.026
-580.806	-47.135	0.130	0.064
-579.792	-96.691	0.118	-0.032
-578.777	-200.000	0.012	-0.150
-577.763	-116.330	0.423	0.080
-576.748	129.009	-0.091	0.117
-575.733	546.700	-0.074	-0.180
-574.719	-196.465	0.320	0.002
-573.704	126.843	-0.211	-0.273
-572.690	411.086	0.092	-0.199
-571.675	77.744	0.115	0.124
-570.661	-43.899	0.307	-0.157
-569.646	-48.991	0.235	-0.114
-568.631	254.830	-0.148	-0.257
-567.617	-200.000	-0.018	-0.253
-566.602	500.248	0.072	0.168
-565.588	324.821	0.129	0.250
-564.573	-200.000	0.011	0.179
-563.558	16.308	-0.167	0.134
-562.544	-110.691	-0.170	-0.036
-561.529	724.778	0.151	-0.409
-560.515	483.809	-0.171	0.396
-559.500	170.179	-0.100	0.146
-558.485	241.287	-0.172	-0.292
-557.471	-200.000	-0.008	-0.112
-556.456	800.000	-0.071	-0.221
-555.442	-120.935	0.020	0.003
-554.427	-200.000	-0.006	-0.087
-553.412	-105.002	0.183	0.043
-552.398	-200.000	-0.085	0.000
-551.383	-111.735	0.111	-0.023
-550.369	53.484	-0.112	-0.109
-549.354	384.828	0.032	0.067
-548.339	-152.949	-0.231	0.017
-547.325	-133.500	0.236	-0.030
-546.310	104.885	0.143	0.172
-545.296	271.256	0.102	0.182
-544.281	-86.257	0.247	-0.077
-543.266	-83.394	-0.096	0.031
-542.252	-130.229	-0.201	0.028
-541.237	800.000	0.066	0.282
-540.223	-43.106	0.361	-0.186
-539.208	-76.548	-0.068	0.024
-538.193	123.754	-0.196	-0.250
-537.179	800.000	-0.066	-0.203
-536.164	388.644	-0.093	0.196
-535.150	64.622	0.164	0.168
-534.135	141.953	-0.040	0.054
-533.121	-200.000	-0.016	-0.208
-532.106	237.574	-0.151	0.255
-531.091	-134.678	0.160	0.020
-530.077	-161.438	0.261	-0.014
-529.062	800.000	0.075	-0.283
-528.048	800.000	-0.031	-0.108
-527.033	-51.262	0.160	-0.076
-526.018	285.940	0.130	0.238
-525.004	217.772	-0.035	0.057
-523.989	80.733	-0.171	-0.187
-522.975	-112.732	0.119	-0.024
-521.960	-106.572	0.113	0.026
-520.945	151.050	0.154	-0.212
-519.931	445.717	-0.110	-0.246
-518.916	-112.802	0.103	-0.021
-517.902	-96.354	0.162	0.043
-516.887	-118.094	-0.088	-0.016
-515.872	-162.986	-0.012	-0.001
-514.858	3.041	-0.160	0.118
-513.843	118.640	-0.119	-0.149
-512.829	-60.890	0.315	0.135
-511.814	4.332	-0.177	0.131
-510.799	345.522	0.130	-0.258
-509.785	86.831	0.212	-0.237
-508.770	240.576	0.100	0.169
-507.756	800.000	-0.071	-0.217
-506.741	-200.000	0.014	-0.253
-505.726	198.519	0.220	-0.342
-504.712	-79.497	-0.111	0.038
-503.697	-200.000	0.046	0.217
-502.683	172.923	0.122	0.178
-501.668	-200.000	0.059	-0.373
-500.653	-115.247	-0.224	0.043
-499.639	-81.702	0.102	-0.034
-498.624	-120.118	0.432	-0.075
-497.610	-200.000	-0.005	-0.274
-496.595	-96.743	0.165	-0.044
-495.581	369.310	-0.238	0.488
-494.566	-77.280	-0.170	-0.060
-493.551	-200.000	-0.051	-0.251
-492.537	-144.347	-0.316	0.030
-491.522	-0.194	-0.328	0.236
-490.508	227.332	0.043	0.071
-489.493	-26.663	-0.141	0.084
-488.478	-200.000	0.017	0.286
-487.464	44.803	-0.115	-0.107
-486.449	-92.346	-0.026	0.007
-485.435	-149.863	0.157	0.012
-484.420	635.081	0.068	0.174
-483.405	188.547	0.164	0.249
-482.391	-18.193	0.146	-0.092
-481.376	-46.941	-0.258	-0.128
-480.362	129.945	-0.048	0.063
-479.347	79.802	-0.200	-0.217
-478.332	-110.066	0.173	-0.037
-477.318	95.213	-0.262	-0.302
-476.303	-120.780	0.381	0.065
-475.289	-200.000	-0.025	0.158
-474.274	-200.000	0.034	0.309
-473.259	-160.100	0.264	0.015
-472.245	-2.460	0.154	-0.109
-471.230	-200.000	0.042	-0.256
-470.216	-75.044	-0.348	-0.126
-469.201	800.000	0.023	0.090
-468.186	-142.660	-0.056	-0.006
-467.172	-119.525	0.204	-0.036
-466.157	364.742	0.019	-0.039
-465.143	-200.000	0.023	0.131
-464.128	-102.251	-0.178	0.043
-463.113	-52.777	-0.226	-0.105
-462.099	18.566	-0.018	-0.015
-461.084	-200.000	-0.023	-0.137
-460.070	24.151	-0.156	0.130
-459.055	443.508	0.064	0.142
-458.040	497.102	0.135	0.315
-457.026	-81.584	0.426	0.142
-456.011	7.051	-0.111	-0.084
-454.997	-17.300	-0.142	-0.091
-453.982	800.000	0.149	0.427
-452.968	-117.205	0.257	0.047
-451.953	-31.875	0.229	0.130
-450.938	-54.654	-0.053	0.024
-449.924	165.442	0.125	0.179
-448.909	-52.162	0.228	0.107
-447.895	-88.929	0.240	-0.072
-446.880	-160.803	-0.260	0.014
-445.865	-200.000	-0.027	-0.185
-444.851	-101.527	0.453	0.111
-443.836	800.000	0.033	-0.126
-442.822	-136.641	-0.289	-0.034
-441.807	-75.001	-0.202	-0.073
-440.792	303.500	0.101	-0.189
-439.778	27.771	-0.105	-0.089
-438.763	-200.000	0.022	-0.320
-437.749	437.810	-0.074	-0.162
-436.734	-200.000	-0.058	0.697
-435.719	180.685	-0.090	0.133
-434.705	215.986	-0.155	-0.249
-433.690	800.000	-0.058	0.229
-432.676	-200.000	0.044	-0.296
-431.661	800.000	-0.115	-0.394
-430.646	-27.971	0.167	0.098
-429.632	119.020	0.073	0.091
-428.617	45.317	0.217	-0.203
-427.603	33.143	-0.212	0.186
-426.588	-99.543	-0.305	-0.077
-425.573	122.188	0.031	-0.039
-424.559	-145.715	0.151	0.014
-423.544	-134.942	-0.163	-0.020
-422.530	83.969	-0.153	-0.168
-421.515	800.000	0.032	-0.090
-420.500	99.603	-0.166	-0.195
-419.486	-93.599	-0.247	-0.069
-418.471	-148.437	0.148	0.012
-417.457	-59.716	0.346	0.150
-416.442	800.000	-0.106	0.429
-415.428	27.977	0.283	0.241
-414.413	-200.000	0.024	0.132
-413.398	800.000	0.025	0.078
-412.384	-62.238	-0.262	-0.111
-411.369	11.829	-0.173	0.134
-410.355	-200.000	-0.031	-0.232
-409.340	-14.004	-0.207	0.135
-408.325	193.609	-0.176	0.269
-407.311	235.377	-0.092	-0.154
-406.296	-200.000	0.002	0.038
-405.282	338.257	-0.035	0.068
-404.267	-200.000	-0.013	-0.097
-403.252	384.018	-0.032	0.066
-402.238	344.470	-0.088	0.175
-401.223	436.815	-0.108	0.238
-400.209	266.947	-0.187	0.331
-399.194	-200.000	-0.017	-0.133
-398.179	103.831	-0.151	-0.179
-397.165	-17.078	-0.014	-0.009
-396.150	800.000	0.085	-0.258
-395.136	-200.000	-0.015	0.332
-394.121	-109.089	-0.235	-0.050
-393.106	40.290	0.207	0.188
-392.092	392.675	0.133	0.280
-391.077	-200.000	-0.030	-0.259
-390.063	-156.248	-0.189	0.012
-389.048	-168.151	-0.319	-0.013
-388.033	133.776	-0.061	-0.080
-387.019	-184.759	0.097	0.002
-386.004	800.000	-0.055	-0.191
-384.990	-140.769	0.130	0.014
-383.975	-69.618	-0.164	-0.064
-382.960	428.641	-0.112	0.244
-381.946	766.157	0.119	0.327
-380.931	-47.512	-0.332	-0.163
-379.917	-200.000	0.005	0.080
-378.902	-1.453	-0.176	0.125
-377.888	124.898	0.223	-0.283
-376.873	369.770	-0.098	-0.201
-375.858	44.182	-0.232	-0.215
-374.844	421.078	-0.033	0.071
-373.829	-200.000	-0.004	-0.373
-372.815	3.235	-0.018	-0.013
-371.800	503.402	0.093	0.218
-370.785	-127.539	0.132	0.019
-369.771	-142.936	0.127	0.012
-368.756	34.959	0.265	0.234
-367.742	131.104	0.168	0.218
-366.727	242.583	0.081	-0.137
-365.712	800.000	0.019	-0.068
-364.698	322.642	0.053	0.101
-363.683	-200.000	0.032	0.464
-362.669	-127.686	-0.189	0.028
-361.654	-61.456	-0.356	0.151
-360.639	171.958	-0.043	-0.063
-359.625	-105.649	-0.223	0.051
-358.610	-95.382	-0.241	0.065
-357.596	64.875	-0.088	0.089
-356.581	800.000	-0.089	-0.304
-355.566	-42.809	0.224	-0.115
-354.552	800.000	-0.065	0.232
-353.537	-200.000	0.003	-0.082
-352.523	-175.502	-0.099	-0.003
-351.508	800.000	-0.017	-0.068
-350.493	751.420	-0.061	0.166
-349.479	-100.594	0.227	0.056
-348.464	-58.447	-0.102	0.045
-347.450	276.470	-0.052	0.092
-346.435	734.160	-0.018	0.049
-345.420	-39.383	0.179	0.095
-344.406	-200.000	-0.003	0.512
-343.391	-134.684	-0.342	-0.042
-342.377	42.963	-0.152	-0.140
-341.362	-100.648	-0.199	-0.049
-340.348	-23.777	-0.071	-0.043
-339.333	800.000	0.053	0.228
-338.318	341.265	0.141	0.278
-337.304	-200.000	0.025	-0.468
-336.289	238.617	-0.102	-0.170
-335.275	-131.320	-0.331	-0.044
-334.260	-191.280	-0.207	-0.002
-333.245	-96.707	0.149	-0.039
-332.231	16.328	0.212	0.169
-331.216	-43.295	0.050	-0.026
-330.202	48.586	0.272	0.257
-329.187	-167.482	-0.261	0.011
-328.172	-77.169	-0.152	0.053
-327.158	120.500	0.183	0.229
-326.143	-19.208	0.199	-0.124
-325.129	-86.779	-0.120	-0.037
-324.114	259.754	-0.070	0.122
-323.099	7.412	-0.081	0.061
-322.085	157.002	-0.110	-0.153
-321.070	81.661	-0.120	0.131
-320.056	800.000	-0.018	-0.054
-319.041	38.207	0.064	0.057
-318.026	85.048	-0.251	0.277
-317.012	476.721	-0.078	-0.177
-315.997	-140.059	0.306	0.032
-314.983	27.657	0.209	0.177
-313.968	-200.000	0.008	0.087
-312.953	-200.000	0.010	0.227
-311.939	-200.000	0.055	-0.262
-310.924	-162.293	-0.074	0.004
-309.910	25.456	0.129	-0.108
-308.895	64.207	-0.157	-0.159
-307.880	-200.000	0.004	-0.216
-306.866	-86.382	0.167	0.052
-305.851	-200.000	-0.048	-0.287
-304.837	58.383	0.066	0.065
-303.822	800.000	-0.066	-0.247
-302.807	115.326	-0.098	0.120
-301.793	301.884	0.092	-0.172
-300.778	113.675	-0.124	0.152
-299.764	-200.000	-0.007	-0.222
-298.749	167.827	-0.079	0.114
-297.735	-200.000	0.024	-0.376
-296.720	218.630	-0.153	0.246
-295.705	113.284	-0.167	-0.204
-294.691	800.000	-0.106	-0.308
-293.676	800.000	0.090	-0.273
-292.662	-197.312	0.325	0.002
-291.647	-93.205	-0.220	-0.062
-290.632	-122.713	-0.292	0.047
-289.618	-200.000	0.003	-0.081
-288.603	86.587	-0.116	-0.129
-287.589	204.453	0.097	0.152
-286.574	-200.000	-0.026	-0.219
-285.559	-97.870	-0.376	0.098
-284.545	150.128	-0.145	0.198
-283.530	-26.460	0.279	0.164
-282.516	-83.294	0.091	-0.029
-281.501	2.527	-0.292	-0.212
-280.486	-116.331	0.252	-0.047
-279.472	-11.774	0.308	0.203
-278.457	-36.244	-0.081	0.044
-277.443	175.520	0.137	-0.200
-276.428	-96.963	-0.163	-0.043
-275.413	-5.091	-0.051	-0.035
-274.399	633.764	0.109	0.277
-273.384	-77.034	0.181	0.063
-272.370	-54.630	-0.239	-0.108
-271.355	106.092	0.359	0.427
-270.340	-40.769	0.125	-0.065
-269.326	-20.855	-0.126	0.077
-268.311	-200.000	0.002	-0.100
-267.297	-200.000	0.060	-0.303
-266.282	61.985	0.139	-0.140
-265.267	-58.226	0.170	0.074
-264.253	246.202	0.174	0.294
-263.238	-22.392	-0.276	0.168
-262.224	800.000	0.050	0.155
-261.209	45.430	-0.245	-0.227
-260.195	-120.213	0.306	-0.053
-259.180	-186.938	0.132	-0.002
-258.165	-200.000	-0.010	0.083
-257.151	-105.282	0.218	-0.050
-256.136	-1.326	0.277	-0.197
-255.122	720.608	0.040	-0.106
-254.107	220.666	-0.151	-0.244
-253.092	-150.957	0.244	0.018
-252.078	-123.986	0.117	-0.019
-251.063	-113.804	-0.271	0.053
-250.049	-101.312	0.204	0.050
-249.034	-127.351	-0.370	0.054
-248.019	231.335	-0.138	0.227
-247.005	-107.562	0.458	-0.101
-245.990	-180.589	0.159	-0.003
-244.976	-186.097	-0.248	0.004
-243.961	202.378	0.263	0.408
-242.946	155.688	-0.129	0.178
-241.932	-33.683	0.210	-0.116
-240.917	27.773	0.201	-0.170
-239.903	50.999	0.142	-0.136
-238.888	-88.672	-0.387	0.115
-237.873	-114.343	-0.198	0.038
-236.859	-113.630	-0.280	-0.055
-235.844	-157.129	0.175	0.011
-234.830	101.637	-0.100	0.117
-233.815	1.457	0.032	-0.023
-232.800	166.720	-0.209	-0.297
-231.786	-160.074	-0.266	-0.015
-230.771	77.233	-0.222	-0.236
-229.757	-200.000	0.041	0.215
-228.742	-200.000	0.043	0.289
-227.727	-87.445	-0.395	-0.120
-226.713	262.290	0.137	-0.238
-225.698	-76.476	0.041	0.015
-224.684	-84.955	-0.305	0.096
-223.669	144.099	-0.093	-0.125
-222.655	-81.786	-0.085	0.028
-221.640	-200.000	-0.032	-0.158
-220.625	672.990	0.057	0.149
-219.611	-50.526	0.416	-0.197
-218.596	117.502	0.086	-0.106
-217.582	800.000	0.016	-0.068
-216.567	519.367	-0.082	0.193
-215.552	-12.543	-0.071	-0.046
-214.538	800.000	0.050	-0.192
-213.523	-95.062	0.071	-0.019
-212.509	-200.000	-0.022	-0.276
-211.494	353.565	0.034	-0.068
-210.479	-200.000	-0.008	0.123
-209.465	315.853	0.075	0.141
-208.450	-200.000	-0.030	0.248
-207.436	-94.842	0.106	0.029
-206.421	-97.941	0.379	-0.098
-205.406	-48.390	0.281	0.136
-204.392	203.409	-0.160	0.249
-203.377	20.277	-0.151	0.123
-202.363	753.227	0.093	-0.251
-201.348	-27.234	-0.131	-0.076
-200.333	-200.000	-0.016	-0.112
-199.319	29.347	-0.065	0.056
-198.304	10.384	0.103	-0.079
-197.290	69.664	-0.048	0.050
-196.275	-71.677	0.291	0.109
-195.260	800.000	0.018	-0.078
-194.246	-64.928	0.139	-0.056
-193.231	800.000	0.046	-0.198
-192.217	76.709	-0.155	0.165
-191.202	800.000	0.002	-0.007
-190.187	-140.636	-0.338	0.035
-189.173	-23.556	0.171	0.103
-188.158	65.781	-0.251	-0.255
-187.144	9.254	0.156	0.118
-186.129	-200.000	0.028	-0.340
-185.114	47.526	0.223	-0.209
-184.100	33.885	0.100	-0.088
-183.085	591.211	0.030	0.074
-182.071	-38.413	-0.032	-0.017
-181.056	-111.252	-0.089	-0.018
-180.042	-163.689	0.367	0.017
-179.027	667.395	0.188	0.486
-178.012	208.942	0.104	-0.162
-176.998	-51.918	-0.262	0.122
-175.983	-144.806	-0.254	-0.023
-174.969	800.000	-0.046	-0.175
-173.954	185.273	0.056	0.083
-172.939	-28.260	0.298	0.172
-171.925	-22.908	-0.145	-0.088
-170.910	-145.340	-0.276	0.025
-169.896	-149.777	0.239	0.019
-168.881	10.156	-0.303	0.231
-167.866	-200.000	0.066	-0.351
-166.852	-1.131	0.256	0.181
-165.837	14.545	0.133	0.104
-164.823	6.443	0.287	0.213
-163.808	99.935	0.162	0.188
-162.793	-200.000	-0.072	0.611
-161.779	51.953	-0.073	0.070
-160.764	-111.008	0.339	-0.070
-159.750	-200.000	0.027	-0.261
-158.735	618.449	0.089	0.224
-157.720	-61.148	-0.076	-0.032
-156.706	-107.210	-0.191	0.042
-155.691	-79.053	-0.239	-0.081
-154.677	24.000	0.146	0.120
-153.662	62.463	0.119	0.119
-152.647	40.268	0.107	-0.097
-151.633	135.143	-0.022	-0.029
-150.618	-130.694	-0.207	0.028
-149.604	69.279	0.141	0.145
-148.589	-64.611	0.165	-0.067
-147.574	-15.904	0.302	-0.193
-146.560	-200.000	-0.017	0.231
-145.545	-200.000	0.003	-0.070
-144.531	-93.139	-0.214	0.060
-143.516	299.228	-0.110	0.203
-142.502	800.000	-0.019	0.065
-141.487	-25.203	-0.103	-0.061
-140.472	-75.752	0.273	0.097
-139.458	40.574	-0.346	0.311
-138.443	64.522	-0.088	0.089
-137.429	-200.000	-0.015	0.119
-136.414	-76.872	0.131	0.046
-135.399	766.156	0.028	0.077
-134.385	-21.873	-0.156	0.095
-133.370	147.894	0.233	0.314
-132.356	-74.210	-0.157	0.057
-131.341	27.052	-0.415	0.348
-130.326	-200.000	-0.011	0.168
-129.312	-53.162	-0.300	-0.138
-128.297	-118.388	-0.150	0.027
-127.283	174.857	0.177	-0.256
-126.268	800.000	0.123	-0.343
-125.253	-35.728	0.273	0.148
-124.239	-15.678	-0.267	-0.170
-123.224	447.924	0.136	-0.299
-122.210	-0.882	0.068	-0.048
-121.195	-8.749	0.262	0.175
