DTS Sentinel unit serial number:	SN413079Multiplexer serial number:	ORYXHardware model number:	OX4-SRSoftware version number:	ORYX F/W v4.00 Oryx Data Collector v3.7.2.0data status	okinstallation	princeton_trtdifferential loss correction	single-endedforward channel	channel 1reverse channel	N/Adate	2019/09/18time	18:26:35forward acquisition time	60.00reverse acquisition time	0.00gamma	496.2192k internal	0.2294k external	0.2294temperature offset calibration	1.0014default loss term (dB/km)	0.3790temperature slope calibration	1.0000multiplexer offset coefficient	1.0000multiplexer slope coefficient	1.0000fibre end	0.00T internal ref (°C)	38.50T ext. ref 1 (°C)	0.93T ext. ref 2 (°C)	31.18length (m)	temperature (°C)	Stokes	anti-Stokes-747.200	318.759	-0.195	0.379
-746.185	446.873	-0.097	0.218
-745.171	63.277	0.124	-0.127
-744.156	27.394	-0.233	0.200
-743.142	463.143	0.068	0.155
-742.127	800.000	-0.123	0.360
-741.112	-200.000	0.030	-0.337
-740.098	-112.851	-0.432	-0.088
-739.083	800.000	0.047	0.188
-738.069	800.000	0.190	0.539
-737.054	566.299	0.055	0.137
-736.039	38.674	0.082	0.075
-735.025	-102.130	-0.263	-0.065
-734.010	-53.569	-0.169	-0.079
-732.996	800.000	-0.039	0.134
-731.981	4.944	0.255	-0.192
-730.966	-163.482	-0.183	-0.009
-729.952	322.932	0.159	-0.309
-728.937	-104.661	-0.162	0.038
-727.923	-62.243	0.127	0.054
-726.908	82.787	-0.176	0.195
-725.894	360.421	0.081	0.165
-724.879	74.967	-0.162	0.174
-723.864	127.318	0.063	-0.082
-722.850	267.596	0.255	-0.456
-721.835	415.539	0.180	-0.391
-720.821	800.000	-0.127	-0.501
-719.806	69.702	0.182	-0.192
-718.791	-200.000	0.049	0.276
-717.777	183.586	-0.086	-0.130
-716.762	-200.000	-0.015	-0.269
-715.748	-147.263	0.328	-0.029
-714.733	17.952	-0.087	-0.071
-713.718	-56.531	-0.172	-0.078
-712.704	-200.000	0.030	-0.371
-711.689	224.192	-0.129	0.213
-710.675	-200.000	-0.023	-0.136
-709.660	-188.272	-0.113	0.001
-708.645	265.147	-0.049	-0.087
-707.631	-91.460	-0.252	0.073
-706.616	-158.784	0.168	0.010
-705.602	800.000	-0.061	-0.226
-704.587	34.915	0.140	0.125
-703.572	-128.726	-0.190	-0.027
-702.558	-90.636	-0.468	-0.138
-701.543	-75.990	-0.065	0.023
-700.529	-153.916	0.223	-0.016
-699.514	-18.034	0.061	-0.039
-698.499	800.000	-0.075	-0.249
-697.485	24.257	-0.097	-0.082
-696.470	800.000	0.063	-0.206
-695.456	57.265	0.050	-0.050
-694.441	800.000	0.047	0.145
-693.426	92.859	0.097	0.111
-692.412	-15.501	-0.193	0.126
-691.397	142.239	-0.251	-0.339
-690.383	-200.000	-0.021	-0.240
-689.368	800.000	-0.088	-0.380
-688.354	-200.000	-0.023	-0.262
-687.339	421.585	-0.105	-0.230
-686.324	-26.018	-0.234	0.140
-685.310	-98.120	-0.301	0.079
-684.295	216.596	-0.145	-0.235
-683.281	135.834	0.289	-0.384
-682.266	-141.959	0.154	0.016
-681.251	-23.533	0.168	0.103
-680.237	-126.582	-0.275	-0.042
-679.222	800.000	0.092	-0.335
-678.208	11.174	0.250	-0.195
-677.193	-11.352	-0.098	-0.066
-676.178	52.185	0.262	-0.254
-675.164	-157.850	-0.211	0.013
-674.149	27.030	0.196	0.168
-673.135	-197.772	-0.117	0.001
-672.120	-200.000	-0.023	-0.104
-671.105	-99.718	-0.314	0.080
-670.091	266.256	-0.078	0.139
-669.076	-66.256	0.102	0.042
-668.062	150.961	-0.044	-0.061
-667.047	800.000	0.105	0.371
-666.032	-41.043	0.135	0.071
-665.018	800.000	-0.069	-0.305
-664.003	-92.964	-0.221	-0.063
-662.989	640.264	-0.031	0.080
-661.974	-200.000	-0.008	-0.048
-660.959	1.240	0.352	0.258
-659.945	-200.000	0.006	0.112
-658.930	-119.122	0.349	0.062
-657.916	-200.000	-0.009	-0.201
-656.901	-200.000	0.013	-0.245
-655.886	158.515	0.192	-0.272
-654.872	800.000	0.020	0.078
-653.857	-45.111	0.206	0.105
-652.843	3.734	-0.095	-0.070
-651.828	-82.970	-0.255	-0.084
-650.814	328.977	0.095	-0.186
-649.799	45.988	0.107	-0.100
-648.784	-200.000	-0.017	0.190
-647.770	-51.558	-0.147	-0.070
-646.755	800.000	0.088	-0.300
-645.741	153.099	0.150	0.210
-644.726	-200.000	0.028	-0.226
-643.711	-76.880	0.197	-0.070
-642.697	-38.252	-0.144	-0.078
-641.682	-60.463	-0.105	0.045
-640.668	197.315	0.088	-0.136
-639.653	77.489	-0.115	-0.124
-638.638	-200.000	0.012	0.153
-637.624	-160.141	-0.073	0.004
-636.609	-140.741	-0.292	-0.031
-635.595	-139.082	-0.346	-0.038
-634.580	-22.224	-0.223	0.137
-633.565	387.390	0.033	-0.069
-632.551	-200.000	0.002	0.170
-631.536	103.999	-0.286	0.342
-630.522	-19.537	0.057	-0.036
-629.507	30.704	0.050	0.044
-628.492	85.634	-0.234	-0.261
-627.478	-124.909	0.252	0.040
-626.463	800.000	-0.082	0.299
-625.449	-75.739	-0.483	-0.175
-624.434	33.510	-0.153	0.136
-623.419	-68.860	-0.102	0.040
-622.405	45.202	-0.045	0.042
-621.390	-11.936	0.076	-0.051
-620.376	60.128	-0.159	0.160
-619.361	-62.248	0.250	0.106
-618.346	-80.927	0.150	0.051
-617.332	545.860	0.091	0.221
-616.317	-16.957	-0.318	-0.204
-615.303	-57.122	0.374	0.168
-614.288	-114.227	-0.309	-0.061
-613.273	-149.235	-0.064	-0.005
-612.259	-52.341	-0.154	-0.073
-611.244	511.072	0.154	0.365
-610.230	-200.000	0.010	0.276
-609.215	-125.305	0.352	0.055
-608.201	-200.000	-0.054	-0.301
-607.186	499.608	0.055	0.129
-606.171	273.853	-0.053	0.096
-605.157	-200.000	-0.012	0.127
-604.142	800.000	-0.074	-0.318
-603.128	-56.384	-0.553	-0.250
-602.113	-90.063	-0.315	-0.093
-601.098	687.044	0.174	0.463
-600.084	800.000	0.003	0.015
-599.069	-41.261	-0.308	0.161
-598.055	-168.880	-0.174	0.007
-597.040	-200.000	0.004	-0.163
-596.025	323.951	-0.029	-0.057
-595.011	-29.259	0.174	-0.101
-593.996	-47.218	0.315	0.156
-592.982	158.707	0.105	0.148
-591.967	-106.726	0.120	-0.027
-590.952	47.466	0.153	-0.145
-589.938	123.984	0.034	-0.043
-588.923	800.000	-0.087	-0.298
-587.909	122.045	0.275	0.349
-586.894	176.467	-0.218	0.321
-585.879	163.082	-0.083	0.118
-584.865	800.000	0.070	-0.241
-583.850	-80.696	-0.174	0.059
-582.836	-114.013	0.329	0.065
-581.821	-200.000	0.112	0.519
-580.806	-120.504	-0.190	-0.033
-579.792	382.815	0.110	-0.230
-578.777	-200.000	0.014	-0.170
-577.763	-200.000	0.035	0.267
-576.748	-200.000	0.027	-0.178
-575.733	42.350	-0.048	0.044
-574.719	-200.000	-0.001	0.123
-573.704	113.280	-0.046	0.057
-572.690	72.880	-0.185	-0.196
-571.675	800.000	-0.058	-0.168
-570.661	566.960	0.103	-0.255
-569.646	-200.000	-0.011	-0.238
-568.631	-175.858	0.114	-0.003
-567.617	52.319	0.182	-0.176
-566.602	-200.000	-0.025	-0.206
-565.588	-200.000	0.014	-0.094
-564.573	-200.000	-0.019	0.559
-563.558	636.663	-0.045	-0.117
-562.544	-125.628	0.215	0.033
-561.529	-68.754	0.292	0.115
-560.515	-37.152	0.246	0.134
-559.500	54.369	-0.064	0.062
-558.485	-144.418	0.223	0.021
-557.471	234.224	-0.102	0.170
-556.456	324.182	-0.094	-0.183
-555.442	12.015	0.144	-0.112
-554.427	-61.250	0.205	0.087
-553.412	-167.974	0.194	0.008
-552.398	162.721	0.176	-0.250
-551.383	455.133	-0.099	-0.222
-550.369	122.754	-0.101	-0.128
-549.354	-200.000	0.049	-0.410
-548.339	234.173	-0.066	0.110
-547.325	166.102	-0.193	0.277
-546.310	161.612	0.300	-0.426
-545.296	800.000	-0.047	0.138
-544.281	290.255	0.111	0.204
-543.266	21.459	0.191	0.158
-542.252	146.939	0.087	0.119
-541.237	286.566	0.076	0.139
-540.223	-200.000	0.038	-0.269
-539.208	800.000	-0.077	-0.267
-538.193	10.806	-0.018	-0.014
-537.179	-65.840	0.239	0.097
-536.164	-173.369	-0.129	-0.004
-535.150	-200.000	0.017	0.248
-534.135	314.915	0.048	-0.092
-533.121	-81.420	0.316	0.106
-532.106	41.312	-0.031	-0.028
-531.091	-99.118	0.111	0.028
-530.077	-131.178	-0.447	-0.060
-529.062	800.000	0.055	0.204
-528.048	54.491	-0.238	0.233
-527.033	800.000	0.155	-0.572
-526.018	-200.000	0.037	-0.227
-525.004	-109.790	-0.324	0.069
-523.989	-98.776	-0.268	-0.069
-522.975	-200.000	-0.040	-0.384
-521.960	443.808	0.038	0.085
-520.945	-187.399	-0.184	0.003
-519.931	800.000	0.080	-0.273
-518.916	-200.000	-0.018	0.130
-517.902	800.000	-0.120	0.367
-516.887	-200.000	-0.007	-0.071
-515.872	41.524	0.328	0.301
-514.858	-200.000	0.003	-0.173
-513.843	248.713	0.190	-0.326
-512.829	-54.829	0.095	0.044
-511.814	210.252	0.131	0.208
-510.799	800.000	0.087	-0.364
-509.785	89.582	-0.123	0.139
-508.770	324.246	-0.138	-0.267
-507.756	-200.000	-0.008	0.116
-506.741	44.850	0.212	0.198
-505.726	-24.545	0.224	-0.135
-504.712	-73.267	-0.085	-0.031
-503.697	-200.000	-0.053	0.256
-502.683	800.000	0.027	0.091
-501.668	594.464	0.051	-0.127
-500.653	-151.192	0.397	0.030
-499.639	15.391	0.168	0.134
-498.624	-37.886	-0.156	-0.084
-497.610	-106.232	0.288	-0.065
-496.595	-5.324	0.275	0.191
-495.581	100.561	-0.204	0.240
-494.566	-75.390	0.041	-0.015
-493.551	26.733	-0.187	-0.159
-492.537	800.000	0.078	0.277
-491.522	647.897	-0.054	-0.139
-490.508	54.791	-0.291	-0.285
-489.493	-200.000	0.147	0.000
-488.478	-68.499	-0.121	-0.048
-487.464	-74.135	0.220	0.081
-486.449	123.000	0.006	-0.008
-485.435	47.111	0.281	-0.265
-484.420	75.627	0.328	0.350
-483.405	-193.881	0.102	-0.001
-482.391	-200.000	-0.015	0.310
-481.376	-99.945	0.151	0.038
-480.362	274.428	0.061	0.110
-479.347	480.848	-0.115	0.264
-478.332	13.121	-0.130	0.102
-477.318	-200.000	-0.003	0.298
-476.303	-130.783	-0.174	0.024
-475.289	40.568	0.260	0.237
-474.274	-66.176	-0.296	-0.119
-473.259	-12.759	-0.388	-0.256
-472.245	-11.754	-0.182	0.121
-471.230	62.141	0.137	0.138
-470.216	800.000	0.065	0.258
-469.201	366.401	-0.051	0.105
-468.186	135.598	-0.083	-0.110
-467.172	26.649	-0.150	0.127
-466.157	800.000	0.085	-0.340
-465.143	276.376	0.111	0.200
-464.128	33.425	0.164	0.144
-463.113	453.520	0.098	-0.220
-462.099	-138.324	0.089	0.010
-461.084	-200.000	0.005	-0.023
-460.070	319.722	0.078	-0.150
-459.055	800.000	-0.034	0.106
-458.040	800.000	0.036	-0.127
-457.026	-116.819	0.186	-0.034
-456.011	142.268	0.254	0.340
-454.997	56.735	0.227	-0.223
-453.982	18.657	0.117	-0.094
-452.968	-200.000	0.026	0.293
-451.953	-96.567	-0.310	0.083
-450.938	-51.883	-0.104	-0.049
-449.924	589.367	-0.084	0.210
-448.909	-118.957	-0.088	-0.016
-447.895	-107.741	0.170	-0.037
-446.880	-200.000	0.001	0.200
-445.865	-9.826	0.193	0.130
-444.851	201.801	0.034	-0.052
-443.836	-72.186	-0.292	0.110
-442.822	-148.471	-0.243	0.020
-441.807	-200.000	0.015	-0.199
-440.792	-101.277	0.081	0.020
-439.778	-1.307	-0.065	-0.046
-438.763	472.534	-0.147	-0.335
-437.749	194.603	-0.045	-0.070
-436.734	50.570	-0.436	0.417
-435.719	221.358	0.064	0.104
-434.705	218.893	-0.165	0.266
-433.690	-142.162	0.394	-0.040
-432.676	-200.000	0.012	-0.246
-431.661	-146.636	0.184	0.016
-430.646	-122.475	0.123	0.020
-429.632	330.857	-0.171	0.333
-428.617	-134.507	-0.345	0.043
-427.603	800.000	-0.061	0.242
-426.588	59.923	0.061	-0.061
-425.573	-83.852	0.293	0.094
-424.559	-68.118	0.222	-0.087
-423.544	-11.109	-0.109	-0.073
-422.530	24.561	0.022	0.019
-421.515	424.102	-0.117	-0.254
-420.500	-166.297	-0.216	-0.009
-419.486	-67.098	-0.130	0.052
-418.471	-130.221	0.176	-0.024
-417.457	800.000	-0.011	-0.037
-416.442	-76.535	0.062	0.022
-415.428	51.855	-0.160	-0.154
-414.413	-44.503	-0.019	0.010
-413.398	-79.324	0.034	-0.012
-412.384	0.394	-0.123	-0.088
-411.369	800.000	-0.059	0.187
-410.355	-174.758	0.308	0.009
-409.340	-77.192	0.319	-0.112
-408.325	1.549	-0.293	-0.212
-407.311	32.909	-0.124	0.109
-406.296	-59.281	-0.338	-0.147
-405.282	-85.513	0.103	0.032
-404.267	-89.035	0.264	-0.079
-403.252	-32.560	-0.135	0.076
-402.238	149.648	0.123	-0.169
-401.223	171.452	-0.210	-0.304
-400.209	800.000	0.042	-0.126
-399.194	-110.855	0.382	0.079
-398.179	800.000	-0.060	-0.241
-397.165	800.000	0.089	0.269
-396.150	429.891	-0.089	-0.193
-395.136	-75.268	-0.102	0.037
-394.121	163.594	-0.011	0.016
-393.106	800.000	0.069	0.250
-392.092	-28.388	-0.212	0.124
-391.077	-62.663	-0.238	0.099
-390.063	33.240	-0.332	0.290
-389.048	-92.315	0.216	0.061
-388.033	6.804	-0.182	0.136
-387.019	-200.000	0.052	0.405
-386.004	-200.000	-0.012	0.130
-384.990	91.092	0.067	-0.076
-383.975	28.307	-0.178	0.152
-382.960	-144.457	-0.217	0.020
-381.946	-24.649	0.053	-0.032
-380.931	-85.770	0.236	0.074
-379.917	-14.928	-0.276	0.178
-378.902	75.883	0.078	0.083
-377.888	-6.293	-0.089	0.061
-376.873	-84.699	-0.238	-0.076
-375.858	143.044	0.105	-0.140
-374.844	800.000	-0.098	0.300
-373.829	-200.000	-0.053	0.296
-372.815	147.662	-0.078	0.106
-371.800	-200.000	0.012	-0.204
-370.785	10.025	0.151	0.116
-369.771	800.000	0.034	0.140
-368.756	268.316	-0.144	-0.255
-367.742	-110.171	-0.087	0.018
-366.727	-94.467	0.215	0.059
-365.712	383.387	0.167	-0.346
-364.698	-200.000	0.010	-0.179
-363.683	-100.474	-0.302	0.075
-362.669	-41.997	0.191	-0.099
-361.654	-200.000	0.008	0.035
-360.639	-200.000	0.000	-0.138
-359.625	-35.762	-0.132	0.072
-358.610	131.572	0.012	-0.016
-357.596	144.883	0.170	0.229
-356.581	-200.000	-0.005	0.137
-355.566	-200.000	0.024	0.408
-354.552	129.450	0.014	0.018
-353.537	29.658	-0.309	-0.265
-352.523	800.000	-0.117	0.383
-351.508	-200.000	0.019	0.163
-350.493	-200.000	0.021	0.142
-349.479	-101.671	0.181	0.044
-348.464	603.009	-0.092	-0.231
-347.450	-98.673	0.251	-0.065
-346.435	11.747	-0.119	-0.092
-345.420	141.101	0.125	-0.167
-344.406	-76.005	-0.206	0.073
-343.391	-200.000	0.001	0.040
-342.377	182.436	0.182	-0.271
-341.362	194.628	0.025	0.038
-340.348	-12.498	-0.444	-0.291
-339.333	114.331	0.175	-0.214
-338.318	-168.313	-0.375	0.015
-337.304	295.711	-0.218	-0.402
-336.289	82.645	0.369	-0.404
-335.275	113.381	-0.148	-0.181
-334.260	-109.433	-0.639	0.136
-333.245	-200.000	0.053	-0.248
-332.231	-1.738	0.139	-0.099
-331.216	-135.967	-0.176	0.021
-330.202	293.636	0.090	-0.165
-329.187	202.003	-0.206	-0.319
-328.172	29.348	-0.234	0.200
-327.158	-79.357	-0.031	0.010
-326.143	6.423	-0.152	0.114
-325.129	303.791	-0.133	0.248
-324.114	43.121	-0.241	0.222
-323.099	8.184	-0.156	0.118
-322.085	36.101	0.405	0.358
-321.070	-200.000	0.015	-0.068
-320.056	-200.000	-0.010	-0.100
-319.041	719.846	0.064	-0.171
-318.026	91.834	-0.098	-0.111
-317.012	658.455	-0.081	-0.211
-315.997	17.902	0.280	-0.224
-314.983	-64.461	-0.088	-0.036
-313.968	-77.840	0.086	0.030
-312.953	58.416	-0.054	0.053
-311.939	-40.070	0.107	-0.056
-310.924	45.115	-0.128	-0.118
-309.910	-117.537	-0.353	0.064
-308.895	69.558	0.164	-0.170
-307.880	-56.964	0.336	0.149
-306.866	200.535	-0.101	-0.156
-305.851	-16.671	-0.186	0.118
-304.837	-111.941	0.162	0.033
-303.822	-69.172	0.154	-0.060
-302.807	-185.722	-0.110	0.002
-301.793	37.375	0.378	0.336
-300.778	19.449	0.137	-0.111
-299.764	402.386	0.147	-0.311
-298.749	-38.069	0.256	-0.136
-297.735	-61.703	0.233	0.098
-296.720	136.324	0.086	0.112
-295.705	-45.425	-0.189	0.094
-294.691	-200.000	-0.027	-0.261
-293.676	-61.779	0.053	0.022
-292.662	593.980	0.090	0.225
-291.647	-123.475	0.174	-0.028
-290.632	231.408	0.142	0.233
-289.618	-200.000	0.010	-0.324
-288.603	81.340	-0.089	0.096
-287.589	-31.836	0.238	0.134
-286.574	-75.986	-0.240	-0.085
-285.559	-200.000	-0.009	-0.161
-284.545	23.318	0.075	-0.062
-283.530	-124.319	-0.208	-0.033
-282.516	-200.000	0.028	0.414
-281.501	-200.000	0.047	-0.295
-280.486	37.693	-0.343	0.306
-279.472	283.611	-0.087	0.156
-278.457	-153.012	-0.441	0.031
-277.443	-128.106	0.204	-0.029
-276.428	-52.782	0.360	0.167
-275.413	800.000	-0.071	-0.223
-274.399	29.996	0.094	-0.080
-273.384	-127.781	0.254	0.037
-272.370	-4.991	-0.032	-0.022
-271.355	-36.242	0.272	0.147
-270.340	664.302	0.139	-0.360
-269.326	-187.365	0.155	-0.002
-268.311	800.000	0.012	0.045
-267.297	11.782	-0.329	-0.254
-266.282	65.802	-0.052	0.053
-265.267	-200.000	0.024	0.279
-264.253	-69.019	0.066	0.026
-263.238	-200.000	-0.017	-0.133
-262.224	-186.027	-0.052	0.001
-261.209	800.000	-0.060	-0.200
-260.195	800.000	0.070	0.251
-259.180	-100.701	-0.015	0.004
-258.165	237.149	-0.232	0.386
-257.151	397.284	0.083	-0.174
-256.136	-200.000	-0.015	-0.251
-255.122	-200.000	0.003	-0.123
-254.107	-135.145	0.238	0.029
-253.092	30.811	0.035	0.030
-252.078	-200.000	0.001	-0.120
-251.063	-76.763	0.133	0.047
-250.049	767.171	0.075	0.204
-249.034	-0.210	-0.151	-0.108
-248.019	-50.605	0.180	0.085
-247.005	-14.526	-0.287	0.185
-245.990	84.880	0.139	0.153
-244.976	42.899	-0.175	-0.160
-243.961	-47.871	0.279	0.135
-242.946	-159.815	0.207	0.011
-241.932	-101.103	0.257	-0.063
-240.917	-104.741	0.429	-0.099
-239.903	212.916	0.044	0.070
-238.888	-111.055	-0.288	-0.059
-237.873	397.739	0.094	-0.197
-236.859	103.169	0.061	-0.071
-235.844	-162.095	-0.039	0.002
-234.830	166.491	-0.222	0.316
-233.815	800.000	0.054	0.191
-232.800	-20.726	-0.224	0.137
-231.786	112.010	0.038	0.046
-230.771	800.000	0.017	0.062
-229.757	117.211	-0.153	-0.188
-228.742	800.000	-0.031	0.123
-227.727	800.000	0.008	-0.033
-226.713	-102.717	-0.322	-0.077
-225.698	-157.256	0.513	-0.031
-224.684	-200.000	-0.036	0.197
-223.669	179.132	0.144	-0.211
-222.655	347.512	0.066	-0.131
-221.640	-200.000	-0.040	-0.179
-220.625	74.195	-0.173	0.182
-219.611	51.337	-0.158	0.150
-218.596	423.724	0.108	-0.232
-217.582	-35.238	0.111	-0.061
-216.567	294.857	0.107	-0.196
-215.552	-200.000	-0.002	0.025
-214.538	46.762	0.090	-0.084
-213.523	209.151	0.069	0.109
-212.509	75.681	0.150	-0.159
-211.494	-159.649	0.118	0.007
-210.479	-14.285	-0.260	0.168
-209.465	273.443	0.073	0.128
-208.450	-117.151	0.014	0.003
-207.436	-24.461	0.124	-0.074
-206.421	-77.656	0.296	0.102
-205.406	415.129	0.110	-0.236
-204.392	-125.519	0.228	-0.035
-203.377	-52.032	-0.171	-0.080
-202.363	-200.000	-0.023	-0.127
-201.348	-200.000	-0.016	-0.240
-200.333	-200.000	0.007	-0.280
-199.319	-123.567	-0.212	0.034
-198.304	-200.000	0.035	-0.159
-197.290	270.118	-0.121	-0.213
-196.275	137.858	-0.070	-0.092
-195.260	-141.826	-0.060	0.006
-194.246	-200.000	-0.005	0.178
-193.231	-105.593	0.331	0.075
-192.217	-61.401	0.292	0.123
-191.202	12.191	-0.176	0.136
-190.187	626.037	-0.157	0.396
-189.173	-11.263	-0.044	0.029
-188.158	-91.260	-0.320	-0.092
-187.144	70.446	0.036	0.037
-186.129	0.573	0.417	-0.299
-185.114	-120.055	0.188	0.032
-184.100	-66.186	0.090	-0.036
-183.085	-200.000	-0.056	-0.354
-182.071	-33.046	-0.357	0.198
-181.056	17.509	0.193	0.153
-180.042	46.491	-0.135	-0.125
-179.027	144.880	-0.167	-0.224
-178.012	800.000	0.016	0.071
-176.998	29.174	0.055	-0.047
-175.983	-71.837	-0.212	-0.079
-174.969	342.384	-0.137	0.269
-173.954	-200.000	-0.048	-0.530
-172.939	-81.197	0.183	0.060
-171.925	-200.000	-0.019	0.194
-170.910	-200.000	0.017	-0.316
-169.896	-45.663	0.112	-0.055
-168.881	-90.640	0.072	0.021
-167.866	-58.397	-0.098	0.043
-166.852	-8.277	-0.399	0.269
-165.837	800.000	0.150	-0.450
-164.823	-135.692	0.143	0.017
-163.808	-25.532	-0.081	0.048
-162.793	-142.450	-0.352	-0.035
-161.779	322.251	-0.045	0.085
-160.764	-100.038	-0.311	-0.077
-159.750	-200.000	-0.025	0.000
-158.735	12.696	0.088	-0.068
-157.720	800.000	-0.030	0.121
-156.706	-118.024	-0.213	-0.038
-155.691	-128.938	-0.371	0.052
-154.677	134.496	-0.154	-0.200
-153.662	-169.240	0.379	-0.014
-152.647	-1.218	-0.233	-0.165
-151.633	32.020	0.333	-0.287
-150.618	19.261	-0.162	-0.130
-149.604	-103.090	0.360	0.085
-148.589	177.776	0.160	-0.233
-147.574	-93.606	-0.183	0.050
-146.560	-67.550	0.232	-0.091
-145.545	20.008	0.224	-0.180
-144.531	-26.510	0.023	-0.014
-143.516	213.526	0.187	-0.295
-142.502	-164.653	0.170	-0.008
-141.487	-133.494	0.211	0.026
-140.472	-200.000	0.061	0.285
-139.458	-38.647	0.135	-0.071
-138.443	-56.539	0.239	-0.106
-137.429	35.153	0.244	0.214
-136.414	-200.000	-0.027	-0.210
-135.399	-128.734	-0.194	-0.027
-134.385	158.048	0.115	0.160
-133.370	264.430	-0.077	0.134
-132.356	-22.374	0.286	-0.173
-131.341	800.000	-0.053	-0.192
-130.326	74.344	0.098	0.103
-129.312	-200.000	0.037	-0.304
-128.297	800.000	-0.033	-0.142
-127.283	174.838	0.133	-0.192
-126.268	158.317	-0.108	0.150
-125.253	-200.000	-0.029	-0.291
-124.239	-200.000	-0.029	-0.171
-123.224	89.099	0.219	0.244
-122.210	-135.069	-0.119	0.014
-121.195	-200.000	-0.009	-0.063
-120.180	14.167	-0.175	0.136
