DTS Sentinel unit serial number:	SN413079Multiplexer serial number:	ORYXHardware model number:	OX4-SRSoftware version number:	ORYX F/W v4.00 Oryx Data Collector v3.7.2.0data status	okinstallation	princeton_trtdifferential loss correction	single-endedforward channel	channel 1reverse channel	N/Adate	2019/09/12time	02:04:11forward acquisition time	60.00reverse acquisition time	0.00gamma	496.2192k internal	0.2320k external	0.2320temperature offset calibration	1.0080default loss term (dB/km)	0.3790temperature slope calibration	1.0000multiplexer offset coefficient	1.0000multiplexer slope coefficient	1.0000fibre end	0.00T internal ref (°C)	32.75T ext. ref 1 (°C)	2.07T ext. ref 2 (°C)	27.18length (m)	temperature (°C)	Stokes	anti-Stokes-747.200	-33.867	-0.241	0.134
-746.185	64.099	-0.035	-0.036
-745.171	130.641	-0.147	-0.190
-744.156	-66.959	-0.304	0.121
-743.142	-91.170	0.487	0.141
-742.127	95.753	-0.062	0.071
-741.112	-74.076	-0.107	0.039
-740.098	209.702	-0.211	0.334
-739.083	253.866	0.112	-0.193
-738.069	-39.109	-0.152	0.081
-737.054	10.901	0.074	-0.057
-736.039	42.548	-0.384	-0.354
-735.025	11.477	0.108	0.084
-734.010	-200.000	0.056	-0.251
-732.996	-129.239	-0.158	0.022
-731.981	800.000	0.085	-0.246
-730.966	50.962	0.300	0.287
-729.952	-34.312	0.337	0.187
-728.937	-23.589	-0.209	-0.127
-727.923	-74.882	-0.087	-0.032
-726.908	-55.533	-0.124	-0.056
-725.894	800.000	0.076	-0.297
-724.879	604.040	-0.164	-0.411
-723.864	44.813	-0.165	0.153
-722.850	-200.000	-0.039	-0.248
-721.835	-115.548	0.207	0.039
-720.821	72.553	-0.320	0.337
-719.806	618.392	-0.167	0.423
-718.791	-156.492	0.107	-0.007
-717.777	-200.000	0.025	-0.158
-716.762	-200.000	-0.020	0.104
-715.748	10.644	-0.081	-0.062
-714.733	-22.514	-0.168	-0.103
-713.718	-43.192	0.115	-0.059
-712.704	47.900	0.113	-0.107
-711.689	-200.000	0.020	-0.253
-710.675	800.000	-0.035	0.117
-709.660	-55.286	0.330	0.150
-708.645	-132.797	0.498	-0.064
-707.631	-200.000	0.054	-0.247
-706.616	800.000	-0.024	0.070
-705.602	328.325	0.199	-0.386
-704.587	-65.017	0.089	0.036
-703.572	-82.593	0.307	0.101
-702.558	800.000	-0.100	0.348
-701.543	-107.290	-0.160	-0.035
-700.529	26.133	-0.082	-0.069
-699.514	70.888	0.363	-0.380
-698.499	800.000	0.102	0.340
-697.485	800.000	-0.058	-0.211
-696.470	551.274	-0.009	-0.022
-695.456	-123.433	-0.254	0.041
-694.441	-200.000	0.037	-0.179
-693.426	50.363	0.321	-0.306
-692.412	83.343	-0.162	-0.178
-691.397	-90.916	0.274	0.080
-690.383	151.329	0.111	-0.152
-689.368	377.017	-0.121	-0.250
-688.354	-95.027	0.292	0.080
-687.339	-200.000	-0.046	-0.267
-686.324	-32.818	0.315	-0.176
-685.310	800.000	-0.053	0.195
-684.295	-200.000	-0.037	0.272
-683.281	-10.647	-0.170	-0.113
-682.266	540.886	-0.023	-0.056
-681.251	466.534	-0.041	0.094
-680.237	800.000	0.035	0.112
-679.222	-46.266	-0.158	0.078
-678.208	-197.985	-0.112	-0.001
-677.193	-5.992	-0.202	-0.139
-676.178	-104.349	-0.187	0.044
-675.164	75.276	0.164	0.174
-674.149	-20.501	-0.237	-0.147
-673.135	520.988	-0.093	-0.219
-672.120	-43.083	-0.280	-0.143
-671.105	-200.000	-0.028	-0.258
-670.091	8.267	0.104	0.078
-669.076	-118.789	0.225	-0.040
-668.062	-141.068	-0.232	0.024
-667.047	342.284	0.136	0.269
-666.032	677.765	-0.098	-0.258
-665.018	-200.000	-0.001	-0.497
-664.003	800.000	-0.060	-0.245
-662.989	7.418	0.289	0.218
-661.974	145.965	0.078	0.105
-660.959	800.000	-0.094	0.375
-659.945	-154.106	0.233	0.016
-658.930	-65.464	-0.160	0.065
-657.916	-200.000	-0.009	-0.077
-656.901	358.082	0.070	0.140
-655.886	-116.386	0.319	0.059
-654.872	78.634	0.204	-0.220
-653.857	-142.837	-0.151	0.015
-652.843	-200.000	-0.018	-0.337
-651.828	212.663	-0.147	0.233
-650.814	800.000	0.078	0.221
-649.799	261.058	0.179	-0.312
-648.784	-116.868	0.139	-0.026
-647.770	658.661	0.035	-0.090
-646.755	-200.000	0.070	-0.340
-645.741	111.702	0.127	0.154
-644.726	22.270	0.126	-0.104
-643.711	-200.000	0.003	0.098
-642.697	676.403	-0.141	-0.368
-641.682	-167.593	0.209	0.008
-640.668	-133.845	0.072	-0.009
-639.653	150.618	-0.144	-0.198
-638.638	44.289	0.104	0.096
-637.624	161.660	0.083	0.116
-636.609	-126.788	-0.041	-0.006
-635.595	467.699	-0.072	0.162
-634.580	-77.365	0.138	0.048
-633.565	-130.178	-0.192	-0.026
-632.551	-200.000	0.060	0.366
-631.536	-200.000	-0.048	-0.268
-630.522	210.135	-0.080	0.126
-629.507	800.000	-0.070	-0.282
-628.492	800.000	0.006	-0.027
-627.478	-117.414	-0.498	0.091
-626.463	-200.000	-0.020	0.286
-625.449	367.311	-0.111	0.225
-624.434	52.753	-0.292	0.281
-623.419	463.259	-0.045	0.102
-622.405	52.384	0.272	-0.261
-621.390	-200.000	0.019	-0.208
-620.376	-40.902	-0.052	0.027
-619.361	-106.435	0.412	-0.093
-618.346	-56.098	0.451	-0.202
-617.332	138.286	-0.279	0.368
-616.317	800.000	0.058	0.173
-615.303	28.706	0.064	-0.055
-614.288	-137.681	-0.246	-0.028
-613.273	262.022	0.119	-0.207
-612.259	200.779	-0.075	-0.117
-611.244	-44.215	-0.061	0.031
-610.230	-170.853	-0.360	-0.012
-609.215	-94.758	0.258	0.070
-608.201	166.980	-0.220	-0.314
-607.186	80.878	0.110	-0.119
-606.171	136.929	-0.029	0.039
-605.157	-200.000	0.024	-0.418
-604.142	800.000	-0.030	0.110
-603.128	43.469	0.120	-0.110
-602.113	-98.511	0.267	-0.069
-601.098	358.569	0.038	0.075
-600.084	-135.820	0.164	-0.020
-599.069	-106.106	-0.082	-0.018
-598.055	800.000	0.010	0.039
-597.040	-200.000	-0.057	-0.271
-596.025	409.984	0.045	0.096
-595.011	602.022	-0.023	-0.058
-593.996	94.595	0.295	-0.337
-592.982	65.044	0.114	0.116
-591.967	800.000	-0.065	-0.258
-590.952	-2.320	-0.232	0.163
-589.938	241.609	-0.095	-0.159
-588.923	-200.000	0.013	0.059
-587.909	-80.965	0.124	-0.041
-586.894	59.517	0.146	-0.145
-585.879	-40.526	-0.164	-0.085
-584.865	-132.058	-0.167	0.022
-583.850	346.009	0.057	-0.113
-582.836	-18.725	0.327	0.205
-581.821	-13.611	-0.171	0.111
-580.806	800.000	-0.059	-0.173
-579.792	-8.163	-0.257	-0.174
-578.777	-160.188	-0.247	0.013
-577.763	248.934	0.059	0.101
-576.748	-200.000	0.008	0.119
-575.733	-34.944	0.081	-0.044
-574.719	-35.219	-0.119	0.065
-573.704	-132.803	-0.179	0.023
-572.690	-80.682	-0.147	0.049
-571.675	356.493	-0.102	-0.204
-570.661	800.000	-0.025	-0.087
-569.646	-200.000	0.030	-0.228
-568.631	8.960	-0.354	0.268
-567.617	-168.314	0.156	-0.006
-566.602	499.888	-0.090	0.209
-565.588	21.918	-0.277	-0.227
-564.573	-200.000	0.035	-0.368
-563.558	-133.098	0.173	-0.022
-562.544	-185.601	-0.161	0.002
-561.529	-128.741	-0.154	0.022
-560.515	580.213	0.077	-0.189
-559.500	164.028	0.237	0.335
-558.485	800.000	-0.108	-0.304
-557.471	-98.442	0.203	-0.052
-556.456	-200.000	-0.045	-0.336
-555.442	-32.305	0.280	0.157
-554.427	-69.024	-0.328	0.127
-553.412	-83.431	-0.232	0.074
-552.398	-161.627	-0.201	0.010
-551.383	800.000	0.135	0.385
-550.369	151.801	0.192	0.263
-549.354	-96.201	-0.214	0.057
-548.339	-35.450	0.371	-0.202
-547.325	-99.376	0.150	-0.038
-546.310	79.992	-0.260	0.280
-545.296	402.471	-0.136	0.286
-544.281	-122.633	0.157	-0.026
-543.266	-200.000	0.036	0.166
-542.252	96.618	-0.265	0.304
-541.237	-175.812	-0.152	0.004
-540.223	-59.657	-0.120	0.052
-539.208	331.689	0.199	-0.385
-538.193	800.000	0.106	0.410
-537.179	19.734	-0.236	-0.190
-536.164	74.748	0.107	-0.113
-535.150	-92.577	-0.185	-0.052
-534.135	-200.000	0.035	-0.184
-533.121	-200.000	-0.011	0.075
-532.106	71.287	0.221	0.229
-531.091	-85.466	-0.207	-0.065
-530.077	-95.621	0.141	0.038
-529.062	-84.555	0.215	0.068
-528.048	800.000	-0.117	0.327
-527.033	-200.000	-0.237	-0.000
-526.018	27.433	-0.303	-0.255
-525.004	168.351	-0.135	-0.193
-523.989	-200.000	-0.008	0.069
-522.975	451.114	0.059	-0.130
-521.960	-200.000	-0.005	-0.167
-520.945	-200.000	0.009	-0.222
-519.931	-165.696	0.142	-0.006
-518.916	-121.380	0.098	0.016
-517.902	-87.467	0.175	0.053
-516.887	-94.621	-0.327	-0.089
-515.872	-22.817	0.168	-0.102
-514.858	107.569	0.246	0.293
-513.843	280.076	0.064	0.115
-512.829	25.879	0.179	-0.150
-511.814	-11.832	-0.345	-0.227
-510.799	368.808	0.227	-0.460
-509.785	191.645	-0.160	-0.242
-508.770	-200.000	0.056	0.249
-507.756	-59.175	-0.248	0.107
-506.741	-149.265	0.081	0.006
-505.726	800.000	-0.055	-0.183
-504.712	377.937	-0.159	-0.326
-503.697	-59.544	-0.223	-0.096
-502.683	251.749	0.224	0.382
-501.668	51.254	0.349	0.332
-500.653	-40.526	0.114	-0.059
-499.639	22.871	-0.079	0.064
-498.624	155.479	0.164	-0.226
-497.610	-13.329	0.296	-0.192
-496.595	-200.000	0.026	-0.152
-495.581	-70.841	0.028	0.010
-494.566	196.042	-0.077	0.117
-493.551	-200.000	0.027	-0.231
-492.537	-96.410	-0.235	0.062
-491.522	-200.000	0.010	-0.048
-490.508	-38.812	-0.263	0.139
-489.493	-84.365	-0.177	-0.056
-488.478	-200.000	-0.029	-0.285
-487.464	-29.989	-0.177	0.101
-486.449	800.000	-0.027	-0.106
-485.435	-103.266	0.211	0.050
-484.420	663.426	-0.084	0.217
-483.405	-200.000	0.028	0.360
-482.391	-9.895	0.212	0.141
-481.376	800.000	-0.058	0.171
-480.362	343.359	-0.148	-0.291
-479.347	5.505	0.199	-0.147
-478.332	800.000	-0.061	-0.183
-477.318	-200.000	-0.005	-0.043
-476.303	-22.306	0.206	-0.125
-475.289	178.848	-0.043	0.063
-474.274	414.474	-0.051	-0.108
-473.259	-63.146	-0.313	0.129
-472.245	344.814	0.222	-0.437
-471.230	472.302	-0.018	-0.040
-470.216	-7.006	-0.124	0.084
-469.201	114.734	0.134	-0.163
-468.186	691.312	0.161	-0.423
-467.172	-200.000	0.017	-0.106
-466.157	-200.000	-0.042	0.226
-465.143	-61.519	0.179	-0.075
-464.128	-79.507	0.067	-0.022
-463.113	-32.702	-0.181	-0.101
-462.099	-23.481	0.331	0.199
-461.084	7.430	0.382	0.286
-460.070	0.282	-0.065	0.046
-459.055	-128.546	0.285	-0.040
-458.040	42.732	-0.156	0.142
-457.026	293.618	-0.099	0.180
-456.011	-123.220	-0.319	0.051
-454.997	334.134	0.123	-0.237
-453.982	22.237	0.074	0.061
-452.968	553.404	0.065	-0.157
-451.953	-200.000	-0.003	-0.319
-450.938	63.659	0.074	-0.075
-449.924	-72.000	0.093	-0.035
-448.909	252.875	-0.153	-0.260
-447.895	478.039	-0.067	0.151
-446.880	41.983	-0.070	0.063
-445.865	-200.000	0.035	0.230
-444.851	-64.966	-0.141	-0.057
-443.836	-56.380	-0.072	-0.032
-442.822	704.197	0.089	0.235
-441.807	377.724	0.120	-0.246
-440.792	322.785	0.126	0.241
-439.778	131.315	0.119	-0.153
-438.763	221.983	-0.143	-0.230
-437.749	800.000	0.151	0.511
-436.734	-93.843	-0.160	-0.044
-435.719	-37.063	-0.139	-0.074
-434.705	-11.895	0.123	0.081
-433.690	230.533	0.122	0.199
-432.676	187.521	-0.162	-0.242
-431.661	70.821	-0.174	-0.180
-430.646	249.318	-0.028	0.048
-429.632	-25.029	-0.242	0.144
-428.617	-74.799	0.315	0.113
-427.603	-112.960	0.333	0.066
-426.588	800.000	-0.091	0.390
-425.573	800.000	-0.026	0.084
-424.559	643.871	0.039	-0.100
-423.544	-72.865	-0.112	0.041
-422.530	367.063	0.186	0.374
-421.515	-200.000	0.010	-0.114
-420.500	-2.098	0.185	0.130
-419.486	84.647	-0.366	-0.400
-418.471	-70.682	0.208	0.078
-417.457	800.000	-0.095	0.345
-416.442	41.196	-0.265	-0.239
-415.428	-50.923	0.023	0.011
-414.413	-200.000	0.028	0.312
-413.398	69.977	-0.050	-0.052
-412.384	-128.387	-0.276	0.039
-411.369	800.000	-0.029	0.079
-410.355	115.768	0.081	0.098
-409.340	-200.000	-0.026	0.327
-408.325	-134.100	0.149	0.018
-407.311	-200.000	0.079	0.377
-406.296	-96.076	-0.250	0.066
-405.282	-96.541	0.114	-0.030
-404.267	-75.867	0.298	-0.105
-403.252	-75.891	-0.176	0.062
-402.238	800.000	-0.069	-0.210
-401.223	-200.000	0.006	-0.202
-400.209	-17.404	0.243	0.152
-399.194	468.001	-0.109	0.244
-398.179	-200.000	-0.005	-0.103
-397.165	-143.516	-0.160	-0.015
-396.150	-118.386	0.478	0.085
-395.136	-125.787	-0.094	0.014
-394.121	-126.767	-0.314	0.046
-393.106	-200.000	-0.052	0.280
-392.092	-19.397	-0.071	0.044
-391.077	-200.000	0.007	-0.226
-390.063	-200.000	0.014	0.262
-389.048	-200.000	0.018	0.247
-388.033	-200.000	0.042	0.215
-387.019	44.815	0.203	-0.186
-386.004	-148.154	0.091	-0.007
-384.990	183.648	-0.093	0.138
-383.975	365.181	0.061	0.122
-382.960	-79.217	-0.220	-0.074
-381.946	7.238	0.242	0.180
-380.931	-200.000	-0.024	-0.111
-379.917	119.440	0.149	0.184
-378.902	-109.261	0.249	-0.053
-377.888	373.044	-0.107	0.216
-376.873	-7.843	-0.304	-0.204
-375.858	-12.643	0.213	-0.138
-374.844	-106.753	0.184	-0.041
-373.829	355.861	-0.047	0.094
-372.815	-34.796	-0.228	0.124
-371.800	800.000	-0.059	-0.161
-370.785	-116.763	0.280	-0.051
-369.771	13.693	0.198	-0.153
-368.756	-96.933	-0.355	-0.093
-367.742	2.631	-0.027	0.019
-366.727	-200.000	0.037	-0.287
-365.712	-200.000	0.017	-0.084
-364.698	249.171	-0.163	-0.275
-363.683	800.000	0.001	-0.002
-362.669	-85.106	0.188	-0.059
-361.654	-167.546	0.312	-0.012
-360.639	657.649	0.063	-0.161
-359.625	75.685	0.273	0.287
-358.610	-200.000	-0.015	-0.223
-357.596	-57.185	0.212	0.093
-356.581	-200.000	-0.022	0.280
-355.566	800.000	-0.052	-0.148
-354.552	-200.000	0.021	0.358
-353.537	12.925	-0.193	0.149
-352.523	-92.304	-0.078	0.022
-351.508	19.483	-0.323	-0.259
-350.493	-102.471	-0.392	0.093
-349.479	-21.137	-0.285	-0.173
-348.464	-89.287	-0.148	0.043
-347.450	-140.926	-0.110	-0.011
-346.435	-200.000	0.042	0.388
-345.420	-139.186	-0.100	-0.011
-344.406	-200.000	-0.009	-0.050
-343.391	-200.000	0.009	-0.162
-342.377	61.918	-0.216	-0.214
-341.362	363.835	0.165	0.330
-340.348	800.000	0.086	-0.327
-339.333	-200.000	0.033	-0.147
-338.318	800.000	-0.096	0.265
-337.304	3.238	-0.056	0.040
-336.289	-63.827	-0.293	0.119
-335.275	-200.000	-0.014	-0.162
-334.260	-171.148	-0.166	-0.006
-333.245	268.855	-0.077	-0.134
-332.231	299.246	0.063	-0.116
-331.216	-200.000	0.016	-0.590
-330.202	-200.000	-0.001	0.242
-329.187	-45.233	-0.067	0.033
-328.172	-16.886	0.111	-0.070
-327.158	800.000	0.033	0.093
-326.143	290.912	-0.246	0.444
-325.129	800.000	-0.084	0.266
-324.114	-200.000	-0.025	-0.423
-323.099	500.346	-0.043	0.098
-322.085	38.444	0.158	0.140
-321.070	352.303	-0.057	0.112
-320.056	-200.000	-0.016	-0.428
-319.041	800.000	0.062	-0.187
-318.026	800.000	-0.013	-0.041
-317.012	301.169	0.100	-0.184
-315.997	-200.000	0.071	0.562
-314.983	-136.276	0.210	-0.024
-313.968	93.846	0.233	0.262
-312.953	291.575	-0.116	-0.210
-311.939	-113.097	-0.241	0.047
-310.924	-36.160	0.351	-0.188
-309.910	47.741	-0.202	0.187
-308.895	-21.963	-0.157	0.095
-307.880	-46.489	-0.313	0.153
-306.866	-58.014	0.243	-0.105
-305.851	-30.367	0.096	-0.054
-304.837	-108.936	0.161	-0.034
-303.822	475.500	-0.061	0.137
-302.807	501.649	-0.091	-0.209
-301.793	-133.739	0.053	-0.007
-300.778	-31.876	-0.132	0.073
-299.764	25.661	0.224	0.186
-298.749	-164.575	-0.268	-0.012
-297.735	84.924	0.169	0.184
-296.720	319.537	0.194	0.366
-295.705	-80.724	-0.255	-0.084
-294.691	-111.009	0.101	0.021
-293.676	9.960	0.226	0.170
-292.662	99.792	0.084	-0.096
-291.647	-200.000	0.093	0.408
-290.632	-200.000	-0.002	-0.073
-289.618	-132.933	-0.038	-0.005
-288.603	174.477	0.142	0.204
-287.589	372.296	-0.039	0.078
-286.574	-186.901	-0.264	-0.004
-285.559	49.266	0.387	-0.362
-284.545	33.133	-0.032	-0.027
-283.530	7.290	0.130	0.097
-282.516	-200.000	-0.005	-0.047
-281.501	-200.000	-0.039	0.325
-280.486	-81.309	0.027	0.009
-279.472	43.196	0.152	0.138
-278.457	-77.010	-0.124	-0.043
-277.443	-193.689	0.273	-0.002
-276.428	147.127	0.100	0.134
-275.413	-9.681	-0.221	-0.146
-274.399	51.779	0.177	-0.167
-273.384	-200.000	0.038	0.176
-272.370	800.000	-0.047	-0.173
-271.355	-53.349	-0.210	0.096
-270.340	-200.000	-0.035	-0.275
-269.326	-120.061	0.282	-0.048
-268.311	-200.000	-0.043	0.191
-267.297	-82.255	0.092	-0.030
-266.282	-143.909	0.177	-0.017
-265.267	800.000	-0.009	-0.032
-264.253	15.099	-0.101	-0.078
-263.238	240.713	-0.130	0.215
-262.224	-29.997	-0.401	-0.227
-261.209	-117.874	-0.252	-0.045
-260.195	-45.446	-0.084	0.041
-259.180	721.945	-0.056	0.149
-258.165	-111.502	-0.037	-0.007
-257.151	249.204	-0.097	-0.164
-256.136	318.510	-0.148	-0.279
-255.122	48.773	-0.049	-0.046
-254.107	800.000	-0.024	0.077
-253.092	-200.000	-0.060	0.402
-252.078	-72.020	-0.425	0.157
-251.063	61.640	-0.205	-0.203
-250.049	84.281	-0.101	0.109
-249.034	800.000	-0.043	-0.185
-248.019	-148.332	-0.247	0.020
-247.005	609.910	-0.098	0.243
-245.990	-37.079	-0.210	0.112
-244.976	-76.970	0.145	0.050
-243.961	-200.000	-0.011	0.419
-242.946	411.040	0.055	0.116
-241.932	122.945	0.135	0.168
-240.917	-131.745	-0.164	-0.021
-239.903	164.076	0.199	0.278
-238.888	372.416	0.146	-0.294
-237.873	-53.021	-0.074	-0.034
-236.859	-65.122	0.203	-0.081
-235.844	197.559	0.122	0.184
-234.830	420.644	0.199	-0.424
-233.815	-200.000	0.020	-0.253
-232.800	-41.177	0.304	0.155
-231.786	722.488	0.040	0.104
-230.771	-52.985	-0.178	0.081
-229.757	-148.638	-0.207	-0.017
-228.742	-144.771	0.082	0.007
-227.727	-80.109	-0.070	-0.023
-226.713	37.492	0.059	0.052
-225.698	-200.000	-0.009	0.264
-224.684	26.781	0.176	0.146
-223.669	-130.933	-0.106	-0.014
-222.655	30.472	0.223	0.189
-221.640	549.181	0.089	0.210
-220.625	72.731	0.263	-0.272
-219.611	800.000	0.052	-0.194
-218.596	171.895	0.150	-0.214
-217.582	-81.283	-0.112	-0.036
-216.567	170.224	0.048	0.068
-215.552	-109.579	-0.331	0.069
-214.538	85.696	0.077	-0.084
-213.523	438.686	-0.097	0.209
-212.509	452.745	-0.076	0.167
-211.494	-200.000	-0.033	-0.364
-210.479	353.882	0.148	-0.290
-209.465	800.000	-0.076	-0.241
-208.450	-69.328	0.545	0.207
-207.436	-200.000	0.027	-0.118
-206.421	478.408	-0.158	0.355
-205.406	-200.000	0.019	0.381
-204.392	250.418	0.170	-0.285
-203.377	-139.851	0.224	0.024
-202.363	192.100	0.234	0.349
-201.348	388.184	-0.086	-0.177
-200.333	-200.000	-0.005	-0.473
-199.319	-200.000	-0.008	-0.159
-198.304	-200.000	-0.008	-0.090
-197.290	-200.000	-0.290	0.001
-196.275	-200.000	0.050	-0.387
-195.260	800.000	0.035	0.119
-194.246	-200.000	-0.035	0.161
-193.231	112.694	0.187	-0.224
-192.217	183.270	-0.061	-0.089
-191.202	-134.288	0.275	0.033
-190.187	-45.611	-0.383	-0.187
-189.173	-200.000	-0.006	-0.061
-188.158	-147.376	0.024	-0.002
-187.144	-82.276	0.399	-0.128
-186.129	-19.710	-0.047	0.029
-185.114	-200.000	-0.012	0.274
-184.100	-15.133	-0.313	-0.198
-183.085	800.000	-0.017	-0.054
-182.071	-121.424	-0.257	-0.042
-181.056	-200.000	-0.016	0.086
-180.042	800.000	0.014	0.054
-179.027	210.742	-0.252	-0.391
-178.012	-200.000	-0.029	-0.183
-176.998	168.110	0.158	-0.222
-175.983	-161.794	0.297	0.015
-174.969	-200.000	-0.007	0.421
-173.954	-172.886	0.235	-0.007
-172.939	782.231	0.066	-0.179
-171.925	700.446	0.020	0.052
-170.910	76.619	-0.010	0.010
-169.896	-65.400	0.151	0.060
-168.881	150.177	-0.185	0.248
-167.866	-200.000	-0.036	0.289
-166.852	-98.174	0.331	-0.084
-165.837	-144.058	0.123	-0.011
-164.823	506.717	0.072	-0.166
-163.808	-23.058	0.217	0.129
-162.793	-175.260	0.161	0.004
-161.779	-200.000	-0.055	0.377
-160.764	-124.150	0.135	0.021
-159.750	-144.141	0.047	0.004
-158.735	51.203	-0.278	0.261
-157.720	-120.322	-0.183	-0.031
-156.706	-200.000	-0.005	0.101
-155.691	-137.426	-0.260	-0.029
-154.677	-129.935	0.103	-0.014
-153.662	303.111	-0.098	-0.179
-152.647	418.961	0.105	-0.222
-151.633	341.514	0.025	0.048
-150.618	-71.890	-0.151	0.056
-149.604	399.518	0.209	-0.433
-148.589	-200.000	0.019	0.169
-147.574	-51.846	-0.166	-0.077
-146.560	30.321	-0.313	-0.264
-145.545	-28.150	0.206	-0.117
-144.531	-76.490	-0.271	-0.094
-143.516	119.881	-0.118	0.144
-142.502	-24.654	-0.108	0.063
-141.487	26.979	0.158	0.131
-140.472	604.795	0.144	-0.354
-139.458	99.789	0.101	-0.116
-138.443	9.159	0.093	-0.069
-137.429	656.894	-0.081	-0.205
-136.414	-65.730	-0.257	0.101
-135.399	353.658	0.039	-0.076
-134.385	-16.267	-0.233	-0.146
-133.370	107.796	-0.152	-0.179
-132.356	-15.687	-0.088	0.055
-131.341	44.257	0.191	0.173
-130.326	187.959	-0.154	0.227
-129.312	800.000	-0.135	-0.389
-128.297	149.897	0.089	-0.119
-127.283	320.791	-0.073	0.137
-126.268	800.000	0.091	-0.262
-125.253	-200.000	-0.002	0.093
-124.239	434.078	0.088	-0.189
-123.224	800.000	0.039	-0.154
-122.210	800.000	-0.038	0.136
