DTS Sentinel unit serial number:	SN413079Multiplexer serial number:	ORYXHardware model number:	OX4-SRSoftware version number:	ORYX F/W v4.00 Oryx Data Collector v3.7.2.0data status	okinstallation	princeton_trtdifferential loss correction	single-endedforward channel	channel 1reverse channel	N/Adate	2019/09/17time	08:54:35forward acquisition time	60.00reverse acquisition time	0.00gamma	496.2192k internal	0.2327k external	0.2327temperature offset calibration	0.9961default loss term (dB/km)	0.3790temperature slope calibration	1.0000multiplexer offset coefficient	1.0000multiplexer slope coefficient	1.0000fibre end	0.00T internal ref (°C)	27.94T ext. ref 1 (°C)	0.14T ext. ref 2 (°C)	23.64length (m)	temperature (°C)	Stokes	anti-Stokes-747.200	323.665	0.101	-0.194
-746.185	-200.000	0.056	0.251
-745.171	13.285	-0.031	0.024
-744.156	-17.557	-0.139	0.088
-743.142	-30.777	-0.256	0.146
-742.127	51.519	-0.294	0.281
-741.112	-23.252	-0.240	0.146
-740.098	501.033	-0.123	0.287
-739.083	373.502	0.219	0.449
-738.069	73.396	-0.238	0.251
-737.054	7.156	0.209	0.157
-736.039	391.514	-0.144	0.301
-735.025	-76.028	0.175	0.062
-734.010	90.484	-0.175	0.197
-732.996	-4.055	-0.278	-0.194
-731.981	800.000	-0.051	-0.190
-730.966	-200.000	0.058	-0.290
-729.952	37.109	-0.199	0.178
-728.937	98.920	0.122	0.141
-727.923	30.502	0.205	-0.177
-726.908	48.874	-0.308	-0.292
-725.894	-180.573	-0.331	-0.007
-724.879	124.749	0.073	-0.092
-723.864	-10.770	0.402	0.268
-722.850	800.000	-0.067	-0.206
-721.835	-3.349	-0.254	0.178
-720.821	-111.389	-0.110	0.023
-719.806	278.913	-0.097	-0.174
-718.791	800.000	0.138	-0.438
-717.777	12.239	-0.285	-0.221
-716.762	-9.156	-0.275	-0.185
-715.748	800.000	-0.040	0.119
-714.733	800.000	-0.104	0.301
-713.718	800.000	-0.031	-0.116
-712.704	-36.741	-0.165	-0.089
-711.689	417.471	0.045	-0.096
-710.675	-200.000	-0.002	0.022
-709.660	457.064	-0.047	-0.104
-708.645	-200.000	-0.017	0.234
-707.631	-85.516	-0.288	0.090
-706.616	-103.816	-0.123	0.029
-705.602	25.074	-0.088	0.074
-704.587	800.000	0.036	-0.128
-703.572	-55.344	-0.028	-0.013
-702.558	11.058	0.274	-0.211
-701.543	168.711	-0.146	-0.209
-700.529	-105.060	-0.211	-0.049
-699.514	53.218	0.297	0.286
-698.499	78.499	0.261	-0.280
-697.485	-41.034	-0.282	-0.146
-696.470	-200.000	0.008	-0.069
-695.456	113.398	0.018	0.022
-694.441	136.529	0.228	0.299
-693.426	31.579	-0.174	0.150
-692.412	170.292	-0.175	-0.253
-691.397	800.000	-0.080	-0.237
-690.383	18.809	-0.099	-0.079
-689.368	-200.000	0.051	0.246
-688.354	135.216	0.234	0.306
-687.339	78.903	0.090	0.096
-686.324	-154.031	0.126	0.009
-685.310	-108.715	-0.060	-0.013
-684.295	505.573	0.073	0.170
-683.281	800.000	0.059	-0.253
-682.266	-200.000	0.040	0.208
-681.251	-200.000	-0.053	0.506
-680.237	-67.347	-0.326	0.129
-679.222	114.218	0.155	0.189
-678.208	254.197	0.038	0.065
-677.193	800.000	-0.079	0.328
-676.178	-200.000	0.021	-0.193
-675.164	-86.979	0.367	-0.113
-674.149	160.705	-0.074	-0.104
-673.135	4.178	0.223	0.164
-672.120	-200.000	-0.002	0.224
-671.105	-200.000	-0.012	-0.181
-670.091	70.255	0.112	0.116
-669.076	-200.000	0.008	0.158
-668.062	86.613	0.245	0.272
-667.047	11.513	-0.200	0.154
-666.032	-47.602	-0.232	0.113
-665.018	180.711	0.197	0.290
-664.003	-95.172	0.242	-0.066
-662.989	-149.553	0.052	0.004
-661.974	776.786	-0.009	0.024
-660.959	120.637	-0.256	-0.320
-659.945	-123.615	-0.208	-0.033
-658.930	18.321	-0.152	0.122
-657.916	203.893	-0.117	-0.182
-656.901	-125.004	0.212	-0.033
-655.886	800.000	-0.059	-0.222
-654.872	390.832	0.156	-0.325
-653.857	-200.000	-0.060	-0.383
-652.843	-200.000	0.018	-0.202
-651.828	1.329	-0.314	-0.227
-650.814	58.976	-0.022	0.022
-649.799	-171.997	-0.315	0.010
-648.784	343.271	0.093	0.183
-647.770	237.174	0.131	-0.218
-646.755	-200.000	-0.002	-0.074
-645.741	40.942	-0.270	-0.245
-644.726	-200.000	-0.034	0.228
-643.711	-117.111	-0.111	-0.020
-642.697	800.000	-0.024	-0.104
-641.682	-74.997	0.053	-0.019
-640.668	160.518	0.196	0.275
-639.653	105.234	0.192	0.228
-638.638	-60.333	-0.358	-0.153
-637.624	-115.096	-0.200	0.038
-636.609	-200.000	-0.044	-0.300
-635.595	521.583	-0.080	-0.188
-634.580	-69.897	0.395	-0.151
-633.565	52.100	0.223	0.213
-632.551	-120.159	0.222	-0.038
-631.536	-10.044	0.205	-0.137
-630.522	-166.683	0.392	0.016
-629.507	364.826	-0.105	0.211
-628.492	-92.999	0.188	0.053
-627.478	784.153	0.068	-0.188
-626.463	800.000	0.023	0.074
-625.449	174.143	0.164	-0.237
-624.434	-13.978	0.074	0.048
-623.419	-74.742	0.213	0.077
-622.405	800.000	0.083	0.242
-621.390	-112.252	-0.117	0.024
-620.376	-101.466	-0.102	-0.025
-619.361	-175.976	-0.250	-0.007
-618.346	-95.790	0.146	-0.039
-617.332	800.000	0.059	0.216
-616.317	-155.430	-0.221	0.014
-615.303	-200.000	-0.061	-0.370
-614.288	-200.000	0.036	-0.178
-613.273	-59.207	0.199	-0.086
-612.259	-46.748	0.148	0.073
-611.244	-7.862	-0.394	-0.267
-610.230	-200.000	-0.017	0.096
-609.215	90.735	-0.371	0.417
-608.201	75.045	-0.123	0.130
-607.186	23.875	0.255	-0.211
-606.171	474.024	-0.125	0.283
-605.157	569.881	-0.019	0.047
-604.142	-113.828	0.485	-0.095
-603.128	98.711	-0.151	-0.175
-602.113	-200.000	-0.001	-0.016
-601.098	800.000	-0.080	0.298
-600.084	-110.671	0.287	-0.059
-599.069	155.097	-0.118	-0.162
-598.055	-36.283	0.376	-0.203
-597.040	209.196	-0.118	-0.185
-596.025	-82.100	0.152	0.050
-595.011	-200.000	0.017	-0.271
-593.996	-127.143	0.071	-0.010
-592.982	800.000	0.053	0.159
-591.967	310.607	-0.110	-0.206
-590.952	137.642	0.158	-0.207
-589.938	800.000	0.152	-0.480
-588.923	-171.868	0.040	-0.001
-587.909	-200.000	0.013	-0.292
-586.894	671.835	-0.045	-0.116
-585.879	-134.121	-0.166	0.021
-584.865	800.000	-0.045	0.167
-583.850	-200.000	-0.040	-0.220
-582.836	488.824	-0.119	-0.272
-581.821	-125.450	0.210	-0.032
-580.806	327.162	0.065	-0.124
-579.792	199.571	-0.168	0.258
-578.777	-200.000	0.003	0.090
-577.763	-200.000	-0.031	-0.273
-576.748	47.194	0.079	0.074
-575.733	335.001	-0.035	-0.068
-574.719	-88.785	-0.141	-0.042
-573.704	276.174	-0.025	-0.044
-572.690	-200.000	0.054	0.278
-571.675	480.359	-0.114	-0.258
-570.661	32.408	0.154	0.133
-569.646	70.444	0.161	0.167
-568.631	-103.376	-0.120	0.028
-567.617	62.251	-0.075	-0.075
-566.602	-31.228	0.037	0.021
-565.588	83.442	0.106	0.116
-564.573	515.038	0.118	-0.275
-563.558	165.915	0.125	-0.177
-562.544	-200.000	0.005	0.365
-561.529	-57.501	-0.279	0.123
-560.515	-22.380	0.180	-0.109
-559.500	146.664	-0.122	0.164
-558.485	-200.000	0.034	0.379
-557.471	800.000	0.121	0.400
-556.456	800.000	-0.076	0.217
-555.442	-114.933	-0.380	-0.072
-554.427	-200.000	0.101	-0.000
-553.412	-200.000	0.054	-0.281
-552.398	-56.976	-0.239	-0.106
-551.383	-113.209	-0.115	-0.023
-550.369	-127.931	-0.256	-0.037
-549.354	304.720	-0.098	0.183
-548.339	800.000	-0.028	-0.125
-547.325	-143.149	0.125	-0.012
-546.310	-85.793	-0.095	-0.029
-545.296	100.470	0.007	0.008
-544.281	-200.000	-0.040	-0.328
-543.266	256.426	-0.031	0.053
-542.252	800.000	-0.017	-0.063
-541.237	-200.000	-0.008	-0.185
-540.223	720.091	-0.172	-0.456
-539.208	-56.613	0.209	0.092
-538.193	-5.682	0.134	-0.092
-537.179	-155.807	-0.225	0.014
-536.164	0.158	0.250	-0.178
-535.150	-200.000	-0.034	-0.317
-534.135	-124.872	-0.335	0.052
-533.121	112.110	-0.075	-0.091
-532.106	2.795	-0.141	-0.102
-531.091	-16.129	-0.254	0.161
-530.077	-200.000	-0.026	0.240
-529.062	800.000	0.107	0.346
-528.048	52.952	0.192	0.183
-527.033	-200.000	0.006	0.154
-526.018	64.378	-0.148	-0.149
-525.004	-34.961	0.079	0.043
-523.989	131.490	0.182	-0.233
-522.975	172.629	-0.184	-0.265
-521.960	520.785	0.036	-0.085
-520.945	-200.000	0.099	-0.474
-519.931	124.046	0.077	0.096
-518.916	22.434	-0.172	-0.141
-517.902	-93.337	-0.260	0.072
-516.887	43.450	-0.355	0.324
-515.872	-84.902	0.191	-0.060
-514.858	46.165	-0.121	0.112
-513.843	-76.110	0.295	0.104
-512.829	-135.841	-0.234	0.028
-511.814	-110.365	-0.031	0.006
-510.799	800.000	-0.019	-0.068
-509.785	-31.067	-0.173	-0.098
-508.770	800.000	0.050	-0.142
-507.756	103.161	-0.164	0.191
-506.741	-49.828	0.014	-0.007
-505.726	266.769	0.297	-0.518
-504.712	-200.000	0.049	0.296
-503.697	-200.000	-0.001	0.008
-502.683	-154.638	0.154	0.010
-501.668	-200.000	-0.027	-0.160
-500.653	800.000	-0.070	0.240
-499.639	195.825	0.022	0.034
-498.624	428.415	0.048	-0.103
-497.610	-106.064	0.144	0.032
-496.595	-178.962	-0.265	-0.006
-495.581	-44.504	0.069	-0.034
-494.566	-200.000	-0.029	-0.356
-493.551	-63.883	-0.095	0.039
-492.537	27.332	0.210	-0.177
-491.522	7.632	-0.260	0.194
-490.508	-27.931	0.055	0.032
-489.493	55.952	0.132	0.128
-488.478	-142.998	0.205	0.020
-487.464	-200.000	0.014	0.194
-486.449	187.219	0.102	-0.152
-485.435	-79.661	0.143	0.048
-484.420	-115.944	-0.445	0.083
-483.405	38.683	0.147	0.131
-482.391	800.000	-0.091	0.282
-481.376	-200.000	0.048	0.469
-480.362	-200.000	-0.029	-0.346
-479.347	38.924	-0.254	0.227
-478.332	256.925	0.028	-0.049
-477.318	289.410	-0.128	-0.231
-476.303	76.003	0.200	-0.211
-475.289	-66.213	-0.113	0.045
-474.274	-200.000	-0.015	0.254
-473.259	15.043	0.120	-0.094
-472.245	-46.825	0.161	-0.078
-471.230	800.000	0.072	-0.288
-470.216	39.292	0.087	0.078
-469.201	-35.607	-0.145	0.079
-468.186	225.518	-0.031	0.050
-467.172	-121.242	-0.358	0.060
-466.157	-12.251	-0.069	0.045
-465.143	160.245	0.101	0.141
-464.128	191.828	0.077	0.115
-463.113	-103.752	-0.237	-0.055
-462.099	130.505	-0.135	-0.172
-461.084	276.238	0.129	0.228
-460.070	151.433	-0.190	0.258
-459.055	-75.402	-0.303	0.108
-458.040	-54.210	-0.259	-0.117
-457.026	-200.000	-0.022	0.125
-456.011	-200.000	0.021	0.344
-454.997	-98.437	-0.090	-0.023
-453.982	-200.000	0.003	0.172
-452.968	125.980	-0.066	0.083
-451.953	-118.956	0.264	0.046
-450.938	-200.000	0.036	-0.207
-449.924	72.712	-0.183	-0.190
-448.909	-96.484	-0.167	-0.044
-447.895	433.460	-0.127	0.276
-446.880	86.729	0.110	0.121
-445.865	-140.402	0.109	-0.011
-444.851	-164.291	0.250	0.011
-443.836	-140.774	0.158	0.016
-442.822	147.616	0.111	-0.149
-441.807	529.763	0.051	-0.120
-440.792	-43.620	0.159	-0.080
-439.778	-24.952	-0.030	0.018
-438.763	236.640	-0.104	0.172
-437.749	290.087	-0.093	0.168
-436.734	-47.156	-0.180	0.087
-435.719	-103.747	-0.367	-0.086
-434.705	800.000	-0.120	0.467
-433.690	22.252	0.063	0.052
-432.676	-200.000	0.076	0.418
-431.661	-19.370	-0.194	0.120
-430.646	-32.348	-0.025	0.014
-429.632	-111.353	0.346	0.070
-428.617	525.217	0.075	-0.176
-427.603	108.529	0.109	0.129
-426.588	465.464	0.011	-0.025
-425.573	-69.934	-0.253	-0.096
-424.559	58.236	-0.141	0.137
-423.544	522.285	0.059	-0.138
-422.530	-149.625	-0.092	-0.007
-421.515	63.826	-0.187	-0.187
-420.500	20.910	0.061	-0.049
-419.486	-40.199	-0.210	0.109
-418.471	-53.899	0.160	-0.072
-417.457	-77.091	-0.297	0.103
-416.442	-90.495	-0.366	-0.106
-415.428	800.000	0.087	0.283
-414.413	-200.000	-0.029	-0.284
-413.398	-200.000	0.031	-0.205
-412.384	-69.617	0.342	-0.130
-411.369	301.479	0.115	-0.211
-410.355	-71.916	-0.253	0.094
-409.340	-200.000	-0.004	0.090
-408.325	-82.517	-0.399	-0.129
-407.311	-91.076	0.238	-0.068
-406.296	-200.000	-0.025	-0.170
-405.282	-52.019	-0.175	0.081
-404.267	-172.636	0.308	-0.010
-403.252	-23.036	-0.036	-0.022
-402.238	218.088	0.176	0.280
-401.223	381.057	0.060	0.123
-400.209	-1.055	0.024	-0.017
-399.194	-200.000	-0.026	-0.271
-398.179	-30.565	-0.267	-0.150
-397.165	800.000	-0.010	-0.038
-396.150	-76.053	-0.154	-0.054
-395.136	800.000	-0.068	0.281
-394.121	573.679	-0.051	0.125
-393.106	298.568	0.034	-0.063
-392.092	-45.591	0.288	0.142
-391.077	-200.000	-0.085	0.454
-390.063	800.000	0.014	0.046
-389.048	748.176	0.101	0.270
-388.033	132.880	-0.152	-0.195
-387.019	-135.968	-0.359	-0.042
-386.004	-78.581	0.193	0.066
-384.990	-186.789	0.253	0.004
-383.975	-70.214	0.225	-0.085
-382.960	-200.000	0.000	0.136
-381.946	-54.750	0.212	-0.095
-380.931	-114.767	-0.107	-0.020
-379.917	-121.000	0.141	0.023
-378.902	-177.698	-0.196	0.005
-377.888	453.943	-0.103	-0.226
-376.873	351.410	-0.114	-0.225
-375.858	-69.976	0.194	0.074
-374.844	800.000	0.075	-0.275
-373.829	276.975	-0.099	-0.174
-372.815	-126.566	0.344	-0.051
-371.800	-184.594	0.011	0.000
-370.785	-13.501	-0.369	0.238
-369.771	-69.154	-0.337	-0.129
-368.756	-113.138	0.526	0.103
-367.742	800.000	0.043	0.125
-366.727	-168.378	-0.073	0.003
-365.712	2.297	-0.186	-0.134
-364.698	-167.850	-0.065	-0.003
-363.683	-200.000	0.096	0.459
-362.669	-117.079	-0.145	-0.026
-361.654	8.618	0.321	-0.240
-360.639	800.000	-0.055	0.201
-359.625	65.184	-0.087	0.088
-358.610	-200.000	-0.034	0.274
-357.596	202.170	-0.023	0.035
-356.581	800.000	0.038	-0.143
-355.566	-133.979	-0.015	0.002
-354.552	-88.780	0.420	-0.124
-353.537	-63.221	0.056	0.023
-352.523	192.311	-0.224	-0.336
-351.508	81.571	0.083	-0.090
-350.493	-21.505	-0.189	-0.114
-349.479	-116.191	-0.501	0.092
-348.464	-151.755	0.303	-0.022
-347.450	-117.420	0.219	0.039
-346.435	-200.000	0.016	-0.307
-345.420	-59.530	-0.140	-0.060
-344.406	745.633	0.059	0.157
-343.391	-75.730	-0.122	0.043
-342.377	615.302	0.159	-0.395
-341.362	-159.475	0.153	-0.008
-340.348	800.000	-0.004	0.012
-339.333	-200.000	-0.026	-0.122
-338.318	800.000	0.055	-0.204
-337.304	168.317	-0.157	0.222
-336.289	-69.043	0.383	0.147
-335.275	139.357	0.250	-0.326
-334.260	58.082	-0.248	0.241
-333.245	19.255	-0.117	0.093
-332.231	-95.065	0.088	-0.023
-331.216	800.000	0.049	0.150
-330.202	800.000	-0.036	-0.155
-329.187	-119.987	-0.009	-0.001
-328.172	-69.384	-0.188	0.072
-327.158	-200.000	-0.003	0.173
-326.143	-183.897	-0.481	-0.008
-325.129	193.310	0.070	-0.104
-324.114	-138.855	-0.330	-0.036
-323.099	-139.823	0.079	0.008
-322.085	-200.000	-0.014	0.138
-321.070	180.594	-0.169	-0.246
-320.056	130.629	0.070	-0.090
-319.041	602.542	0.052	-0.129
-318.026	800.000	-0.090	0.277
-317.012	-94.939	0.140	-0.038
-315.997	15.126	-0.299	-0.232
-314.983	-121.241	0.436	0.072
-313.968	-35.213	-0.071	0.038
-312.953	-200.000	0.050	-0.279
-311.939	-91.190	-0.226	0.064
-310.924	-99.036	0.216	0.054
-309.910	-18.550	-0.136	-0.084
-308.895	-98.175	-0.184	0.047
-307.880	19.963	0.116	-0.093
-306.866	190.489	-0.130	-0.194
-305.851	-200.000	-0.002	0.377
-304.837	800.000	0.093	0.358
-303.822	95.074	0.079	-0.090
-302.807	15.331	0.239	0.186
-301.793	-52.699	-0.233	-0.106
-300.778	800.000	0.087	0.360
-299.764	96.466	0.224	0.254
-298.749	-139.264	0.114	0.012
-297.735	-200.000	-0.023	0.193
-296.720	453.604	0.036	-0.078
-295.705	-142.259	0.153	0.015
-294.691	-200.000	0.019	-0.178
-293.676	-180.088	0.072	-0.002
-292.662	-118.083	0.209	0.037
-291.647	117.081	0.066	-0.080
-290.632	-200.000	-0.003	0.104
-289.618	232.839	-0.069	-0.112
-288.603	-151.944	-0.164	0.012
-287.589	-4.853	-0.213	0.146
-286.574	-100.279	0.300	-0.074
-285.559	116.009	0.094	-0.114
-284.545	-86.985	0.158	0.048
-283.530	-62.548	0.038	-0.015
-282.516	-200.000	0.037	-0.192
-281.501	-200.000	0.017	0.104
-280.486	313.343	0.159	-0.297
-279.472	717.469	-0.083	-0.217
-278.457	-200.000	-0.019	-0.153
-277.443	139.314	0.034	0.045
-276.428	546.470	-0.189	0.448
-275.413	629.281	0.059	0.147
-274.399	338.513	-0.095	0.182
-273.384	30.375	0.126	-0.107
-272.370	287.313	-0.103	-0.185
-271.355	92.388	-0.257	-0.287
-270.340	-200.000	0.003	0.305
-269.326	38.882	-0.154	-0.136
-268.311	-33.958	0.120	0.065
-267.297	124.706	0.269	0.335
-266.282	800.000	0.094	0.342
-265.267	-88.968	0.358	-0.105
-264.253	7.617	0.129	0.095
-263.238	-200.000	0.061	-0.312
-262.224	-200.000	0.033	0.229
-261.209	-200.000	-0.058	-0.289
-260.195	18.509	0.253	-0.200
-259.180	54.329	0.018	0.017
-258.165	-82.654	0.140	-0.045
-257.151	568.906	-0.126	-0.304
-256.136	-200.000	0.029	-0.140
-255.122	13.364	0.396	-0.303
-254.107	76.369	-0.202	0.212
-253.092	800.000	0.039	0.164
-252.078	480.459	0.024	0.053
-251.063	131.526	0.238	0.303
-250.049	194.295	-0.082	0.123
-249.034	-121.284	0.076	0.013
-248.019	207.120	-0.013	-0.020
-247.005	-145.324	0.335	0.030
-245.990	-200.000	-0.013	0.304
-244.976	-181.990	0.054	0.001
-243.961	481.150	0.188	0.423
-242.946	373.727	0.062	0.125
-241.932	-77.111	0.302	0.104
-240.917	-200.000	-0.010	-0.074
-239.903	259.532	-0.091	-0.156
-238.888	-120.512	0.262	-0.044
-237.873	317.844	-0.070	0.132
-236.859	45.978	-0.151	0.138
-235.844	-12.196	0.159	-0.103
-234.830	18.927	-0.079	-0.062
-233.815	107.601	0.065	0.076
-232.800	4.991	0.197	0.143
-231.786	565.311	-0.033	-0.079
-230.771	-21.442	0.165	-0.099
-229.757	731.502	0.035	-0.092
-228.742	-41.039	-0.056	-0.028
-227.727	-200.000	-0.065	-0.335
-226.713	148.355	-0.074	0.099
-225.698	-200.000	0.037	0.190
-224.684	173.249	-0.017	0.024
-223.669	230.053	0.044	0.072
-222.655	-200.000	0.036	0.178
-221.640	-200.000	-0.070	-0.348
-220.625	-200.000	0.009	0.062
-219.611	74.978	-0.183	-0.190
-218.596	-200.000	-0.003	0.043
-217.582	-46.089	0.238	0.116
-216.567	-200.000	0.037	0.169
-215.552	-27.647	0.186	-0.106
-214.538	84.022	-0.081	-0.087
-213.523	-184.752	-0.243	-0.004
-212.509	-82.883	-0.126	-0.040
-211.494	157.687	0.211	-0.289
-210.479	800.000	0.008	0.023
-209.465	466.871	-0.103	-0.229
-208.450	-57.659	-0.152	0.066
-207.436	236.553	-0.114	-0.186
-206.421	63.945	-0.067	-0.067
-205.406	334.357	-0.048	0.091
-204.392	7.948	0.334	0.247
-203.377	-200.000	-0.007	0.073
-202.363	-67.702	-0.359	0.139
-201.348	-148.158	0.191	0.016
-200.333	143.298	-0.110	-0.145
-199.319	145.928	-0.135	0.179
-198.304	626.355	-0.135	0.336
-197.290	800.000	0.054	0.207
-196.275	229.236	-0.103	0.165
-195.260	-23.232	-0.433	-0.257
-194.246	-123.884	-0.305	0.047
-193.231	561.984	0.075	-0.179
-192.217	-155.950	0.319	0.020
-191.202	-15.250	0.089	0.056
-190.187	-200.000	-0.015	-0.191
-189.173	-131.564	0.145	-0.019
-188.158	-112.757	0.151	0.030
-187.144	70.800	-0.148	0.151
-186.129	-131.549	0.462	0.060
-185.114	15.557	0.112	0.086
-184.100	664.760	0.082	0.209
-183.085	-41.568	-0.297	0.151
-182.071	-53.524	-0.257	0.116
-181.056	19.107	-0.291	0.230
-180.042	109.727	-0.209	-0.247
-179.027	-70.874	0.067	-0.025
-178.012	56.632	0.080	0.077
-176.998	800.000	-0.034	-0.112
-175.983	-36.886	0.041	-0.022
-174.969	-60.512	0.145	0.061
-173.954	-85.609	-0.291	-0.089
-172.939	-200.000	-0.087	0.392
-171.925	369.845	-0.113	0.225
-170.910	81.530	0.083	0.088
-169.896	-92.153	-0.175	-0.049
-168.881	800.000	-0.110	0.301
-167.866	142.610	0.119	0.156
-166.852	800.000	-0.092	-0.376
-165.837	11.335	0.286	-0.216
-164.823	-103.635	0.318	0.073
-163.808	34.538	0.368	0.317
-162.793	-200.000	-0.099	-0.432
-161.779	-70.837	-0.379	0.141
-160.764	-101.146	-0.196	-0.047
-159.750	-200.000	0.000	-0.090
-158.735	64.166	0.181	0.179
-157.720	-200.000	-0.049	-0.307
-156.706	-131.293	-0.503	-0.066
-155.691	13.049	0.209	-0.160
-154.677	-144.823	0.353	-0.032
-153.662	-58.676	-0.265	-0.113
-152.647	800.000	0.102	-0.296
-151.633	187.825	0.177	-0.261
-150.618	3.794	-0.363	0.261
-149.604	173.736	-0.104	0.148
-148.589	-200.000	0.018	0.276
-147.574	-31.311	0.037	-0.020
-146.560	162.874	0.019	0.026
-145.545	-8.393	-0.074	-0.049
-144.531	3.176	-0.150	-0.108
-143.516	296.710	0.155	-0.280
-142.502	-200.000	-0.169	0.000
-141.487	-61.920	-0.343	-0.141
-140.472	-38.442	-0.156	-0.081
-139.458	-70.012	-0.226	0.085
-138.443	-20.702	0.337	0.203
-137.429	129.351	-0.189	0.238
-136.414	-200.000	-0.021	-0.124
-135.399	-90.440	0.076	-0.022
-134.385	-200.000	-0.026	0.244
-133.370	-107.638	0.290	0.062
-132.356	-61.097	0.369	0.153
-131.341	85.110	0.358	0.387
-130.326	-6.758	-0.183	0.122
-129.312	-126.081	-0.131	-0.019
-128.297	4.944	-0.425	-0.308
-127.283	228.709	-0.077	-0.123
-126.268	-200.000	-0.034	0.223
-125.253	-101.731	0.166	0.040
-124.239	84.467	-0.188	0.203
-123.224	98.550	-0.160	0.181
-122.210	72.461	-0.191	0.196
-121.195	8.654	0.055	0.041
