DTS Sentinel unit serial number:	SN413079Multiplexer serial number:	ORYXHardware model number:	OX4-SRSoftware version number:	ORYX F/W v4.00 Oryx Data Collector v3.7.2.0data status	okinstallation	princeton_trtdifferential loss correction	single-endedforward channel	channel 1reverse channel	N/Adate	2019/09/18time	13:14:35forward acquisition time	60.00reverse acquisition time	0.00gamma	496.2192k internal	0.2313k external	0.2313temperature offset calibration	0.9983default loss term (dB/km)	0.3790temperature slope calibration	1.0000multiplexer offset coefficient	1.0000multiplexer slope coefficient	1.0000fibre end	0.00T internal ref (°C)	34.00T ext. ref 1 (°C)	0.58T ext. ref 2 (°C)	30.93length (m)	temperature (°C)	Stokes	anti-Stokes-747.200	124.723	0.109	-0.139
-746.185	20.568	-0.007	0.006
-745.171	-168.335	-0.273	0.011
-744.156	457.078	-0.083	0.188
-743.142	-145.743	0.272	-0.025
-742.127	362.991	-0.091	0.186
-741.112	75.750	-0.207	0.222
-740.098	-200.000	0.038	0.453
-739.083	-200.000	0.003	-0.285
-738.069	-68.655	-0.248	0.097
-737.054	6.070	0.074	0.055
-736.039	-106.818	-0.327	-0.073
-735.025	152.332	-0.080	0.111
-734.010	26.301	-0.154	-0.130
-732.996	-48.394	0.065	-0.032
-731.981	-54.908	0.082	0.037
-730.966	-40.598	0.249	0.131
-729.952	-41.907	-0.098	0.051
-728.937	-65.388	0.103	0.042
-727.923	89.796	-0.368	-0.417
-726.908	-12.811	-0.343	0.226
-725.894	465.650	0.160	-0.362
-724.879	-200.000	0.005	-0.166
-723.864	454.151	-0.079	-0.177
-722.850	-60.671	0.109	-0.047
-721.835	-137.152	0.347	-0.040
-720.821	-106.191	-0.174	-0.040
-719.806	179.228	-0.102	-0.151
-718.791	74.103	0.208	0.221
-717.777	800.000	-0.015	0.045
-716.762	-118.859	0.322	0.057
-715.748	-88.225	-0.209	0.063
-714.733	796.400	-0.036	-0.100
-713.718	-40.936	0.181	0.095
-712.704	-52.570	-0.221	-0.103
-711.689	-140.226	-0.396	-0.042
-710.675	106.740	0.137	-0.165
-709.660	-105.825	0.352	0.081
-708.645	-41.035	0.230	-0.120
-707.631	-32.610	-0.173	0.097
-706.616	91.235	-0.280	0.318
-705.602	-159.805	0.267	0.015
-704.587	188.140	-0.021	-0.032
-703.572	-46.233	-0.117	-0.058
-702.558	800.000	0.022	-0.093
-701.543	-200.000	-0.080	0.455
-700.529	42.941	0.128	0.118
-699.514	-126.293	-0.214	0.032
-698.499	-25.903	0.175	0.104
-697.485	447.725	0.085	0.190
-696.470	-61.044	0.182	0.078
-695.456	27.921	0.293	-0.250
-694.441	-12.991	0.380	0.251
-693.426	312.798	0.025	0.048
-692.412	-125.467	0.239	-0.037
-691.397	452.446	-0.098	0.219
-690.383	318.853	-0.031	0.060
-689.368	336.670	-0.100	0.197
-688.354	-111.862	0.141	0.029
-687.339	800.000	-0.052	0.189
-686.324	166.828	-0.141	-0.203
-685.310	-200.000	0.032	-0.254
-684.295	170.649	-0.092	-0.134
-683.281	-200.000	-0.006	0.121
-682.266	-44.216	-0.345	0.175
-681.251	-86.704	0.049	-0.015
-680.237	-200.000	0.011	-0.059
-679.222	-17.418	0.063	-0.040
-678.208	-34.281	-0.178	0.099
-677.193	9.968	-0.152	-0.117
-676.178	220.198	-0.157	0.254
-675.164	800.000	0.066	-0.246
-674.149	252.352	-0.011	-0.018
-673.135	-50.622	-0.150	0.071
-672.120	-21.668	-0.056	-0.034
-671.105	800.000	0.042	-0.150
-670.091	-110.370	-0.410	0.086
-669.076	156.948	-0.196	-0.274
-668.062	-56.178	-0.177	-0.080
-667.047	-144.269	-0.323	-0.030
-666.032	448.049	-0.067	-0.148
-665.018	-54.788	-0.129	0.059
-664.003	59.066	0.094	0.093
-662.989	-200.000	0.007	0.153
-661.974	-97.306	-0.480	0.127
-660.959	65.217	0.292	0.299
-659.945	-70.394	-0.222	0.085
-658.930	-174.238	-0.416	-0.012
-657.916	-121.167	0.137	0.023
-656.901	-43.755	-0.090	-0.046
-655.886	152.531	-0.173	0.239
-654.872	-200.000	-0.339	-0.000
-653.857	24.881	-0.194	-0.162
-652.843	800.000	-0.032	0.128
-651.828	-200.000	-0.027	-0.125
-650.814	214.855	0.078	-0.125
-649.799	298.028	-0.074	-0.138
-648.784	800.000	0.045	0.145
-647.770	-54.533	0.192	-0.088
-646.755	85.851	-0.056	0.062
-645.741	-132.148	-0.203	-0.027
-644.726	98.563	0.192	-0.224
-643.711	-180.141	0.142	-0.003
-642.697	40.423	-0.066	-0.060
-641.682	447.063	0.085	-0.188
-640.668	7.572	-0.093	0.070
-639.653	800.000	0.102	-0.342
-638.638	690.901	0.046	-0.121
-637.624	16.978	0.441	-0.352
-636.609	-138.135	-0.191	0.021
-635.595	-74.474	-0.221	0.080
-634.580	800.000	-0.065	0.200
-633.565	217.296	-0.115	0.185
-632.551	-200.000	0.005	-0.280
-631.536	-39.064	0.145	-0.077
-630.522	-73.012	-0.192	-0.071
-629.507	-200.000	0.010	0.213
-628.492	99.720	0.097	-0.113
-627.478	-64.850	0.120	0.049
-626.463	-96.287	-0.161	0.043
-625.449	-100.524	-0.564	0.141
-624.434	42.287	0.264	0.242
-623.419	-200.000	-0.030	0.223
-622.405	-152.036	0.132	-0.010
-621.390	306.748	-0.085	0.161
-620.376	-41.598	-0.334	-0.173
-619.361	-106.940	0.038	0.009
-618.346	-4.021	-0.360	-0.252
-617.332	800.000	-0.055	-0.161
-616.317	309.286	0.074	0.140
-615.303	713.604	-0.075	0.201
-614.288	-19.278	0.165	-0.103
-613.273	266.730	-0.035	-0.062
-612.259	22.097	-0.100	0.083
-611.244	284.553	0.144	0.261
-610.230	629.817	-0.049	0.125
-609.215	-10.448	0.167	-0.111
-608.201	91.517	0.266	0.302
-607.186	-162.088	-0.206	-0.010
-606.171	-159.832	-0.185	-0.010
-605.157	-200.000	-0.044	0.332
-604.142	-26.773	0.176	0.104
-603.128	186.390	0.134	-0.201
-602.113	-200.000	0.002	-0.200
-601.098	-136.873	-0.238	-0.028
-600.084	-145.010	-0.277	-0.025
-599.069	-200.000	-0.019	0.189
-598.055	-25.254	0.306	-0.183
-597.040	-3.364	-0.183	0.128
-596.025	-13.172	-0.051	-0.034
-595.011	-43.134	0.451	-0.230
-593.996	65.166	0.190	-0.194
-592.982	614.744	-0.024	0.060
-591.967	-200.000	-0.047	-0.417
-590.952	370.866	-0.174	0.356
-589.938	23.877	0.087	-0.072
-588.923	124.209	-0.065	0.082
-587.909	800.000	0.040	0.166
-586.894	1.534	0.142	0.103
-585.879	-6.051	0.160	0.110
-584.865	-103.163	0.203	-0.048
-583.850	-200.000	0.027	0.132
-582.836	1.077	0.085	-0.061
-581.821	-45.790	0.210	0.104
-580.806	-50.279	-0.083	-0.039
-579.792	-41.757	-0.385	0.199
-578.777	10.630	0.225	-0.173
-577.763	-52.540	0.156	0.073
-576.748	-67.884	0.148	-0.058
-575.733	218.613	-0.096	-0.155
-574.719	80.430	-0.115	0.125
-573.704	18.669	-0.117	0.095
-572.690	185.072	-0.112	-0.167
-571.675	-200.000	-0.070	0.357
-570.661	-200.000	-0.004	-0.165
-569.646	-200.000	0.012	0.072
-568.631	800.000	-0.085	0.336
-567.617	-94.635	0.088	0.024
-566.602	550.066	-0.124	-0.300
-565.588	-142.226	0.227	-0.023
-564.573	800.000	0.066	-0.235
-563.558	-67.173	0.133	-0.053
-562.544	236.878	0.209	-0.348
-561.529	-131.373	-0.252	-0.034
-560.515	-59.660	-0.228	0.098
-559.500	19.089	-0.106	-0.085
-558.485	448.470	-0.055	-0.122
-557.471	-58.709	-0.140	0.061
-556.456	-132.972	0.131	0.017
-555.442	385.474	-0.096	0.200
-554.427	-200.000	0.061	0.448
-553.412	-47.852	-0.207	-0.101
-552.398	-32.626	-0.214	0.120
-551.383	800.000	-0.079	-0.266
-550.369	-98.198	0.101	-0.026
-549.354	-0.193	-0.408	0.292
-548.339	-200.000	-0.037	-0.263
-547.325	-200.000	-0.006	-0.320
-546.310	1.100	0.124	0.090
-545.296	282.600	-0.021	0.038
-544.281	531.865	-0.138	0.329
-543.266	-123.362	0.227	-0.036
-542.252	-147.981	0.089	-0.007
-541.237	-110.740	-0.436	-0.091
-540.223	-107.903	-0.213	-0.047
-539.208	-200.000	0.043	0.208
-538.193	137.987	0.056	-0.074
-537.179	-200.000	-0.001	0.118
-536.164	-83.961	0.163	0.052
-535.150	-143.732	-0.061	0.006
-534.135	19.021	-0.043	0.034
-533.121	95.301	-0.408	-0.467
-532.106	307.488	-0.127	-0.237
-531.091	-200.000	0.043	-0.335
-530.077	-200.000	-0.008	-0.323
-529.062	-55.358	0.232	-0.105
-528.048	-70.691	0.192	0.073
-527.033	-174.173	0.162	0.005
-526.018	147.776	0.065	0.088
-525.004	800.000	0.073	0.231
-523.989	-200.000	-0.003	-0.183
-522.975	-69.214	-0.080	0.031
-521.960	-78.500	-0.273	0.094
-520.945	16.733	0.250	0.199
-519.931	-58.019	-0.146	-0.064
-518.916	-27.267	0.332	0.194
-517.902	153.107	-0.221	-0.304
-516.887	-200.000	-0.003	0.114
-515.872	36.355	0.223	-0.198
-514.858	531.707	0.003	-0.007
-513.843	-36.960	-0.272	-0.146
-512.829	51.065	-0.080	0.076
-511.814	-76.588	-0.133	-0.047
-510.799	48.080	-0.101	0.095
-509.785	30.582	0.153	-0.131
-508.770	800.000	0.081	-0.231
-507.756	102.483	-0.064	-0.075
-506.741	-86.011	-0.393	-0.122
-505.726	-200.000	-0.001	-0.110
-504.712	-152.458	0.394	-0.028
-503.697	-156.934	-0.354	0.022
-502.683	800.000	-0.083	0.301
-501.668	135.634	0.123	0.160
-500.653	362.789	-0.109	0.221
-499.639	-150.756	-0.517	0.039
-498.624	-121.667	-0.245	-0.041
-497.610	-200.000	-0.040	-0.326
-496.595	527.218	0.084	-0.199
-495.581	-99.851	-0.305	0.076
-494.566	800.000	0.115	-0.409
-493.551	145.690	-0.309	0.416
-492.537	-149.032	0.202	0.016
-491.522	800.000	-0.048	-0.135
-490.508	280.479	-0.130	0.233
-489.493	-200.000	-0.061	0.323
-488.478	800.000	-0.096	-0.302
-487.464	-77.217	0.254	0.089
-486.449	-115.493	-0.390	-0.074
-485.435	24.213	0.113	0.093
-484.420	178.451	0.060	0.088
-483.405	800.000	-0.087	-0.357
-482.391	-114.262	0.118	0.023
-481.376	18.014	-0.159	0.127
-480.362	85.783	0.122	-0.135
-479.347	146.520	-0.201	0.271
-478.332	-200.000	0.017	-0.180
-477.318	153.056	0.031	0.043
-476.303	12.628	-0.084	-0.065
-475.289	-187.814	0.098	0.001
-474.274	122.569	-0.084	0.105
-473.259	-60.079	0.093	-0.040
-472.245	33.981	-0.214	-0.187
-471.230	58.086	0.239	-0.235
-470.216	-189.026	0.184	0.002
-469.201	69.155	-0.101	-0.104
-468.186	-200.000	0.019	0.262
-467.172	219.401	-0.158	-0.254
-466.157	-92.916	-0.189	0.053
-465.143	41.439	0.156	-0.141
-464.128	-200.000	-0.007	0.115
-463.113	776.512	-0.109	0.299
-462.099	-77.722	0.083	0.029
-461.084	-26.846	-0.210	-0.123
-460.070	101.071	0.079	0.093
-459.055	143.008	-0.154	0.205
-458.040	800.000	-0.015	-0.054
-457.026	139.141	0.224	0.295
-456.011	43.103	-0.220	-0.202
-454.997	-38.867	0.135	-0.072
-453.982	4.765	-0.163	0.120
-452.968	-200.000	-0.013	-0.238
-451.953	398.308	-0.014	0.030
-450.938	-196.060	-0.198	-0.001
-449.924	-109.846	0.090	0.019
-448.909	-4.980	-0.286	-0.198
-447.895	-72.424	0.197	0.073
-446.880	29.041	0.121	0.103
-445.865	-42.261	0.194	-0.099
-444.851	-200.000	0.011	-0.179
-443.836	742.338	-0.067	-0.180
-442.822	727.265	0.086	-0.231
-441.807	-174.137	0.355	0.010
-440.792	-200.000	-0.040	0.337
-439.778	183.837	-0.185	0.274
-438.763	-200.000	0.009	-0.190
-437.749	-200.000	-0.028	-0.139
-436.734	800.000	0.077	0.241
-435.719	-200.000	-0.033	-0.163
-434.705	-152.249	0.128	-0.009
-433.690	-200.000	0.007	0.093
-432.676	-164.569	0.083	-0.004
-431.661	800.000	0.078	-0.302
-430.646	-180.205	0.151	-0.003
-429.632	152.119	0.127	0.174
-428.617	43.639	0.113	0.103
-427.603	-172.314	-0.200	-0.006
-426.588	800.000	0.044	0.162
-425.573	118.745	-0.312	0.386
-424.559	244.387	-0.134	-0.226
-423.544	-200.000	-0.041	0.245
-422.530	-41.739	-0.200	-0.103
-421.515	661.648	-0.106	-0.275
-420.500	45.505	0.040	0.037
-419.486	25.358	0.204	0.170
-418.471	23.382	-0.138	0.114
-417.457	-200.000	-0.036	-0.288
-416.442	130.113	0.014	0.017
-415.428	-200.000	-0.032	0.248
-414.413	800.000	0.173	0.533
-413.398	-136.471	0.184	0.021
-412.384	598.207	-0.060	0.149
-411.369	514.785	-0.048	-0.112
-410.355	540.316	-0.130	-0.309
-409.340	19.940	0.080	0.064
-408.325	-22.623	-0.311	0.188
-407.311	800.000	-0.055	-0.210
-406.296	234.714	-0.043	-0.071
-405.282	-119.024	-0.179	0.031
-404.267	-105.425	0.386	0.088
-403.252	193.960	-0.216	0.328
-402.238	800.000	0.058	0.205
-401.223	-188.175	0.197	0.003
-400.209	22.523	-0.217	0.178
-399.194	-102.039	0.179	-0.043
-398.179	50.335	0.115	0.109
-397.165	800.000	-0.099	0.327
-396.150	800.000	-0.047	0.195
-395.136	-200.000	0.084	0.480
-394.121	485.265	-0.111	-0.252
-393.106	73.051	0.197	-0.206
-392.092	-104.430	-0.207	0.048
-391.077	800.000	0.082	0.276
-390.063	25.896	0.145	0.121
-389.048	-96.774	0.240	-0.063
-388.033	-200.000	0.000	-0.379
-387.019	38.502	0.193	-0.172
-386.004	-171.762	0.047	-0.002
-384.990	-153.711	-0.086	0.006
-383.975	-104.845	-0.328	0.075
-382.960	-64.610	-0.048	-0.019
-381.946	14.378	-0.286	-0.223
-380.931	-51.570	0.235	-0.110
-379.917	-41.836	-0.335	0.172
-378.902	-200.000	0.020	0.096
-377.888	62.865	0.166	-0.166
-376.873	137.737	-0.142	-0.186
-375.858	235.352	0.192	-0.316
-374.844	635.417	0.065	-0.165
-373.829	-41.733	0.078	-0.040
-372.815	-113.761	0.326	-0.063
-371.800	141.771	0.160	-0.211
-370.785	800.000	-0.039	0.125
-369.771	243.048	0.051	-0.086
-368.756	78.033	-0.169	-0.180
-367.742	234.041	0.129	-0.213
-366.727	413.279	0.039	-0.082
-365.712	79.877	0.082	0.088
-364.698	-108.100	0.098	0.021
-363.683	-200.000	-0.009	0.095
-362.669	800.000	-0.087	0.259
-361.654	-200.000	-0.020	0.165
-360.639	0.168	-0.279	0.199
-359.625	-76.323	-0.292	0.103
-358.610	-84.655	-0.241	-0.076
-357.596	-123.634	-0.360	-0.057
-356.581	-132.347	0.297	-0.038
-355.566	-16.048	-0.268	0.170
-354.552	193.816	0.170	-0.256
-353.537	212.178	-0.176	0.277
-352.523	-141.926	0.103	0.010
-351.508	552.229	0.184	0.442
-350.493	-13.104	0.260	-0.169
-349.479	-40.385	0.114	0.059
-348.464	-200.000	0.010	0.164
-347.450	-173.524	0.537	0.016
-346.435	38.742	-0.108	0.097
-345.420	579.886	-0.053	-0.130
-344.406	-200.000	0.025	0.170
-343.391	-120.353	-0.124	0.021
-342.377	-18.792	0.030	-0.019
-341.362	-112.568	0.153	-0.031
-340.348	133.950	0.117	-0.151
-339.333	237.747	0.037	0.062
-338.318	-26.815	0.143	0.084
-337.304	-200.000	-0.031	-0.229
-336.289	-65.974	-0.174	0.069
-335.275	-52.062	-0.141	-0.065
-334.260	-60.965	-0.286	0.121
-333.245	800.000	0.009	-0.036
-332.231	-200.000	0.023	-0.532
-331.216	401.501	0.113	0.237
-330.202	-200.000	0.021	0.225
-329.187	45.230	0.154	-0.141
-328.172	-112.324	-0.130	0.026
-327.158	-200.000	0.002	-0.061
-326.143	-73.341	-0.278	0.101
-325.129	-147.253	0.139	-0.012
-324.114	-200.000	-0.009	0.144
-323.099	75.257	0.090	0.095
-322.085	-200.000	-0.019	0.252
-321.070	124.045	-0.128	-0.161
-320.056	-117.218	-0.281	-0.051
-319.041	-33.831	-0.238	-0.131
-318.026	-65.352	0.216	-0.087
-317.012	-38.906	0.083	0.043
-315.997	27.246	0.235	-0.197
-314.983	17.010	0.078	0.062
-313.968	145.025	0.135	-0.180
-312.953	-56.956	0.378	-0.166
-311.939	353.563	0.048	0.096
-310.924	-200.000	0.001	-0.277
-309.910	720.571	0.087	0.231
-308.895	-122.926	0.447	0.072
-307.880	56.456	0.063	0.061
-306.866	-87.089	0.212	-0.064
-305.851	37.093	0.206	0.182
-304.837	-21.406	-0.105	-0.064
-303.822	-44.196	-0.269	-0.134
-302.807	43.082	-0.193	-0.175
-301.793	-189.618	0.128	0.001
-300.778	-200.000	0.021	0.130
-299.764	164.337	-0.078	-0.110
-298.749	141.740	-0.166	0.219
-297.735	137.784	-0.246	-0.321
-296.720	-137.008	-0.138	0.016
-295.705	-200.000	0.038	0.266
-294.691	-200.000	0.042	-0.372
-293.676	-59.903	0.222	0.095
-292.662	-117.626	0.149	0.027
-291.647	-111.827	-0.192	-0.039
-290.632	-124.566	0.264	-0.041
-289.618	133.843	0.167	-0.215
-288.603	216.444	0.036	0.056
-287.589	353.457	0.219	0.434
-286.574	150.856	0.135	0.183
-285.559	-200.000	0.032	0.151
-284.545	-116.277	0.054	0.010
-283.530	-50.878	-0.445	-0.208
-282.516	-115.794	0.113	0.021
-281.501	11.484	0.100	0.077
-280.486	-57.923	-0.175	0.076
-279.472	243.214	0.149	-0.249
-278.457	-31.593	0.216	-0.121
-277.443	800.000	0.076	-0.225
-276.428	-52.711	-0.306	-0.141
-275.413	-61.973	-0.201	0.084
-274.399	485.755	0.037	-0.083
-273.384	22.011	0.269	0.218
-272.370	49.357	-0.107	-0.100
-271.355	-60.416	-0.165	-0.070
-270.340	52.844	-0.048	-0.046
-269.326	8.500	0.379	0.284
-268.311	578.066	0.127	0.310
-267.297	202.852	-0.063	0.098
-266.282	162.033	0.102	-0.143
-265.267	-60.426	-0.184	-0.078
-264.253	800.000	0.151	0.446
-263.238	-200.000	-0.015	0.114
-262.224	30.327	-0.283	-0.241
-261.209	-200.000	0.013	0.067
-260.195	325.444	0.073	-0.139
-259.180	727.349	0.094	0.249
-258.165	-200.000	-0.005	0.191
-257.151	-24.139	0.255	-0.151
-256.136	-41.263	-0.165	-0.085
-255.122	-158.573	-0.275	-0.016
-254.107	-30.989	-0.032	0.018
-253.092	353.005	-0.070	0.137
-252.078	-33.547	-0.155	0.085
-251.063	800.000	0.015	0.057
-250.049	386.150	0.044	0.089
-249.034	-100.343	0.355	0.088
-248.019	139.751	0.101	-0.132
-247.005	-200.000	0.001	-0.070
-245.990	-27.324	0.147	-0.085
-244.976	130.025	0.064	-0.082
-243.961	-24.702	0.030	0.018
-242.946	-38.962	0.132	0.069
-241.932	-200.000	0.002	-0.098
-240.917	22.181	-0.133	-0.108
-239.903	-28.072	0.132	0.076
-238.888	800.000	-0.050	-0.173
-237.873	-200.000	0.042	-0.197
-236.859	-32.827	-0.093	0.051
-235.844	83.426	0.144	0.156
-234.830	124.502	0.143	-0.179
-233.815	-146.611	-0.073	-0.006
-232.800	146.946	-0.116	0.155
-231.786	-76.124	0.219	0.077
-230.771	-96.785	0.293	0.077
-229.757	678.343	-0.044	-0.114
-228.742	80.357	-0.223	-0.239
-227.727	-200.000	0.034	0.344
-226.713	-185.119	0.238	0.004
-225.698	-200.000	0.005	-0.025
-224.684	347.559	-0.134	-0.262
-223.669	-82.294	-0.139	-0.045
-222.655	-113.674	0.244	0.047
-221.640	800.000	-0.094	-0.365
-220.625	-97.737	0.189	-0.049
-219.611	-200.000	0.040	0.254
-218.596	-120.140	-0.229	-0.039
-217.582	-112.187	0.167	0.033
-216.567	65.473	0.195	0.196
-215.552	-155.646	0.043	-0.003
-214.538	-71.557	0.173	-0.064
-213.523	58.349	-0.146	0.142
-212.509	-66.357	-0.318	-0.125
-211.494	193.200	-0.218	-0.328
-210.479	-200.000	0.018	-0.143
-209.465	400.396	0.148	0.308
-208.450	-103.642	0.288	-0.067
-207.436	-85.067	0.386	-0.120
-206.421	-148.957	0.145	-0.012
-205.406	-4.582	-0.094	-0.064
-204.392	-62.153	-0.170	0.070
-203.377	17.848	0.379	0.300
-202.363	279.778	0.076	-0.135
-201.348	12.913	-0.208	-0.159
-200.333	-174.421	0.266	-0.008
-199.319	800.000	0.116	-0.355
-198.304	-57.426	-0.265	-0.115
-197.290	333.842	0.061	-0.117
-196.275	193.816	-0.201	-0.302
-195.260	-200.000	0.027	-0.359
-194.246	155.732	0.262	-0.358
-193.231	624.239	-0.036	-0.090
-192.217	219.079	-0.104	0.165
-191.202	800.000	-0.032	0.102
-190.187	100.512	-0.196	-0.226
-189.173	800.000	0.114	0.444
-188.158	-200.000	-0.014	0.278
-187.144	590.774	0.095	-0.232
-186.129	-58.478	0.150	-0.065
-185.114	-97.443	-0.274	0.071
-184.100	-200.000	-0.005	0.037
-183.085	-200.000	0.058	0.321
-182.071	800.000	-0.089	0.247
-181.056	78.431	-0.056	0.060
-180.042	77.936	-0.199	-0.210
-179.027	177.143	-0.076	-0.109
-178.012	281.971	-0.034	0.060
-176.998	256.472	0.060	-0.103
-175.983	-38.964	-0.216	0.113
-174.969	-200.000	0.006	0.047
-173.954	109.200	-0.119	0.141
-172.939	-200.000	-0.016	0.276
-171.925	-200.000	-0.060	0.266
-170.910	125.025	0.040	0.050
-169.896	456.177	0.049	0.108
-168.881	303.537	0.132	0.243
-167.866	-58.257	-0.082	0.035
-166.852	-128.567	0.187	0.026
-165.837	-200.000	-0.002	-0.017
-164.823	93.965	0.287	0.322
-163.808	21.558	0.083	-0.067
-162.793	370.448	-0.109	0.218
-161.779	225.059	0.127	-0.203
-160.764	68.333	0.073	0.074
-159.750	104.687	0.037	-0.044
-158.735	266.981	-0.165	-0.285
-157.720	234.089	0.091	0.148
-156.706	102.737	0.094	-0.109
-155.691	800.000	-0.063	-0.228
-154.677	-200.000	0.085	0.382
-153.662	164.306	-0.109	-0.153
-152.647	-200.000	0.024	-0.319
-151.633	11.950	-0.204	0.155
-150.618	547.594	-0.079	-0.187
-149.604	-103.556	-0.120	-0.028
-148.589	36.490	-0.256	0.223
-147.574	-110.869	0.289	-0.059
-146.560	105.980	0.135	-0.158
-145.545	-89.938	-0.077	0.022
-144.531	-200.000	-0.018	-0.217
-143.516	-184.806	-0.340	-0.005
-142.502	-33.876	0.268	0.146
-141.487	-200.000	-0.005	0.299
-140.472	-160.597	-0.255	0.013
-139.458	363.845	0.128	-0.255
-138.443	-97.389	-0.312	-0.080
-137.429	178.189	-0.078	0.113
-136.414	800.000	0.037	-0.123
-135.399	-178.399	0.064	0.001
-134.385	-15.615	0.118	0.075
-133.370	633.832	0.058	-0.147
-132.356	43.007	-0.173	-0.156
-131.341	187.292	-0.277	-0.410
-130.326	-5.855	0.122	-0.082
-129.312	450.900	0.096	0.210
-128.297	800.000	0.067	0.286
-127.283	418.730	-0.091	-0.193
-126.268	-98.574	0.259	-0.065
-125.253	800.000	0.056	-0.204
-124.239	-69.551	0.160	0.061
-123.224	-200.000	-0.009	-0.129
-122.210	-174.992	-0.106	0.003
-121.195	800.000	0.118	-0.343
