DTS Sentinel unit serial number:	SN413079Multiplexer serial number:	ORYXHardware model number:	OX4-SRSoftware version number:	ORYX F/W v4.00 Oryx Data Collector v3.7.2.0data status	okinstallation	princeton_trtdifferential loss correction	single-endedforward channel	channel 1reverse channel	N/Adate	2019/09/16time	16:42:35forward acquisition time	60.00reverse acquisition time	0.00gamma	496.2192k internal	0.2296k external	0.2296temperature offset calibration	0.9962default loss term (dB/km)	0.3790temperature slope calibration	1.0000multiplexer offset coefficient	1.0000multiplexer slope coefficient	1.0000fibre end	0.00T internal ref (°C)	39.81T ext. ref 1 (°C)	15.16T ext. ref 2 (°C)	33.84length (m)	temperature (°C)	Stokes	anti-Stokes-747.200	401.108	0.043	0.092
-746.185	72.642	0.142	0.151
-745.171	-24.519	-0.192	0.117
-744.156	53.582	-0.197	0.193
-743.142	-126.825	0.231	0.035
-742.127	-42.246	-0.295	-0.154
-741.112	800.000	-0.001	-0.004
-740.098	-200.000	-0.055	0.368
-739.083	238.343	-0.200	0.339
-738.069	107.127	0.217	0.264
-737.054	-200.000	0.012	0.060
-736.039	21.374	0.208	0.173
-735.025	-200.000	0.036	0.190
-734.010	271.960	-0.127	-0.229
-732.996	-101.487	-0.168	0.042
-731.981	205.101	-0.154	0.244
-730.966	-200.000	0.085	-0.413
-729.952	800.000	0.057	-0.243
-728.937	-34.237	0.143	-0.080
-727.923	88.979	-0.125	-0.142
-726.908	-120.992	0.339	-0.058
-725.894	35.445	0.070	0.062
-724.879	-99.218	-0.237	-0.061
-723.864	-87.690	0.267	0.082
-722.850	49.981	-0.224	-0.215
-721.835	375.670	-0.012	-0.025
-720.821	31.358	-0.121	-0.106
-719.806	800.000	-0.060	-0.216
-718.791	208.415	0.090	-0.143
-717.777	-200.000	-0.008	0.041
-716.762	-200.000	-0.010	-0.151
-715.748	-200.000	-0.001	-0.065
-714.733	-7.893	0.319	-0.220
-713.718	800.000	0.014	0.063
-712.704	137.039	-0.191	0.255
-711.689	-28.582	-0.196	0.115
-710.675	246.953	-0.188	-0.323
-709.660	-76.741	-0.248	0.089
-708.645	-200.000	0.047	0.303
-707.631	-200.000	-0.043	-0.251
-706.616	-200.000	0.004	-0.049
-705.602	-44.339	-0.010	0.005
-704.587	31.352	-0.118	-0.103
-703.572	-200.000	0.038	0.256
-702.558	187.849	-0.135	0.206
-701.543	-144.158	0.274	-0.026
-700.529	-200.000	0.041	0.205
-699.514	14.331	0.218	-0.173
-698.499	-31.891	-0.158	-0.090
-697.485	-200.000	-0.047	0.246
-696.470	312.132	0.011	0.020
-695.456	-50.547	-0.283	0.136
-694.441	71.689	-0.093	-0.099
-693.426	-139.071	-0.108	0.012
-692.412	376.655	0.066	-0.137
-691.397	-132.590	-0.327	0.043
-690.383	772.275	-0.104	-0.289
-689.368	-47.245	-0.264	-0.131
-688.354	74.947	-0.103	0.110
-687.339	-105.229	-0.128	0.030
-686.324	-200.000	-0.028	-0.367
-685.310	201.741	-0.166	0.261
-684.295	-200.000	-0.061	-0.297
-683.281	-76.834	0.290	0.104
-682.266	55.661	-0.260	0.257
-681.251	309.482	-0.073	-0.139
-680.237	-67.064	-0.174	0.070
-679.222	-200.000	-0.023	0.161
-678.208	75.950	0.043	0.046
-677.193	-100.284	-0.254	-0.064
-676.178	-200.000	0.018	0.086
-675.164	-200.000	-0.034	-0.272
-674.149	-200.000	-0.018	-0.181
-673.135	-27.135	-0.318	-0.189
-672.120	-131.584	0.369	-0.049
-671.105	-84.026	-0.259	-0.084
-670.091	83.334	-0.319	-0.354
-669.076	-200.000	0.008	-0.055
-668.062	-200.000	0.009	-0.054
-667.047	-176.653	-0.386	-0.010
-666.032	300.607	0.158	0.297
-665.018	-141.181	-0.411	-0.043
-664.003	86.621	-0.216	0.243
-662.989	-56.335	-0.137	-0.062
-661.974	-200.000	-0.048	-0.261
-660.959	0.021	-0.280	-0.204
-659.945	114.673	-0.298	-0.370
-658.930	227.613	-0.089	-0.147
-657.916	-36.571	0.295	0.162
-656.901	-200.000	-0.022	0.172
-655.886	-149.124	0.277	-0.023
-654.872	233.162	-0.133	-0.223
-653.857	272.576	0.151	0.271
-652.843	11.008	0.459	-0.357
-651.828	34.316	-0.367	-0.326
-650.814	-110.009	-0.168	-0.036
-649.799	-109.765	-0.145	0.031
-648.784	-69.843	0.116	0.045
-647.770	-9.651	0.272	-0.184
-646.755	604.279	-0.113	0.286
-645.741	316.995	0.161	-0.310
-644.726	-200.000	0.063	-0.283
-643.711	-200.000	0.006	-0.091
-642.697	-62.384	0.088	0.037
-641.682	27.256	0.114	-0.097
-640.668	-87.691	-0.265	0.081
-639.653	414.068	0.017	-0.037
-638.638	197.153	0.087	-0.136
-637.624	800.000	-0.102	-0.331
-636.609	-200.000	-0.111	0.635
-635.595	800.000	0.127	0.478
-634.580	-200.000	0.016	-0.124
-633.565	-83.526	-0.334	0.109
-632.551	-68.730	-0.083	-0.033
-631.536	-200.000	0.010	-0.178
-630.522	-200.000	0.052	0.316
-629.507	69.879	0.175	-0.183
-628.492	320.028	0.054	-0.104
-627.478	-4.606	-0.271	0.190
-626.463	800.000	-0.028	0.104
-625.449	-76.347	0.078	-0.028
-624.434	50.974	-0.233	-0.224
-623.419	475.447	0.107	-0.246
-622.405	73.177	0.161	-0.171
-621.390	-58.737	-0.107	0.047
-620.376	-200.000	0.056	0.468
-619.361	39.244	0.043	-0.039
-618.346	-86.611	-0.127	-0.040
-617.332	800.000	0.025	0.079
-616.317	-113.628	0.170	-0.034
-615.303	-185.587	-0.277	0.004
-614.288	-140.516	0.359	-0.038
-613.273	800.000	-0.012	-0.045
-612.259	-41.242	-0.437	0.229
-611.244	55.658	-0.282	0.277
-610.230	158.634	0.073	-0.103
-609.215	-69.066	-0.159	0.062
-608.201	125.399	0.083	-0.106
-607.186	-200.000	0.016	-0.201
-606.171	-200.000	0.006	0.236
-605.157	219.289	0.142	0.232
-604.142	800.000	-0.039	0.166
-603.128	25.786	0.151	0.128
-602.113	-200.000	-0.040	0.413
-601.098	-69.821	0.226	0.088
-600.084	16.505	0.184	-0.148
-599.069	-200.000	-0.016	0.100
-598.055	-200.000	0.016	0.346
-597.040	-63.196	0.199	-0.083
-596.025	-21.893	-0.256	0.158
-595.011	-54.296	0.097	-0.045
-593.996	-200.000	0.008	-0.038
-592.982	35.230	-0.232	-0.207
-591.967	104.238	0.148	0.177
-590.952	800.000	-0.089	0.277
-589.938	-132.900	0.264	-0.034
-588.923	423.953	0.030	0.065
-587.909	800.000	-0.076	0.296
-586.894	-71.300	-0.359	0.137
-585.879	382.644	0.081	-0.169
-584.865	-200.000	-0.023	0.172
-583.850	-54.249	-0.263	-0.121
-582.836	-200.000	0.007	0.109
-581.821	800.000	0.023	-0.067
-580.806	-60.792	0.123	0.053
-579.792	-200.000	0.038	0.172
-578.777	5.881	-0.011	0.008
-577.763	151.623	0.033	-0.046
-576.748	-131.352	-0.571	-0.077
-575.733	112.189	0.214	-0.263
-574.719	-120.164	-0.171	-0.030
-573.704	-78.392	-0.076	0.027
-572.690	800.000	0.066	-0.238
-571.675	-200.000	-0.007	-0.144
-570.661	-52.308	0.214	0.100
-569.646	-200.000	-0.057	-0.266
-568.631	396.233	-0.125	0.264
-567.617	-147.287	0.030	0.003
-566.602	800.000	-0.092	-0.353
-565.588	304.754	0.041	0.076
-564.573	-37.080	0.305	-0.166
-563.558	70.921	0.085	0.090
-562.544	800.000	-0.035	0.154
-561.529	-106.052	0.258	-0.059
-560.515	553.025	-0.071	-0.174
-559.500	14.961	-0.020	0.016
-558.485	4.352	0.087	0.065
-557.471	-142.578	-0.310	-0.031
-556.456	465.299	0.151	-0.343
-555.442	-66.939	-0.334	0.134
-554.427	800.000	0.057	0.181
-553.412	-182.897	-0.055	-0.001
-552.398	478.473	0.062	-0.143
-551.383	37.494	-0.221	0.199
-550.369	-75.426	-0.168	0.061
-549.354	-200.000	0.027	-0.124
-548.339	200.875	0.123	-0.192
-547.325	800.000	-0.074	-0.255
-546.310	-200.000	0.015	0.157
-545.296	-114.063	0.131	-0.026
-544.281	-200.000	0.009	-0.352
-543.266	-200.000	0.009	0.068
-542.252	95.066	0.055	0.064
-541.237	-128.053	0.325	0.047
-540.223	-200.000	-0.004	-0.297
-539.208	145.050	0.057	0.077
-538.193	140.746	0.175	-0.235
-537.179	-109.371	0.207	-0.044
-536.164	-121.470	-0.291	0.049
-535.150	-35.426	-0.055	0.030
-534.135	-200.000	-0.019	-0.221
-533.121	-133.486	-0.136	0.017
-532.106	159.433	-0.163	-0.230
-531.091	239.301	-0.098	0.166
-530.077	-92.415	-0.088	-0.025
-529.062	-149.303	-0.044	-0.004
-528.048	441.682	-0.100	-0.221
-527.033	-200.000	-0.005	-0.063
-526.018	-200.000	-0.012	-0.232
-525.004	120.835	-0.240	-0.303
-523.989	-35.765	0.158	-0.087
-522.975	152.608	-0.049	-0.068
-521.960	461.897	-0.087	-0.196
-520.945	-68.481	-0.242	0.095
-519.931	-79.913	0.300	0.102
-518.916	-149.835	-0.249	0.020
-517.902	-200.000	-0.017	0.221
-516.887	0.274	0.186	-0.135
-515.872	773.671	0.210	0.581
-514.858	-99.753	-0.433	-0.110
-513.843	-145.536	-0.317	0.029
-512.829	63.325	-0.191	-0.193
-511.814	-200.000	0.102	-0.502
-510.799	-200.000	-0.031	-0.316
-509.785	-18.531	-0.266	-0.168
-508.770	-157.299	-0.224	0.014
-507.756	104.473	0.316	0.377
-506.741	-200.000	-0.004	0.032
-505.726	208.692	0.173	0.274
-504.712	-200.000	-0.039	-0.250
-503.697	113.584	-0.151	-0.186
-502.683	18.347	0.209	-0.169
-501.668	-200.000	0.015	-0.150
-500.653	-42.625	0.309	0.159
-499.639	-91.252	-0.141	0.041
-498.624	-200.000	-0.018	-0.105
-497.610	153.486	0.112	0.155
-496.595	18.315	-0.199	0.161
-495.581	255.302	-0.130	0.226
-494.566	-152.650	-0.135	-0.010
-493.551	-200.000	0.021	0.188
-492.537	19.469	0.298	-0.242
-491.522	-105.560	0.131	0.030
-490.508	-89.465	-0.093	0.028
-489.493	648.566	0.064	-0.165
-488.478	-25.601	0.220	0.131
-487.464	800.000	0.028	0.087
-486.449	-30.125	0.359	-0.207
-485.435	19.415	0.118	-0.096
-484.420	-200.000	0.031	0.512
-483.405	5.170	0.119	0.088
-482.391	-114.409	-0.412	0.080
-481.376	19.396	0.204	0.166
-480.362	-102.840	-0.094	-0.023
-479.347	-68.773	-0.111	-0.043
-478.332	-59.143	0.105	0.046
-477.318	-35.967	-0.220	-0.120
-476.303	-79.746	-0.354	0.120
-475.289	85.954	-0.170	0.190
-474.274	-200.000	-0.023	-0.192
-473.259	380.600	0.138	0.287
-472.245	-200.000	-0.034	0.293
-471.230	438.248	-0.163	0.358
-470.216	324.603	0.077	0.149
-469.201	-200.000	-0.009	-0.137
-468.186	-153.162	0.315	0.022
-467.172	-122.290	0.114	-0.019
-466.157	-200.000	0.027	-0.345
-465.143	-121.566	-0.352	0.059
-464.128	-52.338	0.224	-0.105
-463.113	-200.000	0.079	-0.511
-462.099	38.779	-0.225	-0.203
-461.084	-148.478	0.105	0.009
-460.070	-200.000	-0.021	-0.145
-459.055	-75.783	0.354	0.127
-458.040	-155.929	0.060	-0.004
-457.026	24.773	-0.319	0.267
-456.011	484.367	0.112	-0.257
-454.997	48.110	0.224	-0.211
-453.982	586.957	-0.053	0.131
-452.968	69.191	0.152	-0.158
-451.953	383.734	0.151	-0.313
-450.938	-115.645	-0.289	-0.055
-449.924	-136.397	0.084	-0.010
-448.909	391.653	0.084	-0.176
-447.895	43.514	-0.120	0.111
-446.880	158.383	0.041	-0.057
-445.865	231.340	-0.074	0.122
-444.851	-200.000	0.028	0.165
-443.836	800.000	-0.074	0.261
-442.822	86.145	0.176	-0.196
-441.807	-200.000	-0.015	0.249
-440.792	-35.292	-0.247	-0.135
-439.778	-127.393	-0.221	-0.032
-438.763	-174.931	-0.101	-0.003
-437.749	61.426	0.181	-0.182
-436.734	62.914	0.075	0.076
-435.719	787.677	-0.073	0.203
-434.705	-180.038	0.251	-0.005
-433.690	-88.474	0.185	0.056
-432.676	-118.787	0.439	0.078
-431.661	102.860	0.221	0.261
-430.646	313.636	0.067	-0.127
-429.632	-75.107	-0.251	-0.091
-428.617	37.537	0.077	-0.069
-427.603	-167.672	-0.107	-0.004
-426.588	-98.872	0.078	0.020
-425.573	-127.986	0.170	-0.025
-424.559	-32.893	-0.202	-0.113
-423.544	327.330	-0.195	-0.378
-422.530	-200.000	-0.014	-0.246
-421.515	76.021	0.216	0.231
-420.500	201.436	0.189	0.293
-419.486	479.303	0.117	0.268
-418.471	-33.811	-0.416	-0.231
-417.457	77.783	0.191	0.205
-416.442	122.403	0.130	-0.164
-415.428	276.865	-0.040	0.072
-414.413	-123.245	0.112	-0.018
-413.398	49.949	-0.364	0.346
-412.384	-200.000	-0.006	0.185
-411.369	295.376	0.171	-0.316
-410.355	-72.704	0.143	0.053
-409.340	576.876	-0.035	0.087
-408.325	245.277	-0.175	0.297
-407.311	-123.480	0.086	-0.014
-406.296	-200.000	0.032	0.241
-405.282	-20.756	-0.289	0.179
-404.267	-86.572	-0.214	0.066
-403.252	-24.322	-0.152	0.091
-402.238	-157.207	-0.076	-0.005
-401.223	85.911	0.179	-0.199
-400.209	-123.115	-0.056	-0.009
-399.194	800.000	-0.086	-0.276
-398.179	800.000	0.088	0.271
-397.165	461.700	0.127	-0.285
-396.150	-65.451	-0.092	0.037
-395.136	-7.614	-0.035	0.024
-394.121	-158.620	-0.177	-0.010
-393.106	-198.045	0.218	-0.001
-392.092	-109.875	0.121	0.026
-391.077	-101.413	0.067	0.016
-390.063	-51.292	-0.118	0.056
-389.048	-200.000	-0.008	-0.272
-388.033	-26.949	0.151	-0.089
-387.019	14.328	0.108	0.085
-386.004	61.131	-0.055	0.055
-384.990	-167.311	-0.421	0.017
-383.975	-200.000	-0.014	0.443
-382.960	-199.037	0.048	-0.000
-381.946	-70.914	-0.144	-0.055
-380.931	-119.004	0.227	0.040
-379.917	-200.000	-0.024	0.320
-378.902	164.276	-0.150	0.213
-377.888	122.631	0.154	-0.194
-376.873	51.742	0.191	0.183
-375.858	60.155	-0.136	0.135
-374.844	-69.239	0.135	-0.052
-373.829	-200.000	-0.007	0.094
-372.815	-161.328	0.160	0.008
-371.800	-156.529	-0.127	0.008
-370.785	-144.212	-0.223	0.021
-369.771	-200.000	0.052	-0.233
-368.756	2.808	0.282	-0.206
-367.742	-200.000	-0.016	-0.073
-366.727	204.752	-0.058	0.090
-365.712	169.715	-0.050	0.072
-364.698	324.685	0.095	-0.184
-363.683	83.811	0.049	-0.054
-362.669	59.773	-0.171	-0.170
-361.654	-84.818	0.266	0.084
-360.639	651.429	0.112	-0.288
-359.625	226.303	0.064	-0.105
-358.610	-32.838	0.225	-0.126
-357.596	17.045	-0.159	0.127
-356.581	-200.000	0.024	0.110
-355.566	180.219	0.074	-0.109
-354.552	-191.065	-0.089	0.001
-353.537	-97.923	0.303	-0.079
-352.523	509.132	-0.060	-0.139
-351.508	357.515	-0.022	-0.045
-350.493	800.000	-0.057	0.216
-349.479	208.542	0.117	-0.184
-348.464	-106.024	-0.508	-0.115
-347.450	51.438	-0.234	0.224
-346.435	-97.737	-0.242	-0.063
-345.420	-150.442	0.083	-0.006
-344.406	-8.852	0.035	-0.023
-343.391	800.000	-0.052	0.203
-342.377	57.695	0.043	0.042
-341.362	54.968	-0.080	-0.077
-340.348	94.522	-0.070	0.080
-339.333	21.252	0.076	0.062
-338.318	-19.511	0.053	-0.033
-337.304	-142.567	-0.107	-0.011
-336.289	-102.850	0.352	-0.084
-335.275	-200.000	0.019	0.143
-334.260	46.520	-0.335	0.312
-333.245	-200.000	-0.010	0.064
-332.231	388.716	0.061	0.126
-331.216	-13.579	-0.347	0.226
-330.202	545.989	0.022	0.052
-329.187	-121.639	-0.237	0.039
-328.172	-64.196	-0.281	0.115
-327.158	-97.073	-0.135	0.036
-326.143	91.602	0.244	-0.276
-325.129	-200.000	-0.009	-0.182
-324.114	535.477	0.134	0.319
-323.099	-200.000	-0.070	0.442
-322.085	205.032	-0.247	0.386
-321.070	50.635	-0.133	0.127
-320.056	83.051	-0.169	0.184
-319.041	-35.919	-0.148	-0.080
-318.026	-11.070	0.177	0.117
-317.012	-59.333	-0.215	0.093
-315.997	419.558	0.044	-0.095
-314.983	-108.919	-0.370	0.079
-313.968	800.000	-0.117	-0.491
-312.953	73.202	0.084	-0.089
-311.939	800.000	-0.060	-0.178
-310.924	-200.000	-0.019	-0.172
-309.910	91.422	0.174	0.196
-308.895	-200.000	0.011	-0.171
-307.880	248.462	-0.197	-0.335
-306.866	49.185	-0.135	0.127
-305.851	-101.279	-0.324	-0.080
-304.837	312.513	0.054	0.101
-303.822	-17.040	0.188	0.119
-302.807	-200.000	-0.039	-0.194
-301.793	-33.483	-0.270	-0.150
-300.778	608.577	-0.109	-0.274
-299.764	4.604	-0.183	-0.135
-298.749	259.771	-0.117	-0.202
-297.735	779.593	0.063	-0.174
-296.720	-54.813	-0.156	0.071
-295.705	-158.927	0.317	-0.018
-294.691	200.818	0.218	-0.337
-293.676	800.000	-0.062	-0.216
-292.662	20.748	0.090	-0.073
-291.647	70.359	0.213	-0.221
-290.632	198.610	0.033	0.051
-289.618	-112.431	-0.193	0.039
-288.603	30.512	0.211	0.181
-287.589	67.928	0.057	0.059
-286.574	262.307	-0.061	-0.107
-285.559	230.543	0.097	0.158
-284.545	411.847	-0.150	-0.319
-283.530	-200.000	-0.003	0.053
-282.516	-200.000	-0.009	0.305
-281.501	-200.000	-0.011	-0.261
-280.486	-200.000	-0.028	0.204
-279.472	-8.931	-0.198	-0.133
-278.457	-200.000	-0.023	-0.211
-277.443	783.426	0.043	0.118
-276.428	-51.361	-0.186	0.087
-275.413	-48.341	0.273	-0.132
-274.399	617.508	-0.150	0.379
-273.384	-98.397	0.310	0.080
-272.370	-76.465	0.193	-0.068
-271.355	63.260	-0.247	0.249
-270.340	-104.147	-0.181	-0.042
-269.326	4.354	0.160	0.117
-268.311	-200.000	-0.016	-0.275
-267.297	-153.887	0.226	0.015
-266.282	-7.948	0.194	-0.131
-265.267	9.067	-0.177	-0.134
-264.253	47.075	-0.164	0.153
-263.238	-200.000	0.002	-0.101
-262.224	-128.766	0.165	-0.023
-261.209	-200.000	0.046	0.214
-260.195	100.102	0.047	-0.055
-259.180	-200.000	-0.014	-0.063
-258.165	-129.715	0.494	-0.068
-257.151	53.294	0.125	-0.121
-256.136	518.786	0.148	-0.348
-255.122	-166.810	0.283	-0.012
-254.107	48.474	-0.244	-0.229
-253.092	-146.799	0.242	-0.021
-252.078	277.361	0.069	0.124
-251.063	-55.841	0.287	-0.129
-250.049	-89.432	0.185	-0.055
-249.034	800.000	-0.092	-0.384
-248.019	-200.000	-0.064	0.288
-247.005	-85.330	0.166	0.052
-245.990	65.149	0.113	-0.115
-244.976	-200.000	0.009	-0.103
-243.961	-67.642	-0.342	-0.134
-242.946	-200.000	0.005	-0.179
-241.932	-200.000	-0.011	-0.062
-240.917	-200.000	-0.006	0.038
-239.903	-103.667	0.341	0.080
-238.888	800.000	0.071	0.198
-237.873	800.000	0.061	-0.232
-236.859	-53.197	-0.103	0.047
-235.844	-140.346	0.352	-0.037
-234.830	-91.053	-0.466	-0.134
-233.815	164.367	-0.056	-0.079
-232.800	-17.255	-0.220	-0.139
-231.786	-9.026	-0.137	-0.092
-230.771	-73.446	0.118	-0.043
-229.757	-70.292	-0.089	0.034
-228.742	800.000	0.069	0.207
-227.727	-143.048	-0.489	0.047
-226.713	26.658	-0.105	-0.088
-225.698	-66.969	-0.115	-0.045
-224.684	-121.846	0.220	0.036
-223.669	149.719	-0.034	0.046
-222.655	-200.000	-0.093	0.601
-221.640	-20.880	0.093	0.057
-220.625	-96.070	-0.386	-0.103
-219.611	-64.485	-0.185	-0.075
-218.596	85.656	-0.269	-0.296
-217.582	-55.282	0.214	0.096
-216.567	-115.260	-0.123	-0.023
-215.552	800.000	-0.085	0.258
-214.538	-200.000	-0.010	-0.382
-213.523	800.000	0.091	0.337
-212.509	-120.853	0.283	0.048
-211.494	-107.256	-0.194	0.043
-210.479	800.000	0.061	-0.255
-209.465	-200.000	0.011	-0.229
-208.450	-83.339	0.321	-0.103
-207.436	-200.000	-0.029	0.164
-206.421	187.676	-0.182	0.272
-205.406	-200.000	0.027	0.181
-204.392	-140.396	0.234	0.024
-203.377	800.000	0.075	0.222
-202.363	-109.056	0.012	0.003
-201.348	200.818	-0.094	0.145
-200.333	-200.000	0.016	0.225
-199.319	71.943	0.126	0.131
-198.304	158.530	0.117	0.162
-197.290	800.000	-0.020	-0.073
-196.275	-80.760	0.133	-0.044
-195.260	-41.281	-0.157	0.081
-194.246	-166.824	-0.369	0.015
-193.231	800.000	-0.087	-0.264
-192.217	109.404	-0.118	-0.142
-191.202	-68.119	0.048	0.019
-190.187	-39.885	0.368	0.192
-189.173	-22.268	0.273	-0.165
-188.158	0.548	-0.159	-0.114
-187.144	22.010	-0.210	0.171
-186.129	800.000	0.032	0.105
-185.114	-131.995	0.478	-0.062
-184.100	373.681	-0.134	-0.273
-183.085	-70.998	0.068	-0.026
-182.071	800.000	-0.121	0.371
-181.056	103.210	0.099	0.116
-180.042	-200.000	0.038	0.458
-179.027	-200.000	0.027	0.197
-178.012	-51.458	-0.132	0.062
-176.998	-200.000	0.012	-0.163
-175.983	800.000	-0.064	-0.189
-174.969	800.000	-0.056	0.185
-173.954	-32.854	-0.058	0.032
-172.939	72.530	0.036	0.038
-171.925	-99.426	-0.178	0.045
-170.910	-1.969	-0.067	0.047
-169.896	-150.295	0.231	-0.018
-168.881	-200.000	-0.036	-0.216
-167.866	-34.743	0.131	-0.072
-166.852	-200.000	0.011	-0.055
-165.837	-200.000	0.023	-0.161
-164.823	73.132	0.135	0.141
-163.808	0.270	-0.196	0.140
-162.793	-114.403	0.307	-0.059
-161.779	-123.889	0.207	0.033
-160.764	125.131	0.065	-0.081
-159.750	3.970	0.292	0.213
-158.735	-74.991	0.348	-0.124
-157.720	-108.641	0.171	0.037
-156.706	-146.637	0.270	0.023
-155.691	-200.000	0.033	-0.204
-154.677	157.490	0.096	0.132
-153.662	-200.000	-0.022	-0.204
-152.647	40.125	0.014	0.013
-151.633	-71.804	0.120	0.045
-150.618	-200.000	0.028	-0.223
-149.604	56.798	0.162	-0.157
-148.589	-141.983	0.099	-0.010
-147.574	-200.000	-0.043	0.243
-146.560	38.802	-0.152	-0.136
-145.545	-131.401	0.181	-0.024
-144.531	-200.000	0.016	-0.164
-143.516	53.930	0.046	0.044
-142.502	800.000	-0.021	-0.090
-141.487	800.000	-0.103	0.384
-140.472	289.975	0.156	-0.282
-139.458	-6.065	0.132	-0.090
-138.443	185.967	0.254	0.377
-137.429	800.000	0.033	-0.097
-136.414	-95.288	-0.335	0.090
-135.399	-0.917	0.185	-0.130
-134.385	800.000	0.025	0.080
-133.370	-200.000	-0.010	0.146
-132.356	121.757	0.254	0.316
-131.341	-200.000	-0.017	0.204
-130.326	-200.000	0.280	0.001
-129.312	188.434	-0.159	0.237
-128.297	-82.830	0.260	0.084
-127.283	-200.000	0.035	-0.293
-126.268	-100.864	0.239	0.059
-125.253	-140.619	-0.072	0.007
-124.239	-200.000	-0.017	-0.094
-123.224	-200.000	-0.005	0.143
-122.210	800.000	0.064	-0.260
