DTS Sentinel unit serial number:	SN413079Multiplexer serial number:	ORYXHardware model number:	OX4-SRSoftware version number:	ORYX F/W v4.00 Oryx Data Collector v3.7.2.0data status	okinstallation	princeton_trtdifferential loss correction	single-endedforward channel	channel 1reverse channel	N/Adate	2019/09/13time	18:26:35forward acquisition time	60.00reverse acquisition time	0.00gamma	496.2192k internal	0.2314k external	0.2314temperature offset calibration	1.0130default loss term (dB/km)	0.3790temperature slope calibration	1.0000multiplexer offset coefficient	1.0000multiplexer slope coefficient	1.0000fibre end	0.00T internal ref (°C)	33.59T ext. ref 1 (°C)	4.30T ext. ref 2 (°C)	26.55length (m)	temperature (°C)	Stokes	anti-Stokes-747.200	-166.474	0.371	0.016
-746.185	-200.000	-0.047	0.248
-745.171	-200.000	0.298	-0.001
-744.156	-200.000	0.005	0.299
-743.142	-200.000	-0.004	0.036
-742.127	-200.000	-0.045	0.236
-741.112	800.000	0.055	0.155
-740.098	74.304	-0.043	0.046
-739.083	7.228	0.043	0.032
-738.069	-200.000	0.003	-0.173
-737.054	-100.832	-0.179	-0.045
-736.039	800.000	-0.024	-0.086
-735.025	-166.326	0.094	-0.004
-734.010	800.000	-0.051	-0.177
-732.996	0.630	0.107	-0.077
-731.981	-78.618	0.093	-0.032
-730.966	-26.935	0.236	-0.140
-729.952	-114.315	-0.142	-0.028
-728.937	32.253	0.098	-0.086
-727.923	658.574	-0.100	0.260
-726.908	-91.051	-0.214	-0.062
-725.894	-31.444	0.126	-0.072
-724.879	-165.557	-0.246	0.011
-723.864	-200.000	-0.068	0.354
-722.850	-200.000	0.023	-0.131
-721.835	406.299	0.121	0.259
-720.821	340.819	-0.088	0.175
-719.806	312.071	-0.186	0.354
-718.791	800.000	0.109	-0.326
-717.777	-74.107	-0.096	0.035
-716.762	800.000	-0.062	-0.246
-715.748	800.000	-0.052	-0.159
-714.733	-68.210	-0.145	-0.057
-713.718	707.316	-0.134	-0.360
-712.704	452.555	-0.018	-0.041
-711.689	-200.000	-0.003	0.069
-710.675	82.935	0.091	0.101
-709.660	-200.000	0.083	0.518
-708.645	537.570	-0.119	0.285
-707.631	-200.000	-0.005	0.095
-706.616	-200.000	0.038	-0.193
-705.602	114.098	-0.151	0.185
-704.587	-93.994	-0.329	-0.091
-703.572	51.774	-0.177	-0.171
-702.558	-136.708	0.280	-0.033
-701.543	115.548	-0.230	-0.284
-700.529	800.000	0.016	-0.055
-699.514	-37.304	0.259	-0.140
-698.499	-200.000	-0.048	-0.280
-697.485	771.603	0.089	-0.245
-696.470	27.529	-0.209	-0.178
-695.456	320.608	-0.089	-0.170
-694.441	30.030	0.136	-0.117
-693.426	-50.308	0.227	-0.108
-692.412	-200.000	0.034	0.295
-691.397	-119.776	-0.205	-0.036
-690.383	673.536	0.121	-0.317
-689.368	-32.648	-0.230	-0.129
-688.354	337.456	-0.037	0.072
-687.339	-110.614	-0.274	0.057
-686.324	21.340	0.352	0.290
-685.310	82.143	0.122	-0.134
-684.295	-126.558	-0.093	-0.014
-683.281	145.959	-0.227	0.308
-682.266	-200.000	0.009	-0.204
-681.251	-200.000	-0.001	-0.179
-680.237	641.780	-0.127	0.326
-679.222	45.209	0.115	-0.108
-678.208	-60.958	-0.080	-0.034
-677.193	-10.968	0.230	-0.154
-676.178	-87.636	-0.265	0.081
-675.164	199.150	-0.058	0.089
-674.149	-14.036	-0.096	-0.063
-673.135	-125.735	0.016	0.003
-672.120	102.634	0.193	-0.228
-671.105	-76.910	0.197	-0.070
-670.091	685.730	-0.110	0.291
-669.076	-145.120	-0.414	-0.038
-668.062	-34.553	0.177	-0.098
-667.047	-200.000	0.045	0.237
-666.032	166.332	0.045	0.065
-665.018	-84.597	-0.247	0.079
-664.003	-127.945	0.181	0.026
-662.989	64.615	0.066	-0.067
-661.974	281.255	0.088	-0.158
-660.959	185.229	-0.136	-0.204
-659.945	336.487	0.092	-0.180
-658.930	800.000	-0.037	-0.119
-657.916	-172.849	-0.236	-0.007
-656.901	686.122	-0.110	-0.291
-655.886	5.149	-0.150	-0.112
-654.872	-200.000	-0.077	-0.353
-653.857	-179.072	0.052	-0.001
-652.843	104.329	0.116	-0.138
-651.828	34.346	0.156	0.138
-650.814	-140.262	-0.067	0.007
-649.799	800.000	0.106	-0.299
-648.784	13.706	0.192	0.150
-647.770	-166.882	-0.294	-0.012
-646.755	800.000	-0.064	-0.220
-645.741	-188.457	-0.235	0.003
-644.726	-200.000	-0.014	-0.341
-643.711	-38.084	0.123	-0.066
-642.697	-200.000	-0.008	-0.083
-641.682	243.133	-0.141	-0.239
-640.668	-200.000	-0.000	0.058
-639.653	-173.665	-0.448	-0.014
-638.638	-65.331	-0.129	0.053
-637.624	108.437	0.048	0.058
-636.609	-200.000	0.052	0.331
-635.595	-130.166	-0.149	-0.020
-634.580	-200.000	0.034	0.232
-633.565	-200.000	0.008	0.105
-632.551	-88.675	0.146	0.044
-631.536	-42.406	-0.310	0.159
-630.522	79.863	-0.220	0.238
-629.507	-34.221	-0.140	-0.077
-628.492	68.011	0.147	0.152
-627.478	800.000	0.045	-0.134
-626.463	-91.505	0.262	-0.075
-625.449	387.725	-0.099	-0.206
-624.434	110.737	0.264	0.321
-623.419	800.000	-0.092	-0.345
-622.405	-200.000	0.043	-0.566
-621.390	556.382	-0.148	-0.360
-620.376	-200.000	-0.014	-0.226
-619.361	23.146	-0.213	-0.176
-618.346	-15.931	0.060	0.038
-617.332	-50.635	0.344	-0.164
-616.317	-99.875	0.269	-0.068
-615.303	121.867	-0.121	-0.153
-614.288	157.645	0.189	0.264
-613.273	-86.737	0.079	-0.025
-612.259	-200.000	0.052	0.397
-611.244	47.640	0.095	0.089
-610.230	235.699	-0.023	-0.038
-609.215	-85.170	-0.169	-0.053
-608.201	-143.943	-0.349	-0.033
-607.186	-93.657	0.186	-0.052
-606.171	154.382	-0.069	0.096
-605.157	-120.638	-0.123	-0.021
-604.142	-200.000	-0.003	-0.278
-603.128	-200.000	-0.030	-0.187
-602.113	492.184	-0.185	-0.428
-601.098	-153.025	0.021	-0.001
-600.084	-136.104	0.279	0.033
-599.069	-200.000	0.011	0.078
-598.055	-24.042	0.089	0.054
-597.040	800.000	-0.054	0.206
-596.025	-200.000	0.044	-0.292
-595.011	-68.220	0.142	0.056
-593.996	-9.649	-0.261	0.175
-592.982	-91.310	0.183	-0.053
-591.967	-62.359	-0.127	0.053
-590.952	800.000	0.049	0.153
-589.938	-119.259	-0.112	0.020
-588.923	-200.000	-0.013	0.131
-587.909	322.349	0.057	-0.110
-586.894	-41.259	0.115	-0.060
-585.879	83.904	-0.131	-0.144
-584.865	514.936	-0.032	-0.075
-583.850	87.115	-0.078	0.087
-582.836	443.047	0.098	-0.217
-581.821	-101.266	-0.056	-0.014
-580.806	-200.000	0.003	0.238
-579.792	193.830	0.234	0.357
-578.777	-200.000	-0.021	0.102
-577.763	673.908	-0.079	-0.205
-576.748	-118.356	-0.247	-0.044
-575.733	-200.000	0.029	0.456
-574.719	-9.763	0.130	-0.087
-573.704	-112.139	0.347	0.070
-572.690	-5.118	0.084	0.058
-571.675	6.212	-0.191	-0.142
-570.661	22.578	0.231	0.190
-569.646	72.522	0.108	-0.114
-568.631	-156.906	-0.139	-0.009
-567.617	338.171	0.056	0.110
-566.602	-72.915	0.039	0.015
-565.588	186.313	0.139	-0.209
-564.573	-200.000	0.022	-0.205
-563.558	189.541	-0.246	0.371
-562.544	81.716	0.122	0.132
-561.529	131.321	0.078	0.100
-560.515	213.635	-0.098	0.156
-559.500	120.000	0.125	-0.156
-558.485	63.050	0.079	-0.080
-557.471	-100.168	-0.154	0.039
-556.456	160.086	-0.057	0.080
-555.442	-37.481	-0.147	-0.079
-554.427	-139.840	0.208	0.022
-553.412	-189.135	-0.211	-0.003
-552.398	312.534	0.119	0.225
-551.383	-82.514	-0.252	-0.082
-550.369	200.215	-0.098	-0.151
-549.354	-82.719	0.094	0.031
-548.339	474.708	-0.078	-0.178
-547.325	-125.789	-0.308	0.047
-546.310	371.952	-0.090	-0.184
-545.296	161.269	-0.022	0.031
-544.281	800.000	0.097	-0.420
-543.266	-85.727	-0.127	0.040
-542.252	760.814	-0.040	0.109
-541.237	-78.770	0.391	0.134
-540.223	-57.613	-0.124	0.055
-539.208	-161.516	0.043	0.002
-538.193	5.820	0.028	-0.021
-537.179	10.930	-0.148	0.113
-536.164	-200.000	-0.018	0.194
-535.150	156.907	-0.161	-0.224
-534.135	-71.349	0.195	-0.074
-533.121	515.753	0.066	-0.155
-532.106	-81.144	0.380	0.126
-531.091	-200.000	-0.026	-0.334
-530.077	-63.652	-0.221	0.091
-529.062	-46.704	-0.021	-0.010
-528.048	-73.926	0.127	0.046
-527.033	-200.000	0.017	0.140
-526.018	156.857	0.168	-0.233
-525.004	435.202	-0.053	-0.116
-523.989	-94.495	-0.029	-0.008
-522.975	-40.196	-0.271	0.142
-521.960	800.000	-0.041	-0.123
-520.945	-52.675	-0.116	0.054
-519.931	-200.000	0.047	-0.252
-518.916	-200.000	0.051	-0.270
-517.902	-18.956	-0.150	0.094
-516.887	-145.179	-0.029	-0.003
-515.872	-98.344	-0.265	-0.068
-514.858	-114.381	0.334	0.065
-513.843	-24.619	0.270	-0.161
-512.829	-76.255	0.099	-0.035
-511.814	-85.528	-0.113	-0.035
-510.799	-182.027	-0.046	0.001
-509.785	276.796	-0.107	0.192
-508.770	166.081	-0.156	-0.222
-507.756	800.000	-0.133	-0.398
-506.741	-120.351	0.066	-0.011
-505.726	-103.066	-0.234	0.056
-504.712	-200.000	0.025	-0.115
-503.697	71.309	0.033	0.034
-502.683	-52.175	0.126	0.059
-501.668	106.325	0.127	-0.151
-500.653	-200.000	-0.020	-0.337
-499.639	352.560	-0.099	-0.198
-498.624	800.000	-0.104	0.412
-497.610	-200.000	0.003	-0.112
-496.595	800.000	-0.019	0.069
-495.581	767.518	-0.077	0.211
-494.566	-200.000	0.059	-0.295
-493.551	-200.000	0.028	-0.165
-492.537	-200.000	0.025	-0.335
-491.522	-200.000	0.007	-0.111
-490.508	484.587	0.083	-0.190
-489.493	615.984	-0.067	0.170
-488.478	44.993	-0.289	0.267
-487.464	800.000	0.086	-0.293
-486.449	-79.205	-0.161	-0.055
-485.435	-41.377	-0.185	-0.096
-484.420	-116.503	0.148	0.027
-483.405	244.992	-0.104	0.175
-482.391	326.676	-0.056	-0.108
-481.376	75.086	0.324	0.343
-480.362	120.185	-0.160	0.200
-479.347	164.374	0.200	-0.283
-478.332	-100.908	0.405	0.100
-477.318	-200.000	0.011	-0.239
-476.303	99.000	-0.254	0.294
-475.289	-161.705	-0.377	-0.019
-474.274	-42.014	0.095	-0.049
-473.259	19.169	0.139	0.112
-472.245	20.518	0.371	0.301
-471.230	800.000	0.039	0.109
-470.216	196.408	0.021	0.032
-469.201	132.801	0.169	0.218
-468.186	36.841	-0.168	0.149
-467.172	-70.359	0.194	0.074
-466.157	151.712	0.126	-0.172
-465.143	-59.635	-0.376	-0.162
-464.128	-200.000	-0.039	-0.290
-463.113	-200.000	-0.007	-0.181
-462.099	-34.072	0.135	0.074
-461.084	144.754	-0.064	0.085
-460.070	-157.065	-0.212	-0.013
-459.055	-47.972	0.211	-0.102
-458.040	-98.799	-0.246	0.063
-457.026	800.000	-0.052	0.167
-456.011	90.728	-0.133	-0.149
-454.997	-200.000	-0.077	-0.401
-453.982	800.000	0.045	-0.181
-452.968	202.711	0.136	-0.210
-451.953	139.379	0.140	0.184
-450.938	-149.008	-0.263	0.021
-449.924	-54.805	-0.243	0.110
-448.909	-110.915	-0.164	-0.034
-447.895	-12.972	-0.295	0.192
-446.880	16.139	0.203	0.160
-445.865	-63.827	0.276	0.113
-444.851	-34.875	-0.350	-0.192
-443.836	429.287	-0.071	-0.154
-442.822	2.093	-0.156	-0.113
-441.807	-12.408	-0.149	0.098
-440.792	10.885	0.184	-0.141
-439.778	86.518	-0.134	0.149
-438.763	800.000	0.005	0.020
-437.749	113.717	0.149	-0.181
-436.734	477.536	-0.120	0.273
-435.719	-85.343	0.278	0.087
-434.705	-133.701	-0.219	0.027
-433.690	451.742	0.043	0.095
-432.676	86.670	0.288	0.318
-431.661	-102.138	-0.256	-0.062
-430.646	208.991	0.029	-0.046
-429.632	37.911	0.191	-0.170
-428.617	130.348	0.214	-0.274
-427.603	800.000	0.056	-0.195
-426.588	-22.998	-0.391	0.236
-425.573	-150.636	-0.074	-0.006
-424.559	-47.271	0.226	-0.110
-423.544	-17.230	-0.280	0.177
-422.530	-200.000	-0.005	0.243
-421.515	-179.475	0.047	0.001
-420.500	-78.415	0.077	-0.026
-419.486	385.287	0.066	-0.137
-418.471	800.000	-0.070	-0.211
-417.457	189.311	0.067	0.100
-416.442	357.151	0.123	0.244
-415.428	-200.000	0.022	-0.122
-414.413	-175.924	-0.429	-0.011
-413.398	-155.340	-0.135	-0.009
-412.384	800.000	-0.086	0.279
-411.369	44.894	-0.330	0.304
-410.355	-179.615	-0.280	-0.006
-409.340	62.187	-0.269	0.269
-408.325	64.020	-0.044	0.045
-407.311	17.092	-0.225	0.178
-406.296	-48.777	-0.198	-0.095
-405.282	-200.000	-0.018	0.533
-404.267	-43.489	0.147	-0.074
-403.252	-178.700	0.077	0.002
-402.238	-83.466	0.365	0.117
-401.223	55.745	-0.229	-0.222
-400.209	336.716	-0.042	0.082
-399.194	150.381	-0.088	0.120
-398.179	-200.000	-0.007	-0.314
-397.165	-89.200	0.094	-0.028
-396.150	98.591	0.259	0.299
-395.136	435.444	-0.206	0.447
-394.121	-38.821	-0.232	-0.122
-393.106	618.654	0.021	0.053
-392.092	-90.002	-0.142	0.041
-391.077	129.812	-0.069	-0.088
-390.063	800.000	-0.036	0.125
-389.048	-10.585	-0.146	-0.097
-388.033	30.783	-0.172	0.147
-387.019	-183.559	0.336	0.006
-386.004	48.490	-0.187	0.175
-384.990	-93.694	-0.248	-0.068
-383.975	265.563	0.088	0.154
-382.960	-64.015	0.425	0.173
-381.946	-200.000	-0.025	0.238
-380.931	-45.990	-0.035	0.017
-379.917	10.021	0.153	0.116
-378.902	-102.614	-0.146	-0.035
-377.888	-38.940	-0.266	-0.140
-376.873	409.593	0.100	0.211
-375.858	800.000	-0.052	0.161
-374.844	249.130	0.095	0.160
-373.829	696.486	-0.055	-0.145
-372.815	-200.000	-0.033	-0.329
-371.800	22.120	0.084	-0.069
-370.785	453.743	0.116	-0.255
-369.771	-200.000	0.014	0.285
-368.756	800.000	-0.045	-0.149
-367.742	-60.628	0.042	0.018
-366.727	-59.696	-0.099	0.042
-365.712	8.526	0.055	-0.041
-364.698	-39.472	-0.142	-0.074
-363.683	-128.661	0.181	-0.026
-362.669	-95.843	0.370	0.099
-361.654	-84.251	0.215	-0.068
-360.639	466.483	0.193	0.431
-359.625	-200.000	-0.014	0.285
-358.610	44.560	0.111	-0.102
-357.596	-2.182	0.317	0.222
-356.581	-145.315	0.346	0.031
-355.566	-11.957	0.326	-0.213
-354.552	572.062	0.135	-0.328
-353.537	61.831	-0.084	0.083
-352.523	-169.623	-0.237	0.009
-351.508	130.485	-0.080	0.103
-350.493	102.815	-0.127	0.149
-349.479	100.115	0.114	0.132
-348.464	140.751	0.175	-0.231
-347.450	-142.015	0.172	-0.017
-346.435	-189.134	0.375	-0.004
-345.420	-200.000	-0.006	0.109
-344.406	47.020	0.161	0.149
-343.391	800.000	0.032	-0.095
-342.377	6.314	0.126	-0.093
-341.362	-40.696	0.326	0.168
-340.348	-185.630	-0.326	-0.005
-339.333	261.959	-0.292	0.506
-338.318	125.272	0.141	0.177
-337.304	-125.901	0.355	-0.053
-336.289	-27.731	-0.030	-0.017
-335.275	55.081	-0.099	-0.096
-334.260	26.753	-0.055	-0.046
-333.245	-142.282	-0.181	-0.018
-332.231	-41.288	0.165	-0.085
-331.216	95.627	-0.259	0.295
-330.202	63.482	0.041	0.041
-329.187	-181.995	-0.173	-0.003
-328.172	-58.949	0.021	0.009
-327.158	162.952	0.122	0.171
-326.143	89.294	0.101	-0.112
-325.129	170.603	0.072	-0.103
-324.114	-108.801	-0.125	0.027
-323.099	-89.024	0.268	0.079
-322.085	-2.964	0.168	0.117
-321.070	253.413	-0.079	-0.135
-320.056	-108.808	-0.281	-0.060
-319.041	-200.000	0.008	0.194
-318.026	-145.022	-0.381	-0.035
-317.012	-200.000	0.004	-0.023
-315.997	-11.471	0.087	-0.057
-314.983	319.534	0.156	-0.295
-313.968	-88.728	-0.072	-0.021
-312.953	-18.023	0.041	0.025
-311.939	-200.000	-0.025	0.154
-310.924	-37.939	-0.464	-0.246
-309.910	341.133	-0.108	-0.209
-308.895	358.470	-0.021	0.041
-307.880	800.000	0.158	-0.492
-306.866	-142.505	0.061	0.006
-305.851	83.505	0.125	-0.136
-304.837	-40.233	0.320	0.166
-303.822	800.000	-0.036	-0.123
-302.807	-171.091	0.141	0.005
-301.793	800.000	-0.076	-0.325
-300.778	24.452	0.158	0.130
-299.764	14.515	-0.141	-0.110
-298.749	-60.175	-0.113	-0.048
-297.735	119.493	0.278	-0.343
-296.720	32.017	-0.170	-0.146
-295.705	641.699	-0.091	0.230
-294.691	1.729	-0.065	0.046
-293.676	-117.426	0.250	0.045
-292.662	-79.880	-0.227	-0.076
-291.647	-45.493	0.541	0.267
-290.632	-200.000	0.048	0.439
-289.618	-180.885	-0.067	-0.001
-288.603	131.524	0.181	0.232
-287.589	-200.000	-0.028	-0.217
-286.574	29.611	-0.229	-0.194
-285.559	800.000	-0.108	-0.360
-284.545	-188.849	0.368	-0.004
-283.530	139.761	0.031	-0.041
-282.516	148.335	0.198	0.266
-281.501	-200.000	-0.045	0.308
-280.486	-167.457	-0.097	0.004
-279.472	-132.466	0.245	-0.031
-278.457	-24.017	0.271	-0.161
-277.443	-19.607	0.104	0.064
-276.428	-79.023	-0.193	-0.065
-275.413	-73.710	-0.082	-0.030
-274.399	-200.000	0.034	0.318
-273.384	-57.678	0.325	0.142
-272.370	-21.594	0.034	0.021
-271.355	-200.000	0.054	0.433
-270.340	-88.000	-0.305	0.091
-269.326	82.647	0.214	-0.231
-268.311	-9.155	-0.180	-0.120
-267.297	-17.934	-0.121	0.075
-266.282	-9.627	-0.132	0.088
-265.267	-186.512	0.324	0.005
-264.253	-200.000	0.006	0.117
-263.238	-200.000	-0.039	-0.423
-262.224	-200.000	-0.027	-0.157
-261.209	519.029	-0.117	-0.273
-260.195	182.163	-0.193	-0.283
-259.180	-200.000	-0.004	-0.214
-258.165	113.376	0.071	-0.086
-257.151	-32.855	-0.169	0.093
-256.136	58.349	0.125	-0.122
-255.122	-200.000	-0.004	-0.138
-254.107	56.823	0.122	0.118
-253.092	-32.049	-0.123	0.069
-252.078	191.098	-0.221	-0.331
-251.063	-86.512	-0.424	0.129
-250.049	15.669	-0.293	-0.229
-249.034	36.846	-0.174	-0.153
-248.019	144.057	0.139	0.184
-247.005	-25.066	-0.270	0.159
-245.990	12.954	0.271	-0.208
-244.976	-200.000	0.009	-0.126
-243.961	279.453	-0.214	0.380
-242.946	-179.377	0.250	0.005
-241.932	25.669	0.151	0.125
-240.917	-200.000	-0.007	-0.073
-239.903	800.000	0.034	-0.118
-238.888	4.187	-0.341	-0.248
-237.873	44.895	0.197	0.180
-236.859	61.888	-0.259	-0.256
-235.844	-116.914	0.549	0.100
-234.830	-102.337	0.211	0.050
-233.815	800.000	0.056	0.159
-232.800	-178.276	0.096	-0.002
-231.786	-64.260	-0.199	-0.080
-230.771	-89.140	0.250	0.073
-229.757	119.096	-0.202	-0.248
-228.742	-10.779	0.208	0.137
-227.727	-33.649	0.088	0.048
-226.713	69.210	-0.025	0.026
-225.698	-115.582	0.345	0.064
-224.684	-81.327	0.358	0.117
-223.669	-200.000	0.009	0.191
-222.655	12.715	0.327	-0.251
-221.640	-120.768	-0.372	0.062
-220.625	800.000	0.060	0.165
-219.611	-200.000	0.042	0.337
-218.596	-114.824	-0.499	0.095
-217.582	0.602	-0.138	-0.098
-216.567	62.908	-0.056	0.056
-215.552	11.821	0.178	-0.135
-214.538	-89.803	-0.284	0.082
-213.523	28.451	0.247	-0.207
-212.509	-101.217	0.143	0.035
-211.494	-91.857	-0.154	0.044
-210.479	82.474	0.282	0.303
-209.465	-143.210	-0.129	-0.012
-208.450	800.000	0.103	-0.382
-207.436	-98.450	-0.165	0.042
-206.421	11.709	-0.357	0.272
-205.406	-190.301	-0.341	0.004
-204.392	85.716	0.097	-0.106
-203.377	-33.042	0.050	0.028
-202.363	-132.193	0.308	-0.040
-201.348	800.000	0.152	0.521
-200.333	-170.383	-0.329	0.011
-199.319	-200.000	-0.006	-0.112
-198.304	800.000	0.080	0.276
-197.290	-200.000	-0.068	-0.327
-196.275	-52.296	-0.071	0.033
-195.260	-11.054	0.196	-0.128
-194.246	-122.870	-0.219	-0.035
-193.231	67.230	0.193	0.195
-192.217	-49.705	-0.168	-0.079
-191.202	245.524	0.093	-0.156
-190.187	800.000	0.114	0.325
-189.173	150.485	0.125	0.168
-188.158	800.000	0.080	-0.223
-187.144	-200.000	-0.006	0.054
-186.129	-109.619	-0.517	0.108
-185.114	-200.000	0.014	0.127
-184.100	-200.000	0.048	-0.244
-183.085	-200.000	0.027	-0.188
-182.071	102.217	0.050	-0.058
-181.056	-61.882	-0.123	-0.051
-180.042	547.055	0.195	-0.462
-179.027	364.736	0.092	-0.184
-178.012	569.259	-0.034	-0.082
-176.998	-67.593	-0.204	0.079
-175.983	-133.691	-0.118	0.015
-174.969	184.337	-0.083	-0.122
-173.954	52.138	0.056	0.053
-172.939	-184.805	-0.395	-0.006
-171.925	-79.579	0.297	-0.099
-170.910	-11.525	-0.174	-0.113
-169.896	334.728	0.175	0.336
-168.881	-168.481	0.325	-0.012
-167.866	-186.867	0.118	0.002
-166.852	163.779	0.062	-0.086
-165.837	800.000	-0.053	0.206
-164.823	141.649	0.195	-0.256
-163.808	127.307	-0.054	-0.067
-162.793	-76.339	0.112	-0.039
-161.779	-104.029	-0.137	0.032
-160.764	-200.000	0.011	0.191
-159.750	-200.000	-0.002	-0.033
-158.735	-46.615	0.164	-0.080
-157.720	-200.000	0.103	0.449
-156.706	449.693	0.165	0.360
-155.691	24.883	-0.187	0.154
-154.677	-126.996	0.403	0.059
-153.662	0.609	-0.173	0.123
-152.647	800.000	-0.026	0.104
-151.633	-60.772	0.114	-0.048
-150.618	3.735	-0.086	0.062
-149.604	800.000	-0.058	0.162
-148.589	229.626	-0.046	0.074
-147.574	-89.074	0.152	0.044
-146.560	-200.000	-0.029	0.162
-145.545	-30.695	-0.208	-0.116
-144.531	124.671	0.113	-0.141
-143.516	-106.500	0.149	0.033
-142.502	-49.313	0.252	0.119
-141.487	-17.498	0.326	-0.203
-140.472	152.903	0.105	0.142
-139.458	757.411	-0.089	-0.237
-138.443	800.000	0.083	-0.263
-137.429	-200.000	0.021	0.219
-136.414	559.243	0.065	0.156
-135.399	-146.678	0.293	-0.025
-134.385	800.000	-0.044	-0.166
-133.370	-8.079	0.046	0.031
-132.356	-200.000	-0.008	-0.193
-131.341	16.151	-0.114	-0.089
-130.326	-38.294	-0.110	-0.058
-129.312	527.929	0.071	0.166
-128.297	159.663	0.046	-0.064
-127.283	-62.567	0.211	0.087
-126.268	-95.055	-0.339	-0.091
-125.253	-76.914	-0.427	0.148
-124.239	800.000	-0.108	0.354
-123.224	800.000	-0.074	0.210
-122.210	800.000	-0.068	0.189
