DTS Sentinel unit serial number:	SN413079Multiplexer serial number:	ORYXHardware model number:	OX4-SRSoftware version number:	ORYX F/W v4.00 Oryx Data Collector v3.7.2.0data status	okinstallation	princeton_trtdifferential loss correction	single-endedforward channel	channel 1reverse channel	N/Adate	2019/09/17time	11:46:35forward acquisition time	60.00reverse acquisition time	0.00gamma	496.2192k internal	0.2322k external	0.2322temperature offset calibration	0.9975default loss term (dB/km)	0.3790temperature slope calibration	1.0000multiplexer offset coefficient	1.0000multiplexer slope coefficient	1.0000fibre end	0.00T internal ref (°C)	30.89T ext. ref 1 (°C)	0.38T ext. ref 2 (°C)	26.68length (m)	temperature (°C)	Stokes	anti-Stokes-747.200	36.095	-0.218	-0.194
-746.185	-90.979	0.222	0.065
-745.171	-200.000	0.053	-0.243
-744.156	258.949	-0.069	-0.121
-743.142	-200.000	0.039	-0.252
-742.127	-68.201	-0.218	0.086
-741.112	-200.000	-0.007	0.140
-740.098	-88.079	-0.386	0.117
-739.083	800.000	-0.042	-0.152
-738.069	172.745	-0.177	0.257
-737.054	-4.109	0.138	-0.097
-736.039	189.341	0.213	0.322
-735.025	-60.802	0.091	0.039
-734.010	-54.475	-0.219	0.100
-732.996	-68.464	0.111	-0.044
-731.981	-130.540	-0.081	0.011
-730.966	800.000	-0.054	-0.167
-729.952	174.858	-0.102	0.149
-728.937	118.502	-0.194	0.242
-727.923	29.658	-0.177	0.152
-726.908	-74.176	-0.265	0.097
-725.894	800.000	-0.068	0.221
-724.879	-200.000	0.003	-0.028
-723.864	217.554	-0.253	0.407
-722.850	-163.186	-0.264	0.013
-721.835	-200.000	-0.044	-0.233
-720.821	0.753	-0.206	0.149
-719.806	-157.897	0.135	0.008
-718.791	-26.359	-0.381	-0.225
-717.777	-36.154	0.154	0.084
-716.762	121.517	0.280	0.352
-715.748	800.000	-0.102	-0.287
-714.733	-0.223	-0.093	-0.067
-713.718	-200.000	0.006	0.071
-712.704	-129.287	0.383	-0.054
-711.689	-45.867	-0.154	-0.077
-710.675	800.000	0.068	-0.279
-709.660	800.000	0.096	-0.305
-708.645	615.569	0.017	0.044
-707.631	-47.898	-0.057	-0.028
-706.616	16.104	-0.162	0.129
-705.602	66.541	-0.198	0.203
-704.587	103.493	0.140	0.166
-703.572	800.000	-0.063	-0.268
-702.558	-23.814	0.122	0.073
-701.543	-137.770	0.111	0.013
-700.529	20.352	0.155	0.126
-699.514	-89.240	0.219	0.065
-698.499	-17.890	0.093	0.059
-697.485	-115.610	0.253	-0.048
-696.470	-133.658	-0.409	0.052
-695.456	3.221	-0.158	-0.116
-694.441	121.107	0.095	-0.120
-693.426	-29.502	-0.217	0.125
-692.412	623.446	-0.130	0.331
-691.397	-75.966	-0.216	-0.077
-690.383	-200.000	0.010	0.093
-689.368	-37.091	0.285	0.154
-688.354	800.000	0.058	-0.232
-687.339	681.226	-0.109	-0.286
-686.324	566.242	0.054	-0.133
-685.310	19.076	0.141	0.114
-684.295	-86.601	-0.291	-0.090
-683.281	131.597	-0.150	0.195
-682.266	395.420	-0.045	0.095
-681.251	-0.161	-0.063	0.045
-680.237	160.544	0.108	0.152
-679.222	-118.121	0.127	0.023
-678.208	800.000	-0.041	-0.121
-677.193	-89.409	0.059	0.017
-676.178	-5.496	-0.201	0.139
-675.164	321.189	0.116	-0.222
-674.149	11.871	-0.297	0.230
-673.135	800.000	0.102	0.289
-672.120	147.395	0.146	0.198
-671.105	-200.000	0.018	0.480
-670.091	33.146	-0.292	-0.255
-669.076	-47.417	-0.568	0.278
-668.062	194.800	0.017	0.027
-667.047	362.619	-0.121	0.244
-666.032	-128.241	0.016	0.002
-665.018	-200.000	0.012	-0.161
-664.003	382.838	-0.027	0.057
-662.989	-10.665	-0.180	0.120
-661.974	-126.840	0.194	0.029
-660.959	-146.155	0.177	-0.016
-659.945	-8.577	-0.189	0.128
-658.930	-97.586	-0.041	-0.011
-657.916	-200.000	-0.031	-0.347
-656.901	14.688	0.366	-0.288
-655.886	11.386	-0.041	0.032
-654.872	148.070	-0.182	0.248
-653.857	43.366	0.180	-0.165
-652.843	800.000	0.036	0.112
-651.828	22.650	-0.092	-0.076
-650.814	-91.074	-0.389	0.113
-649.799	163.189	0.175	0.248
-648.784	-126.938	-0.463	0.069
-647.770	302.200	-0.106	0.197
-646.755	-25.430	0.175	-0.104
-645.741	-200.000	0.032	0.188
-644.726	-104.180	-0.121	-0.028
-643.711	29.735	0.202	-0.173
-642.697	-110.212	-0.507	0.106
-641.682	360.976	0.074	-0.150
-640.668	-80.484	-0.309	0.104
-639.653	-44.545	0.161	0.081
-638.638	-51.101	0.095	0.045
-637.624	-90.804	-0.229	-0.066
-636.609	-62.002	-0.330	-0.139
-635.595	13.923	-0.033	0.026
-634.580	452.310	0.139	0.309
-633.565	47.812	0.189	0.178
-632.551	-200.000	0.023	0.213
-631.536	160.940	0.122	0.172
-630.522	41.762	0.101	-0.092
-629.507	65.370	-0.193	-0.197
-628.492	-137.080	0.272	0.031
-627.478	-200.000	0.007	0.230
-626.463	-93.371	-0.233	-0.065
-625.449	-98.797	-0.247	-0.063
-624.434	-200.000	-0.002	0.083
-623.419	-200.000	-0.009	-0.267
-622.405	-137.520	0.179	-0.020
-621.390	13.013	0.227	0.176
-620.376	-16.932	0.153	-0.097
-619.361	-117.815	0.415	-0.075
-618.346	800.000	0.058	-0.225
-617.332	8.586	0.159	0.120
-616.317	-200.000	0.008	-0.075
-615.303	-200.000	0.062	0.320
-614.288	21.510	-0.075	-0.062
-613.273	-23.803	0.235	0.142
-612.259	-109.189	-0.369	-0.079
-611.244	800.000	-0.092	-0.290
-610.230	-200.000	0.011	-0.185
-609.215	-133.967	-0.122	-0.015
-608.201	-200.000	0.006	-0.137
-607.186	-23.401	-0.143	0.086
-606.171	423.775	0.148	-0.320
-605.157	-200.000	0.000	-0.209
-604.142	18.698	0.087	0.070
-603.128	-107.596	0.166	0.036
-602.113	137.461	0.336	0.441
-601.098	-54.936	-0.242	0.110
-600.084	141.779	-0.268	0.357
-599.069	146.746	0.089	0.120
-598.055	295.978	0.051	0.094
-597.040	103.067	0.039	-0.046
-596.025	-27.047	0.240	0.141
-595.011	-69.524	0.198	0.076
-593.996	800.000	-0.057	-0.169
-592.982	-28.031	-0.125	0.072
-591.967	49.607	-0.412	-0.389
-590.952	156.164	-0.141	-0.195
-589.938	443.695	-0.088	-0.194
-588.923	-200.000	-0.045	0.369
-587.909	-19.687	0.247	0.153
-586.894	3.957	0.177	-0.130
-585.879	-113.018	0.496	-0.098
-584.865	-84.601	-0.243	-0.077
-583.850	-118.965	0.699	-0.123
-582.836	106.469	-0.219	0.261
-581.821	290.462	0.148	0.270
-580.806	-31.384	-0.268	-0.152
-579.792	-71.689	-0.199	-0.074
-578.777	380.616	-0.082	-0.170
-577.763	-31.645	-0.071	0.040
-576.748	-150.967	-0.342	-0.026
-575.733	-200.000	0.013	0.229
-574.719	633.986	-0.055	0.140
-573.704	-12.241	-0.180	0.118
-572.690	-200.000	-0.026	-0.148
-571.675	-140.787	-0.259	-0.027
-570.661	657.850	0.052	0.134
-569.646	-36.039	0.244	0.132
-568.631	-200.000	0.014	0.183
-567.617	-119.480	-0.099	-0.017
-566.602	-200.000	-0.043	-0.239
-565.588	800.000	0.069	-0.193
-564.573	-67.984	0.124	-0.048
-563.558	-51.410	0.142	-0.067
-562.544	516.587	-0.069	-0.161
-561.529	100.007	0.185	-0.215
-560.515	800.000	0.048	0.210
-559.500	-85.161	0.050	-0.016
-558.485	-9.008	-0.252	0.169
-557.471	-68.779	-0.112	0.043
-556.456	3.219	0.278	0.203
-555.442	-200.000	0.085	0.000
-554.427	1.460	-0.276	-0.199
-553.412	-51.896	-0.168	-0.078
-552.398	3.898	-0.476	-0.349
-551.383	-8.098	-0.063	-0.043
-550.369	-140.133	-0.241	-0.025
-549.354	-82.387	0.449	0.146
-548.339	46.938	-0.162	-0.151
-547.325	-141.313	-0.358	-0.036
-546.310	141.241	0.094	-0.124
-545.296	-177.066	-0.061	0.002
-544.281	414.981	-0.027	0.059
-543.266	-132.539	-0.388	-0.050
-542.252	106.809	0.223	0.265
-541.237	-66.978	0.139	-0.055
-540.223	742.312	-0.117	0.315
-539.208	-42.639	-0.157	0.080
-538.193	239.311	0.055	-0.092
-537.179	-76.886	-0.311	0.109
-536.164	-59.263	-0.258	0.111
-535.150	-58.063	-0.398	-0.174
-534.135	573.315	-0.168	-0.411
-533.121	411.149	0.131	-0.278
-532.106	150.963	0.093	0.127
-531.091	800.000	-0.036	-0.149
-530.077	132.394	-0.197	-0.255
-529.062	-72.971	0.337	0.124
-528.048	105.458	-0.091	-0.108
-527.033	-129.825	0.176	0.024
-526.018	227.479	0.222	0.362
-525.004	-35.102	0.224	-0.123
-523.989	86.755	0.125	-0.138
-522.975	-106.797	-0.380	-0.085
-521.960	42.447	0.222	0.203
-520.945	462.427	-0.058	-0.130
-519.931	-162.157	0.333	-0.017
-518.916	-59.508	-0.128	-0.055
-517.902	-100.984	0.323	0.079
-516.887	303.397	-0.050	-0.093
-515.872	-172.025	-0.179	0.006
-514.858	100.366	-0.077	-0.090
-513.843	-80.584	0.199	-0.066
-512.829	-51.304	0.208	-0.098
-511.814	-128.256	0.176	0.025
-510.799	-40.375	-0.177	0.092
-509.785	285.901	-0.050	-0.090
-508.770	-24.019	-0.171	0.102
-507.756	-123.852	-0.201	0.032
-506.741	-122.083	-0.286	0.047
-505.726	-0.117	0.110	0.079
-504.712	38.179	0.113	0.101
-503.697	54.942	0.170	0.165
-502.683	-29.942	-0.180	-0.103
-501.668	-61.542	-0.259	0.109
-500.653	800.000	-0.031	-0.095
-499.639	437.322	0.135	-0.294
-498.624	-57.976	-0.434	0.190
-497.610	19.473	0.274	0.221
-496.595	-200.000	-0.014	0.145
-495.581	201.421	0.256	0.395
-494.566	-1.103	0.222	-0.157
-493.551	190.887	0.095	0.143
-492.537	53.631	0.194	-0.186
-491.522	-195.052	-0.229	-0.002
-490.508	800.000	0.051	0.202
-489.493	-157.674	0.154	-0.009
-488.478	800.000	0.062	0.202
-487.464	596.974	0.178	-0.442
-486.449	-51.685	-0.052	0.024
-485.435	166.514	0.134	0.190
-484.420	-200.000	-0.011	0.131
-483.405	-130.757	0.267	-0.036
-482.391	258.832	-0.033	-0.056
-481.376	-200.000	0.017	-0.326
-480.362	24.538	0.223	-0.185
-479.347	-107.704	0.253	-0.055
-478.332	800.000	0.026	0.106
-477.318	82.845	-0.176	0.192
-476.303	-200.000	-0.010	0.082
-475.289	53.411	-0.187	-0.179
-474.274	764.925	0.081	-0.219
-473.259	-200.000	-0.057	0.295
-472.245	193.419	0.130	-0.197
-471.230	-200.000	-0.033	0.299
-470.216	-76.153	0.154	0.054
-469.201	-12.860	-0.042	0.027
-468.186	-0.513	0.120	0.085
-467.172	-35.500	0.203	0.110
-466.157	491.387	-0.129	0.296
-465.143	-200.000	0.003	0.108
-464.128	800.000	-0.110	-0.331
-463.113	63.496	-0.097	-0.098
-462.099	-139.264	0.153	-0.016
-461.084	-163.582	0.290	0.014
-460.070	444.222	-0.107	-0.234
-459.055	386.226	0.088	-0.181
-458.040	-152.033	0.154	-0.011
-457.026	172.287	0.170	-0.244
-456.011	-87.271	0.405	-0.123
-454.997	800.000	-0.159	-0.498
-453.982	800.000	-0.033	-0.128
-452.968	-200.000	0.017	0.278
-451.953	103.936	0.215	0.252
-450.938	353.651	0.134	0.265
-449.924	-135.450	-0.221	-0.026
-448.909	146.548	-0.141	-0.189
-447.895	-112.813	-0.229	0.045
-446.880	-48.666	-0.298	-0.143
-445.865	5.013	-0.079	0.058
-444.851	-200.000	-0.079	-0.436
-443.836	-62.192	0.250	0.104
-442.822	472.096	-0.115	0.258
-441.807	-104.605	0.529	-0.122
-440.792	-146.250	0.298	0.026
-439.778	193.293	0.212	0.320
-438.763	-200.000	0.005	0.151
-437.749	-200.000	-0.023	-0.224
-436.734	-129.847	0.218	-0.030
-435.719	-200.000	0.072	-0.435
-434.705	-200.000	-0.013	-0.232
-433.690	-200.000	-0.012	-0.174
-432.676	118.338	-0.140	0.172
-431.661	-55.592	0.191	0.086
-430.646	-93.229	-0.317	-0.088
-429.632	-200.000	-0.029	0.401
-428.617	-85.847	0.124	-0.038
-427.603	-122.181	0.374	0.061
-426.588	591.212	0.108	-0.266
-425.573	800.000	-0.093	-0.362
-424.559	800.000	-0.121	0.396
-423.544	-57.022	-0.392	0.172
-422.530	-91.564	-0.041	-0.012
-421.515	378.387	-0.072	0.148
-420.500	-200.000	-0.023	-0.182
-419.486	-200.000	-0.018	0.107
-418.471	-118.667	-0.222	-0.039
-417.457	-200.000	0.032	0.223
-416.442	446.651	0.039	0.087
-415.428	-78.450	0.114	0.039
-414.413	118.735	-0.202	0.249
-413.398	800.000	0.033	-0.132
-412.384	501.536	-0.069	0.159
-411.369	-66.191	0.101	-0.040
-410.355	406.369	-0.134	0.283
-409.340	800.000	0.027	-0.105
-408.325	71.881	-0.061	0.063
-407.311	1.588	-0.297	-0.213
-406.296	-0.867	0.093	0.065
-405.282	-129.094	0.334	-0.047
-404.267	39.411	-0.055	0.049
-403.252	129.453	-0.049	0.063
-402.238	-190.109	-0.284	0.003
-401.223	-28.470	0.144	0.083
-400.209	208.578	0.192	0.299
-399.194	11.410	-0.087	0.066
-398.179	425.902	-0.131	0.281
-397.165	596.354	-0.064	-0.158
-396.150	800.000	0.099	-0.332
-395.136	-24.320	-0.286	-0.170
-394.121	225.014	0.084	-0.136
-393.106	-200.000	-0.020	-0.283
-392.092	-160.160	-0.296	-0.016
-391.077	-86.731	0.303	-0.092
-390.063	-63.517	-0.191	-0.078
-389.048	-41.564	0.100	-0.051
-388.033	428.868	0.137	-0.294
-387.019	112.954	0.209	-0.252
-386.004	149.263	0.225	0.303
-384.990	297.811	-0.091	0.167
-383.975	8.230	0.356	0.267
-382.960	415.911	-0.136	0.289
-381.946	78.516	0.120	-0.127
-380.931	17.015	-0.221	-0.175
-379.917	24.437	0.278	-0.229
-378.902	-28.670	-0.134	-0.077
-377.888	-200.000	-0.007	-0.090
-376.873	202.094	0.174	-0.267
-375.858	82.828	0.073	0.079
-374.844	178.299	-0.071	-0.103
-373.829	-88.822	0.228	0.067
-372.815	800.000	-0.030	0.107
-371.800	-3.705	-0.234	-0.162
-370.785	800.000	0.105	-0.337
-369.771	104.029	-0.114	-0.133
-368.756	-200.000	0.069	-0.367
-367.742	-45.931	0.137	-0.067
-366.727	176.547	0.124	-0.180
-365.712	-123.466	-0.156	0.025
-364.698	800.000	0.018	-0.054
-363.683	299.979	-0.139	-0.254
-362.669	786.704	-0.110	0.301
-361.654	42.898	0.143	0.130
-360.639	-200.000	0.020	-0.130
-359.625	-177.378	0.180	-0.004
-358.610	197.272	-0.095	-0.144
-357.596	-144.158	0.135	-0.013
-356.581	-32.468	0.117	-0.065
-355.566	-200.000	0.009	0.164
-354.552	-115.295	-0.227	0.043
-353.537	-86.856	0.346	-0.105
-352.523	42.353	0.158	-0.143
-351.508	138.476	-0.080	-0.105
-350.493	40.383	-0.150	0.134
-349.479	351.225	0.029	-0.057
-348.464	-114.847	0.151	-0.029
-347.450	-20.910	-0.099	-0.061
-346.435	119.463	0.154	0.190
-345.420	148.339	0.037	0.050
-344.406	14.505	-0.112	0.087
-343.391	520.065	-0.107	0.249
-342.377	-119.006	-0.081	0.014
-341.362	116.529	0.169	0.206
-340.348	-200.000	-0.001	0.404
-339.333	-117.008	-0.182	0.033
-338.318	-59.190	0.205	0.088
-337.304	-70.847	-0.204	0.077
-336.289	-148.123	-0.344	-0.028
-335.275	800.000	-0.082	-0.230
-334.260	-32.511	-0.100	-0.056
-333.245	-139.315	-0.334	-0.036
-332.231	-200.000	0.047	-0.250
-331.216	-56.423	0.261	-0.115
-330.202	281.330	0.064	-0.114
-329.187	-200.000	-0.061	0.302
-328.172	228.718	-0.183	0.297
-327.158	197.795	0.100	-0.152
-326.143	800.000	0.102	-0.312
-325.129	-42.229	0.139	-0.071
-324.114	49.592	0.211	0.198
-323.099	104.117	-0.141	-0.165
-322.085	-35.697	-0.171	-0.092
-321.070	96.382	0.083	-0.095
-320.056	113.889	-0.125	0.151
-319.041	-80.004	-0.444	-0.148
-318.026	5.051	0.185	-0.135
-317.012	160.539	0.069	-0.095
-315.997	-87.097	-0.299	-0.090
-314.983	-84.964	-0.488	0.152
-313.968	-131.183	-0.249	0.033
-312.953	-128.431	0.263	-0.037
-311.939	486.598	-0.043	0.098
-310.924	267.968	-0.048	0.084
-309.910	800.000	-0.061	0.260
-308.895	93.082	-0.206	0.231
-307.880	72.301	-0.169	-0.175
-306.866	189.203	-0.263	-0.392
-305.851	121.061	0.175	-0.216
-304.837	-37.569	-0.066	0.035
-303.822	75.002	-0.110	0.115
-302.807	146.436	0.019	0.025
-301.793	692.517	0.142	-0.371
-300.778	-82.483	0.086	0.028
-299.764	23.199	-0.250	0.204
-298.749	-79.617	-0.349	-0.117
-297.735	71.313	0.201	0.207
-296.720	-200.000	-0.029	0.152
-295.705	284.707	-0.036	-0.064
-294.691	479.108	0.040	0.089
-293.676	-153.113	0.271	0.019
-292.662	-9.899	0.159	-0.105
-291.647	176.492	-0.246	0.355
-290.632	26.441	-0.165	0.137
-289.618	800.000	0.061	-0.201
-288.603	-37.331	0.257	0.136
-287.589	-200.000	-0.033	0.190
-286.574	23.702	0.129	0.105
-285.559	-200.000	-0.017	0.130
-284.545	-200.000	-0.055	-0.326
-283.530	-143.046	0.493	-0.047
-282.516	-152.755	-0.390	0.027
-281.501	-200.000	0.024	-0.318
-280.486	68.977	0.134	0.136
-279.472	10.906	-0.177	0.134
-278.457	93.200	0.082	0.092
-277.443	-41.067	0.124	-0.063
-276.428	18.875	-0.330	-0.262
-275.413	-150.380	-0.248	-0.019
-274.399	422.730	-0.206	0.438
-273.384	161.245	0.178	0.247
-272.370	512.765	-0.139	-0.320
-271.355	-61.168	0.051	0.021
-270.340	136.785	0.162	0.209
-269.326	94.762	-0.217	0.245
-268.311	32.865	0.283	-0.243
-267.297	429.534	0.179	-0.384
-266.282	-129.379	-0.278	0.038
-265.267	-96.262	0.240	-0.063
-264.253	310.850	0.092	0.171
-263.238	-106.260	0.104	-0.023
-262.224	-32.174	0.183	-0.102
-261.209	-152.765	0.062	0.004
-260.195	-126.529	-0.104	0.015
-259.180	290.315	-0.167	0.301
-258.165	800.000	0.030	-0.088
-257.151	41.921	-0.150	0.135
-256.136	245.869	0.032	-0.054
-255.122	-85.498	-0.196	-0.060
-254.107	-200.000	0.008	0.306
-253.092	-81.484	-0.267	0.087
-252.078	11.895	0.143	0.109
-251.063	26.380	-0.251	0.208
-250.049	-200.000	-0.014	-0.083
-249.034	-200.000	-0.058	0.324
-248.019	-34.457	0.075	-0.041
-247.005	800.000	0.038	0.162
-245.990	-143.116	-0.352	-0.034
-244.976	183.585	0.159	0.232
-243.961	-161.334	-0.138	-0.007
-242.946	-200.000	0.004	0.029
-241.932	7.023	0.308	-0.227
-240.917	262.985	-0.051	-0.087
-239.903	800.000	0.065	-0.207
-238.888	35.584	0.209	-0.182
-237.873	130.260	0.164	0.208
-236.859	-12.648	-0.199	0.128
-235.844	-118.132	-0.157	-0.028
-234.830	628.398	-0.098	-0.244
-233.815	-200.000	0.048	-0.236
-232.800	800.000	-0.041	0.167
-231.786	-97.633	0.275	0.071
-230.771	-69.315	0.291	0.111
-229.757	-0.435	-0.264	-0.186
-228.742	-167.752	0.179	0.007
-227.727	64.147	0.084	-0.084
-226.713	-10.397	0.026	0.017
-225.698	155.975	-0.117	-0.159
-224.684	572.446	-0.029	-0.069
-223.669	429.310	-0.072	0.154
-222.655	399.520	0.052	-0.109
-221.640	-200.000	-0.076	-0.473
-220.625	145.190	0.116	0.154
-219.611	-85.805	0.135	0.041
-218.596	-200.000	-0.048	0.414
-217.582	14.447	-0.196	-0.152
-216.567	-200.000	-0.002	0.011
-215.552	-8.292	-0.286	0.190
-214.538	108.331	0.167	0.197
-213.523	63.753	0.273	-0.272
-212.509	-200.000	-0.038	0.242
-211.494	-76.383	0.188	-0.066
-210.479	-55.168	0.461	0.205
-209.465	-84.650	0.112	0.035
-208.450	-200.000	-0.039	-0.323
-207.436	-110.694	0.266	-0.054
-206.421	715.810	-0.025	0.067
-205.406	408.461	0.061	-0.127
-204.392	-100.633	-0.449	-0.110
-203.377	-85.535	-0.111	0.034
-202.363	73.952	0.130	-0.135
-201.348	144.692	0.206	-0.273
-200.333	-200.000	-0.045	0.244
-199.319	-142.729	0.186	-0.018
-198.304	-85.017	0.200	0.062
-197.290	-200.000	-0.012	0.091
-196.275	10.095	0.260	0.195
-195.260	-124.580	0.178	0.027
-194.246	-100.329	-0.244	0.060
-193.231	-200.000	-0.019	0.173
-192.217	-200.000	0.008	0.226
-191.202	348.717	0.175	0.341
-190.187	89.687	-0.108	0.119
-189.173	-159.442	-0.329	0.018
-188.158	-90.702	-0.119	-0.034
-187.144	800.000	-0.096	-0.312
-186.129	406.351	0.148	-0.308
-185.114	-84.948	0.092	0.029
-184.100	123.560	-0.128	0.159
-183.085	-136.728	-0.454	-0.052
-182.071	800.000	-0.027	-0.095
-181.056	-50.742	0.056	0.026
-180.042	413.328	-0.104	0.218
-179.027	34.810	0.181	-0.156
-178.012	-63.715	-0.302	-0.122
-176.998	-114.617	0.210	-0.040
-175.983	-78.909	0.257	-0.086
-174.969	-200.000	0.045	-0.215
-173.954	-145.108	-0.269	-0.024
-172.939	282.983	0.130	-0.231
-171.925	243.888	0.199	-0.330
-170.910	-80.190	-0.014	-0.005
-169.896	-103.537	0.347	0.081
-168.881	-47.328	0.183	0.088
-167.866	800.000	-0.166	0.486
-166.852	35.975	-0.069	0.060
-165.837	800.000	-0.082	0.267
-164.823	1.423	-0.274	0.194
-163.808	-200.000	0.056	-0.263
-162.793	-138.645	-0.067	-0.007
-161.779	196.824	-0.079	-0.120
-160.764	453.328	-0.062	-0.136
-159.750	11.366	-0.432	-0.327
-158.735	130.492	0.286	0.362
-157.720	-107.781	0.119	0.026
-156.706	-57.569	-0.225	0.098
-155.691	27.324	-0.151	-0.125
-154.677	105.810	-0.107	0.125
-153.662	20.327	0.108	0.086
-152.647	-28.045	0.100	-0.057
-151.633	-23.729	0.246	0.146
-150.618	2.657	0.194	0.139
-149.604	28.445	-0.335	0.280
-148.589	800.000	0.095	0.269
-147.574	-108.227	0.053	0.011
-146.560	72.410	-0.177	0.182
-145.545	269.771	-0.138	0.240
-144.531	-79.664	0.203	-0.068
-143.516	-200.000	0.029	-0.224
-142.502	24.683	0.199	-0.162
-141.487	-25.371	0.288	-0.168
-140.472	9.523	-0.275	-0.205
-139.458	-200.000	-0.010	-0.093
-138.443	-200.000	0.064	0.287
-137.429	-134.506	-0.128	0.015
-136.414	562.716	-0.063	-0.151
-135.399	-27.807	0.241	0.138
-134.385	-150.526	-0.409	0.031
-133.370	-200.000	-0.027	0.315
-132.356	-128.116	0.294	0.042
-131.341	-200.000	0.002	-0.124
-130.326	-200.000	-0.043	-0.230
-129.312	-86.974	-0.314	0.094
-128.297	7.342	-0.062	-0.045
-127.283	508.430	0.125	-0.286
-126.268	-144.971	-0.188	0.017
-125.253	-200.000	-0.020	0.090
-124.239	57.277	0.158	-0.152
-123.224	-46.629	0.362	0.175
-122.210	-53.538	0.039	0.017
-121.195	42.494	-0.482	0.432
-120.180	-40.262	-0.082	0.042
