DTS Sentinel unit serial number:	SN413079Multiplexer serial number:	ORYXHardware model number:	OX4-SRSoftware version number:	ORYX F/W v4.00 Oryx Data Collector v3.7.2.0data status	okinstallation	princeton_trtdifferential loss correction	single-endedforward channel	channel 1reverse channel	N/Adate	2019/09/16time	02:14:35forward acquisition time	60.00reverse acquisition time	0.00gamma	496.2192k internal	0.2332k external	0.2332temperature offset calibration	0.9975default loss term (dB/km)	0.3790temperature slope calibration	1.0000multiplexer offset coefficient	1.0000multiplexer slope coefficient	1.0000fibre end	0.00T internal ref (°C)	27.55T ext. ref 1 (°C)	10.16T ext. ref 2 (°C)	22.50length (m)	temperature (°C)	Stokes	anti-Stokes-747.200	-13.105	0.093	0.061
-746.185	800.000	-0.025	-0.083
-745.171	-25.503	-0.398	-0.237
-744.156	800.000	-0.010	0.033
-743.142	-99.297	-0.109	-0.028
-742.127	-200.000	0.001	0.132
-741.112	-183.936	0.203	-0.003
-740.098	-98.878	-0.320	0.082
-739.083	800.000	-0.073	0.261
-738.069	-200.000	-0.069	0.368
-737.054	351.594	0.117	0.233
-736.039	-115.884	-0.590	-0.111
-735.025	-200.000	-0.028	0.137
-734.010	95.229	-0.123	-0.141
-732.996	-96.727	-0.322	-0.085
-731.981	130.764	0.172	-0.221
-730.966	-48.799	0.197	0.095
-729.952	-42.634	0.108	-0.055
-728.937	-32.375	0.324	-0.182
-727.923	-129.823	0.169	-0.023
-726.908	182.085	0.094	0.139
-725.894	-37.580	-0.189	-0.101
-724.879	-17.088	-0.128	0.081
-723.864	169.767	0.031	0.044
-722.850	333.941	-0.252	0.490
-721.835	-66.614	-0.090	-0.036
-720.821	-200.000	0.007	0.127
-719.806	-28.367	0.285	-0.165
-718.791	-42.709	-0.104	0.053
-717.777	800.000	-0.035	0.117
-716.762	-70.609	0.181	-0.069
-715.748	-127.261	0.043	0.006
-714.733	330.644	0.110	0.213
-713.718	-200.000	0.168	-0.001
-712.704	-90.771	0.138	0.040
-711.689	-79.465	-0.016	-0.006
-710.675	-0.873	-0.141	-0.100
-709.660	-200.000	-0.019	0.310
-708.645	-34.279	-0.200	0.111
-707.631	66.355	-0.172	-0.176
-706.616	-153.073	-0.284	0.020
-705.602	-121.230	0.263	0.044
-704.587	-200.000	0.034	-0.227
-703.572	15.993	0.256	-0.202
-702.558	-200.000	-0.024	0.406
-701.543	-76.452	0.217	0.077
-700.529	-28.415	0.033	0.019
-699.514	-200.000	-0.040	-0.482
-698.499	1.409	0.137	-0.099
-697.485	280.557	0.178	0.320
-696.470	-200.000	-0.023	0.224
-695.456	-86.251	0.046	-0.014
-694.441	53.842	-0.066	-0.064
-693.426	0.182	0.081	0.058
-692.412	108.267	-0.068	0.081
-691.397	417.507	0.078	-0.167
-690.383	-200.000	-0.071	-0.360
-689.368	63.847	-0.183	-0.185
-688.354	159.461	-0.127	-0.178
-687.339	-108.671	0.153	0.033
-686.324	-69.394	-0.143	0.055
-685.310	233.257	0.162	-0.267
-684.295	-200.000	0.025	-0.203
-683.281	-200.000	-0.038	-0.176
-682.266	-200.000	0.069	-0.332
-681.251	-200.000	-0.047	0.255
-680.237	-200.000	0.004	0.052
-679.222	-200.000	-0.005	-0.042
-678.208	-91.339	0.278	0.080
-677.193	-200.000	-0.022	0.247
-676.178	800.000	-0.046	-0.169
-675.164	-65.695	-0.319	-0.128
-674.149	459.102	0.200	-0.446
-673.135	574.645	0.054	-0.132
-672.120	31.222	-0.091	0.078
-671.105	-70.871	0.256	-0.097
-670.091	171.568	0.081	-0.117
-669.076	-200.000	-0.038	0.334
-668.062	167.898	-0.115	-0.164
-667.047	-53.648	0.042	-0.019
-666.032	62.564	-0.197	-0.197
-665.018	-184.891	0.201	-0.003
-664.003	706.647	0.057	-0.152
-662.989	31.258	0.256	-0.220
-661.974	260.060	-0.094	-0.163
-660.959	-87.228	0.335	-0.102
-659.945	-90.124	-0.463	-0.135
-658.930	800.000	0.161	-0.620
-657.916	66.703	-0.214	-0.218
-656.901	-159.821	-0.187	0.010
-655.886	741.106	0.123	-0.331
-654.872	263.237	-0.122	-0.213
-653.857	73.021	-0.156	-0.164
-652.843	-41.222	0.401	0.207
-651.828	-200.000	-0.046	-0.466
-650.814	-200.000	0.000	-0.343
-649.799	-200.000	0.018	-0.094
-648.784	-117.509	-0.104	0.019
-647.770	377.682	-0.179	0.367
-646.755	-35.296	0.112	0.061
-645.741	532.455	0.092	-0.219
-644.726	68.498	-0.162	0.166
-643.711	46.718	-0.200	0.186
-642.697	-200.000	0.020	-0.223
-641.682	-100.530	0.183	-0.045
-640.668	-200.000	-0.006	-0.166
-639.653	191.237	0.293	-0.442
-638.638	220.429	-0.071	0.114
-637.624	-200.000	-0.035	0.318
-636.609	-200.000	0.004	0.112
-635.595	79.068	-0.070	-0.075
-634.580	-160.344	0.103	-0.006
-633.565	-71.703	0.512	-0.191
-632.551	608.088	-0.166	-0.415
-631.536	-200.000	0.031	-0.284
-630.522	643.261	0.119	0.304
-629.507	127.198	-0.118	-0.150
-628.492	-16.022	-0.265	0.169
-627.478	-200.000	-0.002	-0.030
-626.463	46.131	-0.180	-0.167
-625.449	-51.657	0.197	0.092
-624.434	-200.000	-0.064	0.445
-623.419	19.837	-0.107	-0.086
-622.405	-119.676	-0.396	-0.069
-621.390	215.873	0.141	-0.224
-620.376	219.544	0.095	0.152
-619.361	800.000	0.111	-0.339
-618.346	498.731	0.090	-0.207
-617.332	-200.000	-0.035	-0.244
-616.317	-140.676	0.262	0.027
-615.303	-200.000	-0.013	0.226
-614.288	50.688	0.052	0.049
-613.273	269.890	0.031	0.055
-612.259	148.319	0.046	0.063
-611.244	-90.116	-0.381	-0.111
-610.230	257.163	-0.133	0.229
-609.215	-77.956	0.141	0.049
-608.201	-200.000	0.016	0.143
-607.186	-157.438	-0.230	-0.014
-606.171	76.723	0.173	-0.183
-605.157	297.626	-0.071	0.130
-604.142	-119.646	0.103	-0.018
-603.128	-8.025	0.219	0.148
-602.113	-21.353	0.469	0.286
-601.098	-100.321	-0.181	0.045
-600.084	-161.589	-0.201	-0.010
-599.069	-200.000	0.026	0.247
-598.055	-90.050	0.105	0.031
-597.040	-82.337	-0.170	0.055
-596.025	-200.000	-0.012	-0.067
-595.011	-34.209	0.168	0.092
-593.996	800.000	-0.055	-0.206
-592.982	-92.411	-0.139	-0.039
-591.967	-120.238	0.281	0.048
-590.952	207.586	-0.092	-0.144
-589.938	-75.752	0.143	-0.051
-588.923	-111.853	-0.204	0.041
-587.909	-200.000	-0.005	-0.173
-586.894	-65.203	0.140	0.056
-585.879	341.107	0.060	-0.117
-584.865	147.007	-0.236	0.317
-583.850	-104.515	0.101	-0.023
-582.836	-98.007	0.050	-0.013
-581.821	-121.784	0.093	-0.015
-580.806	-120.578	0.155	-0.026
-579.792	164.219	-0.213	-0.300
-578.777	-146.653	0.339	0.029
-577.763	-200.000	-0.024	-0.363
-576.748	-134.550	0.426	-0.052
-575.733	233.570	-0.041	0.068
-574.719	169.263	-0.122	-0.174
-573.704	-185.635	0.202	-0.003
-572.690	-75.081	0.183	0.065
-571.675	800.000	0.054	-0.179
-570.661	-139.254	-0.226	0.024
-569.646	-200.000	-0.005	0.129
-568.631	-117.866	0.083	0.015
-567.617	-129.329	0.285	-0.040
-566.602	78.200	0.156	0.166
-565.588	-200.000	0.027	-0.268
-564.573	800.000	-0.045	-0.172
-563.558	78.502	0.145	0.154
-562.544	800.000	-0.044	-0.186
-561.529	-31.049	0.186	-0.105
-560.515	-9.735	0.064	0.043
-559.500	777.918	-0.053	0.145
-558.485	693.092	-0.030	0.079
-557.471	-72.371	-0.049	-0.018
-556.456	-141.842	0.232	0.023
-555.442	-10.592	-0.274	-0.181
-554.427	-80.796	-0.288	-0.096
-553.412	150.306	0.050	-0.068
-552.398	191.123	0.089	0.134
-551.383	800.000	0.147	0.432
-550.369	-200.000	-0.159	0.000
-549.354	-200.000	-0.014	0.182
-548.339	-29.476	-0.162	-0.092
-547.325	-165.698	-0.273	-0.012
-546.310	37.417	0.173	0.153
-545.296	-56.165	-0.322	-0.143
-544.281	-6.492	-0.011	0.007
-543.266	800.000	0.053	-0.225
-542.252	-69.894	-0.150	-0.057
-541.237	-106.322	0.199	0.044
-540.223	800.000	0.085	0.333
-539.208	133.688	0.182	0.235
-538.193	-200.000	-0.050	0.309
-537.179	9.830	-0.188	-0.143
-536.164	424.824	0.064	-0.138
-535.150	109.545	-0.130	0.155
-534.135	800.000	0.044	0.123
-533.121	375.156	0.080	-0.162
-532.106	-139.017	0.236	0.026
-531.091	43.011	-0.059	0.054
-530.077	523.040	-0.182	-0.426
-529.062	-200.000	-0.055	-0.409
-528.048	161.411	-0.036	-0.050
-527.033	-73.933	0.072	0.026
-526.018	-200.000	0.016	0.367
-525.004	800.000	-0.086	0.323
-523.989	-147.119	0.255	-0.022
-522.975	-132.816	0.050	-0.006
-521.960	-30.875	0.422	-0.238
-520.945	-200.000	0.002	0.023
-519.931	-200.000	0.010	0.235
-518.916	37.990	-0.052	-0.046
-517.902	377.437	0.073	-0.149
-516.887	-163.825	0.355	-0.017
-515.872	800.000	-0.071	0.254
-514.858	-5.362	0.436	0.299
-513.843	740.625	0.019	0.051
-512.829	-200.000	-0.023	-0.119
-511.814	361.515	-0.247	-0.493
-510.799	800.000	0.052	-0.203
-509.785	69.661	-0.076	0.078
-508.770	254.813	0.079	-0.136
-507.756	223.273	-0.030	-0.048
-506.741	-135.393	0.093	0.011
-505.726	667.060	-0.080	0.206
-504.712	-72.475	-0.370	0.136
-503.697	-40.774	-0.185	-0.095
-502.683	-200.000	0.016	0.074
-501.668	-52.689	0.144	-0.066
-500.653	-135.502	0.052	0.006
-499.639	-108.389	0.201	-0.043
-498.624	-83.825	-0.308	-0.098
-497.610	-55.628	-0.037	-0.016
-496.595	60.992	-0.172	0.170
-495.581	-200.000	-0.054	-0.240
-494.566	-17.632	-0.201	0.126
-493.551	100.845	-0.053	0.061
-492.537	800.000	0.129	0.363
-491.522	84.172	0.118	0.129
-490.508	-200.000	0.001	0.174
-489.493	-145.722	-0.097	-0.009
-488.478	341.077	-0.047	0.092
-487.464	-69.848	-0.186	-0.071
-486.449	38.131	-0.047	0.042
-485.435	-200.000	-0.040	0.416
-484.420	-200.000	-0.033	-0.307
-483.405	139.512	-0.085	-0.112
-482.391	29.634	0.265	-0.225
-481.376	205.741	-0.170	-0.264
-480.362	-98.324	-0.115	-0.029
-479.347	-98.775	-0.263	0.067
-478.332	75.150	-0.317	0.333
-477.318	-157.328	0.158	-0.010
-476.303	-200.000	0.033	0.203
-475.289	26.522	-0.037	-0.031
-474.274	-95.732	0.391	0.104
-473.259	800.000	-0.038	0.111
-472.245	-11.244	-0.398	-0.261
-471.230	-106.978	0.386	0.085
-470.216	800.000	-0.036	0.120
-469.201	800.000	-0.054	0.180
-468.186	-25.767	0.048	0.028
-467.172	228.756	-0.090	0.146
-466.157	175.215	0.067	0.096
-465.143	-124.809	-0.265	-0.041
-464.128	8.825	0.280	0.210
-463.113	56.076	-0.235	-0.227
-462.099	-200.000	0.013	0.247
-461.084	-200.000	-0.027	-0.211
-460.070	-200.000	-0.004	0.175
-459.055	-61.791	-0.230	0.096
-458.040	96.887	-0.168	0.192
-457.026	94.683	-0.208	0.236
-456.011	-0.605	-0.300	-0.212
-454.997	0.989	-0.348	-0.248
-453.982	-64.344	0.330	-0.134
-452.968	-19.230	-0.152	0.094
-451.953	24.302	-0.250	-0.206
-450.938	-111.050	-0.171	-0.035
-449.924	257.748	-0.195	-0.333
-448.909	-73.195	-0.301	0.110
-447.895	-200.000	0.012	0.064
-446.880	11.152	0.093	0.071
-445.865	414.478	-0.096	-0.203
-444.851	-75.455	-0.139	-0.049
-443.836	76.961	0.278	-0.293
-442.822	177.480	0.086	-0.124
-441.807	-83.977	0.131	-0.041
-440.792	-123.331	-0.274	0.044
-439.778	-78.671	-0.346	0.118
-438.763	-153.548	-0.145	0.010
-437.749	-200.000	-0.063	0.390
-436.734	-200.000	0.008	-0.047
-435.719	-57.022	-0.236	-0.103
-434.705	-51.341	-0.174	0.081
-433.690	-169.142	0.312	0.012
-432.676	641.653	0.098	0.247
-431.661	-79.862	0.102	0.034
-430.646	126.324	-0.252	-0.316
-429.632	-171.913	0.172	0.006
-428.617	-13.937	-0.125	0.080
-427.603	-198.548	0.225	0.001
-426.588	245.787	0.128	0.214
-425.573	-200.000	0.033	-0.189
-424.559	-183.077	-0.252	0.004
-423.544	-25.887	-0.387	0.226
-422.530	-25.276	0.028	0.016
-421.515	-200.000	0.009	0.240
-420.500	-200.000	0.009	0.309
-419.486	800.000	0.027	0.109
-418.471	-200.000	0.074	0.394
-417.457	800.000	0.017	0.056
-416.442	393.597	0.082	0.170
-415.428	-51.775	0.192	0.089
-414.413	8.484	0.112	-0.084
-413.398	-115.926	0.238	0.044
-412.384	-200.000	0.009	-0.110
-411.369	36.214	-0.122	0.107
-410.355	95.813	0.031	0.035
-409.340	-88.287	-0.239	0.071
-408.325	-72.427	-0.458	-0.168
-407.311	690.003	0.091	-0.237
-406.296	-200.000	0.040	0.320
-405.282	417.752	0.065	0.138
-404.267	26.945	-0.283	-0.235
-403.252	79.175	0.123	-0.131
-402.238	90.985	0.107	0.119
-401.223	-74.136	0.320	-0.115
-400.209	124.745	0.065	0.081
-399.194	266.033	-0.153	-0.265
-398.179	-53.584	-0.143	-0.065
-397.165	-193.566	0.114	0.001
-396.150	156.329	-0.121	-0.166
-395.136	-200.000	-0.027	-0.185
-394.121	50.805	-0.205	-0.193
-393.106	149.035	-0.217	-0.291
-392.092	25.136	-0.148	-0.122
-391.077	139.194	-0.086	-0.113
-390.063	-200.000	0.004	-0.357
-389.048	215.487	0.165	-0.259
-388.033	243.275	0.021	-0.035
-387.019	-46.943	0.165	-0.080
-386.004	-200.000	-0.040	-0.280
-384.990	-200.000	0.025	-0.167
-383.975	-87.378	0.279	0.084
-382.960	-150.817	0.263	-0.020
-381.946	-149.544	0.343	-0.027
-380.931	-49.458	0.352	0.167
-379.917	-111.534	-0.013	-0.003
-378.902	-16.077	0.407	0.257
-377.888	-200.000	0.026	0.172
-376.873	-59.218	0.140	0.060
-375.858	-200.000	-0.000	0.010
-374.844	-116.823	-0.231	0.042
-373.829	239.822	-0.101	0.167
-372.815	190.470	-0.178	0.265
-371.800	-200.000	0.010	-0.107
-370.785	-82.976	0.339	0.108
-369.771	-144.709	0.155	0.014
-368.756	51.826	-0.124	-0.117
-367.742	-106.088	-0.229	-0.051
-366.727	-200.000	-0.044	0.287
-365.712	-56.943	0.267	-0.117
-364.698	-200.000	-0.002	0.143
-363.683	-122.505	-0.296	0.048
-362.669	131.883	-0.219	-0.280
-361.654	-83.087	0.275	-0.088
-360.639	800.000	-0.043	-0.181
-359.625	10.817	0.095	-0.072
-358.610	-147.487	-0.462	-0.039
-357.596	-27.535	0.253	-0.145
-356.581	-121.770	-0.215	-0.035
-355.566	-105.662	-0.169	-0.038
-354.552	-54.003	-0.320	-0.144
-353.537	-134.309	-0.211	0.026
-352.523	278.872	0.072	-0.127
-351.508	800.000	-0.072	-0.208
-350.493	-104.603	-0.228	-0.052
-349.479	-200.000	0.008	-0.156
-348.464	51.969	0.077	-0.072
-347.450	-200.000	0.021	0.156
-346.435	75.540	-0.033	0.034
-345.420	800.000	0.152	-0.563
-344.406	-102.020	0.130	-0.031
-343.391	-53.477	-0.303	0.137
-342.377	-34.899	0.294	0.159
-341.362	134.448	0.048	-0.062
-340.348	361.044	-0.098	-0.194
-339.333	99.523	-0.118	0.135
-338.318	-51.642	-0.090	0.042
-337.304	-150.657	-0.468	-0.035
-336.289	-200.000	-0.083	-0.404
-335.275	75.574	0.032	-0.034
-334.260	679.263	0.061	-0.156
-333.245	93.911	0.143	0.160
-332.231	-105.291	0.306	-0.069
-331.216	95.425	-0.139	-0.157
-330.202	645.094	0.024	0.061
-329.187	276.094	0.086	0.151
-328.172	800.000	0.025	-0.069
-327.158	-28.804	0.234	0.133
-326.143	-200.000	-0.048	-0.252
-325.129	41.672	0.167	0.150
-324.114	-83.407	0.139	-0.044
-323.099	-86.125	-0.240	-0.073
-322.085	36.688	0.175	0.153
-321.070	-164.808	-0.030	0.001
-320.056	800.000	0.048	0.152
-319.041	-77.924	0.299	0.102
-318.026	22.026	0.102	-0.082
-317.012	-149.415	0.365	0.029
-315.997	-200.000	-0.007	-0.157
-314.983	-49.203	0.049	-0.023
-313.968	-140.024	-0.294	0.031
-312.953	-97.549	-0.165	-0.042
-311.939	-133.585	0.169	0.021
-310.924	95.957	-0.086	0.097
-309.910	86.911	-0.121	-0.132
-308.895	19.741	0.058	-0.047
-307.880	133.528	-0.179	0.229
-306.866	-6.548	-0.110	0.074
-305.851	-200.000	-0.037	0.171
-304.837	166.071	0.159	0.223
-303.822	800.000	-0.070	0.247
-302.807	297.619	-0.057	-0.104
-301.793	-200.000	0.005	0.183
-300.778	-48.798	0.054	0.025
-299.764	-19.364	-0.237	0.146
-298.749	-200.000	0.015	-0.125
-297.735	369.939	-0.204	-0.409
-296.720	800.000	-0.030	-0.083
-295.705	-200.000	-0.037	-0.174
-294.691	800.000	-0.031	0.094
-293.676	-200.000	-0.006	0.246
-292.662	-12.313	-0.135	-0.087
-291.647	-181.767	-0.152	-0.003
-290.632	260.688	0.119	0.204
-289.618	-126.263	0.205	0.030
-288.603	230.088	-0.071	0.115
-287.589	-28.394	0.132	-0.076
-286.574	313.353	0.211	0.392
-285.559	-148.365	0.182	0.015
-284.545	800.000	0.080	0.318
-283.530	372.879	0.157	0.315
-282.516	-180.135	0.100	-0.002
-281.501	800.000	-0.037	0.128
-280.486	122.815	-0.109	-0.135
-279.472	372.485	-0.117	0.234
-278.457	800.000	-0.068	-0.294
-277.443	266.949	0.103	-0.178
-276.428	-200.000	0.033	0.313
-275.413	-200.000	0.039	0.196
-274.399	39.491	-0.133	0.118
-273.384	-200.000	0.077	0.450
-272.370	160.626	0.247	0.341
-271.355	113.863	-0.062	0.075
-270.340	646.664	-0.040	0.100
-269.326	200.401	-0.063	0.096
-268.311	-109.733	0.128	0.027
-267.297	210.715	0.123	-0.191
-266.282	25.548	0.122	-0.100
-265.267	-35.605	0.073	-0.039
-264.253	-200.000	-0.005	0.162
-263.238	24.103	-0.070	0.057
-262.224	-81.872	0.115	0.037
-261.209	-72.485	0.211	-0.077
-260.195	-140.389	0.346	-0.036
-259.180	153.015	-0.153	0.207
-258.165	30.917	0.196	0.166
-257.151	800.000	-0.024	-0.103
-256.136	736.746	0.114	-0.302
-255.122	-57.944	0.285	0.123
-254.107	-200.000	0.024	0.299
-253.092	-63.127	0.164	-0.067
-252.078	-200.000	-0.003	0.267
-251.063	-200.000	-0.032	-0.248
-250.049	51.158	-0.028	0.026
-249.034	-139.102	-0.443	-0.047
-248.019	-200.000	0.090	-0.432
-247.005	174.514	-0.149	0.213
-245.990	-200.000	-0.009	0.121
-244.976	-9.075	0.272	0.180
-243.961	-85.994	0.155	-0.047
-242.946	-147.493	-0.284	0.024
-241.932	-92.881	0.176	-0.048
-240.917	-118.249	-0.033	0.006
-239.903	-79.093	-0.314	-0.105
-238.888	-111.984	0.160	0.032
-237.873	800.000	0.186	-0.515
-236.859	-129.778	-0.251	0.034
-235.844	-125.135	0.052	-0.008
-234.830	-111.204	-0.346	-0.070
-233.815	800.000	-0.036	0.100
-232.800	-17.530	0.115	-0.071
-231.786	18.344	-0.119	-0.094
-230.771	-83.678	0.272	0.086
-229.757	800.000	0.096	-0.356
-228.742	342.817	-0.182	-0.352
-227.727	-200.000	-0.013	-0.126
-226.713	177.542	-0.006	0.008
-225.698	191.929	0.031	0.046
-224.684	800.000	-0.061	-0.216
-223.669	-155.783	0.075	0.005
-222.655	-46.082	-0.174	-0.084
-221.640	649.400	0.020	0.050
-220.625	179.455	0.095	0.137
-219.611	-200.000	0.016	0.194
-218.596	-93.642	-0.033	0.009
-217.582	800.000	-0.065	-0.265
-216.567	178.945	-0.107	-0.154
-215.552	57.933	0.229	0.221
-214.538	428.690	-0.110	0.234
-213.523	-46.213	-0.035	0.017
-212.509	-186.298	0.255	0.004
-211.494	-200.000	-0.059	0.335
-210.479	92.571	0.190	0.211
-209.465	-200.000	-0.012	0.182
-208.450	68.770	-0.274	-0.278
-207.436	-200.000	0.004	-0.123
-206.421	-74.007	-0.180	0.064
-205.406	7.366	-0.192	-0.142
-204.392	-146.929	-0.127	0.011
-203.377	-200.000	0.002	-0.253
-202.363	-25.896	-0.001	0.000
-201.348	-6.827	0.247	0.165
-200.333	-200.000	0.056	0.334
-199.319	800.000	0.053	0.170
-198.304	-145.530	-0.408	-0.036
-197.290	-71.322	-0.172	-0.063
-196.275	-200.000	0.020	0.138
-195.260	-81.406	-0.164	-0.053
-194.246	85.626	0.263	-0.285
-193.231	691.051	0.070	-0.181
-192.217	800.000	-0.041	0.128
-191.202	30.820	-0.185	0.156
-190.187	175.590	0.116	-0.166
-189.173	-200.000	-0.022	-0.149
-188.158	-120.691	-0.446	-0.074
-187.144	-30.319	-0.139	-0.078
-186.129	-30.442	-0.279	-0.156
-185.114	-74.055	0.209	-0.075
-184.100	10.712	-0.151	-0.114
-183.085	-135.879	0.217	0.025
-182.071	-200.000	-0.010	-0.374
-181.056	-125.517	0.216	0.032
-180.042	223.730	-0.081	0.129
-179.027	-16.965	-0.176	0.109
-178.012	-33.105	-0.203	-0.111
-176.998	-175.489	-0.138	0.004
-175.983	172.184	0.210	-0.297
-174.969	-11.157	0.038	0.024
-173.954	-133.258	0.082	0.010
-172.939	197.031	0.091	-0.137
-171.925	-51.252	-0.294	-0.135
-170.910	-75.489	0.238	-0.084
-169.896	-43.869	0.446	-0.221
-168.881	-140.150	0.174	-0.018
-167.866	-129.396	0.102	0.014
-166.852	664.859	-0.074	0.188
-165.837	-24.231	0.370	0.217
-164.823	-200.000	-0.016	0.245
-163.808	-84.029	-0.379	-0.118
-162.793	-200.000	0.081	-0.354
-161.779	476.972	0.087	0.194
-160.764	58.881	0.108	-0.104
-159.750	-140.311	0.376	0.039
-158.735	-138.225	0.206	0.022
-157.720	800.000	-0.023	-0.100
-156.706	47.521	0.133	0.122
-155.691	-200.000	-0.027	0.206
-154.677	-186.379	0.356	0.005
-153.662	-200.000	-0.025	0.260
-152.647	-17.237	-0.525	-0.326
-151.633	101.720	0.066	0.075
-150.618	-105.981	0.444	-0.098
-149.604	-200.000	-0.025	0.502
-148.589	173.678	0.119	0.169
-147.574	-37.104	0.134	0.070
-146.560	-72.366	0.410	-0.149
-145.545	134.898	-0.086	0.110
-144.531	10.340	-0.291	0.217
-143.516	-19.260	-0.302	-0.184
-142.502	274.387	-0.159	-0.277
-141.487	-200.000	0.015	0.073
-140.472	-62.770	0.214	0.087
-139.458	307.350	0.138	0.253
-138.443	129.372	-0.098	-0.123
-137.429	-89.970	0.444	0.127
-136.414	800.000	-0.065	0.244
-135.399	794.280	-0.152	0.410
-134.385	-80.538	-0.119	0.039
-133.370	420.531	-0.072	-0.151
-132.356	534.780	0.122	0.284
-131.341	257.394	-0.262	-0.442
-130.326	168.819	0.198	-0.277
-129.312	427.056	0.064	0.136
-128.297	-174.598	-0.192	-0.005
-127.283	-75.531	0.092	0.032
-126.268	-71.609	-0.111	-0.041
-125.253	-126.109	-0.216	0.032
-124.239	8.238	-0.186	-0.137
-123.224	574.059	0.109	0.261
-122.210	-200.000	0.025	0.179
