DTS Sentinel unit serial number:	SN413079Multiplexer serial number:	ORYXHardware model number:	OX4-SRSoftware version number:	ORYX F/W v4.00 Oryx Data Collector v3.7.2.0data status	okinstallation	princeton_trtdifferential loss correction	single-endedforward channel	channel 1reverse channel	N/Adate	2019/09/12time	08:24:11forward acquisition time	60.00reverse acquisition time	0.00gamma	496.2192k internal	0.2313k external	0.2313temperature offset calibration	1.0040default loss term (dB/km)	0.3790temperature slope calibration	1.0000multiplexer offset coefficient	1.0000multiplexer slope coefficient	1.0000fibre end	0.00T internal ref (°C)	33.56T ext. ref 1 (°C)	1.70T ext. ref 2 (°C)	29.98length (m)	temperature (°C)	Stokes	anti-Stokes-747.200	-79.946	0.120	0.041
-746.185	-160.881	-0.079	0.004
-745.171	-165.551	-0.267	-0.012
-744.156	488.560	0.112	0.261
-743.142	24.783	0.152	-0.128
-742.127	-160.409	-0.329	0.018
-741.112	100.504	0.070	-0.083
-740.098	697.872	-0.065	0.173
-739.083	86.027	0.094	0.105
-738.069	10.914	-0.168	-0.130
-737.054	43.493	0.125	0.116
-736.039	52.315	-0.219	0.212
-735.025	800.000	0.050	0.170
-734.010	-200.000	-0.012	-0.085
-732.996	-200.000	-0.055	-0.252
-731.981	800.000	0.055	0.212
-730.966	15.121	0.086	0.069
-729.952	-60.488	-0.038	0.017
-728.937	-121.662	0.256	0.043
-727.923	-97.898	0.118	0.031
-726.908	-200.000	-0.073	-0.370
-725.894	-55.720	-0.332	-0.151
-724.879	-24.042	0.147	0.089
-723.864	-42.491	-0.349	-0.180
-722.850	233.624	-0.106	-0.177
-721.835	133.377	-0.176	-0.231
-720.821	800.000	-0.038	-0.168
-719.806	14.046	-0.101	-0.080
-718.791	-29.152	0.061	-0.035
-717.777	253.423	0.053	0.092
-716.762	-200.000	-0.015	-0.218
-715.748	-171.953	-0.228	0.008
-714.733	23.895	0.158	0.132
-713.718	-63.828	-0.109	0.045
-712.704	140.484	-0.251	-0.336
-711.689	-23.248	0.115	-0.070
-710.675	187.102	0.017	-0.026
-709.660	-200.000	-0.014	-0.102
-708.645	800.000	-0.120	-0.371
-707.631	-91.729	-0.421	0.121
-706.616	-200.000	0.060	0.407
-705.602	-200.000	-0.008	0.097
-704.587	36.325	-0.271	0.242
-703.572	147.746	-0.065	0.089
-702.558	-200.000	0.003	-0.399
-701.543	-123.094	0.431	-0.070
-700.529	-56.191	0.197	-0.089
-699.514	188.181	-0.106	-0.161
-698.499	800.000	-0.044	-0.140
-697.485	2.742	-0.275	-0.202
-696.470	83.141	0.150	-0.165
-695.456	-186.554	0.274	0.004
-694.441	-90.224	0.214	-0.063
-693.426	40.639	-0.159	-0.145
-692.412	-200.000	-0.001	-0.212
-691.397	-75.230	-0.247	-0.089
-690.383	93.969	-0.055	-0.063
-689.368	255.207	0.078	0.136
-688.354	520.157	0.098	-0.232
-687.339	-200.000	-0.044	-0.353
-686.324	273.893	-0.146	-0.262
-685.310	-145.467	0.154	-0.014
-684.295	-99.980	-0.078	-0.020
-683.281	-40.842	0.255	0.133
-682.266	-200.000	-0.011	-0.075
-681.251	401.585	0.065	-0.138
-680.237	287.138	-0.101	-0.185
-679.222	-65.286	0.616	-0.251
-678.208	-153.422	-0.149	-0.010
-677.193	-76.900	0.381	0.135
-676.178	-153.160	-0.225	-0.016
-675.164	436.434	0.033	-0.072
-674.149	-130.764	0.318	0.043
-673.135	85.796	0.126	-0.141
-672.120	-200.000	0.006	-0.181
-671.105	-200.000	-0.043	-0.288
-670.091	800.000	-0.037	0.122
-669.076	137.053	0.103	0.136
-668.062	-64.500	-0.263	0.108
-667.047	-29.498	0.435	0.251
-666.032	39.243	0.167	-0.151
-665.018	-136.848	-0.444	-0.052
-664.003	62.897	-0.052	0.053
-662.989	-168.318	-0.185	-0.007
-661.974	-200.000	0.015	0.106
-660.959	521.629	-0.047	-0.111
-659.945	-136.189	0.216	0.026
-658.930	-34.819	0.151	0.083
-657.916	134.745	0.229	0.301
-656.901	-73.040	-0.146	-0.054
-655.886	-67.060	-0.381	0.152
-654.872	-200.000	-0.023	0.403
-653.857	-152.752	-0.268	0.019
-652.843	800.000	-0.088	0.338
-651.828	99.727	-0.178	0.209
-650.814	-48.573	0.133	-0.064
-649.799	-26.379	0.188	-0.112
-648.784	-78.031	-0.203	-0.070
-647.770	15.803	0.230	-0.183
-646.755	-200.000	-0.002	-0.117
-645.741	10.791	0.153	0.118
-644.726	-99.920	-0.277	-0.070
-643.711	-200.000	-0.024	0.135
-642.697	-56.697	0.235	-0.105
-641.682	431.701	0.100	0.218
-640.668	635.758	0.049	-0.125
-639.653	-102.392	0.175	0.042
-638.638	-25.528	-0.099	0.059
-637.624	250.474	0.122	-0.210
-636.609	-105.837	0.112	-0.025
-635.595	-200.000	0.012	0.185
-634.580	215.652	0.171	0.273
-633.565	-200.000	-0.006	0.165
-632.551	-104.409	-0.274	0.064
-631.536	800.000	0.078	-0.319
-630.522	41.429	0.020	0.018
-629.507	-200.000	-0.007	0.204
-628.492	405.370	0.087	-0.185
-627.478	40.320	0.154	-0.140
-626.463	19.313	-0.274	0.223
-625.449	800.000	0.048	0.142
-624.434	-97.106	-0.128	0.034
-623.419	-117.990	0.174	0.031
-622.405	-5.055	-0.416	0.289
-621.390	18.880	-0.203	-0.164
-620.376	-200.000	0.014	0.072
-619.361	85.851	-0.135	0.150
-618.346	19.020	-0.054	0.044
-617.332	-73.436	-0.101	0.037
-616.317	174.094	-0.202	-0.294
-615.303	30.084	0.112	0.096
-614.288	800.000	0.101	0.427
-613.273	-200.000	0.055	-0.301
-612.259	-60.409	-0.164	-0.070
-611.244	-77.965	0.066	-0.023
-610.230	-40.086	-0.284	-0.150
-609.215	-113.181	-0.225	-0.045
-608.201	209.116	0.161	-0.254
-607.186	-200.000	0.001	-0.239
-606.171	364.982	0.065	0.133
-605.157	-200.000	0.022	0.308
-604.142	-200.000	-0.167	0.001
-603.128	137.810	0.091	0.120
-602.113	-31.602	-0.338	-0.192
-601.098	-122.346	-0.190	-0.031
-600.084	419.431	0.150	0.323
-599.069	-57.113	-0.187	0.083
-598.055	-115.744	-0.080	-0.015
-597.040	147.235	0.057	-0.077
-596.025	-82.864	-0.088	-0.029
-595.011	-107.041	0.155	0.034
-593.996	-28.751	-0.094	-0.054
-592.982	-2.405	0.124	0.088
-591.967	800.000	0.040	-0.171
-590.952	-200.000	-0.008	0.604
-589.938	155.930	-0.256	0.356
-588.923	-130.878	-0.437	0.059
-587.909	446.778	0.035	0.078
-586.894	111.983	-0.109	0.133
-585.879	-59.657	-0.135	0.058
-584.865	800.000	-0.110	-0.379
-583.850	191.770	-0.034	-0.052
-582.836	-94.315	0.400	-0.110
-581.821	-90.610	-0.112	0.033
-580.806	129.972	-0.084	0.108
-579.792	-83.568	0.196	-0.063
-578.777	-117.073	0.231	-0.042
-577.763	-17.771	0.105	-0.067
-576.748	800.000	-0.036	0.146
-575.733	93.367	0.103	-0.118
-574.719	276.947	-0.028	-0.051
-573.704	115.238	0.233	0.286
-572.690	87.915	0.024	-0.027
-571.675	413.269	-0.065	0.140
-570.661	-60.827	-0.101	-0.043
-569.646	-61.984	0.349	-0.147
-568.631	-139.547	-0.425	0.046
-567.617	-200.000	0.073	0.503
-566.602	-38.806	0.142	0.075
-565.588	-200.000	0.010	-0.120
-564.573	146.130	0.106	-0.143
-563.558	-200.000	0.041	-0.361
-562.544	-77.061	0.160	0.056
-561.529	127.642	-0.179	-0.230
-560.515	-200.000	0.004	-0.118
-559.500	678.426	-0.125	-0.328
-558.485	-144.297	0.184	-0.017
-557.471	44.379	0.074	-0.068
-556.456	-134.833	0.098	-0.012
-555.442	-110.225	-0.076	-0.016
-554.427	23.557	-0.212	0.176
-553.412	681.311	-0.042	0.111
-552.398	-49.756	-0.200	-0.096
-551.383	-165.959	-0.123	0.005
-550.369	-152.049	0.233	0.017
-549.354	-200.000	-0.001	0.199
-548.339	84.838	0.207	0.229
-547.325	148.284	0.106	0.144
-546.310	687.557	-0.172	-0.452
-545.296	-62.714	-0.166	0.069
-544.281	-18.759	0.181	-0.113
-543.266	30.480	0.225	-0.193
-542.252	-112.135	-0.186	0.038
-541.237	361.231	0.076	-0.154
-540.223	116.507	-0.053	0.065
-539.208	-200.000	0.089	-0.396
-538.193	-154.980	-0.315	-0.021
-537.179	673.414	-0.146	0.380
-536.164	-77.975	-0.324	-0.112
-535.150	-19.383	-0.302	-0.188
-534.135	800.000	0.017	0.050
-533.121	-127.027	0.285	0.042
-532.106	-103.830	-0.267	-0.063
-531.091	-200.000	0.018	0.131
-530.077	83.205	0.168	0.184
-529.062	-200.000	0.008	-0.105
-528.048	-20.827	-0.251	-0.155
-527.033	13.815	0.042	0.033
-526.018	44.511	0.098	-0.091
-525.004	800.000	-0.025	0.072
-523.989	-200.000	-0.012	-0.320
-522.975	-111.623	-0.455	0.093
-521.960	-132.995	0.293	-0.037
-520.945	-21.452	0.065	-0.040
-519.931	135.985	-0.086	-0.113
-518.916	-173.141	0.079	-0.002
-517.902	-51.792	-0.231	0.108
-516.887	91.850	0.095	-0.107
-515.872	-77.465	-0.377	-0.132
-514.858	-76.329	-0.436	0.154
-513.843	-185.174	-0.173	-0.003
-512.829	326.020	0.132	-0.253
-511.814	-98.582	0.378	-0.097
-510.799	-35.957	0.092	-0.050
-509.785	-69.227	-0.222	-0.086
-508.770	-34.380	-0.214	0.118
-507.756	39.420	-0.100	-0.090
-506.741	-26.585	-0.050	0.029
-505.726	-168.156	-0.233	-0.009
-504.712	29.202	0.279	0.238
-503.697	-33.613	-0.220	0.122
-502.683	234.525	0.080	-0.132
-501.668	330.158	-0.071	0.137
-500.653	-200.000	-0.019	-0.293
-499.639	-200.000	-0.017	0.199
-498.624	800.000	0.068	-0.270
-497.610	-26.959	0.218	0.128
-496.595	-200.000	-0.001	-0.065
-495.581	-119.592	-0.235	0.041
-494.566	44.641	0.063	0.058
-493.551	225.807	-0.184	-0.300
-492.537	-164.119	-0.126	-0.006
-491.522	-200.000	-0.061	-0.340
-490.508	214.541	-0.275	0.437
-489.493	-200.000	0.013	-0.234
-488.478	-114.630	-0.211	-0.041
-487.464	178.593	-0.327	-0.480
-486.449	61.930	-0.138	0.138
-485.435	544.728	-0.043	0.104
-484.420	-131.950	0.039	-0.005
-483.405	800.000	0.040	-0.128
-482.391	-182.139	-0.241	0.005
-481.376	8.317	0.321	-0.242
-480.362	-171.714	-0.047	-0.002
-479.347	56.529	0.085	0.083
-478.332	64.208	-0.036	0.037
-477.318	-200.000	-0.058	-0.361
-476.303	-38.219	0.216	-0.115
-475.289	-85.198	0.300	-0.094
-474.274	800.000	0.074	-0.229
-473.259	-200.000	-0.005	0.132
-472.245	-29.787	0.297	0.170
-471.230	-154.695	-0.116	-0.008
-470.216	-123.049	-0.325	0.052
-469.201	599.196	-0.060	-0.148
-468.186	399.454	0.158	0.332
-467.172	415.835	0.090	-0.193
-466.157	-135.399	0.218	-0.026
-465.143	-20.873	0.022	-0.014
-464.128	-200.000	-0.017	0.482
-463.113	-200.000	0.026	0.147
-462.099	93.046	0.129	0.146
-461.084	-2.395	0.272	-0.191
-460.070	-200.000	-0.016	-0.206
-459.055	-64.613	-0.273	0.111
-458.040	-200.000	0.027	-0.319
-457.026	-48.225	-0.186	-0.090
-456.011	-200.000	-0.013	0.085
-454.997	-18.629	0.304	0.190
-453.982	-61.581	-0.165	-0.069
-452.968	-200.000	0.000	0.071
-451.953	285.199	0.092	0.167
-450.938	-200.000	0.020	0.226
-449.924	693.245	-0.041	0.109
-448.909	68.647	0.361	0.371
-447.895	-72.765	0.040	0.015
-446.880	23.109	-0.347	-0.286
-445.865	32.924	0.066	0.057
-444.851	185.051	-0.037	-0.055
-443.836	-105.211	0.070	-0.016
-442.822	649.189	0.169	0.433
-441.807	652.938	0.047	-0.120
-440.792	173.396	0.081	0.117
-439.778	-28.624	0.183	-0.106
-438.763	-25.100	-0.183	0.109
-437.749	-30.254	-0.052	0.029
-436.734	109.565	-0.136	-0.163
-435.719	-81.366	-0.173	-0.057
-434.705	-4.550	-0.534	-0.370
-433.690	-8.033	-0.256	0.173
-432.676	-200.000	-0.042	0.193
-431.661	-104.109	0.211	0.049
-430.646	400.692	-0.079	0.167
-429.632	-9.941	-0.182	0.121
-428.617	310.186	0.069	0.129
-427.603	-58.988	0.320	-0.138
-426.588	60.292	0.134	-0.133
-425.573	-37.549	0.405	-0.216
-424.559	104.810	0.270	-0.319
-423.544	-88.810	0.394	-0.117
-422.530	33.120	0.212	-0.184
-421.515	-200.000	-0.000	0.043
-420.500	-143.613	0.098	0.009
-419.486	800.000	-0.039	-0.157
-418.471	800.000	-0.053	-0.182
-417.457	47.703	-0.026	-0.025
-416.442	-200.000	0.009	0.417
-415.428	-200.000	0.019	-0.133
-414.413	-104.191	0.268	-0.062
-413.398	800.000	-0.049	0.168
-412.384	18.651	-0.138	0.111
-411.369	-42.683	-0.046	-0.024
-410.355	-200.000	-0.096	0.000
-409.340	-113.611	-0.260	-0.051
-408.325	-200.000	0.000	-0.182
-407.311	175.199	0.078	0.114
-406.296	66.302	0.159	-0.162
-405.282	12.728	0.286	-0.221
-404.267	-73.888	-0.422	-0.154
-403.252	30.998	0.151	0.129
-402.238	-173.442	-0.144	-0.004
-401.223	360.034	0.087	-0.175
-400.209	62.994	-0.127	-0.127
-399.194	-196.042	0.456	0.003
-398.179	-200.000	0.102	-0.473
-397.165	209.983	0.167	0.261
-396.150	-200.000	-0.008	0.117
-395.136	-47.171	-0.213	-0.104
-394.121	-160.151	-0.142	0.008
-393.106	800.000	-0.064	-0.248
-392.092	-0.952	0.196	0.139
-391.077	-200.000	-0.047	0.315
-390.063	595.040	-0.046	0.113
-389.048	162.451	0.075	0.105
-388.033	800.000	-0.075	-0.208
-387.019	-200.000	-0.049	0.321
-386.004	358.818	0.139	-0.277
-384.990	6.862	-0.138	-0.103
-383.975	95.965	-0.201	0.229
-382.960	-17.414	0.015	-0.010
-381.946	-129.443	-0.132	-0.018
-380.931	189.507	0.129	0.193
-379.917	-39.297	0.156	0.082
-378.902	-200.000	-0.007	0.109
-377.888	-200.000	-0.055	0.289
-376.873	800.000	-0.071	0.274
-375.858	-200.000	0.070	0.395
-374.844	-200.000	-0.056	0.340
-373.829	800.000	0.086	0.301
-372.815	-75.013	0.502	-0.180
-371.800	-96.735	0.338	0.089
-370.785	54.998	-0.199	0.192
-369.771	-6.492	0.197	0.134
-368.756	-194.747	0.256	-0.002
-367.742	-122.603	0.120	-0.019
-366.727	39.598	-0.029	-0.026
-365.712	-105.335	-0.298	-0.068
-364.698	99.720	-0.077	0.089
-363.683	-50.492	0.122	-0.058
-362.669	-37.391	0.197	0.105
-361.654	800.000	0.050	-0.174
-360.639	91.703	0.141	0.159
-359.625	-200.000	0.014	0.332
-358.610	800.000	-0.068	0.257
-357.596	133.400	0.138	0.178
-356.581	-43.903	-0.084	-0.042
-355.566	-156.942	-0.208	0.013
-354.552	-126.066	-0.140	0.021
-353.537	-200.000	-0.041	0.331
-352.523	-71.601	0.104	-0.039
-351.508	-165.405	-0.160	-0.007
-350.493	-200.000	-0.019	-0.104
-349.479	68.811	-0.189	0.193
-348.464	800.000	-0.027	0.081
-347.450	800.000	0.027	0.089
-346.435	205.817	0.207	-0.322
-345.420	37.731	0.107	0.095
-344.406	-105.019	0.289	-0.066
-343.391	143.723	-0.228	0.303
-342.377	-123.152	-0.278	-0.044
-341.362	10.208	0.453	-0.344
-340.348	-122.632	0.089	-0.014
-339.333	-5.798	0.166	-0.114
-338.318	-82.601	-0.128	0.041
-337.304	127.261	0.123	-0.156
-336.289	118.529	0.083	-0.102
-335.275	-35.888	0.178	0.096
-334.260	-175.819	0.114	0.003
-333.245	-98.605	-0.026	-0.007
-332.231	-200.000	-0.014	-0.478
-331.216	0.274	-0.155	-0.110
-330.202	-139.291	-0.070	0.008
-329.187	-140.044	0.125	-0.013
-328.172	310.120	-0.124	-0.231
-327.158	318.867	-0.037	-0.070
-326.143	54.867	0.191	-0.184
-325.129	302.820	-0.134	-0.248
-324.114	-38.252	-0.059	-0.031
-323.099	-76.347	-0.212	0.075
-322.085	259.684	-0.168	-0.289
-321.070	249.144	0.213	-0.360
-320.056	-200.000	-0.005	-0.192
-319.041	-99.485	0.289	-0.073
-318.026	117.247	0.225	-0.276
-317.012	343.032	0.097	-0.190
-315.997	22.455	-0.174	-0.142
-314.983	6.666	-0.076	0.057
-313.968	14.197	-0.106	-0.083
-312.953	178.387	0.222	0.324
-311.939	182.730	0.054	-0.080
-310.924	90.465	0.102	-0.114
-309.910	74.326	-0.145	-0.152
-308.895	-81.832	0.278	0.091
-307.880	338.259	0.150	0.292
-306.866	-63.510	-0.163	0.067
-305.851	-90.721	-0.156	-0.045
-304.837	768.846	0.133	0.362
-303.822	65.953	0.143	0.144
-302.807	-15.306	-0.205	0.131
-301.793	-91.892	0.098	0.028
-300.778	-200.000	-0.007	-0.405
-299.764	681.342	-0.050	-0.129
-298.749	611.954	-0.187	-0.467
-297.735	144.507	-0.106	-0.141
-296.720	-62.343	0.126	0.052
-295.705	800.000	-0.121	0.409
-294.691	-196.178	-0.253	0.002
-293.676	-142.636	0.304	-0.030
-292.662	4.109	0.097	-0.070
-291.647	800.000	0.053	0.166
-290.632	74.264	-0.213	-0.223
-289.618	-116.038	0.116	-0.022
-288.603	230.666	-0.146	0.238
-287.589	-29.112	-0.057	-0.033
-286.574	291.830	-0.194	0.352
-285.559	59.374	0.180	0.176
-284.545	223.422	0.147	0.236
-283.530	155.884	-0.062	-0.084
-282.516	-200.000	0.007	-0.081
-281.501	55.855	-0.041	0.040
-280.486	-200.000	0.029	0.145
-279.472	-200.000	-0.015	0.156
-278.457	85.195	-0.088	-0.096
-277.443	-115.389	-0.393	-0.074
-276.428	800.000	-0.022	0.091
-275.413	121.125	-0.052	0.065
-274.399	327.932	0.176	-0.337
-273.384	-200.000	-0.020	0.116
-272.370	113.893	0.153	-0.185
-271.355	800.000	0.080	-0.259
-270.340	-91.721	-0.366	-0.104
-269.326	22.626	-0.170	-0.138
-268.311	-103.117	0.087	-0.020
-267.297	10.643	-0.207	-0.157
-266.282	-163.576	-0.179	0.008
-265.267	-112.149	0.207	-0.041
-264.253	275.874	0.204	-0.361
-263.238	-72.043	0.253	-0.094
-262.224	-108.702	0.124	-0.026
-261.209	800.000	0.023	-0.089
-260.195	-63.961	0.094	-0.038
-259.180	52.967	0.132	0.125
-258.165	800.000	-0.042	-0.118
-257.151	93.450	0.275	0.310
-256.136	-32.506	-0.329	-0.183
-255.122	-150.555	-0.243	0.019
-254.107	16.739	0.172	0.135
-253.092	150.368	-0.198	0.267
-252.078	800.000	0.057	0.246
-251.063	-126.964	0.328	-0.048
-250.049	-26.049	0.206	0.121
-249.034	-66.712	-0.305	0.120
-248.019	-175.528	-0.232	-0.006
-247.005	-200.000	-0.002	0.184
-245.990	-58.096	-0.270	0.117
-244.976	273.603	0.235	0.414
-243.961	-175.029	0.320	0.009
-242.946	-78.502	-0.203	-0.069
-241.932	389.319	0.030	0.061
-240.917	26.448	0.090	0.075
-239.903	79.939	0.017	-0.018
-238.888	-94.107	-0.037	-0.010
-237.873	707.025	0.036	-0.094
-236.859	-200.000	-0.000	-0.145
-235.844	293.669	-0.041	0.075
-234.830	800.000	-0.061	-0.210
-233.815	-200.000	-0.014	0.084
-232.800	233.731	-0.044	0.071
-231.786	304.792	-0.061	0.113
-230.771	489.274	0.116	-0.263
-229.757	-200.000	0.021	0.106
-228.742	83.234	-0.140	0.152
-227.727	-200.000	-0.002	-0.085
-226.713	175.864	0.107	-0.154
-225.698	28.664	-0.070	-0.059
-224.684	-135.563	-0.182	0.021
-223.669	362.736	-0.111	0.222
-222.655	-47.633	0.377	0.182
-221.640	-200.000	0.015	0.265
-220.625	-194.247	0.247	-0.002
-219.611	467.050	0.113	0.252
-218.596	62.433	0.259	0.257
-217.582	800.000	-0.044	0.149
-216.567	-64.972	-0.224	0.090
-215.552	491.003	0.177	0.402
-214.538	63.011	0.039	0.039
-213.523	-94.336	0.285	0.077
-212.509	482.257	-0.124	0.279
-211.494	-163.810	0.036	-0.002
-210.479	-200.000	-0.011	-0.099
-209.465	22.101	0.164	0.133
-208.450	223.140	-0.090	0.145
-207.436	-25.083	0.129	-0.076
-206.421	25.622	-0.318	-0.263
-205.406	-38.773	0.141	0.074
-204.392	-42.246	0.212	-0.108
-203.377	304.749	0.148	-0.272
-202.363	365.782	0.069	-0.138
-201.348	-200.000	0.046	0.282
-200.333	-80.623	-0.065	-0.022
-199.319	-125.822	0.221	-0.033
-198.304	-200.000	-0.032	-0.216
-197.290	-67.914	-0.308	-0.119
-196.275	-48.805	-0.203	0.097
-195.260	157.550	0.184	0.252
-194.246	-90.906	-0.075	-0.021
-193.231	21.591	-0.079	0.064
-192.217	-200.000	-0.006	0.348
-191.202	-200.000	-0.002	-0.274
-190.187	95.080	-0.110	-0.124
-189.173	100.370	0.172	0.198
-188.158	-110.785	-0.343	0.070
-187.144	-200.000	0.011	-0.217
-186.129	602.953	-0.171	-0.423
-185.114	89.027	0.184	-0.204
-184.100	-200.000	-0.056	0.395
-183.085	65.959	-0.156	-0.157
-182.071	800.000	0.074	-0.290
-181.056	800.000	0.054	-0.217
-180.042	-87.741	-0.111	0.033
-179.027	-200.000	-0.003	0.275
-178.012	317.095	-0.108	-0.202
-176.998	-4.829	-0.062	-0.042
-175.983	56.278	-0.166	-0.160
-174.969	153.222	-0.093	0.126
-173.954	-200.000	0.011	0.049
-172.939	66.832	0.267	0.269
-171.925	37.065	0.259	-0.228
-170.910	43.927	-0.072	-0.066
-169.896	-20.030	-0.123	-0.076
-168.881	-57.687	-0.080	-0.035
-167.866	136.154	-0.123	-0.158
-166.852	213.039	-0.108	-0.169
-165.837	-154.325	0.246	0.016
-164.823	-46.519	-0.389	0.189
-163.808	146.840	0.121	0.161
-162.793	241.892	-0.048	0.079
-161.779	9.604	0.195	-0.146
-160.764	-37.309	-0.160	0.085
-159.750	-200.000	0.050	-0.288
-158.735	-200.000	0.024	-0.256
-157.720	-171.700	0.112	0.004
-156.706	409.404	-0.137	0.288
-155.691	-200.000	0.022	0.174
-154.677	-32.360	0.275	-0.152
-153.662	-153.171	0.196	-0.014
-152.647	29.279	-0.185	-0.156
-151.633	3.384	0.219	0.158
-150.618	-200.000	0.038	0.175
-149.604	-39.171	-0.204	-0.106
-148.589	-58.423	0.496	0.214
-147.574	-200.000	-0.041	0.400
-146.560	-73.257	-0.126	0.046
-145.545	-10.013	-0.140	-0.092
-144.531	533.528	-0.057	-0.135
-143.516	-200.000	-0.004	0.073
-142.502	-25.708	0.127	0.074
-141.487	529.715	-0.106	-0.248
-140.472	-11.600	-0.265	0.172
-139.458	800.000	0.015	0.049
-138.443	-200.000	0.009	0.221
-137.429	321.198	-0.186	0.351
-136.414	-132.519	0.161	-0.021
-135.399	255.601	0.125	0.211
-134.385	86.644	0.183	-0.200
-133.370	-200.000	0.054	0.000
-132.356	800.000	0.051	-0.210
-131.341	-159.526	-0.374	-0.021
-130.326	800.000	-0.079	-0.252
-129.312	319.195	0.181	-0.339
-128.297	-74.606	0.169	-0.060
-127.283	379.769	-0.157	-0.319
-126.268	114.505	0.102	0.123
-125.253	-200.000	0.017	0.244
-124.239	222.223	-0.127	0.202
-123.224	533.321	0.030	-0.070
-122.210	-146.362	0.125	0.011
