DTS Sentinel unit serial number:	SN413079Multiplexer serial number:	ORYXHardware model number:	OX4-SRSoftware version number:	ORYX F/W v4.00 Oryx Data Collector v3.7.2.0data status	okinstallation	princeton_trtdifferential loss correction	single-endedforward channel	channel 1reverse channel	N/Adate	2019/09/12time	12:16:11forward acquisition time	60.00reverse acquisition time	0.00gamma	496.2192k internal	0.2292k external	0.2292temperature offset calibration	1.0042default loss term (dB/km)	0.3790temperature slope calibration	1.0000multiplexer offset coefficient	1.0000multiplexer slope coefficient	1.0000fibre end	0.00T internal ref (°C)	40.62T ext. ref 1 (°C)	1.97T ext. ref 2 (°C)	35.38length (m)	temperature (°C)	Stokes	anti-Stokes-747.200	-200.000	0.023	-0.287
-746.185	800.000	0.062	0.245
-745.171	-7.577	0.200	-0.138
-744.156	-200.000	0.006	0.034
-743.142	-56.247	0.106	-0.048
-742.127	-200.000	0.040	0.288
-741.112	-104.888	-0.274	-0.064
-740.098	-49.732	0.112	0.055
-739.083	-181.142	-0.217	0.004
-738.069	-1.619	0.363	0.262
-737.054	-195.221	-0.246	0.002
-736.039	-140.226	-0.201	0.022
-735.025	-200.000	-0.005	0.072
-734.010	-129.780	-0.298	-0.042
-732.996	-19.942	-0.376	-0.238
-731.981	180.318	-0.124	0.187
-730.966	-200.000	0.058	-0.268
-729.952	47.329	0.056	0.054
-728.937	-200.000	-0.015	-0.164
-727.923	516.872	-0.046	-0.110
-726.908	-146.005	-0.318	0.029
-725.894	-118.787	-0.205	-0.037
-724.879	157.454	-0.120	-0.169
-723.864	424.127	0.089	-0.197
-722.850	25.281	-0.210	0.179
-721.835	-9.994	-0.150	-0.102
-720.821	277.184	-0.133	-0.242
-719.806	-92.897	-0.092	-0.026
-718.791	-26.584	-0.119	0.071
-717.777	-200.000	-0.098	0.546
-716.762	-76.809	-0.233	-0.083
-715.748	-200.000	0.164	-0.741
-714.733	-143.701	0.252	-0.024
-713.718	-200.000	-0.026	0.122
-712.704	-148.660	0.227	-0.019
-711.689	52.721	-0.171	0.167
-710.675	-51.288	-0.100	0.048
-709.660	74.837	0.215	-0.232
-708.645	-200.000	-0.004	0.057
-707.631	-200.000	-0.014	0.094
-706.616	332.683	0.135	0.267
-705.602	-200.000	0.021	-0.176
-704.587	-105.456	-0.338	0.078
-703.572	-186.867	-0.382	-0.005
-702.558	-90.857	0.171	-0.050
-701.543	-131.216	0.418	0.057
-700.529	-24.871	-0.136	-0.082
-699.514	-200.000	-0.004	-0.104
-698.499	-172.831	0.451	0.014
-697.485	100.271	-0.195	0.231
-696.470	67.964	-0.180	-0.188
-695.456	211.922	-0.096	-0.155
-694.441	-50.025	-0.141	0.068
-693.426	-97.160	0.090	-0.024
-692.412	-200.000	-0.011	-0.120
-691.397	133.144	0.099	0.131
-690.383	800.000	-0.019	-0.073
-689.368	424.044	0.068	-0.150
-688.354	-169.072	-0.278	-0.011
-687.339	58.714	-0.081	-0.081
-686.324	800.000	-0.055	0.237
-685.310	267.354	0.093	-0.166
-684.295	48.076	-0.194	-0.185
-683.281	44.637	-0.285	0.268
-682.266	-70.492	-0.187	0.072
-681.251	-26.108	-0.267	-0.161
-680.237	-113.864	-0.121	-0.024
-679.222	444.995	-0.130	-0.290
-678.208	800.000	-0.115	-0.360
-677.193	-200.000	-0.030	-0.294
-676.178	800.000	0.054	0.164
-675.164	220.364	0.095	0.155
-674.149	-145.119	0.170	-0.016
-673.135	-130.280	-0.162	-0.023
-672.120	800.000	-0.017	0.065
-671.105	-200.000	0.023	-0.303
-670.091	-56.055	-0.348	0.158
-669.076	126.316	0.194	-0.250
-668.062	67.354	-0.215	-0.224
-667.047	-200.000	0.002	-0.032
-666.032	-200.000	0.006	-0.207
-665.018	-157.214	-0.142	0.009
-664.003	-5.680	-0.169	-0.119
-662.989	-26.271	-0.204	0.122
-661.974	-18.412	-0.244	0.156
-660.959	-200.000	0.047	-0.493
-659.945	-96.295	0.228	0.062
-658.930	44.824	0.111	0.104
-657.916	-154.293	-0.204	-0.014
-656.901	-12.746	-0.478	-0.318
-655.886	60.111	0.288	0.290
-654.872	800.000	-0.071	0.207
-653.857	92.839	-0.058	0.067
-652.843	356.295	0.067	-0.136
-651.828	90.741	-0.162	0.186
-650.814	28.324	0.078	0.067
-649.799	-149.186	0.327	0.027
-648.784	-200.000	0.009	-0.387
-647.770	-36.249	0.355	-0.196
-646.755	-57.472	0.077	0.035
-645.741	800.000	0.090	0.326
-644.726	49.917	-0.145	0.139
-643.711	-47.574	0.168	-0.083
-642.697	311.747	0.103	-0.197
-641.682	77.230	-0.228	-0.247
-640.668	600.572	0.050	-0.127
-639.653	419.850	-0.084	-0.183
-638.638	-170.155	-0.311	-0.011
-637.624	-132.789	0.098	0.013
-636.609	12.241	0.177	0.139
-635.595	800.000	-0.034	0.130
-634.580	168.691	-0.160	-0.233
-633.565	297.553	0.179	-0.336
-632.551	395.984	-0.053	0.114
-631.536	-200.000	0.024	0.172
-630.522	-45.512	0.139	-0.070
-629.507	-70.521	-0.321	-0.124
-628.492	-61.163	-0.068	-0.029
-627.478	153.160	-0.052	0.072
-626.463	-200.000	-0.011	0.078
-625.449	141.125	0.160	0.215
-624.434	800.000	0.051	-0.159
-623.419	-200.000	0.001	0.108
-622.405	-154.390	0.290	0.020
-621.390	-200.000	0.005	-0.109
-620.376	-200.000	-0.036	-0.207
-619.361	-200.000	-0.018	-0.091
-618.346	-106.581	-0.235	-0.053
-617.332	-200.000	0.055	-0.398
-616.317	488.018	-0.073	-0.170
-615.303	-200.000	-0.035	-0.219
-614.288	-15.154	0.117	-0.076
-613.273	-101.416	-0.107	-0.026
-612.259	137.580	-0.172	0.229
-611.244	-3.714	-0.333	0.236
-610.230	129.842	0.080	-0.104
-609.215	61.920	0.149	-0.151
-608.201	249.737	0.218	0.377
-607.186	-42.199	-0.200	0.104
-606.171	381.452	0.101	-0.210
-605.157	-84.957	0.129	0.041
-604.142	-127.516	0.209	0.031
-603.128	-200.000	0.026	-0.344
-602.113	800.000	-0.068	0.299
-601.098	-65.833	0.130	0.053
-600.084	-84.331	-0.315	0.102
-599.069	-200.000	-0.027	-0.477
-598.055	-76.660	-0.411	0.147
-597.040	223.814	-0.131	0.216
-596.025	218.430	-0.226	-0.367
-595.011	61.884	-0.126	-0.128
-593.996	-85.683	0.356	0.113
-592.982	-194.186	0.317	0.003
-591.967	-200.000	-0.037	0.411
-590.952	282.954	0.127	0.232
-589.938	-114.739	-0.196	0.038
-588.923	-200.000	0.007	-0.334
-587.909	800.000	-0.068	-0.229
-586.894	800.000	-0.082	0.280
-585.879	-200.000	-0.052	-0.407
-584.865	234.210	-0.103	-0.172
-583.850	-15.422	-0.078	0.051
-582.836	-37.401	-0.136	0.074
-581.821	-7.095	0.214	0.147
-580.806	25.800	-0.232	-0.196
-579.792	800.000	-0.015	-0.051
-578.777	800.000	0.088	0.323
-577.763	-200.000	0.017	0.132
-576.748	92.630	0.166	-0.190
-575.733	42.278	-0.206	0.190
-574.719	-200.000	0.014	0.100
-573.704	-105.964	-0.121	-0.028
-572.690	76.853	-0.085	0.092
-571.675	-81.646	0.206	0.069
-570.661	-119.525	0.174	-0.031
-569.646	-43.598	-0.123	-0.063
-568.631	-29.539	-0.236	-0.137
-567.617	203.790	0.007	0.011
-566.602	-99.372	-0.098	0.025
-565.588	-82.065	-0.266	-0.088
-564.573	800.000	0.067	-0.234
-563.558	23.039	-0.014	0.011
-562.544	-61.446	0.180	-0.077
-561.529	-66.511	-0.298	0.120
-560.515	-200.000	-0.004	0.046
-559.500	150.922	-0.088	0.121
-558.485	139.138	-0.183	-0.245
-557.471	800.000	0.103	-0.366
-556.456	-153.046	-0.151	0.011
-555.442	-141.460	0.215	-0.022
-554.427	-200.000	-0.039	-0.295
-553.412	-200.000	-0.029	0.230
-552.398	91.074	-0.217	0.247
-551.383	-102.272	0.349	-0.085
-550.369	-55.676	0.233	-0.106
-549.354	-66.242	0.381	0.154
-548.339	-200.000	-0.008	0.101
-547.325	-162.937	0.474	-0.023
-546.310	172.967	-0.032	-0.047
-545.296	431.193	0.040	-0.087
-544.281	-165.387	-0.208	-0.009
-543.266	16.822	-0.316	-0.254
-542.252	-200.000	-0.005	0.135
-541.237	-88.360	-0.028	-0.009
-540.223	-14.887	0.311	0.203
-539.208	5.790	0.237	0.178
-538.193	800.000	0.059	0.175
-537.179	-33.033	0.031	0.018
-536.164	-18.147	-0.254	0.161
-535.150	-109.545	0.287	-0.061
-534.135	800.000	0.093	-0.287
-533.121	-86.187	-0.237	0.074
-532.106	800.000	-0.104	0.297
-531.091	381.291	0.075	-0.156
-530.077	180.555	0.177	0.263
-529.062	-200.000	-0.015	-0.285
-528.048	-200.000	0.045	0.270
-527.033	216.754	0.123	0.199
-526.018	-38.926	-0.243	0.130
-525.004	30.362	-0.175	-0.152
-523.989	-169.635	0.118	-0.004
-522.975	108.842	-0.140	-0.170
-521.960	81.868	0.243	0.267
-520.945	127.614	0.112	0.145
-519.931	347.122	0.117	-0.234
-518.916	-70.673	-0.219	-0.084
-517.902	-200.000	-0.039	-0.324
-516.887	8.153	0.056	-0.043
-515.872	95.821	0.033	-0.039
-514.858	-200.000	0.005	-0.114
-513.843	-73.169	-0.104	-0.038
-512.829	-200.000	-0.042	0.231
-511.814	-200.000	-0.001	-0.145
-510.799	-200.000	0.007	0.186
-509.785	62.321	0.216	0.219
-508.770	178.605	0.128	0.190
-507.756	-108.484	0.074	-0.016
-506.741	800.000	-0.103	0.305
-505.726	-200.000	0.076	0.464
-504.712	-200.000	-0.020	-0.134
-503.697	-74.747	0.131	-0.048
-502.683	-5.046	-0.079	-0.055
-501.668	800.000	0.070	0.244
-500.653	237.503	0.103	0.174
-499.639	-66.833	-0.361	-0.145
-498.624	218.270	0.110	-0.177
-497.610	42.658	-0.275	0.254
-496.595	-14.051	-0.287	0.188
-495.581	532.835	-0.111	-0.266
-494.566	-55.972	-0.102	-0.046
-493.551	-183.646	0.173	-0.003
-492.537	101.901	0.117	0.139
-491.522	800.000	-0.032	0.115
-490.508	-133.475	0.206	-0.026
-489.493	-200.000	0.013	0.304
-488.478	-182.228	-0.091	-0.002
-487.464	-200.000	0.043	0.283
-486.449	-17.487	-0.350	0.223
-485.435	-155.743	-0.164	0.011
-484.420	-200.000	0.016	-0.169
-483.405	438.912	-0.099	-0.219
-482.391	-70.659	0.188	0.072
-481.376	800.000	0.054	-0.170
-480.362	-84.908	-0.310	-0.099
-479.347	-91.815	-0.103	0.030
-478.332	9.828	0.227	-0.175
-477.318	73.039	0.022	-0.023
-476.303	255.772	0.084	0.146
-475.289	121.454	0.072	-0.091
-474.274	38.193	0.126	-0.114
-473.259	313.404	0.183	-0.348
-472.245	-81.410	-0.395	-0.132
-471.230	-104.346	-0.359	-0.084
-470.216	327.819	0.135	-0.263
-469.201	-200.000	0.001	0.052
-468.186	-200.000	0.015	0.124
-467.172	-200.000	0.028	-0.169
-466.157	-99.710	-0.405	-0.103
-465.143	77.439	-0.045	0.048
-464.128	301.874	-0.107	0.200
-463.113	76.090	0.308	0.330
-462.099	154.915	-0.049	-0.068
-461.084	0.437	0.267	-0.193
-460.070	255.638	0.200	0.347
-459.055	-200.000	-0.024	0.265
-458.040	-200.000	0.023	-0.363
-457.026	122.988	0.183	-0.232
-456.011	-185.280	-0.338	-0.005
-454.997	144.143	-0.064	-0.087
-453.982	800.000	-0.048	0.206
-452.968	-200.000	-0.026	0.193
-451.953	-83.857	0.113	0.036
-450.938	-200.000	-0.023	-0.217
-449.924	-30.434	0.164	-0.094
-448.909	800.000	-0.072	-0.285
-447.895	-90.972	-0.112	-0.033
-446.880	256.083	-0.100	-0.173
-445.865	24.308	0.220	-0.184
-444.851	308.165	0.156	-0.294
-443.836	800.000	-0.053	0.220
-442.822	800.000	-0.081	-0.321
-441.807	57.755	0.078	-0.077
-440.792	35.304	-0.080	0.071
-439.778	-200.000	-0.008	-0.159
-438.763	-50.144	0.351	-0.168
-437.749	-200.000	-0.034	-0.200
-436.734	-91.267	-0.174	0.050
-435.719	159.790	-0.102	-0.144
-434.705	410.888	-0.134	0.287
-433.690	26.850	-0.092	-0.078
-432.676	-45.264	-0.247	0.124
-431.661	-160.572	0.031	0.002
-430.646	541.785	0.062	-0.149
-429.632	294.819	0.161	-0.298
-428.617	267.391	-0.242	0.429
-427.603	37.174	-0.216	0.193
-426.588	74.627	-0.265	0.282
-425.573	-117.124	-0.185	0.034
-424.559	190.381	-0.041	-0.062
-423.544	-53.469	-0.220	-0.102
-422.530	455.805	-0.156	0.350
-421.515	-200.000	-0.019	-0.132
-420.500	-66.762	0.181	-0.072
-419.486	27.688	-0.245	-0.209
-418.471	-180.726	0.247	-0.005
-417.457	-200.000	-0.031	0.249
-416.442	425.743	-0.038	-0.083
-415.428	3.509	0.152	0.112
-414.413	86.033	0.078	0.087
-413.398	-177.844	-0.175	-0.004
-412.384	-6.168	0.245	0.169
-411.369	800.000	-0.089	0.360
-410.355	153.684	-0.236	0.326
-409.340	-139.744	-0.266	0.029
-408.325	23.290	-0.258	-0.214
-407.311	-101.315	0.329	0.081
-406.296	-169.857	0.157	-0.006
-405.282	27.957	0.125	-0.106
-404.267	-63.503	0.525	-0.218
-403.252	-200.000	-0.019	-0.114
-402.238	-80.103	-0.193	-0.065
-401.223	-200.000	-0.001	0.005
-400.209	-200.000	-0.001	0.284
-399.194	29.451	0.097	-0.083
-398.179	-109.193	-0.319	-0.068
-397.165	-114.020	0.250	-0.049
-396.150	-70.021	-0.204	0.078
-395.136	18.573	0.069	-0.056
-394.121	-52.998	-0.480	-0.223
-393.106	-12.857	-0.112	-0.074
-392.092	-157.692	0.065	-0.004
-391.077	-62.914	0.187	-0.078
-390.063	471.455	0.033	0.074
-389.048	135.067	-0.105	0.138
-388.033	-86.238	0.028	-0.009
-387.019	87.155	0.303	0.338
-386.004	5.884	0.286	0.214
-384.990	-106.642	-0.103	-0.023
-383.975	26.359	0.263	-0.222
-382.960	86.589	-0.042	-0.046
-381.946	117.240	0.155	-0.192
-380.931	-120.931	0.138	0.023
-379.917	-95.801	0.146	-0.039
-378.902	67.712	-0.180	-0.186
-377.888	-200.000	0.014	-0.183
-376.873	-27.907	0.095	-0.055
-375.858	-159.607	0.087	0.005
-374.844	186.258	0.116	-0.175
-373.829	-43.395	0.389	0.198
-372.815	-41.618	-0.380	-0.197
-371.800	800.000	-0.024	0.073
-370.785	-200.000	0.015	-0.157
-369.771	222.425	0.067	-0.109
-368.756	76.130	-0.123	-0.131
-367.742	61.986	0.143	0.144
-366.727	-200.000	-0.009	-0.051
-365.712	455.409	0.027	-0.061
-364.698	26.847	0.118	0.100
-363.683	-77.496	0.044	0.015
-362.669	65.064	0.114	-0.116
-361.654	174.812	0.180	0.262
-360.639	800.000	-0.037	0.151
-359.625	-131.218	0.113	-0.015
-358.610	138.712	0.166	0.220
-357.596	800.000	0.156	-0.441
-356.581	106.718	0.107	-0.128
-355.566	-29.292	-0.208	-0.120
-354.552	800.000	-0.071	0.269
-353.537	-167.237	-0.223	-0.009
-352.523	-143.531	0.271	-0.026
-351.508	800.000	-0.041	-0.115
-350.493	515.382	0.053	0.124
-349.479	-93.667	-0.236	0.066
-348.464	-15.007	0.098	0.064
-347.450	-200.000	-0.041	0.293
-346.435	418.264	-0.064	-0.139
-345.420	-200.000	0.008	0.063
-344.406	-142.858	-0.099	-0.010
-343.391	-71.365	0.164	-0.062
-342.377	-45.156	0.139	0.070
-341.362	81.672	0.019	-0.021
-340.348	-68.813	-0.229	0.089
-339.333	-109.295	0.276	-0.059
-338.318	-134.409	0.255	0.032
-337.304	-128.352	-0.226	0.032
-336.289	800.000	-0.033	0.113
-335.275	271.546	-0.071	0.127
-334.260	108.993	-0.103	0.124
-333.245	-37.064	0.235	-0.127
-332.231	-83.286	-0.013	0.004
-331.216	800.000	0.116	0.327
-330.202	129.125	0.158	0.203
-329.187	-143.917	-0.278	0.026
-328.172	-200.000	-0.015	-0.328
-327.158	82.354	-0.161	0.176
-326.143	-1.961	-0.457	-0.324
-325.129	99.854	0.214	-0.249
-324.114	800.000	0.096	-0.312
-323.099	-183.021	0.375	-0.007
-322.085	182.807	-0.040	0.059
-321.070	-113.008	0.217	-0.043
-320.056	26.033	0.074	-0.062
-319.041	25.206	-0.258	-0.216
-318.026	-200.000	-0.015	0.081
-317.012	-200.000	-0.029	0.140
-315.997	-98.165	0.120	0.031
-314.983	130.429	-0.182	0.235
-313.968	-58.098	-0.462	0.203
-312.953	89.602	-0.099	0.112
-311.939	-32.567	-0.113	0.063
-310.924	800.000	-0.018	-0.062
-309.910	800.000	0.057	-0.235
-308.895	420.333	-0.174	-0.375
-307.880	800.000	-0.040	0.130
-306.866	-56.844	-0.213	0.095
-305.851	-105.632	0.239	-0.054
-304.837	-200.000	-0.011	-0.085
-303.822	-19.789	-0.073	-0.045
-302.807	-21.463	-0.309	0.189
-301.793	-53.753	0.252	0.116
-300.778	142.963	0.173	0.232
-299.764	-200.000	0.003	0.121
-298.749	183.116	-0.122	0.181
-297.735	53.616	0.169	-0.164
-296.720	-178.235	-0.240	-0.006
-295.705	-156.204	-0.158	0.010
-294.691	229.145	0.088	-0.145
-293.676	16.644	0.177	0.140
-292.662	-35.693	-0.087	-0.048
-291.647	-200.000	-0.008	0.170
-290.632	63.080	-0.223	-0.225
-289.618	-200.000	-0.028	0.255
-288.603	-112.619	-0.102	-0.020
-287.589	-200.000	0.004	0.152
-286.574	26.306	-0.294	-0.247
-285.559	155.221	-0.106	-0.146
-284.545	473.818	0.092	-0.208
-283.530	260.721	-0.204	0.355
-282.516	176.507	-0.171	0.250
-281.501	-76.466	0.099	0.035
-280.486	-132.485	-0.269	0.035
-279.472	-200.000	0.021	0.171
-278.457	258.877	0.168	0.290
-277.443	800.000	0.067	0.267
-276.428	-200.000	0.005	-0.103
-275.413	44.374	0.151	0.140
-274.399	165.511	0.180	-0.256
-273.384	-200.000	-0.044	0.354
-272.370	58.221	-0.293	0.288
-271.355	64.973	-0.098	-0.100
-270.340	314.447	-0.081	0.154
-269.326	206.151	-0.040	0.063
-268.311	23.445	-0.273	0.226
-267.297	-200.000	0.017	-0.189
-266.282	-98.813	-0.237	0.061
-265.267	312.986	-0.126	0.238
-264.253	800.000	-0.091	0.364
-263.238	691.676	-0.049	-0.129
-262.224	-200.000	0.012	-0.206
-261.209	800.000	-0.083	-0.253
-260.195	41.813	-0.043	0.039
-259.180	-154.812	-0.343	0.023
-258.165	167.407	-0.065	-0.092
-257.151	30.888	0.291	-0.250
-256.136	-200.000	0.040	0.287
-255.122	800.000	0.075	-0.307
-254.107	-46.431	-0.395	0.195
-253.092	201.202	-0.131	-0.203
-252.078	487.391	-0.107	0.244
-251.063	31.964	-0.113	-0.097
-250.049	219.328	0.079	0.127
-249.034	712.440	0.131	-0.348
-248.019	-92.349	0.263	0.074
-247.005	-200.000	-0.004	0.132
-245.990	-128.145	0.153	-0.022
-244.976	23.467	-0.158	0.130
-243.961	-45.786	-0.035	-0.017
-242.946	-200.000	-0.005	0.191
-241.932	-200.000	0.163	0.000
-240.917	263.320	0.161	0.280
-239.903	29.249	0.127	-0.108
-238.888	42.699	0.104	-0.095
-237.873	17.731	0.192	0.153
-236.859	-94.212	0.161	-0.044
-235.844	256.001	-0.128	-0.221
-234.830	-4.493	0.269	0.186
-233.815	103.533	-0.069	-0.082
-232.800	-139.170	0.209	-0.023
-231.786	375.377	-0.124	0.254
-230.771	-74.164	-0.318	-0.115
-229.757	-170.779	0.229	-0.008
-228.742	39.938	-0.123	0.111
-227.727	-29.046	0.156	0.090
-226.713	30.985	0.134	0.115
-225.698	696.905	-0.128	-0.338
-224.684	-26.812	0.464	0.272
-223.669	221.691	0.180	-0.290
-222.655	-40.666	0.248	0.129
-221.640	-137.013	-0.309	-0.036
-220.625	-83.679	-0.218	0.070
-219.611	20.784	-0.301	0.244
-218.596	-200.000	-0.005	0.049
-217.582	-75.455	0.238	-0.085
-216.567	163.114	-0.045	0.064
-215.552	-123.357	-0.185	0.030
-214.538	-90.556	0.167	0.048
-213.523	621.687	0.035	0.087
-212.509	-111.710	-0.058	-0.012
-211.494	800.000	-0.013	0.056
-210.479	-181.777	-0.159	-0.003
-209.465	112.192	0.139	-0.168
-208.450	-160.374	-0.131	-0.007
-207.436	17.138	0.062	-0.050
-206.421	390.795	-0.160	-0.332
-205.406	213.991	-0.081	0.128
-204.392	65.608	0.211	0.214
-203.377	-79.532	0.310	-0.105
-202.363	-57.694	0.193	-0.085
-201.348	74.271	-0.084	-0.089
-200.333	-77.182	-0.355	0.124
-199.319	529.533	0.047	-0.110
-198.304	-126.151	-0.146	0.022
-197.290	618.498	-0.096	0.242
-196.275	-114.701	0.234	0.045
-195.260	-148.200	0.155	-0.013
-194.246	-200.000	-0.003	-0.160
-193.231	-84.798	0.217	-0.068
-192.217	-200.000	0.013	0.249
-191.202	118.650	-0.304	0.375
-190.187	56.801	0.227	-0.222
-189.173	800.000	0.068	0.214
-188.158	-200.000	-0.028	-0.158
-187.144	385.406	0.122	-0.253
-186.129	135.465	0.157	-0.205
-185.114	-11.277	0.066	-0.044
-184.100	87.783	0.202	-0.225
-183.085	-200.000	0.025	-0.290
-182.071	-15.601	0.268	0.171
-181.056	643.356	0.056	-0.142
-180.042	522.527	-0.075	0.177
-179.027	163.612	0.114	-0.160
-178.012	800.000	0.045	0.177
-176.998	800.000	0.104	0.331
-175.983	-113.787	0.217	0.042
-174.969	-162.524	0.097	-0.005
-173.954	800.000	-0.041	-0.130
-172.939	506.581	0.097	-0.225
-171.925	182.546	-0.091	-0.134
-170.910	800.000	-0.110	0.380
-169.896	-66.695	-0.272	0.108
-168.881	172.850	0.131	-0.188
-167.866	-100.400	-0.228	0.057
-166.852	-41.912	-0.156	-0.080
-165.837	646.809	0.034	0.087
-164.823	-184.990	0.464	-0.007
-163.808	800.000	0.013	0.040
-162.793	88.018	0.114	0.126
-161.779	127.466	0.172	-0.219
-160.764	-200.000	0.019	0.223
-159.750	271.654	0.017	-0.031
-158.735	-150.849	-0.070	0.005
-157.720	-200.000	0.049	0.283
-156.706	800.000	-0.071	-0.233
-155.691	-75.808	0.184	0.065
-154.677	800.000	0.090	-0.270
-153.662	-122.467	0.042	-0.007
-152.647	292.033	0.157	-0.286
-151.633	250.067	-0.279	-0.473
-150.618	11.332	0.125	0.096
-149.604	-60.882	0.271	-0.115
-148.589	-103.514	0.342	-0.081
-147.574	-134.113	-0.156	0.019
-146.560	-30.584	-0.188	-0.106
-145.545	23.272	-0.105	-0.086
-144.531	69.781	0.155	0.160
-143.516	255.685	-0.091	-0.157
-142.502	-140.064	0.187	-0.020
-141.487	256.016	0.058	-0.100
-140.472	-200.000	-0.025	-0.226
-139.458	411.104	0.055	0.117
-138.443	-9.161	-0.129	-0.086
-137.429	46.780	0.136	-0.127
-136.414	-59.050	0.136	-0.059
-135.399	386.602	0.116	-0.239
-134.385	-200.000	0.063	0.338
-133.370	-121.432	0.272	0.045
-132.356	-200.000	0.047	-0.230
-131.341	-25.034	-0.103	0.061
-130.326	-200.000	-0.024	0.163
-129.312	-138.998	0.149	-0.016
-128.297	-116.759	-0.332	-0.061
-127.283	-130.143	0.305	-0.042
-126.268	-110.144	0.146	0.031
-125.253	14.983	-0.044	-0.034
-124.239	65.062	-0.148	0.149
-123.224	-150.403	0.364	0.028
-122.210	379.368	0.058	-0.120
