DTS Sentinel unit serial number:	SN413079Multiplexer serial number:	ORYXHardware model number:	OX4-SRSoftware version number:	ORYX F/W v4.00 Oryx Data Collector v3.7.2.0data status	okinstallation	princeton_trtdifferential loss correction	single-endedforward channel	channel 1reverse channel	N/Adate	2019/09/16time	15:42:35forward acquisition time	60.00reverse acquisition time	0.00gamma	496.2192k internal	0.2293k external	0.2293temperature offset calibration	0.9953default loss term (dB/km)	0.3790temperature slope calibration	1.0000multiplexer offset coefficient	1.0000multiplexer slope coefficient	1.0000fibre end	0.00T internal ref (°C)	41.19T ext. ref 1 (°C)	14.77T ext. ref 2 (°C)	36.50length (m)	temperature (°C)	Stokes	anti-Stokes-747.200	-43.610	0.210	0.109
-746.185	-125.415	0.186	0.029
-745.171	-200.000	-0.006	-0.159
-744.156	800.000	-0.049	0.166
-743.142	308.694	0.169	0.323
-742.127	1.869	0.243	0.179
-741.112	216.495	-0.010	-0.016
-740.098	800.000	0.022	0.088
-739.083	756.988	-0.101	-0.280
-738.069	-29.501	-0.267	0.156
-737.054	-120.350	-0.310	0.054
-736.039	-73.470	-0.343	0.128
-735.025	-109.317	0.103	0.022
-734.010	-52.701	0.435	-0.205
-732.996	257.847	-0.169	-0.297
-731.981	-200.000	-0.015	0.127
-730.966	-200.000	0.013	-0.084
-729.952	22.297	0.017	0.014
-728.937	117.050	0.065	0.081
-727.923	-40.057	-0.133	-0.071
-726.908	112.251	-0.055	0.068
-725.894	-97.086	0.401	-0.107
-724.879	-200.000	0.041	-0.238
-723.864	800.000	0.061	-0.192
-722.850	81.642	0.064	-0.071
-721.835	624.234	-0.097	0.249
-720.821	-94.870	-0.140	0.039
-719.806	302.442	-0.062	-0.117
-718.791	4.115	-0.263	0.196
-717.777	-172.478	-0.535	0.017
-716.762	-153.187	0.180	-0.013
-715.748	-187.340	0.332	0.005
-714.733	-10.565	0.072	0.049
-713.718	-128.001	-0.098	0.014
-712.704	297.044	0.135	0.254
-711.689	800.000	0.053	-0.173
-710.675	5.229	-0.131	0.099
-709.660	-99.469	-0.153	-0.039
-708.645	380.977	0.048	-0.101
-707.631	369.401	0.116	-0.240
-706.616	-56.943	-0.126	-0.057
-705.602	-4.741	0.224	-0.158
-704.587	158.243	0.305	0.432
-703.572	-194.334	0.255	-0.002
-702.558	-200.000	0.005	-0.331
-701.543	-200.000	0.032	-0.185
-700.529	-37.748	0.149	0.081
-699.514	152.465	0.052	0.073
-698.499	800.000	-0.096	0.304
-697.485	-123.920	0.169	0.027
-696.470	800.000	-0.032	-0.093
-695.456	187.815	0.062	0.095
-694.441	126.431	-0.116	0.150
-693.426	39.478	0.504	-0.461
-692.412	-200.000	-0.056	-0.288
-691.397	419.198	0.208	-0.455
-690.383	800.000	-0.072	0.258
-689.368	-141.057	-0.365	0.038
-688.354	-166.242	0.237	-0.010
-687.339	278.251	0.192	-0.350
-686.324	-4.875	0.208	0.147
-685.310	-131.163	0.318	0.043
-684.295	8.887	0.229	-0.177
-683.281	800.000	0.030	0.129
-682.266	48.809	0.302	0.290
-681.251	161.695	0.206	0.295
-680.237	800.000	-0.158	0.529
-679.222	-200.000	-0.002	0.075
-678.208	-200.000	0.001	-0.219
-677.193	-26.048	0.051	0.031
-676.178	233.278	0.072	-0.121
-675.164	21.283	0.087	0.072
-674.149	800.000	0.031	-0.117
-673.135	-145.967	-0.195	0.018
-672.120	-69.999	0.257	-0.100
-671.105	215.442	0.055	-0.089
-670.091	-84.333	-0.408	0.132
-669.076	-25.172	-0.026	0.016
-668.062	-133.923	-0.203	-0.026
-667.047	-22.576	-0.136	0.084
-666.032	641.456	0.056	0.145
-665.018	-200.000	-0.068	0.304
-664.003	121.980	0.068	-0.086
-662.989	331.098	-0.136	-0.267
-661.974	-200.000	0.029	-0.204
-660.959	57.977	-0.307	-0.307
-659.945	195.571	0.259	0.401
-658.930	800.000	-0.123	0.347
-657.916	-52.356	-0.125	-0.059
-656.901	67.992	-0.117	-0.122
-655.886	800.000	0.078	0.252
-654.872	144.891	-0.111	-0.151
-653.857	800.000	-0.058	-0.185
-652.843	800.000	-0.106	-0.362
-651.828	-116.512	-0.199	-0.037
-650.814	637.707	-0.041	-0.105
-649.799	95.654	0.085	-0.099
-648.784	-163.678	0.204	0.010
-647.770	110.425	0.146	-0.178
-646.755	124.960	-0.089	0.114
-645.741	-157.043	-0.420	-0.026
-644.726	148.429	-0.214	-0.294
-643.711	-51.934	-0.296	-0.140
-642.697	800.000	0.054	0.184
-641.682	-200.000	0.045	-0.315
-640.668	-140.157	0.183	0.020
-639.653	77.029	0.340	0.368
-638.638	-8.391	-0.261	0.179
-637.624	460.211	0.071	0.162
-636.609	-62.529	-0.228	-0.097
-635.595	800.000	0.079	0.302
-634.580	-48.581	0.394	-0.193
-633.565	9.259	-0.184	-0.142
-632.551	-183.767	0.336	-0.006
-631.536	-127.808	-0.227	0.033
-630.522	75.427	-0.164	-0.177
-629.507	14.250	0.177	-0.140
-628.492	180.278	-0.071	0.106
-627.478	24.122	-0.162	-0.136
-626.463	130.682	0.113	-0.147
-625.449	-14.178	0.120	-0.079
-624.434	-200.000	-0.060	0.280
-623.419	-70.067	-0.172	-0.067
-622.405	-60.873	-0.226	0.097
-621.390	37.561	-0.146	-0.132
-620.376	-91.951	-0.283	0.082
-619.361	-87.681	0.212	-0.065
-618.346	800.000	-0.060	-0.210
-617.332	-86.963	0.118	-0.037
-616.317	-87.862	-0.209	0.064
-615.303	-127.355	-0.072	-0.011
-614.288	800.000	-0.046	-0.187
-613.273	-61.338	0.081	0.035
-612.259	166.094	-0.130	-0.188
-611.244	-46.758	-0.192	0.095
-610.230	282.797	0.152	-0.278
-609.215	220.500	0.138	-0.224
-608.201	140.250	-0.220	0.295
-607.186	-12.453	-0.399	-0.265
-606.171	595.433	-0.096	0.242
-605.157	268.986	0.166	0.296
-604.142	-57.247	-0.187	-0.084
-603.128	178.083	-0.213	0.316
-602.113	-59.903	0.057	-0.025
-601.098	-38.464	-0.043	-0.023
-600.084	146.616	-0.169	0.231
-599.069	800.000	0.059	-0.185
-598.055	-88.926	0.374	0.113
-597.040	257.866	-0.065	-0.113
-596.025	530.949	0.092	-0.222
-595.011	-38.527	0.036	-0.020
-593.996	612.790	0.052	0.133
-592.982	800.000	-0.093	0.299
-591.967	208.283	0.128	0.203
-590.952	-35.522	0.122	0.067
-589.938	800.000	0.135	-0.383
-588.923	398.810	-0.110	-0.233
-587.909	-200.000	-0.011	-0.167
-586.894	-24.290	0.264	-0.160
-585.879	168.612	0.127	-0.185
-584.865	407.803	0.075	0.161
-583.850	-2.377	-0.190	0.135
-582.836	28.280	-0.054	0.047
-581.821	-200.000	-0.023	0.263
-580.806	-147.401	0.279	0.024
-579.792	-28.099	0.160	0.094
-578.777	-200.000	-0.057	0.350
-577.763	36.915	-0.174	0.156
-576.748	-149.954	-0.144	0.011
-575.733	8.721	0.240	-0.184
-574.719	-200.000	-0.140	0.001
-573.704	475.750	-0.162	0.372
-572.690	-122.363	0.131	0.022
-571.675	-102.694	-0.072	0.017
-570.661	-25.436	0.141	0.084
-569.646	-200.000	0.025	-0.114
-568.631	74.086	0.078	0.083
-567.617	-67.425	0.129	-0.052
-566.602	-174.829	0.114	-0.003
-565.588	-55.437	0.050	-0.023
-564.573	81.999	-0.208	0.229
-563.558	15.122	0.309	0.246
-562.544	797.533	-0.035	-0.098
-561.529	314.095	0.088	0.168
-560.515	-156.370	-0.131	0.008
-559.500	-200.000	-0.052	0.330
-558.485	5.255	0.170	-0.127
-557.471	-71.876	0.144	0.054
-556.456	581.945	-0.149	-0.371
-555.442	-51.883	-0.164	-0.078
-554.427	-13.734	-0.125	0.082
-553.412	68.938	-0.201	0.210
-552.398	2.916	-0.218	0.161
-551.383	-82.439	-0.094	0.031
-550.369	24.519	0.087	0.074
-549.354	492.605	-0.188	0.436
-548.339	800.000	0.113	0.376
-547.325	178.038	0.111	0.164
-546.310	51.935	0.220	0.213
-545.296	-147.357	0.174	0.015
-544.281	427.411	-0.101	0.221
-543.266	-200.000	0.012	0.114
-542.252	178.269	0.139	-0.206
-541.237	18.599	-0.112	0.091
-540.223	-177.707	0.097	0.002
-539.208	-157.132	-0.128	-0.008
-538.193	377.448	0.079	0.164
-537.179	-117.003	-0.256	-0.047
-536.164	-200.000	0.016	0.478
-535.150	800.000	-0.076	0.254
-534.135	-200.000	-0.050	0.307
-533.121	-91.355	0.122	-0.035
-532.106	-27.465	-0.284	0.168
-531.091	-38.918	-0.396	-0.212
-530.077	-172.036	0.037	0.001
-529.062	-68.242	-0.084	0.033
-528.048	-30.975	-0.095	-0.054
-527.033	127.489	-0.204	-0.263
-526.018	676.328	0.095	-0.249
-525.004	8.787	0.278	0.213
-523.989	-75.235	0.176	0.064
-522.975	-200.000	0.048	0.255
-521.960	-155.630	0.157	-0.010
-520.945	-85.031	-0.162	0.051
-519.931	-200.000	0.028	0.171
-518.916	-184.535	-0.134	0.002
-517.902	-54.491	-0.479	-0.220
-516.887	-68.130	-0.068	-0.027
-515.872	-200.000	-0.001	-0.073
-514.858	-108.908	-0.265	-0.057
-513.843	659.418	0.089	0.232
-512.829	107.584	0.058	-0.070
-511.814	-11.716	0.192	0.128
-510.799	-37.613	0.080	0.043
-509.785	545.141	0.051	0.124
-508.770	197.302	-0.142	-0.219
-507.756	-148.884	-0.060	-0.005
-506.741	22.029	0.185	-0.153
-505.726	-58.640	0.256	0.113
-504.712	40.359	0.225	-0.205
-503.697	-200.000	0.089	-0.498
-502.683	800.000	0.061	-0.242
-501.668	-112.562	-0.311	0.063
-500.653	-150.626	0.224	0.017
-499.639	-194.657	0.277	-0.002
-498.624	-200.000	-0.005	-0.412
-497.610	-161.829	0.303	-0.016
-496.595	-143.862	-0.281	0.027
-495.581	-25.742	-0.186	0.111
-494.566	-82.122	-0.331	-0.109
-493.551	800.000	0.033	0.144
-492.537	83.211	0.062	-0.069
-491.522	-200.000	0.007	0.195
-490.508	-69.665	-0.325	0.126
-489.493	-200.000	-0.004	-0.033
-488.478	-200.000	-0.010	-0.231
-487.464	73.527	0.187	-0.198
-486.449	151.936	0.086	0.118
-485.435	315.539	-0.099	-0.189
-484.420	-84.336	-0.261	-0.084
-483.405	424.805	-0.066	-0.145
-482.391	302.393	-0.032	0.060
-481.376	-99.548	-0.128	0.033
-480.362	800.000	0.040	0.114
-479.347	149.547	0.165	0.226
-478.332	27.275	-0.136	-0.116
-477.318	800.000	0.071	0.257
-476.303	-29.022	-0.154	-0.089
-475.289	81.099	-0.091	0.100
-474.274	153.695	-0.225	0.312
-473.259	-62.354	-0.229	-0.097
-472.245	-114.286	-0.162	-0.032
-471.230	33.578	0.161	0.142
-470.216	-44.419	-0.160	0.081
-469.201	-81.049	0.201	0.067
-468.186	-200.000	0.030	0.139
-467.172	-59.401	0.201	0.087
-466.157	27.050	-0.100	-0.085
-465.143	603.591	-0.027	0.069
-464.128	271.471	-0.109	-0.194
-463.113	1.783	-0.398	-0.291
-462.099	137.299	0.287	0.380
-461.084	125.224	-0.034	0.044
-460.070	-138.187	-0.293	-0.033
-459.055	266.483	0.059	0.105
-458.040	-200.000	-0.063	-0.000
-457.026	-119.861	0.120	0.021
-456.011	349.334	-0.088	0.176
-454.997	231.097	-0.153	-0.253
-453.982	57.024	0.137	-0.135
-452.968	-200.000	0.013	0.066
-451.953	-200.000	0.001	-0.197
-450.938	125.299	-0.010	0.013
-449.924	488.648	0.137	0.316
-448.909	13.062	0.062	0.048
-447.895	-178.301	0.030	0.001
-446.880	800.000	0.044	-0.170
-445.865	800.000	0.039	-0.165
-444.851	-200.000	-0.022	-0.161
-443.836	175.322	-0.041	-0.060
-442.822	-0.223	0.242	-0.174
-441.807	531.096	-0.052	0.123
-440.792	-164.924	-0.239	-0.011
-439.778	-99.732	-0.094	-0.024
-438.763	-81.711	-0.132	0.044
-437.749	-89.066	-0.056	-0.017
-436.734	153.877	-0.148	0.205
-435.719	2.316	0.273	-0.199
-434.705	-108.122	-0.070	0.015
-433.690	-104.248	0.213	-0.050
-432.676	583.416	0.055	-0.137
-431.661	-85.029	-0.124	-0.039
-430.646	-27.606	-0.207	-0.121
-429.632	-104.013	0.291	-0.069
-428.617	19.300	-0.221	-0.180
-427.603	-200.000	-0.010	-0.276
-426.588	-98.260	0.159	-0.041
-425.573	800.000	0.121	0.383
-424.559	-93.357	0.420	0.118
-423.544	179.412	0.237	0.351
-422.530	-200.000	-0.004	-0.438
-421.515	-72.589	-0.250	-0.093
-420.500	-43.722	-0.151	0.077
-419.486	-19.723	0.075	0.047
-418.471	10.678	-0.235	0.181
-417.457	-29.855	0.368	0.212
-416.442	102.927	-0.191	-0.226
-415.428	45.296	-0.322	-0.300
-414.413	73.809	0.010	0.010
-413.398	800.000	0.032	0.092
-412.384	69.194	0.164	0.171
-411.369	-200.000	0.001	-0.131
-410.355	63.498	-0.115	0.116
-409.340	-187.938	-0.172	-0.002
-408.325	140.592	0.012	0.016
-407.311	-148.798	0.220	-0.018
-406.296	-120.024	-0.201	0.035
-405.282	-129.357	0.392	-0.055
-404.267	70.005	0.169	0.176
-403.252	154.745	-0.095	0.132
-402.238	61.035	-0.164	0.164
-401.223	134.546	0.126	-0.165
-400.209	800.000	0.030	-0.100
-399.194	-35.471	0.190	-0.104
-398.179	-104.463	0.004	-0.001
-397.165	-200.000	0.012	-0.128
-396.150	80.147	0.320	-0.347
-395.136	-95.694	0.227	-0.061
-394.121	693.432	-0.026	0.068
-393.106	92.717	-0.166	0.189
-392.092	57.809	0.063	-0.063
-391.077	800.000	0.137	0.439
-390.063	-132.876	-0.113	0.015
-389.048	230.449	0.126	-0.209
-388.033	202.922	0.086	-0.135
-387.019	800.000	0.038	-0.124
-386.004	5.904	0.078	0.058
-384.990	-71.275	-0.077	0.029
-383.975	-149.248	0.184	0.015
-382.960	-32.190	0.224	0.126
-381.946	-200.000	-0.030	-0.269
-380.931	-191.160	-0.312	0.003
-379.917	-109.499	0.370	0.079
-378.902	182.967	-0.134	0.200
-377.888	172.886	-0.076	0.110
-376.873	38.580	0.144	0.129
-375.858	0.312	0.176	-0.126
-374.844	-4.005	-0.183	-0.128
-373.829	63.315	-0.072	0.072
-372.815	-137.311	0.163	0.019
-371.800	360.397	0.065	-0.131
-370.785	200.387	0.068	0.105
-369.771	-44.848	-0.123	0.062
-368.756	-74.271	0.241	0.088
-367.742	126.015	0.068	0.087
-366.727	-73.073	0.066	0.024
-365.712	-71.561	-0.183	-0.069
-364.698	306.131	-0.050	-0.094
-363.683	-113.392	-0.164	-0.032
-362.669	562.343	0.180	0.438
-361.654	266.757	-0.090	-0.159
-360.639	-88.167	0.453	-0.137
-359.625	767.746	0.099	-0.271
-358.610	36.182	-0.340	0.302
-357.596	-200.000	0.005	0.153
-356.581	-142.989	0.096	0.009
-355.566	-15.441	0.269	-0.173
-354.552	527.703	-0.149	0.355
-353.537	-45.012	-0.005	-0.003
-352.523	-42.992	0.254	-0.130
-351.508	71.834	-0.274	-0.287
-350.493	-36.925	-0.516	-0.279
-349.479	-200.000	-0.034	-0.176
-348.464	-36.258	0.119	-0.064
-347.450	-59.258	0.187	-0.081
-346.435	-116.860	-0.246	-0.045
-345.420	-16.798	-0.254	-0.162
-344.406	-67.864	0.245	-0.097
-343.391	369.370	0.081	-0.166
-342.377	-96.843	-0.170	-0.045
-341.362	426.327	0.160	0.348
-340.348	342.768	0.131	0.259
-339.333	151.018	-0.184	0.252
-338.318	37.120	-0.059	0.053
-337.304	-82.876	-0.254	-0.083
-336.289	-163.787	-0.440	0.021
-335.275	88.579	0.140	0.157
-334.260	-1.991	0.159	0.112
-333.245	105.285	-0.279	0.332
-332.231	-151.013	0.144	0.011
-331.216	-38.699	0.097	0.051
-330.202	-21.046	0.048	0.030
-329.187	114.301	0.033	-0.041
-328.172	162.856	0.051	0.072
-327.158	-22.260	0.255	-0.155
-326.143	29.826	-0.099	-0.085
-325.129	18.397	-0.114	-0.091
-324.114	-68.114	-0.223	0.087
-323.099	-3.341	-0.059	0.041
-322.085	-200.000	-0.033	-0.244
-321.070	17.199	-0.241	-0.192
-320.056	176.674	0.108	-0.158
-319.041	-62.741	-0.122	0.051
-318.026	-111.175	0.268	0.055
-317.012	-200.000	0.017	0.282
-315.997	-179.995	-0.103	0.002
-314.983	230.851	0.083	-0.137
-313.968	50.444	0.103	-0.098
-312.953	-119.301	0.325	0.057
-311.939	-56.301	-0.200	0.090
-310.924	312.198	0.097	-0.183
-309.910	-180.465	-0.127	0.003
-308.895	-200.000	0.061	-0.390
-307.880	-22.185	0.111	-0.068
-306.866	288.115	0.099	0.180
-305.851	-2.725	-0.245	0.172
-304.837	-200.000	-0.010	0.067
-303.822	770.426	-0.010	0.027
-302.807	101.408	-0.221	-0.259
-301.793	-200.000	0.032	-0.147
-300.778	85.813	-0.111	-0.123
-299.764	-170.758	0.411	0.014
-298.749	101.959	0.119	0.139
-297.735	800.000	-0.088	-0.291
-296.720	-100.713	0.187	-0.046
-295.705	-68.706	-0.293	0.114
-294.691	-69.566	0.172	-0.066
-293.676	54.079	-0.202	-0.195
-292.662	195.149	-0.096	-0.147
-291.647	104.131	-0.013	-0.015
-290.632	-112.304	0.192	0.039
-289.618	-69.970	0.254	-0.097
-288.603	800.000	-0.112	-0.421
-287.589	325.408	0.058	-0.112
-286.574	-59.574	0.026	-0.011
-285.559	-110.407	0.234	-0.049
-284.545	38.317	0.359	0.321
-283.530	251.997	0.215	-0.367
-282.516	-15.436	-0.141	0.090
-281.501	-88.819	0.277	-0.083
-280.486	-88.515	-0.118	0.035
-279.472	333.597	0.139	0.269
-278.457	8.684	-0.141	0.107
-277.443	-30.090	-0.306	-0.175
-276.428	49.664	-0.152	-0.144
-275.413	83.549	0.137	0.150
-274.399	-134.436	0.261	0.032
-273.384	223.603	-0.195	0.317
-272.370	-200.000	-0.028	-0.271
-271.355	121.295	-0.165	-0.207
-270.340	26.139	-0.273	0.229
-269.326	-105.464	-0.275	-0.063
-268.311	-93.670	0.250	-0.069
-267.297	88.579	-0.056	-0.063
-266.282	-93.304	-0.222	0.062
-265.267	-21.724	0.136	-0.083
-264.253	-200.000	-0.023	-0.364
-263.238	-11.329	-0.161	-0.106
-262.224	-162.581	0.048	0.002
-261.209	40.892	-0.123	-0.112
-260.195	-13.423	0.168	-0.110
-259.180	-19.134	-0.075	-0.046
-258.165	133.243	-0.331	-0.429
-257.151	-23.776	0.153	-0.092
-256.136	-50.765	-0.050	0.023
-255.122	-96.808	-0.195	0.051
-254.107	152.012	0.064	0.087
-253.092	-59.393	-0.173	-0.075
-252.078	-84.252	0.235	0.075
-251.063	-200.000	0.051	0.370
-250.049	227.670	0.158	0.258
-249.034	-71.382	-0.119	-0.045
-248.019	338.530	-0.043	0.083
-247.005	-113.884	0.320	0.062
-245.990	185.290	-0.114	0.169
-244.976	-41.111	0.146	-0.075
-243.961	162.005	-0.066	-0.093
-242.946	78.105	-0.132	0.141
-241.932	780.890	-0.086	0.235
-240.917	-64.219	-0.154	0.063
-239.903	-91.646	-0.313	-0.089
-238.888	15.874	-0.280	0.221
-237.873	266.330	-0.158	-0.277
-236.859	-169.403	0.029	-0.001
-235.844	-200.000	0.005	-0.037
-234.830	189.189	0.076	-0.115
-233.815	164.553	0.095	0.135
-232.800	-117.858	0.209	0.038
-231.786	800.000	0.026	-0.078
-230.771	-21.364	0.374	-0.229
-229.757	-53.062	0.246	0.113
-228.742	800.000	0.019	-0.061
-227.727	404.574	0.060	0.127
-226.713	313.511	-0.101	-0.191
-225.698	89.257	0.100	-0.111
-224.684	50.959	-0.278	-0.264
-223.669	5.154	0.152	0.112
-222.655	-105.261	0.202	0.046
-221.640	-142.312	0.048	-0.005
-220.625	-200.000	-0.059	0.272
-219.611	483.373	-0.091	0.207
-218.596	-200.000	0.024	0.129
-217.582	-145.728	-0.141	0.013
-216.567	22.955	0.197	0.162
-215.552	93.373	0.068	-0.077
-214.538	100.687	0.141	-0.164
-213.523	69.252	-0.213	-0.219
-212.509	-68.513	-0.123	-0.048
-211.494	800.000	0.060	-0.193
-210.479	162.233	0.182	-0.256
-209.465	268.519	0.175	0.308
-208.450	-175.570	0.168	0.005
-207.436	-130.565	0.202	0.027
-206.421	133.843	-0.162	-0.211
-205.406	-47.260	-0.191	-0.093
-204.392	-200.000	0.022	0.156
-203.377	-25.925	-0.063	0.037
-202.363	-200.000	0.056	-0.343
-201.348	109.226	-0.217	0.260
-200.333	-200.000	0.032	-0.171
-199.319	800.000	0.147	0.415
-198.304	507.929	0.082	0.191
-197.290	-133.882	0.211	0.026
-196.275	-161.327	0.049	-0.003
-195.260	86.614	0.229	0.253
-194.246	-42.877	-0.157	-0.080
-193.231	279.696	-0.058	-0.103
-192.217	405.439	0.081	0.171
-191.202	-171.996	-0.375	0.012
-190.187	800.000	0.059	0.180
-189.173	-21.154	0.271	0.166
-188.158	-68.565	-0.311	0.121
-187.144	-35.771	-0.093	-0.050
-186.129	-200.000	-0.031	-0.350
-185.114	117.957	0.128	0.158
-184.100	-113.104	0.167	-0.033
-183.085	-5.194	-0.209	0.144
-182.071	-69.372	0.296	0.114
-181.056	-115.261	-0.064	-0.012
-180.042	95.484	-0.172	0.196
-179.027	8.907	-0.186	0.141
-178.012	-134.354	-0.281	-0.034
-176.998	-78.157	0.137	0.047
-175.983	-200.000	0.026	-0.390
-174.969	-200.000	-0.015	-0.244
-173.954	-139.517	0.240	-0.026
-172.939	738.598	0.117	0.315
-171.925	-76.417	-0.304	-0.107
-170.910	-200.000	-0.043	-0.369
-169.896	-200.000	0.011	-0.188
-168.881	576.514	-0.089	-0.218
-167.866	800.000	-0.035	-0.152
-166.852	224.181	-0.046	-0.074
-165.837	195.193	-0.008	-0.012
-164.823	-200.000	-0.007	-0.140
-163.808	83.277	0.137	-0.149
-162.793	73.455	-0.095	-0.100
-161.779	-83.839	0.157	-0.050
-160.764	169.162	-0.051	0.073
-159.750	-127.282	0.401	0.058
-158.735	-141.007	0.139	0.014
-157.720	-61.362	-0.073	0.031
-156.706	-62.599	-0.095	0.039
-155.691	-121.017	0.323	-0.054
-154.677	-76.574	0.335	-0.117
-153.662	-200.000	0.001	-0.007
-152.647	-25.622	-0.137	-0.081
-151.633	160.679	0.257	0.359
-150.618	-200.000	-0.048	0.234
-149.604	-200.000	0.010	-0.321
-148.589	-18.103	-0.251	-0.157
-147.574	-14.224	-0.340	-0.219
-146.560	43.652	0.089	0.081
-145.545	-16.046	0.202	0.128
-144.531	-200.000	-0.012	-0.240
-143.516	-20.599	0.329	-0.202
-142.502	-200.000	-0.009	-0.064
-141.487	-29.228	-0.189	-0.108
-140.472	-200.000	-0.035	-0.249
-139.458	800.000	0.043	0.136
-138.443	-122.712	-0.693	0.112
-137.429	-47.786	0.218	0.105
-136.414	-28.629	-0.159	-0.091
-135.399	-1.495	-0.178	0.125
-134.385	800.000	-0.103	0.409
-133.370	533.685	-0.059	0.140
-132.356	-134.144	-0.026	-0.003
-131.341	-55.255	-0.147	0.066
-130.326	-82.215	-0.141	0.046
-129.312	-147.807	0.380	0.032
-128.297	32.582	-0.178	0.154
-127.283	217.193	0.072	-0.115
-126.268	-200.000	-0.035	0.322
-125.253	-92.962	-0.224	0.062
-124.239	220.554	0.072	0.115
-123.224	772.165	0.043	0.118
-122.210	-200.000	0.251	-0.000
-121.195	386.513	-0.123	0.254
-120.180	25.434	0.182	-0.151
