DTS Sentinel unit serial number:	SN413079Multiplexer serial number:	ORYXHardware model number:	OX4-SRSoftware version number:	ORYX F/W v4.00 Oryx Data Collector v3.7.2.0data status	okinstallation	princeton_trtdifferential loss correction	single-endedforward channel	channel 1reverse channel	N/Adate	2019/09/15time	08:58:35forward acquisition time	60.00reverse acquisition time	0.00gamma	496.2192k internal	0.2315k external	0.2315temperature offset calibration	0.9984default loss term (dB/km)	0.3790temperature slope calibration	1.0000multiplexer offset coefficient	1.0000multiplexer slope coefficient	1.0000fibre end	0.00T internal ref (°C)	32.69T ext. ref 1 (°C)	4.98T ext. ref 2 (°C)	29.68length (m)	temperature (°C)	Stokes	anti-Stokes-747.200	-200.000	0.018	0.152
-746.185	-11.916	-0.049	0.033
-745.171	107.854	0.270	0.327
-744.156	-99.444	-0.151	0.039
-743.142	-118.046	-0.294	-0.053
-742.127	-44.389	-0.216	0.110
-741.112	-62.021	-0.240	0.102
-740.098	614.882	-0.017	-0.044
-739.083	-16.994	0.456	0.292
-738.069	-21.168	0.487	0.302
-737.054	-200.000	-0.009	0.062
-736.039	-171.790	-0.368	-0.012
-735.025	48.081	-0.158	0.150
-734.010	201.803	-0.059	-0.092
-732.996	-200.000	-0.036	-0.203
-731.981	62.210	-0.299	-0.302
-730.966	-6.890	-0.152	0.104
-729.952	87.038	-0.032	-0.036
-728.937	364.463	0.043	-0.088
-727.923	-40.602	-0.215	0.113
-726.908	-58.681	-0.312	0.137
-725.894	588.982	-0.112	0.279
-724.879	-145.430	-0.305	0.028
-723.864	378.462	-0.007	0.016
-722.850	-105.107	-0.314	0.073
-721.835	510.765	-0.152	0.359
-720.821	209.448	-0.175	0.277
-719.806	-96.668	-0.291	-0.078
-718.791	-44.512	-0.141	0.071
-717.777	-136.295	0.114	0.013
-716.762	-66.877	-0.137	0.055
-715.748	-63.991	-0.218	-0.090
-714.733	-133.844	0.097	-0.012
-713.718	171.016	0.091	-0.133
-712.704	-72.431	0.108	-0.040
-711.689	-34.145	0.059	0.033
-710.675	173.234	-0.134	0.195
-709.660	443.642	0.061	0.134
-708.645	-200.000	-0.040	0.299
-707.631	-29.661	-0.141	0.081
-706.616	130.852	0.083	-0.107
-705.602	-200.000	-0.029	-0.312
-704.587	284.891	-0.061	0.111
-703.572	-11.598	-0.247	-0.164
-702.558	-18.425	-0.180	-0.114
-701.543	-163.847	-0.280	-0.013
-700.529	-152.830	-0.518	0.037
-699.514	800.000	0.097	0.360
-698.499	-200.000	0.051	0.310
-697.485	6.877	-0.272	0.205
-696.470	800.000	0.036	-0.107
-695.456	120.015	0.041	0.051
-694.441	71.741	-0.180	-0.190
-693.426	350.658	-0.073	-0.146
-692.412	622.770	-0.041	0.103
-691.397	-132.363	-0.162	0.021
-690.383	-80.665	0.285	-0.096
-689.368	2.704	0.246	-0.180
-688.354	-200.000	-0.024	-0.180
-687.339	800.000	-0.041	-0.124
-686.324	-200.000	-0.002	0.246
-685.310	-200.000	-0.015	0.426
-684.295	-118.722	0.145	0.026
-683.281	-200.000	-0.041	0.405
-682.266	612.782	-0.082	-0.209
-681.251	506.036	0.086	0.201
-680.237	-1.009	0.069	-0.049
-679.222	138.095	-0.013	-0.017
-678.208	-48.312	-0.487	0.238
-677.193	194.442	0.025	0.038
-676.178	32.038	-0.383	-0.334
-675.164	-116.888	0.242	0.045
-674.149	-187.186	0.059	0.001
-673.135	168.450	-0.065	-0.094
-672.120	65.052	0.038	0.038
-671.105	-87.262	-0.210	0.064
-670.091	-200.000	0.001	-0.217
-669.076	201.703	-0.117	0.183
-668.062	15.601	0.232	-0.185
-667.047	-137.768	0.159	0.018
-666.032	269.092	0.043	0.076
-665.018	-89.001	-0.189	0.056
-664.003	-126.880	0.163	-0.024
-662.989	132.753	-0.075	0.098
-661.974	-110.991	-0.328	-0.068
-660.959	-77.835	0.297	-0.104
-659.945	-200.000	0.082	-0.446
-658.930	-200.000	0.006	0.170
-657.916	-200.000	-0.002	-0.184
-656.901	-49.193	-0.301	-0.145
-655.886	800.000	-0.122	-0.382
-654.872	-200.000	-0.039	0.352
-653.857	-94.020	-0.169	-0.047
-652.843	60.094	-0.189	-0.189
-651.828	-41.054	0.030	0.016
-650.814	-115.295	-0.298	-0.057
-649.799	-200.000	0.010	-0.366
-648.784	-200.000	-0.010	-0.143
-647.770	800.000	0.029	-0.093
-646.755	-54.297	-0.244	0.112
-645.741	-63.897	0.212	-0.088
-644.726	-8.742	0.061	-0.041
-643.711	-122.436	0.156	-0.026
-642.697	190.210	-0.087	0.133
-641.682	800.000	-0.030	0.120
-640.668	-200.000	0.001	0.285
-639.653	-200.000	-0.051	0.255
-638.638	4.882	-0.262	-0.195
-637.624	800.000	-0.031	-0.133
-636.609	240.232	-0.112	-0.189
-635.595	65.614	-0.025	0.025
-634.580	800.000	-0.090	0.348
-633.565	-121.792	0.119	0.020
-632.551	-161.441	-0.147	0.008
-631.536	-200.000	-0.006	-0.296
-630.522	369.696	-0.005	-0.009
-629.507	-200.000	0.081	-0.406
-628.492	5.632	0.075	0.056
-627.478	-193.048	-0.271	-0.002
-626.463	800.000	-0.053	-0.175
-625.449	-32.066	-0.271	-0.153
-624.434	174.854	0.044	-0.065
-623.419	-117.308	-0.303	0.056
-622.405	-103.072	-0.199	-0.048
-621.390	-200.000	0.043	0.219
-620.376	1.855	-0.167	0.121
-619.361	-53.787	0.189	-0.087
-618.346	502.058	0.172	-0.401
-617.332	800.000	-0.021	-0.064
-616.317	213.250	-0.047	0.075
-615.303	-130.139	-0.606	0.083
-614.288	-200.000	-0.073	0.525
-613.273	-76.364	0.152	0.054
-612.259	272.592	-0.096	0.171
-611.244	610.648	0.060	-0.150
-610.230	-90.501	0.340	-0.099
-609.215	-7.353	0.200	-0.137
-608.201	244.363	-0.084	-0.142
-607.186	83.277	0.040	0.044
-606.171	-18.169	0.148	-0.093
-605.157	104.225	0.170	0.202
-604.142	132.162	0.130	0.169
-603.128	-42.660	-0.029	-0.015
-602.113	5.801	0.237	0.176
-601.098	-200.000	0.027	-0.175
-600.084	108.535	0.242	0.291
-599.069	-45.826	-0.328	-0.163
-598.055	26.765	-0.144	-0.122
-597.040	-200.000	-0.017	0.152
-596.025	800.000	-0.038	0.135
-595.011	28.649	0.268	-0.229
-593.996	-47.502	0.099	-0.049
-592.982	-118.635	-0.198	-0.035
-591.967	-38.068	-0.128	-0.069
-590.952	-46.182	0.129	0.064
-589.938	-82.303	-0.086	0.028
-588.923	-200.000	0.046	-0.202
-587.909	-200.000	-0.020	-0.200
-586.894	-2.930	0.058	0.041
-585.879	-200.000	-0.021	0.135
-584.865	-200.000	0.012	0.084
-583.850	-200.000	0.011	-0.076
-582.836	35.418	-0.081	0.071
-581.821	-200.000	-0.055	-0.279
-580.806	-1.378	-0.162	0.115
-579.792	215.291	0.137	0.219
-578.777	-52.313	-0.082	-0.038
-577.763	-42.977	-0.157	-0.080
-576.748	800.000	-0.030	-0.091
-575.733	9.150	0.079	-0.060
-574.719	130.868	0.031	0.040
-573.704	-136.550	-0.132	0.015
-572.690	-200.000	-0.033	0.154
-571.675	118.363	-0.205	-0.255
-570.661	-4.786	0.235	0.163
-569.646	131.457	0.153	0.198
-568.631	-175.991	0.292	0.008
-567.617	4.678	-0.080	-0.059
-566.602	-0.724	0.100	-0.072
-565.588	97.009	-0.177	0.204
-564.573	-11.947	0.128	-0.085
-563.558	-56.020	-0.137	-0.061
-562.544	235.370	-0.133	0.220
-561.529	279.278	0.030	0.054
-560.515	-108.122	0.132	0.029
-559.500	-200.000	-0.037	0.221
-558.485	800.000	-0.091	0.281
-557.471	-118.629	0.306	0.054
-556.456	-85.017	-0.180	-0.057
-555.442	-200.000	0.001	-0.023
-554.427	-82.225	0.210	-0.069
-553.412	141.309	-0.075	-0.100
-552.398	-69.177	0.287	0.111
-551.383	3.663	-0.269	0.197
-550.369	-147.118	0.234	-0.020
-549.354	-61.227	0.437	0.185
-548.339	-73.981	-0.195	-0.071
-547.325	187.115	0.110	-0.165
-546.310	-153.081	-0.150	0.011
-545.296	-200.000	0.069	0.355
-544.281	201.811	-0.146	0.226
-543.266	-60.854	-0.241	-0.103
-542.252	450.419	-0.036	-0.079
-541.237	247.775	0.070	0.119
-540.223	-112.735	0.270	-0.054
-539.208	800.000	0.030	0.091
-538.193	755.287	0.064	-0.174
-537.179	57.428	-0.207	-0.203
-536.164	-81.240	-0.322	0.107
-535.150	-104.182	-0.072	0.017
-534.135	-102.385	0.050	-0.012
-533.121	11.829	-0.256	0.198
-532.106	40.228	-0.209	0.189
-531.091	38.373	0.040	0.035
-530.077	-54.128	0.114	0.052
-529.062	762.659	-0.087	-0.236
-528.048	800.000	-0.063	-0.267
-527.033	-109.537	0.065	0.014
-526.018	-159.400	-0.226	-0.013
-525.004	-36.562	-0.296	-0.160
-523.989	-43.760	0.275	0.139
-522.975	58.961	0.140	-0.139
-521.960	800.000	-0.058	0.222
-520.945	-148.689	0.215	0.018
-519.931	-117.665	-0.104	-0.019
-518.916	-140.919	0.270	0.028
-517.902	-80.924	-0.054	0.018
-516.887	-82.131	0.136	0.044
-515.872	471.833	0.143	-0.324
-514.858	-130.699	-0.280	-0.038
-513.843	-88.365	-0.036	-0.011
-512.829	22.470	0.119	0.098
-511.814	-84.247	0.267	-0.085
-510.799	-1.700	-0.272	-0.193
-509.785	76.145	0.118	-0.126
-508.770	389.566	0.118	-0.245
-507.756	-110.707	0.198	0.041
-506.741	-77.886	-0.338	-0.117
-505.726	731.063	0.095	-0.255
-504.712	40.107	-0.086	-0.077
-503.697	-65.449	0.308	0.124
-502.683	-200.000	-0.001	0.032
-501.668	179.144	0.091	0.134
-500.653	-200.000	-0.032	-0.147
-499.639	-103.342	-0.349	-0.083
-498.624	83.043	-0.065	0.071
-497.610	-139.380	-0.056	-0.006
-496.595	-200.000	-0.006	0.191
-495.581	800.000	0.135	0.381
-494.566	72.742	-0.178	0.186
-493.551	471.265	0.190	0.428
-492.537	10.484	0.148	0.113
-491.522	464.747	-0.142	0.318
-490.508	-157.144	-0.031	0.002
-489.493	-81.830	0.230	-0.076
-488.478	333.192	-0.062	0.121
-487.464	800.000	0.052	-0.149
-486.449	-200.000	0.018	0.209
-485.435	33.773	-0.259	0.226
-484.420	-27.391	-0.148	0.086
-483.405	-75.525	0.342	0.122
-482.391	-200.000	-0.004	-0.095
-481.376	-167.915	-0.281	-0.011
-480.362	-105.515	-0.269	-0.061
-479.347	-43.035	-0.155	0.079
-478.332	-200.000	0.046	0.212
-477.318	146.053	0.117	-0.157
-476.303	-200.000	0.010	-0.139
-475.289	-200.000	-0.007	0.146
-474.274	51.864	-0.111	0.106
-473.259	-121.240	0.100	-0.017
-472.245	800.000	-0.116	-0.343
-471.230	-200.000	-0.024	0.254
-470.216	-107.436	-0.067	0.015
-469.201	176.235	-0.137	0.199
-468.186	-200.000	-0.009	0.146
-467.172	-2.092	0.083	0.059
-466.157	19.296	-0.142	-0.115
-465.143	-17.701	-0.186	0.117
-464.128	54.061	0.149	-0.144
-463.113	-200.000	0.031	-0.163
-462.099	800.000	-0.081	0.250
-461.084	-144.063	0.373	-0.035
-460.070	800.000	-0.065	0.270
-459.055	-194.039	-0.223	-0.002
-458.040	-2.793	-0.212	-0.149
-457.026	-154.394	0.312	0.021
-456.011	-146.523	0.131	-0.011
-454.997	102.225	0.220	-0.258
-453.982	191.427	-0.138	0.209
-452.968	-200.000	0.005	-0.051
-451.953	309.060	0.227	-0.426
-450.938	680.804	0.136	-0.356
-449.924	24.161	0.116	-0.096
-448.909	-200.000	-0.013	-0.259
-447.895	-54.996	-0.188	0.085
-446.880	-90.397	0.070	-0.020
-445.865	-8.448	-0.080	0.054
-444.851	136.751	0.056	-0.073
-443.836	-111.214	0.218	-0.045
-442.822	152.738	-0.149	-0.204
-441.807	277.171	0.096	0.171
-440.792	46.480	-0.143	0.133
-439.778	800.000	0.057	0.226
-438.763	430.969	-0.037	0.080
-437.749	132.449	-0.043	0.056
-436.734	21.363	-0.221	-0.180
-435.719	800.000	0.039	0.137
-434.705	455.634	0.130	-0.288
-433.690	-200.000	0.008	0.194
-432.676	251.502	0.106	-0.180
-431.661	14.148	0.140	-0.109
-430.646	-84.891	-0.092	-0.029
-429.632	-200.000	-0.012	-0.325
-428.617	-200.000	-0.031	0.172
-427.603	-108.844	-0.304	-0.065
-426.588	447.076	-0.171	0.378
-425.573	800.000	-0.055	0.228
-424.559	-200.000	0.019	0.235
-423.544	-9.525	0.049	-0.033
-422.530	92.831	0.167	0.188
-421.515	211.268	-0.247	-0.389
-420.500	136.889	-0.229	-0.299
-419.486	-125.465	-0.085	0.013
-418.471	800.000	-0.042	0.139
-417.457	800.000	0.103	0.432
-416.442	-200.000	-0.008	0.139
-415.428	-5.733	-0.076	0.052
-414.413	105.232	0.089	0.106
-413.398	60.447	-0.097	-0.096
-412.384	30.149	-0.228	-0.194
-411.369	107.790	-0.047	-0.056
-410.355	-200.000	-0.009	-0.043
-409.340	120.402	-0.083	-0.103
-408.325	-200.000	0.038	0.200
-407.311	-90.716	0.262	-0.076
-406.296	-200.000	0.081	0.370
-405.282	98.393	-0.417	-0.480
-404.267	-85.082	0.110	0.034
-403.252	-153.673	-0.232	0.016
-402.238	800.000	-0.016	0.068
-401.223	147.666	0.111	0.150
-400.209	165.349	-0.252	-0.355
-399.194	-200.000	-0.017	-0.118
-398.179	800.000	0.049	-0.140
-397.165	-54.099	-0.227	0.103
-396.150	-32.619	0.107	-0.060
-395.136	-200.000	0.011	0.050
-394.121	-73.002	-0.143	-0.052
-393.106	-137.160	0.285	0.032
-392.092	438.437	-0.043	-0.094
-391.077	325.658	0.043	0.082
-390.063	365.108	-0.090	0.181
-389.048	644.849	0.106	0.270
-388.033	261.662	0.145	0.251
-387.019	570.463	0.062	0.152
-386.004	-159.260	-0.136	0.008
-384.990	800.000	0.052	-0.219
-383.975	-116.747	-0.413	-0.076
-382.960	-129.250	0.064	0.009
-381.946	-0.286	-0.272	-0.193
-380.931	143.623	-0.117	0.156
-379.917	-200.000	-0.035	-0.239
-378.902	588.107	0.150	0.368
-377.888	-200.000	-0.017	0.178
-376.873	-200.000	0.004	-0.169
-375.858	33.776	-0.117	-0.102
-374.844	-126.210	0.090	0.013
-373.829	98.878	0.220	0.254
-372.815	-114.664	-0.326	0.062
-371.800	-8.753	0.341	-0.228
-370.785	-77.582	-0.164	0.057
-369.771	169.855	0.089	0.127
-368.756	391.817	-0.014	-0.030
-367.742	800.000	-0.029	-0.102
-366.727	-41.510	-0.271	-0.139
-365.712	-200.000	0.033	0.231
-364.698	-118.198	0.234	-0.042
-363.683	250.394	0.145	0.246
-362.669	-24.511	-0.177	-0.105
-361.654	162.494	0.213	0.298
-360.639	-106.846	-0.021	0.005
-359.625	182.912	0.083	0.123
-358.610	-200.000	0.024	0.341
-357.596	-34.447	0.179	0.098
-356.581	-140.260	0.269	0.028
-355.566	-200.000	-0.039	0.228
-354.552	139.155	0.067	-0.088
-353.537	-200.000	-0.018	0.174
-352.523	-102.494	-0.424	-0.101
-351.508	-98.321	-0.201	0.051
-350.493	-108.489	-0.295	-0.063
-349.479	-200.000	0.043	-0.346
-348.464	800.000	-0.093	-0.351
-347.450	-34.701	-0.281	0.153
-346.435	-200.000	0.046	-0.208
-345.420	115.411	0.087	-0.106
-344.406	541.236	0.121	0.288
-343.391	-200.000	0.044	-0.326
-342.377	-126.020	-0.039	0.006
-341.362	-134.257	-0.347	-0.043
-340.348	109.699	-0.058	0.069
-339.333	-12.065	0.142	-0.092
-338.318	486.281	0.095	-0.216
-337.304	-86.980	0.106	-0.032
-336.289	-66.539	0.276	0.109
-335.275	-113.645	-0.080	0.016
-334.260	-113.110	0.259	0.051
-333.245	800.000	-0.069	-0.299
-332.231	-200.000	-0.017	-0.280
-331.216	-57.452	-0.384	0.168
-330.202	706.154	0.143	-0.375
-329.187	-200.000	0.154	0.000
-328.172	-71.815	-0.091	-0.034
-327.158	-58.118	-0.117	-0.051
-326.143	110.527	-0.085	0.102
-325.129	-43.193	0.179	0.090
-324.114	-173.232	0.261	0.008
-323.099	-122.550	0.132	-0.021
-322.085	142.680	0.090	-0.119
-321.070	267.997	-0.054	0.095
-320.056	401.299	-0.085	-0.178
-319.041	-200.000	0.020	0.103
-318.026	-137.533	0.313	-0.035
-317.012	-102.273	0.179	-0.043
-315.997	800.000	0.099	-0.339
-314.983	47.801	0.117	0.109
-313.968	52.083	-0.097	0.092
-312.953	110.435	0.019	0.023
-311.939	800.000	-0.066	-0.235
-310.924	-166.248	0.234	0.010
-309.910	-68.557	-0.132	0.051
-308.895	-7.734	0.417	-0.280
-307.880	-200.000	-0.003	0.017
-306.866	-94.589	-0.150	0.041
-305.851	-107.364	0.127	0.028
-304.837	373.122	-0.190	-0.384
-303.822	1.216	-0.111	-0.079
-302.807	87.577	-0.097	-0.107
-301.793	83.184	-0.051	-0.055
-300.778	-22.483	-0.297	-0.179
-299.764	148.393	-0.131	-0.177
-298.749	-200.000	0.103	-0.450
-297.735	-38.988	0.363	0.190
-296.720	-200.000	0.052	0.245
-295.705	0.893	-0.163	0.116
-294.691	-121.609	0.211	-0.035
-293.676	80.072	0.168	0.180
-292.662	800.000	0.126	-0.550
-291.647	800.000	-0.127	-0.413
-290.632	137.590	-0.107	0.140
-289.618	-113.459	-0.041	-0.008
-288.603	-129.036	0.065	0.009
-287.589	340.660	0.175	0.340
-286.574	37.717	-0.099	0.087
-285.559	-14.862	-0.259	-0.165
-284.545	-200.000	-0.037	-0.300
-283.530	-200.000	0.016	-0.193
-282.516	49.837	0.368	-0.346
-281.501	-54.673	0.089	-0.040
-280.486	800.000	-0.069	0.211
-279.472	-33.064	0.106	-0.058
-278.457	-37.221	0.206	0.110
-277.443	-132.988	-0.160	0.020
-276.428	800.000	-0.129	0.358
-275.413	142.595	0.245	-0.323
-274.399	-200.000	-0.031	-0.298
-273.384	-99.814	-0.156	-0.039
-272.370	800.000	-0.050	-0.215
-271.355	-85.413	0.152	0.047
-270.340	-40.701	0.142	0.073
-269.326	122.448	-0.111	-0.138
-268.311	38.240	0.031	0.027
-267.297	-8.708	-0.177	0.118
-266.282	-178.634	-0.081	-0.002
-265.267	800.000	0.083	-0.256
-264.253	-91.479	-0.254	-0.072
-263.238	-77.634	-0.149	0.051
-262.224	49.917	0.064	-0.060
-261.209	-53.903	-0.405	0.184
-260.195	-69.361	0.216	0.082
-259.180	-29.803	0.219	-0.124
-258.165	44.799	-0.144	0.131
-257.151	297.646	-0.092	0.168
-256.136	23.703	-0.170	0.139
-255.122	-135.618	0.131	-0.015
-254.107	-5.599	0.163	-0.111
-253.092	-31.035	0.230	-0.129
-252.078	-200.000	-0.017	-0.189
-251.063	-125.282	0.286	-0.044
-250.049	-39.834	-0.174	0.090
-249.034	-82.870	0.138	-0.044
-248.019	89.436	0.132	-0.146
-247.005	-94.989	-0.180	0.048
-245.990	233.577	-0.057	0.093
-244.976	8.588	0.406	-0.304
-243.961	240.747	-0.162	0.268
-242.946	625.368	0.078	-0.195
-241.932	800.000	-0.053	-0.220
-240.917	-9.995	-0.117	0.077
-239.903	7.585	0.095	-0.070
-238.888	-26.411	-0.057	0.033
-237.873	-200.000	0.000	0.224
-236.859	12.992	0.091	-0.070
-235.844	-125.364	0.151	-0.023
-234.830	-171.741	0.189	0.006
-233.815	-122.539	-0.069	0.011
-232.800	800.000	0.106	0.324
-231.786	800.000	0.032	0.121
-230.771	-61.458	0.060	0.025
-229.757	-155.018	-0.235	0.015
-228.742	-200.000	-0.011	-0.102
-227.727	-159.253	-0.118	0.007
-226.713	-153.985	-0.569	0.039
-225.698	-123.792	0.301	0.047
-224.684	-109.474	0.242	0.051
-223.669	112.752	-0.151	-0.182
-222.655	-200.000	-0.001	-0.192
-221.640	41.267	-0.218	-0.196
-220.625	78.398	0.106	0.112
-219.611	197.865	0.217	-0.330
-218.596	233.885	0.142	0.231
-217.582	800.000	0.006	-0.025
-216.567	-6.939	0.214	-0.144
-215.552	-1.893	0.161	-0.113
-214.538	-135.585	0.090	-0.011
-213.523	-30.626	-0.066	0.037
-212.509	-102.574	0.194	-0.046
-211.494	-200.000	-0.000	-0.100
-210.479	-67.361	-0.208	-0.081
-209.465	-107.739	-0.172	0.037
-208.450	64.124	-0.096	0.096
-207.436	-80.504	-0.519	-0.172
-206.421	-86.494	0.284	-0.086
-205.406	-144.715	-0.386	0.035
-204.392	-200.000	-0.024	0.104
-203.377	72.456	0.212	0.219
-202.363	-154.124	-0.228	-0.015
-201.348	143.037	0.066	-0.087
-200.333	800.000	-0.091	0.346
-199.319	32.210	0.144	0.123
-198.304	398.762	0.047	0.098
-197.290	-200.000	0.065	0.335
-196.275	800.000	0.096	0.297
-195.260	-50.850	-0.611	0.285
-194.246	-18.249	0.375	0.233
-193.231	-97.919	-0.136	-0.035
-192.217	243.493	-0.068	-0.113
-191.202	-62.704	-0.188	0.077
-190.187	320.294	-0.101	0.190
-189.173	-200.000	0.019	0.084
-188.158	-200.000	0.053	-0.259
-187.144	97.956	-0.108	0.123
-186.129	-52.435	0.518	-0.238
-185.114	800.000	0.054	-0.219
-184.100	800.000	-0.048	0.154
-183.085	65.470	0.055	-0.055
-182.071	-58.633	-0.132	0.057
-181.056	-100.845	-0.132	0.032
-180.042	-144.836	0.236	-0.021
-179.027	800.000	0.043	-0.130
-178.012	368.039	0.059	-0.117
-176.998	220.539	-0.081	0.129
-175.983	77.247	-0.105	0.111
-174.969	-200.000	0.006	-0.152
-173.954	-82.047	0.207	0.067
-172.939	-37.720	-0.129	0.068
-171.925	389.233	0.090	-0.185
-170.910	800.000	-0.040	0.131
-169.896	42.535	-0.144	-0.130
-168.881	-124.535	0.495	0.076
-167.866	43.484	0.101	0.091
-166.852	-15.987	0.217	0.137
-165.837	-200.000	-0.059	0.410
-164.823	32.298	-0.144	-0.123
-163.808	31.560	0.310	-0.264
-162.793	54.114	0.400	0.381
-161.779	-126.357	0.178	0.026
-160.764	31.587	-0.169	-0.144
-159.750	-57.448	0.357	0.155
-158.735	-71.566	0.122	0.045
-157.720	-84.576	-0.211	-0.066
-156.706	800.000	0.098	0.268
-155.691	-130.477	0.172	-0.023
-154.677	-86.099	-0.205	-0.063
-153.662	-200.000	0.042	0.226
-152.647	-200.000	0.015	0.196
-151.633	233.807	-0.071	-0.115
-150.618	-48.337	-0.130	-0.062
-149.604	112.897	-0.163	-0.196
-148.589	-200.000	-0.003	-0.052
-147.574	-43.883	0.129	0.064
-146.560	-4.608	0.314	-0.215
-145.545	600.172	0.026	-0.064
-144.531	-3.026	0.171	0.118
-143.516	-9.849	-0.096	0.063
-142.502	182.567	0.194	0.284
-141.487	84.526	-0.124	-0.135
-140.472	-122.151	0.371	0.060
-139.458	800.000	-0.092	0.347
-138.443	-9.758	-0.060	0.040
-137.429	-200.000	0.049	-0.267
-136.414	-200.000	-0.008	-0.109
-135.399	19.993	-0.321	0.256
-134.385	-200.000	0.023	-0.139
-133.370	337.262	0.003	-0.006
-132.356	-200.000	0.032	-0.281
-131.341	-200.000	0.061	-0.489
-130.326	-200.000	-0.037	-0.364
-129.312	-18.439	0.175	0.108
-128.297	800.000	-0.059	-0.169
-127.283	126.556	-0.179	0.224
-126.268	-84.547	-0.416	0.130
-125.253	121.047	-0.055	0.067
-124.239	446.070	0.176	-0.383
-123.224	800.000	0.191	0.590
-122.210	-39.192	0.180	0.093
