DTS Sentinel unit serial number:	SN413079Multiplexer serial number:	ORYXHardware model number:	OX4-SRSoftware version number:	ORYX F/W v4.00 Oryx Data Collector v3.7.2.0data status	okinstallation	princeton_trtdifferential loss correction	single-endedforward channel	channel 1reverse channel	N/Adate	2019/09/14time	10:18:35forward acquisition time	60.00reverse acquisition time	0.00gamma	496.2192k internal	0.2309k external	0.2309temperature offset calibration	1.0069default loss term (dB/km)	0.3790temperature slope calibration	1.0000multiplexer offset coefficient	1.0000multiplexer slope coefficient	1.0000fibre end	0.00T internal ref (°C)	34.12T ext. ref 1 (°C)	4.11T ext. ref 2 (°C)	32.92length (m)	temperature (°C)	Stokes	anti-Stokes-747.200	800.000	0.070	0.246
-746.185	-200.000	-0.052	0.339
-745.171	-200.000	0.024	0.196
-744.156	-200.000	-0.046	0.299
-743.142	148.934	0.089	-0.122
-742.127	-82.278	0.478	0.158
-741.112	800.000	0.055	0.202
-740.098	800.000	-0.085	0.268
-739.083	-14.224	0.105	-0.069
-738.069	-200.000	-0.033	0.235
-737.054	-70.544	-0.220	0.085
-736.039	-125.453	-0.180	-0.028
-735.025	-50.149	-0.194	0.093
-734.010	-200.000	-0.016	0.174
-732.996	-200.000	-0.052	-0.353
-731.981	-90.324	0.285	-0.084
-730.966	800.000	0.047	-0.172
-729.952	162.077	-0.159	-0.227
-728.937	-41.769	-0.215	0.112
-727.923	800.000	-0.108	-0.374
-726.908	108.679	-0.116	-0.141
-725.894	-200.000	-0.038	-0.200
-724.879	-200.000	-0.061	-0.283
-723.864	10.949	0.118	0.091
-722.850	-25.424	-0.063	-0.038
-721.835	-133.971	-0.188	0.024
-720.821	-99.214	0.149	0.038
-719.806	-66.633	-0.048	-0.019
-718.791	800.000	-0.052	-0.216
-717.777	103.276	0.093	-0.111
-716.762	28.286	-0.234	0.201
-715.748	-200.000	0.048	0.226
-714.733	683.541	-0.209	-0.555
-713.718	159.125	0.084	-0.118
-712.704	-74.753	0.394	0.144
-711.689	248.061	-0.236	-0.404
-710.675	-143.236	0.145	0.014
-709.660	800.000	0.073	0.260
-708.645	-18.404	-0.137	-0.087
-707.631	77.808	-0.040	-0.044
-706.616	-164.585	0.296	-0.014
-705.602	-43.549	0.347	-0.177
-704.587	-113.958	-0.257	0.051
-703.572	-141.917	-0.276	0.028
-702.558	559.151	-0.050	-0.123
-701.543	11.553	-0.240	-0.187
-700.529	26.298	0.258	-0.219
-699.514	58.484	-0.245	0.244
-698.499	-77.533	0.409	-0.144
-697.485	800.000	0.045	-0.130
-696.470	-92.940	0.189	0.053
-695.456	-193.365	0.232	-0.002
-694.441	651.090	-0.091	0.236
-693.426	69.698	-0.054	0.057
-692.412	-114.159	-0.261	0.051
-691.397	-80.509	0.284	-0.096
-690.383	116.251	0.150	0.187
-689.368	-34.722	0.396	0.219
-688.354	264.932	0.105	0.185
-687.339	369.840	-0.104	-0.214
-686.324	-116.500	0.057	-0.011
-685.310	800.000	0.032	-0.106
-684.295	-200.000	0.067	-0.306
-683.281	-51.894	-0.097	-0.046
-682.266	-200.000	0.023	-0.179
-681.251	-15.513	-0.094	-0.061
-680.237	-152.265	-0.165	0.012
-679.222	-164.076	-0.287	-0.013
-678.208	-200.000	-0.032	-0.152
-677.193	642.195	-0.070	-0.182
-676.178	191.439	0.102	0.155
-675.164	-200.000	-0.065	-0.350
-674.149	-21.141	0.285	0.177
-673.135	59.560	0.087	-0.087
-672.120	-135.527	0.363	0.044
-671.105	149.199	-0.081	0.110
-670.091	10.504	-0.165	-0.127
-669.076	399.776	-0.140	0.298
-668.062	216.861	0.334	-0.539
-667.047	-189.223	-0.085	-0.001
-666.032	36.674	0.112	0.100
-665.018	-41.390	-0.160	0.083
-664.003	800.000	-0.083	-0.253
-662.989	800.000	0.082	0.321
-661.974	-200.000	-0.019	-0.256
-660.959	-1.794	-0.112	-0.080
-659.945	-78.923	-0.273	0.094
-658.930	-17.135	0.149	-0.095
-657.916	-68.974	-0.179	-0.070
-656.901	100.427	0.083	0.097
-655.886	421.340	0.089	-0.193
-654.872	-200.000	-0.039	-0.334
-653.857	-34.344	-0.060	-0.034
-652.843	35.138	-0.123	-0.110
-651.828	-200.000	-0.001	-0.161
-650.814	-114.111	0.371	0.073
-649.799	59.991	-0.198	-0.198
-648.784	-77.035	-0.089	-0.031
-647.770	-125.195	0.487	0.075
-646.755	-131.813	0.150	-0.020
-645.741	800.000	0.061	0.221
-644.726	-200.000	0.004	0.024
-643.711	-63.051	0.068	0.028
-642.697	-97.269	-0.214	-0.057
-641.682	-61.781	-0.298	0.126
-640.668	377.697	-0.053	0.110
-639.653	-171.022	0.212	0.007
-638.638	-100.665	0.223	-0.056
-637.624	414.411	0.039	-0.084
-636.609	800.000	-0.010	-0.034
-635.595	-63.708	0.202	-0.084
-634.580	-200.000	-0.017	-0.138
-633.565	-200.000	0.044	0.242
-632.551	275.744	-0.148	0.266
-631.536	-200.000	0.276	-0.000
-630.522	173.497	-0.118	0.173
-629.507	-100.087	-0.177	-0.044
-628.492	-15.195	-0.231	0.150
-627.478	800.000	0.013	0.036
-626.463	129.564	-0.172	-0.222
-625.449	-200.000	0.043	-0.342
-624.434	341.868	-0.048	0.095
-623.419	60.956	0.155	0.156
-622.405	100.897	-0.121	-0.142
-621.390	-200.000	0.020	-0.181
-620.376	-24.686	0.212	0.128
-619.361	-113.687	0.096	-0.019
-618.346	86.193	-0.173	0.193
-617.332	-71.808	0.209	-0.079
-616.317	396.750	-0.065	0.136
-615.303	-197.897	-0.287	-0.002
-614.288	171.850	0.010	-0.014
-613.273	65.749	0.299	-0.306
-612.259	-54.646	-0.107	-0.049
-611.244	54.409	-0.145	-0.141
-610.230	-82.454	0.202	-0.066
-609.215	-33.178	-0.299	0.167
-608.201	-108.085	0.208	-0.046
-607.186	800.000	-0.120	-0.426
-606.171	376.228	-0.099	-0.203
-605.157	761.794	0.094	0.259
-604.142	-200.000	-0.032	0.308
-603.128	757.432	-0.130	-0.356
-602.113	-31.437	-0.108	0.061
-601.098	73.970	-0.043	-0.045
-600.084	-200.000	-0.023	0.192
-599.069	145.580	0.045	0.061
-598.055	-200.000	-0.057	-0.310
-597.040	-161.807	0.291	-0.015
-596.025	410.214	0.135	0.289
-595.011	-158.991	-0.128	0.007
-593.996	-200.000	-0.015	0.087
-592.982	-55.316	0.136	0.062
-591.967	800.000	-0.042	0.132
-590.952	-143.911	-0.031	-0.003
-589.938	800.000	0.108	-0.318
-588.923	628.329	0.096	0.246
-587.909	800.000	0.010	-0.035
-586.894	66.511	0.098	0.101
-585.879	800.000	0.026	-0.105
-584.865	403.587	-0.082	-0.173
-583.850	189.218	0.286	0.433
-582.836	300.058	-0.059	0.109
-581.821	800.000	0.012	0.034
-580.806	-95.716	0.038	0.010
-579.792	-1.864	-0.287	-0.204
-578.777	61.304	-0.149	-0.149
-577.763	18.235	0.260	-0.210
-576.748	-189.170	-0.090	0.001
-575.733	83.529	-0.077	-0.085
-574.719	-89.549	0.085	-0.025
-573.704	-58.927	-0.097	-0.042
-572.690	-149.464	0.314	0.025
-571.675	25.897	-0.099	0.083
-570.661	140.815	-0.146	0.194
-569.646	-200.000	0.006	-0.130
-568.631	28.178	-0.100	-0.085
-567.617	-116.143	-0.394	0.074
-566.602	-200.000	-0.007	-0.032
-565.588	155.167	0.055	-0.076
-564.573	-200.000	0.017	0.083
-563.558	326.024	0.114	-0.220
-562.544	-76.066	-0.234	0.083
-561.529	-3.457	0.170	-0.119
-560.515	-155.386	0.098	0.006
-559.500	800.000	0.043	-0.133
-558.485	800.000	0.064	0.204
-557.471	-91.591	0.400	0.115
-556.456	-158.224	-0.283	0.017
-555.442	647.462	-0.008	-0.020
-554.427	-73.006	0.302	0.112
-553.412	-200.000	0.018	0.223
-552.398	-137.174	-0.230	-0.026
-551.383	-200.000	0.007	-0.157
-550.369	74.626	-0.175	0.186
-549.354	173.407	0.152	0.222
-548.339	-133.125	0.085	-0.011
-547.325	186.807	-0.110	0.165
-546.310	-28.790	0.196	-0.114
-545.296	24.406	-0.319	-0.266
-544.281	800.000	0.105	0.331
-543.266	110.380	-0.197	0.239
-542.252	-200.000	-0.027	-0.227
-541.237	56.753	0.202	0.199
-540.223	11.484	-0.121	-0.093
-539.208	-200.000	-0.041	0.210
-538.193	-87.883	0.372	0.113
-537.179	34.457	-0.015	-0.013
-536.164	-5.466	0.130	-0.090
-535.150	110.889	-0.175	-0.212
-534.135	296.377	0.098	0.182
-533.121	130.326	0.079	0.102
-532.106	476.340	0.044	-0.101
-531.091	-200.000	-0.051	0.382
-530.077	-5.996	-0.197	-0.136
-529.062	-200.000	0.047	0.261
-528.048	154.166	-0.144	0.198
-527.033	348.652	0.129	-0.256
-526.018	-200.000	0.006	0.172
-525.004	186.206	-0.140	-0.210
-523.989	-200.000	-0.040	-0.312
-522.975	-75.155	0.402	-0.145
-521.960	-81.349	0.228	0.076
-520.945	572.329	-0.097	-0.238
-519.931	-140.544	0.417	-0.044
-518.916	223.239	-0.105	0.170
-517.902	-57.750	-0.043	0.019
-516.887	-60.685	0.174	0.074
-515.872	-200.000	0.040	0.226
-514.858	342.329	0.238	0.469
-513.843	309.469	-0.067	0.125
-512.829	61.171	-0.173	-0.173
-511.814	-45.274	0.113	0.056
-510.799	205.552	0.077	0.121
-509.785	-51.017	-0.165	0.078
-508.770	-149.397	0.261	-0.021
-507.756	800.000	-0.080	0.282
-506.741	-9.124	0.013	0.009
-505.726	63.754	-0.227	-0.230
-504.712	-200.000	0.053	-0.270
-503.697	108.711	-0.112	-0.135
-502.683	-200.000	-0.013	-0.184
-501.668	493.275	-0.057	-0.131
-500.653	-126.897	-0.080	-0.012
-499.639	-88.373	0.229	0.069
-498.624	-138.050	0.329	0.037
-497.610	-200.000	-0.011	-0.094
-496.595	78.347	0.154	-0.166
-495.581	56.630	-0.158	0.155
-494.566	-109.677	0.105	-0.022
-493.551	-71.339	-0.313	0.118
-492.537	-64.346	-0.070	0.029
-491.522	216.701	0.134	-0.215
-490.508	112.651	-0.089	-0.108
-489.493	62.639	-0.281	0.282
-488.478	-13.227	-0.260	0.170
-487.464	-93.824	0.165	-0.046
-486.449	-70.056	-0.379	-0.145
-485.435	-177.134	-0.259	-0.006
-484.420	-200.000	-0.040	-0.177
-483.405	800.000	-0.031	-0.132
-482.391	-176.540	-0.367	0.010
-481.376	466.387	0.102	-0.230
-480.362	-103.399	0.105	-0.025
-479.347	-10.800	-0.259	0.172
-478.332	113.673	0.190	0.232
-477.318	112.064	0.171	-0.208
-476.303	-200.000	0.015	-0.104
-475.289	466.141	-0.131	0.295
-474.274	-108.531	-0.021	-0.005
-473.259	231.320	-0.120	-0.198
-472.245	54.145	0.120	-0.116
-471.230	-41.655	0.216	-0.112
-470.216	-91.307	-0.218	-0.063
-469.201	-200.000	0.008	0.130
-468.186	239.108	0.075	0.125
-467.172	800.000	-0.127	-0.372
-466.157	-17.823	-0.142	0.089
-465.143	-200.000	0.064	0.367
-464.128	-200.000	0.009	0.184
-463.113	-86.056	-0.162	-0.050
-462.099	-200.000	-0.046	-0.251
-461.084	800.000	0.101	0.308
-460.070	-200.000	0.013	-0.212
-459.055	-200.000	0.015	0.403
-458.040	-46.020	0.169	-0.084
-457.026	178.737	0.183	-0.269
-456.011	-200.000	0.049	-0.269
-454.997	-27.173	-0.145	-0.085
-453.982	36.886	0.108	-0.096
-452.968	-200.000	0.035	0.461
-451.953	800.000	-0.050	0.214
-450.938	-200.000	0.004	0.396
-449.924	-200.000	0.009	0.227
-448.909	17.249	0.201	0.160
-447.895	192.544	-0.210	0.318
-446.880	-200.000	-0.052	-0.294
-445.865	42.083	0.158	0.144
-444.851	91.101	-0.231	-0.260
-443.836	800.000	-0.061	-0.182
-442.822	170.754	0.046	-0.067
-441.807	123.439	0.192	0.241
-440.792	513.811	0.061	0.142
-439.778	-86.892	0.322	0.099
-438.763	800.000	0.039	-0.113
-437.749	800.000	-0.072	-0.279
-436.734	-200.000	-0.016	0.214
-435.719	-200.000	0.049	0.410
-434.705	137.888	-0.027	0.036
-433.690	-137.584	-0.186	-0.021
-432.676	325.737	-0.139	-0.266
-431.661	800.000	0.015	-0.058
-430.646	110.237	-0.272	-0.328
-429.632	-10.386	-0.118	0.079
-428.617	800.000	0.029	-0.107
-427.603	-79.160	-0.235	0.080
-426.588	39.601	0.124	-0.112
-425.573	10.882	0.221	0.170
-424.559	800.000	-0.086	0.365
-423.544	-200.000	0.025	0.264
-422.530	-10.241	-0.042	-0.028
-421.515	-68.478	0.115	0.045
-420.500	-6.732	-0.187	-0.128
-419.486	70.757	-0.098	0.102
-418.471	-14.094	0.308	-0.199
-417.457	-97.014	0.202	0.053
-416.442	392.221	-0.011	0.023
-415.428	125.861	0.136	-0.173
-414.413	-118.686	-0.022	0.004
-413.398	800.000	-0.033	-0.103
-412.384	-101.655	-0.138	-0.034
-411.369	-86.467	-0.042	0.013
-410.355	-200.000	-0.054	-0.248
-409.340	-69.652	-0.303	-0.116
-408.325	126.916	0.009	-0.011
-407.311	-73.802	-0.190	-0.069
-406.296	105.273	-0.143	-0.169
-405.282	391.067	0.197	-0.410
-404.267	800.000	-0.014	0.055
-403.252	211.924	-0.124	-0.195
-402.238	718.558	-0.059	0.156
-401.223	-70.702	0.122	0.046
-400.209	541.318	-0.098	-0.233
-399.194	-11.386	-0.225	0.148
-398.179	-117.229	0.068	-0.012
-397.165	36.660	-0.133	-0.118
-396.150	-169.674	0.073	-0.003
-395.136	79.433	-0.010	-0.011
-394.121	690.009	0.071	-0.185
-393.106	-196.757	-0.243	-0.002
-392.092	-43.437	-0.211	-0.107
-391.077	-33.218	0.128	0.071
-390.063	-200.000	-0.023	0.103
-389.048	-49.973	0.168	0.080
-388.033	99.872	0.072	-0.084
-387.019	-28.044	0.272	0.158
-386.004	-42.815	-0.307	-0.156
-384.990	-8.390	-0.175	-0.118
-383.975	-39.348	-0.165	-0.087
-382.960	-162.627	-0.271	-0.013
-381.946	800.000	-0.050	0.193
-380.931	33.889	0.094	0.082
-379.917	717.044	-0.075	-0.199
-378.902	-101.247	-0.122	-0.030
-377.888	94.766	-0.210	0.239
-376.873	336.974	-0.039	0.076
-375.858	-117.693	-0.272	0.049
-374.844	496.185	-0.103	0.238
-373.829	-169.737	-0.073	-0.003
-372.815	-4.322	-0.144	-0.100
-371.800	372.462	0.095	0.193
-370.785	373.263	0.111	-0.226
-369.771	-200.000	0.006	-0.183
-368.756	-200.000	-0.040	-0.705
-367.742	800.000	-0.094	-0.312
-366.727	796.397	-0.142	0.392
-365.712	-132.259	0.151	-0.020
-364.698	17.434	-0.110	-0.088
-363.683	194.351	-0.115	-0.174
-362.669	-112.992	-0.107	-0.021
-361.654	-4.375	-0.115	-0.079
-360.639	166.661	0.170	0.241
-359.625	40.858	-0.037	0.033
-358.610	-200.000	-0.049	0.234
-357.596	-57.933	0.259	-0.113
-356.581	-37.644	0.165	0.088
-355.566	-200.000	0.109	-0.503
-354.552	51.503	-0.187	-0.178
-353.537	-76.637	0.334	0.117
-352.523	-73.288	0.242	-0.088
-351.508	157.364	-0.170	0.235
-350.493	800.000	-0.040	0.144
-349.479	-12.346	-0.098	0.064
-348.464	800.000	-0.009	-0.030
-347.450	-125.481	-0.270	0.041
-346.435	202.973	-0.068	0.105
-345.420	-182.674	-0.063	-0.001
-344.406	-118.721	-0.331	0.058
-343.391	39.095	0.204	-0.182
-342.377	-114.571	0.336	-0.064
-341.362	-2.554	-0.176	0.123
-340.348	185.157	-0.103	0.153
-339.333	113.263	0.210	0.255
-338.318	-62.953	0.590	-0.244
-337.304	-89.184	-0.176	-0.052
-336.289	120.111	-0.040	-0.050
-335.275	626.834	0.077	0.195
-334.260	11.905	0.032	0.024
-333.245	122.339	0.122	-0.153
-332.231	-104.853	0.328	-0.075
-331.216	105.983	-0.176	-0.208
-330.202	-39.874	0.312	0.163
-329.187	-200.000	-0.030	0.160
-328.172	-172.218	-0.291	-0.009
-327.158	800.000	0.018	-0.079
-326.143	-53.562	-0.257	0.118
-325.129	110.944	0.099	-0.119
-324.114	-35.587	-0.090	0.049
-323.099	-176.350	-0.173	0.004
-322.085	79.628	-0.042	0.045
-321.070	-40.821	0.196	0.101
-320.056	-103.525	-0.030	0.007
-319.041	41.894	0.131	0.118
-318.026	-163.255	0.266	-0.013
-317.012	-43.080	-0.136	-0.069
-315.997	-60.508	-0.161	-0.068
-314.983	236.732	-0.092	-0.153
-313.968	286.509	0.143	0.259
-312.953	-69.197	-0.144	-0.055
-311.939	-200.000	-0.077	-0.373
-310.924	73.897	-0.201	0.211
-309.910	-42.288	-0.153	-0.078
-308.895	-90.395	-0.023	-0.007
-307.880	800.000	0.109	-0.382
-306.866	-167.721	-0.247	-0.010
-305.851	360.748	-0.100	-0.201
-304.837	34.101	-0.214	0.187
-303.822	-132.613	0.181	-0.023
-302.807	800.000	-0.014	0.051
-301.793	-126.005	0.113	-0.017
-300.778	422.521	0.142	-0.303
-299.764	-84.868	-0.159	0.050
-298.749	291.646	0.199	0.362
-297.735	-43.230	0.203	0.103
-296.720	-200.000	0.035	-0.374
-295.705	400.263	0.219	-0.458
-294.691	6.667	0.115	-0.086
-293.676	-103.277	-0.545	-0.128
-292.662	726.336	0.042	-0.111
-291.647	-169.731	0.460	-0.017
-290.632	11.759	-0.114	0.088
-289.618	800.000	-0.011	0.039
-288.603	800.000	-0.095	0.337
-287.589	359.153	-0.144	-0.287
-286.574	196.735	0.052	-0.078
-285.559	-7.440	0.191	0.129
-284.545	446.027	0.078	0.170
-283.530	-92.750	-0.098	-0.027
-282.516	527.494	-0.147	0.346
-281.501	-200.000	0.032	-0.284
-280.486	-58.645	0.335	0.145
-279.472	331.864	-0.223	0.429
-278.457	-200.000	0.074	0.391
-277.443	647.869	-0.068	0.174
-276.428	-107.757	0.220	0.048
-275.413	-55.445	-0.042	0.019
-274.399	-200.000	-0.019	-0.182
-273.384	-116.057	0.129	-0.024
-272.370	93.335	-0.088	-0.099
-271.355	241.632	-0.160	0.266
-270.340	-70.879	0.145	0.055
-269.326	239.540	-0.171	0.284
-268.311	-200.000	-0.033	-0.145
-267.297	285.467	0.051	0.092
-266.282	195.500	-0.062	-0.094
-265.267	73.467	-0.068	-0.071
-264.253	-200.000	0.027	0.199
-263.238	-37.909	0.514	0.272
-262.224	-200.000	-0.014	-0.126
-261.209	-200.000	-0.030	-0.275
-260.195	-66.022	0.477	-0.190
-259.180	-3.554	0.105	0.073
-258.165	175.012	-0.218	0.315
-257.151	104.651	-0.087	0.102
-256.136	-172.623	0.219	0.007
-255.122	-66.002	0.142	-0.057
-254.107	280.940	-0.119	-0.212
-253.092	74.674	-0.081	0.084
-252.078	415.665	0.014	-0.029
-251.063	800.000	-0.084	-0.360
-250.049	-70.268	-0.226	-0.085
-249.034	192.930	0.022	-0.034
-248.019	100.448	0.083	-0.096
-247.005	-200.000	0.010	-0.051
-245.990	-200.000	-0.011	-0.230
-244.976	-152.720	-0.113	0.008
-243.961	800.000	0.113	0.358
-242.946	-65.345	0.205	0.082
-241.932	-200.000	-0.025	0.245
-240.917	369.185	0.112	-0.226
-239.903	16.642	-0.148	0.117
-238.888	-119.218	0.141	0.025
-237.873	-71.802	0.266	0.099
-236.859	-144.276	0.190	0.018
-235.844	-57.833	0.176	-0.077
-234.830	-200.000	0.031	-0.305
-233.815	-200.000	0.068	0.350
-232.800	-96.854	-0.360	0.094
-231.786	-77.018	0.116	-0.040
-230.771	-104.182	0.424	-0.098
-229.757	800.000	0.047	0.150
-228.742	-125.171	-0.365	-0.056
-227.727	179.358	0.098	0.143
-226.713	724.540	0.189	-0.502
-225.698	-72.168	-0.251	-0.093
-224.684	-156.425	-0.172	0.011
-223.669	185.414	-0.216	-0.319
-222.655	-120.866	-0.216	0.036
-221.640	-34.612	0.405	-0.221
-220.625	174.146	0.145	0.209
-219.611	-160.461	-0.272	-0.015
-218.596	298.084	-0.138	0.252
-217.582	26.898	0.425	-0.355
-216.567	289.488	-0.110	0.199
-215.552	-200.000	-0.048	0.384
-214.538	349.316	0.134	0.263
-213.523	800.000	-0.038	-0.120
-212.509	800.000	-0.097	-0.314
-211.494	56.343	0.293	-0.283
-210.479	7.523	0.068	-0.050
-209.465	162.199	-0.193	-0.269
-208.450	-16.224	-0.238	0.151
-207.436	800.000	-0.025	-0.072
-206.421	103.361	-0.085	-0.100
-205.406	-154.149	0.327	0.022
-204.392	33.841	-0.151	0.131
-203.377	58.636	0.144	0.140
-202.363	141.071	0.253	-0.333
-201.348	800.000	0.006	-0.023
-200.333	577.755	0.092	0.223
-199.319	-200.000	0.014	0.258
-198.304	-124.366	-0.250	0.039
-197.290	424.559	-0.107	-0.229
-196.275	-200.000	0.001	-0.067
-195.260	-51.289	-0.127	0.059
-194.246	10.961	-0.330	0.251
-193.231	800.000	0.017	0.072
-192.217	72.345	-0.194	0.201
-191.202	-78.005	0.213	0.073
-190.187	335.641	0.070	-0.135
-189.173	-200.000	0.027	-0.217
-188.158	-87.725	-0.386	-0.116
-187.144	-200.000	0.019	-0.237
-186.129	80.304	0.156	0.167
-185.114	-123.916	-0.195	0.031
-184.100	59.278	-0.041	-0.040
-183.085	-200.000	-0.060	0.313
-182.071	63.505	0.127	0.127
-181.056	800.000	0.042	-0.121
-180.042	-85.312	0.379	-0.118
-179.027	-200.000	-0.031	-0.191
-178.012	800.000	0.014	-0.052
-176.998	22.220	0.226	-0.183
-175.983	53.529	-0.203	-0.194
-174.969	-200.000	0.008	0.251
-173.954	179.021	0.098	0.142
-172.939	-85.372	-0.479	0.148
-171.925	800.000	0.157	0.440
-170.910	-200.000	-0.004	0.087
-169.896	-185.292	0.330	0.005
-168.881	-29.123	0.168	-0.096
-167.866	-48.200	0.214	0.102
-166.852	287.284	0.060	-0.108
-165.837	535.549	-0.038	-0.089
-164.823	57.621	-0.003	-0.003
-163.808	686.267	-0.059	0.154
-162.793	-200.000	0.002	0.267
-161.779	-154.964	0.297	-0.019
-160.764	577.438	-0.117	-0.283
-159.750	91.207	0.133	-0.148
-158.735	177.665	-0.179	0.259
-157.720	-200.000	-0.079	-0.636
-156.706	-170.604	0.475	0.016
-155.691	52.587	0.187	0.178
-154.677	-200.000	-0.014	0.238
-153.662	-20.325	-0.200	-0.122
-152.647	7.919	-0.187	0.139
-151.633	-92.072	-0.218	-0.061
-150.618	48.899	0.139	-0.130
-149.604	-138.256	0.200	0.022
-148.589	800.000	0.160	-0.460
-147.574	-54.104	0.179	0.081
-146.560	-200.000	-0.034	-0.189
-145.545	-200.000	-0.085	-0.386
-144.531	-126.646	-0.166	-0.024
-143.516	800.000	-0.035	-0.100
-142.502	-187.651	0.110	-0.001
-141.487	-200.000	-0.031	0.292
-140.472	-39.081	-0.311	0.162
-139.458	25.352	-0.146	-0.121
-138.443	484.031	0.032	-0.072
-137.429	-117.035	-0.145	-0.026
-136.414	-84.581	0.134	-0.042
-135.399	-200.000	0.005	-0.100
-134.385	-200.000	0.008	0.197
-133.370	-67.685	-0.260	-0.101
-132.356	-118.999	0.141	-0.024
-131.341	304.779	-0.078	-0.145
-130.326	-53.929	0.105	0.048
-129.312	31.932	0.140	-0.120
-128.297	-56.652	0.237	-0.104
-127.283	-65.343	-0.264	-0.105
-126.268	79.911	-0.097	0.103
-125.253	217.807	-0.240	0.380
-124.239	800.000	-0.052	-0.176
-123.224	244.813	0.189	0.316
