DTS Sentinel unit serial number:	SN413079Multiplexer serial number:	ORYXHardware model number:	OX4-SRSoftware version number:	ORYX F/W v4.00 Oryx Data Collector v3.7.2.0data status	okinstallation	princeton_trtdifferential loss correction	single-endedforward channel	channel 1reverse channel	N/Adate	2019/09/10time	21:12:11forward acquisition time	60.00reverse acquisition time	0.00gamma	496.2192k internal	0.2329k external	0.2329temperature offset calibration	0.9937default loss term (dB/km)	0.3790temperature slope calibration	1.0000multiplexer offset coefficient	1.0000multiplexer slope coefficient	1.0000fibre end	0.00T internal ref (°C)	31.42T ext. ref 1 (°C)	-0.31T ext. ref 2 (°C)	24.52length (m)	temperature (°C)	Stokes	anti-Stokes-747.200	712.426	0.025	0.068
-746.185	146.403	-0.037	-0.050
-745.171	-83.656	-0.082	0.026
-744.156	31.448	0.149	-0.129
-743.142	91.193	-0.141	-0.159
-742.127	800.000	0.128	0.356
-741.112	-6.187	0.441	0.304
-740.098	13.413	-0.283	-0.221
-739.083	-200.000	0.021	0.246
-738.069	-96.116	-0.245	0.066
-737.054	-144.642	0.280	-0.026
-736.039	-69.446	-0.244	-0.094
-735.025	-139.041	0.286	-0.031
-734.010	-72.554	0.113	-0.042
-732.996	-200.000	-0.001	0.325
-731.981	15.147	-0.346	-0.273
-730.966	-33.094	0.027	-0.015
-729.952	538.252	-0.069	-0.164
-728.937	-8.070	-0.257	-0.175
-727.923	270.494	0.130	-0.231
-726.908	-106.539	0.292	-0.066
-725.894	-140.535	0.174	0.018
-724.879	-200.000	0.007	0.090
-723.864	55.174	0.102	0.099
-722.850	170.643	-0.197	-0.284
-721.835	-55.017	0.252	-0.114
-720.821	83.139	0.296	-0.325
-719.806	173.761	-0.243	-0.353
-718.791	-15.015	-0.403	-0.260
-717.777	-3.043	-0.215	-0.151
-716.762	-132.478	0.088	0.011
-715.748	-200.000	0.043	0.327
-714.733	-111.671	-0.292	0.060
-713.718	-200.000	0.000	0.222
-712.704	88.842	-0.201	0.225
-711.689	800.000	-0.044	0.127
-710.675	-80.469	0.165	0.055
-709.660	-200.000	-0.006	-0.234
-708.645	45.962	-0.141	0.131
-707.631	120.636	-0.191	-0.238
-706.616	96.791	0.151	0.174
-705.602	-89.454	0.117	-0.035
-704.587	93.698	-0.214	-0.244
-703.572	-40.276	-0.101	-0.053
-702.558	800.000	0.120	0.388
-701.543	-57.949	0.240	-0.105
-700.529	-105.501	0.065	0.015
-699.514	-59.777	0.147	-0.063
-698.499	112.987	-0.017	-0.020
-697.485	-81.030	0.196	0.065
-696.470	-200.000	0.007	-0.262
-695.456	269.954	0.082	-0.144
-694.441	800.000	-0.072	-0.204
-693.426	31.197	0.138	0.119
-692.412	-144.820	-0.133	0.012
-691.397	122.518	0.040	0.050
-690.383	133.191	0.102	0.132
-689.368	411.851	0.056	-0.119
-688.354	-64.386	-0.310	0.127
-687.339	449.833	-0.107	0.236
-686.324	-200.000	-0.038	-0.286
-685.310	-200.000	0.031	-0.253
-684.295	-121.064	-0.227	0.038
-683.281	-44.390	0.281	0.141
-682.266	236.213	-0.074	-0.123
-681.251	-27.883	0.225	0.131
-680.237	-200.000	-0.006	-0.045
-679.222	56.173	-0.281	-0.274
-678.208	-129.259	0.097	0.014
-677.193	800.000	-0.032	-0.122
-676.178	-200.000	-0.029	-0.164
-675.164	-181.461	0.028	-0.001
-674.149	-200.000	0.012	0.174
-673.135	-126.095	-0.113	-0.017
-672.120	-200.000	-0.042	0.314
-671.105	-71.058	0.108	0.041
-670.091	800.000	0.042	-0.167
-669.076	-200.000	-0.038	-0.295
-668.062	-30.963	-0.141	0.080
-667.047	128.245	0.187	0.239
-666.032	-91.897	0.165	0.047
-665.018	-200.000	0.032	-0.236
-664.003	702.547	-0.041	-0.108
-662.989	230.969	0.192	-0.315
-661.974	-200.000	0.033	-0.215
-660.959	-98.006	0.384	0.099
-659.945	-51.694	-0.431	0.201
-658.930	97.372	-0.272	-0.314
-657.916	-61.777	0.048	-0.020
-656.901	49.069	0.121	0.114
-655.886	-119.085	-0.204	0.036
-654.872	-200.000	0.015	0.075
-653.857	-200.000	0.017	0.151
-652.843	186.256	-0.076	0.113
-651.828	161.171	-0.237	-0.333
-650.814	19.807	-0.072	0.059
-649.799	104.248	-0.096	-0.113
-648.784	-34.304	0.181	-0.100
-647.770	-120.569	-0.341	-0.058
-646.755	-97.176	-0.276	-0.072
-645.741	-96.188	-0.277	-0.074
-644.726	229.065	-0.269	-0.440
-643.711	-3.674	0.085	0.059
-642.697	-200.000	-0.014	-0.115
-641.682	407.971	-0.178	-0.379
-640.668	-32.746	0.281	-0.157
-639.653	-200.000	0.034	0.178
-638.638	205.842	-0.118	0.184
-637.624	-60.459	0.202	0.086
-636.609	-108.348	-0.242	0.052
-635.595	-60.326	0.279	-0.119
-634.580	0.966	0.203	-0.146
-633.565	-200.000	0.020	-0.106
-632.551	239.564	-0.086	0.143
-631.536	-200.000	-0.000	-0.175
-630.522	-200.000	-0.019	-0.240
-629.507	-163.320	-0.360	-0.017
-628.492	-20.338	0.402	-0.248
-627.478	-66.415	0.174	0.069
-626.463	-25.689	-0.253	-0.150
-625.449	475.524	-0.090	0.203
-624.434	-67.945	-0.157	0.062
-623.419	273.645	0.099	0.175
-622.405	-12.065	-0.063	-0.041
-621.390	-200.000	-0.022	0.371
-620.376	-67.975	0.196	-0.077
-619.361	-36.565	0.243	-0.131
-618.346	-200.000	-0.019	0.129
-617.332	125.743	0.177	-0.223
-616.317	-24.501	-0.047	0.028
-615.303	-105.410	0.026	-0.006
-614.288	203.360	0.210	0.325
-613.273	104.483	-0.189	0.223
-612.259	-156.359	-0.261	0.016
-611.244	-184.139	0.135	-0.002
-610.230	-95.239	-0.104	0.028
-609.215	-141.517	-0.145	-0.015
-608.201	800.000	-0.086	-0.242
-607.186	-200.000	-0.025	-0.110
-606.171	255.513	-0.010	0.018
-605.157	75.477	-0.242	-0.256
-604.142	9.112	-0.094	0.071
-603.128	-86.482	0.226	-0.069
-602.113	278.918	0.132	0.236
-601.098	25.087	-0.169	-0.141
-600.084	-166.320	0.069	-0.003
-599.069	149.003	0.081	-0.109
-598.055	800.000	0.041	0.165
-597.040	-200.000	0.041	-0.216
-596.025	376.662	0.054	0.111
-595.011	46.529	-0.058	0.054
-593.996	-87.474	-0.212	0.064
-592.982	265.354	-0.056	-0.098
-591.967	-130.336	-0.144	-0.020
-590.952	22.360	-0.160	-0.131
-589.938	-39.904	-0.285	0.149
-588.923	-108.375	0.219	0.047
-587.909	-58.208	-0.211	0.092
-586.894	416.296	0.090	-0.191
-585.879	104.946	0.112	0.132
-584.865	332.999	-0.071	0.138
-583.850	250.621	-0.061	0.103
-582.836	-21.264	0.377	0.231
-581.821	800.000	0.044	0.171
-580.806	-77.500	-0.179	0.062
-579.792	-38.464	-0.341	-0.181
-578.777	92.704	-0.082	-0.093
-577.763	-90.688	-0.242	-0.070
-576.748	188.912	0.156	-0.233
-575.733	-200.000	-0.010	-0.056
-574.719	-17.134	-0.259	-0.163
-573.704	-118.223	-0.259	0.046
-572.690	-14.762	0.165	-0.106
-571.675	5.073	0.099	0.073
-570.661	-68.986	0.182	-0.070
-569.646	-200.000	0.074	0.496
-568.631	-85.437	-0.149	0.046
-567.617	-64.034	-0.119	0.048
-566.602	131.990	-0.238	0.306
-565.588	127.095	-0.081	-0.102
-564.573	-100.708	0.010	0.002
-563.558	-89.235	0.092	-0.027
-562.544	-179.508	0.225	-0.005
-561.529	-36.945	0.097	-0.052
-560.515	-200.000	-0.035	0.261
-559.500	-58.626	0.296	0.128
-558.485	32.667	-0.293	-0.253
-557.471	-4.290	0.147	0.102
-556.456	-178.519	-0.198	0.005
-555.442	-142.436	-0.203	-0.020
-554.427	624.695	-0.057	-0.143
-553.412	-200.000	-0.004	0.173
-552.398	30.332	-0.148	-0.126
-551.383	60.601	0.113	-0.112
-550.369	270.587	-0.094	0.166
-549.354	85.727	-0.082	-0.090
-548.339	-159.397	0.465	0.026
-547.325	375.847	0.155	0.316
-546.310	305.880	-0.150	0.278
-545.296	-200.000	0.023	-0.190
-544.281	800.000	0.066	-0.221
-543.266	38.765	0.219	-0.196
-542.252	-36.810	0.192	-0.103
-541.237	280.869	0.108	0.194
-540.223	-200.000	-0.007	-0.135
-539.208	-200.000	-0.033	0.305
-538.193	-58.213	0.324	-0.141
-537.179	39.413	-0.191	0.171
-536.164	208.156	0.021	0.032
-535.150	-7.715	0.280	0.189
-534.135	168.551	0.015	0.021
-533.121	-43.751	-0.276	0.139
-532.106	26.177	-0.124	0.104
-531.091	277.050	0.061	0.109
-530.077	-136.493	0.324	-0.038
-529.062	-105.769	0.112	-0.025
-528.048	-21.150	0.305	0.186
-527.033	800.000	-0.047	-0.173
-526.018	800.000	-0.034	-0.128
-525.004	-30.924	-0.133	-0.075
-523.989	386.691	-0.144	-0.298
-522.975	38.620	0.005	0.005
-521.960	800.000	-0.038	0.114
-520.945	-115.200	-0.331	0.063
-519.931	-119.072	-0.279	0.049
-518.916	-117.801	-0.275	-0.049
-517.902	-200.000	0.006	0.460
-516.887	103.398	-0.112	-0.131
-515.872	-77.372	-0.113	0.039
-514.858	17.458	-0.180	-0.142
-513.843	228.843	-0.171	-0.278
-512.829	-10.685	-0.331	0.218
-511.814	-45.038	-0.134	0.067
-510.799	48.691	0.288	0.270
-509.785	-104.695	-0.136	-0.031
-508.770	-49.137	-0.178	-0.085
-507.756	121.923	0.219	-0.273
-506.741	271.135	0.130	-0.228
-505.726	306.432	0.268	-0.499
-504.712	53.005	-0.159	-0.151
-503.697	46.350	0.079	-0.073
-502.683	-200.000	0.021	0.144
-501.668	158.819	0.096	0.133
-500.653	-200.000	0.007	0.140
-499.639	15.592	0.218	0.171
-498.624	436.266	0.117	0.254
-497.610	-170.271	0.342	0.012
-496.595	-54.972	0.317	0.142
-495.581	-37.621	0.161	0.086
-494.566	800.000	-0.077	0.305
-493.551	-120.781	0.071	0.012
-492.537	81.639	-0.242	-0.261
-491.522	-152.255	-0.208	0.015
-490.508	-200.000	0.044	-0.333
-489.493	-34.919	0.182	0.099
-488.478	1.575	0.112	0.081
-487.464	25.571	0.153	0.127
-486.449	-164.289	0.072	0.003
-485.435	77.432	0.078	-0.083
-484.420	-200.000	-0.023	-0.123
-483.405	344.743	-0.011	-0.022
-482.391	-54.651	0.171	0.077
-481.376	194.716	0.066	0.099
-480.362	-82.682	0.373	-0.120
-479.347	235.314	-0.043	-0.071
-478.332	-200.000	0.012	0.207
-477.318	800.000	0.063	-0.244
-476.303	-4.818	-0.223	-0.153
-475.289	127.131	0.062	-0.078
-474.274	37.743	0.187	-0.165
-473.259	-170.960	0.136	-0.005
-472.245	-102.896	0.391	-0.093
-471.230	-148.037	-0.197	0.016
-470.216	-139.960	0.212	0.022
-469.201	7.853	-0.096	-0.072
-468.186	178.141	0.071	-0.103
-467.172	-200.000	0.011	0.272
-466.157	45.883	-0.247	0.228
-465.143	89.696	0.110	-0.122
-464.128	-51.268	-0.204	-0.095
-463.113	-156.164	0.083	-0.005
-462.099	-46.201	0.207	0.101
-461.084	8.360	0.108	0.081
-460.070	-133.399	-0.091	-0.011
-459.055	-116.509	0.221	0.041
-458.040	-200.000	0.031	-0.146
-457.026	-61.521	0.184	-0.077
-456.011	41.570	0.085	-0.077
-454.997	800.000	-0.059	-0.175
-453.982	800.000	0.101	0.305
-452.968	-200.000	0.042	-0.221
-451.953	94.881	-0.094	-0.106
-450.938	77.136	-0.120	0.127
-449.924	169.731	0.077	0.110
-448.909	800.000	0.086	0.240
-447.895	112.816	0.096	0.116
-446.880	36.940	0.140	0.123
-445.865	2.967	-0.205	-0.149
-444.851	-200.000	-0.036	0.311
-443.836	800.000	0.105	0.344
-442.822	78.142	-0.039	-0.042
-441.807	36.450	0.063	0.055
-440.792	-130.105	0.178	-0.024
-439.778	-176.651	-0.231	-0.006
-438.763	89.766	-0.153	-0.170
-437.749	-200.000	-0.031	0.211
-436.734	-200.000	0.007	-0.077
-435.719	107.006	-0.297	0.352
-434.705	-149.722	-0.349	-0.027
-433.690	-200.000	-0.013	0.305
-432.676	-200.000	-0.058	0.391
-431.661	-200.000	0.032	-0.302
-430.646	33.164	-0.060	-0.052
-429.632	5.001	-0.129	-0.095
-428.617	335.478	-0.011	-0.021
-427.603	562.624	0.014	-0.035
-426.588	104.771	0.108	-0.127
-425.573	-5.881	-0.123	-0.084
-424.559	339.417	-0.120	0.233
-423.544	800.000	0.044	0.165
-422.530	-132.043	0.114	-0.015
-421.515	-134.583	0.369	-0.045
-420.500	-34.867	0.031	-0.017
-419.486	114.896	0.112	-0.136
-418.471	-37.081	0.122	0.065
-417.457	-60.093	0.098	0.042
-416.442	365.184	-0.166	-0.333
-415.428	-200.000	0.011	-0.341
-414.413	-75.311	0.200	0.071
-413.398	-123.277	-0.067	0.011
-412.384	-93.832	-0.247	0.068
-411.369	-149.706	-0.314	-0.025
-410.355	-89.387	0.067	-0.019
-409.340	-117.344	-0.160	-0.029
-408.325	74.527	0.128	-0.134
-407.311	11.074	-0.029	-0.022
-406.296	800.000	-0.037	0.149
-405.282	-78.279	0.262	-0.089
-404.267	-200.000	-0.060	0.433
-403.252	521.564	0.064	-0.149
-402.238	469.550	-0.080	-0.178
-401.223	193.729	0.178	-0.268
-400.209	-200.000	0.032	0.217
-399.194	-200.000	-0.005	0.138
-398.179	11.738	0.038	-0.029
-397.165	-200.000	0.009	0.073
-396.150	-108.134	-0.132	0.028
-395.136	694.334	0.069	0.179
-394.121	151.665	-0.219	0.296
-393.106	61.656	-0.281	-0.278
-392.092	700.744	0.093	0.244
-391.077	685.612	0.049	0.128
-390.063	-89.296	-0.071	-0.021
-389.048	-40.639	0.062	0.032
-388.033	-36.147	-0.276	-0.148
-387.019	800.000	-0.074	0.228
-386.004	800.000	0.037	0.115
-384.990	-115.130	-0.288	-0.054
-383.975	-70.031	-0.168	-0.063
-382.960	353.744	0.128	-0.252
-381.946	126.539	-0.112	0.141
-380.931	-200.000	0.043	-0.231
-379.917	334.753	-0.043	-0.083
-378.902	-200.000	-0.064	-0.345
-377.888	800.000	0.067	-0.253
-376.873	14.790	0.381	-0.296
-375.858	-200.000	-0.041	0.277
-374.844	62.370	0.141	-0.140
-373.829	-74.382	-0.166	0.060
-372.815	-99.948	0.368	-0.091
-371.800	32.614	0.066	0.057
-370.785	-200.000	-0.002	0.148
-369.771	-17.185	0.260	-0.163
-368.756	800.000	0.074	-0.276
-367.742	94.166	0.062	-0.070
-366.727	130.300	-0.141	-0.179
-365.712	7.280	-0.189	0.140
-364.698	-25.681	0.125	0.073
-363.683	50.790	-0.172	0.162
-362.669	362.418	0.152	0.303
-361.654	387.673	-0.048	-0.098
-360.639	-72.377	-0.329	-0.121
-359.625	-41.401	-0.422	-0.216
-358.610	183.438	-0.267	-0.391
-357.596	114.413	0.243	-0.294
-356.581	722.778	0.159	-0.419
-355.566	-25.675	-0.171	0.100
-354.552	45.771	-0.060	-0.055
-353.537	11.777	-0.200	-0.152
-352.523	-153.824	-0.093	-0.006
-351.508	64.268	0.109	-0.109
-350.493	-96.522	-0.153	0.040
-349.479	-200.000	0.002	-0.077
-348.464	258.257	0.064	0.110
-347.450	-117.818	0.175	-0.031
-346.435	-200.000	0.041	-0.287
-345.420	-106.730	0.222	-0.049
-344.406	-148.115	0.312	0.026
-343.391	800.000	-0.141	0.392
-342.377	91.953	-0.094	-0.105
-341.362	-0.254	-0.125	0.088
-340.348	90.082	-0.109	0.121
-339.333	109.432	-0.228	-0.271
-338.318	210.937	0.170	0.265
-337.304	108.638	-0.140	0.165
-336.289	228.227	-0.228	0.368
-335.275	-200.000	0.013	0.161
-334.260	77.907	-0.128	-0.135
-333.245	204.345	-0.052	-0.079
-332.231	6.633	0.134	0.098
-331.216	227.747	-0.256	-0.413
-330.202	-78.209	0.116	0.040
-329.187	-127.321	-0.284	0.041
-328.172	-26.007	0.162	0.094
-327.158	265.593	-0.077	0.133
-326.143	-186.457	-0.140	0.002
-325.129	-111.312	0.309	0.062
-324.114	-79.679	-0.087	0.029
-323.099	-134.862	-0.157	-0.019
-322.085	14.074	-0.196	0.151
-321.070	0.504	0.232	-0.165
-320.056	-98.048	-0.215	-0.055
-319.041	-21.995	-0.314	0.189
-318.026	-135.395	-0.133	-0.016
-317.012	185.128	0.060	-0.088
-315.997	458.753	-0.136	0.301
-314.983	-104.191	-0.270	0.062
-313.968	56.835	-0.186	-0.179
-312.953	-100.996	-0.309	0.075
-311.939	263.661	0.093	-0.159
-310.924	-0.632	0.060	0.042
-309.910	-32.035	0.212	0.118
-308.895	108.897	-0.158	-0.187
-307.880	-200.000	0.061	0.294
-306.866	129.751	-0.142	-0.180
-305.851	238.052	-0.063	0.103
-304.837	800.000	0.083	0.290
-303.822	4.539	0.380	0.276
-302.807	-108.066	-0.300	-0.064
-301.793	-28.838	0.111	-0.063
-300.778	-77.822	-0.224	-0.077
-299.764	800.000	0.057	-0.245
-298.749	541.700	-0.104	-0.245
-297.735	-200.000	0.046	0.238
-296.720	113.077	-0.097	0.116
-295.705	255.089	-0.117	0.198
-294.691	503.663	-0.077	-0.176
-293.676	-64.792	0.256	0.103
-292.662	800.000	0.028	0.095
-291.647	-147.673	-0.244	0.020
-290.632	-81.835	0.036	-0.012
-289.618	15.762	0.181	-0.141
-288.603	800.000	0.068	-0.224
-287.589	121.288	0.164	-0.202
-286.574	-66.078	0.015	-0.006
-285.559	416.205	-0.196	0.414
-284.545	703.929	0.061	0.158
-283.530	-172.589	-0.321	0.010
-282.516	53.817	-0.160	0.152
-281.501	-127.538	-0.021	-0.003
-280.486	-200.000	0.035	0.595
-279.472	-200.000	-0.048	-0.227
-278.457	41.766	0.096	-0.086
-277.443	-117.825	-0.227	-0.040
-276.428	800.000	0.046	0.178
-275.413	158.545	0.105	-0.145
-274.399	179.483	-0.111	0.161
-273.384	13.057	-0.322	0.247
-272.370	61.558	0.113	0.111
-271.355	-31.886	-0.109	-0.061
-270.340	-7.031	0.109	-0.073
-269.326	-29.120	0.306	-0.174
-268.311	43.413	-0.178	0.161
-267.297	-200.000	0.003	-0.077
-266.282	241.277	0.043	0.071
-265.267	425.072	0.092	-0.197
-264.253	-200.000	-0.032	-0.171
-263.238	-7.730	-0.146	0.097
-262.224	108.184	0.182	0.214
-261.209	-87.759	0.119	0.035
-260.195	-77.660	-0.475	-0.162
-259.180	800.000	0.017	0.054
-258.165	-59.665	0.280	0.118
-257.151	246.786	-0.149	-0.248
-256.136	-39.693	0.183	0.095
-255.122	-115.063	0.028	-0.005
-254.107	340.464	-0.182	0.350
-253.092	84.159	-0.050	-0.054
-252.078	51.646	-0.093	0.087
-251.063	-200.000	-0.004	0.105
-250.049	800.000	-0.074	-0.226
-249.034	-73.023	0.194	0.070
-248.019	37.673	-0.342	-0.300
-247.005	-200.000	0.079	0.347
-245.990	70.740	0.132	-0.135
-244.976	3.568	0.165	0.119
-243.961	-92.401	-0.238	-0.066
-242.946	-142.969	0.541	0.052
-241.932	42.075	-0.254	0.227
-240.917	53.013	0.272	0.257
-239.903	-108.348	0.277	0.059
-238.888	386.842	0.188	-0.383
-237.873	-121.253	0.177	0.029
-236.859	49.814	-0.194	0.181
-235.844	-200.000	0.015	-0.094
-234.830	177.829	0.136	0.195
-233.815	217.125	0.211	0.332
-232.800	464.450	0.020	0.045
-231.786	110.853	0.155	-0.184
-230.771	-35.730	-0.237	-0.127
-229.757	-94.127	-0.094	-0.025
-228.742	-200.000	-0.061	-0.443
-227.727	3.250	0.188	-0.135
-226.713	-125.994	0.155	-0.023
-225.698	-73.921	0.153	0.055
-224.684	-71.961	-0.156	-0.057
-223.669	153.881	0.169	0.229
-222.655	75.773	0.113	-0.118
-221.640	-101.467	0.302	-0.072
-220.625	491.280	0.066	-0.150
-219.611	-84.759	-0.044	-0.014
-218.596	800.000	-0.119	0.329
-217.582	-93.930	0.380	0.103
-216.567	800.000	-0.017	-0.049
-215.552	48.795	-0.062	0.057
-214.538	800.000	-0.028	-0.104
-213.523	-200.000	0.036	-0.204
-212.509	123.592	-0.136	0.168
-211.494	-155.873	-0.232	-0.015
-210.479	450.317	-0.115	0.250
-209.465	174.195	0.021	-0.030
-208.450	490.635	0.133	0.299
-207.436	-127.722	0.135	0.019
-206.421	-102.260	0.321	-0.076
-205.406	362.061	-0.112	-0.221
-204.392	83.775	0.171	0.184
-203.377	-60.411	0.097	-0.041
-202.363	-91.795	-0.154	-0.043
-201.348	-29.351	-0.425	-0.240
-200.333	800.000	0.028	0.098
-199.319	100.239	0.160	-0.183
-198.304	-94.830	0.186	0.050
-197.290	81.074	-0.178	0.190
-196.275	-64.986	-0.390	0.156
-195.260	-91.106	0.442	-0.125
-194.246	-66.447	-0.271	0.106
-193.231	33.725	0.370	-0.317
-192.217	173.900	-0.083	0.119
-191.202	470.082	-0.099	0.219
-190.187	220.079	-0.085	-0.134
-189.173	7.123	0.205	-0.151
-188.158	88.580	0.160	-0.175
-187.144	-200.000	0.028	0.190
-186.129	-110.195	0.120	-0.025
-185.114	-200.000	0.030	0.582
-184.100	-200.000	-0.018	-0.271
-183.085	10.366	-0.154	0.115
-182.071	-200.000	0.028	0.136
-181.056	217.079	-0.071	-0.112
-180.042	185.734	-0.077	-0.113
-179.027	-77.216	-0.225	-0.077
-178.012	-43.130	0.369	0.184
-176.998	-27.511	0.178	0.102
-175.983	69.694	-0.201	0.205
-174.969	90.564	-0.195	0.215
-173.954	-14.547	0.198	-0.126
-172.939	561.142	0.116	-0.275
-171.925	288.206	-0.030	0.054
-170.910	7.561	-0.096	-0.071
-169.896	31.766	-0.105	-0.089
-168.881	-126.894	0.107	-0.015
-167.866	-200.000	-0.088	-0.445
-166.852	16.641	-0.167	0.130
-165.837	29.570	0.127	-0.107
-164.823	-200.000	-0.014	0.131
-163.808	-200.000	-0.012	-0.124
-162.793	387.442	0.077	0.157
-161.779	-200.000	-0.008	-0.279
-160.764	-134.274	0.353	-0.043
-159.750	-28.383	-0.125	0.071
-158.735	101.820	0.204	-0.234
-157.720	-28.855	0.270	-0.153
-156.706	-22.711	0.361	0.215
-155.691	-200.000	-0.046	-0.212
-154.677	160.423	0.141	-0.193
-153.662	-200.000	0.044	-0.232
-152.647	-3.443	0.111	-0.076
-151.633	29.474	0.245	-0.205
-150.618	-200.000	-0.001	0.061
-149.604	429.031	0.098	-0.208
-148.589	-10.250	-0.166	0.108
-147.574	-200.000	-0.014	-0.188
-146.560	-200.000	-0.010	0.111
-145.545	-122.039	-0.209	0.034
-144.531	21.374	0.174	0.139
-143.516	-193.411	0.388	0.003
-142.502	-34.276	-0.318	0.172
-141.487	-200.000	-0.043	-0.235
-140.472	-200.000	-0.034	0.200
-139.458	131.086	0.213	-0.269
-138.443	-106.986	-0.123	0.027
-137.429	-63.838	0.118	-0.047
-136.414	800.000	0.019	-0.059
-135.399	177.508	0.151	-0.217
-134.385	-77.258	-0.178	0.061
-133.370	17.576	-0.051	-0.040
-132.356	-200.000	0.005	-0.190
-131.341	800.000	0.037	0.148
-130.326	89.715	-0.138	-0.151
-129.312	286.500	0.221	0.392
-128.297	-151.404	0.187	-0.014
-127.283	-173.547	-0.429	0.013
-126.268	-134.647	0.235	0.028
-125.253	64.796	0.255	0.253
-124.239	40.265	-0.223	0.197
-123.224	-88.582	0.283	-0.083
-122.210	-50.576	0.279	0.129
-121.195	-200.000	0.033	-0.211
-120.180	240.670	0.051	0.083
