DTS Sentinel unit serial number:	SN413079Multiplexer serial number:	ORYXHardware model number:	OX4-SRSoftware version number:	ORYX F/W v4.00 Oryx Data Collector v3.7.2.0data status	okinstallation	princeton_trtdifferential loss correction	single-endedforward channel	channel 1reverse channel	N/Adate	2019/09/11time	20:20:11forward acquisition time	60.00reverse acquisition time	0.00gamma	496.2192k internal	0.2302k external	0.2302temperature offset calibration	1.0038default loss term (dB/km)	0.3790temperature slope calibration	1.0000multiplexer offset coefficient	1.0000multiplexer slope coefficient	1.0000fibre end	0.00T internal ref (°C)	37.97T ext. ref 1 (°C)	1.47T ext. ref 2 (°C)	31.41length (m)	temperature (°C)	Stokes	anti-Stokes-747.200	-43.998	-0.132	0.067
-746.185	-200.000	0.096	0.546
-745.171	-75.377	0.123	0.045
-744.156	127.614	-0.173	0.224
-743.142	71.923	0.212	-0.224
-742.127	75.339	-0.134	0.144
-741.112	800.000	0.051	0.218
-740.098	76.466	0.131	0.142
-739.083	73.942	-0.205	0.220
-738.069	-200.000	0.009	0.148
-737.054	-200.000	0.016	-0.265
-736.039	-140.182	-0.370	-0.040
-735.025	800.000	0.049	-0.187
-734.010	-63.903	0.219	0.091
-732.996	-87.965	-0.223	-0.068
-731.981	20.433	0.157	-0.130
-730.966	-117.367	-0.209	0.039
-729.952	-191.410	-0.242	0.002
-728.937	179.230	0.102	0.153
-727.923	271.446	0.050	0.089
-726.908	34.511	-0.102	0.091
-725.894	-28.011	-0.079	0.047
-724.879	68.212	-0.134	-0.140
-723.864	-200.000	-0.105	0.475
-722.850	317.647	-0.024	0.047
-721.835	-145.737	0.153	-0.014
-720.821	94.048	-0.399	-0.461
-719.806	23.307	-0.101	-0.085
-718.791	142.129	0.219	0.295
-717.777	800.000	0.101	-0.333
-716.762	-104.793	-0.303	0.071
-715.748	-79.392	-0.018	0.006
-714.733	204.703	0.054	0.085
-713.718	94.382	-0.188	-0.218
-712.704	104.189	0.146	0.175
-711.689	-106.414	0.174	0.040
-710.675	800.000	0.092	0.258
-709.660	137.589	-0.135	0.180
-708.645	-200.000	0.026	-0.188
-707.631	-97.603	0.296	-0.078
-706.616	-44.452	0.336	0.171
-705.602	127.541	-0.154	0.199
-704.587	-153.290	0.439	0.031
-703.572	-8.567	-0.234	0.160
-702.558	-121.675	0.111	-0.019
-701.543	-64.323	0.108	0.045
-700.529	338.452	-0.157	0.310
-699.514	800.000	-0.051	-0.189
-698.499	-87.909	0.121	0.037
-697.485	-200.000	0.049	0.242
-696.470	561.799	0.103	-0.253
-695.456	664.378	0.170	-0.447
-694.441	-77.206	-0.249	-0.088
-693.426	293.650	-0.096	0.179
-692.412	-200.000	0.054	-0.582
-691.397	-200.000	0.029	0.275
-690.383	84.674	-0.173	0.192
-689.368	-200.000	-0.008	-0.106
-688.354	-200.000	-0.049	0.222
-687.339	-200.000	-0.052	0.379
-686.324	-117.216	0.028	-0.005
-685.310	27.542	-0.327	-0.279
-684.295	234.643	0.099	-0.166
-683.281	-200.000	0.020	-0.094
-682.266	-54.573	0.135	0.062
-681.251	530.333	-0.113	-0.272
-680.237	-200.000	-0.067	-0.342
-679.222	-3.117	-0.189	0.134
-678.208	46.952	0.026	-0.025
-677.193	-9.430	-0.247	0.168
-676.178	15.191	0.345	-0.274
-675.164	800.000	-0.073	-0.230
-674.149	388.518	-0.097	-0.205
-673.135	-51.152	-0.185	-0.088
-672.120	323.160	0.207	0.401
-671.105	-10.179	-0.141	-0.095
-670.091	345.887	0.096	-0.193
-669.076	800.000	-0.097	0.294
-668.062	487.070	-0.056	0.130
-667.047	-121.964	0.075	0.013
-666.032	800.000	-0.026	-0.106
-665.018	-16.789	-0.291	-0.187
-664.003	91.543	0.133	0.152
-662.989	435.969	-0.143	0.316
-661.974	87.546	0.305	-0.343
-660.959	-107.484	0.148	0.033
-659.945	-7.848	-0.321	-0.220
-658.930	-200.000	-0.004	-0.170
-657.916	-200.000	-0.043	-0.221
-656.901	-100.261	-0.263	0.066
-655.886	24.196	0.150	-0.126
-654.872	151.218	-0.154	-0.213
-653.857	-20.731	-0.127	-0.079
-652.843	88.489	0.106	0.120
-651.828	-100.670	-0.194	-0.048
-650.814	-200.000	-0.014	-0.559
-649.799	101.886	-0.171	0.202
-648.784	-200.000	0.004	-0.297
-647.770	-132.306	-0.291	-0.038
-646.755	800.000	-0.138	-0.411
-645.741	3.434	0.332	-0.246
-644.726	-5.311	-0.231	-0.161
-643.711	108.484	0.079	-0.095
-642.697	-178.532	-0.638	0.015
-641.682	-200.000	0.033	0.165
-640.668	7.954	-0.046	0.035
-639.653	-200.000	0.033	-0.217
-638.638	447.404	0.137	-0.306
-637.624	-200.000	0.022	-0.158
-636.609	800.000	0.075	0.228
-635.595	106.058	0.143	-0.171
-634.580	-200.000	0.028	-0.219
-633.565	729.328	0.089	-0.240
-632.551	677.484	-0.069	-0.181
-631.536	626.152	-0.042	0.108
-630.522	-200.000	-0.014	-0.156
-629.507	-129.031	0.184	-0.026
-628.492	-11.990	0.236	-0.157
-627.478	519.488	0.030	-0.071
-626.463	3.799	0.077	0.057
-625.449	-94.698	-0.258	-0.071
-624.434	-200.000	-0.013	-0.140
-623.419	123.046	0.026	0.033
-622.405	61.905	-0.067	-0.067
-621.390	-159.173	0.335	0.019
-620.376	-141.054	0.169	-0.018
-619.361	800.000	-0.143	0.472
-618.346	-156.673	0.268	-0.017
-617.332	-6.768	-0.121	-0.084
-616.317	800.000	0.034	0.101
-615.303	264.098	0.053	0.094
-614.288	800.000	0.053	0.208
-613.273	-200.000	-0.040	-0.276
-612.259	800.000	-0.043	0.179
-611.244	-6.671	-0.118	-0.081
-610.230	-120.738	-0.320	-0.055
-609.215	800.000	-0.108	-0.333
-608.201	0.709	0.201	-0.146
-607.186	800.000	-0.135	-0.453
-606.171	-167.308	0.123	0.005
-605.157	800.000	-0.072	-0.316
-604.142	-200.000	-0.040	0.317
-603.128	-24.127	0.275	0.166
-602.113	-36.650	0.428	0.233
-601.098	-200.000	0.068	0.387
-600.084	79.360	0.259	0.281
-599.069	-22.390	0.193	-0.118
-598.055	-89.256	0.390	0.117
-597.040	-167.515	-0.289	0.012
-596.025	800.000	-0.065	-0.185
-595.011	800.000	0.056	0.180
-593.996	-118.349	-0.156	-0.028
-592.982	77.178	0.088	-0.094
-591.967	-200.000	-0.025	0.143
-590.952	800.000	-0.029	-0.119
-589.938	-45.630	0.205	0.103
-588.923	119.955	-0.211	-0.265
-587.909	383.719	-0.014	-0.030
-586.894	221.507	-0.121	0.197
-585.879	-152.296	-0.107	0.008
-584.865	-200.000	0.004	0.121
-583.850	7.051	-0.251	0.190
-582.836	-127.384	-0.206	-0.030
-581.821	540.358	-0.068	0.164
-580.806	-200.000	0.062	0.289
-579.792	282.976	-0.042	0.076
-578.777	-16.432	-0.260	0.167
-577.763	622.324	0.046	-0.117
-576.748	-15.945	0.217	-0.140
-575.733	91.093	-0.057	0.065
-574.719	254.162	-0.028	-0.049
-573.704	-53.584	-0.143	0.066
-572.690	1.258	0.236	-0.171
-571.675	11.141	0.328	0.254
-570.661	-70.513	-0.224	0.086
-569.646	800.000	-0.144	-0.516
-568.631	-13.671	-0.173	0.113
-567.617	67.366	-0.323	-0.334
-566.602	10.941	-0.111	-0.086
-565.588	-105.280	-0.098	0.023
-564.573	-86.408	0.230	-0.072
-563.558	-42.030	0.091	-0.047
-562.544	-113.779	0.213	-0.042
-561.529	326.101	0.118	0.228
-560.515	29.410	0.215	-0.185
-559.500	800.000	0.110	-0.337
-558.485	-1.216	0.185	-0.132
-557.471	-48.536	-0.078	-0.038
-556.456	219.741	-0.045	-0.074
-555.442	-129.578	0.138	0.019
-554.427	213.184	0.205	0.328
-553.412	-74.816	0.113	0.041
-552.398	-199.129	0.200	-0.001
-551.383	-109.269	0.050	-0.011
-550.369	22.680	-0.153	0.127
-549.354	-0.697	0.266	0.191
-548.339	800.000	0.052	0.226
-547.325	-38.760	0.265	-0.141
-546.310	17.184	-0.259	0.208
-545.296	-200.000	0.015	-0.275
-544.281	369.754	-0.121	-0.248
-543.266	-66.567	-0.201	-0.081
-542.252	-74.324	0.207	0.076
-541.237	-86.991	-0.241	-0.074
-540.223	-200.000	-0.030	-0.201
-539.208	800.000	0.123	-0.386
-538.193	-102.271	-0.185	0.045
-537.179	800.000	0.026	0.081
-536.164	135.890	-0.121	0.159
-535.150	69.057	-0.252	-0.262
-534.135	156.698	-0.128	0.179
-533.121	133.170	0.037	0.048
-532.106	800.000	0.074	0.224
-531.091	800.000	0.134	-0.502
-530.077	99.717	-0.135	-0.158
-529.062	199.567	-0.121	-0.188
-528.048	-140.134	-0.100	-0.011
-527.033	539.107	-0.086	-0.207
-526.018	77.698	-0.304	-0.327
-525.004	-68.324	0.191	0.075
-523.989	8.870	-0.138	0.105
-522.975	-67.043	0.116	0.046
-521.960	-200.000	-0.031	-0.325
-520.945	-50.213	-0.205	-0.098
-519.931	-136.047	-0.062	-0.007
-518.916	88.500	0.077	-0.087
-517.902	228.426	-0.036	-0.059
-516.887	-183.492	0.240	-0.004
-515.872	800.000	-0.033	0.126
-514.858	64.958	-0.206	0.210
-513.843	-126.842	-0.163	-0.024
-512.829	-62.409	-0.158	0.066
-511.814	-4.379	0.153	0.107
-510.799	328.819	-0.119	0.232
-509.785	131.515	0.238	0.309
-508.770	800.000	-0.076	0.222
-507.756	-200.000	0.016	-0.092
-506.741	35.942	-0.131	-0.116
-505.726	360.757	-0.074	0.150
-504.712	79.784	0.202	0.219
-503.697	201.156	-0.051	-0.080
-502.683	-200.000	-0.012	0.101
-501.668	-50.693	-0.041	0.019
-500.653	-132.908	-0.026	0.003
-499.639	332.400	-0.068	-0.132
-498.624	2.284	0.142	0.103
-497.610	-19.013	-0.106	0.066
-496.595	-170.585	0.114	0.004
-495.581	-0.189	0.242	-0.173
-494.566	522.966	-0.095	-0.225
-493.551	-127.598	0.233	0.034
-492.537	-200.000	-0.051	0.234
-491.522	198.722	-0.234	0.361
-490.508	600.593	-0.046	0.114
-489.493	59.850	0.017	0.017
-488.478	-134.296	-0.129	0.016
-487.464	-137.231	-0.369	-0.042
-486.449	-21.022	-0.335	-0.207
-485.435	-47.197	0.166	0.082
-484.420	234.384	-0.095	0.157
-483.405	-42.204	-0.295	0.152
-482.391	-200.000	0.017	-0.131
-481.376	-161.782	0.053	-0.003
-480.362	-104.907	0.269	-0.062
-479.347	-77.069	0.247	-0.087
-478.332	800.000	-0.053	-0.180
-477.318	-29.794	-0.220	0.127
-476.303	274.760	-0.059	-0.105
-475.289	-135.597	0.102	-0.012
-474.274	-165.835	-0.220	-0.010
-473.259	-94.632	-0.028	-0.008
-472.245	-200.000	0.016	0.094
-471.230	-98.754	-0.077	0.020
-470.216	245.180	-0.089	-0.151
-469.201	335.701	0.039	-0.077
-468.186	800.000	-0.032	0.104
-467.172	-174.296	-0.370	0.011
-466.157	-56.268	0.196	-0.088
-465.143	-46.377	0.317	0.157
-464.128	-200.000	0.006	0.119
-463.113	800.000	-0.071	0.233
-462.099	-172.759	0.491	-0.015
-461.084	-200.000	-0.000	-0.030
-460.070	-123.884	0.091	0.015
-459.055	-170.286	0.131	-0.005
-458.040	-200.000	-0.005	-0.282
-457.026	-200.000	-0.014	-0.091
-456.011	204.651	-0.194	0.303
-454.997	77.775	0.216	0.232
-453.982	-200.000	-0.016	-0.113
-452.968	77.645	-0.134	0.144
-451.953	387.852	0.069	0.144
-450.938	-91.853	0.195	-0.056
-449.924	-13.078	0.178	0.117
-448.909	380.083	-0.152	0.313
-447.895	-8.122	0.148	-0.100
-446.880	-118.512	0.198	0.035
-445.865	-105.431	-0.458	0.105
-444.851	-200.000	0.040	-0.297
-443.836	682.910	-0.093	-0.243
-442.822	75.885	0.109	0.116
-441.807	-45.574	-0.193	0.096
-440.792	101.666	-0.159	-0.187
-439.778	-36.108	-0.247	-0.134
-438.763	69.357	0.244	-0.253
-437.749	-18.775	-0.311	0.195
-436.734	215.052	0.108	-0.173
-435.719	36.412	-0.197	0.175
-434.705	-200.000	0.001	0.039
-433.690	-200.000	-0.020	0.172
-432.676	82.949	0.089	0.097
-431.661	-104.739	-0.223	0.052
-430.646	-10.339	-0.078	0.052
-429.632	417.988	0.109	-0.233
-428.617	5.238	0.068	-0.051
-427.603	424.730	-0.067	0.145
-426.588	-83.133	0.084	-0.027
-425.573	26.957	0.138	-0.117
-424.559	431.039	0.129	-0.280
-423.544	-56.703	-0.125	-0.056
-422.530	-128.365	0.108	0.015
-421.515	800.000	0.023	0.065
-420.500	9.249	-0.116	0.088
-419.486	19.637	0.066	-0.053
-418.471	-143.945	-0.231	-0.022
-417.457	276.467	0.179	0.319
-416.442	-110.812	0.374	-0.078
-415.428	567.734	-0.078	-0.191
-414.413	-99.275	-0.253	0.064
-413.398	-77.620	0.267	0.093
-412.384	-47.532	-0.251	0.123
-411.369	-67.628	0.175	-0.069
-410.355	26.470	-0.104	-0.088
-409.340	-155.242	-0.479	-0.031
-408.325	4.502	-0.116	-0.085
-407.311	29.988	0.049	-0.042
-406.296	1.026	0.067	-0.048
-405.282	-58.327	0.220	-0.096
-404.267	5.654	0.143	0.106
-403.252	-200.000	0.017	0.085
-402.238	31.868	-0.119	0.103
-401.223	16.730	-0.163	0.130
-400.209	81.905	0.104	-0.113
-399.194	-87.114	-0.195	0.060
-398.179	508.063	-0.153	-0.358
-397.165	55.107	0.338	-0.329
-396.150	-120.788	-0.338	-0.057
-395.136	100.344	0.223	0.260
-394.121	800.000	-0.036	-0.106
-393.106	209.387	0.149	-0.235
-392.092	293.195	-0.087	-0.159
-391.077	-117.011	0.165	-0.030
-390.063	680.522	-0.041	0.106
-389.048	-200.000	0.024	-0.117
-388.033	-77.430	0.086	0.030
-387.019	1.643	-0.177	0.128
-386.004	-83.140	-0.210	0.068
-384.990	-200.000	0.017	-0.181
-383.975	42.737	0.236	-0.216
-382.960	166.365	-0.181	-0.258
-381.946	101.278	0.126	0.147
-380.931	800.000	0.052	0.184
-379.917	280.611	0.113	-0.203
-378.902	512.603	0.049	0.114
-377.888	185.809	0.165	0.246
-376.873	97.245	0.181	0.209
-375.858	-75.872	-0.261	0.093
-374.844	665.822	-0.144	-0.372
-373.829	216.094	0.246	-0.392
-372.815	79.729	0.135	0.146
-371.800	-200.000	-0.300	-0.001
-370.785	446.316	0.039	0.085
-369.771	31.080	0.046	-0.039
-368.756	-56.005	-0.034	-0.015
-367.742	312.766	-0.069	0.131
-366.727	5.571	-0.012	-0.009
-365.712	-119.643	0.093	-0.016
-364.698	600.588	-0.142	0.354
-363.683	-200.000	0.039	-0.186
-362.669	176.567	-0.071	0.103
-361.654	-29.608	-0.189	-0.109
-360.639	-66.383	-0.240	0.096
-359.625	130.668	0.087	-0.112
-358.610	-11.493	0.289	-0.191
-357.596	79.238	0.290	0.312
-356.581	800.000	0.047	0.196
-355.566	582.182	-0.208	-0.512
-354.552	-24.959	0.180	-0.107
-353.537	758.411	-0.079	0.216
-352.523	213.192	-0.307	-0.487
-351.508	-200.000	-0.049	0.254
-350.493	-72.550	-0.408	-0.151
-349.479	13.085	-0.149	-0.116
-348.464	273.151	0.112	0.199
-347.450	-146.152	-0.300	-0.026
-346.435	-200.000	-0.010	0.064
-345.420	-133.787	-0.111	0.014
-344.406	40.333	0.155	0.140
-343.391	40.039	0.088	0.079
-342.377	-200.000	0.006	0.144
-341.362	-200.000	-0.022	0.198
-340.348	-90.923	-0.101	0.029
-339.333	-76.683	-0.136	0.048
-338.318	-159.431	-0.123	-0.007
-337.304	-176.514	0.461	-0.012
-336.289	-18.503	0.174	-0.109
-335.275	154.686	0.052	-0.072
-334.260	-3.275	-0.094	0.065
-333.245	-131.724	0.502	0.066
-332.231	-171.327	-0.058	-0.002
-331.216	-200.000	-0.035	0.172
-330.202	791.081	0.048	-0.131
-329.187	-200.000	-0.011	-0.202
-328.172	213.454	0.087	0.137
-327.158	-118.370	0.333	0.059
-326.143	-116.117	-0.117	-0.022
-325.129	371.481	0.107	0.217
-324.114	800.000	0.071	-0.198
-323.099	-135.644	-0.401	0.048
-322.085	-147.940	-0.280	-0.023
-321.070	-200.000	-0.049	-0.386
-320.056	299.319	0.058	-0.108
-319.041	-59.831	0.150	-0.064
-318.026	179.705	0.028	-0.041
-317.012	217.338	-0.104	0.166
-315.997	-200.000	0.057	0.470
-314.983	349.073	0.072	-0.143
-313.968	-200.000	-0.034	-0.252
-312.953	75.591	0.170	-0.179
-311.939	19.743	0.099	-0.080
-310.924	-2.566	0.142	-0.100
-309.910	-112.804	0.255	0.051
-308.895	209.713	-0.109	-0.172
-307.880	-119.073	0.088	-0.015
-306.866	2.069	0.157	-0.114
-305.851	-3.100	-0.437	-0.305
-304.837	136.561	-0.097	0.127
-303.822	-200.000	-0.010	0.115
-302.807	800.000	-0.024	0.105
-301.793	152.358	0.018	-0.025
-300.778	285.583	0.138	0.249
-299.764	99.676	0.350	0.406
-298.749	-85.437	-0.204	-0.064
-297.735	66.403	0.176	-0.179
-296.720	-144.281	-0.206	0.019
-295.705	-39.251	-0.263	0.138
-294.691	800.000	-0.158	0.466
-293.676	31.863	0.291	-0.251
-292.662	-32.419	-0.117	-0.065
-291.647	800.000	-0.045	-0.167
-290.632	800.000	-0.073	0.264
-289.618	-100.594	-0.139	0.034
-288.603	19.992	0.166	-0.134
-287.589	-200.000	-0.076	0.437
-286.574	99.159	0.127	0.147
-285.559	75.458	-0.178	0.188
-284.545	-123.493	0.223	0.035
-283.530	-200.000	0.009	0.273
-282.516	-110.009	0.156	0.033
-281.501	87.451	0.110	-0.122
-280.486	107.019	0.230	0.273
-279.472	-128.846	-0.008	0.001
-278.457	-29.907	-0.462	0.263
-277.443	-106.553	-0.246	0.055
-276.428	-30.119	-0.268	-0.152
-275.413	308.571	-0.117	0.219
-274.399	-200.000	0.017	0.189
-273.384	-47.823	0.129	0.063
-272.370	800.000	0.013	0.041
-271.355	-126.692	0.350	-0.052
-270.340	-109.776	-0.348	0.073
-269.326	5.780	-0.073	0.054
-268.311	500.944	0.107	-0.246
-267.297	-200.000	0.088	0.520
-266.282	-70.725	-0.156	0.059
-265.267	-1.561	-0.065	0.046
-264.253	125.632	0.148	-0.187
-263.238	-140.989	0.132	0.013
-262.224	-102.277	0.086	-0.021
-261.209	-200.000	-0.047	0.217
-260.195	561.972	-0.072	0.173
-259.180	-200.000	0.032	0.297
-258.165	-200.000	0.004	-0.085
-257.151	-59.657	0.104	0.045
-256.136	-83.999	0.415	-0.132
-255.122	71.255	-0.208	-0.216
-254.107	50.017	0.337	-0.318
-253.092	800.000	-0.090	-0.356
-252.078	1.686	-0.181	-0.130
-251.063	-79.266	-0.393	0.133
-250.049	104.422	0.121	-0.142
-249.034	-110.190	0.087	0.018
-248.019	-200.000	0.215	0.001
-247.005	-200.000	0.005	-0.027
-245.990	-51.500	0.111	0.052
-244.976	20.268	0.090	-0.073
-243.961	-96.217	0.068	0.018
-242.946	85.480	0.103	-0.113
-241.932	-28.887	-0.323	0.186
-240.917	800.000	-0.032	-0.090
-239.903	275.322	0.106	0.188
-238.888	-200.000	0.001	0.024
-237.873	198.513	0.027	-0.041
-236.859	751.814	0.068	-0.183
-235.844	-26.340	-0.062	-0.036
-234.830	253.044	-0.100	-0.170
-233.815	-200.000	-0.015	-0.247
-232.800	130.193	-0.051	0.066
-231.786	-64.523	-0.147	0.060
-230.771	49.125	0.204	0.191
-229.757	-113.943	0.282	-0.055
-228.742	-200.000	-0.006	-0.095
-227.727	30.444	0.161	-0.137
-226.713	-122.515	0.060	0.010
-225.698	84.968	-0.311	0.341
-224.684	7.987	0.232	0.174
-223.669	186.127	0.187	0.278
-222.655	304.024	-0.167	-0.309
-221.640	-200.000	0.005	-0.410
-220.625	-59.390	-0.087	-0.037
-219.611	96.566	-0.061	0.070
-218.596	-122.659	0.585	-0.095
-217.582	-91.100	0.071	0.020
-216.567	-48.678	0.137	0.066
-215.552	-200.000	0.052	-0.272
-214.538	473.738	-0.026	-0.059
-213.523	510.562	0.029	0.067
-212.509	8.224	-0.072	-0.054
-211.494	18.407	-0.139	0.110
-210.479	198.552	0.027	-0.042
-209.465	-29.296	-0.117	-0.067
-208.450	-62.415	-0.101	0.042
-207.436	800.000	-0.087	0.316
-206.421	111.794	0.180	0.217
-205.406	220.479	-0.059	0.094
-204.392	13.499	-0.336	0.260
-203.377	-200.000	0.051	-0.341
-202.363	14.551	0.317	-0.247
-201.348	-50.584	-0.054	0.025
-200.333	800.000	-0.051	-0.166
-199.319	539.716	0.138	0.328
-198.304	752.155	0.095	0.257
-197.290	-45.560	-0.163	0.080
-196.275	-122.760	-0.035	0.006
-195.260	-200.000	0.032	0.160
-194.246	-200.000	-0.005	0.512
-193.231	37.470	0.130	0.115
-192.217	-200.000	-0.034	0.390
-191.202	430.189	0.089	0.192
-190.187	-133.409	-0.255	0.032
-189.173	127.263	0.187	0.236
-188.158	-173.672	0.049	0.001
-187.144	-200.000	-0.013	-0.291
-186.129	-112.953	0.439	-0.087
-185.114	238.272	-0.128	0.212
-184.100	92.026	-0.200	-0.225
-183.085	178.187	0.083	-0.121
-182.071	97.490	-0.085	-0.097
-181.056	-43.002	0.254	0.128
-180.042	-70.004	0.153	-0.058
-179.027	54.299	-0.086	-0.083
-178.012	-22.146	0.228	-0.138
-176.998	-47.365	0.092	0.045
-175.983	155.737	-0.168	-0.231
-174.969	-53.765	-0.262	0.119
-173.954	-5.737	0.113	-0.077
-172.939	84.746	0.085	-0.093
-171.925	-90.679	-0.133	0.038
-170.910	555.428	-0.016	-0.038
-169.896	-129.763	-0.399	-0.055
-168.881	-200.000	-0.005	-0.313
-167.866	-200.000	0.035	0.202
-166.852	800.000	-0.051	-0.161
-165.837	188.246	0.120	0.178
-164.823	106.968	0.112	0.133
-163.808	-15.691	-0.116	0.073
-162.793	-57.078	-0.316	0.139
-161.779	385.384	0.065	0.134
-160.764	121.586	-0.223	0.276
-159.750	-13.586	0.093	0.060
-158.735	65.287	0.130	-0.131
-157.720	-64.859	-0.123	-0.050
-156.706	-200.000	0.011	-0.187
-155.691	-200.000	-0.013	-0.061
-154.677	-1.949	0.173	-0.121
-153.662	37.793	0.221	0.195
-152.647	177.826	0.081	0.118
-151.633	17.105	-0.161	-0.127
-150.618	109.410	0.032	0.038
-149.604	-89.439	0.038	0.011
-148.589	-87.543	0.199	0.060
-147.574	800.000	0.091	0.319
-146.560	-106.651	0.412	0.091
-145.545	800.000	0.066	0.192
-144.531	297.856	-0.129	-0.236
-143.516	-14.203	0.100	0.064
-142.502	108.473	-0.128	-0.152
-141.487	586.803	-0.132	-0.323
-140.472	-112.453	-0.606	-0.120
-139.458	668.775	0.058	-0.149
-138.443	-82.929	0.206	0.066
-137.429	-200.000	0.022	-0.364
-136.414	515.727	-0.140	0.326
-135.399	-200.000	0.068	-0.419
-134.385	-86.256	-0.294	0.090
-133.370	22.142	-0.096	-0.078
-132.356	49.037	0.266	-0.249
-131.341	255.230	-0.066	-0.113
-130.326	6.102	-0.155	-0.114
-129.312	-70.891	0.316	-0.119
-128.297	-26.089	-0.313	-0.183
-127.283	104.227	-0.062	-0.072
-126.268	243.014	-0.051	-0.085
-125.253	-200.000	-0.021	0.163
-124.239	-113.171	-0.187	0.037
-123.224	2.016	0.115	0.082
-122.210	-31.330	0.404	0.226
-121.195	15.395	0.261	-0.203
-120.180	-48.106	-0.112	0.054
