DTS Sentinel unit serial number:	SN413079Multiplexer serial number:	ORYXHardware model number:	OX4-SRSoftware version number:	ORYX F/W v4.00 Oryx Data Collector v3.7.2.0data status	okinstallation	princeton_trtdifferential loss correction	single-endedforward channel	channel 1reverse channel	N/Adate	2019/09/10time	17:12:11forward acquisition time	60.00reverse acquisition time	0.00gamma	496.2192k internal	0.2299k external	0.2299temperature offset calibration	0.9924default loss term (dB/km)	0.3790temperature slope calibration	1.0000multiplexer offset coefficient	1.0000multiplexer slope coefficient	1.0000fibre end	0.00T internal ref (°C)	37.62T ext. ref 1 (°C)	-0.36T ext. ref 2 (°C)	31.95length (m)	temperature (°C)	Stokes	anti-Stokes-747.200	158.482	0.111	-0.158
-746.185	97.581	-0.031	0.036
-745.171	-61.550	-0.351	-0.150
-744.156	-200.000	-0.035	-0.221
-743.142	800.000	-0.025	-0.099
-742.127	632.840	-0.048	-0.123
-741.112	75.740	0.230	-0.248
-740.098	77.449	-0.191	0.207
-739.083	-135.880	0.132	-0.016
-738.069	-101.782	0.132	0.033
-737.054	800.000	0.057	0.179
-736.039	650.344	-0.049	0.129
-735.025	38.980	-0.135	-0.123
-734.010	-200.000	0.029	-0.135
-732.996	-200.000	-0.032	-0.235
-731.981	521.201	-0.020	-0.047
-730.966	70.174	-0.250	-0.264
-729.952	10.455	0.170	0.132
-728.937	-200.000	-0.017	-0.174
-727.923	151.792	-0.172	0.239
-726.908	-200.000	-0.034	-0.532
-725.894	-9.979	0.234	0.159
-724.879	-200.000	0.015	0.172
-723.864	-200.000	0.033	0.446
-722.850	-183.652	-0.057	0.001
-721.835	34.179	-0.390	-0.346
-720.821	-200.000	-0.030	-0.222
-719.806	800.000	-0.088	-0.300
-718.791	-112.421	0.082	0.017
-717.777	273.713	-0.100	0.180
-716.762	181.126	-0.135	0.202
-715.748	-114.775	0.212	0.041
-714.733	-75.039	-0.239	-0.087
-713.718	149.273	-0.041	-0.057
-712.704	-60.048	-0.233	-0.102
-711.689	-200.000	0.010	-0.069
-710.675	83.034	-0.181	-0.201
-709.660	137.434	0.133	-0.177
-708.645	257.031	0.201	-0.352
-707.631	-68.655	-0.331	0.130
-706.616	96.269	-0.119	-0.139
-705.602	-200.000	-0.033	-0.261
-704.587	-64.812	0.126	-0.052
-703.572	4.614	0.167	0.125
-702.558	-82.220	-0.385	0.128
-701.543	-200.000	0.046	0.297
-700.529	114.561	0.094	0.116
-699.514	458.985	0.106	0.239
-698.499	-46.154	-0.195	0.098
-697.485	-23.390	-0.350	-0.214
-696.470	-28.787	-0.106	0.062
-695.456	-200.000	0.010	-0.401
-694.441	-43.164	-0.243	0.125
-693.426	800.000	-0.031	0.135
-692.412	180.460	0.185	-0.277
-691.397	-40.443	0.149	0.079
-690.383	-44.230	0.128	0.065
-689.368	-160.678	0.096	-0.005
-688.354	307.684	-0.093	0.177
-687.339	229.806	-0.148	-0.246
-686.324	-200.000	-0.009	0.243
-685.310	-200.000	-0.014	-0.460
-684.295	118.230	-0.011	0.014
-683.281	-96.516	-0.336	0.090
-682.266	0.835	-0.137	-0.100
-681.251	-200.000	-0.035	-0.193
-680.237	-200.000	0.048	-0.267
-679.222	-10.015	-0.390	-0.264
-678.208	93.380	0.218	0.251
-677.193	75.656	-0.152	-0.164
-676.178	-144.000	-0.252	-0.024
-675.164	-98.523	0.223	-0.058
-674.149	214.774	-0.124	0.199
-673.135	-32.865	0.091	0.052
-672.120	183.883	-0.146	-0.220
-671.105	88.052	-0.074	-0.083
-670.091	-69.233	-0.404	-0.158
-669.076	-58.061	0.301	0.133
-668.062	-200.000	-0.046	-0.303
-667.047	-26.423	-0.115	-0.069
-666.032	-200.000	-0.011	0.300
-665.018	135.364	0.048	-0.063
-664.003	-51.418	0.051	0.024
-662.989	573.551	0.014	0.034
-661.974	113.170	0.163	-0.201
-660.959	-200.000	-0.036	0.463
-659.945	345.375	-0.073	-0.146
-658.930	-200.000	0.021	-0.268
-657.916	-24.365	-0.098	0.059
-656.901	-163.828	-0.380	-0.018
-655.886	-54.247	-0.169	-0.078
-654.872	800.000	-0.063	0.201
-653.857	193.899	0.151	-0.232
-652.843	-200.000	-0.011	-0.408
-651.828	57.072	0.086	-0.086
-650.814	-127.003	0.426	0.064
-649.799	413.002	-0.052	0.112
-648.784	-109.937	0.316	0.067
-647.770	800.000	-0.060	0.187
-646.755	-193.269	0.364	-0.003
-645.741	37.598	0.109	-0.098
-644.726	245.759	0.041	-0.070
-643.711	593.681	-0.031	-0.077
-642.697	96.274	-0.088	0.102
-641.682	637.965	-0.039	-0.102
-640.668	-82.234	0.175	-0.058
-639.653	129.925	-0.287	-0.373
-638.638	-13.152	-0.026	-0.017
-637.624	641.046	-0.160	-0.414
-636.609	-200.000	-0.008	-0.059
-635.595	-200.000	-0.010	0.269
-634.580	-70.466	0.269	-0.103
-633.565	800.000	-0.043	-0.126
-632.551	106.881	-0.145	0.175
-631.536	800.000	-0.029	0.101
-630.522	781.681	0.055	0.154
-629.507	-200.000	0.006	0.118
-628.492	-170.008	0.328	0.012
-627.478	-35.320	-0.088	0.048
-626.463	31.623	-0.019	0.016
-625.449	800.000	0.033	-0.122
-624.434	4.571	-0.006	0.004
-623.419	-8.046	0.078	-0.053
-622.405	42.108	0.057	0.052
-621.390	245.504	-0.035	-0.060
-620.376	-56.883	0.334	0.150
-619.361	112.467	-0.150	-0.184
-618.346	800.000	-0.072	-0.220
-617.332	-182.394	0.077	0.001
-616.317	-155.587	0.254	-0.017
-615.303	325.820	0.044	0.085
-614.288	-200.000	0.032	-0.171
-613.273	-106.894	-0.177	0.040
-612.259	40.783	-0.035	0.032
-611.244	-200.000	0.013	0.071
-610.230	-200.000	0.050	-0.245
-609.215	800.000	0.058	0.200
-608.201	-149.068	0.224	0.018
-607.186	318.595	0.171	-0.329
-606.171	-15.272	0.303	-0.197
-605.157	-200.000	0.003	0.125
-604.142	11.522	0.245	0.190
-603.128	-200.000	0.128	-0.661
-602.113	88.109	0.079	0.089
-601.098	51.370	0.098	-0.094
-600.084	122.607	0.046	0.059
-599.069	800.000	-0.109	-0.412
-598.055	348.684	0.123	0.245
-597.040	-72.091	-0.203	-0.076
-596.025	-58.133	-0.278	0.123
-595.011	498.567	0.203	-0.473
-593.996	800.000	0.003	-0.014
-592.982	179.647	-0.064	0.095
-591.967	-200.000	-0.010	0.449
-590.952	246.359	-0.028	0.049
-589.938	-200.000	-0.030	0.252
-588.923	5.609	0.156	-0.117
-587.909	-85.372	0.225	0.071
-586.894	103.161	0.172	0.204
-585.879	251.080	0.100	0.172
-584.865	-84.618	0.378	0.121
-583.850	-125.430	0.092	-0.014
-582.836	-200.000	-0.033	-0.239
-581.821	541.078	0.041	0.099
-580.806	-200.000	-0.027	-0.308
-579.792	-128.537	-0.198	0.029
-578.777	-35.089	-0.261	0.144
-577.763	-85.842	0.289	0.091
-576.748	435.719	-0.089	-0.196
-575.733	800.000	0.111	-0.373
-574.719	-200.000	0.050	0.304
-573.704	-42.705	0.085	-0.044
-572.690	60.742	0.204	0.205
-571.675	-101.274	0.230	-0.057
-570.661	800.000	-0.025	-0.079
-569.646	90.522	0.016	0.018
-568.631	-19.373	-0.009	-0.005
-567.617	-132.362	0.238	0.031
-566.602	-88.640	0.139	0.042
-565.588	-79.293	-0.200	0.069
-564.573	-138.763	-0.155	0.017
-563.558	-162.598	-0.375	-0.019
-562.544	275.756	0.111	0.199
-561.529	-64.246	0.283	-0.117
-560.515	-108.630	0.233	-0.051
-559.500	-153.206	0.013	0.001
-558.485	-200.000	-0.032	0.146
-557.471	36.208	-0.258	-0.230
-556.456	227.754	-0.111	-0.182
-555.442	-101.817	0.041	-0.010
-554.427	-70.318	0.176	0.067
-553.412	-200.000	0.034	-0.172
-552.398	-152.223	0.167	-0.012
-551.383	-19.033	-0.211	-0.133
-550.369	-24.875	-0.363	0.218
-549.354	121.658	-0.406	-0.512
-548.339	800.000	-0.026	-0.103
-547.325	-140.107	0.167	0.018
-546.310	-28.798	-0.075	-0.044
-545.296	82.112	0.167	-0.184
-544.281	264.115	-0.049	-0.087
-543.266	65.570	-0.183	-0.188
-542.252	-33.512	0.238	0.133
-541.237	-29.997	0.124	-0.072
-540.223	-200.000	0.006	0.288
-539.208	460.933	0.060	0.136
-538.193	-200.000	-0.029	0.147
-537.179	-46.425	-0.079	-0.039
-536.164	156.803	-0.091	0.127
-535.150	-200.000	0.029	-0.278
-534.135	-88.124	-0.204	0.062
-533.121	-175.305	-0.181	-0.005
-532.106	-200.000	-0.017	-0.208
-531.091	-200.000	0.028	0.210
-530.077	-200.000	0.006	-0.091
-529.062	36.439	-0.233	0.208
-528.048	264.302	-0.151	0.265
-527.033	-200.000	0.018	0.228
-526.018	-200.000	-0.047	-0.331
-525.004	211.313	0.064	0.102
-523.989	90.354	-0.257	-0.291
-522.975	-149.257	0.264	-0.021
-521.960	190.000	-0.104	0.158
-520.945	-107.645	0.267	0.059
-519.931	-138.212	0.239	-0.027
-518.916	14.804	0.192	0.152
-517.902	-137.494	0.120	-0.014
-516.887	800.000	0.049	-0.199
-515.872	-84.468	-0.236	0.075
-514.858	-200.000	0.048	-0.268
-513.843	-107.129	-0.326	0.073
-512.829	172.682	0.206	0.299
-511.814	179.352	0.206	0.306
-510.799	-34.148	-0.133	-0.074
-509.785	58.343	0.045	0.044
-508.770	-136.108	-0.349	-0.041
-507.756	-84.414	0.230	0.073
-506.741	-39.736	0.270	-0.143
-505.726	-134.617	0.223	-0.027
-504.712	-200.000	-0.021	0.136
-503.697	-44.083	0.178	-0.090
-502.683	-200.000	-0.005	0.089
-501.668	146.645	0.142	0.193
-500.653	31.425	0.299	-0.259
-499.639	1.644	0.078	0.057
-498.624	-200.000	-0.018	0.296
-497.610	-200.000	0.010	-0.056
-496.595	-101.684	0.262	0.064
-495.581	-189.358	-0.109	0.001
-494.566	-67.133	-0.337	0.134
-493.551	12.061	0.082	-0.064
-492.537	252.479	-0.069	0.120
-491.522	-37.005	-0.265	-0.144
-490.508	-146.000	-0.149	-0.013
-489.493	5.695	-0.105	0.078
-488.478	35.391	0.183	0.162
-487.464	110.726	-0.085	-0.103
-486.449	87.064	-0.178	0.198
-485.435	673.553	0.093	-0.242
-484.420	-106.200	0.326	-0.074
-483.405	-89.338	-0.316	0.094
-482.391	800.000	-0.035	-0.102
-481.376	-123.321	0.095	0.015
-480.362	-85.827	0.423	-0.132
-479.347	-34.892	-0.130	0.072
-478.332	800.000	0.036	-0.133
-477.318	800.000	-0.070	-0.305
-476.303	800.000	0.070	-0.233
-475.289	195.633	0.082	-0.126
-474.274	223.524	-0.137	-0.223
-473.259	-200.000	0.014	-0.062
-472.245	-90.262	-0.067	-0.020
-471.230	55.983	-0.216	0.212
-470.216	-200.000	-0.029	-0.262
-469.201	-63.991	0.052	-0.021
-468.186	596.894	-0.006	0.014
-467.172	800.000	0.106	0.350
-466.157	-200.000	0.026	-0.414
-465.143	-40.000	0.141	-0.074
-464.128	-200.000	-0.001	0.213
-463.113	-29.606	0.215	-0.124
-462.099	-89.489	-0.225	0.067
-461.084	-20.203	-0.211	0.131
-460.070	116.160	-0.146	-0.181
-459.055	-148.055	-0.303	0.025
-458.040	-150.416	-0.354	-0.027
-457.026	-200.000	0.006	0.177
-456.011	-112.764	-0.367	-0.073
-454.997	-109.044	-0.042	0.009
-453.982	398.433	-0.113	-0.239
-452.968	-49.061	-0.397	-0.192
-451.953	60.466	-0.110	0.109
-450.938	-40.314	-0.349	0.183
-449.924	267.178	-0.118	0.209
-448.909	-106.026	-0.131	0.030
-447.895	433.886	-0.128	-0.280
-446.880	-64.908	-0.197	-0.080
-445.865	-126.283	0.103	0.015
-444.851	-163.231	0.281	0.014
-443.836	-29.503	-0.329	-0.190
-442.822	-50.563	0.310	-0.148
-441.807	789.347	0.099	-0.273
-440.792	-18.035	-0.132	-0.084
-439.778	-107.935	0.267	0.058
-438.763	437.536	0.059	0.129
-437.749	-200.000	0.045	0.305
-436.734	-104.959	-0.330	-0.076
-435.719	800.000	0.081	0.276
-434.705	800.000	0.019	0.065
-433.690	434.245	-0.027	0.058
-432.676	313.640	-0.101	0.191
-431.661	24.143	0.227	0.189
-430.646	-94.110	-0.167	0.046
-429.632	-4.998	0.101	-0.070
-428.617	294.133	0.130	-0.240
-427.603	-58.955	0.213	-0.093
-426.588	420.177	0.068	0.148
-425.573	-83.109	0.078	-0.025
-424.559	-200.000	0.084	0.388
-423.544	272.896	-0.069	-0.122
-422.530	-200.000	0.048	-0.228
-421.515	309.621	-0.068	0.128
-420.500	-200.000	0.025	-0.176
-419.486	186.525	-0.124	-0.186
-418.471	-33.579	0.352	-0.196
-417.457	800.000	-0.044	0.145
-416.442	0.682	0.217	0.157
-415.428	607.857	0.051	-0.129
-414.413	-13.839	0.112	-0.073
-413.398	-8.997	-0.317	-0.214
-412.384	649.752	-0.179	0.461
-411.369	-12.872	-0.176	0.115
-410.355	800.000	-0.151	-0.421
-409.340	-60.280	-0.242	-0.104
-408.325	-70.611	-0.196	-0.075
-407.311	-104.815	0.073	0.017
-406.296	-79.775	0.397	-0.135
-405.282	36.232	0.121	0.107
-404.267	-47.449	-0.292	0.143
-403.252	365.932	0.066	0.135
-402.238	578.366	-0.125	-0.307
-401.223	296.683	-0.070	0.129
-400.209	-200.000	-0.026	-0.216
-399.194	29.718	0.145	0.124
-398.179	-150.275	0.251	-0.019
-397.165	-113.100	-0.055	0.011
-396.150	44.811	-0.055	-0.051
-395.136	-86.615	-0.174	0.054
-394.121	43.026	0.156	-0.143
-393.106	294.790	-0.133	0.245
-392.092	45.349	-0.147	0.137
-391.077	264.190	-0.111	-0.194
-390.063	-200.000	0.018	0.132
-389.048	-109.616	0.190	-0.040
-388.033	0.923	-0.264	-0.190
-387.019	-57.943	-0.152	-0.067
-386.004	222.781	-0.085	-0.138
-384.990	-79.798	-0.490	0.166
-383.975	199.893	-0.256	-0.396
-382.960	-64.629	-0.310	-0.127
-381.946	-32.290	-0.138	0.078
-380.931	24.111	-0.136	0.113
-379.917	-73.652	0.330	-0.121
-378.902	-86.071	-0.151	-0.047
-377.888	800.000	0.119	0.475
-376.873	93.399	-0.161	0.183
-375.858	-98.096	0.171	0.044
-374.844	-92.294	-0.206	-0.058
-373.829	195.296	-0.205	-0.313
-372.815	1.943	-0.113	-0.082
-371.800	-136.876	-0.279	-0.032
-370.785	800.000	0.088	0.314
-369.771	-200.000	-0.062	0.321
-368.756	-35.620	0.248	-0.135
-367.742	25.142	0.496	0.414
-366.727	-159.498	-0.035	0.002
-365.712	79.556	-0.155	-0.168
-364.698	-200.000	-0.002	-0.025
-363.683	-29.328	0.109	0.063
-362.669	-58.321	-0.310	-0.136
-361.654	-200.000	-0.020	-0.137
-360.639	-107.044	0.376	-0.084
-359.625	-33.524	0.077	-0.043
-358.610	60.678	-0.222	0.221
-357.596	-72.516	-0.149	0.055
-356.581	189.233	0.096	0.145
-355.566	-200.000	0.057	0.272
-354.552	-200.000	-0.027	-0.248
-353.537	72.662	0.182	0.191
-352.523	50.881	0.027	0.026
-351.508	-48.416	0.064	0.031
-350.493	269.722	0.067	-0.118
-349.479	-143.617	0.072	-0.007
-348.464	-200.000	-0.019	-0.088
-347.450	-85.928	0.043	-0.013
-346.435	-200.000	0.049	-0.268
-345.420	800.000	-0.112	0.337
-344.406	-200.000	0.037	0.199
-343.391	316.278	0.036	0.068
-342.377	50.074	-0.129	-0.122
-341.362	325.977	-0.063	-0.122
-340.348	-200.000	-0.058	0.373
-339.333	-37.032	-0.181	0.097
-338.318	42.633	-0.166	0.152
-337.304	10.046	0.296	-0.225
-336.289	800.000	0.012	-0.034
-335.275	257.305	-0.128	-0.220
-334.260	186.152	0.058	-0.087
-333.245	800.000	-0.058	0.223
-332.231	800.000	-0.031	0.114
-331.216	199.766	-0.061	0.094
-330.202	27.695	0.113	0.096
-329.187	-200.000	0.022	-0.162
-328.172	-200.000	0.004	0.110
-327.158	-200.000	-0.012	0.125
-326.143	314.496	0.049	0.092
-325.129	139.547	0.211	-0.279
-324.114	-200.000	-0.035	-0.212
-323.099	-188.051	-0.279	-0.004
-322.085	-68.492	-0.219	-0.085
-321.070	-83.835	0.259	0.083
-320.056	-200.000	-0.075	-0.480
-319.041	41.557	-0.114	-0.104
-318.026	260.867	-0.119	-0.207
-317.012	127.625	0.183	-0.233
-315.997	-103.152	-0.108	0.026
-314.983	800.000	0.033	-0.106
-313.968	680.980	-0.025	-0.064
-312.953	800.000	-0.040	-0.127
-311.939	180.397	-0.104	-0.153
-310.924	51.340	-0.094	0.089
-309.910	800.000	0.114	-0.360
-308.895	-24.893	0.221	0.131
-307.880	-112.405	-0.380	-0.076
-306.866	53.436	0.041	0.039
-305.851	348.287	-0.047	-0.094
-304.837	348.529	0.101	0.200
-303.822	197.728	-0.161	0.246
-302.807	312.212	-0.121	-0.228
-301.793	-83.213	0.258	0.083
-300.778	800.000	0.112	-0.373
-299.764	-109.064	0.359	0.077
-298.749	271.089	0.156	-0.276
-297.735	-27.552	0.087	0.051
-296.720	-118.916	0.069	-0.012
-295.705	-126.891	-0.217	-0.032
-294.691	-33.589	0.072	0.040
-293.676	-66.765	-0.225	-0.089
-292.662	-200.000	0.000	-0.087
-291.647	206.086	0.046	0.072
-290.632	-200.000	0.004	0.124
-289.618	652.135	-0.094	-0.243
-288.603	135.554	0.079	-0.103
-287.589	372.604	0.097	-0.198
-286.574	-200.000	0.025	0.339
-285.559	-200.000	-0.002	0.097
-284.545	-200.000	0.036	-0.186
-283.530	-200.000	0.014	0.289
-282.516	-170.354	0.119	-0.004
-281.501	800.000	0.060	-0.202
-280.486	-1.100	-0.362	-0.257
-279.472	800.000	0.054	0.151
-278.457	-200.000	-0.040	0.343
-277.443	-129.323	-0.057	0.008
-276.428	386.545	0.137	-0.283
-275.413	-200.000	0.072	-0.327
-274.399	-29.334	0.156	0.089
-273.384	-41.010	0.172	-0.089
-272.370	-68.462	-0.308	-0.120
-271.355	-29.829	0.280	0.160
-270.340	-200.000	-0.008	-0.209
-269.326	88.584	-0.144	-0.160
-268.311	-97.647	-0.255	0.066
-267.297	-200.000	0.014	0.160
-266.282	-128.307	-0.316	0.045
-265.267	-112.577	-0.113	0.023
-264.253	800.000	0.059	-0.229
-263.238	29.206	-0.065	-0.056
-262.224	800.000	0.067	0.295
-261.209	-107.845	0.238	-0.052
-260.195	-84.348	0.093	0.029
-259.180	393.279	-0.146	0.304
-258.165	-200.000	-0.019	0.104
-257.151	-200.000	0.006	-0.199
-256.136	800.000	0.037	-0.126
-255.122	800.000	0.027	0.094
-254.107	93.232	0.320	-0.363
-253.092	-52.098	0.187	-0.087
-252.078	370.552	0.104	0.211
-251.063	-100.184	0.157	0.039
-250.049	-200.000	0.021	-0.163
-249.034	144.002	-0.239	0.319
-248.019	-114.984	0.116	-0.022
-247.005	-5.220	0.124	0.085
-245.990	210.158	0.215	0.337
-244.976	-200.000	0.026	0.211
-243.961	266.381	-0.169	0.295
-242.946	-135.049	-0.143	-0.017
-241.932	-29.264	0.155	0.089
-240.917	-1.342	0.363	0.256
-239.903	568.424	0.078	0.190
-238.888	22.900	-0.111	-0.091
-237.873	-107.585	-0.147	-0.032
-236.859	343.893	0.080	0.156
-235.844	6.843	0.280	-0.208
-234.830	-91.655	-0.312	0.089
-233.815	-132.855	-0.112	-0.014
-232.800	43.579	-0.179	-0.164
-231.786	-36.545	0.209	-0.112
-230.771	800.000	0.145	-0.411
-229.757	3.386	0.212	0.155
-228.742	525.074	-0.121	-0.286
-227.727	-39.879	0.132	0.069
-226.713	800.000	0.042	0.124
-225.698	732.459	0.026	-0.070
-224.684	-200.000	-0.061	0.368
-223.669	800.000	0.038	0.110
-222.655	24.253	0.216	-0.178
-221.640	606.228	-0.119	0.298
-220.625	-95.664	0.118	0.031
-219.611	-156.796	-0.234	-0.014
-218.596	-168.193	-0.069	0.003
-217.582	-44.805	-0.059	-0.029
-216.567	-2.284	-0.327	-0.229
-215.552	-88.578	-0.127	0.038
-214.538	367.679	-0.158	0.320
-213.523	102.511	-0.095	0.111
-212.509	-200.000	0.008	0.060
-211.494	22.669	-0.233	0.190
-210.479	740.943	0.008	-0.023
-209.465	30.322	0.086	-0.074
-208.450	-71.214	-0.073	-0.027
-207.436	-200.000	-0.013	0.179
-206.421	-200.000	-0.016	0.251
-205.406	227.882	0.159	0.259
-204.392	-65.691	-0.220	-0.088
-203.377	93.575	-0.155	0.175
-202.363	21.115	-0.010	-0.008
-201.348	86.346	0.160	0.176
-200.333	-57.179	-0.291	0.128
-199.319	-151.458	0.183	-0.014
-198.304	496.522	-0.165	-0.380
-197.290	800.000	0.082	-0.290
-196.275	-200.000	-0.029	0.420
-195.260	-14.647	-0.203	0.130
-194.246	-200.000	0.026	0.165
-193.231	222.912	-0.068	-0.109
-192.217	-135.236	0.260	0.031
-191.202	150.718	-0.223	0.303
-190.187	126.767	0.024	0.030
-189.173	-122.342	0.131	-0.021
-188.158	-85.763	0.392	0.121
-187.144	394.050	0.045	0.094
-186.129	136.747	-0.143	0.186
-185.114	-83.684	-0.117	0.037
-184.100	-102.940	0.167	-0.039
-183.085	506.390	-0.127	-0.293
-182.071	-142.673	-0.169	0.016
-181.056	-89.228	-0.428	-0.126
-180.042	-105.711	-0.106	-0.024
-179.027	448.887	0.034	0.076
-178.012	-139.289	-0.422	-0.045
-176.998	800.000	-0.073	0.207
-175.983	-73.533	0.110	0.040
-174.969	724.602	0.137	0.364
-173.954	-71.910	-0.387	-0.144
-172.939	-200.000	0.041	0.206
-171.925	685.913	-0.015	0.040
-170.910	221.729	0.140	0.225
-169.896	-69.910	0.345	0.131
-168.881	-200.000	-0.015	0.082
-167.866	340.806	0.096	0.188
-166.852	360.391	-0.188	0.375
-165.837	-138.052	-0.199	0.022
-164.823	273.995	0.217	-0.383
-163.808	-132.806	0.478	-0.061
-162.793	-133.976	0.430	-0.053
-161.779	405.006	-0.085	-0.179
-160.764	-35.608	0.060	0.032
-159.750	179.276	0.167	0.243
-158.735	492.428	0.154	-0.351
-157.720	315.590	0.184	-0.347
-156.706	-117.550	-0.138	0.025
-155.691	-126.931	-0.173	0.025
-154.677	-200.000	0.019	0.120
-153.662	283.641	-0.094	-0.168
-152.647	121.635	0.071	0.088
-151.633	-200.000	0.065	0.420
-150.618	38.508	0.168	0.149
-149.604	-86.288	0.287	-0.088
-148.589	181.289	-0.127	0.185
-147.574	-42.094	0.173	0.088
-146.560	251.582	-0.112	-0.190
-145.545	491.029	-0.099	-0.225
-144.531	-49.210	0.231	0.110
-143.516	-200.000	0.036	0.185
-142.502	800.000	0.100	-0.326
-141.487	-200.000	0.078	0.455
-140.472	216.969	-0.052	0.082
-139.458	179.067	-0.164	-0.239
-138.443	-149.651	0.225	-0.018
-137.429	-200.000	-0.020	-0.308
-136.414	-132.756	-0.261	-0.033
-135.399	-112.027	0.155	-0.031
-134.385	-57.540	-0.209	0.091
-133.370	-71.931	0.261	-0.097
-132.356	-51.364	0.006	-0.003
-131.341	800.000	-0.077	-0.313
-130.326	-81.877	-0.223	-0.073
-129.312	-20.043	0.036	-0.022
-128.297	-200.000	0.007	0.109
-127.283	200.373	0.042	0.065
-126.268	296.763	0.039	-0.071
-125.253	-54.257	-0.312	-0.141
-124.239	63.013	0.344	0.343
-123.224	126.896	-0.202	0.254
-122.210	800.000	0.093	0.274
