DTS Sentinel unit serial number:	SN413079Multiplexer serial number:	ORYXHardware model number:	OX4-SRSoftware version number:	ORYX F/W v4.00 Oryx Data Collector v3.7.2.0data status	okinstallation	princeton_trtdifferential loss correction	single-endedforward channel	channel 1reverse channel	N/Adate	2019/09/14time	10:34:35forward acquisition time	60.00reverse acquisition time	0.00gamma	496.2192k internal	0.2304k external	0.2304temperature offset calibration	1.0076default loss term (dB/km)	0.3790temperature slope calibration	1.0000multiplexer offset coefficient	1.0000multiplexer slope coefficient	1.0000fibre end	0.00T internal ref (°C)	34.97T ext. ref 1 (°C)	4.21T ext. ref 2 (°C)	32.87length (m)	temperature (°C)	Stokes	anti-Stokes-747.200	-149.322	0.238	0.019
-746.185	8.846	0.208	0.159
-745.171	-181.880	0.381	-0.007
-744.156	5.324	0.055	0.041
-743.142	-54.387	0.132	-0.061
-742.127	541.892	-0.042	0.102
-741.112	663.145	0.111	0.292
-740.098	225.710	-0.179	0.295
-739.083	753.883	-0.103	-0.284
-738.069	-109.114	0.221	0.048
-737.054	-200.000	0.013	-0.227
-736.039	51.999	0.098	-0.095
-735.025	-69.747	0.275	-0.107
-734.010	-12.958	-0.233	0.154
-732.996	-88.075	0.190	-0.058
-731.981	35.630	-0.236	-0.211
-730.966	30.524	-0.258	0.224
-729.952	-14.529	0.106	-0.069
-728.937	-116.455	0.138	0.026
-727.923	296.002	-0.062	0.116
-726.908	-20.861	0.105	0.065
-725.894	-137.491	0.349	-0.040
-724.879	-200.000	0.028	-0.171
-723.864	-119.307	-0.099	0.017
-722.850	800.000	0.033	0.116
-721.835	-110.468	-0.116	-0.025
-720.821	-97.308	-0.103	-0.027
-719.806	214.017	-0.208	-0.335
-718.791	33.251	-0.194	-0.171
-717.777	800.000	-0.071	0.206
-716.762	-3.993	-0.142	-0.100
-715.748	129.725	0.216	-0.281
-714.733	-158.133	-0.369	0.022
-713.718	-39.347	0.084	-0.045
-712.704	272.012	0.084	-0.150
-711.689	-48.480	0.337	0.165
-710.675	8.125	0.135	0.103
-709.660	-78.409	0.167	-0.058
-708.645	101.066	0.141	-0.166
-707.631	-172.902	-0.102	0.003
-706.616	-200.000	-0.045	-0.220
-705.602	227.952	-0.078	-0.128
-704.587	-200.000	0.018	0.345
-703.572	800.000	-0.084	-0.286
-702.558	-200.000	-0.037	-0.293
-701.543	153.325	0.095	-0.132
-700.529	28.175	-0.123	0.105
-699.514	129.724	-0.222	0.288
-698.499	-200.000	-0.004	-0.242
-697.485	-36.920	-0.260	0.142
-696.470	397.507	-0.158	-0.336
-695.456	4.544	-0.189	0.141
-694.441	-44.396	0.027	-0.014
-693.426	279.830	-0.150	-0.272
-692.412	218.784	-0.096	-0.155
-691.397	81.111	-0.188	0.206
-690.383	-69.837	-0.482	-0.187
-689.368	-90.732	-0.198	-0.058
-688.354	-200.000	-0.009	-0.062
-687.339	291.753	0.034	-0.062
-686.324	-200.000	-0.009	0.134
-685.310	110.935	0.139	0.170
-684.295	-110.340	-0.369	-0.078
-683.281	-99.322	-0.332	-0.085
-682.266	-200.000	-0.021	0.118
-681.251	-149.147	0.289	-0.023
-680.237	-50.769	-0.231	-0.110
-679.222	106.075	-0.147	0.177
-678.208	-106.861	0.079	-0.018
-677.193	800.000	0.042	-0.120
-676.178	-55.914	-0.778	0.353
-675.164	-200.000	0.007	0.123
-674.149	-7.983	-0.144	-0.098
-673.135	43.609	-0.081	0.076
-672.120	-118.042	0.056	-0.010
-671.105	157.618	-0.224	-0.315
-670.091	103.977	-0.152	-0.181
-669.076	-100.927	0.337	-0.084
-668.062	-42.038	-0.082	0.043
-667.047	59.067	0.327	0.327
-666.032	129.609	-0.185	-0.241
-665.018	-99.547	0.307	-0.078
-664.003	95.154	-0.273	-0.316
-662.989	-198.279	-0.146	0.001
-661.974	-200.000	0.030	0.428
-660.959	-88.158	0.209	0.064
-659.945	-126.836	-0.155	-0.023
-658.930	800.000	0.065	-0.214
-657.916	-200.000	-0.011	0.064
-656.901	800.000	-0.133	-0.497
-655.886	-200.000	-0.018	-0.231
-654.872	795.767	0.089	-0.248
-653.857	-134.824	-0.135	-0.017
-652.843	-80.224	0.318	0.108
-651.828	781.977	0.051	-0.143
-650.814	41.448	-0.217	-0.199
-649.799	190.542	-0.063	0.096
-648.784	-200.000	-0.013	-0.111
-647.770	800.000	0.023	-0.067
-646.755	-114.764	0.266	-0.052
-645.741	0.356	-0.057	-0.042
-644.726	60.972	-0.181	0.182
-643.711	-40.493	-0.460	-0.242
-642.697	96.161	0.109	0.127
-641.682	-200.000	0.047	-0.245
-640.668	39.613	-0.087	0.079
-639.653	70.407	0.100	0.105
-638.638	-57.038	0.167	-0.075
-637.624	-2.176	0.190	-0.135
-636.609	39.859	-0.072	-0.066
-635.595	6.715	0.066	-0.050
-634.580	103.199	-0.174	-0.206
-633.565	-71.861	0.080	0.030
-632.551	-25.625	0.082	-0.049
-631.536	95.842	0.064	-0.075
-630.522	64.111	0.160	0.163
-629.507	-126.811	0.235	-0.035
-628.492	251.759	0.125	0.216
-627.478	93.763	-0.067	0.076
-626.463	-200.000	-0.014	-0.182
-625.449	-17.162	0.153	0.098
-624.434	-132.790	0.265	-0.034
-623.419	80.273	0.274	0.299
-622.405	800.000	0.025	-0.072
-621.390	-11.650	-0.086	0.057
-620.376	800.000	-0.007	0.024
-619.361	246.145	0.049	-0.084
-618.346	-200.000	-0.046	-0.237
-617.332	-166.015	-0.292	0.013
-616.317	275.610	-0.090	-0.161
-615.303	-80.158	0.427	-0.145
-614.288	281.832	0.140	-0.255
-613.273	-160.806	-0.169	-0.009
-612.259	38.509	0.165	0.149
-611.244	-70.736	0.304	0.116
-610.230	800.000	0.073	0.290
-609.215	355.742	-0.130	0.262
-608.201	103.690	0.076	-0.090
-607.186	-99.927	-0.163	-0.041
-606.171	-121.152	-0.050	0.008
-605.157	685.860	-0.039	-0.102
-604.142	-200.000	0.039	0.239
-603.128	618.577	0.018	0.045
-602.113	-57.167	0.228	-0.102
-601.098	-114.333	-0.198	-0.039
-600.084	-27.206	0.352	0.208
-599.069	146.196	-0.098	0.134
-598.055	-12.767	0.306	-0.202
-597.040	-13.143	-0.126	-0.083
-596.025	121.685	0.168	-0.211
-595.011	287.979	-0.065	-0.120
-593.996	-56.793	-0.061	0.027
-592.982	-60.108	0.083	0.036
-591.967	-200.000	-0.004	0.196
-590.952	237.123	-0.068	-0.114
-589.938	-18.595	0.179	-0.113
-588.923	-161.837	-0.229	0.012
-587.909	-3.755	0.231	0.162
-586.894	-4.380	-0.133	0.093
-585.879	30.143	0.253	0.218
-584.865	-68.232	-0.161	0.064
-583.850	800.000	0.044	0.126
-582.836	-79.083	-0.302	0.104
-581.821	-69.871	-0.390	-0.150
-580.806	-157.343	-0.141	0.009
-579.792	423.369	-0.058	-0.127
-578.777	-1.028	0.086	0.061
-577.763	615.060	-0.039	0.099
-576.748	348.059	0.102	0.203
-575.733	-153.359	0.255	0.018
-574.719	160.480	0.160	-0.226
-573.704	41.151	-0.054	0.049
-572.690	-200.000	-0.017	-0.439
-571.675	33.151	0.196	-0.172
-570.661	-8.749	0.019	-0.013
-569.646	-200.000	0.030	0.286
-568.631	104.470	0.103	-0.123
-567.617	-200.000	-0.012	-0.377
-566.602	32.476	-0.091	0.079
-565.588	-200.000	0.025	0.257
-564.573	-0.643	0.181	0.130
-563.558	-62.137	0.114	-0.048
-562.544	800.000	0.031	-0.107
-561.529	-26.630	-0.216	-0.128
-560.515	-176.973	-0.250	-0.006
-559.500	-200.000	-0.041	0.234
-558.485	-200.000	0.018	0.129
-557.471	-200.000	0.019	0.189
-556.456	-95.063	-0.110	-0.030
-555.442	-86.973	0.198	-0.061
-554.427	-103.146	-0.194	-0.046
-553.412	-67.659	0.241	0.095
-552.398	-41.557	-0.311	-0.162
-551.383	-200.000	-0.005	-0.027
-550.369	324.162	-0.213	-0.410
-549.354	-47.236	-0.177	0.087
-548.339	-200.000	-0.009	0.105
-547.325	18.602	0.201	-0.162
-546.310	-113.565	-0.159	0.031
-545.296	79.713	-0.242	-0.263
-544.281	498.858	0.048	-0.112
-543.266	800.000	0.103	0.336
-542.252	-200.000	0.030	-0.136
-541.237	332.784	0.023	0.046
-540.223	-200.000	0.019	-0.248
-539.208	372.450	-0.106	0.217
-538.193	13.655	-0.122	0.095
-537.179	-48.429	0.250	0.121
-536.164	800.000	0.020	0.073
-535.150	93.394	0.209	-0.239
-534.135	-119.840	0.407	-0.071
-533.121	-10.915	-0.400	0.267
-532.106	37.192	-0.050	-0.045
-531.091	269.937	-0.181	-0.321
-530.077	-75.426	0.048	0.017
-529.062	179.893	0.092	0.136
-528.048	-17.665	-0.143	-0.091
-527.033	624.488	-0.091	0.232
-526.018	-200.000	0.051	0.283
-525.004	-151.388	0.291	-0.022
-523.989	-200.000	0.014	0.080
-522.975	134.020	-0.250	0.327
-521.960	-99.350	-0.163	0.041
-520.945	11.418	-0.180	-0.139
-519.931	266.029	-0.072	-0.128
-518.916	84.372	-0.173	0.191
-517.902	-18.172	-0.069	0.043
-516.887	220.496	0.197	0.318
-515.872	104.905	-0.224	-0.266
-514.858	78.417	0.164	-0.176
-513.843	-200.000	-0.001	0.043
-512.829	631.064	-0.051	0.132
-511.814	800.000	-0.100	0.311
-510.799	-11.908	-0.265	-0.176
-509.785	-38.600	-0.150	0.080
-508.770	377.313	-0.061	0.125
-507.756	-160.032	-0.035	-0.002
-506.741	-68.318	-0.096	0.038
-505.726	800.000	-0.043	-0.145
-504.712	503.830	0.073	0.171
-503.697	-200.000	-0.027	-0.246
-502.683	-106.747	-0.058	-0.013
-501.668	30.777	0.230	0.199
-500.653	-183.986	0.147	0.002
-499.639	129.803	0.134	-0.173
-498.624	-111.460	-0.417	-0.086
-497.610	-106.515	-0.305	0.069
-496.595	-49.017	-0.032	-0.015
-495.581	-108.734	-0.061	-0.013
-494.566	98.629	0.139	-0.162
-493.551	-101.133	0.401	-0.099
-492.537	6.375	-0.199	0.149
-491.522	-200.000	0.026	0.215
-490.508	-200.000	-0.001	-0.008
-489.493	40.068	-0.081	0.074
-488.478	55.302	0.104	0.101
-487.464	-102.751	0.106	0.025
-486.449	-121.560	0.405	0.068
-485.435	-147.720	-0.096	-0.008
-484.420	-148.434	-0.361	0.030
-483.405	653.985	0.128	-0.330
-482.391	261.336	-0.076	-0.133
-481.376	150.936	-0.165	-0.226
-480.362	-7.836	0.302	0.206
-479.347	658.638	0.083	-0.216
-478.332	800.000	0.114	-0.346
-477.318	16.817	0.009	-0.007
-476.303	0.920	0.157	-0.113
-475.289	-200.000	0.011	-0.305
-474.274	-141.272	0.227	0.023
-473.259	-200.000	0.040	0.270
-472.245	-103.178	-0.337	-0.080
-471.230	-89.698	0.245	0.072
-470.216	-93.547	0.458	-0.128
-469.201	166.352	0.200	-0.285
-468.186	-200.000	0.051	-0.238
-467.172	-186.004	0.111	0.002
-466.157	-13.058	0.109	-0.071
-465.143	-200.000	0.012	-0.090
-464.128	22.032	-0.103	-0.085
-463.113	4.505	0.375	-0.277
-462.099	118.051	0.118	0.146
-461.084	-200.000	-0.011	0.105
-460.070	800.000	-0.074	-0.231
-459.055	-92.551	0.235	-0.066
-458.040	180.821	0.194	0.287
-457.026	-200.000	-0.012	-0.221
-456.011	-36.240	-0.273	-0.148
-454.997	696.411	0.141	0.372
-453.982	800.000	-0.069	0.217
-452.968	-66.914	0.140	0.056
-451.953	-37.333	0.087	0.047
-450.938	-97.737	0.378	-0.099
-449.924	724.703	0.053	-0.142
-448.909	-200.000	-0.043	-0.205
-447.895	279.246	-0.102	-0.182
-446.880	-73.638	-0.164	-0.060
-445.865	-14.355	-0.137	-0.089
-444.851	-104.460	0.102	0.024
-443.836	-120.971	-0.324	-0.055
-442.822	-79.649	0.165	-0.056
-441.807	79.065	0.274	0.295
-440.792	-135.437	-0.391	0.047
-439.778	47.659	-0.089	-0.083
-438.763	67.249	-0.076	-0.078
-437.749	291.381	-0.029	-0.053
-436.734	304.882	0.068	-0.127
-435.719	297.934	-0.141	0.261
-434.705	-113.753	-0.141	-0.028
-433.690	122.001	0.184	0.232
-432.676	800.000	0.047	-0.151
-431.661	-43.901	-0.121	0.061
-430.646	800.000	-0.123	0.404
-429.632	582.749	0.146	0.360
-428.617	-200.000	0.078	0.361
-427.603	155.360	-0.174	-0.241
-426.588	-200.000	0.058	-0.412
-425.573	-192.968	-0.431	-0.004
-424.559	-64.508	-0.530	-0.216
-423.544	466.714	-0.044	-0.100
-422.530	674.322	0.117	0.304
-421.515	-200.000	0.004	-0.162
-420.500	148.954	0.060	0.082
-419.486	-71.877	0.081	-0.030
-418.471	61.770	-0.298	-0.299
-417.457	25.341	0.214	-0.179
-416.442	697.388	0.051	-0.136
-415.428	-63.859	-0.218	-0.090
-414.413	-145.325	-0.266	-0.024
-413.398	-200.000	-0.004	0.159
-412.384	-3.589	0.186	0.130
-411.369	24.593	-0.280	0.233
-410.355	-48.498	0.129	0.062
-409.340	415.515	-0.057	-0.122
-408.325	-200.000	-0.026	-0.117
-407.311	-117.721	0.519	-0.094
-406.296	-152.545	0.020	-0.001
-405.282	137.499	0.018	0.023
-404.267	136.934	0.097	0.127
-403.252	-200.000	-0.042	-0.226
-402.238	53.264	0.349	-0.336
-401.223	-200.000	0.000	-0.152
-400.209	268.253	-0.158	-0.278
-399.194	6.096	-0.168	-0.125
-398.179	203.998	-0.086	-0.133
-397.165	58.258	-0.172	-0.169
-396.150	211.448	0.067	0.105
-395.136	-200.000	0.081	-0.492
-394.121	29.684	-0.149	-0.127
-393.106	-111.990	-0.363	0.073
-392.092	-107.392	0.213	0.047
-391.077	-200.000	-0.007	0.108
-390.063	-200.000	0.047	-0.229
-389.048	-66.735	0.081	0.032
-388.033	-129.663	0.127	0.018
-387.019	-200.000	0.036	-0.290
-386.004	-57.292	0.248	-0.109
-384.990	262.448	-0.156	-0.272
-383.975	-200.000	0.001	0.214
-382.960	-97.194	-0.059	0.015
-381.946	-46.451	0.202	0.099
-380.931	82.930	0.158	0.172
-379.917	-200.000	-0.014	-0.111
-378.902	800.000	0.145	-0.426
-377.888	248.897	-0.056	0.096
-376.873	-181.368	0.077	-0.002
-375.858	74.370	-0.169	-0.179
-374.844	800.000	-0.029	-0.112
-373.829	67.294	0.303	0.310
-372.815	232.845	0.187	0.309
-371.800	5.511	0.178	-0.132
-370.785	141.286	0.313	-0.416
-369.771	103.248	0.124	-0.146
-368.756	-200.000	-0.047	-0.254
-367.742	-102.016	-0.419	0.101
-366.727	-83.355	-0.388	-0.125
-365.712	-65.596	0.075	-0.030
-364.698	-176.439	0.350	-0.009
-363.683	18.513	0.169	0.136
-362.669	800.000	0.025	-0.110
-361.654	-200.000	-0.036	0.278
-360.639	800.000	0.052	0.196
-359.625	-73.418	-0.337	-0.123
-358.610	-20.513	-0.188	-0.116
-357.596	-31.814	0.066	0.037
-356.581	344.517	-0.115	0.227
-355.566	-90.142	-0.252	-0.074
-354.552	800.000	0.021	0.080
-353.537	182.393	-0.118	0.174
-352.523	-114.157	0.165	0.032
-351.508	-58.583	0.578	-0.251
-350.493	112.819	-0.211	-0.256
-349.479	-200.000	0.084	0.534
-348.464	541.036	-0.101	0.242
-347.450	439.355	-0.132	0.289
-346.435	19.472	0.047	-0.038
-345.420	-98.950	0.132	0.034
-344.406	-200.000	0.026	0.253
-343.391	-200.000	-0.018	0.103
-342.377	-79.761	-0.253	0.085
-341.362	800.000	0.084	-0.250
-340.348	61.667	0.063	-0.063
-339.333	63.152	0.125	0.125
-338.318	32.732	-0.265	0.230
-337.304	206.684	0.107	0.168
-336.289	-78.060	-0.223	-0.077
-335.275	-200.000	0.020	0.296
-334.260	595.656	0.070	0.173
-333.245	284.776	-0.240	0.433
-332.231	203.020	-0.069	0.107
-331.216	-70.997	0.093	-0.035
-330.202	139.702	0.190	-0.251
-329.187	-149.282	-0.480	0.038
-328.172	-200.000	-0.010	0.197
-327.158	-75.178	-0.268	-0.096
-326.143	41.787	0.157	0.143
-325.129	-7.077	-0.368	0.250
-324.114	-83.058	-0.242	0.078
-323.099	287.808	-0.111	-0.202
-322.085	288.620	-0.083	-0.150
-321.070	-200.000	-0.022	0.435
-320.056	234.201	-0.013	-0.021
-319.041	507.220	0.083	0.193
-318.026	-27.820	0.317	0.184
-317.012	-7.393	-0.223	-0.151
-315.997	-200.000	0.031	0.230
-314.983	-166.946	0.174	0.007
-313.968	430.805	-0.077	0.167
-312.953	307.170	-0.067	0.125
-311.939	-129.627	0.196	-0.027
-310.924	57.053	-0.046	0.045
-309.910	-119.810	-0.382	-0.066
-308.895	-200.000	-0.027	-0.296
-307.880	-163.548	0.466	0.022
-306.866	-200.000	0.001	0.124
-305.851	125.659	-0.030	0.038
-304.837	-200.000	-0.029	0.253
-303.822	-165.999	-0.340	0.015
-302.807	-68.432	0.238	0.092
-301.793	-0.047	-0.204	-0.146
-300.778	-101.088	0.054	-0.013
-299.764	-113.885	0.328	-0.064
-298.749	-200.000	-0.031	-0.270
-297.735	11.865	0.082	-0.063
-296.720	-200.000	0.090	-0.000
-295.705	248.379	-0.200	-0.339
-294.691	60.537	-0.235	0.233
-293.676	-42.630	0.169	-0.086
-292.662	-200.000	0.042	0.269
-291.647	523.736	0.104	0.246
-290.632	122.929	0.173	-0.217
-289.618	411.796	-0.128	-0.271
-288.603	1.350	-0.326	0.234
-287.589	-52.571	-0.179	-0.083
-286.574	-58.406	-0.155	-0.068
-285.559	-200.000	0.016	0.275
-284.545	37.735	0.104	-0.093
-283.530	-200.000	-0.020	-0.292
-282.516	-143.898	0.126	-0.012
-281.501	-72.897	-0.250	-0.092
-280.486	88.457	0.046	0.051
-279.472	745.939	0.055	0.148
-278.457	-1.802	-0.231	-0.162
-277.443	-22.930	-0.205	-0.124
-276.428	255.543	0.176	-0.302
-275.413	122.203	-0.058	-0.073
-274.399	-200.000	0.003	0.050
-273.384	-200.000	0.032	-0.276
-272.370	-200.000	-0.006	-0.101
-271.355	185.743	0.046	0.069
-270.340	163.793	-0.244	0.343
-269.326	0.251	-0.104	-0.074
-268.311	-112.244	-0.181	-0.036
-267.297	-97.651	0.109	-0.028
-266.282	800.000	0.022	-0.071
-265.267	-114.516	-0.286	0.055
-264.253	708.706	0.009	-0.025
-263.238	-200.000	-0.010	0.159
-262.224	-124.361	-0.085	0.013
-261.209	42.600	0.262	0.238
-260.195	-82.220	0.246	-0.080
-259.180	52.723	0.165	-0.157
-258.165	5.920	-0.197	-0.145
-257.151	-2.285	-0.048	-0.034
-256.136	-155.099	0.309	0.020
-255.122	643.113	-0.109	-0.276
-254.107	800.000	-0.100	0.392
-253.092	320.297	0.090	0.171
-252.078	-49.383	0.135	-0.064
-251.063	-173.694	-0.166	-0.005
-250.049	-200.000	0.013	-0.228
-249.034	-88.905	0.207	-0.061
-248.019	425.268	0.123	-0.265
-247.005	-200.000	0.041	0.316
-245.990	451.532	-0.186	-0.410
-244.976	-165.450	0.200	0.009
-243.961	-48.574	-0.076	0.036
-242.946	-200.000	0.016	-0.194
-241.932	-200.000	-0.054	0.289
-240.917	130.574	-0.105	0.134
-239.903	-131.065	-0.326	0.043
-238.888	-84.580	-0.025	0.008
-237.873	91.276	0.307	0.344
-236.859	40.625	0.270	0.243
-235.844	-200.000	-0.006	0.205
-234.830	-84.850	-0.129	0.041
-233.815	-148.244	-0.168	-0.014
-232.800	-82.806	-0.237	0.076
-231.786	271.315	-0.170	0.300
-230.771	42.083	0.065	-0.059
-229.757	67.188	0.062	-0.063
-228.742	-200.000	-0.075	-0.331
-227.727	-200.000	0.055	-0.430
-226.713	-60.955	-0.225	-0.095
-225.698	800.000	-0.021	0.085
-224.684	-55.229	-0.182	-0.082
-223.669	152.916	0.122	0.167
-222.655	17.782	-0.165	0.131
-221.640	431.091	0.051	-0.109
-220.625	-106.894	-0.184	0.041
-219.611	-141.221	-0.140	0.014
-218.596	-200.000	0.032	-0.259
-217.582	-116.309	-0.052	0.010
-216.567	-87.047	0.110	0.034
-215.552	800.000	-0.039	0.159
-214.538	-200.000	0.007	-0.149
-213.523	-161.745	0.301	-0.015
-212.509	296.578	0.126	-0.231
-211.494	800.000	0.084	0.250
-210.479	-200.000	-0.007	0.458
-209.465	800.000	0.030	-0.105
-208.450	-200.000	-0.008	0.000
-207.436	47.273	-0.232	0.215
-206.421	-76.701	-0.201	0.070
-205.406	-200.000	0.016	0.155
-204.392	-52.116	0.288	0.133
-203.377	800.000	-0.076	-0.268
-202.363	-74.886	0.436	-0.156
-201.348	-112.652	-0.224	-0.044
-200.333	-126.637	-0.196	-0.029
-199.319	800.000	0.067	-0.205
-198.304	18.609	0.054	0.043
-197.290	-82.107	0.146	-0.047
-196.275	-5.386	0.164	0.112
-195.260	-141.324	0.183	0.019
-194.246	500.058	-0.102	-0.235
-193.231	-200.000	0.001	-0.150
-192.217	-9.143	-0.148	0.099
-191.202	-132.549	0.314	-0.040
-190.187	-8.392	-0.213	0.143
-189.173	-3.961	-0.279	0.193
-188.158	-200.000	-0.031	-0.191
-187.144	-13.272	0.348	-0.225
-186.129	-167.056	-0.085	-0.003
-185.114	-200.000	-0.046	0.407
-184.100	-11.213	-0.065	0.043
-183.085	-200.000	-0.007	-0.032
-182.071	192.498	0.160	0.240
-181.056	307.251	0.097	-0.181
-180.042	-76.781	0.261	0.091
-179.027	-197.442	-0.194	0.001
-178.012	800.000	-0.015	0.049
-176.998	-200.000	0.019	0.267
-175.983	800.000	-0.116	0.456
-174.969	185.912	0.234	0.346
-173.954	-34.971	-0.151	0.082
-172.939	-47.455	-0.240	0.116
-171.925	-200.000	-0.009	0.047
-170.910	-24.445	0.280	-0.166
-169.896	130.121	-0.252	-0.322
-168.881	287.446	-0.077	-0.138
-167.866	339.560	0.049	0.096
-166.852	-62.937	-0.144	-0.059
-165.837	-200.000	-0.012	0.403
-164.823	-127.392	0.366	-0.053
-163.808	-40.445	-0.116	0.060
-162.793	-147.722	0.264	0.022
-161.779	-63.205	0.093	0.038
-160.764	-43.105	0.305	-0.154
-159.750	-43.809	-0.182	-0.091
-158.735	-200.000	-0.012	0.086
-157.720	266.028	-0.165	-0.286
-156.706	-114.182	-0.111	-0.021
-155.691	-100.220	-0.136	0.034
-154.677	240.196	0.105	0.174
-153.662	347.592	-0.151	-0.295
-152.647	800.000	-0.069	0.251
-151.633	211.798	0.194	0.304
-150.618	-200.000	-0.020	-0.214
-149.604	-200.000	0.003	-0.153
-148.589	-21.154	0.260	-0.158
-147.574	-86.172	0.245	-0.075
-146.560	339.307	0.092	-0.179
-145.545	800.000	0.088	-0.243
-144.531	38.658	-0.175	-0.155
-143.516	25.242	-0.039	0.032
-142.502	-91.254	-0.539	-0.154
-141.487	-200.000	0.001	-0.061
-140.472	-200.000	-0.052	0.268
-139.458	-89.594	0.066	0.019
-138.443	220.307	-0.050	-0.080
-137.429	800.000	0.088	-0.278
-136.414	-47.279	0.219	0.106
-135.399	10.014	0.207	0.156
-134.385	-200.000	-0.074	0.425
-133.370	-86.472	-0.200	0.061
-132.356	453.613	0.049	0.107
-131.341	400.533	0.120	0.251
-130.326	789.548	-0.086	-0.234
-129.312	-29.911	-0.145	0.082
-128.297	-178.688	-0.300	0.007
-127.283	800.000	0.057	0.194
-126.268	-200.000	-0.014	-0.192
-125.253	800.000	0.033	-0.109
-124.239	-200.000	-0.004	-0.175
-123.224	-200.000	0.038	-0.260
-122.210	202.397	-0.190	-0.291
