DTS Sentinel unit serial number:	SN413079Multiplexer serial number:	ORYXHardware model number:	OX4-SRSoftware version number:	ORYX F/W v4.00 Oryx Data Collector v3.7.2.0data status	okinstallation	princeton_trtdifferential loss correction	single-endedforward channel	channel 1reverse channel	N/Adate	2019/09/15time	11:10:35forward acquisition time	60.00reverse acquisition time	0.00gamma	496.2192k internal	0.2308k external	0.2308temperature offset calibration	0.9990default loss term (dB/km)	0.3790temperature slope calibration	1.0000multiplexer offset coefficient	1.0000multiplexer slope coefficient	1.0000fibre end	0.00T internal ref (°C)	34.28T ext. ref 1 (°C)	5.05T ext. ref 2 (°C)	29.76length (m)	temperature (°C)	Stokes	anti-Stokes-747.200	-200.000	-0.003	0.047
-746.185	-106.014	0.231	-0.053
-745.171	160.324	0.125	-0.177
-744.156	-168.818	0.336	0.013
-743.142	-200.000	-0.018	-0.285
-742.127	-200.000	0.027	0.362
-741.112	-74.598	-0.082	-0.030
-740.098	183.927	0.093	0.140
-739.083	26.295	-0.103	0.088
-738.069	-200.000	0.057	0.294
-737.054	84.264	-0.141	0.156
-736.039	-174.009	-0.311	-0.009
-735.025	87.065	0.327	0.367
-734.010	-200.000	-0.064	-0.595
-732.996	585.848	-0.049	-0.122
-731.981	25.191	-0.037	-0.031
-730.966	-59.937	-0.213	-0.092
-729.952	-11.494	0.329	-0.220
-728.937	66.274	0.175	0.181
-727.923	127.067	0.118	0.151
-726.908	27.260	-0.037	-0.031
-725.894	100.443	-0.101	0.119
-724.879	285.483	0.182	0.333
-723.864	-200.000	0.021	0.173
-722.850	2.314	0.117	-0.086
-721.835	104.678	0.212	-0.254
-720.821	-67.890	-0.298	-0.118
-719.806	111.046	-0.227	-0.278
-718.791	800.000	-0.064	0.179
-717.777	86.042	-0.150	0.168
-716.762	-112.763	-0.278	0.056
-715.748	-137.682	-0.168	-0.019
-714.733	-200.000	0.022	-0.099
-713.718	-200.000	0.044	-0.479
-712.704	101.664	-0.158	0.188
-711.689	-156.372	0.104	-0.007
-710.675	130.056	0.072	0.094
-709.660	-163.158	0.084	-0.004
-708.645	-113.058	-0.442	-0.089
-707.631	68.736	0.064	0.067
-706.616	231.411	0.146	-0.242
-705.602	8.803	-0.156	-0.119
-704.587	389.230	-0.169	-0.356
-703.572	-0.974	-0.334	-0.240
-702.558	-200.000	0.056	0.555
-701.543	-49.804	0.469	0.226
-700.529	-96.985	-0.525	0.140
-699.514	-66.532	0.434	0.175
-698.499	800.000	0.016	-0.057
-697.485	-46.093	0.182	-0.091
-696.470	800.000	0.074	-0.263
-695.456	-200.000	0.026	-0.195
-694.441	-25.773	0.321	-0.192
-693.426	-200.000	0.030	-0.349
-692.412	800.000	0.050	0.195
-691.397	-200.000	0.014	-0.216
-690.383	-109.035	0.282	0.061
-689.368	-13.435	-0.080	-0.052
-688.354	-200.000	0.053	-0.415
-687.339	15.677	-0.189	-0.151
-686.324	-100.288	0.121	-0.031
-685.310	137.988	-0.086	-0.115
-684.295	-14.524	-0.134	0.087
-683.281	800.000	-0.095	-0.303
-682.266	55.053	-0.095	0.093
-681.251	-200.000	0.142	-0.708
-680.237	-154.428	0.096	-0.007
-679.222	-42.514	0.118	-0.061
-678.208	800.000	-0.055	0.197
-677.193	-118.477	0.164	0.029
-676.178	166.081	-0.111	-0.159
-675.164	-99.811	-0.085	-0.022
-674.149	-34.672	0.218	0.121
-673.135	124.113	0.324	-0.413
-672.120	800.000	-0.065	-0.226
-671.105	310.051	0.080	0.151
-670.091	20.349	0.065	0.053
-669.076	-138.209	-0.247	-0.028
-668.062	-17.186	-0.212	-0.135
-667.047	184.353	-0.219	-0.328
-666.032	39.779	0.152	-0.138
-665.018	-39.287	0.064	0.034
-664.003	800.000	-0.014	0.053
-662.989	325.942	0.094	0.182
-661.974	-200.000	0.026	-0.244
-660.959	251.188	0.045	-0.077
-659.945	304.133	-0.139	0.262
-658.930	-81.261	-0.146	-0.049
-657.916	166.583	0.096	-0.137
-656.901	800.000	0.008	0.028
-655.886	-106.283	-0.142	-0.032
-654.872	256.393	-0.103	-0.179
-653.857	800.000	0.035	-0.098
-652.843	-12.390	-0.166	-0.110
-651.828	34.960	0.079	0.070
-650.814	-200.000	-0.011	0.051
-649.799	-3.275	-0.238	-0.168
-648.784	64.640	0.169	0.172
-647.770	-43.218	0.214	0.110
-646.755	-141.432	-0.121	0.012
-645.741	-200.000	0.001	0.321
-644.726	639.940	0.028	-0.071
-643.711	47.586	0.237	-0.223
-642.697	742.760	0.124	0.337
-641.682	-47.622	0.134	0.066
-640.668	-109.366	-0.174	-0.037
-639.653	343.146	0.149	0.296
-638.638	65.553	-0.174	-0.178
-637.624	-65.601	-0.075	-0.030
-636.609	-42.431	-0.259	-0.134
-635.595	-55.598	0.040	-0.018
-634.580	-106.564	0.134	0.030
-633.565	304.944	-0.093	-0.175
-632.551	-94.540	-0.220	0.061
-631.536	-77.744	-0.022	-0.008
-630.522	-76.798	0.128	-0.045
-629.507	800.000	-0.014	0.049
-628.492	-200.000	0.058	0.258
-627.478	-26.110	-0.063	-0.038
-626.463	-11.934	-0.166	0.110
-625.449	800.000	0.115	-0.437
-624.434	-46.643	-0.112	0.055
-623.419	16.784	-0.105	0.084
-622.405	-54.835	-0.076	0.035
-621.390	-104.964	0.107	-0.025
-620.376	34.591	-0.069	-0.061
-619.361	285.795	-0.126	-0.230
-618.346	290.259	0.077	0.141
-617.332	-165.144	-0.236	0.011
-616.317	-200.000	-0.016	0.302
-615.303	800.000	0.067	0.207
-614.288	-85.810	-0.199	0.062
-613.273	-18.010	0.018	-0.011
-612.259	-153.085	0.356	-0.025
-611.244	358.369	0.118	-0.239
-610.230	-104.364	0.340	-0.080
-609.215	66.239	-0.022	0.022
-608.201	-47.655	-0.310	0.152
-607.186	-32.077	-0.207	0.117
-606.171	39.911	0.179	-0.162
-605.157	-200.000	-0.005	0.051
-604.142	11.212	0.132	-0.102
-603.128	-33.913	-0.323	-0.180
-602.113	418.032	-0.044	-0.095
-601.098	344.381	0.153	-0.303
-600.084	800.000	0.073	-0.237
-599.069	-81.508	0.083	0.027
-598.055	800.000	0.106	-0.330
-597.040	-200.000	-0.003	-0.061
-596.025	-83.927	-0.215	-0.069
-595.011	181.858	0.134	0.200
-593.996	-200.000	-0.035	0.278
-592.982	-95.530	0.173	0.047
-591.967	-125.859	0.306	-0.047
-590.952	774.358	0.056	-0.155
-589.938	257.777	0.175	0.305
-588.923	35.180	-0.189	0.168
-587.909	27.923	-0.267	-0.228
-586.894	117.861	0.161	-0.200
-585.879	158.014	0.157	-0.219
-584.865	-94.752	0.330	0.090
-583.850	-114.688	-0.258	-0.050
-582.836	-70.773	0.258	0.098
-581.821	-168.624	0.242	-0.009
-580.806	-143.079	0.184	-0.018
-579.792	-14.526	0.120	0.078
-578.777	-99.136	-0.177	-0.045
-577.763	-113.499	-0.308	0.061
-576.748	800.000	-0.070	0.249
-575.733	-82.152	-0.158	-0.052
-574.719	17.705	-0.223	0.179
-573.704	290.857	-0.173	-0.317
-572.690	146.288	0.108	-0.146
-571.675	174.634	0.114	0.166
-570.661	-200.000	0.033	-0.242
-569.646	-128.968	0.182	0.026
-568.631	160.004	0.085	-0.119
-567.617	191.503	-0.009	0.014
-566.602	-195.083	-0.134	-0.001
-565.588	800.000	-0.061	-0.239
-564.573	-200.000	-0.048	-0.361
-563.558	693.430	0.124	-0.328
-562.544	62.260	0.085	-0.086
-561.529	-80.391	0.040	-0.013
-560.515	444.883	-0.032	0.070
-559.500	-4.742	-0.078	-0.054
-558.485	137.465	-0.107	-0.142
-557.471	-200.000	-0.059	0.385
-556.456	78.264	0.114	-0.123
-555.442	-113.706	0.228	-0.045
-554.427	-67.307	-0.137	0.054
-553.412	224.453	0.208	-0.339
-552.398	-147.836	-0.165	-0.014
-551.383	-200.000	-0.019	-0.185
-550.369	-115.856	-0.314	0.059
-549.354	15.138	0.089	-0.070
-548.339	800.000	-0.081	0.262
-547.325	24.040	-0.055	-0.046
-546.310	-144.813	-0.076	0.007
-545.296	-200.000	-0.035	-0.164
-544.281	800.000	0.089	-0.317
-543.266	-200.000	0.013	0.199
-542.252	-19.458	-0.236	-0.148
-541.237	79.530	0.141	0.153
-540.223	-59.463	0.065	0.028
-539.208	-200.000	-0.025	-0.222
-538.193	123.229	-0.169	0.213
-537.179	214.640	0.058	0.093
-536.164	-53.119	0.099	-0.046
-535.150	435.708	0.036	0.078
-534.135	176.223	-0.150	-0.220
-533.121	727.845	0.099	0.267
-532.106	-4.710	-0.198	-0.138
-531.091	-200.000	-0.080	-0.372
-530.077	137.712	0.219	-0.289
-529.062	127.858	0.160	0.205
-528.048	-200.000	-0.023	-0.133
-527.033	-195.482	0.590	-0.004
-526.018	-114.386	0.070	-0.013
-525.004	-200.000	0.006	0.166
-523.989	-64.124	-0.396	-0.163
-522.975	309.945	0.131	0.247
-521.960	-149.482	-0.197	-0.016
-520.945	111.629	-0.098	0.119
-519.931	83.437	0.154	0.169
-518.916	192.365	0.042	0.064
-517.902	98.929	0.192	0.224
-516.887	-89.917	0.171	0.050
-515.872	-18.197	-0.094	0.059
-514.858	-200.000	-0.006	0.345
-513.843	157.085	-0.135	-0.188
-512.829	455.820	-0.154	-0.345
-511.814	-200.000	-0.046	-0.336
-510.799	-200.000	0.042	-0.290
-509.785	-31.535	-0.207	-0.117
-508.770	800.000	-0.022	0.094
-507.756	800.000	-0.067	-0.224
-506.741	-22.179	0.316	0.193
-505.726	800.000	-0.028	-0.112
-504.712	-147.243	0.309	-0.027
-503.697	58.256	-0.184	0.182
-502.683	6.376	0.188	-0.141
-501.668	-69.319	0.098	0.038
-500.653	-112.042	-0.121	0.025
-499.639	-84.204	0.094	-0.030
-498.624	-3.497	0.092	-0.064
-497.610	-55.530	-0.208	-0.094
-496.595	317.504	-0.066	0.125
-495.581	576.356	0.072	0.178
-494.566	128.890	0.028	0.036
-493.551	345.800	-0.044	-0.087
-492.537	-42.864	-0.077	0.039
-491.522	188.815	-0.050	-0.075
-490.508	-45.383	-0.132	-0.066
-489.493	-200.000	0.036	-0.165
-488.478	-200.000	-0.032	0.153
-487.464	-96.911	0.345	-0.091
-486.449	177.630	0.030	-0.044
-485.435	-135.515	-0.234	0.028
-484.420	147.374	-0.125	0.169
-483.405	123.816	-0.300	0.379
-482.391	205.435	0.146	-0.228
-481.376	37.454	-0.039	-0.035
-480.362	238.298	-0.118	0.197
-479.347	-88.980	-0.187	0.056
-478.332	800.000	-0.058	-0.166
-477.318	800.000	-0.045	0.127
-476.303	-200.000	0.016	0.191
-475.289	55.780	0.217	0.211
-474.274	-95.304	0.206	-0.056
-473.259	42.639	0.188	-0.172
-472.245	-200.000	0.037	-0.288
-471.230	56.661	0.200	0.195
-470.216	-128.241	0.137	0.020
-469.201	-133.809	0.125	0.016
-468.186	-79.616	0.319	-0.108
-467.172	798.943	0.056	-0.155
-466.157	800.000	-0.067	-0.203
-465.143	-3.253	-0.160	0.112
-464.128	800.000	0.036	0.112
-463.113	166.955	0.036	-0.051
-462.099	73.663	-0.084	0.088
-461.084	-103.359	0.220	0.052
-460.070	36.269	-0.130	-0.115
-459.055	34.069	-0.096	-0.084
-458.040	800.000	-0.044	0.183
-457.026	348.926	0.095	-0.188
-456.011	65.769	-0.145	-0.148
-454.997	-200.000	0.078	-0.370
-453.982	-170.336	0.292	-0.010
-452.968	800.000	-0.049	-0.204
-451.953	33.559	-0.267	-0.233
-450.938	-90.732	-0.230	-0.067
-449.924	-200.000	-0.009	-0.078
-448.909	206.981	0.094	-0.147
-447.895	587.557	0.110	0.271
-446.880	-200.000	0.057	0.323
-445.865	-116.899	-0.086	0.016
-444.851	-24.350	-0.241	0.144
-443.836	-78.604	0.186	-0.064
-442.822	-200.000	-0.011	0.431
-441.807	-200.000	0.076	-0.401
-440.792	36.786	-0.336	-0.298
-439.778	333.027	0.175	0.339
-438.763	-200.000	-0.089	0.508
-437.749	160.585	0.114	0.159
-436.734	289.240	-0.045	-0.082
-435.719	177.982	0.051	0.075
-434.705	346.078	-0.129	0.254
-433.690	-200.000	-0.003	0.090
-432.676	-11.547	-0.099	0.065
-431.661	-114.373	-0.136	0.026
-430.646	9.150	-0.143	0.108
-429.632	-84.214	-0.223	-0.071
-428.617	501.590	0.218	0.505
-427.603	800.000	-0.036	0.149
-426.588	80.706	-0.110	-0.119
-425.573	800.000	0.072	-0.215
-424.559	191.329	0.072	0.109
-423.544	3.867	-0.184	-0.135
-422.530	-166.029	-0.389	0.017
-421.515	57.819	0.115	-0.113
-420.500	225.266	-0.094	0.153
-419.486	800.000	0.107	-0.332
-418.471	531.257	0.122	-0.290
-417.457	-200.000	-0.007	0.041
-416.442	800.000	0.125	-0.391
-415.428	81.273	-0.014	0.015
-414.413	-82.574	-0.258	0.084
-413.398	19.959	-0.089	-0.072
-412.384	52.055	-0.021	0.020
-411.369	-195.618	-0.112	0.001
-410.355	800.000	-0.056	0.164
-409.340	272.863	0.070	0.125
-408.325	800.000	-0.076	-0.215
-407.311	581.242	-0.181	-0.446
-406.296	800.000	0.061	0.199
-405.282	111.570	0.145	0.175
-404.267	453.115	-0.070	0.156
-403.252	-87.586	-0.149	0.045
-402.238	10.412	0.095	0.073
-401.223	158.885	-0.181	0.253
-400.209	-103.359	-0.160	0.038
-399.194	-113.685	0.394	-0.077
-398.179	-200.000	-0.023	-0.310
-397.165	360.360	-0.132	-0.264
-396.150	800.000	-0.029	-0.122
-395.136	110.862	-0.295	0.356
-394.121	-5.769	-0.293	-0.201
-393.106	-200.000	0.129	-0.001
-392.092	-200.000	-0.025	0.175
-391.077	800.000	-0.043	-0.178
-390.063	12.977	-0.097	-0.075
-389.048	542.093	-0.189	-0.450
-388.033	-122.001	0.315	0.052
-387.019	-79.208	0.195	0.066
-386.004	550.134	-0.103	-0.248
-384.990	-79.496	0.204	-0.069
-383.975	463.176	0.065	0.146
-382.960	-23.647	0.166	0.100
-381.946	590.869	-0.073	-0.181
-380.931	-200.000	0.019	0.201
-379.917	800.000	0.060	0.187
-378.902	-35.051	0.126	-0.069
-377.888	-132.062	-0.105	-0.014
-376.873	-70.625	-0.177	0.067
-375.858	-137.171	-0.166	-0.019
-374.844	-149.570	-0.378	0.030
-373.829	-21.133	-0.450	0.276
-372.815	-96.841	0.218	0.057
-371.800	-61.916	0.263	0.110
-370.785	65.886	-0.057	-0.058
-369.771	-35.075	0.067	0.037
-368.756	26.031	-0.293	0.245
-367.742	176.223	-0.151	0.219
-366.727	-80.840	-0.102	0.034
-365.712	2.899	0.168	-0.122
-364.698	53.633	0.191	0.183
-363.683	58.403	0.150	-0.147
-362.669	-42.949	-0.123	0.062
-361.654	-18.347	0.221	-0.139
-360.639	-83.625	-0.141	-0.045
-359.625	-73.345	0.370	0.135
-358.610	16.726	0.241	0.191
-357.596	-84.345	0.222	0.070
-356.581	-17.689	-0.180	0.113
-355.566	108.040	-0.043	-0.051
-354.552	-15.733	-0.100	-0.064
-353.537	-200.000	0.003	0.114
-352.523	-106.180	0.195	0.044
-351.508	41.729	-0.221	-0.200
-350.493	-70.635	-0.340	0.129
-349.479	-200.000	0.016	-0.202
-348.464	-95.532	-0.120	-0.032
-347.450	-200.000	-0.043	-0.250
-346.435	-153.906	-0.418	-0.029
-345.420	0.149	0.297	0.212
-344.406	-200.000	-0.029	0.168
-343.391	-200.000	0.001	0.012
-342.377	302.208	0.065	-0.121
-341.362	800.000	0.094	0.348
-340.348	115.215	0.149	0.183
-339.333	119.331	-0.104	0.129
-338.318	-136.614	-0.309	0.036
-337.304	-200.000	0.059	0.305
-336.289	-1.706	0.157	0.110
-335.275	-200.000	-0.004	0.137
-334.260	391.281	-0.086	0.179
-333.245	202.975	-0.069	-0.106
-332.231	4.923	0.129	-0.095
-331.216	-200.000	0.047	0.210
-330.202	-5.029	0.462	0.318
-329.187	-200.000	-0.017	0.102
-328.172	317.256	0.162	0.307
-327.158	-200.000	0.005	-0.031
-326.143	800.000	-0.061	0.171
-325.129	-85.530	0.200	0.062
-324.114	205.525	0.091	-0.141
-323.099	17.519	0.173	-0.137
-322.085	-130.363	-0.113	0.015
-321.070	-200.000	-0.000	0.094
-320.056	-35.301	0.179	0.097
-319.041	-200.000	0.003	-0.178
-318.026	-200.000	0.026	0.273
-317.012	544.948	-0.032	0.076
-315.997	-76.615	-0.203	-0.071
-314.983	-23.091	0.468	0.282
-313.968	211.499	0.058	0.091
-312.953	800.000	0.035	0.100
-311.939	-182.571	-0.085	0.002
-310.924	188.966	0.043	0.064
-309.910	-79.046	0.203	-0.069
-308.895	-200.000	-0.024	-0.279
-307.880	448.759	-0.052	-0.114
-306.866	66.882	-0.168	-0.171
-305.851	-191.042	0.179	0.002
-304.837	-200.000	0.030	0.160
-303.822	257.643	-0.088	-0.152
-302.807	47.338	-0.077	0.072
-301.793	315.422	-0.063	0.119
-300.778	-87.493	0.063	0.019
-299.764	800.000	0.048	-0.154
-298.749	-28.520	0.331	-0.190
-297.735	-80.852	0.261	0.087
-296.720	552.904	0.022	-0.052
-295.705	72.004	0.045	-0.047
-294.691	800.000	0.081	0.260
-293.676	-148.697	-0.308	-0.025
-292.662	800.000	-0.040	-0.167
-291.647	-36.422	-0.060	-0.032
-290.632	-84.079	-0.210	0.067
-289.618	-129.113	-0.253	-0.035
-288.603	-95.688	-0.153	-0.041
-287.589	53.375	0.121	-0.116
-286.574	800.000	0.032	0.096
-285.559	-111.644	-0.280	0.057
-284.545	-200.000	0.029	-0.210
-283.530	-129.497	-0.082	0.011
-282.516	-200.000	-0.005	0.224
-281.501	-75.741	-0.119	-0.042
-280.486	-143.216	0.296	0.028
-279.472	-94.559	0.155	0.042
-278.457	-108.136	-0.271	-0.058
-277.443	-73.389	-0.129	-0.047
-276.428	-200.000	0.030	-0.349
-275.413	74.750	-0.110	0.115
-274.399	-105.353	0.248	-0.056
-273.384	800.000	-0.076	0.324
-272.370	-50.933	0.201	-0.094
-271.355	53.745	0.354	-0.340
-270.340	800.000	0.096	0.318
-269.326	-96.268	-0.393	0.104
-268.311	258.978	0.197	0.338
-267.297	165.831	0.275	0.389
-266.282	-200.000	-0.016	0.172
-265.267	-95.458	0.191	-0.051
-264.253	-161.965	-0.348	-0.018
-263.238	-200.000	0.027	-0.120
-262.224	21.394	-0.208	-0.169
-261.209	-87.459	0.262	-0.079
-260.195	-49.993	0.207	0.098
-259.180	-200.000	-0.055	-0.254
-258.165	800.000	-0.098	-0.279
-257.151	-116.945	-0.050	0.009
-256.136	-18.144	0.237	-0.148
-255.122	504.569	-0.049	-0.114
-254.107	-200.000	0.025	-0.201
-253.092	-200.000	-0.031	-0.168
-252.078	-23.297	-0.068	0.041
-251.063	5.991	-0.158	-0.117
-250.049	-152.722	0.213	-0.015
-249.034	65.296	-0.201	0.203
-248.019	800.000	-0.019	0.065
-247.005	-200.000	-0.048	-0.231
-245.990	366.767	-0.115	0.232
-244.976	800.000	-0.114	-0.373
-243.961	221.976	0.209	0.335
-242.946	-200.000	0.083	-0.480
-241.932	-200.000	0.003	-0.390
-240.917	-189.416	0.109	0.001
-239.903	474.809	0.068	0.152
-238.888	108.159	0.159	0.188
-237.873	800.000	0.066	0.191
-236.859	-200.000	0.012	0.161
-235.844	44.711	-0.056	-0.051
-234.830	-171.365	-0.136	-0.005
-233.815	-200.000	-0.151	0.759
-232.800	120.784	-0.217	0.268
-231.786	-16.329	-0.030	0.019
-230.771	68.832	0.202	0.206
-229.757	-94.161	-0.139	-0.038
-228.742	178.038	0.067	0.098
-227.727	-99.613	0.284	0.071
-226.713	-107.499	-0.413	-0.090
-225.698	-148.409	0.187	0.015
-224.684	658.619	0.053	-0.136
-223.669	722.802	-0.114	0.302
-222.655	800.000	0.061	0.249
-221.640	275.070	0.148	-0.260
-220.625	-110.927	0.407	-0.083
-219.611	-106.142	0.242	-0.054
-218.596	145.191	-0.269	0.358
-217.582	-167.735	-0.144	0.006
-216.567	-187.597	0.096	0.001
-215.552	106.688	-0.209	-0.246
-214.538	-79.199	-0.191	-0.065
-213.523	-200.000	0.045	0.391
-212.509	-144.504	0.030	-0.003
-211.494	42.133	0.176	-0.159
-210.479	16.038	-0.145	0.114
-209.465	125.973	0.237	-0.298
-208.450	800.000	-0.009	-0.025
-207.436	-105.866	0.265	0.059
-206.421	241.045	-0.119	-0.198
-205.406	-4.418	-0.202	-0.139
-204.392	136.464	-0.052	-0.067
-203.377	235.335	-0.166	0.272
-202.363	-89.869	-0.172	0.050
-201.348	-200.000	-0.052	-0.320
-200.333	761.623	0.104	-0.280
-199.319	-40.803	0.061	0.031
-198.304	800.000	-0.053	0.153
-197.290	-83.884	0.326	-0.103
-196.275	-3.645	0.035	0.024
-195.260	104.804	-0.240	-0.281
-194.246	-57.757	-0.047	-0.020
-193.231	200.091	-0.218	-0.332
-192.217	31.763	-0.282	-0.241
-191.202	-10.052	-0.093	-0.061
-190.187	800.000	-0.034	-0.120
-189.173	-7.262	-0.092	0.062
-188.158	-15.041	-0.345	0.220
-187.144	-38.854	0.099	-0.052
-186.129	800.000	0.097	-0.380
-185.114	-41.495	0.291	0.149
-184.100	120.688	0.198	0.245
-183.085	-200.000	-0.036	0.328
-182.071	-144.739	0.092	0.008
-181.056	217.968	0.174	0.276
-180.042	-80.616	0.292	0.097
-179.027	800.000	0.047	0.141
-178.012	-79.262	-0.463	-0.156
-176.998	245.284	0.134	-0.223
-175.983	800.000	0.064	-0.200
-174.969	56.829	0.130	-0.126
-173.954	402.927	0.127	-0.266
-172.939	-200.000	0.022	-0.167
-171.925	-123.060	-0.340	-0.054
-170.910	-19.781	0.166	-0.102
-169.896	22.117	-0.234	-0.190
-168.881	110.690	-0.274	-0.328
-167.866	-32.176	0.113	-0.063
-166.852	23.206	0.138	-0.113
-165.837	66.177	-0.137	0.138
-164.823	-118.675	-0.185	0.032
-163.808	552.965	0.058	0.140
-162.793	202.073	-0.218	0.334
-161.779	-47.593	-0.254	0.123
-160.764	-73.495	0.381	-0.138
-159.750	48.517	-0.118	-0.110
-158.735	133.123	0.046	0.059
-157.720	-200.000	0.036	0.224
-156.706	-200.000	-0.004	0.133
-155.691	-76.882	0.128	0.044
-154.677	-76.826	-0.377	0.131
-153.662	-106.750	0.393	0.087
-152.647	700.169	-0.125	0.327
-151.633	8.580	0.212	-0.159
-150.618	-82.843	0.349	0.112
-149.604	-200.000	-0.076	0.407
-148.589	-124.562	0.204	-0.031
-147.574	-108.175	0.342	-0.074
-146.560	242.013	0.124	0.205
-145.545	172.455	0.200	0.286
-144.531	-200.000	-0.003	-0.042
-143.516	-200.000	0.036	0.159
-142.502	-36.258	0.264	-0.141
-141.487	162.221	0.052	-0.073
-140.472	800.000	0.049	-0.179
-139.458	-200.000	0.001	0.097
-138.443	59.695	0.150	-0.147
-137.429	252.390	0.243	-0.412
-136.414	261.215	-0.027	-0.046
-135.399	101.504	0.159	0.183
-134.385	-52.640	0.220	-0.101
-133.370	32.300	0.129	0.111
-132.356	41.969	0.035	0.032
-131.341	647.145	-0.034	-0.087
-130.326	143.302	-0.162	0.213
-129.312	401.671	-0.107	-0.223
-128.297	14.443	-0.095	-0.073
-127.283	-49.439	0.219	-0.104
-126.268	484.604	0.041	0.093
-125.253	-95.803	0.256	-0.068
-124.239	365.593	-0.037	0.075
-123.224	19.173	0.204	0.162
-122.210	258.447	0.079	0.135
-121.195	4.520	-0.206	-0.150
