DTS Sentinel unit serial number:	SN413079Multiplexer serial number:	ORYXHardware model number:	OX4-SRSoftware version number:	ORYX F/W v4.00 Oryx Data Collector v3.7.2.0data status	okinstallation	princeton_trtdifferential loss correction	single-endedforward channel	channel 1reverse channel	N/Adate	2019/09/16time	05:42:35forward acquisition time	60.00reverse acquisition time	0.00gamma	496.2192k internal	0.2331k external	0.2331temperature offset calibration	0.9982default loss term (dB/km)	0.3790temperature slope calibration	1.0000multiplexer offset coefficient	1.0000multiplexer slope coefficient	1.0000fibre end	0.00T internal ref (°C)	27.34T ext. ref 1 (°C)	11.18T ext. ref 2 (°C)	22.26length (m)	temperature (°C)	Stokes	anti-Stokes-747.200	-128.833	-0.296	0.042
-746.185	89.761	-0.025	-0.028
-745.171	40.127	0.141	0.127
-744.156	-110.147	-0.141	0.030
-743.142	800.000	-0.068	0.216
-742.127	-78.257	-0.390	-0.135
-741.112	609.432	0.022	-0.056
-740.098	767.348	-0.139	0.381
-739.083	321.022	-0.009	-0.018
-738.069	-59.820	-0.063	0.027
-737.054	668.949	0.071	0.186
-736.039	-84.238	-0.347	-0.111
-735.025	12.831	0.095	-0.074
-734.010	-83.380	-0.249	0.080
-732.996	115.748	-0.054	-0.067
-731.981	-45.444	-0.252	-0.126
-730.966	-200.000	-0.020	-0.180
-729.952	6.768	-0.299	-0.224
-728.937	-127.361	-0.280	-0.041
-727.923	35.171	0.190	-0.167
-726.908	-88.886	0.321	-0.096
-725.894	-200.000	-0.058	-0.322
-724.879	-200.000	-0.028	-0.573
-723.864	800.000	0.010	-0.026
-722.850	113.268	0.123	-0.150
-721.835	-79.285	-0.025	0.008
-720.821	800.000	-0.068	-0.223
-719.806	-200.000	-0.029	0.145
-718.791	-96.450	0.427	0.113
-717.777	-135.988	-0.099	0.012
-716.762	-200.000	-0.052	0.495
-715.748	800.000	-0.027	-0.090
-714.733	-184.397	-0.092	-0.002
-713.718	19.638	-0.130	0.105
-712.704	-144.689	0.065	0.006
-711.689	-132.910	-0.237	0.030
-710.675	-80.522	-0.109	-0.037
-709.660	-0.184	-0.136	0.097
-708.645	800.000	-0.036	-0.112
-707.631	32.565	-0.088	-0.077
-706.616	7.279	0.047	-0.035
-705.602	-29.378	-0.084	0.048
-704.587	-200.000	-0.039	0.375
-703.572	800.000	0.073	0.260
-702.558	-120.080	-0.096	0.016
-701.543	-174.237	0.155	-0.005
-700.529	-149.358	0.054	-0.004
-699.514	-200.000	0.041	0.212
-698.499	-69.222	0.220	-0.085
-697.485	-160.648	-0.104	-0.006
-696.470	-69.951	0.242	0.093
-695.456	-170.038	-0.620	-0.022
-694.441	124.529	0.177	-0.224
-693.426	99.699	0.138	-0.160
-692.412	-200.000	0.057	0.478
-691.397	-17.883	0.153	-0.096
-690.383	-131.089	-0.324	0.043
-689.368	-46.918	-0.231	0.113
-688.354	-123.212	-0.321	-0.052
-687.339	90.987	-0.083	-0.094
-686.324	-200.000	0.046	-0.206
-685.310	11.857	0.148	0.115
-684.295	800.000	-0.077	-0.288
-683.281	-134.625	-0.133	0.016
-682.266	-198.049	0.320	0.002
-681.251	543.358	-0.186	0.445
-680.237	40.698	-0.137	-0.124
-679.222	403.123	-0.024	-0.050
-678.208	-200.000	0.030	-0.186
-677.193	-164.188	0.101	0.005
-676.178	-200.000	0.022	0.208
-675.164	161.362	-0.074	0.104
-674.149	-200.000	-0.020	0.360
-673.135	-200.000	0.037	0.000
-672.120	201.717	0.309	-0.477
-671.105	283.233	0.172	-0.310
-670.091	-102.365	0.394	0.095
-669.076	-2.966	0.139	-0.097
-668.062	-15.089	0.191	-0.123
-667.047	-200.000	0.063	0.440
-666.032	-167.278	0.089	-0.004
-665.018	-156.821	-0.379	-0.023
-664.003	-78.659	-0.077	-0.026
-662.989	-20.135	-0.170	-0.105
-661.974	-200.000	-0.005	-0.206
-660.959	-200.000	-0.011	0.314
-659.945	-0.082	-0.115	-0.082
-658.930	58.793	0.090	0.089
-657.916	-24.850	0.071	-0.042
-656.901	800.000	-0.089	-0.311
-655.886	45.250	0.042	0.039
-654.872	170.253	-0.305	0.438
-653.857	-116.788	0.277	-0.051
-652.843	-105.385	-0.479	0.109
-651.828	-51.496	0.149	-0.070
-650.814	122.931	-0.180	0.226
-649.799	-200.000	0.028	0.305
-648.784	760.528	0.052	0.140
-647.770	800.000	0.067	-0.275
-646.755	-200.000	-0.023	-0.335
-645.741	405.130	-0.068	0.144
-644.726	800.000	0.056	0.183
-643.711	58.766	0.098	-0.096
-642.697	41.499	-0.012	0.011
-641.682	800.000	-0.098	-0.293
-640.668	800.000	-0.022	-0.090
-639.653	800.000	0.090	-0.279
-638.638	-104.689	0.304	-0.070
-637.624	-47.533	0.342	-0.167
-636.609	-122.637	0.319	0.052
-635.595	29.600	-0.211	-0.180
-634.580	218.042	0.235	-0.375
-633.565	-162.820	-0.195	-0.010
-632.551	27.756	-0.037	0.032
-631.536	800.000	-0.052	0.160
-630.522	38.204	-0.090	0.080
-629.507	800.000	0.081	0.295
-628.492	-200.000	0.065	-0.289
-627.478	-82.925	0.277	-0.089
-626.463	713.073	-0.110	-0.292
-625.449	112.513	0.118	0.143
-624.434	-60.664	-0.089	0.038
-623.419	153.169	0.102	-0.140
-622.405	-130.926	0.491	-0.066
-621.390	-43.226	-0.377	-0.191
-620.376	481.442	0.027	-0.062
-619.361	61.136	-0.313	-0.311
-618.346	-200.000	0.139	-0.660
-617.332	-70.984	-0.125	-0.047
-616.317	-200.000	-0.546	-0.002
-615.303	800.000	-0.050	-0.184
-614.288	-200.000	-0.003	0.191
-613.273	261.690	-0.097	0.168
-612.259	-73.078	0.261	0.096
-611.244	-41.467	-0.458	-0.236
-610.230	-200.000	0.000	-0.008
-609.215	-153.767	-0.195	-0.013
-608.201	76.045	0.252	0.267
-607.186	-14.635	0.127	0.081
-606.171	-200.000	0.006	-0.087
-605.157	-200.000	0.014	0.172
-604.142	-112.376	-0.095	-0.019
-603.128	-200.000	-0.002	-0.198
-602.113	42.740	0.182	0.166
-601.098	-107.820	-0.310	0.068
-600.084	202.628	0.132	-0.204
-599.069	800.000	-0.053	-0.173
-598.055	-58.100	-0.198	0.086
-597.040	800.000	0.085	-0.365
-596.025	-6.890	-0.186	-0.127
-595.011	800.000	0.115	0.358
-593.996	162.243	-0.201	0.282
-592.982	-14.460	-0.107	0.069
-591.967	25.181	-0.351	0.291
-590.952	-28.932	0.121	-0.069
-589.938	-122.680	-0.387	0.063
-588.923	800.000	-0.108	-0.304
-587.909	251.480	0.027	-0.047
-586.894	132.198	0.156	0.201
-585.879	-189.073	0.143	-0.002
-584.865	11.731	0.139	-0.107
-583.850	70.174	-0.149	0.154
-582.836	89.663	-0.171	0.191
-581.821	136.710	0.125	-0.164
-580.806	-131.475	-0.167	-0.022
-579.792	-76.751	-0.166	0.058
-578.777	30.685	-0.120	0.103
-577.763	-200.000	0.031	0.206
-576.748	88.467	0.125	-0.139
-575.733	-200.000	0.034	0.252
-574.719	-71.346	0.092	-0.034
-573.704	-101.691	0.256	-0.062
-572.690	-155.885	0.236	-0.015
-571.675	-117.782	-0.273	0.049
-570.661	594.190	0.031	0.077
-569.646	-86.422	0.297	-0.091
-568.631	-113.057	-0.337	-0.067
-567.617	-200.000	-0.055	0.278
-566.602	-27.715	-0.359	0.208
-565.588	-200.000	-0.002	-0.142
-564.573	549.542	-0.088	-0.211
-563.558	-29.848	0.163	-0.093
-562.544	-128.507	-0.084	-0.012
-561.529	-26.442	-0.092	0.054
-560.515	-200.000	0.050	0.309
-559.500	-63.697	-0.213	0.087
-558.485	-127.137	-0.223	-0.033
-557.471	-200.000	0.021	0.109
-556.456	151.504	0.222	-0.303
-555.442	103.858	0.186	-0.218
-554.427	-57.855	-0.426	0.186
-553.412	144.788	0.224	-0.299
-552.398	-200.000	0.008	-0.051
-551.383	109.748	0.140	0.168
-550.369	9.225	-0.186	0.140
-549.354	34.327	0.150	0.130
-548.339	-131.789	0.168	-0.022
-547.325	-85.664	-0.030	-0.009
-546.310	-200.000	-0.001	-0.062
-545.296	-152.709	0.446	-0.032
-544.281	747.625	-0.005	-0.014
-543.266	-97.268	-0.268	0.070
-542.252	800.000	-0.032	0.119
-541.237	-200.000	-0.001	0.039
-540.223	-73.179	-0.091	-0.033
-539.208	-200.000	0.010	0.372
-538.193	36.682	0.143	0.126
-537.179	39.981	-0.111	-0.100
-536.164	-133.010	-0.319	-0.040
-535.150	800.000	-0.048	-0.207
-534.135	-29.845	-0.223	-0.127
-533.121	-200.000	-0.033	-0.233
-532.106	298.662	0.072	-0.131
-531.091	-200.000	0.005	0.156
-530.077	-146.307	0.172	-0.015
-529.062	254.379	-0.189	0.322
-528.048	-200.000	0.090	0.452
-527.033	12.196	-0.195	0.150
-526.018	800.000	0.032	0.100
-525.004	-82.419	0.236	0.077
-523.989	-32.944	0.121	-0.067
-522.975	800.000	-0.027	-0.118
-521.960	-74.784	-0.097	-0.035
-520.945	379.025	0.161	-0.330
-519.931	60.476	0.172	0.170
-518.916	-137.329	-0.267	-0.030
-517.902	637.919	0.061	-0.155
-516.887	-166.955	0.173	-0.007
-515.872	-31.167	-0.309	-0.174
-514.858	-90.215	0.015	0.004
-513.843	54.721	0.130	0.125
-512.829	57.321	-0.069	-0.067
-511.814	540.049	-0.129	0.306
-510.799	-49.457	0.103	-0.049
-509.785	-200.000	-0.007	0.054
-508.770	-159.556	-0.133	0.007
-507.756	86.217	-0.130	-0.143
-506.741	139.712	-0.137	-0.180
-505.726	-4.942	-0.452	0.310
-504.712	55.435	-0.221	-0.213
-503.697	350.002	-0.057	-0.113
-502.683	-102.033	-0.184	-0.044
-501.668	121.940	0.011	-0.014
-500.653	800.000	0.060	0.204
-499.639	240.996	-0.231	0.385
-498.624	-139.318	0.160	-0.017
-497.610	800.000	0.060	0.165
-496.595	-39.145	-0.287	0.150
-495.581	-10.977	-0.165	-0.108
-494.566	405.120	-0.054	0.114
-493.551	-78.988	-0.050	-0.017
-492.537	-117.892	-0.244	-0.044
-491.522	-145.234	-0.393	-0.036
-490.508	35.462	-0.199	-0.174
-489.493	-200.000	0.039	0.236
-488.478	201.513	0.164	-0.251
-487.464	199.835	0.082	-0.126
-486.449	-122.063	0.374	0.061
-485.435	800.000	-0.062	-0.262
-484.420	-182.371	-0.149	0.003
-483.405	-200.000	-0.234	0.001
-482.391	28.544	-0.220	-0.185
-481.376	586.455	-0.137	-0.336
-480.362	-9.365	0.227	0.151
-479.347	800.000	0.056	0.170
-478.332	72.449	-0.131	0.136
-477.318	-92.528	0.235	0.066
-476.303	492.598	0.037	-0.084
-475.289	-200.000	-0.007	0.058
-474.274	68.842	0.194	0.198
-473.259	-200.000	0.101	-0.447
-472.245	-5.083	0.251	0.172
-471.230	-188.519	-0.106	0.001
-470.216	77.517	-0.091	-0.097
-469.201	436.544	0.113	-0.245
-468.186	-5.425	-0.088	0.060
-467.172	28.461	-0.185	0.156
-466.157	-94.768	-0.338	-0.091
-465.143	-110.599	0.395	-0.081
-464.128	142.492	-0.028	0.038
-463.113	40.799	0.167	-0.150
-462.099	153.084	0.190	0.258
-461.084	-75.539	0.307	-0.109
-460.070	-122.468	-0.082	-0.013
-459.055	194.650	0.179	-0.270
-458.040	-88.757	0.271	-0.080
-457.026	-54.942	-0.208	0.093
-456.011	506.389	0.155	0.358
-454.997	160.039	0.236	-0.327
-453.982	11.617	-0.033	-0.025
-452.968	10.357	0.217	0.165
-451.953	175.641	-0.150	-0.216
-450.938	19.021	0.118	-0.094
-449.924	610.728	-0.010	-0.026
-448.909	-120.607	-0.175	0.030
-447.895	388.700	-0.027	0.056
-446.880	166.491	0.163	0.229
-445.865	321.157	0.022	0.041
-444.851	-200.000	-0.035	0.276
-443.836	251.321	0.132	-0.224
-442.822	5.635	-0.194	-0.143
-441.807	62.751	0.103	0.102
-440.792	223.247	-0.175	-0.280
-439.778	171.778	0.160	-0.229
-438.763	-142.705	0.172	0.017
-437.749	-200.000	0.014	0.188
-436.734	262.740	-0.065	-0.113
-435.719	80.744	0.201	-0.215
-434.705	-39.610	-0.180	-0.094
-433.690	-200.000	0.002	0.061
-432.676	-62.385	0.248	-0.103
-431.661	26.637	-0.231	0.192
-430.646	-200.000	-0.060	-0.316
-429.632	800.000	-0.055	-0.170
-428.617	126.301	-0.207	0.260
-427.603	749.681	0.041	0.109
-426.588	-200.000	0.009	-0.379
-425.573	226.898	0.109	0.176
-424.559	111.034	-0.093	0.112
-423.544	800.000	-0.057	0.219
-422.530	228.550	-0.209	0.339
-421.515	363.944	0.075	0.150
-420.500	265.456	-0.058	0.101
-419.486	-35.314	0.368	0.199
-418.471	402.520	-0.054	0.112
-417.457	-25.600	0.286	0.168
-416.442	650.423	-0.077	0.195
-415.428	768.955	-0.011	-0.030
-414.413	-161.067	-0.303	-0.016
-413.398	162.928	0.076	-0.106
-412.384	230.651	-0.239	-0.388
-411.369	131.511	0.157	-0.201
-410.355	-78.516	-0.145	0.049
-409.340	-102.190	0.207	0.049
-408.325	-200.000	0.006	0.137
-407.311	-42.120	0.147	-0.075
-406.296	-53.084	-0.120	-0.055
-405.282	-131.981	-0.239	0.031
-404.267	166.756	0.264	-0.372
-403.252	-200.000	-0.008	-0.052
-402.238	89.292	0.104	0.115
-401.223	-152.621	-0.030	-0.002
-400.209	-200.000	0.032	0.254
-399.194	-157.478	-0.081	0.005
-398.179	-76.302	0.092	0.032
-397.165	364.766	0.162	-0.323
-396.150	470.142	0.137	0.306
-395.136	800.000	-0.019	-0.055
-394.121	-6.316	-0.194	0.131
-393.106	-200.000	-0.001	-0.045
-392.092	800.000	-0.104	-0.321
-391.077	-95.046	0.253	-0.068
-390.063	291.885	0.073	0.131
-389.048	800.000	-0.069	-0.234
-388.033	175.048	-0.162	-0.233
-387.019	754.256	-0.057	0.152
-386.004	-200.000	-0.067	-0.328
-384.990	-149.813	-0.293	0.023
-383.975	-96.317	-0.295	0.077
-382.960	-2.071	-0.078	0.054
-381.946	800.000	0.028	0.079
-380.931	83.774	0.157	0.170
-379.917	394.148	-0.127	0.263
-378.902	185.203	-0.175	-0.258
-377.888	-8.648	0.298	0.199
-376.873	-108.160	0.336	0.072
-375.858	-200.000	-0.015	-0.389
-374.844	12.423	-0.187	-0.143
-373.829	-78.878	-0.266	0.090
-372.815	-58.986	0.098	-0.042
-371.800	42.784	0.128	0.116
-370.785	-71.859	-0.158	-0.058
-369.771	800.000	0.010	-0.028
-368.756	-101.527	-0.129	-0.031
-367.742	-172.917	0.179	-0.006
-366.727	-160.750	0.222	0.012
-365.712	-9.898	0.343	-0.226
-364.698	232.081	-0.131	-0.214
-363.683	800.000	-0.051	-0.178
-362.669	-69.302	-0.165	-0.063
-361.654	190.080	-0.163	0.243
-360.639	-43.081	-0.154	-0.077
-359.625	70.610	-0.227	0.232
-358.610	198.583	-0.055	0.083
-357.596	800.000	0.021	-0.087
-356.581	-66.325	0.145	-0.057
-355.566	130.080	0.168	-0.213
-354.552	-62.859	0.331	-0.136
-353.537	800.000	-0.030	-0.087
-352.523	619.014	-0.094	-0.234
-351.508	180.554	-0.069	0.100
-350.493	-200.000	0.030	-0.181
-349.479	404.917	-0.059	-0.124
-348.464	-180.486	-0.279	-0.006
-347.450	277.248	0.200	0.353
-346.435	16.664	-0.220	0.173
-345.420	62.892	0.296	-0.293
-344.406	-56.983	-0.185	0.081
-343.391	-170.286	0.084	0.003
-342.377	-200.000	0.007	-0.194
-341.362	38.645	-0.100	0.088
-340.348	-34.423	-0.175	-0.095
-339.333	73.878	-0.145	0.151
-338.318	83.376	-0.272	0.293
-337.304	519.960	-0.115	0.266
-336.289	-12.649	-0.329	0.213
-335.275	-31.125	0.205	-0.114
-334.260	128.395	0.223	-0.281
-333.245	-44.977	0.166	0.082
-332.231	29.031	0.015	0.012
-331.216	-110.361	0.290	0.060
-330.202	-35.964	0.202	-0.108
-329.187	119.084	0.122	-0.150
-328.172	27.208	-0.011	-0.009
-327.158	-146.252	-0.296	-0.026
-326.143	-200.000	0.039	-0.170
-325.129	-163.237	0.478	0.023
-324.114	-122.130	0.171	0.028
-323.099	550.950	0.096	0.229
-322.085	800.000	-0.046	0.158
-321.070	-149.531	0.631	-0.049
-320.056	-200.000	-0.007	0.161
-319.041	-17.918	0.072	-0.044
-318.026	-4.475	0.301	-0.206
-317.012	-98.561	-0.058	0.015
-315.997	20.014	-0.244	-0.195
-314.983	-138.928	0.365	-0.039
-313.968	800.000	0.070	0.214
-312.953	421.680	-0.086	0.182
-311.939	104.969	0.225	0.263
-310.924	-50.705	0.243	-0.113
-309.910	181.993	0.077	0.113
-308.895	-185.493	0.047	0.001
-307.880	-49.851	0.212	0.099
-306.866	233.770	0.042	-0.068
-305.851	-0.851	-0.223	-0.156
-304.837	800.000	-0.049	-0.179
-303.822	-200.000	-0.032	-0.311
-302.807	-200.000	-0.007	-0.034
-301.793	-36.442	-0.198	0.106
-300.778	70.869	0.319	-0.327
-299.764	41.182	0.095	-0.085
-298.749	-69.305	-0.153	0.058
-297.735	85.477	0.099	0.107
-296.720	-69.916	0.320	-0.121
-295.705	71.465	-0.300	-0.308
-294.691	29.645	-0.192	-0.161
-293.676	-72.519	0.155	0.057
-292.662	800.000	0.082	-0.299
-291.647	-43.054	0.101	0.050
-290.632	-109.782	0.126	-0.026
-289.618	-143.315	-0.168	0.016
-288.603	307.596	-0.081	0.150
-287.589	-200.000	-0.001	-0.117
-286.574	800.000	-0.061	-0.195
-285.559	-113.842	0.121	-0.023
-284.545	-71.618	-0.389	-0.144
-283.530	96.733	0.076	-0.086
-282.516	-98.469	0.304	0.077
-281.501	-200.000	-0.092	0.600
-280.486	-98.648	-0.186	0.047
-279.472	140.513	-0.250	-0.326
-278.457	-200.000	-0.004	0.116
-277.443	-43.995	-0.126	-0.062
-276.428	78.944	0.144	-0.153
-275.413	-196.302	0.142	-0.001
-274.399	-18.900	-0.276	-0.170
-273.384	284.196	0.168	0.298
-272.370	800.000	-0.109	0.381
-271.355	-23.851	0.291	0.172
-270.340	-136.624	0.182	-0.021
-269.326	-144.949	-0.198	-0.018
-268.311	-91.376	0.255	-0.072
-267.297	516.521	-0.135	0.311
-266.282	-59.740	0.271	-0.115
-265.267	255.926	-0.061	0.103
-264.253	-200.000	-0.136	-0.001
-263.238	91.906	0.151	-0.168
-262.224	8.926	0.106	0.079
-261.209	-200.000	-0.013	-0.205
-260.195	-200.000	-0.030	-0.169
-259.180	-89.888	-0.174	-0.050
-258.165	-98.381	0.159	-0.040
-257.151	62.024	-0.343	0.338
-256.136	800.000	0.064	0.262
-255.122	160.245	0.259	0.357
-254.107	159.093	0.132	0.181
-253.092	49.746	0.053	-0.049
-252.078	-147.430	0.041	0.003
-251.063	428.699	0.135	-0.289
-250.049	-200.000	-0.004	-0.206
-249.034	-18.793	-0.256	0.157
-248.019	-49.716	0.286	0.134
-247.005	-60.470	-0.393	-0.165
-245.990	52.280	-0.336	0.316
-244.976	280.581	-0.114	0.201
-243.961	-179.243	-0.283	0.006
-242.946	-196.995	0.058	0.000
-241.932	-144.946	0.400	-0.036
-240.917	-115.473	-0.168	0.031
-239.903	291.706	0.058	-0.105
-238.888	-33.018	0.145	-0.079
-237.873	693.653	-0.098	0.253
-236.859	720.175	-0.069	-0.181
-235.844	-3.736	0.241	-0.165
-234.830	-200.000	0.025	0.264
-233.815	-200.000	0.015	0.282
-232.800	-73.604	-0.264	0.095
-231.786	-133.886	-0.280	0.034
-230.771	-200.000	-0.031	0.230
-229.757	800.000	-0.062	-0.229
-228.742	184.147	0.174	-0.254
-227.727	800.000	0.075	0.274
-226.713	-110.305	-0.209	0.043
-225.698	337.726	0.039	0.074
-224.684	-200.000	-0.004	-0.038
-223.669	-200.000	0.035	-0.207
-222.655	50.570	-0.129	0.120
-221.640	-98.993	-0.178	0.045
-220.625	-168.755	0.197	-0.007
-219.611	-200.000	-0.019	0.314
-218.596	68.939	0.120	0.122
-217.582	176.168	0.153	-0.219
-216.567	800.000	-0.066	-0.278
-215.552	-19.885	-0.217	-0.132
-214.538	-200.000	-0.021	0.149
-213.523	-35.894	-0.280	0.149
-212.509	-200.000	-0.029	-0.246
-211.494	5.619	0.259	0.189
-210.479	29.694	-0.214	0.180
-209.465	800.000	0.119	0.332
-208.450	-200.000	-0.028	-0.231
-207.436	439.463	-0.039	-0.085
-206.421	-34.913	-0.259	0.139
-205.406	-67.092	0.150	-0.058
-204.392	352.904	-0.072	-0.140
-203.377	-66.745	-0.110	-0.043
-202.363	558.144	0.141	0.336
-201.348	-200.000	-0.018	-0.367
-200.333	3.732	-0.143	-0.103
-199.319	800.000	-0.007	-0.029
-198.304	572.598	0.148	-0.354
-197.290	-108.082	-0.118	-0.025
-196.275	-10.556	0.147	-0.096
-195.260	-83.492	-0.320	0.101
-194.246	54.740	0.407	0.387
-193.231	-200.000	0.037	0.220
-192.217	-124.686	0.479	0.073
-191.202	-200.000	0.009	0.314
-190.187	-200.000	-0.001	0.157
-189.173	800.000	0.098	0.377
-188.158	330.243	-0.121	0.230
-187.144	173.609	0.133	-0.189
-186.129	-41.169	0.035	-0.018
-185.114	-104.183	0.109	-0.025
-184.100	-200.000	-0.004	0.102
-183.085	-200.000	0.008	0.126
-182.071	217.150	-0.145	-0.228
-181.056	14.155	-0.160	0.123
-180.042	204.924	0.049	0.075
-179.027	-66.038	0.313	0.123
-178.012	144.579	0.070	0.093
-176.998	-59.248	0.292	0.124
-175.983	26.122	-0.082	0.067
-174.969	347.766	0.167	0.324
-173.954	234.958	-0.023	0.037
-172.939	204.604	0.140	0.214
-171.925	528.804	0.023	0.052
-170.910	-38.405	-0.293	0.153
-169.896	-45.544	-0.372	0.181
-168.881	639.086	0.033	0.083
-167.866	-200.000	-0.083	0.451
-166.852	-18.759	0.015	0.009
-165.837	318.565	-0.144	-0.268
-164.823	-36.672	0.138	0.073
-163.808	-200.000	-0.004	-0.229
-162.793	75.633	-0.182	0.190
-161.779	-4.519	0.250	-0.170
-160.764	-40.625	0.391	-0.200
-159.750	-200.000	0.001	-0.085
-158.735	365.528	0.089	-0.176
-157.720	361.105	0.040	-0.079
-156.706	445.389	0.065	-0.140
-155.691	-75.622	0.327	-0.114
-154.677	-200.000	-0.049	-0.316
-153.662	-64.686	-0.151	-0.060
-152.647	-200.000	-0.032	0.293
-151.633	-66.437	-0.108	-0.042
-150.618	-200.000	-0.032	-0.290
-149.604	582.956	-0.007	0.016
-148.589	-35.984	0.189	-0.100
-147.574	179.167	-0.072	0.104
-146.560	145.079	-0.060	0.079
-145.545	-200.000	0.000	-0.227
-144.531	-143.581	-0.222	-0.021
-143.516	-200.000	-0.008	-0.169
-142.502	-23.047	0.394	0.233
-141.487	31.025	0.101	0.085
-140.472	-200.000	-0.240	0.001
-139.458	-84.442	-0.055	-0.017
-138.443	173.338	-0.083	-0.117
-137.429	-131.203	0.153	-0.020
-136.414	84.288	0.161	0.173
-135.399	260.191	-0.261	0.443
-134.385	-101.083	-0.313	-0.075
-133.370	800.000	0.113	-0.383
-132.356	-37.650	-0.277	-0.145
-131.341	161.383	-0.157	0.216
-130.326	-200.000	0.006	0.326
-129.312	134.607	-0.111	0.142
-128.297	-2.465	-0.171	-0.118
-127.283	409.386	-0.076	0.157
-126.268	800.000	0.063	-0.201
-125.253	393.624	-0.069	0.142
-124.239	288.092	-0.115	-0.204
-123.224	-191.513	0.248	0.002
