DTS Sentinel unit serial number:	SN413079Multiplexer serial number:	ORYXHardware model number:	OX4-SRSoftware version number:	ORYX F/W v4.00 Oryx Data Collector v3.7.2.0data status	okinstallation	princeton_trtdifferential loss correction	single-endedforward channel	channel 1reverse channel	N/Adate	2019/09/13time	02:30:35forward acquisition time	60.00reverse acquisition time	0.00gamma	496.2192k internal	0.2331k external	0.2331temperature offset calibration	1.0154default loss term (dB/km)	0.3790temperature slope calibration	1.0000multiplexer offset coefficient	1.0000multiplexer slope coefficient	1.0000fibre end	0.00T internal ref (°C)	27.50T ext. ref 1 (°C)	3.95T ext. ref 2 (°C)	22.26length (m)	temperature (°C)	Stokes	anti-Stokes-747.200	45.936	-0.234	-0.218
-746.185	341.354	-0.099	0.195
-745.171	800.000	0.083	0.283
-744.156	64.137	-0.215	0.217
-743.142	-200.000	-0.010	0.205
-742.127	0.916	-0.368	-0.266
-741.112	-132.257	0.296	-0.039
-740.098	-10.148	0.070	0.047
-739.083	-46.804	-0.200	-0.098
-738.069	-200.000	-0.050	0.469
-737.054	-27.390	0.131	0.076
-736.039	-200.000	-0.040	-0.232
-735.025	-95.370	-0.118	0.032
-734.010	-97.563	-0.670	-0.175
-732.996	38.216	0.099	-0.088
-731.981	-200.000	0.061	-0.349
-730.966	-158.807	-0.350	-0.020
-729.952	800.000	0.092	-0.280
-728.937	-60.388	-0.320	0.137
-727.923	-16.852	-0.250	-0.159
-726.908	54.820	-0.078	0.076
-725.894	-50.678	0.098	-0.046
-724.879	373.705	0.121	0.248
-723.864	-65.404	0.213	-0.086
-722.850	-147.265	-0.117	-0.010
-721.835	800.000	-0.073	-0.250
-720.821	116.418	0.273	-0.336
-719.806	664.363	-0.219	-0.568
-718.791	443.570	-0.025	-0.055
-717.777	-38.252	0.129	0.069
-716.762	-200.000	0.020	-0.270
-715.748	10.826	0.206	0.158
-714.733	326.062	-0.183	-0.352
-713.718	-18.268	0.214	-0.135
-712.704	800.000	0.083	-0.332
-711.689	800.000	-0.079	0.256
-710.675	351.297	-0.062	-0.123
-709.660	-200.000	-0.063	0.336
-708.645	-200.000	-0.014	0.081
-707.631	-200.000	0.025	0.154
-706.616	-73.099	0.099	0.036
-705.602	-200.000	0.035	0.230
-704.587	-200.000	-0.050	-0.372
-703.572	96.065	0.040	0.046
-702.558	574.887	0.034	-0.083
-701.543	350.201	-0.118	0.234
-700.529	54.220	0.231	0.223
-699.514	71.376	-0.066	-0.068
-698.499	348.291	-0.073	-0.144
-697.485	800.000	0.145	0.453
-696.470	-54.453	-0.105	0.048
-695.456	91.864	-0.166	0.187
-694.441	28.974	0.122	-0.103
-693.426	314.035	-0.101	0.190
-692.412	-200.000	0.024	-0.171
-691.397	-82.092	0.410	0.134
-690.383	34.661	0.256	-0.224
-689.368	-50.734	-0.141	0.067
-688.354	-40.465	-0.114	-0.060
-687.339	-42.096	0.022	-0.011
-686.324	-36.711	-0.159	-0.086
-685.310	293.485	0.121	0.221
-684.295	-69.769	-0.148	-0.057
-683.281	-15.198	0.099	-0.063
-682.266	800.000	0.100	0.321
-681.251	-123.333	-0.144	0.023
-680.237	-111.966	-0.161	0.033
-679.222	800.000	-0.109	-0.372
-678.208	-200.000	-0.053	-0.254
-677.193	474.854	-0.057	-0.130
-676.178	800.000	-0.037	-0.129
-675.164	-22.442	0.306	0.186
-674.149	-39.841	-0.316	0.166
-673.135	-21.761	-0.330	-0.202
-672.120	-111.595	-0.218	-0.044
-671.105	-16.092	0.296	0.189
-670.091	-103.124	-0.198	-0.047
-669.076	800.000	-0.012	0.038
-668.062	-180.119	-0.270	-0.006
-667.047	-200.000	-0.016	0.104
-666.032	800.000	-0.005	0.015
-665.018	-38.114	0.113	-0.060
-664.003	131.680	0.086	0.111
-662.989	107.487	-0.108	0.128
-661.974	99.324	0.113	0.131
-660.959	-200.000	0.013	-0.100
-659.945	-76.624	-0.151	0.053
-658.930	-43.145	-0.276	-0.140
-657.916	11.803	-0.097	0.074
-656.901	-35.716	0.094	0.051
-655.886	-88.138	0.272	-0.082
-654.872	327.029	-0.179	-0.344
-653.857	-26.984	0.097	0.057
-652.843	-200.000	-0.015	0.193
-651.828	800.000	-0.008	0.032
-650.814	-200.000	0.036	0.260
-649.799	-77.511	-0.228	0.079
-648.784	33.741	-0.100	0.087
-647.770	25.303	0.352	-0.293
-646.755	-38.567	0.110	-0.058
-645.741	95.501	0.205	-0.234
-644.726	-200.000	-0.006	-0.186
-643.711	186.860	0.054	-0.081
-642.697	-200.000	-0.024	-0.166
-641.682	304.812	-0.151	0.282
-640.668	214.359	-0.185	0.294
-639.653	800.000	-0.043	0.135
-638.638	-58.114	0.134	-0.059
-637.624	-172.520	0.166	0.005
-636.609	-161.765	0.062	-0.003
-635.595	-200.000	-0.006	0.058
-634.580	4.748	0.079	-0.058
-633.565	800.000	0.022	0.086
-632.551	125.392	-0.071	-0.089
-631.536	110.096	0.135	-0.162
-630.522	-44.269	-0.104	-0.052
-629.507	154.647	0.111	-0.153
-628.492	-200.000	-0.018	-0.345
-627.478	800.000	-0.040	0.117
-626.463	-200.000	-0.014	-0.117
-625.449	118.686	-0.282	-0.349
-624.434	-142.310	0.238	0.024
-623.419	-171.562	-0.235	0.008
-622.405	18.027	-0.063	0.050
-621.390	21.183	-0.445	0.362
-620.376	-200.000	-0.032	-0.256
-619.361	195.359	0.149	-0.227
-618.346	800.000	0.013	-0.045
-617.332	-26.581	-0.293	-0.172
-616.317	74.310	-0.017	-0.017
-615.303	54.142	0.232	-0.223
-614.288	6.905	-0.182	-0.136
-613.273	-125.441	-0.270	-0.041
-612.259	447.544	0.114	-0.252
-611.244	-84.035	0.189	-0.060
-610.230	4.760	0.154	0.113
-609.215	-75.385	0.212	0.076
-608.201	96.343	-0.256	-0.293
-607.186	-142.297	0.190	-0.019
-606.171	222.263	-0.159	-0.256
-605.157	367.853	-0.077	-0.157
-604.142	-69.560	-0.095	0.036
-603.128	-200.000	0.001	-0.063
-602.113	-94.770	0.190	0.052
-601.098	20.317	0.158	0.128
-600.084	386.577	-0.274	0.565
-599.069	-200.000	-0.005	0.290
-598.055	300.872	0.051	0.094
-597.040	582.692	-0.015	-0.036
-596.025	-200.000	-0.049	-0.225
-595.011	344.381	0.233	-0.456
-593.996	800.000	-0.041	-0.134
-592.982	-91.444	0.215	-0.061
-591.967	-200.000	-0.044	-0.258
-590.952	34.593	-0.153	-0.133
-589.938	-104.675	-0.165	0.038
-588.923	800.000	-0.044	-0.142
-587.909	16.983	-0.197	-0.156
-586.894	-79.927	-0.318	0.107
-585.879	800.000	-0.069	0.254
-584.865	350.865	-0.120	-0.238
-583.850	-200.000	-0.020	-0.266
-582.836	-200.000	0.012	-0.296
-581.821	118.022	-0.212	-0.261
-580.806	-87.746	-0.321	-0.097
-579.792	150.887	-0.061	0.083
-578.777	68.711	-0.123	-0.126
-577.763	800.000	-0.092	0.330
-576.748	244.792	0.060	-0.101
-575.733	330.251	0.173	-0.333
-574.719	94.032	0.250	0.284
-573.704	55.360	-0.145	-0.141
-572.690	-69.657	0.349	0.133
-571.675	362.826	0.111	-0.223
-570.661	-50.650	0.068	-0.032
-569.646	-59.687	-0.277	-0.119
-568.631	88.594	0.151	-0.168
-567.617	800.000	0.071	0.215
-566.602	217.579	-0.153	-0.243
-565.588	-15.028	0.139	0.089
-564.573	1.329	0.107	0.077
-563.558	46.903	0.125	0.116
-562.544	105.763	-0.438	0.518
-561.529	-8.643	0.073	-0.049
-560.515	-200.000	-0.023	0.181
-559.500	-146.713	0.242	0.021
-558.485	-22.821	0.052	0.031
-557.471	32.185	-0.160	-0.138
-556.456	21.327	-0.056	-0.045
-555.442	-67.701	-0.200	0.078
-554.427	-102.279	0.215	-0.051
-553.412	-3.478	0.316	-0.220
-552.398	-165.250	-0.184	-0.008
-551.383	147.728	-0.054	-0.073
-550.369	-72.793	0.257	0.095
-549.354	-116.018	0.372	0.069
-548.339	39.286	-0.148	0.132
-547.325	9.585	0.233	-0.176
-546.310	-25.082	-0.386	0.229
-545.296	-127.467	-0.053	-0.008
-544.281	519.138	0.135	0.315
-543.266	50.937	-0.116	0.109
-542.252	87.472	-0.019	-0.021
-541.237	-56.892	-0.333	-0.147
-540.223	-114.544	-0.153	0.029
-539.208	-139.462	0.120	-0.013
-538.193	112.902	0.085	0.102
-537.179	800.000	-0.075	0.221
-536.164	-200.000	-0.013	-0.104
-535.150	269.199	0.040	-0.070
-534.135	-200.000	-0.045	-0.463
-533.121	-59.123	-0.364	0.157
-532.106	-92.608	0.277	-0.077
-531.091	-52.717	0.279	0.129
-530.077	80.710	-0.026	0.028
-529.062	-57.303	-0.067	0.029
-528.048	800.000	0.038	0.110
-527.033	-102.921	0.535	0.127
-526.018	307.653	-0.049	-0.092
-525.004	189.303	-0.121	0.180
-523.989	-113.069	0.155	0.031
-522.975	650.361	-0.026	-0.067
-521.960	45.979	0.175	0.162
-520.945	-148.071	-0.023	0.002
-519.931	-46.114	-0.059	-0.029
-518.916	37.533	-0.125	-0.111
-517.902	-140.553	-0.226	0.023
-516.887	-200.000	0.028	0.211
-515.872	-54.658	0.182	0.082
-514.858	-200.000	-0.030	0.309
-513.843	-139.654	-0.451	0.048
-512.829	15.125	0.251	0.196
-511.814	51.566	-0.301	0.285
-510.799	-200.000	-0.006	-0.077
-509.785	-89.978	-0.133	0.039
-508.770	276.601	-0.044	-0.078
-507.756	24.053	0.243	0.200
-506.741	-27.779	0.120	0.069
-505.726	-144.153	0.510	0.048
-504.712	-200.000	-0.011	-0.185
-503.697	686.811	-0.107	-0.279
-502.683	-24.267	-0.383	0.228
-501.668	27.702	0.268	0.225
-500.653	-177.789	-0.379	-0.009
-499.639	-94.511	-0.094	0.026
-498.624	19.002	0.042	-0.034
-497.610	-29.743	-0.181	-0.103
-496.595	186.240	0.215	0.318
-495.581	13.944	0.129	0.100
-494.566	-200.000	-0.021	-0.096
-493.551	-200.000	-0.047	-0.446
-492.537	76.418	0.040	0.043
-491.522	-46.012	0.247	0.121
-490.508	-168.319	0.241	-0.009
-489.493	-118.402	0.100	0.018
-488.478	-149.805	0.524	0.041
-487.464	33.634	-0.234	0.202
-486.449	-149.942	-0.312	-0.024
-485.435	-29.980	-0.136	0.077
-484.420	-59.556	0.155	-0.066
-483.405	800.000	0.044	-0.129
-482.391	112.328	-0.124	0.150
-481.376	118.758	0.145	0.179
-480.362	19.929	-0.255	-0.205
-479.347	46.669	-0.129	-0.120
-478.332	-29.591	-0.227	0.129
-477.318	47.737	0.111	0.103
-476.303	283.448	-0.017	-0.030
-475.289	403.216	-0.048	0.100
-474.274	-200.000	-0.093	-0.472
-473.259	-200.000	0.003	-0.035
-472.245	-16.396	0.268	0.169
-471.230	-200.000	-0.035	0.308
-470.216	-112.105	0.255	-0.051
-469.201	-21.295	-0.101	-0.061
-468.186	-102.085	0.251	0.060
-467.172	-185.539	0.250	0.004
-466.157	-35.139	-0.155	-0.084
-465.143	-200.000	-0.012	-0.147
-464.128	-69.832	-0.220	-0.083
-463.113	192.584	-0.188	0.283
-462.099	35.213	0.196	0.171
-461.084	-200.000	0.005	0.104
-460.070	800.000	-0.031	-0.116
-459.055	-80.973	-0.442	-0.146
-458.040	199.151	0.087	0.132
-457.026	-95.890	-0.460	-0.122
-456.011	786.462	0.053	-0.144
-454.997	-140.574	0.252	0.026
-453.982	122.280	0.255	0.317
-452.968	-61.720	0.033	-0.014
-451.953	-200.000	-0.038	0.296
-450.938	71.677	-0.134	0.138
-449.924	59.385	-0.106	-0.104
-448.909	800.000	-0.075	0.292
-447.895	-200.000	0.011	0.129
-446.880	-116.213	-0.129	-0.024
-445.865	46.235	0.046	-0.042
-444.851	-200.000	0.011	-0.187
-443.836	-11.640	-0.033	0.022
-442.822	-155.964	-0.102	0.006
-441.807	-55.619	-0.305	-0.136
-440.792	-127.371	0.203	-0.029
-439.778	-35.520	-0.324	-0.175
-438.763	800.000	-0.066	-0.232
-437.749	-200.000	0.034	-0.198
-436.734	0.241	-0.126	0.089
-435.719	-115.197	0.273	-0.051
-434.705	677.840	-0.053	-0.138
-433.690	56.926	0.148	-0.143
-432.676	-24.492	0.140	-0.083
-431.661	-200.000	-0.009	0.064
-430.646	793.184	-0.157	-0.430
-429.632	-17.472	-0.434	-0.272
-428.617	-45.243	-0.256	-0.126
-427.603	-77.237	0.423	0.146
-426.588	-39.031	0.181	0.095
-425.573	-13.358	0.186	-0.120
-424.559	562.855	-0.085	0.204
-423.544	104.810	-0.101	0.118
-422.530	-27.588	-0.355	0.205
-421.515	-171.557	0.179	0.006
-420.500	-200.000	0.014	-0.188
-419.486	-200.000	-0.015	-0.113
-418.471	800.000	0.035	0.111
-417.457	-73.222	0.096	-0.035
-416.442	119.058	0.087	-0.107
-415.428	800.000	-0.029	-0.087
-414.413	-113.968	0.130	0.025
-413.398	191.761	-0.168	-0.252
-412.384	-54.599	0.079	0.036
-411.369	67.407	-0.110	0.112
-410.355	51.607	-0.167	-0.157
-409.340	-200.000	-0.015	0.128
-408.325	69.105	0.317	-0.323
-407.311	-53.958	-0.268	0.121
-406.296	146.126	-0.177	-0.236
-405.282	-200.000	-0.040	-0.230
-404.267	49.230	0.189	0.176
-403.252	-12.433	-0.170	0.110
-402.238	36.430	-0.007	0.006
-401.223	-36.015	-0.548	0.294
-400.209	49.066	-0.107	-0.100
-399.194	800.000	0.061	0.180
-398.179	40.901	-0.255	0.228
-397.165	278.907	0.202	-0.358
-396.150	800.000	0.010	0.037
-395.136	-53.022	0.138	-0.063
-394.121	-121.629	0.029	-0.005
-393.106	-200.000	-0.120	0.000
-392.092	111.129	-0.143	-0.171
-391.077	-73.291	0.127	-0.046
-390.063	170.191	-0.103	0.146
-389.048	-200.000	-0.005	-0.066
-388.033	-57.943	0.249	-0.108
-387.019	800.000	0.042	0.148
-386.004	235.857	-0.089	0.147
-384.990	35.276	-0.356	-0.310
-383.975	-200.000	-0.008	0.209
-382.960	-30.710	-0.220	0.123
-381.946	-124.680	-0.229	-0.035
-380.931	-58.053	-0.288	-0.125
-379.917	-54.466	0.272	0.122
-378.902	-200.000	-0.033	0.159
-377.888	-2.307	-0.166	-0.116
-376.873	-63.508	0.176	-0.072
-375.858	-200.000	-0.165	0.000
-374.844	5.943	-0.083	0.061
-373.829	-78.047	-0.338	0.115
-372.815	-20.490	0.203	-0.124
-371.800	-123.682	0.177	0.028
-370.785	717.088	-0.041	0.107
-369.771	124.713	0.014	-0.018
-368.756	-200.000	-0.030	0.413
-367.742	-80.904	-0.169	-0.056
-366.727	-200.000	0.008	-0.073
-365.712	352.861	-0.033	-0.065
-364.698	-95.455	0.220	-0.059
-363.683	166.498	-0.160	-0.224
-362.669	-86.605	-0.273	-0.083
-361.654	-145.550	0.103	0.009
-360.639	-47.202	-0.181	0.087
-359.625	-86.179	0.225	0.069
-358.610	-82.463	-0.421	-0.136
-357.596	-102.794	-0.143	0.034
-356.581	-36.311	-0.173	-0.092
-355.566	-21.769	-0.176	0.106
-354.552	-105.867	0.171	0.038
-353.537	-95.115	-0.280	0.075
-352.523	800.000	-0.058	0.214
-351.508	759.300	-0.031	-0.083
-350.493	-200.000	-0.019	0.150
-349.479	800.000	-0.008	0.031
-348.464	56.879	-0.142	-0.137
-347.450	42.637	0.022	-0.020
-346.435	-5.807	-0.160	0.109
-345.420	167.307	-0.121	-0.170
-344.406	-127.457	-0.158	-0.023
-343.391	113.130	0.068	-0.081
-342.377	173.006	0.180	0.257
-341.362	-118.408	-0.135	-0.024
-340.348	352.001	-0.200	-0.393
-339.333	358.604	0.128	-0.253
-338.318	32.507	0.030	-0.026
-337.304	-200.000	0.006	-0.423
-336.289	-37.585	-0.200	-0.105
-335.275	-156.364	0.411	-0.025
-334.260	31.992	0.131	0.111
-333.245	-11.387	0.237	-0.154
-332.231	-200.000	-0.012	0.130
-331.216	601.248	-0.076	0.187
-330.202	-2.518	0.253	0.176
-329.187	-200.000	-0.017	-0.075
-328.172	249.095	0.150	-0.251
-327.158	283.523	-0.113	0.200
-326.143	152.856	0.177	0.239
-325.129	312.394	0.130	-0.241
-324.114	31.346	-0.134	0.114
-323.099	113.693	-0.058	0.069
-322.085	10.929	0.205	-0.155
-321.070	-73.096	-0.206	0.075
-320.056	136.911	-0.215	0.278
-319.041	-76.173	0.048	0.017
-318.026	19.359	-0.152	-0.121
-317.012	-71.771	-0.038	-0.014
-315.997	465.326	-0.084	-0.186
-314.983	-82.187	0.171	-0.055
-313.968	112.531	-0.164	-0.196
-312.953	-200.000	0.011	-0.150
-311.939	29.120	-0.274	-0.230
-310.924	-100.499	0.344	0.084
-309.910	-200.000	0.019	-0.236
-308.895	800.000	-0.016	0.065
-307.880	-200.000	-0.022	0.223
-306.866	153.141	0.099	-0.134
-305.851	-200.000	0.026	0.175
-304.837	2.556	0.263	0.189
-303.822	800.000	0.040	0.166
-302.807	141.916	-0.073	0.096
-301.793	54.543	-0.322	-0.307
-300.778	-1.134	0.163	-0.114
-299.764	-200.000	-0.028	-0.254
-298.749	-200.000	0.040	-0.624
-297.735	51.959	-0.220	-0.207
-296.720	-90.051	0.251	-0.072
-295.705	-24.999	0.336	0.197
-294.691	-200.000	-0.094	0.410
-293.676	36.942	0.135	-0.118
-292.662	77.511	0.226	-0.238
-291.647	-2.697	-0.185	-0.128
-290.632	2.516	0.166	0.119
-289.618	28.098	0.242	-0.202
-288.603	-36.414	-0.205	0.109
-287.589	-104.191	-0.132	-0.030
-286.574	-136.978	0.310	0.035
-285.559	2.435	0.264	0.189
-284.545	800.000	-0.016	-0.046
-283.530	-200.000	-0.039	0.189
-282.516	497.724	-0.058	0.131
-281.501	-91.668	-0.029	0.008
-280.486	794.781	0.044	0.121
-279.472	-167.893	0.282	0.011
-278.457	-200.000	0.001	0.083
-277.443	79.222	-0.121	-0.128
-276.428	-120.449	0.185	-0.031
-275.413	-14.860	0.171	0.108
-274.399	800.000	-0.064	-0.200
-273.384	68.260	0.140	0.142
-272.370	-200.000	0.011	-0.051
-271.355	165.649	0.148	-0.207
-270.340	-125.986	0.405	0.060
-269.326	-129.328	-0.188	0.026
-268.311	-183.993	-0.409	-0.007
-267.297	-29.842	0.402	0.226
-266.282	97.535	0.235	0.267
-265.267	-200.000	0.064	0.512
-264.253	-147.174	-0.057	0.005
-263.238	-82.348	-0.161	-0.052
-262.224	-126.446	-0.393	-0.058
-261.209	384.299	0.090	0.184
-260.195	-50.561	0.250	0.117
-259.180	-98.936	0.238	0.060
-258.165	-4.418	0.051	0.035
-257.151	-59.334	0.041	-0.018
-256.136	-23.055	0.104	-0.062
-255.122	-80.462	-0.181	-0.060
-254.107	-97.123	-0.304	-0.079
-253.092	-145.868	0.197	-0.017
-252.078	39.723	0.167	0.148
-251.063	-22.916	0.319	-0.190
-250.049	170.341	-0.156	-0.221
-249.034	800.000	0.029	0.088
-248.019	177.332	-0.070	0.101
-247.005	-132.392	0.577	-0.073
-245.990	31.569	0.027	-0.023
-244.976	-109.909	0.341	-0.071
-243.961	-200.000	0.015	0.199
-242.946	110.041	-0.284	-0.337
-241.932	-200.000	0.017	0.209
-240.917	-90.596	-0.048	-0.014
-239.903	751.534	-0.124	-0.330
-238.888	-141.400	-0.463	0.046
-237.873	-142.071	0.201	0.020
-236.859	153.011	-0.085	0.114
-235.844	89.242	0.127	0.139
-234.830	-129.931	0.517	0.070
-233.815	-179.824	-0.122	0.003
-232.800	-1.098	-0.333	0.232
-231.786	-106.475	0.174	0.038
-230.771	800.000	-0.072	-0.233
-229.757	220.918	0.194	-0.307
-228.742	-31.116	0.077	0.043
-227.727	-200.000	-0.064	0.367
-226.713	50.994	0.225	0.210
-225.698	-200.000	-0.063	0.301
-224.684	-110.886	-0.050	-0.010
-223.669	43.041	-0.113	-0.102
-222.655	-130.391	0.082	0.011
-221.640	266.066	-0.123	0.211
-220.625	30.710	0.113	0.095
-219.611	22.393	-0.092	0.074
-218.596	-114.746	0.235	-0.044
-217.582	-200.000	-0.056	-0.358
-216.567	-93.594	0.467	0.127
-215.552	199.031	-0.104	-0.158
-214.538	-0.646	-0.173	0.121
-213.523	-200.000	0.056	0.385
-212.509	800.000	0.037	-0.141
-211.494	-200.000	-0.038	0.321
-210.479	26.515	0.181	0.149
-209.465	-78.940	0.111	-0.037
-208.450	-58.447	0.240	0.103
-207.436	-184.396	0.262	0.004
-206.421	46.800	-0.176	0.161
-205.406	32.707	-0.120	-0.102
-204.392	800.000	0.020	-0.073
-203.377	-4.094	0.070	-0.048
-202.363	-149.374	0.099	-0.008
-201.348	-99.688	0.122	-0.030
-200.333	202.159	0.068	0.104
-199.319	-30.991	-0.057	-0.032
-198.304	327.336	-0.064	-0.121
-197.290	-200.000	0.030	-0.181
-196.275	-96.718	-0.278	-0.072
-195.260	-106.472	-0.386	-0.085
-194.246	260.685	0.090	0.153
-193.231	778.993	-0.065	0.175
-192.217	-200.000	-0.050	0.283
-191.202	121.049	-0.155	0.189
-190.187	212.007	-0.114	0.176
-189.173	-22.608	0.305	0.182
-188.158	298.989	-0.134	0.243
-187.144	-46.646	0.254	0.123
-186.129	-200.000	-0.016	-0.088
-185.114	-45.832	0.200	0.097
-184.100	3.408	-0.145	-0.104
-183.085	-200.000	-0.043	0.263
-182.071	-63.407	-0.270	-0.109
-181.056	-118.562	-0.315	-0.055
-180.042	-200.000	-0.026	0.465
-179.027	800.000	0.141	0.458
-178.012	-143.861	0.159	0.015
-176.998	800.000	0.079	-0.229
-175.983	662.409	0.074	-0.188
-174.969	575.550	-0.025	-0.059
-173.954	687.816	-0.099	0.254
-172.939	-69.785	0.453	-0.170
-171.925	285.367	0.098	0.173
-170.910	-200.000	0.027	-0.239
-169.896	-77.524	0.168	0.057
-168.881	-130.718	0.090	-0.012
-167.866	-147.377	-0.020	-0.002
-166.852	-160.843	0.276	0.014
-165.837	-69.790	-0.216	-0.081
-164.823	800.000	0.041	-0.139
-163.808	-139.116	0.203	-0.022
-162.793	-51.654	-0.140	-0.064
-161.779	-94.652	0.352	-0.094
-160.764	98.537	-0.133	0.151
-159.750	3.930	0.262	-0.188
-158.735	-144.935	-0.231	-0.021
-157.720	208.833	0.107	-0.164
-156.706	238.072	0.005	-0.008
-155.691	46.170	-0.353	0.322
-154.677	101.459	0.182	0.209
-153.662	67.526	0.192	0.193
-152.647	-200.000	-0.016	0.123
-151.633	-200.000	0.011	-0.058
-150.618	564.950	-0.078	-0.186
-149.604	33.576	-0.363	-0.311
-148.589	25.986	-0.118	-0.097
-147.574	-200.000	-0.038	0.267
-146.560	218.679	0.061	0.096
-145.545	-139.099	-0.437	0.046
-144.531	6.924	0.192	0.140
-143.516	-200.000	-0.050	-0.275
-142.502	9.437	-0.133	-0.099
-141.487	14.349	0.237	-0.182
-140.472	-81.972	0.030	-0.010
-139.458	354.395	-0.133	0.261
-138.443	59.592	-0.123	-0.119
-137.429	33.485	-0.204	0.174
-136.414	305.634	-0.151	-0.277
-135.399	800.000	-0.080	0.304
-134.385	549.156	0.094	0.221
-133.370	32.902	0.070	0.060
-132.356	-15.972	0.066	-0.041
-131.341	-86.616	0.206	0.062
-130.326	-88.077	-0.136	0.040
-129.312	-0.897	-0.120	0.083
-128.297	-200.000	-0.021	-0.202
-127.283	-200.000	-0.005	0.047
-126.268	-114.266	0.219	0.042
-125.253	347.352	0.053	0.102
-124.239	213.721	0.259	0.402
-123.224	-55.608	-0.341	0.150
-122.210	170.344	0.176	0.248
-121.195	202.135	-0.060	0.090
