DTS Sentinel unit serial number:	SN413079Multiplexer serial number:	ORYXHardware model number:	OX4-SRSoftware version number:	ORYX F/W v4.00 Oryx Data Collector v3.7.2.0data status	okinstallation	princeton_trtdifferential loss correction	single-endedforward channel	channel 1reverse channel	N/Adate	2019/09/12time	15:40:11forward acquisition time	60.00reverse acquisition time	0.00gamma	496.2192k internal	0.2295k external	0.2295temperature offset calibration	1.0073default loss term (dB/km)	0.3790temperature slope calibration	1.0000multiplexer offset coefficient	1.0000multiplexer slope coefficient	1.0000fibre end	0.00T internal ref (°C)	40.14T ext. ref 1 (°C)	2.45T ext. ref 2 (°C)	32.81length (m)	temperature (°C)	Stokes	anti-Stokes-747.200	737.616	0.049	-0.134
-746.185	-200.000	0.054	0.618
-745.171	-172.260	0.198	-0.006
-744.156	70.580	-0.202	0.214
-743.142	800.000	0.082	-0.261
-742.127	800.000	0.076	0.230
-741.112	-115.132	0.145	-0.028
-740.098	209.518	-0.254	0.407
-739.083	-90.257	-0.297	-0.088
-738.069	-6.579	0.431	0.300
-737.054	204.927	0.070	0.111
-736.039	800.000	-0.051	-0.176
-735.025	72.740	0.030	0.032
-734.010	207.282	-0.288	-0.458
-732.996	-43.460	-0.418	-0.216
-731.981	-16.929	-0.282	0.182
-730.966	-200.000	-0.011	0.136
-729.952	142.606	-0.206	-0.280
-728.937	400.254	0.029	-0.062
-727.923	-200.000	0.004	0.274
-726.908	42.571	-0.271	0.252
-725.894	800.000	0.064	-0.257
-724.879	800.000	-0.031	0.117
-723.864	258.531	-0.058	0.102
-722.850	702.180	-0.160	-0.430
-721.835	239.396	-0.093	-0.159
-720.821	-116.423	-0.172	-0.032
-719.806	61.632	-0.370	-0.376
-718.791	-35.795	0.232	-0.128
-717.777	-200.000	0.099	-0.486
-716.762	135.275	0.098	0.130
-715.748	-68.602	-0.246	0.097
-714.733	-200.000	-0.015	0.237
-713.718	24.864	0.214	0.181
-712.704	-96.035	0.104	0.028
-711.689	-200.000	0.008	0.175
-710.675	-200.000	-0.011	0.127
-709.660	55.227	-0.165	-0.162
-708.645	133.420	0.093	-0.122
-707.631	399.775	-0.068	-0.146
-706.616	-108.165	-0.322	-0.071
-705.602	-49.664	-0.123	0.060
-704.587	87.192	-0.132	0.149
-703.572	526.690	0.086	-0.206
-702.558	-117.962	0.517	0.094
-701.543	-73.603	-0.087	-0.032
-700.529	-27.542	0.220	0.131
-699.514	-68.788	0.330	0.130
-698.499	-45.551	-0.108	0.054
-697.485	13.867	0.020	-0.016
-696.470	-154.998	0.105	0.007
-695.456	800.000	0.090	0.259
-694.441	159.792	-0.023	0.033
-693.426	-23.001	-0.072	0.044
-692.412	-101.087	-0.283	0.071
-691.397	-8.594	-0.086	-0.059
-690.383	-200.000	0.001	0.220
-689.368	412.770	0.133	-0.289
-688.354	300.832	0.170	0.320
-687.339	601.765	-0.130	-0.329
-686.324	-200.000	0.027	-0.262
-685.310	-18.355	-0.110	-0.070
-684.295	-71.075	0.333	-0.128
-683.281	174.958	0.152	0.224
-682.266	-60.906	0.208	-0.090
-681.251	-71.104	-0.125	0.048
-680.237	46.296	-0.121	0.114
-679.222	155.036	-0.023	-0.032
-678.208	55.432	-0.082	-0.081
-677.193	178.003	0.167	-0.248
-676.178	11.618	-0.281	0.220
-675.164	158.065	-0.082	-0.117
-674.149	-163.095	-0.078	-0.004
-673.135	272.305	-0.101	0.182
-672.120	-200.000	0.044	-0.350
-671.105	260.667	0.099	-0.175
-670.091	800.000	0.101	-0.309
-669.076	-17.989	-0.239	-0.153
-668.062	388.110	-0.119	-0.250
-667.047	-146.471	0.147	0.013
-666.032	-200.000	0.004	0.035
-665.018	-78.025	0.434	0.152
-664.003	-142.248	-0.320	0.032
-662.989	600.867	-0.029	-0.073
-661.974	36.021	-0.103	0.093
-660.959	-91.004	-0.165	-0.048
-659.945	800.000	-0.058	0.175
-658.930	80.987	-0.095	0.105
-657.916	-188.468	-0.113	-0.001
-656.901	-37.200	0.107	0.058
-655.886	-79.496	-0.191	-0.066
-654.872	443.361	0.060	0.134
-653.857	-200.000	0.023	0.351
-652.843	262.927	0.051	0.091
-651.828	-92.143	-0.362	0.104
-650.814	-200.000	0.049	-0.358
-649.799	294.039	0.088	-0.164
-648.784	-200.000	0.030	-0.316
-647.770	-63.593	-0.391	-0.164
-646.755	178.018	0.163	-0.241
-645.741	-88.418	0.108	-0.033
-644.726	203.346	-0.174	-0.274
-643.711	199.849	0.202	0.316
-642.697	89.530	-0.216	0.245
-641.682	800.000	-0.085	-0.376
-640.668	-121.043	0.073	-0.012
-639.653	167.623	-0.117	0.169
-638.638	-159.670	0.116	-0.007
-637.624	80.001	-0.303	0.332
-636.609	-200.000	0.013	0.184
-635.595	62.156	0.095	-0.097
-634.580	800.000	-0.137	0.508
-633.565	-21.811	-0.064	-0.039
-632.551	-108.757	0.357	-0.078
-631.536	-200.000	0.010	0.125
-630.522	-200.000	0.054	0.288
-629.507	-200.000	0.008	0.282
-628.492	-88.173	0.122	0.037
-627.478	-99.863	0.122	0.031
-626.463	458.880	-0.097	0.219
-625.449	30.059	0.187	0.162
-624.434	800.000	0.012	0.035
-623.419	-200.000	-0.043	-0.269
-622.405	-31.949	0.178	0.101
-621.390	800.000	0.032	0.134
-620.376	800.000	0.052	0.187
-619.361	-77.505	0.051	-0.018
-618.346	-85.382	-0.128	-0.041
-617.332	-49.216	0.287	0.139
-616.317	295.761	-0.110	-0.205
-615.303	-43.645	-0.358	0.183
-614.288	800.000	0.006	-0.021
-613.273	-200.000	-0.028	0.219
-612.259	-152.008	-0.394	-0.029
-611.244	-200.000	-0.006	-0.321
-610.230	-56.733	0.250	-0.113
-609.215	-83.650	-0.348	-0.113
-608.201	-200.000	-0.010	-0.226
-607.186	-116.806	0.343	0.064
-606.171	-200.000	-0.052	0.477
-605.157	-142.218	0.064	-0.006
-604.142	-161.386	-0.337	0.018
-603.128	125.914	-0.128	-0.164
-602.113	-91.069	-0.290	0.085
-601.098	-200.000	0.000	0.278
-600.084	23.814	-0.310	-0.260
-599.069	-198.626	-0.164	0.001
-598.055	313.590	0.148	0.282
-597.040	67.549	0.049	0.051
-596.025	109.672	0.155	0.189
-595.011	-71.662	-0.173	0.066
-593.996	81.649	-0.180	-0.198
-592.982	800.000	-0.057	-0.203
-591.967	-80.476	0.240	-0.081
-590.952	251.811	0.112	0.194
-589.938	39.882	-0.246	-0.224
-588.923	-111.749	-0.225	-0.046
-587.909	310.012	-0.085	-0.162
-586.894	-200.000	-0.011	-0.060
-585.879	55.188	-0.248	0.243
-584.865	225.766	-0.054	0.089
-583.850	-139.923	0.098	-0.011
-582.836	55.790	-0.234	-0.231
-581.821	-115.061	-0.113	-0.022
-580.806	800.000	0.069	0.243
-579.792	30.028	-0.251	-0.217
-578.777	158.813	-0.179	0.253
-577.763	-78.259	0.144	-0.050
-576.748	-26.101	0.168	0.100
-575.733	12.276	-0.259	-0.202
-574.719	800.000	0.088	0.271
-573.704	-200.000	0.002	-0.012
-572.690	-86.089	-0.147	0.046
-571.675	-153.099	-0.162	-0.012
-570.661	214.076	-0.055	0.089
-569.646	311.551	-0.128	-0.243
-568.631	-200.000	0.024	0.127
-567.617	6.158	0.293	-0.221
-566.602	58.335	-0.344	0.343
-565.588	800.000	0.032	0.097
-564.573	-189.092	0.192	-0.002
-563.558	800.000	-0.085	-0.262
-562.544	561.744	0.125	0.306
-561.529	99.531	0.241	0.283
-560.515	589.674	-0.042	-0.105
-559.500	-41.400	0.144	0.075
-558.485	3.663	0.252	0.187
-557.471	120.997	0.152	0.192
-556.456	-113.528	0.249	0.049
-555.442	-60.173	-0.033	0.014
-554.427	178.279	-0.182	-0.269
-553.412	61.920	0.207	-0.209
-552.398	-102.877	-0.154	0.037
-551.383	-111.147	-0.147	0.031
-550.369	-49.111	-0.259	-0.126
-549.354	-200.000	0.003	0.200
-548.339	319.397	-0.056	0.108
-547.325	-52.291	-0.062	0.029
-546.310	-173.789	-0.228	0.007
-545.296	-100.138	0.032	0.008
-544.281	-68.148	-0.325	-0.128
-543.266	205.124	0.038	0.060
-542.252	105.121	0.099	-0.119
-541.237	-200.000	-0.024	-0.139
-540.223	106.741	0.062	-0.074
-539.208	-69.782	-0.257	0.100
-538.193	338.467	-0.117	0.232
-537.179	-200.000	0.006	0.384
-536.164	-200.000	0.038	-0.225
-535.150	800.000	0.054	0.229
-534.135	800.000	0.036	-0.131
-533.121	-89.652	-0.211	0.063
-532.106	112.686	-0.119	-0.146
-531.091	70.825	-0.089	0.094
-530.077	800.000	-0.082	-0.274
-529.062	-27.885	0.237	-0.139
-528.048	-200.000	0.041	-0.296
-527.033	-156.302	0.136	0.009
-526.018	-200.000	-0.050	-0.337
-525.004	226.796	-0.220	-0.362
-523.989	74.826	0.153	-0.163
-522.975	195.727	0.054	-0.083
-521.960	119.167	0.123	0.155
-520.945	-26.565	-0.244	-0.145
-519.931	19.415	-0.204	0.166
-518.916	-0.417	0.163	0.117
-517.902	127.796	-0.085	0.109
-516.887	-34.192	-0.066	-0.037
-515.872	25.037	-0.231	-0.194
-514.858	-200.000	-0.021	-0.330
-513.843	-49.172	0.285	-0.138
-512.829	51.051	-0.148	-0.143
-511.814	-96.234	-0.223	-0.060
-510.799	25.706	-0.162	0.137
-509.785	11.520	-0.337	0.262
-508.770	98.103	-0.251	0.293
-507.756	-17.629	-0.072	0.046
-506.741	-112.406	-0.054	0.011
-505.726	-6.337	-0.092	-0.064
-504.712	800.000	0.071	0.289
-503.697	274.690	-0.121	0.216
-502.683	-58.237	0.158	0.070
-501.668	-173.736	0.410	0.012
-500.653	-198.712	-0.136	0.001
-499.639	182.664	0.072	-0.107
-498.624	-200.000	0.063	-0.385
-497.610	-200.000	-0.032	-0.196
-496.595	-6.124	-0.448	-0.310
-495.581	635.777	-0.083	-0.212
-494.566	-77.081	0.093	0.033
-493.551	38.327	0.165	0.149
-492.537	274.464	-0.199	0.356
-491.522	-38.308	-0.335	0.180
-490.508	72.742	0.112	0.119
-489.493	60.180	0.182	-0.182
-488.478	647.805	-0.078	-0.203
-487.464	-188.336	0.237	0.003
-486.449	84.977	-0.125	0.139
-485.435	-200.000	0.014	-0.265
-484.420	9.357	0.236	0.181
-483.405	-103.988	-0.146	-0.034
-482.391	800.000	0.030	-0.130
-481.376	-130.234	0.161	0.022
-480.362	-0.766	-0.243	-0.174
-479.347	-82.849	-0.076	0.025
-478.332	388.058	-0.038	0.079
-477.318	-7.421	0.161	-0.110
-476.303	-20.441	0.294	0.183
-475.289	-95.135	-0.116	-0.032
-474.274	62.310	-0.262	0.265
-473.259	347.826	-0.100	0.200
-472.245	800.000	-0.052	0.189
-471.230	-200.000	-0.007	-0.180
-470.216	398.416	0.166	-0.350
-469.201	-200.000	0.012	0.131
-468.186	164.211	-0.077	0.109
-467.172	184.907	-0.081	0.122
-466.157	800.000	0.062	0.237
-465.143	-200.000	0.027	-0.204
-464.128	616.783	0.028	-0.070
-463.113	288.052	-0.168	0.307
-462.099	-200.000	0.071	0.473
-461.084	-151.488	0.166	-0.012
-460.070	109.624	-0.109	-0.132
-459.055	-200.000	0.045	-0.222
-458.040	-200.000	0.015	0.097
-457.026	44.251	0.122	0.113
-456.011	-109.921	-0.109	0.023
-454.997	149.667	0.134	-0.183
-453.982	-31.618	-0.369	-0.209
-452.968	800.000	-0.059	-0.193
-451.953	3.744	0.044	-0.032
-450.938	-64.969	-0.148	-0.060
-449.924	-128.938	0.225	-0.032
-448.909	-200.000	-0.028	-0.150
-447.895	800.000	0.085	0.331
-446.880	12.995	-0.187	0.146
-445.865	143.283	0.098	0.132
-444.851	-200.000	0.021	-0.102
-443.836	-6.052	0.166	-0.115
-442.822	-89.664	-0.256	-0.076
-441.807	-200.000	-0.071	0.378
-440.792	406.334	0.097	-0.206
-439.778	-200.000	0.057	-0.361
-438.763	800.000	0.081	0.233
-437.749	-200.000	0.263	0.000
-436.734	-200.000	-0.041	0.328
-435.719	117.267	-0.191	-0.237
-434.705	-67.039	0.154	-0.061
-433.690	-107.241	0.118	0.026
-432.676	800.000	0.064	-0.237
-431.661	-53.867	-0.254	-0.117
-430.646	800.000	0.113	-0.373
-429.632	-200.000	-0.015	0.282
-428.617	123.631	-0.139	0.176
-427.603	5.924	-0.138	-0.103
-426.588	238.994	-0.102	0.172
-425.573	-94.318	-0.074	0.020
-424.559	52.847	0.088	0.085
-423.544	-86.133	0.343	0.107
-422.530	196.137	0.129	0.198
-421.515	-191.880	0.238	-0.002
-420.500	800.000	0.081	-0.346
-419.486	706.515	-0.059	-0.156
-418.471	370.678	-0.052	0.107
-417.457	198.735	-0.133	-0.206
-416.442	-146.398	-0.304	-0.027
-415.428	-151.174	-0.176	-0.013
-414.413	-200.000	-0.013	0.202
-413.398	-200.000	0.000	-0.287
-412.384	-124.448	0.329	0.052
-411.369	97.025	0.165	0.191
-410.355	-89.624	0.206	0.061
-409.340	-50.749	0.136	0.064
-408.325	63.564	0.116	-0.118
-407.311	-3.072	0.255	0.179
-406.296	534.771	-0.025	0.060
-405.282	800.000	0.105	-0.392
-404.267	800.000	0.102	0.298
-403.252	-74.448	0.267	0.097
-402.238	-200.000	0.055	-0.263
-401.223	209.245	0.266	-0.421
-400.209	-69.875	0.260	0.100
-399.194	141.316	-0.184	0.246
-398.179	-31.758	-0.083	0.047
-397.165	-90.540	0.287	-0.084
-396.150	-200.000	-0.005	-0.404
-395.136	310.180	-0.090	-0.171
-394.121	-151.076	-0.071	0.005
-393.106	-128.619	-0.241	0.034
-392.092	-148.701	-0.088	-0.007
-391.077	-5.511	0.315	-0.218
-390.063	-79.651	-0.195	-0.066
-389.048	-168.928	0.091	0.003
-388.033	800.000	0.007	-0.023
-387.019	290.758	0.067	-0.122
-386.004	-200.000	0.022	-0.130
-384.990	-200.000	0.029	-0.253
-383.975	107.611	0.324	-0.389
-382.960	-71.270	-0.126	-0.048
-381.946	-158.553	-0.349	-0.020
-380.931	-200.000	-0.042	0.284
-379.917	-149.273	0.193	-0.016
-378.902	122.405	0.115	0.145
-377.888	-37.686	-0.134	-0.072
-376.873	-200.000	-0.030	0.147
-375.858	-163.699	-0.180	0.009
-374.844	129.718	0.158	-0.204
-373.829	769.234	0.126	0.345
-372.815	-76.294	-0.262	0.093
-371.800	800.000	0.053	-0.180
-370.785	-146.509	-0.255	-0.022
-369.771	-200.000	0.003	-0.091
-368.756	62.955	-0.171	-0.172
-367.742	268.704	-0.235	0.416
-366.727	315.197	-0.092	0.174
-365.712	171.327	-0.038	-0.054
-364.698	-4.368	-0.023	-0.016
-363.683	292.089	-0.127	-0.232
-362.669	-200.000	0.018	-0.520
-361.654	69.014	0.239	-0.247
-360.639	800.000	-0.036	0.158
-359.625	-122.010	0.266	-0.044
-358.610	344.544	-0.230	-0.454
-357.596	-152.902	0.359	0.026
-356.581	34.061	-0.258	0.226
-355.566	-200.000	0.016	0.194
-354.552	-182.759	0.238	0.004
-353.537	-131.622	-0.205	-0.027
-352.523	90.659	0.051	-0.058
-351.508	-35.635	0.063	0.034
-350.493	-200.000	-0.020	0.272
-349.479	-91.093	-0.078	-0.023
-348.464	112.650	0.094	-0.114
-347.450	-200.000	-0.005	-0.052
-346.435	800.000	0.060	-0.209
-345.420	145.927	-0.018	0.024
-344.406	188.013	0.127	0.191
-343.391	-132.600	0.179	0.023
-342.377	9.756	-0.134	-0.103
-341.362	-200.000	0.049	-0.334
-340.348	-96.618	0.249	-0.066
-339.333	-17.043	0.208	-0.132
-338.318	198.268	0.011	-0.017
-337.304	-113.000	0.112	0.022
-336.289	-200.000	0.012	0.207
-335.275	-195.803	-0.179	-0.001
-334.260	-112.264	-0.171	-0.035
-333.245	-200.000	-0.027	0.195
-332.231	571.640	0.125	0.307
-331.216	37.321	-0.166	0.148
-330.202	-200.000	-0.040	-0.260
-329.187	-36.043	0.237	0.129
-328.172	-8.383	0.374	0.253
-327.158	800.000	0.090	0.255
-326.143	132.951	-0.265	0.344
-325.129	800.000	-0.032	0.107
-324.114	-59.915	-0.200	0.086
-323.099	-200.000	0.070	-0.420
-322.085	-42.004	-0.131	0.067
-321.070	-200.000	0.004	-0.162
-320.056	59.454	0.158	-0.157
-319.041	374.253	0.056	0.114
-318.026	-53.327	0.174	-0.080
-317.012	-111.394	-0.178	0.037
-315.997	351.958	0.085	0.168
-314.983	107.031	-0.234	0.279
-313.968	-87.906	-0.155	-0.047
-312.953	-81.036	-0.160	0.053
-311.939	-200.000	0.069	0.309
-310.924	-81.885	0.265	0.087
-309.910	-116.850	-0.461	0.085
-308.895	-106.531	-0.099	-0.022
-307.880	29.569	0.182	-0.155
-306.866	-138.529	-0.070	0.008
-305.851	560.766	0.084	0.205
-304.837	-115.152	-0.150	0.029
-303.822	83.161	0.018	0.020
-302.807	800.000	0.051	0.204
-301.793	10.643	-0.082	-0.062
-300.778	-200.000	-0.000	-0.314
-299.764	-200.000	0.012	0.110
-298.749	800.000	-0.052	0.161
-297.735	2.113	0.158	-0.115
-296.720	260.994	0.170	-0.295
-295.705	-200.000	-0.046	-0.377
-294.691	800.000	0.127	-0.366
-293.676	239.466	-0.081	-0.135
-292.662	800.000	-0.075	0.256
-291.647	-155.181	-0.354	0.023
-290.632	-165.951	-0.182	-0.008
-289.618	26.303	-0.279	0.234
-288.603	-200.000	-0.024	-0.146
-287.589	-40.211	0.446	-0.233
-286.574	-100.421	0.035	-0.009
-285.559	88.360	-0.165	0.184
-284.545	-14.978	0.083	0.054
-283.530	-42.684	-0.098	-0.050
-282.516	800.000	0.056	-0.225
-281.501	216.893	0.089	-0.142
-280.486	20.741	0.349	0.284
-279.472	129.052	-0.036	-0.046
-278.457	-103.590	0.125	-0.029
-277.443	18.584	0.134	-0.107
-276.428	78.839	-0.222	0.238
-275.413	-58.199	0.236	-0.103
-274.399	-179.252	0.089	0.002
-273.384	-56.190	-0.159	-0.071
-272.370	-97.210	0.191	0.050
-271.355	-28.548	-0.258	0.149
-270.340	-15.020	-0.339	-0.218
-269.326	-135.596	0.261	0.031
-268.311	-200.000	-0.045	0.331
-267.297	61.607	0.209	0.209
-266.282	-38.959	0.162	-0.085
-265.267	174.174	-0.114	0.166
-264.253	180.588	-0.053	0.077
-263.238	-129.757	-0.208	0.029
-262.224	-126.015	-0.261	0.039
-261.209	800.000	-0.077	0.314
-260.195	-49.764	0.049	-0.024
-259.180	-200.000	-0.037	0.238
-258.165	358.842	0.019	0.038
-257.151	292.190	0.073	0.133
-256.136	11.906	-0.230	-0.177
-255.122	-200.000	0.037	-0.407
-254.107	-58.099	-0.042	0.018
-253.092	-98.176	0.111	0.029
-252.078	203.728	0.057	-0.088
-251.063	156.115	0.028	0.039
-250.049	254.340	0.043	-0.073
-249.034	-35.898	0.057	0.031
-248.019	11.307	-0.170	0.130
-247.005	557.466	0.063	0.152
-245.990	275.840	-0.104	-0.184
-244.976	375.912	0.035	-0.072
-243.961	324.623	-0.062	-0.118
-242.946	-97.035	0.149	-0.039
-241.932	-33.999	0.367	0.202
-240.917	53.148	-0.203	0.195
-239.903	80.742	-0.182	-0.197
-238.888	-200.000	0.059	-0.313
-237.873	160.196	0.121	-0.169
-236.859	-200.000	-0.064	-0.350
-235.844	89.249	-0.195	-0.217
-234.830	126.718	-0.126	0.159
-233.815	103.160	0.126	0.147
-232.800	-112.158	0.125	-0.025
-231.786	284.109	0.128	0.230
-230.771	-100.972	-0.051	0.013
-229.757	21.901	0.179	-0.146
-228.742	199.089	-0.095	-0.146
-227.727	22.164	-0.285	-0.233
-226.713	-141.563	-0.081	-0.008
-225.698	800.000	-0.028	0.114
-224.684	-200.000	0.062	-0.288
-223.669	-5.974	0.252	0.173
-222.655	313.417	0.088	-0.166
-221.640	-123.327	0.318	0.051
-220.625	-144.279	-0.076	-0.007
-219.611	-52.864	-0.116	0.053
-218.596	-200.000	-0.017	0.103
-217.582	-89.472	-0.248	0.073
-216.567	800.000	0.079	-0.232
-215.552	-52.910	0.228	0.105
-214.538	800.000	0.107	-0.297
-213.523	-200.000	-0.027	-0.472
-212.509	-200.000	-0.027	0.125
-211.494	97.681	0.067	-0.077
-210.479	-200.000	0.021	-0.252
-209.465	-96.997	-0.029	-0.008
-208.450	321.105	-0.105	0.199
-207.436	-90.798	-0.031	0.009
-206.421	-137.741	0.382	0.043
-205.406	80.739	0.245	0.265
-204.392	800.000	0.016	0.054
-203.377	120.633	0.289	0.359
-202.363	-102.462	0.163	0.039
-201.348	800.000	0.091	-0.323
-200.333	167.519	-0.166	-0.235
-199.319	-111.248	-0.154	0.032
-198.304	800.000	0.085	0.331
-197.290	800.000	0.122	0.399
-196.275	14.353	0.229	0.179
-195.260	-31.150	0.292	0.165
-194.246	86.622	0.315	0.348
-193.231	-200.000	0.013	0.333
-192.217	177.900	0.204	0.297
-191.202	-21.699	0.281	0.171
-190.187	-200.000	-0.044	0.428
-189.173	613.344	0.021	0.053
-188.158	-200.000	-0.020	-0.108
-187.144	122.328	-0.078	0.098
-186.129	53.803	0.131	-0.126
-185.114	-144.990	0.327	-0.030
-184.100	71.805	0.055	0.057
-183.085	677.325	-0.105	-0.274
-182.071	-98.841	-0.131	-0.033
-181.056	-200.000	0.004	-0.327
-180.042	-34.433	0.193	-0.106
-179.027	13.202	0.366	0.283
-178.012	-97.654	0.360	-0.093
-176.998	-200.000	-0.016	0.077
-175.983	-86.571	-0.133	-0.041
-174.969	102.482	0.054	-0.064
-173.954	82.686	-0.160	0.174
-172.939	-14.545	-0.048	-0.031
-171.925	223.868	0.081	-0.130
-170.910	800.000	-0.018	-0.077
-169.896	800.000	0.047	0.191
-168.881	6.347	0.192	0.143
-167.866	-200.000	-0.037	0.178
-166.852	32.849	-0.213	-0.184
-165.837	-61.329	0.449	-0.189
-164.823	-116.733	-0.143	-0.026
-163.808	-82.213	0.172	-0.056
-162.793	105.545	0.045	-0.053
-161.779	-20.068	0.434	-0.267
-160.764	-92.662	-0.106	-0.030
-159.750	-109.025	-0.230	0.049
-158.735	112.456	-0.093	0.113
-157.720	800.000	-0.132	-0.464
-156.706	-157.868	0.075	-0.004
-155.691	800.000	0.020	-0.083
-154.677	220.617	-0.103	-0.165
-153.662	-99.522	-0.425	-0.107
-152.647	65.570	-0.136	0.138
-151.633	-177.605	-0.115	-0.003
-150.618	-50.087	-0.131	0.062
-149.604	-200.000	0.002	-0.110
-148.589	117.206	0.119	-0.146
-147.574	151.840	-0.142	-0.194
-146.560	-105.059	-0.312	0.071
-145.545	-44.167	0.135	0.068
-144.531	159.532	-0.097	-0.134
-143.516	328.784	0.068	-0.130
-142.502	-31.385	0.140	0.079
-141.487	-13.345	-0.094	0.061
-140.472	-127.452	-0.386	0.056
-139.458	-101.122	0.188	-0.046
-138.443	-200.000	-0.059	-0.318
-137.429	800.000	0.043	-0.176
-136.414	-150.479	0.416	-0.032
-135.399	-168.834	-0.252	-0.009
-134.385	-77.135	-0.034	0.012
-133.370	21.884	0.061	-0.050
-132.356	-197.675	0.211	-0.001
-131.341	295.928	0.048	-0.088
-130.326	21.910	-0.018	-0.015
-129.312	0.375	0.172	-0.122
-128.297	-200.000	0.004	0.126
-127.283	-76.293	-0.186	0.065
-126.268	37.789	0.242	-0.214
-125.253	-82.211	-0.238	0.077
-124.239	800.000	-0.045	0.166
-123.224	115.561	-0.114	0.139
-122.210	290.368	-0.022	-0.039
-121.195	269.075	-0.032	0.057
