DTS Sentinel unit serial number:	SN413079Multiplexer serial number:	ORYXHardware model number:	OX4-SRSoftware version number:	ORYX F/W v4.00 Oryx Data Collector v3.7.2.0data status	okinstallation	princeton_trtdifferential loss correction	single-endedforward channel	channel 1reverse channel	N/Adate	2019/09/18time	12:26:35forward acquisition time	60.00reverse acquisition time	0.00gamma	496.2192k internal	0.2321k external	0.2321temperature offset calibration	0.9979default loss term (dB/km)	0.3790temperature slope calibration	1.0000multiplexer offset coefficient	1.0000multiplexer slope coefficient	1.0000fibre end	0.00T internal ref (°C)	32.06T ext. ref 1 (°C)	0.52T ext. ref 2 (°C)	29.31length (m)	temperature (°C)	Stokes	anti-Stokes-747.200	-85.124	0.178	0.056
-746.185	451.460	0.196	0.437
-745.171	60.984	-0.090	0.090
-744.156	-200.000	0.048	0.269
-743.142	20.429	-0.050	-0.041
-742.127	-88.908	0.188	0.056
-741.112	166.657	-0.064	0.092
-740.098	54.096	-0.303	0.295
-739.083	-56.716	0.224	0.100
-738.069	61.720	0.018	-0.018
-737.054	44.108	-0.182	0.169
-736.039	37.799	-0.363	-0.326
-735.025	-184.809	0.522	0.008
-734.010	353.163	-0.120	-0.240
-732.996	82.537	0.231	0.253
-731.981	6.126	-0.206	0.154
-730.966	-200.000	-0.021	-0.096
-729.952	55.534	0.104	-0.102
-728.937	-24.899	0.051	0.031
-727.923	482.329	0.085	-0.195
-726.908	-73.440	-0.197	0.073
-725.894	800.000	-0.111	-0.337
-724.879	-147.151	-0.113	0.010
-723.864	292.823	-0.079	-0.145
-722.850	193.571	-0.024	-0.036
-721.835	22.181	-0.084	-0.069
-720.821	342.109	-0.156	0.309
-719.806	-200.000	-0.014	0.225
-718.791	800.000	-0.028	0.111
-717.777	-91.317	0.013	-0.004
-716.762	-143.628	-0.281	-0.027
-715.748	167.691	-0.069	-0.099
-714.733	800.000	-0.066	-0.281
-713.718	23.624	0.159	0.132
-712.704	-118.290	0.236	-0.042
-711.689	800.000	0.048	-0.136
-710.675	-200.000	0.059	0.468
-709.660	250.725	0.167	0.286
-708.645	-33.010	-0.428	0.240
-707.631	88.717	0.130	-0.146
-706.616	-84.432	-0.269	0.086
-705.602	-200.000	-0.047	0.212
-704.587	-132.068	-0.098	0.013
-703.572	-45.714	-0.091	-0.045
-702.558	800.000	0.098	0.343
-701.543	-200.000	-0.057	-0.379
-700.529	56.340	0.240	-0.235
-699.514	-94.661	-0.031	0.009
-698.499	498.934	0.038	0.088
-697.485	-200.000	0.005	-0.192
-696.470	-125.881	-0.179	-0.027
-695.456	800.000	-0.026	0.085
-694.441	800.000	-0.058	-0.225
-693.426	-79.541	-0.345	-0.118
-692.412	-154.044	0.155	-0.011
-691.397	-69.751	-0.125	0.048
-690.383	3.546	0.225	-0.166
-689.368	-200.000	-0.043	0.248
-688.354	93.802	0.337	-0.385
-687.339	56.629	-0.291	-0.285
-686.324	-165.854	-0.101	-0.004
-685.310	800.000	0.058	-0.165
-684.295	-142.796	0.209	-0.021
-683.281	-200.000	0.014	-0.182
-682.266	53.963	0.189	0.183
-681.251	9.399	-0.110	-0.084
-680.237	140.959	-0.192	0.256
-679.222	16.636	0.098	-0.078
-678.208	-200.000	-0.007	-0.413
-677.193	-79.725	-0.231	-0.078
-676.178	154.250	-0.065	0.090
-675.164	-200.000	0.010	0.155
-674.149	-200.000	0.036	-0.188
-673.135	-67.036	0.103	-0.041
-672.120	99.768	0.133	0.155
-671.105	-77.999	-0.269	0.093
-670.091	67.168	0.032	-0.033
-669.076	-200.000	0.046	-0.351
-668.062	211.868	0.129	0.204
-667.047	71.329	-0.223	-0.233
-666.032	-102.719	0.152	0.036
-665.018	-10.747	-0.258	-0.172
-664.003	-39.009	-0.067	0.036
-662.989	12.300	0.220	0.171
-661.974	-188.369	0.463	0.006
-660.959	-200.000	0.026	0.328
-659.945	187.219	-0.203	-0.305
-658.930	-141.213	-0.131	-0.013
-657.916	-156.228	0.076	0.005
-656.901	-200.000	0.005	-0.139
-655.886	-72.400	-0.423	0.158
-654.872	73.927	-0.066	0.070
-653.857	9.163	-0.168	0.128
-652.843	-73.161	-0.184	0.068
-651.828	302.606	0.064	-0.119
-650.814	-117.065	0.225	-0.041
-649.799	160.493	-0.217	0.305
-648.784	-200.000	-0.007	-0.094
-647.770	1.600	-0.246	-0.178
-646.755	52.986	0.238	-0.229
-645.741	109.953	0.056	-0.067
-644.726	-12.901	0.110	-0.072
-643.711	-200.000	-0.014	0.105
-642.697	-200.000	0.001	-0.325
-641.682	-130.030	-0.149	0.021
-640.668	63.675	-0.203	0.205
-639.653	-122.025	-0.281	-0.047
-638.638	91.981	0.095	-0.108
-637.624	800.000	-0.025	0.080
-636.609	-200.000	-0.034	0.319
-635.595	-115.031	0.388	0.074
-634.580	-130.628	0.115	-0.016
-633.565	84.698	-0.016	0.018
-632.551	157.415	-0.195	0.272
-631.536	462.102	-0.102	-0.229
-630.522	800.000	-0.030	0.095
-629.507	800.000	0.066	0.235
-628.492	508.752	-0.115	-0.269
-627.478	-94.285	0.192	0.053
-626.463	-52.352	-0.201	-0.094
-625.449	-200.000	0.000	0.077
-624.434	-79.518	0.402	-0.136
-623.419	0.231	0.136	-0.097
-622.405	-28.906	-0.244	0.141
-621.390	-97.954	-0.307	-0.080
-620.376	-200.000	-0.004	0.082
-619.361	-30.421	-0.364	0.208
-618.346	-173.877	0.120	0.004
-617.332	-87.389	0.133	0.041
-616.317	-78.232	-0.219	0.076
-615.303	-64.635	-0.233	0.095
-614.288	70.782	-0.116	0.121
-613.273	-77.318	0.077	0.027
-612.259	44.669	0.172	0.159
-611.244	80.859	0.152	-0.165
-610.230	-22.305	0.178	-0.108
-609.215	150.823	0.253	-0.346
-608.201	102.971	0.229	0.270
-607.186	-97.574	0.099	-0.026
-606.171	-11.299	-0.297	0.197
-605.157	-129.434	0.353	0.049
-604.142	436.180	-0.103	0.226
-603.128	-200.000	0.027	-0.176
-602.113	375.878	0.023	0.048
-601.098	800.000	0.019	-0.079
-600.084	160.938	0.136	0.191
-599.069	800.000	-0.096	-0.351
-598.055	311.591	-0.015	-0.029
-597.040	359.383	0.071	0.143
-596.025	374.527	0.069	0.142
-595.011	-125.385	0.358	-0.055
-593.996	-80.210	0.169	-0.057
-592.982	-139.506	0.168	0.018
-591.967	-111.798	-0.364	0.074
-590.952	114.502	-0.090	0.110
-589.938	-79.211	0.333	-0.113
-588.923	-86.763	-0.109	-0.033
-587.909	800.000	0.026	-0.107
-586.894	800.000	0.074	-0.209
-585.879	-68.984	0.127	-0.049
-584.865	3.149	-0.067	-0.049
-583.850	86.593	-0.169	-0.187
-582.836	120.588	-0.049	-0.062
-581.821	-200.000	0.020	-0.231
-580.806	198.795	0.110	-0.170
-579.792	250.936	0.068	0.115
-578.777	37.968	-0.136	0.121
-577.763	-140.919	0.205	-0.021
-576.748	-42.214	-0.109	0.056
-575.733	61.730	-0.193	-0.193
-574.719	7.770	-0.241	0.181
-573.704	-121.885	0.135	0.022
-572.690	450.612	-0.102	-0.226
-571.675	122.102	0.089	-0.111
-570.661	-55.917	0.039	0.017
-569.646	800.000	0.062	-0.195
-568.631	-75.781	-0.350	-0.125
-567.617	-200.000	-0.001	-0.135
-566.602	-107.123	-0.146	-0.032
-565.588	-137.462	-0.124	0.014
-564.573	-89.000	0.299	0.089
-563.558	800.000	-0.061	-0.251
-562.544	-139.678	-0.105	0.011
-561.529	185.980	-0.098	-0.146
-560.515	-53.958	0.254	-0.116
-559.500	-200.000	0.020	0.252
-558.485	-144.497	0.188	0.017
-557.471	-200.000	-0.006	-0.083
-556.456	-200.000	-0.012	-0.165
-555.442	-129.304	-0.033	0.005
-554.427	-56.065	0.237	0.106
-553.412	-98.407	0.151	0.039
-552.398	-200.000	-0.035	0.174
-551.383	-200.000	0.019	-0.216
-550.369	539.970	0.087	-0.208
-549.354	-200.000	0.008	0.196
-548.339	800.000	-0.067	-0.193
-547.325	-17.963	-0.138	0.087
-546.310	800.000	-0.105	0.346
-545.296	-200.000	-0.024	-0.141
-544.281	800.000	-0.054	0.212
-543.266	-0.170	-0.058	0.042
-542.252	310.443	-0.016	-0.029
-541.237	-65.973	0.104	-0.042
-540.223	800.000	-0.094	0.383
-539.208	-91.561	-0.219	-0.063
-538.193	739.556	-0.095	-0.255
-537.179	372.511	0.197	-0.401
-536.164	-45.200	0.151	-0.075
-535.150	129.338	0.205	0.263
-534.135	51.810	0.434	-0.414
-533.121	-200.000	0.008	-0.155
-532.106	133.063	0.145	0.188
-531.091	87.964	0.033	0.037
-530.077	-45.062	0.379	0.189
-529.062	135.624	0.067	-0.088
-528.048	-32.795	0.072	-0.040
-527.033	189.017	0.207	0.310
-526.018	-162.897	-0.050	-0.002
-525.004	41.098	-0.084	0.076
-523.989	162.873	-0.122	-0.171
-522.975	500.860	-0.070	-0.162
-521.960	800.000	0.129	-0.446
-520.945	4.206	0.240	0.176
-519.931	-60.415	0.393	0.167
-518.916	-122.921	-0.280	0.045
-517.902	-39.999	-0.192	0.100
-516.887	-102.981	0.102	-0.024
-515.872	-2.062	0.094	0.066
-514.858	640.328	-0.021	-0.054
-513.843	129.366	0.123	0.158
-512.829	-135.657	-0.181	0.022
-511.814	-166.626	-0.216	0.009
-510.799	-93.946	-0.446	-0.123
-509.785	-127.491	0.110	0.016
-508.770	212.090	-0.149	-0.236
-507.756	-56.309	-0.144	-0.064
-506.741	290.638	-0.051	0.093
-505.726	399.229	0.134	-0.281
-504.712	800.000	0.056	0.169
-503.697	-129.554	0.115	-0.016
-502.683	-123.852	-0.042	-0.007
-501.668	186.104	-0.137	0.204
-500.653	422.077	-0.089	0.191
-499.639	-125.978	0.206	0.031
-498.624	196.376	0.161	0.246
-497.610	-109.051	-0.115	-0.025
-496.595	-114.530	0.164	-0.032
-495.581	800.000	-0.123	-0.344
-494.566	-99.388	-0.236	0.060
-493.551	-200.000	0.014	-0.645
-492.537	-99.842	-0.151	0.038
-491.522	-6.693	-0.070	0.048
-490.508	14.764	0.062	-0.048
-489.493	-69.061	0.078	0.030
-488.478	-91.184	-0.329	-0.095
-487.464	-15.313	-0.178	-0.114
-486.449	-163.951	-0.095	-0.004
-485.435	-49.441	0.210	-0.100
-484.420	-59.463	0.233	0.100
-483.405	-103.929	0.319	0.074
-482.391	467.341	-0.082	0.184
-481.376	-200.000	0.009	0.141
-480.362	-116.809	0.087	-0.016
-479.347	800.000	-0.095	0.270
-478.332	-200.000	-0.002	0.041
-477.318	76.877	0.106	0.112
-476.303	-200.000	-0.009	-0.058
-475.289	-200.000	-0.037	-0.231
-474.274	-200.000	0.019	-0.135
-473.259	-15.393	0.044	-0.028
-472.245	24.649	-0.056	0.046
-471.230	123.291	0.149	0.187
-470.216	-102.231	-0.452	-0.109
-469.201	49.326	0.190	0.178
-468.186	-200.000	0.013	-0.208
-467.172	388.480	-0.105	0.217
-466.157	34.409	0.376	-0.328
-465.143	175.321	-0.067	-0.097
-464.128	-131.741	-0.289	0.038
-463.113	800.000	0.063	-0.215
-462.099	22.999	-0.222	-0.182
-461.084	-200.000	-0.016	0.223
-460.070	4.137	0.363	0.266
-459.055	-46.844	0.082	0.040
-458.040	-15.049	0.157	0.100
-457.026	41.796	-0.068	0.062
-456.011	657.736	-0.135	0.347
-454.997	-129.722	-0.143	-0.020
-453.982	-42.734	0.250	0.127
-452.968	-200.000	0.000	0.322
-451.953	-200.000	0.016	-0.074
-450.938	-115.497	-0.114	0.021
-449.924	-152.204	0.086	0.006
-448.909	-200.000	0.061	-0.308
-447.895	-98.012	-0.057	-0.015
-446.880	-200.000	0.011	-0.110
-445.865	34.501	-0.190	0.165
-444.851	-200.000	-0.034	0.203
-443.836	166.643	0.119	-0.168
-442.822	800.000	-0.052	-0.180
-441.807	-112.271	0.219	-0.044
-440.792	-170.123	-0.098	-0.003
-439.778	-8.616	-0.190	0.127
-438.763	800.000	-0.100	0.285
-437.749	-200.000	-0.011	0.178
-436.734	130.815	-0.032	-0.040
-435.719	-71.439	0.056	-0.021
-434.705	800.000	0.043	0.143
-433.690	800.000	-0.074	-0.311
-432.676	14.456	-0.155	-0.121
-431.661	268.715	-0.062	0.109
-430.646	97.176	0.149	0.170
-429.632	800.000	-0.038	-0.142
-428.617	-127.299	0.138	-0.020
-427.603	23.307	-0.079	-0.065
-426.588	-82.368	-0.195	-0.063
-425.573	-200.000	-0.062	-0.403
-424.559	116.429	0.082	0.101
-423.544	2.480	-0.112	-0.081
-422.530	47.122	-0.115	-0.107
-421.515	-32.063	0.184	0.103
-420.500	-28.948	0.140	0.081
-419.486	269.782	0.172	-0.302
-418.471	47.115	0.108	0.100
-417.457	-67.953	0.067	0.026
-416.442	-200.000	-0.046	0.266
-415.428	20.287	-0.200	0.161
-414.413	60.196	-0.284	0.280
-413.398	70.330	-0.158	0.163
-412.384	581.831	-0.019	0.047
-411.369	-200.000	-0.031	-0.188
-410.355	-5.691	-0.160	0.109
-409.340	-83.161	-0.181	0.058
-408.325	83.625	0.105	0.114
-407.311	69.831	0.057	0.058
-406.296	209.651	-0.118	-0.185
-405.282	-126.859	0.434	-0.064
-404.267	244.389	0.072	-0.121
-403.252	11.652	-0.211	0.162
-402.238	-12.710	-0.118	-0.076
-401.223	800.000	0.059	-0.208
-400.209	90.118	0.107	-0.119
-399.194	9.750	-0.097	-0.074
-398.179	75.090	-0.110	-0.115
-397.165	800.000	0.015	-0.043
-396.150	-7.473	0.109	-0.074
-395.136	-47.718	0.221	0.107
-394.121	399.551	-0.065	0.136
-393.106	-108.303	0.400	0.086
-392.092	-56.629	-0.119	0.052
-391.077	609.674	0.041	0.101
-390.063	305.987	0.095	-0.177
-389.048	-200.000	0.033	0.354
-388.033	-150.362	0.316	-0.024
-387.019	205.467	0.076	-0.118
-386.004	-2.561	0.095	-0.067
-384.990	-198.644	0.136	0.001
-383.975	-200.000	-0.010	-0.051
-382.960	41.491	0.288	0.260
-381.946	-200.000	0.051	-0.301
-380.931	800.000	-0.025	-0.079
-379.917	-200.000	0.015	-0.090
-378.902	1.850	0.382	-0.274
-377.888	278.488	-0.227	-0.404
-376.873	-136.303	-0.161	-0.019
-375.858	-163.551	0.294	0.014
-374.844	597.086	-0.087	-0.215
-373.829	800.000	0.067	0.219
-372.815	-200.000	0.362	0.001
-371.800	405.460	0.049	0.104
-370.785	521.540	-0.108	-0.253
-369.771	79.882	0.099	0.106
-368.756	-135.832	-0.055	-0.007
-367.742	2.537	-0.029	-0.021
-366.727	424.799	0.030	0.064
-365.712	800.000	0.037	0.161
-364.698	-92.223	-0.287	0.081
-363.683	178.418	-0.153	-0.222
-362.669	-200.000	0.066	0.295
-361.654	11.189	0.118	0.090
-360.639	-200.000	-0.031	-0.209
-359.625	-118.534	-0.093	0.016
-358.610	204.931	-0.226	0.349
-357.596	166.739	-0.092	-0.130
-356.581	-200.000	-0.009	-0.053
-355.566	44.948	-0.373	-0.342
-354.552	-178.532	0.096	-0.002
-353.537	-112.205	0.326	0.065
-352.523	-73.684	-0.242	0.088
-351.508	-83.901	0.107	0.034
-350.493	-67.650	-0.124	0.049
-349.479	-94.967	-0.225	0.060
-348.464	36.175	0.274	0.240
-347.450	126.825	0.162	-0.204
-346.435	-60.488	-0.265	0.112
-345.420	-112.004	-0.225	0.045
-344.406	-200.000	0.013	0.350
-343.391	-200.000	-0.033	0.245
-342.377	-37.393	0.203	0.108
-341.362	-89.039	-0.184	-0.054
-340.348	-72.341	0.291	0.107
-339.333	-85.304	-0.152	0.047
-338.318	122.713	-0.128	-0.159
-337.304	-131.040	0.233	0.031
-336.289	-1.367	-0.252	0.177
-335.275	440.314	0.066	-0.143
-334.260	120.341	-0.273	0.338
-333.245	152.582	0.074	0.100
-332.231	25.335	0.104	0.086
-331.216	423.685	-0.072	-0.154
-330.202	-130.210	-0.111	-0.015
-329.187	-7.329	0.316	-0.213
-328.172	-200.000	-0.020	-0.119
-327.158	-59.188	-0.129	0.055
-326.143	45.702	-0.126	0.116
-325.129	-56.574	0.221	0.097
-324.114	-91.213	-0.315	-0.090
-323.099	800.000	-0.054	0.148
-322.085	-200.000	0.017	0.100
-321.070	55.164	0.160	0.154
-320.056	-89.454	0.306	0.089
-319.041	-200.000	0.004	-0.199
-318.026	-200.000	-0.049	0.295
-317.012	-48.385	-0.252	0.121
-315.997	8.858	-0.186	0.139
-314.983	-26.291	0.205	-0.119
-313.968	-38.511	-0.342	-0.180
-312.953	28.199	0.126	0.106
-311.939	170.240	-0.105	0.150
-310.924	-113.609	-0.428	0.083
-309.910	43.985	0.125	-0.114
-308.895	121.078	0.182	-0.225
-307.880	291.793	0.166	0.300
-306.866	-120.086	-0.285	-0.048
-305.851	61.647	0.167	-0.165
-304.837	136.310	-0.220	-0.285
-303.822	-73.786	0.123	-0.044
-302.807	152.828	0.014	0.019
-301.793	-166.979	-0.230	0.009
-300.778	-200.000	0.015	0.148
-299.764	-172.596	0.313	0.010
-298.749	275.033	0.044	-0.078
-297.735	-70.223	-0.272	0.103
-296.720	472.265	-0.079	-0.177
-295.705	137.449	0.190	-0.247
-294.691	800.000	0.091	0.321
-293.676	-5.220	-0.224	-0.153
-292.662	132.346	0.032	0.041
-291.647	508.057	-0.097	-0.223
-290.632	190.668	0.053	0.079
-289.618	-42.477	0.408	-0.207
-288.603	-89.657	-0.289	-0.084
-287.589	-67.836	0.262	-0.102
-286.574	23.567	-0.089	-0.073
-285.559	466.078	-0.057	-0.127
-284.545	320.814	0.038	0.072
-283.530	-200.000	-0.018	-0.086
-282.516	-3.819	-0.311	-0.214
-281.501	-97.529	0.120	-0.031
-280.486	800.000	0.106	0.421
-279.472	800.000	0.096	-0.328
-278.457	-86.271	-0.069	-0.021
-277.443	-200.000	-0.064	0.303
-276.428	-200.000	-0.056	0.337
-275.413	763.850	0.031	-0.083
-274.399	-200.000	-0.012	-0.298
-273.384	15.504	0.061	-0.047
-272.370	-200.000	0.017	-0.312
-271.355	163.102	-0.171	-0.239
-270.340	-49.779	-0.083	-0.039
-269.326	-89.935	0.130	-0.038
-268.311	468.747	0.124	-0.275
-267.297	-200.000	-0.019	-0.136
-266.282	-43.028	-0.166	-0.083
-265.267	-200.000	-0.034	0.219
-264.253	687.801	0.001	-0.004
-263.238	231.021	0.014	0.023
-262.224	-200.000	0.007	-0.061
-261.209	-137.009	0.128	0.015
-260.195	-57.568	-0.126	0.055
-259.180	-42.640	0.220	-0.111
-258.165	-36.654	-0.191	0.102
-257.151	-200.000	0.008	-0.055
-256.136	307.740	0.032	0.059
-255.122	0.751	0.126	-0.089
-254.107	423.284	-0.135	0.288
-253.092	-159.415	-0.051	-0.003
-252.078	-200.000	0.034	0.238
-251.063	70.161	-0.206	0.211
-250.049	-85.492	0.292	-0.090
-249.034	-135.184	0.322	0.038
-248.019	-88.307	-0.243	0.072
-247.005	-87.485	0.106	-0.032
-245.990	118.485	0.116	0.142
-244.976	6.143	-0.191	-0.140
-243.961	98.004	0.077	0.088
-242.946	-102.817	-0.187	-0.044
-241.932	-8.241	-0.494	0.329
-240.917	-51.155	-0.229	-0.106
-239.903	104.115	-0.166	0.193
-238.888	394.223	-0.053	0.110
-237.873	-200.000	0.044	-0.319
-236.859	-104.482	0.074	0.017
-235.844	17.442	0.261	0.205
-234.830	-44.291	-0.316	-0.157
-233.815	110.895	0.252	-0.301
-232.800	131.850	0.056	-0.071
-231.786	228.430	-0.060	-0.097
-230.771	575.323	0.153	0.369
-229.757	-143.437	-0.182	-0.017
-228.742	587.599	-0.047	-0.115
-227.727	800.000	0.049	0.211
-226.713	-132.961	0.092	0.012
-225.698	130.129	0.132	-0.167
-224.684	182.621	-0.099	-0.145
-223.669	-45.736	-0.197	0.096
-222.655	559.036	0.138	0.330
-221.640	197.473	-0.064	0.096
-220.625	-113.184	-0.032	0.006
-219.611	48.803	0.166	-0.154
-218.596	5.674	-0.085	0.062
-217.582	-200.000	-0.032	-0.344
-216.567	800.000	-0.100	0.289
-215.552	-94.443	0.182	-0.049
-214.538	-200.000	0.026	0.114
-213.523	-92.086	-0.237	0.066
-212.509	403.084	0.077	0.160
-211.494	800.000	0.029	-0.094
-210.479	9.786	-0.104	-0.078
-209.465	653.032	-0.184	-0.467
-208.450	-172.069	0.366	-0.012
-207.436	368.282	-0.052	0.104
-206.421	45.418	0.342	-0.313
-205.406	91.003	-0.140	-0.155
-204.392	-117.887	-0.179	-0.032
-203.377	21.170	-0.133	0.107
-202.363	-106.864	-0.341	-0.075
-201.348	682.443	0.048	0.125
-200.333	-146.184	0.327	-0.028
-199.319	-102.923	0.056	-0.013
-198.304	-75.114	0.212	0.075
-197.290	-20.407	-0.249	-0.152
-196.275	800.000	-0.077	0.271
-195.260	-115.189	-0.107	-0.020
-194.246	239.428	0.055	0.090
-193.231	-148.349	-0.311	0.025
-192.217	87.111	0.260	-0.284
-191.202	-42.927	0.224	0.113
-190.187	-37.820	-0.108	0.057
-189.173	189.012	0.123	0.183
-188.158	207.888	0.062	-0.095
-187.144	45.693	0.076	0.069
-186.129	23.245	-0.240	-0.195
-185.114	183.171	0.196	-0.286
-184.100	-200.000	0.039	-0.255
-183.085	-148.439	0.008	-0.001
-182.071	-134.411	0.098	0.012
-181.056	-62.117	0.239	0.099
-180.042	-31.551	-0.252	-0.140
-179.027	458.840	0.059	0.129
-178.012	169.225	-0.232	-0.328
-176.998	800.000	0.025	0.109
-175.983	-200.000	-0.002	0.291
-174.969	-200.000	0.026	0.226
-173.954	-200.000	0.011	-0.071
-172.939	800.000	-0.066	0.199
-171.925	30.312	-0.039	0.033
-170.910	800.000	-0.068	0.262
-169.896	94.279	-0.164	0.184
-168.881	587.559	-0.012	-0.030
-167.866	-15.073	-0.306	-0.194
-166.852	-183.047	-0.191	0.003
-165.837	117.976	0.089	0.108
-164.823	9.590	0.320	0.240
-163.808	70.811	0.198	0.203
-162.793	800.000	-0.065	-0.215
-161.779	800.000	-0.072	-0.282
-160.764	52.252	-0.252	0.238
-159.750	-174.510	0.099	-0.003
-158.735	-129.044	0.360	-0.050
-157.720	800.000	-0.090	-0.312
-156.706	401.471	-0.027	0.055
-155.691	-115.029	-0.105	-0.020
-154.677	-200.000	-0.039	0.423
-153.662	171.595	0.175	0.248
-152.647	-76.995	0.153	-0.053
-151.633	130.803	-0.188	0.239
-150.618	-200.000	-0.032	0.219
-149.604	-68.044	-0.333	0.128
-148.589	-200.000	-0.013	0.146
-147.574	-38.377	-0.307	0.161
-146.560	-68.603	0.231	0.088
-145.545	-24.488	-0.472	-0.278
-144.531	-46.982	0.194	0.094
-143.516	224.498	-0.055	-0.089
-142.502	-106.016	0.084	-0.019
-141.487	64.955	-0.246	0.245
-140.472	-190.096	-0.127	-0.001
-139.458	316.631	-0.084	-0.156
-138.443	670.790	0.097	-0.248
-137.429	261.735	0.113	0.194
-136.414	35.620	-0.259	0.225
-135.399	295.014	0.091	-0.164
-134.385	-12.122	0.317	-0.205
-133.370	69.131	-0.132	0.134
-132.356	800.000	-0.127	-0.445
-131.341	-23.155	-0.230	0.137
-130.326	-75.422	0.379	-0.133
-129.312	680.351	0.109	0.280
-128.297	140.199	0.241	0.314
-127.283	-200.000	0.016	0.209
-126.268	-125.362	0.156	0.024
-125.253	-98.277	0.269	0.068
-124.239	322.771	-0.041	-0.076
-123.224	29.871	0.160	-0.135
-122.210	800.000	0.072	-0.236
-121.195	-200.000	-0.037	-0.258
-120.180	-128.941	-0.259	0.036
