DTS Sentinel unit serial number:	SN413079Multiplexer serial number:	ORYXHardware model number:	OX4-SRSoftware version number:	ORYX F/W v4.00 Oryx Data Collector v3.7.2.0data status	okinstallation	princeton_trtdifferential loss correction	single-endedforward channel	channel 1reverse channel	N/Adate	2019/09/18time	03:26:35forward acquisition time	60.00reverse acquisition time	0.00gamma	496.2192k internal	0.2341k external	0.2341temperature offset calibration	0.9978default loss term (dB/km)	0.3790temperature slope calibration	1.0000multiplexer offset coefficient	1.0000multiplexer slope coefficient	1.0000fibre end	0.00T internal ref (°C)	22.80T ext. ref 1 (°C)	0.16T ext. ref 2 (°C)	17.32length (m)	temperature (°C)	Stokes	anti-Stokes-747.200	142.387	0.088	-0.118
-746.185	480.815	0.139	0.317
-745.171	450.350	0.043	-0.096
-744.156	-21.066	-0.219	0.134
-743.142	800.000	0.066	0.261
-742.127	137.753	-0.265	0.347
-741.112	283.383	-0.144	0.260
-740.098	-154.193	-0.256	0.017
-739.083	-132.238	-0.175	-0.023
-738.069	415.670	-0.053	0.112
-737.054	71.879	-0.117	-0.122
-736.039	175.404	-0.140	-0.203
-735.025	-22.609	0.093	-0.056
-734.010	239.788	-0.094	0.157
-732.996	-120.270	-0.197	-0.034
-731.981	-5.499	-0.169	-0.116
-730.966	-78.976	-0.068	-0.023
-729.952	-179.182	-0.351	0.008
-728.937	-200.000	-0.032	0.176
-727.923	-200.000	-0.004	-0.106
-726.908	-200.000	-0.054	-0.412
-725.894	523.397	0.072	0.169
-724.879	155.630	-0.017	-0.023
-723.864	-145.255	-0.147	0.013
-722.850	-200.000	-0.016	-0.178
-721.835	-200.000	-0.034	-0.358
-720.821	141.527	-0.083	0.110
-719.806	-200.000	0.002	-0.165
-718.791	-126.677	-0.298	-0.044
-717.777	309.592	0.019	-0.035
-716.762	20.723	0.257	-0.208
-715.748	71.394	-0.023	0.024
-714.733	-200.000	0.003	-0.093
-713.718	-200.000	-0.008	0.207
-712.704	800.000	-0.083	-0.315
-711.689	-200.000	0.009	-0.219
-710.675	-19.837	-0.318	-0.197
-709.660	102.906	-0.031	-0.036
-708.645	800.000	-0.081	-0.268
-707.631	-21.559	0.089	0.054
-706.616	-138.545	-0.171	-0.019
-705.602	-134.456	-0.366	-0.045
-704.587	-50.890	-0.165	-0.078
-703.572	621.730	0.046	0.116
-702.558	203.732	-0.010	-0.015
-701.543	-114.589	0.084	-0.016
-700.529	-197.509	-0.131	0.001
-699.514	98.750	-0.142	0.164
-698.499	-124.857	-0.208	0.032
-697.485	-64.436	-0.187	-0.076
-696.470	-67.004	0.116	0.046
-695.456	-93.892	-0.248	-0.068
-694.441	139.907	-0.150	-0.198
-693.426	-10.891	-0.125	-0.083
-692.412	136.563	-0.064	-0.084
-691.397	-53.412	-0.290	-0.133
-690.383	-102.656	0.208	-0.050
-689.368	16.420	-0.304	0.240
-688.354	-156.356	0.302	0.019
-687.339	800.000	-0.075	0.268
-686.324	-65.453	-0.148	-0.059
-685.310	-77.935	-0.072	-0.025
-684.295	-200.000	0.013	0.111
-683.281	-180.198	-0.168	0.004
-682.266	-200.000	0.043	0.243
-681.251	-146.734	-0.161	0.014
-680.237	-165.963	-0.307	-0.013
-679.222	51.967	0.081	-0.077
-678.208	776.705	-0.042	-0.114
-677.193	-22.576	0.106	-0.064
-676.178	127.020	0.025	-0.032
-675.164	-200.000	-0.011	0.092
-674.149	-26.586	0.144	-0.084
-673.135	309.878	0.090	0.168
-672.120	276.953	-0.122	0.217
-671.105	-144.707	-0.232	0.021
-670.091	-200.000	0.077	-0.000
-669.076	-25.648	0.421	0.248
-668.062	410.932	-0.066	-0.140
-667.047	-21.832	-0.172	-0.104
-666.032	228.363	0.215	-0.350
-665.018	-200.000	0.006	-0.054
-664.003	381.939	0.065	-0.133
-662.989	-200.000	0.013	-0.263
-661.974	-17.926	-0.460	-0.288
-660.959	312.505	0.039	-0.073
-659.945	287.548	0.086	0.156
-658.930	-72.824	0.104	0.038
-657.916	-200.000	0.001	-0.165
-656.901	-200.000	-0.013	0.324
-655.886	800.000	-0.130	0.366
-654.872	-44.936	0.144	-0.072
-653.857	82.999	-0.186	-0.202
-652.843	411.239	-0.064	-0.136
-651.828	-139.253	-0.248	-0.027
-650.814	-167.141	-0.212	0.009
-649.799	53.882	-0.047	-0.045
-648.784	-181.798	-0.196	-0.004
-647.770	197.400	0.085	-0.129
-646.755	-200.000	-0.037	0.186
-645.741	-154.038	-0.034	0.002
-644.726	-200.000	0.045	-0.262
-643.711	34.003	-0.042	-0.036
-642.697	518.372	-0.057	-0.134
-641.682	-21.094	0.160	-0.097
-640.668	43.257	-0.181	0.165
-639.653	161.465	-0.362	0.506
-638.638	-200.000	0.002	0.051
-637.624	800.000	-0.025	0.077
-636.609	800.000	-0.008	0.024
-635.595	-29.179	-0.059	-0.033
-634.580	-200.000	0.008	-0.243
-633.565	-42.682	-0.170	-0.086
-632.551	800.000	-0.088	-0.257
-631.536	-97.579	0.290	0.075
-630.522	-200.000	-0.013	0.366
-629.507	142.723	0.216	-0.287
-628.492	20.110	0.077	0.062
-627.478	-200.000	-0.058	0.305
-626.463	29.115	0.337	0.286
-625.449	173.119	0.126	0.181
-624.434	588.889	-0.035	-0.085
-623.419	164.141	-0.096	0.135
-622.405	-86.801	-0.390	-0.119
-621.390	-92.285	0.081	0.023
-620.376	18.798	0.178	0.142
-619.361	102.806	-0.225	0.263
-618.346	276.655	-0.043	0.076
-617.332	-135.353	-0.072	-0.009
-616.317	-200.000	0.048	-0.268
-615.303	3.611	0.198	-0.144
-614.288	-9.264	-0.279	0.186
-613.273	800.000	0.043	0.178
-612.259	-200.000	-0.011	-0.217
-611.244	-200.000	0.046	-0.203
-610.230	-200.000	0.023	0.188
-609.215	-82.225	-0.033	0.011
-608.201	336.546	-0.093	-0.181
-607.186	49.614	-0.099	0.093
-606.171	-174.205	-0.185	-0.005
-605.157	-200.000	0.045	-0.350
-604.142	-165.171	-0.361	-0.016
-603.128	-156.656	0.117	0.007
-602.113	10.205	-0.238	-0.181
-601.098	12.829	-0.353	-0.272
-600.084	-130.480	-0.158	0.021
-599.069	154.577	0.095	-0.130
-598.055	395.016	0.039	0.081
-597.040	800.000	-0.086	-0.325
-596.025	-43.367	-0.344	-0.173
-595.011	-81.768	0.268	0.088
-593.996	2.244	-0.180	-0.130
-592.982	-200.000	-0.017	-0.347
-591.967	421.512	0.194	0.415
-590.952	-196.261	0.140	0.001
-589.938	-200.000	-0.023	0.335
-588.923	-200.000	-0.008	-0.308
-587.909	123.982	-0.151	-0.189
-586.894	159.324	-0.091	-0.126
-585.879	-200.000	0.001	0.307
-584.865	-200.000	-0.001	-0.106
-583.850	-200.000	-0.023	-0.256
-582.836	32.355	0.153	0.132
-581.821	800.000	-0.046	-0.127
-580.806	-28.564	-0.176	0.101
-579.792	-193.684	-0.242	0.002
-578.777	18.073	-0.065	-0.052
-577.763	-200.000	-0.040	0.213
-576.748	104.400	0.154	-0.181
-575.733	800.000	-0.038	-0.141
-574.719	545.443	-0.124	-0.296
-573.704	211.600	0.074	-0.115
-572.690	-72.519	-0.171	0.063
-571.675	-49.982	0.452	0.213
-570.661	109.542	-0.167	0.200
-569.646	800.000	-0.069	-0.251
-568.631	410.120	0.144	-0.305
-567.617	350.059	-0.130	0.256
-566.602	-152.763	-0.333	0.024
-565.588	-65.819	0.162	0.065
-564.573	-29.116	0.092	-0.053
-563.558	748.132	0.037	-0.098
-562.544	-17.093	-0.170	0.107
-561.529	-64.206	-0.403	0.163
-560.515	-14.210	-0.063	-0.040
-559.500	81.550	-0.223	-0.240
-558.485	89.333	-0.156	-0.173
-557.471	800.000	0.051	0.191
-556.456	800.000	-0.070	0.296
-555.442	175.303	0.138	0.199
-554.427	-19.030	0.138	-0.085
-553.412	-68.554	-0.349	0.134
-552.398	590.839	-0.186	0.456
-551.383	272.387	0.125	0.220
-550.369	-140.002	-0.178	0.019
-549.354	-95.793	-0.403	0.107
-548.339	157.270	-0.074	-0.102
-547.325	99.625	-0.162	0.186
-546.310	-101.564	-0.073	0.018
-545.296	180.217	-0.114	-0.167
-544.281	175.932	0.121	0.175
-543.266	34.657	-0.207	0.180
-542.252	157.074	-0.078	0.107
-541.237	147.005	-0.199	-0.266
-540.223	-39.760	-0.266	-0.138
-539.208	-200.000	0.037	0.270
-538.193	175.696	0.115	-0.166
-537.179	800.000	0.072	-0.207
-536.164	-58.381	-0.199	-0.086
-535.150	2.576	0.172	0.124
-534.135	130.670	0.229	-0.291
-533.121	172.327	-0.063	0.090
-532.106	-179.975	0.172	-0.004
-531.091	120.361	-0.091	0.112
-530.077	800.000	0.026	-0.088
-529.062	800.000	0.058	-0.212
-528.048	331.146	-0.098	-0.189
-527.033	-117.274	0.102	-0.018
-526.018	-123.797	-0.286	0.045
-525.004	-153.700	-0.347	0.024
-523.989	-75.559	0.580	-0.205
-522.975	-80.680	-0.183	0.060
-521.960	-62.245	-0.119	0.049
-520.945	713.931	0.068	0.178
-519.931	354.071	0.068	-0.134
-518.916	-148.750	-0.252	0.020
-517.902	-200.000	0.071	0.398
-516.887	111.699	0.066	-0.080
-515.872	-200.000	-0.036	-0.302
-514.858	-118.282	-0.210	0.037
-513.843	28.097	0.162	0.136
-512.829	31.242	-0.107	0.091
-511.814	-124.943	0.226	0.035
-510.799	-79.838	0.090	-0.030
-509.785	220.586	-0.203	-0.324
-508.770	29.016	-0.467	-0.394
-507.756	-36.727	0.171	-0.091
-506.741	441.575	0.080	0.174
-505.726	731.952	0.099	-0.263
-504.712	61.040	0.176	-0.173
-503.697	-57.136	-0.318	0.139
-502.683	-96.450	0.321	0.084
-501.668	-144.005	-0.228	0.021
-500.653	-200.000	-0.010	0.177
-499.639	-86.131	-0.459	0.141
-498.624	100.074	-0.232	-0.267
-497.610	800.000	0.012	-0.046
-496.595	800.000	0.021	-0.062
-495.581	191.519	0.051	-0.076
-494.566	690.797	0.137	-0.357
-493.551	197.229	0.163	0.247
-492.537	-108.637	-0.060	0.013
-491.522	-178.698	-0.141	-0.003
-490.508	679.284	-0.079	0.204
-489.493	800.000	-0.074	0.279
-488.478	110.421	-0.177	0.211
-487.464	-49.605	0.101	-0.048
-486.449	155.064	0.166	0.226
-485.435	-153.832	-0.152	-0.010
-484.420	304.947	-0.014	0.026
-483.405	-96.461	0.257	0.067
-482.391	800.000	0.066	-0.244
-481.376	800.000	-0.065	-0.280
-480.362	99.206	-0.054	0.062
-479.347	749.925	-0.116	0.310
-478.332	76.194	0.147	0.154
-477.318	-200.000	0.010	0.245
-476.303	-122.609	0.266	-0.043
-475.289	-81.922	-0.304	-0.099
-474.274	619.369	-0.070	0.175
-473.259	800.000	0.014	0.053
-472.245	18.913	0.137	0.109
-471.230	114.858	0.228	0.276
-470.216	-127.070	-0.234	-0.034
-469.201	579.294	0.105	-0.254
-468.186	-33.759	-0.173	-0.094
-467.172	222.704	-0.110	-0.175
-466.157	69.775	0.249	-0.254
-465.143	-40.217	-0.364	0.188
-464.128	-50.299	0.253	-0.119
-463.113	-200.000	-0.008	-0.142
-462.099	-136.816	-0.097	0.011
-461.084	-31.228	0.356	-0.199
-460.070	9.533	-0.355	-0.266
-459.055	-74.307	-0.132	0.047
-458.040	164.424	-0.048	0.067
-457.026	319.833	-0.168	0.316
-456.011	464.425	-0.081	-0.179
-454.997	-69.493	0.374	0.142
-453.982	-34.604	0.099	0.054
-452.968	-90.784	-0.187	-0.053
-451.953	-78.076	0.269	-0.092
-450.938	-67.181	0.165	-0.064
-449.924	-200.000	0.014	-0.243
-448.909	208.423	-0.019	0.029
-447.895	79.730	-0.219	-0.233
-446.880	-160.787	0.287	-0.015
-445.865	800.000	-0.051	-0.217
-444.851	-81.245	-0.037	0.012
-443.836	-200.000	0.062	-0.366
-442.822	329.179	-0.060	0.115
-441.807	249.494	0.090	0.151
-440.792	101.356	0.249	0.287
-439.778	109.372	0.177	0.210
-438.763	-193.623	-0.324	0.003
-437.749	-135.591	-0.464	0.055
-436.734	612.202	0.030	-0.074
-435.719	182.197	0.162	0.237
-434.705	-200.000	-0.006	0.038
-433.690	-200.000	-0.008	-0.088
-432.676	-200.000	-0.030	-0.336
-431.661	-0.506	0.262	0.184
-430.646	-130.924	0.038	0.005
-429.632	-85.409	0.384	-0.118
-428.617	-200.000	-0.030	-0.310
-427.603	-200.000	0.010	0.171
-426.588	26.535	-0.164	0.136
-425.573	178.676	0.162	0.234
-424.559	181.191	0.085	0.124
-423.544	26.259	0.106	-0.088
-422.530	-200.000	-0.038	0.185
-421.515	-64.932	0.174	0.070
-420.500	-81.040	0.081	0.027
-419.486	248.364	0.103	0.172
-418.471	164.512	-0.206	0.288
-417.457	-64.690	0.198	-0.079
-416.442	-200.000	0.055	-0.351
-415.428	-93.194	0.218	-0.060
-414.413	179.701	0.050	0.073
-413.398	-14.378	0.273	0.174
-412.384	91.642	0.257	0.286
-411.369	-200.000	0.051	-0.401
-410.355	18.947	0.169	-0.134
-409.340	-200.000	-0.038	0.184
-408.325	-124.864	-0.203	-0.031
-407.311	-14.620	-0.340	0.216
-406.296	-9.417	0.111	0.073
-405.282	-55.105	0.232	0.103
-404.267	-17.906	-0.217	-0.135
-403.252	-200.000	-0.012	-0.065
-402.238	-57.192	0.164	-0.072
-401.223	-30.323	0.097	-0.054
-400.209	800.000	0.122	0.379
-399.194	285.730	-0.104	-0.185
-398.179	-110.308	-0.136	-0.028
-397.165	237.490	0.111	0.181
-396.150	-5.997	-0.423	0.286
-395.136	-118.359	-0.086	0.015
-394.121	-143.840	-0.279	-0.026
-393.106	800.000	-0.054	-0.162
-392.092	-95.936	0.164	-0.043
-391.077	121.087	-0.224	-0.276
-390.063	118.582	-0.200	0.245
-389.048	-63.327	0.255	0.104
-388.033	8.994	0.305	-0.228
-387.019	-38.343	-0.164	-0.086
-386.004	-133.416	-0.205	0.025
-384.990	-16.879	-0.119	0.074
-383.975	90.942	-0.269	0.299
-382.960	298.308	-0.113	0.205
-381.946	-98.876	-0.058	0.015
-380.931	-63.736	-0.111	0.045
-379.917	463.966	-0.199	-0.439
-378.902	267.186	-0.151	-0.261
-377.888	-200.000	-0.030	0.236
-376.873	41.743	0.094	-0.084
-375.858	74.657	-0.028	-0.029
-374.844	-26.779	0.187	-0.108
-373.829	-200.000	-0.017	0.243
-372.815	-200.000	-0.004	-0.113
-371.800	-200.000	-0.005	-0.167
-370.785	-84.336	0.409	0.128
-369.771	-54.006	-0.247	-0.111
-368.756	-100.240	0.117	-0.029
-367.742	-113.863	-0.192	0.037
-366.727	-163.762	0.331	-0.015
-365.712	-200.000	0.031	0.300
-364.698	-132.575	0.063	0.008
-363.683	-200.000	-0.010	0.045
-362.669	-24.763	0.368	0.216
-361.654	193.838	-0.113	-0.169
-360.639	-200.000	0.001	-0.254
-359.625	-115.530	-0.257	-0.048
-358.610	329.145	-0.134	-0.255
-357.596	-178.310	-0.215	0.005
-356.581	-33.327	0.146	0.080
-355.566	-10.021	0.312	0.205
-354.552	-69.714	0.062	0.023
-353.537	27.615	-0.067	0.056
-352.523	-129.901	0.215	0.029
-351.508	-68.003	0.218	-0.084
-350.493	-150.027	0.274	0.021
-349.479	63.657	0.088	-0.087
-348.464	316.749	0.175	0.327
-347.450	-98.685	0.263	0.066
-346.435	670.534	-0.128	0.326
-345.420	202.958	-0.199	-0.303
-344.406	-200.000	-0.042	-0.192
-343.391	116.296	0.080	0.097
-342.377	101.281	0.141	-0.162
-341.362	-102.120	0.133	-0.032
-340.348	-8.519	0.221	0.147
-339.333	-150.831	-0.134	0.010
-338.318	800.000	0.144	-0.558
-337.304	9.692	-0.129	0.097
-336.289	25.375	0.342	0.280
-335.275	-200.000	-0.014	0.126
-334.260	84.722	-0.193	-0.209
-333.245	-134.630	-0.171	0.021
-332.231	-23.116	0.189	-0.112
-331.216	-200.000	0.017	0.156
-330.202	-32.454	0.201	-0.111
-329.187	19.597	0.079	-0.062
-328.172	-30.362	-0.377	0.211
-327.158	-152.679	-0.172	-0.012
-326.143	800.000	0.089	0.316
-325.129	-200.000	0.022	0.359
-324.114	800.000	-0.030	0.114
-323.099	-122.155	0.303	0.049
-322.085	-61.521	0.253	-0.105
-321.070	331.722	-0.087	-0.166
-320.056	-7.458	-0.220	0.147
-319.041	0.703	0.191	-0.135
-318.026	-72.672	0.222	0.081
-317.012	-99.832	-0.197	-0.049
-315.997	-0.011	-0.047	0.033
-314.983	6.052	-0.185	-0.135
-313.968	116.764	0.067	-0.081
-312.953	138.200	-0.258	-0.334
-311.939	-200.000	-0.092	0.406
-310.924	20.425	0.006	-0.005
-309.910	-62.762	-0.451	-0.184
-308.895	-200.000	-0.002	-0.109
-307.880	548.495	0.115	-0.270
-306.866	-175.670	0.254	0.007
-305.851	403.186	0.034	-0.071
-304.837	91.055	-0.235	0.259
-303.822	-200.000	-0.044	-0.440
-302.807	39.465	0.308	-0.272
-301.793	490.753	-0.080	0.179
-300.778	-200.000	-0.025	-0.126
-299.764	-42.095	-0.219	-0.110
-298.749	-29.349	0.181	0.102
-297.735	315.207	0.031	-0.058
-296.720	-1.431	0.168	0.117
-295.705	422.177	0.157	-0.333
-294.691	-14.708	-0.054	0.034
-293.676	-170.009	0.160	0.006
-292.662	-200.000	0.059	0.280
-291.647	-73.666	-0.181	0.065
-290.632	-6.068	0.255	-0.172
-289.618	127.613	0.197	0.246
-288.603	800.000	-0.158	0.514
-287.589	-200.000	-0.009	0.131
-286.574	-80.545	0.126	0.041
-285.559	-163.172	0.065	0.003
-284.545	-200.000	-0.001	0.114
-283.530	-16.622	0.319	-0.199
-282.516	102.785	0.056	0.065
-281.501	-154.600	0.347	-0.023
-280.486	307.042	0.227	-0.416
-279.472	-89.107	0.155	0.045
-278.457	253.827	-0.100	0.168
-277.443	51.323	-0.121	-0.113
-276.428	-169.899	-0.107	-0.004
-275.413	312.711	0.134	0.248
-274.399	181.994	0.138	-0.201
-273.384	-26.091	0.234	0.135
-272.370	508.853	0.077	0.177
-271.355	-75.814	-0.111	0.039
-270.340	800.000	-0.065	-0.224
-269.326	800.000	-0.039	0.105
-268.311	-2.042	0.227	-0.157
-267.297	-35.069	-0.077	0.042
-266.282	-118.582	0.295	0.051
-265.267	-48.203	-0.195	-0.093
-264.253	234.516	-0.105	0.171
-263.238	-56.802	0.107	-0.047
-262.224	115.706	0.118	-0.141
-261.209	-15.103	0.141	-0.089
-260.195	-75.438	0.250	-0.088
-259.180	-200.000	0.007	0.149
-258.165	800.000	-0.099	-0.342
-257.151	-97.521	0.088	0.023
-256.136	-110.289	0.213	0.044
-255.122	-189.361	0.177	0.002
-254.107	192.550	0.197	-0.293
-253.092	474.055	-0.073	-0.163
-252.078	91.787	-0.265	0.293
-251.063	-139.419	-0.169	0.018
-250.049	-84.415	0.353	-0.110
-249.034	-124.914	0.184	-0.028
-248.019	-45.637	-0.138	0.067
-247.005	-24.132	-0.357	-0.210
-245.990	-70.704	-0.102	0.038
-244.976	800.000	0.039	-0.145
-243.961	-62.958	0.145	0.059
-242.946	-22.555	0.058	0.034
-241.932	-101.190	0.312	0.075
-240.917	8.005	-0.109	-0.080
-239.903	706.240	0.074	-0.192
-238.888	-84.500	0.186	0.058
-237.873	800.000	-0.041	0.117
-236.859	-200.000	-0.030	0.214
-235.844	130.906	0.223	0.281
-234.830	18.517	0.246	-0.194
-233.815	-89.362	0.176	-0.051
-232.800	-1.194	-0.219	0.152
-231.786	89.470	-0.150	-0.164
-230.771	0.755	-0.170	-0.120
-229.757	-102.118	-0.182	0.043
-228.742	-44.207	-0.225	0.111
-227.727	-48.723	0.131	0.062
-226.713	800.000	-0.099	-0.279
-225.698	53.451	0.093	0.087
-224.684	742.788	0.087	-0.231
-223.669	162.225	-0.115	0.159
-222.655	800.000	0.040	-0.122
-221.640	-42.743	0.101	0.051
-220.625	24.262	-0.148	0.120
-219.611	800.000	0.099	0.420
-218.596	132.256	-0.094	0.119
-217.582	38.549	-0.209	0.183
-216.567	-200.000	0.024	-0.151
-215.552	800.000	0.033	0.131
-214.538	-22.930	0.265	0.157
-213.523	-21.842	0.031	0.019
-212.509	-200.000	-0.037	-0.188
-211.494	800.000	0.113	-0.340
-210.479	-76.774	0.350	0.120
-209.465	-200.000	-0.012	0.121
-208.450	-200.000	-0.063	0.376
-207.436	-41.068	0.270	-0.137
-206.421	-200.000	-0.023	0.154
-205.406	-55.652	-0.154	-0.068
-204.392	-52.617	-0.433	0.196
-203.377	800.000	-0.042	-0.144
-202.363	278.546	0.230	-0.403
-201.348	43.776	0.310	-0.279
-200.333	-200.000	-0.042	-0.306
-199.319	-117.536	0.080	0.014
-198.304	800.000	-0.030	0.127
-197.290	-200.000	-0.002	-0.100
-196.275	-200.000	0.012	0.108
-195.260	44.547	0.162	0.146
-194.246	257.704	0.139	-0.235
-193.231	-125.512	0.144	0.021
-192.217	-45.157	-0.271	-0.132
-191.202	-14.889	0.066	-0.042
-190.187	653.228	0.089	-0.223
-189.173	-13.549	-0.269	-0.171
-188.158	632.262	0.022	-0.055
-187.144	-60.950	0.320	0.133
-186.129	-35.502	-0.122	-0.065
-185.114	-150.345	-0.306	-0.023
-184.100	6.175	0.247	0.180
-183.085	47.038	-0.128	0.117
-182.071	-200.000	-0.008	-0.066
-181.056	-94.374	-0.386	0.103
-180.042	-200.000	0.013	0.271
-179.027	525.192	-0.072	-0.165
-178.012	-13.877	-0.249	0.158
-176.998	800.000	0.016	0.062
-175.983	72.263	-0.193	-0.197
-174.969	759.774	-0.064	0.170
-173.954	208.631	-0.156	0.240
-172.939	379.234	-0.064	0.129
-171.925	118.699	0.178	0.216
-170.910	7.684	0.126	-0.093
-169.896	425.738	-0.106	0.223
-168.881	-200.000	-0.068	-0.367
-167.866	-200.000	0.039	-0.291
-166.852	374.595	-0.031	0.063
-165.837	-101.216	-0.060	-0.014
-164.823	-118.053	0.268	-0.047
-163.808	-11.311	-0.141	-0.091
-162.793	-98.011	0.344	-0.087
-161.779	-77.610	0.193	-0.065
-160.764	800.000	0.046	0.149
-159.750	800.000	-0.038	0.145
-158.735	260.474	0.047	-0.079
-157.720	167.179	-0.066	0.091
-156.706	-136.885	0.200	-0.023
-155.691	-139.443	0.220	-0.023
-154.677	129.653	-0.093	0.117
-153.662	-200.000	0.029	0.145
-152.647	-87.548	-0.137	0.040
-151.633	542.880	0.052	0.121
-150.618	-48.222	-0.133	0.063
-149.604	-153.776	0.228	-0.015
-148.589	437.511	-0.223	0.477
-147.574	-62.911	0.057	-0.023
-146.560	-91.239	0.530	0.149
-145.545	188.199	0.244	-0.356
-144.531	-90.848	-0.358	0.101
-143.516	410.941	0.113	0.234
-142.502	149.970	-0.133	0.177
-141.487	-200.000	-0.043	0.339
-140.472	-93.468	0.292	-0.079
-139.458	-81.421	0.156	-0.050
-138.443	-200.000	0.031	-0.196
-137.429	-200.000	-0.007	-0.265
-136.414	-200.000	0.045	-0.334
-135.399	-82.475	-0.045	-0.014
-134.385	318.035	-0.053	-0.099
-133.370	4.806	0.198	-0.143
-132.356	-200.000	-0.042	-0.238
-131.341	-32.807	0.322	0.175
-130.326	334.596	-0.230	0.437
-129.312	-99.456	0.111	0.027
-128.297	738.374	0.102	0.268
-127.283	149.592	-0.036	0.048
-126.268	311.607	0.097	0.178
-125.253	58.265	-0.051	0.049
-124.239	444.838	0.140	0.300
-123.224	227.411	0.091	0.145
-122.210	-73.392	-0.337	-0.121
