DTS Sentinel unit serial number:	SN413079Multiplexer serial number:	ORYXHardware model number:	OX4-SRSoftware version number:	ORYX F/W v4.00 Oryx Data Collector v3.7.2.0data status	okinstallation	princeton_trtdifferential loss correction	single-endedforward channel	channel 1reverse channel	N/Adate	2019/09/19time	09:26:35forward acquisition time	60.00reverse acquisition time	0.00gamma	496.2192k internal	0.2342k external	0.2342temperature offset calibration	0.9999default loss term (dB/km)	0.3790temperature slope calibration	1.0000multiplexer offset coefficient	1.0000multiplexer slope coefficient	1.0000fibre end	0.00T internal ref (°C)	22.64T ext. ref 1 (°C)	0.62T ext. ref 2 (°C)	19.38length (m)	temperature (°C)	Stokes	anti-Stokes-747.200	-200.000	-0.004	0.290
-746.185	-121.225	0.251	0.042
-745.171	227.143	0.169	0.275
-744.156	31.617	-0.166	0.143
-743.142	738.835	0.045	-0.122
-742.127	29.853	-0.091	0.077
-741.112	-53.346	0.338	0.155
-740.098	732.061	-0.085	-0.228
-739.083	111.636	0.125	0.151
-738.069	-180.906	-0.187	0.004
-737.054	280.250	0.173	-0.309
-736.039	-94.752	-0.275	-0.075
-735.025	-146.140	0.163	-0.014
-734.010	-10.831	-0.213	-0.141
-732.996	1.848	-0.171	-0.123
-731.981	-70.132	0.279	0.106
-730.966	207.417	0.131	-0.204
-729.952	3.228	-0.468	0.341
-728.937	183.205	-0.059	0.087
-727.923	-154.530	-0.161	-0.011
-726.908	-22.337	0.096	-0.058
-725.894	-99.902	-0.108	-0.027
-724.879	-95.650	-0.203	-0.054
-723.864	-200.000	-0.073	0.456
-722.850	800.000	-0.094	-0.315
-721.835	-200.000	0.013	-0.128
-720.821	217.161	-0.242	-0.386
-719.806	-200.000	0.051	0.263
-718.791	800.000	0.029	-0.091
-717.777	-32.371	0.109	-0.061
-716.762	365.003	0.122	0.247
-715.748	-21.441	0.204	-0.125
-714.733	-136.354	-0.246	0.029
-713.718	-39.623	0.287	0.150
-712.704	800.000	-0.038	-0.108
-711.689	-200.000	0.007	-0.249
-710.675	-58.804	0.292	0.126
-709.660	29.863	-0.120	0.102
-708.645	-91.735	0.355	0.101
-707.631	-132.511	0.098	-0.013
-706.616	284.515	-0.046	-0.082
-705.602	-200.000	0.054	-0.246
-704.587	-77.604	0.309	-0.107
-703.572	-52.428	-0.333	0.154
-702.558	54.083	-0.073	-0.071
-701.543	-43.296	-0.100	0.051
-700.529	-87.785	0.356	0.107
-699.514	-12.001	0.154	0.101
-698.499	123.222	-0.112	-0.141
-697.485	274.143	0.037	-0.066
-696.470	-23.341	-0.308	0.185
-695.456	105.888	-0.078	-0.092
-694.441	55.536	-0.203	0.197
-693.426	800.000	-0.102	0.292
-692.412	-124.293	-0.196	-0.031
-691.397	45.453	-0.243	-0.224
-690.383	-200.000	0.038	-0.197
-689.368	-200.000	-0.033	0.249
-688.354	800.000	0.039	0.168
-687.339	624.936	0.022	-0.055
-686.324	226.065	-0.024	-0.040
-685.310	-200.000	-0.028	0.127
-684.295	12.605	-0.032	-0.025
-683.281	-105.421	0.181	-0.041
-682.266	800.000	-0.052	0.173
-681.251	17.915	-0.245	0.195
-680.237	-200.000	0.019	0.192
-679.222	390.602	-0.085	0.176
-678.208	27.278	-0.099	0.083
-677.193	-120.598	0.342	0.058
-676.178	718.765	0.093	-0.246
-675.164	-24.010	-0.167	-0.100
-674.149	-145.139	0.276	-0.025
-673.135	-200.000	-0.038	-0.391
-672.120	157.324	-0.010	-0.014
-671.105	143.742	0.126	-0.167
-670.091	-200.000	0.019	-0.115
-669.076	800.000	-0.023	0.074
-668.062	-17.059	0.356	0.224
-667.047	-200.000	0.004	0.018
-666.032	163.778	-0.125	0.176
-665.018	471.167	0.085	0.191
-664.003	279.238	0.188	0.335
-662.989	204.943	-0.294	0.455
-661.974	800.000	0.058	-0.241
-660.959	159.079	0.002	-0.002
-659.945	81.579	0.162	0.176
-658.930	-200.000	0.004	-0.330
-657.916	314.092	0.054	0.101
-656.901	515.471	-0.060	-0.139
-655.886	202.906	0.214	0.331
-654.872	-38.322	0.266	-0.141
-653.857	-200.000	-0.033	0.196
-652.843	707.828	0.079	0.209
-651.828	-122.636	-0.010	0.002
-650.814	74.968	0.035	0.037
-649.799	800.000	0.053	0.155
-648.784	-200.000	-0.051	0.309
-647.770	-21.156	0.196	0.119
-646.755	198.061	-0.115	-0.176
-645.741	-26.720	0.126	0.073
-644.726	137.128	0.136	0.177
-643.711	-162.616	-0.366	0.018
-642.697	800.000	-0.043	0.145
-641.682	214.190	-0.088	-0.139
-640.668	42.446	0.176	-0.160
-639.653	95.362	-0.405	-0.460
-638.638	800.000	-0.110	-0.342
-637.624	282.036	-0.165	0.295
-636.609	-95.908	0.373	-0.099
-635.595	-200.000	0.078	-0.460
-634.580	-200.000	-0.029	-0.551
-633.565	188.278	0.243	0.362
-632.551	800.000	0.139	-0.415
-631.536	-192.873	0.261	-0.002
-630.522	0.556	-0.198	-0.141
-629.507	-200.000	0.009	0.494
-628.492	-200.000	-0.004	-0.277
-627.478	405.083	-0.069	-0.145
-626.463	800.000	-0.058	0.240
-625.449	517.156	0.046	0.108
-624.434	800.000	-0.054	-0.153
-623.419	60.081	-0.090	-0.089
-622.405	800.000	0.030	0.084
-621.390	-200.000	0.016	-0.250
-620.376	-64.317	-0.087	-0.035
-619.361	89.950	-0.046	-0.051
-618.346	474.231	0.121	-0.273
-617.332	190.882	0.085	0.127
-616.317	123.786	-0.110	0.137
-615.303	44.989	-0.139	-0.128
-614.288	115.846	0.068	0.083
-613.273	41.716	0.165	-0.149
-612.259	800.000	0.070	-0.284
-611.244	-200.000	-0.009	0.155
-610.230	74.607	0.068	0.072
-609.215	-119.255	-0.285	0.049
-608.201	-165.629	-0.050	0.002
-607.186	-170.135	-0.311	0.011
-606.171	-46.080	0.060	0.030
-605.157	-27.505	-0.119	0.069
-604.142	-61.457	-0.293	-0.123
-603.128	-21.947	0.013	0.008
-602.113	610.611	0.059	-0.146
-601.098	-95.729	0.215	-0.057
-600.084	162.198	-0.304	-0.424
-599.069	-146.404	0.234	0.020
-598.055	-155.963	0.184	0.012
-597.040	304.739	-0.122	0.226
-596.025	184.006	0.131	0.194
-595.011	-200.000	-0.061	0.362
-593.996	-200.000	0.059	0.372
-592.982	-40.716	0.406	0.209
-591.967	123.614	0.115	-0.144
-590.952	-114.226	-0.245	0.047
-589.938	-3.937	-0.188	0.130
-588.923	-200.000	0.005	-0.274
-587.909	-200.000	-0.009	-0.106
-586.894	-84.887	-0.057	-0.018
-585.879	-38.863	-0.088	-0.046
-584.865	-130.771	-0.224	0.030
-583.850	26.255	0.141	0.117
-582.836	-200.000	-0.005	-0.104
-581.821	800.000	0.015	0.063
-580.806	180.084	0.073	0.106
-579.792	-200.000	-0.012	0.074
-578.777	43.268	-0.182	0.165
-577.763	-104.230	0.153	-0.035
-576.748	60.259	-0.207	0.204
-575.733	-62.734	0.425	0.175
-574.719	93.209	0.075	-0.085
-573.704	122.147	-0.057	0.071
-572.690	-130.461	0.057	-0.008
-571.675	-83.814	0.054	-0.017
-570.661	-200.000	0.022	0.101
-569.646	-140.409	0.388	0.040
-568.631	108.239	-0.155	-0.184
-567.617	-98.561	0.224	-0.057
-566.602	800.000	-0.070	-0.204
-565.588	-200.000	-0.005	0.286
-564.573	202.347	0.151	-0.232
-563.558	-18.722	0.359	0.223
-562.544	-0.454	-0.077	0.055
-561.529	-49.376	-0.095	-0.045
-560.515	-67.396	0.133	0.052
-559.500	-134.947	0.204	-0.025
-558.485	153.699	0.079	0.108
-557.471	-84.280	-0.178	-0.056
-556.456	-189.577	0.105	0.001
-555.442	77.214	0.255	0.270
-554.427	-200.000	0.013	0.278
-553.412	-162.448	-0.255	-0.013
-552.398	-155.324	0.294	0.019
-551.383	800.000	-0.032	-0.112
-550.369	800.000	-0.083	0.316
-549.354	276.986	0.094	-0.166
-548.339	86.146	-0.009	0.009
-547.325	175.839	-0.132	0.191
-546.310	50.399	0.247	0.232
-545.296	607.522	-0.054	-0.133
-544.281	795.703	-0.063	-0.174
-543.266	-200.000	-0.021	0.235
-542.252	-200.000	0.048	-0.240
-541.237	-47.299	0.125	-0.061
-540.223	275.377	0.060	0.105
-539.208	103.805	-0.060	0.070
-538.193	-200.000	0.004	0.062
-537.179	-200.000	-0.016	0.127
-536.164	-200.000	0.016	0.263
-535.150	-200.000	0.229	0.000
-534.135	4.523	-0.192	-0.140
-533.121	800.000	0.053	-0.149
-532.106	-103.602	-0.137	-0.032
-531.091	-21.062	-0.223	-0.135
-530.077	133.407	0.193	-0.248
-529.062	408.889	-0.062	-0.130
-528.048	-54.527	0.164	0.074
-527.033	-200.000	0.019	0.206
-526.018	800.000	0.141	0.425
-525.004	71.094	-0.064	-0.066
-523.989	-122.018	-0.167	-0.027
-522.975	117.964	-0.158	-0.193
-521.960	14.000	-0.264	-0.204
-520.945	14.420	0.113	0.088
-519.931	75.284	0.218	0.229
-518.916	289.175	-0.115	-0.208
-517.902	51.024	-0.314	-0.296
-516.887	-200.000	0.004	-0.226
-515.872	-155.350	0.133	-0.009
-514.858	102.701	-0.302	-0.351
-513.843	443.563	0.173	0.377
-512.829	415.268	-0.028	0.059
-511.814	800.000	0.033	-0.098
-510.799	-79.293	-0.139	0.047
-509.785	118.248	0.116	0.142
-508.770	-12.584	-0.236	0.153
-507.756	-111.314	-0.121	0.025
-506.741	-140.837	-0.072	-0.007
-505.726	-60.121	-0.211	0.089
-504.712	70.249	-0.146	-0.150
-503.697	-67.758	-0.336	-0.130
-502.683	-48.297	0.105	0.050
-501.668	257.516	-0.091	-0.156
-500.653	-200.000	0.000	0.079
-499.639	800.000	0.072	0.258
-498.624	167.564	-0.037	0.052
-497.610	208.946	0.050	-0.077
-496.595	60.610	-0.046	-0.045
-495.581	475.434	0.127	-0.285
-494.566	226.928	-0.134	-0.216
-493.551	-200.000	-0.044	-0.369
-492.537	-173.425	0.180	0.005
-491.522	89.192	0.215	-0.238
-490.508	-9.939	-0.279	-0.184
-489.493	-200.000	-0.016	-0.079
-488.478	-200.000	-0.042	-0.405
-487.464	296.838	-0.073	0.134
-486.449	-147.769	0.292	0.024
-485.435	32.048	-0.126	0.108
-484.420	-200.000	-0.004	-0.093
-483.405	-25.989	-0.008	-0.005
-482.391	-75.397	-0.242	-0.085
-481.376	114.300	-0.102	0.123
-480.362	-137.667	-0.178	-0.020
-479.347	-200.000	0.009	0.181
-478.332	-185.551	0.359	0.005
-477.318	326.743	-0.139	0.265
-476.303	800.000	-0.090	0.281
-475.289	-105.384	-0.047	0.011
-474.274	800.000	-0.148	0.465
-473.259	-46.195	0.297	-0.145
-472.245	146.163	-0.159	-0.212
-471.230	333.203	0.169	0.324
-470.216	-12.764	0.207	-0.133
-469.201	168.535	-0.118	0.167
-468.186	535.385	0.029	-0.068
-467.172	126.764	-0.226	-0.284
-466.157	66.191	-0.306	0.308
-465.143	108.773	0.109	0.129
-464.128	800.000	0.024	0.076
-463.113	-78.614	-0.125	0.042
-462.099	-17.800	0.264	0.164
-461.084	-78.300	-0.384	0.131
-460.070	-137.637	0.150	0.017
-459.055	170.771	-0.137	-0.194
-458.040	220.766	0.098	0.156
-457.026	-80.528	0.468	-0.155
-456.011	-140.850	-0.590	-0.060
-454.997	215.818	0.027	-0.043
-453.982	214.516	0.071	0.112
-452.968	-9.324	-0.106	-0.070
-451.953	94.932	0.241	-0.272
-450.938	0.641	0.188	0.133
-449.924	-70.680	-0.442	-0.165
-448.909	303.068	0.166	-0.305
-447.895	-95.201	0.476	-0.127
-446.880	800.000	0.064	0.206
-445.865	-200.000	0.064	-0.314
-444.851	315.743	0.109	-0.204
-443.836	409.791	0.085	-0.179
-442.822	418.740	0.099	0.210
-441.807	15.712	-0.082	-0.064
-440.792	-90.866	-0.258	-0.073
-439.778	6.553	-0.207	0.152
-438.763	-132.553	-0.264	0.034
-437.749	-200.000	-0.007	-0.061
-436.734	265.984	0.219	-0.379
-435.719	52.262	0.195	-0.184
-434.705	-200.000	-0.026	0.238
-433.690	304.610	-0.088	0.161
-432.676	800.000	-0.050	-0.187
-431.661	-200.000	-0.013	0.330
-430.646	152.151	0.132	-0.179
-429.632	-200.000	-0.009	-0.272
-428.617	-64.379	0.184	0.074
-427.603	-78.107	-0.391	-0.133
-426.588	83.951	-0.377	-0.408
-425.573	199.882	0.217	-0.330
-424.559	295.932	0.129	-0.234
-423.544	800.000	-0.051	-0.177
-422.530	-82.521	-0.178	0.057
-421.515	-89.175	-0.371	-0.108
-420.500	35.027	0.101	0.088
-419.486	-200.000	-0.016	0.450
-418.471	409.703	0.053	-0.111
-417.457	-58.965	-0.391	-0.167
-416.442	-27.662	0.253	0.145
-415.428	800.000	-0.068	-0.215
-414.413	800.000	0.028	-0.103
-413.398	223.601	0.026	0.041
-412.384	-86.673	-0.154	-0.047
-411.369	-8.501	0.344	0.229
-410.355	16.260	-0.011	-0.008
-409.340	-3.619	0.192	-0.132
-408.325	-85.840	0.068	0.021
-407.311	-125.013	0.207	0.032
-406.296	-48.286	-0.033	0.016
-405.282	-41.221	-0.210	0.107
-404.267	-123.464	0.155	-0.024
-403.252	-74.737	-0.194	-0.069
-402.238	93.124	0.078	0.087
-401.223	-63.343	-0.041	0.017
-400.209	39.580	-0.174	0.154
-399.194	-182.987	0.121	0.002
-398.179	655.514	-0.058	-0.146
-397.165	335.930	0.049	0.093
-396.150	-98.944	-0.245	0.061
-395.136	-75.643	0.237	0.083
-394.121	-200.000	-0.024	0.136
-393.106	-41.656	0.126	-0.064
-392.092	88.670	0.184	-0.203
-391.077	-83.382	-0.184	0.058
-390.063	-181.423	-0.108	0.002
-389.048	53.679	0.097	-0.092
-388.033	119.110	0.236	0.289
-387.019	-133.186	-0.086	0.011
-386.004	140.771	-0.205	-0.267
-384.990	-99.209	-0.595	0.149
-383.975	-97.383	-0.325	0.083
-382.960	163.340	-0.223	0.310
-381.946	-200.000	-0.048	-0.365
-380.931	-167.607	0.395	0.016
-379.917	270.261	0.187	0.325
-378.902	-200.000	-0.016	-0.178
-377.888	-0.770	-0.231	-0.162
-376.873	-200.000	-0.076	0.524
-375.858	-10.343	-0.156	0.102
-374.844	-123.512	-0.548	0.086
-373.829	113.106	-0.071	0.085
-372.815	73.426	-0.136	0.140
-371.800	-31.399	-0.402	0.223
-370.785	-200.000	0.020	-0.150
-369.771	223.624	0.076	0.121
-368.756	-134.945	-0.223	-0.027
-367.742	631.586	0.152	-0.381
-366.727	800.000	-0.055	0.232
-365.712	65.236	-0.134	-0.134
-364.698	110.274	-0.167	-0.198
-363.683	42.061	0.200	-0.180
-362.669	-117.855	-0.109	0.019
-361.654	-48.132	0.206	-0.098
-360.639	184.190	0.062	-0.091
-359.625	-42.922	-0.297	-0.149
-358.610	-107.431	0.140	0.030
-357.596	-39.178	0.323	0.168
-356.581	275.970	0.080	0.140
-355.566	221.306	-0.098	-0.155
-354.552	176.534	-0.161	0.230
-353.537	-46.014	-0.322	-0.157
-352.523	171.709	0.062	0.088
-351.508	-19.851	0.170	-0.103
-350.493	-200.000	0.011	-0.047
-349.479	121.472	-0.066	-0.081
-348.464	-200.000	-0.038	-0.165
-347.450	-32.966	0.070	0.038
-346.435	-43.170	0.205	-0.102
-345.420	60.901	0.126	0.123
-344.406	384.804	0.140	-0.286
-343.391	-22.115	-0.362	-0.217
-342.377	-136.588	0.253	-0.029
-341.362	-200.000	0.018	0.136
-340.348	800.000	0.024	-0.088
-339.333	430.018	-0.177	0.377
-338.318	99.298	-0.376	0.429
-337.304	269.204	-0.076	-0.132
-336.289	92.098	0.123	-0.136
-335.275	10.125	-0.166	0.125
-334.260	-123.321	-0.266	0.042
-333.245	-63.373	-0.070	0.028
-332.231	159.917	-0.112	0.154
-331.216	-200.000	-0.034	-0.335
-330.202	269.435	-0.103	-0.178
-329.187	800.000	-0.086	-0.262
-328.172	-200.000	0.019	0.133
-327.158	-96.147	-0.126	0.033
-326.143	16.907	0.222	-0.174
-325.129	-200.000	-0.005	-0.027
-324.114	-84.865	-0.179	-0.055
-323.099	-67.328	-0.424	-0.164
-322.085	-115.476	0.239	0.044
-321.070	54.376	-0.162	0.154
-320.056	-200.000	-0.011	0.282
-319.041	800.000	0.137	-0.450
-318.026	-134.661	0.327	-0.039
-317.012	-80.646	-0.172	-0.056
-315.997	-78.442	0.076	-0.026
-314.983	-156.688	0.173	0.011
-313.968	-200.000	-0.014	0.076
-312.953	-103.493	-0.185	-0.043
-311.939	-152.725	0.111	0.008
-310.924	-184.856	0.341	-0.005
-309.910	-34.875	-0.213	-0.114
-308.895	-112.948	0.162	0.032
-307.880	-109.442	0.183	0.038
-306.866	241.909	-0.121	0.199
-305.851	-200.000	-0.034	-0.317
-304.837	800.000	-0.076	-0.308
-303.822	248.630	-0.049	0.081
-302.807	800.000	0.087	0.249
-301.793	-106.823	-0.197	0.043
-300.778	-200.000	-0.002	-0.013
-299.764	682.767	0.074	-0.190
-298.749	97.157	-0.176	-0.198
-297.735	30.521	0.268	0.226
-296.720	800.000	-0.015	0.059
-295.705	-60.335	-0.246	-0.103
-294.691	-152.199	-0.400	0.029
-293.676	-29.544	0.052	-0.029
-292.662	800.000	-0.124	0.356
-291.647	523.142	-0.045	-0.104
-290.632	-167.007	-0.180	-0.007
-289.618	-32.010	0.204	0.112
-288.603	66.494	-0.147	0.147
-287.589	800.000	0.107	0.302
-286.574	8.554	0.331	-0.245
-285.559	691.388	0.143	0.369
-284.545	-200.000	-0.016	0.133
-283.530	-200.000	-0.020	0.144
-282.516	56.044	0.117	-0.111
-281.501	126.763	0.240	0.299
-280.486	800.000	-0.130	0.367
-279.472	9.319	0.241	-0.179
-278.457	-26.272	0.086	-0.049
-277.443	357.646	-0.212	0.416
-276.428	372.313	-0.094	0.188
-275.413	-200.000	-0.089	0.595
-274.399	28.319	0.044	0.037
-273.384	-50.857	0.267	0.123
-272.370	800.000	-0.057	0.164
-271.355	129.303	0.236	-0.297
-270.340	335.982	0.171	0.326
-269.326	-65.915	0.288	0.113
-268.311	-108.095	-0.372	-0.079
-267.297	-200.000	0.017	0.241
-266.282	-200.000	-0.013	0.322
-265.267	-95.367	-0.053	-0.014
-264.253	-98.971	0.348	0.087
-263.238	-109.417	-0.252	-0.052
-262.224	182.278	0.099	-0.144
-261.209	-123.290	-0.283	-0.044
-260.195	-32.185	0.278	0.153
-259.180	-71.149	0.088	0.033
-258.165	319.962	-0.097	0.182
-257.151	70.857	-0.272	-0.276
-256.136	800.000	0.057	-0.167
-255.122	36.006	0.266	0.230
-254.107	159.373	-0.218	0.298
-253.092	9.195	-0.051	-0.038
-252.078	-118.732	0.358	0.062
-251.063	-138.291	-0.356	0.039
-250.049	43.137	0.042	0.038
-249.034	-7.750	0.226	0.150
-248.019	27.232	-0.082	-0.068
-247.005	-200.000	-0.031	0.320
-245.990	-109.275	0.364	-0.076
-244.976	-139.192	0.162	0.017
-243.961	463.051	-0.008	-0.018
-242.946	-200.000	-0.045	-0.403
-241.932	-121.129	-0.144	-0.024
-240.917	-200.000	0.008	-0.159
-239.903	-200.000	-0.033	0.216
-238.888	-41.958	0.092	-0.046
-237.873	202.517	-0.111	0.168
-236.859	-200.000	-0.005	-0.170
-235.844	-200.000	0.017	-0.231
-234.830	79.530	-0.176	0.185
-233.815	188.984	0.232	-0.341
-232.800	243.737	-0.013	-0.022
-231.786	39.773	0.025	0.022
-230.771	-200.000	-0.027	0.201
-229.757	108.455	-0.295	0.346
-228.742	-32.447	0.372	-0.204
-227.727	-33.387	-0.040	-0.022
-226.713	-10.415	0.106	0.069
-225.698	-131.667	0.326	0.042
-224.684	-22.844	-0.036	0.021
-223.669	-200.000	0.020	-0.114
-222.655	800.000	0.118	0.370
-221.640	-200.000	-0.011	-0.169
-220.625	-38.952	0.342	0.177
-219.611	-55.911	-0.141	0.062
-218.596	-46.101	-0.098	0.048
-217.582	550.380	-0.126	0.297
-216.567	800.000	0.029	-0.097
-215.552	800.000	-0.032	0.106
-214.538	-200.000	-0.100	-0.502
-213.523	-200.000	-0.009	0.333
-212.509	-62.617	0.353	-0.144
-211.494	171.100	-0.216	-0.303
-210.479	-101.925	0.216	0.051
-209.465	-102.560	-0.196	0.046
-208.450	-14.403	-0.111	0.070
-207.436	64.148	0.122	-0.120
-206.421	91.817	0.166	0.184
-205.406	-51.820	0.401	0.183
-204.392	314.744	0.132	0.244
-203.377	-17.170	0.316	0.196
-202.363	366.237	-0.141	-0.278
-201.348	11.586	0.321	-0.241
-200.333	800.000	0.027	-0.111
-199.319	-100.604	0.229	0.055
-198.304	-94.760	0.121	0.032
-197.290	800.000	0.118	-0.454
-196.275	-70.485	-0.273	-0.101
-195.260	-128.632	0.238	-0.033
-194.246	171.070	0.188	0.264
-193.231	-200.000	-0.077	0.371
-192.217	-200.000	-0.068	0.296
-191.202	-54.264	0.108	0.048
-190.187	-200.000	0.025	-0.146
-189.173	101.066	-0.112	-0.128
-188.158	800.000	0.017	-0.065
-187.144	-129.899	0.569	-0.076
-186.129	177.758	0.044	0.062
-185.114	-69.614	-0.225	-0.084
-184.100	209.943	0.099	0.153
-183.085	800.000	0.043	-0.158
-182.071	-126.313	0.233	0.034
-181.056	606.820	0.069	-0.170
-180.042	-200.000	0.044	0.304
-179.027	634.010	0.083	-0.206
-178.012	-200.000	0.008	0.122
-176.998	-82.108	-0.216	0.069
-175.983	12.479	-0.165	-0.125
-174.969	-132.806	0.158	-0.020
-173.954	109.364	-0.045	-0.053
-172.939	800.000	0.076	-0.230
-171.925	0.741	-0.498	-0.349
-170.910	-97.940	0.229	0.058
-169.896	266.178	0.169	0.289
-168.881	-10.401	0.237	-0.154
-167.866	-14.638	-0.150	0.094
-166.852	64.639	0.136	0.135
-165.837	-62.166	-0.326	-0.133
-164.823	25.952	0.232	-0.190
-163.808	-173.878	-0.377	-0.011
-162.793	151.101	-0.156	0.208
-161.779	-200.000	-0.035	-0.273
-160.764	800.000	-0.070	-0.287
-159.750	800.000	-0.070	0.273
-158.735	-57.852	0.169	-0.072
-157.720	573.486	0.146	-0.350
-156.706	-30.252	0.257	-0.143
-155.691	156.909	0.122	-0.165
-154.677	-51.330	-0.118	-0.054
-153.662	-148.541	0.173	0.014
-152.647	800.000	0.017	0.062
-151.633	104.765	-0.098	-0.113
-150.618	86.545	-0.094	0.102
-149.604	-165.003	-0.203	-0.009
-148.589	800.000	0.172	-0.535
-147.574	-200.000	-0.007	-0.101
-146.560	800.000	-0.049	0.190
-145.545	800.000	-0.015	-0.053
-144.531	-168.009	0.198	0.008
-143.516	18.206	-0.163	-0.128
-142.502	800.000	-0.044	-0.153
-141.487	-33.871	0.110	-0.059
-140.472	189.114	0.079	0.116
-139.458	-200.000	-0.022	0.157
-138.443	729.849	-0.051	0.135
-137.429	-105.989	0.221	-0.049
-136.414	-160.421	0.176	0.009
-135.399	-200.000	0.008	0.153
-134.385	113.552	0.221	-0.262
-133.370	36.853	0.188	-0.163
-132.356	-200.000	0.014	-0.405
-131.341	-123.109	-0.029	-0.005
-130.326	43.336	-0.466	0.417
-129.312	-84.711	0.179	0.055
-128.297	-200.000	0.017	0.249
-127.283	-59.340	0.105	-0.044
-126.268	22.912	0.070	0.056
-125.253	-200.000	-0.006	0.117
-124.239	512.235	0.106	-0.241
-123.224	-59.107	-0.095	-0.040
-122.210	92.810	0.095	0.105
-121.195	-64.579	0.081	-0.032
