DTS Sentinel unit serial number:	SN413079Multiplexer serial number:	ORYXHardware model number:	OX4-SRSoftware version number:	ORYX F/W v4.00 Oryx Data Collector v3.7.2.0data status	okinstallation	princeton_trtdifferential loss correction	single-endedforward channel	channel 1reverse channel	N/Adate	2019/09/14time	01:42:35forward acquisition time	60.00reverse acquisition time	0.00gamma	496.2192k internal	0.2337k external	0.2337temperature offset calibration	1.0077default loss term (dB/km)	0.3790temperature slope calibration	1.0000multiplexer offset coefficient	1.0000multiplexer slope coefficient	1.0000fibre end	0.00T internal ref (°C)	26.44T ext. ref 1 (°C)	3.19T ext. ref 2 (°C)	21.47length (m)	temperature (°C)	Stokes	anti-Stokes-747.200	-23.296	-0.125	-0.076
-746.185	263.849	-0.129	0.225
-745.171	-200.000	0.045	0.228
-744.156	800.000	0.090	-0.336
-743.142	800.000	-0.075	-0.325
-742.127	753.267	-0.106	0.288
-741.112	169.528	0.069	-0.099
-740.098	259.811	0.087	0.151
-739.083	-115.899	0.114	0.021
-738.069	54.728	-0.095	-0.092
-737.054	800.000	0.129	0.361
-736.039	760.506	0.013	-0.035
-735.025	281.533	0.219	0.394
-734.010	69.093	0.097	-0.100
-732.996	-52.288	-0.340	-0.158
-731.981	-92.557	0.101	-0.028
-730.966	-200.000	0.020	-0.242
-729.952	-200.000	0.127	-0.607
-728.937	-87.007	-0.218	-0.067
-727.923	-200.000	-0.021	0.098
-726.908	47.751	-0.322	-0.302
-725.894	-18.313	-0.352	-0.221
-724.879	-138.770	0.073	-0.008
-723.864	37.549	-0.177	-0.158
-722.850	800.000	0.106	-0.375
-721.835	-53.467	-0.201	-0.092
-720.821	179.602	-0.159	-0.233
-719.806	156.057	-0.128	-0.177
-718.791	541.234	0.093	-0.222
-717.777	-31.376	0.142	-0.080
-716.762	102.951	0.120	0.141
-715.748	270.788	-0.098	-0.174
-714.733	205.132	0.040	0.062
-713.718	-93.013	0.247	0.069
-712.704	-137.269	-0.041	0.005
-711.689	-81.387	0.068	0.022
-710.675	-200.000	-0.047	0.377
-709.660	-83.036	-0.091	-0.029
-708.645	-65.469	-0.098	-0.039
-707.631	4.386	0.180	-0.132
-706.616	72.250	-0.145	0.152
-705.602	-135.680	-0.064	-0.008
-704.587	343.480	-0.158	-0.310
-703.572	800.000	-0.227	-0.637
-702.558	-200.000	-0.003	-0.215
-701.543	800.000	-0.093	-0.402
-700.529	-76.688	-0.059	0.021
-699.514	65.828	-0.180	0.183
-698.499	-69.021	0.299	0.115
-697.485	800.000	-0.098	-0.339
-696.470	227.782	0.070	-0.114
-695.456	83.380	0.149	0.163
-694.441	-141.756	-0.377	-0.038
-693.426	-117.375	-0.120	-0.022
-692.412	-200.000	-0.022	-0.142
-691.397	10.924	0.269	-0.206
-690.383	800.000	0.054	-0.189
-689.368	-22.564	-0.153	0.093
-688.354	-131.005	-0.034	-0.005
-687.339	-200.000	-0.011	-0.057
-686.324	-29.392	0.168	0.096
-685.310	102.503	0.190	-0.223
-684.295	-147.625	0.183	-0.015
-683.281	-200.000	-0.018	-0.179
-682.266	-51.261	-0.165	-0.077
-681.251	28.623	-0.215	-0.182
-680.237	-27.491	0.075	0.044
-679.222	482.513	0.051	-0.115
-678.208	39.518	0.174	0.156
-677.193	182.224	-0.089	-0.131
-676.178	13.024	-0.293	-0.227
-675.164	-85.464	-0.212	0.066
-674.149	-200.000	0.036	0.233
-673.135	-130.740	-0.458	-0.062
-672.120	-17.661	0.341	0.214
-671.105	337.968	0.043	0.084
-670.091	78.309	-0.229	0.245
-669.076	-109.176	-0.323	-0.069
-668.062	-3.749	0.123	0.085
-667.047	-128.531	-0.383	0.054
-666.032	126.879	-0.339	0.430
-665.018	187.105	-0.124	-0.185
-664.003	67.297	-0.321	-0.328
-662.989	4.608	-0.087	-0.064
-661.974	307.150	-0.102	-0.190
-660.959	-24.181	-0.250	-0.150
-659.945	-53.606	0.316	0.144
-658.930	-200.000	-0.016	0.072
-657.916	-200.000	-0.039	0.183
-656.901	72.500	0.203	0.212
-655.886	-122.945	-0.082	0.013
-654.872	223.438	0.063	-0.102
-653.857	-83.582	0.381	0.122
-652.843	-47.057	-0.058	-0.028
-651.828	-55.031	0.084	-0.038
-650.814	478.196	0.056	-0.127
-649.799	-131.168	0.113	0.015
-648.784	94.031	0.036	-0.041
-647.770	11.618	-0.181	0.139
-646.755	-65.955	0.088	-0.035
-645.741	697.375	-0.119	-0.314
-644.726	800.000	-0.028	-0.081
-643.711	-200.000	-0.032	0.195
-642.697	260.191	-0.158	-0.273
-641.682	800.000	-0.054	0.226
-640.668	3.907	-0.170	-0.124
-639.653	151.421	0.302	0.412
-638.638	-115.867	0.303	0.057
-637.624	800.000	-0.089	-0.326
-636.609	410.898	-0.035	-0.074
-635.595	-40.926	0.127	0.066
-634.580	-200.000	0.010	0.135
-633.565	38.948	-0.065	-0.058
-632.551	68.226	-0.065	0.066
-631.536	-77.667	-0.096	-0.033
-630.522	146.013	-0.078	0.105
-629.507	800.000	0.064	-0.260
-628.492	800.000	0.090	-0.327
-627.478	-171.605	-0.186	0.006
-626.463	800.000	0.068	-0.253
-625.449	12.138	-0.215	-0.166
-624.434	-27.867	-0.106	-0.061
-623.419	-188.092	-0.180	-0.002
-622.405	65.428	-0.143	-0.144
-621.390	-52.976	-0.118	0.054
-620.376	-200.000	-0.010	-0.131
-619.361	-200.000	0.036	-0.182
-618.346	-200.000	-0.001	0.050
-617.332	-86.776	-0.296	0.090
-616.317	48.709	0.114	0.107
-615.303	800.000	0.138	0.421
-614.288	-200.000	-0.004	0.087
-613.273	157.040	-0.096	-0.133
-612.259	415.102	-0.066	0.140
-611.244	-82.358	0.071	-0.023
-610.230	-200.000	-0.088	0.419
-609.215	12.639	0.116	-0.090
-608.201	-70.905	0.030	0.011
-607.186	124.296	-0.155	0.194
-606.171	-200.000	-0.023	-0.140
-605.157	168.849	-0.152	-0.216
-604.142	151.821	-0.179	-0.244
-603.128	-200.000	-0.025	0.196
-602.113	-158.691	-0.135	-0.008
-601.098	318.294	-0.046	0.087
-600.084	331.337	0.052	0.100
-599.069	-66.616	-0.113	0.045
-598.055	-51.655	0.166	-0.077
-597.040	-152.707	0.233	0.017
-596.025	-200.000	0.015	0.275
-595.011	136.552	-0.039	-0.051
-593.996	-114.495	-0.232	0.045
-592.982	800.000	0.139	0.537
-591.967	423.423	0.040	0.085
-590.952	-42.966	-0.181	0.092
-589.938	-200.000	-0.021	-0.284
-588.923	-200.000	0.023	-0.380
-587.909	360.732	-0.014	0.028
-586.894	-10.330	-0.254	0.168
-585.879	-74.707	-0.275	-0.099
-584.865	513.237	-0.045	-0.105
-583.850	364.502	-0.062	-0.125
-582.836	-200.000	-0.025	0.130
-581.821	132.225	0.183	-0.235
-580.806	800.000	-0.049	-0.147
-579.792	29.949	0.290	0.247
-578.777	-200.000	-0.003	0.046
-577.763	800.000	0.036	-0.146
-576.748	-157.304	-0.381	0.023
-575.733	-4.295	0.403	-0.278
-574.719	153.818	-0.201	-0.275
-573.704	-200.000	-0.003	0.125
-572.690	231.461	0.148	0.241
-571.675	-151.148	0.334	-0.025
-570.661	-200.000	-0.005	-0.392
-569.646	-140.100	0.098	-0.010
-568.631	-200.000	0.001	0.013
-567.617	-34.777	0.123	0.067
-566.602	39.616	-0.197	0.176
-565.588	-110.542	0.033	-0.007
-564.573	-200.000	-0.001	-0.228
-563.558	251.428	0.117	-0.198
-562.544	-34.986	-0.361	-0.196
-561.529	6.850	-0.169	-0.126
-560.515	-200.000	0.128	0.001
-559.500	-95.832	0.129	0.034
-558.485	-82.018	0.060	-0.019
-557.471	141.785	-0.136	-0.180
-556.456	-112.002	-0.085	-0.017
-555.442	-60.991	0.121	-0.051
-554.427	100.622	-0.208	0.240
-553.412	-132.207	-0.361	-0.047
-552.398	-200.000	0.019	0.222
-551.383	40.079	0.112	0.100
-550.369	283.994	0.124	0.221
-549.354	-106.508	0.250	-0.056
-548.339	3.625	0.161	0.117
-547.325	-200.000	0.018	-0.223
-546.310	368.175	-0.122	-0.245
-545.296	-114.895	0.107	-0.020
-544.281	-113.894	0.278	0.054
-543.266	-200.000	-0.044	-0.298
-542.252	-154.684	-0.167	0.011
-541.237	71.805	0.172	0.178
-540.223	21.636	-0.152	0.123
-539.208	-200.000	0.003	0.184
-538.193	-137.375	-0.534	-0.060
-537.179	93.569	-0.070	0.079
-536.164	-151.686	-0.171	0.013
-535.150	161.050	0.129	0.179
-534.135	-153.308	0.298	0.021
-533.121	4.679	-0.113	-0.083
-532.106	-127.625	-0.099	0.014
-531.091	6.222	0.207	-0.153
-530.077	94.274	-0.102	0.115
-529.062	-164.181	0.175	-0.008
-528.048	-161.780	0.119	-0.006
-527.033	800.000	-0.003	0.014
-526.018	800.000	-0.112	0.441
-525.004	163.423	-0.112	0.156
-523.989	139.602	0.160	0.210
-522.975	-63.759	0.072	-0.029
-521.960	-55.172	-0.226	-0.101
-520.945	-200.000	-0.102	0.000
-519.931	-34.775	0.388	0.211
-518.916	166.804	0.032	0.045
-517.902	-106.933	-0.083	-0.018
-516.887	34.620	0.388	-0.337
-515.872	-20.557	-0.099	-0.061
-514.858	-116.696	0.148	0.027
-513.843	-44.709	0.131	-0.065
-512.829	800.000	-0.039	0.137
-511.814	89.082	0.123	0.137
-510.799	53.999	0.373	-0.357
-509.785	-39.863	-0.224	-0.116
-508.770	-78.424	-0.170	-0.058
-507.756	-200.000	0.056	-0.338
-506.741	467.467	-0.041	-0.091
-505.726	800.000	0.049	0.197
-504.712	293.194	-0.060	-0.109
-503.697	-122.577	0.650	-0.105
-502.683	-50.020	-0.279	-0.131
-501.668	800.000	-0.082	0.338
-500.653	-78.108	0.078	-0.027
-499.639	-200.000	-0.002	-0.253
-498.624	798.183	0.120	-0.329
-497.610	-86.120	-0.398	-0.122
-496.595	-195.918	0.277	-0.002
-495.581	400.628	-0.080	-0.166
-494.566	40.744	-0.115	-0.103
-493.551	-200.000	-0.011	0.190
-492.537	-39.838	-0.220	0.114
-491.522	149.308	-0.075	-0.101
-490.508	-149.858	-0.287	-0.022
-489.493	-78.113	0.361	0.123
-488.478	124.846	0.159	-0.199
-487.464	-200.000	0.024	-0.119
-486.449	-135.663	0.430	-0.051
-485.435	800.000	0.067	0.190
-484.420	-3.711	-0.199	-0.137
-483.405	255.142	0.085	-0.145
-482.391	149.199	0.160	-0.216
-481.376	99.240	0.286	-0.329
-480.362	396.955	0.099	-0.206
-479.347	-10.879	-0.048	0.031
-478.332	101.059	-0.287	-0.332
-477.318	-63.281	0.124	0.051
-476.303	22.109	-0.167	-0.135
-475.289	-200.000	0.007	-0.236
-474.274	-95.181	0.063	-0.017
-473.259	-200.000	0.029	0.343
-472.245	78.306	0.077	-0.082
-471.230	-6.903	0.265	0.179
-470.216	-200.000	-0.006	0.028
-469.201	432.419	-0.137	0.295
-468.186	40.028	0.193	0.172
-467.172	-13.291	-0.151	0.097
-466.157	-48.026	0.127	0.061
-465.143	-122.153	0.387	-0.063
-464.128	47.917	0.112	0.104
-463.113	-200.000	-0.031	-0.204
-462.099	3.865	-0.060	-0.044
-461.084	-70.180	-0.129	-0.048
-460.070	-73.218	-0.221	-0.080
-459.055	-93.952	-0.133	-0.036
-458.040	242.829	-0.194	0.323
-457.026	800.000	-0.037	0.138
-456.011	-200.000	0.001	-0.268
-454.997	-39.117	0.115	0.060
-453.982	-200.000	0.068	0.471
-452.968	800.000	-0.041	0.113
-451.953	-90.414	-0.226	-0.065
-450.938	-56.000	-0.263	-0.116
-449.924	-122.865	0.066	-0.011
-448.909	314.481	-0.150	0.280
-447.895	-74.132	0.135	0.049
-446.880	-93.335	0.245	-0.068
-445.865	-25.441	0.154	-0.090
-444.851	257.668	0.065	-0.111
-443.836	-146.140	0.044	0.004
-442.822	-200.000	0.036	-0.222
-441.807	291.782	-0.074	-0.134
-440.792	-154.194	0.369	0.025
-439.778	492.592	0.031	-0.070
-438.763	-89.569	-0.290	0.085
-437.749	-8.002	-0.141	-0.095
-436.734	-200.000	-0.005	-0.180
-435.719	-27.371	-0.309	0.178
-434.705	-200.000	-0.005	0.188
-433.690	-162.761	0.206	-0.010
-432.676	24.753	-0.021	-0.017
-431.661	-7.582	0.161	0.108
-430.646	-200.000	-0.053	-0.244
-429.632	-200.000	0.004	-0.053
-428.617	389.658	0.096	-0.198
-427.603	123.711	0.223	0.278
-426.588	800.000	0.037	-0.116
-425.573	-200.000	0.047	0.250
-424.559	-200.000	-0.002	0.163
-423.544	-200.000	0.008	-0.142
-422.530	-200.000	0.065	-0.450
-421.515	-41.814	-0.225	-0.114
-420.500	240.286	-0.138	0.228
-419.486	800.000	0.030	0.102
-418.471	-75.224	-0.145	-0.051
-417.457	-52.108	-0.430	0.198
-416.442	-32.874	0.176	0.097
-415.428	33.883	-0.231	-0.199
-414.413	531.790	0.065	0.151
-413.398	-200.000	-0.046	0.326
-412.384	8.220	0.223	-0.166
-411.369	-47.194	0.196	0.095
-410.355	-132.766	-0.158	-0.020
-409.340	118.324	0.098	-0.120
-408.325	-200.000	-0.026	0.237
-407.311	-125.631	-0.188	0.028
-406.296	-45.069	0.145	-0.071
-405.282	-80.609	-0.158	0.052
-404.267	-50.848	0.112	-0.052
-403.252	-34.902	0.304	-0.164
-402.238	-122.602	0.257	-0.041
-401.223	-49.033	-0.195	0.093
-400.209	-96.648	0.238	-0.062
-399.194	-200.000	-0.025	-0.261
-398.179	-200.000	0.000	-0.130
-397.165	-11.820	-0.237	0.154
-396.150	-132.614	0.108	0.014
-395.136	-76.726	0.239	0.083
-394.121	-159.895	-0.179	-0.010
-393.106	102.546	0.049	0.057
-392.092	-200.000	0.005	-0.133
-391.077	-162.610	-0.146	0.007
-390.063	-200.000	0.030	0.169
-389.048	800.000	0.101	-0.381
-388.033	-44.479	-0.067	0.033
-387.019	100.051	-0.052	0.059
-386.004	396.375	-0.067	-0.138
-384.990	607.112	0.095	-0.236
-383.975	27.451	-0.156	-0.130
-382.960	-200.000	-0.012	0.440
-381.946	631.163	0.090	-0.226
-380.931	87.418	0.188	0.205
-379.917	37.307	0.253	-0.222
-378.902	-200.000	0.034	0.200
-377.888	178.115	0.227	0.327
-376.873	-160.302	0.131	-0.007
-375.858	111.276	0.136	-0.162
-374.844	702.004	0.074	-0.193
-373.829	-140.521	0.236	-0.024
-372.815	383.941	0.229	0.466
-371.800	689.853	0.095	0.246
-370.785	-45.956	-0.100	-0.049
-369.771	-200.000	0.038	-0.208
-368.756	-200.000	0.021	0.148
-367.742	-79.323	-0.267	-0.089
-366.727	-67.586	0.346	-0.134
-365.712	34.450	-0.239	-0.207
-364.698	-149.404	-0.100	-0.008
-363.683	800.000	0.104	0.305
-362.669	-70.549	0.338	0.127
-361.654	-200.000	-0.021	-0.134
-360.639	264.221	-0.151	0.260
-359.625	-157.021	0.242	-0.015
-358.610	-2.205	-0.190	0.132
-357.596	-65.377	-0.235	0.094
-356.581	134.967	-0.201	-0.259
-355.566	-200.000	-0.024	-0.249
-354.552	-200.000	0.001	0.187
-353.537	-200.000	0.004	0.093
-352.523	-103.373	0.291	0.068
-351.508	164.299	-0.083	-0.116
-350.493	800.000	-0.058	0.188
-349.479	800.000	0.086	-0.276
-348.464	-200.000	0.012	0.216
-347.450	-110.799	0.341	-0.069
-346.435	308.023	-0.122	0.225
-345.420	-200.000	0.023	-0.161
-344.406	-98.339	0.162	0.041
-343.391	-200.000	0.010	-0.277
-342.377	-53.176	-0.392	-0.178
-341.362	-200.000	-0.010	0.290
-340.348	-183.876	0.114	0.002
-339.333	276.387	0.043	0.075
-338.318	-37.914	0.117	-0.062
-337.304	393.966	0.079	0.163
-336.289	-200.000	0.389	0.001
-335.275	-107.248	-0.075	-0.016
-334.260	-200.000	0.009	0.108
-333.245	-200.000	-0.019	0.181
-332.231	-200.000	-0.018	-0.328
-331.216	554.057	-0.033	0.078
-330.202	-165.891	0.309	-0.013
-329.187	87.240	0.078	0.085
-328.172	800.000	0.080	0.248
-327.158	38.792	-0.278	-0.245
-326.143	78.660	0.228	0.241
-325.129	-78.683	0.305	-0.103
-324.114	-148.282	0.310	0.025
-323.099	-200.000	-0.021	-0.265
-322.085	800.000	0.075	0.210
-321.070	-12.271	-0.192	-0.124
-320.056	163.435	-0.120	0.166
-319.041	-6.846	0.158	0.106
-318.026	800.000	0.060	-0.211
-317.012	-33.797	0.304	-0.166
-315.997	336.001	0.039	-0.074
-314.983	41.786	-0.139	-0.125
-313.968	130.642	0.133	0.169
-312.953	-200.000	-0.020	-0.242
-311.939	-139.546	-0.317	-0.033
-310.924	-200.000	-0.015	-0.254
-309.910	-33.273	0.229	0.125
-308.895	0.725	0.100	0.071
-307.880	-152.959	-0.275	-0.019
-306.866	-37.450	-0.277	0.146
-305.851	-41.663	-0.205	0.104
-304.837	168.043	-0.161	0.226
-303.822	800.000	0.064	0.210
-302.807	-99.458	-0.071	-0.018
-301.793	-90.378	-0.263	0.075
-300.778	-200.000	0.015	-0.324
-299.764	135.016	-0.141	0.181
-298.749	25.144	-0.167	0.137
-297.735	-99.269	-0.260	0.065
-296.720	-14.135	-0.098	-0.062
-295.705	271.552	0.099	0.173
-294.691	-163.071	0.067	0.003
-293.676	-20.070	-0.245	-0.149
-292.662	-146.746	-0.186	-0.016
-291.647	-88.336	-0.263	-0.077
-290.632	-61.178	0.065	-0.027
-289.618	-161.938	-0.285	0.014
-288.603	87.306	0.271	0.295
-287.589	-114.583	-0.120	0.023
-286.574	-53.228	-0.257	0.116
-285.559	-38.194	0.290	0.151
-284.545	491.998	-0.092	0.209
-283.530	-39.065	-0.302	0.157
-282.516	-200.000	-0.054	-0.262
-281.501	-50.329	0.355	0.166
-280.486	-58.424	-0.308	0.132
-279.472	131.584	0.136	0.172
-278.457	-200.000	0.016	-0.072
-277.443	-78.437	-0.399	0.135
-276.428	-200.000	0.043	0.332
-275.413	-103.490	0.304	-0.071
-274.399	339.379	0.074	-0.142
-273.384	-90.833	-0.302	0.086
-272.370	-200.000	0.013	0.258
-271.355	-107.435	0.285	-0.062
-270.340	-139.898	0.152	-0.016
-269.326	537.450	-0.014	-0.032
-268.311	-104.912	0.216	-0.049
-267.297	24.753	0.087	-0.071
-266.282	-200.000	0.011	0.124
-265.267	800.000	0.104	0.376
-264.253	181.025	-0.085	-0.123
-263.238	-119.841	0.296	-0.050
-262.224	-10.952	0.311	0.202
-261.209	425.943	-0.091	-0.193
-260.195	-113.898	0.066	-0.013
-259.180	800.000	-0.022	0.090
-258.165	143.211	0.140	0.184
-257.151	47.878	-0.175	-0.161
-256.136	-83.491	0.386	-0.122
-255.122	800.000	-0.060	0.234
-254.107	800.000	0.057	-0.235
-253.092	-200.000	-0.010	-0.376
-252.078	-43.842	0.152	-0.075
-251.063	-21.797	-0.133	0.080
-250.049	99.689	-0.142	0.162
-249.034	-132.356	0.257	-0.033
-248.019	60.118	0.091	0.089
-247.005	20.321	-0.284	0.226
-245.990	-94.399	-0.420	-0.113
-244.976	-133.297	0.595	-0.074
-243.961	-57.238	-0.148	0.064
-242.946	-178.779	-0.319	-0.007
-241.932	330.002	-0.163	-0.310
-240.917	309.226	0.081	-0.148
-239.903	-160.254	0.247	-0.013
-238.888	-200.000	0.028	-0.169
-237.873	800.000	-0.110	-0.302
-236.859	-101.064	0.288	-0.069
-235.844	-76.766	0.384	-0.132
-234.830	-78.973	-0.129	-0.043
-233.815	-68.033	-0.276	0.106
-232.800	250.058	-0.218	-0.365
-231.786	83.312	-0.264	-0.282
-230.771	-153.412	0.035	-0.002
-229.757	120.326	-0.146	-0.179
-228.742	40.286	0.212	0.188
-227.727	800.000	-0.048	-0.183
-226.713	-70.882	-0.274	0.101
-225.698	-200.000	0.047	-0.204
-224.684	-200.000	0.067	-0.434
-223.669	7.557	0.112	0.083
-222.655	-55.674	-0.204	0.090
-221.640	-200.000	0.008	0.266
-220.625	746.392	-0.069	0.182
-219.611	800.000	-0.067	0.194
-218.596	-200.000	0.041	0.190
-217.582	-96.601	-0.172	-0.044
-216.567	800.000	-0.056	-0.165
-215.552	-121.384	0.243	-0.040
-214.538	-200.000	0.020	0.133
-213.523	351.700	0.131	-0.254
-212.509	588.898	-0.133	-0.323
-211.494	-54.697	-0.090	-0.040
-210.479	-33.984	0.068	-0.037
-209.465	-58.763	0.104	0.044
-208.450	146.829	0.075	-0.099
-207.436	71.241	-0.265	0.271
-206.421	-119.165	0.353	0.061
-205.406	714.966	-0.087	0.227
-204.392	-6.070	-0.033	0.022
-203.377	36.064	-0.101	-0.088
-202.363	207.473	-0.176	0.270
-201.348	-144.753	-0.132	0.012
-200.333	738.044	-0.012	-0.032
-199.319	800.000	0.038	-0.138
-198.304	800.000	0.170	-0.482
-197.290	-200.000	0.062	0.371
-196.275	-86.338	-0.244	-0.074
-195.260	-24.293	0.272	0.160
-194.246	87.536	-0.199	-0.217
-193.231	-152.011	0.271	0.019
-192.217	-155.000	-0.410	-0.026
-191.202	173.110	0.077	-0.110
-190.187	430.107	-0.079	0.168
-189.173	-200.000	0.016	-0.164
-188.158	800.000	0.075	0.233
-187.144	-200.000	-0.013	0.198
-186.129	-37.656	-0.264	-0.138
-185.114	-76.817	-0.234	0.081
-184.100	-7.012	-0.088	-0.059
-183.085	202.349	-0.035	0.053
-182.071	-200.000	-0.006	0.119
-181.056	360.272	0.093	0.182
-180.042	-200.000	-0.031	-0.291
-179.027	33.571	0.090	0.076
-178.012	-93.234	-0.068	0.019
-176.998	-34.490	0.073	-0.039
-175.983	-164.915	-0.273	0.012
-174.969	-200.000	-0.032	0.516
-173.954	85.611	0.044	-0.048
-172.939	-200.000	0.012	-0.095
-171.925	-129.472	0.165	0.022
-170.910	-130.201	-0.071	-0.009
-169.896	-67.327	0.142	0.055
-168.881	-136.762	0.164	-0.018
-167.866	-60.261	-0.346	0.145
-166.852	31.894	0.067	0.056
-165.837	21.245	0.216	0.173
-164.823	-200.000	0.014	0.208
-163.808	60.843	-0.091	-0.089
-162.793	25.409	-0.072	-0.059
-161.779	-200.000	-0.025	-0.196
-160.764	-122.913	-0.375	0.059
-159.750	-200.000	-0.254	0.001
-158.735	268.622	0.059	0.102
-157.720	-122.767	-0.282	0.045
-156.706	-112.105	0.260	-0.051
-155.691	38.729	-0.295	0.258
-154.677	-109.089	0.190	0.040
-153.662	-200.000	-0.031	0.230
-152.647	394.082	-0.097	-0.197
-151.633	238.263	0.180	0.294
-150.618	-95.299	-0.031	0.008
-149.604	-59.110	-0.130	0.055
-148.589	-200.000	0.012	0.065
-147.574	24.920	-0.244	-0.198
-146.560	-200.000	0.021	-0.267
-145.545	-93.032	-0.391	-0.107
-144.531	800.000	0.044	0.185
-143.516	96.097	0.033	-0.037
-142.502	-200.000	0.033	-0.185
-141.487	36.356	0.200	-0.173
-140.472	-5.465	-0.110	-0.074
-139.458	-156.535	0.156	-0.010
-138.443	438.555	-0.078	-0.167
-137.429	229.872	-0.112	0.179
-136.414	133.114	-0.099	0.126
-135.399	-200.000	-0.006	-0.211
-134.385	800.000	0.097	-0.268
-133.370	65.071	-0.222	-0.220
-132.356	800.000	-0.070	0.192
-131.341	-156.156	0.266	0.016
-130.326	-32.263	-0.098	0.054
-129.312	-92.625	0.408	0.112
-128.297	108.935	-0.197	0.231
-127.283	261.998	0.109	-0.184
-126.268	800.000	0.100	0.329
-125.253	-43.175	-0.125	-0.062
-124.239	-34.121	-0.227	-0.122
-123.224	144.031	0.123	0.161
