DTS Sentinel unit serial number:	SN413079Multiplexer serial number:	ORYXHardware model number:	OX4-SRSoftware version number:	ORYX F/W v4.00 Oryx Data Collector v3.7.2.0data status	okinstallation	princeton_trtdifferential loss correction	single-endedforward channel	channel 1reverse channel	N/Adate	2019/09/18time	16:06:35forward acquisition time	60.00reverse acquisition time	0.00gamma	496.2192k internal	0.2292k external	0.2292temperature offset calibration	0.9993default loss term (dB/km)	0.3790temperature slope calibration	1.0000multiplexer offset coefficient	1.0000multiplexer slope coefficient	1.0000fibre end	0.00T internal ref (°C)	37.78T ext. ref 1 (°C)	0.83T ext. ref 2 (°C)	37.08length (m)	temperature (°C)	Stokes	anti-Stokes-747.200	437.988	-0.090	0.201
-746.185	19.849	-0.191	0.157
-745.171	189.912	0.170	0.261
-744.156	-56.506	-0.311	0.141
-743.142	385.978	0.061	-0.129
-742.127	254.241	0.192	0.336
-741.112	-11.241	0.203	0.137
-740.098	176.908	0.021	0.031
-739.083	-200.000	-0.001	0.075
-738.069	-200.000	-0.022	0.162
-737.054	635.076	0.060	-0.155
-736.039	-56.581	-0.303	0.137
-735.025	-93.088	-0.094	-0.027
-734.010	-86.092	0.022	0.007
-732.996	-200.000	-0.004	-0.087
-731.981	273.965	0.081	0.147
-730.966	289.778	-0.236	-0.438
-729.952	800.000	-0.102	-0.367
-728.937	316.572	-0.089	-0.173
-727.923	-3.561	-0.205	-0.146
-726.908	800.000	-0.055	-0.232
-725.894	-200.000	0.023	-0.347
-724.879	-77.537	-0.184	-0.065
-723.864	800.000	0.053	0.215
-722.850	60.991	-0.142	0.144
-721.835	211.019	-0.100	0.161
-720.821	93.896	0.063	-0.073
-719.806	-200.000	0.011	-0.283
-718.791	45.817	0.210	-0.199
-717.777	-69.397	0.223	-0.087
-716.762	-115.760	0.068	0.013
-715.748	204.269	-0.259	0.411
-714.733	77.072	-0.043	0.047
-713.718	-81.036	-0.201	0.068
-712.704	104.336	-0.313	-0.376
-711.689	-106.690	0.182	-0.041
-710.675	51.681	0.065	-0.063
-709.660	184.376	-0.062	0.094
-708.645	66.480	0.131	0.136
-707.631	-71.493	-0.337	-0.129
-706.616	95.413	0.143	-0.166
-705.602	6.915	0.232	-0.176
-704.587	117.498	0.107	-0.134
-703.572	-124.755	0.322	0.051
-702.558	210.278	0.040	-0.064
-701.543	404.941	-0.124	-0.266
-700.529	144.321	-0.160	0.219
-699.514	302.330	0.141	0.266
-698.499	-157.908	-0.293	-0.018
-697.485	-25.453	0.091	0.055
-696.470	-25.557	0.122	0.073
-695.456	431.476	-0.051	0.113
-694.441	198.594	0.292	0.456
-693.426	-106.782	0.051	0.012
-692.412	-62.945	0.196	-0.083
-691.397	55.892	-0.198	0.196
-690.383	-200.000	0.018	-0.309
-689.368	-142.041	-0.193	-0.020
-688.354	49.349	-0.205	-0.197
-687.339	-155.820	0.081	0.005
-686.324	239.662	-0.014	0.024
-685.310	271.989	-0.104	-0.188
-684.295	-124.308	0.249	0.040
-683.281	271.539	0.015	-0.027
-682.266	77.781	0.192	-0.209
-681.251	-69.194	-0.181	-0.071
-680.237	171.730	-0.215	-0.315
-679.222	-73.338	0.137	0.051
-678.208	800.000	-0.077	-0.260
-677.193	-47.932	-0.123	0.061
-676.178	-200.000	0.036	-0.216
-675.164	-200.000	0.034	-0.191
-674.149	-157.787	-0.351	-0.021
-673.135	269.158	0.267	0.479
-672.120	111.781	-0.118	-0.146
-671.105	-63.889	-0.332	-0.138
-670.091	105.282	0.141	0.170
-669.076	208.470	-0.164	-0.262
-668.062	470.008	-0.081	-0.185
-667.047	51.227	0.228	-0.221
-666.032	55.986	0.167	-0.165
-665.018	39.847	-0.099	-0.090
-664.003	-32.352	0.231	-0.132
-662.989	179.919	-0.153	-0.228
-661.974	-31.378	-0.186	-0.107
-660.959	130.414	-0.092	-0.120
-659.945	800.000	-0.016	-0.056
-658.930	452.896	-0.082	0.186
-657.916	800.000	0.036	-0.126
-656.901	-200.000	-0.031	0.144
-655.886	800.000	0.039	0.149
-654.872	-10.391	0.178	0.121
-653.857	-71.656	-0.255	0.097
-652.843	60.850	0.162	-0.164
-651.828	45.998	0.300	-0.283
-650.814	-109.847	-0.105	-0.022
-649.799	-161.963	0.237	-0.012
-648.784	-200.000	0.015	-0.113
-647.770	19.370	0.019	0.015
-646.755	145.021	0.366	0.499
-645.741	308.827	-0.091	0.173
-644.726	-150.418	-0.253	0.020
-643.711	-77.161	-0.119	0.042
-642.697	-200.000	-0.058	0.433
-641.682	800.000	0.046	-0.138
-640.668	-200.000	-0.008	0.098
-639.653	-9.361	0.226	0.154
-638.638	-200.000	-0.027	0.171
-637.624	-61.646	0.212	0.091
-636.609	-200.000	-0.028	0.186
-635.595	-4.919	-0.118	-0.083
-634.580	-49.538	-0.137	0.067
-633.565	-114.052	-0.300	-0.059
-632.551	-200.000	0.013	0.316
-631.536	-49.156	0.075	-0.037
-630.522	116.313	-0.071	0.088
-629.507	-200.000	0.051	-0.353
-628.492	-25.316	-0.307	0.185
-627.478	-200.000	-0.032	0.326
-626.463	-101.080	0.239	-0.060
-625.449	-200.000	-0.008	0.143
-624.434	-26.193	0.229	-0.137
-623.419	-74.246	-0.336	-0.124
-622.405	89.353	-0.195	-0.222
-621.390	62.998	0.155	-0.158
-620.376	-3.936	-0.316	-0.223
-619.361	800.000	-0.029	-0.122
-618.346	-37.530	-0.145	-0.079
-617.332	800.000	-0.074	-0.266
-616.317	-123.343	0.118	-0.019
-615.303	114.467	0.276	0.343
-614.288	-200.000	-0.003	-0.243
-613.273	-118.440	-0.110	-0.020
-612.259	-200.000	0.014	0.226
-611.244	-113.656	0.299	0.059
-610.230	-168.888	0.188	-0.007
-609.215	-200.000	0.048	0.222
-608.201	800.000	-0.044	-0.144
-607.186	-50.092	-0.331	-0.160
-606.171	-186.979	-0.310	-0.004
-605.157	-94.232	-0.288	-0.080
-604.142	-200.000	-0.004	-0.092
-603.128	-200.000	-0.020	0.213
-602.113	800.000	-0.031	0.094
-601.098	179.353	0.191	0.284
-600.084	375.964	-0.072	0.151
-599.069	-20.221	-0.144	-0.090
-598.055	82.440	-0.060	-0.066
-597.040	-160.339	0.086	0.005
-596.025	-40.435	-0.064	-0.034
-595.011	-4.822	-0.179	0.126
-593.996	-4.857	-0.058	-0.041
-592.982	800.000	0.058	-0.211
-591.967	179.506	-0.066	0.099
-590.952	-3.532	0.246	-0.174
-589.938	-25.012	0.202	-0.122
-588.923	-200.000	0.007	0.042
-587.909	800.000	0.017	0.065
-586.894	160.159	-0.065	0.093
-585.879	-200.000	-0.042	0.278
-584.865	-94.670	-0.211	-0.058
-583.850	-200.000	0.009	-0.248
-582.836	-97.031	0.274	-0.073
-581.821	-18.653	-0.087	0.055
-580.806	-155.015	-0.232	-0.015
-579.792	103.363	0.094	0.112
-578.777	-200.000	0.013	0.166
-577.763	369.608	0.171	-0.352
-576.748	-68.539	-0.113	0.045
-575.733	8.407	0.063	-0.048
-574.719	140.575	-0.130	-0.174
-573.704	-132.667	0.223	-0.029
-572.690	-60.353	-0.145	0.063
-571.675	-132.306	0.188	0.025
-570.661	-179.130	0.580	0.013
-569.646	-6.088	-0.047	-0.033
-568.631	-62.237	-0.091	0.039
-567.617	-200.000	-0.040	-0.240
-566.602	222.394	-0.109	-0.178
-565.588	-47.726	-0.326	-0.161
-564.573	9.619	0.070	0.054
-563.558	76.828	0.099	-0.107
-562.544	-200.000	-0.028	0.163
-561.529	-200.000	0.009	-0.301
-560.515	-124.096	-0.236	-0.038
-559.500	800.000	0.044	-0.194
-558.485	-137.468	-0.190	-0.022
-557.471	61.857	-0.054	0.055
-556.456	410.973	-0.068	-0.146
-555.442	36.809	0.131	0.118
-554.427	-52.684	0.048	-0.022
-553.412	-38.433	0.142	0.076
-552.398	37.298	0.155	-0.139
-551.383	-200.000	-0.010	0.128
-550.369	-104.070	0.293	-0.069
-549.354	337.772	-0.073	-0.144
-548.339	-75.558	-0.148	-0.053
-547.325	-200.000	-0.021	-0.113
-546.310	-164.509	0.137	0.006
-545.296	41.403	-0.161	-0.148
-544.281	-4.089	0.290	-0.204
-543.266	-22.063	-0.264	-0.163
-542.252	176.215	-0.092	-0.135
-541.237	-200.000	-0.015	0.147
-540.223	800.000	-0.031	-0.095
-539.208	-136.809	-0.160	0.019
-538.193	-93.018	0.257	-0.073
-537.179	190.008	0.079	-0.120
-536.164	15.847	0.099	-0.079
-535.150	-60.274	0.315	-0.136
-534.135	736.384	0.098	-0.266
-533.121	-87.321	-0.496	0.153
-532.106	202.482	0.104	-0.164
-531.091	800.000	0.025	-0.098
-530.077	-200.000	-0.014	0.133
-529.062	-63.008	-0.253	-0.106
-528.048	-200.000	-0.007	-0.047
-527.033	-10.700	-0.219	0.147
-526.018	-130.178	0.308	-0.043
-525.004	800.000	0.041	-0.163
-523.989	800.000	0.030	0.097
-522.975	166.695	0.137	-0.197
-521.960	-200.000	0.023	-0.274
-520.945	-200.000	-0.002	-0.038
-519.931	-34.704	-0.276	-0.153
-518.916	-54.080	-0.361	0.166
-517.902	-95.281	0.236	-0.064
-516.887	15.540	0.146	-0.116
-515.872	53.701	0.144	-0.140
-514.858	207.202	-0.057	-0.090
-513.843	215.798	0.175	0.282
-512.829	-87.816	0.083	0.025
-511.814	800.000	0.096	-0.271
-510.799	-86.911	0.211	0.065
-509.785	-75.123	0.141	-0.051
-508.770	-122.407	-0.347	-0.057
-507.756	72.297	-0.409	-0.432
-506.741	-63.642	-0.206	0.086
-505.726	-101.556	-0.122	-0.030
-504.712	-200.000	0.002	0.250
-503.697	-9.243	-0.213	-0.144
-502.683	-200.000	0.045	0.346
-501.668	112.477	-0.267	-0.327
-500.653	-200.000	0.038	0.303
-499.639	47.406	-0.277	-0.262
-498.624	-77.786	0.129	-0.045
-497.610	183.980	0.107	-0.161
-496.595	-200.000	-0.015	-0.183
-495.581	-83.670	0.495	0.160
-494.566	12.089	0.198	0.155
-493.551	68.167	0.151	0.156
-492.537	-108.901	-0.157	0.034
-491.522	7.544	-0.043	0.033
-490.508	64.593	0.128	0.131
-489.493	-62.168	-0.276	-0.116
-488.478	-200.000	-0.027	-0.124
-487.464	-105.496	-0.276	-0.063
-486.449	-12.859	0.063	0.042
-485.435	-3.276	-0.338	-0.239
-484.420	-83.072	-0.282	0.092
-483.405	-93.542	-0.324	-0.091
-482.391	67.768	0.263	0.272
-481.376	-200.000	-0.030	0.283
-480.362	17.338	-0.260	-0.209
-479.347	456.807	-0.084	-0.188
-478.332	-151.719	0.312	0.023
-477.318	800.000	0.043	-0.152
-476.303	-87.547	-0.071	-0.022
-475.289	-168.347	-0.214	-0.008
-474.274	-80.972	0.073	-0.025
-473.259	-81.138	0.265	0.089
-472.245	800.000	0.063	-0.195
-471.230	-200.000	0.038	0.290
-470.216	-80.977	-0.067	-0.022
-469.201	-200.000	0.018	-0.234
-468.186	243.281	0.204	0.345
-467.172	16.760	0.138	0.110
-466.157	-114.619	0.242	0.047
-465.143	-200.000	-0.018	-0.166
-464.128	-38.421	0.069	-0.037
-463.113	-130.566	0.098	-0.013
-462.099	-99.687	-0.080	-0.020
-461.084	800.000	0.129	0.366
-460.070	373.708	0.047	0.098
-459.055	421.660	0.088	-0.191
-458.040	-99.105	-0.501	-0.128
-457.026	800.000	-0.043	-0.187
-456.011	-53.501	0.096	0.044
-454.997	-102.615	0.016	-0.004
-453.982	58.442	0.134	-0.133
-452.968	-108.457	-0.238	0.052
-451.953	-200.000	-0.009	-0.097
-450.938	97.116	0.132	-0.153
-449.924	-124.393	0.286	-0.045
-448.909	-3.961	-0.068	0.048
-447.895	-200.000	-0.023	-0.276
-446.880	-166.173	0.020	0.001
-445.865	161.730	0.080	0.113
-444.851	-112.425	-0.115	-0.023
-443.836	14.516	-0.179	-0.142
-442.822	-67.218	-0.189	0.075
-441.807	193.004	0.186	0.285
-440.792	-15.664	0.257	-0.166
-439.778	145.768	0.155	0.210
-438.763	-200.000	0.006	0.138
-437.749	38.124	0.153	0.138
-436.734	-125.198	-0.281	0.043
-435.719	800.000	-0.050	0.190
-434.705	14.197	-0.402	0.317
-433.690	28.510	0.091	0.078
-432.676	-102.331	0.303	-0.073
-431.661	0.529	-0.205	-0.148
-430.646	200.647	-0.052	-0.080
-429.632	175.602	0.091	-0.134
-428.617	358.803	0.132	0.267
-427.603	247.901	-0.150	-0.256
-426.588	462.204	-0.046	0.104
-425.573	677.633	-0.104	0.273
-424.559	-200.000	-0.021	0.112
-423.544	-200.000	0.035	-0.278
-422.530	57.615	-0.084	0.083
-421.515	467.950	-0.100	0.226
-420.500	-101.267	0.302	-0.074
-419.486	-200.000	-0.004	0.192
-418.471	-0.939	-0.231	0.165
-417.457	-7.021	0.075	-0.051
-416.442	62.089	-0.206	-0.208
-415.428	-200.000	0.040	0.182
-414.413	-200.000	0.049	0.452
-413.398	-200.000	-0.019	0.116
-412.384	-10.778	-0.204	0.136
-411.369	-118.109	-0.205	-0.037
-410.355	342.240	0.086	-0.170
-409.340	-168.936	0.324	0.012
-408.325	76.292	0.176	-0.188
-407.311	-200.000	0.033	-0.317
-406.296	580.089	-0.078	-0.194
-405.282	800.000	-0.127	-0.408
-404.267	-110.145	-0.147	-0.031
-403.252	147.465	0.144	-0.195
-402.238	203.175	-0.092	0.143
-401.223	-200.000	0.007	-0.077
-400.209	-45.671	-0.149	0.075
-399.194	-200.000	-0.018	-0.173
-398.179	-200.000	0.015	0.271
-397.165	-7.166	0.384	0.263
-396.150	-137.492	0.086	0.010
-395.136	-112.025	0.255	-0.052
-394.121	64.713	0.119	-0.121
-393.106	342.191	-0.024	-0.047
-392.092	-200.000	0.002	-0.094
-391.077	154.927	-0.045	-0.062
-390.063	800.000	0.038	-0.149
-389.048	-200.000	-0.006	-0.404
-388.033	33.882	-0.098	-0.086
-387.019	-125.148	-0.199	-0.031
-386.004	263.928	0.168	-0.295
-384.990	-18.790	0.266	-0.167
-383.975	123.543	-0.170	0.215
-382.960	-179.848	0.121	0.003
-381.946	44.018	0.065	0.060
-380.931	-200.000	-0.062	-0.375
-379.917	-95.398	-0.067	-0.018
-378.902	84.014	-0.110	0.121
-377.888	66.544	0.079	-0.081
-376.873	351.206	0.058	-0.116
-375.858	499.333	0.062	0.143
-374.844	-57.285	0.186	-0.083
-373.829	141.607	0.087	-0.116
-372.815	336.845	-0.270	0.529
-371.800	-33.100	-0.058	0.032
-370.785	-175.865	-0.070	0.002
-369.771	800.000	-0.015	-0.064
-368.756	-200.000	0.023	-0.153
-367.742	-63.670	0.199	-0.082
-366.727	-45.213	-0.039	-0.020
-365.712	511.796	-0.059	-0.138
-364.698	-147.858	-0.179	0.015
-363.683	28.211	-0.228	0.194
-362.669	-38.094	0.225	0.121
-361.654	-160.629	0.219	-0.012
-360.639	-200.000	0.066	-0.312
-359.625	-200.000	-0.023	-0.337
-358.610	104.815	-0.092	-0.109
-357.596	3.883	0.073	0.054
-356.581	-100.747	-0.061	0.015
-355.566	-176.732	-0.368	0.009
-354.552	-81.239	0.248	-0.083
-353.537	220.768	0.053	-0.085
-352.523	-114.937	-0.405	0.078
-351.508	26.220	0.164	-0.138
-350.493	800.000	-0.010	-0.038
-349.479	48.281	-0.174	0.164
-348.464	613.390	-0.070	-0.177
-347.450	122.095	-0.209	0.264
-346.435	-104.147	-0.208	0.049
-345.420	-54.754	0.442	-0.201
-344.406	-44.178	0.328	0.166
-343.391	-200.000	0.014	-0.177
-342.377	-94.701	0.290	0.079
-341.362	-128.960	-0.336	-0.048
-340.348	-176.577	-0.313	0.008
-339.333	-46.447	-0.083	0.041
-338.318	16.163	0.227	0.181
-337.304	-59.855	-0.464	0.200
-336.289	-36.669	-0.299	-0.162
-335.275	-93.996	-0.267	-0.074
-334.260	-200.000	-0.048	-0.245
-333.245	35.054	-0.121	0.106
-332.231	800.000	-0.128	-0.358
-331.216	-138.269	0.142	-0.016
-330.202	-169.764	-0.165	-0.006
-329.187	-200.000	-0.012	0.233
-328.172	-200.000	0.010	0.187
-327.158	-200.000	0.008	-0.280
-326.143	379.456	-0.096	0.197
-325.129	446.384	0.137	0.303
-324.114	-3.263	0.267	-0.187
-323.099	-165.194	-0.139	0.006
-322.085	-200.000	0.010	-0.217
-321.070	800.000	-0.070	0.210
-320.056	-70.128	-0.181	0.069
-319.041	800.000	0.080	0.248
-318.026	-19.941	0.422	0.262
-317.012	-100.316	0.256	0.064
-315.997	-200.000	0.011	0.066
-314.983	167.753	0.163	-0.233
-313.968	-109.394	-0.104	-0.022
-312.953	510.223	0.180	0.422
-311.939	-93.115	-0.209	-0.058
-310.924	-200.000	-0.021	-0.105
-309.910	-191.978	0.268	0.003
-308.895	12.905	0.223	0.173
-307.880	800.000	0.070	0.202
-306.866	-124.873	0.168	0.026
-305.851	-173.903	-0.388	0.012
-304.837	67.706	-0.168	-0.172
-303.822	800.000	0.048	-0.153
-302.807	800.000	0.127	-0.383
-301.793	240.123	-0.067	-0.113
-300.778	20.937	0.133	0.108
-299.764	-140.270	-0.200	0.021
-298.749	93.107	-0.188	-0.214
-297.735	-110.098	0.400	0.084
-296.720	-200.000	0.028	0.203
-295.705	-108.327	0.237	0.051
-294.691	-153.191	-0.365	-0.026
-293.676	-189.878	0.217	0.002
-292.662	119.035	0.111	0.138
-291.647	-31.223	-0.303	0.172
-290.632	800.000	-0.064	-0.236
-289.618	63.314	0.047	-0.047
-288.603	-200.000	-0.023	-0.367
-287.589	-51.826	-0.154	-0.072
-286.574	-41.890	0.238	0.122
-285.559	-200.000	-0.022	-0.140
-284.545	-62.744	-0.077	0.032
-283.530	800.000	0.049	0.198
-282.516	-63.564	0.036	-0.015
-281.501	-200.000	0.027	0.153
-280.486	-200.000	-0.024	0.311
-279.472	-123.950	-0.110	0.017
-278.457	-200.000	-0.028	-0.168
-277.443	67.118	0.096	0.099
-276.428	69.666	-0.227	0.235
-275.413	-53.099	-0.247	0.114
-274.399	208.801	0.104	0.163
-273.384	482.080	0.200	0.456
-272.370	-103.739	0.160	0.038
-271.355	169.493	-0.039	-0.055
-270.340	342.440	-0.129	0.253
-269.326	-83.862	-0.228	0.073
-268.311	-2.468	-0.202	0.143
-267.297	-142.443	0.183	0.018
-266.282	-88.203	-0.215	-0.065
-265.267	-121.629	-0.365	-0.061
-264.253	-200.000	-0.034	0.312
-263.238	433.676	-0.176	-0.385
-262.224	-200.000	0.001	0.168
-261.209	-136.559	-0.058	0.007
-260.195	113.212	-0.198	-0.242
-259.180	-154.740	-0.106	0.007
-258.165	-77.099	0.286	-0.100
-257.151	800.000	0.103	0.317
-256.136	564.383	-0.058	0.141
-255.122	-193.562	0.351	-0.003
-254.107	210.584	0.195	-0.308
-253.092	800.000	0.023	0.063
-252.078	-9.621	0.224	-0.150
-251.063	143.962	-0.184	0.247
-250.049	306.105	0.098	-0.184
-249.034	-200.000	0.027	-0.283
-248.019	687.654	0.109	0.286
-247.005	176.665	0.107	-0.157
-245.990	80.353	0.207	0.224
-244.976	-117.176	0.321	0.059
-243.961	-160.929	-0.157	0.008
-242.946	-107.926	-0.330	-0.072
-241.932	597.863	0.112	-0.280
-240.917	62.190	0.099	0.099
-239.903	-41.059	-0.174	0.090
-238.888	-34.460	-0.394	0.217
-237.873	493.582	0.128	0.295
-236.859	-50.847	-0.135	-0.064
-235.844	87.223	0.023	-0.025
-234.830	132.418	0.284	0.367
-233.815	37.814	0.172	-0.154
-232.800	178.401	-0.194	-0.284
-231.786	95.014	0.083	0.095
-230.771	199.054	0.042	0.065
-229.757	-200.000	0.010	0.140
-228.742	337.087	-0.174	0.340
-227.727	163.203	0.086	0.121
-226.713	16.260	-0.178	0.141
-225.698	32.514	0.108	-0.094
-224.684	-106.370	0.401	-0.090
-223.669	-200.000	-0.083	0.391
-222.655	6.895	0.099	-0.074
-221.640	-63.558	0.260	0.107
-220.625	-78.888	0.055	0.019
-219.611	16.363	0.219	-0.173
-218.596	47.980	0.189	0.177
-217.582	-26.237	0.286	0.168
-216.567	-162.482	0.205	0.010
-215.552	45.342	-0.162	0.150
-214.538	-90.168	-0.074	0.022
-213.523	-140.359	0.295	-0.031
-212.509	127.825	-0.137	0.175
-211.494	-200.000	-0.058	0.269
-210.479	-114.915	0.181	0.035
-209.465	800.000	0.017	-0.052
-208.450	116.847	0.086	0.106
-207.436	201.494	0.104	-0.160
-206.421	800.000	-0.094	0.283
-205.406	-185.936	-0.368	0.005
-204.392	325.072	-0.187	-0.358
-203.377	-152.697	0.165	-0.012
-202.363	-117.552	-0.159	0.029
-201.348	-52.540	0.151	0.070
-200.333	-36.156	-0.169	0.091
-199.319	-200.000	-0.003	-0.313
-198.304	800.000	-0.017	-0.050
-197.290	-21.472	0.102	0.062
-196.275	800.000	0.096	-0.311
-195.260	800.000	0.085	0.306
-194.246	-200.000	0.000	-0.017
-193.231	-65.649	0.369	0.148
-192.217	-200.000	0.091	0.448
-191.202	-68.658	-0.313	-0.122
-190.187	-200.000	-0.019	-0.410
-189.173	-200.000	-0.017	-0.322
-188.158	402.819	0.165	-0.347
-187.144	631.254	0.107	0.270
-186.129	516.812	-0.111	-0.260
-185.114	-200.000	0.003	-0.035
-184.100	-46.960	0.103	-0.051
-183.085	-85.004	0.166	0.052
-182.071	-103.739	0.357	0.084
-181.056	388.913	0.047	-0.098
-180.042	647.183	0.132	-0.337
-179.027	-126.054	-0.212	0.032
-178.012	89.402	0.136	-0.152
-176.998	-105.409	0.235	0.054
-175.983	-200.000	-0.064	0.351
-174.969	-200.000	-0.021	-0.100
-173.954	248.518	0.054	0.091
-172.939	-108.079	-0.349	0.076
-171.925	-110.692	0.408	-0.084
-170.910	21.790	-0.275	0.224
-169.896	-33.631	-0.323	0.179
-168.881	365.791	0.091	-0.184
-167.866	-0.002	-0.121	-0.086
-166.852	-17.010	0.082	0.052
-165.837	-40.464	0.243	0.126
-164.823	63.516	-0.153	0.153
-163.808	-200.000	0.069	-0.591
-162.793	-200.000	-0.005	0.064
-161.779	-42.229	-0.242	-0.124
-160.764	140.257	0.075	0.099
-159.750	-158.096	0.125	-0.007
-158.735	244.056	-0.112	0.188
-157.720	800.000	-0.069	0.279
-156.706	800.000	-0.132	0.383
-155.691	190.904	0.083	0.125
-154.677	800.000	-0.029	-0.125
-153.662	275.879	-0.112	0.199
-152.647	-31.569	-0.218	-0.123
-151.633	-22.250	0.199	0.121
-150.618	100.045	0.291	-0.337
-149.604	79.301	0.077	-0.083
-148.589	-9.832	-0.063	-0.042
-147.574	800.000	-0.086	0.289
-146.560	350.325	-0.101	-0.199
-145.545	107.564	-0.086	-0.103
-144.531	-200.000	-0.035	0.256
-143.516	-200.000	-0.022	0.406
-142.502	800.000	-0.031	0.104
-141.487	-122.492	-0.224	-0.036
-140.472	-61.419	-0.081	0.034
-139.458	-86.191	0.147	0.045
-138.443	378.991	0.086	0.176
-137.429	800.000	0.018	0.057
-136.414	-20.206	0.157	0.097
-135.399	-200.000	0.021	-0.196
-134.385	800.000	0.068	-0.262
-133.370	88.232	-0.207	-0.229
-132.356	13.463	-0.084	0.065
-131.341	-109.360	-0.271	0.057
-130.326	218.290	-0.129	-0.205
-129.312	121.361	-0.127	0.157
-128.297	19.181	0.213	0.171
-127.283	396.153	-0.119	-0.249
-126.268	126.026	-0.159	-0.201
-125.253	-181.579	0.393	-0.008
-124.239	-139.387	-0.149	-0.016
-123.224	-94.942	-0.105	0.028
-122.210	93.868	0.073	0.083
