DTS Sentinel unit serial number:	SN413079Multiplexer serial number:	ORYXHardware model number:	OX4-SRSoftware version number:	ORYX F/W v4.00 Oryx Data Collector v3.7.2.0data status	okinstallation	princeton_trtdifferential loss correction	single-endedforward channel	channel 1reverse channel	N/Adate	2019/09/13time	14:22:35forward acquisition time	60.00reverse acquisition time	0.00gamma	496.2192k internal	0.2303k external	0.2303temperature offset calibration	1.0162default loss term (dB/km)	0.3790temperature slope calibration	1.0000multiplexer offset coefficient	1.0000multiplexer slope coefficient	1.0000fibre end	0.00T internal ref (°C)	35.28T ext. ref 1 (°C)	4.61T ext. ref 2 (°C)	30.92length (m)	temperature (°C)	Stokes	anti-Stokes-747.200	-60.199	-0.121	0.053
-746.185	85.731	-0.219	0.245
-745.171	-116.356	0.207	0.039
-744.156	14.028	0.058	0.046
-743.142	-200.000	0.039	0.321
-742.127	-120.691	0.143	0.025
-741.112	31.356	0.038	0.033
-740.098	4.811	-0.379	-0.284
-739.083	-200.000	-0.006	0.049
-738.069	800.000	-0.045	0.129
-737.054	106.640	-0.132	-0.159
-736.039	322.253	0.019	-0.037
-735.025	-82.081	-0.303	-0.101
-734.010	-56.636	-0.342	0.154
-732.996	-200.000	-0.042	-0.189
-731.981	-200.000	0.011	-0.196
-730.966	800.000	0.087	-0.272
-729.952	-200.000	0.035	-0.353
-728.937	257.130	-0.031	0.054
-727.923	3.164	0.219	-0.162
-726.908	-155.379	-0.360	-0.024
-725.894	-200.000	0.004	0.139
-724.879	-35.079	-0.263	-0.146
-723.864	7.446	0.124	0.095
-722.850	-111.675	-0.246	0.051
-721.835	-77.530	-0.222	0.078
-720.821	-116.337	0.424	-0.080
-719.806	-116.770	0.486	0.091
-718.791	3.080	0.126	0.093
-717.777	-79.226	0.199	-0.069
-716.762	800.000	0.010	0.038
-715.748	-59.463	0.106	0.046
-714.733	-135.425	-0.185	-0.022
-713.718	117.785	-0.125	-0.157
-712.704	-90.248	0.164	-0.048
-711.689	-200.000	0.025	0.210
-710.675	736.001	0.114	-0.311
-709.660	429.467	-0.126	-0.276
-708.645	-105.553	0.124	-0.029
-707.631	-200.000	-0.003	0.132
-706.616	-18.778	0.232	-0.147
-705.602	-67.815	-0.373	0.148
-704.587	157.906	0.347	0.489
-703.572	-81.213	-0.066	-0.022
-702.558	68.665	0.096	0.100
-701.543	4.844	0.302	-0.226
-700.529	-200.000	-0.013	0.269
-699.514	56.978	0.048	-0.048
-698.499	224.287	-0.060	-0.099
-697.485	37.827	0.511	-0.462
-696.470	-22.321	-0.246	-0.152
-695.456	113.928	-0.192	-0.238
-694.441	-129.864	-0.207	0.029
-693.426	800.000	0.133	0.403
-692.412	800.000	-0.108	-0.413
-691.397	217.918	-0.149	-0.241
-690.383	189.868	0.048	0.074
-689.368	800.000	-0.027	0.083
-688.354	73.803	-0.087	0.093
-687.339	-78.094	0.214	-0.075
-686.324	185.597	-0.310	0.468
-685.310	81.145	0.174	-0.191
-684.295	-96.014	-0.159	0.043
-683.281	375.257	-0.151	0.314
-682.266	-200.000	0.053	0.243
-681.251	-145.606	-0.288	0.026
-680.237	-105.688	-0.103	-0.024
-679.222	-200.000	0.026	0.115
-678.208	-200.000	0.044	0.295
-677.193	76.132	-0.136	-0.146
-676.178	38.550	0.173	-0.157
-675.164	800.000	-0.051	-0.161
-674.149	-8.437	-0.229	0.156
-673.135	-200.000	-0.031	0.187
-672.120	78.355	0.102	-0.111
-671.105	-200.000	0.010	-0.204
-670.091	-146.110	-0.108	-0.010
-669.076	-125.329	-0.255	0.040
-668.062	-200.000	0.056	-0.437
-667.047	162.246	0.122	-0.174
-666.032	-165.902	-0.345	-0.015
-665.018	251.544	0.177	-0.306
-664.003	-123.978	0.170	-0.027
-662.989	-51.309	-0.202	-0.096
-661.974	-147.185	0.372	0.032
-660.959	-96.048	0.193	0.052
-659.945	800.000	0.164	0.505
-658.930	-200.000	-0.048	-0.240
-657.916	163.716	0.177	0.253
-656.901	-200.000	0.008	-0.181
-655.886	-200.000	-0.007	-0.176
-654.872	-200.000	0.042	-0.251
-653.857	-25.662	0.159	-0.095
-652.843	-56.271	-0.192	0.087
-651.828	-54.598	0.225	-0.103
-650.814	-76.057	0.096	-0.035
-649.799	-200.000	0.029	0.185
-648.784	15.949	0.233	0.186
-647.770	566.697	-0.090	-0.221
-646.755	-6.839	-0.086	-0.059
-645.741	-23.933	-0.328	0.199
-644.726	-55.009	-0.142	0.065
-643.711	191.602	0.169	-0.258
-642.697	-48.658	-0.358	0.174
-641.682	192.021	0.092	-0.140
-640.668	-200.000	-0.024	-0.287
-639.653	68.443	0.027	-0.028
-638.638	-26.907	0.260	-0.154
-637.624	-200.000	-0.012	-0.117
-636.609	27.344	0.106	-0.090
-635.595	168.094	-0.092	0.133
-634.580	-98.746	-0.065	-0.017
-633.565	34.298	-0.165	0.146
-632.551	79.740	-0.157	-0.171
-631.536	-200.000	0.002	0.043
-630.522	624.320	-0.050	0.127
-629.507	-87.630	-0.283	-0.087
-628.492	-43.715	-0.106	0.054
-627.478	32.209	-0.088	0.077
-626.463	110.457	0.061	-0.075
-625.449	-115.898	-0.083	0.016
-624.434	-200.000	0.016	0.262
-623.419	-49.431	0.343	-0.166
-622.405	800.000	0.037	0.108
-621.390	-200.000	0.023	-0.157
-620.376	-200.000	0.055	0.395
-619.361	-132.320	0.331	-0.043
-618.346	185.493	-0.196	-0.294
-617.332	-103.602	-0.168	0.040
-616.317	-85.234	-0.404	-0.128
-615.303	-200.000	-0.006	0.234
-614.288	-79.965	-0.180	0.061
-613.273	37.606	0.162	0.146
-612.259	64.473	0.138	0.141
-611.244	-200.000	-0.054	-0.260
-610.230	-33.476	-0.087	0.049
-609.215	-99.862	-0.080	0.020
-608.201	-169.965	0.184	0.007
-607.186	-80.806	0.330	0.111
-606.171	800.000	0.081	0.290
-605.157	94.478	-0.178	-0.204
-604.142	78.530	0.019	0.021
-603.128	25.777	-0.070	0.059
-602.113	800.000	0.119	-0.339
-601.098	-69.972	0.180	-0.069
-600.084	783.075	0.095	-0.265
-599.069	612.201	0.026	0.066
-598.055	333.704	-0.097	-0.191
-597.040	-122.474	0.257	0.042
-596.025	-27.130	0.111	0.066
-595.011	-200.000	0.029	0.169
-593.996	179.316	-0.075	0.111
-592.982	184.679	-0.076	0.114
-591.967	-95.172	-0.110	0.030
-590.952	-99.258	0.335	0.086
-589.938	519.098	0.084	-0.200
-588.923	-56.451	-0.156	0.070
-587.909	12.564	0.071	0.055
-586.894	800.000	-0.060	-0.235
-585.879	800.000	-0.030	0.103
-584.865	79.175	-0.142	-0.154
-583.850	-49.225	0.203	-0.098
-582.836	-41.460	-0.089	-0.046
-581.821	800.000	-0.034	-0.140
-580.806	107.937	-0.044	0.053
-579.792	-200.000	-0.000	-0.170
-578.777	264.447	-0.124	-0.218
-577.763	35.873	-0.077	0.069
-576.748	-200.000	0.013	-0.204
-575.733	71.335	-0.243	-0.256
-574.719	-103.648	-0.196	-0.046
-573.704	120.553	0.089	0.112
-572.690	158.754	-0.087	0.122
-571.675	-200.000	0.027	0.156
-570.661	259.942	0.310	-0.542
-569.646	-67.112	0.109	-0.043
-568.631	272.727	-0.204	0.365
-567.617	580.044	-0.051	0.126
-566.602	218.838	0.139	0.224
-565.588	800.000	0.059	-0.184
-564.573	-91.594	-0.220	-0.063
-563.558	-200.000	-0.017	0.158
-562.544	-41.332	0.263	0.137
-561.529	136.719	-0.095	-0.126
-560.515	-21.711	0.308	-0.190
-559.500	695.668	-0.010	-0.027
-558.485	-20.530	0.312	-0.194
-557.471	317.883	-0.256	-0.490
-556.456	4.917	0.143	-0.107
-555.442	-200.000	0.009	0.042
-554.427	800.000	0.081	-0.268
-553.412	-140.302	0.352	-0.037
-552.398	94.245	-0.022	-0.025
-551.383	161.588	-0.150	-0.213
-550.369	800.000	-0.020	-0.086
-549.354	15.055	0.208	-0.165
-548.339	800.000	-0.021	0.085
-547.325	-79.958	-0.164	-0.056
-546.310	114.494	0.122	-0.150
-545.296	-100.963	0.030	-0.007
-544.281	-200.000	-0.025	-0.356
-543.266	-135.038	-0.374	0.046
-542.252	-31.851	0.140	0.079
-541.237	276.556	-0.093	-0.168
-540.223	-200.000	0.032	-0.162
-539.208	-200.000	0.003	0.032
-538.193	74.791	-0.113	0.121
-537.179	29.957	-0.127	0.110
-536.164	800.000	-0.027	0.090
-535.150	-107.761	0.283	0.062
-534.135	52.317	-0.276	0.266
-533.121	-26.805	-0.506	0.299
-532.106	-148.413	-0.152	0.013
-531.091	474.706	-0.138	-0.315
-530.077	-91.959	0.204	0.058
-529.062	-78.615	0.101	0.035
-528.048	-63.436	0.041	-0.017
-527.033	53.492	0.047	-0.046
-526.018	19.481	0.187	0.152
-525.004	3.972	0.229	-0.169
-523.989	-70.730	0.292	-0.111
-522.975	-41.153	-0.187	-0.097
-521.960	-112.672	-0.429	0.086
-520.945	42.438	0.218	0.201
-519.931	226.678	0.162	0.266
-518.916	800.000	-0.097	-0.277
-517.902	253.219	-0.104	-0.179
-516.887	-200.000	-0.034	-0.176
-515.872	208.360	-0.050	0.079
-514.858	-200.000	-0.021	-0.289
-513.843	242.626	-0.127	0.215
-512.829	27.963	-0.150	-0.128
-511.814	92.935	0.216	0.246
-510.799	171.749	0.072	0.104
-509.785	-47.582	-0.311	0.153
-508.770	36.232	-0.246	0.219
-507.756	-59.647	0.265	0.115
-506.741	-200.000	-0.021	0.352
-505.726	-47.311	-0.128	-0.063
-504.712	263.627	0.247	0.433
-503.697	-122.843	-0.172	-0.028
-502.683	-131.371	0.354	0.047
-501.668	97.897	-0.123	0.143
-500.653	-112.901	0.363	0.073
-499.639	-8.140	-0.242	-0.165
-498.624	-9.566	-0.108	-0.073
-497.610	-15.119	-0.250	0.161
-496.595	270.114	0.160	-0.283
-495.581	800.000	-0.129	-0.372
-494.566	-91.476	-0.127	-0.037
-493.551	201.748	-0.022	0.034
-492.537	616.707	0.018	0.047
-491.522	800.000	-0.051	0.183
-490.508	335.258	0.119	-0.232
-489.493	-132.452	0.155	-0.020
-488.478	-200.000	-0.017	0.116
-487.464	-31.267	0.176	-0.100
-486.449	378.157	0.075	0.155
-485.435	329.320	-0.142	0.276
-484.420	-86.198	-0.199	-0.062
-483.405	800.000	-0.134	-0.591
-482.391	-66.666	-0.141	-0.056
-481.376	-79.449	-0.172	0.059
-480.362	471.545	0.158	0.358
-479.347	-63.859	-0.204	-0.084
-478.332	-151.931	-0.310	-0.023
-477.318	-20.573	0.343	-0.212
-476.303	-200.000	-0.002	0.014
-475.289	31.666	0.214	0.186
-474.274	-120.140	-0.202	0.035
-473.259	800.000	-0.065	-0.228
-472.245	-200.000	0.004	0.048
-471.230	-83.074	-0.093	0.030
-470.216	8.928	0.184	-0.140
-469.201	-86.514	-0.040	0.012
-468.186	73.186	0.171	0.180
-467.172	197.826	-0.145	-0.224
-466.157	-200.000	-0.025	0.228
-465.143	-98.312	0.060	-0.016
-464.128	-141.216	0.120	0.012
-463.113	-200.000	0.027	0.417
-462.099	-46.359	0.109	0.054
-461.084	200.670	0.062	-0.096
-460.070	-90.308	0.248	0.073
-459.055	256.073	0.219	0.378
-458.040	-101.505	0.184	-0.045
-457.026	-7.129	-0.265	-0.181
-456.011	800.000	-0.059	0.219
-454.997	-124.585	-0.028	-0.004
-453.982	223.721	0.079	-0.129
-452.968	-23.694	0.320	0.193
-451.953	246.319	0.088	0.150
-450.938	43.428	-0.160	-0.148
-449.924	-6.768	-0.091	0.062
-448.909	96.060	0.059	0.068
-447.895	-3.230	0.307	-0.215
-446.880	13.109	0.171	0.134
-445.865	-166.389	-0.315	0.013
-444.851	243.048	-0.105	-0.178
-443.836	-95.097	0.282	0.077
-442.822	42.147	0.133	-0.121
-441.807	-124.677	0.349	0.054
-440.792	-144.308	-0.164	0.015
-439.778	535.773	0.084	0.201
-438.763	-102.521	0.113	-0.027
-437.749	-109.179	-0.134	-0.029
-436.734	-29.735	-0.269	-0.154
-435.719	-198.430	-0.029	-0.000
-434.705	89.263	0.063	-0.070
-433.690	-200.000	-0.002	-0.122
-432.676	-137.791	-0.430	-0.049
-431.661	34.438	-0.086	0.075
-430.646	800.000	-0.083	-0.356
-429.632	248.459	-0.022	0.037
-428.617	30.298	-0.298	0.256
-427.603	-200.000	-0.030	-0.308
-426.588	-85.925	0.255	-0.079
-425.573	233.172	-0.126	0.208
-424.559	135.691	0.068	0.089
-423.544	284.744	0.159	-0.287
-422.530	-86.993	-0.107	-0.033
-421.515	-78.378	-0.053	-0.018
-420.500	-163.825	-0.130	-0.006
-419.486	-72.174	0.239	-0.089
-418.471	-1.328	-0.275	-0.196
-417.457	-26.008	0.181	-0.107
-416.442	-79.535	0.317	-0.108
-415.428	800.000	-0.052	0.207
-414.413	101.349	0.054	0.063
-413.398	51.389	-0.050	0.048
-412.384	-75.092	-0.224	0.081
-411.369	-200.000	0.044	0.342
-410.355	341.163	-0.127	0.249
-409.340	-12.479	0.134	0.088
-408.325	-29.587	0.151	-0.087
-407.311	157.170	-0.135	0.188
-406.296	800.000	0.031	0.116
-405.282	14.749	0.407	-0.320
-404.267	14.493	0.238	0.186
-403.252	-200.000	0.020	-0.101
-402.238	-46.932	0.105	-0.052
-401.223	-138.085	-0.046	0.005
-400.209	-32.335	-0.283	0.159
-399.194	55.240	-0.215	-0.209
-398.179	-54.256	0.162	-0.074
-397.165	800.000	-0.052	0.149
-396.150	-165.981	0.079	0.003
-395.136	219.466	-0.062	0.099
-394.121	683.868	0.075	-0.198
-393.106	518.686	-0.127	-0.299
-392.092	-47.251	-0.239	-0.117
-391.077	-39.980	0.056	-0.029
-390.063	800.000	-0.033	-0.138
-389.048	800.000	0.064	-0.212
-388.033	43.109	0.078	-0.071
-387.019	-18.807	0.114	0.071
-386.004	145.756	-0.075	0.101
-384.990	-200.000	0.071	-0.354
-383.975	-153.652	-0.217	-0.015
-382.960	468.579	-0.121	0.272
-381.946	-200.000	-0.020	-0.122
-380.931	-52.551	-0.152	-0.071
-379.917	-60.162	-0.171	-0.073
-378.902	-21.431	0.285	0.175
-377.888	-200.000	0.050	0.235
-376.873	-124.026	-0.424	0.067
-375.858	800.000	0.062	0.184
-374.844	137.900	-0.151	0.199
-373.829	-36.576	0.150	0.081
-372.815	-41.800	-0.144	-0.074
-371.800	-124.859	0.236	-0.037
-370.785	36.376	-0.193	0.171
-369.771	95.548	0.193	-0.221
-368.756	217.033	0.102	0.164
-367.742	-200.000	0.017	0.128
-366.727	-200.000	-0.027	-0.174
-365.712	268.940	0.069	-0.122
-364.698	87.149	-0.113	-0.125
-363.683	22.291	-0.165	-0.135
-362.669	-92.102	0.350	-0.099
-361.654	609.944	0.095	0.238
-360.639	-82.285	0.520	0.170
-359.625	-89.082	-0.217	0.064
-358.610	800.000	0.056	0.178
-357.596	22.183	0.249	-0.204
-356.581	7.204	0.246	-0.184
-355.566	-1.811	-0.114	-0.081
-354.552	-200.000	-0.039	0.342
-353.537	369.580	-0.116	0.236
-352.523	800.000	0.017	0.074
-351.508	130.729	-0.083	0.106
-350.493	-33.456	0.296	-0.164
-349.479	-52.422	0.242	0.112
-348.464	720.835	-0.038	0.101
-347.450	7.486	-0.091	-0.068
-346.435	-200.000	0.348	0.001
-345.420	-180.479	0.078	0.002
-344.406	-129.905	-0.259	0.036
-343.391	-120.245	0.085	0.015
-342.377	274.920	0.063	0.111
-341.362	-97.557	0.071	-0.018
-340.348	800.000	-0.089	-0.294
-339.333	671.957	0.093	0.242
-338.318	101.961	-0.051	0.060
-337.304	-200.000	-0.031	0.161
-336.289	506.157	0.171	-0.398
-335.275	49.592	0.169	-0.159
-334.260	-153.744	-0.177	-0.012
-333.245	214.940	-0.179	0.284
-332.231	-200.000	0.007	-0.097
-331.216	-6.339	-0.075	-0.051
-330.202	-120.775	-0.180	0.030
-329.187	12.148	-0.199	0.154
-328.172	-101.836	-0.081	0.020
-327.158	-46.273	0.114	0.056
-326.143	287.083	0.034	-0.061
-325.129	125.990	0.104	-0.132
-324.114	136.594	-0.125	0.164
-323.099	-43.907	0.424	0.214
-322.085	-105.068	-0.135	0.031
-321.070	-97.344	-0.122	0.032
-320.056	-28.403	-0.289	-0.167
-319.041	126.202	-0.020	0.026
-318.026	302.251	-0.146	0.270
-317.012	-200.000	0.021	-0.168
-315.997	-91.414	0.289	-0.083
-314.983	800.000	-0.063	0.200
-313.968	-17.247	0.241	0.152
-312.953	638.126	-0.033	0.085
-311.939	-200.000	-0.005	0.160
-310.924	-102.275	-0.323	0.078
-309.910	-200.000	-0.034	0.169
-308.895	-170.467	0.288	0.010
-307.880	292.404	-0.112	-0.205
-306.866	192.105	-0.106	-0.159
-305.851	-200.000	-0.019	0.205
-304.837	-8.331	-0.313	0.211
-303.822	-200.000	-0.005	-0.185
-302.807	493.191	-0.148	0.340
-301.793	140.407	-0.160	0.211
-300.778	-22.168	0.041	-0.025
-299.764	-61.033	-0.048	-0.020
-298.749	207.811	0.090	-0.141
-297.735	292.088	-0.092	-0.168
-296.720	800.000	-0.048	-0.192
-295.705	-200.000	0.004	-0.207
-294.691	800.000	0.108	0.377
-293.676	-133.617	0.191	0.024
-292.662	800.000	0.067	0.219
-291.647	-77.883	-0.444	-0.153
-290.632	84.004	-0.107	-0.117
-289.618	-140.136	-0.220	-0.023
-288.603	300.846	-0.015	-0.027
-287.589	195.225	0.210	-0.319
-286.574	-200.000	0.038	-0.344
-285.559	367.173	-0.113	-0.229
-284.545	-67.316	-0.217	-0.085
-283.530	-200.000	0.026	0.361
-282.516	-74.869	-0.252	-0.090
-281.501	800.000	-0.050	0.219
-280.486	-200.000	0.009	0.143
-279.472	-200.000	0.034	0.182
-278.457	78.109	-0.119	-0.127
-277.443	-63.153	-0.292	-0.120
-276.428	31.452	0.187	0.161
-275.413	-200.000	0.021	0.366
-274.399	120.963	0.162	0.201
-273.384	-165.083	-0.298	-0.013
-272.370	-200.000	0.013	-0.276
-271.355	-118.148	-0.154	-0.027
-270.340	-77.447	-0.367	-0.127
-269.326	-35.128	0.150	-0.081
-268.311	391.907	0.030	-0.062
-267.297	-200.000	-0.001	0.139
-266.282	800.000	0.048	0.192
-265.267	-150.972	0.158	-0.012
-264.253	46.057	-0.296	0.274
-263.238	444.124	0.133	0.291
-262.224	-32.213	0.317	0.177
-261.209	71.271	0.097	-0.100
-260.195	-200.000	-0.043	-0.208
-259.180	-150.928	-0.114	0.009
-258.165	-200.000	-0.022	0.170
-257.151	800.000	0.104	-0.395
-256.136	-78.465	0.377	-0.129
-255.122	-71.558	-0.062	-0.023
-254.107	-113.189	-0.139	0.027
-253.092	130.466	-0.093	0.119
-252.078	621.107	0.050	-0.127
-251.063	-112.053	-0.348	-0.070
-250.049	194.831	-0.103	-0.156
-249.034	800.000	0.096	0.322
-248.019	-40.759	-0.225	-0.116
-247.005	-155.022	0.213	-0.014
-245.990	46.101	0.069	0.064
-244.976	-200.000	-0.028	0.206
-243.961	19.054	0.241	-0.193
-242.946	-173.942	0.434	-0.013
-241.932	194.721	-0.147	-0.223
-240.917	158.719	0.080	0.112
-239.903	800.000	0.075	-0.211
-238.888	71.903	-0.122	0.127
-237.873	-127.199	0.274	0.040
-236.859	82.135	0.179	0.194
-235.844	-70.053	0.111	0.042
-234.830	780.779	0.096	-0.264
-233.815	-131.762	0.305	0.040
-232.800	-200.000	-0.016	0.191
-231.786	-175.804	0.284	-0.008
-230.771	58.155	-0.124	0.121
-229.757	-200.000	0.012	-0.191
-228.742	-45.269	-0.289	-0.143
-227.727	75.834	0.231	0.244
-226.713	-19.313	-0.240	-0.148
-225.698	257.980	0.132	-0.228
-224.684	-29.730	0.214	0.122
-223.669	-200.000	0.008	-0.099
-222.655	-87.735	0.131	0.039
-221.640	-115.918	0.202	-0.038
-220.625	79.611	-0.077	-0.083
-219.611	-156.187	0.194	-0.012
-218.596	321.201	0.107	0.204
-217.582	108.803	0.082	0.097
-216.567	-200.000	0.022	-0.144
-215.552	-158.585	-0.343	0.020
-214.538	523.572	-0.135	-0.318
-213.523	-200.000	0.028	0.454
-212.509	-149.960	0.261	0.020
-211.494	55.430	0.097	-0.094
-210.479	675.589	-0.105	-0.271
-209.465	96.911	0.118	-0.135
-208.450	-200.000	0.015	0.365
-207.436	800.000	-0.081	0.278
-206.421	40.414	-0.191	0.171
-205.406	800.000	0.116	0.343
-204.392	152.412	-0.173	0.236
-203.377	-22.205	-0.354	-0.214
-202.363	13.631	0.110	-0.085
-201.348	-22.764	-0.146	-0.088
-200.333	-7.213	0.225	-0.152
-199.319	224.421	0.116	0.188
-198.304	800.000	-0.022	0.075
-197.290	-65.810	0.394	-0.157
-196.275	800.000	0.055	-0.166
-195.260	194.972	0.043	-0.066
-194.246	-65.698	0.395	0.158
-193.231	-70.312	-0.192	0.073
-192.217	4.302	-0.205	-0.150
-191.202	-54.632	-0.213	-0.096
-190.187	800.000	0.022	0.087
-189.173	155.912	-0.044	-0.061
-188.158	718.408	0.086	0.227
-187.144	-80.459	-0.278	0.092
-186.129	84.199	0.153	0.166
-185.114	19.868	0.055	-0.044
-184.100	214.140	-0.208	-0.328
-183.085	326.321	-0.145	-0.276
-182.071	-199.119	-0.142	-0.001
-181.056	-106.611	-0.209	0.046
-180.042	1.088	-0.107	0.077
-179.027	800.000	-0.073	0.282
-178.012	-200.000	-0.043	0.339
-176.998	350.449	0.081	-0.160
-175.983	-86.907	-0.308	-0.094
-174.969	-200.000	0.020	0.297
-173.954	800.000	-0.098	-0.410
-172.939	-24.633	0.157	-0.093
-171.925	-200.000	0.115	0.000
-170.910	-200.000	-0.035	-0.252
-169.896	-65.782	0.110	0.044
-168.881	-156.324	-0.424	-0.026
-167.866	-200.000	0.009	0.056
-166.852	800.000	-0.038	0.114
-165.837	-200.000	0.018	0.186
-164.823	-74.886	-0.078	0.028
-163.808	-6.050	0.128	-0.087
-162.793	58.100	-0.184	0.179
-161.779	19.872	-0.311	-0.249
-160.764	-105.061	0.404	0.092
-159.750	-38.172	-0.295	-0.156
-158.735	-170.129	0.172	0.006
-157.720	800.000	0.062	-0.245
-156.706	52.640	-0.106	-0.101
-155.691	-52.629	0.144	0.066
-154.677	-200.000	-0.012	0.053
-153.662	800.000	0.122	-0.412
-152.647	-129.667	0.377	-0.052
-151.633	68.047	0.262	0.267
-150.618	48.205	0.129	0.120
-149.604	596.575	0.027	-0.067
-148.589	17.528	-0.165	-0.131
-147.574	-169.339	-0.082	-0.003
-146.560	140.814	0.223	-0.294
-145.545	166.029	0.228	-0.321
-144.531	-84.231	0.276	-0.087
-143.516	273.198	0.173	-0.304
-142.502	83.379	-0.243	0.264
-141.487	-200.000	0.011	0.110
-140.472	-88.874	0.298	0.088
-139.458	151.309	0.070	0.095
-138.443	74.036	0.068	0.071
-137.429	233.964	-0.048	-0.079
-136.414	-110.122	-0.070	0.015
-135.399	-30.202	-0.170	-0.096
-134.385	10.332	-0.190	0.143
-133.370	-5.129	0.240	-0.164
-132.356	-52.515	0.245	0.113
-131.341	-94.837	-0.160	-0.043
-130.326	-78.753	0.155	0.053
-129.312	129.643	0.111	-0.141
-128.297	800.000	0.127	0.369
-127.283	-100.766	-0.333	0.082
-126.268	-81.279	0.259	-0.085
-125.253	163.108	-0.117	-0.164
-124.239	-119.985	0.071	0.012
-123.224	-200.000	-0.009	0.073
-122.210	-17.501	0.207	-0.130
-121.195	208.166	0.002	-0.003
