DTS Sentinel unit serial number:	SN413079Multiplexer serial number:	ORYXHardware model number:	OX4-SRSoftware version number:	ORYX F/W v4.00 Oryx Data Collector v3.7.2.0data status	okinstallation	princeton_trtdifferential loss correction	single-endedforward channel	channel 1reverse channel	N/Adate	2019/09/15time	03:06:35forward acquisition time	60.00reverse acquisition time	0.00gamma	496.2192k internal	0.2324k external	0.2324temperature offset calibration	0.9989default loss term (dB/km)	0.3790temperature slope calibration	1.0000multiplexer offset coefficient	1.0000multiplexer slope coefficient	1.0000fibre end	0.00T internal ref (°C)	31.17T ext. ref 1 (°C)	4.59T ext. ref 2 (°C)	25.77length (m)	temperature (°C)	Stokes	anti-Stokes-747.200	-200.000	0.044	0.205
-746.185	101.736	0.175	0.206
-745.171	-178.196	0.193	-0.005
-744.156	179.103	-0.226	0.334
-743.142	-28.428	-0.306	0.178
-742.127	-39.316	-0.141	0.075
-741.112	156.147	-0.123	-0.171
-740.098	114.045	-0.098	0.121
-739.083	64.412	-0.033	-0.034
-738.069	800.000	-0.067	-0.233
-737.054	219.402	0.222	-0.359
-736.039	-125.657	-0.383	-0.059
-735.025	467.994	0.060	0.137
-734.010	-50.162	-0.459	-0.219
-732.996	162.433	-0.158	-0.224
-731.981	739.997	0.124	0.336
-730.966	36.816	0.078	0.070
-729.952	367.685	-0.050	-0.103
-728.937	61.838	0.059	-0.059
-727.923	-68.163	0.179	0.070
-726.908	358.050	0.089	0.179
-725.894	420.452	-0.061	0.133
-724.879	360.354	0.077	-0.155
-723.864	314.340	0.065	0.123
-722.850	-95.751	0.155	-0.042
-721.835	-49.206	-0.061	-0.030
-720.821	154.551	-0.244	0.338
-719.806	372.944	0.119	-0.245
-718.791	-140.212	-0.292	-0.031
-717.777	21.439	-0.196	0.160
-716.762	-164.533	-0.273	0.012
-715.748	-95.611	0.494	-0.133
-714.733	800.000	-0.084	0.247
-713.718	-97.785	0.208	-0.054
-712.704	112.085	0.144	0.175
-711.689	-82.475	-0.086	0.028
-710.675	800.000	-0.080	-0.267
-709.660	-99.665	0.059	0.015
-708.645	47.938	-0.084	0.079
-707.631	-21.174	-0.163	0.101
-706.616	-53.901	-0.059	-0.027
-705.602	-78.412	0.186	0.064
-704.587	800.000	-0.045	-0.140
-703.572	800.000	-0.100	0.400
-702.558	69.052	-0.116	0.120
-701.543	-200.000	0.038	-0.301
-700.529	-200.000	0.029	-0.141
-699.514	-194.619	-0.152	-0.001
-698.499	279.018	-0.165	-0.296
-697.485	1.489	0.161	0.117
-696.470	50.932	0.063	-0.060
-695.456	292.828	0.092	0.169
-694.441	316.129	0.051	-0.098
-693.426	-200.000	0.002	0.213
-692.412	-34.396	-0.055	-0.030
-691.397	149.975	-0.158	-0.216
-690.383	-111.511	0.179	0.037
-689.368	-200.000	-0.009	0.118
-688.354	-65.231	0.168	0.068
-687.339	-118.987	0.136	0.024
-686.324	131.190	0.094	0.121
-685.310	-200.000	0.012	0.069
-684.295	198.737	0.059	-0.090
-683.281	-80.593	-0.351	0.118
-682.266	-33.670	0.229	-0.127
-681.251	154.031	-0.160	0.221
-680.237	-115.033	-0.405	-0.078
-679.222	415.855	-0.052	0.112
-678.208	-200.000	0.051	-0.252
-677.193	-144.149	-0.113	0.011
-676.178	334.873	-0.091	-0.178
-675.164	13.807	0.060	-0.047
-674.149	259.371	0.122	-0.212
-673.135	754.479	0.042	-0.116
-672.120	-26.158	-0.256	0.152
-671.105	135.858	0.189	-0.248
-670.091	-99.654	-0.341	-0.086
-669.076	800.000	-0.070	-0.264
-668.062	-2.972	0.131	-0.092
-667.047	-12.146	0.072	-0.048
-666.032	-200.000	-0.021	-0.126
-665.018	-200.000	-0.003	0.385
-664.003	156.707	-0.154	0.213
-662.989	-24.846	-0.216	0.129
-661.974	30.724	-0.181	-0.156
-660.959	800.000	0.035	-0.114
-659.945	-76.813	0.366	-0.129
-658.930	59.434	-0.282	-0.280
-657.916	-200.000	-0.007	-0.184
-656.901	-99.154	0.294	0.075
-655.886	-131.877	-0.172	0.023
-654.872	38.431	0.017	-0.015
-653.857	-48.029	0.053	0.026
-652.843	-200.000	0.188	0.001
-651.828	-102.589	0.226	-0.054
-650.814	-200.000	0.008	-0.102
-649.799	-200.000	-0.033	0.335
-648.784	-200.000	-0.011	-0.207
-647.770	10.729	0.146	-0.112
-646.755	-122.528	-0.110	-0.018
-645.741	128.327	0.190	-0.244
-644.726	800.000	0.009	-0.027
-643.711	-86.053	0.168	-0.052
-642.697	170.690	0.133	0.192
-641.682	-54.767	0.059	-0.027
-640.668	-186.358	0.288	-0.004
-639.653	306.779	-0.058	0.109
-638.638	193.840	-0.107	-0.162
-637.624	307.889	0.153	-0.288
-636.609	-94.039	-0.120	-0.033
-635.595	146.561	0.157	-0.212
-634.580	4.226	0.343	0.252
-633.565	-200.000	-0.034	-0.232
-632.551	6.268	-0.312	0.233
-631.536	24.528	0.370	0.308
-630.522	380.166	0.079	-0.164
-629.507	-200.000	0.009	0.219
-628.492	-138.514	-0.128	0.014
-627.478	-200.000	-0.021	-0.167
-626.463	-37.437	0.093	-0.050
-625.449	51.360	0.344	-0.328
-624.434	21.316	-0.213	0.174
-623.419	-85.550	-0.305	0.095
-622.405	800.000	-0.047	-0.190
-621.390	800.000	0.013	-0.042
-620.376	-20.941	0.358	0.220
-619.361	-49.592	-0.225	0.108
-618.346	800.000	0.046	-0.146
-617.332	-76.587	-0.125	-0.044
-616.317	-200.000	0.014	-0.159
-615.303	-147.426	-0.085	-0.007
-614.288	96.258	0.037	0.042
-613.273	-200.000	-0.030	-0.158
-612.259	268.551	0.119	0.210
-611.244	-75.394	-0.160	0.057
-610.230	-50.771	-0.190	0.090
-609.215	-90.969	-0.063	-0.018
-608.201	800.000	0.025	0.073
-607.186	-200.000	-0.035	-0.328
-606.171	800.000	-0.068	-0.232
-605.157	-138.306	0.218	0.024
-604.142	72.575	-0.113	0.118
-603.128	-87.858	-0.121	0.036
-602.113	-96.886	0.280	-0.074
-601.098	329.307	-0.062	-0.120
-600.084	-200.000	-0.016	0.101
-599.069	168.073	-0.174	0.249
-598.055	58.365	0.132	-0.130
-597.040	-200.000	-0.020	0.269
-596.025	96.468	-0.119	0.136
-595.011	26.971	0.063	0.053
-593.996	-200.000	0.020	0.225
-592.982	95.806	-0.231	-0.265
-591.967	-82.645	-0.345	-0.112
-590.952	800.000	-0.066	-0.205
-589.938	-13.397	0.305	-0.199
-588.923	-200.000	-0.006	-0.178
-587.909	412.777	0.182	-0.388
-586.894	239.302	0.109	0.181
-585.879	292.422	0.150	-0.275
-584.865	800.000	0.058	-0.195
-583.850	101.169	0.167	-0.195
-582.836	420.895	0.090	-0.194
-581.821	-14.607	-0.147	0.094
-580.806	23.436	0.124	0.103
-579.792	-42.792	-0.262	0.133
-578.777	-158.052	-0.305	0.018
-577.763	-182.879	-0.042	-0.001
-576.748	137.032	-0.059	0.078
-575.733	23.982	0.077	0.064
-574.719	348.781	-0.021	0.042
-573.704	273.906	0.086	0.153
-572.690	718.516	-0.062	0.165
-571.675	-82.426	-0.194	-0.063
-570.661	130.410	-0.156	-0.201
-569.646	-4.769	-0.194	-0.134
-568.631	-190.950	-0.171	0.002
-567.617	20.726	0.086	-0.070
-566.602	-134.215	0.282	0.035
-565.588	142.407	-0.173	0.231
-564.573	-131.736	-0.129	0.017
-563.558	-137.578	0.395	-0.045
-562.544	-200.000	0.026	0.203
-561.529	70.517	-0.341	0.353
-560.515	-15.579	-0.111	-0.071
-559.500	3.570	0.140	-0.102
-558.485	-44.305	-0.172	0.086
-557.471	-38.347	-0.295	0.157
-556.456	-200.000	0.016	0.274
-555.442	20.830	-0.196	-0.159
-554.427	40.550	0.044	0.040
-553.412	-62.177	0.093	-0.039
-552.398	-200.000	-0.010	-0.055
-551.383	229.988	-0.190	-0.311
-550.369	377.800	0.172	-0.353
-549.354	-200.000	-0.023	-0.108
-548.339	191.484	-0.038	-0.058
-547.325	112.048	-0.130	0.158
-546.310	15.446	-0.190	0.149
-545.296	-50.680	-0.134	-0.063
-544.281	-180.173	0.330	-0.007
-543.266	-139.766	0.300	0.032
-542.252	-200.000	-0.001	0.023
-541.237	-200.000	0.022	-0.189
-540.223	16.275	-0.132	0.104
-539.208	-200.000	0.024	-0.377
-538.193	16.675	-0.169	0.133
-537.179	365.080	-0.072	-0.145
-536.164	-26.376	0.238	0.140
-535.150	-194.889	-0.137	-0.001
-534.135	800.000	-0.011	-0.043
-533.121	-10.537	0.399	0.265
-532.106	-26.539	-0.117	-0.068
-531.091	44.951	-0.283	-0.261
-530.077	-200.000	-0.004	-0.132
-529.062	10.638	-0.274	-0.209
-528.048	-58.630	-0.219	-0.095
-527.033	38.575	0.281	0.251
-526.018	-1.044	0.033	0.023
-525.004	265.965	-0.088	0.154
-523.989	-82.520	0.099	-0.032
-522.975	-200.000	0.019	0.088
-521.960	238.257	0.019	-0.031
-520.945	-12.680	-0.187	0.122
-519.931	800.000	0.052	0.221
-518.916	165.134	0.185	-0.261
-517.902	292.637	-0.062	0.112
-516.887	739.393	-0.043	-0.116
-515.872	486.067	0.130	-0.296
-514.858	-120.251	0.099	0.017
-513.843	-32.486	-0.222	-0.124
-512.829	-200.000	-0.027	-0.197
-511.814	159.895	0.200	-0.279
-510.799	132.616	-0.191	-0.246
-509.785	-40.051	0.273	-0.142
-508.770	32.585	-0.371	0.321
-507.756	-157.040	0.283	0.017
-506.741	-114.118	0.180	0.035
-505.726	-92.969	-0.505	-0.141
-504.712	-53.690	0.429	-0.196
-503.697	-113.271	-0.201	0.040
-502.683	331.507	0.100	0.192
-501.668	800.000	0.111	0.447
-500.653	74.453	0.183	0.193
-499.639	315.607	0.108	0.203
-498.624	330.766	-0.101	0.196
-497.610	-200.000	-0.014	0.357
-496.595	-115.853	0.308	0.058
-495.581	-94.157	0.149	0.041
-494.566	161.310	0.112	0.157
-493.551	-49.231	-0.213	-0.102
-492.537	612.547	-0.134	0.335
-491.522	600.064	-0.029	0.071
-490.508	215.546	0.127	-0.202
-489.493	-200.000	-0.016	0.144
-488.478	-200.000	0.063	0.289
-487.464	35.650	0.133	0.116
-486.449	-200.000	0.052	-0.263
-485.435	2.720	-0.164	-0.119
-484.420	800.000	0.039	0.161
-483.405	-173.763	-0.026	0.001
-482.391	-5.950	0.324	-0.222
-481.376	-200.000	0.028	-0.211
-480.362	-200.000	-0.064	-0.365
-479.347	208.143	0.021	0.033
-478.332	-26.962	-0.053	-0.031
-477.318	329.615	-0.067	0.128
-476.303	285.732	-0.081	-0.146
-475.289	349.561	0.005	-0.010
-474.274	800.000	0.050	-0.162
-473.259	-200.000	0.016	0.143
-472.245	-146.716	0.098	-0.008
-471.230	-3.863	-0.142	0.099
-470.216	-64.799	0.442	-0.179
-469.201	7.141	-0.067	0.050
-468.186	572.517	-0.113	-0.275
-467.172	800.000	0.088	-0.329
-466.157	-141.384	-0.346	0.035
-465.143	73.823	-0.127	0.133
-464.128	13.142	-0.116	0.090
-463.113	572.791	-0.020	-0.048
-462.099	-166.237	0.214	0.009
-461.084	-200.000	0.077	0.475
-460.070	-200.000	-0.030	0.194
-459.055	34.125	-0.055	-0.048
-458.040	-26.986	0.246	-0.143
-457.026	541.473	0.056	-0.134
-456.011	-191.971	-0.125	-0.001
-454.997	-200.000	-0.021	-0.102
-453.982	27.053	-0.140	-0.117
-452.968	-200.000	-0.050	-0.291
-451.953	-200.000	-0.011	-0.055
-450.938	-70.344	0.032	0.012
-449.924	-200.000	0.003	-0.123
-448.909	-105.148	-0.432	-0.098
-447.895	800.000	-0.096	0.292
-446.880	124.286	-0.034	-0.042
-445.865	-116.225	-0.190	-0.035
-444.851	197.169	-0.151	0.230
-443.836	-200.000	-0.022	0.219
-442.822	5.449	-0.375	-0.276
-441.807	-200.000	0.014	-0.228
-440.792	-13.198	0.252	-0.164
-439.778	486.563	-0.100	0.229
-438.763	-200.000	-0.071	-0.404
-437.749	98.684	0.069	-0.080
-436.734	800.000	0.026	0.107
-435.719	800.000	-0.080	0.251
-434.705	-176.991	0.167	0.004
-433.690	-200.000	-0.019	0.108
-432.676	-200.000	0.012	0.297
-431.661	25.866	0.163	-0.135
-430.646	-98.766	0.188	-0.048
-429.632	468.356	0.061	0.137
-428.617	-84.732	0.201	-0.063
-427.603	-68.717	0.218	-0.084
-426.588	-120.042	-0.844	-0.144
-425.573	-200.000	-0.311	0.000
-424.559	-157.680	0.275	0.016
-423.544	275.275	0.162	0.287
-422.530	65.437	0.173	0.174
-421.515	-200.000	-0.014	0.178
-420.500	800.000	0.057	-0.244
-419.486	-200.000	-0.071	-0.336
-418.471	-200.000	0.054	-0.321
-417.457	-200.000	-0.062	-0.313
-416.442	63.296	-0.222	-0.221
-415.428	15.804	0.023	0.018
-414.413	800.000	0.048	-0.208
-413.398	23.756	-0.071	-0.059
-412.384	-41.686	0.249	0.127
-411.369	-39.636	0.353	0.184
-410.355	-200.000	0.006	-0.163
-409.340	800.000	0.046	-0.133
-408.325	679.446	0.022	0.057
-407.311	-89.172	-0.226	-0.067
-406.296	173.169	0.131	0.188
-405.282	87.414	0.135	0.149
-404.267	-200.000	-0.002	0.194
-403.252	-147.591	-0.150	0.013
-402.238	423.164	-0.112	-0.240
-401.223	-92.032	-0.412	-0.116
-400.209	274.701	0.163	-0.288
-399.194	-48.751	0.128	-0.061
-398.179	800.000	0.021	0.090
-397.165	742.900	0.146	0.392
-396.150	-200.000	0.002	0.173
-395.136	-200.000	-0.029	0.192
-394.121	762.397	0.083	-0.225
-393.106	-200.000	-0.009	0.190
-392.092	737.075	0.087	0.232
-391.077	15.439	0.369	-0.288
-390.063	800.000	0.096	0.303
-389.048	-184.514	-0.385	0.006
-388.033	800.000	-0.026	0.074
-387.019	252.637	0.107	-0.182
-386.004	-42.395	0.103	-0.052
-384.990	-200.000	-0.004	0.128
-383.975	-66.441	-0.018	-0.007
-382.960	632.405	0.086	-0.217
-381.946	190.201	-0.061	-0.091
-380.931	800.000	0.039	-0.126
-379.917	93.103	-0.127	0.143
-378.902	196.124	-0.126	-0.192
-377.888	-122.718	-0.293	0.047
-376.873	131.126	-0.051	-0.065
-375.858	-60.589	-0.114	0.048
-374.844	-50.243	-0.040	-0.019
-373.829	-155.926	-0.237	-0.015
-372.815	-171.313	0.258	0.009
-371.800	-141.860	-0.158	0.016
-370.785	189.083	-0.126	-0.188
-369.771	33.575	-0.191	-0.165
-368.756	-107.536	0.172	0.038
-367.742	-200.000	0.057	0.466
-366.727	45.950	-0.183	0.169
-365.712	-106.145	0.109	-0.024
-364.698	184.061	0.053	0.078
-363.683	-200.000	0.005	0.069
-362.669	8.810	-0.358	0.268
-361.654	-136.133	0.278	-0.032
-360.639	-42.829	0.348	0.176
-359.625	-56.866	0.099	-0.044
-358.610	-134.551	-0.094	-0.011
-357.596	-200.000	-0.032	0.285
-356.581	-200.000	0.007	0.190
-355.566	-120.769	0.304	-0.051
-354.552	244.906	0.101	0.169
-353.537	-20.636	0.090	0.055
-352.523	39.922	0.272	0.242
-351.508	-200.000	-0.053	-0.317
-350.493	-49.147	0.127	0.060
-349.479	64.084	-0.245	0.245
-348.464	-200.000	-0.159	0.000
-347.450	-108.883	0.372	0.079
-346.435	-112.062	-0.133	0.027
-345.420	-137.628	-0.167	-0.019
-344.406	800.000	-0.039	0.153
-343.391	-12.097	-0.182	-0.119
-342.377	524.777	-0.145	-0.340
-341.362	800.000	-0.021	0.066
-340.348	26.124	0.167	0.139
-339.333	457.629	0.120	0.264
-338.318	-30.222	-0.319	-0.180
-337.304	800.000	0.104	0.296
-336.289	-90.838	0.711	-0.203
-335.275	800.000	-0.060	0.221
-334.260	-16.347	-0.074	0.047
-333.245	-200.000	-0.032	0.212
-332.231	-67.890	-0.192	-0.075
-331.216	-31.583	0.269	-0.150
-330.202	-200.000	0.091	0.638
-329.187	-200.000	-0.006	-0.471
-328.172	3.812	-0.054	-0.039
-327.158	386.576	-0.048	-0.099
-326.143	326.683	0.015	0.029
-325.129	800.000	0.077	-0.291
-324.114	-51.857	0.080	-0.037
-323.099	-13.930	0.208	0.133
-322.085	-74.339	0.264	-0.095
-321.070	74.965	-0.181	-0.189
-320.056	234.446	-0.052	-0.084
-319.041	-95.704	-0.090	0.024
-318.026	447.985	-0.140	0.307
-317.012	774.492	0.037	0.099
-315.997	-200.000	0.017	-0.081
-314.983	-111.143	-0.110	-0.022
-313.968	-200.000	-0.001	-0.241
-312.953	800.000	0.026	0.082
-311.939	-200.000	0.031	-0.403
-310.924	-3.573	-0.099	0.069
-309.910	-142.774	-0.234	-0.023
-308.895	-51.733	0.332	0.153
-307.880	-105.617	-0.097	0.022
-306.866	-121.291	-0.084	0.014
-305.851	-29.388	-0.216	-0.123
-304.837	83.554	0.274	-0.297
-303.822	693.701	-0.016	-0.041
-302.807	-106.081	0.276	0.062
-301.793	800.000	0.029	0.108
-300.778	-200.000	0.041	0.188
-299.764	-77.861	0.085	0.029
-298.749	112.799	0.175	0.211
-297.735	101.036	-0.099	0.114
-296.720	-190.757	0.281	-0.003
-295.705	24.800	-0.210	-0.173
-294.691	-52.220	0.272	0.125
-293.676	635.316	0.089	0.224
-292.662	-129.742	-0.175	-0.024
-291.647	557.477	0.102	0.244
-290.632	800.000	-0.043	0.141
-289.618	-89.873	0.274	0.079
-288.603	-15.222	-0.162	0.103
-287.589	-12.536	0.315	-0.204
-286.574	-15.150	-0.090	-0.057
-285.559	-200.000	0.031	0.187
-284.545	214.748	-0.089	-0.140
-283.530	-122.915	-0.132	0.021
-282.516	6.343	0.083	0.061
-281.501	-33.973	0.097	-0.053
-280.486	-27.613	-0.259	-0.149
-279.472	8.767	-0.116	-0.087
-278.457	104.293	0.081	0.094
-277.443	2.987	0.119	0.086
-276.428	-90.748	-0.168	-0.048
-275.413	-29.181	-0.363	0.206
-274.399	-76.083	-0.379	0.133
-273.384	-16.084	0.089	-0.056
-272.370	-154.941	0.159	-0.010
-271.355	-29.284	-0.237	0.135
-270.340	-81.733	0.055	-0.018
-269.326	145.130	0.198	-0.262
-268.311	-184.633	-0.029	0.000
-267.297	254.644	-0.094	-0.159
-266.282	6.154	0.128	-0.094
-265.267	759.449	-0.062	0.168
-264.253	58.991	0.278	0.271
-263.238	-102.689	0.004	-0.001
-262.224	195.046	0.155	0.233
-261.209	800.000	-0.035	0.118
-260.195	-82.713	-0.168	-0.054
-259.180	-123.849	0.085	0.013
-258.165	-107.248	0.227	0.049
-257.151	-200.000	-0.060	-0.301
-256.136	261.057	0.144	0.247
-255.122	-200.000	-0.012	0.146
-254.107	223.108	-0.052	0.084
-253.092	-114.316	0.270	-0.051
-252.078	2.453	0.145	-0.104
-251.063	-134.386	-0.277	-0.034
-250.049	-200.000	0.016	-0.428
-249.034	-98.788	-0.139	0.035
-248.019	-200.000	-0.049	0.222
-247.005	-76.783	-0.379	0.131
-245.990	186.415	-0.080	-0.118
-244.976	364.729	0.139	0.276
-243.961	53.832	-0.240	-0.228
-242.946	-37.825	0.258	-0.136
-241.932	640.122	-0.157	-0.395
-240.917	136.361	-0.112	0.145
-239.903	-68.249	0.224	0.086
-238.888	-10.164	0.317	-0.208
-237.873	-141.043	-0.107	-0.011
-236.859	-87.231	-0.235	0.071
-235.844	-200.000	-0.018	-0.220
-234.830	-15.129	-0.050	0.032
-233.815	68.230	0.290	0.294
-232.800	91.192	-0.207	0.229
-231.786	-108.887	0.195	0.041
-230.771	166.239	0.131	0.184
-229.757	-115.306	0.064	0.012
-228.742	-200.000	0.008	-0.084
-227.727	-200.000	0.025	-0.137
-226.713	51.195	0.262	0.246
-225.698	76.861	0.185	0.194
-224.684	107.634	0.025	0.030
-223.669	-138.941	-0.207	-0.022
-222.655	-11.461	0.073	-0.047
-221.640	340.805	0.131	0.254
-220.625	-110.070	-0.205	0.042
-219.611	-190.891	0.087	0.001
-218.596	-115.684	0.240	-0.044
-217.582	71.684	0.076	0.078
-216.567	2.214	-0.074	0.053
-215.552	-87.855	-0.117	-0.035
-214.538	249.256	0.120	0.201
-213.523	502.632	-0.117	-0.266
-212.509	800.000	0.065	-0.187
-211.494	549.017	0.139	0.328
-210.479	-134.599	0.210	-0.025
-209.465	203.230	-0.221	0.338
-208.450	-130.432	0.122	0.016
-207.436	-88.101	0.144	-0.043
-206.421	62.840	-0.152	0.150
-205.406	7.810	-0.093	-0.069
-204.392	800.000	0.057	-0.203
-203.377	-97.226	-0.216	-0.056
-202.363	23.905	-0.154	0.126
-201.348	-200.000	0.001	-0.006
-200.333	101.792	0.209	-0.241
-199.319	5.315	-0.022	0.016
-198.304	-200.000	-0.023	0.293
-197.290	-154.461	-0.315	0.021
-196.275	-200.000	-0.001	-0.101
-195.260	-40.962	0.171	-0.087
-194.246	90.058	0.147	0.162
-193.231	-28.555	0.126	0.072
-192.217	-197.960	-0.174	0.001
-191.202	-200.000	-0.033	-0.202
-190.187	-200.000	-0.036	-0.253
-189.173	470.522	-0.050	-0.112
-188.158	41.182	0.155	0.138
-187.144	-165.467	0.321	0.014
-186.129	98.122	-0.174	-0.198
-185.114	-183.056	0.314	0.006
-184.100	-111.867	-0.371	0.074
-183.085	-200.000	0.019	0.262
-182.071	87.519	0.130	-0.142
-181.056	-80.764	-0.222	-0.073
-180.042	-182.218	-0.297	0.005
-179.027	53.065	0.315	-0.297
-178.012	129.340	-0.142	-0.180
-176.998	-125.697	-0.316	0.047
-175.983	42.795	-0.061	0.055
-174.969	-87.693	0.231	-0.069
-173.954	-91.384	-0.233	-0.066
-172.939	-37.399	-0.030	0.016
-171.925	1.252	0.223	0.158
-170.910	-77.720	-0.289	0.099
-169.896	800.000	-0.044	0.150
-168.881	58.376	-0.169	-0.163
-167.866	-136.293	0.192	0.022
-166.852	33.283	-0.374	-0.320
-165.837	572.961	-0.007	-0.018
-164.823	374.484	-0.136	0.273
-163.808	-42.735	0.251	-0.126
-162.793	-194.163	-0.554	0.004
-161.779	-98.827	-0.400	-0.100
-160.764	-26.821	0.099	-0.057
-159.750	41.578	-0.173	0.155
-158.735	329.698	0.212	0.403
-157.720	399.350	-0.022	-0.045
-156.706	64.471	-0.158	-0.157
-155.691	-100.281	0.232	0.057
-154.677	-27.270	0.085	0.049
-153.662	43.329	-0.099	-0.089
-152.647	-1.243	0.274	-0.191
-151.633	367.553	-0.172	-0.343
-150.618	-200.000	0.032	-0.223
-149.604	-200.000	-0.102	-0.534
-148.589	-50.198	-0.257	-0.120
-147.574	189.116	0.050	-0.074
-146.560	800.000	0.074	-0.251
-145.545	-200.000	-0.012	0.297
-144.531	111.295	0.150	-0.178
-143.516	-177.084	0.349	0.009
-142.502	98.779	-0.165	-0.187
-141.487	-163.523	-0.432	0.020
-140.472	31.368	-0.193	0.163
-139.458	-21.999	0.147	-0.088
-138.443	-200.000	0.019	-0.449
-137.429	-27.284	0.339	-0.194
-136.414	142.781	-0.153	0.201
-135.399	76.776	-0.132	-0.138
-134.385	-59.351	-0.356	-0.151
-133.370	-71.820	0.107	-0.039
-132.356	77.958	0.231	0.243
-131.341	-15.507	0.190	-0.120
-130.326	-29.367	0.018	-0.010
-129.312	15.071	-0.124	-0.096
-128.297	-126.297	0.199	-0.029
-127.283	-200.000	-0.008	-0.321
-126.268	800.000	0.093	-0.290
-125.253	99.902	0.037	0.042
-124.239	-200.000	0.014	0.157
-123.224	293.755	0.055	0.098
-122.210	332.553	-0.034	0.064
-121.195	-89.066	0.299	-0.087
