DTS Sentinel unit serial number:	SN413079Multiplexer serial number:	ORYXHardware model number:	OX4-SRSoftware version number:	ORYX F/W v4.00 Oryx Data Collector v3.7.2.0data status	okinstallation	princeton_trtdifferential loss correction	single-endedforward channel	channel 1reverse channel	N/Adate	2019/09/18time	00:58:35forward acquisition time	60.00reverse acquisition time	0.00gamma	496.2192k internal	0.2341k external	0.2341temperature offset calibration	0.9978default loss term (dB/km)	0.3790temperature slope calibration	1.0000multiplexer offset coefficient	1.0000multiplexer slope coefficient	1.0000fibre end	0.00T internal ref (°C)	23.31T ext. ref 1 (°C)	0.16T ext. ref 2 (°C)	16.98length (m)	temperature (°C)	Stokes	anti-Stokes-747.200	207.655	0.134	0.210
-746.185	72.164	0.226	0.236
-745.171	-200.000	0.023	0.184
-744.156	-200.000	0.103	0.492
-743.142	327.258	0.107	0.205
-742.127	-86.830	0.193	0.059
-741.112	-200.000	-0.030	0.155
-740.098	36.233	-0.087	-0.077
-739.083	-40.151	-0.098	-0.051
-738.069	102.888	-0.192	0.226
-737.054	-43.704	-0.210	-0.106
-736.039	-200.000	0.011	-0.201
-735.025	-116.554	0.272	0.050
-734.010	143.511	-0.267	-0.356
-732.996	-4.081	-0.282	-0.196
-731.981	-53.561	0.250	0.115
-730.966	176.974	0.110	-0.160
-729.952	90.291	-0.136	-0.153
-728.937	237.889	0.060	0.100
-727.923	800.000	0.043	-0.120
-726.908	446.039	0.053	0.116
-725.894	194.751	-0.166	0.253
-724.879	177.741	-0.094	-0.137
-723.864	-39.630	-0.258	0.135
-722.850	-78.125	0.231	0.080
-721.835	-76.380	0.107	-0.038
-720.821	-200.000	-0.013	0.062
-719.806	222.837	0.098	0.158
-718.791	194.500	-0.176	0.268
-717.777	-89.632	0.261	0.077
-716.762	134.350	0.078	0.102
-715.748	-11.300	0.154	0.101
-714.733	-0.927	-0.034	-0.024
-713.718	-127.573	-0.072	-0.010
-712.704	18.654	-0.124	-0.099
-711.689	-179.385	-0.159	-0.004
-710.675	-113.978	0.169	-0.033
-709.660	263.648	-0.113	0.197
-708.645	109.174	0.037	-0.044
-707.631	18.335	0.182	-0.145
-706.616	279.425	-0.181	-0.323
-705.602	22.194	-0.079	0.065
-704.587	365.620	-0.051	-0.102
-703.572	701.287	-0.044	0.115
-702.558	-34.790	0.298	-0.163
-701.543	537.646	0.118	-0.281
-700.529	-106.266	0.270	-0.061
-699.514	-143.557	-0.045	-0.004
-698.499	447.124	0.011	-0.024
-697.485	-26.061	0.590	-0.347
-696.470	-200.000	0.051	-0.256
-695.456	430.868	0.075	0.162
-694.441	106.576	-0.138	0.164
-693.426	-200.000	0.004	-0.233
-692.412	-46.180	-0.213	-0.105
-691.397	-85.151	0.256	-0.080
-690.383	14.329	0.195	0.152
-689.368	-92.573	-0.323	0.091
-688.354	-162.210	-0.433	0.022
-687.339	800.000	-0.007	-0.022
-686.324	71.095	0.046	0.047
-685.310	170.073	0.099	0.141
-684.295	-200.000	-0.002	0.305
-683.281	526.245	0.089	-0.209
-682.266	-176.398	-0.429	0.011
-681.251	-200.000	-0.018	0.096
-680.237	99.362	0.268	0.309
-679.222	-200.000	-0.029	-0.227
-678.208	-100.303	0.187	-0.046
-677.193	173.218	-0.063	-0.090
-676.178	-93.937	-0.107	-0.029
-675.164	-106.342	0.073	0.016
-674.149	276.290	-0.165	-0.293
-673.135	800.000	0.054	0.189
-672.120	-110.733	0.201	-0.041
-671.105	-89.557	0.118	-0.035
-670.091	-160.750	-0.157	-0.008
-669.076	-108.598	-0.345	0.074
-668.062	-95.912	0.240	-0.064
-667.047	-142.021	-0.199	0.020
-666.032	61.177	-0.197	-0.196
-665.018	222.773	0.038	0.061
-664.003	-150.954	-0.374	-0.028
-662.989	-150.208	0.412	0.032
-661.974	-17.661	-0.290	0.182
-660.959	55.665	0.113	0.110
-659.945	-200.000	-0.031	0.440
-658.930	339.886	0.061	-0.118
-657.916	-87.559	0.179	-0.054
-656.901	564.575	-0.050	-0.121
-655.886	-200.000	0.000	0.022
-654.872	196.775	-0.182	-0.277
-653.857	-33.954	0.181	0.100
-652.843	-200.000	0.067	-0.311
-651.828	-200.000	0.003	0.042
-650.814	-200.000	0.016	0.133
-649.799	-9.308	-0.331	-0.221
-648.784	163.020	0.189	0.265
-647.770	-122.854	-0.442	0.071
-646.755	-114.672	-0.180	0.034
-645.741	-129.822	-0.369	0.051
-644.726	150.975	0.060	-0.081
-643.711	-107.425	0.195	0.043
-642.697	-111.717	-0.136	-0.028
-641.682	33.138	0.103	0.090
-640.668	11.241	-0.011	0.009
-639.653	76.994	-0.257	-0.272
-638.638	125.160	-0.112	-0.141
-637.624	-150.321	0.214	0.016
-636.609	-60.955	-0.237	-0.100
-635.595	225.857	-0.035	0.056
-634.580	-200.000	0.044	-0.497
-633.565	247.048	-0.196	-0.331
-632.551	60.920	-0.196	-0.194
-631.536	-200.000	-0.007	-0.360
-630.522	-200.000	-0.004	0.390
-629.507	353.603	-0.111	0.220
-628.492	288.385	-0.083	-0.150
-627.478	638.643	-0.107	0.271
-626.463	-200.000	0.021	0.403
-625.449	-27.917	0.249	-0.144
-624.434	-200.000	-0.001	0.273
-623.419	9.171	-0.227	-0.171
-622.405	650.345	-0.185	0.473
-621.390	800.000	0.024	-0.078
-620.376	574.554	0.088	-0.213
-619.361	-200.000	-0.020	0.117
-618.346	87.531	-0.081	-0.089
-617.332	523.200	0.147	-0.345
-616.317	-65.544	-0.261	-0.104
-615.303	133.148	-0.142	0.182
-614.288	141.373	-0.099	0.130
-613.273	7.571	0.089	-0.067
-612.259	-200.000	0.024	-0.190
-611.244	154.193	0.094	-0.128
-610.230	196.661	-0.121	-0.185
-609.215	-135.416	-0.207	0.025
-608.201	51.650	0.118	-0.111
-607.186	369.867	-0.115	-0.232
-606.171	-4.245	-0.030	0.020
-605.157	126.280	0.226	0.285
-604.142	745.718	0.090	0.242
-603.128	468.298	-0.169	0.377
-602.113	-1.190	0.333	0.235
-601.098	219.436	-0.084	0.134
-600.084	-200.000	0.034	-0.161
-599.069	-36.473	-0.197	-0.106
-598.055	-176.396	-0.056	-0.001
-597.040	800.000	-0.097	-0.348
-596.025	414.486	0.088	0.188
-595.011	-129.937	0.159	-0.022
-593.996	-58.029	0.134	-0.058
-592.982	-133.072	-0.199	0.025
-591.967	-35.003	-0.358	0.194
-590.952	119.466	0.135	0.167
-589.938	-200.000	-0.027	-0.226
-588.923	-46.240	-0.298	-0.146
-587.909	-29.876	0.078	-0.045
-586.894	-146.394	0.283	-0.025
-585.879	179.392	-0.064	0.093
-584.865	35.093	-0.118	-0.103
-583.850	-200.000	-0.046	-0.213
-582.836	207.590	0.116	0.180
-581.821	19.129	-0.100	-0.080
-580.806	-180.888	0.325	-0.007
-579.792	-122.850	-0.210	-0.034
-578.777	51.301	0.080	-0.076
-577.763	-83.284	-0.203	-0.065
-576.748	-200.000	0.000	-0.156
-575.733	-200.000	0.038	0.176
-574.719	75.273	-0.118	0.124
-573.704	-72.330	-0.402	-0.148
-572.690	800.000	-0.044	-0.188
-571.675	643.417	0.056	-0.141
-570.661	165.703	-0.132	0.186
-569.646	-36.012	0.192	-0.103
-568.631	-1.230	-0.187	-0.131
-567.617	-129.645	0.234	0.032
-566.602	-200.000	0.013	-0.238
-565.588	-200.000	-0.006	-0.170
-564.573	800.000	0.064	0.277
-563.558	361.917	0.058	0.116
-562.544	-34.886	0.078	-0.042
-561.529	-200.000	0.038	-0.196
-560.515	-107.708	0.475	0.103
-559.500	60.333	-0.118	-0.116
-558.485	-55.854	-0.155	-0.069
-557.471	800.000	0.162	-0.467
-556.456	-200.000	0.011	-0.102
-555.442	-46.844	-0.048	-0.023
-554.427	578.350	-0.135	0.328
-553.412	367.395	0.077	0.154
-552.398	145.572	-0.102	-0.136
-551.383	-168.731	0.139	0.005
-550.369	-66.864	-0.025	0.010
-549.354	-200.000	0.057	-0.401
-548.339	-200.000	0.029	-0.300
-547.325	246.197	-0.089	0.150
-546.310	-150.731	0.234	-0.018
-545.296	800.000	-0.055	-0.193
-544.281	-54.659	0.235	-0.106
-543.266	-20.324	-0.097	-0.059
-542.252	352.495	-0.038	-0.076
-541.237	417.592	0.110	-0.234
-540.223	-16.758	-0.221	0.139
-539.208	800.000	0.061	-0.260
-538.193	-95.337	-0.111	-0.030
-537.179	-126.978	-0.225	-0.033
-536.164	152.877	0.015	0.021
-535.150	307.905	0.019	-0.034
-534.135	-85.734	-0.358	0.110
-533.121	-43.570	0.167	-0.084
-532.106	137.533	0.188	-0.245
-531.091	-78.571	-0.090	-0.031
-530.077	-108.238	0.378	0.081
-529.062	-9.883	-0.064	0.043
-528.048	521.330	-0.111	0.258
-527.033	224.004	-0.059	0.094
-526.018	628.799	-0.075	0.188
-525.004	32.433	0.231	-0.198
-523.989	-21.828	0.320	0.193
-522.975	23.913	-0.117	0.096
-521.960	800.000	0.077	0.276
-520.945	21.673	-0.151	0.122
-519.931	-32.218	0.063	-0.035
-518.916	465.668	-0.127	-0.283
-517.902	-118.383	0.497	-0.088
-516.887	800.000	0.048	0.197
-515.872	-121.078	0.232	0.039
-514.858	84.003	0.056	-0.060
-513.843	-42.707	-0.440	-0.222
-512.829	800.000	-0.056	0.162
-511.814	-147.050	0.159	-0.014
-510.799	-70.812	0.264	0.099
-509.785	-91.970	-0.186	0.052
-508.770	-41.234	-0.071	0.037
-507.756	17.703	0.326	0.257
-506.741	800.000	0.036	0.129
-505.726	-200.000	0.016	0.137
-504.712	779.284	0.028	-0.077
-503.697	800.000	0.058	-0.208
-502.683	234.078	0.168	0.275
-501.668	33.865	0.041	0.036
-500.653	-44.804	0.260	0.129
-499.639	-127.268	-0.247	-0.036
-498.624	449.065	-0.049	-0.107
-497.610	137.105	-0.098	-0.127
-496.595	800.000	0.080	-0.304
-495.581	-88.059	-0.114	0.034
-494.566	-200.000	0.051	-0.305
-493.551	-4.023	0.217	0.150
-492.537	59.235	-0.171	-0.167
-491.522	381.659	-0.061	-0.124
-490.508	42.124	-0.200	0.181
-489.493	125.587	-0.036	0.045
-488.478	-200.000	-0.063	0.451
-487.464	-200.000	-0.052	-0.253
-486.449	-61.910	-0.080	-0.033
-485.435	-200.000	0.023	0.162
-484.420	-26.551	-0.100	-0.058
-483.405	227.530	-0.100	0.161
-482.391	-98.929	-0.225	0.057
-481.376	633.032	0.100	0.253
-480.362	-10.451	0.136	0.090
-479.347	622.063	0.117	-0.292
-478.332	-6.950	0.183	-0.123
-477.318	-117.697	0.313	0.056
-476.303	-119.463	0.133	-0.023
-475.289	-163.378	0.191	0.009
-474.274	-78.871	-0.197	-0.067
-473.259	-200.000	0.020	-0.093
-472.245	351.219	-0.049	-0.096
-471.230	372.487	0.212	0.427
-470.216	800.000	-0.016	-0.066
-469.201	-1.773	-0.107	-0.075
-468.186	-109.307	-0.215	0.045
-467.172	402.416	-0.180	-0.375
-466.157	-71.746	0.133	0.049
-465.143	-200.000	-0.050	0.315
-464.128	-127.425	-0.344	-0.050
-463.113	751.825	-0.137	0.367
-462.099	-85.799	0.093	0.029
-461.084	-59.010	0.159	-0.068
-460.070	30.948	-0.217	0.184
-459.055	-58.599	0.266	0.114
-458.040	-32.635	-0.120	-0.066
-457.026	-99.362	-0.317	0.079
-456.011	-67.953	0.404	0.156
-454.997	-200.000	-0.018	0.166
-453.982	-82.644	0.155	-0.050
-452.968	-7.289	0.121	-0.081
-451.953	-106.601	-0.444	-0.098
-450.938	-200.000	0.059	-0.313
-449.924	-200.000	0.043	0.551
-448.909	49.574	0.280	0.261
-447.895	-111.892	-0.225	-0.045
-446.880	-57.035	-0.342	-0.150
-445.865	-200.000	0.009	0.135
-444.851	-200.000	-0.021	-0.110
-443.836	7.136	0.101	-0.074
-442.822	-200.000	0.012	0.116
-441.807	16.730	0.074	-0.058
-440.792	5.551	-0.246	0.180
-439.778	-151.086	-0.177	-0.013
-438.763	-144.049	0.334	0.031
-437.749	-24.254	-0.178	0.105
-436.734	-200.000	0.023	0.115
-435.719	24.665	0.202	0.166
-434.705	800.000	-0.075	-0.281
-433.690	-200.000	-0.004	0.112
-432.676	-78.575	-0.390	0.132
-431.661	800.000	0.030	-0.105
-430.646	701.247	-0.060	0.155
-429.632	258.050	0.152	0.259
-428.617	-99.051	-0.042	-0.011
-427.603	-200.000	-0.011	-0.148
-426.588	-200.000	0.037	-0.193
-425.573	169.374	-0.173	-0.245
-424.559	-17.206	-0.120	-0.075
-423.544	-116.496	-0.149	-0.027
-422.530	202.464	0.046	-0.070
-421.515	-146.448	-0.276	-0.024
-420.500	800.000	0.062	-0.217
-419.486	-16.070	0.355	-0.223
-418.471	-71.270	0.287	-0.107
-417.457	800.000	0.082	-0.240
-416.442	106.178	0.118	0.138
-415.428	-200.000	0.039	0.238
-414.413	-46.104	-0.259	0.126
-413.398	238.225	0.086	-0.141
-412.384	153.790	-0.177	-0.240
-411.369	153.182	-0.049	-0.066
-410.355	0.963	0.061	0.043
-409.340	-56.734	-0.044	-0.019
-408.325	-63.489	-0.160	-0.065
-407.311	-125.225	-0.178	0.027
-406.296	-63.298	-0.064	-0.026
-405.282	-128.521	0.157	0.022
-404.267	294.082	0.071	-0.128
-403.252	455.609	0.061	-0.133
-402.238	-149.178	-0.064	-0.005
-401.223	-28.080	0.035	-0.020
-400.209	142.765	0.063	-0.083
-399.194	-51.455	0.065	0.030
-398.179	13.803	-0.085	-0.065
-397.165	-101.858	0.172	0.041
-396.150	-91.635	0.244	-0.069
-395.136	125.248	0.165	0.206
-394.121	-200.000	0.001	-0.276
-393.106	5.849	-0.092	0.067
-392.092	229.043	0.137	0.221
-391.077	447.276	-0.108	-0.234
-390.063	257.385	0.273	0.463
-389.048	-58.309	0.280	0.120
-388.033	36.319	-0.175	0.152
-387.019	800.000	-0.126	0.392
-386.004	-102.557	-0.111	0.026
-384.990	-200.000	-0.002	0.112
-383.975	-139.306	-0.043	0.005
-382.960	-200.000	-0.069	-0.395
-381.946	-97.031	0.331	-0.086
-380.931	235.184	0.124	-0.203
-379.917	-200.000	0.030	0.177
-378.902	-88.934	-0.210	-0.061
-377.888	-12.376	0.284	-0.184
-376.873	-200.000	0.009	-0.219
-375.858	177.050	0.086	-0.123
-374.844	800.000	-0.029	0.094
-373.829	-80.092	-0.294	-0.097
-372.815	-200.000	0.014	-0.306
-371.800	360.323	0.133	0.263
-370.785	800.000	-0.071	0.283
-369.771	46.312	-0.192	0.176
-368.756	132.724	-0.057	0.073
-367.742	324.331	-0.084	0.158
-366.727	778.058	-0.106	0.287
-365.712	-200.000	-0.007	-0.056
-364.698	366.856	0.090	0.180
-363.683	-31.964	-0.294	-0.162
-362.669	466.683	-0.089	-0.196
-361.654	682.907	0.145	-0.375
-360.639	-45.924	-0.221	0.108
-359.625	158.736	-0.105	-0.144
-358.610	-108.765	0.346	-0.073
-357.596	34.977	0.191	-0.165
-356.581	-200.000	0.002	-0.416
-355.566	37.000	0.201	0.176
-354.552	162.085	0.150	-0.207
-353.537	-154.465	-0.398	0.026
-352.523	800.000	-0.042	0.125
-351.508	800.000	-0.055	0.219
-350.493	-41.488	-0.176	-0.089
-349.479	-112.395	-0.068	-0.013
-348.464	9.920	-0.193	0.145
-347.450	-200.000	0.006	0.211
-346.435	-17.197	-0.092	0.057
-345.420	326.513	0.098	-0.184
-344.406	-48.022	-0.224	0.107
-343.391	-114.215	0.547	-0.104
-342.377	-54.846	0.246	-0.110
-341.362	-198.337	0.262	-0.001
-340.348	-46.103	0.135	-0.065
-339.333	145.433	0.095	0.125
-338.318	-21.335	-0.044	0.026
-337.304	-106.600	0.440	0.097
-336.289	456.175	0.139	0.304
-335.275	733.839	0.083	0.220
-334.260	10.346	-0.187	0.141
-333.245	-200.000	-0.058	0.275
-332.231	-104.787	0.430	-0.098
-331.216	800.000	-0.039	-0.165
-330.202	-200.000	-0.023	0.354
-329.187	-200.000	0.025	0.174
-328.172	-64.243	0.308	0.124
-327.158	29.154	-0.202	-0.169
-326.143	31.695	-0.162	0.138
-325.129	234.226	-0.068	-0.111
-324.114	552.665	-0.071	0.169
-323.099	-58.568	-0.028	0.012
-322.085	80.587	-0.114	-0.121
-321.070	66.278	-0.232	0.233
-320.056	296.128	0.052	0.094
-319.041	448.751	-0.164	-0.356
-318.026	-67.964	0.202	-0.078
-317.012	-123.145	-0.168	-0.027
-315.997	-200.000	0.014	-0.185
-314.983	185.527	0.269	-0.394
-313.968	-13.098	0.148	-0.095
-312.953	148.576	0.137	0.182
-311.939	87.668	-0.137	0.150
-310.924	-70.225	-0.219	-0.082
-309.910	-67.941	0.350	0.134
-308.895	800.000	-0.016	-0.056
-307.880	-200.000	0.036	0.180
-306.866	-102.126	0.351	-0.083
-305.851	-143.599	-0.241	0.023
-304.837	96.458	0.106	0.120
-303.822	-173.250	-0.184	0.006
-302.807	423.840	-0.163	0.346
-301.793	357.166	-0.068	-0.133
-300.778	-39.964	0.082	-0.042
-299.764	-79.856	0.162	0.054
-298.749	349.156	0.147	-0.285
-297.735	-200.000	-0.080	0.511
-296.720	167.966	0.136	-0.191
-295.705	800.000	0.083	0.285
-294.691	398.667	0.055	-0.113
-293.676	29.621	-0.366	0.307
-292.662	-165.439	0.273	-0.012
-291.647	-61.228	0.288	-0.119
-290.632	-67.455	-0.138	0.053
-289.618	79.120	0.217	-0.229
-288.603	48.747	-0.167	0.154
-287.589	-92.933	0.319	-0.088
-286.574	-98.470	0.145	0.037
-285.559	126.198	-0.217	0.270
-284.545	-13.243	0.510	0.326
-283.530	61.296	-0.181	0.177
-282.516	-59.365	-0.179	0.076
-281.501	204.935	0.035	0.053
-280.486	-94.265	0.146	0.039
-279.472	-200.000	-0.076	0.334
-278.457	-28.349	0.191	0.109
-277.443	-90.884	0.200	0.057
-276.428	-200.000	-0.065	-0.418
-275.413	85.694	0.264	-0.285
-274.399	55.141	-0.155	0.148
-273.384	-57.962	0.170	0.073
-272.370	-12.242	0.259	-0.167
-271.355	-124.847	-0.264	-0.040
-270.340	-200.000	0.021	0.162
-269.326	800.000	-0.053	0.201
-268.311	-117.013	0.349	0.063
-267.297	21.284	0.098	-0.079
-266.282	-200.000	-0.044	-0.430
-265.267	-107.480	-0.306	0.066
-264.253	-164.858	-0.582	0.026
-263.238	-200.000	0.006	-0.074
-262.224	345.189	-0.180	-0.349
-261.209	-200.000	-0.006	0.076
-260.195	-200.000	0.044	-0.204
-259.180	-40.589	0.321	0.164
-258.165	-200.000	0.025	-0.135
-257.151	20.698	-0.146	-0.116
-256.136	41.133	0.207	-0.184
-255.122	433.587	-0.167	-0.357
-254.107	235.664	-0.181	0.294
-253.092	218.621	0.170	-0.268
-252.078	420.677	0.079	0.166
-251.063	-150.510	0.148	0.011
-250.049	-123.141	-0.335	-0.053
-249.034	-200.000	0.025	0.442
-248.019	17.356	0.105	0.082
-247.005	-200.000	0.074	-0.320
-245.990	10.614	-0.207	0.155
-244.976	-72.028	0.073	-0.027
-243.961	132.280	-0.169	-0.214
-242.946	800.000	0.094	0.270
-241.932	800.000	-0.078	-0.276
-240.917	299.575	0.113	-0.204
-239.903	800.000	-0.074	0.290
-238.888	-54.882	0.529	0.234
-237.873	119.021	0.161	0.196
-236.859	-25.057	-0.106	-0.062
-235.844	-57.901	-0.328	0.141
-234.830	-200.000	-0.025	-0.485
-233.815	-200.000	0.032	0.197
-232.800	11.084	0.436	0.327
-231.786	800.000	0.007	0.027
-230.771	-26.978	-0.168	0.096
-229.757	-149.021	-0.259	-0.021
-228.742	81.187	-0.195	-0.207
-227.727	115.448	-0.026	0.031
-226.713	-101.772	-0.286	0.068
-225.698	800.000	0.098	0.304
-224.684	-54.901	0.106	0.047
-223.669	269.998	-0.137	0.237
-222.655	405.093	0.080	-0.166
-221.640	713.315	-0.084	0.218
-220.625	343.989	-0.092	-0.177
-219.611	-56.071	-0.203	0.089
-218.596	-200.000	-0.049	-0.413
-217.582	-9.921	-0.360	-0.235
-216.567	-10.099	0.378	0.247
-215.552	193.841	-0.123	-0.183
-214.538	-200.000	-0.070	-0.371
-213.523	800.000	0.063	0.206
-212.509	-77.242	0.030	0.010
-211.494	800.000	0.020	0.074
-210.479	373.349	-0.101	0.202
-209.465	99.249	0.179	0.203
-208.450	-200.000	0.014	0.134
-207.436	-31.974	-0.291	-0.160
-206.421	-35.045	-0.251	-0.134
-205.406	-26.304	0.158	-0.091
-204.392	-4.374	0.300	0.204
-203.377	554.495	0.097	-0.229
-202.363	15.021	-0.206	0.158
-201.348	-116.904	-0.035	-0.006
-200.333	69.109	-0.134	-0.135
-199.319	-200.000	0.024	0.131
-198.304	-4.190	-0.086	-0.059
-197.290	149.972	-0.210	-0.280
-196.275	34.774	-0.293	0.251
-195.260	601.257	0.091	-0.221
-194.246	-36.810	-0.332	-0.175
-193.231	-9.757	0.233	0.152
-192.217	800.000	0.034	0.141
-191.202	-200.000	-0.020	0.161
-190.187	-200.000	-0.017	-0.328
-189.173	41.224	0.068	0.060
-188.158	-200.000	-0.052	0.339
-187.144	-200.000	0.054	-0.317
-186.129	4.382	0.198	0.142
-185.114	-97.092	-0.112	0.029
-184.100	-185.679	-0.074	0.001
-183.085	76.092	0.116	0.120
-182.071	800.000	0.080	-0.263
-181.056	-48.626	-0.029	0.014
-180.042	151.876	-0.159	0.212
-179.027	-200.000	0.021	0.106
-178.012	-162.655	-0.203	-0.010
-176.998	516.093	0.089	-0.205
-175.983	-168.096	-0.065	-0.002
-174.969	307.453	-0.170	0.311
-173.954	-145.236	0.227	-0.020
-172.939	-180.166	-0.158	-0.003
-171.925	-1.361	-0.202	-0.139
-170.910	-154.960	-0.173	0.011
-169.896	92.169	-0.116	0.128
-168.881	-200.000	0.009	0.255
-167.866	-150.610	0.226	-0.017
-166.852	-200.000	0.038	-0.259
-165.837	126.066	0.068	-0.085
-164.823	328.897	0.133	0.251
-163.808	-62.481	0.319	0.130
-162.793	98.138	-0.110	-0.124
-161.779	27.335	0.087	-0.071
-160.764	9.501	0.156	-0.115
-159.750	-32.351	0.303	-0.166
-158.735	356.825	0.104	-0.203
-157.720	78.681	0.216	-0.226
-156.706	-8.380	-0.181	-0.119
-155.691	625.727	-0.103	0.254
-154.677	39.840	0.255	-0.224
-153.662	12.610	0.270	-0.204
-152.647	-200.000	-0.063	0.272
-151.633	161.536	0.081	0.111
-150.618	-72.498	-0.071	0.026
-149.604	518.040	0.042	0.096
-148.589	48.277	0.182	-0.167
-147.574	-54.968	-0.394	-0.174
-146.560	72.593	0.142	0.145
-145.545	-74.521	0.123	0.043
-144.531	-40.260	-0.108	0.055
-143.516	-105.369	-0.201	-0.045
-142.502	-200.000	-0.051	-0.274
-141.487	152.797	0.103	-0.138
-140.472	557.443	0.145	-0.343
-139.458	800.000	0.064	0.186
-138.443	800.000	0.071	-0.245
-137.429	327.378	-0.108	-0.202
-136.414	-188.383	-0.121	-0.001
-135.399	250.615	0.021	0.036
-134.385	-31.280	0.217	0.120
-133.370	-200.000	-0.010	0.111
-132.356	-67.618	0.260	-0.099
-131.341	19.939	0.099	0.078
-130.326	800.000	-0.050	-0.138
-129.312	-41.215	0.087	-0.044
-128.297	-71.694	-0.146	0.053
-127.283	277.404	0.116	-0.201
-126.268	134.823	-0.214	-0.272
-125.253	-149.741	0.272	-0.021
-124.239	90.225	0.132	0.144
-123.224	96.018	-0.084	-0.094
-122.210	106.290	-0.128	0.148
-121.195	236.596	0.123	0.199
