DTS Sentinel unit serial number:	SN413079Multiplexer serial number:	ORYXHardware model number:	OX4-SRSoftware version number:	ORYX F/W v4.00 Oryx Data Collector v3.7.2.0data status	okinstallation	princeton_trtdifferential loss correction	single-endedforward channel	channel 1reverse channel	N/Adate	2019/09/17time	12:22:35forward acquisition time	60.00reverse acquisition time	0.00gamma	496.2192k internal	0.2319k external	0.2319temperature offset calibration	0.9969default loss term (dB/km)	0.3790temperature slope calibration	1.0000multiplexer offset coefficient	1.0000multiplexer slope coefficient	1.0000fibre end	0.00T internal ref (°C)	31.67T ext. ref 1 (°C)	0.43T ext. ref 2 (°C)	28.66length (m)	temperature (°C)	Stokes	anti-Stokes-747.200	-38.731	-0.111	0.059
-746.185	-128.063	-0.254	0.037
-745.171	-27.235	0.246	0.145
-744.156	800.000	-0.091	0.312
-743.142	-129.447	0.330	-0.046
-742.127	-161.490	-0.077	-0.004
-741.112	-200.000	0.043	0.208
-740.098	-26.205	-0.116	0.069
-739.083	800.000	-0.120	0.381
-738.069	363.892	-0.046	0.093
-737.054	-4.336	-0.097	0.068
-736.039	-63.691	-0.075	-0.031
-735.025	-133.443	0.254	-0.032
-734.010	-91.124	-0.294	0.085
-732.996	-200.000	0.008	-0.163
-731.981	22.779	-0.080	-0.066
-730.966	-200.000	-0.011	-0.270
-729.952	-71.197	-0.181	-0.069
-728.937	29.086	-0.106	-0.091
-727.923	349.609	-0.153	-0.305
-726.908	-200.000	0.031	-0.241
-725.894	516.044	-0.142	-0.336
-724.879	-155.698	0.238	0.015
-723.864	-56.885	0.379	-0.169
-722.850	278.597	-0.096	-0.172
-721.835	34.248	0.043	-0.038
-720.821	-200.000	0.011	-0.121
-719.806	100.204	-0.243	-0.285
-718.791	-64.879	-0.116	-0.047
-717.777	42.173	-0.281	-0.258
-716.762	-70.907	-0.389	0.148
-715.748	-46.140	0.118	-0.059
-714.733	-164.288	-0.252	0.012
-713.718	30.926	0.332	0.287
-712.704	800.000	0.062	0.224
-711.689	-191.293	0.214	0.002
-710.675	267.013	0.084	0.148
-709.660	-41.483	-0.178	-0.093
-708.645	-200.000	0.065	0.311
-707.631	108.232	-0.261	0.314
-706.616	-91.643	-0.300	-0.086
-705.602	-30.687	-0.413	-0.236
-704.587	293.916	0.121	-0.223
-703.572	251.500	0.232	-0.399
-702.558	32.103	0.235	-0.205
-701.543	800.000	0.044	-0.181
-700.529	62.895	-0.179	0.181
-699.514	-200.000	0.007	0.111
-698.499	-121.617	-0.153	-0.026
-697.485	175.918	0.170	0.250
-696.470	-200.000	0.045	0.341
-695.456	-89.097	0.442	0.132
-694.441	147.396	-0.195	-0.266
-693.426	100.975	0.093	0.109
-692.412	-95.844	0.125	0.034
-691.397	112.947	0.133	-0.162
-690.383	800.000	-0.080	0.327
-689.368	-66.580	-0.172	-0.069
-688.354	-32.487	0.131	-0.074
-687.339	491.633	0.129	0.299
-686.324	-92.042	-0.061	-0.018
-685.310	-200.000	-0.008	0.103
-684.295	405.429	-0.148	0.315
-683.281	-138.820	-0.489	0.054
-682.266	2.536	-0.322	-0.236
-681.251	-23.650	0.252	0.152
-680.237	800.000	-0.035	0.120
-679.222	-44.299	-0.309	-0.156
-678.208	-200.000	0.008	-0.122
-677.193	43.880	0.106	0.098
-676.178	-200.000	0.009	0.062
-675.164	-59.693	-0.041	-0.018
-674.149	-200.000	0.087	0.415
-673.135	-43.883	0.144	0.073
-672.120	752.866	0.045	-0.122
-671.105	275.884	-0.109	-0.195
-670.091	-200.000	0.010	-0.063
-669.076	800.000	-0.066	-0.233
-668.062	800.000	-0.075	-0.222
-667.047	-9.497	-0.046	-0.031
-666.032	-200.000	-0.058	-0.287
-665.018	-24.901	0.155	0.093
-664.003	-94.094	0.077	0.021
-662.989	-125.227	0.131	-0.020
-661.974	-81.313	0.103	0.034
-660.959	1.345	0.183	-0.132
-659.945	-71.744	0.323	0.121
-658.930	352.551	-0.196	0.392
-657.916	157.973	-0.236	-0.329
-656.901	-78.979	-0.239	-0.082
-655.886	-200.000	0.024	0.207
-654.872	-127.935	-0.284	0.041
-653.857	-91.351	0.201	0.058
-652.843	17.540	0.207	-0.166
-651.828	-3.092	0.258	0.181
-650.814	800.000	0.037	0.155
-649.799	-28.763	0.161	-0.093
-648.784	-200.000	-0.049	0.229
-647.770	-41.763	0.236	0.122
-646.755	-200.000	-0.010	0.090
-645.741	-108.882	-0.295	0.063
-644.726	237.122	0.100	0.167
-643.711	736.249	0.142	0.383
-642.697	10.089	0.249	-0.190
-641.682	25.476	-0.165	0.138
-640.668	-200.000	0.000	-0.100
-639.653	63.042	-0.131	0.132
-638.638	800.000	0.047	-0.140
-637.624	-200.000	-0.013	-0.242
-636.609	-86.527	-0.255	0.079
-635.595	99.872	0.224	-0.262
-634.580	493.339	0.095	-0.219
-633.565	800.000	0.065	0.264
-632.551	-49.474	-0.151	-0.072
-631.536	13.380	0.112	0.087
-630.522	800.000	-0.021	-0.068
-629.507	53.149	-0.155	0.149
-628.492	70.552	-0.197	0.205
-627.478	800.000	0.038	-0.146
-626.463	-49.326	0.229	-0.110
-625.449	-153.245	0.167	-0.012
-624.434	-52.258	-0.606	-0.283
-623.419	793.409	0.068	-0.187
-622.405	-104.634	-0.110	0.026
-621.390	-92.061	0.145	0.041
-620.376	271.452	0.123	0.218
-619.361	800.000	-0.080	0.239
-618.346	-4.787	-0.214	0.149
-617.332	17.958	0.133	0.106
-616.317	18.208	-0.031	-0.025
-615.303	190.351	-0.054	0.082
-614.288	359.692	-0.071	0.142
-613.273	160.385	0.219	0.307
-612.259	-138.505	-0.259	-0.029
-611.244	-200.000	-0.014	0.182
-610.230	114.619	-0.209	0.256
-609.215	-5.972	-0.100	-0.069
-608.201	344.848	0.187	0.370
-607.186	-81.124	0.421	0.140
-606.171	-138.088	0.326	0.036
-605.157	215.257	-0.051	0.081
-604.142	-75.046	-0.121	-0.044
-603.128	-103.373	0.218	0.052
-602.113	-200.000	0.044	-0.462
-601.098	-74.030	-0.416	0.152
-600.084	-41.645	0.175	0.091
-599.069	-70.244	0.186	0.071
-598.055	-108.447	-0.214	0.046
-597.040	36.402	-0.122	-0.108
-596.025	-200.000	0.006	-0.250
-595.011	391.160	-0.055	0.116
-593.996	800.000	-0.013	-0.056
-592.982	800.000	0.081	0.266
-591.967	2.634	0.047	0.034
-590.952	166.348	0.081	-0.116
-589.938	28.236	0.053	-0.045
-588.923	-200.000	-0.185	0.001
-587.909	-2.212	0.180	-0.127
-586.894	-160.583	0.223	0.012
-585.879	-59.802	-0.104	0.045
-584.865	-102.496	0.324	-0.078
-583.850	-147.022	-0.315	0.027
-582.836	-66.984	-0.455	0.180
-581.821	-52.143	0.107	0.050
-580.806	20.836	-0.126	0.103
-579.792	-23.190	-0.171	-0.104
-578.777	-59.305	-0.237	0.102
-577.763	777.366	0.122	0.336
-576.748	-119.619	-0.141	0.024
-575.733	-200.000	0.015	0.080
-574.719	-130.080	-0.186	-0.026
-573.704	-51.444	0.197	-0.093
-572.690	800.000	-0.097	-0.369
-571.675	-200.000	-0.002	0.107
-570.661	474.374	-0.031	-0.071
-569.646	18.564	-0.271	-0.217
-568.631	-37.324	0.144	-0.077
-567.617	-154.196	0.116	-0.008
-566.602	-64.513	-0.100	-0.041
-565.588	37.003	0.253	-0.225
-564.573	320.834	0.107	-0.204
-563.558	0.336	0.061	-0.044
-562.544	-37.288	0.148	-0.079
-561.529	660.402	-0.176	-0.456
-560.515	800.000	-0.062	-0.267
-559.500	-200.000	0.005	-0.113
-558.485	-88.709	-0.245	-0.073
-557.471	-32.228	-0.255	0.143
-556.456	-113.516	-0.409	-0.080
-555.442	227.855	-0.225	0.367
-554.427	304.301	0.193	-0.360
-553.412	-44.468	-0.109	-0.055
-552.398	-100.416	-0.209	-0.052
-551.383	-105.362	-0.249	-0.057
-550.369	-200.000	-0.062	0.476
-549.354	68.144	-0.225	0.232
-548.339	-112.002	-0.287	-0.058
-547.325	-112.093	0.129	-0.026
-546.310	-49.276	-0.213	0.102
-545.296	-200.000	-0.015	-0.300
-544.281	-39.414	-0.306	-0.161
-543.266	338.372	0.107	0.208
-542.252	14.340	-0.041	-0.032
-541.237	-138.697	-0.200	-0.022
-540.223	-200.000	-0.001	-0.075
-539.208	800.000	-0.044	0.141
-538.193	43.921	-0.208	0.191
-537.179	-13.413	-0.313	0.204
-536.164	-140.621	-0.025	0.003
-535.150	325.667	-0.047	-0.090
-534.135	-200.000	-0.016	-0.537
-533.121	57.826	0.161	-0.158
-532.106	-200.000	0.010	0.244
-531.091	-36.358	0.102	-0.055
-530.077	-200.000	0.008	-0.233
-529.062	671.340	-0.112	0.290
-528.048	736.529	0.090	-0.242
-527.033	-200.000	-0.042	0.381
-526.018	-200.000	0.011	0.116
-525.004	-65.375	0.062	0.025
-523.989	-91.796	-0.082	0.023
-522.975	214.991	-0.109	0.174
-521.960	119.826	-0.053	-0.065
-520.945	245.303	-0.100	0.169
-519.931	-89.526	-0.339	0.100
-518.916	650.821	0.080	0.205
-517.902	60.564	-0.081	-0.080
-516.887	-42.670	0.230	0.117
-515.872	-1.367	0.485	-0.343
-514.858	-11.780	0.289	-0.190
-513.843	-115.262	-0.338	-0.064
-512.829	800.000	-0.051	-0.150
-511.814	-146.090	0.333	0.029
-510.799	436.615	0.101	0.221
-509.785	-69.218	-0.185	0.071
-508.770	-77.596	0.122	-0.042
-507.756	283.835	0.035	-0.063
-506.741	104.879	0.255	0.302
-505.726	-58.650	-0.177	0.077
-504.712	42.047	0.162	-0.148
-503.697	82.884	-0.137	0.149
-502.683	-94.523	-0.148	0.040
-501.668	251.377	0.085	0.145
-500.653	-200.000	-0.000	-0.146
-499.639	-47.256	-0.375	-0.183
-498.624	162.645	0.129	-0.182
-497.610	-200.000	-0.011	-0.092
-496.595	-200.000	-0.042	-0.271
-495.581	800.000	0.100	-0.350
-494.566	186.610	0.243	0.363
-493.551	-200.000	0.084	0.493
-492.537	-39.733	-0.089	-0.047
-491.522	81.572	0.277	0.300
-490.508	800.000	-0.073	-0.275
-489.493	-200.000	0.009	-0.228
-488.478	24.118	0.122	-0.101
-487.464	-200.000	-0.051	0.372
-486.449	53.300	0.132	-0.127
-485.435	-99.856	-0.177	-0.044
-484.420	-200.000	-0.008	-0.300
-483.405	423.119	-0.112	-0.241
-482.391	-83.957	0.143	-0.045
-481.376	-200.000	0.022	-0.341
-480.362	220.522	-0.126	-0.202
-479.347	-50.784	0.315	-0.149
-478.332	-129.898	0.424	0.058
-477.318	66.631	0.145	0.148
-476.303	-107.869	0.243	-0.053
-475.289	-143.348	0.234	-0.022
-474.274	-44.171	-0.134	0.067
-473.259	-200.000	0.033	-0.160
-472.245	-20.461	-0.056	-0.035
-471.230	13.360	0.070	0.055
-470.216	128.311	-0.064	-0.082
-469.201	157.244	0.045	-0.063
-468.186	-41.838	0.031	0.016
-467.172	-129.376	-0.238	-0.033
-466.157	38.622	-0.144	0.128
-465.143	-54.914	0.131	0.059
-464.128	72.243	-0.019	-0.019
-463.113	-200.000	-0.016	0.121
-462.099	122.793	0.096	0.120
-461.084	349.740	-0.026	0.052
-460.070	201.915	0.057	-0.089
-459.055	15.218	-0.161	-0.127
-458.040	-200.000	0.046	-0.233
-457.026	-63.702	-0.370	0.152
-456.011	-200.000	0.053	0.293
-454.997	-133.433	0.431	-0.054
-453.982	-97.794	0.083	-0.021
-452.968	-89.705	0.117	0.034
-451.953	-133.200	-0.135	0.017
-450.938	-200.000	-0.022	-0.295
-449.924	99.905	-0.202	-0.234
-448.909	2.509	0.178	0.129
-447.895	-149.564	0.316	-0.025
-446.880	-126.789	0.238	-0.035
-445.865	-77.098	-0.212	-0.074
-444.851	-48.726	0.080	-0.038
-443.836	88.795	-0.187	-0.208
-442.822	122.523	-0.179	-0.224
-441.807	-200.000	0.018	0.203
-440.792	188.080	0.041	-0.062
-439.778	296.076	-0.040	0.074
-438.763	-200.000	-0.021	-0.119
-437.749	184.574	0.062	0.092
-436.734	-54.040	0.117	-0.053
-435.719	-200.000	0.037	0.252
-434.705	26.232	-0.106	0.089
-433.690	402.493	-0.060	-0.125
-432.676	-5.755	0.126	0.086
-431.661	-200.000	-0.083	0.434
-430.646	11.530	0.369	0.283
-429.632	-52.344	0.064	0.030
-428.617	-20.297	-0.239	0.147
-427.603	-66.405	0.151	0.060
-426.588	-28.920	0.150	0.086
-425.573	-122.863	-0.267	0.043
-424.559	-74.523	-0.168	0.060
-423.544	76.844	0.047	-0.049
-422.530	-109.670	-0.112	-0.024
-421.515	-200.000	0.012	0.081
-420.500	0.818	0.214	-0.153
-419.486	-27.970	0.202	-0.117
-418.471	-29.117	0.119	-0.068
-417.457	-161.709	-0.122	0.006
-416.442	-200.000	-0.027	-0.225
-415.428	429.424	0.141	-0.303
-414.413	-200.000	0.023	-0.239
-413.398	-200.000	0.006	0.132
-412.384	173.243	0.011	-0.015
-411.369	-39.814	-0.099	0.052
-410.355	-31.182	-0.106	-0.060
-409.340	-13.635	0.266	-0.172
-408.325	-54.246	-0.319	0.144
-407.311	278.335	0.158	-0.281
-406.296	187.843	0.061	-0.090
-405.282	-28.521	-0.196	0.113
-404.267	-53.686	0.162	-0.074
-403.252	800.000	0.051	0.154
-402.238	-200.000	0.009	0.124
-401.223	-58.866	-0.100	-0.043
-400.209	-40.913	-0.030	0.016
-399.194	39.788	0.130	0.116
-398.179	800.000	-0.029	0.109
-397.165	115.947	0.217	0.265
-396.150	800.000	-0.022	-0.071
-395.136	114.100	-0.200	0.243
-394.121	103.879	0.247	-0.290
-393.106	106.940	-0.197	0.233
-392.092	14.566	-0.100	0.078
-391.077	58.971	-0.116	-0.113
-390.063	800.000	-0.045	-0.161
-389.048	800.000	0.074	-0.269
-388.033	748.917	0.164	0.440
-387.019	-200.000	-0.039	0.198
-386.004	364.851	0.041	-0.083
-384.990	-167.133	-0.315	-0.013
-383.975	-92.421	0.217	-0.061
-382.960	353.372	0.102	-0.201
-381.946	-153.441	-0.028	-0.002
-380.931	50.587	-0.188	-0.178
-379.917	800.000	0.059	0.210
-378.902	68.197	0.119	-0.122
-377.888	240.850	-0.110	-0.183
-376.873	-200.000	0.020	-0.144
-375.858	371.522	0.078	-0.157
-374.844	-111.490	0.136	0.028
-373.829	-46.466	-0.149	0.073
-372.815	-119.019	-0.049	-0.009
-371.800	0.456	0.172	-0.123
-370.785	-59.294	0.311	0.133
-369.771	47.454	-0.243	0.226
-368.756	-173.308	-0.308	0.009
-367.742	105.705	0.143	-0.169
-366.727	-112.258	-0.096	0.019
-365.712	-200.000	-0.017	0.092
-364.698	-5.950	-0.192	-0.131
-363.683	-54.283	-0.040	0.018
-362.669	-95.627	0.200	0.053
-361.654	217.705	-0.196	0.311
-360.639	-52.087	0.130	0.060
-359.625	-8.452	0.117	0.078
-358.610	-11.299	-0.175	0.115
-357.596	263.515	0.080	-0.138
-356.581	324.342	-0.146	0.277
-355.566	58.905	-0.096	0.094
-354.552	-54.240	-0.320	0.145
-353.537	365.150	-0.117	0.235
-352.523	82.922	0.119	-0.129
-351.508	-36.763	0.243	0.130
-350.493	800.000	0.052	-0.207
-349.479	-119.521	-0.055	-0.010
-348.464	-51.836	-0.299	-0.138
-347.450	31.710	0.077	0.066
-346.435	800.000	0.042	-0.129
-345.420	-200.000	0.018	-0.100
-344.406	800.000	0.040	0.174
-343.391	-144.048	0.120	0.011
-342.377	165.161	0.191	0.268
-341.362	200.842	-0.174	0.266
-340.348	439.372	0.070	-0.153
-339.333	199.158	-0.062	-0.095
-338.318	8.883	0.199	0.150
-337.304	376.582	-0.155	0.314
-336.289	-200.000	-0.013	0.208
-335.275	43.364	-0.095	0.087
-334.260	-200.000	0.008	-0.279
-333.245	800.000	0.003	-0.011
-332.231	-200.000	-0.025	0.117
-331.216	3.366	-0.200	0.145
-330.202	78.352	-0.158	0.168
-329.187	800.000	0.091	-0.271
-328.172	-65.714	-0.092	-0.037
-327.158	800.000	0.134	0.446
-326.143	35.573	0.185	0.162
-325.129	385.627	-0.115	0.235
-324.114	-200.000	0.054	-0.364
-323.099	57.808	0.189	-0.184
-322.085	-5.291	0.322	0.220
-321.070	-62.733	-0.263	-0.108
-320.056	-200.000	0.065	-0.290
-319.041	51.664	-0.063	-0.059
-318.026	-200.000	0.008	0.193
-317.012	515.329	-0.088	0.205
-315.997	442.373	-0.034	-0.073
-314.983	-200.000	-0.001	0.033
-313.968	800.000	0.041	0.161
-312.953	-200.000	-0.030	-0.178
-311.939	-135.578	-0.255	-0.030
-310.924	-28.762	-0.224	0.128
-309.910	-77.420	-0.209	-0.072
-308.895	-17.570	0.360	-0.225
-307.880	-14.781	0.093	-0.059
-306.866	65.788	0.291	-0.293
-305.851	-179.333	-0.406	-0.009
-304.837	-71.496	0.282	0.105
-303.822	343.163	0.027	0.052
-302.807	-200.000	0.032	-0.240
-301.793	800.000	-0.026	-0.080
-300.778	-79.715	-0.164	0.055
-299.764	800.000	0.087	0.310
-298.749	-107.208	-0.136	0.030
-297.735	-200.000	0.042	-0.347
-296.720	800.000	-0.006	-0.018
-295.705	-61.052	-0.067	0.028
-294.691	-90.215	0.099	0.029
-293.676	-101.966	-0.056	0.013
-292.662	-200.000	-0.012	0.181
-291.647	-72.550	0.093	0.034
-290.632	-64.723	0.224	-0.090
-289.618	66.426	-0.212	0.214
-288.603	374.325	-0.108	0.218
-287.589	347.884	-0.051	-0.101
-286.574	-67.563	0.180	0.070
-285.559	118.989	0.198	-0.243
-284.545	-200.000	-0.052	0.369
-283.530	95.988	0.189	-0.215
-282.516	-50.236	0.332	-0.156
-281.501	-200.000	-0.035	0.194
-280.486	-115.783	-0.322	0.060
-279.472	-113.386	-0.299	0.058
-278.457	32.240	0.217	0.186
-277.443	-21.658	-0.166	-0.101
-276.428	-200.000	-0.030	-0.206
-275.413	-87.012	0.272	-0.082
-274.399	9.316	0.098	-0.074
-273.384	-200.000	0.000	0.032
-272.370	-127.798	0.028	0.004
-271.355	-152.074	0.150	0.011
-270.340	341.626	-0.051	0.098
-269.326	-99.306	-0.251	0.063
-268.311	146.089	-0.046	-0.061
-267.297	-178.759	-0.204	-0.005
-266.282	800.000	0.078	-0.231
-265.267	683.009	0.057	-0.148
-264.253	800.000	0.054	0.181
-263.238	-117.214	-0.356	-0.064
-262.224	184.524	-0.093	-0.136
-261.209	-151.996	0.235	0.017
-260.195	3.484	0.295	0.213
-259.180	-200.000	0.046	-0.382
-258.165	226.721	0.123	0.199
-257.151	-95.683	0.118	0.031
-256.136	-71.902	-0.149	-0.055
-255.122	800.000	-0.025	0.074
-254.107	257.341	-0.062	0.105
-253.092	-127.280	0.306	-0.044
-252.078	0.587	-0.136	-0.096
-251.063	-25.875	0.202	0.118
-250.049	-200.000	-0.028	-0.229
-249.034	167.585	0.102	-0.143
-248.019	800.000	0.043	-0.124
-247.005	-91.315	-0.093	0.026
-245.990	-164.676	-0.150	-0.007
-244.976	-45.837	0.091	0.044
-243.961	-80.509	-0.348	0.115
-242.946	-114.154	0.078	0.015
-241.932	245.522	0.099	-0.165
-240.917	430.390	-0.068	0.146
-239.903	-70.711	-0.351	0.131
-238.888	-200.000	0.006	0.061
-237.873	-89.476	-0.205	0.060
-236.859	-200.000	-0.002	0.039
-235.844	-200.000	0.005	0.111
-234.830	-11.134	-0.327	0.214
-233.815	148.876	-0.201	0.269
-232.800	-37.641	-0.332	-0.175
-231.786	84.666	-0.112	0.122
-230.771	234.262	0.093	0.152
-229.757	-138.016	0.122	0.013
-228.742	12.673	0.207	-0.159
-227.727	669.364	0.118	-0.303
-226.713	800.000	-0.080	0.274
-225.698	344.933	-0.095	-0.186
-224.684	-136.794	-0.155	0.018
-223.669	800.000	-0.214	-0.736
-222.655	-200.000	0.093	-0.431
-221.640	77.968	0.118	-0.125
-220.625	-192.035	0.219	-0.002
-219.611	435.718	-0.109	-0.236
-218.596	615.131	0.138	-0.343
-217.582	-101.742	-0.093	0.022
-216.567	92.224	-0.096	0.107
-215.552	142.245	0.102	-0.134
-214.538	-173.277	0.196	0.006
-213.523	21.624	0.155	-0.125
-212.509	223.788	-0.157	0.251
-211.494	15.654	0.182	0.142
-210.479	-200.000	0.022	-0.262
-209.465	114.794	-0.128	0.155
-208.450	37.267	0.189	0.166
-207.436	800.000	-0.040	0.134
-206.421	42.218	0.147	-0.132
-205.406	80.181	-0.302	-0.322
-204.392	800.000	0.031	0.126
-203.377	7.588	0.328	-0.243
-202.363	-84.105	-0.368	0.116
-201.348	-105.300	0.201	0.045
-200.333	-130.421	0.150	0.020
-199.319	-200.000	-0.020	-0.122
-198.304	-3.293	0.258	-0.178
-197.290	-14.689	0.312	0.198
-196.275	800.000	-0.041	-0.133
-195.260	6.137	0.469	-0.344
-194.246	-56.430	-0.060	0.026
-193.231	-104.787	-0.110	-0.025
-192.217	-123.049	0.306	-0.049
-191.202	42.872	0.094	0.085
-190.187	364.807	-0.054	0.108
-189.173	-103.025	0.114	-0.027
-188.158	800.000	-0.029	-0.110
-187.144	-200.000	-0.030	0.265
-186.129	-100.431	0.180	0.044
-185.114	182.868	-0.055	0.081
-184.100	-68.549	0.140	-0.054
-183.085	64.262	-0.088	0.087
-182.071	-80.824	-0.186	0.061
-181.056	-9.177	0.192	-0.127
-180.042	-123.961	-0.023	-0.004
-179.027	165.339	0.123	-0.173
-178.012	33.065	0.312	-0.268
-176.998	-200.000	-0.016	-0.185
-175.983	5.607	-0.107	-0.078
-174.969	-52.539	0.069	-0.031
-173.954	154.814	-0.114	0.155
-172.939	-103.195	-0.318	0.074
-171.925	800.000	0.148	-0.571
-170.910	-12.850	-0.527	0.340
-169.896	-145.062	0.206	0.019
-168.881	-87.404	0.138	0.041
-167.866	-72.092	0.123	0.045
-166.852	800.000	0.034	0.107
-165.837	743.835	-0.007	0.018
-164.823	-104.238	0.209	0.048
-163.808	396.667	-0.073	0.151
-162.793	-18.599	-0.134	0.083
-161.779	800.000	0.074	0.212
-160.764	118.061	0.085	0.103
-159.750	-148.835	-0.298	0.024
-158.735	61.876	-0.057	-0.056
-157.720	800.000	-0.121	0.370
-156.706	-200.000	0.006	-0.127
-155.691	-49.945	0.197	0.092
-154.677	-50.794	0.274	-0.127
-153.662	-82.230	-0.119	-0.038
-152.647	555.654	0.085	0.203
-151.633	-19.844	0.229	-0.140
-150.618	81.351	-0.343	-0.366
-149.604	50.856	0.170	0.160
-148.589	-18.916	-0.044	0.027
-147.574	800.000	0.023	0.085
-146.560	-155.395	-0.192	0.012
-145.545	-67.776	0.096	0.037
-144.531	-157.739	-0.111	0.006
-143.516	17.360	-0.072	-0.057
-142.502	60.083	-0.140	0.137
-141.487	-52.392	0.337	0.154
-140.472	75.737	0.151	0.158
-139.458	163.145	-0.050	-0.069
-138.443	-91.264	-0.258	0.073
-137.429	-13.717	0.285	0.182
-136.414	800.000	0.076	-0.287
-135.399	-44.704	-0.049	-0.024
-134.385	-86.188	-0.135	0.041
-133.370	262.894	0.170	-0.292
-132.356	36.469	-0.273	-0.238
-131.341	129.623	0.144	-0.182
-130.326	229.175	-0.019	-0.031
-129.312	-148.393	-0.278	-0.023
-128.297	-120.882	0.149	0.025
-127.283	-67.317	-0.048	-0.019
-126.268	-96.918	-0.289	-0.075
-125.253	188.847	0.202	-0.298
-124.239	253.704	-0.148	-0.249
-123.224	-119.836	0.083	0.014
-122.210	15.166	-0.235	-0.181
-121.195	-97.675	0.181	-0.046
-120.180	340.153	-0.088	-0.169
