DTS Sentinel unit serial number:	SN413079Multiplexer serial number:	ORYXHardware model number:	OX4-SRSoftware version number:	ORYX F/W v4.00 Oryx Data Collector v3.7.2.0data status	okinstallation	princeton_trtdifferential loss correction	single-endedforward channel	channel 1reverse channel	N/Adate	2019/09/10time	21:36:11forward acquisition time	60.00reverse acquisition time	0.00gamma	496.2192k internal	0.2330k external	0.2330temperature offset calibration	0.9941default loss term (dB/km)	0.3790temperature slope calibration	1.0000multiplexer offset coefficient	1.0000multiplexer slope coefficient	1.0000fibre end	0.00T internal ref (°C)	31.02T ext. ref 1 (°C)	-0.30T ext. ref 2 (°C)	24.33length (m)	temperature (°C)	Stokes	anti-Stokes-747.200	-44.223	0.077	0.039
-746.185	-200.000	-0.002	-0.294
-745.171	-200.000	0.007	-0.159
-744.156	-39.903	0.127	-0.067
-743.142	50.820	0.182	0.174
-742.127	424.364	0.085	-0.183
-741.112	65.312	0.180	0.183
-740.098	-97.335	-0.314	-0.082
-739.083	-124.846	0.315	-0.049
-738.069	-139.524	0.257	0.028
-737.054	33.054	-0.142	-0.124
-736.039	800.000	-0.051	-0.186
-735.025	-200.000	-0.023	0.218
-734.010	-123.818	-0.558	0.089
-732.996	-29.814	-0.219	-0.126
-731.981	-138.906	0.144	0.016
-730.966	-200.000	-0.032	-0.142
-729.952	61.810	0.112	-0.112
-728.937	5.026	-0.138	-0.102
-727.923	672.376	-0.044	-0.115
-726.908	800.000	-0.034	-0.123
-725.894	5.986	-0.183	-0.137
-724.879	-50.721	0.276	-0.131
-723.864	82.422	-0.097	-0.106
-722.850	-89.897	-0.164	0.048
-721.835	16.953	0.124	-0.099
-720.821	-124.110	0.022	-0.003
-719.806	-32.086	-0.391	-0.220
-718.791	110.502	-0.138	-0.166
-717.777	-105.548	-0.516	0.118
-716.762	273.109	-0.184	0.327
-715.748	600.209	0.067	0.166
-714.733	-46.845	0.190	0.093
-713.718	-200.000	0.000	-0.021
-712.704	43.168	-0.190	0.174
-711.689	18.446	-0.273	0.220
-710.675	-200.000	0.011	-0.148
-709.660	-123.419	0.202	-0.032
-708.645	-200.000	0.029	-0.328
-707.631	385.818	0.057	-0.118
-706.616	-200.000	0.060	0.277
-705.602	-34.850	-0.225	-0.124
-704.587	-104.798	0.172	-0.040
-703.572	800.000	-0.057	-0.170
-702.558	645.222	0.080	0.205
-701.543	-141.283	0.154	0.016
-700.529	-200.000	-0.038	0.252
-699.514	-72.330	-0.327	-0.122
-698.499	44.659	-0.076	0.070
-697.485	-134.339	-0.296	0.037
-696.470	-200.000	-0.006	-0.113
-695.456	192.560	-0.059	0.089
-694.441	-74.842	-0.166	0.060
-693.426	217.157	-0.243	0.389
-692.412	-131.094	-0.211	0.028
-691.397	800.000	-0.102	0.331
-690.383	120.597	0.164	-0.204
-689.368	275.866	-0.113	0.201
-688.354	137.472	0.190	-0.250
-687.339	-200.000	0.006	0.230
-686.324	36.040	0.195	0.173
-685.310	156.007	-0.211	-0.292
-684.295	-151.925	-0.215	0.016
-683.281	43.994	0.049	0.045
-682.266	548.557	-0.128	-0.309
-681.251	-200.000	0.002	-0.046
-680.237	180.044	0.096	0.142
-679.222	-55.714	-0.371	-0.167
-678.208	-105.227	-0.283	0.065
-677.193	54.198	0.244	0.235
-676.178	-126.686	-0.231	0.034
-675.164	22.774	-0.172	-0.142
-674.149	351.002	0.058	-0.115
-673.135	137.373	0.049	0.065
-672.120	45.392	0.156	-0.144
-671.105	49.959	-0.210	0.199
-670.091	-121.537	0.207	-0.035
-669.076	-200.000	-0.019	-0.083
-668.062	539.722	-0.102	-0.243
-667.047	134.693	-0.181	-0.236
-666.032	800.000	0.071	-0.279
-665.018	-101.208	-0.208	0.051
-664.003	-67.516	0.012	0.005
-662.989	41.922	0.183	0.166
-661.974	-112.413	0.067	0.014
-660.959	-79.822	0.216	0.073
-659.945	292.276	0.238	-0.435
-658.930	16.949	-0.347	-0.276
-657.916	121.954	0.148	0.186
-656.901	-37.989	-0.349	-0.186
-655.886	242.754	-0.049	-0.083
-654.872	-200.000	-0.274	0.001
-653.857	-36.390	0.516	0.279
-652.843	79.563	-0.248	-0.267
-651.828	151.451	0.188	-0.256
-650.814	256.583	0.138	0.237
-649.799	105.583	0.141	-0.168
-648.784	-144.664	0.226	-0.021
-647.770	70.580	-0.210	0.218
-646.755	-200.000	0.015	0.435
-645.741	97.100	-0.294	0.338
-644.726	165.190	-0.149	-0.211
-643.711	-84.966	0.305	0.096
-642.697	130.543	0.099	-0.128
-641.682	-87.905	0.380	-0.115
-640.668	-72.869	0.155	0.057
-639.653	365.853	-0.099	0.200
-638.638	-200.000	0.015	-0.210
-637.624	94.359	0.180	-0.205
-636.609	-200.000	-0.001	-0.075
-635.595	183.037	-0.046	-0.069
-634.580	-200.000	0.032	-0.228
-633.565	-53.812	-0.360	0.165
-632.551	-85.218	-0.210	-0.066
-631.536	-31.297	0.166	0.094
-630.522	-96.115	0.154	-0.041
-629.507	-82.751	-0.175	-0.057
-628.492	197.264	0.142	-0.217
-627.478	226.170	-0.052	-0.085
-626.463	-54.511	-0.244	0.111
-625.449	21.321	0.136	-0.111
-624.434	116.729	-0.133	-0.164
-623.419	655.911	-0.026	-0.066
-622.405	571.066	0.127	0.310
-621.390	321.130	0.058	-0.111
-620.376	-200.000	-0.002	0.227
-619.361	20.241	-0.142	-0.115
-618.346	-133.687	-0.151	-0.019
-617.332	79.471	-0.084	0.090
-616.317	-4.658	0.106	-0.074
-615.303	-22.293	0.346	-0.210
-614.288	-112.144	-0.087	-0.018
-613.273	661.383	0.097	-0.250
-612.259	800.000	-0.040	-0.174
-611.244	-200.000	0.003	-0.184
-610.230	-56.665	-0.170	0.076
-609.215	-105.214	-0.155	-0.035
-608.201	-137.826	0.212	-0.024
-607.186	-200.000	-0.004	-0.075
-606.171	800.000	0.088	0.306
-605.157	101.628	0.041	-0.047
-604.142	-200.000	0.025	0.146
-603.128	-133.867	0.501	-0.062
-602.113	-92.529	0.136	-0.038
-601.098	-200.000	0.012	-0.202
-600.084	-12.575	-0.282	-0.184
-599.069	-185.691	0.267	0.004
-598.055	-11.559	-0.039	-0.026
-597.040	-145.896	0.224	-0.020
-596.025	22.624	-0.188	0.154
-595.011	-98.489	-0.386	0.099
-593.996	-51.528	-0.163	0.076
-592.982	309.212	-0.053	0.099
-591.967	175.268	0.119	0.172
-590.952	-150.240	0.284	-0.022
-589.938	-78.238	-0.481	-0.165
-588.923	62.172	0.105	-0.104
-587.909	-148.856	-0.147	-0.012
-586.894	-36.633	-0.248	0.134
-585.879	89.771	0.113	0.126
-584.865	-40.381	-0.069	-0.036
-583.850	800.000	-0.048	-0.134
-582.836	-91.118	0.097	-0.028
-581.821	-12.363	-0.145	0.095
-580.806	-121.796	-0.157	0.026
-579.792	287.504	-0.165	-0.298
-578.777	194.446	-0.096	-0.145
-577.763	-200.000	0.016	0.378
-576.748	-58.572	0.028	-0.012
-575.733	-47.198	0.209	0.102
-574.719	333.943	0.111	-0.214
-573.704	-4.814	0.292	-0.201
-572.690	-80.488	-0.156	-0.052
-571.675	-132.693	0.070	-0.009
-570.661	257.187	0.104	-0.179
-569.646	518.616	0.060	0.141
-568.631	-48.999	0.120	-0.058
-567.617	-200.000	0.023	-0.194
-566.602	291.593	-0.086	0.157
-565.588	428.005	-0.091	0.196
-564.573	-27.712	-0.091	-0.053
-563.558	8.151	-0.039	0.029
-562.544	-63.391	-0.317	0.130
-561.529	-200.000	0.028	-0.278
-560.515	1.255	0.238	-0.171
-559.500	744.860	0.004	0.010
-558.485	247.389	0.127	-0.214
-557.471	20.101	-0.198	0.159
-556.456	-51.007	0.330	-0.155
-555.442	333.416	-0.167	-0.322
-554.427	800.000	0.138	-0.423
-553.412	-61.212	-0.304	-0.128
-552.398	177.233	0.239	0.348
-551.383	-104.791	-0.161	0.037
-550.369	-8.059	-0.267	0.180
-549.354	266.400	-0.070	0.122
-548.339	-46.600	0.152	0.074
-547.325	-200.000	-0.089	-0.449
-546.310	-127.042	-0.166	0.024
-545.296	-200.000	0.021	-0.119
-544.281	-200.000	-0.025	0.114
-543.266	79.834	-0.155	0.166
-542.252	-200.000	-0.021	0.155
-541.237	15.468	-0.180	0.141
-540.223	-166.831	0.216	-0.009
-539.208	-151.928	0.124	0.009
-538.193	327.245	-0.098	-0.188
-537.179	-47.159	0.184	-0.090
-536.164	-167.356	0.056	0.002
-535.150	-142.978	-0.192	0.019
-534.135	391.441	0.044	0.092
-533.121	-186.896	-0.172	0.002
-532.106	103.999	0.101	-0.118
-531.091	167.456	0.235	-0.334
-530.077	-49.660	-0.319	-0.151
-529.062	672.706	-0.118	0.304
-528.048	146.944	0.182	0.244
-527.033	-57.934	0.141	-0.061
-526.018	-200.000	-0.027	0.224
-525.004	-131.285	-0.274	-0.036
-523.989	168.023	-0.071	0.100
-522.975	370.694	0.079	0.160
-521.960	65.165	-0.068	0.069
-520.945	-200.000	0.030	-0.222
-519.931	-181.171	-0.313	-0.006
-518.916	-11.575	-0.193	0.127
-517.902	186.608	-0.076	-0.113
-516.887	-200.000	-0.013	0.165
-515.872	274.949	0.033	0.059
-514.858	-10.179	0.284	-0.188
-513.843	307.377	0.063	-0.117
-512.829	-102.010	0.299	0.072
-511.814	-46.402	-0.264	-0.129
-510.799	-200.000	-0.007	0.107
-509.785	-159.989	-0.084	-0.005
-508.770	800.000	0.066	-0.244
-507.756	-200.000	0.024	-0.149
-506.741	38.793	0.080	0.072
-505.726	31.113	-0.103	0.088
-504.712	-200.000	-0.019	-0.169
-503.697	352.221	-0.140	0.276
-502.683	-61.283	0.308	-0.129
-501.668	800.000	0.091	0.258
-500.653	368.227	0.006	0.013
-499.639	559.579	0.213	0.513
-498.624	-80.951	0.318	0.105
-497.610	-22.775	-0.336	-0.202
-496.595	149.041	-0.178	0.239
-495.581	91.965	0.118	0.132
-494.566	-141.417	-0.182	-0.018
-493.551	188.316	-0.081	-0.121
-492.537	-57.518	-0.146	-0.064
-491.522	-200.000	0.012	-0.059
-490.508	643.467	-0.119	-0.303
-489.493	234.811	-0.227	-0.373
-488.478	-14.796	0.219	-0.140
-487.464	692.253	0.075	0.197
-486.449	-54.512	-0.353	-0.159
-485.435	171.049	-0.099	0.142
-484.420	-114.454	0.396	0.076
-483.405	-4.410	0.173	-0.119
-482.391	279.954	-0.157	-0.279
-481.376	50.356	-0.143	-0.135
-480.362	-65.984	0.233	-0.093
-479.347	377.479	0.154	-0.313
-478.332	-200.000	-0.083	0.573
-477.318	98.149	0.217	0.249
-476.303	23.013	0.188	-0.154
-475.289	428.654	-0.109	0.235
-474.274	-200.000	0.014	0.352
-473.259	-177.540	0.189	-0.005
-472.245	-105.276	0.232	0.053
-471.230	800.000	0.122	0.429
-470.216	-122.832	-0.246	-0.039
-469.201	-162.705	0.237	-0.012
-468.186	-14.957	0.177	0.113
-467.172	-25.435	0.157	0.093
-466.157	30.390	0.117	0.099
-465.143	124.052	0.044	0.055
-464.128	-46.402	0.158	0.077
-463.113	-17.237	0.214	-0.134
-462.099	-60.994	-0.047	0.020
-461.084	44.653	-0.149	0.137
-460.070	-200.000	-0.001	0.133
-459.055	-40.571	-0.068	0.035
-458.040	-139.793	0.098	0.010
-457.026	-200.000	-0.033	-0.211
-456.011	-200.000	-0.048	-0.480
-454.997	-28.594	0.335	-0.192
-453.982	70.138	0.132	-0.136
-452.968	29.717	-0.115	0.097
-451.953	23.521	-0.248	-0.203
-450.938	305.121	-0.119	-0.220
-449.924	-82.170	0.336	0.109
-448.909	-113.742	-0.204	0.040
-447.895	36.221	0.215	-0.189
-446.880	-68.438	-0.059	0.023
-445.865	546.527	0.113	0.270
-444.851	418.072	0.109	0.231
-443.836	800.000	-0.021	-0.070
-442.822	-41.457	-0.081	0.041
-441.807	-200.000	-0.071	-0.423
-440.792	442.287	0.087	-0.190
-439.778	-200.000	-0.045	0.244
-438.763	196.780	-0.122	0.185
-437.749	-4.307	-0.263	0.181
-436.734	157.031	0.211	-0.290
-435.719	51.265	0.200	-0.189
-434.705	56.566	0.165	0.160
-433.690	800.000	0.018	-0.074
-432.676	358.456	-0.091	-0.180
-431.661	-169.720	-0.079	0.003
-430.646	-200.000	0.018	0.112
-429.632	610.113	-0.060	-0.149
-428.617	-200.000	-0.039	-0.378
-427.603	660.103	-0.028	0.072
-426.588	-116.776	-0.303	-0.055
-425.573	-200.000	-0.047	0.220
-424.559	-88.504	0.210	-0.062
-423.544	-200.000	-0.012	-0.266
-422.530	-27.738	-0.153	0.088
-421.515	-135.975	-0.112	-0.013
-420.500	800.000	-0.075	0.241
-419.486	-177.346	-0.109	0.003
-418.471	173.789	-0.274	0.393
-417.457	476.439	-0.182	0.409
-416.442	596.023	0.128	-0.315
-415.428	-129.454	0.099	-0.014
-414.413	-71.584	-0.245	0.091
-413.398	45.008	-0.283	-0.259
-412.384	-61.325	-0.122	0.051
-411.369	-200.000	-0.015	0.258
-410.355	-60.023	-0.114	0.048
-409.340	-105.585	0.524	0.118
-408.325	-200.000	-0.005	-0.203
-407.311	67.449	-0.126	-0.127
-406.296	213.202	-0.101	-0.159
-405.282	-51.362	0.051	-0.024
-404.267	-24.328	0.158	0.094
-403.252	-111.011	-0.287	-0.058
-402.238	294.585	0.167	0.303
-401.223	-138.267	0.189	-0.021
-400.209	19.494	-0.194	-0.155
-399.194	-194.977	0.157	0.001
-398.179	-200.000	-0.024	-0.145
-397.165	-1.725	-0.251	-0.175
-396.150	-200.000	-0.007	0.263
-395.136	-91.207	-0.139	0.039
-394.121	-34.949	-0.244	-0.132
-393.106	-12.639	0.111	-0.072
-392.092	265.620	0.193	-0.335
-391.077	37.591	0.169	0.149
-390.063	-200.000	0.039	0.209
-389.048	-100.001	-0.033	-0.008
-388.033	-81.452	-0.481	0.157
-387.019	40.067	0.231	-0.206
-386.004	122.876	-0.079	-0.098
-384.990	-41.637	0.423	-0.216
-383.975	-200.000	-0.103	-0.479
-382.960	22.825	0.241	-0.196
-381.946	800.000	0.175	0.537
-380.931	-103.399	0.090	0.021
-379.917	800.000	-0.026	-0.084
-378.902	204.874	-0.056	-0.086
-377.888	107.609	0.220	0.260
-376.873	-114.380	-0.183	0.035
-375.858	-200.000	0.019	0.087
-374.844	-164.511	-0.131	-0.006
-373.829	96.259	0.123	0.140
-372.815	-147.366	0.159	0.013
-371.800	-57.122	0.064	-0.028
-370.785	-125.033	-0.364	-0.056
-369.771	800.000	-0.090	0.258
-368.756	27.215	0.184	0.153
-367.742	-151.721	0.242	-0.018
-366.727	800.000	-0.111	-0.336
-365.712	-179.248	-0.161	-0.004
-364.698	-200.000	-0.030	0.192
-363.683	-34.467	-0.248	-0.135
-362.669	-179.515	0.348	-0.008
-361.654	556.482	-0.043	-0.102
-360.639	247.267	0.061	0.102
-359.625	51.615	0.169	0.159
-358.610	-119.797	0.364	-0.062
-357.596	-24.490	-0.380	-0.225
-356.581	565.116	0.076	-0.182
-355.566	309.730	-0.066	0.123
-354.552	108.836	0.035	-0.042
-353.537	598.002	0.016	0.038
-352.523	800.000	-0.095	-0.286
-351.508	-29.389	-0.130	-0.074
-350.493	-200.000	-0.008	-0.163
-349.479	-33.631	0.254	-0.139
-348.464	226.706	-0.057	0.091
-347.450	800.000	0.094	-0.294
-346.435	687.549	-0.080	-0.208
-345.420	800.000	0.048	0.149
-344.406	800.000	-0.013	0.049
-343.391	57.324	-0.165	0.159
-342.377	113.332	0.197	-0.238
-341.362	73.784	0.118	-0.122
-340.348	67.337	0.038	0.038
-339.333	-105.171	0.115	-0.026
-338.318	73.456	0.134	-0.139
-337.304	-97.652	-0.309	0.079
-336.289	-41.257	0.094	0.048
-335.275	7.311	-0.324	-0.240
-334.260	800.000	0.036	0.146
-333.245	-35.690	0.428	0.230
-332.231	-200.000	0.050	0.261
-331.216	140.060	-0.216	-0.282
-330.202	-83.339	0.401	-0.127
-329.187	-24.965	-0.106	-0.062
-328.172	-102.460	-0.045	0.011
-327.158	80.806	0.134	-0.144
-326.143	-200.000	-0.001	0.370
-325.129	84.742	0.168	0.182
-324.114	800.000	-0.047	-0.135
-323.099	-80.035	-0.352	-0.117
-322.085	-149.595	0.250	-0.020
-321.070	-54.825	-0.101	-0.045
-320.056	-26.115	0.160	-0.093
-319.041	800.000	-0.083	-0.242
-318.026	-200.000	-0.041	-0.242
-317.012	-176.568	0.286	0.007
-315.997	-123.911	-0.070	-0.011
-314.983	800.000	-0.031	-0.120
-313.968	-62.773	0.295	0.121
-312.953	14.117	-0.089	-0.069
-311.939	-200.000	0.017	0.134
-310.924	-166.163	-0.135	0.006
-309.910	-116.359	0.329	0.060
-308.895	800.000	0.050	-0.215
-307.880	-93.543	-0.332	0.091
-306.866	373.026	0.086	0.173
-305.851	140.322	-0.138	0.181
-304.837	276.535	-0.113	-0.199
-303.822	-45.940	-0.150	0.073
-302.807	108.709	0.094	0.111
-301.793	3.478	-0.254	0.183
-300.778	-93.897	-0.217	0.059
-299.764	-11.328	-0.141	-0.092
-298.749	-137.490	-0.305	-0.034
-297.735	689.307	-0.057	-0.146
-296.720	2.013	0.294	-0.210
-295.705	180.049	0.050	0.073
-294.691	800.000	0.060	0.181
-293.676	-200.000	-0.035	0.156
-292.662	-50.970	0.274	-0.128
-291.647	800.000	-0.057	0.164
-290.632	-60.197	0.334	0.141
-289.618	-101.102	0.257	-0.062
-288.603	-200.000	0.017	-0.245
-287.589	-200.000	-0.013	0.338
-286.574	29.422	-0.155	0.130
-285.559	196.133	0.219	0.329
-284.545	361.641	0.130	0.258
-283.530	-54.401	-0.165	-0.074
-282.516	-200.000	0.048	0.321
-281.501	378.599	0.111	-0.224
-280.486	-188.814	0.368	-0.004
-279.472	-96.624	0.069	-0.018
-278.457	-55.129	0.365	-0.163
-277.443	-58.219	0.065	-0.028
-276.428	-200.000	0.012	0.089
-275.413	15.264	-0.100	-0.078
-274.399	186.358	0.281	-0.413
-273.384	800.000	-0.110	0.398
-272.370	373.337	0.059	0.119
-271.355	14.269	-0.167	0.129
-270.340	-112.813	-0.240	0.047
-269.326	-88.061	-0.124	0.037
-268.311	65.518	0.033	0.033
-267.297	310.021	-0.051	-0.094
-266.282	-85.893	0.187	-0.057
-265.267	-200.000	-0.061	0.359
-264.253	-200.000	0.004	-0.106
-263.238	170.610	-0.132	0.186
-262.224	-200.000	0.140	0.001
-261.209	-200.000	-0.017	-0.268
-260.195	-157.067	-0.306	0.018
-259.180	538.069	0.199	0.468
-258.165	-61.543	0.033	0.014
-257.151	-200.000	0.006	0.377
-256.136	-150.047	-0.315	0.024
-255.122	-66.115	0.191	0.075
-254.107	127.370	-0.034	-0.043
-253.092	-123.574	-0.170	0.027
-252.078	-116.678	0.089	0.016
-251.063	-31.754	-0.102	0.057
-250.049	-46.344	-0.199	-0.096
-249.034	24.520	-0.118	-0.096
-248.019	-200.000	0.028	0.176
-247.005	-66.571	-0.164	-0.064
-245.990	304.175	-0.104	0.191
-244.976	121.949	-0.333	0.410
-243.961	-10.341	0.203	0.133
-242.946	800.000	0.053	-0.159
-241.932	-69.007	-0.366	0.139
-240.917	89.390	-0.080	-0.088
-239.903	-200.000	-0.025	-0.285
-238.888	76.275	0.055	0.058
-237.873	131.705	-0.065	-0.082
-236.859	156.313	0.054	0.074
-235.844	-31.296	-0.121	0.067
-234.830	-200.000	-0.049	-0.364
-233.815	-200.000	0.001	-0.107
-232.800	149.007	-0.204	-0.273
-231.786	-12.210	-0.132	0.085
-230.771	219.718	0.101	-0.159
-229.757	190.003	0.259	0.383
-228.742	-164.309	0.275	-0.012
-227.727	389.439	0.106	-0.217
-226.713	-200.000	-0.029	-0.222
-225.698	-200.000	0.030	-0.231
-224.684	-24.686	-0.249	0.146
-223.669	-117.084	-0.136	0.025
-222.655	-200.000	-0.014	-0.213
-221.640	692.115	0.071	-0.184
-220.625	-18.338	-0.163	0.100
-219.611	-120.510	0.330	-0.055
-218.596	-200.000	-0.019	0.176
-217.582	160.826	-0.212	0.292
-216.567	10.554	-0.419	-0.315
-215.552	-114.309	-0.232	-0.044
-214.538	-200.000	-0.029	-0.171
-213.523	-200.000	0.030	-0.164
-212.509	-200.000	-0.041	0.245
-211.494	-200.000	-0.077	0.414
-210.479	373.621	0.162	0.325
-209.465	206.718	0.221	-0.339
-208.450	124.607	0.029	-0.036
-207.436	36.951	0.109	0.095
-206.421	607.900	0.007	0.017
-205.406	-66.748	-0.279	0.109
-204.392	-200.000	0.003	0.097
-203.377	301.115	-0.068	0.123
-202.363	-100.834	0.191	-0.046
-201.348	-95.647	-0.093	-0.024
-200.333	-50.862	-0.232	0.108
-199.319	148.482	-0.086	0.115
-198.304	271.391	0.071	-0.124
-197.290	-178.337	-0.239	0.006
-196.275	27.809	-0.239	0.198
-195.260	423.387	0.102	-0.216
-194.246	-56.822	0.103	-0.045
-193.231	35.397	-0.107	0.093
-192.217	-4.654	-0.046	0.031
-191.202	114.109	0.061	0.073
-190.187	171.939	-0.090	-0.127
-189.173	-86.892	0.181	-0.054
-188.158	236.840	0.144	-0.235
-187.144	-52.773	-0.202	0.092
-186.129	-13.812	0.146	0.093
-185.114	-84.200	-0.162	0.050
-184.100	435.685	0.122	0.261
-183.085	-200.000	-0.007	-0.101
-182.071	-200.000	-0.060	-0.494
-181.056	367.792	-0.072	0.143
-180.042	-200.000	-0.031	0.238
-179.027	-38.375	-0.194	-0.101
-178.012	-132.210	0.038	-0.005
-176.998	-200.000	0.020	-0.112
-175.983	-93.733	-0.295	0.080
-174.969	-81.277	0.033	0.011
-173.954	-126.748	0.075	-0.011
-172.939	94.312	-0.155	0.173
-171.925	-73.757	0.233	0.083
-170.910	252.845	0.086	0.145
-169.896	-141.094	-0.037	-0.004
-168.881	90.009	0.145	0.160
-167.866	71.783	-0.255	0.261
-166.852	-161.118	0.084	0.004
-165.837	-72.926	-0.110	-0.040
-164.823	67.316	0.173	-0.174
-163.808	800.000	-0.020	-0.080
-162.793	335.538	0.169	0.322
-161.779	-200.000	-0.030	-0.136
-160.764	-200.000	0.076	0.396
-159.750	331.037	0.156	0.295
-158.735	800.000	0.023	0.062
-157.720	800.000	0.094	0.354
-156.706	108.605	0.217	-0.255
-155.691	96.559	0.112	-0.127
-154.677	-200.000	0.015	0.127
-153.662	0.720	0.152	-0.107
-152.647	-158.325	0.127	-0.007
-151.633	-1.234	-0.229	-0.159
-150.618	207.106	-0.057	0.088
-149.604	1.179	-0.192	0.136
-148.589	33.495	0.140	0.119
-147.574	-176.507	-0.234	-0.006
-146.560	-128.520	-0.139	0.019
-145.545	-200.000	-0.042	0.260
-144.531	152.812	0.118	0.159
-143.516	-200.000	-0.036	0.318
-142.502	-104.466	-0.152	0.035
-141.487	-101.695	-0.266	0.064
-140.472	23.210	0.275	0.222
-139.458	-24.268	-0.180	0.106
-138.443	-200.000	-0.004	-0.196
-137.429	-42.348	0.266	-0.134
-136.414	-200.000	0.029	-0.261
-135.399	-61.767	0.131	-0.054
-134.385	-200.000	-0.047	0.424
-133.370	800.000	0.014	0.045
-132.356	187.983	0.066	0.096
-131.341	314.812	0.163	0.302
-130.326	-1.655	0.254	-0.176
-129.312	-200.000	-0.019	-0.118
-128.297	-200.000	-0.010	-0.144
-127.283	118.343	0.040	-0.048
-126.268	-32.805	0.249	-0.136
-125.253	-60.231	0.264	0.111
-124.239	-99.154	-0.257	0.064
-123.224	-200.000	-0.013	-0.236
-122.210	109.351	-0.177	0.209
