DTS Sentinel unit serial number:	SN413079Multiplexer serial number:	ORYXHardware model number:	OX4-SRSoftware version number:	ORYX F/W v4.00 Oryx Data Collector v3.7.2.0data status	okinstallation	princeton_trtdifferential loss correction	single-endedforward channel	channel 1reverse channel	N/Adate	2019/09/18time	10:34:35forward acquisition time	60.00reverse acquisition time	0.00gamma	496.2192k internal	0.2328k external	0.2328temperature offset calibration	0.9975default loss term (dB/km)	0.3790temperature slope calibration	1.0000multiplexer offset coefficient	1.0000multiplexer slope coefficient	1.0000fibre end	0.00T internal ref (°C)	28.50T ext. ref 1 (°C)	0.36T ext. ref 2 (°C)	25.18length (m)	temperature (°C)	Stokes	anti-Stokes-747.200	-133.848	-0.073	0.009
-746.185	-119.508	0.175	0.031
-745.171	365.969	0.186	0.379
-744.156	46.428	0.130	0.122
-743.142	-129.318	-0.304	0.043
-742.127	458.376	0.063	0.140
-741.112	-200.000	-0.048	-0.214
-740.098	6.614	-0.080	0.060
-739.083	-66.097	-0.233	0.094
-738.069	-80.322	-0.361	0.121
-737.054	-132.105	0.191	0.025
-736.039	189.050	0.069	0.104
-735.025	-200.000	0.037	-0.387
-734.010	16.454	-0.240	0.191
-732.996	800.000	0.098	0.361
-731.981	222.742	0.249	0.404
-730.966	-68.019	0.080	0.031
-729.952	-200.000	-0.021	0.378
-728.937	-105.373	0.559	0.128
-727.923	-103.856	0.126	0.030
-726.908	-200.000	0.010	-0.200
-725.894	409.084	0.159	-0.339
-724.879	75.128	0.128	0.136
-723.864	26.153	-0.273	0.230
-722.850	52.682	0.170	-0.164
-721.835	-30.253	-0.184	-0.105
-720.821	-200.000	0.003	-0.353
-719.806	302.919	0.093	0.174
-718.791	99.163	-0.066	-0.077
-717.777	-123.082	-0.314	-0.051
-716.762	634.736	0.077	0.195
-715.748	-26.147	-0.237	-0.140
-714.733	-200.000	0.006	0.044
-713.718	-112.635	0.280	0.056
-712.704	171.548	-0.036	-0.052
-711.689	-200.000	-0.033	0.300
-710.675	171.989	-0.034	-0.049
-709.660	-200.000	-0.063	0.337
-708.645	-111.571	0.268	0.055
-707.631	-32.889	0.214	-0.120
-706.616	32.771	-0.128	0.111
-705.602	-27.858	0.304	0.178
-704.587	-88.774	0.352	-0.105
-703.572	38.936	0.336	-0.302
-702.558	800.000	-0.024	-0.102
-701.543	16.265	-0.229	0.182
-700.529	-126.142	0.055	-0.008
-699.514	-160.120	-0.132	-0.007
-698.499	-200.000	0.006	0.171
-697.485	-86.722	0.198	-0.061
-696.470	-72.882	-0.215	0.080
-695.456	-41.207	-0.292	-0.151
-694.441	-57.750	0.232	-0.102
-693.426	2.535	0.356	0.259
-692.412	8.301	0.233	0.176
-691.397	74.884	0.371	-0.393
-690.383	-200.000	0.007	0.081
-689.368	-140.315	-0.155	0.016
-688.354	-200.000	0.007	-0.168
-687.339	509.370	-0.116	0.271
-686.324	-157.457	-0.171	0.010
-685.310	-48.085	-0.146	0.071
-684.295	8.470	-0.114	0.086
-683.281	204.250	-0.167	-0.260
-682.266	47.169	0.373	0.349
-681.251	73.203	-0.265	0.279
-680.237	-143.280	0.274	-0.026
-679.222	597.420	0.026	-0.064
-678.208	346.635	0.090	0.178
-677.193	-200.000	-0.009	-0.272
-676.178	-2.125	-0.097	-0.069
-675.164	-44.948	-0.279	-0.140
-674.149	-141.154	0.272	0.028
-673.135	800.000	0.076	0.248
-672.120	82.485	-0.127	0.138
-671.105	61.955	0.051	0.052
-670.091	775.709	0.107	-0.293
-669.076	-165.168	-0.482	0.021
-668.062	-111.427	-0.182	0.037
-667.047	347.774	-0.018	0.035
-666.032	-129.513	0.278	-0.039
-665.018	-12.131	0.205	0.135
-664.003	-200.000	0.022	0.184
-662.989	76.193	0.249	-0.265
-661.974	186.432	0.112	0.167
-660.959	281.975	0.153	0.276
-659.945	34.605	-0.018	0.015
-658.930	-72.430	0.201	0.075
-657.916	98.162	-0.099	0.115
-656.901	-116.823	-0.417	0.077
-655.886	800.000	-0.080	0.338
-654.872	317.279	-0.062	-0.118
-653.857	259.922	-0.104	0.181
-652.843	348.044	-0.110	-0.218
-651.828	-48.632	-0.084	0.040
-650.814	1.886	0.129	-0.094
-649.799	-81.375	0.201	-0.067
-648.784	-149.469	0.197	-0.016
-647.770	34.346	0.031	-0.027
-646.755	-76.607	-0.169	-0.059
-645.741	800.000	-0.090	-0.325
-644.726	139.158	-0.035	0.046
-643.711	105.307	0.202	-0.240
-642.697	-41.337	-0.152	-0.078
-641.682	-102.935	-0.251	0.060
-640.668	-119.272	-0.293	0.051
-639.653	-114.440	0.254	-0.049
-638.638	128.509	-0.053	-0.067
-637.624	-78.522	0.336	-0.115
-636.609	-200.000	-0.303	0.001
-635.595	800.000	-0.047	0.158
-634.580	-200.000	0.019	-0.218
-633.565	110.812	0.255	-0.308
-632.551	144.628	-0.172	-0.231
-631.536	-200.000	0.103	0.548
-630.522	651.378	-0.084	0.216
-629.507	-200.000	0.012	-0.437
-628.492	-200.000	0.018	0.196
-627.478	-200.000	-0.022	0.114
-626.463	-169.919	-0.072	0.003
-625.449	-133.951	0.096	0.012
-624.434	-200.000	-0.008	0.084
-623.419	354.628	-0.087	0.173
-622.405	800.000	0.053	-0.155
-621.390	800.000	-0.030	-0.087
-620.376	11.411	-0.178	-0.137
-619.361	-200.000	0.009	-0.246
-618.346	393.434	0.079	0.165
-617.332	192.325	0.324	0.490
-616.317	197.477	0.121	0.185
-615.303	491.356	0.061	-0.139
-614.288	733.932	0.087	-0.233
-613.273	-200.000	-0.051	-0.339
-612.259	130.193	0.075	0.096
-611.244	25.974	-0.103	0.086
-610.230	-112.640	0.224	0.045
-609.215	-154.707	0.259	-0.017
-608.201	-200.000	-0.018	0.087
-607.186	800.000	-0.103	-0.313
-606.171	-200.000	-0.007	-0.222
-605.157	-78.806	0.023	-0.008
-604.142	-200.000	0.051	-0.237
-603.128	-200.000	-0.042	-0.266
-602.113	-53.044	0.387	0.178
-601.098	-87.400	-0.173	0.052
-600.084	158.514	0.029	-0.040
-599.069	-200.000	0.037	0.234
-598.055	-89.594	-0.109	0.032
-597.040	90.789	-0.087	-0.098
-596.025	721.314	0.134	-0.356
-595.011	-200.000	-0.038	-0.275
-593.996	746.853	0.128	0.345
-592.982	118.809	0.168	0.208
-591.967	-200.000	0.021	-0.197
-590.952	-73.525	-0.216	0.079
-589.938	-136.888	-0.153	-0.018
-588.923	-83.982	-0.176	-0.056
-587.909	-121.935	-0.300	0.049
-586.894	800.000	0.037	0.125
-585.879	-84.571	0.222	-0.070
-584.865	-68.346	0.023	-0.009
-583.850	-96.356	-0.299	0.079
-582.836	365.328	-0.102	-0.205
-581.821	-131.407	-0.226	-0.030
-580.806	-84.022	0.429	0.137
-579.792	800.000	0.172	0.503
-578.777	-200.000	0.030	-0.201
-577.763	146.086	0.069	0.092
-576.748	-38.872	-0.178	-0.094
-575.733	75.180	0.264	-0.278
-574.719	358.319	-0.111	0.222
-573.704	-200.000	-0.025	-0.263
-572.690	22.485	-0.282	-0.230
-571.675	104.200	-0.267	-0.315
-570.661	-68.494	0.226	0.088
-569.646	-200.000	-0.043	0.400
-568.631	-98.817	-0.247	-0.063
-567.617	79.000	0.188	-0.201
-566.602	27.248	0.273	0.230
-565.588	198.810	-0.180	-0.276
-564.573	-176.833	-0.130	-0.003
-563.558	116.195	0.113	-0.139
-562.544	90.518	-0.070	0.078
-561.529	583.629	0.110	-0.269
-560.515	-49.172	-0.095	-0.046
-559.500	-167.673	0.043	-0.002
-558.485	800.000	0.127	0.426
-557.471	-93.451	-0.302	-0.084
-556.456	-22.093	-0.074	0.045
-555.442	-143.222	-0.166	0.016
-554.427	53.541	-0.119	0.114
-553.412	800.000	-0.068	0.198
-552.398	800.000	-0.056	0.156
-551.383	-99.451	0.254	0.064
-550.369	800.000	0.067	-0.270
-549.354	41.680	0.193	-0.175
-548.339	-153.100	-0.474	-0.033
-547.325	-116.250	0.095	-0.018
-546.310	-69.146	0.071	0.027
-545.296	262.859	0.175	-0.303
-544.281	224.287	-0.131	0.211
-543.266	-8.495	0.225	0.151
-542.252	-137.010	0.132	0.015
-541.237	-69.802	0.130	0.050
-540.223	-54.196	-0.366	-0.166
-539.208	-200.000	0.014	0.285
-538.193	395.570	0.114	0.237
-537.179	105.745	-0.026	-0.030
-536.164	-133.715	-0.110	0.014
-535.150	800.000	-0.145	-0.528
-534.135	-200.000	0.019	0.112
-533.121	-3.491	-0.054	-0.038
-532.106	-158.625	0.301	0.017
-531.091	302.970	-0.148	0.274
-530.077	-73.098	-0.357	0.131
-529.062	178.229	-0.087	-0.127
-528.048	229.552	0.047	0.076
-527.033	-200.000	-0.007	0.145
-526.018	-35.103	-0.115	-0.063
-525.004	614.155	0.058	0.146
-523.989	281.195	-0.012	0.021
-522.975	180.769	0.205	0.300
-521.960	800.000	-0.138	-0.407
-520.945	105.102	0.314	-0.370
-519.931	-200.000	-0.024	-0.239
-518.916	598.839	0.086	-0.213
-517.902	676.196	0.092	0.240
-516.887	348.925	-0.084	-0.166
-515.872	-200.000	-0.024	-0.165
-514.858	367.768	-0.115	0.232
-513.843	-200.000	-0.032	-0.172
-512.829	-13.095	-0.241	0.156
-511.814	-165.478	0.344	-0.015
-510.799	53.678	0.199	-0.191
-509.785	-110.221	-0.325	-0.068
-508.770	655.776	-0.130	0.332
-507.756	32.013	0.159	-0.137
-506.741	550.183	-0.027	-0.065
-505.726	35.682	0.156	-0.137
-504.712	52.889	0.080	0.077
-503.697	800.000	0.043	-0.132
-502.683	688.608	-0.060	0.158
-501.668	-140.678	0.395	0.041
-500.653	-72.731	-0.241	-0.089
-499.639	-31.736	-0.275	0.154
-498.624	800.000	-0.012	0.041
-497.610	-123.252	-0.279	0.044
-496.595	41.083	-0.037	0.033
-495.581	-23.986	-0.222	-0.132
-494.566	-169.680	0.191	-0.007
-493.551	-44.598	-0.145	0.072
-492.537	-99.314	-0.104	-0.026
-491.522	-200.000	-0.006	0.243
-490.508	443.080	0.104	-0.227
-489.493	368.299	-0.111	-0.224
-488.478	800.000	0.036	-0.113
-487.464	-147.592	-0.188	-0.016
-486.449	-52.179	0.181	0.084
-485.435	-200.000	0.059	-0.289
-484.420	-200.000	-0.033	0.368
-483.405	39.008	-0.209	0.186
-482.391	-200.000	-0.064	0.328
-481.376	103.841	-0.159	0.186
-480.362	-200.000	-0.052	0.289
-479.347	-200.000	-0.009	-0.088
-478.332	-200.000	-0.060	-0.375
-477.318	-62.403	-0.267	-0.111
-476.303	4.067	0.207	-0.151
-475.289	-151.912	0.040	0.003
-474.274	-83.769	0.144	-0.046
-473.259	18.448	0.252	-0.201
-472.245	-8.744	-0.062	0.041
-471.230	-200.000	-0.018	0.097
-470.216	17.885	0.191	0.151
-469.201	-200.000	-0.019	0.101
-468.186	-74.951	-0.208	-0.074
-467.172	201.356	-0.165	0.254
-466.157	-85.120	0.205	0.064
-465.143	800.000	0.017	-0.061
-464.128	-128.685	-0.399	-0.056
-463.113	279.502	-0.247	-0.439
-462.099	2.263	-0.171	0.123
-461.084	-200.000	0.029	-0.220
-460.070	327.607	-0.145	0.277
-459.055	800.000	-0.087	-0.293
-458.040	50.110	-0.179	0.168
-457.026	-200.000	-0.009	-0.055
-456.011	-162.191	-0.138	0.007
-454.997	101.959	0.078	0.091
-453.982	-31.488	-0.074	-0.041
-452.968	-200.000	0.022	-0.256
-451.953	-14.668	0.119	-0.076
-450.938	323.028	-0.209	-0.397
-449.924	-82.111	-0.276	-0.090
-448.909	337.032	-0.091	0.177
-447.895	364.738	0.043	-0.086
-446.880	28.155	-0.226	-0.190
-445.865	6.295	0.235	0.173
-444.851	189.929	-0.250	-0.374
-443.836	58.507	-0.141	-0.138
-442.822	562.993	-0.100	-0.242
-441.807	-94.603	-0.161	-0.044
-440.792	-134.193	-0.145	0.018
-439.778	272.209	0.120	-0.210
-438.763	173.441	-0.190	-0.273
-437.749	311.247	0.138	-0.258
-436.734	-200.000	0.015	0.147
-435.719	542.269	0.070	-0.166
-434.705	800.000	-0.104	-0.293
-433.690	210.498	0.099	-0.155
-432.676	266.452	0.086	0.150
-431.661	-119.262	0.193	0.033
-430.646	373.749	-0.062	-0.126
-429.632	19.901	0.360	0.289
-428.617	-183.006	0.182	0.003
-427.603	-200.000	-0.036	0.161
-426.588	82.007	0.067	-0.072
-425.573	-31.024	0.111	-0.062
-424.559	-200.000	-0.026	0.128
-423.544	93.373	-0.158	0.178
-422.530	-39.501	0.100	0.052
-421.515	52.174	-0.099	-0.094
-420.500	10.975	0.114	-0.087
-419.486	-200.000	0.003	0.072
-418.471	-113.304	0.297	0.058
-417.457	-200.000	0.004	-0.081
-416.442	-127.451	-0.060	-0.009
-415.428	-190.717	-0.330	0.003
-414.413	-200.000	0.063	0.311
-413.398	250.470	0.057	0.097
-412.384	-200.000	-0.028	-0.209
-411.369	-200.000	0.019	-0.106
-410.355	540.737	-0.041	-0.098
-409.340	-200.000	-0.005	-0.128
-408.325	-137.370	-0.172	0.019
-407.311	-64.370	-0.198	0.080
-406.296	483.256	-0.067	-0.152
-405.282	-88.116	0.379	0.113
-404.267	-169.358	0.267	0.010
-403.252	800.000	-0.011	0.039
-402.238	7.089	0.100	0.074
-401.223	-157.013	-0.336	0.020
-400.209	40.467	-0.287	0.257
-399.194	-76.085	0.248	-0.087
-398.179	429.473	-0.040	-0.087
-397.165	27.745	0.070	0.058
-396.150	-200.000	-0.009	0.065
-395.136	67.402	0.190	0.193
-394.121	504.634	-0.096	-0.221
-393.106	414.028	-0.186	-0.393
-392.092	234.396	-0.085	-0.139
-391.077	-129.000	-0.242	-0.034
-390.063	-14.688	0.314	0.200
-389.048	-33.498	0.127	0.070
-388.033	-38.562	-0.074	-0.039
-387.019	70.964	0.133	0.137
-386.004	-160.494	-0.182	-0.010
-384.990	308.444	0.048	-0.088
-383.975	-200.000	-0.000	-0.131
-382.960	-176.115	0.088	-0.002
-381.946	582.824	0.100	0.245
-380.931	-10.364	-0.284	-0.187
-379.917	9.970	-0.262	-0.197
-378.902	401.182	0.161	0.335
-377.888	114.905	0.030	-0.036
-376.873	103.527	0.132	0.154
-375.858	-200.000	0.048	0.264
-374.844	-200.000	0.115	-0.520
-373.829	800.000	0.068	-0.221
-372.815	90.820	-0.094	-0.104
-371.800	204.698	-0.166	-0.256
-370.785	211.161	0.106	0.165
-369.771	795.243	0.065	-0.177
-368.756	-200.000	0.010	0.098
-367.742	84.849	-0.187	0.203
-366.727	-200.000	-0.028	0.181
-365.712	31.210	-0.006	-0.005
-364.698	-200.000	0.002	-0.239
-363.683	-47.607	0.425	-0.205
-362.669	524.267	0.089	0.208
-361.654	-200.000	0.031	0.383
-360.639	16.294	-0.215	0.168
-359.625	800.000	-0.103	-0.284
-358.610	279.673	0.096	0.169
-357.596	-119.529	-0.064	-0.011
-356.581	-113.358	-0.303	-0.059
-355.566	800.000	-0.118	-0.327
-354.552	170.597	-0.179	-0.255
-353.537	-157.455	0.100	-0.006
-352.523	-113.517	0.245	-0.048
-351.508	-70.378	-0.053	0.020
-350.493	174.921	-0.109	-0.156
-349.479	154.840	0.073	0.099
-348.464	-200.000	0.001	0.020
-347.450	-94.304	0.035	-0.010
-346.435	-25.783	-0.075	-0.044
-345.420	516.172	-0.113	0.263
-344.406	291.485	-0.158	0.285
-343.391	-180.821	0.163	-0.003
-342.377	-200.000	-0.013	-0.186
-341.362	-200.000	0.018	-0.128
-340.348	-27.773	0.177	0.102
-339.333	634.502	-0.153	0.384
-338.318	-182.362	-0.367	-0.007
-337.304	-200.000	-0.091	0.450
-336.289	482.834	-0.048	-0.107
-335.275	-200.000	-0.068	0.462
-334.260	-200.000	-0.000	0.127
-333.245	78.744	0.217	-0.230
-332.231	52.632	-0.083	-0.079
-331.216	115.271	0.146	-0.177
-330.202	-59.251	0.372	-0.159
-329.187	-144.231	-0.190	-0.018
-328.172	-200.000	0.026	0.157
-327.158	123.500	-0.213	-0.265
-326.143	-200.000	-0.015	0.167
-325.129	-101.829	0.369	-0.088
-324.114	-200.000	0.013	-0.073
-323.099	44.864	0.071	0.065
-322.085	-125.058	-0.307	-0.047
-321.070	-134.033	0.247	0.030
-320.056	800.000	-0.029	0.087
-319.041	-72.760	0.209	-0.076
-318.026	-106.799	-0.314	0.069
-317.012	-147.579	0.193	0.016
-315.997	-77.010	-0.210	-0.073
-314.983	-103.997	-0.118	-0.027
-313.968	-54.293	-0.210	-0.094
-312.953	-106.377	-0.210	-0.047
-311.939	-138.227	0.286	-0.031
-310.924	-52.534	0.212	-0.097
-309.910	-92.951	-0.223	0.062
-308.895	-200.000	0.044	0.305
-307.880	-51.836	-0.229	0.105
-306.866	765.489	-0.103	0.276
-305.851	-200.000	-0.031	-0.145
-304.837	-79.427	0.055	-0.018
-303.822	-78.058	0.457	-0.156
-302.807	800.000	0.044	0.175
-301.793	-29.242	0.144	0.082
-300.778	54.392	0.150	-0.143
-299.764	-200.000	-0.001	-0.059
-298.749	210.081	0.184	0.286
-297.735	120.483	-0.176	-0.216
-296.720	800.000	-0.044	0.147
-295.705	171.500	-0.035	0.049
-294.691	263.866	-0.024	-0.042
-293.676	-200.000	-0.015	0.126
-292.662	-14.629	-0.362	0.230
-291.647	19.404	-0.201	-0.160
-290.632	-200.000	-0.009	-0.151
-289.618	800.000	0.091	-0.263
-288.603	150.056	0.261	0.350
-287.589	77.058	-0.105	-0.110
-286.574	-200.000	-0.002	0.185
-285.559	211.910	0.124	-0.193
-284.545	-19.491	-0.192	0.118
-283.530	25.531	0.153	-0.126
-282.516	-200.000	0.020	0.178
-281.501	71.985	0.207	-0.214
-280.486	-155.576	-0.237	0.015
-279.472	-8.367	0.202	-0.135
-278.457	-94.738	0.122	-0.033
-277.443	22.783	0.101	-0.082
-276.428	-75.306	0.171	0.060
-275.413	-200.000	0.031	0.169
-274.399	-19.905	-0.138	-0.085
-273.384	30.766	0.210	-0.178
-272.370	193.012	0.230	0.344
-271.355	-200.000	-0.052	0.427
-270.340	123.699	-0.184	0.228
-269.326	800.000	-0.079	-0.322
-268.311	178.327	0.116	0.167
-267.297	-200.000	0.002	0.116
-266.282	574.531	0.046	0.111
-265.267	800.000	0.103	0.385
-264.253	202.518	0.068	0.104
-263.238	-34.179	-0.163	0.089
-262.224	-68.591	0.160	0.061
-261.209	-176.629	0.190	0.005
-260.195	22.577	-0.201	-0.163
-259.180	-200.000	0.055	0.288
-258.165	-105.409	0.390	0.088
-257.151	795.294	0.090	0.244
-256.136	309.783	-0.142	-0.263
-255.122	-102.483	-0.237	0.056
-254.107	-172.263	0.116	0.004
-253.092	-114.663	-0.042	0.008
-252.078	-120.108	0.428	0.072
-251.063	-102.861	0.294	0.069
-250.049	-200.000	0.001	0.150
-249.034	-68.859	-0.107	0.041
-248.019	143.021	0.201	0.264
-247.005	-146.248	0.298	-0.026
-245.990	-108.096	0.195	-0.042
-244.976	95.721	0.062	-0.070
-243.961	174.641	0.050	-0.072
-242.946	148.943	0.142	-0.190
-241.932	54.785	0.149	0.142
-240.917	179.260	0.158	0.229
-239.903	800.000	-0.104	-0.407
-238.888	-147.188	-0.242	-0.020
-237.873	800.000	0.145	0.397
-236.859	64.144	0.162	0.162
-235.844	-45.446	-0.306	0.150
-234.830	-200.000	0.010	-0.405
-233.815	-135.348	-0.221	-0.026
-232.800	-200.000	0.034	0.270
-231.786	-200.000	-0.017	-0.160
-230.771	800.000	-0.037	-0.121
-229.757	78.792	-0.101	0.107
-228.742	330.747	0.104	-0.199
-227.727	174.992	-0.045	0.064
-226.713	-200.000	0.056	0.527
-225.698	111.709	-0.014	-0.016
-224.684	-200.000	-0.010	-0.078
-223.669	157.837	0.144	0.196
-222.655	275.186	0.152	-0.267
-221.640	-200.000	0.006	-0.070
-220.625	-132.121	0.240	-0.031
-219.611	29.442	0.095	0.080
-218.596	42.463	-0.246	0.221
-217.582	-148.785	0.121	-0.010
-216.567	-12.896	0.114	0.073
-215.552	122.498	-0.123	0.151
-214.538	53.567	0.223	0.211
-213.523	178.601	0.060	0.087
-212.509	761.145	0.047	0.126
-211.494	-21.380	0.274	0.165
-210.479	-111.190	-0.323	-0.065
-209.465	-200.000	-0.057	-0.297
-208.450	-200.000	-0.035	0.228
-207.436	146.626	0.093	-0.123
-206.421	12.412	-0.120	0.091
-205.406	-43.060	0.273	0.136
-204.392	19.007	0.098	-0.077
-203.377	407.181	-0.046	0.096
-202.363	800.000	0.065	0.258
-201.348	-42.309	-0.283	-0.142
-200.333	800.000	-0.063	-0.201
-199.319	800.000	-0.118	0.476
-198.304	-49.021	-0.171	0.081
-197.290	-26.753	0.184	0.106
-196.275	704.412	-0.062	-0.162
-195.260	248.210	-0.032	-0.054
-194.246	93.949	-0.126	0.141
-193.231	26.600	0.024	0.020
-192.217	-47.192	-0.195	0.094
-191.202	-33.002	-0.236	0.129
-190.187	18.346	-0.330	0.260
-189.173	58.873	0.154	0.149
-188.158	-200.000	0.009	0.409
-187.144	320.135	-0.040	-0.075
-186.129	338.649	-0.075	0.143
-185.114	-145.536	0.109	0.010
-184.100	-94.442	-0.023	-0.006
-183.085	-43.744	0.374	0.186
-182.071	48.165	0.187	0.173
-181.056	800.000	-0.019	-0.076
-180.042	800.000	-0.043	0.152
-179.027	83.105	0.083	-0.089
-178.012	437.896	0.146	-0.313
-176.998	-45.875	0.044	0.022
-175.983	-200.000	0.024	-0.350
-174.969	254.817	0.034	-0.058
-173.954	-60.961	0.128	-0.053
-172.939	-26.282	-0.433	-0.250
-171.925	-142.757	0.208	-0.020
-170.910	-35.517	-0.238	-0.127
-169.896	-200.000	0.014	0.109
-168.881	1.484	-0.148	0.105
-167.866	110.531	0.062	-0.074
-166.852	-56.128	0.112	-0.049
-165.837	-102.148	0.299	-0.071
-164.823	131.319	0.358	0.453
-163.808	800.000	-0.050	-0.204
-162.793	213.321	-0.075	0.116
-161.779	120.101	0.094	0.115
-160.764	59.134	-0.097	-0.094
-159.750	-200.000	-0.001	0.322
-158.735	-50.423	0.246	-0.115
-157.720	-90.856	-0.210	0.059
-156.706	78.724	-0.125	-0.132
-155.691	-73.688	-0.113	-0.040
-154.677	-143.729	-0.226	0.021
-153.662	46.376	-0.323	-0.295
-152.647	57.982	0.390	-0.376
-151.633	503.830	0.138	-0.314
-150.618	98.759	-0.057	-0.064
-149.604	-200.000	-0.029	0.149
-148.589	-200.000	-0.010	0.324
-147.574	-138.100	0.173	-0.019
-146.560	73.614	-0.195	-0.201
-145.545	-55.567	0.378	0.167
-144.531	385.661	0.052	-0.106
-143.516	556.461	-0.165	0.392
-142.502	800.000	-0.117	0.442
-141.487	-2.351	0.119	-0.082
-140.472	-200.000	0.172	-0.001
-139.458	-50.392	0.179	0.083
-138.443	800.000	0.101	-0.337
-137.429	-200.000	0.011	-0.146
-136.414	-113.228	0.022	-0.004
-135.399	-58.244	0.404	-0.173
-134.385	612.502	0.072	0.177
-133.370	-200.000	0.024	0.516
-132.356	-13.944	0.248	-0.157
-131.341	-15.603	0.119	-0.075
-130.326	55.001	-0.210	0.199
-129.312	730.108	0.142	0.373
-128.297	89.951	-0.246	-0.270
-127.283	4.918	-0.418	-0.302
-126.268	190.557	0.077	-0.114
-125.253	468.288	-0.167	-0.368
-124.239	242.034	-0.134	0.220
-123.224	-200.000	-0.008	0.128
-122.210	-4.333	0.236	0.160
