DTS Sentinel unit serial number:	SN413079Multiplexer serial number:	ORYXHardware model number:	OX4-SRSoftware version number:	ORYX F/W v4.00 Oryx Data Collector v3.7.2.0data status	okinstallation	princeton_trtdifferential loss correction	single-endedforward channel	channel 1reverse channel	N/Adate	2019/09/12time	18:44:34forward acquisition time	15.00reverse acquisition time	0.00gamma	496.2192k internal	0.2318k external	0.2318temperature offset calibration	1.0103default loss term (dB/km)	0.3790temperature slope calibration	1.0000multiplexer offset coefficient	1.0000multiplexer slope coefficient	1.0000fibre end	0.00T internal ref (°C)	33.00T ext. ref 1 (°C)	2.96T ext. ref 2 (°C)	27.49length (m)	temperature (°C)	Stokes	anti-Stokes-747.200	580.312	0.244	-0.605
-746.185	-39.805	0.252	-0.133
-745.171	86.406	0.508	0.567
-744.156	800.000	0.224	0.753
-743.142	105.543	0.278	0.333
-742.127	-18.781	-0.314	0.198
-741.112	362.882	-0.117	-0.237
-740.098	25.118	-0.385	-0.324
-739.083	800.000	-0.230	0.865
-738.069	-18.437	0.381	-0.241
-737.054	77.562	-0.351	0.378
-736.039	-19.368	0.129	0.081
-735.025	14.991	0.438	0.347
-734.010	140.665	0.095	0.127
-732.996	-200.000	-0.012	0.273
-731.981	0.028	0.021	-0.015
-730.966	-200.000	0.112	0.595
-729.952	-56.667	0.509	-0.228
-728.937	800.000	0.168	-0.525
-727.923	-124.621	0.116	-0.018
-726.908	-200.000	-0.206	-0.939
-725.894	-200.000	0.083	-0.480
-724.879	88.671	-0.098	-0.110
-723.864	8.304	0.592	-0.450
-722.850	529.622	-0.074	0.177
-721.835	67.964	-0.267	0.276
-720.821	-7.111	-0.416	-0.285
-719.806	-113.565	0.704	0.139
-718.791	-6.822	0.498	-0.343
-717.777	-83.765	0.405	0.131
-716.762	154.261	-0.264	-0.367
-715.748	36.306	-0.364	-0.324
-714.733	-90.867	-0.688	0.200
-713.718	-200.000	0.000	-0.126
-712.704	48.473	0.565	-0.535
-711.689	51.313	-0.477	0.457
-710.675	616.887	-0.351	0.889
-709.660	800.000	-0.261	-0.930
-708.645	800.000	0.193	-0.585
-707.631	39.615	-0.260	-0.235
-706.616	-75.093	0.405	-0.147
-705.602	-79.987	-0.327	-0.111
-704.587	-102.852	0.378	-0.091
-703.572	-200.000	-0.044	-0.417
-702.558	225.458	-0.265	0.433
-701.543	-116.226	-0.935	-0.175
-700.529	147.801	-0.409	-0.558
-699.514	-200.000	0.035	0.186
-698.499	-200.000	0.025	0.287
-697.485	800.000	-0.157	-0.513
-696.470	209.780	-0.488	-0.772
-695.456	-22.582	-0.628	0.384
-694.441	-200.000	-0.074	0.504
-693.426	-154.343	-0.386	0.026
-692.412	-49.073	0.247	-0.119
-691.397	800.000	-0.164	0.503
-690.383	-103.422	-0.867	-0.206
-689.368	-27.698	-0.411	-0.241
-688.354	-200.000	0.006	0.131
-687.339	800.000	-0.069	0.240
-686.324	-200.000	0.007	0.349
-685.310	-31.676	-0.125	-0.071
-684.295	16.403	0.344	0.274
-683.281	-74.350	0.067	-0.024
-682.266	-200.000	0.017	0.217
-681.251	-200.000	-0.181	-1.132
-680.237	139.451	-0.279	-0.371
-679.222	321.252	-0.272	-0.522
-678.208	-200.000	0.005	-0.051
-677.193	-0.373	-0.094	0.067
-676.178	-148.524	1.071	0.088
-675.164	-200.000	0.025	0.531
-674.149	-144.534	-0.876	-0.082
-673.135	68.282	-0.148	0.153
-672.120	288.470	0.201	0.367
-671.105	-45.713	0.682	-0.340
-670.091	-92.130	-0.662	0.189
-669.076	459.666	-0.178	-0.401
-668.062	800.000	-0.014	0.055
-667.047	560.538	0.109	0.266
-666.032	-54.003	0.587	-0.270
-665.018	235.231	-0.226	-0.377
-664.003	300.502	0.508	0.945
-662.989	315.462	-0.111	0.211
-661.974	-200.000	0.219	-1.191
-660.959	38.147	-0.172	-0.154
-659.945	-34.076	-0.392	0.217
-658.930	-87.286	-0.677	-0.207
-657.916	-88.214	0.634	-0.191
-656.901	679.707	0.265	-0.695
-655.886	-114.465	-0.420	-0.081
-654.872	98.105	0.229	-0.265
-653.857	800.000	0.226	0.839
-652.843	621.349	-0.338	0.857
-651.828	357.625	-0.220	0.442
-650.814	-126.155	0.371	0.056
-649.799	-200.000	0.061	0.289
-648.784	38.656	-0.368	0.331
-647.770	-200.000	-0.069	0.392
-646.755	-152.902	0.436	-0.031
-645.741	-63.814	0.172	0.071
-644.726	-39.755	0.448	-0.236
-643.711	278.763	0.441	-0.793
-642.697	330.925	0.238	-0.462
-641.682	39.195	0.714	-0.644
-640.668	85.108	0.260	-0.287
-639.653	-200.000	0.113	-0.653
-638.638	-35.972	-0.439	-0.239
-637.624	-110.788	0.251	0.052
-636.609	47.478	-0.108	0.101
-635.595	-20.623	-0.356	-0.220
-634.580	-38.881	0.474	-0.252
-633.565	66.490	-0.079	-0.081
-632.551	-117.977	-0.244	0.044
-631.536	-115.608	0.616	-0.117
-630.522	-113.095	1.022	-0.203
-629.507	77.712	0.264	-0.283
-628.492	-30.872	0.333	0.190
-627.478	69.350	0.279	-0.289
-626.463	-30.291	0.185	-0.106
-625.449	31.279	-0.435	0.376
-624.434	-77.151	-0.578	-0.203
-623.419	67.931	-0.211	0.218
-622.405	177.132	-0.494	-0.724
-621.390	-200.000	-0.027	0.690
-620.376	-200.000	-0.068	0.582
-619.361	-9.437	-0.291	0.195
-618.346	295.895	-0.265	0.489
-617.332	171.187	0.303	0.437
-616.317	87.800	0.257	0.287
-615.303	-200.000	-0.051	-1.043
-614.288	-200.000	-0.044	-0.310
-613.273	558.282	0.149	-0.362
-612.259	-59.188	0.342	-0.149
-611.244	-200.000	0.137	-0.853
-610.230	133.965	0.570	-0.743
-609.215	-155.323	0.519	0.034
-608.201	760.284	-0.210	0.574
-607.186	-200.000	0.049	0.596
-606.171	-91.412	0.053	0.015
-605.157	-143.319	-1.203	-0.116
-604.142	-46.907	1.060	-0.521
-603.128	499.609	-0.049	-0.113
-602.113	-104.002	-0.412	0.097
-601.098	-200.000	0.028	0.138
-600.084	-68.684	-0.468	-0.182
-599.069	-96.130	0.678	0.181
-598.055	-200.000	0.262	0.000
-597.040	-90.319	-1.273	0.372
-596.025	36.317	0.335	0.297
-595.011	6.000	0.773	-0.576
-593.996	-56.978	-0.670	0.297
-592.982	25.203	0.117	0.097
-591.967	-48.081	0.109	0.053
-590.952	5.081	0.224	0.166
-589.938	-91.572	0.661	-0.189
-588.923	31.595	0.104	-0.090
-587.909	82.194	-0.100	0.109
-586.894	-135.559	-1.226	0.147
-585.879	495.444	-0.145	0.335
-584.865	381.718	-0.410	0.846
-583.850	-115.306	0.195	-0.037
-582.836	-94.343	-0.653	-0.179
-581.821	408.918	0.146	-0.311
-580.806	436.324	0.103	0.225
-579.792	-172.717	-0.956	0.030
-578.777	92.758	-0.327	0.371
-577.763	-176.066	1.055	-0.028
-576.748	173.329	0.349	-0.506
-575.733	-32.351	-0.957	-0.537
-574.719	-200.000	-0.134	0.645
-573.704	-60.869	0.563	0.240
-572.690	-74.923	-0.420	0.151
-571.675	-52.881	0.453	0.210
-570.661	82.653	0.498	-0.544
-569.646	-55.985	0.284	-0.127
-568.631	-200.000	-0.122	-0.724
-567.617	-200.000	-0.008	0.856
-566.602	70.288	0.439	0.456
-565.588	448.237	0.156	0.346
-564.573	-114.937	-0.306	0.059
-563.558	137.278	0.444	0.583
-562.544	10.804	-0.431	0.331
-561.529	-34.475	-0.551	0.303
-560.515	-178.162	-0.582	-0.014
-559.500	-106.679	-0.571	-0.128
-558.485	-200.000	0.071	-0.989
-557.471	613.035	0.262	-0.658
-556.456	353.405	-0.400	-0.798
-555.442	-23.717	-0.084	-0.050
-554.427	-93.170	-0.146	0.041
-553.412	800.000	-0.122	0.404
-552.398	154.916	-0.407	0.562
-551.383	330.145	-0.329	-0.637
-550.369	170.374	0.511	-0.734
-549.354	800.000	0.303	1.005
-548.339	-163.124	0.747	0.036
-547.325	46.195	0.521	0.484
-546.310	-4.168	-0.379	-0.263
-545.296	17.554	-0.141	0.113
-544.281	-32.342	0.588	-0.329
-543.266	-200.000	0.013	-0.710
-542.252	-102.983	-0.274	-0.065
-541.237	-157.424	0.781	-0.047
-540.223	-3.444	0.593	-0.414
-539.208	-175.446	0.441	0.012
-538.193	-200.000	0.069	0.538
-537.179	316.614	-0.325	-0.616
-536.164	-103.827	-0.273	0.064
-535.150	800.000	-0.043	-0.127
-534.135	113.144	0.371	0.452
-533.121	-141.737	-1.026	-0.103
-532.106	-24.866	0.711	0.424
-531.091	-85.230	-0.345	-0.108
-530.077	16.192	-0.502	-0.397
-529.062	120.634	-0.783	-0.977
-528.048	143.718	0.234	0.313
-527.033	-3.971	0.061	-0.043
-526.018	-147.686	-0.342	-0.029
-525.004	105.471	-0.238	0.283
-523.989	-200.000	-0.074	-0.461
-522.975	9.210	0.175	-0.132
-521.960	103.474	-0.206	0.242
-520.945	-81.650	-1.193	-0.393
-519.931	-70.617	-0.363	0.138
-518.916	101.929	0.388	-0.455
-517.902	143.027	-0.392	0.523
-516.887	-128.869	-0.920	-0.130
-515.872	122.171	0.286	0.358
-514.858	768.655	-0.170	0.465
-513.843	7.085	-0.314	0.235
-512.829	-200.000	-0.044	-0.230
-511.814	-200.000	-0.122	0.566
-510.799	-200.000	-0.016	0.096
-509.785	792.204	0.107	-0.296
-508.770	-146.432	0.782	0.068
-507.756	-200.000	0.066	-0.510
-506.741	-200.000	-0.007	-0.558
-505.726	-172.066	0.892	-0.029
-504.712	-32.892	-0.445	0.248
-503.697	-200.000	-0.048	0.945
-502.683	-200.000	0.054	-0.544
-501.668	-91.858	-0.295	-0.084
-500.653	-24.541	0.510	-0.304
-499.639	89.125	-0.146	0.163
-498.624	-119.102	0.291	0.051
-497.610	-76.222	-0.715	-0.253
-496.595	-108.466	0.377	0.081
-495.581	22.277	0.261	-0.214
-494.566	800.000	-0.080	0.300
-493.551	800.000	-0.153	0.599
-492.537	13.896	-0.444	-0.346
-491.522	-118.962	-0.866	-0.152
-490.508	-200.000	-0.090	-0.563
-489.493	-200.000	-0.131	-0.592
-488.478	362.478	-0.101	-0.203
-487.464	-61.167	0.655	-0.277
-486.449	71.522	-0.350	-0.364
-485.435	-200.000	0.011	-0.161
-484.420	658.321	-0.237	0.612
-483.405	-80.885	0.397	0.132
-482.391	-39.770	-0.608	-0.318
-481.376	800.000	-0.186	0.579
-480.362	-158.204	0.316	-0.019
-479.347	-134.422	1.134	0.139
-478.332	800.000	0.179	0.515
-477.318	484.867	0.451	1.029
-476.303	-170.834	-0.798	0.027
-475.289	-200.000	0.013	-0.158
-474.274	-70.526	-0.358	0.136
-473.259	345.679	-0.241	-0.475
-472.245	-30.738	0.362	0.205
-471.230	-62.952	-0.355	0.147
-470.216	-200.000	-0.060	-0.337
-469.201	-152.915	0.692	-0.049
-468.186	25.480	0.372	-0.310
-467.172	-84.559	0.179	0.057
-466.157	-69.903	0.258	-0.099
-465.143	-158.024	0.656	0.039
-464.128	99.847	-0.161	-0.187
-463.113	800.000	0.085	0.300
-462.099	800.000	0.034	0.136
-461.084	414.714	-0.240	0.512
-460.070	146.661	-0.539	0.724
-459.055	205.035	-0.339	-0.526
-458.040	-15.227	-0.422	-0.270
-457.026	-200.000	-0.044	-0.668
-456.011	-44.454	-0.118	0.059
-454.997	-45.218	-0.117	0.058
-453.982	62.651	0.524	0.524
-452.968	8.566	0.407	0.307
-451.953	-200.000	0.166	-1.261
-450.938	142.377	-0.306	-0.407
-449.924	14.014	0.934	0.727
-448.909	-21.479	0.051	-0.031
-447.895	-55.540	0.311	-0.139
-446.880	800.000	-0.130	-0.419
-445.865	-106.667	0.693	0.154
-444.851	146.583	0.215	-0.289
-443.836	-147.912	-0.248	0.021
-442.822	-1.231	-0.324	-0.229
-441.807	-168.842	0.301	-0.011
-440.792	75.056	0.113	-0.119
-439.778	18.474	-0.122	0.098
-438.763	36.264	-0.469	0.413
-437.749	-40.860	0.903	0.467
-436.734	-200.000	-0.048	-0.296
-435.719	-13.757	-0.589	0.381
-434.705	-200.000	-0.942	-0.004
-433.690	-51.202	0.531	0.249
-432.676	28.120	-0.228	-0.192
-431.661	714.025	0.249	0.660
-430.646	-0.045	-0.440	-0.313
-429.632	608.936	0.271	0.676
-428.617	452.394	-0.235	0.519
-427.603	-54.159	-0.484	-0.220
-426.588	665.361	0.456	-1.176
-425.573	-200.000	-0.093	-0.632
-424.559	-16.138	0.593	0.377
-423.544	-40.445	-0.933	-0.484
-422.530	377.041	0.256	-0.522
-421.515	225.742	-0.253	-0.410
-420.500	-16.534	-0.774	-0.490
-419.486	-17.328	0.550	-0.346
-418.471	800.000	-0.081	-0.319
-417.457	-200.000	-0.040	0.555
-416.442	-200.000	0.220	-1.074
-415.428	-200.000	-0.047	0.206
-414.413	800.000	0.042	-0.166
-413.398	800.000	0.265	-0.900
-412.384	-104.852	-1.069	-0.245
-411.369	-71.542	-0.523	-0.195
-410.355	744.130	-0.293	-0.788
-409.340	-47.584	-0.360	-0.175
-408.325	516.647	0.266	0.620
-407.311	-62.537	-0.810	0.336
-406.296	-200.000	0.067	0.429
-405.282	589.634	0.205	0.504
-404.267	800.000	0.074	0.295
-403.252	-17.170	-0.546	-0.344
-402.238	-71.392	0.478	0.179
-401.223	-25.117	0.266	-0.157
-400.209	-139.763	0.755	-0.080
-399.194	617.171	0.318	0.796
-398.179	193.814	-0.112	0.169
-397.165	-92.844	-1.367	-0.381
-396.150	-4.561	-0.794	0.547
-395.136	194.513	-0.258	0.390
-394.121	21.025	-0.130	0.105
-393.106	388.863	-0.390	0.806
-392.092	778.905	0.045	-0.123
-391.077	543.380	-0.206	0.491
-390.063	652.600	0.405	-1.037
-389.048	-102.975	0.063	0.015
-388.033	-150.952	0.302	0.023
-387.019	20.120	0.567	-0.457
-386.004	-200.000	0.014	0.375
-384.990	-200.000	-0.017	0.119
-383.975	336.124	-0.348	0.673
-382.960	-88.987	-0.063	-0.019
-381.946	226.692	0.079	-0.128
-380.931	56.170	0.595	0.577
-379.917	800.000	-0.129	-0.442
-378.902	-200.000	0.075	-0.596
-377.888	459.906	0.518	-1.150
-376.873	-31.991	-0.040	-0.022
-375.858	800.000	0.369	-1.107
-374.844	800.000	-0.140	-0.584
-373.829	-101.821	0.429	-0.104
-372.815	-200.000	0.202	0.995
-371.800	-200.000	0.092	-0.480
-370.785	80.864	-0.734	-0.790
-369.771	-49.242	-0.369	-0.176
-368.756	-111.213	0.865	-0.176
-367.742	-95.328	0.986	0.265
-366.727	-200.000	0.002	0.418
-365.712	-200.000	0.051	0.341
-364.698	-200.000	0.026	-0.165
-363.683	-67.983	-0.487	-0.189
-362.669	-136.766	-0.324	-0.037
-361.654	-200.000	-0.007	0.041
-360.639	-40.368	-1.014	0.526
-359.625	-62.898	0.456	-0.188
-358.610	56.864	-0.407	0.395
-357.596	124.487	-0.230	0.289
-356.581	261.792	-0.448	0.774
-355.566	261.083	0.255	-0.441
-354.552	-200.000	0.146	-1.000
-353.537	368.291	0.223	-0.450
-352.523	-32.508	0.585	-0.325
-351.508	367.317	0.138	0.277
-350.493	18.330	0.788	-0.627
-349.479	800.000	0.203	0.664
-348.464	137.725	-0.488	0.637
-347.450	-200.000	-0.079	-0.685
-346.435	-155.629	0.680	0.044
-345.420	22.730	0.473	-0.386
-344.406	39.400	0.509	0.455
-343.391	-86.202	0.457	-0.140
-342.377	-115.083	0.566	0.107
-341.362	-106.649	-0.333	0.074
-340.348	61.620	0.392	-0.389
-339.333	800.000	0.113	0.463
-338.318	-200.000	-0.123	-0.725
-337.304	-200.000	-0.056	0.402
-336.289	-119.010	0.742	-0.129
-335.275	508.099	0.336	-0.778
-334.260	-200.000	0.004	-0.229
-333.245	-119.306	0.301	0.052
-332.231	-62.261	-0.652	-0.271
-331.216	209.833	0.531	-0.829
-330.202	-34.643	-1.173	-0.639
-329.187	-28.588	-0.736	-0.422
-328.172	-67.839	0.283	0.110
-327.158	50.728	-0.396	-0.373
-326.143	101.119	-0.255	-0.295
-325.129	15.617	-0.412	0.322
-324.114	-0.681	-0.555	-0.392
-323.099	248.686	-0.253	-0.426
-322.085	156.394	0.410	-0.563
-321.070	-200.000	-0.086	0.996
-320.056	60.530	-0.508	-0.501
-319.041	-175.994	0.616	-0.016
-318.026	-11.126	0.309	-0.203
-317.012	0.284	0.440	0.312
-315.997	-95.496	-0.790	-0.211
-314.983	335.195	0.154	0.297
-313.968	458.443	0.438	0.970
-312.953	-200.000	-0.070	-0.512
-311.939	10.744	0.129	-0.098
-310.924	-71.398	-0.256	0.096
-309.910	-44.754	0.692	0.343
-308.895	101.814	-0.368	0.428
-307.880	-76.989	1.382	0.480
-306.866	-200.000	0.101	0.657
-305.851	-200.000	-0.065	0.907
-304.837	312.643	-0.369	0.689
-303.822	-166.241	-0.935	0.039
-302.807	19.316	0.454	-0.363
-301.793	-49.421	-0.063	-0.030
-300.778	225.389	-0.163	0.263
-299.764	130.828	-0.203	-0.259
-298.749	-37.622	0.342	0.181
-297.735	-85.375	0.285	0.088
-296.720	-200.000	0.042	-0.389
-295.705	-95.472	0.716	-0.191
-294.691	-106.449	0.852	-0.189
-293.676	240.052	-0.419	0.694
-292.662	-158.086	0.380	-0.022
-291.647	-42.551	-0.556	-0.282
-290.632	382.666	0.277	0.566
-289.618	-52.992	0.919	-0.420
-288.603	88.476	0.517	0.571
-287.589	-99.380	-0.589	0.148
-286.574	-83.284	-0.868	0.277
-285.559	-32.792	0.704	-0.389
-284.545	-103.162	0.307	0.072
-283.530	544.670	-0.124	-0.294
-282.516	110.663	0.135	-0.162
-281.501	-200.000	-0.059	0.471
-280.486	-114.084	-0.587	-0.113
-279.472	-134.471	-0.159	-0.019
-278.457	-157.565	-0.220	0.013
-277.443	155.483	-0.268	0.367
-276.428	-53.790	-0.450	0.204
-275.413	51.617	0.390	-0.368
-274.399	-30.964	-0.551	0.309
-273.384	549.145	0.180	0.429
-272.370	-200.000	-0.016	0.542
-271.355	550.119	-0.204	0.486
-270.340	108.991	-0.247	0.294
-269.326	-191.671	-0.361	0.004
-268.311	-136.345	0.151	-0.017
-267.297	104.843	0.704	0.825
-266.282	-36.387	0.662	-0.354
-265.267	-82.248	0.261	-0.084
-264.253	-6.623	1.289	-0.871
-263.238	236.605	0.511	-0.839
-262.224	-107.367	0.884	-0.193
-261.209	46.204	0.549	-0.505
-260.195	-87.527	0.286	-0.086
-259.180	-84.544	-0.318	0.100
-258.165	-200.000	-0.012	-0.263
-257.151	-103.910	-0.824	-0.191
-256.136	264.075	-0.100	-0.172
-255.122	254.918	0.200	-0.341
-254.107	-108.563	-0.251	0.054
-253.092	-16.003	-0.728	0.460
-252.078	-200.000	0.027	-0.391
-251.063	700.657	0.182	-0.476
-250.049	-200.000	0.050	-0.449
-249.034	-160.384	-0.645	-0.034
-248.019	-90.796	-0.386	-0.110
-247.005	43.621	0.376	0.341
-245.990	-104.743	-1.024	-0.234
-244.976	-15.848	-1.318	0.833
-243.961	360.779	-0.154	0.306
-242.946	-91.869	-0.349	-0.098
-241.932	-120.866	-0.326	0.055
-240.917	-45.333	0.580	0.286
-239.903	-28.349	0.178	-0.102
-238.888	-7.924	-0.361	0.242
-237.873	155.650	0.632	0.864
-236.859	-39.869	0.487	0.252
-235.844	-200.000	-0.060	0.987
-234.830	800.000	0.162	0.651
-233.815	800.000	0.318	1.001
-232.800	-200.000	-0.415	-0.000
-231.786	-200.000	-0.046	0.360
-230.771	315.173	0.178	0.332
-229.757	-200.000	-0.043	-0.866
-228.742	-96.779	-0.327	0.085
-227.727	-200.000	0.038	0.330
-226.713	489.854	0.261	-0.592
-225.698	-15.360	-0.739	0.469
-224.684	207.959	-0.306	-0.474
-223.669	-79.320	-0.475	0.160
-222.655	-101.136	-0.657	0.159
-221.640	120.514	-0.500	-0.615
-220.625	290.865	0.138	-0.249
-219.611	-62.068	-0.881	0.365
-218.596	176.594	0.263	0.379
-217.582	46.453	0.029	0.027
-216.567	-109.251	0.468	-0.098
-215.552	184.884	-0.529	0.778
-214.538	81.744	0.776	0.833
-213.523	475.811	-0.312	-0.698
-212.509	-182.027	-0.615	0.012
-211.494	64.984	0.498	-0.499
-210.479	397.574	-0.380	0.787
-209.465	800.000	0.255	1.088
-208.450	-129.866	0.333	0.045
-207.436	124.501	-0.198	0.246
-206.421	109.497	0.281	0.333
-205.406	145.571	0.372	0.494
-204.392	-200.000	0.007	-0.227
-203.377	-8.455	0.482	0.321
-202.363	234.219	0.124	0.202
-201.348	-172.671	-0.583	0.018
-200.333	721.761	-0.183	-0.483
-199.319	800.000	-0.240	0.781
-198.304	-200.000	-0.070	0.000
-197.290	796.931	0.113	0.308
-196.275	-200.000	0.016	0.456
-195.260	-99.015	-0.363	-0.091
-194.246	-147.921	0.346	0.029
-193.231	282.110	0.443	0.786
-192.217	126.749	-0.055	-0.068
-191.202	251.305	-0.424	-0.714
-190.187	-200.000	0.027	-0.770
-189.173	13.887	0.403	0.310
-188.158	-200.000	0.042	-0.461
-187.144	18.501	0.414	-0.328
-186.129	142.913	-0.212	-0.279
-185.114	3.378	-0.529	0.382
-184.100	-72.241	-0.155	-0.057
-183.085	-200.000	0.062	-1.369
-182.071	-162.013	-1.069	-0.053
-181.056	-92.708	0.915	0.254
-180.042	800.000	-0.066	0.243
-179.027	-200.000	-0.227	1.094
-178.012	203.957	0.210	-0.322
-176.998	-110.767	-1.038	0.212
-175.983	190.437	-0.246	0.366
-174.969	800.000	-0.188	0.581
-173.954	-14.564	0.684	0.435
-172.939	190.002	0.462	0.687
-171.925	30.135	-0.256	0.216
-170.910	272.599	-0.144	0.251
-169.896	-1.794	0.510	0.355
-168.881	556.958	-0.121	-0.288
-167.866	-54.453	-0.238	-0.107
-166.852	169.359	0.482	-0.680
-165.837	134.410	-0.470	-0.603
-164.823	189.449	0.260	-0.386
-163.808	120.536	0.929	-1.141
-162.793	-39.237	-0.661	-0.343
-161.779	-200.000	-0.074	0.675
-160.764	-24.504	0.845	0.498
-159.750	59.727	0.434	0.424
-158.735	110.495	-0.380	-0.452
-157.720	44.607	0.629	0.571
-156.706	-57.305	-0.280	0.122
-155.691	800.000	-0.193	-0.527
-154.677	223.978	-0.529	0.844
-153.662	447.940	0.262	-0.571
-152.647	-69.054	-0.171	-0.065
-151.633	-200.000	-0.096	0.884
-150.618	-3.140	0.337	-0.232
-149.604	113.888	0.081	-0.098
-148.589	-169.831	0.287	-0.010
-147.574	-52.385	0.435	0.199
-146.560	-200.000	-0.065	-0.550
-145.545	-116.132	0.951	-0.175
-144.531	91.191	0.301	-0.334
-143.516	59.608	0.664	0.647
-142.502	1.642	-0.222	0.158
-141.487	800.000	0.046	0.130
-140.472	-63.515	-0.160	-0.065
-139.458	-200.000	0.040	-0.446
-138.443	733.644	-0.085	0.224
-137.429	-200.000	-0.056	-0.322
-136.414	-200.000	-0.124	-0.927
-135.399	501.194	-0.127	-0.291
-134.385	153.134	0.214	-0.289
-133.370	35.118	-0.602	-0.521
-132.356	800.000	0.096	0.358
-131.341	10.978	0.427	0.322
-130.326	-119.724	0.417	-0.071
-129.312	25.629	0.265	0.218
-128.297	-112.053	0.831	0.165
-127.283	163.049	0.342	-0.474
-126.268	474.476	-0.110	-0.245
-125.253	800.000	-0.156	0.468
-124.239	-200.000	-0.012	0.587
-123.224	-200.000	0.125	-1.162
-122.210	800.000	0.075	0.228
-121.195	-102.963	-0.222	0.052
