DTS Sentinel unit serial number:	SN413079Multiplexer serial number:	ORYXHardware model number:	OX4-SRSoftware version number:	ORYX F/W v4.00 Oryx Data Collector v3.7.2.0data status	okinstallation	princeton_trtdifferential loss correction	single-endedforward channel	channel 1reverse channel	N/Adate	2019/09/17time	18:30:35forward acquisition time	60.00reverse acquisition time	0.00gamma	496.2192k internal	0.2290k external	0.2290temperature offset calibration	0.9953default loss term (dB/km)	0.3790temperature slope calibration	1.0000multiplexer offset coefficient	1.0000multiplexer slope coefficient	1.0000fibre end	0.00T internal ref (°C)	43.02T ext. ref 1 (°C)	0.31T ext. ref 2 (°C)	36.07length (m)	temperature (°C)	Stokes	anti-Stokes-747.200	732.355	0.018	0.049
-746.185	99.735	-0.158	0.188
-745.171	-133.605	0.354	0.045
-744.156	-200.000	0.031	0.369
-743.142	51.807	-0.104	-0.101
-742.127	800.000	-0.021	0.088
-741.112	-161.782	0.134	-0.007
-740.098	-192.021	0.368	-0.004
-739.083	56.603	-0.204	-0.203
-738.069	56.740	0.112	0.112
-737.054	-20.183	-0.155	-0.098
-736.039	-144.645	-0.255	0.024
-735.025	-158.881	0.183	-0.011
-734.010	34.385	0.127	-0.114
-732.996	-200.000	-0.038	0.182
-731.981	24.281	-0.236	-0.200
-730.966	509.288	0.197	0.470
-729.952	-98.304	0.137	-0.036
-728.937	310.573	0.070	0.134
-727.923	-200.000	-0.024	-0.149
-726.908	333.885	-0.237	0.469
-725.894	48.924	-0.126	0.121
-724.879	254.483	-0.192	-0.337
-723.864	-140.718	-0.173	0.018
-722.850	97.523	0.121	-0.142
-721.835	-81.431	-0.319	-0.108
-720.821	-90.572	-0.296	0.088
-719.806	-200.000	-0.033	-0.346
-718.791	245.549	-0.120	-0.206
-717.777	-85.783	-0.182	-0.058
-716.762	168.190	0.094	-0.138
-715.748	-200.000	-0.028	0.183
-714.733	-96.421	-0.224	0.061
-713.718	203.839	-0.030	0.048
-712.704	-117.701	-0.139	-0.026
-711.689	-47.650	0.115	-0.057
-710.675	-200.000	-0.010	-0.450
-709.660	206.938	0.193	0.308
-708.645	-82.922	0.094	-0.031
-707.631	-88.488	-0.462	0.141
-706.616	-200.000	0.007	-0.143
-705.602	-48.692	0.126	0.062
-704.587	800.000	0.047	0.169
-703.572	-75.650	0.129	-0.047
-702.558	10.565	0.388	0.302
-701.543	-117.545	-0.162	0.030
-700.529	800.000	-0.158	0.473
-699.514	-153.959	-0.350	0.024
-698.499	114.407	-0.079	0.098
-697.485	-200.000	0.004	-0.330
-696.470	758.451	-0.031	0.086
-695.456	234.395	0.026	0.043
-694.441	158.242	-0.165	-0.234
-693.426	-116.463	-0.091	0.017
-692.412	800.000	-0.108	0.308
-691.397	246.262	0.042	-0.073
-690.383	0.980	-0.276	0.202
-689.368	-128.950	0.088	0.013
-688.354	-25.404	-0.317	0.192
-687.339	-200.000	-0.024	-0.117
-686.324	42.367	-0.220	-0.204
-685.310	-116.271	0.055	-0.010
-684.295	33.825	-0.227	0.202
-683.281	-187.485	-0.200	0.003
-682.266	19.437	0.053	0.043
-681.251	112.487	-0.018	-0.022
-680.237	55.675	0.143	0.141
-679.222	-46.413	0.142	-0.071
-678.208	323.356	-0.161	0.313
-677.193	800.000	0.033	-0.106
-676.178	-200.000	-0.013	-0.195
-675.164	42.984	-0.228	-0.213
-674.149	175.117	0.123	0.182
-673.135	-126.801	0.401	-0.060
-672.120	-91.657	0.074	0.022
-671.105	-51.543	-0.047	0.022
-670.091	70.112	0.246	-0.260
-669.076	-200.000	0.002	0.299
-668.062	800.000	-0.077	-0.303
-667.047	-130.955	-0.422	-0.058
-666.032	785.608	0.043	-0.119
-665.018	82.533	0.095	0.106
-664.003	194.339	0.121	0.188
-662.989	-93.527	0.212	-0.060
-661.974	-22.184	0.099	-0.061
-660.959	-143.082	0.254	-0.025
-659.945	272.903	0.081	0.147
-658.930	141.861	0.065	0.087
-657.916	-73.834	-0.301	-0.112
-656.901	-200.000	0.033	-0.326
-655.886	142.907	-0.086	-0.116
-654.872	-200.000	-0.031	0.338
-653.857	-124.381	-0.397	0.063
-652.843	-80.934	0.410	-0.139
-651.828	800.000	0.063	0.194
-650.814	105.627	0.130	-0.157
-649.799	481.413	0.084	-0.194
-648.784	360.754	0.042	-0.086
-647.770	706.187	-0.135	-0.364
-646.755	84.415	-0.156	-0.174
-645.741	134.153	0.097	-0.128
-644.726	-112.481	0.034	-0.007
-643.711	4.368	0.242	-0.181
-642.697	309.349	0.120	-0.228
-641.682	-124.201	0.021	0.003
-640.668	-168.941	-0.153	0.006
-639.653	800.000	0.014	-0.045
-638.638	-120.026	0.181	-0.032
-637.624	-200.000	-0.016	-0.212
-636.609	373.187	0.019	-0.040
-635.595	110.626	-0.036	0.044
-634.580	-127.647	0.122	0.018
-633.565	183.060	0.067	0.101
-632.551	-132.032	0.171	0.023
-631.536	-72.021	-0.190	0.072
-630.522	-20.876	0.112	0.070
-629.507	-50.152	0.241	0.116
-628.492	-163.817	-0.269	0.013
-627.478	-200.000	0.003	-0.055
-626.463	3.094	0.195	-0.145
-625.449	-126.341	0.124	-0.019
-624.434	152.923	0.117	-0.164
-623.419	-103.551	-0.079	-0.019
-622.405	84.006	-0.161	-0.179
-621.390	-33.579	-0.147	-0.083
-620.376	764.948	0.073	0.202
-619.361	-21.942	-0.224	0.139
-618.346	182.907	-0.279	0.420
-617.332	-200.000	0.009	-0.269
-616.317	-113.334	-0.332	0.066
-615.303	800.000	0.064	0.199
-614.288	800.000	-0.100	-0.378
-613.273	-23.983	0.282	-0.172
-612.259	-117.916	-0.161	-0.029
-611.244	-123.156	0.112	0.018
-610.230	-14.653	0.117	0.077
-609.215	800.000	-0.036	0.107
-608.201	-200.000	0.026	0.132
-607.186	-43.291	-0.149	0.077
-606.171	264.874	0.150	0.266
-605.157	230.376	0.044	0.073
-604.142	61.041	0.129	0.130
-603.128	800.000	0.078	-0.239
-602.113	-24.586	0.124	0.075
-601.098	456.542	0.056	0.126
-600.084	628.421	0.096	-0.248
-599.069	-200.000	-0.003	-0.420
-598.055	385.382	-0.090	0.189
-597.040	35.186	-0.193	-0.172
-596.025	800.000	0.061	-0.181
-595.011	218.047	0.136	0.221
-593.996	50.538	-0.151	0.145
-592.982	330.478	0.072	-0.141
-591.967	234.260	-0.147	0.247
-590.952	493.422	0.141	0.328
-589.938	-80.244	0.309	-0.105
-588.923	220.801	0.100	0.164
-587.909	-200.000	0.071	0.375
-586.894	-193.096	-0.146	0.001
-585.879	-135.194	-0.402	-0.049
-584.865	-152.164	0.139	0.010
-583.850	-189.973	-0.122	0.001
-582.836	579.071	-0.038	-0.094
-581.821	336.986	0.098	0.194
-580.806	-200.000	0.025	0.217
-579.792	-4.221	0.150	-0.106
-578.777	-66.099	0.108	0.044
-577.763	-32.559	0.073	-0.041
-576.748	-200.000	0.018	0.096
-575.733	-82.545	-0.173	0.057
-574.719	-151.332	0.117	0.009
-573.704	-200.000	0.001	0.169
-572.690	800.000	0.012	-0.052
-571.675	-113.286	-0.126	-0.025
-570.661	79.892	0.009	0.010
-569.646	800.000	0.059	-0.189
-568.631	115.970	0.104	-0.130
-567.617	103.486	0.127	0.152
-566.602	-200.000	0.000	-0.118
-565.588	-52.894	-0.048	-0.022
-564.573	107.023	-0.093	0.112
-563.558	-200.000	0.025	-0.150
-562.544	168.687	-0.071	-0.103
-561.529	-120.790	-0.014	-0.002
-560.515	-2.376	-0.126	0.090
-559.500	246.362	0.120	-0.207
-558.485	-200.000	-0.001	-0.069
-557.471	152.999	0.047	0.065
-556.456	-200.000	0.064	0.290
-555.442	191.961	-0.097	0.148
-554.427	348.273	0.096	-0.192
-553.412	-2.599	-0.110	-0.078
-552.398	136.750	0.217	0.288
-551.383	-104.890	0.308	0.072
-550.369	-115.376	-0.398	0.076
-549.354	-122.881	0.147	-0.024
-548.339	-69.443	-0.439	0.171
-547.325	86.465	-0.109	0.122
-546.310	-160.984	0.198	-0.011
-545.296	-200.000	-0.024	-0.110
-544.281	59.118	-0.150	-0.150
-543.266	-8.192	-0.128	0.088
-542.252	-49.110	-0.191	-0.093
-541.237	-162.943	0.116	-0.006
-540.223	24.760	0.230	0.193
-539.208	120.177	0.103	0.130
-538.193	-200.000	-0.072	-0.324
-537.179	12.005	0.119	-0.093
-536.164	-130.459	-0.223	0.031
-535.150	-89.388	-0.073	0.022
-534.135	782.557	-0.089	-0.247
-533.121	-78.523	0.182	-0.063
-532.106	-84.147	-0.117	0.038
-531.091	239.871	-0.058	-0.098
-530.077	265.252	-0.134	-0.238
-529.062	75.089	0.160	-0.171
-528.048	239.612	-0.090	-0.153
-527.033	110.022	0.196	-0.239
-526.018	43.308	0.140	-0.130
-525.004	100.474	-0.214	-0.252
-523.989	800.000	0.039	-0.112
-522.975	-200.000	-0.055	-0.435
-521.960	82.976	0.168	-0.186
-520.945	149.441	-0.186	0.256
-519.931	-116.651	-0.366	-0.068
-518.916	800.000	0.020	-0.084
-517.902	-159.803	-0.303	-0.017
-516.887	-25.451	-0.101	0.061
-515.872	-200.000	0.002	-0.240
-514.858	-200.000	-0.031	-0.233
-513.843	-22.551	0.269	0.165
-512.829	800.000	0.026	0.083
-511.814	800.000	0.078	-0.341
-510.799	-81.204	0.070	0.023
-509.785	-96.280	-0.228	-0.061
-508.770	-200.000	-0.245	-0.001
-507.756	-200.000	0.004	-0.300
-506.741	181.186	-0.070	-0.104
-505.726	-200.000	-0.007	0.448
-504.712	25.074	0.190	0.160
-503.697	20.499	0.099	-0.081
-502.683	-81.888	-0.117	-0.039
-501.668	-32.798	-0.130	0.073
-500.653	-136.078	-0.454	-0.054
-499.639	-45.360	-0.241	0.121
-498.624	-37.633	0.329	0.178
-497.610	-200.000	-0.014	-0.126
-496.595	100.266	0.136	0.161
-495.581	57.983	0.259	0.257
-494.566	7.694	-0.148	0.112
-493.551	-70.121	-0.231	-0.089
-492.537	800.000	-0.076	0.300
-491.522	-153.099	-0.169	0.012
-490.508	-200.000	0.002	-0.052
-489.493	-138.910	-0.324	0.036
-488.478	-83.927	0.292	0.094
-487.464	-138.041	-0.147	-0.017
-486.449	-13.134	0.206	-0.136
-485.435	-200.000	0.014	0.099
-484.420	-151.948	-0.246	-0.018
-483.405	80.421	-0.052	0.057
-482.391	78.537	0.036	-0.039
-481.376	90.536	0.107	0.121
-480.362	552.553	-0.060	0.146
-479.347	-162.211	-0.287	0.015
-478.332	193.769	0.071	-0.109
-477.318	93.645	0.117	-0.134
-476.303	375.877	-0.058	-0.120
-475.289	-194.762	0.264	-0.002
-474.274	800.000	-0.068	-0.226
-473.259	800.000	0.047	-0.161
-472.245	-124.663	-0.254	0.040
-471.230	521.695	0.038	0.091
-470.216	-164.521	0.243	0.011
-469.201	-67.560	0.130	0.052
-468.186	-72.168	-0.197	-0.074
-467.172	81.966	-0.082	0.090
-466.157	-29.780	0.074	-0.043
-465.143	-86.963	0.041	-0.013
-464.128	-200.000	0.001	-0.039
-463.113	800.000	-0.063	0.270
-462.099	-195.596	-0.049	0.000
-461.084	-70.737	-0.190	0.073
-460.070	32.243	0.084	-0.073
-459.055	24.866	0.033	0.028
-458.040	-108.980	-0.239	0.052
-457.026	561.628	-0.078	-0.192
-456.011	-109.166	0.045	-0.010
-454.997	-53.748	-0.267	-0.124
-453.982	-123.367	0.211	-0.034
-452.968	67.349	-0.153	-0.158
-451.953	182.355	0.079	-0.119
-450.938	243.717	-0.018	-0.031
-449.924	260.700	-0.134	-0.235
-448.909	-24.811	0.147	-0.088
-447.895	38.818	0.264	0.239
-446.880	82.154	0.152	0.167
-445.865	385.054	0.187	0.390
-444.851	-200.000	0.018	0.126
-443.836	800.000	-0.037	-0.115
-442.822	-200.000	0.065	0.298
-441.807	-97.931	-0.200	-0.052
-440.792	4.886	-0.146	0.109
-439.778	-63.085	-0.236	-0.099
-438.763	283.916	0.207	0.377
-437.749	-51.406	-0.204	-0.096
-436.734	167.413	-0.145	-0.208
-435.719	-139.326	0.267	0.029
-434.705	60.092	-0.128	-0.128
-433.690	362.023	0.216	-0.440
-432.676	-143.390	-0.121	-0.012
-431.661	-76.807	-0.125	0.044
-430.646	800.000	-0.042	0.163
-429.632	-121.248	0.060	-0.010
-428.617	-200.000	0.007	-0.307
-427.603	-70.773	-0.226	-0.086
-426.588	228.384	0.123	0.202
-425.573	35.334	-0.036	-0.032
-424.559	-200.000	0.003	0.226
-423.544	-4.031	0.280	0.196
-422.530	800.000	0.069	0.233
-421.515	165.961	-0.196	0.280
-420.500	213.207	-0.040	-0.063
-419.486	721.334	0.100	-0.269
-418.471	800.000	0.111	0.329
-417.457	36.999	-0.202	0.181
-416.442	-89.808	0.182	0.054
-415.428	-95.886	0.385	0.104
-414.413	800.000	-0.059	-0.244
-413.398	712.000	0.050	0.133
-412.384	-29.610	0.034	0.020
-411.369	-63.017	-0.080	-0.033
-410.355	-5.182	-0.087	0.060
-409.340	-103.389	-0.122	0.029
-408.325	800.000	-0.052	-0.150
-407.311	54.408	-0.325	0.317
-406.296	800.000	-0.042	-0.140
-405.282	-24.917	-0.247	-0.148
-404.267	-89.757	0.331	0.098
-403.252	-141.041	-0.280	0.029
-402.238	-200.000	-0.019	0.156
-401.223	-197.434	-0.225	-0.001
-400.209	-21.760	0.127	0.078
-399.194	-69.328	0.463	0.180
-398.179	-200.000	-0.016	0.184
-397.165	29.638	-0.107	-0.092
-396.150	-13.156	0.124	0.082
-395.136	174.448	-0.032	-0.046
-394.121	304.051	-0.074	0.138
-393.106	-95.872	0.179	0.048
-392.092	-200.000	-0.041	-0.189
-391.077	-48.724	0.172	-0.084
-390.063	3.214	0.177	-0.130
-389.048	140.620	0.101	0.135
-388.033	-101.682	-0.068	0.017
-387.019	733.255	-0.034	0.091
-386.004	-200.000	-0.016	0.087
-384.990	45.978	-0.045	-0.043
-383.975	-179.787	-0.143	0.003
-382.960	-134.009	0.221	-0.028
-381.946	67.828	0.261	0.269
-380.931	299.265	0.151	0.281
-379.917	-200.000	-0.015	0.266
-378.902	-96.914	-0.404	-0.107
-377.888	10.065	-0.117	0.089
-376.873	702.859	0.109	-0.289
-375.858	-61.771	0.202	-0.085
-374.844	-28.895	0.346	-0.201
-373.829	-200.000	-0.009	0.046
-372.815	800.000	0.108	0.358
-371.800	-200.000	-0.011	-0.271
-370.785	-46.154	-0.061	-0.030
-369.771	-200.000	-0.045	-0.404
-368.756	-32.624	0.202	0.114
-367.742	800.000	-0.055	0.230
-366.727	-110.837	0.254	-0.053
-365.712	-200.000	0.044	0.292
-364.698	22.229	0.067	-0.055
-363.683	-200.000	0.016	0.296
-362.669	-76.906	0.161	-0.057
-361.654	-200.000	0.288	0.001
-360.639	240.067	0.047	-0.079
-359.625	-200.000	0.012	-0.310
-358.610	800.000	0.062	-0.239
-357.596	195.754	-0.153	-0.234
-356.581	254.573	-0.160	-0.276
-355.566	800.000	-0.038	-0.125
-354.552	-100.288	-0.225	0.056
-353.537	-47.846	0.115	0.056
-352.523	-129.955	0.208	-0.029
-351.508	-114.459	-0.083	0.016
-350.493	-137.457	-0.433	-0.049
-349.479	-200.000	0.001	0.099
-348.464	37.210	-0.061	-0.055
-347.450	800.000	0.068	-0.260
-346.435	86.785	0.159	0.178
-345.420	141.925	0.131	0.175
-344.406	81.700	-0.363	-0.396
-343.391	-0.999	-0.339	-0.242
-342.377	-66.450	-0.334	0.134
-341.362	-200.000	-0.052	-0.250
-340.348	391.705	0.073	-0.153
-339.333	-200.000	0.012	-0.327
-338.318	-124.716	-0.382	0.060
-337.304	-125.956	-0.533	-0.081
-336.289	42.105	0.060	-0.055
-335.275	-120.727	-0.173	-0.030
-334.260	128.831	-0.095	0.122
-333.245	158.933	-0.062	0.087
-332.231	260.493	-0.224	-0.391
-331.216	-124.301	0.284	-0.045
-330.202	-86.703	-0.214	0.066
-329.187	-66.807	0.320	-0.128
-328.172	-200.000	-0.004	0.028
-327.158	-200.000	0.340	0.002
-326.143	188.010	0.018	0.027
-325.129	-134.431	-0.353	0.044
-324.114	241.718	-0.152	0.256
-323.099	-161.438	-0.109	-0.006
-322.085	-140.758	0.239	-0.025
-321.070	283.635	0.124	-0.224
-320.056	800.000	-0.033	0.091
-319.041	800.000	0.057	0.171
-318.026	174.295	-0.320	0.466
-317.012	32.209	-0.147	0.128
-315.997	133.602	-0.196	-0.255
-314.983	227.021	-0.088	-0.144
-313.968	147.962	-0.238	-0.323
-312.953	-167.414	0.213	0.009
-311.939	-146.905	0.300	0.026
-310.924	-19.809	-0.338	0.210
-309.910	-9.901	-0.124	-0.083
-308.895	-200.000	-0.009	-0.165
-307.880	71.789	-0.192	-0.201
-306.866	-200.000	-0.023	0.165
-305.851	-200.000	0.028	0.417
-304.837	521.448	-0.111	-0.262
-303.822	-78.413	0.054	0.018
-302.807	800.000	-0.062	0.215
-301.793	-140.868	0.266	-0.028
-300.778	-80.384	0.049	-0.016
-299.764	93.507	0.122	-0.139
-298.749	198.499	-0.086	0.132
-297.735	84.981	-0.120	0.133
-296.720	183.575	-0.139	-0.207
-295.705	-141.144	0.079	0.008
-294.691	631.336	0.013	-0.033
-293.676	-49.074	-0.196	-0.094
-292.662	367.750	0.227	0.461
-291.647	-200.000	-0.037	0.191
-290.632	46.255	-0.156	0.146
-289.618	244.906	-0.110	0.186
-288.603	-146.251	-0.156	0.014
-287.589	255.267	-0.017	0.029
-286.574	-98.395	0.206	-0.053
-285.559	137.424	0.153	-0.201
-284.545	754.796	0.119	0.324
-283.530	81.841	0.127	0.139
-282.516	218.617	-0.131	-0.210
-281.501	-164.776	-0.142	0.006
-280.486	202.237	-0.069	0.108
-279.472	-120.487	0.125	0.021
-278.457	-53.905	0.162	0.074
-277.443	483.046	0.119	-0.273
-276.428	-113.108	-0.368	0.073
-275.413	-82.950	-0.085	0.028
-274.399	-32.204	0.120	0.068
-273.384	-200.000	-0.020	-0.158
-272.370	-200.000	0.021	-0.362
-271.355	-37.716	-0.114	-0.061
-270.340	-200.000	-0.028	-0.169
-269.326	-184.095	0.120	-0.002
-268.311	-160.313	0.060	-0.003
-267.297	128.627	-0.033	-0.042
-266.282	-2.412	0.224	-0.158
-265.267	800.000	-0.037	0.109
-264.253	-200.000	-0.031	-0.183
-263.238	-6.865	-0.187	0.128
-262.224	462.275	-0.199	0.446
-261.209	25.699	-0.087	-0.073
-260.195	-154.163	0.101	-0.007
-259.180	-156.064	-0.363	-0.023
-258.165	800.000	0.124	0.390
-257.151	-0.296	0.280	0.200
-256.136	-200.000	-0.331	-0.000
-255.122	-200.000	0.028	0.203
-254.107	-28.335	0.140	0.081
-253.092	-72.617	0.227	0.084
-252.078	175.738	0.266	-0.388
-251.063	20.056	-0.149	0.121
-250.049	-200.000	-0.021	0.109
-249.034	-32.828	-0.048	-0.027
-248.019	-200.000	0.026	0.133
-247.005	24.432	-0.143	-0.119
-245.990	-142.566	-0.330	0.032
-244.976	-12.115	-0.374	0.246
-243.961	176.572	0.331	0.483
-242.946	478.138	-0.083	-0.188
-241.932	55.750	-0.088	-0.085
-240.917	-200.000	0.015	0.308
-239.903	-124.991	0.149	0.023
-238.888	-85.882	-0.111	-0.034
-237.873	43.568	0.278	-0.255
-236.859	-200.000	-0.011	0.201
-235.844	-57.736	0.284	0.125
-234.830	320.673	0.115	-0.220
-233.815	-11.033	0.295	-0.195
-232.800	403.129	0.049	0.104
-231.786	-134.721	-0.213	0.026
-230.771	508.224	-0.081	-0.188
-229.757	45.479	-0.129	-0.120
-228.742	179.025	0.046	0.067
-227.727	-94.259	-0.500	0.137
-226.713	-54.757	0.136	-0.062
-225.698	-130.190	0.315	-0.043
-224.684	800.000	0.068	0.232
-223.669	-129.184	0.445	0.062
-222.655	-2.111	0.097	0.068
-221.640	-58.562	-0.279	-0.122
-220.625	215.946	0.089	-0.142
-219.611	-113.889	-0.097	-0.019
-218.596	-200.000	0.015	-0.074
-217.582	-51.367	0.171	0.080
-216.567	-200.000	0.038	0.210
-215.552	176.346	-0.249	0.363
-214.538	433.320	-0.049	0.106
-213.523	-200.000	-0.051	0.380
-212.509	39.490	0.458	0.412
-211.494	159.943	0.202	-0.282
-210.479	800.000	-0.096	-0.381
-209.465	77.793	0.008	0.008
-208.450	791.284	-0.044	-0.122
-207.436	430.451	0.090	0.196
-206.421	-200.000	-0.023	-0.210
-205.406	800.000	0.033	-0.122
-204.392	778.934	-0.097	-0.267
-203.377	-56.608	0.605	-0.269
-202.363	800.000	-0.083	0.231
-201.348	800.000	-0.019	0.064
-200.333	10.322	-0.094	-0.072
-199.319	-8.906	0.130	0.087
-198.304	800.000	-0.069	-0.256
-197.290	800.000	0.009	-0.034
-196.275	-93.970	0.110	-0.030
-195.260	-200.000	0.021	-0.141
-194.246	-79.321	0.175	-0.059
-193.231	-95.070	0.218	0.059
-192.217	219.935	0.046	0.074
-191.202	-200.000	0.022	-0.149
-190.187	-200.000	-0.016	0.150
-189.173	-95.882	-0.222	-0.059
-188.158	800.000	-0.090	0.290
-187.144	202.324	0.090	-0.140
-186.129	-74.109	0.275	-0.100
-185.114	542.003	0.081	0.194
-184.100	-104.243	-0.173	0.040
-183.085	761.537	0.036	0.098
-182.071	-83.567	0.197	-0.063
-181.056	105.637	-0.215	-0.254
-180.042	-200.000	-0.013	0.238
-179.027	-16.501	0.254	-0.161
-178.012	-200.000	0.049	-0.236
-176.998	617.090	0.015	0.039
-175.983	152.313	-0.028	-0.039
-174.969	-200.000	-0.029	-0.133
-173.954	0.054	0.163	0.117
-172.939	-187.443	0.165	0.002
-171.925	-74.901	-0.303	0.109
-170.910	15.320	-0.202	0.159
-169.896	85.623	0.087	-0.096
-168.881	-35.056	-0.107	-0.058
-167.866	-5.437	0.118	0.081
-166.852	-200.000	-0.032	-0.334
-165.837	-200.000	-0.025	-0.317
-164.823	-37.332	-0.029	-0.015
-163.808	-95.338	0.439	0.118
-162.793	222.536	0.178	0.287
-161.779	800.000	-0.006	0.017
-160.764	-74.850	0.450	0.162
-159.750	-24.079	0.251	0.150
-158.735	60.516	-0.081	-0.080
-157.720	-200.000	0.018	0.115
-156.706	114.046	-0.126	0.153
-155.691	26.986	0.458	-0.385
-154.677	-111.634	-0.427	-0.087
-153.662	145.984	0.171	0.230
-152.647	-200.000	-0.027	0.145
-151.633	73.844	0.078	0.081
-150.618	-200.000	-0.007	0.232
-149.604	188.299	0.199	0.298
-148.589	-200.000	-0.033	0.182
-147.574	389.411	-0.093	0.193
-146.560	800.000	0.027	-0.093
-145.545	716.878	0.105	-0.278
-144.531	-60.393	0.281	-0.119
-143.516	800.000	0.026	-0.095
-142.502	-25.617	0.046	0.027
-141.487	800.000	0.084	-0.319
-140.472	34.139	-0.126	0.110
-139.458	108.563	0.076	-0.091
-138.443	-200.000	-0.016	-0.199
-137.429	-130.776	0.123	0.017
-136.414	192.726	-0.363	0.549
-135.399	45.592	-0.184	0.170
-134.385	264.616	0.164	0.286
-133.370	-63.338	-0.037	-0.015
-132.356	-200.000	-0.031	0.337
-131.341	-200.000	0.016	-0.227
-130.326	-200.000	0.030	0.311
-129.312	-27.888	-0.241	-0.140
-128.297	83.547	0.095	0.103
-127.283	-135.633	-0.364	0.043
-126.268	-200.000	-0.001	0.063
-125.253	-5.806	0.197	0.135
-124.239	800.000	0.043	-0.124
-123.224	136.284	0.105	-0.137
-122.210	-73.718	0.257	-0.094
-121.195	343.668	-0.139	0.272
