DTS Sentinel unit serial number:	SN413079Multiplexer serial number:	ORYXHardware model number:	OX4-SRSoftware version number:	ORYX F/W v4.00 Oryx Data Collector v3.7.2.0data status	okinstallation	princeton_trtdifferential loss correction	single-endedforward channel	channel 1reverse channel	N/Adate	2019/09/16time	17:54:35forward acquisition time	60.00reverse acquisition time	0.00gamma	496.2192k internal	0.2299k external	0.2299temperature offset calibration	0.9965default loss term (dB/km)	0.3790temperature slope calibration	1.0000multiplexer offset coefficient	1.0000multiplexer slope coefficient	1.0000fibre end	0.00T internal ref (°C)	37.81T ext. ref 1 (°C)	15.63T ext. ref 2 (°C)	31.56length (m)	temperature (°C)	Stokes	anti-Stokes-747.200	800.000	-0.067	-0.258
-746.185	195.751	0.245	0.380
-745.171	12.840	-0.118	-0.093
-744.156	70.760	-0.016	0.017
-743.142	630.362	0.144	0.373
-742.127	216.950	-0.230	0.374
-741.112	530.430	0.079	0.190
-740.098	453.984	-0.079	0.179
-739.083	800.000	-0.012	0.036
-738.069	-118.750	-0.432	0.078
-737.054	-99.631	-0.200	-0.051
-736.039	-81.855	0.076	-0.025
-735.025	386.188	-0.093	0.197
-734.010	75.112	-0.199	0.213
-732.996	-117.350	0.062	0.012
-731.981	198.649	0.150	0.235
-730.966	-24.039	-0.225	-0.137
-729.952	-42.534	0.096	-0.050
-728.937	-116.365	-0.206	0.039
-727.923	58.450	-0.142	-0.143
-726.908	-4.070	0.247	0.174
-725.894	269.787	0.120	0.215
-724.879	91.273	0.106	-0.122
-723.864	-21.928	0.302	-0.187
-722.850	-200.000	-0.026	-0.159
-721.835	-175.467	-0.120	0.003
-720.821	-135.796	-0.380	-0.046
-719.806	-200.000	-0.016	-0.076
-718.791	-182.375	-0.131	0.002
-717.777	-1.729	-0.171	0.122
-716.762	246.805	0.107	-0.183
-715.748	360.909	0.032	-0.065
-714.733	-200.000	-0.053	-0.303
-713.718	763.990	-0.080	-0.222
-712.704	800.000	0.033	-0.129
-711.689	232.954	-0.077	-0.129
-710.675	92.370	-0.122	-0.140
-709.660	800.000	-0.070	0.305
-708.645	-116.737	0.540	0.101
-707.631	-94.280	0.123	0.034
-706.616	23.933	-0.317	0.266
-705.602	515.753	0.099	0.235
-704.587	21.511	-0.311	-0.258
-703.572	167.082	-0.043	-0.062
-702.558	-104.695	0.153	-0.036
-701.543	-19.388	-0.355	0.224
-700.529	220.086	-0.173	0.283
-699.514	5.658	-0.029	0.022
-698.499	-153.472	0.117	0.008
-697.485	-39.639	-0.265	0.141
-696.470	-200.000	-0.023	-0.345
-695.456	134.617	0.134	-0.177
-694.441	-87.197	0.271	-0.084
-693.426	800.000	0.081	0.314
-692.412	81.230	-0.173	0.190
-691.397	334.060	-0.085	0.167
-690.383	-179.199	0.251	-0.006
-689.368	-85.925	-0.253	-0.080
-688.354	-126.882	-0.400	-0.060
-687.339	-196.340	0.052	0.000
-686.324	-82.010	0.193	0.064
-685.310	-200.000	-0.002	-0.172
-684.295	-200.000	-0.014	0.285
-683.281	-42.863	0.080	-0.041
-682.266	99.495	0.316	-0.372
-681.251	126.123	0.086	0.111
-680.237	-106.188	0.221	-0.051
-679.222	800.000	0.051	0.217
-678.208	-93.271	0.356	0.101
-677.193	-52.406	-0.182	0.086
-676.178	-200.000	0.019	-0.103
-675.164	-108.440	0.242	0.053
-674.149	220.225	-0.106	0.172
-673.135	800.000	0.033	-0.127
-672.120	-40.204	0.291	0.154
-671.105	-200.000	-0.024	0.238
-670.091	-139.171	0.032	-0.003
-669.076	-200.000	-0.043	-0.277
-668.062	-200.000	0.010	-0.163
-667.047	-93.352	-0.292	0.082
-666.032	800.000	0.135	0.418
-665.018	-180.486	-0.214	0.005
-664.003	164.471	-0.019	0.028
-662.989	9.333	-0.258	-0.198
-661.974	-106.658	-0.049	-0.011
-660.959	270.710	0.032	-0.057
-659.945	-200.000	-0.029	-0.144
-658.930	-200.000	-0.020	-0.234
-657.916	-69.801	0.148	0.057
-656.901	-23.834	-0.194	0.118
-655.886	-200.000	-0.048	0.217
-654.872	-161.038	0.363	0.019
-653.857	-54.407	-0.284	0.131
-652.843	-95.329	0.129	-0.035
-651.828	227.701	-0.072	-0.119
-650.814	289.963	-0.140	-0.258
-649.799	-147.135	-0.214	-0.019
-648.784	24.414	-0.264	-0.222
-647.770	146.558	0.081	-0.111
-646.755	-200.000	-0.045	-0.294
-645.741	501.007	0.229	0.537
-644.726	-9.692	-0.108	0.073
-643.711	-71.511	-0.064	0.024
-642.697	374.613	-0.088	-0.181
-641.682	-200.000	-0.087	0.590
-640.668	-200.000	-0.012	0.223
-639.653	95.379	-0.152	-0.176
-638.638	800.000	0.091	0.371
-637.624	-35.044	-0.123	0.068
-636.609	258.171	0.149	0.260
-635.595	323.900	-0.143	-0.277
-634.580	15.154	0.126	-0.100
-633.565	-155.566	-0.139	-0.009
-632.551	-200.000	0.001	0.056
-631.536	-200.000	-0.007	-0.347
-630.522	74.360	0.125	-0.134
-629.507	-172.323	-0.116	-0.004
-628.492	566.371	-0.070	-0.173
-627.478	157.639	-0.101	-0.142
-626.463	800.000	0.033	0.122
-625.449	-101.903	-0.223	-0.055
-624.434	-200.000	0.001	0.051
-623.419	7.737	-0.135	0.103
-622.405	239.671	-0.105	-0.177
-621.390	800.000	-0.118	-0.346
-620.376	-200.000	0.031	-0.267
-619.361	-124.527	-0.065	0.010
-618.346	234.696	0.094	-0.157
-617.332	-58.652	0.321	0.141
-616.317	-19.765	-0.192	-0.120
-615.303	570.972	-0.112	-0.277
-614.288	298.738	0.151	-0.283
-613.273	-55.352	-0.461	-0.210
-612.259	800.000	0.072	-0.251
-611.244	-22.750	0.155	0.095
-610.230	306.783	0.088	0.166
-609.215	6.850	-0.495	-0.374
-608.201	113.437	0.215	-0.265
-607.186	-26.992	-0.252	0.149
-606.171	-29.658	-0.060	0.034
-605.157	-39.933	-0.073	0.039
-604.142	116.888	0.179	0.223
-603.128	-109.515	-0.178	-0.038
-602.113	-34.781	-0.207	0.115
-601.098	552.093	-0.019	-0.046
-600.084	148.891	0.042	-0.057
-599.069	-92.217	0.144	-0.041
-598.055	800.000	-0.134	0.549
-597.040	292.353	-0.063	0.117
-596.025	318.859	-0.164	-0.315
-595.011	-159.280	0.090	-0.005
-593.996	800.000	0.035	0.142
-592.982	-73.313	0.119	-0.044
-591.967	800.000	-0.036	-0.140
-590.952	102.320	-0.254	0.301
-589.938	-5.725	-0.022	-0.015
-588.923	-154.807	-0.218	-0.015
-587.909	-48.842	0.179	0.087
-586.894	-28.376	-0.190	0.111
-585.879	717.372	-0.050	0.135
-584.865	75.858	0.286	0.307
-583.850	-119.860	0.198	0.035
-582.836	-200.000	0.073	0.502
-581.821	115.700	-0.332	-0.411
-580.806	-131.133	-0.453	-0.061
-579.792	258.140	0.016	0.029
-578.777	-170.567	-0.154	0.005
-577.763	-79.371	-0.107	0.037
-576.748	-32.970	0.157	0.088
-575.733	-200.000	0.013	0.112
-574.719	-127.902	0.113	-0.017
-573.704	22.765	-0.043	-0.036
-572.690	367.187	0.119	0.244
-571.675	361.960	-0.154	0.313
-570.661	-200.000	-0.038	-0.494
-569.646	800.000	-0.108	0.325
-568.631	217.801	0.069	-0.112
-567.617	519.113	0.052	0.122
-566.602	-109.928	0.453	0.096
-565.588	309.825	-0.044	0.083
-564.573	74.818	-0.064	0.068
-563.558	542.629	-0.031	-0.074
-562.544	-100.027	0.180	0.045
-561.529	39.472	-0.228	0.207
-560.515	-92.514	-0.016	0.005
-559.500	800.000	-0.008	-0.036
-558.485	29.914	-0.163	0.141
-557.471	94.058	0.106	0.122
-556.456	-200.000	-0.008	0.044
-555.442	5.362	-0.080	-0.059
-554.427	-200.000	0.007	0.122
-553.412	-200.000	-0.006	0.135
-552.398	-165.008	-0.104	0.005
-551.383	-61.717	-0.315	-0.134
-550.369	-59.090	-0.054	0.024
-549.354	-106.801	-0.316	-0.071
-548.339	183.577	0.030	0.045
-547.325	-52.704	-0.298	0.139
-546.310	203.502	-0.120	0.187
-545.296	29.630	0.184	-0.159
-544.281	-175.784	0.053	0.001
-543.266	-54.182	0.083	0.038
-542.252	800.000	-0.069	-0.230
-541.237	-119.998	0.256	-0.044
-540.223	-134.418	0.110	0.014
-539.208	-200.000	0.046	-0.613
-538.193	-45.568	-0.040	-0.020
-537.179	75.735	0.228	-0.244
-536.164	-92.819	0.389	-0.110
-535.150	-0.365	0.181	-0.130
-534.135	735.990	0.098	-0.267
-533.121	-93.641	-0.156	0.044
-532.106	-92.761	0.269	-0.076
-531.091	-200.000	0.018	0.268
-530.077	-200.000	0.012	0.083
-529.062	800.000	-0.036	0.139
-528.048	178.672	0.094	-0.139
-527.033	800.000	0.024	-0.105
-526.018	-178.627	0.021	-0.001
-525.004	-200.000	0.015	-0.074
-523.989	173.476	-0.120	0.175
-522.975	587.530	-0.082	0.204
-521.960	-117.627	-0.324	0.059
-520.945	66.586	0.175	0.180
-519.931	800.000	-0.043	-0.171
-518.916	222.305	-0.185	-0.301
-517.902	-29.037	-0.102	-0.059
-516.887	-68.711	0.093	-0.036
-515.872	-200.000	-0.033	0.000
-514.858	505.177	0.081	-0.190
-513.843	-185.447	0.064	0.001
-512.829	-200.000	0.001	0.321
-511.814	800.000	0.065	0.214
-510.799	83.403	-0.262	-0.289
-509.785	-165.480	-0.267	-0.012
-508.770	-72.367	0.125	-0.047
-507.756	117.594	-0.271	-0.338
-506.741	-114.922	-0.438	-0.084
-505.726	-161.897	0.135	0.007
-504.712	800.000	-0.054	0.190
-503.697	-168.205	0.312	-0.012
-502.683	-93.977	0.185	0.051
-501.668	-41.553	-0.136	0.071
-500.653	-20.077	-0.298	-0.186
-499.639	65.426	0.124	0.126
-498.624	-200.000	0.049	0.310
-497.610	-200.000	0.085	0.397
-496.595	87.830	-0.054	-0.060
-495.581	40.167	0.177	-0.161
-494.566	-48.308	0.228	-0.111
-493.551	-200.000	-0.010	0.060
-492.537	64.639	-0.278	0.284
-491.522	800.000	-0.110	-0.337
-490.508	56.820	-0.199	-0.195
-489.493	-106.688	0.132	0.030
-488.478	-119.762	-0.402	-0.070
-487.464	-57.712	0.396	0.175
-486.449	-113.632	-0.154	-0.030
-485.435	761.623	0.085	-0.233
-484.420	403.212	0.029	0.063
-483.405	-123.107	-0.184	0.030
-482.391	-113.846	0.287	-0.056
-481.376	-31.881	0.060	0.034
-480.362	-74.692	-0.207	0.075
-479.347	-200.000	-0.026	0.252
-478.332	-87.461	-0.256	0.078
-477.318	-23.114	-0.072	-0.044
-476.303	800.000	-0.077	0.233
-475.289	-200.000	-0.015	-0.341
-474.274	11.120	-0.099	-0.076
-473.259	-200.000	0.039	-0.207
-472.245	398.404	0.096	-0.203
-471.230	-31.054	0.216	0.123
-470.216	-200.000	-0.002	0.267
-469.201	-76.912	-0.111	0.039
-468.186	-99.597	0.298	0.076
-467.172	-12.694	-0.162	0.107
-466.157	-127.079	-0.086	-0.013
-465.143	-168.085	0.432	-0.017
-464.128	-161.058	0.265	0.014
-463.113	-50.682	-0.305	0.145
-462.099	-67.835	-0.118	0.046
-461.084	-103.901	-0.262	0.062
-460.070	150.831	-0.253	-0.347
-459.055	-40.857	0.090	-0.047
-458.040	-65.320	-0.185	-0.075
-457.026	-43.384	0.320	-0.163
-456.011	362.242	0.048	-0.098
-454.997	-200.000	-0.010	-0.379
-453.982	-62.701	-0.032	-0.013
-452.968	-10.459	-0.162	0.108
-451.953	-3.862	0.208	-0.145
-450.938	329.987	-0.121	-0.234
-449.924	-200.000	-0.011	0.090
-448.909	32.385	0.288	-0.251
-447.895	336.155	0.077	0.150
-446.880	-20.877	0.038	-0.024
-445.865	73.009	-0.150	0.158
-444.851	-125.765	-0.253	-0.039
-443.836	-200.000	-0.022	-0.209
-442.822	800.000	0.053	0.218
-441.807	198.803	0.121	0.187
-440.792	-72.771	0.372	0.138
-439.778	-200.000	-0.039	0.453
-438.763	-200.000	-0.002	0.205
-437.749	112.277	0.036	0.044
-436.734	-96.260	-0.018	-0.005
-435.719	-33.371	-0.167	0.093
-434.705	-140.938	-0.164	0.017
-433.690	-21.564	0.219	-0.134
-432.676	-31.602	0.118	-0.067
-431.661	-159.874	0.313	-0.017
-430.646	800.000	0.022	-0.091
-429.632	-113.578	-0.261	-0.051
-428.617	-200.000	0.043	0.330
-427.603	-200.000	-0.000	0.274
-426.588	800.000	0.091	-0.289
-425.573	171.789	0.020	-0.029
-424.559	51.869	-0.071	0.068
-423.544	111.355	0.119	0.144
-422.530	-120.403	0.023	-0.004
-421.515	-97.429	0.263	0.069
-420.500	-200.000	0.033	0.150
-419.486	-200.000	0.020	0.192
-418.471	-37.228	-0.084	-0.045
-417.457	71.604	0.149	0.156
-416.442	-97.374	-0.306	-0.080
-415.428	-35.299	-0.069	0.038
-414.413	-21.025	0.192	-0.118
-413.398	-96.469	0.338	-0.090
-412.384	-38.079	0.100	0.053
-411.369	-200.000	0.048	-0.272
-410.355	-36.337	0.276	0.150
-409.340	-200.000	0.010	0.097
-408.325	-130.242	-0.229	-0.031
-407.311	277.048	0.093	-0.167
-406.296	-147.061	0.271	-0.023
-405.282	323.305	-0.118	0.227
-404.267	-200.000	0.001	0.103
-403.252	-18.795	0.140	0.088
-402.238	-55.502	-0.350	-0.158
-401.223	-69.287	-0.289	0.112
-400.209	199.613	0.108	-0.167
-399.194	-115.560	-0.213	-0.040
-398.179	-123.142	-0.205	-0.033
-397.165	-142.166	-0.112	-0.011
-396.150	-71.829	0.224	-0.084
-395.136	-200.000	-0.001	-0.168
-394.121	107.306	0.204	-0.244
-393.106	-171.559	0.452	-0.015
-392.092	54.936	-0.219	-0.212
-391.077	-200.000	-0.007	0.067
-390.063	-49.396	0.158	0.076
-389.048	248.370	0.027	0.045
-388.033	-200.000	0.038	-0.175
-387.019	30.765	-0.156	-0.134
-386.004	694.971	0.022	-0.058
-384.990	-28.887	0.306	0.177
-383.975	800.000	-0.106	0.338
-382.960	13.819	0.098	-0.077
-381.946	93.521	0.065	0.074
-380.931	-89.708	-0.393	0.116
-379.917	-41.767	-0.267	0.138
-378.902	738.378	0.006	0.016
-377.888	255.409	0.061	0.105
-376.873	-90.669	0.335	-0.097
-375.858	-15.736	0.032	-0.021
-374.844	-200.000	0.048	-0.369
-373.829	-29.619	0.312	-0.179
-372.815	-200.000	0.021	0.117
-371.800	43.024	-0.227	-0.208
-370.785	-200.000	0.004	-0.019
-369.771	-200.000	-0.025	0.247
-368.756	119.563	0.172	-0.215
-367.742	-200.000	0.031	-0.189
-366.727	162.308	0.068	0.095
-365.712	164.721	-0.094	-0.133
-364.698	-135.949	-0.061	0.007
-363.683	100.426	0.197	-0.230
-362.669	104.551	-0.120	-0.142
-361.654	-79.618	0.301	0.102
-360.639	72.617	-0.089	0.094
-359.625	172.918	0.013	0.019
-358.610	-3.722	-0.178	-0.124
-357.596	238.294	-0.095	0.159
-356.581	85.980	-0.198	-0.219
-355.566	150.635	0.151	0.206
-354.552	-56.027	-0.134	0.060
-353.537	-110.954	-0.270	-0.056
-352.523	230.162	-0.140	-0.230
-351.508	-154.218	0.121	-0.008
-350.493	-200.000	0.058	0.345
-349.479	44.247	-0.322	0.297
-348.464	-1.660	-0.144	-0.102
-347.450	556.714	0.127	0.307
-346.435	191.949	0.095	0.144
-345.420	-200.000	0.001	-0.297
-344.406	800.000	0.097	-0.312
-343.391	-112.263	-0.121	-0.024
-342.377	-124.258	-0.389	0.061
-341.362	-75.057	0.270	-0.097
-340.348	178.708	0.117	-0.171
-339.333	-95.687	0.129	-0.035
-338.318	161.593	-0.039	0.055
-337.304	-14.125	-0.218	-0.141
-336.289	-11.918	-0.087	-0.057
-335.275	10.768	0.094	-0.072
-334.260	-60.761	0.146	0.062
-333.245	-114.175	0.409	-0.079
-332.231	-20.749	0.085	-0.052
-331.216	-44.478	0.129	-0.065
-330.202	-138.453	-0.437	-0.048
-329.187	12.260	0.132	-0.102
-328.172	621.851	-0.150	-0.379
-327.158	153.103	-0.127	0.175
-326.143	800.000	0.177	-0.540
-325.129	366.747	-0.077	-0.157
-324.114	-40.098	-0.087	-0.045
-323.099	90.823	0.089	-0.100
-322.085	240.396	-0.190	-0.317
-321.070	24.746	-0.255	-0.212
-320.056	87.417	0.063	-0.070
-319.041	9.969	0.186	0.142
-318.026	-166.840	-0.185	0.008
-317.012	-122.057	-0.025	-0.004
-315.997	28.390	0.203	-0.172
-314.983	-200.000	0.074	0.347
-313.968	-163.649	0.293	-0.014
-312.953	49.340	-0.230	0.217
-311.939	252.012	0.021	0.037
-310.924	-200.000	-0.013	-0.365
-309.910	4.509	-0.219	-0.161
-308.895	-200.000	-0.027	0.217
-307.880	524.420	0.098	-0.232
-306.866	343.121	0.126	-0.248
-305.851	62.405	-0.121	0.121
-304.837	-91.375	0.183	-0.052
-303.822	-164.230	0.208	-0.010
-302.807	-85.052	0.105	-0.033
-301.793	118.289	0.136	-0.169
-300.778	71.723	-0.280	0.292
-299.764	255.006	-0.062	-0.106
-298.749	176.598	-0.113	-0.165
-297.735	-136.034	-0.531	0.063
-296.720	-200.000	0.004	-0.137
-295.705	173.472	0.055	-0.080
-294.691	584.415	-0.084	0.208
-293.676	-66.419	0.223	0.089
-292.662	-200.000	-0.014	0.295
-291.647	-200.000	-0.050	-0.432
-290.632	-200.000	0.013	-0.148
-289.618	-200.000	-0.046	0.248
-288.603	-114.427	0.215	-0.041
-287.589	-79.286	0.399	0.136
-286.574	-167.074	-0.155	0.006
-285.559	-146.958	0.142	0.012
-284.545	130.784	-0.166	0.213
-283.530	-56.888	0.246	0.109
-282.516	-200.000	-0.007	0.138
-281.501	131.723	0.120	-0.154
-280.486	392.820	-0.016	-0.033
-279.472	-9.687	0.322	0.215
-278.457	-151.117	0.344	0.026
-277.443	192.463	-0.170	-0.256
-276.428	-98.911	-0.129	-0.033
-275.413	241.736	-0.070	-0.117
-274.399	130.699	0.174	-0.224
-273.384	147.237	0.055	-0.075
-272.370	-11.478	-0.380	0.250
-271.355	325.113	0.122	-0.233
-270.340	116.609	-0.076	0.094
-269.326	-200.000	-0.015	0.098
-268.311	-200.000	0.001	-0.279
-267.297	-200.000	0.076	0.418
-266.282	142.064	-0.042	-0.055
-265.267	-176.157	0.217	0.006
-264.253	134.099	-0.028	-0.036
-263.238	186.957	-0.100	0.149
-262.224	16.387	-0.125	0.099
-261.209	573.609	-0.074	-0.182
-260.195	-200.000	-0.059	0.346
-259.180	257.164	-0.012	0.021
-258.165	195.668	0.105	-0.160
-257.151	800.000	0.078	0.250
-256.136	-67.491	-0.190	0.075
-255.122	-144.044	0.463	0.044
-254.107	-50.891	-0.217	0.102
-253.092	-60.795	-0.251	-0.106
-252.078	-70.119	-0.097	0.037
-251.063	785.013	-0.133	0.365
-250.049	-200.000	-0.011	0.053
-249.034	-176.628	0.125	-0.003
-248.019	732.778	0.138	-0.369
-247.005	-86.673	0.246	-0.075
-245.990	589.028	0.093	0.229
-244.976	-50.296	0.169	-0.080
-243.961	-166.495	-0.076	-0.003
-242.946	263.905	-0.071	-0.123
-241.932	800.000	-0.085	0.321
-240.917	-79.722	0.181	0.061
-239.903	251.703	0.096	-0.163
-238.888	-200.000	-0.015	-0.164
-237.873	800.000	-0.071	-0.306
-236.859	0.563	-0.179	0.128
-235.844	-96.112	0.030	-0.008
-234.830	-200.000	0.045	0.278
-233.815	762.968	0.196	0.532
-232.800	-72.027	0.193	-0.072
-231.786	-84.730	-0.212	-0.067
-230.771	443.165	-0.255	0.558
-229.757	-35.775	0.368	0.199
-228.742	740.007	0.092	-0.246
-227.727	800.000	-0.077	-0.303
-226.713	249.113	0.119	-0.201
-225.698	-14.730	0.186	-0.120
-224.684	-80.383	0.234	0.078
-223.669	-15.725	-0.056	0.036
-222.655	-200.000	0.004	-0.053
-221.640	-200.000	-0.045	-0.259
-220.625	227.374	-0.144	0.233
-219.611	6.737	0.162	0.120
-218.596	354.909	0.107	-0.212
-217.582	626.572	0.086	-0.218
-216.567	-104.236	0.136	0.032
-215.552	-24.808	0.347	0.206
-214.538	800.000	-0.028	0.100
-213.523	-200.000	0.029	0.280
-212.509	-100.250	-0.189	-0.047
-211.494	671.554	0.025	-0.066
-210.479	-99.188	0.112	0.028
-209.465	-163.400	0.540	-0.026
-208.450	255.182	0.245	0.419
-207.436	-47.684	-0.149	0.072
-206.421	-200.000	0.021	0.227
-205.406	-76.197	-0.130	-0.046
-204.392	195.015	-0.048	-0.072
-203.377	-32.832	-0.319	0.177
-202.363	-163.465	-0.099	-0.005
-201.348	-110.079	0.184	-0.038
-200.333	40.303	0.293	0.264
-199.319	-200.000	0.022	0.215
-198.304	132.232	0.131	-0.168
-197.290	-172.052	0.058	0.002
-196.275	-200.000	0.039	-0.335
-195.260	40.798	-0.198	-0.179
-194.246	507.592	-0.080	0.185
-193.231	44.017	-0.052	-0.048
-192.217	-26.669	-0.075	0.044
-191.202	-79.619	-0.056	-0.019
-190.187	-186.049	-0.267	0.004
-189.173	222.022	0.139	0.224
-188.158	490.838	0.117	0.268
-187.144	-109.757	-0.348	-0.073
-186.129	800.000	-0.103	0.417
-185.114	95.644	0.222	-0.252
-184.100	-34.199	0.411	0.225
-183.085	-119.165	0.204	0.036
-182.071	-200.000	-0.032	0.270
-181.056	-200.000	0.017	0.281
-180.042	-56.920	-0.139	0.061
-179.027	-132.356	0.131	0.017
-178.012	-200.000	-0.008	-0.317
-176.998	-85.933	0.181	0.056
-175.983	7.781	0.127	0.095
-174.969	60.309	-0.206	-0.203
-173.954	38.577	0.213	-0.190
-172.939	103.815	-0.173	0.203
-171.925	-64.056	-0.286	0.117
-170.910	38.518	0.069	-0.061
-169.896	-200.000	-0.051	-0.230
-168.881	-4.494	-0.146	-0.101
-167.866	-152.361	-0.148	-0.011
-166.852	130.452	-0.189	-0.242
-165.837	163.943	0.235	0.331
-164.823	230.120	-0.121	0.197
-163.808	-84.636	-0.283	0.089
-162.793	272.310	0.096	-0.170
-161.779	174.876	0.157	-0.226
-160.764	800.000	0.075	0.209
-159.750	-52.306	-0.211	0.098
-158.735	-55.330	0.135	-0.060
-157.720	-189.240	-0.131	0.002
-156.706	100.517	0.122	-0.141
-155.691	-78.061	0.131	0.045
-154.677	-88.771	0.250	-0.074
-153.662	-26.751	0.234	-0.136
-152.647	341.841	-0.043	0.084
-151.633	-40.460	-0.274	0.142
-150.618	-130.471	0.110	0.015
-149.604	-57.473	0.237	-0.104
-148.589	9.700	0.217	0.164
-147.574	194.112	0.180	0.272
-146.560	10.621	0.135	0.102
-145.545	-2.290	-0.099	0.069
-144.531	0.536	-0.262	-0.187
-143.516	-200.000	0.043	0.303
-142.502	800.000	-0.110	0.348
-141.487	-89.558	0.229	0.067
-140.472	-55.726	0.122	0.054
-139.458	800.000	0.061	-0.211
-138.443	-48.749	-0.406	0.194
-137.429	-200.000	-0.004	-0.149
-136.414	63.946	0.137	-0.137
-135.399	151.555	0.160	-0.217
-134.385	800.000	0.011	0.048
-133.370	-46.191	0.257	-0.126
-132.356	694.116	-0.078	0.203
-131.341	800.000	0.108	0.317
-130.326	800.000	-0.042	-0.162
-129.312	304.623	-0.093	-0.172
-128.297	-38.519	0.374	0.197
-127.283	102.722	0.088	0.102
-126.268	800.000	0.041	0.117
-125.253	618.299	-0.086	0.215
-124.239	716.492	-0.048	0.127
-123.224	194.652	0.152	0.229
-122.210	191.200	-0.061	0.092
