DTS Sentinel unit serial number:	SN413079Multiplexer serial number:	ORYXHardware model number:	OX4-SRSoftware version number:	ORYX F/W v4.00 Oryx Data Collector v3.7.2.0data status	okinstallation	princeton_trtdifferential loss correction	single-endedforward channel	channel 1reverse channel	N/Adate	2019/09/13time	12:38:35forward acquisition time	60.00reverse acquisition time	0.00gamma	496.2192k internal	0.2305k external	0.2305temperature offset calibration	1.0167default loss term (dB/km)	0.3790temperature slope calibration	1.0000multiplexer offset coefficient	1.0000multiplexer slope coefficient	1.0000fibre end	0.00T internal ref (°C)	34.58T ext. ref 1 (°C)	4.61T ext. ref 2 (°C)	31.55length (m)	temperature (°C)	Stokes	anti-Stokes-747.200	34.384	-0.098	-0.087
-746.185	-112.156	0.156	-0.032
-745.171	-110.999	0.100	0.021
-744.156	-20.480	-0.449	0.281
-743.142	491.742	0.054	0.126
-742.127	6.947	-0.243	0.184
-741.112	-125.570	0.117	-0.018
-740.098	228.166	-0.151	0.250
-739.083	-10.573	0.232	-0.156
-738.069	12.174	-0.393	-0.308
-737.054	703.335	-0.133	0.357
-736.039	68.980	-0.086	-0.090
-735.025	104.213	-0.180	0.216
-734.010	-104.439	0.304	0.072
-732.996	-143.303	0.067	-0.007
-731.981	5.690	-0.145	-0.109
-730.966	-153.153	-0.477	0.034
-729.952	-134.053	-0.201	0.025
-728.937	-34.977	-0.196	-0.109
-727.923	451.326	-0.051	-0.115
-726.908	-79.898	-0.260	-0.089
-725.894	-112.496	0.313	0.064
-724.879	92.983	-0.284	-0.327
-723.864	69.730	0.075	-0.079
-722.850	-97.511	0.229	0.060
-721.835	17.439	-0.134	-0.108
-720.821	-90.322	-0.457	0.135
-719.806	-200.000	-0.018	-0.124
-718.791	-200.000	0.047	0.408
-717.777	800.000	0.058	-0.239
-716.762	-200.000	0.010	-0.244
-715.748	-200.000	-0.046	-0.210
-714.733	49.253	-0.070	0.067
-713.718	307.423	0.119	0.226
-712.704	121.755	0.124	-0.157
-711.689	-111.541	0.276	0.057
-710.675	224.560	-0.217	-0.356
-709.660	-200.000	-0.008	-0.226
-708.645	74.609	0.035	0.037
-707.631	-120.916	-0.210	-0.036
-706.616	183.911	0.134	0.202
-705.602	-70.973	0.202	-0.077
-704.587	-109.421	-0.223	0.048
-703.572	139.851	-0.141	-0.188
-702.558	-200.000	0.007	0.035
-701.543	-20.040	-0.251	0.157
-700.529	64.518	0.237	-0.242
-699.514	-97.047	0.324	0.086
-698.499	453.753	0.117	-0.264
-697.485	-200.000	-0.020	0.100
-696.470	-56.863	0.200	0.090
-695.456	-86.620	-0.180	0.056
-694.441	800.000	0.014	-0.056
-693.426	-77.143	0.369	-0.131
-692.412	-200.000	0.041	0.233
-691.397	-53.060	-0.257	-0.120
-690.383	800.000	-0.081	0.359
-689.368	-44.611	-0.200	0.101
-688.354	771.246	0.036	-0.100
-687.339	-148.652	-0.159	0.013
-686.324	-200.000	-0.014	0.249
-685.310	-75.315	0.108	-0.039
-684.295	6.493	0.139	-0.105
-683.281	315.780	0.043	0.082
-682.266	-200.000	0.020	0.182
-681.251	155.279	-0.111	0.154
-680.237	-200.000	-0.010	-0.241
-679.222	-200.000	0.000	0.035
-678.208	-200.000	0.021	-0.417
-677.193	316.400	-0.149	-0.285
-676.178	309.412	0.178	0.338
-675.164	-106.391	0.323	0.073
-674.149	800.000	-0.087	0.257
-673.135	-200.000	-0.025	0.192
-672.120	800.000	-0.140	-0.447
-671.105	-200.000	0.003	-0.080
-670.091	-200.000	0.084	-0.410
-669.076	-200.000	-0.033	-0.196
-668.062	800.000	0.068	0.240
-667.047	-3.153	-0.148	-0.105
-666.032	-106.431	0.317	-0.072
-665.018	-55.084	-0.117	0.053
-664.003	26.638	-0.307	0.260
-662.989	403.013	0.079	0.169
-661.974	-200.000	-0.029	-0.361
-660.959	25.764	-0.219	0.185
-659.945	251.416	0.132	0.228
-658.930	800.000	-0.112	-0.487
-657.916	-20.391	-0.146	0.091
-656.901	123.427	0.125	0.159
-655.886	-200.000	0.044	-0.278
-654.872	-89.139	0.362	-0.108
-653.857	-36.177	-0.129	-0.071
-652.843	573.173	0.053	0.131
-651.828	58.223	0.187	-0.186
-650.814	-200.000	0.015	-0.220
-649.799	-43.868	0.128	-0.065
-648.784	-200.000	-0.021	0.153
-647.770	59.772	-0.214	0.214
-646.755	-200.000	0.039	-0.222
-645.741	-87.108	-0.012	0.004
-644.726	-168.720	-0.095	0.004
-643.711	468.265	0.111	0.252
-642.697	800.000	-0.063	-0.202
-641.682	-200.000	0.003	0.029
-640.668	800.000	0.068	-0.225
-639.653	14.422	0.059	0.047
-638.638	-1.969	0.081	-0.058
-637.624	126.560	0.173	0.221
-636.609	-200.000	-0.034	0.153
-635.595	-120.005	0.268	-0.047
-634.580	-200.000	-0.022	-0.100
-633.565	-74.255	0.169	-0.062
-632.551	0.380	-0.159	0.115
-631.536	3.494	-0.071	-0.053
-630.522	98.632	0.094	-0.110
-629.507	-152.581	-0.197	-0.014
-628.492	-61.450	0.185	-0.079
-627.478	-1.985	0.093	0.066
-626.463	-104.617	-0.225	-0.052
-625.449	67.381	-0.010	0.011
-624.434	-200.000	-0.015	0.147
-623.419	-110.151	0.284	-0.060
-622.405	-200.000	-0.003	-0.311
-621.390	23.083	0.184	-0.153
-620.376	70.558	-0.191	-0.200
-619.361	163.132	0.158	0.224
-618.346	267.680	-0.180	0.319
-617.332	-84.217	-0.310	-0.100
-616.317	74.644	0.169	-0.180
-615.303	-195.747	-0.180	0.001
-614.288	76.018	0.242	-0.259
-613.273	51.361	-0.315	-0.303
-612.259	-107.934	-0.155	0.034
-611.244	-200.000	0.014	0.196
-610.230	-38.904	0.073	-0.039
-609.215	297.075	-0.119	-0.222
-608.201	-200.000	0.068	-0.305
-607.186	-85.263	-0.241	-0.076
-606.171	-200.000	0.051	0.237
-605.157	42.172	-0.134	0.123
-604.142	-200.000	-0.016	-0.127
-603.128	-200.000	-0.025	0.116
-602.113	-85.343	-0.090	-0.029
-601.098	43.714	0.201	-0.186
-600.084	-78.036	-0.239	-0.083
-599.069	205.511	-0.249	-0.391
-598.055	-88.739	-0.192	0.058
-597.040	-200.000	-0.009	-0.073
-596.025	-200.000	0.019	0.139
-595.011	-200.000	-0.089	-0.427
-593.996	-120.182	-0.103	-0.018
-592.982	-3.645	0.080	-0.056
-591.967	-71.191	-0.041	0.016
-590.952	-113.361	0.146	-0.029
-589.938	-200.000	-0.031	0.254
-588.923	106.250	-0.106	0.128
-587.909	31.127	0.249	0.216
-586.894	326.525	0.009	-0.018
-585.879	545.248	-0.067	-0.162
-584.865	-146.862	0.180	0.016
-583.850	-128.731	0.196	0.028
-582.836	-200.000	-0.021	0.112
-581.821	83.584	-0.190	0.210
-580.806	-81.798	0.104	0.034
-579.792	-200.000	-0.009	-0.056
-578.777	159.524	0.110	-0.155
-577.763	224.168	-0.068	-0.111
-576.748	407.622	-0.037	-0.079
-575.733	-200.000	0.005	0.080
-574.719	800.000	0.044	0.143
-573.704	88.529	-0.101	-0.114
-572.690	-102.442	0.216	-0.052
-571.675	89.807	0.040	0.045
-570.661	-192.234	-0.142	-0.001
-569.646	444.308	0.204	0.452
-568.631	-83.090	-0.094	-0.031
-567.617	-183.048	-0.344	0.006
-566.602	-50.607	0.176	0.084
-565.588	-135.178	0.272	-0.033
-564.573	-97.148	0.231	-0.061
-563.558	25.592	-0.053	-0.045
-562.544	800.000	0.126	-0.423
-561.529	-69.557	0.170	-0.066
-560.515	-119.298	0.309	-0.054
-559.500	-80.416	0.246	0.083
-558.485	-200.000	0.039	0.305
-557.471	7.205	-0.187	-0.141
-556.456	669.733	0.129	-0.338
-555.442	-200.000	0.012	0.354
-554.427	800.000	0.072	-0.224
-553.412	-15.754	0.270	-0.174
-552.398	58.368	0.028	0.028
-551.383	-38.176	0.319	0.171
-550.369	800.000	0.107	0.365
-549.354	-26.153	-0.033	0.019
-548.339	-106.065	-0.299	0.068
-547.325	-112.072	0.498	0.101
-546.310	154.145	0.041	-0.057
-545.296	231.499	0.065	-0.108
-544.281	-83.899	0.210	0.068
-543.266	16.351	-0.084	0.067
-542.252	199.590	-0.087	0.134
-541.237	-200.000	0.041	0.368
-540.223	109.095	0.154	0.186
-539.208	-200.000	0.030	-0.175
-538.193	-200.000	-0.005	-0.098
-537.179	-200.000	0.026	-0.195
-536.164	-200.000	-0.024	-0.272
-535.150	0.671	0.143	-0.103
-534.135	37.763	0.102	0.091
-533.121	-29.271	0.276	0.159
-532.106	-16.611	-0.062	-0.040
-531.091	-120.452	-0.312	0.054
-530.077	50.124	-0.264	0.252
-529.062	-200.000	-0.029	0.134
-528.048	451.775	0.105	-0.234
-527.033	-36.849	0.062	-0.034
-526.018	233.293	0.144	-0.239
-525.004	-89.215	0.211	0.063
-523.989	67.148	0.053	0.055
-522.975	302.237	0.045	0.084
-521.960	-200.000	-0.036	-0.173
-520.945	-173.954	0.323	0.010
-519.931	296.420	-0.130	0.240
-518.916	310.372	0.033	-0.062
-517.902	-83.729	-0.118	0.038
-516.887	227.183	0.048	0.078
-515.872	-161.353	-0.184	0.010
-514.858	-110.503	-0.356	-0.074
-513.843	-89.305	-0.432	-0.128
-512.829	525.114	-0.136	-0.324
-511.814	800.000	-0.037	-0.144
-510.799	-83.557	0.320	0.103
-509.785	10.476	-0.045	-0.035
-508.770	21.044	-0.183	0.150
-507.756	-142.844	-0.109	0.011
-506.741	-45.352	0.355	-0.178
-505.726	-200.000	-0.017	-0.306
-504.712	-200.000	-0.043	-0.397
-503.697	-146.880	-0.134	-0.012
-502.683	-61.297	-0.095	0.041
-501.668	9.466	-0.096	-0.073
-500.653	-43.244	0.275	0.140
-499.639	230.459	0.185	0.305
-498.624	-200.000	-0.027	0.254
-497.610	13.875	0.239	0.187
-496.595	136.978	-0.146	0.193
-495.581	179.746	-0.050	0.074
-494.566	-115.542	-0.106	-0.020
-493.551	259.933	-0.092	0.161
-492.537	-109.613	-0.200	0.043
-491.522	-200.000	-0.038	-0.324
-490.508	53.688	-0.333	-0.322
-489.493	22.365	-0.114	0.094
-488.478	236.716	-0.069	0.116
-487.464	79.333	-0.104	0.112
-486.449	31.894	-0.345	-0.300
-485.435	-74.146	0.290	-0.106
-484.420	-200.000	0.004	0.112
-483.405	-75.106	-0.132	0.048
-482.391	-200.000	0.019	-0.412
-481.376	-88.011	-0.227	0.069
-480.362	253.934	-0.141	-0.244
-479.347	-86.361	-0.093	-0.029
-478.332	334.321	0.117	0.229
-477.318	296.727	-0.151	0.280
-476.303	-107.828	-0.170	-0.037
-475.289	-138.850	-0.254	0.028
-474.274	134.402	0.153	-0.199
-473.259	288.062	0.085	0.155
-472.245	-200.000	0.007	0.143
-471.230	-200.000	-0.063	0.312
-470.216	800.000	0.107	0.399
-469.201	800.000	-0.143	0.514
-468.186	525.331	0.123	0.291
-467.172	25.911	-0.162	0.136
-466.157	-109.042	-0.369	0.079
-465.143	-200.000	0.014	-0.065
-464.128	141.668	-0.079	0.105
-463.113	1.664	-0.335	-0.243
-462.099	-180.781	0.300	-0.006
-461.084	-79.676	-0.107	-0.036
-460.070	139.645	0.077	-0.102
-459.055	-19.557	-0.110	-0.069
-458.040	-116.727	-0.554	0.102
-457.026	52.972	-0.087	0.084
-456.011	-75.907	0.064	0.023
-454.997	-144.752	0.175	-0.016
-453.982	-200.000	0.151	0.001
-452.968	432.234	-0.019	-0.041
-451.953	800.000	0.060	0.218
-450.938	-86.202	-0.075	-0.023
-449.924	289.660	-0.075	0.136
-448.909	445.972	0.154	-0.341
-447.895	800.000	-0.068	-0.248
-446.880	-200.000	-0.005	0.062
-445.865	219.928	0.061	0.098
-444.851	-119.706	0.100	-0.017
-443.836	-200.000	0.014	-0.155
-442.822	94.756	0.026	0.030
-441.807	800.000	-0.056	0.237
-440.792	378.642	-0.061	-0.126
-439.778	11.065	0.124	0.096
-438.763	-107.717	0.236	-0.052
-437.749	227.721	-0.026	-0.043
-436.734	27.927	-0.094	0.080
-435.719	-0.732	-0.212	-0.151
-434.705	800.000	0.077	0.280
-433.690	106.261	0.083	-0.099
-432.676	-7.581	-0.138	0.094
-431.661	-110.063	-0.323	-0.068
-430.646	-90.672	0.174	0.051
-429.632	-200.000	-0.037	0.224
-428.617	-200.000	0.000	-0.121
-427.603	-82.659	0.071	0.023
-426.588	-48.137	-0.304	-0.147
-425.573	-69.371	-0.070	-0.027
-424.559	32.856	0.200	-0.174
-423.544	800.000	0.073	-0.210
-422.530	800.000	-0.048	-0.153
-421.515	-112.452	-0.257	0.052
-420.500	-200.000	-0.035	0.170
-419.486	800.000	-0.073	0.207
-418.471	25.864	0.081	-0.068
-417.457	36.460	0.284	-0.252
-416.442	29.960	0.399	-0.342
-415.428	-200.000	-0.057	-0.252
-414.413	-107.892	-0.300	-0.066
-413.398	-18.882	-0.193	-0.121
-412.384	-111.778	-0.145	-0.029
-411.369	315.766	-0.164	0.312
-410.355	-200.000	0.001	0.163
-409.340	800.000	-0.076	-0.322
-408.325	-13.433	0.135	-0.088
-407.311	402.183	0.038	-0.080
-406.296	-60.154	0.207	0.089
-405.282	-47.301	-0.332	0.163
-404.267	-200.000	-0.014	0.287
-403.252	568.026	0.128	0.312
-402.238	-27.883	0.214	-0.124
-401.223	-141.155	0.080	-0.008
-400.209	264.760	-0.176	0.308
-399.194	-159.137	0.405	0.023
-398.179	49.493	0.196	-0.186
-397.165	146.024	0.030	-0.041
-396.150	112.634	0.100	-0.121
-395.136	88.170	-0.088	-0.098
-394.121	98.610	-0.291	0.337
-393.106	97.283	0.174	0.201
-392.092	-50.515	0.211	-0.100
-391.077	-135.145	-0.205	-0.025
-390.063	-191.427	-0.310	-0.003
-389.048	-71.412	0.026	0.010
-388.033	-140.344	-0.158	0.017
-387.019	800.000	0.093	0.359
-386.004	305.318	0.228	0.426
-384.990	-57.810	0.186	0.082
-383.975	-200.000	-0.002	0.083
-382.960	18.217	0.097	-0.078
-381.946	151.371	-0.193	-0.264
-380.931	118.212	-0.044	0.054
-379.917	800.000	0.005	0.016
-378.902	173.272	-0.143	-0.207
-377.888	-79.851	0.238	0.080
-376.873	-200.000	0.004	-0.094
-375.858	-22.790	-0.146	-0.088
-374.844	-86.776	-0.168	0.051
-373.829	-141.198	0.092	-0.009
-372.815	-25.341	0.149	0.088
-371.800	800.000	0.129	0.369
-370.785	59.689	0.096	-0.095
-369.771	215.544	-0.083	0.132
-368.756	56.833	-0.209	0.205
-367.742	130.210	0.062	0.080
-366.727	-39.629	0.306	-0.161
-365.712	72.650	0.270	0.282
-364.698	-200.000	0.017	-0.211
-363.683	-169.333	0.327	-0.012
-362.669	28.465	-0.311	-0.264
-361.654	-200.000	0.028	0.251
-360.639	-128.390	-0.218	0.031
-359.625	-143.856	-0.121	-0.011
-358.610	-58.047	0.202	-0.088
-357.596	355.636	-0.070	0.140
-356.581	501.839	0.157	-0.363
-355.566	-12.545	0.183	-0.120
-354.552	-200.000	0.006	-0.247
-353.537	-20.757	0.149	-0.092
-352.523	-200.000	0.008	0.086
-351.508	-148.620	0.251	-0.021
-350.493	-162.018	0.245	-0.012
-349.479	425.691	-0.063	-0.136
-348.464	-128.211	0.338	0.048
-347.450	254.263	-0.138	0.237
-346.435	209.550	0.117	0.183
-345.420	29.597	-0.314	0.268
-344.406	442.199	-0.093	-0.205
-343.391	93.552	0.236	-0.267
-342.377	53.161	0.190	-0.182
-341.362	410.138	-0.138	-0.294
-340.348	104.239	-0.166	-0.196
-339.333	-132.171	0.105	0.014
-338.318	248.226	0.238	0.403
-337.304	361.011	-0.086	-0.172
-336.289	527.618	-0.111	-0.263
-335.275	-160.641	-0.042	-0.002
-334.260	140.899	-0.189	0.250
-333.245	800.000	0.087	-0.242
-332.231	800.000	-0.031	-0.109
-331.216	800.000	-0.026	-0.101
-330.202	67.209	-0.309	-0.316
-329.187	267.981	-0.103	-0.180
-328.172	-118.748	-0.173	-0.031
-327.158	332.437	-0.103	-0.199
-326.143	368.935	0.010	0.020
-325.129	-17.686	0.365	-0.230
-324.114	156.869	-0.077	0.107
-323.099	371.217	-0.038	0.076
-322.085	205.227	-0.035	-0.054
-321.070	-200.000	0.055	0.259
-320.056	-142.563	0.269	0.026
-319.041	627.426	-0.086	-0.218
-318.026	-171.799	0.338	0.011
-317.012	800.000	-0.020	-0.064
-315.997	-10.512	0.148	-0.098
-314.983	159.031	-0.089	0.124
-313.968	-46.856	-0.436	0.213
-312.953	145.923	-0.150	-0.201
-311.939	-200.000	0.014	0.224
-310.924	37.562	-0.079	-0.070
-309.910	46.311	0.237	-0.220
-308.895	329.926	-0.074	0.143
-307.880	-85.050	-0.165	0.052
-306.866	-96.949	-0.211	-0.055
-305.851	-200.000	-0.009	0.196
-304.837	47.538	0.152	0.142
-303.822	800.000	0.053	0.189
-302.807	-200.000	0.033	-0.212
-301.793	71.107	-0.186	0.193
-300.778	604.139	0.088	0.219
-299.764	445.828	-0.072	0.159
-298.749	-152.810	0.340	-0.024
-297.735	800.000	-0.017	0.069
-296.720	643.454	0.042	-0.107
-295.705	-161.098	0.300	0.016
-294.691	-5.317	0.085	0.059
-293.676	-200.000	-0.016	0.074
-292.662	-50.522	-0.026	0.012
-291.647	7.487	0.236	0.176
-290.632	-7.403	0.059	-0.040
-289.618	-118.447	-0.243	-0.043
-288.603	28.275	-0.063	0.053
-287.589	-73.322	-0.187	-0.068
-286.574	-200.000	-0.046	-0.362
-285.559	331.128	-0.074	0.143
-284.545	800.000	0.090	-0.263
-283.530	-179.941	-0.163	-0.003
-282.516	-200.000	-0.025	-0.203
-281.501	800.000	0.053	0.170
-280.486	-96.663	-0.281	-0.074
-279.472	-134.985	0.146	0.018
-278.457	156.348	0.198	0.273
-277.443	-71.966	-0.331	0.123
-276.428	160.014	-0.034	0.047
-275.413	52.805	0.206	-0.197
-274.399	98.888	0.192	0.221
-273.384	-43.317	0.295	-0.149
-272.370	74.161	0.354	0.372
-271.355	800.000	0.038	0.146
-270.340	800.000	-0.037	-0.106
-269.326	800.000	0.070	0.215
-268.311	474.076	-0.032	0.072
-267.297	-60.128	0.208	-0.088
-266.282	-19.302	-0.119	-0.074
-265.267	115.536	0.145	-0.177
-264.253	245.749	0.111	-0.186
-263.238	-200.000	0.001	-0.098
-262.224	154.646	-0.276	-0.379
-261.209	-200.000	0.022	-0.163
-260.195	-162.853	0.135	-0.007
-259.180	-88.522	0.255	-0.076
-258.165	203.834	0.094	-0.146
-257.151	109.505	0.072	0.086
-256.136	-115.891	-0.360	-0.067
-255.122	-124.096	0.198	0.031
-254.107	-98.392	-0.297	-0.076
-253.092	-120.243	-0.503	-0.086
-252.078	-91.695	-0.089	0.025
-251.063	800.000	-0.071	0.207
-250.049	705.126	0.090	-0.237
-249.034	-13.095	0.118	0.076
-248.019	-44.821	0.168	0.083
-247.005	589.896	-0.146	-0.359
-245.990	-112.333	-0.428	0.086
-244.976	-200.000	0.262	0.001
-243.961	-200.000	0.008	0.161
-242.946	-200.000	0.014	0.086
-241.932	62.838	-0.033	-0.033
-240.917	161.014	-0.077	0.108
-239.903	800.000	0.064	0.277
-238.888	-100.999	-0.134	0.033
-237.873	263.413	-0.120	-0.207
-236.859	466.296	0.060	0.134
-235.844	-200.000	-0.089	0.453
-234.830	100.917	-0.177	-0.206
-233.815	-132.631	0.225	-0.029
-232.800	0.447	-0.204	0.145
-231.786	179.505	-0.098	0.143
-230.771	-200.000	0.030	-0.405
-229.757	-73.611	0.239	0.087
-228.742	-200.000	-0.008	0.293
-227.727	5.126	0.129	-0.095
-226.713	321.571	-0.127	0.241
-225.698	800.000	0.063	-0.213
-224.684	-52.611	-0.317	0.146
-223.669	-127.751	-0.275	-0.040
-222.655	-200.000	0.010	0.060
-221.640	-78.993	-0.142	0.048
-220.625	88.181	0.095	-0.105
-219.611	-105.366	-0.323	0.073
-218.596	350.835	-0.031	-0.062
-217.582	800.000	-0.036	0.134
-216.567	-40.833	0.413	-0.213
-215.552	-60.861	-0.285	-0.120
-214.538	-200.000	0.018	0.197
-213.523	-5.022	0.171	0.118
-212.509	-61.505	-0.148	0.062
-211.494	800.000	0.122	0.395
-210.479	71.833	0.190	0.196
-209.465	84.767	0.223	-0.243
-208.450	189.062	-0.092	0.137
-207.436	-5.314	-0.110	0.075
-206.421	80.225	-0.233	0.250
-205.406	-200.000	-0.017	-0.226
-204.392	646.093	-0.056	-0.144
-203.377	-151.140	0.315	0.024
-202.363	244.623	-0.172	-0.287
-201.348	800.000	0.063	-0.187
-200.333	800.000	-0.105	0.427
-199.319	57.689	0.083	-0.081
-198.304	589.013	0.067	-0.164
-197.290	149.278	-0.086	-0.116
-196.275	-119.772	-0.381	0.065
-195.260	-72.073	0.248	0.092
-194.246	-117.778	0.146	-0.026
-193.231	105.669	-0.094	-0.111
-192.217	-81.284	0.552	-0.181
-191.202	185.809	-0.103	-0.153
-190.187	200.246	0.159	0.243
-189.173	-69.081	-0.183	-0.070
-188.158	-200.000	0.077	0.353
-187.144	641.029	-0.075	0.190
-186.129	-144.410	-0.332	-0.031
-185.114	47.098	0.326	0.302
-184.100	81.258	-0.138	0.149
-183.085	-55.267	-0.234	0.105
-182.071	-200.000	-0.018	-0.376
-181.056	-40.461	0.312	0.161
-180.042	617.943	0.041	-0.101
-179.027	-85.185	-0.563	0.175
-178.012	800.000	-0.031	-0.102
-176.998	-147.717	0.281	-0.023
-175.983	-71.241	0.297	-0.111
-174.969	5.463	0.130	-0.095
-173.954	181.907	0.175	0.257
-172.939	-200.000	-0.063	0.464
-171.925	-62.596	0.016	-0.006
-170.910	-85.988	-0.085	-0.026
-169.896	-71.068	0.150	-0.056
-168.881	-200.000	0.013	0.090
-167.866	-28.821	0.270	0.154
-166.852	2.510	0.137	-0.099
-165.837	11.334	0.174	-0.133
-164.823	159.436	-0.147	0.204
-163.808	-200.000	0.007	-0.358
-162.793	-170.390	0.129	-0.004
-161.779	-60.564	-0.453	-0.191
-160.764	-82.352	-0.147	0.048
-159.750	108.046	-0.288	-0.341
-158.735	-117.694	0.021	-0.004
-157.720	-66.332	0.290	0.115
-156.706	-200.000	-0.003	-0.296
-155.691	165.479	-0.122	-0.172
-154.677	-52.069	-0.089	0.041
-153.662	-85.755	-0.256	0.079
-152.647	-135.059	0.377	-0.045
-151.633	91.618	-0.169	-0.189
-150.618	3.834	-0.068	-0.049
-149.604	-200.000	0.019	0.229
-148.589	192.440	0.158	0.237
-147.574	9.022	-0.015	-0.011
-146.560	14.743	-0.211	0.164
-145.545	143.488	0.118	0.156
-144.531	-200.000	-0.052	0.408
-143.516	-200.000	-0.029	0.141
-142.502	29.189	0.249	0.210
-141.487	219.742	0.184	-0.293
-140.472	73.848	-0.051	-0.054
-139.458	66.652	0.259	0.262
-138.443	-108.519	-0.404	0.086
-137.429	-121.674	-0.140	-0.023
-136.414	-103.901	0.397	0.092
-135.399	35.328	0.101	0.088
-134.385	-98.031	0.194	0.050
-133.370	-200.000	-0.011	0.065
-132.356	-165.016	-0.095	-0.004
-131.341	173.935	-0.182	-0.261
-130.326	-90.740	-0.129	-0.037
-129.312	-138.831	-0.216	0.023
-128.297	-200.000	-0.003	0.098
-127.283	-60.658	0.321	-0.135
-126.268	271.208	-0.134	0.234
-125.253	-200.000	-0.023	-0.253
-124.239	-27.107	-0.196	-0.114
-123.224	457.322	0.171	0.377
-122.210	464.865	0.028	-0.063
-121.195	27.577	0.225	-0.188
