DTS Sentinel unit serial number:	SN413079Multiplexer serial number:	ORYXHardware model number:	OX4-SRSoftware version number:	ORYX F/W v4.00 Oryx Data Collector v3.7.2.0data status	okinstallation	princeton_trtdifferential loss correction	single-endedforward channel	channel 1reverse channel	N/Adate	2019/09/18time	08:06:35forward acquisition time	60.00reverse acquisition time	0.00gamma	496.2192k internal	0.2338k external	0.2338temperature offset calibration	0.9974default loss term (dB/km)	0.3790temperature slope calibration	1.0000multiplexer offset coefficient	1.0000multiplexer slope coefficient	1.0000fibre end	0.00T internal ref (°C)	23.75T ext. ref 1 (°C)	0.21T ext. ref 2 (°C)	19.42length (m)	temperature (°C)	Stokes	anti-Stokes-747.200	55.369	0.148	0.143
-746.185	800.000	-0.045	-0.152
-745.171	-144.988	0.116	0.011
-744.156	-33.507	-0.094	-0.052
-743.142	-200.000	0.036	0.226
-742.127	-1.945	-0.136	0.096
-741.112	58.380	0.064	0.063
-740.098	-81.177	-0.245	0.081
-739.083	-31.318	-0.018	0.010
-738.069	-160.768	-0.106	-0.006
-737.054	-142.175	0.332	0.033
-736.039	-91.083	-0.069	-0.020
-735.025	157.167	0.172	0.239
-734.010	-200.000	0.047	-0.347
-732.996	800.000	-0.091	-0.339
-731.981	241.161	-0.169	0.284
-730.966	-12.026	-0.020	-0.013
-729.952	223.513	-0.098	-0.158
-728.937	41.151	-0.071	0.064
-727.923	60.428	-0.043	0.043
-726.908	-200.000	-0.272	0.001
-725.894	20.732	-0.169	-0.137
-724.879	-41.333	-0.251	-0.129
-723.864	-200.000	-0.006	0.053
-722.850	-139.967	-0.068	0.007
-721.835	198.551	-0.144	-0.221
-720.821	-140.679	0.353	0.037
-719.806	-110.540	0.229	0.047
-718.791	-200.000	0.007	-0.139
-717.777	43.673	-0.077	-0.071
-716.762	-200.000	-0.038	0.196
-715.748	-109.841	-0.161	-0.034
-714.733	85.854	-0.132	-0.145
-713.718	-200.000	0.016	0.129
-712.704	424.374	-0.104	-0.224
-711.689	93.150	-0.078	0.088
-710.675	100.910	-0.205	0.239
-709.660	-200.000	-0.013	-0.156
-708.645	691.507	0.108	-0.284
-707.631	-126.481	0.288	0.043
-706.616	800.000	-0.046	0.177
-705.602	415.629	0.149	0.318
-704.587	800.000	0.152	-0.541
-703.572	70.745	0.177	-0.183
-702.558	105.310	-0.098	0.116
-701.543	-132.218	-0.360	0.047
-700.529	287.763	0.026	0.048
-699.514	-200.000	-0.004	-0.078
-698.499	169.968	0.117	-0.168
-697.485	312.969	-0.080	0.150
-696.470	-112.634	0.034	-0.007
-695.456	468.449	-0.103	-0.233
-694.441	87.915	-0.071	0.079
-693.426	-79.533	0.221	-0.075
-692.412	-141.449	-0.334	-0.034
-691.397	218.565	-0.204	-0.326
-690.383	22.801	0.116	-0.095
-689.368	-47.022	-0.375	-0.183
-688.354	291.107	-0.099	0.180
-687.339	57.939	0.073	0.072
-686.324	-200.000	0.039	-0.368
-685.310	-56.614	-0.179	-0.079
-684.295	-109.500	-0.025	0.005
-683.281	60.261	0.090	-0.089
-682.266	-7.507	0.078	0.053
-681.251	-137.446	-0.181	-0.020
-680.237	82.765	-0.213	0.232
-679.222	800.000	0.053	0.227
-678.208	535.221	0.096	-0.228
-677.193	-52.483	0.315	-0.146
-676.178	-111.355	0.335	-0.068
-675.164	366.072	0.254	-0.513
-674.149	555.409	0.026	-0.062
-673.135	74.850	-0.113	-0.119
-672.120	169.696	0.094	-0.134
-671.105	72.923	0.040	0.042
-670.091	-44.041	-0.328	0.165
-669.076	-33.420	0.307	-0.170
-668.062	800.000	-0.048	0.195
-667.047	-200.000	-0.015	-0.200
-666.032	-200.000	0.028	0.253
-665.018	800.000	-0.047	0.147
-664.003	-102.599	-0.468	-0.112
-662.989	-200.000	-0.041	0.254
-661.974	87.280	-0.245	0.271
-660.959	-78.858	-0.446	-0.152
-659.945	800.000	-0.055	0.159
-658.930	180.378	-0.163	-0.238
-657.916	-121.463	-0.098	-0.016
-656.901	-23.340	-0.122	0.074
-655.886	-95.005	0.179	0.048
-654.872	800.000	0.041	0.152
-653.857	48.306	0.077	-0.072
-652.843	42.118	-0.409	0.372
-651.828	-10.501	0.400	0.265
-650.814	-200.000	0.025	-0.125
-649.799	800.000	0.050	-0.145
-648.784	-200.000	-0.023	0.348
-647.770	9.091	-0.302	0.228
-646.755	797.714	0.107	0.294
-645.741	-190.027	-0.124	-0.001
-644.726	209.256	0.072	0.112
-643.711	-200.000	-0.004	-0.031
-642.697	144.676	-0.119	-0.159
-641.682	-200.000	0.043	0.247
-640.668	-200.000	-0.022	-0.491
-639.653	233.487	-0.082	0.134
-638.638	-74.238	0.284	-0.103
-637.624	662.543	0.104	-0.268
-636.609	-200.000	-0.017	-0.307
-635.595	-200.000	0.059	-0.261
-634.580	-200.000	0.006	-0.083
-633.565	-73.446	0.098	-0.036
-632.551	195.677	-0.118	-0.180
-631.536	145.371	-0.233	-0.312
-630.522	-148.571	0.313	-0.026
-629.507	-139.751	0.261	-0.028
-628.492	-101.527	0.258	-0.063
-627.478	-200.000	-0.334	-0.002
-626.463	260.918	0.126	-0.217
-625.449	337.538	0.163	-0.316
-624.434	-127.651	-0.116	0.017
-623.419	-72.680	-0.171	0.063
-622.405	126.640	-0.123	-0.155
-621.390	48.668	0.132	0.124
-620.376	-86.045	-0.419	-0.129
-619.361	-20.525	-0.319	-0.195
-618.346	14.460	0.188	-0.146
-617.332	205.025	0.101	-0.157
-616.317	36.034	0.128	0.113
-615.303	-200.000	0.006	0.061
-614.288	800.000	-0.077	-0.278
-613.273	-41.692	0.270	-0.139
-612.259	-132.755	-0.251	-0.032
-611.244	-137.831	-0.256	0.029
-610.230	-200.000	-0.007	0.153
-609.215	-36.378	0.215	0.116
-608.201	-156.060	-0.254	0.016
-607.186	-62.415	-0.032	0.013
-606.171	60.655	0.107	-0.106
-605.157	-2.274	-0.086	-0.060
-604.142	331.936	-0.133	0.255
-603.128	-200.000	0.006	0.278
-602.113	-200.000	-0.025	0.320
-601.098	264.692	0.184	0.320
-600.084	131.593	0.148	0.190
-599.069	23.042	0.075	-0.061
-598.055	-191.636	0.328	-0.003
-597.040	59.386	0.115	-0.113
-596.025	54.111	0.268	-0.257
-595.011	800.000	0.048	-0.162
-593.996	-111.813	-0.388	0.078
-592.982	-16.543	0.183	0.116
-591.967	-41.736	-0.252	0.129
-590.952	800.000	-0.069	-0.245
-589.938	249.178	-0.286	-0.483
-588.923	45.369	0.116	-0.106
-587.909	-51.488	0.072	-0.033
-586.894	23.921	0.216	-0.178
-585.879	-91.776	0.136	0.039
-584.865	159.003	0.200	0.277
-583.850	800.000	-0.122	0.337
-582.836	-169.821	-0.349	-0.013
-581.821	351.064	0.097	0.192
-580.806	-65.624	-0.208	0.083
-579.792	800.000	0.021	-0.081
-578.777	-98.765	0.339	-0.086
-577.763	11.424	0.154	0.118
-576.748	-82.409	0.187	-0.060
-575.733	-41.440	-0.236	-0.121
-574.719	-137.052	-0.102	-0.012
-573.704	-56.042	-0.104	0.046
-572.690	-200.000	0.017	0.148
-571.675	277.984	0.144	-0.255
-570.661	668.391	-0.122	-0.316
-569.646	-111.453	0.289	-0.059
-568.631	87.757	-0.175	0.194
-567.617	-14.214	-0.154	-0.099
-566.602	12.866	-0.175	-0.135
-565.588	39.332	0.078	-0.070
-564.573	-200.000	-0.007	0.153
-563.558	800.000	0.034	-0.101
-562.544	800.000	0.111	0.354
-561.529	-200.000	-0.017	-0.224
-560.515	800.000	-0.025	0.090
-559.500	800.000	0.020	0.087
-558.485	-200.000	0.033	0.285
-557.471	800.000	0.031	0.115
-556.456	-17.579	0.131	0.082
-555.442	-200.000	0.029	0.207
-554.427	212.495	0.040	-0.063
-553.412	118.764	-0.111	-0.137
-552.398	-35.992	0.202	0.109
-551.383	15.000	0.102	-0.080
-550.369	-58.799	0.149	-0.064
-549.354	70.534	0.165	0.170
-548.339	86.828	-0.161	0.177
-547.325	7.083	-0.286	-0.212
-546.310	800.000	0.017	-0.065
-545.296	-200.000	-0.035	0.228
-544.281	197.063	-0.112	-0.171
-543.266	286.173	0.138	-0.247
-542.252	7.013	-0.342	-0.254
-541.237	-117.505	0.138	-0.025
-540.223	-9.088	0.292	0.195
-539.208	-103.656	0.101	-0.024
-538.193	-36.201	0.098	-0.053
-537.179	-37.334	0.259	-0.138
-536.164	18.296	-0.035	-0.028
-535.150	163.637	0.084	-0.117
-534.135	33.220	-0.187	-0.161
-533.121	8.994	-0.382	-0.287
-532.106	7.985	0.313	-0.233
-531.091	-13.224	0.196	-0.127
-530.077	-91.452	0.201	-0.057
-529.062	-107.685	-0.147	-0.032
-528.048	-200.000	-0.024	-0.175
-527.033	-62.527	0.232	-0.096
-526.018	157.649	0.181	0.250
-525.004	800.000	-0.031	0.114
-523.989	-200.000	-0.004	-0.295
-522.975	800.000	0.065	0.231
-521.960	-103.390	0.273	-0.064
-520.945	-134.352	0.168	-0.020
-519.931	800.000	-0.107	0.318
-518.916	-108.300	-0.262	-0.056
-517.902	800.000	-0.006	0.027
-516.887	-148.690	0.312	0.025
-515.872	-19.057	-0.138	0.085
-514.858	97.492	-0.117	-0.133
-513.843	29.342	-0.268	0.226
-512.829	172.602	-0.310	-0.444
-511.814	19.622	-0.417	-0.334
-510.799	-192.393	-0.255	0.002
-509.785	428.684	0.185	-0.398
-508.770	800.000	-0.103	-0.306
-507.756	55.576	0.115	0.111
-506.741	238.160	-0.076	0.125
-505.726	-146.020	0.351	0.031
-504.712	-153.903	0.160	0.011
-503.697	468.467	0.062	-0.138
-502.683	-200.000	-0.023	-0.135
-501.668	74.841	-0.127	-0.133
-500.653	-105.348	-0.374	0.085
-499.639	-175.883	-0.288	-0.008
-498.624	41.562	0.270	0.243
-497.610	800.000	0.034	-0.121
-496.595	125.336	0.100	-0.126
-495.581	-93.896	-0.254	0.070
-494.566	-18.312	-0.168	-0.104
-493.551	40.844	-0.137	0.123
-492.537	125.604	-0.173	0.217
-491.522	-22.629	-0.342	0.205
-490.508	99.864	-0.143	-0.165
-489.493	4.602	-0.129	0.094
-488.478	-29.672	-0.175	0.099
-487.464	-200.000	-0.026	-0.408
-486.449	800.000	-0.035	-0.133
-485.435	800.000	-0.072	-0.204
-484.420	45.440	0.075	0.068
-483.405	-138.415	0.097	0.011
-482.391	800.000	-0.081	0.310
-481.376	-96.232	-0.302	0.080
-480.362	225.883	-0.201	-0.323
-479.347	-11.517	-0.244	0.159
-478.332	673.456	0.042	-0.107
-477.318	23.318	-0.124	-0.101
-476.303	-2.892	-0.250	0.173
-475.289	-61.382	-0.326	0.136
-474.274	111.136	-0.200	-0.239
-473.259	-157.657	-0.204	-0.012
-472.245	178.884	-0.047	-0.068
-471.230	21.214	-0.163	-0.132
-470.216	556.345	0.154	-0.369
-469.201	-200.000	-0.035	0.165
-468.186	106.122	0.157	-0.185
-467.172	326.309	0.183	-0.349
-466.157	266.678	0.155	-0.269
-465.143	-108.188	-0.176	0.038
-464.128	190.979	0.050	-0.074
-463.113	216.278	-0.219	-0.345
-462.099	800.000	-0.073	0.291
-461.084	-90.690	0.336	-0.096
-460.070	745.188	-0.121	0.322
-459.055	-101.318	0.147	0.036
-458.040	-127.851	0.255	-0.036
-457.026	329.743	0.090	0.172
-456.011	503.770	-0.065	0.150
-454.997	800.000	0.082	0.243
-453.982	-62.128	0.234	-0.097
-452.968	-200.000	-0.081	0.375
-451.953	800.000	0.067	0.197
-450.938	688.436	0.003	-0.007
-449.924	-0.063	-0.067	-0.047
-448.909	-101.249	0.145	0.035
-447.895	-99.344	-0.259	0.065
-446.880	-200.000	-0.017	0.242
-445.865	-13.542	-0.710	0.457
-444.851	-64.256	0.102	-0.041
-443.836	54.795	0.127	0.122
-442.822	192.786	-0.158	0.237
-441.807	800.000	0.080	-0.296
-440.792	-26.481	0.185	0.108
-439.778	-64.338	0.216	-0.087
-438.763	37.601	0.111	0.098
-437.749	12.954	0.052	0.040
-436.734	-15.207	-0.145	-0.092
-435.719	-93.646	0.435	0.119
-434.705	-77.157	0.338	0.117
-433.690	64.522	0.157	0.157
-432.676	333.347	-0.042	0.080
-431.661	313.108	0.140	-0.260
-430.646	72.994	0.088	0.091
-429.632	333.915	-0.179	-0.344
-428.617	354.236	0.069	0.136
-427.603	-92.174	0.375	-0.105
-426.588	409.114	-0.123	-0.257
-425.573	800.000	-0.043	0.134
-424.559	125.133	-0.195	-0.243
-423.544	86.410	0.137	-0.149
-422.530	-200.000	-0.054	-0.303
-421.515	-200.000	0.022	-0.188
-420.500	221.518	0.132	0.210
-419.486	800.000	0.084	0.298
-418.471	499.442	-0.045	0.102
-417.457	61.417	0.227	0.223
-416.442	-69.679	0.187	0.071
-415.428	-200.000	0.052	0.000
-414.413	142.178	-0.099	0.130
-413.398	800.000	0.086	0.297
-412.384	618.250	-0.029	-0.071
-411.369	-68.292	-0.301	-0.116
-410.355	140.793	-0.284	-0.372
-409.340	-167.756	-0.204	-0.008
-408.325	-79.724	-0.242	-0.081
-407.311	760.632	-0.131	0.352
-406.296	123.089	0.183	0.228
-405.282	-72.855	0.227	0.083
-404.267	-50.084	0.277	0.130
-403.252	-25.312	-0.475	-0.278
-402.238	-155.613	-0.118	0.008
-401.223	-39.193	0.133	0.069
-400.209	-38.051	0.127	0.067
-399.194	78.703	-0.083	-0.088
-398.179	59.603	-0.144	0.140
-397.165	-24.225	0.120	-0.071
-396.150	-16.662	-0.330	-0.207
-395.136	-8.568	0.311	0.207
-394.121	800.000	-0.085	-0.246
-393.106	163.565	0.120	-0.166
-392.092	8.623	-0.207	0.154
-391.077	-200.000	0.274	-0.001
-390.063	-120.975	0.121	0.020
-389.048	479.492	0.066	-0.148
-388.033	-32.227	0.113	0.063
-387.019	-177.318	-0.231	0.006
-386.004	-67.179	-0.173	0.067
-384.990	-64.895	-0.086	-0.034
-383.975	-121.929	0.307	0.050
-382.960	142.036	-0.083	-0.109
-381.946	-43.973	-0.134	-0.067
-380.931	266.291	0.090	-0.156
-379.917	-81.865	0.154	0.050
-378.902	78.478	-0.210	-0.222
-377.888	20.239	-0.098	-0.078
-376.873	589.619	-0.005	-0.011
-375.858	800.000	-0.098	-0.293
-374.844	-97.046	0.283	-0.073
-373.829	-129.968	0.069	0.009
-372.815	-200.000	-0.014	0.320
-371.800	-15.188	0.215	0.136
-370.785	-134.543	-0.297	-0.036
-369.771	-200.000	-0.035	-0.370
-368.756	-23.520	-0.479	-0.284
-367.742	-172.201	0.100	-0.003
-366.727	-200.000	0.019	0.177
-365.712	80.343	0.183	0.194
-364.698	-2.966	0.153	0.106
-363.683	25.214	0.294	-0.241
-362.669	708.938	-0.034	0.088
-361.654	-58.007	0.196	0.085
-360.639	-68.668	-0.103	-0.039
-359.625	-170.502	-0.299	-0.010
-358.610	294.599	0.186	0.336
-357.596	464.947	-0.060	0.133
-356.581	-72.042	-0.141	-0.052
-355.566	43.648	0.217	0.196
-354.552	-0.233	0.202	-0.142
-353.537	17.570	-0.118	-0.093
-352.523	-132.982	-0.160	0.020
-351.508	-117.100	-0.257	-0.046
-350.493	73.534	0.141	-0.146
-349.479	-47.168	0.305	0.147
-348.464	800.000	0.076	-0.250
-347.450	625.506	0.084	-0.209
-346.435	-81.628	-0.374	0.121
-345.420	-60.929	-0.078	-0.033
-344.406	194.738	0.176	-0.264
-343.391	-200.000	-0.091	0.434
-342.377	368.868	-0.107	0.214
-341.362	68.458	-0.057	-0.058
-340.348	-56.858	-0.107	0.047
-339.333	-137.318	-0.117	0.013
-338.318	18.675	0.109	-0.086
-337.304	35.965	-0.064	0.056
-336.289	-68.083	-0.117	-0.045
-335.275	222.078	-0.061	-0.097
-334.260	24.971	0.107	0.088
-333.245	-200.000	-0.068	-0.349
-332.231	-66.278	0.136	-0.053
-331.216	-113.998	-0.193	-0.037
-330.202	60.553	-0.196	-0.192
-329.187	-148.492	-0.476	-0.038
-328.172	-42.730	0.253	0.127
-327.158	800.000	0.013	0.038
-326.143	-200.000	-0.005	0.028
-325.129	-200.000	-0.034	-0.213
-324.114	-197.165	-0.211	-0.001
-323.099	-107.875	-0.287	-0.062
-322.085	-139.631	-0.322	0.034
-321.070	94.148	-0.088	0.098
-320.056	78.309	0.130	-0.137
-319.041	204.956	-0.101	-0.155
-318.026	-200.000	-0.073	0.360
-317.012	120.634	-0.242	0.297
-315.997	-66.421	0.484	0.190
-314.983	800.000	-0.041	0.132
-313.968	-97.586	0.180	0.046
-312.953	24.863	-0.243	0.198
-311.939	45.342	-0.313	0.285
-310.924	800.000	0.061	0.194
-309.910	-81.416	0.116	0.038
-308.895	-19.648	0.244	0.149
-307.880	25.254	-0.125	-0.103
-306.866	-98.877	-0.110	0.028
-305.851	-200.000	-0.032	-0.179
-304.837	-33.264	-0.056	0.031
-303.822	800.000	0.050	-0.200
-302.807	333.499	0.068	-0.130
-301.793	82.570	0.195	0.208
-300.778	57.819	0.050	0.048
-299.764	800.000	0.031	-0.100
-298.749	-4.669	-0.178	-0.121
-297.735	-200.000	-0.001	0.110
-296.720	-21.200	0.067	-0.040
-295.705	-112.924	0.153	0.030
-294.691	199.761	0.145	-0.220
-293.676	-47.884	0.465	-0.222
-292.662	139.945	-0.245	0.318
-291.647	-39.241	0.418	0.217
-290.632	371.695	0.099	0.198
-289.618	9.663	0.320	0.239
-288.603	242.873	0.116	0.192
-287.589	212.347	-0.202	0.314
-286.574	187.182	0.128	0.188
-285.559	800.000	0.086	0.274
-284.545	-22.818	0.241	0.144
-283.530	37.522	-0.093	0.082
-282.516	-85.812	-0.198	0.060
-281.501	615.721	0.049	-0.122
-280.486	13.239	-0.198	-0.151
-279.472	82.025	-0.081	0.086
-278.457	-200.000	-0.034	-0.153
-277.443	100.781	-0.224	0.256
-276.428	21.951	-0.147	-0.118
-275.413	-113.684	-0.304	0.058
-274.399	103.985	0.050	-0.057
-273.384	-10.779	0.080	-0.052
-272.370	18.532	0.270	-0.213
-271.355	30.082	-0.237	0.199
-270.340	680.687	0.111	0.285
-269.326	17.895	-0.156	0.123
-268.311	-22.055	-0.108	-0.064
-267.297	-84.048	0.247	-0.077
-266.282	-93.440	-0.080	-0.022
-265.267	236.376	-0.093	-0.152
-264.253	651.750	0.115	-0.290
-263.238	126.260	-0.095	-0.118
-262.224	-171.683	-0.113	0.004
-261.209	-139.122	0.279	-0.030
-260.195	-78.511	0.087	-0.029
-259.180	-137.122	-0.240	0.027
-258.165	175.017	0.129	0.184
-257.151	157.911	-0.096	-0.131
-256.136	-200.000	-0.030	0.228
-255.122	-200.000	0.030	0.130
-254.107	51.656	-0.054	-0.050
-253.092	252.440	-0.195	0.326
-252.078	118.280	0.258	-0.313
-251.063	-97.330	-0.395	0.101
-250.049	-106.808	-0.138	0.030
-249.034	130.625	-0.063	-0.079
-248.019	115.850	0.069	-0.083
-247.005	-177.684	0.249	-0.006
-245.990	-146.290	0.290	0.025
-244.976	-64.534	0.114	0.046
-243.961	19.376	-0.186	0.147
-242.946	251.451	-0.053	-0.088
-241.932	-153.201	-0.076	-0.005
-240.917	-200.000	-0.015	-0.146
-239.903	50.217	-0.158	-0.147
-238.888	199.602	-0.136	0.205
-237.873	-200.000	0.006	-0.034
-236.859	-96.081	0.245	-0.064
-235.844	-13.257	0.400	-0.255
-234.830	-200.000	-0.018	0.264
-233.815	-127.282	-0.146	0.021
-232.800	171.549	0.110	-0.156
-231.786	169.579	-0.134	0.188
-230.771	-200.000	0.001	0.215
-229.757	-200.000	-0.027	-0.133
-228.742	-200.000	-0.004	0.188
-227.727	45.654	0.177	0.161
-226.713	-200.000	-0.025	0.130
-225.698	-200.000	-0.024	0.110
-224.684	800.000	-0.110	0.331
-223.669	40.905	0.175	0.155
-222.655	-96.218	0.162	-0.042
-221.640	-200.000	-0.000	0.353
-220.625	13.016	-0.019	-0.014
-219.611	-98.682	0.419	0.105
-218.596	7.541	-0.306	0.225
-217.582	1.439	0.101	0.071
-216.567	-83.930	-0.259	-0.081
-215.552	49.391	0.280	-0.259
-214.538	58.615	0.068	-0.065
-213.523	244.375	-0.143	-0.236
-212.509	-100.107	-0.261	0.064
-211.494	61.887	-0.035	0.034
-210.479	146.281	0.237	0.313
-209.465	-79.977	0.111	0.037
-208.450	108.654	-0.160	0.187
-207.436	800.000	0.108	-0.395
-206.421	-98.988	-0.244	0.061
-205.406	508.304	0.057	0.129
-204.392	-35.364	-0.191	-0.102
-203.377	-131.332	0.122	0.016
-202.363	-46.200	-0.140	-0.068
-201.348	-200.000	0.009	0.155
-200.333	579.238	-0.111	-0.266
-199.319	-135.107	0.388	-0.046
-198.304	-92.093	0.359	0.100
-197.290	800.000	0.096	0.276
-196.275	655.438	-0.011	0.028
-195.260	-134.017	0.330	-0.040
-194.246	156.362	-0.109	0.148
-193.231	631.029	0.055	-0.138
-192.217	-200.000	-0.052	0.332
-191.202	124.734	-0.146	0.181
-190.187	-4.657	0.220	0.149
-189.173	-10.430	-0.181	0.118
-188.158	115.695	0.164	-0.197
-187.144	800.000	-0.101	-0.420
-186.129	5.797	0.181	-0.131
-185.114	-47.396	0.054	0.026
-184.100	91.061	0.154	-0.169
-183.085	-200.000	0.010	-0.133
-182.071	-51.887	0.102	0.047
-181.056	-144.308	-0.233	0.021
-180.042	-70.925	-0.285	-0.105
-179.027	272.655	-0.083	0.145
-178.012	-34.975	0.164	0.088
-176.998	91.682	-0.061	-0.068
-175.983	227.473	0.166	0.265
-174.969	53.082	-0.145	-0.136
-173.954	-153.415	-0.244	-0.017
-172.939	70.310	-0.354	0.359
-171.925	88.803	-0.149	-0.162
-170.910	-6.375	0.079	-0.053
-169.896	117.047	-0.139	-0.168
-168.881	800.000	-0.047	-0.182
-167.866	-200.000	0.003	-0.167
-166.852	-200.000	0.031	0.245
-165.837	560.223	0.104	-0.246
-164.823	-200.000	-0.001	0.315
-163.808	-127.674	0.242	-0.034
-162.793	-197.871	0.066	0.000
-161.779	-8.837	-0.158	0.104
-160.764	21.698	0.152	-0.121
-159.750	-6.924	0.161	-0.107
-158.735	-40.427	0.468	-0.239
-157.720	-200.000	-0.011	0.054
-156.706	-154.186	0.342	0.023
-155.691	-179.034	0.228	-0.005
-154.677	83.152	0.073	0.078
-153.662	374.933	-0.091	0.182
-152.647	-56.689	0.090	-0.039
-151.633	-124.340	0.325	0.050
-150.618	551.936	0.011	-0.026
-149.604	-17.943	-0.193	-0.119
-148.589	-64.283	-0.247	-0.099
-147.574	-95.942	0.153	-0.040
-146.560	165.526	0.195	-0.270
-145.545	177.861	-0.203	0.290
-144.531	359.109	0.089	0.174
-143.516	-161.378	0.284	-0.014
-142.502	-22.248	0.340	0.202
-141.487	313.754	-0.058	0.107
-140.472	-55.380	0.158	0.070
-139.458	4.408	0.167	-0.120
-138.443	-46.512	-0.181	-0.087
-137.429	-200.000	-0.007	-0.144
-136.414	-200.000	-0.031	0.317
-135.399	-200.000	0.030	0.290
-134.385	-155.826	0.257	-0.016
-133.370	-59.726	-0.075	0.031
-132.356	-52.808	-0.075	-0.034
-131.341	-200.000	0.001	-0.277
-130.326	-13.604	-0.089	0.057
-129.312	557.780	0.061	-0.144
-128.297	-200.000	-0.067	0.297
-127.283	126.734	0.231	-0.287
-126.268	-200.000	-0.033	0.166
-125.253	39.062	-0.232	0.203
-124.239	-132.570	-0.437	0.055
-123.224	800.000	-0.108	-0.304
-122.210	-0.487	-0.122	0.085
-121.195	-80.017	-0.148	0.049
-120.180	348.835	-0.032	0.061
