DTS Sentinel unit serial number:	SN413079Multiplexer serial number:	ORYXHardware model number:	OX4-SRSoftware version number:	ORYX F/W v4.00 Oryx Data Collector v3.7.2.0data status	okinstallation	princeton_trtdifferential loss correction	single-endedforward channel	channel 1reverse channel	N/Adate	2019/09/14time	05:14:35forward acquisition time	60.00reverse acquisition time	0.00gamma	496.2192k internal	0.2334k external	0.2334temperature offset calibration	1.0076default loss term (dB/km)	0.3790temperature slope calibration	1.0000multiplexer offset coefficient	1.0000multiplexer slope coefficient	1.0000fibre end	0.00T internal ref (°C)	26.92T ext. ref 1 (°C)	3.39T ext. ref 2 (°C)	21.98length (m)	temperature (°C)	Stokes	anti-Stokes-747.200	800.000	0.016	-0.050
-746.185	-200.000	-0.007	0.240
-745.171	-177.780	-0.035	0.001
-744.156	-200.000	0.015	0.205
-743.142	-63.419	-0.265	-0.110
-742.127	437.688	0.102	0.223
-741.112	352.918	-0.073	0.146
-740.098	-49.409	-0.153	-0.073
-739.083	-114.859	0.205	-0.039
-738.069	15.937	-0.138	-0.109
-737.054	320.459	-0.128	-0.244
-736.039	-200.000	-0.004	-0.137
-735.025	266.081	-0.173	0.304
-734.010	261.636	0.102	-0.177
-732.996	-125.901	-0.366	-0.055
-731.981	113.862	-0.171	-0.209
-730.966	-130.734	-0.259	0.035
-729.952	17.297	-0.198	0.158
-728.937	-162.083	-0.378	0.019
-727.923	-75.486	0.018	0.007
-726.908	-25.182	-0.325	-0.193
-725.894	800.000	-0.121	-0.368
-724.879	36.268	-0.378	-0.335
-723.864	71.902	-0.075	-0.079
-722.850	179.963	0.038	0.056
-721.835	-70.855	-0.100	0.038
-720.821	-125.163	-0.583	-0.090
-719.806	17.747	-0.243	-0.194
-718.791	251.120	-0.049	-0.084
-717.777	392.917	0.167	-0.348
-716.762	-200.000	-0.049	-0.551
-715.748	274.780	-0.143	0.254
-714.733	10.288	-0.068	0.052
-713.718	-128.553	0.123	0.018
-712.704	168.018	-0.106	0.151
-711.689	-200.000	0.007	-0.053
-710.675	-94.928	0.093	0.025
-709.660	412.611	-0.059	0.127
-708.645	800.000	0.035	-0.108
-707.631	-200.000	0.047	-0.260
-706.616	102.521	0.121	-0.142
-705.602	800.000	0.052	-0.214
-704.587	-200.000	-0.057	0.317
-703.572	-23.957	-0.300	-0.180
-702.558	84.000	-0.175	-0.191
-701.543	-24.490	0.164	-0.098
-700.529	102.915	-0.047	0.055
-699.514	-200.000	-0.043	-0.260
-698.499	-145.403	-0.345	-0.031
-697.485	-200.000	0.003	0.030
-696.470	-21.210	0.262	0.161
-695.456	-136.897	0.162	-0.019
-694.441	-200.000	-0.023	0.144
-693.426	335.672	-0.146	-0.283
-692.412	-29.970	-0.096	0.055
-691.397	137.439	-0.176	-0.232
-690.383	141.201	-0.156	-0.206
-689.368	-126.811	-0.428	0.063
-688.354	-158.163	-0.284	-0.017
-687.339	-38.333	0.180	-0.096
-686.324	800.000	-0.084	-0.334
-685.310	-200.000	-0.015	-0.177
-684.295	-200.000	0.027	-0.305
-683.281	66.023	-0.117	-0.119
-682.266	-54.127	-0.244	-0.111
-681.251	98.572	0.069	-0.080
-680.237	65.190	-0.079	0.080
-679.222	-10.253	-0.152	-0.101
-678.208	271.406	0.009	0.016
-677.193	24.001	0.102	-0.084
-676.178	707.497	0.103	0.274
-675.164	-200.000	0.055	-0.417
-674.149	-40.044	0.138	-0.072
-673.135	36.634	0.053	0.047
-672.120	-200.000	-0.051	-0.238
-671.105	202.610	-0.180	0.279
-670.091	42.933	-0.184	-0.168
-669.076	-200.000	0.017	0.193
-668.062	-152.126	-0.402	-0.029
-667.047	314.659	-0.108	0.204
-666.032	398.902	-0.090	-0.188
-665.018	-3.069	-0.065	-0.046
-664.003	504.686	-0.092	0.214
-662.989	-190.455	-0.309	-0.003
-661.974	-103.147	-0.165	0.039
-660.959	-106.131	-0.256	-0.058
-659.945	800.000	0.073	-0.293
-658.930	-48.481	0.176	0.085
-657.916	784.508	0.087	-0.238
-656.901	291.435	-0.215	-0.392
-655.886	115.044	-0.112	-0.137
-654.872	39.255	0.107	-0.096
-653.857	63.040	0.249	0.250
-652.843	385.658	0.245	-0.506
-651.828	-30.108	-0.011	0.006
-650.814	40.982	0.176	-0.159
-649.799	-45.077	0.128	0.064
-648.784	421.331	0.065	0.139
-647.770	-83.070	-0.207	0.067
-646.755	167.523	0.214	0.305
-645.741	210.556	-0.194	0.304
-644.726	-28.191	-0.229	0.132
-643.711	-36.290	0.158	0.085
-642.697	87.297	-0.062	-0.068
-641.682	797.185	-0.033	-0.090
-640.668	-47.568	-0.158	0.077
-639.653	800.000	0.039	0.127
-638.638	-140.239	0.293	0.031
-637.624	478.880	0.193	-0.438
-636.609	-20.647	0.190	-0.117
-635.595	52.953	-0.141	-0.135
-634.580	110.978	-0.110	0.132
-633.565	-200.000	-0.198	-0.000
-632.551	-126.665	-0.396	-0.059
-631.536	-7.635	-0.100	-0.067
-630.522	-55.684	-0.163	-0.073
-629.507	-11.534	-0.249	0.164
-628.492	-200.000	-0.032	0.328
-627.478	42.818	-0.076	-0.069
-626.463	-200.000	0.007	-0.363
-625.449	-10.360	-0.108	-0.071
-624.434	27.373	0.069	0.058
-623.419	800.000	0.043	-0.173
-622.405	368.750	0.047	0.094
-621.390	35.272	-0.117	0.103
-620.376	-200.000	-0.013	-0.069
-619.361	-200.000	0.013	0.083
-618.346	-102.326	-0.164	-0.039
-617.332	-0.362	-0.158	0.113
-616.317	-200.000	0.004	-0.377
-615.303	528.162	-0.143	-0.338
-614.288	-173.460	-0.125	0.004
-613.273	800.000	-0.117	0.355
-612.259	800.000	-0.151	0.465
-611.244	370.431	0.146	-0.296
-610.230	-55.198	-0.245	-0.110
-609.215	113.969	-0.113	-0.138
-608.201	-200.000	-0.014	0.118
-607.186	-146.224	-0.256	-0.022
-606.171	-135.850	0.511	0.060
-605.157	800.000	-0.061	0.225
-604.142	-200.000	-0.019	-0.311
-603.128	800.000	-0.031	-0.125
-602.113	235.622	0.065	-0.108
-601.098	41.477	0.180	0.163
-600.084	-149.910	0.197	-0.015
-599.069	421.405	-0.033	0.070
-598.055	10.005	0.255	-0.193
-597.040	129.697	0.236	0.301
-596.025	-49.609	-0.252	-0.120
-595.011	800.000	-0.027	-0.095
-593.996	-200.000	0.018	0.147
-592.982	-80.496	0.162	0.054
-591.967	800.000	-0.087	0.291
-590.952	-200.000	0.100	0.474
-589.938	66.806	-0.090	0.091
-588.923	25.407	0.074	-0.061
-587.909	-70.917	-0.482	-0.181
-586.894	-49.585	0.091	-0.043
-585.879	-183.246	0.133	-0.002
-584.865	-150.452	0.326	0.025
-583.850	-44.578	0.066	-0.033
-582.836	700.239	0.050	0.131
-581.821	285.495	0.189	-0.340
-580.806	275.376	0.221	-0.391
-579.792	-200.000	0.037	-0.274
-578.777	303.555	0.075	-0.140
-577.763	-26.983	-0.465	0.271
-576.748	674.166	-0.155	0.402
-575.733	-200.000	0.035	-0.263
-574.719	-119.154	-0.473	-0.083
-573.704	800.000	-0.027	-0.094
-572.690	-32.010	0.250	0.139
-571.675	-151.358	0.141	-0.010
-570.661	255.905	-0.128	0.218
-569.646	476.248	-0.132	-0.298
-568.631	800.000	-0.029	-0.086
-567.617	67.813	-0.291	0.297
-566.602	800.000	-0.073	0.285
-565.588	77.347	0.085	0.090
-564.573	-26.505	-0.135	0.079
-563.558	-75.476	-0.126	-0.045
-562.544	559.339	-0.100	0.241
-561.529	-200.000	-0.007	0.412
-560.515	-2.068	-0.400	0.280
-559.500	-200.000	-0.003	0.130
-558.485	-48.854	-0.200	-0.096
-557.471	-200.000	0.064	-0.410
-556.456	68.471	0.166	-0.170
-555.442	-200.000	-0.001	0.069
-554.427	-200.000	0.026	0.282
-553.412	-169.004	0.257	-0.010
-552.398	449.374	-0.043	0.094
-551.383	322.047	0.096	-0.182
-550.369	-132.840	-0.232	0.029
-549.354	-200.000	0.016	0.091
-548.339	-200.000	-0.002	-0.087
-547.325	-200.000	0.008	0.062
-546.310	-98.799	0.163	-0.041
-545.296	-200.000	-0.000	-0.125
-544.281	-200.000	-0.006	-0.128
-543.266	800.000	-0.108	0.308
-542.252	-200.000	0.022	-0.174
-541.237	-107.954	0.102	-0.022
-540.223	177.040	0.106	-0.155
-539.208	-88.601	0.095	0.028
-538.193	-200.000	-0.002	-0.276
-537.179	391.520	-0.104	-0.215
-536.164	-96.597	-0.076	0.020
-535.150	68.761	0.180	0.184
-534.135	-56.396	-0.206	-0.091
-533.121	-200.000	-0.022	-0.150
-532.106	-101.643	-0.284	0.069
-531.091	-125.781	0.157	-0.024
-530.077	-200.000	0.006	-0.101
-529.062	83.482	0.130	0.141
-528.048	16.720	0.148	0.117
-527.033	-200.000	0.004	-0.247
-526.018	-24.948	0.205	-0.121
-525.004	-75.708	0.192	-0.068
-523.989	-116.929	0.020	0.004
-522.975	-147.975	0.416	0.034
-521.960	-73.099	-0.150	-0.055
-520.945	-116.361	-0.232	-0.043
-519.931	-92.659	-0.195	-0.054
-518.916	3.541	-0.188	-0.136
-517.902	154.145	-0.213	-0.291
-516.887	-79.133	0.240	-0.081
-515.872	800.000	-0.019	-0.053
-514.858	-126.115	-0.368	0.055
-513.843	-200.000	0.025	0.175
-512.829	-125.422	0.166	-0.025
-511.814	-200.000	0.034	-0.225
-510.799	158.439	0.244	-0.337
-509.785	180.690	0.213	-0.312
-508.770	-200.000	0.001	-0.019
-507.756	183.137	0.041	0.061
-506.741	-58.887	-0.277	0.119
-505.726	229.496	0.190	-0.309
-504.712	150.976	-0.073	-0.099
-503.697	57.873	0.144	0.141
-502.683	-140.544	-0.079	0.008
-501.668	-15.789	-0.166	0.105
-500.653	228.724	-0.093	0.151
-499.639	-99.199	-0.163	0.041
-498.624	81.849	-0.151	-0.163
-497.610	-78.765	0.065	-0.022
-496.595	-67.842	0.153	0.059
-495.581	-147.866	0.149	-0.012
-494.566	9.809	-0.214	-0.161
-493.551	-100.421	0.062	0.015
-492.537	-7.894	0.296	-0.199
-491.522	458.818	0.147	0.326
-490.508	-200.000	0.022	-0.140
-489.493	44.133	-0.073	-0.067
-488.478	573.008	-0.058	-0.140
-487.464	675.434	0.060	-0.154
-486.449	215.305	0.123	0.194
-485.435	-103.009	-0.105	0.025
-484.420	-200.000	0.053	0.276
-483.405	-95.218	0.307	-0.082
-482.391	800.000	0.067	0.258
-481.376	-77.860	-0.148	-0.051
-480.362	198.599	-0.199	0.303
-479.347	-155.101	0.201	-0.013
-478.332	-41.799	-0.241	0.123
-477.318	341.188	-0.095	0.184
-476.303	-118.667	0.168	0.029
-475.289	-104.676	-0.204	-0.047
-474.274	135.608	-0.111	-0.143
-473.259	800.000	0.039	-0.164
-472.245	129.220	-0.099	-0.126
-471.230	-189.634	-0.380	-0.004
-470.216	-33.992	0.209	0.114
-469.201	280.680	0.182	-0.323
-468.186	741.444	0.040	0.107
-467.172	139.680	0.182	-0.239
-466.157	-158.487	0.110	-0.006
-465.143	8.658	-0.052	0.039
-464.128	-31.106	-0.177	-0.100
-463.113	603.851	-0.090	-0.223
-462.099	800.000	-0.064	0.179
-461.084	-200.000	0.010	0.134
-460.070	-200.000	-0.026	-0.214
-459.055	-14.053	-0.339	0.218
-458.040	-200.000	-0.007	-0.093
-457.026	593.068	-0.097	-0.239
-456.011	6.606	-0.113	-0.083
-454.997	-125.916	0.419	-0.063
-453.982	97.740	-0.167	0.191
-452.968	88.942	0.162	-0.179
-451.953	-200.000	0.039	-0.429
-450.938	-75.500	0.344	-0.122
-449.924	-74.637	-0.268	-0.096
-448.909	-131.718	0.318	-0.041
-447.895	98.444	-0.020	0.023
-446.880	800.000	-0.072	0.241
-445.865	450.450	-0.057	-0.124
-444.851	800.000	-0.063	0.195
-443.836	125.532	-0.238	-0.299
-442.822	-200.000	0.015	-0.218
-441.807	800.000	0.038	-0.107
-440.792	-32.554	0.048	0.027
-439.778	-22.138	-0.332	-0.200
-438.763	454.629	0.127	0.279
-437.749	49.801	-0.181	0.169
-436.734	-39.854	0.242	-0.126
-435.719	-82.138	-0.247	0.080
-434.705	-29.238	-0.093	-0.053
-433.690	27.282	0.273	-0.228
-432.676	-200.000	0.004	-0.066
-431.661	45.197	0.269	-0.246
-430.646	144.316	-0.180	-0.238
-429.632	126.957	-0.182	-0.229
-428.617	-200.000	0.017	-0.641
-427.603	-27.265	0.259	0.150
-426.588	-44.748	-0.111	-0.055
-425.573	-135.552	0.139	-0.016
-424.559	-200.000	-0.059	-0.281
-423.544	9.187	0.091	0.068
-422.530	167.660	0.193	0.272
-421.515	410.530	-0.039	-0.082
-420.500	-7.451	0.225	-0.151
-419.486	295.274	0.240	-0.435
-418.471	-41.208	-0.037	0.019
-417.457	-131.083	-0.275	0.036
-416.442	-67.773	0.207	-0.080
-415.428	-200.000	-0.011	-0.087
-414.413	-33.250	-0.283	0.156
-413.398	-102.723	0.316	-0.075
-412.384	800.000	0.009	-0.033
-411.369	800.000	0.068	-0.210
-410.355	-55.233	0.078	0.035
-409.340	409.888	-0.164	0.346
-408.325	-7.333	-0.256	0.172
-407.311	-143.031	0.205	-0.020
-406.296	215.435	0.122	-0.192
-405.282	-200.000	0.039	0.221
-404.267	-200.000	0.008	-0.053
-403.252	-107.834	0.157	0.034
-402.238	-80.180	0.100	0.033
-401.223	730.281	0.090	0.239
-400.209	-200.000	0.039	0.261
-399.194	-103.329	0.134	-0.031
-398.179	53.528	0.202	-0.192
-397.165	-34.247	-0.187	0.102
-396.150	641.579	-0.151	0.381
-395.136	-56.406	0.101	-0.045
-394.121	-200.000	-0.020	0.095
-393.106	23.115	0.192	-0.157
-392.092	-100.349	0.312	-0.077
-391.077	757.431	-0.071	0.191
-390.063	76.823	0.198	-0.209
-389.048	44.717	0.146	0.133
-388.033	-86.230	-0.084	0.026
-387.019	-31.849	-0.101	0.056
-386.004	8.219	0.112	-0.083
-384.990	448.601	-0.164	-0.357
-383.975	-200.000	0.016	-0.208
-382.960	79.788	-0.197	-0.210
-381.946	-68.498	-0.173	-0.067
-380.931	163.267	0.181	-0.252
-379.917	-65.873	0.204	0.081
-378.902	-115.027	0.394	-0.074
-377.888	-29.293	-0.148	0.084
-376.873	397.059	-0.034	0.071
-375.858	1.412	0.144	0.103
-374.844	421.637	0.043	0.091
-373.829	442.643	0.102	0.222
-372.815	179.732	-0.159	0.230
-371.800	-200.000	-0.005	-0.464
-370.785	255.359	0.137	-0.233
-369.771	-117.895	0.211	-0.037
-368.756	162.395	0.075	-0.104
-367.742	165.154	0.038	0.054
-366.727	-4.469	0.139	0.095
-365.712	220.525	0.043	0.068
-364.698	1.657	0.086	-0.061
-363.683	-62.289	-0.306	0.126
-362.669	127.091	0.255	-0.320
-361.654	800.000	0.070	0.243
-360.639	-200.000	0.027	-0.121
-359.625	800.000	-0.015	-0.061
-358.610	24.486	0.264	0.216
-357.596	-200.000	-0.011	0.065
-356.581	-46.886	-0.198	-0.096
-355.566	84.169	0.121	-0.131
-354.552	204.325	-0.105	0.161
-353.537	-42.307	-0.217	0.109
-352.523	800.000	0.036	-0.101
-351.508	-101.182	0.093	0.023
-350.493	800.000	-0.037	-0.109
-349.479	71.204	0.312	-0.321
-348.464	252.380	-0.093	0.156
-347.450	215.694	0.065	-0.103
-346.435	423.949	-0.074	-0.157
-345.420	121.410	0.284	0.350
-344.406	71.535	-0.200	0.205
-343.391	49.439	0.261	0.243
-342.377	-86.551	-0.312	0.095
-341.362	228.288	0.054	-0.087
-340.348	391.060	0.158	0.325
-339.333	626.343	-0.096	0.239
-338.318	-64.585	-0.246	0.099
-337.304	-126.022	-0.097	-0.014
-336.289	80.268	-0.153	-0.163
-335.275	123.801	0.063	0.078
-334.260	-169.044	-0.255	0.009
-333.245	-37.214	0.097	0.051
-332.231	-125.808	0.090	-0.013
-331.216	-97.230	-0.143	0.037
-330.202	-72.083	-0.060	-0.022
-329.187	-90.045	0.186	-0.054
-328.172	-171.149	-0.332	-0.011
-327.158	-29.586	-0.300	-0.169
-326.143	11.490	0.175	-0.133
-325.129	-10.087	-0.051	-0.034
-324.114	63.959	-0.188	-0.187
-323.099	800.000	-0.080	0.259
-322.085	800.000	-0.067	-0.220
-321.070	-92.549	-0.369	0.102
-320.056	44.816	0.369	0.336
-319.041	88.354	0.163	0.178
-318.026	26.292	-0.282	-0.233
-317.012	-200.000	0.010	0.154
-315.997	38.088	0.209	0.184
-314.983	-71.672	0.363	-0.134
-313.968	247.813	-0.145	0.242
-312.953	-72.659	0.337	-0.123
-311.939	-90.325	0.064	-0.018
-310.924	-42.760	-0.213	-0.107
-309.910	-63.758	0.277	-0.112
-308.895	800.000	-0.049	0.158
-307.880	-104.822	-0.315	-0.071
-306.866	-2.482	-0.155	0.107
-305.851	-54.036	-0.299	-0.134
-304.837	-200.000	0.000	0.336
-303.822	352.211	0.154	0.301
-302.807	75.595	-0.126	-0.132
-301.793	14.193	0.151	0.116
-300.778	227.841	-0.093	-0.149
-299.764	-186.823	0.262	0.004
-298.749	385.146	-0.136	0.278
-297.735	423.739	-0.020	0.042
-296.720	305.374	0.052	-0.096
-295.705	-200.000	-0.004	-0.268
-294.691	372.953	-0.162	-0.324
-293.676	71.726	-0.304	0.312
-292.662	-200.000	-0.027	-0.123
-291.647	-141.106	-0.057	-0.006
-290.632	-110.419	-0.212	-0.043
-289.618	-65.612	0.108	0.043
-288.603	205.104	-0.162	0.249
-287.589	248.093	-0.061	-0.102
-286.574	17.074	0.393	-0.307
-285.559	-129.764	0.359	-0.049
-284.545	-123.687	-0.041	0.006
-283.530	314.502	0.177	0.329
-282.516	39.249	0.237	-0.210
-281.501	-109.394	0.351	0.073
-280.486	-65.157	-0.318	0.127
-279.472	800.000	-0.047	0.196
-278.457	800.000	0.044	-0.161
-277.443	-200.000	0.003	-0.051
-276.428	47.485	-0.115	0.105
-275.413	-200.000	0.296	0.001
-274.399	800.000	-0.049	-0.193
-273.384	668.536	0.092	-0.234
-272.370	152.372	-0.037	0.050
-271.355	-200.000	0.003	0.238
-270.340	800.000	-0.060	0.228
-269.326	419.854	-0.110	0.232
-268.311	-36.254	-0.232	0.124
-267.297	31.722	0.210	0.178
-266.282	30.815	-0.210	0.178
-265.267	-200.000	0.012	0.218
-264.253	-51.244	-0.296	-0.137
-263.238	-0.609	-0.119	-0.084
-262.224	282.499	-0.074	0.130
-261.209	-13.276	0.254	0.162
-260.195	-46.945	0.024	-0.012
-259.180	800.000	-0.068	0.244
-258.165	-200.000	0.001	0.163
-257.151	-200.000	-0.039	-0.341
-256.136	87.925	-0.189	-0.207
-255.122	554.327	0.052	0.124
-254.107	-60.831	-0.073	-0.030
-253.092	-84.005	0.149	0.047
-252.078	484.942	-0.063	0.142
-251.063	-67.051	0.235	-0.091
-250.049	-126.650	-0.137	-0.020
-249.034	-20.379	-0.132	-0.080
-248.019	-200.000	0.012	0.157
-247.005	-200.000	0.033	-0.143
-245.990	-136.356	0.257	0.029
-244.976	-200.000	-0.002	0.435
-243.961	112.861	-0.105	-0.125
-242.946	44.022	-0.191	-0.173
-241.932	800.000	-0.035	0.100
-240.917	-200.000	-0.012	-0.070
-239.903	308.894	-0.068	0.126
-238.888	-85.350	0.122	0.038
-237.873	201.982	0.121	0.183
-236.859	-200.000	0.006	-0.066
-235.844	-200.000	-0.031	-0.213
-234.830	7.767	-0.153	-0.113
-233.815	-79.310	0.064	0.021
-232.800	191.353	-0.159	-0.236
-231.786	-61.195	0.163	-0.068
-230.771	120.128	0.170	0.208
-229.757	-200.000	0.031	0.142
-228.742	-128.637	0.150	-0.021
-227.727	-30.315	0.191	0.107
-226.713	71.872	0.257	0.264
-225.698	-60.007	-0.093	-0.039
-224.684	-91.172	-0.093	0.026
-223.669	19.453	0.155	0.123
-222.655	-142.900	-0.038	-0.004
-221.640	57.351	0.215	0.207
-220.625	-103.315	-0.049	-0.011
-219.611	623.857	0.021	-0.051
-218.596	18.835	-0.150	0.118
-217.582	288.157	-0.137	-0.245
-216.567	-159.823	0.160	0.009
-215.552	-88.930	0.195	0.057
-214.538	352.993	-0.127	-0.249
-213.523	351.862	-0.070	-0.137
-212.509	139.085	-0.151	0.196
-211.494	800.000	0.035	-0.114
-210.479	-200.000	-0.018	0.184
-209.465	107.853	-0.124	0.145
-208.450	-76.538	-0.288	0.100
-207.436	-123.042	-0.207	0.033
-206.421	16.526	0.289	0.225
-205.406	-173.260	0.120	-0.004
-204.392	734.957	0.034	0.089
-203.377	-200.000	0.016	-0.165
-202.363	43.646	0.075	-0.067
-201.348	-200.000	-0.024	0.135
-200.333	800.000	0.120	0.328
-199.319	361.073	0.009	-0.019
-198.304	800.000	0.107	0.339
-197.290	-0.464	0.180	-0.126
-196.275	-122.226	-0.272	0.044
-195.260	-24.127	-0.188	0.110
-194.246	-110.487	-0.187	-0.038
-193.231	92.817	-0.119	-0.132
-192.217	-84.341	-0.278	-0.086
-191.202	239.686	-0.085	-0.139
-190.187	-145.903	-0.129	-0.011
-189.173	-65.017	0.295	-0.117
-188.158	-80.740	-0.184	0.060
-187.144	0.517	-0.089	0.062
-186.129	-200.000	-0.017	0.224
-185.114	89.699	-0.025	0.027
-184.100	420.428	0.157	0.331
-183.085	187.131	0.168	-0.247
-182.071	-200.000	-0.003	0.118
-181.056	128.352	0.236	0.296
-180.042	93.548	0.311	-0.347
-179.027	133.954	-0.174	-0.221
-178.012	-128.136	-0.238	0.033
-176.998	-141.952	-0.081	0.008
-175.983	-105.014	-0.140	0.032
-174.969	-128.184	0.227	-0.032
-173.954	446.095	0.149	-0.323
-172.939	698.101	-0.047	-0.122
-171.925	3.924	-0.121	-0.087
-170.910	800.000	0.080	0.282
-169.896	615.829	-0.084	0.207
-168.881	-71.854	-0.202	0.074
-167.866	-116.819	-0.149	-0.027
-166.852	-30.317	-0.105	-0.059
-165.837	-151.957	0.669	0.048
-164.823	-43.859	0.272	0.134
-163.808	101.335	0.083	-0.095
-162.793	-200.000	-0.002	0.261
-161.779	28.058	-0.152	-0.126
-160.764	-200.000	-0.013	0.407
-159.750	-200.000	-0.029	0.209
-158.735	280.952	0.058	-0.101
-157.720	-120.089	-0.172	-0.029
-156.706	531.560	0.068	-0.159
-155.691	7.280	0.064	0.047
-154.677	-34.445	-0.097	0.052
-153.662	-200.000	0.079	-0.392
-152.647	46.734	0.075	-0.068
-151.633	151.035	-0.057	0.076
-150.618	118.072	-0.286	-0.346
-149.604	-151.380	0.499	-0.036
-148.589	214.610	-0.268	0.416
-147.574	163.429	-0.097	-0.134
-146.560	555.014	-0.086	-0.202
-145.545	508.822	-0.071	0.162
-144.531	-26.381	-0.306	-0.176
-143.516	-48.544	-0.137	0.065
-142.502	-200.000	-0.027	-0.328
-141.487	-200.000	0.105	0.468
-140.472	382.282	-0.024	0.048
-139.458	-200.000	-0.023	0.336
-138.443	209.033	-0.091	-0.140
-137.429	800.000	0.071	0.244
-136.414	-200.000	-0.003	-0.027
-135.399	250.686	-0.129	0.216
-134.385	-159.663	-0.076	0.004
-133.370	-113.668	-0.148	0.028
-132.356	800.000	0.041	-0.175
-131.341	-70.436	0.179	0.066
-130.326	86.993	0.283	0.306
-129.312	72.075	-0.386	-0.394
-128.297	-200.000	-0.021	-0.422
-127.283	-97.831	-0.116	0.029
-126.268	544.083	0.055	0.130
-125.253	-151.744	-0.155	0.011
-124.239	28.592	0.089	0.074
-123.224	-200.000	0.008	0.117
