DTS Sentinel unit serial number:	SN413079Multiplexer serial number:	ORYXHardware model number:	OX4-SRSoftware version number:	ORYX F/W v4.00 Oryx Data Collector v3.7.2.0data status	okinstallation	princeton_trtdifferential loss correction	single-endedforward channel	channel 1reverse channel	N/Adate	2019/09/15time	23:58:35forward acquisition time	60.00reverse acquisition time	0.00gamma	496.2192k internal	0.2333k external	0.2333temperature offset calibration	0.9970default loss term (dB/km)	0.3790temperature slope calibration	1.0000multiplexer offset coefficient	1.0000multiplexer slope coefficient	1.0000fibre end	0.00T internal ref (°C)	27.87T ext. ref 1 (°C)	9.36T ext. ref 2 (°C)	21.82length (m)	temperature (°C)	Stokes	anti-Stokes-747.200	-93.875	-0.249	0.069
-746.185	446.427	-0.087	0.193
-745.171	-200.000	-0.031	-0.143
-744.156	4.071	-0.409	0.301
-743.142	-200.000	-0.008	0.377
-742.127	24.861	-0.423	0.352
-741.112	32.748	-0.256	0.222
-740.098	-87.488	-0.163	0.050
-739.083	788.176	-0.085	0.233
-738.069	208.383	0.161	0.254
-737.054	-200.000	0.010	-0.185
-736.039	57.725	-0.069	-0.068
-735.025	-137.471	0.400	-0.045
-734.010	-132.978	-0.396	0.051
-732.996	-70.917	-0.254	-0.096
-731.981	-15.024	-0.121	-0.078
-730.966	-200.000	-0.012	0.067
-729.952	36.607	-0.165	-0.146
-728.937	-200.000	0.006	0.157
-727.923	221.315	0.124	0.201
-726.908	41.532	-0.050	-0.045
-725.894	-106.575	-0.024	-0.005
-724.879	249.234	-0.181	-0.308
-723.864	-54.174	-0.151	-0.069
-722.850	800.000	0.046	0.144
-721.835	800.000	-0.178	0.522
-720.821	435.959	0.157	-0.342
-719.806	-7.878	-0.236	0.160
-718.791	51.059	-0.262	0.250
-717.777	-101.084	-0.158	-0.039
-716.762	-114.368	-0.235	0.045
-715.748	-56.597	-0.158	0.071
-714.733	464.953	-0.223	-0.500
-713.718	-91.972	-0.235	-0.067
-712.704	80.204	-0.219	-0.237
-711.689	470.037	0.154	0.347
-710.675	-61.120	-0.157	-0.067
-709.660	-97.753	-0.430	-0.112
-708.645	-136.632	-0.210	0.024
-707.631	156.095	-0.168	-0.232
-706.616	-149.602	0.154	0.012
-705.602	711.327	0.062	-0.165
-704.587	-47.234	-0.119	0.058
-703.572	149.051	-0.189	0.257
-702.558	-82.371	-0.329	0.107
-701.543	-117.111	-0.243	0.044
-700.529	-42.917	0.133	-0.068
-699.514	-48.767	-0.104	-0.050
-698.499	-128.100	-0.172	0.025
-697.485	785.941	0.092	-0.254
-696.470	-53.513	-0.212	-0.098
-695.456	-69.753	0.128	0.049
-694.441	-200.000	0.028	0.166
-693.426	48.289	-0.266	0.250
-692.412	800.000	-0.034	-0.104
-691.397	213.031	0.083	-0.132
-690.383	-108.188	-0.086	-0.019
-689.368	340.370	0.082	-0.160
-688.354	260.347	0.194	0.337
-687.339	-97.317	-0.189	-0.049
-686.324	-88.353	-0.185	0.055
-685.310	-200.000	-0.007	0.080
-684.295	163.208	-0.299	-0.422
-683.281	800.000	-0.101	-0.334
-682.266	13.385	-0.195	-0.152
-681.251	-16.133	-0.240	-0.153
-680.237	800.000	-0.060	-0.207
-679.222	-120.177	-0.069	-0.012
-678.208	-154.707	-0.178	-0.012
-677.193	-118.829	-0.513	0.090
-676.178	84.088	-0.192	-0.211
-675.164	-200.000	-0.044	-0.306
-674.149	472.380	0.228	0.514
-673.135	-32.309	-0.006	0.003
-672.120	-182.677	-0.263	0.005
-671.105	-33.322	0.248	-0.138
-670.091	1.822	0.397	0.287
-669.076	-96.389	-0.106	-0.028
-668.062	800.000	-0.055	0.214
-667.047	-92.578	-0.389	-0.109
-666.032	800.000	-0.097	0.339
-665.018	-77.796	-0.140	-0.049
-664.003	-161.394	-0.098	0.005
-662.989	800.000	0.010	0.043
-661.974	361.531	-0.130	0.262
-660.959	-139.557	0.221	-0.024
-659.945	38.346	0.428	-0.382
-658.930	13.071	0.117	-0.091
-657.916	162.198	-0.217	-0.305
-656.901	-200.000	-0.014	0.182
-655.886	138.585	-0.126	0.166
-654.872	372.914	-0.233	0.475
-653.857	800.000	-0.045	0.133
-652.843	-40.511	-0.102	0.053
-651.828	-103.015	0.086	0.021
-650.814	-158.041	-0.190	-0.011
-649.799	800.000	0.059	-0.179
-648.784	-200.000	-0.015	0.080
-647.770	-115.388	-0.394	-0.075
-646.755	110.409	-0.236	0.285
-645.741	-30.737	0.173	0.098
-644.726	-94.071	0.299	0.082
-643.711	-50.752	0.305	-0.144
-642.697	800.000	-0.034	-0.141
-641.682	-13.430	-0.207	-0.134
-640.668	-200.000	-0.045	-0.209
-639.653	-58.847	-0.181	0.078
-638.638	-200.000	-0.010	-0.147
-637.624	-200.000	0.058	-0.318
-636.609	-123.315	-0.289	-0.046
-635.595	800.000	-0.062	0.183
-634.580	-111.309	0.181	0.037
-633.565	25.367	-0.319	0.266
-632.551	-134.989	-0.184	0.022
-631.536	-200.000	-0.022	-0.121
-630.522	-105.948	0.083	0.019
-629.507	800.000	-0.023	0.093
-628.492	-200.000	0.017	-0.460
-627.478	70.028	0.147	-0.152
-626.463	-78.496	0.399	-0.137
-625.449	-44.536	0.081	0.040
-624.434	-121.736	-0.159	-0.026
-623.419	-96.487	-0.254	-0.067
-622.405	-200.000	-0.003	-0.157
-621.390	-200.000	0.029	-0.320
-620.376	-153.970	-0.171	-0.012
-619.361	42.296	-0.233	-0.212
-618.346	-30.132	-0.160	-0.091
-617.332	155.834	0.142	-0.196
-616.317	-56.017	0.425	0.190
-615.303	173.658	-0.143	0.207
-614.288	800.000	-0.173	-0.496
-613.273	-19.299	-0.216	-0.134
-612.259	-66.786	-0.241	0.095
-611.244	290.569	-0.159	0.288
-610.230	-83.835	-0.224	-0.071
-609.215	-200.000	0.044	0.232
-608.201	34.397	0.107	0.093
-607.186	-182.077	-0.266	-0.005
-606.171	-70.822	0.088	-0.033
-605.157	8.375	-0.321	-0.242
-604.142	74.294	0.273	-0.286
-603.128	-200.000	-0.009	0.088
-602.113	221.737	-0.048	0.078
-601.098	-200.000	0.008	-0.106
-600.084	-200.000	0.024	-0.247
-599.069	-200.000	0.000	0.016
-598.055	56.057	-0.190	-0.184
-597.040	244.111	0.120	-0.202
-596.025	-88.444	-0.104	0.031
-595.011	-42.447	-0.255	0.130
-593.996	-27.184	-0.368	-0.214
-592.982	34.985	0.085	0.075
-591.967	-116.121	0.111	0.021
-590.952	124.736	-0.102	-0.129
-589.938	254.433	-0.103	-0.176
-588.923	156.651	0.300	0.415
-587.909	32.694	0.072	-0.062
-586.894	-200.000	0.031	0.433
-585.879	800.000	-0.088	-0.320
-584.865	22.331	-0.082	-0.067
-583.850	576.195	0.062	0.152
-582.836	-200.000	0.039	-0.196
-581.821	-108.971	0.281	0.060
-580.806	16.334	0.277	-0.219
-579.792	-3.908	-0.138	0.096
-578.777	-92.058	0.262	0.074
-577.763	-51.574	0.275	-0.128
-576.748	800.000	0.028	-0.094
-575.733	32.433	0.102	0.088
-574.719	-120.173	-0.122	-0.021
-573.704	39.429	-0.041	-0.036
-572.690	34.371	0.217	-0.189
-571.675	-188.615	-0.235	0.003
-570.661	-35.992	-0.270	-0.146
-569.646	-20.964	-0.064	-0.039
-568.631	340.138	0.039	-0.075
-567.617	-200.000	-0.036	0.480
-566.602	-80.312	-0.204	0.068
-565.588	80.057	-0.143	-0.154
-564.573	-110.119	0.333	-0.069
-563.558	205.852	-0.173	-0.269
-562.544	-45.298	-0.108	0.054
-561.529	-146.646	-0.097	0.008
-560.515	169.994	0.061	0.087
-559.500	-78.214	0.173	0.059
-558.485	-34.487	-0.335	0.183
-557.471	-131.832	0.155	0.020
-556.456	2.649	-0.129	0.093
-555.442	202.606	0.154	-0.238
-554.427	-109.243	-0.282	-0.060
-553.412	-22.708	-0.118	0.071
-552.398	55.590	-0.034	0.033
-551.383	25.362	-0.172	0.142
-550.369	133.082	-0.087	0.112
-549.354	119.387	0.111	0.137
-548.339	800.000	-0.101	0.314
-547.325	-91.057	0.267	-0.077
-546.310	106.273	-0.186	0.220
-545.296	563.432	-0.054	-0.129
-544.281	800.000	0.039	-0.110
-543.266	800.000	-0.080	0.255
-542.252	32.894	-0.077	-0.066
-541.237	800.000	-0.060	0.243
-540.223	800.000	-0.074	-0.256
-539.208	-200.000	0.051	0.441
-538.193	-8.757	-0.317	-0.212
-537.179	75.552	0.086	-0.090
-536.164	67.218	0.049	-0.050
-535.150	-200.000	-0.022	0.175
-534.135	246.352	0.211	0.355
-533.121	53.788	0.114	-0.109
-532.106	55.418	-0.086	-0.083
-531.091	-158.736	0.275	0.016
-530.077	-52.796	0.049	-0.023
-529.062	800.000	-0.124	0.360
-528.048	800.000	-0.056	-0.228
-527.033	-150.635	-0.097	0.007
-526.018	-143.704	-0.136	0.013
-525.004	83.190	0.045	-0.049
-523.989	-109.340	-0.155	-0.033
-522.975	359.977	-0.059	0.118
-521.960	321.452	0.117	0.222
-520.945	-59.872	-0.028	-0.012
-519.931	1.596	-0.034	-0.025
-518.916	-152.567	-0.035	0.002
-517.902	-200.000	-0.022	0.158
-516.887	-200.000	-0.048	0.350
-515.872	-106.142	-0.179	0.040
-514.858	-200.000	0.014	-0.170
-513.843	-86.850	-0.123	0.037
-512.829	320.751	-0.119	0.225
-511.814	311.731	-0.168	0.313
-510.799	-200.000	-0.007	-0.371
-509.785	-200.000	-0.003	0.348
-508.770	-7.307	-0.173	-0.117
-507.756	-75.650	-0.188	-0.067
-506.741	-151.623	0.171	-0.013
-505.726	-145.524	0.135	0.012
-504.712	-109.629	-0.302	-0.063
-503.697	-12.695	-0.250	0.163
-502.683	-8.627	0.318	0.212
-501.668	-41.278	0.256	0.132
-500.653	-41.472	-0.189	0.097
-499.639	-88.600	0.105	-0.031
-498.624	800.000	0.042	0.151
-497.610	-76.263	-0.236	-0.083
-496.595	30.357	-0.278	-0.236
-495.581	-115.460	-0.319	0.060
-494.566	-167.185	-0.219	-0.009
-493.551	206.991	0.197	-0.305
-492.537	64.842	-0.093	-0.093
-491.522	2.749	-0.167	-0.121
-490.508	-200.000	0.016	0.086
-489.493	-200.000	-0.027	-0.209
-488.478	-53.271	-0.237	-0.108
-487.464	255.743	-0.184	-0.313
-486.449	-31.979	-0.146	0.082
-485.435	-63.248	0.124	0.051
-484.420	-28.980	0.279	-0.159
-483.405	800.000	-0.019	0.066
-482.391	-31.720	0.145	-0.081
-481.376	184.191	0.182	-0.268
-480.362	210.770	-0.101	0.158
-479.347	-108.688	-0.307	0.066
-478.332	-151.143	-0.039	-0.003
-477.318	-8.619	0.128	0.085
-476.303	-44.769	0.348	0.173
-475.289	56.857	0.239	-0.231
-474.274	-35.373	0.304	0.164
-473.259	-200.000	-0.029	0.183
-472.245	-56.073	0.393	-0.174
-471.230	92.886	-0.098	-0.110
-470.216	-126.329	0.043	0.006
-469.201	89.024	0.070	-0.078
-468.186	14.934	0.146	-0.114
-467.172	10.119	0.238	0.180
-466.157	800.000	0.067	-0.244
-465.143	-25.536	0.305	0.179
-464.128	311.916	-0.017	-0.031
-463.113	74.677	0.114	-0.119
-462.099	15.295	-0.144	0.112
-461.084	38.537	-0.078	0.069
-460.070	416.738	-0.012	-0.025
-459.055	-200.000	0.020	-0.275
-458.040	-200.000	-0.008	-0.088
-457.026	200.704	0.083	0.127
-456.011	-152.661	-0.278	-0.020
-454.997	-3.766	0.046	-0.032
-453.982	800.000	-0.096	-0.402
-452.968	322.319	-0.067	-0.127
-451.953	-59.957	0.424	0.180
-450.938	-54.969	0.271	0.121
-449.924	112.610	-0.070	0.085
-448.909	-169.038	-0.406	0.015
-447.895	-42.416	0.100	0.051
-446.880	188.544	0.279	-0.414
-445.865	320.125	-0.122	0.231
-444.851	452.684	0.118	0.259
-443.836	80.139	-0.112	-0.120
-442.822	-13.182	0.280	0.181
-441.807	185.493	-0.175	0.258
-440.792	7.751	-0.302	-0.225
-439.778	65.005	-0.046	-0.046
-438.763	195.208	0.141	0.213
-437.749	-200.000	-0.114	0.509
-436.734	-139.673	0.424	-0.045
-435.719	-37.046	-0.034	0.018
-434.705	324.676	0.047	-0.090
-433.690	800.000	0.029	0.083
-432.676	146.358	-0.162	0.216
-431.661	-200.000	0.051	-0.229
-430.646	-95.936	-0.396	-0.105
-429.632	-191.628	-0.382	-0.004
-428.617	75.584	0.144	0.151
-427.603	106.831	-0.325	-0.384
-426.588	-25.193	0.284	0.167
-425.573	-78.508	-0.306	-0.104
-424.559	344.585	0.068	-0.132
-423.544	-85.972	0.363	-0.112
-422.530	-56.939	0.136	-0.060
-421.515	800.000	0.068	0.217
-420.500	13.367	0.285	0.219
-419.486	463.325	0.089	-0.198
-418.471	-32.098	0.222	-0.123
-417.457	800.000	-0.069	0.290
-416.442	-200.000	-0.022	0.249
-415.428	800.000	0.070	-0.282
-414.413	-127.910	0.297	-0.042
-413.398	218.554	-0.068	-0.107
-412.384	800.000	-0.104	-0.447
-411.369	-137.988	0.172	-0.019
-410.355	-88.730	-0.249	0.074
-409.340	-200.000	-0.012	-0.297
-408.325	276.486	0.042	0.074
-407.311	5.218	0.119	-0.087
-406.296	121.758	0.029	-0.035
-405.282	28.194	-0.172	-0.144
-404.267	-42.053	-0.099	-0.050
-403.252	-123.768	0.233	-0.037
-402.238	-140.703	0.172	-0.018
-401.223	12.918	0.126	0.097
-400.209	800.000	-0.064	-0.197
-399.194	-200.000	0.019	-0.285
-398.179	459.131	0.063	0.139
-397.165	47.854	-0.272	0.252
-396.150	-31.492	-0.220	0.123
-395.136	13.253	-0.161	0.124
-394.121	237.673	-0.087	0.144
-393.106	-200.000	0.007	0.118
-392.092	-199.761	-0.228	-0.001
-391.077	101.575	-0.279	-0.323
-390.063	-93.390	-0.074	-0.020
-389.048	57.169	0.060	-0.058
-388.033	18.908	0.107	-0.085
-387.019	-200.000	-0.012	-0.084
-386.004	-47.342	-0.186	-0.090
-384.990	225.884	-0.218	-0.350
-383.975	86.908	-0.148	-0.162
-382.960	-91.866	-0.050	-0.014
-381.946	388.820	-0.095	-0.195
-380.931	-200.000	0.041	0.216
-379.917	-23.420	-0.149	0.089
-378.902	231.481	-0.032	-0.052
-377.888	-100.060	-0.341	-0.084
-376.873	-152.167	0.222	0.016
-375.858	-72.515	0.218	0.080
-374.844	800.000	0.034	0.147
-373.829	32.886	0.176	-0.151
-372.815	-200.000	-0.003	-0.083
-371.800	79.010	-0.099	-0.105
-370.785	-88.428	0.223	0.066
-369.771	-64.460	0.209	0.084
-368.756	-35.927	0.122	0.066
-367.742	70.071	0.184	0.189
-366.727	-70.983	0.179	0.067
-365.712	-73.649	-0.074	-0.027
-364.698	66.275	0.065	-0.066
-363.683	-121.525	-0.236	0.039
-362.669	-42.809	-0.311	-0.157
-361.654	188.112	0.142	0.210
-360.639	143.160	0.209	0.275
-359.625	632.578	0.071	-0.179
-358.610	-1.237	-0.167	-0.117
-357.596	777.742	0.080	-0.217
-356.581	175.766	-0.198	-0.284
-355.566	18.623	-0.138	-0.109
-354.552	-95.733	0.182	-0.048
-353.537	-48.795	0.088	0.042
-352.523	59.736	-0.207	0.203
-351.508	-145.000	-0.047	-0.004
-350.493	800.000	-0.150	0.522
-349.479	19.807	0.152	0.121
-348.464	800.000	0.008	0.034
-347.450	51.650	0.083	0.078
-346.435	68.619	0.151	0.153
-345.420	-182.987	-0.208	-0.004
-344.406	-70.404	0.176	-0.066
-343.391	-200.000	0.001	0.349
-342.377	463.416	0.051	-0.114
-341.362	340.025	-0.138	-0.266
-340.348	67.554	-0.114	0.115
-339.333	76.304	0.205	-0.215
-338.318	-3.180	0.321	-0.222
-337.304	-200.000	-0.067	0.305
-336.289	112.962	-0.107	0.128
-335.275	-63.109	0.433	-0.177
-334.260	-200.000	-0.077	-0.379
-333.245	-79.730	0.417	-0.139
-332.231	-33.975	-0.285	0.155
-331.216	136.350	-0.165	0.213
-330.202	81.034	-0.315	-0.336
-329.187	432.922	0.038	-0.082
-328.172	-155.464	-0.243	-0.016
-327.158	-22.502	0.524	0.314
-326.143	624.068	0.113	0.283
-325.129	-104.577	-0.156	-0.036
-324.114	-13.914	0.135	-0.086
-323.099	-141.850	0.117	-0.012
-322.085	-41.877	0.089	0.045
-321.070	-25.360	-0.052	-0.030
-320.056	79.166	0.052	0.055
-319.041	800.000	0.081	-0.279
-318.026	43.795	0.224	-0.202
-317.012	-200.000	0.057	-0.336
-315.997	-109.958	0.106	-0.022
-314.983	88.664	-0.209	-0.230
-313.968	59.751	-0.116	-0.113
-312.953	374.982	-0.145	0.292
-311.939	88.736	0.157	0.172
-310.924	-41.742	0.025	0.013
-309.910	10.000	0.299	0.225
-308.895	728.729	0.122	0.323
-307.880	800.000	0.042	0.146
-306.866	-200.000	-0.029	0.332
-305.851	286.873	-0.194	0.347
-304.837	209.461	-0.177	0.274
-303.822	-47.694	0.164	0.079
-302.807	-200.000	-0.072	-0.331
-301.793	111.295	0.186	0.222
-300.778	-200.000	0.030	-0.355
-299.764	800.000	0.069	0.223
-298.749	7.291	0.179	0.132
-297.735	-36.671	-0.135	-0.072
-296.720	800.000	-0.136	0.396
-295.705	465.253	-0.056	0.123
-294.691	69.634	0.076	0.078
-293.676	142.588	-0.147	0.193
-292.662	-158.883	0.149	0.008
-291.647	-33.960	-0.287	0.156
-290.632	54.725	0.273	-0.260
-289.618	114.543	-0.137	-0.165
-288.603	-107.559	0.203	-0.044
-287.589	666.377	0.109	0.278
-286.574	-167.595	-0.203	-0.008
-285.559	-185.854	0.105	-0.002
-284.545	14.333	-0.236	0.182
-283.530	-177.035	0.321	0.008
-282.516	-200.000	0.000	0.190
-281.501	212.011	0.052	0.081
-280.486	32.343	0.282	-0.240
-279.472	3.715	-0.045	-0.032
-278.457	242.263	0.183	-0.303
-277.443	531.665	0.093	0.217
-276.428	-33.088	0.260	0.143
-275.413	-67.001	0.128	0.050
-274.399	-106.291	0.297	-0.066
-273.384	-131.096	0.054	-0.007
-272.370	109.569	0.193	0.228
-271.355	-76.642	-0.359	0.124
-270.340	-133.023	0.807	-0.101
-269.326	800.000	0.061	-0.235
-268.311	-200.000	-0.024	0.183
-267.297	-118.524	0.086	0.015
-266.282	-200.000	-0.003	0.305
-265.267	446.236	-0.069	-0.150
-264.253	201.866	0.040	0.060
-263.238	-181.841	-0.208	-0.004
-262.224	-101.803	0.097	-0.023
-261.209	30.703	0.184	0.155
-260.195	40.249	-0.109	0.097
-259.180	800.000	-0.005	0.019
-258.165	515.691	0.027	0.062
-257.151	-200.000	-0.073	-0.414
-256.136	-171.959	0.203	-0.006
-255.122	-200.000	-0.016	0.103
-254.107	-65.384	0.059	-0.024
-253.092	-200.000	0.023	-0.143
-252.078	123.476	-0.051	-0.063
-251.063	-54.425	-0.048	-0.022
-250.049	115.410	-0.283	0.342
-249.034	102.739	0.183	-0.211
-248.019	-175.565	-0.146	0.004
-247.005	-119.812	0.082	0.014
-245.990	-31.244	-0.365	0.203
-244.976	301.307	-0.263	0.479
-243.961	-78.563	-0.089	-0.030
-242.946	-58.331	-0.080	-0.034
-241.932	445.912	0.093	-0.202
-240.917	800.000	0.032	0.131
-239.903	-200.000	0.034	0.240
-238.888	38.123	0.210	0.184
-237.873	-108.678	-0.293	-0.062
-236.859	-91.652	-0.192	-0.054
-235.844	-200.000	0.064	-0.298
-234.830	-113.368	-0.334	-0.065
-233.815	501.941	-0.070	-0.159
-232.800	71.092	0.176	-0.180
-231.786	54.104	-0.068	0.064
-230.771	42.864	-0.251	0.225
-229.757	-170.556	-0.324	-0.011
-228.742	-200.000	-0.012	-0.120
-227.727	-157.151	-0.163	-0.010
-226.713	-112.077	-0.009	0.002
-225.698	139.998	-0.125	-0.163
-224.684	234.631	-0.061	0.100
-223.669	725.603	-0.017	0.044
-222.655	259.826	0.159	0.271
-221.640	-200.000	0.029	-0.145
-220.625	-179.058	0.111	0.002
-219.611	164.999	0.114	-0.158
-218.596	112.238	0.187	0.223
-217.582	-147.220	-0.143	-0.012
-216.567	-40.948	0.155	0.079
-215.552	98.483	0.079	0.090
-214.538	63.881	0.375	-0.371
-213.523	-21.981	0.127	-0.076
-212.509	350.526	-0.031	0.061
-211.494	-200.000	0.017	-0.109
-210.479	-200.000	-0.081	-0.416
-209.465	-142.671	0.099	0.010
-208.450	-110.720	0.126	0.026
-207.436	-51.450	0.143	0.066
-206.421	-54.604	0.226	-0.101
-205.406	-200.000	-0.001	-0.227
-204.392	355.273	-0.029	0.057
-203.377	380.811	-0.070	0.142
-202.363	-198.108	0.194	0.001
-201.348	-51.762	0.223	-0.102
-200.333	-78.893	-0.439	0.147
-199.319	-119.202	-0.332	-0.057
-198.304	118.363	0.077	-0.093
-197.290	-54.581	0.123	0.055
-196.275	498.354	-0.099	0.223
-195.260	-135.578	0.138	-0.016
-194.246	-129.183	0.126	0.017
-193.231	0.903	0.343	0.242
-192.217	96.075	-0.155	0.175
-191.202	3.298	0.060	0.043
-190.187	134.378	0.215	-0.275
-189.173	-200.000	0.054	0.284
-188.158	-119.437	0.160	-0.027
-187.144	-200.000	-0.026	-0.211
-186.129	-111.730	0.123	0.025
-185.114	-69.233	0.210	0.079
-184.100	-152.357	-0.116	-0.008
-183.085	-58.808	-0.381	-0.162
-182.071	-22.935	-0.244	-0.145
-181.056	235.512	0.064	0.105
-180.042	228.224	-0.137	-0.220
-179.027	298.171	-0.156	0.282
-178.012	-200.000	0.087	0.510
-176.998	14.305	0.322	0.247
-175.983	1.289	-0.328	-0.231
-174.969	77.399	-0.128	-0.134
-173.954	74.104	0.063	-0.065
-172.939	-133.464	-0.039	-0.005
-171.925	93.814	-0.272	0.303
-170.910	203.358	0.133	-0.203
-169.896	-90.761	0.318	0.090
-168.881	-127.013	-0.356	-0.051
-167.866	20.842	0.231	-0.184
-166.852	-160.416	-0.027	-0.001
-165.837	-200.000	0.030	-0.612
-164.823	-155.820	0.266	0.017
-163.808	153.663	0.281	0.379
-162.793	-57.218	0.046	0.020
-161.779	174.198	0.080	-0.114
-160.764	-62.506	-0.218	0.089
-159.750	24.552	0.110	0.089
-158.735	-57.044	0.201	-0.087
-157.720	535.030	0.037	0.087
-156.706	-71.595	-0.242	-0.089
-155.691	-200.000	-0.004	0.317
-154.677	578.542	-0.097	-0.234
-153.662	-2.905	-0.120	-0.082
-152.647	800.000	0.061	0.223
-151.633	560.297	0.051	-0.121
-150.618	-148.624	0.130	0.010
-149.604	60.091	-0.055	0.054
-148.589	-95.259	-0.135	-0.036
-147.574	-46.383	-0.347	-0.168
-146.560	-200.000	0.040	-0.419
-145.545	118.028	-0.091	0.110
-144.531	102.147	0.042	0.048
-143.516	-21.682	0.071	0.043
-142.502	754.917	0.136	0.361
-141.487	-69.110	0.438	0.166
-140.472	58.096	0.250	0.240
-139.458	-29.461	-0.307	-0.172
-138.443	190.967	0.126	0.185
-137.429	-21.207	0.170	0.102
-136.414	51.608	-0.057	0.054
-135.399	-200.000	-0.019	0.581
-134.385	-157.789	-0.279	0.016
-133.370	46.862	-0.079	0.072
-132.356	-152.406	0.207	0.015
-131.341	800.000	-0.046	0.198
-130.326	-102.582	-0.264	-0.062
-129.312	-200.000	0.046	0.219
-128.297	800.000	0.092	0.254
-127.283	-200.000	-0.029	-0.396
-126.268	-67.284	-0.223	-0.086
-125.253	-118.877	-0.319	-0.055
-124.239	-13.944	0.123	0.078
-123.224	-81.515	-0.056	-0.018
-122.210	-29.073	-0.273	-0.154
-121.195	519.483	-0.082	0.188
