DTS Sentinel unit serial number:	SN413079Multiplexer serial number:	ORYXHardware model number:	OX4-SRSoftware version number:	ORYX F/W v4.00 Oryx Data Collector v3.7.2.0data status	okinstallation	princeton_trtdifferential loss correction	single-endedforward channel	channel 1reverse channel	N/Adate	2019/09/18time	02:38:35forward acquisition time	60.00reverse acquisition time	0.00gamma	496.2192k internal	0.2341k external	0.2341temperature offset calibration	0.9976default loss term (dB/km)	0.3790temperature slope calibration	1.0000multiplexer offset coefficient	1.0000multiplexer slope coefficient	1.0000fibre end	0.00T internal ref (°C)	22.77T ext. ref 1 (°C)	0.16T ext. ref 2 (°C)	16.69length (m)	temperature (°C)	Stokes	anti-Stokes-747.200	800.000	0.010	0.036
-746.185	800.000	0.079	0.290
-745.171	-200.000	-0.043	-0.212
-744.156	91.826	-0.389	0.438
-743.142	800.000	-0.056	0.229
-742.127	62.199	-0.095	0.095
-741.112	208.743	0.146	0.229
-740.098	-30.779	-0.300	0.170
-739.083	-38.044	0.374	0.199
-738.069	-200.000	-0.002	-0.069
-737.054	18.126	-0.116	0.092
-736.039	-84.948	-0.235	-0.074
-735.025	-122.070	0.201	-0.033
-734.010	-74.776	-0.076	-0.028
-732.996	-167.290	-0.211	-0.009
-731.981	504.278	0.096	-0.221
-730.966	-87.032	-0.335	-0.102
-729.952	-179.027	-0.087	-0.002
-728.937	11.952	-0.293	-0.226
-727.923	-133.332	0.403	0.051
-726.908	98.282	-0.265	-0.306
-725.894	66.670	-0.160	-0.163
-724.879	308.990	0.177	0.331
-723.864	-137.238	0.185	0.021
-722.850	-117.558	-0.168	0.030
-721.835	49.052	0.127	-0.120
-720.821	-87.331	-0.140	-0.043
-719.806	-190.209	-0.030	-0.000
-718.791	-58.113	0.251	-0.110
-717.777	800.000	-0.017	-0.075
-716.762	-2.872	-0.431	-0.302
-715.748	-27.672	0.101	-0.059
-714.733	49.582	-0.198	-0.187
-713.718	653.384	0.033	0.084
-712.704	113.956	-0.202	0.245
-711.689	165.400	-0.171	-0.241
-710.675	-59.067	-0.290	-0.125
-709.660	100.431	0.176	0.204
-708.645	-70.475	-0.166	-0.063
-707.631	278.326	-0.149	0.265
-706.616	39.328	-0.056	-0.051
-705.602	265.025	0.143	-0.249
-704.587	-160.903	0.247	0.013
-703.572	-90.485	0.169	0.049
-702.558	-200.000	-0.321	-0.000
-701.543	800.000	0.041	-0.165
-700.529	98.200	-0.146	-0.168
-699.514	-155.422	0.237	-0.015
-698.499	-125.983	0.221	0.033
-697.485	194.860	-0.130	0.198
-696.470	-19.906	-0.042	-0.026
-695.456	-24.725	-0.262	0.156
-694.441	-25.416	0.185	-0.109
-693.426	58.268	-0.196	-0.192
-692.412	-89.850	0.612	0.179
-691.397	800.000	-0.049	0.161
-690.383	139.697	-0.041	-0.055
-689.368	54.879	0.135	0.130
-688.354	-113.388	0.614	0.120
-687.339	-200.000	0.038	-0.366
-686.324	230.298	-0.198	0.323
-685.310	-200.000	0.005	0.284
-684.295	800.000	-0.044	-0.180
-683.281	50.678	0.109	0.103
-682.266	-130.763	-0.286	-0.038
-681.251	-200.000	0.035	0.205
-680.237	601.253	-0.030	-0.074
-679.222	284.787	-0.154	-0.277
-678.208	-122.415	0.385	0.063
-677.193	-66.467	0.200	-0.079
-676.178	-93.105	-0.350	0.097
-675.164	43.752	0.089	-0.081
-674.149	800.000	0.065	-0.190
-673.135	-28.378	-0.116	0.067
-672.120	46.873	-0.105	0.098
-671.105	-99.869	0.319	0.080
-670.091	-148.747	-0.142	-0.011
-669.076	81.095	0.089	-0.096
-668.062	271.078	-0.042	-0.073
-667.047	30.625	-0.168	-0.144
-666.032	-200.000	0.008	0.093
-665.018	800.000	0.029	0.106
-664.003	-137.292	0.222	-0.025
-662.989	149.664	0.120	0.162
-661.974	-200.000	0.078	-0.510
-660.959	30.850	0.078	-0.067
-659.945	218.757	-0.194	0.309
-658.930	-12.086	0.347	-0.227
-657.916	-55.862	0.356	0.159
-656.901	-200.000	-0.033	-0.345
-655.886	-140.185	-0.300	-0.031
-654.872	800.000	-0.152	0.440
-653.857	35.605	-0.192	-0.168
-652.843	-200.000	0.042	-0.248
-651.828	88.322	-0.086	0.095
-650.814	440.407	-0.067	-0.146
-649.799	365.630	0.041	0.083
-648.784	131.124	-0.158	-0.203
-647.770	213.174	0.127	-0.201
-646.755	-38.650	-0.305	0.161
-645.741	-67.247	0.164	0.065
-644.726	800.000	0.030	0.101
-643.711	134.377	0.107	0.138
-642.697	-20.410	-0.224	0.138
-641.682	45.630	-0.264	0.244
-640.668	48.618	-0.316	0.296
-639.653	800.000	0.040	0.163
-638.638	333.404	0.060	-0.115
-637.624	-119.698	-0.162	-0.028
-636.609	67.776	0.137	0.139
-635.595	-56.212	-0.192	-0.085
-634.580	60.128	0.237	0.234
-633.565	-175.390	-0.352	0.010
-632.551	236.531	-0.085	0.140
-631.536	-80.749	0.208	0.069
-630.522	800.000	0.015	-0.055
-629.507	-119.752	0.087	-0.015
-628.492	163.279	-0.181	-0.254
-627.478	-124.636	0.226	-0.035
-626.463	-147.018	0.152	-0.013
-625.449	-200.000	-0.026	-0.276
-624.434	-160.193	0.134	0.007
-623.419	-66.790	-0.245	-0.097
-622.405	-91.655	0.422	0.120
-621.390	-128.171	-0.261	-0.037
-620.376	-35.394	-0.206	0.112
-619.361	-83.700	0.123	-0.039
-618.346	316.803	0.102	0.193
-617.332	692.632	0.005	0.013
-616.317	12.590	0.111	-0.085
-615.303	800.000	0.021	-0.087
-614.288	-150.482	-0.228	-0.017
-613.273	37.005	0.056	-0.050
-612.259	-11.319	-0.253	0.166
-611.244	671.309	0.094	0.243
-610.230	28.189	0.278	-0.234
-609.215	-65.208	-0.042	0.017
-608.201	800.000	-0.084	-0.246
-607.186	37.748	-0.134	-0.119
-606.171	181.832	0.087	-0.128
-605.157	102.768	0.045	-0.052
-604.142	-132.388	-0.176	-0.023
-603.128	-89.486	-0.343	-0.101
-602.113	-124.133	0.380	0.059
-601.098	-52.498	0.313	-0.144
-600.084	-157.803	-0.112	0.007
-599.069	54.853	-0.063	0.061
-598.055	-59.473	-0.232	-0.099
-597.040	-131.531	0.073	0.010
-596.025	-89.959	-0.304	-0.089
-595.011	6.377	0.281	-0.208
-593.996	-84.647	0.287	-0.090
-592.982	800.000	0.056	-0.170
-591.967	-3.136	0.130	0.090
-590.952	466.970	0.030	0.066
-589.938	-110.630	-0.388	0.080
-588.923	-29.464	-0.157	0.090
-587.909	800.000	0.116	-0.373
-586.894	-63.556	-0.175	-0.071
-585.879	32.384	-0.173	-0.149
-584.865	-142.515	0.204	-0.020
-583.850	5.446	0.246	0.181
-582.836	-55.224	-0.184	0.082
-581.821	800.000	0.028	0.111
-580.806	-47.455	-0.340	0.165
-579.792	-35.618	0.357	0.193
-578.777	211.339	-0.081	-0.127
-577.763	-154.723	-0.138	-0.009
-576.748	219.882	0.139	0.222
-575.733	124.670	0.126	-0.157
-574.719	97.589	0.111	-0.126
-573.704	800.000	0.053	0.215
-572.690	-142.224	-0.046	0.005
-571.675	134.025	0.180	-0.232
-570.661	642.625	-0.129	-0.327
-569.646	-9.096	-0.156	-0.104
-568.631	11.451	0.374	-0.285
-567.617	152.317	-0.162	0.221
-566.602	92.919	0.063	0.070
-565.588	-28.994	0.014	-0.008
-564.573	-200.000	0.089	0.491
-563.558	-200.000	0.054	0.304
-562.544	-11.387	-0.253	-0.166
-561.529	-200.000	0.042	0.345
-560.515	-200.000	0.030	0.408
-559.500	158.024	0.077	0.106
-558.485	-43.521	-0.092	-0.046
-557.471	-200.000	0.002	0.021
-556.456	-48.687	0.059	-0.028
-555.442	-200.000	0.028	0.245
-554.427	-73.686	0.034	0.012
-553.412	-120.359	-0.051	-0.009
-552.398	800.000	-0.020	0.076
-551.383	-142.359	0.138	-0.014
-550.369	-200.000	-0.013	-0.093
-549.354	-200.000	0.026	0.217
-548.339	444.102	0.097	0.213
-547.325	50.066	-0.131	0.123
-546.310	-26.488	-0.098	-0.057
-545.296	800.000	-0.086	0.277
-544.281	463.275	0.075	-0.166
-543.266	276.477	-0.183	-0.323
-542.252	-200.000	0.029	-0.365
-541.237	5.052	0.059	0.043
-540.223	-200.000	0.044	0.208
-539.208	800.000	-0.019	0.065
-538.193	-79.747	-0.264	0.088
-537.179	800.000	-0.072	-0.209
-536.164	7.650	0.068	0.051
-535.150	96.831	-0.094	0.107
-534.135	-86.995	0.166	-0.050
-533.121	-29.637	-0.164	-0.093
-532.106	147.445	0.051	0.068
-531.091	800.000	-0.037	-0.119
-530.077	-141.454	0.086	-0.009
-529.062	-200.000	0.021	-0.149
-528.048	295.205	0.096	-0.174
-527.033	-200.000	-0.020	0.089
-526.018	15.710	-0.221	-0.173
-525.004	19.875	0.291	-0.233
-523.989	96.609	0.103	0.117
-522.975	-200.000	-0.015	0.268
-521.960	217.985	0.042	0.066
-520.945	-76.047	-0.119	-0.042
-519.931	-200.000	-0.004	-0.217
-518.916	-200.000	-0.043	-0.309
-517.902	-55.368	-0.197	0.088
-516.887	154.063	-0.213	0.290
-515.872	-200.000	0.067	-0.472
-514.858	151.038	0.170	-0.230
-513.843	-200.000	0.030	0.328
-512.829	-49.878	-0.157	0.074
-511.814	-56.651	-0.043	-0.019
-510.799	-72.506	-0.291	0.107
-509.785	-178.981	0.183	0.004
-508.770	-47.484	-0.190	-0.092
-507.756	800.000	0.073	-0.211
-506.741	-3.125	0.092	-0.064
-505.726	-28.523	0.294	-0.168
-504.712	375.173	-0.063	0.128
-503.697	-38.092	-0.140	-0.074
-502.683	-200.000	0.115	-0.521
-501.668	165.494	-0.079	0.110
-500.653	19.813	0.072	0.058
-499.639	-55.290	-0.142	-0.063
-498.624	-92.734	-0.259	-0.072
-497.610	-200.000	-0.009	0.255
-496.595	10.586	-0.266	-0.201
-495.581	-200.000	-0.048	-0.328
-494.566	340.984	-0.069	-0.133
-493.551	-128.874	0.195	-0.027
-492.537	-120.713	0.125	0.021
-491.522	-168.721	0.054	0.002
-490.508	-200.000	0.030	0.353
-489.493	-157.405	0.066	-0.004
-488.478	45.238	-0.148	-0.135
-487.464	68.606	-0.156	0.159
-486.449	108.758	0.172	0.204
-485.435	-110.527	0.180	0.037
-484.420	26.948	0.184	0.153
-483.405	-46.649	-0.086	-0.042
-482.391	-200.000	-0.006	-0.052
-481.376	-115.079	-0.055	0.010
-480.362	159.368	-0.134	0.184
-479.347	-128.542	0.107	-0.015
-478.332	439.440	-0.095	-0.206
-477.318	195.364	-0.172	-0.258
-476.303	-200.000	-0.001	-0.286
-475.289	800.000	-0.068	0.203
-474.274	-200.000	0.013	-0.228
-473.259	-161.098	0.213	-0.011
-472.245	54.219	0.177	0.169
-471.230	-19.072	0.094	-0.058
-470.216	-17.642	0.161	0.101
-469.201	55.994	0.128	-0.123
-468.186	-60.909	-0.167	-0.070
-467.172	-33.110	0.331	-0.182
-466.157	-5.501	0.068	0.047
-465.143	-26.728	-0.279	-0.162
-464.128	-54.300	-0.131	0.059
-463.113	-6.362	-0.101	-0.068
-462.099	-200.000	0.070	-0.357
-461.084	197.232	0.134	-0.202
-460.070	-153.734	0.155	-0.011
-459.055	54.051	0.198	0.189
-458.040	56.167	0.031	-0.030
-457.026	-10.836	0.106	-0.070
-456.011	800.000	-0.118	0.472
-454.997	-118.328	-0.275	0.049
-453.982	-52.319	-0.386	0.177
-452.968	-59.890	0.226	0.096
-451.953	-200.000	-0.027	0.182
-450.938	245.515	-0.080	-0.133
-449.924	58.394	0.206	-0.200
-448.909	-34.789	-0.308	0.167
-447.895	-111.977	-0.240	0.048
-446.880	-19.564	-0.185	-0.113
-445.865	-8.677	0.244	0.162
-444.851	757.374	-0.040	0.106
-443.836	-71.171	-0.183	-0.068
-442.822	-200.000	-0.004	0.167
-441.807	-54.625	0.152	0.068
-440.792	800.000	-0.049	0.174
-439.778	-127.639	-0.104	0.015
-438.763	145.812	0.160	0.212
-437.749	-84.526	0.047	0.015
-436.734	800.000	-0.049	0.175
-435.719	-15.855	0.082	-0.052
-434.705	-75.799	0.111	0.039
-433.690	112.801	0.096	-0.115
-432.676	265.338	0.211	0.364
-431.661	-80.564	-0.178	0.059
-430.646	-112.987	-0.493	-0.096
-429.632	-148.950	-0.126	0.010
-428.617	197.170	-0.172	0.259
-427.603	-200.000	0.007	-0.045
-426.588	-9.087	0.074	0.049
-425.573	55.190	-0.221	0.211
-424.559	18.872	0.043	0.034
-423.544	315.921	0.030	-0.057
-422.530	-30.200	0.155	0.087
-421.515	-200.000	0.034	0.465
-420.500	-200.000	-0.001	-0.032
-419.486	-87.907	0.416	-0.124
-418.471	11.903	0.096	0.073
-417.457	-200.000	0.033	0.144
-416.442	121.714	0.215	0.265
-415.428	38.614	0.206	0.181
-414.413	-78.960	-0.209	-0.070
-413.398	18.722	0.111	-0.088
-412.384	6.966	-0.105	0.078
-411.369	45.568	-0.230	-0.210
-410.355	800.000	-0.084	0.257
-409.340	800.000	-0.017	-0.064
-408.325	-168.103	-0.292	0.011
-407.311	800.000	-0.045	-0.167
-406.296	-200.000	0.068	0.471
-405.282	800.000	0.065	0.264
-404.267	-101.427	0.199	-0.048
-403.252	-200.000	-0.063	-0.275
-402.238	124.256	-0.216	0.269
-401.223	-64.251	0.257	-0.103
-400.209	-200.000	0.012	-0.241
-399.194	121.878	0.137	-0.169
-398.179	170.562	0.103	0.145
-397.165	800.000	0.008	0.031
-396.150	800.000	0.057	0.221
-395.136	-5.277	-0.232	-0.158
-394.121	-24.989	0.197	-0.116
-393.106	-8.627	-0.072	0.048
-392.092	-140.070	-0.353	0.037
-391.077	40.616	-0.246	-0.219
-390.063	-38.259	0.314	-0.165
-389.048	117.315	-0.270	0.329
-388.033	-54.999	-0.354	0.158
-387.019	500.347	-0.246	0.560
-386.004	144.236	0.194	0.256
-384.990	-83.599	0.192	-0.061
-383.975	-37.687	-0.158	-0.083
-382.960	-131.771	0.107	-0.014
-381.946	91.288	-0.075	-0.084
-380.931	-11.711	0.307	-0.200
-379.917	116.708	0.184	-0.223
-378.902	310.041	-0.135	0.250
-377.888	-91.704	-0.180	-0.051
-376.873	-119.762	-0.191	-0.033
-375.858	-51.577	0.121	-0.056
-374.844	-23.144	0.376	-0.224
-373.829	14.110	-0.119	-0.091
-372.815	-200.000	-0.009	-0.342
-371.800	-94.800	0.289	-0.077
-370.785	154.523	-0.124	-0.168
-369.771	666.328	0.046	-0.117
-368.756	-200.000	-0.027	0.254
-367.742	-150.107	-0.307	-0.024
-366.727	250.747	0.196	-0.329
-365.712	68.214	-0.155	0.156
-364.698	76.200	-0.059	0.061
-363.683	-64.496	0.269	-0.108
-362.669	96.826	-0.068	0.077
-361.654	-44.762	0.034	-0.017
-360.639	161.735	0.122	-0.168
-359.625	-58.076	-0.394	0.170
-358.610	274.149	0.092	-0.161
-357.596	-200.000	0.041	-0.237
-356.581	55.409	-0.105	-0.100
-355.566	-200.000	0.092	-0.410
-354.552	-200.000	-0.003	-0.166
-353.537	285.537	0.087	-0.154
-352.523	-112.268	0.381	-0.075
-351.508	-139.296	-0.282	-0.030
-350.493	-78.328	0.242	0.082
-349.479	216.339	0.083	0.130
-348.464	800.000	-0.046	-0.158
-347.450	800.000	-0.043	0.132
-346.435	361.487	0.127	0.252
-345.420	-100.262	0.255	-0.063
-344.406	-34.216	0.114	-0.062
-343.391	-83.765	-0.408	-0.129
-342.377	-168.054	0.146	0.006
-341.362	-73.317	-0.207	0.075
-340.348	800.000	-0.042	-0.129
-339.333	-200.000	-0.000	0.263
-338.318	-200.000	-0.008	0.157
-337.304	79.543	-0.139	0.147
-336.289	90.977	0.197	0.217
-335.275	645.385	0.083	-0.208
-334.260	-93.392	-0.246	-0.067
-333.245	800.000	-0.034	-0.096
-332.231	159.610	-0.035	0.048
-331.216	800.000	-0.023	-0.075
-330.202	-2.562	-0.202	-0.139
-329.187	-123.334	0.277	0.044
-328.172	221.089	-0.161	-0.255
-327.158	800.000	-0.079	-0.271
-326.143	-141.533	0.096	-0.010
-325.129	751.937	0.035	-0.094
-324.114	42.861	0.151	0.136
-323.099	290.623	-0.211	0.378
-322.085	157.142	-0.080	-0.109
-321.070	800.000	-0.090	0.280
-320.056	-151.762	0.302	-0.022
-319.041	68.032	-0.163	-0.164
-318.026	-67.155	0.310	0.120
-317.012	-17.360	-0.164	-0.102
-315.997	-25.075	-0.107	0.063
-314.983	119.940	0.242	-0.296
-313.968	141.172	-0.096	-0.125
-312.953	-200.000	-0.002	0.121
-311.939	352.486	0.015	0.029
-310.924	51.842	0.040	-0.038
-309.910	-17.535	0.132	0.082
-308.895	800.000	-0.091	0.255
-307.880	170.234	-0.115	0.162
-306.866	-27.972	0.348	0.199
-305.851	-34.821	-0.250	0.135
-304.837	-114.426	0.167	-0.032
-303.822	267.957	0.202	0.349
-302.807	-50.262	0.055	-0.026
-301.793	-154.377	-0.043	-0.003
-300.778	371.401	-0.149	-0.298
-299.764	-200.000	-0.031	-0.316
-298.749	-5.325	-0.109	0.074
-297.735	800.000	0.013	-0.045
-296.720	140.302	-0.055	0.071
-295.705	-200.000	0.022	0.133
-294.691	-109.202	0.373	0.078
-293.676	-200.000	-0.013	0.267
-292.662	-134.343	0.231	0.028
-291.647	-117.597	-0.261	-0.046
-290.632	599.190	0.084	-0.206
-289.618	-83.336	0.251	-0.079
-288.603	-178.691	-0.202	0.005
-287.589	-145.548	0.139	0.012
-286.574	800.000	-0.106	0.387
-285.559	67.652	-0.063	-0.063
-284.545	-200.000	-0.041	0.249
-283.530	71.162	-0.111	-0.113
-282.516	9.858	-0.246	-0.183
-281.501	24.488	-0.361	-0.294
-280.486	-155.855	0.150	-0.009
-279.472	181.166	-0.129	-0.187
-278.457	-134.999	0.404	-0.048
-277.443	-115.605	0.149	-0.028
-276.428	800.000	-0.045	0.183
-275.413	440.762	0.159	0.342
-274.399	147.496	0.213	-0.282
-273.384	434.436	0.076	0.162
-272.370	85.273	-0.181	-0.196
-271.355	143.595	-0.080	-0.104
-270.340	-44.326	-0.117	-0.058
-269.326	-170.807	0.381	0.013
-268.311	-108.622	-0.322	0.068
-267.297	-200.000	-0.023	-0.206
-266.282	9.559	0.189	0.140
-265.267	800.000	0.035	0.115
-264.253	52.931	-0.237	0.223
-263.238	-200.000	0.126	-0.627
-262.224	680.662	0.096	0.246
-261.209	215.143	0.219	0.341
-260.195	800.000	0.083	0.296
-259.180	800.000	0.175	0.567
-258.165	-200.000	0.042	0.196
-257.151	-130.970	0.060	-0.008
-256.136	174.946	-0.052	0.074
-255.122	595.704	-0.126	-0.307
-254.107	-189.950	-0.250	0.003
-253.092	-93.887	0.192	0.052
-252.078	-117.251	-0.193	0.034
-251.063	82.001	0.105	-0.112
-250.049	-31.716	-0.162	-0.090
-249.034	-200.000	-0.004	0.267
-248.019	134.288	0.105	0.134
-247.005	800.000	-0.072	-0.228
-245.990	800.000	0.083	-0.248
-244.976	-200.000	0.056	-0.285
-243.961	63.212	0.186	-0.183
-242.946	199.592	0.099	0.150
-241.932	-64.381	-0.205	0.082
-240.917	583.659	0.121	0.291
-239.903	93.278	0.089	0.098
-238.888	-200.000	-0.026	-0.265
-237.873	-200.000	-0.024	-0.182
-236.859	104.690	0.232	-0.268
-235.844	103.193	-0.111	0.128
-234.830	-53.419	-0.121	0.054
-233.815	2.173	0.244	0.174
-232.800	-94.443	-0.326	-0.087
-231.786	325.191	0.029	0.054
-230.771	18.699	0.226	-0.177
-229.757	-200.000	-0.089	-0.441
-228.742	-38.938	-0.072	0.037
-227.727	144.055	0.135	-0.177
-226.713	-200.000	0.055	-0.277
-225.698	-79.883	-0.266	0.088
-224.684	-200.000	0.039	-0.312
-223.669	-200.000	-0.048	0.244
-222.655	0.635	-0.089	-0.062
-221.640	-152.463	0.159	0.011
-220.625	-7.506	-0.165	0.110
-219.611	-200.000	0.043	-0.329
-218.596	349.848	0.013	-0.025
-217.582	32.084	-0.119	0.101
-216.567	100.324	-0.149	0.170
-215.552	-73.522	0.400	0.143
-214.538	-89.633	-0.490	0.141
-213.523	55.490	-0.168	0.160
-212.509	16.470	0.084	0.065
-211.494	271.850	0.200	-0.346
-210.479	-65.993	0.611	-0.239
-209.465	-38.137	0.085	-0.044
-208.450	115.931	0.111	0.133
-207.436	-103.231	0.335	0.078
-206.421	-49.117	0.145	0.068
-205.406	71.653	-0.215	-0.220
-204.392	333.202	-0.052	-0.099
-203.377	800.000	-0.018	0.055
-202.363	184.345	0.116	0.169
-201.348	800.000	0.087	-0.338
-200.333	-152.595	-0.244	-0.017
-199.319	-32.958	0.067	0.036
-198.304	-21.487	-0.271	-0.162
-197.290	292.683	-0.212	-0.380
-196.275	751.678	0.054	-0.144
-195.260	267.507	0.051	0.087
-194.246	-73.098	-0.138	-0.050
-193.231	-200.000	0.035	0.304
-192.217	15.785	-0.237	0.183
-191.202	-51.748	0.301	-0.137
-190.187	50.988	0.306	-0.285
-189.173	-200.000	0.026	-0.157
-188.158	-66.549	0.153	-0.060
-187.144	-100.355	0.211	0.051
-186.129	-62.273	-0.261	-0.107
-185.114	-15.913	0.137	0.085
-184.100	-200.000	-0.022	0.313
-183.085	-7.319	0.068	-0.046
-182.071	-2.097	-0.371	0.255
-181.056	45.183	0.213	-0.192
-180.042	800.000	0.036	0.104
-179.027	134.831	0.082	0.105
-178.012	-200.000	-0.002	0.266
-176.998	-200.000	0.017	0.199
-175.983	-48.716	-0.252	0.118
-174.969	-14.850	-0.102	0.064
-173.954	-140.409	0.178	-0.018
-172.939	800.000	-0.021	0.078
-171.925	-22.641	0.297	0.176
-170.910	-101.711	-0.267	0.064
-169.896	-46.542	0.376	-0.180
-168.881	-93.753	-0.200	-0.054
-167.866	29.637	0.173	0.144
-166.852	-59.213	-0.282	-0.119
-165.837	50.177	-0.151	0.140
-164.823	202.431	-0.146	-0.221
-163.808	800.000	0.052	-0.194
-162.793	43.023	0.187	-0.167
-161.779	-47.939	-0.201	-0.095
-160.764	5.529	0.250	0.181
-159.750	252.871	0.121	-0.202
-158.735	-47.866	-0.342	-0.162
-157.720	260.303	-0.058	0.099
-156.706	482.779	0.059	0.131
-155.691	-96.396	-0.214	-0.055
-154.677	403.897	0.103	-0.213
-153.662	40.326	0.064	0.057
-152.647	-48.739	0.089	0.042
-151.633	-156.699	-0.366	-0.022
-150.618	-144.201	0.307	-0.028
-149.604	131.612	-0.016	-0.020
-148.589	281.045	-0.084	-0.147
-147.574	-165.056	-0.316	0.014
-146.560	158.941	-0.148	0.202
-145.545	800.000	-0.121	0.368
-144.531	-200.000	-0.002	0.054
-143.516	-127.692	-0.184	0.026
-142.502	110.589	-0.214	0.252
-141.487	270.546	0.078	0.135
-140.472	279.659	-0.098	0.171
-139.458	562.105	0.101	0.238
-138.443	-200.000	-0.002	0.039
-137.429	23.178	-0.041	-0.033
-136.414	-200.000	-0.019	-0.517
-135.399	82.205	0.032	-0.034
-134.385	361.234	0.077	-0.150
-133.370	87.501	0.109	-0.118
-132.356	-124.652	0.318	-0.048
-131.341	621.875	0.037	0.090
-130.326	626.072	-0.115	0.285
-129.312	91.717	-0.151	0.166
-128.297	-30.895	-0.027	0.015
-127.283	-145.084	0.222	-0.020
-126.268	-200.000	-0.001	-0.025
-125.253	-122.523	-0.262	0.042
-124.239	-200.000	0.018	0.190
-123.224	241.839	0.129	0.211
-122.210	730.550	0.063	0.166
-121.195	-78.132	0.165	-0.056
-120.180	72.056	-0.064	0.065
