DTS Sentinel unit serial number:	SN413079Multiplexer serial number:	ORYXHardware model number:	OX4-SRSoftware version number:	ORYX F/W v4.00 Oryx Data Collector v3.7.2.0data status	okinstallation	princeton_trtdifferential loss correction	single-endedforward channel	channel 1reverse channel	N/Adate	2019/09/11time	06:00:11forward acquisition time	60.00reverse acquisition time	0.00gamma	496.2192k internal	0.2331k external	0.2331temperature offset calibration	0.9922default loss term (dB/km)	0.3790temperature slope calibration	1.0000multiplexer offset coefficient	1.0000multiplexer slope coefficient	1.0000fibre end	0.00T internal ref (°C)	29.44T ext. ref 1 (°C)	-0.22T ext. ref 2 (°C)	23.50length (m)	temperature (°C)	Stokes	anti-Stokes-747.200	-200.000	0.001	-0.008
-746.185	19.024	0.182	-0.147
-745.171	800.000	-0.209	-0.599
-744.156	-200.000	-0.011	0.073
-743.142	-120.380	0.373	-0.064
-742.127	43.064	-0.207	0.190
-741.112	183.470	0.099	0.148
-740.098	-200.000	-0.031	0.292
-739.083	365.922	-0.058	0.117
-738.069	30.236	-0.229	0.197
-737.054	800.000	-0.051	0.176
-736.039	800.000	0.052	-0.176
-735.025	-84.832	0.429	-0.136
-734.010	-21.126	-0.186	-0.114
-732.996	-52.124	-0.110	0.051
-731.981	626.940	-0.037	0.093
-730.966	-105.682	0.113	0.026
-729.952	-121.965	0.112	-0.019
-728.937	-51.491	-0.073	-0.034
-727.923	206.443	0.063	0.098
-726.908	-200.000	-0.038	-0.249
-725.894	319.386	-0.135	-0.257
-724.879	-33.386	-0.294	0.163
-723.864	-200.000	-0.011	-0.068
-722.850	-200.000	-0.167	0.001
-721.835	800.000	0.041	-0.122
-720.821	-200.000	0.024	-0.347
-719.806	-149.719	-0.379	-0.030
-718.791	-158.131	-0.246	0.014
-717.777	800.000	0.090	-0.301
-716.762	18.717	-0.065	-0.053
-715.748	-14.389	-0.020	0.013
-714.733	-25.756	-0.132	-0.078
-713.718	47.972	0.101	0.095
-712.704	-23.302	0.101	0.061
-711.689	-59.519	0.161	0.069
-710.675	278.151	-0.064	0.115
-709.660	80.688	0.212	-0.230
-708.645	-74.311	0.475	-0.173
-707.631	800.000	0.009	0.032
-706.616	-67.206	-0.327	-0.129
-705.602	252.272	-0.064	-0.109
-704.587	-200.000	0.022	-0.249
-703.572	-200.000	0.028	0.214
-702.558	-200.000	0.015	0.171
-701.543	-2.886	-0.115	0.081
-700.529	652.285	0.049	0.126
-699.514	-200.000	-0.053	-0.438
-698.499	-129.208	-0.226	-0.032
-697.485	-10.310	0.131	0.088
-696.470	-81.322	-0.179	-0.059
-695.456	-200.000	-0.021	-0.113
-694.441	-39.941	0.067	-0.035
-693.426	-200.000	0.015	-0.339
-692.412	-1.748	0.292	0.207
-691.397	23.630	-0.113	0.094
-690.383	-200.000	0.006	0.070
-689.368	-4.661	0.109	-0.076
-688.354	800.000	-0.035	-0.134
-687.339	800.000	0.117	-0.341
-686.324	75.572	-0.290	0.308
-685.310	32.570	0.151	-0.131
-684.295	-117.459	0.167	0.030
-683.281	75.140	-0.062	-0.065
-682.266	-53.150	-0.290	-0.134
-681.251	800.000	-0.010	0.038
-680.237	276.308	-0.049	-0.088
-679.222	244.430	-0.092	0.155
-678.208	-200.000	0.007	-0.057
-677.193	-44.711	0.082	-0.041
-676.178	473.466	0.125	0.282
-675.164	-200.000	0.070	0.370
-674.149	92.299	-0.202	-0.229
-673.135	-27.663	-0.091	-0.053
-672.120	-200.000	-0.036	-0.307
-671.105	57.666	0.235	-0.230
-670.091	-85.023	0.276	-0.087
-669.076	66.395	-0.100	-0.102
-668.062	-70.506	-0.141	0.053
-667.047	-77.910	0.085	-0.029
-666.032	-70.648	0.080	0.030
-665.018	800.000	-0.052	-0.166
-664.003	74.855	0.062	-0.066
-662.989	-93.897	0.113	-0.031
-661.974	85.249	0.112	0.123
-660.959	800.000	-0.096	0.313
-659.945	312.846	-0.054	0.102
-658.930	-103.630	-0.193	-0.045
-657.916	-42.814	0.247	0.126
-656.901	260.433	0.059	0.101
-655.886	150.711	-0.215	-0.293
-654.872	27.748	0.168	-0.142
-653.857	800.000	-0.016	0.068
-652.843	800.000	0.047	-0.183
-651.828	136.046	0.071	0.092
-650.814	800.000	0.101	-0.303
-649.799	166.149	-0.150	0.213
-648.784	-117.715	0.173	-0.031
-647.770	-200.000	-0.068	-0.412
-646.755	-15.359	-0.341	-0.219
-645.741	800.000	-0.024	0.099
-644.726	243.318	0.119	0.200
-643.711	-118.432	0.110	-0.019
-642.697	-34.327	0.096	0.053
-641.682	292.195	-0.053	0.097
-640.668	-200.000	-0.017	-0.088
-639.653	800.000	0.087	-0.302
-638.638	53.908	0.180	-0.174
-637.624	-11.355	0.244	-0.161
-636.609	10.326	0.252	-0.192
-635.595	-200.000	-0.054	-0.263
-634.580	-55.274	-0.149	-0.067
-633.565	76.786	0.056	0.060
-632.551	19.981	-0.083	-0.067
-631.536	225.139	-0.066	-0.107
-630.522	-50.510	0.134	0.063
-629.507	-92.513	0.182	-0.051
-628.492	-30.959	0.246	-0.139
-627.478	3.798	-0.234	0.171
-626.463	-13.882	0.042	-0.027
-625.449	179.887	-0.118	0.173
-624.434	220.039	0.111	0.179
-623.419	117.699	0.248	-0.306
-622.405	-49.141	0.266	0.127
-621.390	-121.384	0.163	0.027
-620.376	-200.000	-0.066	-0.354
-619.361	537.383	-0.100	-0.237
-618.346	-76.953	0.048	0.017
-617.332	321.583	-0.120	0.230
-616.317	-40.952	-0.196	-0.102
-615.303	84.330	-0.146	0.160
-614.288	-147.064	-0.249	0.021
-613.273	74.997	0.235	0.248
-612.259	800.000	-0.016	0.047
-611.244	-164.674	0.178	-0.008
-610.230	-54.875	0.172	0.078
-609.215	92.984	0.160	-0.181
-608.201	211.214	-0.053	-0.083
-607.186	800.000	0.079	-0.284
-606.171	87.540	-0.031	-0.034
-605.157	800.000	-0.054	-0.203
-604.142	-57.784	-0.091	0.040
-603.128	800.000	0.046	0.190
-602.113	-10.831	-0.242	-0.160
-601.098	395.053	-0.082	0.171
-600.084	-15.763	0.099	-0.063
-599.069	4.534	-0.239	-0.176
-598.055	183.648	-0.122	0.181
-597.040	-18.526	-0.231	-0.144
-596.025	29.332	-0.052	0.044
-595.011	800.000	-0.078	0.270
-593.996	7.434	-0.358	-0.268
-592.982	-88.023	0.336	0.101
-591.967	800.000	0.030	-0.131
-590.952	164.399	-0.070	-0.098
-589.938	2.301	-0.122	0.088
-588.923	350.512	0.189	0.374
-587.909	402.596	0.068	0.142
-586.894	-200.000	-0.016	-0.245
-585.879	-71.677	0.357	-0.133
-584.865	16.253	-0.146	0.115
-583.850	-104.807	-0.458	0.105
-582.836	800.000	-0.046	0.129
-581.821	-200.000	0.009	0.140
-580.806	40.712	-0.138	0.125
-579.792	8.734	0.082	-0.062
-578.777	511.982	0.159	-0.371
-577.763	-38.234	0.095	-0.050
-576.748	-47.083	-0.096	-0.047
-575.733	800.000	0.021	-0.088
-574.719	10.576	-0.233	-0.178
-573.704	-84.359	0.104	-0.033
-572.690	-200.000	-0.009	-0.054
-571.675	27.404	0.190	-0.160
-570.661	-39.313	0.242	0.127
-569.646	-200.000	0.001	-0.039
-568.631	-169.096	0.206	0.008
-567.617	-200.000	0.001	-0.234
-566.602	205.514	-0.053	-0.082
-565.588	-200.000	0.078	0.458
-564.573	-58.589	-0.065	-0.028
-563.558	-111.896	0.046	-0.009
-562.544	344.463	0.192	0.377
-561.529	-63.657	-0.190	-0.078
-560.515	-103.979	-0.186	-0.043
-559.500	527.478	0.053	-0.125
-558.485	-57.189	-0.082	-0.036
-557.471	-200.000	-0.025	-0.233
-556.456	-200.000	0.077	-0.409
-555.442	-200.000	0.023	-0.160
-554.427	-121.992	0.202	0.033
-553.412	-20.360	-0.251	0.154
-552.398	26.283	0.107	0.089
-551.383	206.369	0.191	0.296
-550.369	15.722	-0.049	0.038
-549.354	602.078	0.117	0.290
-548.339	-86.214	0.199	-0.061
-547.325	-46.276	-0.174	-0.086
-546.310	-94.159	-0.117	0.032
-545.296	-0.939	-0.045	-0.032
-544.281	-66.897	0.255	0.101
-543.266	308.748	0.050	-0.093
-542.252	-200.000	-0.015	-0.474
-541.237	-200.000	0.047	0.226
-540.223	84.376	0.148	-0.161
-539.208	-200.000	0.013	-0.304
-538.193	-113.929	-0.318	0.062
-537.179	718.565	-0.051	0.135
-536.164	-165.974	-0.319	0.014
-535.150	-103.052	-0.240	0.057
-534.135	800.000	-0.052	0.214
-533.121	723.858	-0.062	-0.164
-532.106	-47.618	0.134	-0.065
-531.091	-200.000	0.020	-0.222
-530.077	-200.000	0.017	-0.135
-529.062	-49.452	-0.136	0.065
-528.048	800.000	-0.042	-0.118
-527.033	-79.811	-0.258	-0.087
-526.018	-82.720	0.046	0.015
-525.004	-9.557	0.201	0.134
-523.989	-66.791	-0.403	0.159
-522.975	46.872	0.111	0.103
-521.960	-153.865	0.170	-0.012
-520.945	800.000	-0.022	-0.086
-519.931	-148.476	-0.168	-0.014
-518.916	421.308	0.085	-0.182
-517.902	-62.834	0.062	0.025
-516.887	210.172	0.017	0.026
-515.872	117.274	-0.198	-0.243
-514.858	359.661	-0.069	-0.137
-513.843	800.000	-0.071	0.222
-512.829	499.622	0.087	0.199
-511.814	-200.000	0.003	-0.081
-510.799	72.864	-0.372	-0.388
-509.785	155.217	0.149	-0.205
-508.770	-26.798	-0.077	0.045
-507.756	800.000	0.035	0.130
-506.741	-63.098	0.165	0.068
-505.726	-29.302	0.283	-0.162
-504.712	-132.238	0.275	-0.036
-503.697	-81.151	0.272	0.090
-502.683	-200.000	0.039	0.192
-501.668	800.000	0.041	-0.130
-500.653	9.582	-0.239	-0.180
-499.639	163.390	0.067	-0.095
-498.624	-200.000	-0.046	-0.291
-497.610	-54.384	-0.205	-0.093
-496.595	287.691	0.077	-0.139
-495.581	-71.585	-0.156	-0.058
-494.566	-90.619	0.045	-0.013
-493.551	67.365	-0.256	0.260
-492.537	118.851	0.068	-0.084
-491.522	800.000	-0.066	0.240
-490.508	443.179	-0.138	0.301
-489.493	142.864	-0.213	0.282
-488.478	-144.143	0.167	0.016
-487.464	117.688	0.174	0.214
-486.449	-75.058	0.129	0.046
-485.435	-200.000	0.020	-0.093
-484.420	-96.999	0.192	-0.050
-483.405	800.000	-0.016	-0.059
-482.391	-200.000	0.002	-0.194
-481.376	224.679	0.115	0.185
-480.362	204.288	-0.169	-0.262
-479.347	800.000	-0.074	0.226
-478.332	120.354	0.079	-0.097
-477.318	-200.000	-0.032	-0.183
-476.303	11.852	0.183	0.140
-475.289	-172.708	-0.193	0.006
-474.274	800.000	0.052	-0.177
-473.259	311.269	-0.151	-0.281
-472.245	-200.000	-0.026	0.163
-471.230	800.000	-0.040	0.113
-470.216	162.931	0.271	0.379
-469.201	-74.905	0.338	0.121
-468.186	213.906	-0.042	0.066
-467.172	291.008	0.064	-0.116
-466.157	81.146	0.115	-0.124
-465.143	-65.385	0.235	0.094
-464.128	-200.000	0.010	-0.193
-463.113	404.180	0.094	-0.196
-462.099	292.664	0.105	-0.190
-461.084	373.002	-0.117	-0.237
-460.070	29.861	-0.115	0.097
-459.055	742.635	-0.180	0.482
-458.040	307.066	0.205	-0.380
-457.026	-104.380	-0.243	-0.056
-456.011	28.758	0.261	-0.220
-454.997	800.000	0.074	0.241
-453.982	-104.861	0.352	0.081
-452.968	188.228	-0.310	0.460
-451.953	-200.000	-0.005	0.043
-450.938	-3.543	0.067	0.047
-449.924	-79.320	-0.311	-0.105
-448.909	-200.000	0.038	-0.189
-447.895	800.000	-0.096	-0.264
-446.880	-102.198	0.464	0.111
-445.865	800.000	0.091	0.322
-444.851	-186.323	-0.265	0.004
-443.836	800.000	0.050	-0.188
-442.822	-30.081	0.035	0.020
-441.807	202.016	0.084	-0.128
-440.792	-77.221	-0.213	0.074
-439.778	800.000	0.061	0.195
-438.763	-200.000	-0.023	0.343
-437.749	515.794	0.063	-0.147
-436.734	-115.377	-0.129	0.024
-435.719	-93.134	-0.225	0.062
-434.705	-200.000	0.008	0.066
-433.690	-87.695	0.122	-0.036
-432.676	400.275	-0.090	-0.188
-431.661	-200.000	-0.002	0.068
-430.646	-188.782	-0.216	0.003
-429.632	-200.000	0.120	-0.589
-428.617	-142.107	-0.328	0.032
-427.603	800.000	-0.075	0.269
-426.588	212.816	-0.186	0.293
-425.573	-24.211	-0.283	0.168
-424.559	-200.000	-0.004	0.111
-423.544	800.000	0.008	-0.027
-422.530	-79.233	0.045	0.015
-421.515	-142.753	-0.182	0.018
-420.500	-131.446	0.221	0.029
-419.486	-86.172	-0.133	0.041
-418.471	-38.034	-0.199	0.105
-417.457	-125.265	-0.223	0.034
-416.442	140.219	-0.247	-0.324
-415.428	-200.000	-0.016	-0.104
-414.413	-71.181	0.085	0.032
-413.398	598.538	0.022	-0.054
-412.384	800.000	-0.073	0.221
-411.369	256.111	0.195	0.333
-410.355	120.666	0.152	0.188
-409.340	-24.480	0.417	0.247
-408.325	295.215	0.020	0.037
-407.311	-60.174	0.379	0.161
-406.296	246.543	-0.178	0.298
-405.282	143.797	0.019	0.025
-404.267	657.649	0.104	-0.265
-403.252	-8.009	-0.218	0.146
-402.238	-3.587	0.126	0.087
-401.223	-200.000	-0.012	0.336
-400.209	-200.000	0.047	0.210
-399.194	-143.682	-0.319	-0.030
-398.179	-200.000	-0.036	0.248
-397.165	-27.101	-0.247	0.143
-396.150	-87.359	0.260	-0.078
-395.136	-5.263	-0.120	0.082
-394.121	19.221	-0.132	-0.105
-393.106	-200.000	0.010	-0.122
-392.092	-200.000	0.012	0.284
-391.077	184.468	0.107	0.157
-390.063	-5.139	-0.089	-0.061
-389.048	-200.000	-0.009	-0.278
-388.033	-200.000	0.007	-0.214
-387.019	-23.340	0.273	0.163
-386.004	-200.000	0.020	-0.303
-384.990	335.526	-0.067	0.128
-383.975	415.646	0.081	0.172
-382.960	464.635	0.062	0.137
-381.946	800.000	0.112	-0.337
-380.931	-7.053	-0.287	0.193
-379.917	-23.789	0.255	-0.151
-378.902	-97.532	-0.317	-0.082
-377.888	603.321	-0.073	0.179
-376.873	800.000	0.072	0.262
-375.858	800.000	0.129	-0.389
-374.844	-200.000	0.029	-0.135
-373.829	669.510	0.100	-0.256
-372.815	-6.279	-0.402	-0.272
-371.800	800.000	-0.062	0.206
-370.785	154.643	-0.104	0.141
-369.771	-200.000	0.033	-0.193
-368.756	-162.944	0.049	-0.002
-367.742	-131.653	-0.317	0.041
-366.727	74.776	0.320	0.334
-365.712	3.854	0.186	-0.135
-364.698	-29.000	-0.260	0.148
-363.683	21.398	0.244	0.197
-362.669	40.243	-0.223	0.199
-361.654	-154.654	-0.170	0.011
-360.639	800.000	-0.060	-0.180
-359.625	-200.000	-0.015	0.187
-358.610	-200.000	-0.009	0.198
-357.596	64.064	0.219	0.219
-356.581	-115.712	-0.161	0.030
-355.566	-133.686	-0.132	-0.016
-354.552	-61.538	0.221	0.092
-353.537	5.356	0.082	-0.060
-352.523	-151.294	-0.285	0.021
-351.508	112.769	-0.041	-0.049
-350.493	675.241	-0.075	0.194
-349.479	800.000	-0.098	0.338
-348.464	-111.582	-0.085	-0.017
-347.450	-200.000	-0.038	-0.310
-346.435	-77.743	-0.038	-0.013
-345.420	9.645	-0.215	0.162
-344.406	342.489	0.070	0.136
-343.391	-93.263	0.079	-0.022
-342.377	-102.347	0.129	-0.031
-341.362	-110.859	-0.288	-0.059
-340.348	602.203	-0.020	-0.048
-339.333	231.652	-0.211	-0.343
-338.318	-200.000	-0.025	-0.122
-337.304	-6.001	0.145	-0.098
-336.289	-200.000	0.016	-0.156
-335.275	-57.065	0.198	-0.087
-334.260	-200.000	-0.002	-0.133
-333.245	-133.169	-0.016	-0.002
-332.231	-170.722	0.231	0.008
-331.216	126.185	0.144	-0.181
-330.202	-97.802	0.328	-0.084
-329.187	800.000	-0.048	0.201
-328.172	206.713	0.135	0.208
-327.158	538.950	0.048	-0.113
-326.143	107.030	-0.302	-0.356
-325.129	-200.000	-0.028	0.137
-324.114	55.145	-0.267	0.255
-323.099	248.016	-0.128	0.214
-322.085	-17.909	0.215	0.134
-321.070	-200.000	0.056	-0.363
-320.056	800.000	-0.039	0.121
-319.041	-200.000	0.050	0.310
-318.026	156.716	0.162	0.221
-317.012	246.500	0.012	0.020
-315.997	-73.635	0.185	-0.067
-314.983	-22.803	-0.195	-0.116
-313.968	-172.356	0.216	-0.007
-312.953	-200.000	0.072	-0.396
-311.939	183.458	-0.140	0.204
-310.924	283.762	-0.105	-0.188
-309.910	-44.326	-0.092	0.046
-308.895	611.466	0.121	-0.299
-307.880	139.162	-0.248	0.323
-306.866	13.287	0.166	-0.127
-305.851	-200.000	0.010	0.182
-304.837	-37.932	0.146	0.077
-303.822	481.318	0.119	-0.268
-302.807	-5.013	-0.339	-0.231
-301.793	17.911	-0.076	-0.060
-300.778	-200.000	0.002	-0.216
-299.764	-200.000	0.005	-0.343
-298.749	-35.181	-0.329	-0.177
-297.735	-41.853	-0.101	0.051
-296.720	391.773	-0.181	-0.371
-295.705	800.000	0.117	0.336
-294.691	-9.391	0.230	0.152
-293.676	55.733	-0.048	0.046
-292.662	-5.798	-0.213	0.144
-291.647	69.129	0.164	-0.167
-290.632	-200.000	0.002	0.397
-289.618	26.867	-0.164	-0.136
-288.603	559.665	-0.058	0.139
-287.589	-82.021	0.196	0.063
-286.574	-85.236	0.360	0.111
-285.559	-122.280	-0.292	0.047
-284.545	47.085	0.115	-0.106
-283.530	-200.000	-0.022	-0.167
-282.516	-93.097	-0.131	0.036
-281.501	154.728	-0.101	-0.137
-280.486	96.820	0.136	0.154
-279.472	67.899	-0.128	-0.129
-278.457	-22.852	-0.492	-0.294
-277.443	101.074	-0.108	-0.124
-276.428	26.781	0.259	0.214
-275.413	17.293	-0.037	0.029
-274.399	-56.726	-0.273	0.119
-273.384	146.192	-0.186	-0.246
-272.370	800.000	-0.030	0.112
-271.355	37.937	0.151	-0.132
-270.340	-17.672	-0.052	0.032
-269.326	484.780	0.054	0.121
-268.311	-169.304	0.272	0.010
-267.297	77.199	-0.108	0.114
-266.282	231.305	0.178	0.289
-265.267	35.182	0.197	-0.171
-264.253	86.302	0.126	0.137
-263.238	-128.840	-0.478	0.066
-262.224	800.000	-0.097	-0.288
-261.209	114.082	0.202	-0.243
-260.195	800.000	-0.054	-0.156
-259.180	214.546	0.143	0.223
-258.165	293.591	0.055	0.099
-257.151	-6.627	-0.133	0.090
-256.136	800.000	-0.092	0.327
-255.122	-200.000	-0.007	0.063
-254.107	-70.241	0.261	0.098
-253.092	-35.008	0.324	-0.175
-252.078	800.000	-0.057	0.165
-251.063	-171.555	0.109	0.004
-250.049	-127.024	-0.200	-0.029
-249.034	-200.000	0.049	0.263
-248.019	129.749	0.021	-0.026
-247.005	117.172	-0.239	0.290
-245.990	-200.000	0.018	-0.330
-244.976	-84.523	-0.127	0.040
-243.961	292.155	0.062	-0.112
-242.946	-20.142	0.079	0.048
-241.932	75.334	0.233	-0.242
-240.917	24.279	-0.192	0.157
-239.903	253.511	0.228	-0.385
-238.888	282.448	0.142	-0.251
-237.873	768.743	0.080	-0.215
-236.859	70.690	-0.166	0.169
-235.844	-43.888	-0.061	0.030
-234.830	-200.000	-0.013	-0.066
-233.815	-72.286	0.372	-0.136
-232.800	115.804	-0.145	-0.175
-231.786	10.877	0.134	-0.101
-230.771	164.965	0.057	-0.080
-229.757	-165.296	-0.476	-0.021
-228.742	269.784	-0.078	-0.136
-227.727	19.710	-0.419	-0.333
-226.713	-10.289	-0.127	0.083
-225.698	-43.812	0.303	-0.150
-224.684	-80.191	-0.461	0.152
-223.669	157.570	-0.064	0.088
-222.655	-200.000	0.015	0.097
-221.640	-57.348	0.200	-0.087
-220.625	41.607	0.232	0.207
-219.611	800.000	0.082	-0.239
-218.596	800.000	0.055	-0.191
-217.582	-200.000	0.040	0.708
-216.567	-66.076	-0.225	0.088
-215.552	-116.217	-0.256	-0.047
-214.538	-119.702	0.058	0.010
-213.523	800.000	-0.120	0.346
-212.509	-200.000	-0.006	0.274
-211.494	448.351	-0.080	0.173
-210.479	-200.000	-0.013	0.056
-209.465	1.896	-0.012	0.008
-208.450	-65.085	-0.048	-0.019
-207.436	-21.297	0.248	-0.150
-206.421	-89.936	0.215	-0.062
-205.406	129.536	0.069	0.086
-204.392	123.737	0.174	-0.216
-203.377	354.325	-0.173	0.339
-202.363	800.000	0.129	0.414
-201.348	24.113	0.297	-0.242
-200.333	317.344	-0.113	-0.210
-199.319	-1.768	0.187	-0.129
-198.304	376.689	-0.125	-0.251
-197.290	25.043	-0.119	0.097
-196.275	-200.000	-0.029	0.235
-195.260	45.760	0.147	-0.134
-194.246	-73.554	0.347	0.125
-193.231	38.313	-0.158	-0.139
-192.217	-200.000	0.017	-0.287
-191.202	-158.587	-0.231	-0.013
-190.187	-200.000	-0.023	0.220
-189.173	81.945	0.066	-0.070
-188.158	40.677	0.072	0.064
-187.144	-108.505	-0.257	0.055
-186.129	212.810	-0.080	-0.124
-185.114	333.349	-0.202	0.385
-184.100	-84.874	0.213	-0.066
-183.085	64.384	-0.110	-0.109
-182.071	738.907	0.037	-0.098
-181.056	-7.393	0.250	-0.167
-180.042	-200.000	-0.014	-0.069
-179.027	-200.000	-0.001	0.416
-178.012	-200.000	-0.042	0.246
-176.998	-39.373	-0.018	0.009
-175.983	800.000	0.047	0.145
-174.969	-200.000	0.010	0.273
-173.954	519.120	-0.029	0.066
-172.939	-14.790	-0.188	0.119
-171.925	-87.083	0.174	-0.052
-170.910	36.160	-0.039	0.033
-169.896	-200.000	0.010	-0.130
-168.881	176.829	0.029	0.041
-167.866	-68.100	0.309	-0.118
-166.852	327.952	0.087	0.165
-165.837	-123.387	0.222	0.035
-164.823	298.919	0.131	-0.237
-163.808	-8.702	-0.195	-0.128
-162.793	800.000	0.076	-0.220
-161.779	635.023	-0.044	0.110
-160.764	-132.886	0.310	-0.039
-159.750	618.807	-0.054	-0.133
-158.735	279.969	0.108	0.190
-157.720	146.433	-0.130	0.172
-156.706	26.308	-0.244	0.200
-155.691	-77.482	0.200	-0.068
-154.677	-155.072	0.440	-0.028
-153.662	800.000	0.045	0.160
-152.647	-71.327	0.268	0.099
-151.633	166.300	0.109	-0.152
-150.618	-200.000	0.071	0.410
-149.604	-97.150	0.637	-0.164
-148.589	-4.199	0.138	0.094
-147.574	-200.000	0.007	-0.278
-146.560	-200.000	0.003	0.018
-145.545	800.000	0.042	-0.127
-144.531	35.269	0.281	-0.242
-143.516	800.000	0.084	-0.310
-142.502	168.967	-0.153	0.214
-141.487	99.773	-0.098	-0.111
-140.472	73.435	0.061	0.063
-139.458	363.549	0.135	-0.266
-138.443	-200.000	-0.032	-0.311
-137.429	46.488	-0.142	0.129
-136.414	392.836	0.018	0.036
-135.399	800.000	-0.073	-0.236
-134.385	-21.527	0.146	-0.088
-133.370	5.522	0.133	0.096
-132.356	24.744	0.262	-0.213
-131.341	-164.076	0.322	-0.015
-130.326	-200.000	0.091	0.459
-129.312	137.545	-0.070	0.090
-128.297	551.027	-0.046	0.109
-127.283	49.548	0.017	0.015
-126.268	4.563	0.212	-0.153
-125.253	-196.757	0.163	0.001
-124.239	-93.698	-0.131	0.036
-123.224	21.184	0.067	-0.054
-122.210	-115.440	-0.089	0.017
-121.195	-200.000	0.011	-0.230
-120.180	-17.236	-0.368	-0.228
