DTS Sentinel unit serial number:	SN413079Multiplexer serial number:	ORYXHardware model number:	OX4-SRSoftware version number:	ORYX F/W v4.00 Oryx Data Collector v3.7.2.0data status	okinstallation	princeton_trtdifferential loss correction	single-endedforward channel	channel 1reverse channel	N/Adate	2019/09/15time	11:18:35forward acquisition time	60.00reverse acquisition time	0.00gamma	496.2192k internal	0.2308k external	0.2308temperature offset calibration	0.9986default loss term (dB/km)	0.3790temperature slope calibration	1.0000multiplexer offset coefficient	1.0000multiplexer slope coefficient	1.0000fibre end	0.00T internal ref (°C)	34.30T ext. ref 1 (°C)	5.00T ext. ref 2 (°C)	29.63length (m)	temperature (°C)	Stokes	anti-Stokes-747.200	-200.000	-0.067	0.338
-746.185	-200.000	0.016	0.355
-745.171	-119.490	-0.327	0.058
-744.156	-69.928	0.328	0.127
-743.142	57.003	-0.331	0.327
-742.127	44.844	0.321	0.301
-741.112	-200.000	-0.026	0.333
-740.098	129.355	-0.146	0.189
-739.083	22.047	-0.270	0.224
-738.069	800.000	0.104	0.362
-737.054	139.706	0.136	0.182
-736.039	-151.809	-0.290	0.022
-735.025	0.715	0.131	0.095
-734.010	-200.000	0.035	0.268
-732.996	-29.313	-0.277	-0.161
-731.981	-72.854	-0.087	0.033
-730.966	-38.785	-0.225	-0.121
-729.952	-24.707	0.115	0.069
-728.937	123.629	0.061	-0.078
-727.923	-23.162	-0.517	-0.316
-726.908	-200.000	0.012	-0.601
-725.894	800.000	0.055	-0.232
-724.879	800.000	-0.092	0.294
-723.864	800.000	0.076	0.330
-722.850	325.956	0.035	0.067
-721.835	-90.218	0.170	-0.050
-720.821	-92.586	0.148	-0.042
-719.806	-187.317	0.166	-0.002
-718.791	-200.000	0.023	0.154
-717.777	-200.000	0.049	-0.240
-716.762	800.000	-0.103	-0.420
-715.748	-112.241	-0.108	-0.022
-714.733	800.000	-0.066	-0.265
-713.718	27.545	-0.067	-0.057
-712.704	-54.886	-0.230	-0.105
-711.689	543.772	0.028	-0.067
-710.675	-11.076	0.100	0.067
-709.660	-155.527	0.126	0.008
-708.645	-31.515	0.229	-0.131
-707.631	800.000	0.077	0.305
-706.616	-200.000	0.019	0.109
-705.602	-188.091	-0.187	-0.002
-704.587	146.200	-0.240	-0.326
-703.572	-16.890	-0.387	-0.248
-702.558	-105.400	-0.197	-0.045
-701.543	-200.000	-0.000	-0.172
-700.529	-76.856	-0.264	-0.094
-699.514	-188.917	0.309	0.004
-698.499	-145.753	0.047	-0.004
-697.485	187.605	0.044	-0.066
-696.470	22.405	0.190	-0.158
-695.456	-58.191	0.055	0.024
-694.441	224.727	-0.079	-0.130
-693.426	-69.673	0.027	-0.010
-692.412	98.131	0.216	-0.252
-691.397	-200.000	0.022	0.524
-690.383	-66.346	0.142	0.057
-689.368	643.430	0.039	-0.101
-688.354	-200.000	0.007	-0.089
-687.339	-200.000	0.009	-0.131
-686.324	800.000	0.056	0.209
-685.310	48.954	-0.288	0.274
-684.295	300.746	-0.065	-0.121
-683.281	-86.157	-0.134	0.042
-682.266	-12.568	0.219	0.145
-681.251	-40.856	-0.104	0.055
-680.237	-167.618	0.233	-0.009
-679.222	-200.000	0.041	0.361
-678.208	529.025	0.145	0.346
-677.193	-95.633	0.071	-0.019
-676.178	25.842	-0.087	-0.073
-675.164	245.742	-0.048	0.082
-674.149	113.242	-0.123	-0.151
-673.135	-17.799	0.274	-0.174
-672.120	-200.000	-0.006	-0.296
-671.105	3.321	0.245	-0.181
-670.091	-56.421	0.136	0.061
-669.076	-8.310	-0.119	0.081
-668.062	-164.103	0.096	-0.005
-667.047	800.000	-0.017	0.061
-666.032	-106.769	-0.269	-0.061
-665.018	11.594	-0.163	-0.127
-664.003	84.288	-0.153	0.170
-662.989	-200.000	0.009	0.195
-661.974	168.393	-0.118	-0.170
-660.959	177.770	-0.118	0.174
-659.945	374.658	-0.099	0.204
-658.930	-51.957	0.190	0.089
-657.916	-16.108	-0.278	0.179
-656.901	-71.680	0.165	0.062
-655.886	-158.404	-0.259	0.015
-654.872	-25.444	0.263	-0.158
-653.857	-77.124	-0.052	0.018
-652.843	-200.000	-0.014	-0.227
-651.828	107.565	-0.029	0.035
-650.814	-65.770	-0.021	-0.009
-649.799	-200.000	-0.060	-0.306
-648.784	397.369	0.089	-0.189
-647.770	800.000	-0.049	0.182
-646.755	-69.925	-0.175	0.067
-645.741	-55.313	0.157	0.071
-644.726	-200.000	0.020	-0.149
-643.711	-83.270	0.157	0.051
-642.697	594.410	0.056	0.141
-641.682	-200.000	0.027	0.121
-640.668	27.482	0.128	0.109
-639.653	116.511	-0.121	0.151
-638.638	-174.788	-0.220	-0.006
-637.624	269.254	0.099	-0.176
-636.609	-200.000	0.015	0.202
-635.595	800.000	0.050	-0.193
-634.580	-82.595	0.456	0.150
-633.565	-42.552	0.125	0.065
-632.551	-200.000	0.014	-0.089
-631.536	-102.696	0.121	0.029
-630.522	-196.455	-0.311	-0.002
-629.507	133.830	-0.222	0.291
-628.492	-94.997	0.237	0.065
-627.478	147.474	0.049	0.067
-626.463	800.000	-0.097	-0.393
-625.449	-57.618	0.398	0.177
-624.434	69.562	-0.148	0.155
-623.419	68.064	-0.207	0.215
-622.405	264.805	-0.081	-0.143
-621.390	-67.120	-0.259	0.103
-620.376	3.125	0.320	-0.235
-619.361	800.000	0.107	-0.407
-618.346	24.037	-0.155	-0.130
-617.332	-76.212	-0.243	0.087
-616.317	246.331	0.161	-0.275
-615.303	-74.827	-0.070	-0.025
-614.288	15.883	0.327	-0.261
-613.273	800.000	0.042	-0.124
-612.259	381.243	0.169	-0.352
-611.244	-4.978	-0.257	-0.179
-610.230	-200.000	0.049	0.277
-609.215	-92.991	-0.180	-0.051
-608.201	800.000	-0.042	-0.159
-607.186	124.301	0.085	-0.107
-606.171	-171.089	-0.189	0.006
-605.157	711.701	0.055	0.147
-604.142	800.000	-0.074	-0.283
-603.128	153.978	-0.135	-0.187
-602.113	164.762	0.184	-0.262
-601.098	77.769	-0.080	0.086
-600.084	-61.283	-0.129	0.055
-599.069	46.474	0.203	0.190
-598.055	-200.000	0.032	-0.181
-597.040	-200.000	-0.046	-0.206
-596.025	-17.915	0.070	-0.044
-595.011	-101.108	0.227	-0.056
-593.996	-93.321	0.115	0.032
-592.982	4.378	-0.043	-0.032
-591.967	-200.000	0.033	-0.210
-590.952	177.056	0.169	0.249
-589.938	-124.333	-0.356	-0.056
-588.923	256.438	0.073	0.127
-587.909	62.160	-0.054	-0.055
-586.894	465.845	0.119	-0.269
-585.879	-5.786	-0.497	-0.344
-584.865	800.000	-0.048	-0.191
-583.850	-53.667	0.293	0.135
-582.836	800.000	-0.020	0.080
-581.821	281.016	-0.075	-0.135
-580.806	533.594	0.072	0.172
-579.792	33.243	-0.144	0.126
-578.777	-102.392	0.333	0.081
-577.763	173.267	-0.264	0.384
-576.748	-93.761	0.291	0.081
-575.733	800.000	0.024	-0.084
-574.719	800.000	0.085	-0.305
-573.704	179.606	-0.027	-0.040
-572.690	-200.000	-0.025	-0.259
-571.675	495.237	-0.182	0.423
-570.661	-129.215	0.308	-0.043
-569.646	-100.987	0.345	-0.086
-568.631	-50.316	0.033	-0.016
-567.617	220.620	-0.185	0.300
-566.602	-149.770	0.177	-0.014
-565.588	-200.000	0.038	0.363
-564.573	-45.805	0.166	-0.083
-563.558	-200.000	0.048	0.283
-562.544	800.000	0.055	0.213
-561.529	4.396	0.062	-0.046
-560.515	-200.000	-0.061	-0.313
-559.500	-161.887	0.245	-0.013
-558.485	697.391	-0.047	0.125
-557.471	800.000	-0.061	-0.257
-556.456	-131.278	0.061	-0.008
-555.442	41.319	0.137	-0.125
-554.427	750.234	0.149	-0.405
-553.412	-144.043	-0.460	-0.044
-552.398	-124.391	-0.324	0.051
-551.383	28.572	0.099	-0.085
-550.369	107.859	-0.069	-0.082
-549.354	565.632	-0.077	0.188
-548.339	-33.819	0.170	-0.094
-547.325	-200.000	-0.033	0.169
-546.310	188.502	-0.168	-0.253
-545.296	800.000	0.146	0.632
-544.281	-75.269	0.135	0.049
-543.266	9.001	0.214	0.163
-542.252	-138.160	-0.319	0.036
-541.237	-143.282	0.364	-0.035
-540.223	-200.000	0.005	-0.163
-539.208	537.676	-0.084	0.201
-538.193	149.635	-0.083	0.114
-537.179	-39.356	-0.213	-0.113
-536.164	-119.708	-0.218	-0.038
-535.150	18.046	-0.054	-0.043
-534.135	-25.051	-0.138	0.083
-533.121	-84.283	0.136	0.043
-532.106	-14.305	-0.122	0.079
-531.091	-30.468	-0.181	-0.103
-530.077	-13.331	-0.057	0.037
-529.062	-111.616	-0.099	-0.020
-528.048	-200.000	-0.023	-0.405
-527.033	68.993	0.271	-0.281
-526.018	49.735	0.128	-0.122
-525.004	-200.000	0.017	-0.092
-523.989	-200.000	0.013	0.093
-522.975	252.691	0.109	0.188
-521.960	482.783	0.143	0.327
-520.945	-12.336	-0.169	0.111
-519.931	-66.110	0.116	-0.047
-518.916	187.112	-0.093	0.139
-517.902	-139.520	-0.215	-0.023
-516.887	71.365	-0.124	0.130
-515.872	-200.000	-0.011	0.142
-514.858	-124.461	0.290	-0.045
-513.843	121.134	-0.095	-0.119
-512.829	-200.000	-0.007	0.336
-511.814	-3.740	-0.157	0.110
-510.799	800.000	-0.119	-0.414
-509.785	-59.696	0.165	-0.071
-508.770	-200.000	-0.026	-0.249
-507.756	-116.214	0.253	-0.047
-506.741	-200.000	0.003	-0.129
-505.726	-121.713	0.336	0.056
-504.712	76.624	-0.026	0.028
-503.697	-68.599	-0.209	-0.082
-502.683	-91.489	0.266	-0.076
-501.668	-200.000	-0.046	0.317
-500.653	6.215	-0.127	-0.095
-499.639	-200.000	0.055	-0.288
-498.624	684.949	0.074	0.195
-497.610	68.054	0.146	0.150
-496.595	35.822	0.198	0.175
-495.581	45.214	-0.141	0.131
-494.566	6.154	0.100	0.075
-493.551	-34.901	-0.212	0.116
-492.537	220.474	-0.202	0.325
-491.522	219.326	-0.176	0.284
-490.508	52.724	-0.063	-0.060
-489.493	-200.000	0.045	-0.348
-488.478	-114.259	0.083	0.016
-487.464	766.570	0.077	-0.209
-486.449	800.000	-0.085	-0.319
-485.435	-123.552	0.231	-0.037
-484.420	-200.000	-0.021	0.206
-483.405	-156.337	0.107	0.007
-482.391	16.232	-0.199	0.158
-481.376	28.505	0.311	0.264
-480.362	-200.000	0.031	0.187
-479.347	503.014	-0.160	0.371
-478.332	64.905	0.170	-0.173
-477.318	800.000	0.050	-0.184
-476.303	-200.000	0.016	0.107
-475.289	56.615	0.148	0.145
-474.274	800.000	0.152	0.493
-473.259	-110.291	0.337	0.071
-472.245	102.894	-0.255	-0.300
-471.230	-134.728	-0.101	-0.012
-470.216	695.438	0.066	0.175
-469.201	-125.769	0.134	-0.020
-468.186	-144.249	-0.200	-0.019
-467.172	-115.291	-0.138	-0.026
-466.157	-51.861	0.095	0.045
-465.143	800.000	0.108	-0.354
-464.128	-133.087	-0.073	-0.009
-463.113	431.513	0.146	0.319
-462.099	-47.696	-0.334	-0.163
-461.084	-63.396	0.091	0.037
-460.070	256.034	0.125	-0.215
-459.055	800.000	-0.083	0.278
-458.040	32.428	-0.063	0.055
-457.026	-109.858	-0.097	-0.021
-456.011	-40.765	-0.042	0.022
-454.997	-18.909	0.151	0.094
-453.982	-66.236	-0.267	-0.107
-452.968	158.280	0.195	-0.272
-451.953	-47.156	-0.551	0.270
-450.938	24.170	-0.139	-0.116
-449.924	-103.057	0.028	-0.007
-448.909	-32.336	0.242	0.136
-447.895	-200.000	0.032	0.255
-446.880	192.057	0.246	-0.373
-445.865	-61.986	-0.184	0.077
-444.851	-130.647	0.085	-0.011
-443.836	800.000	0.067	0.278
-442.822	-71.108	-0.113	0.043
-441.807	800.000	-0.122	0.364
-440.792	660.356	-0.119	0.307
-439.778	-200.000	0.026	0.140
-438.763	36.622	-0.200	0.177
-437.749	27.731	-0.209	-0.177
-436.734	59.709	0.223	-0.221
-435.719	-200.000	-0.028	-0.178
-434.705	110.823	0.129	0.156
-433.690	-200.000	0.020	0.141
-432.676	-81.884	0.127	0.042
-431.661	-200.000	0.008	-0.127
-430.646	9.052	0.195	-0.148
-429.632	-61.412	-0.318	0.134
-428.617	-47.761	-0.247	-0.120
-427.603	-121.131	-0.261	-0.044
-426.588	-46.943	-0.429	0.211
-425.573	30.709	0.128	0.110
-424.559	-58.429	0.369	-0.161
-423.544	313.735	0.071	-0.134
-422.530	-0.537	-0.050	0.036
-421.515	96.012	-0.284	0.326
-420.500	800.000	0.084	0.234
-419.486	-177.706	0.156	0.004
-418.471	-139.062	-0.285	0.031
-417.457	-14.689	0.193	-0.125
-416.442	-200.000	0.021	0.116
-415.428	210.307	0.140	0.220
-414.413	72.237	0.265	-0.277
-413.398	64.916	-0.069	0.070
-412.384	-43.800	-0.066	-0.033
-411.369	335.549	-0.097	-0.189
-410.355	-64.805	-0.287	-0.117
-409.340	69.546	-0.098	-0.101
-408.325	42.527	-0.127	0.116
-407.311	153.260	0.102	-0.140
-406.296	302.833	-0.071	-0.131
-405.282	800.000	-0.098	-0.283
-404.267	62.100	-0.215	0.215
-403.252	800.000	-0.037	0.113
-402.238	-91.501	0.134	0.038
-401.223	71.644	-0.180	0.188
-400.209	-95.388	-0.252	-0.068
-399.194	-55.980	-0.355	-0.159
-398.179	-147.270	-0.147	0.013
-397.165	-200.000	-0.078	0.388
-396.150	-77.855	0.232	-0.080
-395.136	-98.548	-0.180	-0.046
-394.121	-200.000	0.016	-0.260
-393.106	125.343	0.180	0.228
-392.092	-64.443	0.146	-0.060
-391.077	800.000	0.044	-0.186
-390.063	719.639	0.079	0.211
-389.048	-40.982	-0.238	-0.123
-388.033	-57.071	0.417	0.184
-387.019	-106.639	0.207	0.046
-386.004	-200.000	0.005	-0.085
-384.990	-200.000	-0.012	0.169
-383.975	579.421	0.150	0.367
-382.960	-200.000	0.005	0.132
-381.946	-137.883	-0.112	-0.013
-380.931	-54.373	-0.245	0.111
-379.917	-200.000	0.034	-0.235
-378.902	-200.000	0.018	-0.303
-377.888	226.686	0.105	-0.170
-376.873	-10.276	-0.299	0.199
-375.858	-200.000	-0.059	0.403
-374.844	77.234	0.146	-0.155
-373.829	77.172	-0.234	-0.249
-372.815	800.000	0.126	-0.405
-371.800	-44.367	-0.158	-0.079
-370.785	-175.977	0.355	0.009
-369.771	-63.234	0.079	-0.033
-368.756	209.304	-0.097	-0.152
-367.742	-200.000	0.021	0.133
-366.727	-52.005	-0.085	-0.040
-365.712	800.000	0.063	-0.196
-364.698	-200.000	0.031	-0.220
-363.683	-112.641	0.043	-0.009
-362.669	285.965	0.148	-0.267
-361.654	104.281	0.039	-0.046
-360.639	-74.908	0.175	-0.063
-359.625	800.000	-0.045	-0.125
-358.610	41.539	0.157	-0.143
-357.596	7.667	0.148	0.111
-356.581	800.000	-0.030	-0.104
-355.566	559.261	0.012	0.028
-354.552	324.071	-0.165	-0.315
-353.537	-200.000	-0.008	0.094
-352.523	187.190	0.252	0.376
-351.508	-2.031	0.224	0.157
-350.493	-109.487	-0.084	0.018
-349.479	-148.208	-0.187	-0.015
-348.464	-200.000	0.048	-0.281
-347.450	-33.751	-0.328	0.181
-346.435	8.577	0.283	0.213
-345.420	-200.000	-0.043	-0.296
-344.406	125.607	0.093	-0.117
-343.391	432.294	0.107	-0.232
-342.377	800.000	0.062	0.173
-341.362	381.623	-0.199	0.408
-340.348	-22.167	0.049	0.030
-339.333	800.000	0.064	-0.257
-338.318	-131.791	0.340	0.045
-337.304	-112.279	-0.317	-0.064
-336.289	-90.233	-0.270	0.078
-335.275	-118.406	-0.385	-0.068
-334.260	-127.144	-0.256	0.037
-333.245	-51.299	0.232	0.109
-332.231	-27.386	0.143	-0.083
-331.216	-56.652	-0.299	-0.133
-330.202	800.000	-0.170	0.528
-329.187	278.512	0.248	0.442
-328.172	-130.898	-0.308	0.041
-327.158	-78.551	0.030	-0.010
-326.143	800.000	-0.052	-0.220
-325.129	-110.465	-0.329	-0.068
-324.114	-155.600	0.144	0.009
-323.099	800.000	0.104	0.306
-322.085	800.000	-0.078	-0.243
-321.070	14.639	-0.318	-0.249
-320.056	-105.534	0.189	-0.043
-319.041	-151.487	-0.439	-0.033
-318.026	-200.000	-0.006	-0.129
-317.012	614.092	-0.091	0.228
-315.997	-31.237	0.306	0.173
-314.983	473.515	0.120	-0.270
-313.968	-177.906	-0.221	0.005
-312.953	-200.000	-0.026	0.329
-311.939	96.290	0.123	-0.141
-310.924	-152.508	-0.134	0.010
-309.910	75.408	-0.070	-0.074
-308.895	-156.586	0.329	0.020
-307.880	-200.000	0.000	0.107
-306.866	-8.086	-0.249	-0.168
-305.851	-54.106	-0.138	-0.063
-304.837	-200.000	0.014	-0.177
-303.822	800.000	0.034	0.138
-302.807	-38.829	0.147	-0.078
-301.793	-200.000	0.033	0.294
-300.778	311.034	-0.179	0.336
-299.764	-12.085	-0.393	0.257
-298.749	800.000	0.088	0.324
-297.735	-194.380	0.362	0.003
-296.720	270.267	-0.179	-0.314
-295.705	-21.341	0.169	-0.103
-294.691	-40.673	-0.030	0.015
-293.676	576.312	-0.039	0.095
-292.662	17.657	-0.165	0.131
-291.647	-155.583	-0.142	0.009
-290.632	-51.032	0.169	0.079
-289.618	707.460	0.151	0.398
-288.603	-116.096	0.075	-0.014
-287.589	-200.000	0.005	-0.055
-286.574	-31.392	0.189	0.106
-285.559	-141.921	0.174	0.017
-284.545	-126.529	0.112	-0.017
-283.530	-85.200	-0.095	0.030
-282.516	-34.973	-0.366	0.199
-281.501	49.635	-0.092	-0.087
-280.486	-78.225	0.225	0.077
-279.472	344.970	0.222	0.435
-278.457	-115.690	-0.520	0.097
-277.443	-131.766	0.380	0.050
-276.428	71.243	-0.359	-0.372
-275.413	800.000	-0.038	-0.141
-274.399	-132.188	-0.097	-0.013
-273.384	196.784	0.097	-0.147
-272.370	448.432	-0.106	-0.234
-271.355	-7.813	-0.217	-0.146
-270.340	-42.205	0.357	-0.182
-269.326	479.132	0.079	0.179
-268.311	800.000	-0.076	-0.215
-267.297	199.406	0.052	0.080
-266.282	268.428	-0.120	0.210
-265.267	448.078	-0.066	-0.145
-264.253	-11.170	-0.126	-0.083
-263.238	-200.000	-0.007	0.056
-262.224	226.628	0.137	0.221
-261.209	-98.588	0.342	-0.087
-260.195	-63.293	-0.126	-0.052
-259.180	143.272	-0.082	-0.109
-258.165	-22.783	-0.267	-0.161
-257.151	178.363	0.220	-0.321
-256.136	-109.396	0.027	-0.006
-255.122	-200.000	-0.038	0.294
-254.107	-44.365	0.206	0.103
-253.092	-200.000	-0.001	-0.154
-252.078	-95.602	0.097	0.026
-251.063	335.287	-0.089	0.173
-250.049	317.210	0.072	0.136
-249.034	-200.000	0.016	-0.075
-248.019	285.148	0.147	-0.264
-247.005	151.787	0.117	0.159
-245.990	800.000	0.092	-0.335
-244.976	-114.249	0.346	-0.067
-243.961	-70.470	0.236	0.089
-242.946	-200.000	0.004	-0.261
-241.932	17.915	0.096	-0.076
-240.917	2.701	-0.179	-0.130
-239.903	32.158	0.150	-0.129
-238.888	-160.676	0.405	0.021
-237.873	800.000	-0.072	0.283
-236.859	-195.874	0.134	-0.001
-235.844	-95.778	0.126	-0.033
-234.830	-121.583	0.319	0.053
-233.815	11.767	-0.306	-0.234
-232.800	-15.235	0.112	0.071
-231.786	117.179	-0.145	0.178
-230.771	67.944	-0.102	0.104
-229.757	73.037	-0.127	-0.133
-228.742	403.068	0.088	-0.184
-227.727	-200.000	0.033	0.318
-226.713	392.253	0.155	-0.320
-225.698	-200.000	0.021	0.197
-224.684	800.000	0.023	0.079
-223.669	-200.000	0.009	-0.129
-222.655	-107.966	0.394	-0.085
-221.640	431.871	-0.084	0.180
-220.625	34.199	0.127	-0.111
-219.611	-200.000	0.028	0.199
-218.596	181.191	-0.179	0.262
-217.582	-131.176	-0.216	-0.029
-216.567	-102.445	0.032	0.008
-215.552	326.990	-0.056	0.107
-214.538	671.520	0.025	0.064
-213.523	143.126	0.168	-0.223
-212.509	-184.049	0.246	0.004
-211.494	-18.275	-0.042	-0.026
-210.479	-200.000	-0.004	0.022
-209.465	190.084	-0.099	-0.148
-208.450	45.379	0.083	0.077
-207.436	-67.088	0.164	0.064
-206.421	117.657	-0.072	0.088
-205.406	-70.494	0.134	-0.051
-204.392	800.000	0.063	-0.251
-203.377	-158.414	-0.068	0.004
-202.363	759.123	-0.158	0.426
-201.348	15.399	0.084	-0.065
-200.333	-118.316	-0.046	-0.008
-199.319	255.235	0.108	0.183
-198.304	800.000	0.049	-0.183
-197.290	74.148	-0.247	-0.258
-196.275	-200.000	0.007	-0.447
-195.260	-81.781	0.399	-0.130
-194.246	800.000	-0.075	0.214
-193.231	-55.598	-0.132	-0.059
-192.217	110.127	0.132	0.158
-191.202	156.612	0.179	0.246
-190.187	800.000	0.036	0.128
-189.173	224.023	0.154	-0.247
-188.158	-22.126	0.216	-0.131
-187.144	-129.636	0.138	-0.019
-186.129	-41.301	-0.362	-0.185
-185.114	-17.070	0.134	-0.084
-184.100	759.006	0.157	0.422
-183.085	-75.789	-0.354	0.125
-182.071	-200.000	0.080	-0.440
-181.056	-200.000	0.041	0.201
-180.042	269.775	-0.004	0.008
-179.027	218.169	-0.253	0.402
-178.012	137.931	0.186	-0.242
-176.998	2.627	-0.228	-0.164
-175.983	2.874	-0.236	-0.170
-174.969	-65.123	0.188	-0.075
-173.954	23.890	-0.067	-0.055
-172.939	-200.000	0.001	0.035
-171.925	800.000	-0.049	0.169
-170.910	-200.000	-0.009	-0.038
-169.896	800.000	-0.026	-0.095
-168.881	-200.000	-0.023	0.124
-167.866	-89.507	-0.374	-0.109
-166.852	-28.184	-0.045	-0.026
-165.837	294.127	0.007	0.014
-164.823	-109.565	0.145	-0.030
-163.808	800.000	0.098	-0.371
-162.793	-35.156	-0.097	-0.052
-161.779	-107.821	-0.318	-0.069
-160.764	-63.991	-0.228	-0.092
-159.750	800.000	0.041	-0.168
-158.735	-200.000	0.036	-0.247
-157.720	-11.348	-0.350	0.229
-156.706	-39.885	-0.211	0.109
-155.691	-15.816	-0.313	0.198
-154.677	-121.717	-0.213	0.035
-153.662	499.890	0.087	-0.198
-152.647	-16.626	0.330	0.208
-151.633	441.519	-0.047	0.101
-150.618	43.738	0.130	-0.118
-149.604	752.911	-0.073	-0.195
-148.589	-73.735	-0.297	-0.107
-147.574	118.398	0.185	0.227
-146.560	-69.446	-0.114	0.044
-145.545	157.700	0.242	-0.333
-144.531	4.643	-0.294	-0.214
-143.516	800.000	-0.043	0.176
-142.502	-156.985	-0.273	0.017
-141.487	-186.140	0.272	0.004
-140.472	800.000	-0.039	0.137
-139.458	-200.000	0.005	0.231
-138.443	685.132	0.085	0.220
-137.429	48.708	-0.097	-0.090
-136.414	-116.976	0.385	-0.070
-135.399	337.303	-0.177	0.341
-134.385	-23.923	0.081	-0.048
-133.370	112.002	-0.069	-0.083
-132.356	-200.000	0.014	0.110
-131.341	-118.915	-0.085	-0.015
-130.326	-183.872	0.331	-0.006
-129.312	-200.000	-0.001	0.064
-128.297	-200.000	0.013	0.589
-127.283	800.000	-0.032	0.127
-126.268	315.103	-0.123	-0.231
-125.253	265.710	-0.114	0.197
-124.239	17.097	0.063	-0.049
-123.224	178.393	0.075	0.109
-122.210	323.253	0.029	0.055
-121.195	91.796	-0.051	0.057
