DTS Sentinel unit serial number:	SN413079Multiplexer serial number:	ORYXHardware model number:	OX4-SRSoftware version number:	ORYX F/W v4.00 Oryx Data Collector v3.7.2.0data status	okinstallation	princeton_trtdifferential loss correction	single-endedforward channel	channel 1reverse channel	N/Adate	2019/09/15time	06:50:35forward acquisition time	60.00reverse acquisition time	0.00gamma	496.2192k internal	0.2325k external	0.2325temperature offset calibration	0.9993default loss term (dB/km)	0.3790temperature slope calibration	1.0000multiplexer offset coefficient	1.0000multiplexer slope coefficient	1.0000fibre end	0.00T internal ref (°C)	30.50T ext. ref 1 (°C)	4.81T ext. ref 2 (°C)	25.52length (m)	temperature (°C)	Stokes	anti-Stokes-747.200	144.913	0.092	-0.124
-746.185	31.420	-0.245	0.212
-745.171	146.828	0.192	-0.260
-744.156	-39.849	-0.311	0.164
-743.142	713.254	-0.160	0.428
-742.127	-200.000	-0.021	0.264
-741.112	241.183	-0.165	-0.279
-740.098	-33.529	-0.091	0.051
-739.083	-67.584	-0.105	-0.041
-738.069	-114.499	0.167	0.032
-737.054	-111.369	-0.088	0.018
-736.039	15.698	-0.091	-0.072
-735.025	423.390	-0.053	0.115
-734.010	-200.000	0.002	-0.228
-732.996	-74.801	-0.484	-0.175
-731.981	800.000	0.137	-0.428
-730.966	141.206	0.043	-0.057
-729.952	388.290	-0.187	-0.391
-728.937	93.036	-0.044	0.050
-727.923	-38.671	-0.254	-0.135
-726.908	-65.608	-0.056	0.023
-725.894	112.265	0.081	-0.098
-724.879	456.865	0.126	-0.282
-723.864	-200.000	-0.021	-0.148
-722.850	-4.136	-0.340	-0.238
-721.835	-70.776	0.275	-0.105
-720.821	-153.228	-0.175	0.012
-719.806	-3.109	-0.176	0.124
-718.791	-23.451	-0.254	-0.154
-717.777	340.984	0.026	0.052
-716.762	-52.377	0.059	0.027
-715.748	239.018	0.131	0.219
-714.733	-7.421	0.393	0.268
-713.718	167.234	-0.178	0.254
-712.704	-151.826	-0.207	0.015
-711.689	-20.406	0.044	0.027
-710.675	277.932	0.095	-0.171
-709.660	-125.470	-0.191	-0.029
-708.645	800.000	0.114	-0.417
-707.631	27.064	-0.128	0.108
-706.616	40.909	-0.129	-0.117
-705.602	79.031	0.109	0.118
-704.587	800.000	-0.055	-0.231
-703.572	-64.076	0.301	-0.124
-702.558	-97.762	0.561	0.146
-701.543	-19.134	-0.337	0.211
-700.529	-96.261	-0.319	0.085
-699.514	-35.865	-0.218	-0.119
-698.499	30.900	0.034	-0.029
-697.485	-200.000	-0.018	0.098
-696.470	800.000	0.067	-0.286
-695.456	-99.535	0.034	-0.009
-694.441	-158.867	0.212	-0.012
-693.426	-149.823	0.127	-0.010
-692.412	-96.575	-0.261	-0.069
-691.397	-200.000	0.011	0.067
-690.383	-200.000	0.002	0.100
-689.368	-26.403	-0.240	-0.142
-688.354	193.700	-0.145	0.221
-687.339	-200.000	-0.037	-0.306
-686.324	-200.000	-0.004	0.030
-685.310	-200.000	-0.034	0.153
-684.295	407.049	0.038	-0.081
-683.281	-50.859	-0.199	0.094
-682.266	339.831	-0.078	0.153
-681.251	192.928	-0.107	0.163
-680.237	-77.552	0.005	0.002
-679.222	4.937	-0.167	0.124
-678.208	45.383	-0.124	-0.115
-677.193	-129.037	-0.727	0.102
-676.178	274.739	-0.113	0.201
-675.164	-196.515	-0.341	-0.002
-674.149	-136.078	-0.239	0.028
-673.135	-139.786	0.045	0.005
-672.120	-88.067	0.335	0.101
-671.105	325.677	0.094	0.181
-670.091	91.212	-0.062	-0.071
-669.076	-200.000	-0.091	-0.459
-668.062	-140.549	-0.175	0.018
-667.047	-200.000	-0.010	0.639
-666.032	-17.083	-0.215	0.136
-665.018	169.874	-0.020	-0.028
-664.003	-200.000	-0.022	0.108
-662.989	-200.000	-0.043	0.246
-661.974	32.234	-0.191	0.166
-660.959	800.000	0.016	0.052
-659.945	-46.097	0.052	-0.026
-658.930	21.506	0.040	0.033
-657.916	-88.942	-0.217	0.065
-656.901	-200.000	0.027	-0.176
-655.886	-166.939	0.393	-0.016
-654.872	-87.554	-0.168	-0.051
-653.857	-200.000	-0.049	-0.289
-652.843	-78.819	-0.179	-0.061
-651.828	-200.000	-0.017	-0.094
-650.814	-200.000	-0.006	0.105
-649.799	-69.644	-0.141	-0.054
-648.784	69.606	0.184	-0.191
-647.770	-107.168	0.163	0.036
-646.755	322.919	-0.119	-0.228
-645.741	293.398	-0.035	0.065
-644.726	-126.246	-0.470	0.071
-643.711	-152.781	-0.127	-0.009
-642.697	-73.554	-0.379	-0.139
-641.682	67.011	0.066	0.067
-640.668	-200.000	0.032	-0.177
-639.653	-1.600	-0.226	-0.160
-638.638	800.000	-0.088	-0.296
-637.624	-32.011	-0.259	-0.146
-636.609	-87.366	-0.446	-0.136
-635.595	-154.884	0.356	0.024
-634.580	-92.729	-0.555	0.156
-633.565	156.981	-0.141	-0.197
-632.551	-6.182	-0.018	0.012
-631.536	110.640	-0.295	0.356
-630.522	-135.032	0.194	0.024
-629.507	356.648	-0.146	-0.292
-628.492	-200.000	0.022	-0.179
-627.478	-110.129	-0.167	-0.035
-626.463	253.908	0.025	-0.043
-625.449	55.340	0.132	-0.128
-624.434	44.249	0.206	-0.190
-623.419	-45.524	-0.365	-0.181
-622.405	-200.000	-0.029	-0.424
-621.390	358.604	-0.068	-0.136
-620.376	-53.832	-0.193	-0.088
-619.361	-200.000	0.143	0.001
-618.346	34.931	0.319	-0.280
-617.332	-168.779	-0.568	0.022
-616.317	-134.706	-0.356	0.043
-615.303	-200.000	0.001	0.601
-614.288	800.000	0.096	-0.271
-613.273	-2.526	-0.260	0.183
-612.259	14.760	-0.144	-0.113
-611.244	-200.000	0.003	-0.203
-610.230	-58.729	-0.280	0.122
-609.215	-67.999	0.169	0.066
-608.201	-186.135	-0.105	0.002
-607.186	48.998	0.058	-0.054
-606.171	-200.000	0.040	-0.262
-605.157	-117.514	-0.315	0.057
-604.142	-68.865	-0.304	-0.118
-603.128	-116.234	0.247	0.046
-602.113	30.833	-0.211	0.182
-601.098	180.426	-0.091	0.134
-600.084	292.565	-0.263	0.482
-599.069	-140.539	0.316	0.033
-598.055	-19.011	0.115	0.072
-597.040	-85.897	0.211	-0.066
-596.025	800.000	0.012	-0.046
-595.011	599.534	0.068	0.170
-593.996	282.778	-0.104	-0.188
-592.982	-200.000	-0.049	0.311
-591.967	-0.959	-0.190	0.135
-590.952	-76.125	-0.208	-0.074
-589.938	652.367	0.092	0.236
-588.923	-132.227	-0.445	-0.058
-587.909	-79.415	0.274	0.093
-586.894	17.482	-0.068	-0.055
-585.879	640.069	0.018	0.046
-584.865	172.365	-0.050	-0.072
-583.850	-60.656	-0.355	-0.151
-582.836	5.786	-0.157	0.116
-581.821	-11.329	-0.268	0.177
-580.806	112.353	-0.278	0.337
-579.792	-80.277	0.019	0.006
-578.777	64.413	0.053	0.054
-577.763	800.000	-0.061	0.231
-576.748	-159.503	-0.274	0.015
-575.733	800.000	0.070	-0.212
-574.719	-200.000	0.008	0.199
-573.704	243.789	-0.122	-0.204
-572.690	-128.985	-0.247	0.035
-571.675	-200.000	-0.055	0.430
-570.661	-10.568	-0.120	0.079
-569.646	187.162	-0.319	0.476
-568.631	-200.000	0.023	0.196
-567.617	59.866	0.057	0.057
-566.602	-36.230	0.111	-0.060
-565.588	-26.303	-0.117	-0.069
-564.573	-60.707	-0.216	0.092
-563.558	-101.752	-0.236	-0.057
-562.544	-74.011	0.581	0.211
-561.529	-200.000	-0.025	-0.147
-560.515	-200.000	0.000	0.083
-559.500	-93.282	-0.231	0.064
-558.485	467.203	-0.144	-0.324
-557.471	-126.767	0.217	0.032
-556.456	-24.648	0.089	0.053
-555.442	-97.914	-0.178	0.046
-554.427	233.213	0.121	-0.199
-553.412	-9.306	-0.162	0.108
-552.398	-72.013	-0.220	0.082
-551.383	284.250	-0.135	0.244
-550.369	-141.491	-0.340	0.034
-549.354	154.606	0.052	0.072
-548.339	-154.680	0.210	-0.014
-547.325	258.966	0.073	0.125
-546.310	-34.258	-0.019	-0.010
-545.296	800.000	0.077	-0.237
-544.281	143.412	0.200	0.266
-543.266	-117.348	-0.171	0.031
-542.252	4.937	-0.213	-0.157
-541.237	-168.948	0.383	-0.014
-540.223	16.074	0.227	0.179
-539.208	540.912	0.102	0.244
-538.193	72.160	-0.061	0.063
-537.179	-103.901	0.183	-0.043
-536.164	-200.000	0.012	-0.054
-535.150	-42.596	-0.174	-0.089
-534.135	-36.605	0.252	0.136
-533.121	75.919	0.077	-0.081
-532.106	76.427	0.031	0.033
-531.091	176.158	-0.123	0.179
-530.077	800.000	-0.025	0.091
-529.062	-80.874	-0.156	0.052
-528.048	-125.892	0.227	0.034
-527.033	-200.000	0.003	-0.264
-526.018	2.528	-0.191	-0.139
-525.004	800.000	0.016	0.061
-523.989	228.649	0.116	-0.189
-522.975	229.473	0.209	-0.341
-521.960	8.269	0.142	-0.107
-520.945	-200.000	0.025	-0.338
-519.931	-61.649	-0.211	-0.089
-518.916	30.004	-0.334	0.285
-517.902	718.109	0.102	0.270
-516.887	-144.912	-0.171	0.016
-515.872	390.031	-0.112	0.233
-514.858	0.380	-0.442	0.316
-513.843	800.000	-0.071	0.246
-512.829	119.666	0.065	0.081
-511.814	-110.625	0.228	0.047
-510.799	-200.000	0.010	-0.159
-509.785	-200.000	0.003	-0.197
-508.770	-200.000	-0.013	-0.105
-507.756	-68.918	0.152	0.059
-506.741	-110.483	-0.164	0.034
-505.726	800.000	-0.041	0.142
-504.712	32.304	0.225	0.194
-503.697	93.001	0.096	0.108
-502.683	-157.375	-0.208	0.013
-501.668	97.042	-0.084	0.096
-500.653	-107.625	-0.181	-0.039
-499.639	199.258	0.046	0.071
-498.624	250.020	-0.093	-0.157
-497.610	-57.456	-0.282	-0.124
-496.595	800.000	-0.034	0.125
-495.581	-200.000	0.028	0.247
-494.566	222.250	-0.062	-0.099
-493.551	-200.000	-0.057	-0.458
-492.537	-81.694	0.285	-0.094
-491.522	37.434	0.179	0.158
-490.508	150.253	-0.045	-0.061
-489.493	31.893	0.313	0.270
-488.478	800.000	-0.030	0.117
-487.464	800.000	-0.054	0.182
-486.449	-200.000	0.005	-0.192
-485.435	-4.167	-0.143	0.099
-484.420	-100.810	-0.216	-0.053
-483.405	71.736	-0.270	-0.281
-482.391	-52.189	0.064	0.030
-481.376	800.000	-0.053	-0.211
-480.362	-99.968	-0.161	-0.040
-479.347	-152.482	-0.062	-0.004
-478.332	308.297	0.071	-0.133
-477.318	-15.981	0.241	-0.153
-476.303	337.045	-0.098	0.191
-475.289	-32.440	-0.123	0.069
-474.274	800.000	-0.036	0.116
-473.259	-200.000	-0.028	0.213
-472.245	800.000	-0.059	0.258
-471.230	-50.756	-0.215	-0.101
-470.216	-169.914	0.518	-0.019
-469.201	-137.880	-0.095	-0.011
-468.186	-140.417	0.204	-0.021
-467.172	-35.301	-0.500	0.271
-466.157	164.308	0.155	0.218
-465.143	-200.000	0.038	-0.301
-464.128	-200.000	0.018	-0.108
-463.113	-57.195	-0.409	-0.180
-462.099	131.954	0.057	-0.073
-461.084	-23.976	0.242	-0.145
-460.070	578.589	-0.047	-0.114
-459.055	-176.810	0.375	0.009
-458.040	800.000	-0.058	0.208
-457.026	206.968	0.210	-0.326
-456.011	380.064	-0.129	0.264
-454.997	131.858	0.031	0.039
-453.982	-200.000	0.098	0.428
-452.968	104.582	0.211	-0.248
-451.953	-128.613	-0.362	0.051
-450.938	170.140	-0.080	-0.114
-449.924	-185.002	0.337	-0.005
-448.909	40.347	0.263	-0.236
-447.895	18.595	-0.157	0.125
-446.880	59.619	0.176	-0.173
-445.865	-32.133	-0.071	0.040
-444.851	61.967	0.233	0.232
-443.836	-200.000	-0.007	-0.280
-442.822	-97.344	0.201	-0.052
-441.807	-141.712	0.279	0.028
-440.792	-101.304	-0.343	0.083
-439.778	-43.088	0.224	0.113
-438.763	800.000	0.174	-0.545
-437.749	-1.485	0.083	0.058
-436.734	-103.645	-0.137	-0.032
-435.719	35.656	-0.298	-0.261
-434.705	25.108	-0.356	0.295
-433.690	94.074	0.088	0.100
-432.676	-103.069	0.201	-0.048
-431.661	229.925	-0.102	-0.166
-430.646	113.810	0.100	0.121
-429.632	-74.494	0.087	-0.031
-428.617	-4.839	-0.172	-0.118
-427.603	351.923	-0.084	-0.165
-426.588	-200.000	0.019	0.138
-425.573	-200.000	-0.001	0.220
-424.559	-87.983	-0.549	0.164
-423.544	-200.000	0.030	0.383
-422.530	-187.824	0.309	-0.004
-421.515	-65.542	-0.091	0.036
-420.500	-72.691	0.097	-0.036
-419.486	778.812	-0.065	-0.176
-418.471	-200.000	0.001	-0.283
-417.457	523.417	0.122	-0.286
-416.442	6.460	-0.423	-0.313
-415.428	800.000	0.094	-0.272
-414.413	284.460	0.046	0.082
-413.398	122.046	-0.193	-0.241
-412.384	-200.000	-0.060	-0.477
-411.369	-200.000	-0.050	-0.333
-410.355	337.866	-0.034	-0.065
-409.340	-200.000	0.007	-0.211
-408.325	800.000	0.023	0.083
-407.311	-154.515	-0.162	0.011
-406.296	-28.165	-0.217	0.125
-405.282	800.000	-0.027	-0.083
-404.267	-200.000	-0.086	-0.427
-403.252	260.263	0.122	-0.210
-402.238	11.486	-0.143	0.109
-401.223	-48.986	0.316	0.151
-400.209	82.316	-0.142	-0.153
-399.194	40.943	-0.201	0.181
-398.179	72.348	-0.081	0.084
-397.165	95.423	0.123	-0.140
-396.150	-200.000	-0.001	-0.098
-395.136	87.526	0.130	-0.143
-394.121	-127.997	0.186	-0.027
-393.106	271.662	0.161	-0.282
-392.092	-109.143	0.032	0.007
-391.077	255.641	-0.216	-0.369
-390.063	384.341	0.141	-0.288
-389.048	492.197	0.024	0.055
-388.033	-126.902	-0.294	0.043
-387.019	245.032	0.147	0.246
-386.004	-10.974	0.156	0.102
-384.990	-82.535	0.288	-0.093
-383.975	-162.045	-0.249	0.012
-382.960	-106.035	0.133	0.030
-381.946	-189.258	0.329	-0.004
-380.931	139.209	0.106	-0.138
-379.917	45.621	-0.142	-0.131
-378.902	31.933	0.060	-0.051
-377.888	-200.000	0.002	-0.060
-376.873	62.635	0.074	-0.074
-375.858	113.763	0.176	-0.212
-374.844	-66.756	0.262	-0.103
-373.829	32.647	-0.071	0.061
-372.815	25.608	0.266	0.220
-371.800	-174.152	0.015	0.000
-370.785	-76.136	0.078	0.027
-369.771	184.290	0.168	0.248
-368.756	22.977	-0.107	-0.087
-367.742	-200.000	-0.006	0.307
-366.727	209.234	0.111	-0.173
-365.712	-200.000	0.007	-0.146
-364.698	-114.474	0.432	-0.083
-363.683	72.847	0.252	-0.262
-362.669	111.015	0.096	0.115
-361.654	-200.000	0.000	-0.020
-360.639	150.132	0.107	-0.144
-359.625	-163.736	0.016	-0.001
-358.610	75.399	-0.319	0.335
-357.596	319.098	-0.198	-0.372
-356.581	53.268	0.199	0.190
-355.566	-200.000	-0.008	0.521
-354.552	-26.147	0.235	0.137
-353.537	-194.946	-0.176	-0.001
-352.523	116.874	0.180	-0.220
-351.508	-21.775	0.359	-0.217
-350.493	-169.500	0.296	0.011
-349.479	-169.319	0.219	0.008
-348.464	146.749	-0.148	0.198
-347.450	100.925	-0.019	0.022
-346.435	-100.630	0.359	0.088
-345.420	307.421	0.102	0.189
-344.406	268.119	-0.112	-0.195
-343.391	-200.000	0.017	-0.091
-342.377	-93.806	0.411	0.112
-341.362	-144.600	-0.170	0.016
-340.348	-165.801	-0.168	0.007
-339.333	-200.000	0.020	0.138
-338.318	153.967	0.138	0.188
-337.304	356.584	0.026	0.052
-336.289	172.590	-0.172	0.246
-335.275	-102.883	0.118	0.028
-334.260	-138.852	-0.387	-0.042
-333.245	800.000	0.046	-0.151
-332.231	53.593	-0.119	-0.114
-331.216	-62.389	0.191	0.079
-330.202	-119.650	0.251	-0.043
-329.187	544.153	0.009	-0.021
-328.172	-93.716	-0.062	-0.017
-327.158	-7.110	0.193	0.130
-326.143	100.952	0.243	0.281
-325.129	-127.235	0.206	0.030
-324.114	-200.000	0.003	-0.050
-323.099	136.150	0.339	0.439
-322.085	39.867	0.259	-0.231
-321.070	22.021	0.195	-0.158
-320.056	98.284	0.084	-0.096
-319.041	35.413	-0.114	-0.100
-318.026	800.000	-0.002	-0.007
-317.012	-41.903	0.065	0.033
-315.997	-10.124	-0.163	0.107
-314.983	-114.546	0.286	-0.054
-313.968	-200.000	0.048	0.364
-312.953	748.984	0.110	-0.295
-311.939	-29.104	-0.334	0.190
-310.924	7.140	0.097	-0.072
-309.910	119.603	0.125	0.154
-308.895	-51.921	0.053	0.024
-307.880	-200.000	0.036	-0.157
-306.866	-142.963	0.037	-0.004
-305.851	28.469	0.075	-0.063
-304.837	-107.336	0.152	-0.033
-303.822	-152.556	0.183	-0.013
-302.807	481.930	0.009	0.020
-301.793	800.000	0.045	0.126
-300.778	-43.609	0.263	-0.131
-299.764	139.740	-0.068	0.089
-298.749	133.802	-0.103	-0.132
-297.735	354.079	0.164	0.323
-296.720	-190.444	-0.234	0.003
-295.705	584.409	0.058	-0.141
-294.691	97.420	0.081	-0.092
-293.676	142.132	0.022	-0.029
-292.662	-24.643	0.100	0.059
-291.647	-21.222	-0.122	-0.074
-290.632	0.582	0.114	0.081
-289.618	-129.160	0.201	-0.028
-288.603	-89.851	-0.412	0.119
-287.589	15.853	-0.159	-0.124
-286.574	-200.000	0.011	0.138
-285.559	548.407	0.175	0.416
-284.545	800.000	-0.018	0.058
-283.530	257.332	-0.184	0.313
-282.516	122.602	-0.169	-0.210
-281.501	-144.505	0.412	0.038
-280.486	-200.000	-0.028	-0.260
-279.472	4.083	0.308	-0.223
-278.457	150.370	0.006	0.008
-277.443	-64.547	-0.168	-0.068
-276.428	-200.000	-0.002	0.182
-275.413	-200.000	0.053	-0.343
-274.399	176.308	0.210	-0.302
-273.384	-137.329	0.276	-0.031
-272.370	-200.000	0.010	0.284
-271.355	285.055	-0.051	-0.090
-270.340	342.180	0.156	-0.303
-269.326	561.510	-0.119	-0.285
-268.311	20.331	-0.185	-0.148
-267.297	36.274	-0.116	-0.101
-266.282	-36.702	-0.162	0.086
-265.267	33.238	0.164	0.141
-264.253	152.790	-0.210	0.284
-263.238	800.000	0.012	-0.050
-262.224	270.058	-0.116	-0.202
-261.209	-44.209	-0.029	-0.015
-260.195	197.149	0.120	0.181
-259.180	-200.000	0.009	0.102
-258.165	-83.122	0.173	0.055
-257.151	18.113	-0.032	-0.025
-256.136	-200.000	-0.031	-0.195
-255.122	24.192	-0.080	-0.065
-254.107	239.277	0.092	-0.151
-253.092	74.510	-0.091	-0.095
-252.078	9.436	0.209	-0.157
-251.063	-200.000	0.009	-0.131
-250.049	-50.369	0.017	-0.008
-249.034	18.675	-0.293	0.232
-248.019	142.175	-0.125	-0.164
-247.005	-120.200	0.081	0.014
-245.990	-200.000	-0.031	0.153
-244.976	-62.003	-0.119	0.049
-243.961	114.976	0.103	-0.124
-242.946	114.882	-0.047	0.056
-241.932	-73.033	-0.349	-0.127
-240.917	800.000	0.053	-0.210
-239.903	-200.000	-0.024	0.184
-238.888	-3.528	-0.224	0.154
-237.873	-116.527	-0.238	0.043
-236.859	230.949	0.202	-0.327
-235.844	112.879	-0.032	-0.038
-234.830	-200.000	-0.012	-0.100
-233.815	229.540	-0.081	-0.132
-232.800	103.956	0.122	-0.141
-231.786	127.032	0.159	-0.200
-230.771	-200.000	-0.013	0.364
-229.757	-200.000	-0.058	0.386
-228.742	-200.000	-0.023	0.151
-227.727	-115.059	0.358	0.067
-226.713	-90.522	0.456	-0.131
-225.698	51.599	0.169	0.159
-224.684	-15.017	0.308	-0.195
-223.669	-200.000	0.007	0.050
-222.655	-175.434	-0.152	-0.004
-221.640	258.342	-0.171	-0.291
-220.625	-73.373	0.084	-0.030
-219.611	-200.000	-0.037	-0.253
-218.596	-141.269	-0.113	0.011
-217.582	23.210	-0.167	0.136
-216.567	411.705	0.105	0.220
-215.552	71.240	0.269	-0.276
-214.538	-200.000	-0.001	-0.189
-213.523	17.318	0.149	0.117
-212.509	12.800	-0.062	-0.047
-211.494	-112.533	0.415	-0.082
-210.479	75.077	0.154	0.160
-209.465	341.897	-0.055	-0.107
-208.450	152.163	0.131	0.177
-207.436	-200.000	-0.011	-0.212
-206.421	-200.000	-0.024	0.171
-205.406	-200.000	-0.020	0.305
-204.392	-43.074	-0.496	-0.249
-203.377	4.117	0.210	-0.152
-202.363	-148.102	0.068	-0.006
-201.348	-200.000	0.029	0.348
-200.333	176.078	0.085	0.122
-199.319	800.000	-0.076	0.220
-198.304	129.295	0.200	0.252
-197.290	214.652	-0.159	0.249
-196.275	64.800	-0.408	0.407
-195.260	-18.570	-0.254	-0.157
-194.246	800.000	0.038	-0.142
-193.231	-200.000	0.038	0.176
-192.217	549.015	-0.038	0.091
-191.202	-120.817	0.442	0.074
-190.187	198.528	0.176	-0.265
-189.173	-128.452	0.584	-0.082
-188.158	-90.368	0.150	-0.043
-187.144	-200.000	0.049	0.290
-186.129	-200.000	-0.031	-0.187
-185.114	16.596	-0.181	0.141
-184.100	-90.067	-0.108	-0.031
-183.085	-102.114	-0.191	-0.045
-182.071	89.334	0.297	-0.326
-181.056	24.272	-0.244	-0.199
-180.042	49.187	0.109	0.101
-179.027	-200.000	-0.030	0.345
-178.012	92.140	0.214	0.238
-176.998	-200.000	-0.031	-0.276
-175.983	99.713	-0.016	-0.018
-174.969	-50.964	0.297	0.138
-173.954	67.046	0.166	-0.167
-172.939	-83.294	0.240	-0.076
-171.925	18.191	-0.257	0.202
-170.910	-200.000	-0.025	0.196
-169.896	3.508	0.137	0.099
-168.881	338.025	0.082	0.158
-167.866	-40.833	-0.281	0.143
-166.852	800.000	0.031	-0.129
-165.837	-8.030	-0.028	0.018
-164.823	-56.996	-0.193	-0.084
-163.808	-200.000	0.049	0.244
-162.793	746.990	0.087	-0.230
-161.779	-200.000	-0.027	-0.120
-160.764	369.845	-0.079	0.157
-159.750	39.747	0.115	0.102
-158.735	800.000	0.011	-0.037
-157.720	41.994	0.058	0.052
-156.706	250.479	0.096	0.161
-155.691	-200.000	0.032	0.245
-154.677	43.958	-0.303	0.274
-153.662	109.718	-0.236	0.279
-152.647	800.000	0.054	0.175
-151.633	26.532	0.153	-0.126
-150.618	-71.692	-0.187	-0.069
-149.604	8.612	0.150	-0.111
-148.589	-23.661	-0.423	0.250
-147.574	-125.107	-0.097	0.015
-146.560	3.859	0.170	0.122
-145.545	35.764	-0.102	-0.089
-144.531	292.391	0.139	-0.249
-143.516	303.105	-0.115	0.209
-142.502	-176.819	-0.243	0.006
-141.487	-81.140	0.442	0.144
-140.472	-17.292	0.177	-0.110
-139.458	-24.595	0.097	0.057
-138.443	-99.429	0.193	0.048
-137.429	800.000	0.068	-0.193
-136.414	26.831	-0.181	-0.150
-135.399	356.058	-0.072	-0.142
-134.385	-49.911	-0.308	-0.144
-133.370	323.838	-0.090	-0.169
-132.356	-85.957	-0.140	0.043
-131.341	-35.392	-0.166	0.089
-130.326	-100.229	-0.383	-0.094
-129.312	-28.814	0.323	0.183
-128.297	800.000	-0.014	-0.045
-127.283	-1.295	0.175	0.122
-126.268	-200.000	0.037	0.330
-125.253	-192.165	-0.211	0.002
-124.239	-32.932	-0.321	-0.175
-123.224	800.000	0.037	-0.140
-122.210	-137.106	0.114	0.013
-121.195	-79.129	-0.203	-0.068
