DTS Sentinel unit serial number:	SN413079Multiplexer serial number:	ORYXHardware model number:	OX4-SRSoftware version number:	ORYX F/W v4.00 Oryx Data Collector v3.7.2.0data status	okinstallation	princeton_trtdifferential loss correction	single-endedforward channel	channel 1reverse channel	N/Adate	2019/09/14time	13:46:35forward acquisition time	60.00reverse acquisition time	0.00gamma	496.2192k internal	0.2295k external	0.2295temperature offset calibration	1.0083default loss term (dB/km)	0.3790temperature slope calibration	1.0000multiplexer offset coefficient	1.0000multiplexer slope coefficient	1.0000fibre end	0.00T internal ref (°C)	37.81T ext. ref 1 (°C)	4.94T ext. ref 2 (°C)	33.02length (m)	temperature (°C)	Stokes	anti-Stokes-747.200	59.739	-0.177	0.179
-746.185	52.595	0.107	0.105
-745.171	800.000	0.030	0.108
-744.156	-139.402	-0.264	0.029
-743.142	800.000	0.098	-0.318
-742.127	27.578	-0.116	-0.100
-741.112	800.000	-0.036	-0.106
-740.098	-200.000	-0.029	0.406
-739.083	-200.000	-0.024	-0.171
-738.069	114.194	0.138	0.171
-737.054	800.000	-0.046	-0.168
-736.039	-108.179	0.105	0.023
-735.025	-127.038	-0.205	-0.031
-734.010	566.606	-0.089	0.220
-732.996	21.837	-0.284	-0.236
-731.981	-200.000	0.005	0.116
-730.966	-25.316	0.221	0.134
-729.952	99.939	-0.135	-0.160
-728.937	-30.211	-0.101	-0.059
-727.923	249.487	-0.238	-0.412
-726.908	-56.484	-0.252	0.114
-725.894	-91.208	0.177	0.052
-724.879	-200.000	-0.008	-0.320
-723.864	800.000	-0.059	0.205
-722.850	60.917	0.191	-0.194
-721.835	-200.000	0.025	-0.114
-720.821	-200.000	-0.060	-0.290
-719.806	424.599	-0.133	-0.292
-718.791	-93.002	-0.317	0.090
-717.777	-200.000	0.231	0.001
-716.762	-11.688	0.145	-0.097
-715.748	-49.617	0.123	-0.060
-714.733	-72.981	-0.021	0.008
-713.718	-166.653	0.193	0.008
-712.704	139.439	0.097	0.130
-711.689	-76.908	0.151	-0.054
-710.675	259.709	0.036	0.064
-709.660	446.960	-0.071	0.159
-708.645	800.000	0.044	-0.149
-707.631	-96.334	0.207	-0.056
-706.616	800.000	-0.104	-0.377
-705.602	800.000	0.069	0.218
-704.587	-96.365	-0.187	0.051
-703.572	-152.439	-0.142	-0.010
-702.558	174.798	-0.128	-0.190
-701.543	4.329	0.057	-0.043
-700.529	-200.000	0.003	-0.138
-699.514	441.469	0.080	-0.178
-698.499	-46.368	0.047	0.023
-697.485	25.405	-0.314	0.266
-696.470	134.957	0.090	0.119
-695.456	-200.000	0.013	0.247
-694.441	172.341	-0.113	0.166
-693.426	-84.612	0.127	-0.041
-692.412	20.761	-0.085	-0.070
-691.397	-74.782	-0.120	-0.044
-690.383	-87.774	0.284	0.087
-689.368	-200.000	-0.021	-0.151
-688.354	121.304	0.143	-0.182
-687.339	-200.000	0.039	0.178
-686.324	-85.616	-0.408	-0.129
-685.310	-200.000	-0.002	-0.056
-684.295	148.832	-0.201	-0.278
-683.281	-200.000	0.014	-0.260
-682.266	-77.461	-0.184	-0.065
-681.251	208.809	-0.046	-0.074
-680.237	276.014	0.104	0.188
-679.222	800.000	-0.048	0.135
-678.208	-200.000	0.006	-0.029
-677.193	-102.627	-0.215	-0.052
-676.178	-73.772	0.229	-0.085
-675.164	-77.009	-0.316	-0.112
-674.149	-26.292	-0.090	0.054
-673.135	800.000	0.033	-0.144
-672.120	800.000	-0.031	0.139
-671.105	-200.000	-0.003	0.109
-670.091	-150.256	0.265	0.021
-669.076	-200.000	-0.052	-0.266
-668.062	-200.000	0.068	-0.356
-667.047	643.678	-0.065	-0.169
-666.032	54.377	-0.091	-0.090
-665.018	3.255	0.339	0.251
-664.003	-95.548	-0.110	0.030
-662.989	-27.738	-0.095	-0.056
-661.974	800.000	0.088	-0.281
-660.959	93.505	-0.022	0.026
-659.945	173.264	-0.258	0.379
-658.930	-15.357	-0.412	-0.268
-657.916	-103.242	-0.068	-0.016
-656.901	-200.000	0.033	0.207
-655.886	-45.293	-0.172	0.087
-654.872	800.000	-0.084	-0.255
-653.857	-54.423	-0.103	-0.047
-652.843	-177.095	0.251	-0.006
-651.828	-129.269	-0.249	-0.035
-650.814	-200.000	-0.075	0.515
-649.799	800.000	0.042	-0.127
-648.784	800.000	-0.049	-0.207
-647.770	800.000	0.066	0.223
-646.755	800.000	-0.026	-0.102
-645.741	276.894	0.155	-0.281
-644.726	-200.000	0.006	0.168
-643.711	132.643	-0.174	0.229
-642.697	-163.288	-0.201	0.010
-641.682	764.634	0.006	0.018
-640.668	-200.000	0.004	-0.090
-639.653	-116.474	-0.193	-0.036
-638.638	-56.983	0.173	-0.078
-637.624	-200.000	0.031	-0.153
-636.609	-163.858	0.331	-0.016
-635.595	-30.289	-0.117	-0.068
-634.580	-200.000	-0.026	-0.233
-633.565	-57.080	-0.057	0.026
-632.551	-76.410	-0.176	-0.063
-631.536	-200.000	-0.016	0.214
-630.522	-200.000	0.086	0.506
-629.507	800.000	-0.086	0.260
-628.492	14.657	0.098	0.078
-627.478	-200.000	-0.015	0.263
-626.463	-74.271	-0.224	0.082
-625.449	244.283	0.182	-0.311
-624.434	85.513	0.148	0.165
-623.419	260.956	0.109	0.192
-622.405	7.572	0.263	0.200
-621.390	-200.000	-0.070	0.374
-620.376	27.600	-0.144	-0.123
-619.361	-200.000	-0.045	0.208
-618.346	77.870	-0.069	0.075
-617.332	67.752	-0.246	-0.255
-616.317	-119.696	0.359	-0.063
-615.303	144.232	0.208	-0.283
-614.288	-25.404	0.311	-0.187
-613.273	14.645	-0.274	-0.218
-612.259	72.310	0.144	-0.153
-611.244	-200.000	0.044	-0.379
-610.230	410.762	-0.137	-0.296
-609.215	23.388	-0.328	0.274
-608.201	-78.252	0.211	0.074
-607.186	129.718	-0.167	-0.217
-606.171	618.516	-0.117	0.299
-605.157	-200.000	0.284	-0.001
-604.142	76.913	0.106	-0.115
-603.128	-120.985	-0.348	0.059
-602.113	242.749	-0.137	0.233
-601.098	-29.803	-0.312	-0.181
-600.084	-200.000	0.040	0.439
-599.069	800.000	0.098	-0.411
-598.055	526.803	-0.033	-0.080
-597.040	789.135	0.044	0.124
-596.025	155.854	0.136	-0.191
-595.011	-39.125	0.267	-0.143
-593.996	0.126	-0.199	0.144
-592.982	42.972	-0.155	-0.143
-591.967	-139.237	0.309	-0.034
-590.952	-200.000	-0.063	0.389
-589.938	337.564	-0.196	0.388
-588.923	-158.392	0.135	-0.008
-587.909	-18.881	0.036	-0.023
-586.894	315.906	0.106	0.203
-585.879	800.000	0.049	-0.194
-584.865	-56.028	-0.217	0.098
-583.850	14.248	-0.197	0.156
-582.836	800.000	-0.043	0.191
-581.821	-45.205	0.064	0.033
-580.806	338.562	-0.174	-0.344
-579.792	-66.834	-0.266	0.107
-578.777	-56.446	-0.221	0.100
-577.763	-137.270	-0.139	-0.016
-576.748	101.679	0.127	-0.150
-575.733	365.239	-0.118	0.241
-574.719	600.599	0.023	-0.058
-573.704	-16.309	-0.139	0.089
-572.690	-106.780	-0.436	0.098
-571.675	-65.155	0.171	0.070
-570.661	202.076	0.100	-0.157
-569.646	-200.000	0.016	0.235
-568.631	193.817	-0.219	0.336
-567.617	111.684	-0.120	0.147
-566.602	-200.000	0.019	-0.185
-565.588	-200.000	-0.015	-0.259
-564.573	-200.000	-0.023	-0.258
-563.558	144.680	0.128	-0.174
-562.544	-126.871	0.104	-0.016
-561.529	47.700	0.135	0.128
-560.515	-92.436	0.152	0.043
-559.500	-200.000	0.007	0.166
-558.485	19.408	-0.248	-0.203
-557.471	-200.000	0.010	0.137
-556.456	107.558	-0.075	-0.090
-555.442	-133.438	-0.492	0.063
-554.427	-23.657	0.083	-0.050
-553.412	-119.307	0.204	0.036
-552.398	-200.000	0.005	0.371
-551.383	82.525	0.251	-0.277
-550.369	-200.000	0.019	0.121
-549.354	15.529	-0.315	0.251
-548.339	166.725	-0.111	0.159
-547.325	95.005	0.061	-0.071
-546.310	134.423	-0.121	0.160
-545.296	-200.000	-0.017	-0.095
-544.281	60.798	0.111	0.111
-543.266	-47.339	0.320	-0.158
-542.252	-116.162	-0.266	0.050
-541.237	386.097	0.073	-0.153
-540.223	-200.000	-0.006	0.069
-539.208	-144.918	0.101	0.009
-538.193	589.830	-0.002	-0.005
-537.179	-34.991	-0.292	0.162
-536.164	-146.512	-0.231	0.020
-535.150	23.623	-0.096	0.080
-534.135	132.914	-0.167	-0.218
-533.121	-98.962	0.111	-0.029
-532.106	-200.000	0.038	0.324
-531.091	-43.322	0.250	0.128
-530.077	-114.514	0.184	0.036
-529.062	707.905	-0.067	0.178
-528.048	66.989	0.282	-0.292
-527.033	-44.912	-0.160	-0.081
-526.018	-94.599	-0.206	-0.057
-525.004	154.900	-0.171	-0.238
-523.989	-121.908	-0.251	-0.042
-522.975	-59.266	0.258	0.113
-521.960	32.755	-0.104	0.091
-520.945	-92.957	0.470	0.133
-519.931	131.976	-0.227	0.296
-518.916	145.040	0.171	0.231
-517.902	-184.701	0.205	-0.003
-516.887	-177.965	0.449	0.011
-515.872	-200.000	-0.005	-0.138
-514.858	-69.787	0.303	-0.117
-513.843	-52.672	0.138	-0.065
-512.829	132.144	-0.134	-0.175
-511.814	143.898	-0.132	-0.178
-510.799	-200.000	0.012	0.233
-509.785	185.272	0.227	-0.341
-508.770	0.314	-0.224	-0.162
-507.756	261.076	-0.033	0.057
-506.741	791.242	-0.048	-0.134
-505.726	800.000	-0.031	-0.093
-504.712	800.000	0.064	-0.266
-503.697	-16.996	0.148	-0.095
-502.683	78.507	-0.081	0.088
-501.668	199.195	-0.150	0.233
-500.653	29.309	0.254	0.218
-499.639	-169.694	0.440	0.016
-498.624	-60.449	0.119	0.051
-497.610	-200.000	-0.013	0.257
-496.595	142.428	0.028	0.038
-495.581	452.482	0.076	0.170
-494.566	-200.000	-0.014	-0.229
-493.551	61.194	0.272	-0.273
-492.537	349.853	-0.068	0.136
-491.522	-194.988	-0.260	0.002
-490.508	800.000	0.090	0.291
-489.493	239.460	0.101	0.170
-488.478	-130.580	-0.484	0.066
-487.464	800.000	0.078	-0.244
-486.449	-123.220	-0.168	0.027
-485.435	800.000	0.056	0.238
-484.420	-200.000	-0.002	-0.074
-483.405	376.976	-0.024	-0.050
-482.391	80.008	0.073	-0.079
-481.376	658.690	0.055	0.142
-480.362	36.651	-0.323	-0.288
-479.347	-41.303	-0.378	-0.197
-478.332	168.158	-0.283	0.407
-477.318	-121.904	-0.395	-0.066
-476.303	189.130	0.194	0.294
-475.289	196.592	0.222	0.342
-474.274	-128.188	0.318	0.046
-473.259	92.416	0.360	-0.410
-472.245	142.067	-0.102	-0.137
-471.230	-36.285	-0.226	0.123
-470.216	-200.000	-0.021	0.452
-469.201	78.729	0.277	-0.299
-468.186	25.959	-0.041	-0.034
-467.172	-118.750	0.332	0.059
-466.157	-145.944	-0.360	-0.032
-465.143	608.256	0.104	0.264
-464.128	-153.260	-0.242	0.017
-463.113	-83.705	-0.324	0.105
-462.099	-50.179	0.198	-0.095
-461.084	187.825	0.094	0.142
-460.070	-138.637	0.373	-0.041
-459.055	119.750	0.158	0.198
-458.040	737.110	0.059	-0.159
-457.026	737.857	-0.124	-0.336
-456.011	-89.385	0.342	0.102
-454.997	597.588	0.174	0.436
-453.982	97.280	0.197	-0.228
-452.968	120.394	0.189	0.237
-451.953	78.721	-0.235	-0.254
-450.938	-179.358	-0.257	0.006
-449.924	-65.668	-0.473	0.192
-448.909	334.589	-0.153	-0.299
-447.895	-23.333	-0.169	-0.103
-446.880	-79.829	0.257	0.087
-445.865	339.573	0.054	0.107
-444.851	-100.022	-0.083	0.021
-443.836	-55.365	0.059	0.027
-442.822	-8.040	0.148	0.101
-441.807	-77.216	-0.274	-0.096
-440.792	-200.000	0.006	0.180
-439.778	-96.047	-0.225	0.060
-438.763	210.453	0.125	0.198
-437.749	205.355	0.225	-0.352
-436.734	688.885	0.101	-0.267
-435.719	548.448	0.054	0.131
-434.705	94.948	-0.142	0.163
-433.690	96.144	0.063	0.072
-432.676	-15.320	0.154	0.099
-431.661	161.742	-0.080	0.113
-430.646	-200.000	-0.033	0.197
-429.632	-48.818	-0.071	0.034
-428.617	536.795	-0.099	0.238
-427.603	643.122	-0.024	0.062
-426.588	-200.000	0.037	0.248
-425.573	384.491	0.018	-0.038
-424.559	76.015	0.064	-0.068
-423.544	37.951	-0.107	-0.096
-422.530	-153.620	0.234	0.016
-421.515	-122.092	-0.196	-0.033
-420.500	40.228	-0.267	-0.242
-419.486	-158.230	0.416	0.025
-418.471	-120.714	-0.073	0.012
-417.457	142.446	-0.191	0.256
-416.442	-146.512	-0.320	0.028
-415.428	506.332	0.076	-0.177
-414.413	-42.134	-0.176	0.091
-413.398	-13.773	-0.172	-0.112
-412.384	-200.000	-0.032	-0.185
-411.369	53.226	0.174	-0.168
-410.355	800.000	0.055	-0.225
-409.340	800.000	0.035	-0.152
-408.325	-104.084	-0.291	0.068
-407.311	306.249	-0.110	-0.207
-406.296	127.191	0.037	0.048
-405.282	54.431	0.132	0.128
-404.267	599.342	0.049	0.123
-403.252	210.370	-0.168	0.266
-402.238	-113.716	0.227	0.045
-401.223	137.015	0.096	-0.126
-400.209	156.329	0.130	-0.181
-399.194	184.116	-0.130	-0.194
-398.179	112.710	-0.110	0.134
-397.165	800.000	-0.063	-0.233
-396.150	565.238	0.064	-0.156
-395.136	-131.487	0.266	0.035
-394.121	88.714	0.191	-0.214
-393.106	-3.738	0.228	0.159
-392.092	204.209	-0.228	0.357
-391.077	-200.000	-0.012	0.157
-390.063	51.705	0.126	0.121
-389.048	236.622	0.067	0.112
-388.033	454.652	-0.033	-0.074
-387.019	-53.898	-0.223	0.103
-386.004	-124.616	-0.279	0.044
-384.990	120.528	-0.130	0.163
-383.975	107.881	-0.187	0.224
-382.960	-184.738	-0.276	-0.004
-381.946	800.000	-0.049	-0.162
-380.931	800.000	0.038	-0.149
-379.917	701.538	-0.050	0.133
-378.902	800.000	-0.022	-0.089
-377.888	388.463	-0.083	-0.173
-376.873	-29.442	0.267	0.154
-375.858	-77.979	0.199	0.069
-374.844	-83.562	-0.230	-0.074
-373.829	-200.000	-0.011	0.125
-372.815	300.488	0.092	0.170
-371.800	504.394	-0.044	-0.103
-370.785	-41.267	0.069	0.036
-369.771	-200.000	-0.007	0.161
-368.756	79.856	-0.085	-0.092
-367.742	55.417	0.223	-0.218
-366.727	-96.106	0.097	0.026
-365.712	-200.000	-0.054	-0.272
-364.698	-12.268	-0.064	-0.042
-363.683	348.724	0.116	-0.230
-362.669	-182.744	0.220	0.004
-361.654	-200.000	-0.002	-0.271
-360.639	800.000	0.033	0.097
-359.625	51.856	0.042	-0.040
-358.610	-33.729	-0.463	-0.257
-357.596	-67.501	0.236	0.093
-356.581	103.395	-0.213	0.252
-355.566	-200.000	-0.010	0.100
-354.552	-200.000	-0.010	-0.117
-353.537	286.930	0.062	0.113
-352.523	26.024	-0.130	-0.109
-351.508	301.902	-0.057	-0.106
-350.493	292.957	0.044	-0.082
-349.479	494.894	0.113	-0.261
-348.464	36.869	-0.097	0.086
-347.450	-200.000	0.003	0.074
-346.435	214.495	-0.112	0.179
-345.420	361.153	-0.034	-0.069
-344.406	-200.000	-0.008	0.058
-343.391	35.033	0.114	0.100
-342.377	363.584	0.059	0.119
-341.362	158.756	0.150	-0.209
-340.348	484.703	-0.119	0.273
-339.333	42.930	0.296	0.272
-338.318	108.534	0.293	-0.352
-337.304	800.000	0.061	-0.202
-336.289	344.034	-0.044	0.086
-335.275	800.000	0.078	0.233
-334.260	128.761	0.118	0.151
-333.245	336.369	0.069	0.135
-332.231	-120.166	-0.238	0.041
-331.216	-200.000	-0.030	-0.350
-330.202	-18.161	0.168	0.106
-329.187	-72.298	0.210	0.078
-328.172	-119.717	-0.243	0.042
-327.158	47.443	-0.124	0.116
-326.143	29.723	-0.205	0.175
-325.129	291.827	-0.123	-0.225
-324.114	-20.161	0.166	-0.103
-323.099	-200.000	-0.015	-0.152
-322.085	-200.000	-0.042	-0.220
-321.070	800.000	0.051	-0.179
-320.056	76.916	0.180	-0.192
-319.041	124.893	-0.225	-0.285
-318.026	-167.704	0.384	0.015
-317.012	364.958	0.061	-0.124
-315.997	174.585	0.249	-0.361
-314.983	800.000	0.060	0.239
-313.968	11.584	0.043	0.033
-312.953	298.922	-0.075	-0.140
-311.939	263.921	0.063	0.110
-310.924	-20.258	0.130	0.080
-309.910	209.292	0.126	-0.199
-308.895	-88.827	-0.218	0.065
-307.880	-34.725	-0.330	0.182
-306.866	-55.282	-0.110	0.050
-305.851	-200.000	-0.056	0.297
-304.837	-166.499	0.320	-0.013
-303.822	-33.409	-0.260	0.145
-302.807	-132.077	0.296	0.039
-301.793	441.319	-0.040	-0.089
-300.778	47.020	-0.241	-0.226
-299.764	494.282	0.109	-0.252
-298.749	173.540	-0.143	-0.208
-297.735	-196.075	0.043	0.000
-296.720	-200.000	0.035	0.250
-295.705	197.619	0.011	0.017
-294.691	716.737	0.153	-0.409
-293.676	-200.000	-0.029	0.221
-292.662	145.682	-0.095	-0.128
-291.647	162.695	-0.173	-0.243
-290.632	800.000	0.083	0.255
-289.618	438.178	-0.086	-0.188
-288.603	-200.000	-0.012	-0.107
-287.589	124.432	0.137	0.173
-286.574	-52.659	0.177	0.082
-285.559	176.700	-0.181	-0.264
-284.545	-67.569	0.102	0.040
-283.530	8.910	0.113	-0.086
-282.516	76.734	-0.033	-0.036
-281.501	800.000	-0.033	-0.118
-280.486	800.000	-0.114	0.330
-279.472	-30.849	-0.078	0.044
-278.457	234.284	0.110	0.183
-277.443	90.184	0.156	-0.176
-276.428	-166.273	0.279	0.012
-275.413	36.826	-0.285	-0.253
-274.399	-144.982	0.296	0.027
-273.384	-200.000	-0.012	0.204
-272.370	160.507	0.043	-0.060
-271.355	-126.522	0.155	-0.023
-270.340	372.710	0.061	0.124
-269.326	-115.600	0.197	-0.037
-268.311	-111.669	0.182	0.037
-267.297	-76.005	0.108	-0.038
-266.282	-154.175	0.163	0.011
-265.267	469.224	0.147	-0.332
-264.253	800.000	-0.086	-0.359
-263.238	-150.147	-0.030	-0.002
-262.224	333.402	-0.195	0.378
-261.209	48.541	0.044	0.042
-260.195	534.218	0.050	-0.120
-259.180	-49.894	-0.190	-0.090
-258.165	287.991	-0.052	0.095
-257.151	-200.000	-0.033	-0.148
-256.136	183.321	-0.059	-0.088
-255.122	252.326	-0.092	0.157
-254.107	-120.466	0.176	-0.030
-253.092	-84.801	0.079	0.025
-252.078	453.605	0.098	-0.217
-251.063	13.152	-0.045	-0.035
-250.049	-59.861	0.313	0.134
-249.034	18.496	0.266	0.213
-248.019	-41.737	0.192	0.099
-247.005	173.729	0.216	-0.312
-245.990	-29.127	0.090	0.052
-244.976	378.581	-0.112	-0.230
-243.961	-181.600	-0.241	0.005
-242.946	288.458	0.032	-0.059
-241.932	-70.439	-0.224	0.085
-240.917	-200.000	0.006	-0.407
-239.903	-200.000	-0.020	0.242
-238.888	-27.016	-0.169	0.099
-237.873	-200.000	-0.058	-0.400
-236.859	-200.000	0.011	0.142
-235.844	435.099	0.035	-0.076
-234.830	45.580	0.070	0.065
-233.815	4.904	0.111	0.082
-232.800	-117.428	0.079	0.014
-231.786	-200.000	-0.024	0.236
-230.771	165.149	-0.047	0.067
-229.757	518.856	0.130	0.304
-228.742	269.921	0.047	0.082
-227.727	-43.962	-0.164	-0.082
-226.713	-119.126	-0.192	0.034
-225.698	-22.827	-0.130	0.079
-224.684	-26.684	-0.116	0.068
-223.669	761.065	-0.067	0.182
-222.655	-82.925	-0.327	0.106
-221.640	15.036	0.185	-0.145
-220.625	112.529	-0.136	-0.165
-219.611	136.218	0.068	-0.088
-218.596	-77.343	-0.450	0.157
-217.582	114.324	-0.223	-0.272
-216.567	-128.711	0.484	0.068
-215.552	15.935	0.246	-0.194
-214.538	-57.664	0.104	-0.046
-213.523	106.842	0.094	0.112
-212.509	-36.742	-0.185	-0.099
-211.494	-85.477	0.386	-0.120
-210.479	251.004	0.137	0.233
-209.465	284.142	-0.131	-0.236
-208.450	-168.069	-0.156	0.006
-207.436	-200.000	0.015	0.255
-206.421	-134.079	0.490	-0.061
-205.406	27.635	0.235	-0.198
-204.392	-200.000	-0.014	0.096
-203.377	-42.580	-0.405	0.206
-202.363	-40.253	-0.382	0.199
-201.348	373.912	0.069	-0.140
-200.333	800.000	-0.054	-0.152
-199.319	800.000	-0.031	0.106
-198.304	-200.000	-0.024	-0.143
-197.290	142.455	0.108	0.144
-196.275	800.000	0.019	0.054
-195.260	-200.000	0.037	-0.476
-194.246	-122.879	0.194	0.031
-193.231	-54.227	-0.135	-0.061
-192.217	-88.113	0.153	-0.046
-191.202	350.666	0.070	-0.138
-190.187	46.793	-0.335	-0.312
-189.173	23.205	0.250	-0.206
-188.158	-136.897	-0.228	-0.026
-187.144	201.381	-0.070	0.107
-186.129	-139.052	0.315	-0.034
-185.114	234.029	0.218	0.360
-184.100	381.067	-0.107	-0.220
-183.085	-200.000	-0.047	-0.254
-182.071	-19.925	0.234	-0.144
-181.056	110.885	0.032	-0.038
-180.042	130.567	0.064	0.082
-179.027	361.190	0.041	0.082
-178.012	-200.000	-0.220	0.001
-176.998	-60.820	0.030	-0.013
-175.983	-129.259	0.253	0.035
-174.969	800.000	-0.084	0.317
-173.954	474.111	0.065	-0.147
-172.939	800.000	-0.108	-0.414
-171.925	-31.047	-0.159	0.090
-170.910	74.296	-0.100	-0.105
-169.896	800.000	0.043	-0.163
-168.881	-118.226	-0.395	-0.070
-167.866	-126.219	0.110	-0.016
-166.852	-200.000	-0.016	-0.081
-165.837	-15.776	0.255	-0.162
-164.823	181.511	-0.171	0.251
-163.808	-77.286	0.146	0.051
-162.793	-200.000	0.019	-0.097
-161.779	215.146	-0.146	-0.231
-160.764	688.986	-0.135	0.354
-159.750	132.074	-0.132	0.169
-158.735	101.194	-0.104	0.121
-157.720	800.000	-0.061	-0.183
-156.706	-200.000	-0.003	-0.271
-155.691	104.541	-0.145	-0.171
-154.677	-121.374	-0.262	-0.044
-153.662	215.388	-0.144	0.228
-152.647	-200.000	-0.034	0.247
-151.633	198.113	0.126	0.193
-150.618	-52.816	0.332	0.153
-149.604	-155.601	0.303	0.019
-148.589	431.912	-0.057	0.123
-147.574	-200.000	-0.036	0.257
-146.560	-88.350	-0.165	0.049
-145.545	-200.000	-0.033	0.181
-144.531	-56.908	0.260	0.114
-143.516	338.423	-0.092	0.180
-142.502	-3.703	-0.033	0.023
-141.487	468.618	-0.114	-0.255
-140.472	125.069	-0.155	-0.195
-139.458	-4.765	-0.239	-0.164
-138.443	-158.009	-0.042	-0.002
-137.429	-200.000	0.002	0.030
-136.414	-200.000	-0.018	-0.080
-135.399	101.037	0.143	0.166
-134.385	3.873	0.234	-0.170
-133.370	-85.643	-0.152	-0.047
-132.356	80.813	0.331	0.356
-131.341	-115.327	-0.177	-0.033
-130.326	-60.631	-0.137	0.058
-129.312	-200.000	-0.000	0.345
-128.297	2.109	0.206	0.148
-127.283	-44.009	0.145	-0.073
-126.268	53.743	-0.136	0.130
-125.253	-200.000	-0.015	0.200
-124.239	116.153	-0.198	-0.242
-123.224	-200.000	-0.066	-0.361
-122.210	114.007	0.178	-0.216
-121.195	-200.000	0.022	0.270
