DTS Sentinel unit serial number:	SN413079Multiplexer serial number:	ORYXHardware model number:	OX4-SRSoftware version number:	ORYX F/W v4.00 Oryx Data Collector v3.7.2.0data status	okinstallation	princeton_trtdifferential loss correction	single-endedforward channel	channel 1reverse channel	N/Adate	2019/09/11time	13:04:11forward acquisition time	60.00reverse acquisition time	0.00gamma	496.2192k internal	0.2295k external	0.2295temperature offset calibration	0.9948default loss term (dB/km)	0.3790temperature slope calibration	1.0000multiplexer offset coefficient	1.0000multiplexer slope coefficient	1.0000fibre end	0.00T internal ref (°C)	41.69T ext. ref 1 (°C)	0.23T ext. ref 2 (°C)	38.94length (m)	temperature (°C)	Stokes	anti-Stokes-747.200	408.773	-0.150	-0.324
-746.185	-157.742	-0.371	-0.023
-745.171	-30.693	-0.122	0.070
-744.156	-52.288	-0.089	0.042
-743.142	-65.271	0.208	-0.086
-742.127	-71.238	-0.190	0.073
-741.112	-19.154	-0.128	0.081
-740.098	363.558	0.176	0.361
-739.083	-0.613	0.323	0.234
-738.069	529.495	-0.093	0.225
-737.054	88.325	-0.067	-0.076
-736.039	-8.791	-0.193	-0.132
-735.025	10.962	0.225	0.176
-734.010	-29.622	-0.101	-0.059
-732.996	143.341	-0.077	-0.105
-731.981	-200.000	-0.005	-0.063
-730.966	-115.097	-0.250	0.049
-729.952	237.407	0.027	-0.046
-728.937	-157.911	-0.160	0.010
-727.923	98.541	-0.073	-0.086
-726.908	-200.000	0.005	0.085
-725.894	207.769	-0.025	0.040
-724.879	-134.499	-0.092	-0.012
-723.864	-55.838	-0.133	0.061
-722.850	298.694	-0.301	0.565
-721.835	-42.746	0.231	-0.120
-720.821	-146.932	0.110	0.010
-719.806	-200.000	0.036	0.236
-718.791	800.000	-0.064	-0.201
-717.777	-124.743	0.091	-0.014
-716.762	-86.341	0.360	-0.113
-715.748	767.972	-0.141	-0.392
-714.733	-33.726	-0.171	-0.096
-713.718	-85.506	-0.102	0.033
-712.704	-47.023	-0.088	0.044
-711.689	-93.820	0.146	0.041
-710.675	-180.205	0.272	0.006
-709.660	-154.215	0.201	0.014
-708.645	-116.475	0.269	0.051
-707.631	-119.385	0.137	-0.024
-706.616	64.247	0.203	-0.209
-705.602	115.832	0.138	-0.172
-704.587	70.728	-0.241	0.254
-703.572	436.268	-0.054	-0.119
-702.558	46.202	0.049	-0.046
-701.543	-200.000	-0.015	0.191
-700.529	44.662	0.193	0.181
-699.514	625.550	0.060	-0.156
-698.499	-200.000	0.013	0.082
-697.485	329.742	0.035	-0.068
-696.470	-180.881	0.132	0.003
-695.456	467.224	0.071	-0.162
-694.441	-119.037	0.159	-0.028
-693.426	-61.642	-0.183	0.078
-692.412	-109.413	-0.063	-0.014
-691.397	-136.740	-0.328	-0.039
-690.383	-200.000	0.261	0.001
-689.368	800.000	0.072	0.243
-688.354	800.000	-0.037	0.163
-687.339	618.406	0.189	-0.483
-686.324	-97.238	0.098	-0.026
-685.310	-200.000	0.036	-0.317
-684.295	319.341	-0.107	-0.206
-683.281	243.950	0.134	-0.229
-682.266	-104.546	-0.036	-0.008
-681.251	211.451	0.127	0.204
-680.237	6.730	-0.192	0.146
-679.222	-13.935	0.101	0.066
-678.208	-200.000	0.004	0.208
-677.193	5.636	0.182	-0.137
-676.178	-94.573	-0.198	-0.055
-675.164	561.074	-0.112	-0.277
-674.149	144.042	0.185	-0.252
-673.135	800.000	-0.039	-0.128
-672.120	-20.405	-0.024	-0.015
-671.105	51.474	0.134	0.130
-670.091	800.000	-0.156	0.490
-669.076	-85.815	-0.074	0.023
-668.062	-200.000	-0.067	-0.379
-667.047	60.665	0.196	-0.198
-666.032	-200.000	-0.013	-0.124
-665.018	-200.000	0.019	-0.150
-664.003	17.787	0.121	-0.098
-662.989	-74.980	-0.263	-0.096
-661.974	611.547	0.139	0.355
-660.959	-200.000	-0.008	0.391
-659.945	210.598	0.127	0.204
-658.930	307.703	0.224	-0.425
-657.916	-200.000	-0.019	-0.250
-656.901	61.854	-0.180	-0.183
-655.886	-115.197	0.144	-0.028
-654.872	-56.970	0.254	0.114
-653.857	-137.035	-0.237	-0.028
-652.843	-18.006	-0.391	0.250
-651.828	-11.561	-0.151	0.101
-650.814	564.625	0.171	0.422
-649.799	155.621	-0.109	-0.153
-648.784	-57.289	-0.309	-0.138
-647.770	-200.000	0.082	0.395
-646.755	200.688	0.039	0.061
-645.741	-174.715	-0.079	0.002
-644.726	521.592	-0.071	-0.170
-643.711	-63.388	0.102	-0.043
-642.697	343.528	-0.048	0.095
-641.682	-21.741	0.214	-0.132
-640.668	50.232	-0.111	-0.107
-639.653	-200.000	0.036	-0.258
-638.638	-200.000	-0.006	-0.047
-637.624	69.938	0.070	0.074
-636.609	-200.000	0.008	-0.058
-635.595	228.370	0.070	0.116
-634.580	-138.630	0.163	0.018
-633.565	3.492	0.190	0.141
-632.551	-84.051	-0.070	-0.023
-631.536	-47.272	-0.126	-0.062
-630.522	-200.000	0.024	0.319
-629.507	-87.560	0.217	-0.067
-628.492	165.153	0.204	0.293
-627.478	-9.561	0.225	0.153
-626.463	-46.401	0.334	0.167
-625.449	-101.206	-0.095	0.024
-624.434	-200.000	-0.040	0.218
-623.419	59.000	0.015	-0.015
-622.405	734.523	-0.091	0.247
-621.390	-40.982	-0.205	-0.108
-620.376	-3.711	-0.225	-0.159
-619.361	-195.341	0.169	-0.001
-618.346	501.574	-0.055	0.128
-617.332	371.367	-0.144	0.298
-616.317	205.709	0.158	-0.250
-615.303	265.264	0.095	-0.168
-614.288	130.699	0.109	-0.143
-613.273	-117.055	0.282	0.052
-612.259	-89.948	0.410	0.122
-611.244	-200.000	0.008	-0.086
-610.230	-200.000	-0.049	-0.298
-609.215	80.222	0.087	-0.095
-608.201	-47.447	0.089	0.044
-607.186	-200.000	-0.020	-0.181
-606.171	-143.470	0.224	0.022
-605.157	-200.000	0.026	0.226
-604.142	-62.474	-0.242	-0.102
-603.128	95.926	0.077	0.089
-602.113	800.000	-0.073	-0.212
-601.098	14.177	0.185	-0.146
-600.084	249.434	0.068	-0.117
-599.069	794.910	-0.147	-0.413
-598.055	-118.083	-0.338	-0.061
-597.040	-58.321	-0.092	0.041
-596.025	800.000	-0.026	0.107
-595.011	-85.863	0.082	-0.026
-593.996	-159.661	0.201	-0.011
-592.982	336.185	-0.045	-0.088
-591.967	701.422	-0.151	0.404
-590.952	520.115	-0.034	-0.081
-589.938	35.032	-0.103	-0.092
-588.923	-75.566	0.160	0.058
-587.909	286.153	-0.055	-0.101
-586.894	106.453	-0.171	0.206
-585.879	-200.000	0.053	-0.430
-584.865	-123.308	0.333	-0.054
-583.850	-190.084	-0.192	0.002
-582.836	-200.000	0.042	0.213
-581.821	-88.112	0.245	-0.075
-580.806	-47.590	0.288	-0.142
-579.792	800.000	-0.035	0.130
-578.777	631.628	-0.045	-0.116
-577.763	-199.441	-0.233	-0.001
-576.748	-34.720	-0.162	0.090
-575.733	800.000	0.076	-0.324
-574.719	119.694	0.247	-0.311
-573.704	-71.707	0.257	0.097
-572.690	-200.000	-0.025	0.242
-571.675	185.865	-0.113	-0.171
-570.661	497.972	0.139	-0.325
-569.646	-137.650	-0.189	0.022
-568.631	762.595	0.070	0.193
-567.617	-200.000	0.019	-0.169
-566.602	-82.862	-0.375	0.123
-565.588	190.116	-0.048	-0.073
-564.573	-200.000	0.005	0.148
-563.558	800.000	-0.076	0.227
-562.544	361.013	-0.007	-0.015
-561.529	-92.374	-0.348	-0.100
-560.515	-167.691	-0.042	0.002
-559.500	800.000	-0.079	0.293
-558.485	105.636	0.079	-0.095
-557.471	-31.879	-0.081	0.046
-556.456	-200.000	0.033	0.290
-555.442	150.801	0.073	0.101
-554.427	36.478	-0.105	0.094
-553.412	375.818	-0.143	0.297
-552.398	-100.423	-0.401	0.101
-551.383	247.040	0.253	0.433
-550.369	62.871	-0.115	0.117
-549.354	745.386	0.079	0.216
-548.339	800.000	-0.077	-0.284
-547.325	-200.000	0.026	0.140
-546.310	-86.972	-0.287	-0.089
-545.296	-57.901	-0.274	0.122
-544.281	800.000	-0.075	-0.248
-543.266	-200.000	0.014	-0.251
-542.252	-200.000	0.041	0.257
-541.237	-11.509	-0.125	0.084
-540.223	282.393	-0.037	-0.068
-539.208	30.978	0.099	0.086
-538.193	-8.126	-0.247	0.169
-537.179	-200.000	0.030	0.140
-536.164	-90.980	0.099	-0.029
-535.150	84.583	0.008	0.009
-534.135	554.354	0.103	-0.252
-533.121	13.556	-0.040	-0.032
-532.106	-78.878	0.185	-0.064
-531.091	800.000	0.047	0.134
-530.077	800.000	-0.088	0.308
-529.062	71.105	0.181	-0.191
-528.048	-37.024	-0.122	-0.066
-527.033	-200.000	-0.009	0.097
-526.018	-190.426	-0.183	-0.002
-525.004	-17.334	0.180	0.115
-523.989	-192.411	-0.146	0.001
-522.975	126.395	0.140	0.180
-521.960	629.863	-0.085	-0.218
-520.945	800.000	-0.081	-0.294
-519.931	45.038	-0.295	0.275
-518.916	760.082	0.060	0.166
-517.902	39.215	-0.226	-0.205
-516.887	100.961	-0.132	-0.156
-515.872	419.702	0.118	0.257
-514.858	-34.479	-0.225	-0.125
-513.843	-103.373	-0.082	-0.020
-512.829	14.765	0.198	-0.157
-511.814	77.845	0.165	0.178
-510.799	800.000	-0.029	-0.097
-509.785	-200.000	-0.011	-0.069
-508.770	-49.478	-0.089	0.043
-507.756	375.382	0.124	-0.256
-506.741	-200.000	0.009	-0.266
-505.726	-51.383	-0.189	-0.089
-504.712	-63.781	-0.170	0.071
-503.697	-200.000	-0.060	-0.336
-502.683	-200.000	0.052	0.265
-501.668	-95.904	-0.381	-0.103
-500.653	368.593	-0.008	0.016
-499.639	-200.000	-0.019	-0.088
-498.624	108.734	-0.125	0.152
-497.610	800.000	0.020	-0.080
-496.595	-134.175	-0.321	0.040
-495.581	6.567	0.166	-0.125
-494.566	-42.287	-0.236	0.122
-493.551	-125.771	0.046	0.007
-492.537	-7.560	0.240	0.164
-491.522	296.156	0.019	-0.035
-490.508	-29.930	-0.159	-0.092
-489.493	-104.641	-0.394	-0.092
-488.478	85.981	-0.033	-0.037
-487.464	-200.000	-0.014	-0.127
-486.449	-186.485	0.048	0.001
-485.435	-1.577	0.240	-0.171
-484.420	113.800	-0.153	0.188
-483.405	427.842	-0.092	0.201
-482.391	-94.524	-0.427	-0.118
-481.376	-80.987	0.146	0.049
-480.362	45.824	0.043	-0.040
-479.347	246.473	-0.165	0.281
-478.332	800.000	-0.042	0.167
-477.318	-1.366	0.200	0.143
-476.303	-24.536	0.442	-0.266
-475.289	252.730	0.118	0.204
-474.274	-5.956	0.222	-0.154
-473.259	800.000	0.025	-0.106
-472.245	-96.231	0.094	-0.025
-471.230	-118.601	0.132	-0.024
-470.216	51.758	0.140	-0.135
-469.201	-68.075	-0.282	0.111
-468.186	68.007	-0.326	0.337
-467.172	559.045	0.061	-0.149
-466.157	-117.515	-0.077	0.014
-465.143	320.165	0.049	-0.094
-464.128	-66.774	0.112	-0.045
-463.113	-82.939	0.178	-0.058
-462.099	-77.599	-0.105	0.037
-461.084	534.427	-0.082	-0.196
-460.070	25.376	0.204	-0.172
-459.055	216.069	-0.195	-0.314
-458.040	-200.000	0.019	-0.121
-457.026	-56.624	0.093	0.042
-456.011	682.517	0.144	-0.379
-454.997	-198.542	-0.113	0.001
-453.982	-200.000	-0.168	-0.000
-452.968	-57.249	0.221	-0.098
-451.953	393.773	0.069	-0.144
-450.938	-0.952	0.186	0.133
-449.924	800.000	0.059	0.170
-448.909	173.456	-0.052	0.076
-447.895	-26.348	-0.193	0.115
-446.880	152.317	0.193	0.266
-445.865	-170.611	0.134	0.005
-444.851	-118.562	-0.254	0.045
-443.836	-200.000	0.055	-0.391
-442.822	-19.494	0.162	-0.101
-441.807	516.913	-0.125	-0.296
-440.792	-30.558	-0.175	0.100
-439.778	-40.123	0.215	0.113
-438.763	-200.000	-0.045	0.286
-437.749	-23.866	-0.271	0.164
-436.734	120.360	0.050	0.063
-435.719	178.931	0.116	-0.171
-434.705	30.756	0.090	-0.078
-433.690	336.708	0.041	-0.080
-432.676	-58.207	-0.227	0.100
-431.661	-14.633	-0.102	-0.066
-430.646	-77.324	-0.424	-0.149
-429.632	-79.308	0.293	0.100
-428.617	307.909	0.108	0.203
-427.603	292.954	-0.076	0.140
-426.588	233.557	0.118	-0.196
-425.573	-162.906	-0.292	0.014
-424.559	-45.142	-0.182	-0.091
-423.544	-77.690	-0.339	0.119
-422.530	-95.173	0.233	0.064
-421.515	-63.309	0.230	-0.096
-420.500	43.104	-0.203	-0.187
-419.486	306.718	0.114	-0.215
-418.471	-60.205	0.241	0.104
-417.457	-63.569	-0.138	0.057
-416.442	-4.255	-0.074	-0.052
-415.428	-200.000	0.001	-0.271
-414.413	800.000	-0.096	-0.283
-413.398	-48.152	-0.033	0.016
-412.384	-15.639	0.274	0.177
-411.369	70.843	-0.182	-0.190
-410.355	1.529	-0.329	-0.239
-409.340	800.000	0.039	0.149
-408.325	-80.912	-0.220	0.074
-407.311	-200.000	-0.011	0.134
-406.296	648.155	-0.163	0.420
-405.282	-200.000	-0.074	0.381
-404.267	-200.000	-0.079	-0.365
-403.252	-200.000	0.021	-0.357
-402.238	-6.233	-0.067	-0.046
-401.223	-200.000	0.011	0.212
-400.209	-200.000	-0.012	0.116
-399.194	274.972	0.126	0.225
-398.179	86.406	-0.117	0.130
-397.165	-148.666	0.176	-0.014
-396.150	604.759	0.120	0.301
-395.136	-128.541	-0.487	-0.070
-394.121	101.226	-0.133	-0.156
-393.106	444.870	-0.106	0.236
-392.092	90.385	0.169	-0.190
-391.077	34.148	-0.273	-0.240
-390.063	-111.880	0.070	-0.014
-389.048	77.066	0.149	0.160
-388.033	-200.000	0.016	0.133
-387.019	-0.945	0.252	-0.180
-386.004	161.211	0.026	-0.037
-384.990	41.838	0.132	-0.121
-383.975	377.606	-0.072	0.149
-382.960	-200.000	0.007	0.047
-381.946	-146.745	-0.163	-0.014
-380.931	287.922	0.145	0.264
-379.917	184.424	0.150	0.224
-378.902	151.074	0.075	-0.103
-377.888	-42.857	-0.061	-0.031
-376.873	-200.000	0.022	0.153
-375.858	47.127	0.214	-0.201
-374.844	409.039	-0.052	-0.112
-373.829	800.000	-0.053	-0.188
-372.815	-27.701	0.216	-0.126
-371.800	336.924	-0.075	0.147
-370.785	-8.639	0.260	-0.176
-369.771	89.094	0.182	-0.205
-368.756	36.569	0.188	-0.168
-367.742	25.531	0.179	-0.150
-366.727	-2.350	-0.157	0.111
-365.712	84.809	0.066	0.072
-364.698	33.259	0.077	0.067
-363.683	62.440	0.362	0.364
-362.669	-200.000	0.030	0.217
-361.654	617.870	0.062	0.157
-360.639	800.000	0.047	0.141
-359.625	-123.628	0.212	0.034
-358.610	800.000	-0.030	-0.133
-357.596	-79.693	-0.061	-0.021
-356.581	-200.000	0.003	0.104
-355.566	-92.812	0.236	-0.066
-354.552	-102.408	0.168	-0.041
-353.537	41.210	0.116	0.105
-352.523	402.044	0.051	-0.107
-351.508	257.482	0.203	0.351
-350.493	30.968	0.288	0.248
-349.479	-87.972	-0.159	0.048
-348.464	-159.719	-0.100	-0.006
-347.450	507.710	0.117	-0.273
-346.435	-120.693	0.049	-0.008
-345.420	-200.000	-0.086	0.384
-344.406	706.443	0.074	0.196
-343.391	123.455	0.042	0.053
-342.377	91.806	-0.123	0.139
-341.362	-79.435	-0.066	-0.023
-340.348	-136.232	-0.137	0.016
-339.333	143.644	0.227	-0.304
-338.318	-200.000	-0.035	-0.193
-337.304	-126.399	-0.060	-0.009
-336.289	200.159	0.153	-0.237
-335.275	-19.830	-0.176	-0.109
-334.260	3.515	0.149	-0.109
-333.245	-200.000	-0.084	-0.670
-332.231	86.931	0.237	0.263
-331.216	800.000	-0.106	0.398
-330.202	-43.430	-0.074	0.038
-329.187	-118.028	0.270	-0.049
-328.172	160.303	-0.157	0.220
-327.158	326.300	0.041	-0.079
-326.143	72.472	0.047	-0.049
-325.129	800.000	-0.094	0.283
-324.114	297.439	0.085	-0.157
-323.099	2.362	-0.205	0.149
-322.085	-115.063	0.251	0.048
-321.070	273.550	0.200	-0.355
-320.056	199.788	-0.028	-0.044
-319.041	405.306	-0.216	0.458
-318.026	-12.530	-0.144	0.094
-317.012	18.179	0.091	0.073
-315.997	800.000	-0.101	0.305
-314.983	-137.247	-0.088	-0.010
-313.968	-70.541	0.179	-0.068
-312.953	-92.193	-0.293	-0.083
-311.939	298.956	-0.154	-0.285
-310.924	23.409	-0.052	-0.043
-309.910	-200.000	0.009	0.251
-308.895	148.378	-0.328	-0.446
-307.880	-200.000	0.016	0.300
-306.866	-109.915	-0.265	0.056
-305.851	-200.000	-0.004	0.080
-304.837	-200.000	-0.015	0.186
-303.822	239.077	0.055	-0.092
-302.807	-200.000	0.063	-0.312
-301.793	-32.949	-0.146	0.082
-300.778	457.083	-0.158	-0.352
-299.764	148.937	-0.050	0.068
-298.749	-148.069	0.187	0.016
-297.735	255.752	0.165	-0.284
-296.720	-200.000	-0.059	-0.265
-295.705	-151.647	0.203	-0.015
-294.691	-132.464	-0.041	-0.005
-293.676	800.000	0.115	-0.329
-292.662	800.000	0.044	-0.138
-291.647	8.093	0.027	0.020
-290.632	23.033	0.056	-0.046
-289.618	279.995	0.070	-0.125
-288.603	-35.768	0.121	0.066
-287.589	104.797	0.019	0.023
-286.574	-36.921	0.320	0.172
-285.559	470.755	-0.123	0.277
-284.545	-5.247	-0.153	-0.105
-283.530	-200.000	-0.045	-0.277
-282.516	121.531	-0.138	0.173
-281.501	128.319	-0.110	-0.141
-280.486	145.286	0.136	0.182
-279.472	-200.000	0.031	0.154
-278.457	511.174	0.047	-0.111
-277.443	-130.449	0.292	0.040
-276.428	-142.246	-0.169	0.017
-275.413	276.185	0.222	0.396
-274.399	380.490	0.186	-0.383
-273.384	-121.535	0.365	0.061
-272.370	-16.687	0.095	-0.060
-271.355	-49.316	0.281	-0.135
-270.340	175.761	-0.083	-0.120
-269.326	-134.211	0.153	-0.019
-268.311	-129.278	0.109	-0.015
-267.297	-63.886	-0.306	-0.126
-266.282	483.508	0.035	0.081
-265.267	800.000	0.029	-0.096
-264.253	490.540	-0.087	-0.200
-263.238	78.464	-0.034	0.037
-262.224	-33.359	0.151	0.084
-261.209	-200.000	-0.028	0.163
-260.195	-200.000	0.041	-0.311
-259.180	-84.803	0.198	-0.062
-258.165	26.028	0.031	0.026
-257.151	-46.128	0.176	-0.087
-256.136	396.819	0.074	-0.155
-255.122	-69.472	-0.351	-0.135
-254.107	-99.205	0.284	0.072
-253.092	-121.615	-0.123	-0.021
-252.078	228.495	-0.020	-0.033
-251.063	800.000	0.079	-0.227
-250.049	61.343	0.179	-0.178
-249.034	305.000	-0.122	-0.226
-248.019	-60.929	-0.272	-0.115
-247.005	-173.641	-0.236	0.007
-245.990	800.000	-0.108	0.306
-244.976	69.111	0.132	-0.136
-243.961	-117.119	-0.249	0.045
-242.946	-200.000	0.039	0.299
-241.932	-200.000	0.018	0.105
-240.917	103.120	0.183	0.215
-239.903	-75.725	-0.121	0.043
-238.888	56.907	-0.186	0.182
-237.873	-47.805	-0.066	0.032
-236.859	129.578	0.115	0.147
-235.844	69.245	-0.086	0.089
-234.830	97.571	0.054	0.062
-233.815	-200.000	0.056	0.257
-232.800	-11.482	-0.172	0.113
-231.786	-200.000	0.025	0.199
-230.771	-130.400	0.266	-0.036
-229.757	47.046	0.149	0.139
-228.742	35.640	0.243	0.214
-227.727	-49.879	0.097	0.046
-226.713	-177.600	0.174	0.004
-225.698	20.069	-0.036	0.029
-224.684	-200.000	-0.009	-0.094
-223.669	-200.000	-0.007	-0.050
-222.655	-200.000	0.015	-0.100
-221.640	-118.804	0.414	0.073
-220.625	55.998	-0.115	-0.111
-219.611	-23.694	-0.395	0.237
-218.596	677.922	0.014	-0.037
-217.582	47.068	-0.223	-0.208
-216.567	-77.690	0.090	-0.031
-215.552	92.787	0.132	0.150
-214.538	-104.038	0.103	0.024
-213.523	-127.343	0.238	-0.035
-212.509	800.000	0.082	-0.239
-211.494	4.175	-0.314	-0.230
-210.479	-81.149	-0.209	-0.069
-209.465	800.000	0.026	0.090
-208.450	-12.899	-0.113	0.074
-207.436	-41.552	-0.362	0.187
-206.421	33.725	0.134	-0.116
-205.406	-151.635	-0.063	0.005
-204.392	3.499	-0.236	-0.172
-203.377	-68.131	0.308	0.120
-202.363	-200.000	-0.024	-0.164
-201.348	35.876	0.094	-0.083
-200.333	-109.455	-0.113	0.024
-199.319	-126.741	0.513	-0.076
-198.304	-148.555	-0.200	-0.016
-197.290	-55.758	-0.147	-0.066
-196.275	-200.000	-0.067	0.381
-195.260	42.249	0.085	0.077
-194.246	-137.468	-0.106	0.012
-193.231	-167.619	0.068	0.003
-192.217	181.535	0.264	0.388
-191.202	-176.350	-0.186	-0.005
-190.187	-130.728	0.060	-0.008
-189.173	536.242	-0.105	0.250
-188.158	-200.000	-0.043	-0.188
-187.144	59.462	-0.096	0.095
-186.129	422.653	-0.033	0.070
-185.114	30.406	0.147	-0.126
-184.100	61.076	-0.121	-0.120
-183.085	-118.899	0.114	-0.020
-182.071	48.850	-0.102	0.096
-181.056	436.282	-0.158	0.345
-180.042	170.972	-0.155	-0.222
-179.027	-200.000	0.000	-0.020
-178.012	-155.879	0.089	-0.006
-176.998	454.376	0.125	0.277
-175.983	-69.742	0.078	-0.030
-174.969	-200.000	-0.030	0.180
-173.954	-200.000	0.001	-0.190
-172.939	129.768	0.142	-0.181
-171.925	-83.467	0.293	0.094
-170.910	-200.000	-0.027	-0.126
-169.896	-147.264	-0.116	-0.010
-168.881	-33.689	0.143	0.079
-167.866	399.950	-0.141	0.295
-166.852	-200.000	0.012	-0.067
-165.837	105.201	-0.160	-0.189
-164.823	-67.371	-0.337	0.132
-163.808	-13.286	-0.354	0.230
-162.793	7.707	-0.193	0.144
-161.779	315.331	-0.089	-0.168
-160.764	419.717	0.048	-0.104
-159.750	800.000	-0.035	-0.131
-158.735	307.595	-0.009	0.017
-157.720	-110.558	-0.229	-0.047
-156.706	72.820	-0.065	0.068
-155.691	-118.114	0.045	0.008
-154.677	-98.473	0.246	-0.063
-153.662	800.000	-0.077	-0.288
-152.647	-64.678	0.129	0.052
-151.633	-200.000	-0.015	-0.148
-150.618	-125.594	-0.211	-0.032
-149.604	-200.000	0.007	0.037
-148.589	41.600	-0.140	-0.126
-147.574	247.503	-0.093	0.156
-146.560	-149.660	0.091	0.007
-145.545	-200.000	0.004	0.138
-144.531	800.000	0.089	0.327
-143.516	-200.000	0.005	0.099
-142.502	87.249	0.088	-0.097
-141.487	-200.000	0.050	-0.229
-140.472	-200.000	-0.086	-0.391
-139.458	-107.834	-0.107	0.023
-138.443	-118.413	-0.134	0.024
-137.429	-200.000	0.018	0.301
-136.414	68.517	-0.287	0.294
-135.399	-200.000	-0.023	0.420
-134.385	439.696	0.023	-0.049
-133.370	800.000	-0.024	0.091
-132.356	318.413	-0.068	0.129
-131.341	-63.927	-0.197	0.081
-130.326	324.869	-0.166	0.317
-129.312	-200.000	-0.030	0.158
-128.297	-131.653	0.070	0.009
-127.283	800.000	0.056	0.198
-126.268	-200.000	0.068	0.345
-125.253	-125.640	0.188	0.028
-124.239	-200.000	0.014	-0.256
-123.224	800.000	-0.050	0.151
-122.210	5.006	-0.126	0.092
-121.195	331.147	0.126	0.243
