DTS Sentinel unit serial number:	SN413079Multiplexer serial number:	ORYXHardware model number:	OX4-SRSoftware version number:	ORYX F/W v4.00 Oryx Data Collector v3.7.2.0data status	okinstallation	princeton_trtdifferential loss correction	single-endedforward channel	channel 1reverse channel	N/Adate	2019/09/12time	20:42:35forward acquisition time	60.00reverse acquisition time	0.00gamma	496.2192k internal	0.2324k external	0.2324temperature offset calibration	1.0143default loss term (dB/km)	0.3790temperature slope calibration	1.0000multiplexer offset coefficient	1.0000multiplexer slope coefficient	1.0000fibre end	0.00T internal ref (°C)	31.09T ext. ref 1 (°C)	3.55T ext. ref 2 (°C)	25.64length (m)	temperature (°C)	Stokes	anti-Stokes-747.200	-52.955	0.369	0.171
-746.185	369.098	-0.130	-0.265
-745.171	800.000	0.084	0.245
-744.156	132.160	-0.181	0.235
-743.142	-121.224	0.205	-0.035
-742.127	10.513	-0.059	-0.046
-741.112	-138.637	0.489	0.054
-740.098	-63.811	-0.117	0.048
-739.083	-137.311	0.318	-0.036
-738.069	763.624	-0.050	-0.137
-737.054	174.906	0.241	0.352
-736.039	22.788	-0.173	-0.143
-735.025	-46.377	0.106	0.052
-734.010	-200.000	0.025	0.229
-732.996	693.031	-0.106	-0.281
-731.981	800.000	-0.081	0.272
-730.966	342.982	0.133	-0.263
-729.952	-32.588	-0.309	0.173
-728.937	-200.000	-0.025	0.168
-727.923	12.542	-0.229	-0.178
-726.908	113.145	-0.151	-0.185
-725.894	-33.672	-0.141	-0.079
-724.879	-31.915	0.266	-0.151
-723.864	182.371	-0.151	0.225
-722.850	-102.223	0.208	0.050
-721.835	0.876	-0.055	-0.040
-720.821	4.920	-0.140	-0.104
-719.806	56.402	0.237	0.232
-718.791	-27.501	0.387	0.227
-717.777	-200.000	0.050	-0.230
-716.762	-166.946	-0.085	0.004
-715.748	-135.180	-0.097	-0.012
-714.733	-200.000	0.042	-0.345
-713.718	183.831	-0.072	-0.107
-712.704	75.935	-0.129	0.137
-711.689	-106.526	-0.278	0.063
-710.675	71.831	0.147	-0.154
-709.660	800.000	0.063	0.267
-708.645	113.988	-0.191	-0.235
-707.631	73.671	-0.062	-0.066
-706.616	-114.390	0.314	-0.061
-705.602	-185.873	-0.219	0.003
-704.587	-121.450	0.120	0.020
-703.572	-9.006	-0.166	-0.112
-702.558	800.000	0.049	0.173
-701.543	337.109	-0.094	0.185
-700.529	33.223	-0.152	0.133
-699.514	-79.939	0.074	0.025
-698.499	-91.866	0.283	-0.081
-697.485	-25.566	-0.097	-0.058
-696.470	741.836	0.056	-0.152
-695.456	148.703	-0.189	-0.257
-694.441	-85.387	0.096	0.030
-693.426	-200.000	-0.056	-0.329
-692.412	155.437	0.128	0.177
-691.397	800.000	0.018	0.054
-690.383	800.000	-0.037	-0.126
-689.368	-200.000	0.041	-0.190
-688.354	300.077	-0.156	-0.290
-687.339	-200.000	0.010	-0.142
-686.324	369.939	-0.131	0.266
-685.310	183.631	0.061	-0.090
-684.295	800.000	0.048	-0.184
-683.281	146.783	-0.110	0.149
-682.266	161.369	0.033	-0.047
-681.251	800.000	-0.076	0.244
-680.237	-200.000	0.060	-0.336
-679.222	-81.072	-0.165	-0.055
-678.208	-157.037	0.328	0.020
-677.193	121.563	0.113	0.142
-676.178	-133.920	-0.062	-0.008
-675.164	-200.000	0.041	0.725
-674.149	-89.552	0.105	-0.031
-673.135	-200.000	0.450	0.000
-672.120	-86.072	-0.058	-0.018
-671.105	33.380	-0.220	0.193
-670.091	-144.373	0.229	-0.021
-669.076	-15.631	-0.201	-0.129
-668.062	650.900	-0.035	-0.091
-667.047	-48.388	0.136	-0.066
-666.032	7.699	-0.010	-0.007
-665.018	151.966	-0.130	-0.179
-664.003	230.999	0.129	0.213
-662.989	-35.263	-0.149	-0.082
-661.974	-14.639	-0.095	0.062
-660.959	-59.423	0.386	-0.167
-659.945	124.422	-0.175	-0.222
-658.930	101.368	-0.004	0.005
-657.916	-134.115	0.058	-0.007
-656.901	-61.910	0.257	0.108
-655.886	210.229	0.084	0.133
-654.872	473.280	0.039	0.089
-653.857	-107.998	0.236	0.052
-652.843	-172.591	-0.159	-0.005
-651.828	36.901	0.239	-0.213
-650.814	101.382	-0.147	0.172
-649.799	6.201	-0.188	0.140
-648.784	163.058	0.178	0.252
-647.770	-200.000	-0.001	-0.017
-646.755	-177.300	-0.293	0.007
-645.741	-200.000	-0.018	-0.177
-644.726	543.531	-0.112	-0.270
-643.711	269.678	0.140	-0.248
-642.697	800.000	0.014	0.049
-641.682	519.382	-0.148	-0.348
-640.668	682.173	-0.158	-0.414
-639.653	113.045	0.024	-0.029
-638.638	491.967	-0.016	-0.037
-637.624	800.000	-0.014	0.052
-636.609	180.420	0.061	0.089
-635.595	-52.489	-0.392	0.182
-634.580	79.062	-0.198	0.213
-633.565	102.122	-0.035	-0.041
-632.551	788.390	-0.070	0.192
-631.536	323.297	0.054	0.104
-630.522	-95.016	-0.366	-0.100
-629.507	192.517	0.114	-0.173
-628.492	92.799	0.321	0.364
-627.478	705.425	0.044	0.116
-626.463	473.761	0.084	0.191
-625.449	-200.000	0.073	0.372
-624.434	135.425	0.197	0.258
-623.419	164.400	-0.153	0.217
-622.405	81.145	0.181	-0.196
-621.390	800.000	0.044	0.185
-620.376	21.898	-0.058	0.048
-619.361	-164.391	0.206	0.009
-618.346	-200.000	0.001	-0.105
-617.332	-200.000	0.013	0.095
-616.317	446.508	0.075	-0.167
-615.303	-167.447	-0.034	-0.001
-614.288	285.165	0.160	0.289
-613.273	465.150	-0.086	-0.193
-612.259	19.329	0.169	-0.137
-611.244	-87.440	-0.082	-0.025
-610.230	-200.000	-0.027	0.159
-609.215	-110.253	0.299	-0.062
-608.201	-200.000	0.005	-0.126
-607.186	-4.132	0.401	0.279
-606.171	165.612	-0.094	-0.133
-605.157	-200.000	-0.019	-0.190
-604.142	800.000	0.038	0.166
-603.128	123.333	-0.109	0.137
-602.113	-31.873	0.247	0.139
-601.098	800.000	-0.118	0.354
-600.084	-29.782	0.179	0.103
-599.069	354.934	-0.156	-0.311
-598.055	-200.000	-0.002	-0.132
-597.040	10.844	-0.107	0.082
-596.025	800.000	0.069	0.231
-595.011	-53.777	0.355	0.162
-593.996	-24.806	0.102	0.061
-592.982	674.374	-0.015	-0.040
-591.967	107.742	0.029	-0.035
-590.952	-200.000	-0.049	0.226
-589.938	64.653	-0.122	0.124
-588.923	689.261	0.059	-0.155
-587.909	-171.509	0.286	0.010
-586.894	-107.429	0.244	0.054
-585.879	-200.000	0.053	0.251
-584.865	-63.595	0.095	0.039
-583.850	-200.000	0.017	-0.235
-582.836	-49.891	-0.173	-0.082
-581.821	-96.618	-0.207	0.055
-580.806	290.093	0.106	0.193
-579.792	27.029	-0.337	0.284
-578.777	-200.000	-0.029	-0.130
-577.763	-95.793	-0.289	0.077
-576.748	259.005	0.120	0.208
-575.733	196.316	-0.102	-0.155
-574.719	282.269	-0.122	-0.219
-573.704	-174.102	0.218	0.006
-572.690	-105.481	0.270	0.061
-571.675	-68.906	0.201	0.078
-570.661	29.131	-0.210	-0.179
-569.646	347.577	-0.081	0.159
-568.631	-0.816	-0.242	0.172
-567.617	3.844	0.128	0.094
-566.602	-94.411	-0.241	-0.066
-565.588	-80.430	0.088	-0.030
-564.573	544.370	-0.172	-0.413
-563.558	-200.000	-0.000	-0.175
-562.544	-17.657	0.179	0.113
-561.529	126.383	-0.079	-0.100
-560.515	253.251	-0.121	-0.208
-559.500	-149.473	0.198	0.016
-558.485	-200.000	-0.003	-0.069
-557.471	-110.950	-0.179	0.037
-556.456	688.094	-0.103	-0.270
-555.442	-132.549	-0.029	-0.004
-554.427	-180.489	-0.141	0.003
-553.412	-164.184	-0.061	0.003
-552.398	-107.258	-0.097	-0.021
-551.383	-25.085	0.170	-0.101
-550.369	-130.041	-0.141	0.019
-549.354	109.550	0.158	-0.190
-548.339	1.940	-0.230	-0.166
-547.325	65.931	-0.130	0.132
-546.310	-112.122	-0.086	-0.017
-545.296	800.000	-0.095	-0.391
-544.281	44.811	0.275	-0.253
-543.266	78.002	0.178	0.190
-542.252	508.068	-0.038	0.089
-541.237	-60.513	-0.268	-0.114
-540.223	-118.701	0.350	0.062
-539.208	-200.000	-0.039	-0.215
-538.193	-31.302	-0.146	-0.082
-537.179	-200.000	-0.036	-0.408
-536.164	-200.000	0.045	0.204
-535.150	-200.000	0.018	0.090
-534.135	32.811	0.181	0.157
-533.121	-200.000	0.051	0.267
-532.106	-11.706	-0.263	0.173
-531.091	214.621	-0.047	-0.075
-530.077	-93.689	-0.093	-0.026
-529.062	522.502	0.143	-0.335
-528.048	800.000	0.039	-0.134
-527.033	-200.000	-0.004	-0.124
-526.018	-2.733	0.118	0.082
-525.004	-106.122	-0.144	0.032
-523.989	76.313	-0.062	-0.065
-522.975	357.096	0.101	-0.201
-521.960	-169.779	-0.154	-0.006
-520.945	-164.072	-0.430	0.020
-519.931	52.302	-0.069	-0.066
-518.916	-10.056	-0.259	0.172
-517.902	39.795	0.127	-0.114
-516.887	322.287	-0.050	0.094
-515.872	-200.000	0.012	0.091
-514.858	-149.947	0.158	-0.012
-513.843	-46.694	-0.131	-0.064
-512.829	-147.653	-0.162	-0.014
-511.814	-34.732	0.095	0.052
-510.799	-2.065	0.298	0.209
-509.785	-83.729	-0.332	0.106
-508.770	-87.024	0.083	0.025
-507.756	-200.000	0.105	-0.000
-506.741	800.000	0.106	0.366
-505.726	-80.176	-0.220	0.074
-504.712	-17.054	-0.325	0.205
-503.697	-83.876	-0.293	0.093
-502.683	113.325	0.202	0.245
-501.668	-157.208	-0.131	-0.008
-500.653	800.000	-0.008	0.028
-499.639	-200.000	0.017	-0.115
-498.624	160.488	0.079	-0.110
-497.610	-74.752	0.127	-0.046
-496.595	82.250	-0.167	0.181
-495.581	-200.000	0.016	-0.101
-494.566	143.376	-0.095	0.127
-493.551	-113.100	0.407	-0.080
-492.537	-200.000	-0.070	-0.351
-491.522	111.763	0.180	-0.217
-490.508	-147.416	-0.247	-0.021
-489.493	25.198	0.176	0.146
-488.478	800.000	-0.055	0.174
-487.464	-200.000	-0.006	0.061
-486.449	-44.180	0.264	0.132
-485.435	-93.362	0.450	0.125
-484.420	-107.353	-0.265	-0.058
-483.405	395.303	-0.066	-0.139
-482.391	21.048	0.192	0.155
-481.376	800.000	0.111	-0.316
-480.362	-110.046	-0.141	-0.029
-479.347	-200.000	0.011	-0.090
-478.332	-100.877	0.052	0.013
-477.318	112.324	0.112	0.135
-476.303	-200.000	0.047	0.246
-475.289	-156.219	0.118	0.007
-474.274	-111.334	0.200	-0.041
-473.259	-27.986	0.135	0.078
-472.245	-200.000	-0.016	-0.279
-471.230	184.434	-0.006	0.009
-470.216	-200.000	-0.014	0.183
-469.201	159.502	0.105	0.145
-468.186	-200.000	-0.069	0.359
-467.172	-76.711	-0.293	0.102
-466.157	96.809	0.089	0.102
-465.143	166.660	-0.255	-0.361
-464.128	-19.958	0.138	0.085
-463.113	800.000	-0.089	0.254
-462.099	-158.800	0.174	-0.010
-461.084	-7.319	0.238	-0.161
-460.070	29.993	0.202	-0.172
-459.055	-89.170	0.140	0.041
-458.040	71.760	0.279	0.290
-457.026	508.367	0.063	0.146
-456.011	736.144	-0.038	0.103
-454.997	-53.878	-0.326	-0.148
-453.982	-200.000	0.000	0.111
-452.968	253.165	-0.072	0.123
-451.953	-200.000	-0.069	-0.328
-450.938	60.023	0.179	0.176
-449.924	-96.876	-0.116	-0.030
-448.909	92.716	-0.236	-0.266
-447.895	800.000	-0.044	0.127
-446.880	-200.000	-0.017	-0.117
-445.865	-65.533	-0.100	-0.040
-444.851	-127.019	-0.214	0.031
-443.836	15.719	0.146	0.115
-442.822	327.803	-0.068	0.129
-441.807	-18.211	0.112	-0.070
-440.792	800.000	0.086	0.309
-439.778	164.149	-0.016	-0.022
-438.763	-97.720	-0.218	0.056
-437.749	800.000	-0.059	-0.255
-436.734	-121.629	-0.124	0.020
-435.719	-36.555	-0.198	-0.106
-434.705	341.215	0.044	0.086
-433.690	-46.203	-0.180	-0.089
-432.676	71.167	0.215	0.223
-431.661	-3.004	0.176	-0.123
-430.646	6.808	0.095	-0.070
-429.632	-200.000	0.004	0.242
-428.617	-35.381	0.159	-0.086
-427.603	208.129	-0.011	-0.017
-426.588	268.671	-0.089	0.156
-425.573	-200.000	0.026	0.251
-424.559	145.850	0.163	0.218
-423.544	191.517	0.124	-0.186
-422.530	-100.702	-0.206	0.051
-421.515	-200.000	-0.013	-0.302
-420.500	-124.567	0.111	0.017
-419.486	-141.124	-0.070	-0.007
-418.471	-99.963	0.285	-0.071
-417.457	-58.508	0.162	0.070
-416.442	800.000	0.093	0.380
-415.428	-200.000	-0.015	-0.156
-414.413	148.799	-0.094	0.126
-413.398	-200.000	0.028	0.221
-412.384	184.000	-0.081	0.119
-411.369	52.163	0.235	-0.223
-410.355	-43.872	0.232	-0.116
-409.340	-200.000	0.086	-0.437
-408.325	-88.717	0.279	0.083
-407.311	-34.511	-0.062	0.034
-406.296	144.816	0.241	0.321
-405.282	421.711	0.131	0.281
-404.267	62.113	-0.092	-0.092
-403.252	-135.231	-0.194	0.023
-402.238	53.329	-0.271	-0.259
-401.223	-105.722	-0.202	-0.046
-400.209	-39.329	-0.125	-0.066
-399.194	-200.000	0.024	0.127
-398.179	-181.263	-0.047	-0.001
-397.165	-90.897	-0.150	-0.043
-396.150	293.517	0.121	-0.220
-395.136	-117.564	-0.302	0.054
-394.121	-66.863	-0.104	-0.041
-393.106	-94.659	0.265	0.072
-392.092	-82.265	0.104	0.034
-391.077	292.443	0.127	-0.231
-390.063	-82.750	0.386	-0.124
-389.048	800.000	-0.073	0.312
-388.033	272.912	0.052	-0.092
-387.019	-116.177	0.207	0.038
-386.004	515.706	0.043	-0.100
-384.990	-64.970	0.379	0.152
-383.975	-200.000	0.042	0.277
-382.960	-200.000	0.033	-0.317
-381.946	173.483	0.248	-0.356
-380.931	6.168	0.211	-0.156
-379.917	158.208	-0.240	-0.331
-378.902	800.000	-0.056	0.189
-377.888	175.936	0.088	-0.127
-376.873	28.235	-0.316	-0.265
-375.858	-16.327	-0.065	-0.041
-374.844	383.201	-0.156	-0.320
-373.829	58.018	0.086	0.083
-372.815	-148.186	0.020	-0.002
-371.800	174.922	0.166	0.240
-370.785	14.347	-0.022	-0.017
-369.771	386.190	-0.085	-0.174
-368.756	36.030	0.283	-0.247
-367.742	-191.096	0.235	-0.002
-366.727	493.445	0.097	-0.222
-365.712	304.179	0.068	0.126
-364.698	-130.349	-0.253	0.034
-363.683	332.834	-0.150	-0.288
-362.669	144.822	-0.027	0.036
-361.654	-44.491	-0.197	0.098
-360.639	-71.382	0.077	-0.029
-359.625	-35.438	-0.163	-0.088
-358.610	40.682	-0.157	-0.141
-357.596	-48.863	-0.044	0.021
-356.581	40.800	-0.183	0.164
-355.566	151.332	0.077	0.104
-354.552	156.179	-0.107	-0.147
-353.537	-50.798	-0.295	0.138
-352.523	800.000	-0.057	-0.162
-351.508	-105.227	-0.071	0.016
-350.493	-59.136	0.146	0.063
-349.479	104.261	-0.142	0.167
-348.464	192.796	0.125	-0.188
-347.450	-17.588	-0.051	-0.032
-346.435	-47.506	0.223	0.108
-345.420	288.431	-0.128	-0.230
-344.406	-131.728	-0.209	-0.027
-343.391	-92.364	-0.124	0.035
-342.377	-200.000	-0.016	0.105
-341.362	-16.276	-0.405	0.255
-340.348	-200.000	-0.008	-0.101
-339.333	45.123	-0.251	0.230
-338.318	128.320	0.074	0.094
-337.304	-200.000	-0.032	-0.150
-336.289	206.216	-0.132	-0.204
-335.275	-55.206	0.178	0.080
-334.260	2.043	-0.155	0.111
-333.245	-200.000	0.012	0.223
-332.231	-85.954	0.336	0.103
-331.216	189.971	-0.107	0.160
-330.202	-143.442	-0.097	-0.009
-329.187	319.072	-0.132	0.248
-328.172	176.479	0.072	-0.104
-327.158	312.607	-0.118	-0.221
-326.143	-145.281	-0.232	0.021
-325.129	-19.708	0.073	-0.045
-324.114	-198.942	-0.271	-0.001
-323.099	50.985	0.177	-0.167
-322.085	-59.433	0.256	-0.109
-321.070	-200.000	0.028	-0.353
-320.056	64.627	0.186	-0.186
-319.041	-139.715	-0.290	0.031
-318.026	-127.152	0.238	-0.035
-317.012	800.000	0.120	-0.460
-315.997	-200.000	0.078	0.350
-314.983	-48.943	0.155	-0.074
-313.968	648.801	0.042	-0.106
-312.953	378.062	-0.045	0.091
-311.939	-18.535	0.276	0.171
-310.924	449.741	0.072	-0.157
-309.910	-88.825	0.483	0.142
-308.895	-176.666	0.507	0.013
-307.880	800.000	-0.024	-0.086
-306.866	115.764	-0.056	-0.068
-305.851	-200.000	0.026	0.454
-304.837	231.523	-0.204	0.332
-303.822	-200.000	0.011	0.083
-302.807	49.977	0.037	0.034
-301.793	172.684	-0.218	0.312
-300.778	-145.903	-0.076	-0.007
-299.764	800.000	-0.116	-0.323
-298.749	-51.113	-0.166	-0.077
-297.735	-70.814	-0.208	-0.078
-296.720	-200.000	-0.015	-0.194
-295.705	800.000	-0.107	0.315
-294.691	177.692	0.165	0.239
-293.676	-120.920	-0.152	0.025
-292.662	800.000	0.049	-0.142
-291.647	-51.954	-0.044	0.020
-290.632	297.997	0.231	0.421
-289.618	-105.792	0.110	-0.025
-288.603	-118.304	0.052	-0.009
-287.589	-89.090	0.216	0.063
-286.574	637.546	-0.130	-0.328
-285.559	-55.837	0.134	0.059
-284.545	71.778	-0.179	-0.185
-283.530	280.386	0.206	-0.366
-282.516	-200.000	0.023	0.296
-281.501	60.264	0.021	-0.020
-280.486	-173.771	0.314	-0.009
-279.472	-109.432	0.108	-0.023
-278.457	515.595	-0.120	0.277
-277.443	800.000	0.050	-0.153
-276.428	-35.748	0.436	-0.234
-275.413	-66.267	0.397	0.156
-274.399	800.000	-0.093	0.256
-273.384	-200.000	-0.003	-0.083
-272.370	23.345	-0.041	-0.033
-271.355	51.690	-0.047	0.044
-270.340	-44.400	-0.260	-0.129
-269.326	-200.000	-0.019	-0.173
-268.311	575.321	-0.021	-0.052
-267.297	60.872	-0.235	-0.231
-266.282	-200.000	-0.026	-0.136
-265.267	-105.910	-0.289	-0.065
-264.253	84.169	0.204	0.221
-263.238	-200.000	-0.023	-0.156
-262.224	-140.592	0.310	-0.032
-261.209	-200.000	0.015	0.101
-260.195	-64.116	0.083	0.034
-259.180	-101.929	0.176	-0.042
-258.165	395.056	0.120	0.248
-257.151	-171.911	0.244	-0.008
-256.136	33.076	0.121	0.104
-255.122	-200.000	0.003	0.326
-254.107	-71.249	0.159	0.059
-253.092	299.939	-0.135	-0.246
-252.078	28.636	-0.201	0.169
-251.063	387.324	-0.074	-0.151
-250.049	361.285	0.131	-0.260
-249.034	800.000	-0.059	-0.197
-248.019	-200.000	0.037	-0.355
-247.005	-97.286	-0.065	-0.017
-245.990	-85.345	0.032	-0.010
-244.976	800.000	-0.044	-0.150
-243.961	-200.000	-0.002	-0.115
-242.946	188.515	-0.192	0.285
-241.932	588.666	0.039	-0.095
-240.917	-8.637	0.075	-0.050
-239.903	72.123	-0.198	0.204
-238.888	105.514	0.221	0.259
-237.873	-200.000	-0.013	-0.185
-236.859	-200.000	0.019	0.232
-235.844	-46.390	0.192	0.093
-234.830	482.623	-0.182	-0.409
-233.815	8.924	-0.189	-0.141
-232.800	-200.000	-0.027	-0.184
-231.786	48.407	-0.301	-0.279
-230.771	8.355	-0.193	0.144
-229.757	734.669	-0.014	0.038
-228.742	800.000	0.040	0.139
-227.727	420.897	0.027	-0.058
-226.713	119.954	0.064	-0.078
-225.698	-91.975	-0.300	-0.084
-224.684	800.000	0.040	-0.161
-223.669	69.463	-0.076	0.078
-222.655	-102.696	-0.165	0.039
-221.640	36.812	-0.107	-0.094
-220.625	-64.749	-0.347	0.139
-219.611	98.805	0.128	-0.146
-218.596	800.000	-0.059	-0.230
-217.582	-200.000	0.013	-0.226
-216.567	-37.267	-0.202	0.107
-215.552	776.326	-0.058	0.157
-214.538	249.467	-0.134	-0.225
-213.523	-14.677	0.047	0.030
-212.509	-5.532	-0.266	-0.180
-211.494	-59.546	-0.196	0.083
-210.479	-82.277	-0.112	0.036
-209.465	23.383	-0.080	-0.065
-208.450	800.000	-0.058	0.177
-207.436	-46.934	0.105	0.051
-206.421	144.695	0.094	0.124
-205.406	65.813	0.147	-0.147
-204.392	-126.196	0.288	-0.043
-203.377	313.108	0.042	0.078
-202.363	-70.510	0.297	-0.111
-201.348	162.177	-0.159	0.220
-200.333	-200.000	0.012	0.095
-199.319	800.000	-0.097	0.322
-198.304	-46.664	0.151	0.073
-197.290	800.000	-0.051	0.193
-196.275	800.000	0.083	-0.235
-195.260	94.588	-0.157	-0.176
-194.246	5.824	0.148	0.108
-193.231	-117.913	0.074	-0.013
-192.217	65.940	-0.147	0.147
-191.202	-104.627	-0.082	-0.019
-190.187	-200.000	-0.057	0.287
-189.173	-21.151	-0.164	-0.099
-188.158	-19.001	-0.091	0.056
-187.144	-200.000	0.000	0.168
-186.129	-200.000	-0.049	-0.307
-185.114	-85.169	-0.088	-0.027
-184.100	437.700	0.116	0.249
-183.085	800.000	-0.024	-0.066
-182.071	-4.004	-0.170	0.116
-181.056	38.472	-0.124	0.109
-180.042	15.150	0.134	-0.104
-179.027	-66.417	0.060	0.024
-178.012	-2.486	0.048	0.033
-176.998	58.350	0.365	-0.354
-175.983	647.331	0.022	-0.056
-174.969	164.987	0.090	0.126
-173.954	-73.461	-0.348	-0.126
-172.939	94.145	-0.210	-0.236
-171.925	104.033	0.104	0.121
-170.910	-200.000	0.040	0.288
-169.896	-200.000	-0.023	0.139
-168.881	88.204	-0.079	0.086
-167.866	274.719	-0.236	-0.413
-166.852	-87.856	-0.085	0.025
-165.837	359.218	-0.059	-0.117
-164.823	-57.944	0.190	0.082
-163.808	107.063	-0.039	0.046
-162.793	800.000	0.077	-0.283
-161.779	-148.057	-0.430	-0.035
-160.764	-200.000	0.020	0.128
-159.750	-27.748	0.222	0.127
-158.735	-187.776	0.273	0.004
-157.720	-120.710	-0.090	0.015
-156.706	180.205	0.148	-0.214
-155.691	533.561	-0.065	-0.153
-154.677	-70.978	-0.245	-0.091
-153.662	41.002	-0.090	-0.080
-152.647	115.421	0.294	0.355
-151.633	-200.000	0.011	0.094
-150.618	-200.000	0.002	-0.201
-149.604	-35.907	0.153	-0.082
-148.589	800.000	0.036	0.104
-147.574	505.039	0.028	0.063
-146.560	425.592	-0.186	0.395
-145.545	289.816	0.198	0.353
-144.531	-20.269	0.148	-0.090
-143.516	-61.503	-0.087	-0.036
-142.502	696.278	0.022	0.057
-141.487	-48.303	0.446	0.212
-140.472	-82.073	-0.436	-0.140
-139.458	-24.178	-0.205	-0.121
-138.443	174.842	0.088	0.126
-137.429	605.069	0.104	0.256
-136.414	-93.491	0.299	-0.082
-135.399	180.865	0.121	-0.175
-134.385	565.203	0.070	0.167
-133.370	-108.917	-0.040	-0.008
-132.356	-0.360	-0.268	-0.188
-131.341	-101.424	-0.224	0.054
-130.326	131.915	-0.096	-0.121
-129.312	244.085	-0.143	-0.237
-128.297	-118.527	0.229	-0.040
-127.283	14.156	0.224	-0.172
-126.268	53.178	-0.300	-0.284
-125.253	-188.548	0.256	0.003
-124.239	83.242	-0.170	0.183
-123.224	-18.710	-0.071	0.044
-122.210	-200.000	-0.002	0.262
-121.195	184.893	0.079	0.115
