DTS Sentinel unit serial number:	SN413079Multiplexer serial number:	ORYXHardware model number:	OX4-SRSoftware version number:	ORYX F/W v4.00 Oryx Data Collector v3.7.2.0data status	okinstallation	princeton_trtdifferential loss correction	single-endedforward channel	channel 1reverse channel	N/Adate	2019/09/19time	07:22:35forward acquisition time	60.00reverse acquisition time	0.00gamma	496.2192k internal	0.2342k external	0.2342temperature offset calibration	1.0016default loss term (dB/km)	0.3790temperature slope calibration	1.0000multiplexer offset coefficient	1.0000multiplexer slope coefficient	1.0000fibre end	0.00T internal ref (°C)	19.14T ext. ref 1 (°C)	0.56T ext. ref 2 (°C)	13.65length (m)	temperature (°C)	Stokes	anti-Stokes-747.200	90.723	-0.064	-0.072
-746.185	-164.964	-0.649	0.029
-745.171	26.504	-0.266	0.223
-744.156	604.630	-0.098	-0.244
-743.142	-43.882	-0.127	-0.064
-742.127	-109.188	-0.211	0.045
-741.112	-200.000	0.013	0.104
-740.098	53.174	-0.060	0.057
-739.083	-200.000	-0.015	0.099
-738.069	-100.979	-0.277	0.068
-737.054	-6.711	0.076	-0.051
-736.039	123.220	-0.361	-0.453
-735.025	57.977	0.198	-0.194
-734.010	2.605	-0.106	-0.077
-732.996	-147.398	-0.217	0.018
-731.981	-108.339	0.149	0.032
-730.966	132.533	0.088	0.114
-729.952	-126.069	-0.193	0.029
-728.937	41.057	-0.252	0.228
-727.923	-71.460	-0.084	-0.032
-726.908	-200.000	-0.003	-0.143
-725.894	-142.956	-0.123	-0.012
-724.879	25.667	-0.094	0.079
-723.864	-1.454	0.265	0.187
-722.850	193.962	0.086	0.130
-721.835	68.388	-0.195	0.200
-720.821	125.854	0.188	0.238
-719.806	-55.744	-0.191	0.085
-718.791	-200.000	0.024	0.134
-717.777	-79.840	0.195	-0.066
-716.762	-162.003	-0.320	-0.016
-715.748	238.098	-0.066	-0.109
-714.733	-200.000	-0.008	-0.158
-713.718	62.530	0.229	-0.229
-712.704	800.000	0.089	-0.341
-711.689	-171.447	-0.131	0.004
-710.675	89.830	-0.099	0.111
-709.660	788.512	-0.036	-0.099
-708.645	86.869	0.280	-0.309
-707.631	25.549	-0.332	-0.276
-706.616	620.895	0.043	0.109
-705.602	460.582	-0.086	0.192
-704.587	93.954	-0.161	0.182
-703.572	-99.009	-0.202	0.051
-702.558	-97.127	0.190	-0.050
-701.543	275.443	-0.088	-0.157
-700.529	-200.000	-0.052	0.448
-699.514	-96.028	0.430	-0.114
-698.499	800.000	0.028	-0.114
-697.485	74.627	0.026	0.027
-696.470	53.833	-0.483	0.464
-695.456	124.134	0.053	0.067
-694.441	28.550	-0.159	0.134
-693.426	-118.591	0.204	0.036
-692.412	-128.264	0.226	0.032
-691.397	-200.000	0.041	0.305
-690.383	-105.134	-0.187	0.043
-689.368	-47.550	-0.329	-0.160
-688.354	-200.000	-0.001	-0.262
-687.339	-200.000	-0.006	0.086
-686.324	58.118	0.143	-0.140
-685.310	288.017	0.108	-0.196
-684.295	800.000	-0.018	-0.066
-683.281	220.888	-0.151	-0.243
-682.266	119.232	0.139	-0.172
-681.251	88.753	-0.099	-0.110
-680.237	43.907	-0.239	-0.218
-679.222	291.157	0.269	-0.489
-678.208	173.927	0.128	0.185
-677.193	-32.467	0.210	-0.117
-676.178	591.652	-0.145	-0.357
-675.164	-60.447	0.271	0.115
-674.149	-146.231	-0.261	0.023
-673.135	190.367	-0.078	0.116
-672.120	66.392	0.098	-0.099
-671.105	64.938	0.350	0.353
-670.091	44.062	0.220	0.201
-669.076	333.326	0.141	-0.273
-668.062	9.427	0.079	-0.059
-667.047	-169.580	-0.252	-0.009
-666.032	-179.678	0.260	-0.006
-665.018	-69.144	-0.251	0.096
-664.003	-96.149	-0.235	0.062
-662.989	54.741	-0.198	-0.191
-661.974	29.201	-0.280	-0.237
-660.959	-143.450	-0.045	-0.004
-659.945	-200.000	-0.003	-0.025
-658.930	-71.780	-0.310	-0.115
-657.916	-50.265	-0.330	-0.156
-656.901	-200.000	0.029	0.318
-655.886	7.461	0.154	-0.115
-654.872	-62.982	-0.038	0.016
-653.857	-200.000	0.006	0.225
-652.843	-56.561	-0.241	0.107
-651.828	-45.000	-0.217	-0.108
-650.814	41.863	-0.244	-0.221
-649.799	160.361	-0.159	0.222
-648.784	-152.304	0.041	-0.003
-647.770	115.667	-0.129	0.157
-646.755	77.403	-0.316	-0.335
-645.741	18.735	0.029	0.023
-644.726	636.280	-0.246	-0.624
-643.711	29.217	0.034	0.029
-642.697	101.228	-0.123	-0.143
-641.682	-68.144	-0.097	-0.038
-640.668	-41.221	-0.151	-0.078
-639.653	-200.000	0.000	0.037
-638.638	7.078	-0.131	-0.098
-637.624	-54.092	-0.192	0.087
-636.609	76.883	-0.148	0.156
-635.595	74.809	0.185	0.194
-634.580	7.240	0.130	-0.097
-633.565	800.000	-0.042	0.135
-632.551	-42.757	-0.038	-0.019
-631.536	63.737	-0.076	-0.076
-630.522	62.080	0.148	-0.147
-629.507	71.004	-0.285	-0.295
-628.492	118.165	0.267	0.329
-627.478	-200.000	0.003	0.204
-626.463	19.850	0.059	-0.047
-625.449	-77.869	0.285	0.098
-624.434	32.236	0.222	0.191
-623.419	-131.785	-0.031	0.004
-622.405	103.530	0.085	-0.100
-621.390	-16.903	0.227	-0.143
-620.376	103.302	0.113	-0.132
-619.361	-48.298	-0.079	0.038
-618.346	-88.645	-0.289	0.086
-617.332	-9.430	-0.090	0.060
-616.317	-128.240	-0.307	-0.044
-615.303	-128.401	-0.310	-0.044
-614.288	800.000	-0.066	0.237
-613.273	-131.067	-0.405	0.054
-612.259	299.766	-0.156	-0.286
-611.244	482.817	0.187	-0.423
-610.230	-200.000	0.021	0.156
-609.215	-200.000	0.002	0.273
-608.201	-38.306	-0.077	0.041
-607.186	-200.000	-0.008	0.253
-606.171	264.661	0.120	0.208
-605.157	-114.377	-0.184	0.035
-604.142	49.308	0.255	-0.239
-603.128	-105.514	-0.418	0.094
-602.113	-2.755	0.165	0.115
-601.098	-200.000	-0.015	-0.114
-600.084	491.754	-0.019	-0.044
-599.069	386.967	-0.190	-0.390
-598.055	-40.507	0.114	-0.059
-597.040	800.000	0.120	0.378
-596.025	-100.231	0.044	0.011
-595.011	-171.041	0.106	0.004
-593.996	-139.142	-0.366	0.039
-592.982	-75.959	0.385	0.136
-591.967	184.647	-0.180	-0.266
-590.952	-200.000	0.029	-0.130
-589.938	300.562	-0.060	0.111
-588.923	243.108	0.161	0.269
-587.909	2.345	0.197	0.142
-586.894	-129.346	-0.246	0.034
-585.879	800.000	-0.058	-0.243
-584.865	-200.000	-0.055	-0.320
-583.850	800.000	-0.164	0.557
-582.836	-57.417	0.487	-0.213
-581.821	-158.057	0.154	-0.009
-580.806	714.128	0.084	0.223
-579.792	744.879	-0.060	-0.160
-578.777	-200.000	0.014	0.465
-577.763	-88.044	0.295	-0.088
-576.748	-11.254	0.119	0.078
-575.733	-100.473	-0.131	-0.032
-574.719	206.310	-0.130	0.201
-573.704	-200.000	-0.007	0.273
-572.690	82.318	-0.159	0.172
-571.675	144.588	-0.183	-0.243
-570.661	37.917	-0.084	-0.074
-569.646	800.000	-0.007	-0.023
-568.631	-30.929	-0.051	0.029
-567.617	-85.103	-0.135	-0.042
-566.602	-36.593	-0.254	-0.136
-565.588	-55.830	0.098	-0.044
-564.573	389.957	0.163	0.336
-563.558	-200.000	0.038	0.253
-562.544	-151.282	0.200	-0.015
-561.529	419.348	0.116	-0.247
-560.515	133.793	0.065	-0.084
-559.500	-6.134	0.103	0.070
-558.485	800.000	0.168	0.473
-557.471	-62.879	-0.244	-0.100
-556.456	61.312	0.078	-0.077
-555.442	-104.046	-0.349	-0.081
-554.427	46.068	-0.069	-0.064
-553.412	-200.000	-0.018	0.177
-552.398	-57.431	-0.322	-0.141
-551.383	-200.000	0.066	-0.512
-550.369	-15.476	-0.347	-0.220
-549.354	-56.495	-0.353	-0.156
-548.339	-200.000	-0.007	-0.112
-547.325	263.482	0.098	0.170
-546.310	12.468	-0.157	-0.120
-545.296	-105.784	0.223	-0.050
-544.281	-55.514	0.200	-0.089
-543.266	-31.599	0.119	-0.066
-542.252	-9.325	0.220	-0.146
-541.237	-7.498	0.286	0.192
-540.223	-124.668	0.152	-0.023
-539.208	-169.792	0.048	-0.002
-538.193	-45.447	-0.413	0.203
-537.179	204.954	-0.215	0.331
-536.164	86.881	0.111	-0.122
-535.150	-41.457	0.213	0.109
-534.135	171.403	0.133	-0.190
-533.121	-18.904	0.073	0.045
-532.106	129.333	0.041	0.052
-531.091	41.253	-0.246	-0.221
-530.077	-20.683	-0.245	0.149
-529.062	363.694	-0.183	0.366
-528.048	-134.859	0.298	-0.036
-527.033	-29.944	0.222	-0.125
-526.018	144.630	0.171	-0.227
-525.004	-200.000	-0.012	-0.150
-523.989	-200.000	0.003	-0.071
-522.975	800.000	-0.058	0.195
-521.960	300.195	0.078	-0.144
-520.945	49.804	0.321	-0.301
-519.931	-89.203	0.132	-0.039
-518.916	800.000	0.044	-0.173
-517.902	-101.308	-0.439	-0.106
-516.887	85.455	0.054	0.059
-515.872	58.976	0.146	-0.142
-514.858	87.739	-0.152	-0.167
-513.843	148.552	-0.083	-0.111
-512.829	-82.659	0.222	0.071
-511.814	-140.088	-0.150	0.016
-510.799	31.631	0.223	0.191
-509.785	-21.463	-0.185	-0.112
-508.770	570.783	-0.065	0.157
-507.756	-110.355	0.203	-0.042
-506.741	-200.000	-0.000	-0.197
-505.726	709.889	0.131	0.343
-504.712	-200.000	-0.056	0.476
-503.697	-21.953	-0.140	-0.084
-502.683	-200.000	-0.049	0.673
-501.668	466.467	0.099	-0.219
-500.653	-101.317	0.146	0.035
-499.639	-73.981	0.342	-0.123
-498.624	-164.126	-0.202	0.009
-497.610	-60.783	0.297	-0.125
-496.595	-200.000	-0.038	-0.250
-495.581	-200.000	0.002	-0.163
-494.566	228.961	0.128	-0.207
-493.551	144.211	0.134	-0.178
-492.537	6.783	0.208	0.153
-491.522	366.858	0.084	-0.168
-490.508	-200.000	-0.021	0.107
-489.493	21.197	0.174	-0.140
-488.478	-33.766	0.215	-0.117
-487.464	747.969	-0.064	0.171
-486.449	-29.694	0.185	0.105
-485.435	-90.274	-0.196	-0.057
-484.420	-90.424	0.052	-0.015
-483.405	-151.691	0.380	0.028
-482.391	-200.000	0.013	0.481
-481.376	5.498	-0.209	-0.153
-480.362	800.000	0.070	0.255
-479.347	-105.770	-0.339	0.076
-478.332	145.714	-0.070	0.093
-477.318	-119.916	-0.180	-0.031
-476.303	713.155	-0.052	-0.137
-475.289	-200.000	0.031	-0.193
-474.274	87.085	-0.252	0.276
-473.259	249.806	0.065	0.110
-472.245	444.449	0.176	0.382
-471.230	-200.000	0.019	-0.322
-470.216	-68.808	-0.361	-0.138
-469.201	64.135	-0.109	-0.108
-468.186	-64.601	0.343	-0.138
-467.172	-200.000	0.014	0.282
-466.157	-200.000	-0.023	-0.104
-465.143	517.043	-0.090	-0.209
-464.128	-157.191	0.135	-0.008
-463.113	-11.688	-0.017	0.011
-462.099	-200.000	-0.074	-0.431
-461.084	41.456	0.151	-0.135
-460.070	-200.000	-0.028	0.227
-459.055	-93.850	-0.175	0.048
-458.040	-200.000	-0.002	0.132
-457.026	17.440	-0.104	0.082
-456.011	54.575	-0.221	0.211
-454.997	-77.556	0.436	-0.150
-453.982	-200.000	0.001	-0.254
-452.968	-200.000	-0.038	0.314
-451.953	-47.317	-0.121	0.058
-450.938	386.442	0.112	-0.229
-449.924	88.133	0.288	0.316
-448.909	-122.407	0.134	-0.022
-447.895	-103.773	0.136	0.032
-446.880	147.056	0.181	-0.241
-445.865	-200.000	-0.054	-0.517
-444.851	666.050	0.078	-0.200
-443.836	-200.000	-0.054	-0.328
-442.822	161.815	-0.077	0.106
-441.807	-200.000	-0.054	0.240
-440.792	-148.468	-0.429	0.035
-439.778	-26.275	0.154	0.090
-438.763	157.848	-0.149	0.205
-437.749	115.791	-0.268	0.325
-436.734	550.927	-0.150	0.357
-435.719	105.300	0.155	0.181
-434.705	87.022	0.186	0.204
-433.690	34.581	0.140	0.121
-432.676	-67.668	-0.159	-0.061
-431.661	-149.379	-0.390	-0.031
-430.646	-46.735	0.268	-0.130
-429.632	630.478	-0.127	-0.318
-428.617	84.499	0.081	0.088
-427.603	-126.353	0.185	0.027
-426.588	-170.664	0.105	0.004
-425.573	-77.903	0.240	-0.082
-424.559	6.303	0.262	0.193
-423.544	-50.336	-0.172	-0.080
-422.530	-59.678	-0.120	-0.051
-421.515	258.406	0.040	-0.067
-420.500	-69.840	-0.127	-0.048
-419.486	-139.580	0.102	0.011
-418.471	23.640	0.223	-0.182
-417.457	640.438	-0.068	-0.171
-416.442	587.127	-0.030	-0.074
-415.428	18.415	-0.236	0.186
-414.413	-200.000	0.015	-0.118
-413.398	-115.642	0.248	0.046
-412.384	800.000	0.147	-0.610
-411.369	-107.981	0.244	-0.052
-410.355	-55.763	-0.347	-0.153
-409.340	596.506	-0.029	0.070
-408.325	-200.000	0.016	-0.352
-407.311	82.991	0.101	-0.109
-406.296	-21.220	-0.164	-0.099
-405.282	-197.696	0.263	-0.002
-404.267	-14.556	-0.057	0.036
-403.252	800.000	0.033	0.131
-402.238	-80.479	0.033	-0.011
-401.223	-200.000	-0.004	0.191
-400.209	-155.049	0.461	0.030
-399.194	-200.000	0.047	-0.320
-398.179	-120.053	-0.239	-0.041
-397.165	535.192	0.060	0.140
-396.150	-108.324	-0.040	0.008
-395.136	105.812	0.107	-0.125
-394.121	-200.000	0.040	0.302
-393.106	-25.567	0.101	-0.059
-392.092	-200.000	0.003	0.100
-391.077	-102.390	0.056	0.013
-390.063	-149.720	0.133	-0.010
-389.048	-70.752	0.125	-0.047
-388.033	-111.833	0.279	-0.056
-387.019	-39.717	0.173	0.089
-386.004	33.639	-0.101	-0.087
-384.990	-28.700	0.404	0.230
-383.975	231.589	0.141	0.228
-382.960	184.502	-0.175	0.256
-381.946	-51.538	0.428	-0.197
-380.931	-101.323	-0.101	0.024
-379.917	255.848	0.063	0.107
-378.902	-27.161	-0.475	-0.274
-377.888	-17.885	0.090	0.056
-376.873	-200.000	0.028	0.253
-375.858	78.092	0.103	0.109
-374.844	-5.947	-0.225	-0.152
-373.829	800.000	0.032	-0.132
-372.815	-72.052	0.118	-0.043
-371.800	179.286	-0.042	-0.060
-370.785	359.791	-0.111	-0.219
-369.771	-200.000	0.000	-0.292
-368.756	356.720	0.141	0.277
-367.742	10.577	-0.152	-0.114
-366.727	-200.000	0.027	-0.306
-365.712	34.127	-0.198	-0.170
-364.698	-200.000	0.015	-0.259
-363.683	-3.353	0.249	-0.171
-362.669	-60.036	0.126	-0.053
-361.654	193.119	0.157	0.235
-360.639	-200.000	-0.018	0.255
-359.625	4.653	-0.203	0.147
-358.610	34.044	-0.193	0.166
-357.596	-126.578	-0.248	0.036
-356.581	-200.000	-0.022	-0.128
-355.566	-72.882	0.238	-0.086
-354.552	90.381	-0.037	-0.041
-353.537	-35.910	-0.161	0.086
-352.523	391.001	0.056	0.114
-351.508	-133.968	0.406	0.050
-350.493	40.606	-0.144	-0.128
-349.479	-200.000	-0.028	0.194
-348.464	-10.970	0.243	-0.158
-347.450	18.544	0.147	-0.116
-346.435	-66.991	0.158	-0.062
-345.420	800.000	0.050	0.172
-344.406	-18.327	-0.298	-0.183
-343.391	40.341	-0.045	-0.040
-342.377	12.274	0.279	-0.212
-341.362	335.341	0.148	-0.282
-340.348	-3.974	0.385	-0.263
-339.333	800.000	-0.044	-0.174
-338.318	800.000	0.056	0.203
-337.304	174.424	-0.044	0.063
-336.289	-124.799	-0.174	0.026
-335.275	-23.968	-0.057	0.034
-334.260	345.166	-0.069	-0.133
-333.245	800.000	-0.010	0.043
-332.231	38.082	0.157	-0.138
-331.216	-115.610	0.238	0.044
-330.202	-99.528	0.117	0.029
-329.187	-105.037	0.264	-0.060
-328.172	-141.513	0.052	-0.005
-327.158	25.625	0.131	0.108
-326.143	-200.000	-0.037	-0.234
-325.129	-188.674	-0.136	0.002
-324.114	-200.000	0.027	-0.214
-323.099	-3.765	0.227	0.155
-322.085	15.700	0.173	0.134
-321.070	83.103	0.212	-0.227
-320.056	189.198	0.182	-0.269
-319.041	-145.783	0.029	-0.003
-318.026	42.211	-0.269	0.241
-317.012	-44.326	0.050	-0.024
-315.997	97.716	0.190	0.215
-314.983	-42.314	0.110	0.055
-313.968	-9.734	0.309	0.203
-312.953	-137.923	-0.259	0.029
-311.939	131.421	-0.090	-0.114
-310.924	664.859	0.062	0.157
-309.910	-200.000	-0.076	0.367
-308.895	-170.278	-0.483	-0.017
-307.880	185.516	-0.160	-0.234
-306.866	-200.000	0.043	0.206
-305.851	-54.828	-0.060	0.027
-304.837	134.194	0.207	0.264
-303.822	-34.711	0.173	-0.093
-302.807	44.507	0.181	-0.163
-301.793	-180.680	-0.300	-0.006
-300.778	92.765	0.202	-0.225
-299.764	250.869	-0.086	-0.144
-298.749	21.729	0.143	0.114
-297.735	800.000	0.054	-0.173
-296.720	800.000	0.053	0.148
-295.705	-200.000	0.054	-0.431
-294.691	-200.000	0.100	-0.445
-293.676	-135.056	-0.164	-0.019
-292.662	169.799	0.141	-0.198
-291.647	52.549	0.228	-0.214
-290.632	385.843	-0.247	-0.502
-289.618	-38.169	-0.463	0.241
-288.603	800.000	0.053	0.160
-287.589	-200.000	-0.008	-0.280
-286.574	156.362	-0.113	0.153
-285.559	800.000	0.044	0.180
-284.545	51.431	0.211	-0.197
-283.530	800.000	-0.032	-0.106
-282.516	-28.363	-0.272	0.155
-281.501	-84.119	0.563	0.176
-280.486	169.908	-0.209	0.294
-279.472	677.828	-0.071	0.181
-278.457	-74.541	-0.294	-0.104
-277.443	487.632	0.035	0.079
-276.428	-200.000	0.002	0.050
-275.413	-181.526	-0.429	0.008
-274.399	-101.461	-0.366	0.088
-273.384	-89.682	0.163	-0.047
-272.370	179.969	0.203	-0.292
-271.355	-137.430	-0.221	-0.025
-270.340	-64.319	-0.150	-0.060
-269.326	-63.298	-0.025	0.010
-268.311	-141.002	-0.251	0.025
-267.297	149.020	-0.083	0.111
-266.282	-200.000	-0.040	0.453
-265.267	800.000	-0.049	0.137
-264.253	-145.799	-0.416	0.036
-263.238	199.190	-0.145	0.219
-262.224	49.526	-0.058	-0.054
-261.209	-122.693	0.320	0.051
-260.195	135.029	0.027	0.034
-259.180	7.037	-0.410	-0.300
-258.165	598.612	-0.090	0.220
-257.151	-1.087	0.153	-0.106
-256.136	286.622	-0.095	0.169
-255.122	267.073	0.099	0.170
-254.107	-200.000	-0.037	-0.197
-253.092	167.145	-0.388	0.542
-252.078	0.017	-0.414	0.290
-251.063	1.933	0.255	-0.181
-250.049	28.172	-0.112	0.093
-249.034	-1.205	0.157	0.109
-248.019	203.734	-0.223	-0.339
-247.005	-200.000	0.029	-0.213
-245.990	-197.008	0.214	0.001
-244.976	-200.000	0.019	0.089
-243.961	383.897	-0.119	-0.241
-242.946	2.277	0.073	0.052
-241.932	-200.000	0.010	-0.076
-240.917	-108.249	-0.290	0.062
-239.903	-105.567	-0.108	0.024
-238.888	-154.844	-0.250	0.016
-237.873	-58.789	0.143	0.061
-236.859	-19.860	-0.388	-0.235
-235.844	37.474	0.113	-0.098
-234.830	126.569	-0.035	0.044
-233.815	-200.000	0.021	-0.119
-232.800	800.000	0.011	0.042
-231.786	-188.285	-0.106	-0.001
-230.771	2.154	-0.236	0.168
-229.757	-32.427	0.197	0.108
-228.742	-200.000	-0.004	0.257
-227.727	-133.579	-0.279	0.034
-226.713	-163.504	0.410	-0.019
-225.698	-61.934	-0.105	0.043
-224.684	504.649	-0.184	-0.418
-223.669	476.562	-0.224	0.496
-222.655	-128.400	-0.357	-0.050
-221.640	88.786	-0.148	0.161
-220.625	800.000	0.079	0.251
-219.611	496.017	-0.171	-0.386
-218.596	800.000	-0.010	-0.027
-217.582	175.646	0.123	0.175
-216.567	-200.000	-0.079	0.339
-215.552	-127.059	0.269	-0.039
-214.538	-200.000	-0.016	-0.144
-213.523	-103.333	-0.234	0.054
-212.509	-90.326	0.252	-0.072
-211.494	-165.758	0.355	0.015
-210.479	8.133	0.195	0.144
-209.465	-21.693	-0.170	0.102
-208.450	83.132	0.266	0.284
-207.436	-200.000	0.022	0.340
-206.421	172.586	-0.098	0.138
-205.406	-37.696	-0.196	-0.102
-204.392	-200.000	-0.004	0.055
-203.377	111.420	-0.037	-0.043
-202.363	261.501	-0.106	-0.181
-201.348	77.733	-0.054	0.056
-200.333	13.154	-0.024	0.018
-199.319	-200.000	0.010	0.174
-198.304	-16.892	0.209	-0.129
-197.290	-64.523	0.054	0.021
-196.275	40.849	-0.090	-0.080
-195.260	-173.385	0.349	-0.010
-194.246	-200.000	-0.012	-0.169
-193.231	-200.000	0.030	0.267
-192.217	235.587	-0.097	-0.157
-191.202	-53.280	0.268	-0.121
-190.187	-55.795	0.204	0.089
-189.173	80.077	0.303	0.320
-188.158	-200.000	-0.019	-0.122
-187.144	-200.000	-0.006	-0.106
-186.129	98.060	-0.165	-0.186
-185.114	-200.000	0.023	0.230
-184.100	55.355	-0.251	-0.238
-183.085	-80.348	0.295	-0.097
-182.071	-200.000	0.007	-0.209
-181.056	-28.561	0.084	-0.047
-180.042	77.740	-0.016	0.016
-179.027	200.030	-0.326	0.490
-178.012	762.406	-0.066	0.174
-176.998	64.598	0.172	-0.170
-175.983	-150.234	0.216	0.016
-174.969	617.592	-0.150	-0.369
-173.954	800.000	0.015	-0.058
-172.939	-25.328	0.242	0.140
-171.925	139.686	0.153	-0.198
-170.910	-169.536	-0.362	0.013
-169.896	-177.085	-0.034	-0.001
-168.881	800.000	-0.083	0.270
-167.866	755.207	-0.051	0.136
-166.852	-139.794	0.243	0.025
-165.837	800.000	-0.016	0.060
-164.823	800.000	-0.087	-0.275
-163.808	18.029	-0.156	0.122
-162.793	-200.000	-0.016	-0.214
-161.779	800.000	-0.006	0.023
-160.764	-19.095	-0.143	-0.087
-159.750	2.636	0.122	0.086
-158.735	135.332	0.229	0.291
-157.720	-200.000	-0.005	0.248
-156.706	228.189	0.187	0.298
-155.691	-200.000	0.014	0.146
-154.677	-93.476	-0.463	-0.125
-153.662	-113.930	-0.355	-0.068
-152.647	87.206	-0.196	0.212
-151.633	-137.537	-0.115	-0.013
-150.618	456.248	-0.183	0.397
-149.604	-200.000	0.004	0.146
-148.589	-152.959	0.251	-0.017
-147.574	-28.238	-0.229	-0.130
-146.560	-200.000	0.027	-0.146
-145.545	-6.303	-0.217	0.145
-144.531	800.000	0.026	0.072
-143.516	-40.623	-0.240	0.122
-142.502	-92.754	0.075	-0.021
-141.487	543.888	-0.123	-0.287
-140.472	67.436	-0.178	0.177
-139.458	-157.872	-0.191	0.011
-138.443	-20.364	-0.060	0.036
-137.429	-13.224	0.124	-0.078
-136.414	566.065	-0.017	0.041
-135.399	-19.579	-0.060	-0.036
-134.385	451.960	-0.101	-0.218
-133.370	165.009	-0.174	-0.241
-132.356	83.191	0.067	0.071
-131.341	-200.000	-0.014	0.224
-130.326	-171.700	0.282	0.009
-129.312	-95.980	-0.464	-0.121
-128.297	91.727	0.080	-0.088
-127.283	157.000	-0.138	-0.187
-126.268	95.237	-0.094	-0.104
-125.253	800.000	-0.056	-0.179
-124.239	-200.000	-0.036	-0.166
-123.224	-169.260	0.192	-0.007
-122.210	-5.827	-0.161	0.108
-121.195	-80.359	0.220	-0.072
