DTS Sentinel unit serial number:	SN413079Multiplexer serial number:	ORYXHardware model number:	OX4-SRSoftware version number:	ORYX F/W v4.00 Oryx Data Collector v3.7.2.0data status	okinstallation	princeton_trtdifferential loss correction	single-endedforward channel	channel 1reverse channel	N/Adate	2019/09/13time	18:46:35forward acquisition time	60.00reverse acquisition time	0.00gamma	496.2192k internal	0.2320k external	0.2320temperature offset calibration	1.0127default loss term (dB/km)	0.3790temperature slope calibration	1.0000multiplexer offset coefficient	1.0000multiplexer slope coefficient	1.0000fibre end	0.00T internal ref (°C)	32.58T ext. ref 1 (°C)	4.11T ext. ref 2 (°C)	25.75length (m)	temperature (°C)	Stokes	anti-Stokes-747.200	-56.291	-0.121	0.054
-746.185	800.000	-0.119	0.340
-745.171	800.000	-0.104	0.342
-744.156	268.974	0.138	0.246
-743.142	2.312	-0.050	-0.036
-742.127	526.735	0.046	0.110
-741.112	-104.328	0.237	0.056
-740.098	-106.206	-0.094	-0.021
-739.083	263.676	-0.082	-0.144
-738.069	734.416	0.086	0.233
-737.054	-99.355	-0.211	-0.054
-736.039	-78.588	-0.377	0.130
-735.025	239.145	0.090	0.151
-734.010	-200.000	0.015	0.098
-732.996	-192.242	-0.386	-0.004
-731.981	-34.747	0.174	0.096
-730.966	-97.523	0.112	-0.029
-729.952	-200.000	0.027	-0.300
-728.937	-54.739	0.108	-0.049
-727.923	-110.592	-0.360	0.075
-726.908	-48.713	0.106	-0.052
-725.894	140.348	-0.179	0.238
-724.879	-110.276	-0.131	-0.028
-723.864	5.112	-0.065	0.048
-722.850	550.906	-0.230	-0.557
-721.835	-157.589	0.071	0.004
-720.821	-196.901	0.089	-0.001
-719.806	-69.884	-0.192	-0.074
-718.791	800.000	-0.050	0.161
-717.777	-145.932	0.320	0.029
-716.762	-167.280	0.080	0.003
-715.748	143.528	-0.085	-0.114
-714.733	233.253	0.038	0.063
-713.718	-200.000	-0.040	0.241
-712.704	267.502	-0.149	0.264
-711.689	-172.700	0.384	0.012
-710.675	-200.000	0.020	-0.229
-709.660	800.000	-0.063	-0.200
-708.645	800.000	-0.005	-0.020
-707.631	344.017	-0.122	-0.241
-706.616	-200.000	-0.013	0.357
-705.602	800.000	-0.040	0.139
-704.587	-200.000	0.030	0.185
-703.572	92.297	-0.062	0.071
-702.558	-200.000	0.006	-0.215
-701.543	-21.508	0.210	0.129
-700.529	-123.833	0.205	-0.033
-699.514	248.169	0.077	-0.131
-698.499	51.470	-0.080	-0.076
-697.485	49.602	-0.121	0.115
-696.470	82.377	0.174	0.191
-695.456	-72.670	-0.297	-0.111
-694.441	101.142	0.289	-0.339
-693.426	201.118	-0.062	-0.097
-692.412	-200.000	-0.011	0.282
-691.397	30.081	0.163	-0.140
-690.383	549.908	-0.067	-0.163
-689.368	800.000	-0.078	0.314
-688.354	-200.000	0.010	0.429
-687.339	626.048	0.113	-0.288
-686.324	-0.258	0.203	-0.146
-685.310	-200.000	-0.034	-0.310
-684.295	-14.031	-0.074	0.048
-683.281	-200.000	0.014	0.334
-682.266	20.586	-0.109	0.089
-681.251	-74.904	-0.142	0.051
-680.237	-85.199	0.253	0.080
-679.222	-117.304	0.218	0.040
-678.208	-200.000	-0.009	-0.056
-677.193	644.524	0.088	-0.227
-676.178	262.226	-0.186	0.325
-675.164	800.000	-0.025	0.090
-674.149	-114.173	0.231	0.045
-673.135	183.382	0.160	-0.238
-672.120	213.473	-0.074	-0.119
-671.105	800.000	0.026	-0.080
-670.091	-150.517	-0.129	-0.010
-669.076	-5.363	-0.172	-0.119
-668.062	453.480	-0.076	0.169
-667.047	-200.000	0.012	-0.252
-666.032	-200.000	0.032	0.252
-665.018	-130.412	-0.118	0.016
-664.003	203.595	0.093	0.145
-662.989	10.019	0.331	0.253
-661.974	209.054	0.023	-0.036
-660.959	206.345	-0.219	-0.343
-659.945	-147.868	-0.310	-0.026
-658.930	-58.773	-0.204	0.089
-657.916	-200.000	-0.016	-0.187
-656.901	276.238	-0.183	-0.327
-655.886	-56.219	-0.074	0.033
-654.872	89.589	0.108	0.121
-653.857	-200.000	-0.024	-0.133
-652.843	131.642	-0.138	-0.179
-651.828	800.000	-0.044	-0.127
-650.814	422.185	0.077	-0.167
-649.799	14.099	0.047	-0.037
-648.784	63.653	-0.203	-0.206
-647.770	-144.523	0.381	-0.035
-646.755	5.974	-0.264	0.197
-645.741	-139.345	-0.089	0.010
-644.726	177.730	0.187	0.275
-643.711	340.443	0.101	-0.198
-642.697	-200.000	0.010	-0.171
-641.682	-200.000	-0.007	-0.225
-640.668	585.277	-0.138	0.342
-639.653	50.152	0.245	-0.233
-638.638	-37.050	-0.259	0.140
-637.624	-73.327	-0.079	0.029
-636.609	-125.171	-0.185	-0.029
-635.595	800.000	0.031	-0.122
-634.580	-18.938	0.419	-0.262
-633.565	800.000	0.083	-0.247
-632.551	-166.262	0.105	-0.004
-631.536	-22.148	-0.204	0.125
-630.522	64.702	0.220	0.224
-629.507	-38.834	-0.097	-0.051
-628.492	-119.495	-0.308	-0.054
-627.478	-200.000	0.012	-0.119
-626.463	-66.495	0.162	-0.065
-625.449	800.000	-0.083	0.298
-624.434	-166.843	-0.158	-0.007
-623.419	-98.524	-0.093	0.024
-622.405	-63.832	0.136	0.056
-621.390	800.000	0.047	-0.174
-620.376	-108.035	0.158	0.034
-619.361	-23.350	-0.130	0.078
-618.346	800.000	-0.104	-0.386
-617.332	800.000	-0.028	-0.107
-616.317	-200.000	0.012	-0.140
-615.303	34.650	-0.005	-0.004
-614.288	-200.000	0.057	-0.452
-613.273	648.978	0.084	0.217
-612.259	144.170	0.030	0.040
-611.244	-90.065	0.179	0.052
-610.230	-200.000	0.016	0.198
-609.215	-200.000	0.040	0.278
-608.201	-169.092	0.108	-0.004
-607.186	695.861	0.105	-0.278
-606.171	317.322	0.128	-0.243
-605.157	-62.484	0.257	-0.107
-604.142	1.173	0.265	0.191
-603.128	4.467	0.219	0.161
-602.113	-5.990	0.192	0.132
-601.098	800.000	-0.035	0.114
-600.084	201.449	-0.091	-0.141
-599.069	-106.952	-0.358	0.080
-598.055	-200.000	-0.062	-0.317
-597.040	-109.344	0.616	-0.131
-596.025	-200.000	0.049	-0.250
-595.011	104.071	0.047	-0.056
-593.996	-10.288	0.335	0.223
-592.982	390.940	0.149	0.311
-591.967	-20.926	0.100	-0.061
-590.952	781.153	0.051	-0.141
-589.938	139.962	0.082	-0.109
-588.923	71.862	0.095	0.099
-587.909	469.305	0.053	-0.119
-586.894	126.162	-0.043	-0.054
-585.879	-200.000	0.042	-0.332
-584.865	20.557	-0.198	0.161
-583.850	82.615	-0.027	0.030
-582.836	-47.622	-0.133	0.065
-581.821	-50.278	-0.273	0.130
-580.806	-182.865	-0.329	0.006
-579.792	-59.013	-0.082	-0.035
-578.777	-118.619	-0.472	-0.084
-577.763	-99.803	0.298	-0.075
-576.748	-151.311	-0.101	-0.008
-575.733	-84.760	-0.119	0.038
-574.719	98.916	-0.217	-0.252
-573.704	8.314	-0.148	-0.112
-572.690	800.000	-0.053	0.187
-571.675	800.000	-0.105	0.297
-570.661	41.224	-0.203	-0.184
-569.646	800.000	0.003	-0.013
-568.631	288.059	0.070	0.127
-567.617	-147.001	-0.112	0.010
-566.602	30.437	-0.142	0.122
-565.588	471.254	0.054	-0.121
-564.573	-14.434	-0.172	0.111
-563.558	621.235	-0.037	-0.095
-562.544	405.943	0.024	-0.050
-561.529	-200.000	0.078	0.390
-560.515	-117.587	0.191	-0.035
-559.500	-58.789	-0.182	-0.079
-558.485	-200.000	-0.014	0.239
-557.471	-54.712	-0.151	-0.068
-556.456	-23.860	0.149	-0.090
-555.442	-87.473	-0.451	-0.137
-554.427	-200.000	-0.012	0.061
-553.412	-92.236	0.096	0.027
-552.398	-200.000	0.019	-0.222
-551.383	-68.401	-0.270	0.105
-550.369	-200.000	-0.023	0.276
-549.354	-151.928	0.253	-0.019
-548.339	208.418	-0.086	0.135
-547.325	800.000	-0.059	-0.242
-546.310	-113.573	0.217	0.043
-545.296	-105.803	0.259	-0.059
-544.281	-182.250	0.404	-0.008
-543.266	800.000	0.076	0.214
-542.252	-85.452	0.272	-0.085
-541.237	-5.292	-0.209	0.144
-540.223	-94.346	0.138	0.038
-539.208	-7.708	-0.115	-0.078
-538.193	781.974	-0.074	0.204
-537.179	12.897	-0.193	0.150
-536.164	207.787	-0.068	-0.107
-535.150	-200.000	-0.049	-0.224
-534.135	-56.868	0.428	-0.190
-533.121	224.448	-0.104	-0.168
-532.106	-16.677	-0.406	0.258
-531.091	-34.416	0.040	0.022
-530.077	-97.337	0.372	0.097
-529.062	800.000	-0.027	-0.090
-528.048	-35.557	-0.116	0.063
-527.033	-200.000	-0.020	0.216
-526.018	-62.736	-0.335	-0.139
-525.004	104.213	-0.186	-0.219
-523.989	156.551	-0.164	-0.227
-522.975	-200.000	-0.012	-0.409
-521.960	245.196	-0.121	-0.203
-520.945	-136.480	0.540	-0.063
-519.931	-5.024	-0.369	-0.255
-518.916	145.940	-0.072	0.097
-517.902	-86.697	-0.346	0.106
-516.887	-77.602	-0.098	0.034
-515.872	71.770	-0.330	-0.343
-514.858	-13.589	0.238	-0.154
-513.843	-154.132	-0.203	0.014
-512.829	-99.823	-0.015	0.004
-511.814	142.150	0.102	-0.136
-510.799	-84.088	-0.250	0.080
-509.785	800.000	-0.037	0.127
-508.770	-34.294	0.182	-0.100
-507.756	20.314	-0.026	-0.021
-506.741	-84.203	0.105	-0.033
-505.726	44.445	-0.095	-0.087
-504.712	14.745	-0.264	-0.206
-503.697	800.000	-0.125	-0.384
-502.683	-69.566	0.307	-0.118
-501.668	462.559	0.067	-0.150
-500.653	-200.000	-0.009	0.213
-499.639	-92.500	0.255	-0.072
-498.624	155.449	0.112	0.155
-497.610	170.248	-0.119	-0.170
-496.595	-153.982	0.422	-0.029
-495.581	-64.055	0.170	0.070
-494.566	16.244	-0.028	0.022
-493.551	99.481	-0.144	0.167
-492.537	-67.312	0.187	0.074
-491.522	539.877	0.053	0.127
-490.508	-200.000	-0.020	-0.214
-489.493	165.579	-0.200	0.283
-488.478	383.021	-0.084	0.172
-487.464	-32.139	-0.242	-0.136
-486.449	-200.000	0.006	-0.281
-485.435	-200.000	0.000	0.126
-484.420	-190.179	-0.159	0.002
-483.405	72.283	0.128	-0.134
-482.391	115.783	0.103	0.126
-481.376	-31.656	-0.199	0.112
-480.362	608.429	-0.094	-0.234
-479.347	233.296	0.076	-0.124
-478.332	57.259	0.114	0.111
-477.318	-200.000	0.011	-0.132
-476.303	800.000	0.062	-0.199
-475.289	-83.141	-0.355	-0.114
-474.274	5.280	-0.170	0.125
-473.259	-2.823	-0.191	0.134
-472.245	18.597	-0.222	0.177
-471.230	-200.000	0.125	0.574
-470.216	-115.344	-0.156	-0.030
-469.201	-200.000	0.016	-0.127
-468.186	-200.000	0.043	0.232
-467.172	364.072	-0.139	0.280
-466.157	-200.000	0.017	0.160
-465.143	-200.000	0.022	-0.126
-464.128	-63.609	-0.306	0.126
-463.113	32.929	-0.115	0.100
-462.099	800.000	0.055	0.155
-461.084	317.584	-0.079	0.150
-460.070	204.036	-0.102	-0.159
-459.055	-19.910	0.122	0.075
-458.040	-12.717	0.057	0.037
-457.026	-90.403	0.175	0.051
-456.011	-19.398	-0.113	0.070
-454.997	-200.000	-0.003	0.226
-453.982	371.584	-0.075	-0.152
-452.968	-151.488	0.276	0.020
-451.953	1.626	-0.180	0.129
-450.938	-137.619	0.245	-0.028
-449.924	800.000	0.093	0.291
-448.909	-125.773	-0.306	-0.046
-447.895	800.000	0.056	-0.219
-446.880	-83.162	0.175	0.056
-445.865	144.144	0.058	-0.077
-444.851	-169.088	0.056	0.002
-443.836	-94.810	-0.221	0.060
-442.822	-36.245	0.089	-0.048
-441.807	-73.856	-0.079	0.029
-440.792	-128.151	0.266	-0.038
-439.778	314.256	-0.124	0.234
-438.763	-154.771	0.372	0.025
-437.749	69.481	0.058	-0.060
-436.734	347.070	-0.139	0.273
-435.719	-39.356	-0.046	-0.024
-434.705	800.000	-0.043	-0.183
-433.690	383.029	0.114	0.235
-432.676	135.737	-0.081	-0.106
-431.661	-200.000	-0.000	0.191
-430.646	-8.888	-0.131	0.088
-429.632	1.004	0.087	0.062
-428.617	115.191	0.217	0.265
-427.603	109.427	-0.147	-0.175
-426.588	127.833	0.231	-0.293
-425.573	183.578	-0.140	-0.207
-424.559	49.589	0.192	0.180
-423.544	-161.465	-0.164	0.008
-422.530	800.000	-0.040	-0.159
-421.515	-95.997	0.112	0.030
-420.500	-115.964	0.104	-0.019
-419.486	-54.103	-0.139	-0.063
-418.471	399.900	0.075	-0.157
-417.457	-50.298	-0.274	0.129
-416.442	-24.226	0.247	0.147
-415.428	549.317	0.062	0.148
-414.413	-200.000	-0.016	-0.218
-413.398	-200.000	-0.064	-0.310
-412.384	58.045	0.226	0.221
-411.369	40.979	0.091	-0.082
-410.355	-200.000	-0.070	0.363
-409.340	454.123	0.152	0.336
-408.325	-59.622	0.390	0.167
-407.311	148.069	-0.121	0.163
-406.296	368.940	0.093	-0.188
-405.282	800.000	0.091	0.283
-404.267	34.918	0.225	0.197
-403.252	-200.000	0.003	0.219
-402.238	-190.075	-0.174	0.002
-401.223	3.212	-0.294	0.214
-400.209	238.880	0.218	0.362
-399.194	-200.000	-0.004	0.086
-398.179	800.000	-0.027	0.113
-397.165	-18.593	0.117	-0.073
-396.150	-118.079	-0.232	0.041
-395.136	-7.137	-0.024	-0.016
-394.121	136.263	0.187	0.243
-393.106	-200.000	-0.072	-0.334
-392.092	-73.701	0.096	0.035
-391.077	-144.962	0.052	-0.005
-390.063	538.474	-0.054	-0.128
-389.048	-200.000	0.014	-0.063
-388.033	-106.180	0.444	0.099
-387.019	554.706	-0.109	0.263
-386.004	283.852	-0.117	-0.209
-384.990	616.826	-0.179	-0.447
-383.975	139.454	-0.144	-0.189
-382.960	-15.482	0.162	0.103
-381.946	135.274	0.132	0.171
-380.931	-200.000	-0.023	0.220
-379.917	-68.064	0.107	-0.042
-378.902	-200.000	0.026	0.180
-377.888	-0.815	0.199	-0.140
-376.873	51.714	0.120	0.114
-375.858	-200.000	-0.018	0.121
-374.844	-101.004	0.321	-0.079
-373.829	-52.696	-0.263	-0.121
-372.815	-200.000	-0.001	-0.044
-371.800	347.236	-0.126	-0.248
-370.785	-200.000	-0.006	0.174
-369.771	800.000	-0.055	-0.214
-368.756	660.517	0.062	0.160
-367.742	544.983	-0.105	-0.250
-366.727	-43.530	0.148	0.074
-365.712	121.745	0.066	0.082
-364.698	-96.867	0.060	0.016
-363.683	-61.258	-0.274	-0.115
-362.669	136.858	-0.213	-0.277
-361.654	-127.054	-0.110	0.016
-360.639	-183.459	-0.343	0.006
-359.625	-117.225	-0.202	-0.037
-358.610	242.080	0.118	-0.197
-357.596	39.829	0.108	0.096
-356.581	21.795	0.330	0.268
-355.566	26.848	-0.259	0.216
-354.552	187.979	0.189	-0.281
-353.537	-200.000	0.012	-0.311
-352.523	50.724	-0.161	-0.152
-351.508	169.663	0.076	-0.108
-350.493	19.569	-0.059	-0.047
-349.479	-9.155	-0.205	0.137
-348.464	-13.833	-0.099	0.064
-347.450	423.433	0.088	0.188
-346.435	-200.000	-0.011	-0.170
-345.420	-0.914	-0.214	-0.151
-344.406	318.040	-0.101	-0.189
-343.391	-66.968	-0.209	0.082
-342.377	-28.239	-0.186	-0.107
-341.362	90.739	0.059	-0.066
-340.348	59.437	0.148	0.145
-339.333	495.756	-0.037	0.085
-338.318	75.378	-0.086	-0.090
-337.304	-200.000	0.018	-0.243
-336.289	-200.000	-0.005	0.284
-335.275	63.810	0.169	0.169
-334.260	-182.858	0.018	-0.000
-333.245	-200.000	0.045	-0.290
-332.231	90.008	-0.103	-0.115
-331.216	407.377	0.072	-0.151
-330.202	175.273	-0.155	0.224
-329.187	800.000	0.018	0.062
-328.172	-128.548	-0.202	0.028
-327.158	-200.000	0.066	-0.332
-326.143	-78.720	-0.119	-0.041
-325.129	-60.446	0.160	0.068
-324.114	800.000	0.082	-0.241
-323.099	800.000	0.008	0.027
-322.085	-90.648	0.117	-0.034
-321.070	4.103	-0.142	0.103
-320.056	568.031	-0.117	0.282
-319.041	191.446	-0.153	0.229
-318.026	-28.920	0.185	0.106
-317.012	135.754	0.118	0.153
-315.997	361.326	0.164	-0.327
-314.983	-72.821	0.261	0.095
-313.968	-162.027	-0.314	0.016
-312.953	-82.512	0.056	-0.018
-311.939	493.759	-0.060	0.138
-310.924	-114.691	-0.165	0.031
-309.910	11.719	-0.048	-0.036
-308.895	-16.131	-0.085	0.054
-307.880	-20.880	-0.169	0.103
-306.866	-80.758	-0.181	-0.060
-305.851	289.089	0.082	-0.148
-304.837	23.150	-0.169	-0.138
-303.822	-133.922	0.122	-0.015
-302.807	800.000	-0.087	0.285
-301.793	327.721	0.246	-0.469
-300.778	-173.849	-0.065	-0.002
-299.764	-39.618	-0.197	0.103
-298.749	3.870	-0.163	0.118
-297.735	-81.051	0.359	0.118
-296.720	95.588	-0.139	-0.157
-295.705	-129.329	0.085	0.012
-294.691	13.415	0.166	0.128
-293.676	23.600	-0.170	-0.139
-292.662	30.120	-0.129	0.109
-291.647	-200.000	-0.018	0.171
-290.632	-64.631	0.239	0.096
-289.618	-172.485	0.273	0.009
-288.603	-200.000	0.076	-0.416
-287.589	800.000	0.056	-0.240
-286.574	-178.243	0.172	0.004
-285.559	-69.126	-0.047	-0.018
-284.545	175.672	0.150	0.216
-283.530	135.923	-0.082	-0.106
-282.516	98.151	-0.241	0.276
-281.501	104.964	0.210	0.246
-280.486	149.711	0.102	-0.137
-279.472	15.984	-0.178	0.139
-278.457	583.123	0.132	-0.321
-277.443	343.527	-0.061	-0.119
-276.428	-181.202	0.143	0.003
-275.413	43.053	-0.265	0.240
-274.399	156.658	-0.146	-0.201
-273.384	73.662	0.107	0.112
-272.370	50.627	0.400	0.375
-271.355	800.000	0.022	-0.094
-270.340	-135.727	0.447	-0.053
-269.326	-200.000	-0.012	0.408
-268.311	47.713	-0.175	0.162
-267.297	-130.082	-0.151	0.020
-266.282	-164.830	-0.100	0.004
-265.267	-200.000	0.049	0.214
-264.253	10.048	-0.149	-0.112
-263.238	108.305	0.164	-0.194
-262.224	-15.813	0.159	0.101
-261.209	19.940	0.150	0.120
-260.195	-86.367	0.026	0.008
-259.180	212.522	0.106	-0.166
-258.165	247.755	-0.044	-0.074
-257.151	-200.000	0.013	-0.330
-256.136	233.583	-0.188	-0.307
-255.122	-200.000	0.024	0.141
-254.107	100.676	0.152	0.175
-253.092	156.672	0.175	-0.240
-252.078	800.000	-0.112	-0.351
-251.063	800.000	-0.137	-0.423
-250.049	-154.541	0.157	0.010
-249.034	107.456	-0.087	0.103
-248.019	-10.923	-0.152	0.099
-247.005	302.907	-0.063	-0.115
-245.990	-109.493	0.152	-0.032
-244.976	-80.867	-0.053	0.017
-243.961	-200.000	-0.022	-0.124
-242.946	-44.955	-0.132	-0.065
-241.932	148.586	0.141	-0.188
-240.917	385.321	-0.161	-0.330
-239.903	800.000	0.089	0.296
-238.888	800.000	-0.018	0.054
-237.873	90.554	-0.191	-0.213
-236.859	-173.628	-0.089	0.003
-235.844	221.287	-0.101	0.160
-234.830	21.265	-0.155	-0.125
-233.815	-200.000	0.017	-0.275
-232.800	-200.000	-0.004	0.143
-231.786	157.114	-0.024	-0.033
-230.771	54.551	-0.124	0.118
-229.757	-143.789	0.138	-0.013
-228.742	-24.822	0.218	-0.128
-227.727	-68.934	-0.277	0.106
-226.713	800.000	0.069	0.191
-225.698	-71.756	-0.432	-0.160
-224.684	637.791	-0.062	-0.156
-223.669	674.389	-0.097	0.248
-222.655	-64.142	0.165	-0.067
-221.640	17.230	0.178	-0.140
-220.625	76.345	-0.099	-0.104
-219.611	-38.897	-0.237	-0.124
-218.596	111.798	-0.294	-0.352
-217.582	800.000	-0.045	-0.145
-216.567	437.803	-0.055	0.119
-215.552	95.596	0.090	-0.102
-214.538	-124.651	0.117	-0.018
-213.523	-64.363	-0.458	0.185
-212.509	-76.619	0.276	0.096
-211.494	-200.000	-0.052	0.305
-210.479	-124.885	0.308	0.047
-209.465	748.028	0.071	-0.188
-208.450	-106.107	0.304	-0.068
-207.436	468.309	-0.063	-0.140
-206.421	-200.000	0.040	0.192
-205.406	52.765	0.064	-0.061
-204.392	-26.359	-0.283	0.164
-203.377	-200.000	0.024	0.155
-202.363	800.000	0.101	0.391
-201.348	225.795	0.101	-0.163
-200.333	229.467	0.009	0.015
-199.319	800.000	-0.026	0.082
-198.304	-38.993	0.328	0.171
-197.290	278.776	0.123	0.217
-196.275	20.067	-0.169	-0.135
-195.260	-136.223	-0.122	-0.014
-194.246	-70.561	0.385	-0.144
-193.231	-162.396	0.218	0.011
-192.217	168.830	-0.076	-0.107
-191.202	497.118	-0.020	-0.045
-190.187	-113.460	0.284	0.055
-189.173	-81.349	0.132	0.043
-188.158	-64.465	0.429	0.173
-187.144	-79.251	-0.212	-0.071
-186.129	76.335	-0.169	0.177
-185.114	298.457	0.149	-0.271
-184.100	-16.303	-0.056	-0.035
-183.085	339.469	0.166	-0.320
-182.071	13.225	0.293	0.225
-181.056	-175.556	0.210	-0.006
-180.042	18.645	-0.145	0.115
-179.027	-123.536	-0.118	-0.019
-178.012	-200.000	-0.027	-0.163
-176.998	-200.000	0.061	0.442
-175.983	-52.258	-0.224	0.103
-174.969	-115.889	0.561	-0.104
-173.954	-33.563	0.203	-0.111
-172.939	233.956	0.008	0.013
-171.925	800.000	-0.013	0.045
-170.910	64.849	-0.152	-0.152
-169.896	-82.420	-0.212	-0.068
-168.881	-28.666	-0.264	-0.150
-167.866	-134.626	0.172	0.021
-166.852	173.722	0.187	-0.267
-165.837	-13.198	0.137	0.088
-164.823	-200.000	-0.151	-0.001
-163.808	-46.395	0.139	0.068
-162.793	139.696	-0.169	0.220
-161.779	-129.574	-0.178	0.024
-160.764	800.000	-0.091	0.268
-159.750	-200.000	-0.013	-0.125
-158.735	-25.312	-0.132	0.077
-157.720	772.681	-0.114	0.307
-156.706	416.610	0.099	0.209
-155.691	-200.000	-0.004	0.365
-154.677	20.340	-0.264	0.211
-153.662	800.000	-0.022	-0.075
-152.647	-200.000	0.004	0.106
-151.633	52.406	0.119	-0.112
-150.618	348.971	0.077	0.150
-149.604	83.148	-0.102	-0.110
-148.589	-200.000	-0.000	-0.025
-147.574	181.261	-0.101	0.147
-146.560	76.102	-0.066	0.069
-145.545	-14.465	0.043	-0.028
-144.531	502.640	-0.088	0.201
-143.516	101.639	0.187	0.215
-142.502	-200.000	0.029	0.233
-141.487	800.000	0.085	-0.281
-140.472	-200.000	0.005	-0.083
-139.458	105.810	-0.098	-0.114
-138.443	-111.043	-0.288	-0.058
-137.429	800.000	-0.053	0.157
-136.414	23.059	-0.032	-0.026
-135.399	643.971	0.134	0.338
-134.385	722.193	-0.030	-0.080
-133.370	-142.290	0.204	-0.020
-132.356	800.000	-0.069	0.217
-131.341	-200.000	0.045	0.282
-130.326	-200.000	-0.001	-0.047
-129.312	0.330	-0.367	0.258
-128.297	-18.109	-0.160	0.099
-127.283	406.498	-0.007	-0.014
-126.268	93.927	-0.164	0.184
-125.253	-176.684	0.465	-0.012
-124.239	-126.674	0.053	0.008
-123.224	72.981	0.248	0.256
-122.210	462.877	0.119	-0.262
-121.195	-104.926	-0.169	-0.038
