DTS Sentinel unit serial number:	SN413079Multiplexer serial number:	ORYXHardware model number:	OX4-SRSoftware version number:	ORYX F/W v4.00 Oryx Data Collector v3.7.2.0data status	okinstallation	princeton_trtdifferential loss correction	single-endedforward channel	channel 1reverse channel	N/Adate	2019/09/10time	23:24:11forward acquisition time	60.00reverse acquisition time	0.00gamma	496.2192k internal	0.2331k external	0.2331temperature offset calibration	0.9938default loss term (dB/km)	0.3790temperature slope calibration	1.0000multiplexer offset coefficient	1.0000multiplexer slope coefficient	1.0000fibre end	0.00T internal ref (°C)	29.77T ext. ref 1 (°C)	-0.31T ext. ref 2 (°C)	23.22length (m)	temperature (°C)	Stokes	anti-Stokes-747.200	-122.784	0.208	-0.034
-746.185	-200.000	0.082	0.448
-745.171	16.555	0.330	0.263
-744.156	-197.603	-0.121	-0.001
-743.142	4.559	0.234	0.173
-742.127	82.456	0.124	0.135
-741.112	-36.981	0.165	-0.089
-740.098	-142.546	-0.199	-0.020
-739.083	-34.081	-0.166	0.092
-738.069	-200.000	0.024	0.163
-737.054	-128.930	-0.213	0.030
-736.039	363.676	0.081	-0.165
-735.025	613.997	0.064	0.161
-734.010	392.954	0.029	0.061
-732.996	-32.970	0.459	0.256
-731.981	-5.285	-0.102	-0.071
-730.966	450.506	-0.087	0.194
-729.952	-125.014	-0.133	-0.021
-728.937	-200.000	0.016	0.339
-727.923	-200.000	-0.012	-0.143
-726.908	-15.046	0.108	0.070
-725.894	-200.000	-0.019	-0.196
-724.879	-28.001	0.127	-0.074
-723.864	-10.436	-0.203	-0.135
-722.850	-48.217	-0.111	0.054
-721.835	184.053	-0.191	0.284
-720.821	553.346	0.065	-0.158
-719.806	43.737	-0.119	-0.110
-718.791	608.767	0.053	-0.133
-717.777	349.175	-0.127	0.252
-716.762	-146.910	0.100	-0.009
-715.748	3.780	0.344	0.252
-714.733	613.407	-0.189	-0.475
-713.718	-126.869	0.364	-0.054
-712.704	-133.797	-0.247	-0.031
-711.689	800.000	0.042	-0.138
-710.675	35.631	0.059	-0.052
-709.660	-51.243	-0.175	0.082
-708.645	-160.985	-0.306	-0.016
-707.631	147.488	-0.167	-0.226
-706.616	-77.988	-0.216	0.075
-705.602	-200.000	0.006	0.242
-704.587	-200.000	-0.046	-0.296
-703.572	800.000	-0.050	0.183
-702.558	-200.000	-0.002	-0.028
-701.543	266.421	-0.165	0.290
-700.529	-162.454	0.146	0.007
-699.514	-102.465	-0.118	0.028
-698.499	387.445	-0.113	0.235
-697.485	-87.701	-0.205	0.062
-696.470	800.000	-0.074	-0.302
-695.456	-20.330	0.242	-0.149
-694.441	-23.355	0.334	0.201
-693.426	25.350	0.330	0.275
-692.412	290.069	-0.149	-0.272
-691.397	-154.673	-0.173	-0.012
-690.383	800.000	-0.066	-0.239
-689.368	800.000	-0.061	-0.184
-688.354	-74.813	-0.191	-0.069
-687.339	190.830	0.069	0.104
-686.324	800.000	0.014	0.050
-685.310	-72.579	0.183	-0.068
-684.295	60.392	0.208	-0.207
-683.281	2.824	0.180	0.131
-682.266	-6.327	0.158	0.108
-681.251	-200.000	-0.066	-0.497
-680.237	171.079	-0.151	0.218
-679.222	-85.028	0.324	0.102
-678.208	-200.000	0.028	0.127
-677.193	-91.966	-0.362	0.103
-676.178	-65.025	-0.328	0.133
-675.164	489.002	-0.041	-0.095
-674.149	-123.243	0.040	-0.006
-673.135	123.678	0.177	0.223
-672.120	535.790	0.167	0.398
-671.105	800.000	-0.046	0.194
-670.091	-8.471	0.200	0.135
-669.076	-200.000	-0.008	0.181
-668.062	-200.000	-0.023	-0.172
-667.047	123.448	0.128	-0.161
-666.032	116.627	0.151	-0.185
-665.018	31.957	-0.160	-0.138
-664.003	431.338	0.082	-0.179
-662.989	37.163	-0.266	-0.236
-661.974	-70.307	-0.279	-0.106
-660.959	-124.746	-0.090	-0.014
-659.945	82.813	-0.067	-0.073
-658.930	131.232	0.084	-0.108
-657.916	800.000	-0.031	0.091
-656.901	117.746	-0.070	0.086
-655.886	303.908	-0.107	-0.199
-654.872	115.681	-0.061	0.075
-653.857	800.000	-0.047	-0.140
-652.843	-95.399	0.531	-0.143
-651.828	-200.000	-0.020	-0.162
-650.814	392.856	0.155	-0.323
-649.799	705.365	0.056	-0.148
-648.784	-51.517	-0.105	-0.049
-647.770	-200.000	0.007	-0.039
-646.755	-200.000	0.039	-0.312
-645.741	-97.170	-0.196	0.051
-644.726	-59.784	-0.397	-0.170
-643.711	103.996	0.104	-0.123
-642.697	-76.057	-0.190	-0.067
-641.682	554.240	-0.095	0.229
-640.668	165.677	0.186	-0.264
-639.653	-14.148	-0.118	0.077
-638.638	40.733	0.231	-0.209
-637.624	8.057	-0.138	0.104
-636.609	800.000	0.053	0.209
-635.595	-159.470	-0.271	-0.015
-634.580	-97.648	-0.128	0.033
-633.565	-200.000	0.063	0.293
-632.551	-200.000	-0.003	-0.120
-631.536	159.620	0.141	-0.197
-630.522	-200.000	0.057	-0.334
-629.507	800.000	-0.054	-0.238
-628.492	37.243	0.311	-0.276
-627.478	-119.046	0.179	-0.031
-626.463	394.467	0.133	-0.277
-625.449	-76.227	0.105	0.037
-624.434	-93.595	-0.210	0.058
-623.419	-43.882	0.362	-0.182
-622.405	-14.298	-0.272	0.176
-621.390	-104.017	0.192	-0.045
-620.376	800.000	0.062	-0.179
-619.361	800.000	-0.025	-0.092
-618.346	9.037	0.168	-0.127
-617.332	515.997	-0.124	-0.290
-616.317	-94.512	0.175	-0.048
-615.303	-200.000	0.019	0.124
-614.288	-143.166	-0.240	0.023
-613.273	-200.000	-0.012	-0.091
-612.259	-200.000	0.048	-0.327
-611.244	538.302	0.081	0.193
-610.230	258.124	-0.113	0.195
-609.215	-200.000	0.036	0.208
-608.201	-200.000	-0.067	-0.474
-607.186	-104.171	0.057	-0.013
-606.171	190.125	-0.044	0.066
-605.157	788.049	0.033	0.090
-604.142	-200.000	-0.018	-0.254
-603.128	-26.050	-0.427	-0.252
-602.113	-200.000	-0.026	-0.203
-601.098	-161.872	0.284	0.014
-600.084	-167.274	0.257	0.010
-599.069	-61.006	0.209	-0.088
-598.055	-41.034	0.385	0.199
-597.040	155.908	0.142	0.196
-596.025	-159.035	-0.427	-0.024
-595.011	-6.326	-0.194	-0.132
-593.996	259.361	0.089	0.153
-592.982	93.180	-0.273	-0.309
-591.967	-140.007	-0.272	-0.029
-590.952	348.089	0.040	0.080
-589.938	-200.000	0.005	0.352
-588.923	-200.000	-0.042	-0.000
-587.909	-102.767	0.364	0.087
-586.894	-200.000	0.034	0.256
-585.879	-200.000	0.032	0.318
-584.865	-98.092	0.211	-0.054
-583.850	-46.718	-0.317	-0.155
-582.836	27.612	-0.403	-0.339
-581.821	-169.875	0.235	0.008
-580.806	309.815	-0.108	-0.202
-579.792	-183.409	0.146	-0.003
-578.777	-200.000	0.019	-0.285
-577.763	32.853	0.267	0.231
-576.748	-200.000	0.001	-0.318
-575.733	-200.000	0.013	-0.126
-574.719	-40.176	-0.028	-0.015
-573.704	294.550	-0.090	-0.164
-572.690	-115.362	-0.116	-0.022
-571.675	-200.000	-0.030	0.136
-570.661	69.770	-0.224	-0.231
-569.646	-140.833	-0.277	-0.028
-568.631	-4.179	0.222	0.154
-567.617	692.887	-0.126	-0.330
-566.602	39.793	0.007	0.006
-565.588	6.623	0.405	0.301
-564.573	167.262	-0.214	0.304
-563.558	-71.979	-0.092	-0.034
-562.544	-12.731	0.163	0.106
-561.529	-200.000	0.055	0.318
-560.515	-78.669	0.143	0.049
-559.500	64.461	-0.262	-0.264
-558.485	123.128	0.073	0.092
-557.471	27.729	-0.186	0.157
-556.456	401.782	-0.122	0.255
-555.442	17.652	0.146	0.116
-554.427	432.378	0.113	-0.244
-553.412	233.020	0.135	-0.222
-552.398	-200.000	-0.015	-0.086
-551.383	-25.175	-0.064	-0.038
-550.369	-95.922	0.329	0.088
-549.354	-135.587	0.370	-0.044
-548.339	-13.664	0.198	0.128
-547.325	-200.000	0.031	0.178
-546.310	-79.977	-0.223	-0.075
-545.296	-200.000	0.036	0.176
-544.281	-84.682	0.081	-0.025
-543.266	-82.697	0.180	0.058
-542.252	800.000	0.036	-0.101
-541.237	-200.000	-0.020	-0.137
-540.223	178.797	0.032	0.046
-539.208	-161.871	0.205	0.010
-538.193	800.000	-0.065	-0.268
-537.179	6.448	-0.319	-0.236
-536.164	-200.000	-0.000	0.048
-535.150	-160.370	0.088	0.005
-534.135	800.000	-0.098	-0.408
-533.121	-200.000	-0.022	-0.283
-532.106	-200.000	0.025	-0.296
-531.091	128.720	-0.141	-0.179
-530.077	800.000	0.054	0.184
-529.062	-24.955	-0.207	0.122
-528.048	158.731	0.172	0.238
-527.033	-190.848	-0.154	0.002
-526.018	-35.480	0.076	0.041
-525.004	46.916	0.043	-0.040
-523.989	314.470	-0.196	-0.369
-522.975	13.678	-0.178	-0.138
-521.960	79.510	-0.065	-0.070
-520.945	-106.986	0.189	-0.042
-519.931	39.962	0.314	-0.281
-518.916	-49.019	0.172	0.082
-517.902	-200.000	0.009	-0.053
-516.887	352.579	-0.107	-0.211
-515.872	-200.000	-0.017	0.147
-514.858	-144.397	-0.468	0.043
-513.843	-112.262	-0.352	0.070
-512.829	-200.000	0.002	-0.041
-511.814	-143.560	-0.177	0.017
-510.799	-85.393	-0.115	-0.036
-509.785	-97.309	-0.373	0.097
-508.770	-61.938	-0.195	-0.081
-507.756	-189.077	-0.472	0.006
-506.741	-200.000	-0.070	-0.374
-505.726	-38.781	-0.149	-0.078
-504.712	-72.651	0.280	-0.103
-503.697	-77.169	0.043	0.015
-502.683	273.382	-0.122	0.215
-501.668	-200.000	0.074	-0.338
-500.653	-98.860	-0.045	-0.011
-499.639	-31.138	0.147	0.083
-498.624	111.105	-0.172	0.206
-497.610	29.978	-0.191	-0.162
-496.595	-89.750	-0.230	0.067
-495.581	-69.915	0.132	-0.050
-494.566	-145.550	0.241	-0.022
-493.551	-135.548	0.098	0.012
-492.537	-39.177	-0.226	-0.118
-491.522	-200.000	0.002	-0.124
-490.508	-160.547	0.117	-0.006
-489.493	216.792	0.136	-0.215
-488.478	-200.000	-0.005	-0.295
-487.464	246.167	0.188	0.316
-486.449	235.786	0.068	0.112
-485.435	291.567	-0.091	-0.164
-484.420	11.426	-0.236	0.180
-483.405	-21.250	0.161	-0.098
-482.391	300.567	-0.072	-0.133
-481.376	-47.033	0.296	0.144
-480.362	170.199	-0.050	0.071
-479.347	-200.000	0.033	0.269
-478.332	252.985	0.039	-0.066
-477.318	46.555	-0.079	0.073
-476.303	167.802	0.120	0.170
-475.289	24.108	-0.278	0.228
-474.274	108.180	0.084	-0.100
-473.259	243.849	0.256	-0.428
-472.245	193.821	0.033	-0.050
-471.230	-9.873	-0.135	-0.090
-470.216	-51.349	-0.327	0.152
-469.201	-200.000	0.079	0.500
-468.186	-9.955	0.200	-0.133
-467.172	-152.382	0.246	-0.018
-466.157	-200.000	0.038	-0.223
-465.143	-17.688	-0.083	-0.052
-464.128	-76.907	0.397	0.138
-463.113	72.113	0.124	0.128
-462.099	-80.958	-0.131	0.043
-461.084	800.000	-0.017	-0.073
-460.070	800.000	0.063	-0.189
-459.055	-200.000	0.014	-0.226
-458.040	-91.765	-0.112	0.032
-457.026	-103.588	0.367	-0.086
-456.011	88.746	-0.182	-0.202
-454.997	21.551	0.187	-0.151
-453.982	-200.000	-0.079	0.369
-452.968	349.989	0.042	-0.083
-451.953	-51.195	0.160	0.074
-450.938	-48.493	0.426	0.204
-449.924	-119.876	-0.235	0.040
-448.909	-70.517	-0.112	0.042
-447.895	91.170	0.107	0.120
-446.880	-84.111	0.334	0.105
-445.865	-140.196	-0.111	0.012
-444.851	92.804	-0.064	-0.072
-443.836	70.546	0.146	-0.150
-442.822	-102.221	-0.417	-0.100
-441.807	216.000	0.150	-0.238
-440.792	-150.036	0.075	0.006
-439.778	800.000	-0.081	0.231
-438.763	-162.385	-0.243	-0.012
-437.749	51.195	-0.166	0.157
-436.734	-74.567	0.242	-0.087
-435.719	179.858	0.122	-0.177
-434.705	11.405	0.192	0.146
-433.690	445.064	0.078	-0.170
-432.676	-117.071	0.092	0.017
-431.661	205.802	0.057	0.088
-430.646	-11.927	0.112	-0.073
-429.632	-114.550	-0.373	0.071
-428.617	800.000	-0.064	-0.179
-427.603	-60.615	-0.083	-0.035
-426.588	-200.000	-0.033	0.327
-425.573	192.946	0.131	0.197
-424.559	173.860	0.075	0.107
-423.544	-23.377	0.208	-0.124
-422.530	-66.016	-0.149	-0.059
-421.515	77.468	-0.044	-0.046
-420.500	231.405	-0.177	-0.288
-419.486	-200.000	-0.077	-0.691
-418.471	-59.123	-0.142	0.061
-417.457	-108.516	0.353	-0.076
-416.442	10.145	-0.193	-0.146
-415.428	35.750	0.181	-0.158
-414.413	-144.841	-0.302	0.027
-413.398	-100.180	0.307	0.076
-412.384	-12.828	0.195	0.126
-411.369	72.557	0.100	-0.103
-410.355	-171.251	0.080	0.003
-409.340	-98.587	0.281	-0.071
-408.325	-90.268	-0.232	0.067
-407.311	110.909	-0.251	-0.300
-406.296	85.678	-0.327	-0.357
-405.282	-200.000	-0.046	0.242
-404.267	-40.402	0.213	0.110
-403.252	-200.000	-0.054	0.300
-402.238	-61.750	0.248	0.103
-401.223	52.821	-0.070	-0.067
-400.209	-200.000	-0.032	0.333
-399.194	36.684	-0.064	-0.056
-398.179	743.795	0.056	0.150
-397.165	-67.749	-0.099	0.038
-396.150	-143.023	-0.683	0.066
-395.136	410.209	0.054	-0.115
-394.121	-119.425	0.113	0.019
-393.106	107.743	-0.313	-0.370
-392.092	800.000	0.101	-0.322
-391.077	324.154	0.186	-0.353
-390.063	334.003	-0.115	-0.220
-389.048	-95.585	0.383	0.102
-388.033	-133.270	0.342	0.043
-387.019	-167.378	0.550	0.022
-386.004	-63.209	-0.198	-0.081
-384.990	129.803	0.231	0.293
-383.975	20.539	-0.165	-0.133
-382.960	800.000	-0.033	0.112
-381.946	-86.944	-0.094	-0.028
-380.931	-160.808	-0.102	-0.005
-379.917	366.654	-0.062	0.125
-378.902	-111.414	-0.254	0.051
-377.888	-12.684	0.076	-0.049
-376.873	-200.000	0.041	0.258
-375.858	-80.552	0.155	0.051
-374.844	800.000	0.130	0.355
-373.829	-120.444	0.156	-0.026
-372.815	-165.666	0.114	0.005
-371.800	-200.000	-0.030	-0.219
-370.785	669.372	0.064	-0.164
-369.771	800.000	-0.023	0.092
-368.756	-200.000	-0.001	0.195
-367.742	214.141	0.086	-0.135
-366.727	3.957	0.158	0.115
-365.712	235.286	0.230	0.377
-364.698	800.000	0.074	0.208
-363.683	4.987	-0.198	-0.144
-362.669	-193.450	-0.243	-0.002
-361.654	167.524	-0.178	0.250
-360.639	-200.000	-0.017	0.236
-359.625	-38.486	-0.128	-0.067
-358.610	-70.961	-0.259	0.097
-357.596	100.986	-0.186	0.215
-356.581	122.676	-0.177	0.220
-355.566	-12.527	0.291	0.188
-354.552	800.000	-0.013	-0.054
-353.537	800.000	0.020	0.057
-352.523	178.130	0.038	0.055
-351.508	601.104	0.116	-0.286
-350.493	-135.806	0.389	0.046
-349.479	74.186	0.169	0.176
-348.464	-200.000	-0.074	-0.367
-347.450	-8.618	-0.290	0.193
-346.435	-200.000	-0.013	0.271
-345.420	-14.237	-0.175	-0.112
-344.406	-57.789	-0.102	0.044
-343.391	800.000	-0.082	0.340
-342.377	17.484	0.201	0.158
-341.362	-131.238	-0.273	0.036
-340.348	-200.000	0.020	0.121
-339.333	19.738	-0.090	0.072
-338.318	532.422	0.137	-0.322
-337.304	138.824	-0.253	-0.329
-336.289	-74.065	0.416	-0.149
-335.275	434.504	-0.230	0.494
-334.260	221.498	-0.066	-0.106
-333.245	140.536	-0.188	0.245
-332.231	-119.796	0.296	0.051
-331.216	-40.017	-0.094	0.049
-330.202	-200.000	-0.007	-0.060
-329.187	321.970	-0.080	0.151
-328.172	28.557	-0.344	0.288
-327.158	-46.238	0.165	0.080
-326.143	360.484	-0.204	0.404
-325.129	-142.378	0.213	0.021
-324.114	787.193	-0.046	0.124
-323.099	440.410	-0.011	-0.023
-322.085	223.620	0.191	-0.305
-321.070	174.384	0.100	-0.142
-320.056	-200.000	-0.041	0.233
-319.041	654.813	0.009	-0.023
-318.026	37.424	-0.212	-0.186
-317.012	233.598	-0.245	0.399
-315.997	116.362	-0.344	0.417
-314.983	108.710	-0.205	0.242
-313.968	96.787	-0.111	-0.126
-312.953	-200.000	-0.053	0.357
-311.939	-35.484	-0.301	0.162
-310.924	-110.259	0.323	0.067
-309.910	-141.945	0.440	-0.043
-308.895	230.789	-0.067	-0.108
-307.880	-200.000	0.003	0.025
-306.866	800.000	-0.040	0.157
-305.851	-13.939	0.075	0.048
-304.837	12.687	-0.098	0.075
-303.822	-200.000	0.000	-0.168
-302.807	-200.000	-0.040	-0.216
-301.793	-124.043	-0.201	0.031
-300.778	-65.078	0.265	-0.106
-299.764	-118.912	-0.161	-0.028
-298.749	74.852	0.249	0.259
-297.735	-123.306	0.026	0.004
-296.720	-200.000	0.022	0.137
-295.705	-39.874	-0.167	0.086
-294.691	800.000	0.165	-0.486
-293.676	-200.000	0.002	0.132
-292.662	-200.000	0.324	0.000
-291.647	800.000	0.056	0.208
-290.632	357.878	-0.030	-0.058
-289.618	-4.107	-0.124	-0.085
-288.603	800.000	-0.117	0.320
-287.589	-194.374	-0.076	-0.001
-286.574	800.000	-0.015	0.066
-285.559	98.619	-0.061	0.070
-284.545	571.977	0.067	-0.161
-283.530	137.132	0.074	-0.095
-282.516	163.573	-0.122	0.170
-281.501	-2.742	-0.158	-0.109
-280.486	-72.120	-0.461	0.169
-279.472	-113.820	-0.188	-0.036
-278.457	39.409	-0.097	-0.086
-277.443	-200.000	-0.007	0.122
-276.428	-71.228	-0.100	-0.037
-275.413	792.108	0.099	0.268
-274.399	295.074	0.071	-0.128
-273.384	-95.625	0.498	0.132
-272.370	159.194	0.152	0.209
-271.355	435.655	-0.026	-0.055
-270.340	-33.122	-0.338	0.185
-269.326	70.016	-0.175	0.178
-268.311	164.692	0.081	-0.113
-267.297	356.133	0.098	-0.193
-266.282	-75.651	0.091	0.032
-265.267	196.059	0.134	-0.201
-264.253	-94.387	0.019	0.005
-263.238	205.494	0.153	0.235
-262.224	141.848	-0.285	-0.373
-261.209	-13.009	-0.167	-0.107
-260.195	-24.473	-0.284	0.167
-259.180	-9.564	-0.087	0.057
-258.165	-200.000	0.007	-0.336
-257.151	27.671	0.339	0.282
-256.136	-97.069	-0.253	-0.065
-255.122	393.133	0.091	-0.187
-254.107	128.595	0.211	-0.266
-253.092	492.639	0.186	0.421
-252.078	41.037	-0.055	0.049
-251.063	-200.000	-0.046	0.211
-250.049	-141.900	-0.122	0.012
-249.034	800.000	0.061	-0.245
-248.019	328.337	0.106	0.200
-247.005	33.887	-0.126	-0.109
-245.990	-200.000	0.015	-0.138
-244.976	-81.458	-0.221	-0.072
-243.961	7.252	0.164	-0.121
-242.946	-112.918	0.159	-0.031
-241.932	-48.963	0.358	0.169
-240.917	-200.000	0.055	-0.381
-239.903	-90.027	-0.217	-0.062
-238.888	83.117	-0.092	-0.099
-237.873	211.074	-0.133	0.207
-236.859	-52.494	0.319	-0.146
-235.844	-200.000	-0.062	-0.324
-234.830	32.961	-0.083	-0.071
-233.815	170.809	0.126	-0.178
-232.800	-30.254	-0.082	-0.046
-231.786	-200.000	-0.040	0.207
-230.771	-45.929	-0.312	0.152
-229.757	320.157	0.254	0.476
-228.742	42.992	-0.134	-0.121
-227.727	-200.000	0.056	0.275
-226.713	-8.300	0.064	0.042
-225.698	178.100	-0.085	0.123
-224.684	-200.000	0.000	0.003
-223.669	141.096	-0.054	0.070
-222.655	-86.362	-0.115	0.035
-221.640	-200.000	-0.024	-0.166
-220.625	147.459	0.230	0.305
-219.611	14.713	0.220	0.170
-218.596	-200.000	0.010	-0.216
-217.582	-54.409	0.184	0.082
-216.567	-66.661	-0.130	-0.051
-215.552	135.014	-0.102	-0.131
-214.538	82.704	0.203	0.217
-213.523	1.458	0.115	-0.082
-212.509	-48.599	0.090	-0.043
-211.494	800.000	0.018	-0.071
-210.479	-86.088	0.100	-0.030
-209.465	261.847	-0.145	0.248
-208.450	24.149	0.137	-0.111
-207.436	-46.963	0.103	-0.050
-206.421	308.184	0.087	-0.160
-205.406	707.318	-0.051	0.134
-204.392	146.827	-0.127	0.169
-203.377	-104.209	0.194	0.045
-202.363	106.023	-0.179	-0.209
-201.348	800.000	-0.038	-0.121
-200.333	-200.000	-0.079	0.000
-199.319	-176.174	0.052	0.001
-198.304	-143.018	-0.118	-0.011
-197.290	20.967	-0.128	-0.103
-196.275	-25.586	-0.181	0.105
-195.260	107.934	-0.105	-0.123
-194.246	-119.795	-0.134	0.023
-193.231	277.178	0.145	0.254
-192.217	147.090	-0.225	-0.298
-191.202	404.462	-0.039	0.081
-190.187	300.993	0.139	0.252
-189.173	426.117	0.149	-0.315
-188.158	-33.954	-0.288	0.156
-187.144	728.568	0.007	0.019
-186.129	-60.542	0.389	-0.163
-185.114	-200.000	0.047	-0.215
-184.100	644.524	-0.095	0.238
-183.085	535.406	-0.075	-0.174
-182.071	6.192	0.079	-0.058
-181.056	-133.964	0.368	-0.045
-180.042	-200.000	0.034	0.206
-179.027	-84.865	0.327	-0.101
-178.012	297.208	0.033	0.059
-176.998	-200.000	-0.024	0.393
-175.983	94.039	-0.297	0.331
-174.969	257.237	0.189	-0.320
-173.954	-135.077	-0.125	0.015
-172.939	800.000	0.034	-0.141
-171.925	800.000	-0.114	0.352
-170.910	79.829	-0.298	0.315
-169.896	67.248	0.086	0.086
-168.881	399.170	0.105	-0.217
-167.866	-27.379	0.372	0.213
-166.852	800.000	-0.061	0.223
-165.837	258.495	-0.095	-0.161
-164.823	565.921	0.118	-0.282
-163.808	-84.472	0.107	-0.033
-162.793	432.923	0.125	0.267
-161.779	-63.286	-0.205	0.083
-160.764	50.369	-0.157	0.146
-159.750	-58.951	-0.070	-0.030
-158.735	-84.398	0.338	0.105
-157.720	800.000	0.104	0.391
-156.706	268.441	-0.009	-0.015
-155.691	-47.111	0.304	0.146
-154.677	-55.719	0.029	0.013
-153.662	184.583	-0.127	0.186
-152.647	-26.697	-0.280	-0.161
-151.633	261.636	-0.114	-0.194
-150.618	-135.388	-0.176	-0.021
-149.604	-44.197	0.076	0.038
-148.589	-200.000	-0.026	0.275
-147.574	-78.241	-0.435	0.147
-146.560	133.381	0.012	0.015
-145.545	13.887	-0.025	-0.019
-144.531	89.693	0.141	-0.154
-143.516	19.707	-0.117	0.093
-142.502	-200.000	-0.027	-0.157
-141.487	-5.517	0.096	0.065
-140.472	-91.685	-0.303	0.085
-139.458	800.000	0.112	0.387
-138.443	-43.044	-0.325	0.162
-137.429	-147.918	0.244	0.020
-136.414	-191.799	-0.123	-0.001
-135.399	-200.000	0.015	-0.105
-134.385	-123.584	0.197	-0.031
-133.370	66.111	0.211	0.210
-132.356	-31.583	-0.085	0.047
-131.341	388.744	-0.273	-0.555
-130.326	800.000	0.044	-0.186
-129.312	47.887	0.227	0.208
-128.297	389.116	-0.122	0.249
-127.283	-200.000	0.017	0.464
-126.268	-10.376	-0.207	0.135
-125.253	-175.331	0.121	-0.003
-124.239	58.714	0.139	0.134
-123.224	55.017	-0.110	0.105
-122.210	328.764	-0.125	-0.236
-121.195	196.590	0.097	0.145
