DTS Sentinel unit serial number:	SN413079Multiplexer serial number:	ORYXHardware model number:	OX4-SRSoftware version number:	ORYX F/W v4.00 Oryx Data Collector v3.7.2.0data status	okinstallation	princeton_trtdifferential loss correction	single-endedforward channel	channel 1reverse channel	N/Adate	2019/09/14time	11:38:35forward acquisition time	60.00reverse acquisition time	0.00gamma	496.2192k internal	0.2297k external	0.2297temperature offset calibration	1.0090default loss term (dB/km)	0.3790temperature slope calibration	1.0000multiplexer offset coefficient	1.0000multiplexer slope coefficient	1.0000fibre end	0.00T internal ref (°C)	36.87T ext. ref 1 (°C)	4.58T ext. ref 2 (°C)	33.46length (m)	temperature (°C)	Stokes	anti-Stokes-747.200	-163.255	0.267	0.013
-746.185	29.270	-0.109	0.094
-745.171	-0.743	-0.218	0.158
-744.156	109.758	-0.062	0.076
-743.142	-200.000	-0.038	0.227
-742.127	-149.221	-0.165	-0.013
-741.112	-142.178	0.161	-0.016
-740.098	800.000	0.086	-0.370
-739.083	-200.000	0.025	-0.383
-738.069	298.842	0.019	-0.036
-737.054	799.055	-0.048	-0.135
-736.039	800.000	0.077	0.241
-735.025	-49.154	-0.271	-0.132
-734.010	684.326	0.048	0.128
-732.996	-12.657	-0.237	-0.158
-731.981	80.010	0.078	0.086
-730.966	319.707	0.150	-0.291
-729.952	-114.435	-0.224	-0.044
-728.937	-22.674	0.318	-0.196
-727.923	-41.967	0.021	-0.011
-726.908	148.008	0.086	-0.118
-725.894	-200.000	0.007	-0.089
-724.879	-200.000	-0.015	-0.386
-723.864	-200.000	0.033	-0.343
-722.850	-111.411	-0.098	0.020
-721.835	-200.000	0.003	-0.018
-720.821	-23.643	-0.166	-0.101
-719.806	113.422	-0.167	0.207
-718.791	66.720	-0.012	0.012
-717.777	-200.000	0.076	0.346
-716.762	-200.000	0.017	0.161
-715.748	38.057	0.339	-0.307
-714.733	426.919	-0.096	-0.212
-713.718	-10.650	0.109	-0.074
-712.704	-41.739	-0.251	-0.131
-711.689	28.938	-0.134	0.116
-710.675	-200.000	0.017	-0.125
-709.660	800.000	-0.045	-0.180
-708.645	-200.000	-0.077	0.348
-707.631	-73.758	0.141	0.052
-706.616	-200.000	0.038	0.384
-705.602	53.545	0.328	0.321
-704.587	-200.000	0.006	-0.115
-703.572	-8.147	-0.198	-0.136
-702.558	-12.550	-0.100	-0.066
-701.543	369.582	-0.056	0.116
-700.529	800.000	-0.022	0.064
-699.514	502.516	0.140	-0.329
-698.499	235.561	-0.094	-0.159
-697.485	800.000	0.002	-0.006
-696.470	423.328	0.083	-0.183
-695.456	800.000	-0.096	-0.406
-694.441	800.000	0.034	0.112
-693.426	328.901	-0.201	-0.394
-692.412	-200.000	0.024	-0.113
-691.397	55.170	-0.052	-0.051
-690.383	800.000	-0.056	-0.236
-689.368	-200.000	0.043	0.227
-688.354	69.920	-0.147	-0.155
-687.339	-178.321	0.191	0.005
-686.324	-7.511	-0.024	0.016
-685.310	-49.088	-0.228	0.111
-684.295	295.881	-0.128	-0.240
-683.281	800.000	-0.120	-0.423
-682.266	-20.952	-0.061	-0.038
-681.251	59.615	-0.147	-0.148
-680.237	-97.268	-0.171	0.045
-679.222	541.674	0.031	-0.076
-678.208	84.871	0.109	0.122
-677.193	-200.000	-0.001	-0.052
-676.178	-13.476	0.055	-0.036
-675.164	165.246	-0.127	0.183
-674.149	-97.380	-0.135	0.036
-673.135	-200.000	0.052	-0.396
-672.120	-200.000	0.003	0.155
-671.105	1.753	-0.190	0.139
-670.091	-31.750	-0.088	0.050
-669.076	19.737	0.096	-0.079
-668.062	9.767	-0.124	-0.096
-667.047	162.914	0.239	0.342
-666.032	-89.939	-0.154	-0.046
-665.018	292.672	-0.047	0.087
-664.003	5.130	0.206	0.154
-662.989	-200.000	-0.145	0.000
-661.974	-108.756	-0.235	-0.051
-660.959	-150.911	0.167	-0.013
-659.945	800.000	0.099	0.308
-658.930	-145.664	0.218	-0.020
-657.916	364.597	-0.233	0.477
-656.901	-73.672	0.346	-0.128
-655.886	-50.353	0.159	-0.077
-654.872	-200.000	-0.020	0.166
-653.857	51.605	0.072	0.070
-652.843	186.415	0.099	-0.150
-651.828	-200.000	-0.024	-0.139
-650.814	-26.999	-0.315	0.187
-649.799	-200.000	0.025	0.280
-648.784	-200.000	0.017	0.162
-647.770	-119.115	0.229	0.041
-646.755	800.000	0.133	-0.382
-645.741	-4.016	0.081	-0.057
-644.726	173.961	-0.120	0.176
-643.711	-23.859	-0.202	0.123
-642.697	274.322	0.103	-0.186
-641.682	800.000	0.035	-0.143
-640.668	-54.613	-0.206	0.095
-639.653	69.485	-0.229	-0.240
-638.638	-118.665	-0.143	-0.026
-637.624	-158.847	0.013	-0.001
-636.609	-81.794	-0.212	-0.071
-635.595	-62.151	0.074	0.031
-634.580	-123.261	-0.092	0.015
-633.565	33.630	0.153	0.136
-632.551	-77.899	-0.143	-0.050
-631.536	-31.016	0.101	0.058
-630.522	-75.660	0.102	0.037
-629.507	-200.000	-0.038	-0.192
-628.492	-200.000	-0.287	-0.000
-627.478	800.000	-0.030	-0.123
-626.463	-200.000	-0.009	-0.142
-625.449	25.191	-0.393	-0.332
-624.434	0.842	-0.058	0.043
-623.419	168.751	0.199	0.288
-622.405	-200.000	0.006	0.118
-621.390	197.833	0.121	-0.188
-620.376	24.760	-0.236	-0.199
-619.361	-115.737	-0.224	-0.043
-618.346	-142.854	-0.118	0.012
-617.332	199.065	0.274	0.427
-616.317	283.426	-0.194	0.354
-615.303	-121.837	0.246	-0.041
-614.288	-200.000	-0.029	-0.129
-613.273	-50.027	-0.214	0.103
-612.259	-88.226	-0.219	0.067
-611.244	800.000	0.034	-0.114
-610.230	96.652	-0.114	-0.133
-609.215	-148.003	-0.517	0.044
-608.201	-200.000	-0.007	0.038
-607.186	251.864	0.094	0.162
-606.171	-87.161	0.119	0.037
-605.157	202.692	-0.230	-0.360
-604.142	452.939	-0.100	0.225
-603.128	74.176	-0.183	-0.195
-602.113	800.000	0.015	-0.046
-601.098	329.523	0.117	0.229
-600.084	800.000	-0.065	0.243
-599.069	-68.020	0.274	0.109
-598.055	-200.000	-0.024	0.172
-597.040	289.240	0.134	0.246
-596.025	55.143	0.102	0.100
-595.011	162.383	-0.113	0.161
-593.996	176.436	-0.059	0.087
-592.982	800.000	-0.096	-0.376
-591.967	-62.484	0.125	0.053
-590.952	-200.000	-0.004	0.264
-589.938	198.467	-0.067	-0.104
-588.923	750.823	0.028	0.076
-587.909	-21.426	-0.246	0.152
-586.894	-23.354	0.270	-0.165
-585.879	-200.000	-0.023	0.218
-584.865	-200.000	0.015	-0.186
-583.850	-68.556	-0.094	0.037
-582.836	115.934	-0.223	0.277
-581.821	-93.165	0.437	0.123
-580.806	65.973	0.172	-0.177
-579.792	-143.268	0.188	-0.018
-578.777	251.819	0.056	-0.097
-577.763	-67.758	0.085	-0.034
-576.748	351.121	-0.278	-0.557
-575.733	7.711	0.112	0.085
-574.719	-59.708	0.123	0.053
-573.704	-85.364	-0.081	0.026
-572.690	-130.488	0.207	0.028
-571.675	153.122	-0.024	-0.034
-570.661	-60.572	0.279	-0.120
-569.646	-200.000	-0.019	0.198
-568.631	378.443	-0.073	0.151
-567.617	-13.786	-0.132	0.086
-566.602	-200.000	-0.045	0.202
-565.588	-200.000	-0.041	-0.304
-564.573	800.000	0.127	-0.397
-563.558	-181.572	-0.178	0.004
-562.544	7.115	0.144	-0.109
-561.529	-200.000	-0.027	-0.232
-560.515	318.630	0.052	0.100
-559.500	-200.000	0.048	0.338
-558.485	-125.141	-0.388	0.060
-557.471	-170.539	0.356	0.013
-556.456	-56.439	-0.218	-0.098
-555.442	800.000	0.076	0.233
-554.427	141.412	-0.114	0.153
-553.412	-200.000	-0.012	-0.066
-552.398	-57.474	-0.262	0.116
-551.383	-81.381	0.284	-0.095
-550.369	-100.442	-0.278	-0.070
-549.354	-132.768	0.077	-0.010
-548.339	-200.000	-0.025	-0.260
-547.325	-200.000	0.018	-0.266
-546.310	-123.908	0.184	0.029
-545.296	-90.097	0.184	0.054
-544.281	28.878	0.158	-0.135
-543.266	19.556	0.201	-0.164
-542.252	-91.157	-0.260	0.076
-541.237	800.000	-0.042	0.141
-540.223	108.215	0.220	0.266
-539.208	-200.000	-0.036	-0.320
-538.193	-101.430	0.146	0.036
-537.179	-55.293	-0.249	0.113
-536.164	0.871	-0.397	0.288
-535.150	-73.092	0.286	-0.106
-534.135	-56.694	-0.114	-0.051
-533.121	-200.000	-0.005	-0.323
-532.106	53.424	0.221	0.214
-531.091	12.958	-0.054	0.042
-530.077	324.570	-0.155	-0.300
-529.062	-118.697	0.332	-0.059
-528.048	-87.786	0.179	0.055
-527.033	157.300	-0.110	-0.155
-526.018	112.094	-0.225	0.275
-525.004	7.906	-0.093	-0.071
-523.989	-190.436	-0.120	-0.001
-522.975	762.203	-0.134	0.368
-521.960	-144.744	0.201	0.019
-520.945	404.753	0.044	-0.094
-519.931	-200.000	0.043	-0.303
-518.916	419.757	-0.059	0.128
-517.902	-170.280	-0.171	-0.006
-516.887	-149.290	-0.169	0.014
-515.872	-20.052	0.420	-0.262
-514.858	261.887	0.049	-0.086
-513.843	-193.723	-0.122	0.001
-512.829	-132.198	0.245	-0.032
-511.814	288.149	-0.097	0.178
-510.799	17.549	-0.065	-0.052
-509.785	-61.181	-0.123	0.052
-508.770	175.143	-0.089	-0.130
-507.756	-200.000	0.042	-0.363
-506.741	-117.816	-0.094	-0.017
-505.726	-42.448	0.122	0.063
-504.712	158.155	0.119	-0.167
-503.697	196.172	0.108	0.167
-502.683	-200.000	0.020	-0.298
-501.668	426.121	0.038	-0.083
-500.653	-200.000	-0.063	0.369
-499.639	26.588	0.221	0.187
-498.624	-200.000	0.004	-0.309
-497.610	-101.710	-0.213	-0.052
-496.595	475.750	0.070	0.161
-495.581	-59.904	0.118	-0.051
-494.566	-200.000	0.018	0.280
-493.551	156.214	-0.110	-0.154
-492.537	163.605	0.087	-0.123
-491.522	-200.000	0.077	0.377
-490.508	-200.000	0.037	-0.232
-489.493	305.925	0.062	0.116
-488.478	-162.864	-0.143	-0.007
-487.464	-0.916	0.232	0.166
-486.449	123.732	-0.111	-0.141
-485.435	101.255	-0.028	-0.033
-484.420	99.278	0.219	0.256
-483.405	42.466	0.026	0.023
-482.391	90.628	-0.090	-0.102
-481.376	359.568	-0.101	-0.204
-480.362	800.000	0.046	0.136
-479.347	-200.000	-0.009	-0.156
-478.332	112.257	0.143	-0.175
-477.318	-200.000	-0.012	-0.210
-476.303	112.459	0.127	0.155
-475.289	-198.704	0.209	-0.001
-474.274	1.545	-0.132	-0.096
-473.259	-15.694	0.076	-0.049
-472.245	-200.000	0.022	0.143
-471.230	489.879	0.121	-0.280
-470.216	-168.894	0.107	-0.004
-469.201	-73.808	0.189	-0.069
-468.186	178.629	0.214	0.316
-467.172	-129.303	-0.285	0.040
-466.157	-200.000	-0.020	-0.237
-465.143	71.492	0.173	-0.181
-464.128	-93.646	0.171	0.048
-463.113	-61.691	0.089	-0.038
-462.099	38.626	-0.048	0.043
-461.084	-64.147	-0.271	0.112
-460.070	-112.027	0.048	-0.010
-459.055	800.000	-0.065	-0.214
-458.040	29.761	0.168	-0.144
-457.026	-67.968	-0.209	-0.082
-456.011	24.124	0.319	0.266
-454.997	-177.243	0.154	-0.004
-453.982	800.000	-0.088	0.382
-452.968	800.000	0.024	0.075
-451.953	-20.225	0.196	-0.122
-450.938	-193.822	0.106	0.001
-449.924	-200.000	-0.009	0.090
-448.909	22.528	-0.137	0.113
-447.895	84.305	0.152	0.168
-446.880	217.760	0.129	-0.208
-445.865	132.742	0.009	0.012
-444.851	232.685	0.103	0.171
-443.836	-200.000	0.002	-0.014
-442.822	342.523	0.119	0.235
-441.807	800.000	-0.108	0.396
-440.792	-39.561	0.175	0.093
-439.778	800.000	-0.103	-0.370
-438.763	236.217	-0.072	0.121
-437.749	-66.353	0.117	0.047
-436.734	-72.773	0.193	-0.072
-435.719	-17.356	-0.222	0.141
-434.705	18.335	0.253	-0.204
-433.690	204.319	0.179	-0.280
-432.676	87.905	-0.313	0.351
-431.661	-95.048	-0.196	-0.053
-430.646	-14.413	-0.050	-0.033
-429.632	-137.622	-0.360	-0.041
-428.617	-200.000	-0.011	0.164
-427.603	-91.023	-0.330	0.096
-426.588	644.394	0.052	0.134
-425.573	-190.615	0.296	0.003
-424.559	-200.000	0.002	-0.090
-423.544	161.909	-0.099	-0.140
-422.530	-31.311	-0.206	-0.117
-421.515	96.157	-0.230	0.266
-420.500	64.247	-0.136	0.138
-419.486	-159.652	0.211	-0.012
-418.471	456.788	0.035	-0.078
-417.457	-140.240	-0.244	-0.026
-416.442	214.428	0.045	0.072
-415.428	-78.830	-0.268	0.092
-414.413	-200.000	-0.034	-0.271
-413.398	-55.139	-0.291	-0.132
-412.384	402.726	-0.072	0.152
-411.369	-15.592	0.254	0.164
-410.355	-155.195	0.034	-0.002
-409.340	-57.545	0.129	-0.057
-408.325	-140.149	0.240	0.025
-407.311	313.205	0.075	0.142
-406.296	-69.942	-0.116	-0.044
-405.282	626.162	-0.115	-0.291
-404.267	135.155	0.035	0.045
-403.252	-144.032	0.026	-0.002
-402.238	-200.000	0.019	-0.186
-401.223	205.751	-0.078	-0.122
-400.209	-200.000	-0.007	0.085
-399.194	43.171	-0.226	-0.208
-398.179	-51.971	0.092	-0.043
-397.165	-136.892	-0.368	-0.043
-396.150	-152.551	0.080	-0.006
-395.136	-85.288	0.213	0.067
-394.121	-132.446	0.100	0.013
-393.106	-26.517	0.107	-0.063
-392.092	-200.000	-0.060	-0.470
-391.077	185.994	-0.084	0.126
-390.063	571.874	0.094	0.232
-389.048	-128.619	0.228	0.032
-388.033	-120.177	0.052	0.009
-387.019	-34.099	0.347	-0.192
-386.004	-200.000	-0.005	-0.057
-384.990	159.541	0.203	-0.285
-383.975	800.000	-0.033	-0.103
-382.960	-163.392	0.265	0.013
-381.946	494.685	0.169	0.391
-380.931	790.955	-0.086	0.239
-379.917	-28.323	0.093	0.054
-378.902	126.269	0.177	-0.225
-377.888	-171.299	-0.140	-0.005
-376.873	-95.385	0.042	-0.011
-375.858	618.038	0.109	0.276
-374.844	-170.608	-0.100	-0.003
-373.829	50.065	0.178	0.169
-372.815	-110.396	0.022	-0.005
-371.800	-100.703	0.270	-0.067
-370.785	448.933	-0.125	0.277
-369.771	-83.431	0.044	0.014
-368.756	-100.837	0.341	0.084
-367.742	-152.728	-0.128	-0.009
-366.727	46.891	0.124	-0.116
-365.712	-200.000	-0.025	-0.151
-364.698	-200.000	0.052	-0.350
-363.683	52.560	0.098	0.094
-362.669	800.000	-0.050	0.170
-361.654	-7.090	0.086	-0.059
-360.639	364.454	0.034	-0.069
-359.625	300.469	-0.065	-0.121
-358.610	-93.114	0.238	0.067
-357.596	-200.000	-0.064	0.296
-356.581	283.837	-0.126	0.228
-355.566	-118.770	0.129	0.023
-354.552	-17.093	-0.259	0.164
-353.537	-96.892	-0.131	0.035
-352.523	-200.000	0.008	-0.130
-351.508	181.798	-0.016	0.023
-350.493	-104.448	0.111	-0.026
-349.479	-179.745	-0.082	-0.002
-348.464	252.862	-0.279	0.479
-347.450	-200.000	0.003	0.051
-346.435	-98.293	0.294	-0.076
-345.420	-200.000	-0.036	0.241
-344.406	-138.683	-0.277	-0.031
-343.391	45.970	-0.045	-0.042
-342.377	-200.000	-0.049	0.233
-341.362	-200.000	-0.021	0.148
-340.348	-137.472	-0.195	-0.022
-339.333	291.065	-0.107	-0.196
-338.318	68.833	0.066	0.068
-337.304	-88.487	-0.250	-0.075
-336.289	-200.000	-0.004	0.034
-335.275	-58.379	-0.041	0.018
-334.260	-200.000	-0.021	0.160
-333.245	594.630	0.165	0.409
-332.231	-142.248	-0.065	-0.006
-331.216	-47.327	0.197	0.097
-330.202	30.805	0.105	0.091
-329.187	42.257	-0.159	-0.145
-328.172	800.000	-0.093	0.264
-327.158	-200.000	-0.031	0.467
-326.143	62.488	0.167	0.167
-325.129	-36.674	0.190	-0.102
-324.114	66.965	0.286	-0.293
-323.099	800.000	-0.006	-0.018
-322.085	-22.096	0.044	0.027
-321.070	124.650	-0.169	-0.214
-320.056	-200.000	-0.050	-0.312
-319.041	442.672	-0.093	0.204
-318.026	-200.000	0.055	0.322
-317.012	-52.624	-0.309	0.143
-315.997	-22.074	0.102	-0.062
-314.983	28.554	-0.250	-0.212
-313.968	84.669	0.110	-0.121
-312.953	164.991	-0.142	-0.202
-311.939	194.120	-0.066	-0.100
-310.924	306.561	-0.124	-0.232
-309.910	641.314	-0.127	-0.325
-308.895	172.953	-0.182	0.263
-307.880	-129.819	0.245	0.034
-306.866	-112.625	0.108	-0.022
-305.851	228.679	-0.116	-0.190
-304.837	121.259	-0.186	-0.232
-303.822	-200.000	0.252	0.000
-302.807	94.813	0.149	-0.170
-301.793	800.000	0.028	-0.089
-300.778	-65.949	-0.235	0.094
-299.764	-145.145	-0.239	0.022
-298.749	113.804	-0.099	0.120
-297.735	-108.858	0.108	-0.023
-296.720	553.712	0.083	0.201
-295.705	-8.061	-0.071	-0.048
-294.691	-200.000	0.071	-0.351
-293.676	800.000	-0.029	-0.098
-292.662	-141.006	-0.384	-0.039
-291.647	37.058	-0.184	0.164
-290.632	-16.359	-0.069	0.044
-289.618	320.881	-0.051	-0.096
-288.603	-200.000	-0.007	-0.062
-287.589	677.741	0.092	0.241
-286.574	-160.972	-0.245	-0.013
-285.559	-200.000	-0.019	-0.202
-284.545	-117.286	-0.094	-0.017
-283.530	-76.640	-0.189	-0.067
-282.516	251.243	-0.037	0.064
-281.501	278.920	-0.129	-0.230
-280.486	-1.975	0.186	-0.131
-279.472	-152.029	-0.190	-0.014
-278.457	215.675	0.088	0.140
-277.443	-35.538	0.037	-0.020
-276.428	-58.890	-0.154	-0.067
-275.413	-88.621	0.243	0.072
-274.399	-97.608	-0.171	-0.045
-273.384	-152.786	-0.225	0.016
-272.370	-0.758	0.075	0.053
-271.355	-122.548	-0.403	-0.066
-270.340	61.138	0.134	-0.133
-269.326	-185.155	0.177	0.003
-268.311	161.737	-0.095	0.134
-267.297	-200.000	-0.044	-0.258
-266.282	407.755	-0.148	-0.314
-265.267	-200.000	-0.025	-0.399
-264.253	-64.273	0.053	-0.022
-263.238	-178.934	0.330	-0.007
-262.224	105.051	-0.252	-0.298
-261.209	8.437	-0.164	-0.124
-260.195	99.198	-0.294	-0.340
-259.180	-31.010	-0.133	0.075
-258.165	-95.697	-0.359	-0.096
-257.151	378.281	0.050	-0.102
-256.136	800.000	0.041	-0.138
-255.122	-45.007	-0.283	-0.141
-254.107	295.183	-0.094	-0.172
-253.092	85.976	0.183	0.202
-252.078	-9.347	0.168	0.113
-251.063	-5.675	0.335	0.230
-250.049	165.629	0.127	0.180
-249.034	-200.000	-0.027	-0.461
-248.019	-135.083	-0.117	0.014
-247.005	381.486	-0.108	-0.223
-245.990	-173.515	0.532	-0.016
-244.976	-53.024	0.068	0.031
-243.961	-40.573	0.189	-0.098
-242.946	162.993	0.155	-0.217
-241.932	-52.038	-0.083	0.039
-240.917	-28.973	-0.199	-0.115
-239.903	-116.037	0.076	0.014
-238.888	-38.207	-0.267	0.141
-237.873	23.817	0.238	0.196
-236.859	-74.045	-0.128	-0.047
-235.844	-126.070	-0.107	0.016
-234.830	-200.000	0.014	0.250
-233.815	800.000	0.089	0.274
-232.800	165.480	-0.065	-0.092
-231.786	-55.851	-0.191	-0.085
-230.771	-89.983	-0.358	-0.105
-229.757	-96.543	0.228	-0.060
-228.742	122.509	-0.077	-0.096
-227.727	300.595	0.158	0.291
-226.713	92.910	-0.213	0.241
-225.698	-200.000	-0.012	-0.095
-224.684	-110.945	0.075	-0.016
-223.669	19.569	0.181	0.146
-222.655	-200.000	-0.014	-0.170
-221.640	800.000	-0.047	0.204
-220.625	-200.000	-0.007	0.158
-219.611	48.856	0.228	0.214
-218.596	-118.700	-0.347	-0.061
-217.582	-200.000	0.022	0.271
-216.567	800.000	-0.008	0.034
-215.552	213.380	-0.172	-0.271
-214.538	154.282	0.104	-0.142
-213.523	-200.000	0.003	-0.160
-212.509	3.547	-0.132	0.096
-211.494	171.079	0.193	0.276
-210.479	-200.000	-0.005	0.091
-209.465	-133.286	-0.331	0.042
-208.450	-72.186	0.444	0.165
-207.436	210.775	-0.061	0.096
-206.421	-33.606	0.137	0.075
-205.406	-200.000	0.033	0.303
-204.392	800.000	0.069	-0.196
-203.377	24.184	-0.016	0.013
-202.363	594.898	0.064	0.159
-201.348	-56.983	-0.046	-0.020
-200.333	-200.000	0.084	0.390
-199.319	20.610	-0.249	0.201
-198.304	391.374	-0.108	0.225
-197.290	-130.759	0.221	0.030
-196.275	141.752	0.101	0.133
-195.260	178.898	0.146	-0.213
-194.246	-82.572	-0.181	0.059
-193.231	-200.000	-0.003	0.120
-192.217	-200.000	-0.010	-0.258
-191.202	-200.000	0.029	0.148
-190.187	285.773	0.057	0.103
-189.173	83.035	-0.345	-0.375
-188.158	-116.038	0.297	-0.055
-187.144	-200.000	0.188	-0.001
-186.129	-200.000	-0.016	0.074
-185.114	207.719	0.202	0.315
-184.100	-17.339	0.273	0.172
-183.085	610.240	0.151	0.377
-182.071	-129.695	-0.230	-0.032
-181.056	66.110	0.171	-0.173
-180.042	-153.709	0.144	0.010
-179.027	23.014	-0.073	0.060
-178.012	-200.000	0.019	-0.459
-176.998	200.660	-0.167	-0.257
-175.983	-114.106	0.262	-0.051
-174.969	-29.765	0.152	-0.087
-173.954	-76.530	0.198	-0.069
-172.939	75.508	0.082	0.087
-171.925	61.756	-0.107	0.107
-170.910	-112.337	0.221	-0.044
-169.896	-200.000	0.060	0.450
-168.881	108.717	0.205	-0.245
-167.866	-200.000	-0.036	-0.163
-166.852	2.148	0.125	0.090
-165.837	421.914	-0.054	-0.117
-164.823	-88.908	-0.203	-0.060
-163.808	-52.643	0.122	0.056
-162.793	-7.973	-0.079	-0.053
-161.779	800.000	-0.060	0.169
-160.764	108.080	0.163	0.194
-159.750	-69.889	0.123	-0.047
-158.735	84.439	0.249	-0.272
-157.720	-171.526	-0.285	0.009
-156.706	-200.000	-0.022	-0.212
-155.691	-200.000	0.011	-0.149
-154.677	-200.000	0.043	-0.354
-153.662	269.096	-0.071	0.125
-152.647	-105.709	-0.434	0.098
-151.633	-95.229	0.148	-0.040
-150.618	-52.143	-0.126	0.059
-149.604	166.547	-0.113	0.160
-148.589	146.488	0.262	0.351
-147.574	-7.827	-0.128	-0.087
-146.560	-87.226	0.175	0.053
-145.545	800.000	0.093	-0.393
-144.531	-185.487	-0.313	0.005
-143.516	-200.000	0.011	0.179
-142.502	-44.037	0.404	0.203
-141.487	385.592	0.030	-0.061
-140.472	115.761	0.066	0.081
-139.458	-153.065	-0.244	-0.017
-138.443	-200.000	0.015	-0.325
-137.429	88.454	0.020	0.022
-136.414	92.884	0.212	0.238
-135.399	-19.000	-0.336	-0.209
-134.385	162.642	0.218	0.305
-133.370	800.000	-0.101	0.348
-132.356	251.380	-0.163	0.276
-131.341	126.305	-0.279	0.353
-130.326	-129.807	-0.479	-0.066
-129.312	-19.864	0.300	0.185
-128.297	800.000	-0.077	-0.231
-127.283	-57.359	0.177	0.077
-126.268	-41.636	-0.067	0.034
-125.253	-200.000	0.005	0.093
-124.239	800.000	-0.078	0.252
-123.224	215.775	-0.068	0.107
-122.210	778.043	-0.104	0.283
