DTS Sentinel unit serial number:	SN413079Multiplexer serial number:	ORYXHardware model number:	OX4-SRSoftware version number:	ORYX F/W v4.00 Oryx Data Collector v3.7.2.0data status	okinstallation	princeton_trtdifferential loss correction	single-endedforward channel	channel 1reverse channel	N/Adate	2019/09/14time	21:10:35forward acquisition time	60.00reverse acquisition time	0.00gamma	496.2192k internal	0.2318k external	0.2318temperature offset calibration	1.0008default loss term (dB/km)	0.3790temperature slope calibration	1.0000multiplexer offset coefficient	1.0000multiplexer slope coefficient	1.0000fibre end	0.00T internal ref (°C)	33.06T ext. ref 1 (°C)	4.74T ext. ref 2 (°C)	27.80length (m)	temperature (°C)	Stokes	anti-Stokes-747.200	138.207	-0.202	-0.268
-746.185	-48.570	-0.272	0.133
-745.171	-200.000	0.027	-0.227
-744.156	20.322	0.372	0.304
-743.142	-89.821	-0.251	0.074
-742.127	-161.105	-0.205	0.011
-741.112	800.000	0.058	0.244
-740.098	74.930	-0.186	0.198
-739.083	5.054	-0.109	-0.081
-738.069	155.922	0.086	-0.120
-737.054	-200.000	-0.022	0.178
-736.039	-158.404	-0.245	-0.014
-735.025	-75.213	0.398	0.144
-734.010	225.860	0.080	-0.131
-732.996	-94.474	-0.103	0.029
-731.981	-83.975	-0.052	-0.017
-730.966	363.516	-0.112	0.227
-729.952	800.000	-0.059	-0.169
-728.937	800.000	0.086	-0.312
-727.923	800.000	-0.037	-0.108
-726.908	-24.536	-0.352	0.212
-725.894	-76.033	-0.396	0.142
-724.879	-96.194	-0.491	0.132
-723.864	43.250	0.190	0.176
-722.850	-113.344	-0.316	0.063
-721.835	-16.612	-0.376	0.240
-720.821	-200.000	-0.003	0.152
-719.806	-94.886	-0.232	-0.064
-718.791	-134.430	0.082	-0.010
-717.777	-78.413	-0.268	-0.093
-716.762	-24.805	-0.375	-0.225
-715.748	32.238	-0.131	0.114
-714.733	800.000	0.031	-0.123
-713.718	-48.458	-0.181	0.088
-712.704	-114.961	0.140	-0.027
-711.689	688.183	0.087	0.231
-710.675	53.477	0.230	-0.223
-709.660	-162.228	0.168	0.008
-708.645	467.735	-0.086	0.194
-707.631	402.221	0.145	-0.308
-706.616	-200.000	-0.001	0.212
-705.602	-200.000	0.002	-0.041
-704.587	658.506	-0.124	0.321
-703.572	37.391	-0.220	0.197
-702.558	-68.348	-0.176	0.069
-701.543	800.000	-0.090	-0.268
-700.529	486.356	0.141	0.325
-699.514	-123.272	0.122	0.020
-698.499	800.000	0.077	0.249
-697.485	-200.000	0.006	-0.042
-696.470	38.789	0.387	-0.349
-695.456	-127.911	0.163	0.024
-694.441	-63.689	0.152	0.063
-693.426	-66.691	-0.144	-0.058
-692.412	-17.957	0.302	0.191
-691.397	68.646	-0.186	0.192
-690.383	9.515	0.151	0.115
-689.368	500.193	-0.050	0.116
-688.354	-83.900	0.120	-0.039
-687.339	-99.551	-0.219	-0.056
-686.324	96.960	0.108	0.126
-685.310	-59.416	0.222	0.096
-684.295	-200.000	-0.081	-0.370
-683.281	-78.161	-0.141	-0.049
-682.266	90.004	0.077	-0.087
-681.251	-28.342	-0.071	-0.041
-680.237	139.195	0.072	0.095
-679.222	94.797	-0.099	-0.114
-678.208	-200.000	-0.031	-0.274
-677.193	1.071	0.027	-0.019
-676.178	318.980	0.101	-0.194
-675.164	-200.000	-0.029	0.195
-674.149	-80.489	0.344	0.116
-673.135	400.227	0.115	-0.243
-672.120	-164.557	0.057	-0.003
-671.105	65.027	-0.175	-0.179
-670.091	490.867	-0.100	-0.232
-669.076	390.928	0.124	-0.260
-668.062	39.179	0.286	-0.258
-667.047	-98.884	0.337	0.086
-666.032	91.606	0.306	0.348
-665.018	-17.465	-0.193	-0.123
-664.003	590.056	-0.108	0.268
-662.989	-34.901	-0.083	-0.046
-661.974	50.363	0.056	0.054
-660.959	123.174	-0.103	-0.130
-659.945	101.007	0.169	-0.199
-658.930	-200.000	0.041	-0.198
-657.916	-200.000	0.010	0.090
-656.901	250.059	-0.095	0.162
-655.886	81.173	-0.058	0.064
-654.872	800.000	-0.122	0.355
-653.857	-200.000	-0.100	0.468
-652.843	79.298	-0.125	0.135
-651.828	-94.981	0.100	0.027
-650.814	-39.230	0.136	-0.072
-649.799	68.476	-0.198	0.204
-648.784	167.335	-0.112	0.160
-647.770	7.584	-0.080	-0.060
-646.755	-98.196	-0.427	0.111
-645.741	122.313	-0.108	0.136
-644.726	14.973	-0.430	-0.340
-643.711	179.911	0.275	-0.406
-642.697	450.315	-0.044	-0.099
-641.682	800.000	0.025	0.085
-640.668	140.268	0.299	0.398
-639.653	-137.538	-0.519	-0.059
-638.638	-3.228	-0.314	-0.221
-637.624	-109.130	-0.244	0.052
-636.609	222.893	0.101	0.164
-635.595	37.328	-0.154	0.138
-634.580	259.909	-0.087	0.152
-633.565	32.866	-0.235	0.205
-632.551	567.151	0.019	-0.047
-631.536	-42.131	-0.161	-0.083
-630.522	12.271	-0.248	0.192
-629.507	-200.000	0.004	-0.234
-628.492	266.594	-0.155	0.273
-627.478	25.611	-0.059	-0.050
-626.463	193.588	-0.014	-0.021
-625.449	-16.511	-0.515	-0.329
-624.434	-68.996	0.198	-0.077
-623.419	-135.320	-0.161	-0.019
-622.405	800.000	0.013	0.053
-621.390	-66.502	0.149	0.060
-620.376	25.676	-0.148	-0.124
-619.361	800.000	0.010	-0.041
-618.346	-118.703	0.337	-0.060
-617.332	120.965	-0.229	0.287
-616.317	-102.254	-0.213	-0.052
-615.303	-66.817	0.098	0.039
-614.288	168.672	-0.097	-0.139
-613.273	103.543	0.185	-0.219
-612.259	446.240	0.144	-0.319
-611.244	105.112	-0.201	-0.239
-610.230	636.698	-0.075	0.191
-609.215	29.590	0.320	0.275
-608.201	169.893	-0.117	-0.168
-607.186	134.394	0.062	0.081
-606.171	-125.577	-0.198	-0.030
-605.157	-181.566	0.412	0.008
-604.142	140.503	-0.190	-0.253
-603.128	-82.099	-0.234	-0.077
-602.113	-200.000	0.010	-0.084
-601.098	471.908	0.077	-0.175
-600.084	241.756	-0.182	-0.306
-599.069	-60.251	0.171	-0.073
-598.055	800.000	-0.025	-0.097
-597.040	-18.518	-0.342	-0.215
-596.025	800.000	-0.075	-0.288
-595.011	29.534	-0.140	-0.120
-593.996	800.000	0.067	-0.252
-592.982	-200.000	-0.018	-0.338
-591.967	-159.110	0.355	-0.020
-590.952	-200.000	-0.031	0.215
-589.938	-124.268	-0.264	0.042
-588.923	-37.276	-0.093	0.050
-587.909	-105.193	0.298	-0.068
-586.894	543.536	0.142	-0.341
-585.879	84.989	0.232	-0.256
-584.865	-13.289	-0.269	0.176
-583.850	102.711	0.066	0.078
-582.836	336.860	-0.145	0.283
-581.821	231.220	-0.238	0.392
-580.806	-153.869	0.122	-0.008
-579.792	389.642	-0.134	-0.280
-578.777	391.024	0.037	-0.078
-577.763	74.912	0.182	-0.193
-576.748	-73.429	-0.373	-0.137
-575.733	479.201	-0.124	-0.284
-574.719	-136.519	-0.226	0.026
-573.704	242.174	0.168	-0.283
-572.690	66.841	0.187	-0.192
-571.675	-200.000	0.017	0.241
-570.661	92.452	0.170	-0.192
-569.646	354.312	0.024	0.049
-568.631	61.309	0.097	0.097
-567.617	-99.650	-0.194	-0.049
-566.602	-45.528	0.015	-0.007
-565.588	114.618	-0.087	0.107
-564.573	-36.756	0.149	0.080
-563.558	800.000	-0.016	-0.056
-562.544	-89.083	0.381	-0.113
-561.529	39.744	-0.253	-0.229
-560.515	95.095	0.053	0.060
-559.500	39.156	0.279	0.251
-558.485	16.029	-0.134	-0.106
-557.471	-39.436	-0.363	-0.191
-556.456	-200.000	0.026	-0.208
-555.442	-62.820	0.287	-0.119
-554.427	24.074	-0.054	-0.045
-553.412	89.062	0.137	-0.153
-552.398	71.935	-0.028	-0.030
-551.383	525.962	-0.024	-0.056
-550.369	17.646	-0.090	0.072
-549.354	-24.128	-0.286	0.172
-548.339	-35.117	-0.244	-0.133
-547.325	800.000	0.056	0.187
-546.310	10.155	-0.166	0.127
-545.296	739.105	-0.046	-0.124
-544.281	112.141	-0.243	-0.295
-543.266	-44.352	0.196	0.099
-542.252	17.233	0.233	0.185
-541.237	-154.797	-0.217	0.014
-540.223	-200.000	0.037	0.266
-539.208	-127.240	-0.023	-0.003
-538.193	44.065	-0.261	0.241
-537.179	289.207	-0.121	0.220
-536.164	-9.949	0.209	-0.139
-535.150	-200.000	-0.016	0.093
-534.135	-200.000	-0.002	-0.074
-533.121	-200.000	-0.000	0.200
-532.106	-49.207	-0.375	0.180
-531.091	-158.251	0.169	-0.010
-530.077	113.479	-0.049	-0.060
-529.062	28.110	0.151	-0.128
-528.048	-127.709	-0.116	-0.017
-527.033	-32.627	0.483	-0.270
-526.018	161.538	-0.088	0.124
-525.004	120.725	-0.093	-0.116
-523.989	800.000	-0.048	0.201
-522.975	-90.261	0.160	0.047
-521.960	-200.000	0.018	0.182
-520.945	-76.778	0.080	0.028
-519.931	63.529	-0.153	0.154
-518.916	582.536	0.073	-0.180
-517.902	-36.371	0.195	0.105
-516.887	52.323	-0.164	0.157
-515.872	-34.793	-0.076	0.042
-514.858	65.880	-0.099	0.101
-513.843	-140.132	0.432	-0.046
-512.829	-61.692	-0.125	-0.053
-511.814	-190.069	-0.255	0.003
-510.799	-189.539	-0.011	-0.000
-509.785	-118.807	0.271	-0.048
-508.770	-200.000	0.021	-0.155
-507.756	-20.527	-0.232	0.143
-506.741	116.350	-0.059	0.072
-505.726	-45.540	-0.234	0.116
-504.712	-86.342	-0.118	-0.036
-503.697	-69.751	-0.098	0.038
-502.683	176.120	-0.167	-0.244
-501.668	786.285	0.043	0.118
-500.653	19.415	-0.137	-0.111
-499.639	-200.000	0.015	-0.134
-498.624	660.106	0.143	-0.369
-497.610	86.509	0.111	-0.123
-496.595	255.778	0.116	0.200
-495.581	-146.482	-0.198	-0.017
-494.566	389.741	-0.198	-0.411
-493.551	15.160	-0.101	0.079
-492.537	-200.000	-0.005	0.445
-491.522	-6.618	0.073	-0.050
-490.508	-200.000	-0.007	0.106
-489.493	-92.225	0.186	-0.053
-488.478	-200.000	-0.014	0.200
-487.464	-168.177	0.255	-0.010
-486.449	-200.000	-0.014	-0.170
-485.435	-44.005	-0.238	-0.120
-484.420	-134.297	0.106	-0.013
-483.405	-109.071	-0.101	-0.022
-482.391	-100.290	0.168	0.042
-481.376	-200.000	-0.005	-0.280
-480.362	190.220	0.134	-0.202
-479.347	109.493	0.123	-0.148
-478.332	125.846	-0.114	-0.144
-477.318	495.918	-0.114	-0.263
-476.303	-200.000	-0.043	0.320
-475.289	43.707	-0.124	0.114
-474.274	800.000	-0.072	-0.287
-473.259	93.298	0.163	0.185
-472.245	-138.707	-0.084	0.009
-471.230	-46.121	0.190	0.094
-470.216	-126.145	0.225	-0.034
-469.201	-125.430	0.316	0.048
-468.186	181.196	-0.167	0.245
-467.172	104.263	-0.053	-0.062
-466.157	401.618	0.251	-0.529
-465.143	93.046	0.189	-0.214
-464.128	800.000	0.034	-0.130
-463.113	-173.159	0.110	-0.003
-462.099	-93.380	-0.419	0.116
-461.084	-36.653	-0.293	-0.158
-460.070	42.698	0.049	0.045
-459.055	-133.726	0.091	0.011
-458.040	176.513	0.051	-0.074
-457.026	218.672	0.115	0.183
-456.011	-116.709	-0.238	-0.044
-454.997	-75.371	-0.256	-0.091
-453.982	-49.684	-0.072	0.034
-452.968	110.191	-0.136	0.163
-451.953	-41.259	0.396	0.204
-450.938	-101.339	-0.292	-0.071
-449.924	543.213	0.058	0.139
-448.909	-145.586	0.094	-0.008
-447.895	-200.000	0.049	-0.217
-446.880	-200.000	0.009	-0.058
-445.865	-200.000	0.014	0.154
-444.851	-200.000	-0.001	0.030
-443.836	800.000	-0.071	0.198
-442.822	-200.000	-0.006	-0.040
-441.807	800.000	0.054	-0.194
-440.792	113.203	-0.400	-0.485
-439.778	-200.000	-0.008	0.137
-438.763	-16.447	0.118	-0.075
-437.749	-35.602	-0.239	-0.129
-436.734	72.153	0.102	0.106
-435.719	800.000	-0.070	-0.195
-434.705	-73.839	0.336	-0.122
-433.690	-30.912	-0.130	0.073
-432.676	-4.942	0.104	-0.071
-431.661	-64.207	-0.176	-0.072
-430.646	200.401	0.145	0.222
-429.632	121.945	-0.052	-0.065
-428.617	-158.225	-0.296	0.017
-427.603	114.043	-0.156	0.190
-426.588	69.668	0.241	-0.248
-425.573	-200.000	-0.001	0.163
-424.559	-109.466	-0.332	0.070
-423.544	-147.741	0.111	-0.009
-422.530	800.000	0.045	0.135
-421.515	-71.591	-0.107	0.040
-420.500	-200.000	0.018	0.088
-419.486	-200.000	-0.050	-0.239
-418.471	-38.373	0.186	-0.098
-417.457	110.867	0.168	-0.202
-416.442	-28.438	0.308	-0.177
-415.428	-200.000	0.024	0.318
-414.413	420.211	-0.083	-0.178
-413.398	-147.705	0.292	0.025
-412.384	-200.000	-0.020	-0.271
-411.369	-46.500	-0.354	0.173
-410.355	-113.699	0.134	-0.026
-409.340	105.327	0.166	-0.195
-408.325	-175.024	-0.177	0.005
-407.311	-5.285	0.187	-0.128
-406.296	-48.296	0.483	-0.233
-405.282	-123.099	-0.123	-0.020
-404.267	-147.513	0.369	-0.031
-403.252	-89.836	-0.275	0.080
-402.238	11.964	0.266	0.204
-401.223	51.523	0.071	-0.068
-400.209	-74.649	0.298	0.107
-399.194	-0.932	0.134	0.095
-398.179	164.432	-0.034	-0.047
-397.165	-82.848	0.105	0.034
-396.150	232.301	-0.113	0.185
-395.136	286.126	-0.175	0.316
-394.121	-200.000	-0.013	0.275
-393.106	-161.313	0.227	0.012
-392.092	21.896	0.277	0.226
-391.077	800.000	0.053	0.223
-390.063	-43.322	-0.097	0.049
-389.048	-40.477	0.170	0.088
-388.033	102.537	-0.091	0.107
-387.019	278.425	0.159	-0.283
-386.004	-200.000	-0.006	-0.042
-384.990	324.177	-0.213	0.405
-383.975	7.950	0.224	0.168
-382.960	198.283	-0.074	0.113
-381.946	281.762	-0.191	-0.341
-380.931	-27.514	0.161	-0.093
-379.917	286.368	-0.033	0.059
-378.902	-40.376	0.105	-0.054
-377.888	-121.701	-0.087	0.014
-376.873	-200.000	-0.017	0.214
-375.858	-17.360	0.015	0.010
-374.844	7.459	-0.112	0.083
-373.829	-110.322	-0.179	-0.037
-372.815	-200.000	0.055	-0.244
-371.800	44.447	-0.101	0.092
-370.785	81.980	-0.122	-0.131
-369.771	-90.690	-0.237	-0.068
-368.756	94.727	0.040	-0.046
-367.742	800.000	0.114	0.346
-366.727	104.425	-0.240	0.282
-365.712	79.512	0.161	-0.172
-364.698	-200.000	0.002	0.286
-363.683	-200.000	-0.011	0.157
-362.669	-66.860	-0.145	-0.057
-361.654	-105.232	0.046	-0.010
-360.639	-200.000	-0.050	0.400
-359.625	-127.116	0.399	0.058
-358.610	800.000	0.048	-0.160
-357.596	558.831	0.057	0.137
-356.581	800.000	-0.120	0.378
-355.566	-200.000	0.040	0.238
-354.552	-69.777	0.240	0.091
-353.537	56.555	0.212	-0.205
-352.523	-90.978	0.180	0.052
-351.508	-116.311	-0.371	-0.068
-350.493	-142.671	0.056	-0.005
-349.479	190.049	0.210	0.314
-348.464	-60.527	0.220	0.093
-347.450	-92.382	-0.227	0.064
-346.435	-200.000	-0.027	0.222
-345.420	161.518	0.170	0.237
-344.406	-80.277	-0.116	-0.039
-343.391	-162.825	-0.239	0.012
-342.377	-76.799	0.318	0.111
-341.362	69.342	0.249	0.255
-340.348	29.877	-0.050	0.042
-339.333	276.606	-0.044	-0.078
-338.318	-200.000	0.006	0.117
-337.304	72.631	-0.176	-0.183
-336.289	-200.000	-0.069	0.479
-335.275	435.511	0.078	0.169
-334.260	-200.000	0.051	-0.337
-333.245	-157.073	0.246	-0.015
-332.231	-200.000	-0.038	0.220
-331.216	182.788	-0.161	0.237
-330.202	600.750	0.145	0.358
-329.187	-200.000	0.009	-0.198
-328.172	89.705	-0.321	-0.357
-327.158	257.778	-0.175	-0.301
-326.143	-200.000	-0.005	-0.332
-325.129	-139.989	0.284	0.030
-324.114	546.815	0.159	-0.379
-323.099	-80.063	-0.174	-0.058
-322.085	800.000	0.055	-0.166
-321.070	66.570	0.076	0.077
-320.056	5.958	-0.196	0.144
-319.041	800.000	-0.091	-0.364
-318.026	15.057	0.074	-0.058
-317.012	-118.191	0.197	-0.035
-315.997	-31.913	0.173	-0.097
-314.983	34.884	-0.284	0.247
-313.968	-200.000	0.004	-0.022
-312.953	13.011	-0.242	-0.187
-311.939	-166.582	-0.291	0.012
-310.924	-39.560	-0.180	0.094
-309.910	163.673	-0.118	0.165
-308.895	-95.172	0.140	0.038
-307.880	-200.000	0.038	-0.193
-306.866	509.692	0.076	-0.175
-305.851	-64.421	0.196	0.079
-304.837	19.507	0.180	0.144
-303.822	230.745	-0.071	0.116
-302.807	417.022	0.095	0.202
-301.793	766.418	-0.082	-0.222
-300.778	-200.000	-0.014	0.089
-299.764	511.031	0.061	0.140
-298.749	105.834	0.098	-0.115
-297.735	-200.000	-0.158	-0.001
-296.720	-200.000	-0.035	-0.433
-295.705	319.114	-0.077	0.145
-294.691	-30.149	-0.302	0.171
-293.676	797.320	-0.136	0.373
-292.662	-22.273	-0.034	-0.021
-291.647	-114.821	-0.261	-0.050
-290.632	-68.691	-0.167	-0.064
-289.618	-200.000	-0.037	-0.392
-288.603	6.830	0.242	-0.179
-287.589	-200.000	-0.064	-0.346
-286.574	-200.000	-0.011	0.321
-285.559	285.703	-0.080	0.143
-284.545	-200.000	-0.010	0.277
-283.530	378.341	-0.118	0.239
-282.516	-146.847	0.095	-0.008
-281.501	219.101	-0.079	0.125
-280.486	800.000	-0.057	0.165
-279.472	-103.775	0.241	0.056
-278.457	800.000	-0.107	-0.411
-277.443	-105.278	-0.189	0.043
-276.428	-78.252	-0.146	0.050
-275.413	800.000	-0.011	0.040
-274.399	34.630	0.339	0.295
-273.384	-3.504	-0.137	-0.094
-272.370	86.651	0.093	0.102
-271.355	-200.000	-0.018	0.104
-270.340	-0.270	0.151	-0.107
-269.326	-184.024	0.168	-0.003
-268.311	-115.701	0.193	-0.036
-267.297	-95.468	-0.104	-0.028
-266.282	766.125	0.027	0.074
-265.267	-200.000	-0.062	0.389
-264.253	66.911	0.158	0.160
-263.238	-200.000	0.048	0.648
-262.224	35.333	-0.166	-0.145
-261.209	-43.822	0.232	0.116
-260.195	424.691	0.031	-0.067
-259.180	-22.699	0.169	-0.101
-258.165	800.000	-0.097	0.371
-257.151	-47.941	0.072	0.035
-256.136	40.855	-0.187	0.167
-255.122	800.000	0.066	0.217
-254.107	-97.805	0.384	-0.099
-253.092	800.000	-0.038	-0.112
-252.078	-200.000	-0.019	0.215
-251.063	800.000	0.049	-0.196
-250.049	310.806	-0.116	-0.216
-249.034	-200.000	0.009	-0.110
-248.019	800.000	0.092	-0.391
-247.005	800.000	0.088	-0.329
-245.990	-169.310	-0.326	0.012
-244.976	305.883	-0.035	-0.065
-243.961	-200.000	0.020	0.173
-242.946	-65.633	-0.452	-0.180
-241.932	-5.751	-0.161	-0.109
-240.917	138.398	0.076	-0.099
-239.903	64.902	0.256	0.256
-238.888	-50.896	0.280	0.131
-237.873	80.888	-0.118	0.127
-236.859	5.515	-0.296	-0.217
-235.844	-131.747	-0.150	0.019
-234.830	282.071	0.122	-0.217
-233.815	-99.173	0.163	-0.041
-232.800	-200.000	-0.030	0.166
-231.786	70.092	0.165	-0.169
-230.771	21.400	0.017	0.014
-229.757	800.000	0.068	0.186
-228.742	259.383	-0.042	-0.071
-227.727	103.598	-0.091	0.106
-226.713	-2.545	-0.067	0.047
-225.698	-111.274	0.383	0.078
-224.684	-54.829	-0.008	0.003
-223.669	-200.000	0.031	0.209
-222.655	59.680	0.277	0.271
-221.640	-60.032	0.377	-0.160
-220.625	-83.740	-0.237	-0.075
-219.611	-50.342	0.119	0.056
-218.596	-64.624	0.370	0.149
-217.582	-135.330	-0.261	-0.031
-216.567	165.243	0.226	0.316
-215.552	74.123	-0.081	0.084
-214.538	58.166	-0.118	0.114
-213.523	-200.000	0.005	0.042
-212.509	-35.397	-0.277	-0.149
-211.494	800.000	0.020	-0.061
-210.479	49.272	0.158	-0.148
-209.465	497.633	-0.168	0.384
-208.450	-175.088	0.561	0.015
-207.436	339.461	-0.181	0.350
-206.421	196.938	-0.050	-0.075
-205.406	-85.463	0.214	-0.066
-204.392	800.000	-0.046	0.194
-203.377	800.000	-0.095	0.341
-202.363	331.156	-0.124	0.238
-201.348	-200.000	0.038	0.171
-200.333	-200.000	0.005	0.223
-199.319	138.121	-0.071	-0.093
-198.304	-156.456	-0.224	0.014
-197.290	800.000	0.038	0.114
-196.275	-121.550	0.350	-0.058
-195.260	-200.000	-0.014	-0.132
-194.246	800.000	0.010	0.031
-193.231	142.128	-0.044	-0.058
-192.217	-200.000	0.047	-0.263
-191.202	60.533	0.056	-0.055
-190.187	202.345	0.148	-0.226
-189.173	-97.527	-0.321	-0.082
-188.158	46.028	-0.207	-0.190
-187.144	339.918	0.010	0.019
-186.129	342.538	0.062	-0.120
-185.114	-77.626	0.414	-0.142
-184.100	1.953	0.203	-0.145
-183.085	337.806	0.097	0.187
-182.071	11.306	-0.133	-0.101
-181.056	95.972	0.157	-0.178
-180.042	-102.590	0.362	0.086
-179.027	310.367	-0.090	0.167
-178.012	-200.000	0.006	0.083
-176.998	800.000	-0.046	-0.126
-175.983	-41.442	0.237	-0.121
-174.969	317.393	-0.155	-0.290
-173.954	316.274	0.189	-0.353
-172.939	-103.196	0.227	-0.053
-171.925	41.697	0.131	0.118
-170.910	-2.887	0.130	-0.090
-169.896	162.739	0.088	0.122
-168.881	-125.559	0.282	0.042
-167.866	-0.254	-0.124	-0.087
-166.852	-38.247	-0.284	0.149
-165.837	-23.314	0.113	0.067
-164.823	-58.359	0.153	0.066
-163.808	-50.371	-0.110	0.052
-162.793	168.903	-0.227	-0.320
-161.779	40.582	0.231	0.206
-160.764	-200.000	0.114	-0.693
-159.750	-200.000	-0.041	0.308
-158.735	-200.000	0.021	0.256
-157.720	-126.863	0.516	0.075
-156.706	-200.000	0.011	-0.194
-155.691	-54.642	-0.105	0.047
-154.677	-36.050	-0.100	-0.053
-153.662	800.000	-0.150	-0.474
-152.647	-120.723	0.094	0.016
-151.633	48.046	0.234	0.216
-150.618	-89.406	-0.074	0.022
-149.604	85.442	-0.092	-0.100
-148.589	-68.680	-0.329	0.126
-147.574	-118.099	0.189	0.033
-146.560	-128.652	-0.206	0.029
-145.545	-200.000	0.019	0.153
-144.531	-200.000	0.055	0.296
-143.516	-200.000	-0.027	-0.281
-142.502	-200.000	0.046	0.382
-141.487	403.162	-0.105	0.219
-140.472	-200.000	-0.019	0.000
-139.458	-200.000	0.041	-0.209
-138.443	-144.277	-0.142	0.013
-137.429	-100.213	0.067	0.016
-136.414	800.000	-0.074	-0.235
-135.399	-200.000	-0.013	-0.089
-134.385	-200.000	0.006	0.072
-133.370	-200.000	-0.005	-0.052
-132.356	-41.389	0.221	-0.112
-131.341	259.334	-0.112	-0.190
-130.326	-58.956	-0.122	0.052
-129.312	376.321	-0.172	-0.347
-128.297	503.560	0.034	0.077
-127.283	-200.000	-0.003	0.102
-126.268	800.000	-0.080	-0.264
-125.253	-200.000	0.016	0.169
-124.239	4.058	-0.210	0.152
-123.224	-200.000	0.014	0.242
-122.210	195.465	-0.069	0.103
-121.195	-81.317	-0.388	-0.126
