DTS Sentinel unit serial number:	SN413079Multiplexer serial number:	ORYXHardware model number:	OX4-SRSoftware version number:	ORYX F/W v4.00 Oryx Data Collector v3.7.2.0data status	okinstallation	princeton_trtdifferential loss correction	single-endedforward channel	channel 1reverse channel	N/Adate	2019/09/17time	23:22:35forward acquisition time	60.00reverse acquisition time	0.00gamma	496.2192k internal	0.2340k external	0.2340temperature offset calibration	0.9982default loss term (dB/km)	0.3790temperature slope calibration	1.0000multiplexer offset coefficient	1.0000multiplexer slope coefficient	1.0000fibre end	0.00T internal ref (°C)	24.37T ext. ref 1 (°C)	0.17T ext. ref 2 (°C)	17.59length (m)	temperature (°C)	Stokes	anti-Stokes-747.200	-200.000	-0.025	0.354
-746.185	800.000	0.090	0.391
-745.171	-174.110	0.537	0.016
-744.156	-32.775	-0.274	0.153
-743.142	-51.843	0.116	0.054
-742.127	-200.000	-0.005	-0.122
-741.112	-67.458	0.227	0.089
-740.098	148.369	0.025	0.035
-739.083	800.000	-0.185	0.566
-738.069	271.529	-0.112	-0.197
-737.054	800.000	0.054	-0.182
-736.039	-120.618	-0.423	0.072
-735.025	395.843	-0.050	-0.105
-734.010	-200.000	-0.002	-0.159
-732.996	-78.392	0.139	0.048
-731.981	26.736	-0.091	0.076
-730.966	314.612	-0.114	0.215
-729.952	-200.000	0.059	-0.412
-728.937	-127.500	-0.260	-0.038
-727.923	800.000	-0.097	0.292
-726.908	126.403	-0.095	-0.120
-725.894	800.000	-0.014	-0.047
-724.879	-62.354	0.287	-0.120
-723.864	800.000	-0.038	0.125
-722.850	-171.382	-0.071	0.002
-721.835	-200.000	0.071	0.369
-720.821	-37.280	-0.230	0.123
-719.806	-200.000	0.028	0.494
-718.791	-119.737	-0.255	-0.044
-717.777	800.000	0.045	-0.125
-716.762	565.908	-0.091	0.221
-715.748	-143.467	-0.238	0.023
-714.733	-200.000	-0.003	0.106
-713.718	800.000	-0.017	0.059
-712.704	-200.000	0.022	-0.167
-711.689	-200.000	-0.011	-0.177
-710.675	-200.000	0.005	0.058
-709.660	239.013	-0.113	0.189
-708.645	-133.630	-0.014	0.002
-707.631	-28.890	0.185	-0.107
-706.616	212.212	0.141	-0.223
-705.602	-123.259	-0.215	-0.034
-704.587	43.472	0.068	0.062
-703.572	7.381	0.337	0.252
-702.558	113.680	0.119	0.145
-701.543	248.107	-0.066	0.113
-700.529	-107.227	0.294	0.065
-699.514	82.076	-0.260	-0.282
-698.499	-151.597	0.333	0.025
-697.485	340.268	-0.155	0.304
-696.470	800.000	0.176	0.635
-695.456	-118.225	-0.308	0.055
-694.441	800.000	0.026	-0.085
-693.426	-47.988	-0.115	-0.056
-692.412	-155.241	0.196	0.013
-691.397	162.967	0.070	-0.098
-690.383	-38.793	0.278	-0.147
-689.368	700.052	0.110	-0.291
-688.354	-200.000	-0.035	-0.211
-687.339	-19.176	0.261	0.162
-686.324	-129.460	-0.131	0.018
-685.310	-95.819	0.158	-0.042
-684.295	25.754	-0.237	0.198
-683.281	-80.209	-0.094	-0.031
-682.266	59.381	0.092	0.090
-681.251	112.217	-0.105	-0.127
-680.237	-25.754	0.256	-0.151
-679.222	126.959	0.041	-0.052
-678.208	-158.072	0.263	0.015
-677.193	-159.601	-0.261	0.014
-676.178	541.142	-0.157	-0.374
-675.164	580.954	0.103	-0.253
-674.149	-32.335	-0.062	-0.034
-673.135	12.281	-0.236	-0.182
-672.120	14.880	0.114	-0.089
-671.105	-200.000	0.034	-0.204
-670.091	800.000	-0.030	0.095
-669.076	-133.677	-0.196	-0.024
-668.062	-200.000	-0.038	0.229
-667.047	800.000	0.071	-0.295
-666.032	125.375	0.083	0.104
-665.018	141.234	-0.088	0.117
-664.003	-60.201	0.180	-0.077
-662.989	-9.066	-0.184	0.123
-661.974	-26.928	-0.282	0.165
-660.959	-73.003	0.245	-0.090
-659.945	239.541	-0.124	-0.206
-658.930	-80.029	0.140	-0.047
-657.916	201.536	-0.115	0.176
-656.901	243.469	-0.085	0.142
-655.886	381.364	-0.104	-0.214
-654.872	230.201	0.008	-0.012
-653.857	353.761	0.144	0.286
-652.843	-200.000	-0.006	0.161
-651.828	552.219	-0.126	-0.303
-650.814	800.000	-0.041	-0.122
-649.799	-164.292	-0.129	0.006
-648.784	128.961	0.102	0.130
-647.770	285.553	-0.142	-0.255
-646.755	-22.157	-0.140	-0.085
-645.741	268.526	0.020	0.034
-644.726	-95.156	0.463	0.125
-643.711	-200.000	-0.053	0.475
-642.697	33.614	0.083	0.072
-641.682	77.888	0.060	-0.064
-640.668	-131.586	0.129	0.017
-639.653	563.268	0.008	-0.020
-638.638	92.073	-0.303	-0.340
-637.624	-51.633	-0.343	0.160
-636.609	390.677	-0.141	-0.292
-635.595	-73.977	-0.327	-0.118
-634.580	214.542	0.076	0.119
-633.565	800.000	0.052	-0.169
-632.551	30.533	-0.054	-0.046
-631.536	800.000	0.078	-0.299
-630.522	168.338	0.156	0.222
-629.507	182.254	-0.065	0.096
-628.492	-136.098	0.033	-0.004
-627.478	-200.000	-0.011	-0.287
-626.463	800.000	-0.046	-0.187
-625.449	82.402	-0.059	0.064
-624.434	754.992	0.117	-0.315
-623.419	-156.240	-0.147	-0.009
-622.405	-20.269	-0.112	0.069
-621.390	670.713	0.205	-0.530
-620.376	374.669	0.009	0.019
-619.361	492.871	0.063	-0.145
-618.346	-121.367	-0.069	-0.011
-617.332	398.303	0.043	0.089
-616.317	-200.000	0.037	-0.343
-615.303	-39.806	-0.126	-0.066
-614.288	-200.000	-0.012	-0.455
-613.273	-14.889	0.022	0.014
-612.259	94.657	0.077	-0.087
-611.244	-31.638	-0.176	-0.099
-610.230	-28.850	0.190	-0.109
-609.215	175.717	0.222	-0.321
-608.201	73.871	0.065	-0.068
-607.186	-200.000	-0.016	0.370
-606.171	-71.808	-0.140	0.052
-605.157	501.610	0.129	-0.298
-604.142	800.000	0.119	-0.351
-603.128	-38.315	-0.235	0.124
-602.113	-117.764	0.045	-0.008
-601.098	69.150	-0.171	0.175
-600.084	-47.692	0.087	-0.042
-599.069	143.762	-0.132	0.176
-598.055	45.093	0.102	-0.094
-597.040	-33.758	-0.184	0.101
-596.025	-197.093	0.179	-0.001
-595.011	-84.480	0.123	0.039
-593.996	-126.062	-0.215	0.032
-592.982	-26.513	0.312	-0.182
-591.967	-200.000	-0.043	0.252
-590.952	-137.506	0.215	-0.024
-589.938	208.143	-0.099	0.154
-588.923	800.000	0.027	0.098
-587.909	-154.647	0.061	0.004
-586.894	36.982	0.127	0.112
-585.879	-56.148	0.074	0.033
-584.865	-200.000	0.020	0.129
-583.850	259.020	0.013	0.023
-582.836	-162.922	-0.089	0.004
-581.821	-52.988	0.184	0.084
-580.806	-72.565	0.141	-0.052
-579.792	599.742	0.151	0.373
-578.777	-200.000	-0.035	-0.192
-577.763	-200.000	-0.006	0.154
-576.748	-36.944	-0.272	0.145
-575.733	-91.150	0.296	0.084
-574.719	-164.214	-0.236	0.011
-573.704	-1.974	0.078	0.055
-572.690	506.295	-0.171	0.394
-571.675	-200.000	0.032	-0.162
-570.661	-66.344	-0.298	0.118
-569.646	800.000	-0.023	0.091
-568.631	-131.674	-0.316	0.041
-567.617	18.285	0.197	0.157
-566.602	-24.375	-0.374	0.222
-565.588	-53.661	0.201	-0.091
-564.573	-57.171	0.023	0.010
-563.558	163.264	-0.189	0.264
-562.544	665.836	0.094	-0.243
-561.529	-127.477	0.244	0.035
-560.515	800.000	-0.029	-0.092
-559.500	20.135	0.028	-0.022
-558.485	-200.000	0.002	-0.051
-557.471	790.638	-0.037	0.103
-556.456	384.751	0.093	0.191
-555.442	37.705	0.037	-0.033
-554.427	-200.000	-0.014	0.179
-553.412	-200.000	0.010	-0.219
-552.398	111.616	-0.134	-0.161
-551.383	-51.355	0.181	-0.084
-550.369	-200.000	-0.034	-0.202
-549.354	-28.317	0.181	0.104
-548.339	96.188	0.128	-0.145
-547.325	28.002	-0.118	-0.099
-546.310	-200.000	-0.060	-0.282
-545.296	-200.000	-0.400	0.000
-544.281	-54.804	-0.059	0.026
-543.266	-12.574	0.108	-0.070
-542.252	73.239	-0.040	-0.042
-541.237	-174.489	-0.254	-0.007
-540.223	70.663	0.143	0.147
-539.208	800.000	0.038	0.136
-538.193	800.000	0.009	-0.038
-537.179	-200.000	-0.015	-0.536
-536.164	800.000	0.124	0.424
-535.150	-70.088	0.398	0.151
-534.135	-86.837	-0.082	-0.025
-533.121	-200.000	0.031	-0.143
-532.106	3.022	-0.039	-0.028
-531.091	5.175	0.212	0.156
-530.077	1.104	0.138	-0.099
-529.062	17.987	-0.170	0.134
-528.048	27.758	-0.154	-0.129
-527.033	361.435	0.053	-0.106
-526.018	43.157	0.198	-0.180
-525.004	-137.443	0.363	-0.041
-523.989	-200.000	-0.005	-0.178
-522.975	-200.000	0.002	0.259
-521.960	49.270	0.238	0.223
-520.945	414.154	-0.172	0.363
-519.931	-58.418	-0.299	-0.129
-518.916	800.000	-0.014	0.052
-517.902	-129.321	0.208	0.029
-516.887	200.226	-0.128	0.196
-515.872	-149.422	0.198	-0.016
-514.858	-126.945	0.188	-0.027
-513.843	-84.008	-0.189	-0.060
-512.829	333.421	-0.138	0.266
-511.814	-22.804	-0.352	0.211
-510.799	273.917	0.209	-0.366
-509.785	29.897	0.133	-0.113
-508.770	-142.442	-0.212	0.021
-507.756	95.434	0.046	-0.052
-506.741	-68.333	-0.284	-0.110
-505.726	205.491	0.109	-0.168
-504.712	86.728	0.180	0.198
-503.697	48.721	-0.306	0.285
-502.683	800.000	0.027	0.096
-501.668	-44.913	0.158	0.078
-500.653	48.832	-0.226	-0.210
-499.639	24.578	-0.112	-0.092
-498.624	-200.000	-0.013	0.102
-497.610	-48.643	0.337	-0.161
-496.595	-107.386	-0.244	-0.053
-495.581	-38.332	0.202	0.106
-494.566	800.000	0.041	-0.176
-493.551	32.154	0.168	-0.144
-492.537	-200.000	-0.005	-0.057
-491.522	-200.000	-0.011	-0.049
-490.508	331.789	-0.155	0.297
-489.493	-62.953	0.180	-0.074
-488.478	800.000	-0.054	0.177
-487.464	5.924	-0.082	0.061
-486.449	-28.143	-0.260	-0.149
-485.435	-79.013	-0.173	0.058
-484.420	800.000	0.048	0.204
-483.405	-40.164	0.328	-0.169
-482.391	279.702	0.026	-0.046
-481.376	-89.800	0.389	-0.113
-480.362	-106.891	0.437	0.096
-479.347	-200.000	-0.044	-0.463
-478.332	-107.783	-0.215	-0.047
-477.318	-134.221	0.311	-0.038
-476.303	-108.831	-0.535	-0.113
-475.289	-144.544	0.334	-0.031
-474.274	672.896	-0.096	-0.246
-473.259	-179.885	-0.223	0.005
-472.245	-200.000	-0.028	-0.230
-471.230	39.706	0.252	-0.224
-470.216	60.056	-0.113	0.111
-469.201	-116.338	0.333	0.061
-468.186	-115.701	-0.099	-0.018
-467.172	-200.000	0.019	0.315
-466.157	-192.139	0.395	0.004
-465.143	-67.488	0.369	0.144
-464.128	-13.964	0.144	-0.092
-463.113	800.000	0.044	-0.144
-462.099	373.521	0.178	-0.360
-461.084	-122.071	-0.130	-0.021
-460.070	-170.176	-0.052	0.002
-459.055	14.022	-0.226	0.174
-458.040	-160.633	0.189	0.010
-457.026	-94.870	-0.196	-0.053
-456.011	154.299	-0.108	0.147
-454.997	-200.000	0.031	-0.241
-453.982	-19.691	-0.175	0.107
-452.968	17.717	-0.212	0.168
-451.953	-96.872	0.177	0.046
-450.938	-100.337	0.257	-0.063
-449.924	51.069	-0.079	0.074
-448.909	-75.131	-0.159	0.056
-447.895	113.718	-0.196	0.237
-446.880	-200.000	0.042	-0.312
-445.865	654.263	-0.095	-0.241
-444.851	-200.000	0.067	-0.461
-443.836	-108.256	-0.095	-0.020
-442.822	176.618	0.134	-0.193
-441.807	-145.124	-0.130	-0.012
-440.792	127.698	-0.130	0.164
-439.778	784.854	-0.087	0.235
-438.763	459.159	-0.063	0.139
-437.749	-200.000	0.003	0.212
-436.734	35.037	-0.047	-0.041
-435.719	-129.722	0.115	0.016
-434.705	6.409	-0.165	-0.121
-433.690	453.713	0.076	-0.166
-432.676	172.516	-0.096	0.137
-431.661	-5.001	-0.215	-0.146
-430.646	18.899	0.195	-0.155
-429.632	107.031	0.296	-0.349
-428.617	-17.743	0.090	-0.056
-427.603	1.608	0.080	-0.057
-426.588	81.802	-0.043	-0.046
-425.573	-81.457	0.186	0.061
-424.559	800.000	0.108	-0.299
-423.544	800.000	-0.019	0.075
-422.530	573.660	0.085	0.204
-421.515	-131.495	-0.262	0.034
-420.500	423.963	0.036	0.076
-419.486	-145.564	0.405	-0.036
-418.471	3.014	0.207	-0.149
-417.457	-124.164	0.052	-0.008
-416.442	261.534	-0.232	-0.397
-415.428	-11.141	-0.274	-0.179
-414.413	-123.873	-0.260	-0.041
-413.398	110.777	0.088	0.104
-412.384	-200.000	-0.020	-0.160
-411.369	170.619	0.086	0.121
-410.355	-63.673	-0.381	0.155
-409.340	160.658	-0.122	-0.169
-408.325	-117.330	0.235	-0.042
-407.311	800.000	-0.009	-0.027
-406.296	-94.572	-0.233	-0.063
-405.282	-145.886	-0.119	0.010
-404.267	800.000	-0.044	-0.138
-403.252	212.335	0.069	0.108
-402.238	118.364	0.197	0.240
-401.223	-200.000	-0.015	-0.093
-400.209	95.302	0.110	0.124
-399.194	630.510	-0.021	0.051
-398.179	153.149	0.195	0.264
-397.165	240.725	-0.044	-0.072
-396.150	113.817	0.216	-0.260
-395.136	149.551	-0.035	0.046
-394.121	99.366	0.201	-0.230
-393.106	-200.000	-0.009	-0.100
-392.092	-48.124	-0.237	0.113
-391.077	176.104	0.241	0.345
-390.063	154.446	0.069	-0.094
-389.048	-85.099	0.066	-0.020
-388.033	-80.755	0.177	0.058
-387.019	-17.106	0.147	0.092
-386.004	-200.000	0.036	-0.341
-384.990	-200.000	-0.036	-0.295
-383.975	800.000	0.052	0.170
-382.960	-49.968	-0.219	0.103
-381.946	-48.590	-0.288	-0.137
-380.931	800.000	-0.041	-0.139
-379.917	-59.792	0.188	-0.080
-378.902	798.614	-0.112	-0.305
-377.888	32.956	0.138	0.118
-376.873	276.025	0.093	0.163
-375.858	441.165	0.051	0.109
-374.844	156.898	-0.121	0.166
-373.829	705.410	-0.173	0.451
-372.815	105.339	0.104	0.121
-371.800	-200.000	0.148	0.643
-370.785	-104.913	-0.169	0.038
-369.771	167.038	-0.116	-0.162
-368.756	-135.805	-0.283	-0.033
-367.742	-200.000	-0.019	0.141
-366.727	193.588	0.078	0.116
-365.712	259.381	-0.153	0.260
-364.698	121.733	-0.124	0.153
-363.683	375.687	-0.038	0.076
-362.669	33.649	0.329	-0.283
-361.654	286.879	0.095	0.169
-360.639	278.823	0.058	-0.101
-359.625	-200.000	-0.040	-0.247
-358.610	23.639	-0.030	-0.024
-357.596	89.253	0.184	0.202
-356.581	-200.000	0.000	-0.241
-355.566	-200.000	0.022	0.481
-354.552	-200.000	0.038	-0.268
-353.537	-173.247	0.380	-0.011
-352.523	-71.206	-0.134	-0.050
-351.508	-200.000	-0.201	-0.001
-350.493	-4.226	-0.096	-0.065
-349.479	-78.481	-0.430	-0.145
-348.464	-200.000	0.068	-0.305
-347.450	-200.000	0.064	-0.344
-346.435	800.000	0.030	0.131
-345.420	30.204	-0.175	-0.148
-344.406	-200.000	-0.035	0.237
-343.391	374.488	0.136	0.273
-342.377	-200.000	-0.037	-0.208
-341.362	52.687	0.205	-0.194
-340.348	57.658	-0.195	0.188
-339.333	78.749	-0.150	-0.158
-338.318	-122.006	0.127	0.021
-337.304	555.082	0.100	0.236
-336.289	68.105	0.144	0.145
-335.275	-181.566	-0.503	0.010
-334.260	-41.675	-0.309	-0.157
-333.245	-111.402	0.150	-0.030
-332.231	-46.840	-0.211	0.102
-331.216	18.253	-0.196	-0.154
-330.202	-200.000	0.020	0.431
-329.187	-200.000	0.004	0.040
-328.172	-31.504	0.072	-0.040
-327.158	255.581	0.127	-0.215
-326.143	-35.940	0.186	-0.099
-325.129	283.471	0.081	-0.144
-324.114	800.000	0.086	-0.271
-323.099	64.298	-0.197	0.195
-322.085	388.564	0.119	0.243
-321.070	115.923	0.173	0.209
-320.056	-30.141	-0.519	0.291
-319.041	-141.797	0.190	-0.019
-318.026	-26.064	-0.089	0.052
-317.012	-131.830	-0.373	0.048
-315.997	800.000	-0.030	0.125
-314.983	-48.289	-0.110	0.052
-313.968	-200.000	0.014	-0.075
-312.953	-127.632	-0.221	-0.032
-311.939	-21.195	0.274	-0.165
-310.924	-78.479	-0.136	0.046
-309.910	171.348	-0.178	0.252
-308.895	234.459	0.088	-0.143
-307.880	162.187	0.080	0.110
-306.866	265.564	-0.196	0.337
-305.851	299.023	-0.087	0.157
-304.837	-14.587	0.128	-0.081
-303.822	30.656	-0.078	0.066
-302.807	57.546	-0.141	0.136
-301.793	35.536	0.130	-0.112
-300.778	350.757	0.099	0.192
-299.764	3.850	0.219	-0.158
-298.749	594.963	0.035	-0.085
-297.735	131.915	-0.264	0.334
-296.720	65.895	0.271	0.270
-295.705	215.732	-0.167	0.261
-294.691	16.508	-0.221	0.172
-293.676	229.845	0.074	-0.120
-292.662	-200.000	-0.029	-0.165
-291.647	-108.690	-0.303	-0.064
-290.632	-200.000	0.006	-0.039
-289.618	-200.000	-0.139	-0.001
-288.603	30.905	0.165	0.140
-287.589	442.375	0.112	0.241
-286.574	202.954	-0.080	0.122
-285.559	-54.692	0.173	0.077
-284.545	151.143	0.255	0.342
-283.530	-200.000	-0.019	-0.189
-282.516	-4.395	-0.351	0.239
-281.501	187.244	-0.034	-0.050
-280.486	52.083	0.108	-0.101
-279.472	-23.095	-0.269	0.159
-278.457	-167.990	-0.290	-0.011
-277.443	800.000	0.134	0.378
-276.428	44.681	-0.088	-0.079
-275.413	74.718	-0.242	-0.251
-274.399	2.771	-0.205	0.147
-273.384	800.000	-0.085	0.265
-272.370	-61.052	0.119	-0.050
-271.355	-96.193	0.022	0.006
-270.340	-180.347	0.276	-0.006
-269.326	-78.416	-0.259	-0.087
-268.311	800.000	0.036	0.128
-267.297	-200.000	-0.069	-0.466
-266.282	-144.549	0.034	-0.003
-265.267	800.000	-0.041	-0.132
-264.253	78.275	-0.270	0.284
-263.238	478.015	-0.068	-0.152
-262.224	-24.691	0.048	0.028
-261.209	156.655	0.227	-0.308
-260.195	-123.150	0.380	0.060
-259.180	492.509	-0.029	-0.066
-258.165	-73.201	0.080	-0.029
-257.151	-78.896	0.131	-0.044
-256.136	-44.887	0.217	-0.106
-255.122	-200.000	0.007	-0.198
-254.107	-12.069	0.157	-0.101
-253.092	172.186	-0.166	0.234
-252.078	-200.000	-0.058	-0.311
-251.063	78.942	0.310	-0.327
-250.049	800.000	-0.076	-0.211
-249.034	-200.000	-0.036	0.236
-248.019	-200.000	-0.043	0.196
-247.005	172.321	-0.170	0.241
-245.990	-131.182	0.310	0.041
-244.976	-38.273	-0.243	0.126
-243.961	53.588	-0.181	-0.171
-242.946	-160.353	0.232	-0.012
-241.932	72.947	-0.142	0.146
-240.917	169.532	-0.072	0.102
-239.903	-139.870	-0.216	-0.022
-238.888	194.115	-0.163	-0.243
-237.873	497.120	0.089	-0.202
-236.859	-60.746	0.337	-0.140
-235.844	138.148	-0.189	-0.243
-234.830	-76.158	0.100	0.035
-233.815	-200.000	0.016	0.086
-232.800	-46.228	-0.117	-0.056
-231.786	110.398	-0.166	0.196
-230.771	-68.476	0.258	-0.098
-229.757	237.767	0.065	0.105
-228.742	800.000	0.103	0.317
-227.727	68.931	-0.112	-0.113
-226.713	403.210	-0.063	0.131
-225.698	-114.429	0.255	0.048
-224.684	800.000	-0.019	0.055
-223.669	-99.847	-0.134	0.033
-222.655	-54.146	0.314	0.140
-221.640	-70.097	0.239	0.089
-220.625	83.076	0.175	-0.187
-219.611	351.445	0.085	-0.165
-218.596	780.555	-0.101	0.272
-217.582	-164.605	-0.414	0.018
-216.567	-85.234	-0.244	-0.075
-215.552	79.960	-0.112	-0.119
-214.538	-200.000	-0.027	0.193
-213.523	800.000	-0.282	0.776
-212.509	-54.700	-0.100	0.044
-211.494	-200.000	0.005	0.028
-210.479	466.144	-0.014	0.030
-209.465	-85.115	-0.365	-0.112
-208.450	-136.067	0.425	0.049
-207.436	-200.000	0.027	-0.266
-206.421	-137.365	0.149	-0.017
-205.406	93.292	0.417	0.463
-204.392	210.210	0.147	-0.226
-203.377	-155.903	-0.290	0.018
-202.363	36.837	0.186	-0.162
-201.348	-140.467	0.144	-0.015
-200.333	-200.000	0.001	-0.057
-199.319	40.099	0.222	0.196
-198.304	-39.516	-0.064	0.033
-197.290	2.411	0.098	-0.070
-196.275	9.071	-0.232	0.172
-195.260	-187.800	0.207	0.003
-194.246	388.383	-0.252	-0.511
-193.231	800.000	-0.029	0.090
-192.217	-200.000	0.074	0.402
-191.202	335.043	-0.125	0.238
-190.187	-38.716	-0.265	0.137
-189.173	-134.089	0.148	-0.018
-188.158	800.000	-0.124	0.435
-187.144	-200.000	0.070	-0.308
-186.129	-148.543	0.202	-0.016
-185.114	164.730	0.081	0.111
-184.100	324.960	-0.067	0.125
-183.085	76.075	0.130	0.135
-182.071	-9.974	-0.384	-0.250
-181.056	-200.000	-0.008	0.295
-180.042	127.774	0.174	0.217
-179.027	800.000	0.031	-0.096
-178.012	800.000	0.063	0.213
-176.998	193.819	0.052	0.078
-175.983	-154.999	-0.217	0.014
-174.969	-200.000	0.030	-0.283
-173.954	248.723	-0.132	-0.220
-172.939	721.619	-0.134	-0.351
-171.925	-200.000	0.027	-0.195
-170.910	109.304	0.065	-0.077
-169.896	-200.000	0.039	-0.187
-168.881	-132.320	-0.095	-0.012
-167.866	-116.855	-0.194	-0.035
-166.852	-200.000	0.044	0.246
-165.837	800.000	0.040	0.147
-164.823	-93.976	0.204	0.055
-163.808	32.300	-0.185	-0.156
-162.793	-141.944	0.034	-0.003
-161.779	129.023	0.268	0.334
-160.764	-175.577	-0.313	0.008
-159.750	19.653	0.249	-0.196
-158.735	743.438	0.067	-0.178
-157.720	-200.000	-0.048	0.416
-156.706	-167.005	0.274	0.011
-155.691	800.000	-0.073	-0.277
-154.677	-129.033	-0.101	0.014
-153.662	324.428	0.103	-0.193
-152.647	422.795	0.128	-0.268
-151.633	142.925	0.117	-0.153
-150.618	8.189	0.205	0.150
-149.604	525.571	0.109	0.252
-148.589	20.877	-0.200	0.159
-147.574	509.590	-0.068	-0.154
-146.560	123.514	-0.209	0.256
-145.545	201.154	-0.186	0.281
-144.531	800.000	-0.051	0.202
-143.516	117.949	-0.129	0.156
-142.502	-111.767	-0.462	0.092
-141.487	41.998	0.088	-0.078
-140.472	-122.340	-0.074	0.012
-139.458	-127.889	-0.221	-0.031
-138.443	18.709	-0.289	0.227
-137.429	-200.000	0.063	0.373
-136.414	-169.359	-0.128	-0.005
-135.399	98.013	0.157	-0.177
-134.385	-58.144	-0.210	0.090
-133.370	31.211	-0.128	0.108
-132.356	80.024	0.043	0.045
-131.341	263.826	-0.113	0.192
-130.326	97.692	-0.184	0.207
-129.312	-121.513	0.395	0.064
-128.297	413.332	0.060	0.126
-127.283	-51.035	-0.042	0.019
-126.268	-200.000	-0.006	0.294
-125.253	314.453	-0.127	0.234
-124.239	-59.207	0.189	-0.080
-123.224	800.000	0.057	0.224
-122.210	593.152	0.157	-0.379
-121.195	363.415	-0.143	0.280
