DTS Sentinel unit serial number:	SN413079Multiplexer serial number:	ORYXHardware model number:	OX4-SRSoftware version number:	ORYX F/W v4.00 Oryx Data Collector v3.7.2.0data status	okinstallation	princeton_trtdifferential loss correction	single-endedforward channel	channel 1reverse channel	N/Adate	2019/09/15time	16:26:35forward acquisition time	60.00reverse acquisition time	0.00gamma	496.2192k internal	0.2292k external	0.2292temperature offset calibration	0.9937default loss term (dB/km)	0.3790temperature slope calibration	1.0000multiplexer offset coefficient	1.0000multiplexer slope coefficient	1.0000fibre end	0.00T internal ref (°C)	43.80T ext. ref 1 (°C)	5.54T ext. ref 2 (°C)	40.44length (m)	temperature (°C)	Stokes	anti-Stokes-747.200	27.609	0.191	-0.165
-746.185	-39.720	-0.332	0.177
-745.171	800.000	-0.090	-0.316
-744.156	-121.875	0.132	-0.022
-743.142	1.854	-0.167	-0.123
-742.127	-112.588	-0.188	0.038
-741.112	-104.934	-0.241	0.057
-740.098	-7.864	-0.064	-0.044
-739.083	-200.000	-0.002	0.403
-738.069	438.374	-0.152	0.339
-737.054	-29.696	0.126	0.073
-736.039	52.755	0.131	-0.128
-735.025	-133.463	0.018	-0.002
-734.010	800.000	0.058	-0.243
-732.996	-200.000	-0.059	0.345
-731.981	16.522	-0.209	0.169
-730.966	-200.000	-0.006	0.112
-729.952	800.000	-0.056	0.206
-728.937	293.644	0.063	-0.117
-727.923	-157.706	-0.199	-0.012
-726.908	-34.158	0.026	-0.015
-725.894	129.632	0.096	0.126
-724.879	86.647	-0.177	-0.200
-723.864	334.028	0.121	-0.240
-722.850	-77.727	0.502	0.177
-721.835	449.635	-0.092	0.208
-720.821	53.979	-0.287	-0.283
-719.806	-133.689	-0.327	0.042
-718.791	-5.748	-0.330	0.231
-717.777	800.000	-0.024	-0.092
-716.762	-9.293	0.178	0.122
-715.748	-70.510	0.139	0.054
-714.733	-53.644	-0.205	0.096
-713.718	800.000	0.125	0.441
-712.704	277.539	-0.032	0.058
-711.689	-135.042	-0.373	-0.046
-710.675	479.948	-0.104	-0.240
-709.660	800.000	-0.144	-0.492
-708.645	40.977	0.281	-0.259
-707.631	62.311	-0.180	-0.184
-706.616	-22.486	0.184	0.114
-705.602	67.359	-0.148	-0.154
-704.587	767.631	0.050	0.139
-703.572	-35.954	-0.340	0.188
-702.558	96.334	0.221	-0.258
-701.543	271.728	-0.094	-0.170
-700.529	-78.152	-0.052	0.018
-699.514	-200.000	-0.037	-0.286
-698.499	-8.808	-0.312	-0.213
-697.485	438.010	-0.146	0.325
-696.470	-81.656	0.215	0.072
-695.456	9.448	0.140	-0.108
-694.441	143.881	-0.180	0.245
-693.426	-101.865	-0.323	-0.080
-692.412	-200.000	-0.004	0.051
-691.397	-114.590	-0.048	-0.009
-690.383	-200.000	-0.012	0.097
-689.368	197.836	-0.208	0.325
-688.354	70.252	-0.141	-0.148
-687.339	129.631	0.299	-0.390
-686.324	-32.199	-0.246	0.141
-685.310	558.716	-0.075	-0.186
-684.295	-200.000	-0.027	-0.189
-683.281	27.372	-0.096	0.082
-682.266	302.395	-0.080	-0.150
-681.251	140.197	0.175	-0.235
-680.237	558.101	0.123	-0.303
-679.222	-60.735	0.232	-0.100
-678.208	674.666	0.140	-0.370
-677.193	-16.739	-0.198	0.128
-676.178	82.718	-0.103	0.114
-675.164	-56.996	-0.182	0.082
-674.149	46.805	-0.325	-0.308
-673.135	-80.111	0.309	-0.106
-672.120	-110.857	0.129	0.027
-671.105	-200.000	-0.031	-0.217
-670.091	129.113	0.065	0.085
-669.076	-200.000	0.030	-0.275
-668.062	273.613	-0.062	0.112
-667.047	-64.620	0.246	0.102
-666.032	-14.370	0.071	0.047
-665.018	-115.190	-0.284	-0.055
-664.003	-51.898	-0.172	0.082
-662.989	-200.000	-0.042	0.331
-661.974	-200.000	-0.062	0.280
-660.959	-66.034	0.158	0.064
-659.945	-111.658	0.097	-0.020
-658.930	-200.000	-0.032	-0.168
-657.916	99.670	-0.186	-0.219
-656.901	-165.274	0.273	0.012
-655.886	-200.000	0.037	-0.182
-654.872	-80.891	-0.243	-0.082
-653.857	-200.000	-0.018	0.271
-652.843	474.810	-0.123	-0.284
-651.828	-137.578	-0.187	0.022
-650.814	-145.766	-0.191	0.017
-649.799	-72.675	0.325	-0.122
-648.784	800.000	0.037	0.105
-647.770	154.266	-0.232	-0.325
-646.755	12.748	-0.181	-0.142
-645.741	800.000	-0.093	-0.341
-644.726	-106.030	0.175	-0.040
-643.711	-131.791	-0.113	-0.015
-642.697	268.458	0.109	-0.195
-641.682	-140.037	-0.245	-0.026
-640.668	-103.529	-0.236	-0.057
-639.653	113.744	0.277	0.343
-638.638	800.000	0.093	-0.315
-637.624	-68.154	0.050	0.020
-636.609	66.253	-0.142	0.147
-635.595	54.926	-0.236	0.233
-634.580	130.569	-0.142	0.185
-633.565	131.149	-0.022	-0.028
-632.551	-137.672	0.129	-0.015
-631.536	94.009	-0.251	-0.290
-630.522	-120.970	0.176	0.030
-629.507	-69.416	-0.392	-0.153
-628.492	-200.000	-0.026	-0.133
-627.478	17.856	-0.190	-0.154
-626.463	411.308	-0.046	0.100
-625.449	112.420	0.067	0.083
-624.434	23.429	-0.083	-0.069
-623.419	114.066	-0.148	-0.184
-622.405	-172.085	0.160	-0.005
-621.390	57.716	-0.153	-0.153
-620.376	-200.000	0.029	-0.221
-619.361	-18.430	-0.106	0.067
-618.346	668.668	-0.031	0.082
-617.332	85.144	-0.172	0.192
-616.317	-200.000	0.032	0.163
-615.303	-200.000	0.002	0.292
-614.288	800.000	-0.061	0.221
-613.273	-112.182	0.041	0.008
-612.259	-82.949	-0.319	-0.105
-611.244	-200.000	0.054	-0.362
-610.230	-53.818	-0.232	-0.108
-609.215	-109.923	-0.312	0.067
-608.201	23.216	-0.073	0.061
-607.186	153.324	-0.160	-0.224
-606.171	12.553	-0.157	0.123
-605.157	127.634	-0.091	-0.117
-604.142	135.867	-0.126	0.167
-603.128	348.330	0.022	-0.044
-602.113	-26.858	-0.197	0.117
-601.098	-16.565	0.025	0.016
-600.084	-38.727	0.246	0.132
-599.069	-200.000	0.071	-0.454
-598.055	-200.000	0.013	-0.111
-597.040	120.957	-0.109	0.138
-596.025	744.047	-0.055	0.150
-595.011	-68.537	0.139	0.055
-593.996	-96.757	0.261	0.070
-592.982	622.902	-0.144	-0.369
-591.967	-108.318	0.138	-0.030
-590.952	314.160	0.201	0.386
-589.938	-200.000	0.009	-0.070
-588.923	33.929	0.104	-0.092
-587.909	-200.000	0.081	-0.436
-586.894	-78.034	-0.193	-0.068
-585.879	-161.377	-0.278	0.015
-584.865	-9.569	0.273	-0.185
-583.850	58.520	-0.134	-0.133
-582.836	122.584	-0.074	0.094
-581.821	800.000	0.040	-0.129
-580.806	-103.282	0.147	-0.035
-579.792	86.558	-0.070	-0.079
-578.777	515.186	-0.149	-0.355
-577.763	-167.355	0.307	-0.013
-576.748	101.338	0.256	-0.303
-575.733	-43.948	-0.384	-0.196
-574.719	-200.000	0.013	-0.061
-573.704	12.297	0.184	0.144
-572.690	59.655	-0.126	0.126
-571.675	5.821	-0.126	0.095
-570.661	-200.000	0.009	-0.049
-569.646	-200.000	0.009	0.155
-568.631	59.461	0.181	0.181
-567.617	-196.000	0.053	0.000
-566.602	98.938	0.164	-0.193
-565.588	-200.000	-0.019	0.137
-564.573	-49.547	0.357	0.173
-563.558	69.676	-0.131	0.137
-562.544	-165.736	-0.113	-0.005
-561.529	-96.376	0.174	0.047
-560.515	-200.000	-0.001	-0.112
-559.500	152.064	0.041	0.056
-558.485	-200.000	0.083	-0.474
-557.471	-33.316	0.196	-0.110
-556.456	-70.295	0.129	0.050
-555.442	-38.608	-0.081	0.044
-554.427	361.083	-0.107	-0.217
-553.412	-114.068	0.265	-0.052
-552.398	123.276	-0.242	0.308
-551.383	-73.197	0.096	0.036
-550.369	-90.651	0.374	0.110
-549.354	-200.000	0.049	-0.411
-548.339	-35.476	0.304	-0.167
-547.325	-0.757	0.154	-0.111
-546.310	-200.000	0.006	-0.132
-545.296	-89.920	0.196	0.058
-544.281	116.282	-0.070	-0.088
-543.266	-200.000	0.004	-0.076
-542.252	-32.248	-0.094	0.053
-541.237	-142.935	-0.286	-0.028
-540.223	335.565	-0.055	-0.108
-539.208	-105.818	-0.284	0.065
-538.193	40.216	0.116	0.106
-537.179	800.000	0.109	0.313
-536.164	281.483	0.034	-0.062
-535.150	-200.000	-0.025	0.202
-534.135	-200.000	-0.017	0.227
-533.121	-41.046	-0.092	0.048
-532.106	-29.472	-0.378	0.220
-531.091	-44.032	0.197	0.101
-530.077	17.446	0.117	0.094
-529.062	-112.082	0.106	0.022
-528.048	-116.165	-0.388	0.073
-527.033	189.610	0.166	-0.253
-526.018	-200.000	-0.000	0.352
-525.004	-149.507	-0.215	-0.017
-523.989	30.308	-0.030	-0.026
-522.975	181.694	-0.231	0.345
-521.960	-181.474	0.182	-0.004
-520.945	-97.488	0.288	-0.076
-519.931	760.882	-0.142	0.391
-518.916	800.000	-0.077	-0.229
-517.902	29.151	0.273	-0.235
-516.887	-129.566	-0.082	-0.012
-515.872	300.839	-0.052	-0.097
-514.858	156.358	-0.055	-0.077
-513.843	-103.913	-0.341	0.081
-512.829	-51.203	0.381	0.181
-511.814	800.000	0.065	-0.190
-510.799	800.000	-0.132	0.379
-509.785	-200.000	0.011	-0.136
-508.770	94.216	-0.150	0.173
-507.756	-83.479	0.120	-0.039
-506.741	-200.000	-0.014	-0.211
-505.726	-140.907	-0.017	-0.002
-504.712	618.652	0.043	0.109
-503.697	69.987	0.165	0.173
-502.683	679.023	0.044	0.115
-501.668	800.000	-0.088	-0.290
-500.653	-200.000	-0.007	0.122
-499.639	401.998	-0.163	-0.347
-498.624	-118.662	-0.165	0.029
-497.610	-200.000	0.020	0.254
-496.595	52.499	0.066	-0.064
-495.581	391.708	0.086	-0.181
-494.566	97.025	0.151	-0.175
-493.551	57.155	0.134	-0.132
-492.537	-27.583	-0.283	0.166
-491.522	104.440	-0.259	-0.309
-490.508	-53.577	0.201	-0.093
-489.493	106.284	-0.265	-0.318
-488.478	-133.987	-0.328	-0.041
-487.464	62.335	0.151	-0.153
-486.449	544.180	-0.066	-0.159
-485.435	147.450	-0.251	0.342
-484.420	-82.475	0.173	-0.057
-483.405	-52.317	-0.405	0.190
-482.391	54.904	-0.159	-0.156
-481.376	800.000	0.077	-0.257
-480.362	668.678	0.090	-0.235
-479.347	-128.658	-0.319	0.046
-478.332	58.957	-0.168	0.167
-477.318	800.000	0.051	0.184
-476.303	-122.313	0.234	0.039
-475.289	800.000	0.065	0.205
-474.274	-107.112	0.398	0.089
-473.259	-120.713	0.149	-0.025
-472.245	-66.292	-0.171	-0.069
-471.230	35.929	-0.207	-0.184
-470.216	-200.000	-0.078	0.436
-469.201	198.172	-0.182	0.281
-468.186	31.763	0.290	-0.253
-467.172	78.976	-0.160	0.174
-466.157	-82.090	-0.308	0.102
-465.143	-121.800	-0.226	0.038
-464.128	58.152	-0.101	0.100
-463.113	292.478	-0.089	0.164
-462.099	139.429	-0.168	-0.224
-461.084	3.939	0.156	-0.115
-460.070	-114.405	0.190	0.037
-459.055	-144.684	0.285	0.027
-458.040	-144.558	0.095	0.009
-457.026	19.957	-0.258	-0.211
-456.011	615.731	0.160	0.405
-454.997	-131.315	-0.050	-0.007
-453.982	-141.231	-0.080	0.008
-452.968	-200.000	0.022	0.249
-451.953	26.571	0.023	-0.019
-450.938	53.352	-0.219	0.212
-449.924	20.766	0.106	-0.087
-448.909	236.035	0.084	0.141
-447.895	372.826	0.137	0.282
-446.880	25.827	-0.166	0.140
-445.865	-122.362	-0.288	0.047
-444.851	178.164	-0.036	-0.053
-443.836	-26.001	-0.149	0.089
-442.822	-38.401	0.209	0.112
-441.807	93.573	-0.065	-0.074
-440.792	-177.705	-0.196	-0.005
-439.778	621.354	0.012	-0.032
-438.763	-113.044	0.090	0.018
-437.749	-154.728	-0.291	-0.020
-436.734	-16.373	0.300	-0.192
-435.719	800.000	-0.076	-0.239
-434.705	-75.271	0.039	0.014
-433.690	-161.150	0.286	-0.015
-432.676	-156.850	0.164	0.010
-431.661	-10.510	-0.085	-0.057
-430.646	-10.047	0.082	-0.055
-429.632	660.180	-0.052	-0.134
-428.617	-127.505	-0.455	0.067
-427.603	257.913	-0.127	-0.221
-426.588	-22.131	0.016	-0.010
-425.573	-97.777	-0.068	0.018
-424.559	-48.968	0.379	0.183
-423.544	101.473	0.065	-0.076
-422.530	83.944	0.074	-0.082
-421.515	-200.000	-0.000	-0.194
-420.500	800.000	0.016	-0.066
-419.486	-40.326	0.333	-0.175
-418.471	-107.622	0.089	-0.020
-417.457	70.947	0.276	0.289
-416.442	-200.000	-0.015	0.120
-415.428	36.946	0.084	-0.075
-414.413	374.507	-0.084	-0.173
-413.398	221.151	0.045	-0.072
-412.384	-69.404	0.211	0.082
-411.369	-200.000	-0.006	0.200
-410.355	764.619	-0.096	-0.264
-409.340	-32.527	0.061	0.034
-408.325	-101.747	0.230	-0.056
-407.311	-185.141	0.410	-0.006
-406.296	-89.272	0.247	-0.073
-405.282	-77.763	0.127	-0.044
-404.267	78.904	-0.148	0.160
-403.252	-62.342	0.215	-0.091
-402.238	-200.000	-0.035	0.427
-401.223	-33.815	-0.309	-0.172
-400.209	718.400	0.025	-0.067
-399.194	800.000	0.092	-0.335
-398.179	4.453	0.155	-0.115
-397.165	-6.609	-0.274	-0.188
-396.150	14.443	-0.132	-0.104
-395.136	330.859	0.193	-0.376
-394.121	455.523	-0.040	0.091
-393.106	50.185	-0.066	-0.063
-392.092	-163.652	-0.402	0.019
-391.077	625.680	0.072	0.183
-390.063	130.286	-0.110	0.142
-389.048	1.472	-0.194	-0.141
-388.033	800.000	0.054	-0.156
-387.019	-90.788	0.409	-0.119
-386.004	341.831	0.069	0.136
-384.990	-80.742	-0.078	-0.026
-383.975	287.847	-0.038	-0.069
-382.960	-33.017	0.120	-0.067
-381.946	30.379	0.039	-0.034
-380.931	12.969	0.126	-0.098
-379.917	-154.288	0.368	-0.025
-378.902	800.000	0.097	-0.289
-377.888	495.473	-0.001	0.003
-376.873	404.620	0.050	-0.107
-375.858	-150.823	0.317	-0.024
-374.844	232.766	-0.074	0.123
-373.829	-200.000	-0.028	0.220
-372.815	-200.000	-0.032	0.166
-371.800	627.414	-0.171	0.436
-370.785	800.000	-0.061	0.190
-369.771	800.000	-0.070	0.254
-368.756	-200.000	0.036	-0.162
-367.742	-24.467	0.094	-0.057
-366.727	-159.736	0.164	-0.009
-365.712	-139.170	-0.199	0.022
-364.698	234.500	0.069	-0.115
-363.683	-127.127	0.205	0.030
-362.669	-138.797	-0.299	-0.033
-361.654	-130.734	0.202	-0.027
-360.639	-200.000	0.030	-0.134
-359.625	-200.000	0.002	-0.294
-358.610	364.167	-0.104	-0.210
-357.596	33.036	-0.106	0.093
-356.581	-200.000	-0.003	-0.141
-355.566	-200.000	-0.004	0.036
-354.552	-200.000	-0.034	0.195
-353.537	51.883	0.117	0.112
-352.523	-50.036	-0.024	-0.012
-351.508	-200.000	0.012	0.073
-350.493	-94.057	0.137	-0.038
-349.479	11.158	0.155	0.120
-348.464	800.000	-0.100	0.402
-347.450	-63.678	-0.064	-0.026
-346.435	33.004	0.116	-0.102
-345.420	339.248	0.049	-0.095
-344.406	-87.599	0.105	0.032
-343.391	439.547	0.050	-0.109
-342.377	-69.555	-0.138	-0.053
-341.362	-110.314	0.485	-0.102
-340.348	-200.000	0.029	-0.595
-339.333	87.400	0.093	-0.104
-338.318	-200.000	-0.016	0.134
-337.304	-87.039	-0.143	-0.044
-336.289	-107.192	-0.176	-0.039
-335.275	-103.374	0.131	0.031
-334.260	678.473	0.195	-0.510
-333.245	-141.626	0.205	-0.021
-332.231	-104.623	0.068	0.016
-331.216	6.988	-0.062	0.046
-330.202	48.401	-0.295	-0.278
-329.187	-200.000	-0.008	-0.072
-328.172	-22.653	0.268	0.163
-327.158	-108.655	-0.353	0.076
-326.143	-198.278	0.371	0.002
-325.129	-200.000	0.091	0.452
-324.114	-200.000	0.000	0.090
-323.099	-200.000	-0.007	-0.048
-322.085	-200.000	0.012	-0.098
-321.070	145.195	-0.196	0.264
-320.056	70.326	0.077	0.080
-319.041	33.307	0.179	0.157
-318.026	-200.000	0.029	0.455
-317.012	-132.197	0.155	0.020
-315.997	-114.494	-0.153	-0.030
-314.983	55.092	-0.245	0.239
-313.968	55.478	0.277	0.270
-312.953	-68.377	-0.109	0.043
-311.939	-76.767	0.199	-0.070
-310.924	55.124	-0.272	0.265
-309.910	145.190	-0.062	0.083
-308.895	64.062	-0.196	-0.198
-307.880	-200.000	-0.049	-0.385
-306.866	-102.436	-0.161	0.039
-305.851	101.388	-0.057	0.066
-304.837	-79.794	0.266	-0.090
-303.822	2.542	-0.352	-0.256
-302.807	164.902	-0.148	0.210
-301.793	-36.252	-0.124	0.067
-300.778	-141.144	0.225	0.023
-299.764	324.550	-0.144	0.277
-298.749	-200.000	-0.015	0.274
-297.735	254.829	0.145	0.249
-296.720	-85.821	-0.386	0.120
-295.705	-64.024	-0.060	0.025
-294.691	217.649	-0.174	0.279
-293.676	54.704	-0.072	0.069
-292.662	280.575	-0.036	-0.064
-291.647	82.013	-0.170	-0.185
-290.632	-73.773	-0.235	-0.086
-289.618	-11.651	-0.306	0.202
-288.603	94.180	0.190	0.217
-287.589	-38.473	-0.211	-0.112
-286.574	-48.298	-0.315	-0.153
-285.559	182.172	-0.134	0.199
-284.545	-200.000	-0.013	0.310
-283.530	-101.996	-0.274	-0.066
-282.516	112.662	-0.143	0.175
-281.501	800.000	0.075	0.272
-280.486	30.451	-0.024	0.020
-279.472	-146.296	-0.136	-0.012
-278.457	124.770	0.119	0.151
-277.443	70.335	0.409	-0.425
-276.428	800.000	-0.066	0.209
-275.413	-83.659	-0.095	-0.031
-274.399	-200.000	0.044	-0.199
-273.384	800.000	-0.055	-0.227
-272.370	5.251	0.126	-0.093
-271.355	800.000	-0.097	-0.372
-270.340	-155.432	-0.320	-0.021
-269.326	357.914	0.174	0.348
-268.311	-11.664	0.231	0.152
-267.297	-200.000	-0.030	0.261
-266.282	265.420	0.118	-0.206
-265.267	326.229	0.089	-0.172
-264.253	-46.738	-0.222	0.109
-263.238	800.000	0.084	-0.252
-262.224	-136.118	0.111	-0.013
-261.209	-101.578	-0.352	0.086
-260.195	-200.000	0.022	-0.126
-259.180	452.810	-0.110	-0.244
-258.165	-131.486	0.509	-0.067
-257.151	-198.603	0.143	-0.001
-256.136	-35.781	-0.244	0.133
-255.122	-38.296	-0.138	0.073
-254.107	-200.000	0.018	-0.208
-253.092	-200.000	-0.037	0.233
-252.078	-16.426	0.067	0.043
-251.063	416.632	-0.121	-0.260
-250.049	95.120	0.040	0.045
-249.034	-75.798	-0.309	0.110
-248.019	-180.000	-0.273	-0.006
-247.005	-97.253	0.144	-0.038
-245.990	152.743	0.162	0.222
-244.976	800.000	0.023	0.099
-243.961	-46.683	0.221	0.108
-242.946	-143.871	0.118	-0.011
-241.932	109.694	0.108	-0.130
-240.917	-200.000	-0.004	0.198
-239.903	447.869	0.177	0.392
-238.888	-173.051	-0.252	-0.008
-237.873	31.408	0.203	0.175
-236.859	249.051	-0.012	0.021
-235.844	102.840	0.158	-0.186
-234.830	-92.056	0.086	0.024
-233.815	612.695	-0.083	-0.209
-232.800	-200.000	-0.033	0.266
-231.786	-200.000	-0.005	-0.063
-230.771	17.459	0.130	0.103
-229.757	-50.229	-0.061	-0.029
-228.742	14.971	-0.151	0.119
-227.727	-2.008	-0.180	-0.127
-226.713	-16.955	0.216	0.137
-225.698	-139.077	-0.338	-0.037
-224.684	38.020	-0.243	-0.216
-223.669	-49.452	-0.263	0.126
-222.655	-200.000	0.008	0.062
-221.640	-180.233	0.083	0.002
-220.625	713.450	0.106	0.282
-219.611	-200.000	0.004	0.144
-218.596	169.348	0.096	0.137
-217.582	-16.270	0.133	0.084
-216.567	-200.000	-0.005	0.085
-215.552	-200.000	0.059	0.325
-214.538	-25.524	0.281	0.166
-213.523	-167.544	-0.289	0.012
-212.509	-105.354	0.257	-0.059
-211.494	15.871	0.127	0.100
-210.479	18.863	0.430	0.345
-209.465	-200.000	-0.027	0.526
-208.450	-200.000	-0.069	0.317
-207.436	451.907	0.043	0.094
-206.421	-99.122	-0.140	-0.035
-205.406	800.000	0.063	-0.224
-204.392	-35.924	0.214	-0.116
-203.377	-21.872	-0.012	0.007
-202.363	1.486	0.084	0.061
-201.348	-28.619	-0.345	0.199
-200.333	-200.000	0.021	0.154
-199.319	-200.000	-0.055	-0.357
-198.304	800.000	0.042	0.137
-197.290	-200.000	-0.035	-0.209
-196.275	206.522	-0.097	-0.152
-195.260	122.663	0.158	-0.198
-194.246	437.811	-0.077	-0.168
-193.231	-200.000	0.016	0.087
-192.217	-200.000	-0.079	0.406
-191.202	-88.987	0.213	-0.063
-190.187	-200.000	-0.039	0.415
-189.173	85.581	0.096	-0.105
-188.158	-45.954	0.169	0.083
-187.144	-200.000	0.007	-0.130
-186.129	12.559	-0.046	0.036
-185.114	-97.260	0.121	-0.032
-184.100	-200.000	0.016	0.288
-183.085	-21.275	0.417	0.255
-182.071	-68.746	-0.311	-0.120
-181.056	11.885	0.275	-0.212
-180.042	-133.025	0.218	-0.028
-179.027	-0.564	-0.292	-0.208
-178.012	21.008	0.132	0.107
-176.998	-17.846	0.384	-0.241
-175.983	102.786	0.117	0.138
-174.969	-200.000	0.005	0.099
-173.954	165.875	-0.227	-0.322
-172.939	-43.384	0.011	-0.006
-171.925	-126.949	-0.112	0.016
-170.910	-66.033	0.256	-0.102
-169.896	-200.000	-0.141	-0.001
-168.881	-200.000	-0.009	-0.319
-167.866	-71.132	0.096	-0.036
-166.852	241.787	-0.063	0.105
-165.837	-200.000	-0.012	-0.140
-164.823	-44.274	0.300	0.150
-163.808	125.540	-0.202	0.255
-162.793	-68.336	0.234	-0.091
-161.779	22.963	0.200	-0.164
-160.764	-200.000	0.018	-0.123
-159.750	393.234	-0.053	-0.111
-158.735	33.018	0.165	-0.143
-157.720	-82.958	-0.151	-0.049
-156.706	800.000	0.039	-0.131
-155.691	800.000	0.035	-0.110
-154.677	-63.324	0.317	-0.131
-153.662	330.837	-0.064	-0.124
-152.647	397.571	-0.166	-0.347
-151.633	-200.000	-0.004	-0.036
-150.618	-200.000	-0.028	0.188
-149.604	23.197	-0.231	-0.190
-148.589	368.205	0.235	-0.476
-147.574	22.551	0.171	0.140
-146.560	-200.000	0.006	0.048
-145.545	432.196	0.170	0.369
-144.531	800.000	-0.045	-0.169
-143.516	-115.103	0.298	0.057
-142.502	-200.000	-0.005	-0.245
-141.487	-200.000	-0.013	0.066
-140.472	28.267	-0.140	-0.118
-139.458	-27.490	0.132	0.077
-138.443	156.336	0.091	-0.126
-137.429	265.402	-0.081	-0.141
-136.414	-200.000	0.036	-0.276
-135.399	-200.000	-0.062	-0.312
-134.385	800.000	0.065	-0.193
-133.370	-97.407	0.103	-0.027
-132.356	76.040	-0.182	-0.192
-131.341	-89.929	-0.388	0.113
-130.326	-200.000	-0.009	0.183
-129.312	-44.883	0.132	0.066
-128.297	-200.000	-0.074	-0.343
-127.283	34.859	0.217	0.190
-126.268	800.000	-0.069	-0.192
-125.253	43.730	0.066	0.061
-124.239	-17.188	-0.240	-0.151
-123.224	-76.689	-0.237	-0.083
-122.210	53.752	-0.358	0.344
