DTS Sentinel unit serial number:	SN413079Multiplexer serial number:	ORYXHardware model number:	OX4-SRSoftware version number:	ORYX F/W v4.00 Oryx Data Collector v3.7.2.0data status	okinstallation	princeton_trtdifferential loss correction	single-endedforward channel	channel 1reverse channel	N/Adate	2019/09/17time	06:34:35forward acquisition time	60.00reverse acquisition time	0.00gamma	496.2192k internal	0.2328k external	0.2328temperature offset calibration	0.9971default loss term (dB/km)	0.3790temperature slope calibration	1.0000multiplexer offset coefficient	1.0000multiplexer slope coefficient	1.0000fibre end	0.00T internal ref (°C)	28.06T ext. ref 1 (°C)	0.12T ext. ref 2 (°C)	21.40length (m)	temperature (°C)	Stokes	anti-Stokes-747.200	-29.786	-0.075	-0.043
-746.185	800.000	-0.021	0.084
-745.171	48.224	-0.133	0.126
-744.156	-68.836	-0.175	-0.068
-743.142	-152.776	-0.363	0.026
-742.127	-200.000	-0.015	0.122
-741.112	71.527	0.033	-0.035
-740.098	-200.000	-0.008	0.197
-739.083	793.624	0.029	-0.079
-738.069	-81.825	0.167	0.055
-737.054	-200.000	0.009	-0.135
-736.039	56.941	-0.197	-0.193
-735.025	-80.012	0.213	0.072
-734.010	616.156	-0.122	-0.309
-732.996	-152.602	-0.309	0.022
-731.981	-61.174	0.128	0.054
-730.966	800.000	0.051	0.211
-729.952	198.966	-0.050	-0.077
-728.937	-104.626	-0.324	-0.075
-727.923	-99.272	-0.225	0.057
-726.908	-200.000	-0.027	-0.202
-725.894	45.809	0.082	-0.076
-724.879	-149.424	-0.358	-0.029
-723.864	-140.510	0.197	0.021
-722.850	373.737	-0.044	0.089
-721.835	-200.000	-0.043	-0.268
-720.821	-82.272	0.288	-0.094
-719.806	384.583	-0.096	-0.198
-718.791	598.916	-0.089	-0.222
-717.777	-200.000	-0.008	-0.364
-716.762	508.369	0.033	-0.077
-715.748	104.262	-0.093	0.111
-714.733	-132.698	0.119	-0.015
-713.718	-140.054	0.395	-0.042
-712.704	-120.335	-0.095	0.016
-711.689	-42.965	0.212	-0.108
-710.675	-30.960	-0.213	0.121
-709.660	-116.029	0.152	-0.028
-708.645	70.130	0.162	0.168
-707.631	605.135	-0.158	0.397
-706.616	-104.088	0.232	0.054
-705.602	-195.416	-0.232	0.002
-704.587	83.184	-0.110	-0.121
-703.572	-27.112	0.177	0.104
-702.558	19.917	0.142	-0.115
-701.543	-145.741	-0.351	-0.032
-700.529	-94.113	0.084	0.023
-699.514	52.249	0.221	-0.212
-698.499	-70.540	0.177	0.067
-697.485	425.203	0.008	0.018
-696.470	-112.506	-0.112	-0.022
-695.456	278.794	-0.129	-0.232
-694.441	451.468	0.063	0.139
-693.426	-89.715	0.326	0.096
-692.412	425.229	0.102	0.221
-691.397	199.429	-0.146	-0.226
-690.383	-103.374	0.398	0.094
-689.368	-200.000	0.009	0.050
-688.354	-105.034	0.166	0.038
-687.339	116.293	0.049	0.060
-686.324	78.370	-0.102	0.109
-685.310	-200.000	0.000	-0.187
-684.295	-200.000	0.002	0.072
-683.281	-200.000	0.098	-0.439
-682.266	-187.882	-0.397	0.005
-681.251	-200.000	0.043	-0.250
-680.237	81.692	-0.142	-0.154
-679.222	-99.538	-0.261	0.066
-678.208	-73.196	-0.283	0.104
-677.193	4.023	0.105	0.077
-676.178	212.012	-0.204	-0.323
-675.164	-60.036	0.067	0.029
-674.149	140.504	0.101	0.135
-673.135	29.439	-0.134	-0.114
-672.120	-27.384	0.078	-0.046
-671.105	-73.454	0.178	0.065
-670.091	178.806	-0.097	-0.142
-669.076	155.760	-0.148	0.204
-668.062	60.876	0.155	0.154
-667.047	-200.000	0.006	-0.051
-666.032	-82.141	0.283	0.093
-665.018	800.000	-0.108	-0.412
-664.003	-71.718	0.452	-0.170
-662.989	12.985	0.148	-0.115
-661.974	-200.000	-0.026	0.178
-660.959	-164.877	-0.021	-0.001
-659.945	800.000	-0.081	0.303
-658.930	-59.776	0.231	-0.099
-657.916	79.490	0.049	0.052
-656.901	155.161	-0.119	-0.164
-655.886	483.856	0.128	0.292
-654.872	292.034	0.120	0.220
-653.857	800.000	-0.110	0.322
-652.843	-200.000	-0.032	-0.318
-651.828	-166.289	0.214	-0.009
-650.814	800.000	0.048	-0.194
-649.799	-135.929	0.103	-0.012
-648.784	-49.559	0.255	-0.122
-647.770	-17.651	0.172	-0.109
-646.755	41.783	0.145	-0.132
-645.741	-37.351	-0.239	-0.128
-644.726	-200.000	-0.008	0.129
-643.711	57.032	-0.209	-0.205
-642.697	7.284	-0.259	-0.194
-641.682	45.657	0.089	0.083
-640.668	-200.000	-0.046	0.296
-639.653	343.754	0.168	-0.331
-638.638	31.375	0.222	-0.192
-637.624	-76.801	0.153	0.054
-636.609	226.773	-0.076	0.123
-635.595	5.189	0.093	-0.069
-634.580	-62.891	-0.314	0.130
-633.565	176.559	-0.112	-0.164
-632.551	-39.603	-0.159	-0.084
-631.536	-143.608	-0.097	-0.009
-630.522	-146.715	0.286	-0.025
-629.507	-200.000	-0.056	-0.344
-628.492	640.026	-0.034	-0.086
-627.478	-8.875	-0.037	0.025
-626.463	800.000	0.028	-0.091
-625.449	-132.449	-0.123	-0.016
-624.434	-14.170	-0.420	-0.271
-623.419	399.681	0.135	0.284
-622.405	-104.743	0.270	0.062
-621.390	-200.000	0.018	-0.204
-620.376	70.120	-0.084	0.087
-619.361	-163.267	0.198	0.009
-618.346	18.036	0.214	-0.171
-617.332	-200.000	-0.001	0.101
-616.317	196.615	0.160	0.244
-615.303	-116.582	0.225	-0.042
-614.288	-45.643	-0.019	-0.009
-613.273	-200.000	-0.035	-0.262
-612.259	274.697	0.129	-0.229
-611.244	-200.000	0.042	-0.211
-610.230	41.355	-0.225	-0.204
-609.215	-200.000	-0.011	-0.100
-608.201	199.034	-0.136	0.209
-607.186	38.016	0.049	-0.043
-606.171	97.746	0.114	-0.132
-605.157	-17.425	-0.150	-0.094
-604.142	171.985	0.022	-0.032
-603.128	-37.269	-0.174	0.093
-602.113	-200.000	0.037	0.176
-601.098	-87.852	-0.051	0.015
-600.084	800.000	0.006	-0.027
-599.069	17.284	-0.181	-0.144
-598.055	-135.244	-0.264	-0.032
-597.040	52.473	0.084	-0.080
-596.025	75.727	0.256	-0.271
-595.011	21.408	-0.277	0.225
-593.996	246.418	-0.093	0.158
-592.982	-120.104	-0.045	-0.008
-591.967	29.174	-0.089	0.076
-590.952	110.136	-0.083	-0.099
-589.938	482.596	0.159	-0.362
-588.923	-14.559	-0.063	-0.040
-587.909	-19.570	-0.161	-0.100
-586.894	-200.000	0.002	-0.076
-585.879	-111.818	-0.322	0.065
-584.865	-138.114	0.185	-0.021
-583.850	-24.240	0.371	-0.222
-582.836	40.701	0.063	-0.057
-581.821	-52.325	0.122	-0.056
-580.806	384.324	0.109	-0.224
-579.792	-66.421	-0.019	0.008
-578.777	608.730	-0.065	0.163
-577.763	-200.000	-0.027	0.250
-576.748	26.063	-0.124	0.103
-575.733	-15.498	0.288	0.184
-574.719	-66.356	-0.181	0.072
-573.704	551.669	0.106	-0.255
-572.690	15.079	-0.206	0.161
-571.675	-184.614	0.282	0.005
-570.661	-81.942	-0.264	-0.086
-569.646	-56.837	-0.026	0.012
-568.631	679.874	-0.048	-0.125
-567.617	-26.681	-0.457	-0.268
-566.602	356.749	-0.071	-0.142
-565.588	-200.000	0.012	-0.369
-564.573	-63.755	-0.129	0.053
-563.558	-108.004	-0.047	-0.010
-562.544	-128.143	0.096	0.014
-561.529	-55.143	0.302	0.136
-560.515	391.464	0.023	-0.047
-559.500	-37.541	-0.136	0.073
-558.485	-86.349	-0.283	0.087
-557.471	165.996	-0.136	0.192
-556.456	-200.000	-0.016	-0.130
-555.442	-102.344	0.378	-0.091
-554.427	800.000	0.049	0.187
-553.412	-62.978	-0.095	0.039
-552.398	165.385	-0.105	-0.149
-551.383	1.849	0.219	-0.158
-550.369	-128.281	-0.198	0.028
-549.354	-25.437	-0.180	0.107
-548.339	41.440	-0.105	0.095
-547.325	10.888	-0.020	-0.015
-546.310	423.974	0.123	-0.265
-545.296	-5.925	-0.098	-0.067
-544.281	55.743	0.481	0.466
-543.266	45.483	0.279	0.257
-542.252	167.919	0.067	0.095
-541.237	-200.000	0.016	0.105
-540.223	0.896	0.296	-0.212
-539.208	1.663	0.273	0.196
-538.193	-161.583	-0.348	-0.018
-537.179	222.816	0.110	0.177
-536.164	24.385	0.073	-0.060
-535.150	120.181	0.090	-0.111
-534.135	-200.000	-0.007	-0.102
-533.121	-19.775	0.164	0.102
-532.106	-200.000	-0.023	-0.144
-531.091	-18.061	-0.067	-0.042
-530.077	-70.322	0.627	0.238
-529.062	-200.000	0.013	-0.072
-528.048	-25.323	-0.171	-0.101
-527.033	-132.760	0.197	0.025
-526.018	-133.030	-0.338	0.043
-525.004	356.441	0.044	0.087
-523.989	-115.413	0.313	0.059
-522.975	-28.575	0.138	0.079
-521.960	-200.000	-0.039	-0.274
-520.945	-83.221	-0.207	-0.066
-519.931	436.962	0.132	0.288
-518.916	-45.066	0.083	-0.041
-517.902	-11.380	-0.314	0.207
-516.887	-86.634	-0.086	-0.026
-515.872	800.000	0.078	0.299
-514.858	-92.991	0.045	0.012
-513.843	13.626	0.302	0.234
-512.829	-200.000	-0.218	-0.001
-511.814	-200.000	-0.056	0.409
-510.799	86.406	0.058	-0.064
-509.785	-200.000	0.024	-0.165
-508.770	-122.162	-0.373	0.061
-507.756	33.604	-0.191	0.166
-506.741	102.871	-0.158	0.185
-505.726	-143.051	-0.308	-0.030
-504.712	42.747	-0.124	0.113
-503.697	52.140	0.121	0.115
-502.683	-141.860	0.155	-0.015
-501.668	800.000	0.034	0.099
-500.653	205.225	0.170	-0.263
-499.639	-200.000	0.035	-0.199
-498.624	445.017	-0.092	0.203
-497.610	-84.077	0.177	0.056
-496.595	-200.000	-0.004	-0.070
-495.581	-200.000	-0.030	-0.140
-494.566	140.816	0.141	0.186
-493.551	111.356	-0.226	0.272
-492.537	508.539	-0.088	0.203
-491.522	-115.729	-0.171	0.032
-490.508	-56.580	0.061	-0.027
-489.493	221.976	0.077	0.123
-488.478	2.666	-0.104	0.075
-487.464	-200.000	-0.021	-0.378
-486.449	176.129	-0.077	-0.112
-485.435	217.464	0.131	-0.208
-484.420	-153.502	0.108	-0.007
-483.405	-31.040	0.128	0.072
-482.391	9.298	-0.134	0.101
-481.376	-12.899	-0.238	-0.154
-480.362	-5.251	-0.011	0.008
-479.347	-24.769	-0.211	0.125
-478.332	-171.566	-0.317	0.010
-477.318	-200.000	0.003	0.171
-476.303	800.000	-0.041	0.174
-475.289	313.333	-0.171	-0.321
-474.274	433.485	-0.038	0.082
-473.259	-18.771	-0.079	-0.049
-472.245	-200.000	-0.000	0.097
-471.230	-200.000	0.048	0.250
-470.216	384.905	-0.171	0.350
-469.201	42.456	-0.002	-0.002
-468.186	-56.388	-0.259	0.115
-467.172	-91.115	-0.079	0.023
-466.157	190.478	0.122	-0.183
-465.143	38.652	0.136	-0.121
-464.128	446.102	-0.071	-0.155
-463.113	583.612	-0.095	0.233
-462.099	21.106	0.192	0.155
-461.084	-124.545	0.148	-0.023
-460.070	130.953	0.156	-0.200
-459.055	40.922	-0.254	-0.229
-458.040	-113.956	-0.106	0.020
-457.026	800.000	-0.043	0.122
-456.011	217.487	-0.044	0.070
-454.997	-200.000	-0.038	0.167
-453.982	800.000	0.068	-0.265
-452.968	-26.978	0.151	-0.088
-451.953	-58.874	0.077	-0.033
-450.938	-51.083	-0.182	-0.085
-449.924	55.325	0.069	-0.066
-448.909	-126.605	-0.105	-0.015
-447.895	-105.073	0.038	0.009
-446.880	-35.058	-0.148	0.080
-445.865	63.514	-0.099	-0.099
-444.851	517.971	0.145	-0.339
-443.836	503.484	-0.028	-0.065
-442.822	377.610	0.162	-0.330
-441.807	-130.064	-0.336	-0.046
-440.792	-37.097	-0.163	0.087
-439.778	51.849	0.136	-0.129
-438.763	151.652	-0.161	-0.218
-437.749	-104.151	0.256	0.059
-436.734	76.672	0.115	-0.121
-435.719	126.942	0.162	0.204
-434.705	-5.931	-0.206	0.141
-433.690	127.789	-0.211	0.268
-432.676	-200.000	0.041	0.212
-431.661	-61.619	-0.130	0.054
-430.646	-117.980	-0.309	0.055
-429.632	430.650	0.069	0.149
-428.617	800.000	-0.077	-0.225
-427.603	-200.000	-0.010	0.049
-426.588	-117.738	0.226	-0.040
-425.573	-97.189	0.144	-0.037
-424.559	-200.000	-0.018	0.384
-423.544	-200.000	0.025	0.150
-422.530	-23.010	0.174	-0.105
-421.515	121.148	0.261	-0.323
-420.500	2.975	-0.189	-0.137
-419.486	800.000	-0.051	-0.199
-418.471	75.398	0.347	0.364
-417.457	-177.727	-0.169	-0.004
-416.442	0.307	-0.224	-0.159
-415.428	172.950	-0.156	-0.223
-414.413	-136.737	-0.296	0.034
-413.398	-102.711	0.232	0.055
-412.384	800.000	-0.090	-0.308
-411.369	-33.256	0.208	-0.115
-410.355	-188.897	-0.283	0.003
-409.340	269.724	-0.119	-0.208
-408.325	156.898	0.129	0.178
-407.311	-151.309	-0.091	0.007
-406.296	113.306	0.051	-0.062
-405.282	800.000	-0.079	0.258
-404.267	190.189	0.031	0.046
-403.252	-105.702	-0.382	-0.086
-402.238	-200.000	0.028	0.172
-401.223	-200.000	-0.056	0.318
-400.209	800.000	-0.028	0.077
-399.194	259.737	0.179	0.307
-398.179	800.000	0.076	0.213
-397.165	-200.000	0.028	0.210
-396.150	78.818	-0.177	-0.188
-395.136	-200.000	0.014	0.227
-394.121	-200.000	-0.020	-0.123
-393.106	-111.494	-0.174	-0.035
-392.092	-115.533	-0.190	0.035
-391.077	-20.739	-0.280	0.170
-390.063	73.238	0.163	0.170
-389.048	199.883	-0.054	-0.083
-388.033	-200.000	0.007	0.073
-387.019	25.591	0.056	0.047
-386.004	-40.168	-0.131	-0.068
-384.990	-176.619	0.212	-0.005
-383.975	-96.553	0.268	-0.070
-382.960	119.512	0.093	0.115
-381.946	-38.872	-0.330	0.173
-380.931	104.524	-0.152	-0.177
-379.917	-65.568	0.134	-0.053
-378.902	800.000	0.048	0.150
-377.888	-200.000	0.015	-0.165
-376.873	-190.304	0.267	0.003
-375.858	800.000	-0.062	0.235
-374.844	336.005	-0.177	0.341
-373.829	-79.406	0.120	-0.040
-372.815	-73.285	0.337	0.122
-371.800	183.772	0.164	-0.241
-370.785	-173.918	-0.230	-0.007
-369.771	37.505	0.343	-0.302
-368.756	-150.224	-0.188	-0.014
-367.742	-107.933	-0.145	0.031
-366.727	-173.816	-0.311	0.009
-365.712	800.000	-0.129	0.378
-364.698	76.278	-0.138	0.145
-363.683	-14.750	-0.276	0.176
-362.669	200.139	-0.101	-0.155
-361.654	659.208	0.087	0.222
-360.639	-200.000	-0.030	-0.239
-359.625	39.771	-0.262	-0.234
-358.610	114.795	0.134	-0.162
-357.596	102.203	-0.127	-0.148
-356.581	740.588	0.032	-0.084
-355.566	-200.000	-0.027	0.175
-354.552	800.000	0.086	0.275
-353.537	-154.864	-0.528	-0.035
-352.523	-200.000	-0.011	0.318
-351.508	33.777	0.331	0.285
-350.493	-200.000	0.019	-0.145
-349.479	-7.944	-0.226	0.152
-348.464	-200.000	0.023	-0.186
-347.450	290.816	-0.105	-0.190
-346.435	94.561	0.096	0.108
-345.420	-200.000	-0.007	-0.175
-344.406	-74.261	0.230	0.083
-343.391	800.000	0.036	-0.105
-342.377	-148.827	-0.160	-0.013
-341.362	77.930	-0.128	0.136
-340.348	77.990	-0.152	0.160
-339.333	-200.000	0.010	0.100
-338.318	-42.231	0.105	-0.053
-337.304	9.292	-0.511	-0.383
-336.289	24.679	0.436	-0.358
-335.275	-108.931	0.108	-0.023
-334.260	127.436	0.039	0.049
-333.245	267.647	-0.076	-0.132
-332.231	800.000	0.046	0.174
-331.216	-172.475	-0.019	0.001
-330.202	74.047	0.192	-0.199
-329.187	190.384	0.076	0.113
-328.172	-87.620	0.104	-0.031
-327.158	-200.000	0.028	0.201
-326.143	110.006	-0.124	0.147
-325.129	-188.605	-0.194	-0.002
-324.114	800.000	0.015	0.058
-323.099	-200.000	-0.014	-0.301
-322.085	54.666	-0.148	0.142
-321.070	132.874	0.171	-0.218
-320.056	-76.086	-0.137	-0.048
-319.041	34.837	-0.231	-0.201
-318.026	257.140	0.036	0.061
-317.012	11.785	0.356	0.271
-315.997	-4.005	-0.139	0.096
-314.983	-141.820	-0.091	0.009
-313.968	-13.857	0.133	-0.085
-312.953	130.917	-0.138	-0.175
-311.939	587.875	0.090	-0.220
-310.924	127.925	-0.180	0.227
-309.910	40.359	-0.132	0.117
-308.895	297.019	0.067	-0.122
-307.880	800.000	-0.041	-0.132
-306.866	64.716	-0.066	-0.066
-305.851	-185.381	-0.396	0.006
-304.837	-8.067	0.199	0.133
-303.822	72.914	-0.292	0.302
-302.807	126.515	-0.032	-0.040
-301.793	68.719	-0.087	-0.089
-300.778	800.000	0.043	0.119
-299.764	83.363	0.144	-0.155
-298.749	-67.466	-0.049	-0.019
-297.735	-13.219	-0.211	-0.135
-296.720	10.639	0.254	-0.191
-295.705	-100.603	0.352	-0.086
-294.691	170.415	0.135	-0.192
-293.676	437.516	0.056	-0.121
-292.662	224.882	-0.059	-0.095
-291.647	362.114	0.098	-0.194
-290.632	146.150	0.122	0.162
-289.618	655.004	0.043	0.110
-288.603	-89.949	0.276	0.080
-287.589	-200.000	0.050	-0.315
-286.574	-141.154	-0.056	-0.006
-285.559	13.920	0.177	-0.136
-284.545	-60.355	0.210	0.089
-283.530	800.000	0.005	-0.021
-282.516	-110.839	0.170	0.035
-281.501	-200.000	0.022	0.229
-280.486	-75.673	0.152	0.053
-279.472	25.497	-0.135	0.111
-278.457	-200.000	-0.010	0.284
-277.443	352.382	0.115	-0.225
-276.428	348.822	-0.046	0.089
-275.413	800.000	0.013	0.048
-274.399	-200.000	-0.024	0.197
-273.384	764.031	-0.133	0.357
-272.370	17.597	0.246	0.193
-271.355	49.476	0.036	-0.034
-270.340	-200.000	-0.005	-0.153
-269.326	-65.509	-0.207	-0.082
-268.311	-113.079	-0.213	-0.042
-267.297	-100.172	0.147	-0.036
-266.282	608.397	0.100	-0.247
-265.267	-200.000	0.042	0.278
-264.253	427.292	0.083	-0.177
-263.238	-90.906	-0.383	-0.109
-262.224	-119.301	0.343	-0.059
-261.209	-200.000	0.002	-0.110
-260.195	-71.958	0.131	0.048
-259.180	-200.000	-0.040	0.459
-258.165	53.097	-0.109	-0.103
-257.151	-200.000	0.002	0.286
-256.136	-130.254	-0.177	-0.024
-255.122	59.768	0.048	-0.047
-254.107	-68.633	-0.098	0.037
-253.092	213.934	0.085	-0.133
-252.078	240.511	0.272	0.449
-251.063	178.328	0.058	0.083
-250.049	213.299	-0.234	0.366
-249.034	538.123	-0.055	0.130
-248.019	351.434	0.100	0.195
-247.005	-118.565	0.371	-0.065
-245.990	-90.467	0.219	-0.063
-244.976	-28.165	-0.224	-0.128
-243.961	-73.655	-0.098	-0.035
-242.946	72.851	0.175	0.180
-241.932	775.442	0.064	-0.172
-240.917	-130.523	0.148	-0.020
-239.903	-63.008	0.163	-0.066
-238.888	249.945	0.132	-0.222
-237.873	-135.257	0.124	0.015
-236.859	-66.769	0.061	-0.024
-235.844	-127.472	-0.088	-0.013
-234.830	-69.532	-0.120	-0.045
-233.815	27.051	-0.272	0.226
-232.800	-200.000	-0.018	-0.129
-231.786	-86.317	0.088	-0.027
-230.771	-79.861	0.136	0.045
-229.757	-200.000	-0.015	0.237
-228.742	146.588	-0.088	-0.117
-227.727	641.899	-0.101	-0.253
-226.713	709.615	0.020	-0.053
-225.698	-200.000	-0.045	0.205
-224.684	76.275	0.141	0.148
-223.669	26.199	0.308	0.254
-222.655	800.000	-0.042	-0.120
-221.640	-200.000	-0.005	-0.355
-220.625	-122.763	-0.306	-0.049
-219.611	-200.000	-0.012	0.224
-218.596	-200.000	0.003	0.186
-217.582	-55.148	0.269	-0.119
-216.567	73.034	0.236	-0.244
-215.552	-7.449	0.255	0.171
-214.538	265.065	0.073	-0.126
-213.523	-200.000	0.022	0.137
-212.509	-55.755	0.127	0.056
-211.494	552.617	0.073	0.173
-210.479	-158.359	0.477	-0.027
-209.465	374.564	0.164	-0.330
-208.450	-181.090	-0.336	0.007
-207.436	499.435	0.036	-0.081
-206.421	367.260	0.164	0.327
-205.406	-200.000	0.031	0.228
-204.392	197.493	-0.048	0.072
-203.377	258.676	0.072	-0.122
-202.363	-80.695	-0.072	-0.024
-201.348	-75.081	0.152	0.054
-200.333	236.717	-0.130	0.212
-199.319	800.000	0.024	-0.103
-198.304	-75.094	-0.148	0.052
-197.290	347.073	-0.055	0.108
-196.275	-106.384	-0.245	0.054
-195.260	-29.859	-0.184	0.103
-194.246	18.520	-0.053	0.042
-193.231	227.082	0.260	0.416
-192.217	411.991	-0.126	-0.264
-191.202	242.800	-0.048	0.080
-190.187	800.000	-0.030	0.125
-189.173	47.520	0.139	0.128
-188.158	800.000	0.061	-0.186
-187.144	-200.000	-0.019	-0.281
-186.129	22.373	0.205	-0.165
-185.114	800.000	0.066	-0.267
-184.100	794.788	-0.091	-0.246
-183.085	-200.000	0.001	-0.231
-182.071	434.296	-0.076	0.162
-181.056	44.431	0.222	0.201
-180.042	800.000	-0.103	-0.424
-179.027	326.600	0.163	-0.308
-178.012	-200.000	0.016	-0.137
-176.998	-200.000	-0.022	0.479
-175.983	800.000	0.120	-0.379
-174.969	521.862	-0.075	0.174
-173.954	-115.926	0.159	0.029
-172.939	252.262	0.071	0.119
-171.925	800.000	-0.036	0.105
-170.910	800.000	-0.056	0.212
-169.896	482.586	-0.031	-0.069
-168.881	-145.968	0.209	0.018
-167.866	-51.568	-0.141	0.065
-166.852	297.819	-0.088	-0.159
-165.837	-107.383	0.140	-0.030
-164.823	-200.000	0.008	-0.103
-163.808	496.385	0.121	0.274
-162.793	-47.430	0.373	0.179
-161.779	356.098	0.050	-0.099
-160.764	-113.365	-0.203	0.039
-159.750	13.301	-0.180	-0.137
-158.735	480.544	-0.022	0.049
-157.720	-121.371	-0.198	-0.032
-156.706	244.312	-0.049	-0.081
-155.691	371.155	-0.108	0.215
-154.677	-1.476	0.327	-0.227
-153.662	70.337	-0.116	-0.118
-152.647	800.000	0.116	-0.477
-151.633	313.641	0.114	-0.212
-150.618	-134.068	0.189	-0.023
-149.604	-62.720	0.175	-0.071
-148.589	56.969	-0.235	-0.226
-147.574	-32.313	-0.181	-0.100
-146.560	-3.350	-0.087	0.060
-145.545	-200.000	-0.020	0.317
-144.531	247.533	0.196	-0.327
-143.516	800.000	0.061	-0.227
-142.502	170.924	0.068	0.096
-141.487	800.000	0.060	-0.174
-140.472	114.868	0.040	-0.048
-139.458	5.236	0.209	0.152
-138.443	85.666	-0.105	0.113
-137.429	370.677	0.053	0.106
-136.414	-152.452	-0.147	0.010
-135.399	-200.000	0.021	-0.283
-134.385	72.529	0.059	0.061
-133.370	278.447	0.053	0.094
-132.356	-106.094	-0.507	-0.112
-131.341	130.739	-0.050	0.063
-130.326	-87.031	0.068	-0.020
-129.312	-42.725	-0.237	-0.119
-128.297	-200.000	-0.036	0.430
-127.283	-200.000	-0.015	0.164
-126.268	-124.557	0.248	0.038
-125.253	51.538	0.304	-0.285
-124.239	117.588	0.163	0.197
-123.224	189.647	-0.184	-0.271
-122.210	5.003	-0.212	0.154
-121.195	-41.013	0.141	-0.072
