DTS Sentinel unit serial number:	SN413079Multiplexer serial number:	ORYXHardware model number:	OX4-SRSoftware version number:	ORYX F/W v4.00 Oryx Data Collector v3.7.2.0data status	okinstallation	princeton_trtdifferential loss correction	single-endedforward channel	channel 1reverse channel	N/Adate	2019/09/11time	12:56:11forward acquisition time	60.00reverse acquisition time	0.00gamma	496.2192k internal	0.2295k external	0.2295temperature offset calibration	0.9945default loss term (dB/km)	0.3790temperature slope calibration	1.0000multiplexer offset coefficient	1.0000multiplexer slope coefficient	1.0000fibre end	0.00T internal ref (°C)	41.42T ext. ref 1 (°C)	0.22T ext. ref 2 (°C)	38.90length (m)	temperature (°C)	Stokes	anti-Stokes-747.200	-66.019	0.228	-0.093
-746.185	487.614	0.185	-0.431
-745.171	-104.165	-0.160	0.038
-744.156	800.000	0.073	0.266
-743.142	-47.920	0.271	0.134
-742.127	-200.000	-0.113	0.568
-741.112	161.506	-0.060	0.085
-740.098	698.777	0.081	0.218
-739.083	-52.117	0.447	0.212
-738.069	800.000	-0.063	0.209
-737.054	-200.000	0.027	0.187
-736.039	-104.457	-0.412	-0.097
-735.025	-200.000	0.022	-0.204
-734.010	-117.553	0.182	0.034
-732.996	-126.330	0.246	0.038
-731.981	6.598	-0.273	0.207
-730.966	40.763	-0.176	-0.162
-729.952	-48.166	0.164	-0.081
-728.937	74.415	-0.243	-0.261
-727.923	97.828	-0.251	-0.295
-726.908	-200.000	0.040	-0.367
-725.894	29.451	-0.161	-0.139
-724.879	576.016	-0.035	0.087
-723.864	800.000	-0.012	0.044
-722.850	-27.701	-0.276	-0.163
-721.835	465.678	0.170	0.388
-720.821	62.380	-0.052	-0.053
-719.806	-36.651	-0.311	-0.171
-718.791	577.864	-0.080	-0.199
-717.777	294.953	-0.049	-0.092
-716.762	190.383	-0.076	-0.116
-715.748	-65.553	0.226	0.093
-714.733	285.942	0.097	-0.178
-713.718	187.033	0.124	-0.188
-712.704	-112.811	-0.284	-0.058
-711.689	276.460	0.010	0.018
-710.675	44.424	0.148	-0.139
-709.660	-82.174	0.071	0.024
-708.645	-200.000	0.013	-0.375
-707.631	6.228	-0.224	-0.170
-706.616	-23.228	-0.150	-0.092
-705.602	-44.720	0.328	-0.167
-704.587	-61.104	0.360	0.155
-703.572	13.403	0.343	0.271
-702.558	32.209	0.036	0.032
-701.543	-200.000	0.024	-0.160
-700.529	-200.000	-0.007	-0.080
-699.514	800.000	-0.064	-0.244
-698.499	-0.466	-0.341	-0.247
-697.485	-200.000	0.064	0.324
-696.470	68.749	0.106	-0.111
-695.456	-6.354	-0.195	0.136
-694.441	38.059	0.143	-0.130
-693.426	-92.793	0.033	-0.009
-692.412	15.961	-0.194	0.156
-691.397	-28.676	0.349	-0.205
-690.383	-200.000	-0.022	0.323
-689.368	152.691	-0.144	0.201
-688.354	29.939	-0.191	0.166
-687.339	635.920	-0.068	-0.177
-686.324	-53.856	-0.121	-0.056
-685.310	144.550	0.078	-0.107
-684.295	4.471	0.139	-0.104
-683.281	712.226	0.127	-0.343
-682.266	-128.493	-0.508	-0.074
-681.251	-91.282	-0.231	0.067
-680.237	-200.000	0.024	-0.355
-679.222	2.428	-0.047	0.034
-678.208	-69.152	-0.094	-0.037
-677.193	279.318	0.177	-0.321
-676.178	666.428	0.150	-0.396
-675.164	-5.564	-0.126	-0.088
-674.149	-38.356	0.071	-0.038
-673.135	792.458	-0.054	0.153
-672.120	-6.758	0.050	-0.035
-671.105	-36.791	0.091	0.050
-670.091	13.714	0.041	-0.032
-669.076	800.000	-0.040	-0.141
-668.062	-63.943	0.152	0.063
-667.047	5.827	0.168	-0.126
-666.032	187.682	-0.127	0.193
-665.018	-181.379	-0.185	-0.004
-664.003	101.158	-0.254	-0.301
-662.989	-200.000	0.243	0.000
-661.974	240.840	0.032	0.055
-660.959	-72.892	0.348	0.130
-659.945	312.275	0.124	0.238
-658.930	778.522	-0.121	0.337
-657.916	73.432	0.129	0.138
-656.901	155.184	-0.189	-0.264
-655.886	19.770	-0.284	-0.233
-654.872	731.902	0.033	-0.091
-653.857	-200.000	-0.013	-0.363
-652.843	57.722	-0.172	-0.172
-651.828	-102.399	-0.157	-0.038
-650.814	-92.437	-0.195	0.056
-649.799	800.000	-0.134	0.410
-648.784	-116.104	-0.161	0.030
-647.770	-200.000	0.022	-0.163
-646.755	-200.000	0.019	-0.270
-645.741	-111.170	0.310	-0.065
-644.726	-200.000	-0.011	-0.158
-643.711	-98.245	-0.081	0.021
-642.697	-13.038	0.140	-0.092
-641.682	-12.344	0.231	-0.154
-640.668	-36.474	0.213	-0.117
-639.653	-200.000	0.017	-0.108
-638.638	-0.084	0.145	-0.105
-637.624	-200.000	-0.003	-0.312
-636.609	-103.818	0.666	-0.159
-635.595	-200.000	0.010	-0.079
-634.580	-200.000	-0.014	-0.090
-633.565	-120.067	0.217	-0.038
-632.551	-200.000	0.011	0.189
-631.536	-200.000	-0.029	0.203
-630.522	-47.245	-0.293	-0.145
-629.507	-200.000	0.000	0.037
-628.492	-111.376	0.248	-0.051
-627.478	-29.232	0.125	0.073
-626.463	-14.061	-0.387	-0.254
-625.449	16.050	0.147	0.118
-624.434	-200.000	-0.059	-0.000
-623.419	-46.548	-0.082	-0.041
-622.405	126.492	-0.145	-0.186
-621.390	71.478	0.210	0.222
-620.376	279.804	0.190	-0.344
-619.361	-93.829	0.201	-0.056
-618.346	-200.000	-0.001	-0.077
-617.332	-25.063	-0.213	0.129
-616.317	223.436	-0.175	0.287
-615.303	-200.000	-0.026	0.286
-614.288	-39.364	-0.114	0.061
-613.273	203.078	-0.174	0.274
-612.259	-33.111	-0.034	-0.019
-611.244	-85.009	-0.120	0.038
-610.230	207.196	0.055	-0.087
-609.215	-32.090	-0.228	-0.130
-608.201	18.361	-0.322	0.261
-607.186	-200.000	0.002	-0.324
-606.171	210.642	-0.179	0.285
-605.157	61.689	-0.169	-0.171
-604.142	-181.939	-0.345	0.007
-603.128	-200.000	-0.048	0.320
-602.113	93.594	0.045	0.052
-601.098	-87.930	-0.353	-0.108
-600.084	-200.000	-0.006	0.122
-599.069	800.000	0.050	0.173
-598.055	36.351	0.067	-0.060
-597.040	-137.721	0.043	0.005
-596.025	-57.771	0.194	-0.086
-595.011	-36.815	0.189	0.103
-593.996	276.622	-0.120	-0.216
-592.982	-54.943	-0.208	0.095
-591.967	-79.977	0.083	0.028
-590.952	-108.888	-0.258	-0.056
-589.938	101.335	0.101	-0.120
-588.923	-108.425	-0.186	-0.041
-587.909	66.452	-0.080	0.083
-586.894	-104.400	0.025	0.006
-585.879	-92.437	-0.115	0.033
-584.865	-35.015	-0.385	-0.213
-583.850	-200.000	-0.012	0.260
-582.836	381.427	-0.083	0.173
-581.821	800.000	-0.069	-0.275
-580.806	125.029	0.305	0.390
-579.792	18.510	0.232	0.188
-578.777	-76.795	-0.022	0.008
-577.763	212.501	-0.093	-0.149
-576.748	-200.000	0.013	-0.303
-575.733	-200.000	-0.003	0.013
-574.719	227.264	-0.113	-0.187
-573.704	495.437	0.142	-0.332
-572.690	44.743	0.311	0.291
-571.675	1.575	0.220	0.161
-570.661	54.255	-0.086	-0.084
-569.646	679.505	0.108	-0.285
-568.631	106.365	-0.110	-0.132
-567.617	-78.914	-0.266	-0.092
-566.602	800.000	0.121	0.440
-565.588	-185.056	0.065	0.001
-564.573	26.404	0.139	0.118
-563.558	99.414	0.228	0.268
-562.544	201.590	0.125	0.196
-561.529	-126.860	0.164	0.024
-560.515	140.956	0.086	0.116
-559.500	-71.231	-0.104	-0.039
-558.485	128.879	-0.134	0.173
-557.471	-40.395	-0.229	0.121
-556.456	-200.000	0.040	-0.340
-555.442	6.847	-0.303	-0.229
-554.427	353.490	-0.061	0.124
-553.412	-65.875	0.335	0.136
-552.398	-38.047	-0.161	0.087
-551.383	116.785	0.078	-0.097
-550.369	-150.640	0.155	0.012
-549.354	-200.000	-0.027	-0.166
-548.339	-33.714	-0.061	-0.034
-547.325	800.000	-0.084	-0.320
-546.310	-160.552	-0.353	0.019
-545.296	-200.000	-0.019	-0.241
-544.281	182.823	0.126	0.189
-543.266	-200.000	0.055	0.370
-542.252	-200.000	-0.015	-0.200
-541.237	-200.000	0.013	0.221
-540.223	216.061	-0.023	-0.036
-539.208	20.034	0.085	-0.069
-538.193	35.469	-0.190	-0.170
-537.179	-182.207	-0.102	0.002
-536.164	34.008	-0.178	-0.157
-535.150	-116.866	0.016	-0.003
-534.135	-200.000	-0.007	-0.135
-533.121	83.343	0.060	0.066
-532.106	-133.943	0.143	0.018
-531.091	-200.000	-0.022	-0.164
-530.077	46.920	-0.065	0.061
-529.062	-124.930	-0.270	-0.042
-528.048	139.371	-0.194	-0.258
-527.033	100.206	0.182	0.214
-526.018	46.081	0.227	0.213
-525.004	-109.686	0.382	-0.081
-523.989	-21.050	0.057	0.035
-522.975	-75.864	0.102	-0.037
-521.960	-61.210	-0.272	0.116
-520.945	-25.177	-0.094	-0.057
-519.931	39.528	0.102	0.093
-518.916	-9.640	0.160	0.108
-517.902	-161.730	0.356	-0.018
-516.887	-200.000	-0.013	-0.108
-515.872	-130.649	0.270	0.037
-514.858	-105.016	0.270	-0.063
-513.843	800.000	0.069	0.217
-512.829	-153.847	0.475	-0.033
-511.814	7.616	0.123	-0.093
-510.799	235.129	-0.093	-0.155
-509.785	-200.000	-0.024	-0.171
-508.770	-200.000	0.048	-0.382
-507.756	-86.466	-0.347	0.108
-506.741	631.613	-0.112	0.287
-505.726	-200.000	0.014	-0.113
-504.712	77.555	0.080	-0.086
-503.697	691.407	0.160	-0.424
-502.683	-14.578	0.238	0.155
-501.668	2.552	-0.125	-0.092
-500.653	-59.464	0.468	-0.204
-499.639	-200.000	0.026	0.199
-498.624	147.745	-0.210	-0.287
-497.610	320.076	0.202	-0.388
-496.595	-50.865	0.206	-0.098
-495.581	-200.000	-0.026	-0.243
-494.566	145.750	0.028	0.037
-493.551	-200.000	-0.041	0.279
-492.537	276.746	-0.025	0.045
-491.522	-139.016	0.145	0.016
-490.508	-129.321	-0.096	0.013
-489.493	-113.073	-0.198	0.040
-488.478	150.347	-0.052	0.071
-487.464	-14.469	0.336	0.219
-486.449	-34.426	-0.257	-0.142
-485.435	800.000	0.048	-0.157
-484.420	-3.807	0.179	-0.126
-483.405	-102.053	-0.386	-0.094
-482.391	800.000	0.106	-0.441
-481.376	-86.493	-0.074	-0.023
-480.362	800.000	0.038	-0.164
-479.347	800.000	0.058	-0.194
-478.332	105.174	-0.145	0.173
-477.318	172.589	0.263	-0.383
-476.303	184.063	0.123	-0.184
-475.289	-200.000	0.012	-0.069
-474.274	-169.066	0.197	0.007
-473.259	153.269	0.108	-0.150
-472.245	18.536	-0.074	-0.060
-471.230	40.882	-0.192	-0.175
-470.216	-200.000	0.012	-0.100
-469.201	-121.153	-0.341	0.058
-468.186	124.489	-0.158	0.201
-467.172	-152.911	0.311	0.022
-466.157	-200.000	-0.017	0.098
-465.143	162.096	0.046	-0.065
-464.128	800.000	-0.027	-0.103
-463.113	-52.513	0.189	-0.088
-462.099	-200.000	-0.013	0.077
-461.084	-61.816	-0.371	-0.157
-460.070	-86.860	-0.320	-0.099
-459.055	800.000	-0.070	-0.220
-458.040	-89.836	-0.246	-0.073
-457.026	-200.000	-0.024	0.258
-456.011	800.000	-0.089	0.293
-454.997	-37.525	0.208	-0.112
-453.982	325.382	0.125	-0.242
-452.968	-0.945	-0.120	-0.086
-451.953	304.798	-0.057	0.108
-450.938	-54.530	-0.144	-0.066
-449.924	800.000	0.019	-0.081
-448.909	-50.392	0.140	-0.067
-447.895	361.057	0.116	0.235
-446.880	-152.669	0.509	0.037
-445.865	-131.660	0.199	0.026
-444.851	193.505	-0.110	0.169
-443.836	-56.320	0.148	0.066
-442.822	397.148	-0.072	-0.151
-441.807	-32.523	-0.129	-0.073
-440.792	225.577	0.015	-0.024
-439.778	-86.103	0.151	-0.047
-438.763	-25.341	-0.100	-0.060
-437.749	800.000	0.075	-0.229
-436.734	-86.355	-0.151	0.047
-435.719	75.659	-0.349	-0.372
-434.705	206.834	-0.079	-0.124
-433.690	594.503	-0.058	0.145
-432.676	-5.820	-0.206	0.143
-431.661	507.257	0.165	0.387
-430.646	800.000	-0.072	-0.217
-429.632	22.946	-0.121	-0.100
-428.617	12.614	-0.179	0.139
-427.603	33.793	-0.057	0.050
-426.588	-63.185	-0.337	-0.140
-425.573	-6.203	-0.254	0.175
-424.559	103.221	0.164	0.194
-423.544	-113.870	-0.280	-0.055
-422.530	800.000	0.054	-0.199
-421.515	-134.875	-0.150	-0.018
-420.500	800.000	-0.135	-0.386
-419.486	-79.206	-0.156	0.053
-418.471	-200.000	0.070	0.320
-417.457	-189.458	0.113	-0.001
-416.442	-96.123	-0.102	-0.027
-415.428	187.409	0.153	0.230
-414.413	-157.570	0.054	0.003
-413.398	-130.906	0.206	-0.028
-412.384	-157.022	0.375	-0.023
-411.369	-66.905	0.082	-0.033
-410.355	-7.951	-0.334	0.227
-409.340	-200.000	-0.000	0.115
-408.325	-200.000	0.009	-0.321
-407.311	800.000	0.054	-0.173
-406.296	800.000	-0.085	-0.298
-405.282	-124.486	-0.121	-0.019
-404.267	210.255	0.098	0.156
-403.252	-200.000	-0.020	0.145
-402.238	-157.222	-0.133	0.008
-401.223	-70.007	-0.101	-0.039
-400.209	-11.001	-0.231	-0.154
-399.194	120.150	-0.105	0.132
-398.179	227.557	-0.193	-0.317
-397.165	237.593	-0.176	-0.294
-396.150	78.267	-0.143	0.154
-395.136	-200.000	0.043	0.217
-394.121	-31.453	-0.330	-0.187
-393.106	-200.000	0.013	-0.379
-392.092	153.556	0.157	0.217
-391.077	-120.267	0.332	0.057
-390.063	-200.000	0.001	-0.073
-389.048	-200.000	-0.005	-0.252
-388.033	13.017	-0.214	-0.167
-387.019	201.407	-0.183	0.285
-386.004	-94.061	0.137	-0.038
-384.990	-120.361	-0.448	-0.077
-383.975	-48.686	0.193	-0.093
-382.960	-17.343	-0.180	0.114
-381.946	167.029	0.094	0.135
-380.931	684.724	0.066	0.174
-379.917	335.958	0.113	-0.222
-378.902	-142.133	0.098	0.010
-377.888	106.943	0.240	0.287
-376.873	221.055	-0.120	0.194
-375.858	-162.091	0.302	-0.015
-374.844	-200.000	0.002	-0.146
-373.829	343.247	0.114	-0.225
-372.815	213.026	0.132	0.210
-371.800	429.470	-0.168	-0.367
-370.785	800.000	0.070	-0.226
-369.771	257.887	-0.040	0.070
-368.756	90.740	-0.253	0.285
-367.742	66.409	0.237	0.243
-366.727	-60.829	-0.297	-0.127
-365.712	-200.000	0.012	-0.198
-364.698	800.000	-0.062	-0.211
-363.683	559.725	0.023	0.056
-362.669	-78.907	-0.141	-0.049
-361.654	253.565	-0.149	0.256
-360.639	791.580	0.062	0.173
-359.625	-44.745	-0.171	0.086
-358.610	-200.000	-0.048	0.444
-357.596	-155.564	0.389	0.025
-356.581	380.957	-0.193	0.399
-355.566	-105.864	-0.377	-0.086
-354.552	161.655	-0.175	-0.247
-353.537	800.000	0.050	-0.205
-352.523	625.048	0.082	-0.209
-351.508	7.674	0.141	0.106
-350.493	-150.489	0.052	-0.004
-349.479	-150.265	-0.252	0.020
-348.464	-167.385	0.370	0.015
-347.450	356.032	0.034	0.068
-346.435	-200.000	0.022	-0.106
-345.420	-200.000	-0.010	0.136
-344.406	415.198	-0.038	0.082
-343.391	800.000	-0.089	0.249
-342.377	74.458	-0.176	0.186
-341.362	160.420	0.068	-0.095
-340.348	-140.871	0.205	-0.021
-339.333	132.122	0.068	0.088
-338.318	175.008	0.061	-0.089
-337.304	-200.000	-0.019	-0.128
-336.289	31.169	-0.035	0.030
-335.275	-18.626	-0.052	-0.032
-334.260	-200.000	-0.003	-0.030
-333.245	115.083	0.183	0.225
-332.231	-200.000	0.023	0.105
-331.216	-91.395	-0.573	0.165
-330.202	-200.000	-0.014	0.178
-329.187	-86.942	-0.302	0.093
-328.172	6.939	-0.220	0.165
-327.158	-143.406	-0.222	-0.021
-326.143	267.385	-0.147	0.258
-325.129	18.569	-0.221	0.178
-324.114	-117.921	-0.328	0.059
-323.099	-200.000	-0.027	-0.163
-322.085	121.050	-0.144	0.181
-321.070	95.511	0.154	0.176
-320.056	108.150	0.078	-0.094
-319.041	-62.424	0.171	0.072
-318.026	-65.826	-0.249	0.100
-317.012	654.867	0.045	0.116
-315.997	314.558	0.003	-0.006
-314.983	-39.660	-0.051	-0.027
-313.968	84.151	0.178	-0.196
-312.953	70.427	-0.117	0.122
-311.939	-200.000	-0.046	0.272
-310.924	-133.287	-0.136	-0.017
-309.910	-34.513	0.118	0.065
-308.895	288.191	0.116	-0.211
-307.880	-200.000	-0.017	-0.235
-306.866	-101.252	-0.259	-0.063
-305.851	-48.115	-0.088	0.043
-304.837	190.619	-0.085	-0.128
-303.822	-113.217	-0.416	0.082
-302.807	-89.072	0.122	0.036
-301.793	800.000	0.052	0.195
-300.778	-118.216	0.195	0.035
-299.764	-75.140	0.064	-0.023
-298.749	-73.779	-0.359	-0.131
-297.735	800.000	0.090	0.282
-296.720	-126.772	-0.421	0.062
-295.705	-141.464	-0.051	-0.005
-294.691	-193.828	-0.070	0.001
-293.676	-200.000	0.012	-0.103
-292.662	-200.000	-0.014	-0.132
-291.647	21.432	-0.100	0.081
-290.632	-200.000	0.011	-0.188
-289.618	27.235	-0.137	0.115
-288.603	23.010	0.104	0.086
-287.589	-200.000	0.001	-0.256
-286.574	-200.000	0.001	-0.102
-285.559	121.585	0.073	0.091
-284.545	-28.187	-0.071	-0.041
-283.530	346.777	0.065	0.128
-282.516	-21.488	-0.225	0.138
-281.501	49.324	-0.062	0.059
-280.486	120.294	-0.225	-0.281
-279.472	-31.151	0.389	-0.220
-278.457	435.193	-0.112	0.245
-277.443	-133.097	-0.139	-0.018
-276.428	-200.000	0.009	0.116
-275.413	439.881	0.068	-0.149
-274.399	76.346	0.096	-0.102
-273.384	-200.000	0.041	0.189
-272.370	-3.353	-0.183	0.128
-271.355	800.000	0.154	0.471
-270.340	-2.059	0.226	0.160
-269.326	-200.000	-0.021	0.187
-268.311	18.905	-0.124	-0.100
-267.297	-138.664	-0.107	-0.012
-266.282	800.000	0.066	-0.218
-265.267	-200.000	-0.018	-0.105
-264.253	-96.639	0.253	0.067
-263.238	161.016	-0.107	-0.149
-262.224	-86.519	0.447	0.138
-261.209	-17.745	0.292	-0.184
-260.195	476.574	-0.023	-0.051
-259.180	44.677	0.109	-0.100
-258.165	665.570	-0.088	0.228
-257.151	-181.138	0.267	-0.005
-256.136	178.383	-0.105	0.153
-255.122	460.986	-0.115	0.258
-254.107	494.551	0.121	0.278
-253.092	36.679	0.378	0.335
-252.078	31.066	-0.118	-0.101
-251.063	533.426	0.141	0.334
-250.049	129.078	0.170	-0.218
-249.034	-40.891	0.210	-0.109
-248.019	405.032	0.142	0.300
-247.005	202.269	0.097	-0.151
-245.990	800.000	0.083	0.290
-244.976	-103.500	-0.327	-0.077
-243.961	-200.000	-0.036	0.273
-242.946	-200.000	0.019	-0.141
-241.932	-67.045	0.289	0.114
-240.917	405.411	0.114	0.241
-239.903	-200.000	0.025	0.290
-238.888	234.867	-0.036	0.060
-237.873	50.589	0.262	0.248
-236.859	40.802	-0.092	-0.083
-235.844	-3.872	-0.260	0.181
-234.830	-200.000	0.048	0.349
-233.815	181.003	0.143	0.211
-232.800	-200.000	0.016	0.419
-231.786	574.093	-0.107	-0.262
-230.771	800.000	-0.141	-0.483
-229.757	-96.500	0.300	0.079
-228.742	318.688	-0.150	-0.284
-227.727	475.558	-0.089	-0.202
-226.713	73.090	0.170	0.178
-225.698	392.895	0.214	0.445
-224.684	695.523	0.063	-0.166
-223.669	79.497	-0.133	-0.143
-222.655	-200.000	0.043	0.217
-221.640	-171.476	0.316	0.011
-220.625	-97.570	-0.296	-0.077
-219.611	204.394	-0.076	0.118
-218.596	-11.681	0.221	0.145
-217.582	-24.523	-0.174	0.104
-216.567	34.876	-0.125	0.110
-215.552	-59.338	0.073	0.031
-214.538	106.627	-0.140	0.167
-213.523	74.058	-0.335	0.352
-212.509	-200.000	0.014	-0.072
-211.494	-52.536	0.279	-0.129
-210.479	-140.318	0.071	-0.007
-209.465	338.019	-0.094	-0.183
-208.450	-35.537	-0.088	0.048
-207.436	70.620	-0.095	-0.099
-206.421	461.752	0.075	0.167
-205.406	-85.943	0.481	0.149
-204.392	14.974	0.190	-0.149
-203.377	-15.775	0.151	-0.096
-202.363	-97.798	0.612	-0.158
-201.348	-33.052	-0.250	-0.139
-200.333	630.906	-0.120	0.304
-199.319	-124.923	0.256	-0.039
-198.304	187.942	-0.158	0.236
-197.290	394.571	-0.031	-0.065
-196.275	-69.547	0.258	0.099
-195.260	800.000	-0.144	0.464
-194.246	-60.427	0.285	0.121
-193.231	800.000	-0.054	-0.157
-192.217	800.000	-0.002	0.005
-191.202	-6.800	0.180	0.123
-190.187	-200.000	0.012	-0.338
-189.173	-200.000	0.005	-0.036
-188.158	186.924	0.145	0.216
-187.144	205.352	-0.044	0.068
-186.129	-32.931	-0.286	-0.159
-185.114	-35.683	0.111	-0.060
-184.100	800.000	0.013	-0.053
-183.085	-120.920	0.212	0.036
-182.071	17.696	-0.077	0.061
-181.056	217.757	-0.070	0.111
-180.042	-8.475	-0.221	0.148
-179.027	-39.055	0.295	0.155
-178.012	307.069	-0.069	-0.128
-176.998	-95.975	-0.069	-0.018
-175.983	-122.117	-0.112	-0.018
-174.969	-111.827	0.354	0.071
-173.954	-200.000	0.003	0.160
-172.939	-70.433	0.216	0.082
-171.925	170.746	-0.034	-0.049
-170.910	-89.516	-0.137	-0.040
-169.896	193.719	-0.096	-0.145
-168.881	800.000	0.089	-0.276
-167.866	-200.000	0.024	0.259
-166.852	251.926	0.206	-0.350
-165.837	208.970	0.196	-0.306
-164.823	294.823	0.186	-0.341
-163.808	10.448	-0.129	-0.098
-162.793	69.759	-0.383	-0.395
-161.779	-66.475	0.307	-0.122
-160.764	63.759	0.190	0.190
-159.750	-29.168	-0.145	0.083
-158.735	420.119	0.191	-0.410
-157.720	-51.705	-0.470	-0.219
-156.706	-126.627	-0.190	0.028
-155.691	221.527	0.088	-0.141
-154.677	800.000	0.060	-0.179
-153.662	-50.164	0.185	-0.088
-152.647	-30.994	0.393	0.222
-151.633	351.797	-0.032	0.063
-150.618	107.054	0.056	-0.066
-149.604	156.933	0.129	-0.178
-148.589	59.146	-0.035	0.035
-147.574	800.000	-0.088	0.337
-146.560	-199.881	0.266	0.001
-145.545	27.357	0.481	-0.404
-144.531	800.000	0.115	-0.380
-143.516	800.000	-0.042	0.123
-142.502	-80.384	-0.302	0.101
-141.487	435.104	0.139	0.302
-140.472	-99.170	0.160	0.040
-139.458	547.688	-0.206	0.492
-138.443	-90.028	0.136	0.040
-137.429	508.348	-0.106	-0.247
-136.414	-46.014	0.133	0.066
-135.399	800.000	-0.027	-0.090
-134.385	-200.000	0.017	-0.205
-133.370	-160.768	-0.118	-0.006
-132.356	-8.778	-0.177	0.119
-131.341	-61.505	-0.034	0.014
-130.326	173.520	0.162	-0.233
-129.312	-200.000	0.015	-0.082
-128.297	-200.000	-0.061	-0.294
-127.283	19.625	-0.158	0.127
-126.268	68.785	-0.085	-0.087
-125.253	299.193	-0.041	0.075
-124.239	-49.684	-0.170	0.081
-123.224	-126.752	-0.413	-0.061
-122.210	-200.000	0.030	-0.206
-121.195	-14.493	-0.149	0.096
