DTS Sentinel unit serial number:	SN413079Multiplexer serial number:	ORYXHardware model number:	OX4-SRSoftware version number:	ORYX F/W v4.00 Oryx Data Collector v3.7.2.0data status	okinstallation	princeton_trtdifferential loss correction	single-endedforward channel	channel 1reverse channel	N/Adate	2019/09/18time	22:30:35forward acquisition time	60.00reverse acquisition time	0.00gamma	496.2192k internal	0.2342k external	0.2342temperature offset calibration	1.0013default loss term (dB/km)	0.3790temperature slope calibration	1.0000multiplexer offset coefficient	1.0000multiplexer slope coefficient	1.0000fibre end	0.00T internal ref (°C)	24.25T ext. ref 1 (°C)	0.79T ext. ref 2 (°C)	17.96length (m)	temperature (°C)	Stokes	anti-Stokes-747.200	-37.257	0.276	0.148
-746.185	487.933	-0.108	0.248
-745.171	-200.000	-0.306	0.001
-744.156	-152.232	-0.259	0.019
-743.142	-75.102	-0.279	0.100
-742.127	120.578	-0.597	0.743
-741.112	314.542	0.037	-0.070
-740.098	-78.824	-0.149	-0.051
-739.083	-38.199	0.284	0.151
-738.069	118.779	-0.148	0.183
-737.054	412.746	0.061	0.130
-736.039	-27.335	-0.293	0.171
-735.025	351.288	-0.041	-0.081
-734.010	-104.278	-0.387	0.090
-732.996	121.965	0.099	0.123
-731.981	800.000	0.137	-0.412
-730.966	364.376	-0.123	-0.247
-729.952	347.793	-0.172	-0.339
-728.937	304.091	-0.079	0.146
-727.923	11.668	0.113	-0.087
-726.908	171.439	-0.034	-0.049
-725.894	-83.367	0.313	0.101
-724.879	27.703	-0.150	-0.126
-723.864	-121.276	0.060	-0.010
-722.850	-58.787	-0.302	-0.131
-721.835	800.000	0.164	0.465
-720.821	800.000	-0.114	-0.418
-719.806	478.195	-0.127	-0.288
-718.791	0.992	-0.186	0.133
-717.777	800.000	-0.051	-0.157
-716.762	109.796	0.030	-0.037
-715.748	-87.612	-0.181	-0.055
-714.733	-59.329	-0.240	-0.104
-713.718	170.852	0.212	-0.305
-712.704	-200.000	-0.014	-0.233
-711.689	-97.989	0.069	-0.018
-710.675	-124.487	-0.271	0.042
-709.660	458.133	-0.101	-0.224
-708.645	44.199	0.206	0.189
-707.631	800.000	-0.037	-0.160
-706.616	106.254	-0.064	-0.076
-705.602	94.475	-0.278	0.316
-704.587	-101.781	0.027	-0.006
-703.572	86.260	0.211	0.232
-702.558	332.450	-0.086	0.167
-701.543	-200.000	0.003	0.038
-700.529	-18.309	-0.285	-0.178
-699.514	-156.915	0.141	0.009
-698.499	69.536	-0.114	0.117
-697.485	691.317	-0.132	0.346
-696.470	-52.528	0.282	-0.130
-695.456	256.182	-0.088	-0.152
-694.441	335.512	-0.058	-0.112
-693.426	607.488	-0.056	-0.140
-692.412	-200.000	0.070	0.360
-691.397	267.294	-0.087	0.153
-690.383	1.919	0.293	-0.212
-689.368	274.815	0.102	-0.181
-688.354	7.245	0.114	-0.085
-687.339	-108.309	0.028	0.006
-686.324	-25.056	0.288	-0.171
-685.310	338.294	0.100	0.195
-684.295	-102.897	-0.254	0.060
-683.281	294.465	-0.064	-0.118
-682.266	800.000	-0.089	-0.291
-681.251	330.897	-0.016	-0.031
-680.237	-23.358	-0.320	-0.192
-679.222	-141.243	-0.221	0.022
-678.208	705.413	0.163	-0.429
-677.193	-200.000	-0.054	-0.489
-676.178	682.723	0.033	-0.085
-675.164	-88.788	-0.275	0.082
-674.149	-4.218	-0.160	-0.111
-673.135	-200.000	0.035	0.202
-672.120	71.548	-0.157	-0.163
-671.105	-75.119	-0.098	-0.035
-670.091	285.333	0.151	-0.272
-669.076	800.000	0.046	0.129
-668.062	22.409	-0.111	0.091
-667.047	176.938	0.084	0.123
-666.032	-89.319	-0.216	0.063
-665.018	146.430	0.148	0.199
-664.003	800.000	0.034	-0.126
-662.989	-200.000	-0.042	0.297
-661.974	86.070	-0.343	-0.377
-660.959	-84.858	-0.334	-0.105
-659.945	-200.000	0.008	-0.215
-658.930	204.827	-0.208	-0.322
-657.916	-76.495	-0.330	0.116
-656.901	-200.000	-0.050	-0.310
-655.886	368.426	-0.089	0.181
-654.872	-152.900	-0.222	0.016
-653.857	-98.349	0.343	-0.088
-652.843	-200.000	-0.055	0.376
-651.828	-85.005	-0.287	-0.090
-650.814	205.385	0.175	0.272
-649.799	-200.000	-0.022	0.259
-648.784	-180.664	-0.533	0.011
-647.770	-192.653	0.380	0.003
-646.755	-99.503	-0.219	-0.055
-645.741	-200.000	0.018	0.188
-644.726	69.634	-0.059	-0.061
-643.711	146.157	0.181	-0.243
-642.697	-200.000	0.059	-0.341
-641.682	-180.439	-0.369	-0.008
-640.668	-200.000	-0.028	-0.125
-639.653	-81.696	-0.252	-0.083
-638.638	800.000	0.059	-0.213
-637.624	-45.706	-0.287	-0.142
-636.609	269.428	0.094	-0.165
-635.595	339.743	-0.119	0.231
-634.580	107.112	-0.342	-0.406
-633.565	-200.000	-0.013	0.092
-632.551	-93.099	0.447	0.124
-631.536	-200.000	-0.046	-0.204
-630.522	62.340	0.186	0.185
-629.507	43.247	-0.112	0.102
-628.492	141.362	0.136	0.179
-627.478	-66.758	0.195	-0.077
-626.463	-200.000	0.027	0.206
-625.449	0.022	-0.334	-0.238
-624.434	-115.249	-0.238	-0.045
-623.419	-33.668	-0.279	0.153
-622.405	800.000	0.008	-0.027
-621.390	-200.000	-0.007	-0.035
-620.376	-29.685	-0.220	0.125
-619.361	-23.753	-0.272	0.162
-618.346	9.751	0.396	0.299
-617.332	150.375	-0.110	-0.148
-616.317	-200.000	0.046	0.201
-615.303	-44.363	-0.255	0.127
-614.288	-100.238	-0.112	0.028
-613.273	-169.860	0.081	0.003
-612.259	-200.000	0.058	0.262
-611.244	-22.281	0.094	-0.057
-610.230	-200.000	0.060	-0.268
-609.215	-200.000	0.003	0.081
-608.201	-200.000	-0.045	0.342
-607.186	140.114	0.109	-0.143
-606.171	-159.546	0.248	-0.014
-605.157	27.985	0.120	-0.101
-604.142	-76.721	0.064	-0.022
-603.128	800.000	-0.135	0.525
-602.113	800.000	0.011	0.046
-601.098	-76.783	-0.066	-0.023
-600.084	-200.000	-0.045	-0.248
-599.069	591.889	0.141	0.346
-598.055	229.260	-0.220	0.357
-597.040	-39.118	-0.298	0.156
-596.025	77.545	-0.202	0.214
-595.011	138.489	-0.137	0.179
-593.996	475.513	0.061	-0.137
-592.982	-200.000	0.101	-0.462
-591.967	-200.000	0.001	0.060
-590.952	-200.000	0.024	-0.145
-589.938	-100.152	0.105	0.026
-588.923	418.990	-0.094	0.199
-587.909	190.966	-0.168	-0.252
-586.894	800.000	-0.092	0.354
-585.879	-200.000	-0.045	0.362
-584.865	-200.000	0.010	-0.169
-583.850	-19.729	0.223	0.138
-582.836	800.000	0.049	0.211
-581.821	800.000	0.138	-0.462
-580.806	-98.970	0.241	0.061
-579.792	-85.063	0.390	-0.122
-578.777	800.000	-0.115	-0.421
-577.763	-81.337	0.112	-0.037
-576.748	-200.000	-0.022	0.134
-575.733	597.691	-0.064	-0.158
-574.719	-108.799	0.476	-0.101
-573.704	800.000	0.101	0.287
-572.690	158.060	-0.188	-0.259
-571.675	22.085	-0.085	0.069
-570.661	-200.000	-0.000	-0.053
-569.646	-200.000	-0.030	0.463
-568.631	-122.690	-0.234	0.038
-567.617	-200.000	-0.026	-0.185
-566.602	46.510	-0.284	-0.263
-565.588	-50.912	-0.113	0.053
-564.573	-200.000	0.030	-0.243
-563.558	246.578	-0.191	-0.321
-562.544	-89.959	-0.203	-0.059
-561.529	-12.324	-0.169	-0.110
-560.515	-13.835	-0.417	0.268
-559.500	-104.356	-0.285	-0.066
-558.485	800.000	0.009	0.037
-557.471	-179.102	-0.176	0.004
-556.456	800.000	-0.081	-0.313
-555.442	-200.000	0.004	-0.017
-554.427	-86.021	0.096	0.030
-553.412	-87.821	0.333	0.100
-552.398	-0.195	0.082	-0.058
-551.383	-200.000	0.011	-0.059
-550.369	170.806	0.087	0.124
-549.354	-200.000	0.014	0.411
-548.339	-63.299	-0.162	0.066
-547.325	0.659	-0.130	0.093
-546.310	-110.397	0.195	-0.040
-545.296	800.000	-0.049	0.177
-544.281	-67.159	0.113	0.044
-543.266	197.305	0.052	0.079
-542.252	86.719	-0.121	-0.132
-541.237	484.070	0.208	0.470
-540.223	53.230	-0.137	0.130
-539.208	-62.857	0.206	0.085
-538.193	-200.000	0.003	0.548
-537.179	156.974	-0.075	-0.103
-536.164	-171.874	0.296	0.010
-535.150	173.524	0.189	0.271
-534.135	-200.000	-0.003	0.096
-533.121	380.790	-0.042	-0.085
-532.106	-86.600	-0.087	-0.026
-531.091	442.191	-0.119	-0.259
-530.077	800.000	-0.044	-0.157
-529.062	34.795	0.111	-0.096
-528.048	132.340	-0.074	-0.095
-527.033	137.454	0.115	0.149
-526.018	153.883	-0.121	-0.165
-525.004	15.140	-0.305	0.237
-523.989	333.365	-0.046	-0.089
-522.975	-83.298	-0.267	0.085
-521.960	-174.962	0.270	0.008
-520.945	18.355	-0.311	-0.247
-519.931	-48.396	-0.040	-0.019
-518.916	-12.876	0.321	0.208
-517.902	-78.020	-0.596	0.204
-516.887	41.719	-0.073	0.065
-515.872	800.000	0.079	-0.341
-514.858	77.570	-0.107	0.113
-513.843	18.551	-0.393	0.312
-512.829	-96.975	0.222	0.058
-511.814	504.054	0.087	-0.199
-510.799	-200.000	0.078	0.418
-509.785	-84.040	-0.357	0.112
-508.770	50.883	-0.297	0.280
-507.756	79.008	-0.281	0.298
-506.741	10.628	0.134	-0.101
-505.726	-200.000	0.001	0.267
-504.712	-61.195	-0.135	0.057
-503.697	94.380	0.187	-0.211
-502.683	-135.349	0.040	0.005
-501.668	-24.899	0.121	0.071
-500.653	-200.000	0.053	-0.318
-499.639	-53.977	0.203	-0.092
-498.624	-0.478	-0.093	-0.065
-497.610	-200.000	0.003	-0.175
-496.595	-155.956	-0.449	0.028
-495.581	31.771	0.211	-0.181
-494.566	33.054	-0.300	-0.258
-493.551	-200.000	-0.034	-0.357
-492.537	-85.027	-0.266	-0.083
-491.522	117.879	-0.068	0.082
-490.508	61.652	-0.188	0.186
-489.493	-27.378	0.322	-0.186
-488.478	-30.117	-0.204	-0.115
-487.464	214.970	0.181	-0.285
-486.449	-200.000	-0.034	0.342
-485.435	-52.388	0.177	-0.081
-484.420	130.133	-0.153	0.194
-483.405	800.000	0.021	0.067
-482.391	145.211	0.248	0.329
-481.376	-200.000	0.002	0.055
-480.362	249.117	-0.107	0.180
-479.347	219.005	0.139	-0.221
-478.332	-85.270	0.299	-0.092
-477.318	227.577	0.129	0.208
-476.303	147.775	0.170	-0.227
-475.289	-171.666	-0.102	-0.003
-474.274	78.852	-0.218	-0.231
-473.259	90.569	-0.136	0.151
-472.245	-146.112	-0.224	-0.020
-471.230	-73.218	-0.323	-0.117
-470.216	-135.456	0.160	-0.019
-469.201	76.133	0.016	0.017
-468.186	-200.000	0.008	0.104
-467.172	89.897	-0.236	-0.261
-466.157	-200.000	-0.041	-0.309
-465.143	484.779	-0.100	-0.226
-464.128	-62.987	0.067	0.028
-463.113	-100.600	-0.247	-0.060
-462.099	-132.775	-0.064	0.008
-461.084	81.949	0.130	-0.139
-460.070	-109.207	0.033	-0.007
-459.055	107.757	0.124	-0.146
-458.040	800.000	-0.054	-0.169
-457.026	453.254	0.014	-0.030
-456.011	-160.030	0.251	0.014
-454.997	262.468	0.071	0.123
-453.982	371.663	-0.177	0.357
-452.968	8.752	0.115	0.086
-451.953	-129.333	0.153	0.021
-450.938	176.103	-0.110	0.158
-449.924	-158.704	-0.231	0.013
-448.909	-1.535	-0.112	0.078
-447.895	90.930	0.298	-0.331
-446.880	225.988	-0.118	0.190
-445.865	324.512	0.155	0.292
-444.851	305.573	-0.318	0.585
-443.836	800.000	-0.039	0.108
-442.822	187.404	0.182	-0.269
-441.807	252.999	-0.077	0.130
-440.792	668.947	-0.044	0.113
-439.778	49.431	-0.264	-0.246
-438.763	-1.520	0.060	0.042
-437.749	435.795	0.087	0.187
-436.734	800.000	-0.123	-0.343
-435.719	800.000	-0.089	-0.282
-434.705	153.110	-0.171	-0.232
-433.690	-86.010	0.205	0.063
-432.676	547.835	0.055	-0.129
-431.661	-31.169	0.201	-0.112
-430.646	-200.000	-0.010	0.081
-429.632	-77.239	0.331	-0.114
-428.617	800.000	-0.107	-0.339
-427.603	-65.485	-0.307	0.122
-426.588	128.416	0.228	-0.288
-425.573	-123.678	-0.396	-0.062
-424.559	178.515	0.272	0.393
-423.544	-61.260	-0.227	-0.095
-422.530	-20.547	0.132	-0.080
-421.515	-40.650	0.342	-0.175
-420.500	-176.648	0.190	-0.005
-419.486	-72.339	-0.329	0.120
-418.471	183.800	0.121	0.177
-417.457	-200.000	0.005	-0.108
-416.442	325.749	0.126	0.238
-415.428	-200.000	-0.020	-0.154
-414.413	-26.279	-0.204	-0.118
-413.398	351.700	-0.070	0.136
-412.384	-86.512	0.214	-0.065
-411.369	106.365	0.296	0.347
-410.355	-8.144	0.196	0.131
-409.340	-200.000	0.057	0.463
-408.325	-58.901	-0.039	0.017
-407.311	-108.016	-0.179	0.039
-406.296	-63.167	0.168	0.069
-405.282	136.818	-0.152	-0.196
-404.267	800.000	0.035	-0.106
-403.252	-152.471	0.338	0.024
-402.238	-200.000	-0.003	0.121
-401.223	-200.000	-0.071	-0.458
-400.209	-200.000	-0.052	0.239
-399.194	16.053	0.328	-0.256
-398.179	26.306	-0.145	-0.120
-397.165	-120.475	0.206	-0.035
-396.150	-130.169	0.554	0.075
-395.136	450.868	0.046	-0.100
-394.121	-111.161	0.224	-0.045
-393.106	-112.394	-0.033	0.006
-392.092	-200.000	-0.015	-0.097
-391.077	-171.206	0.135	0.005
-390.063	-78.153	0.109	0.037
-389.048	158.263	-0.063	0.087
-388.033	-200.000	-0.017	-0.261
-387.019	-48.206	0.253	0.120
-386.004	116.611	-0.107	0.130
-384.990	343.092	0.127	-0.245
-383.975	-4.067	-0.130	-0.089
-382.960	-109.370	0.367	0.077
-381.946	-162.985	0.138	-0.007
-380.931	682.869	0.104	-0.269
-379.917	32.272	-0.163	0.139
-378.902	-139.953	0.297	0.031
-377.888	-200.000	0.025	-0.218
-376.873	-170.040	0.170	0.006
-375.858	-200.000	-0.042	0.261
-374.844	153.426	0.060	0.081
-373.829	168.638	-0.120	0.169
-372.815	-200.000	0.012	-0.132
-371.800	800.000	0.011	-0.033
-370.785	260.198	0.165	-0.281
-369.771	692.961	-0.025	0.065
-368.756	-200.000	-0.023	-0.360
-367.742	-115.073	-0.188	0.035
-366.727	-200.000	-0.004	-0.282
-365.712	-75.429	0.289	-0.102
-364.698	-19.420	0.082	0.050
-363.683	109.029	-0.072	0.085
-362.669	206.925	-0.066	-0.102
-361.654	-16.899	0.371	0.231
-360.639	408.278	-0.145	-0.303
-359.625	-26.846	-0.213	0.123
-358.610	800.000	-0.069	-0.261
-357.596	800.000	0.016	-0.049
-356.581	37.813	-0.598	-0.524
-355.566	-96.081	0.246	-0.065
-354.552	35.900	0.173	-0.150
-353.537	184.960	0.148	0.217
-352.523	-12.806	-0.124	-0.080
-351.508	-135.433	0.069	0.008
-350.493	-86.677	-0.154	-0.047
-349.479	-200.000	-0.049	0.295
-348.464	20.367	0.212	0.169
-347.450	-24.394	0.154	0.091
-346.435	255.800	-0.263	-0.445
-345.420	-28.768	0.209	-0.119
-344.406	121.945	-0.183	0.226
-343.391	10.527	-0.411	0.309
-342.377	16.532	0.108	0.085
-341.362	158.772	0.131	0.179
-340.348	-123.438	-0.087	-0.014
-339.333	-10.993	-0.050	-0.033
-338.318	-200.000	-0.004	-0.146
-337.304	-13.398	-0.036	0.023
-336.289	58.298	0.261	0.252
-335.275	-9.907	-0.138	-0.091
-334.260	62.404	0.144	-0.142
-333.245	-105.283	-0.214	0.048
-332.231	114.792	-0.120	0.144
-331.216	206.795	0.080	0.123
-330.202	800.000	0.043	0.170
-329.187	-72.390	0.084	0.031
-328.172	-66.441	0.259	0.102
-327.158	-78.672	0.240	0.081
-326.143	70.861	-0.074	-0.075
-325.129	-104.022	0.344	0.079
-324.114	404.725	-0.077	0.159
-323.099	16.796	-0.281	-0.220
-322.085	51.444	-0.091	0.085
-321.070	247.841	0.060	0.099
-320.056	-73.727	0.151	-0.054
-319.041	341.842	-0.006	0.011
-318.026	264.355	0.107	-0.184
-317.012	502.736	0.096	0.219
-315.997	-200.000	-0.028	0.152
-314.983	-69.016	-0.183	-0.070
-313.968	-178.595	-0.148	-0.003
-312.953	-157.035	-0.357	0.021
-311.939	-60.694	0.285	-0.119
-310.924	57.845	-0.042	-0.040
-309.910	-9.793	-0.267	0.175
-308.895	-182.520	-0.054	0.001
-307.880	70.994	-0.211	-0.216
-306.866	-89.250	-0.034	0.010
-305.851	147.785	0.174	0.231
-304.837	108.419	0.192	-0.226
-303.822	170.830	0.196	-0.277
-302.807	47.222	0.202	-0.185
-301.793	513.878	0.124	0.284
-300.778	181.948	0.137	0.198
-299.764	472.082	-0.149	-0.329
-298.749	-200.000	-0.014	0.181
-297.735	-200.000	0.002	-0.019
-296.720	-4.769	-0.210	0.143
-295.705	-200.000	-0.022	-0.105
-294.691	800.000	-0.073	0.291
-293.676	123.482	-0.373	-0.460
-292.662	61.435	0.104	-0.102
-291.647	-172.453	-0.274	-0.009
-290.632	111.880	0.138	-0.164
-289.618	307.739	-0.067	-0.123
-288.603	433.359	0.120	0.255
-287.589	72.020	0.043	-0.044
-286.574	-200.000	0.029	0.295
-285.559	-146.346	0.168	-0.014
-284.545	800.000	0.131	0.427
-283.530	-63.294	0.264	0.107
-282.516	-200.000	-0.013	-0.080
-281.501	-200.000	-0.169	-0.001
-280.486	109.297	-0.097	-0.115
-279.472	189.993	-0.148	-0.219
-278.457	220.143	0.145	0.228
-277.443	-20.561	0.026	0.016
-276.428	706.248	-0.037	0.097
-275.413	40.693	0.196	0.174
-274.399	-200.000	0.019	0.172
-273.384	-200.000	0.017	-0.181
-272.370	-22.497	-0.203	-0.121
-271.355	-141.031	0.372	0.037
-270.340	-200.000	-0.020	0.200
-269.326	800.000	-0.019	-0.065
-268.311	800.000	-0.055	-0.220
-267.297	86.248	-0.166	-0.180
-266.282	231.031	0.128	-0.207
-265.267	338.939	0.073	0.141
-264.253	-122.331	0.420	0.067
-263.238	-200.000	0.012	-0.086
-262.224	-141.663	0.134	0.013
-261.209	62.808	-0.106	-0.104
-260.195	800.000	0.059	0.228
-259.180	-122.553	0.168	0.027
-258.165	-200.000	0.009	-0.129
-257.151	38.253	-0.381	0.333
-256.136	25.410	0.318	-0.260
-255.122	-109.569	-0.213	-0.044
-254.107	40.264	0.138	-0.122
-253.092	171.069	-0.073	-0.102
-252.078	-200.000	-0.089	-0.416
-251.063	-77.909	0.149	-0.051
-250.049	-99.631	0.234	0.058
-249.034	-200.000	0.006	-0.026
-248.019	11.901	-0.089	0.067
-247.005	-43.559	0.114	-0.057
-245.990	71.619	0.058	-0.059
-244.976	-200.000	-0.032	0.150
-243.961	800.000	-0.049	0.180
-242.946	-55.070	0.311	-0.137
-241.932	331.715	0.128	0.242
-240.917	-134.375	0.263	0.032
-239.903	-56.421	0.246	0.107
-238.888	306.347	-0.183	0.334
-237.873	800.000	-0.116	-0.358
-236.859	10.767	0.196	0.147
-235.844	5.299	0.167	-0.121
-234.830	210.192	-0.117	-0.180
-233.815	-74.405	0.235	-0.083
-232.800	474.003	0.053	-0.117
-231.786	57.528	-0.129	0.123
-230.771	55.129	-0.236	0.224
-229.757	-119.812	-0.109	-0.018
-228.742	-200.000	-0.022	0.322
-227.727	-125.657	0.221	-0.033
-226.713	403.340	0.059	-0.123
-225.698	-46.655	0.126	0.061
-224.684	800.000	0.039	0.144
-223.669	-52.617	-0.038	-0.017
-222.655	-188.268	-0.339	0.004
-221.640	-200.000	0.016	-0.128
-220.625	-18.087	-0.174	-0.107
-219.611	800.000	-0.073	0.293
-218.596	-200.000	0.004	0.149
-217.582	190.472	-0.108	-0.160
-216.567	-70.041	0.206	0.077
-215.552	336.635	0.106	-0.202
-214.538	-200.000	0.003	0.415
-213.523	102.552	0.197	0.226
-212.509	-91.945	0.099	-0.028
-211.494	-112.275	0.213	0.042
-210.479	519.325	0.040	-0.093
-209.465	-31.422	-0.163	-0.090
-208.450	-15.876	-0.280	-0.175
-207.436	108.015	-0.110	-0.129
-206.421	-4.161	-0.218	-0.148
-205.406	-200.000	0.001	-0.068
-204.392	-142.336	-0.130	-0.013
-203.377	-30.877	-0.084	-0.046
-202.363	-45.613	-0.301	-0.146
-201.348	-200.000	0.054	-0.298
-200.333	49.270	0.062	0.057
-199.319	348.780	-0.153	0.295
-198.304	247.908	0.132	0.219
-197.290	799.570	-0.097	-0.261
-196.275	363.279	0.069	0.137
-195.260	-200.000	-0.030	-0.227
-194.246	-91.327	0.281	0.079
-193.231	-157.393	-0.310	-0.018
-192.217	70.830	0.134	0.136
-191.202	-200.000	0.002	-0.295
-190.187	-75.844	-0.252	-0.088
-189.173	-155.858	0.139	0.009
-188.158	358.228	-0.054	0.105
-187.144	-140.307	0.102	0.010
-186.129	-169.942	0.375	-0.013
-185.114	-52.077	0.055	0.025
-184.100	-97.299	-0.068	0.017
-183.085	800.000	-0.071	0.203
-182.071	19.347	0.061	-0.048
-181.056	-200.000	-0.018	0.120
-180.042	402.143	0.078	0.160
-179.027	-200.000	0.044	0.360
-178.012	-57.426	-0.111	0.048
-176.998	-134.265	0.174	0.021
-175.983	695.238	-0.071	-0.182
-174.969	-25.839	0.274	-0.158
-173.954	-119.854	0.191	-0.032
-172.939	219.186	-0.210	-0.329
-171.925	416.890	0.018	0.038
-170.910	35.778	-0.078	-0.067
-169.896	149.883	0.064	-0.085
-168.881	114.234	-0.252	-0.301
-167.866	53.684	0.289	-0.272
-166.852	-139.761	-0.222	-0.023
-165.837	-57.378	-0.353	-0.152
-164.823	-24.162	-0.171	-0.100
-163.808	108.456	0.138	0.162
-162.793	49.642	0.193	-0.178
-161.779	-115.292	0.077	0.014
-160.764	85.240	-0.034	0.036
-159.750	-129.140	-0.360	-0.049
-158.735	31.088	-0.501	-0.420
-157.720	-128.698	0.441	0.061
-156.706	-200.000	-0.020	-0.158
-155.691	-102.488	0.147	0.034
-154.677	-24.868	0.232	0.135
-153.662	716.813	0.131	0.340
-152.647	76.024	0.147	0.152
-151.633	129.531	-0.152	0.190
-150.618	-42.448	0.198	0.099
-149.604	-37.812	0.149	-0.078
-148.589	9.123	-0.225	-0.166
-147.574	85.357	-0.106	0.113
-146.560	332.855	-0.046	0.087
-145.545	-148.536	-0.135	-0.011
-144.531	32.664	-0.093	0.079
-143.516	-194.014	-0.231	-0.002
-142.502	800.000	-0.060	-0.218
-141.487	55.007	0.103	-0.097
-140.472	137.916	0.274	-0.351
-139.458	702.015	-0.137	0.353
-138.443	-19.009	-0.132	-0.080
-137.429	-79.262	-0.212	0.070
-136.414	297.777	0.069	-0.124
-135.399	40.167	-0.174	0.153
-134.385	-138.849	0.235	0.025
-133.370	800.000	-0.032	-0.123
-132.356	275.803	0.134	-0.233
-131.341	800.000	-0.013	0.053
-130.326	-90.719	-0.196	0.055
-129.312	213.959	-0.224	0.346
-128.297	-66.519	0.075	0.029
-127.283	1.805	0.145	-0.103
-126.268	800.000	0.030	0.083
-125.253	-200.000	-0.028	-0.119
-124.239	-200.000	0.044	-0.261
-123.224	-103.171	-0.101	-0.023
-122.210	-133.149	-0.167	0.021
