DTS Sentinel unit serial number:	SN413079Multiplexer serial number:	ORYXHardware model number:	OX4-SRSoftware version number:	ORYX F/W v4.00 Oryx Data Collector v3.7.2.0data status	okinstallation	princeton_trtdifferential loss correction	single-endedforward channel	channel 1reverse channel	N/Adate	2019/09/16time	00:18:35forward acquisition time	60.00reverse acquisition time	0.00gamma	496.2192k internal	0.2334k external	0.2334temperature offset calibration	0.9977default loss term (dB/km)	0.3790temperature slope calibration	1.0000multiplexer offset coefficient	1.0000multiplexer slope coefficient	1.0000fibre end	0.00T internal ref (°C)	27.67T ext. ref 1 (°C)	9.49T ext. ref 2 (°C)	21.48length (m)	temperature (°C)	Stokes	anti-Stokes-747.200	-138.326	0.021	0.002
-746.185	48.308	-0.330	0.310
-745.171	409.933	0.070	-0.150
-744.156	-89.762	-0.239	0.070
-743.142	324.099	0.206	-0.395
-742.127	-200.000	0.009	0.256
-741.112	449.967	0.084	0.186
-740.098	104.288	-0.272	0.322
-739.083	-176.322	-0.142	0.004
-738.069	-4.781	0.169	0.117
-737.054	-24.744	-0.177	-0.106
-736.039	-147.423	-0.243	0.021
-735.025	-55.858	0.128	0.057
-734.010	-97.056	-0.428	-0.113
-732.996	-200.000	-0.019	0.227
-731.981	51.993	0.099	-0.095
-730.966	308.609	-0.243	-0.456
-729.952	800.000	0.071	-0.275
-728.937	-118.595	-0.355	0.063
-727.923	767.553	-0.056	0.153
-726.908	133.230	-0.020	-0.026
-725.894	214.289	0.183	-0.291
-724.879	99.664	0.225	-0.261
-723.864	-107.353	0.049	0.011
-722.850	12.753	0.106	-0.083
-721.835	113.064	-0.199	-0.242
-720.821	800.000	0.018	-0.066
-719.806	-113.563	-0.281	0.055
-718.791	338.130	0.097	-0.191
-717.777	-200.000	-0.018	0.238
-716.762	800.000	0.076	-0.284
-715.748	29.589	-0.127	-0.108
-714.733	-71.175	-0.545	0.206
-713.718	-200.000	0.040	-0.445
-712.704	-41.390	0.350	-0.181
-711.689	-15.617	-0.259	0.166
-710.675	459.396	0.140	0.313
-709.660	-147.437	-0.362	0.031
-708.645	-200.000	0.057	-0.291
-707.631	73.523	0.305	-0.321
-706.616	72.500	0.097	-0.101
-705.602	-200.000	0.029	0.164
-704.587	800.000	0.081	-0.246
-703.572	-200.000	-0.008	0.129
-702.558	-36.593	-0.188	0.101
-701.543	-200.000	0.013	0.178
-700.529	-8.194	-0.021	-0.014
-699.514	33.416	0.273	-0.238
-698.499	800.000	-0.112	0.349
-697.485	450.429	0.108	0.240
-696.470	55.517	-0.096	0.093
-695.456	800.000	-0.024	0.078
-694.441	800.000	0.055	-0.226
-693.426	-65.139	0.261	-0.105
-692.412	-28.559	0.268	-0.155
-691.397	-77.110	-0.425	-0.149
-690.383	499.418	-0.062	-0.144
-689.368	50.117	0.151	-0.143
-688.354	-114.701	0.074	0.014
-687.339	-200.000	-0.005	0.059
-686.324	-200.000	0.054	-0.384
-685.310	-200.000	0.024	0.277
-684.295	-24.610	0.318	0.190
-683.281	229.437	-0.154	-0.253
-682.266	-139.561	0.233	0.025
-681.251	800.000	-0.102	-0.312
-680.237	800.000	0.020	-0.073
-679.222	-20.403	0.320	0.198
-678.208	-89.371	-0.280	-0.083
-677.193	-3.610	-0.022	0.015
-676.178	103.460	0.085	0.101
-675.164	-200.000	0.014	0.175
-674.149	-69.383	-0.264	-0.102
-673.135	57.145	0.226	-0.221
-672.120	426.182	0.156	-0.338
-671.105	144.256	0.165	0.221
-670.091	235.709	-0.007	-0.011
-669.076	-145.404	-0.423	0.038
-668.062	-45.437	0.247	0.123
-667.047	226.796	-0.151	-0.246
-666.032	-200.000	0.001	-0.113
-665.018	-111.495	0.130	-0.027
-664.003	-95.692	0.287	-0.077
-662.989	16.241	-0.099	0.078
-661.974	-107.732	0.109	-0.024
-660.959	-100.189	0.175	0.044
-659.945	165.040	-0.067	-0.095
-658.930	15.673	0.123	0.097
-657.916	48.941	-0.101	0.095
-656.901	-113.070	0.185	-0.037
-655.886	124.063	0.208	-0.262
-654.872	0.926	-0.345	0.248
-653.857	800.000	0.035	-0.107
-652.843	800.000	0.061	0.227
-651.828	-200.000	-0.029	-0.258
-650.814	414.084	-0.148	-0.316
-649.799	-200.000	0.005	-0.305
-648.784	-200.000	0.016	-0.353
-647.770	43.934	-0.307	-0.282
-646.755	88.394	-0.043	0.048
-645.741	-153.939	-0.269	-0.018
-644.726	223.060	0.149	0.240
-643.711	-139.601	-0.118	-0.013
-642.697	721.212	-0.091	-0.243
-641.682	126.905	-0.096	-0.122
-640.668	443.834	0.125	-0.275
-639.653	203.273	0.051	-0.079
-638.638	-3.887	-0.310	0.216
-637.624	271.085	-0.162	-0.285
-636.609	-200.000	-0.001	0.146
-635.595	-91.172	0.144	-0.041
-634.580	16.983	-0.318	-0.252
-633.565	-106.179	0.451	-0.101
-632.551	0.361	-0.167	-0.119
-631.536	67.323	0.053	0.054
-630.522	800.000	0.077	0.235
-629.507	-73.384	0.277	0.101
-628.492	-150.665	-0.461	-0.035
-627.478	-70.501	0.277	-0.105
-626.463	800.000	-0.058	0.198
-625.449	-52.337	-0.326	-0.151
-624.434	-200.000	0.020	-0.251
-623.419	800.000	0.034	0.101
-622.405	84.428	-0.223	0.244
-621.390	96.708	-0.039	0.045
-620.376	-79.065	0.076	-0.026
-619.361	-27.350	-0.296	-0.172
-618.346	-7.835	-0.180	0.122
-617.332	-197.699	-0.196	0.001
-616.317	-200.000	0.039	0.345
-615.303	42.303	-0.363	0.330
-614.288	-75.389	-0.289	-0.103
-613.273	17.489	-0.197	-0.157
-612.259	-80.998	-0.170	0.056
-611.244	-163.772	-0.158	-0.007
-610.230	-24.345	-0.110	0.066
-609.215	110.297	-0.126	-0.151
-608.201	759.376	0.032	-0.086
-607.186	-7.694	-0.154	0.104
-606.171	-168.868	-0.119	0.004
-605.157	-101.011	-0.436	-0.107
-604.142	111.377	-0.256	0.308
-603.128	-42.228	-0.224	0.114
-602.113	-200.000	0.031	0.161
-601.098	216.460	-0.123	0.196
-600.084	358.579	0.121	0.242
-599.069	-55.109	-0.343	0.154
-598.055	-200.000	0.013	-0.151
-597.040	33.528	-0.249	-0.216
-596.025	30.720	-0.142	0.121
-595.011	-2.841	0.185	-0.129
-593.996	-30.503	0.326	0.185
-592.982	-152.238	-0.234	-0.017
-591.967	-86.962	0.245	-0.075
-590.952	-116.442	-0.181	0.033
-589.938	89.120	0.029	0.033
-588.923	23.774	-0.207	0.170
-587.909	91.682	-0.084	-0.094
-586.894	-129.525	0.306	-0.042
-585.879	-35.654	0.294	0.159
-584.865	304.848	0.308	0.572
-583.850	-28.331	-0.118	-0.068
-582.836	124.116	0.139	0.175
-581.821	-200.000	-0.063	-0.539
-580.806	600.869	-0.028	-0.071
-579.792	188.878	0.145	-0.217
-578.777	-160.716	-0.216	0.011
-577.763	1.359	-0.154	0.111
-576.748	-158.709	0.280	0.016
-575.733	-134.298	-0.191	0.023
-574.719	337.028	0.114	0.222
-573.704	235.361	0.109	0.180
-572.690	-113.176	-0.052	-0.010
-571.675	-95.052	0.138	0.037
-570.661	123.817	0.092	0.116
-569.646	453.000	-0.056	-0.123
-568.631	-160.106	0.279	-0.015
-567.617	78.028	-0.116	0.124
-566.602	-148.112	0.192	-0.016
-565.588	135.030	0.196	0.254
-564.573	-163.647	0.111	0.005
-563.558	29.110	-0.190	-0.161
-562.544	284.136	-0.068	0.122
-561.529	-121.496	0.150	-0.025
-560.515	-118.270	-0.252	-0.045
-559.500	130.122	-0.164	-0.210
-558.485	-40.097	-0.153	-0.080
-557.471	-62.179	-0.218	-0.091
-556.456	19.982	0.187	-0.150
-555.442	489.364	0.055	0.126
-554.427	-79.358	-0.204	-0.069
-553.412	-3.978	-0.174	-0.120
-552.398	-58.202	-0.042	0.018
-551.383	-55.879	-0.408	-0.182
-550.369	200.527	0.121	0.185
-549.354	91.993	0.216	0.243
-548.339	270.224	-0.064	-0.112
-547.325	75.728	-0.032	0.034
-546.310	514.942	-0.032	0.075
-545.296	-48.176	0.064	0.031
-544.281	800.000	-0.089	-0.305
-543.266	21.654	-0.085	-0.069
-542.252	37.039	0.033	0.030
-541.237	-101.815	-0.151	0.037
-540.223	13.106	0.078	-0.060
-539.208	800.000	0.078	0.252
-538.193	800.000	-0.056	0.158
-537.179	800.000	0.084	-0.316
-536.164	42.013	0.244	-0.221
-535.150	-105.710	-0.140	0.032
-534.135	216.290	-0.108	0.171
-533.121	-0.758	0.102	0.072
-532.106	-192.058	0.015	-0.000
-531.091	-200.000	0.010	-0.548
-530.077	-111.618	0.278	-0.056
-529.062	251.969	-0.194	0.330
-528.048	-14.238	0.437	0.281
-527.033	-200.000	0.008	-0.123
-526.018	-61.603	-0.213	0.089
-525.004	-138.200	-0.214	-0.024
-523.989	-108.395	0.460	-0.099
-522.975	-39.984	0.068	0.035
-521.960	-13.778	0.225	-0.145
-520.945	-161.311	0.193	0.010
-519.931	-85.948	-0.277	0.085
-518.916	644.261	-0.055	-0.139
-517.902	-200.000	-0.048	-0.353
-516.887	-76.238	0.108	-0.038
-515.872	800.000	-0.087	0.242
-514.858	-200.000	0.005	0.115
-513.843	-14.855	0.466	-0.298
-512.829	4.476	-0.088	0.064
-511.814	27.252	-0.112	-0.094
-510.799	-99.738	0.071	0.018
-509.785	-200.000	-0.040	-0.252
-508.770	-20.535	-0.106	0.065
-507.756	40.682	-0.193	-0.173
-506.741	-200.000	-0.046	-0.314
-505.726	-25.439	-0.146	-0.086
-504.712	-200.000	0.022	0.113
-503.697	171.260	0.126	-0.179
-502.683	800.000	-0.045	0.133
-501.668	-95.628	0.048	0.013
-500.653	291.886	-0.108	-0.196
-499.639	-139.838	0.203	0.021
-498.624	59.925	-0.172	-0.169
-497.610	-200.000	-0.056	-0.418
-496.595	-200.000	0.009	-0.329
-495.581	-200.000	-0.028	-0.194
-494.566	6.622	-0.060	0.044
-493.551	-140.761	-0.269	-0.028
-492.537	140.007	-0.066	0.086
-491.522	-52.500	-0.301	-0.139
-490.508	-106.482	-0.231	0.051
-489.493	800.000	0.018	0.054
-488.478	-30.360	0.159	0.090
-487.464	-153.188	-0.147	-0.010
-486.449	-34.225	-0.131	-0.071
-485.435	251.920	-0.228	0.386
-484.420	545.843	-0.168	0.400
-483.405	-15.651	-0.161	-0.102
-482.391	-32.445	0.413	-0.229
-481.376	27.220	0.149	0.125
-480.362	-69.099	0.128	0.049
-479.347	-9.892	0.240	0.159
-478.332	-79.905	-0.135	0.045
-477.318	101.176	0.035	0.041
-476.303	-141.654	-0.498	-0.050
-475.289	800.000	0.046	-0.159
-474.274	-96.272	-0.122	-0.032
-473.259	-175.750	0.122	-0.003
-472.245	-39.585	0.262	0.136
-471.230	-111.294	0.026	0.005
-470.216	-155.849	-0.143	0.009
-469.201	-134.479	0.134	0.016
-468.186	-103.682	0.197	-0.046
-467.172	-22.165	-0.056	-0.034
-466.157	-136.010	-0.051	0.006
-465.143	-8.476	-0.255	0.170
-464.128	58.336	0.255	0.249
-463.113	-74.518	-0.119	0.042
-462.099	-168.724	0.493	-0.019
-461.084	74.769	-0.088	-0.092
-460.070	-55.890	-0.219	-0.097
-459.055	-62.924	-0.176	-0.072
-458.040	-15.004	0.368	0.235
-457.026	218.311	0.164	-0.261
-456.011	713.932	0.030	-0.079
-454.997	506.467	0.101	-0.234
-453.982	-78.341	0.079	0.027
-452.968	800.000	0.084	0.276
-451.953	-34.586	0.223	-0.121
-450.938	-24.723	-0.217	0.128
-449.924	223.787	0.118	-0.189
-448.909	-200.000	0.014	-0.128
-447.895	800.000	0.014	-0.056
-446.880	-130.885	0.412	0.055
-445.865	-181.491	-0.276	-0.005
-444.851	-114.672	0.115	0.022
-443.836	195.258	-0.108	-0.164
-442.822	-200.000	0.033	-0.311
-441.807	-103.740	-0.118	-0.027
-440.792	-200.000	-0.014	-0.297
-439.778	441.980	0.076	0.165
-438.763	-200.000	0.001	-0.107
-437.749	-200.000	-0.019	-0.342
-436.734	8.345	-0.124	0.093
-435.719	-200.000	0.030	0.152
-434.705	-126.339	-0.183	0.027
-433.690	17.481	0.298	-0.235
-432.676	329.153	0.064	-0.122
-431.661	-200.000	-0.003	0.255
-430.646	-12.808	-0.142	0.092
-429.632	281.899	0.067	-0.119
-428.617	-27.398	0.134	0.078
-427.603	28.263	-0.155	-0.130
-426.588	800.000	0.013	-0.042
-425.573	-48.744	-0.198	0.094
-424.559	121.006	0.032	-0.040
-423.544	-88.618	0.551	-0.163
-422.530	-117.826	0.477	-0.085
-421.515	800.000	-0.127	-0.495
-420.500	800.000	-0.079	0.232
-419.486	667.264	0.082	0.211
-418.471	75.616	-0.171	0.179
-417.457	-100.919	0.059	0.014
-416.442	86.246	-0.300	0.328
-415.428	-95.409	-0.131	0.035
-414.413	38.943	-0.109	0.097
-413.398	-2.986	0.200	-0.138
-412.384	-20.281	0.365	-0.223
-411.369	93.616	0.186	0.209
-410.355	-10.471	0.247	-0.163
-409.340	538.306	-0.127	-0.298
-408.325	350.904	0.060	0.118
-407.311	-71.987	0.123	-0.045
-406.296	-200.000	-0.049	0.263
-405.282	790.789	0.052	0.141
-404.267	-200.000	0.011	0.151
-403.252	-75.317	0.208	-0.074
-402.238	-41.266	-0.101	-0.052
-401.223	0.110	0.349	-0.246
-400.209	800.000	0.033	-0.095
-399.194	-81.804	-0.272	-0.088
-398.179	-100.278	0.013	0.003
-397.165	38.765	-0.236	0.209
-396.150	-35.905	-0.156	0.083
-395.136	57.247	-0.148	-0.143
-394.121	423.854	-0.039	-0.084
-393.106	177.810	0.048	0.070
-392.092	-200.000	0.010	-0.169
-391.077	800.000	0.042	-0.121
-390.063	-41.266	-0.163	-0.083
-389.048	179.657	-0.095	0.138
-388.033	582.839	-0.055	-0.133
-387.019	171.190	0.104	0.148
-386.004	-200.000	0.003	-0.150
-384.990	-17.526	0.231	0.144
-383.975	707.870	0.055	0.144
-382.960	-200.000	0.050	0.395
-381.946	-93.286	-0.299	0.082
-380.931	-176.678	0.164	0.004
-379.917	66.754	-0.080	0.080
-378.902	-0.408	0.035	0.025
-377.888	314.877	0.091	0.169
-376.873	-122.459	0.288	0.046
-375.858	-84.640	-0.233	-0.073
-374.844	119.547	0.076	0.093
-373.829	121.868	-0.137	0.169
-372.815	-96.652	0.072	0.019
-371.800	-44.372	0.105	0.052
-370.785	-75.845	0.185	-0.065
-369.771	800.000	0.060	-0.221
-368.756	80.674	-0.219	-0.234
-367.742	-146.690	0.292	-0.025
-366.727	80.497	-0.237	-0.253
-365.712	336.300	0.021	0.041
-364.698	-200.000	0.032	-0.169
-363.683	-68.604	-0.022	-0.008
-362.669	21.938	0.099	0.080
-361.654	12.109	-0.151	0.115
-360.639	800.000	-0.045	-0.153
-359.625	-32.781	0.177	-0.097
-358.610	369.009	-0.156	-0.312
-357.596	800.000	-0.058	-0.222
-356.581	-90.108	0.194	-0.056
-355.566	800.000	0.044	-0.143
-354.552	194.059	-0.252	-0.378
-353.537	-91.175	0.217	-0.061
-352.523	800.000	-0.112	0.343
-351.508	579.019	0.186	-0.451
-350.493	-45.367	-0.176	0.086
-349.479	16.381	-0.087	0.068
-348.464	-200.000	0.009	0.090
-347.450	-51.263	0.056	-0.026
-346.435	-169.176	0.121	0.004
-345.420	298.592	-0.102	-0.185
-344.406	-119.227	0.055	-0.010
-343.391	35.279	0.029	-0.025
-342.377	-200.000	-0.028	0.168
-341.362	3.441	0.174	-0.125
-340.348	-122.803	-0.066	-0.011
-339.333	62.059	-0.150	-0.148
-338.318	-48.106	0.384	0.183
-337.304	171.960	0.135	0.192
-336.289	800.000	-0.139	0.549
-335.275	-52.462	-0.274	0.125
-334.260	800.000	0.052	0.168
-333.245	748.711	0.087	0.233
-332.231	-92.947	0.212	0.059
-331.216	219.278	0.140	0.222
-330.202	-155.441	0.346	-0.022
-329.187	133.200	0.102	-0.131
-328.172	-200.000	-0.038	-0.370
-327.158	-123.714	0.441	-0.069
-326.143	-200.000	-0.021	0.238
-325.129	-47.378	-0.494	-0.238
-324.114	-101.587	0.102	-0.025
-323.099	60.424	0.235	0.230
-322.085	68.848	-0.346	0.352
-321.070	-117.966	-0.136	0.024
-320.056	-200.000	0.067	0.351
-319.041	-71.501	0.108	-0.040
-318.026	-200.000	0.005	0.083
-317.012	-200.000	-0.020	0.118
-315.997	-200.000	-0.042	-0.415
-314.983	-200.000	-0.043	0.460
-313.968	-26.788	-0.168	0.097
-312.953	-42.588	-0.119	-0.060
-311.939	-200.000	0.001	-0.039
-310.924	800.000	0.140	0.387
-309.910	-200.000	0.002	-0.211
-308.895	72.228	0.286	0.294
-307.880	800.000	0.105	-0.306
-306.866	-42.769	-0.236	0.118
-305.851	-129.039	0.297	0.041
-304.837	-62.224	0.124	-0.051
-303.822	-111.045	-0.105	-0.021
-302.807	-86.742	-0.275	-0.083
-301.793	-200.000	0.045	-0.207
-300.778	128.422	-0.093	-0.118
-299.764	281.114	0.188	0.332
-298.749	106.065	-0.117	0.137
-297.735	494.774	-0.061	-0.139
-296.720	-45.913	-0.138	0.067
-295.705	800.000	-0.065	-0.183
-294.691	161.778	0.129	-0.178
-293.676	-5.447	-0.116	0.079
-292.662	95.560	0.230	-0.260
-291.647	800.000	-0.104	0.324
-290.632	240.264	-0.111	0.183
-289.618	-113.126	-0.154	0.030
-288.603	-159.463	0.367	-0.020
-287.589	-145.540	-0.339	-0.030
-286.574	-58.378	-0.395	0.170
-285.559	177.863	0.197	-0.283
-284.545	-139.660	-0.226	0.024
-283.530	311.421	-0.108	-0.200
-282.516	83.673	-0.074	-0.080
-281.501	-7.486	0.182	-0.122
-280.486	-48.409	0.183	0.087
-279.472	169.895	-0.152	0.214
-278.457	-111.553	0.243	-0.049
-277.443	-93.518	-0.169	0.046
-276.428	320.947	-0.261	-0.490
-275.413	45.725	-0.220	0.201
-274.399	15.571	0.030	0.023
-273.384	800.000	-0.022	-0.070
-272.370	-200.000	0.025	0.450
-271.355	-200.000	0.050	0.311
-270.340	245.954	0.182	-0.302
-269.326	-100.274	-0.107	-0.026
-268.311	122.755	0.265	0.327
-267.297	114.985	-0.075	-0.090
-266.282	-139.449	0.094	0.010
-265.267	-46.583	-0.138	0.067
-264.253	-70.231	0.225	-0.084
-263.238	557.408	0.215	0.511
-262.224	10.575	0.196	-0.147
-261.209	-110.513	-0.184	-0.038
-260.195	-7.409	-0.126	0.084
-259.180	-200.000	0.004	-0.115
-258.165	541.479	0.124	0.291
-257.151	215.897	-0.189	0.295
-256.136	-200.000	0.030	0.306
-255.122	-200.000	-0.020	0.134
-254.107	-85.014	-0.157	-0.048
-253.092	774.629	-0.017	0.046
-252.078	43.422	0.184	0.166
-251.063	-55.049	0.308	0.137
-250.049	-200.000	-0.015	-0.187
-249.034	-149.695	-0.517	0.040
-248.019	-175.286	-0.104	-0.003
-247.005	-200.000	0.040	-0.221
-245.990	-16.273	0.447	-0.280
-244.976	-58.739	-0.021	-0.009
-243.961	-54.021	-0.115	-0.052
-242.946	454.515	-0.058	-0.126
-241.932	652.403	-0.050	0.125
-240.917	-119.959	0.211	-0.036
-239.903	-111.489	0.140	0.028
-238.888	-200.000	-0.060	0.321
-237.873	-200.000	0.028	0.392
-236.859	-200.000	-0.012	-0.078
-235.844	-195.761	-0.292	-0.002
-234.830	-66.802	0.168	0.066
-233.815	436.249	0.087	-0.186
-232.800	147.167	0.094	-0.125
-231.786	-112.780	-0.052	-0.010
-230.771	-56.227	-0.117	-0.051
-229.757	11.759	0.211	0.159
-228.742	112.160	0.077	-0.092
-227.727	-200.000	0.027	0.197
-226.713	-200.000	-0.013	0.115
-225.698	-84.013	0.144	-0.045
-224.684	-101.857	0.170	0.040
-223.669	301.316	-0.103	0.187
-222.655	-82.113	0.012	0.004
-221.640	199.687	0.165	0.249
-220.625	800.000	0.034	-0.098
-219.611	-80.999	0.143	-0.047
-218.596	-200.000	0.050	0.381
-217.582	-72.502	-0.233	0.085
-216.567	-92.959	0.143	0.039
-215.552	242.154	-0.047	-0.077
-214.538	-174.368	-0.225	0.006
-213.523	146.324	0.021	0.028
-212.509	-99.104	0.450	-0.112
-211.494	-200.000	-0.024	-0.313
-210.479	717.931	-0.145	-0.379
-209.465	-82.008	0.040	0.013
-208.450	-99.454	-0.088	0.022
-207.436	263.271	0.095	0.162
-206.421	333.421	0.164	-0.311
-205.406	130.615	-0.204	-0.258
-204.392	-64.494	-0.096	0.038
-203.377	-57.484	0.271	0.117
-202.363	-200.000	0.019	-0.318
-201.348	-12.266	-0.105	0.067
-200.333	800.000	0.086	-0.358
-199.319	-200.000	-0.018	-0.246
-198.304	-2.587	0.117	0.080
-197.290	281.976	0.111	-0.196
-196.275	55.378	0.185	0.176
-195.260	-74.707	0.196	0.069
-194.246	3.220	0.235	-0.168
-193.231	-90.780	0.261	0.074
-192.217	-55.889	0.238	-0.104
-191.202	9.569	-0.135	-0.101
-190.187	198.890	0.144	0.217
-189.173	5.552	0.084	0.061
-188.158	487.474	-0.026	-0.059
-187.144	102.219	0.059	-0.068
-186.129	-200.000	-0.109	-0.506
-185.114	89.027	-0.104	0.114
-184.100	235.376	0.113	0.183
-183.085	45.927	0.240	-0.218
-182.071	45.600	-0.039	0.036
-181.056	105.008	-0.231	0.268
-180.042	241.069	0.081	-0.132
-179.027	-72.634	-0.093	-0.034
-178.012	49.293	0.094	-0.087
-176.998	-86.046	-0.136	0.041
-175.983	4.894	-0.147	-0.106
-174.969	250.787	0.148	0.248
-173.954	-138.015	-0.137	0.015
-172.939	-109.471	0.219	-0.045
-171.925	-56.784	0.256	0.111
-170.910	69.798	-0.249	-0.252
-169.896	95.427	-0.161	0.180
-168.881	142.395	0.120	0.156
-167.866	-200.000	-0.078	0.451
-166.852	-88.770	0.111	-0.032
-165.837	-100.391	0.311	0.076
-164.823	800.000	0.103	0.332
-163.808	-200.000	-0.054	0.342
-162.793	800.000	-0.029	-0.102
-161.779	2.243	-0.211	-0.150
-160.764	168.809	0.067	-0.094
-159.750	-52.525	-0.034	0.016
-158.735	-20.055	-0.414	0.251
-157.720	285.371	-0.064	0.114
-156.706	-139.952	-0.321	0.033
-155.691	-200.000	-0.045	-0.247
-154.677	-200.000	-0.007	0.188
-153.662	34.696	0.261	0.225
-152.647	-125.236	0.035	-0.005
-151.633	-0.101	0.230	-0.161
-150.618	-122.111	-0.149	-0.024
-149.604	-32.689	0.272	0.148
-148.589	212.419	-0.106	0.165
-147.574	-101.256	-0.174	-0.042
-146.560	-66.584	-0.247	0.096
-145.545	175.251	0.106	-0.151
-144.531	800.000	-0.033	-0.117
-143.516	-126.297	0.367	0.054
-142.502	81.881	0.198	-0.210
-141.487	-200.000	0.181	0.000
-140.472	82.810	-0.315	0.336
-139.458	-163.099	-0.361	0.017
-138.443	-107.460	-0.264	0.057
-137.429	-97.038	-0.052	-0.013
-136.414	-200.000	-0.018	-0.211
-135.399	56.099	-0.042	0.040
-134.385	800.000	0.040	-0.114
-133.370	92.432	-0.171	-0.189
-132.356	-62.197	0.054	-0.022
-131.341	692.744	-0.172	0.441
-130.326	800.000	-0.096	0.260
-129.312	222.513	0.027	0.043
-128.297	-3.336	0.121	0.083
-127.283	-161.276	0.143	0.007
-126.268	-49.420	-0.196	-0.092
-125.253	111.019	0.016	-0.019
-124.239	-200.000	0.049	0.293
-123.224	-76.984	-0.202	0.069
-122.210	499.357	-0.142	-0.321
-121.195	104.252	0.081	0.094
-120.180	-26.066	0.367	0.212
