DTS Sentinel unit serial number:	SN413079Multiplexer serial number:	ORYXHardware model number:	OX4-SRSoftware version number:	ORYX F/W v4.00 Oryx Data Collector v3.7.2.0data status	okinstallation	princeton_trtdifferential loss correction	single-endedforward channel	channel 1reverse channel	N/Adate	2019/09/19time	03:58:35forward acquisition time	60.00reverse acquisition time	0.00gamma	496.2192k internal	0.2343k external	0.2343temperature offset calibration	1.0016default loss term (dB/km)	0.3790temperature slope calibration	1.0000multiplexer offset coefficient	1.0000multiplexer slope coefficient	1.0000fibre end	0.00T internal ref (°C)	20.44T ext. ref 1 (°C)	0.63T ext. ref 2 (°C)	14.12length (m)	temperature (°C)	Stokes	anti-Stokes-747.200	72.857	-0.073	0.076
-746.185	57.366	-0.074	0.072
-745.171	800.000	-0.056	-0.228
-744.156	302.034	0.119	0.221
-743.142	360.848	-0.140	-0.281
-742.127	41.081	-0.275	0.249
-741.112	-200.000	-0.008	-0.113
-740.098	-200.000	-0.017	0.319
-739.083	-200.000	0.005	0.148
-738.069	-89.242	-0.423	-0.125
-737.054	69.400	0.077	0.079
-736.039	-119.385	-0.229	0.040
-735.025	-36.506	0.054	-0.029
-734.010	331.883	0.131	-0.253
-732.996	400.105	0.052	-0.110
-731.981	268.495	-0.138	-0.242
-730.966	-18.469	-0.296	-0.185
-729.952	-62.230	-0.142	0.059
-728.937	800.000	-0.098	-0.332
-727.923	49.351	-0.079	-0.074
-726.908	-200.000	-0.022	-0.349
-725.894	84.822	-0.238	-0.261
-724.879	-184.548	0.282	-0.005
-723.864	-71.187	-0.286	0.107
-722.850	195.230	-0.129	0.197
-721.835	223.116	0.090	-0.146
-720.821	581.748	0.094	0.231
-719.806	66.044	-0.175	-0.177
-718.791	197.412	-0.104	-0.159
-717.777	-52.516	-0.178	-0.082
-716.762	-73.568	0.072	0.026
-715.748	153.796	-0.081	0.111
-714.733	165.621	-0.184	-0.260
-713.718	30.164	-0.269	-0.229
-712.704	-8.289	0.304	0.205
-711.689	-51.765	0.143	-0.067
-710.675	-200.000	-0.008	0.143
-709.660	258.266	0.112	0.194
-708.645	16.461	-0.229	-0.181
-707.631	412.157	0.153	0.324
-706.616	-48.304	-0.299	-0.144
-705.602	233.694	0.115	-0.189
-704.587	-16.775	-0.202	-0.128
-703.572	101.384	0.104	-0.122
-702.558	-4.642	-0.085	0.059
-701.543	-100.507	0.110	-0.027
-700.529	214.544	-0.202	0.320
-699.514	656.637	0.024	0.062
-698.499	-200.000	0.022	-0.135
-697.485	89.692	0.103	0.115
-696.470	-26.725	0.216	-0.126
-695.456	-200.000	0.033	-0.281
-694.441	-200.000	0.028	-0.289
-693.426	407.184	-0.052	-0.110
-692.412	704.189	0.051	-0.135
-691.397	459.232	0.117	-0.260
-690.383	800.000	-0.148	-0.429
-689.368	-200.000	0.002	0.112
-688.354	-54.173	-0.160	0.073
-687.339	226.322	-0.057	-0.093
-686.324	-200.000	0.011	0.168
-685.310	-45.799	0.118	0.058
-684.295	-200.000	0.031	0.204
-683.281	-160.774	-0.071	-0.004
-682.266	-200.000	0.014	0.191
-681.251	-42.871	0.399	0.202
-680.237	39.156	-0.249	0.222
-679.222	-71.255	-0.373	-0.140
-678.208	-200.000	-0.035	-0.185
-677.193	626.424	0.112	-0.283
-676.178	800.000	-0.072	-0.250
-675.164	-200.000	-0.002	0.146
-674.149	-0.942	0.176	0.125
-673.135	122.917	0.138	-0.173
-672.120	-200.000	-0.039	-0.181
-671.105	146.618	-0.134	0.179
-670.091	-193.030	0.213	-0.002
-669.076	-0.506	-0.171	0.121
-668.062	-200.000	0.013	-0.190
-667.047	743.598	-0.064	0.171
-666.032	226.823	0.144	0.234
-665.018	800.000	0.026	-0.108
-664.003	-56.453	-0.123	0.054
-662.989	-200.000	-0.023	-0.139
-661.974	-131.321	-0.362	0.048
-660.959	-200.000	-0.002	-0.301
-659.945	31.851	-0.219	0.188
-658.930	204.605	0.132	0.204
-657.916	-200.000	0.042	-0.390
-656.901	-200.000	-0.010	0.143
-655.886	-9.963	0.105	0.069
-654.872	-60.269	-0.283	-0.120
-653.857	428.500	-0.039	0.084
-652.843	-110.589	0.129	-0.027
-651.828	-73.613	0.189	0.069
-650.814	185.195	0.052	-0.077
-649.799	47.089	-0.138	-0.128
-648.784	227.934	-0.173	0.280
-647.770	96.673	0.031	0.035
-646.755	31.442	-0.199	0.171
-645.741	156.844	-0.155	-0.213
-644.726	59.838	0.079	-0.078
-643.711	800.000	0.125	-0.396
-642.697	-56.067	-0.200	-0.089
-641.682	-200.000	-0.098	-0.432
-640.668	800.000	-0.072	-0.201
-639.653	90.849	0.084	0.094
-638.638	-200.000	0.014	0.187
-637.624	-45.122	-0.359	-0.178
-636.609	-165.823	0.347	-0.015
-635.595	-200.000	-0.069	-0.332
-634.580	-100.966	-0.179	-0.044
-633.565	-79.923	0.204	-0.068
-632.551	-143.361	-0.246	-0.023
-631.536	376.480	-0.058	-0.117
-630.522	530.728	0.065	-0.153
-629.507	-22.654	-0.282	-0.170
-628.492	-94.752	0.153	0.041
-627.478	76.270	-0.195	-0.206
-626.463	-200.000	-0.003	-0.100
-625.449	-74.398	0.334	0.120
-624.434	-134.588	-0.287	-0.035
-623.419	273.688	0.100	0.176
-622.405	-49.922	-0.356	-0.168
-621.390	395.812	-0.190	0.394
-620.376	-192.736	-0.530	0.005
-619.361	59.691	0.136	0.133
-618.346	48.103	-0.246	0.229
-617.332	0.791	-0.106	0.076
-616.317	185.313	0.123	-0.182
-615.303	-138.892	-0.362	0.039
-614.288	-140.485	0.092	0.010
-613.273	-124.988	-0.164	0.025
-612.259	135.795	-0.069	0.090
-611.244	-11.378	-0.112	0.073
-610.230	-200.000	0.005	0.059
-609.215	-16.506	-0.159	0.100
-608.201	-62.259	-0.291	-0.121
-607.186	-96.734	-0.130	0.034
-606.171	-200.000	-0.006	-0.141
-605.157	228.925	-0.142	0.230
-604.142	799.810	0.060	0.164
-603.128	481.991	0.018	0.040
-602.113	-200.000	-0.042	0.317
-601.098	-7.913	0.118	-0.079
-600.084	124.279	-0.165	-0.206
-599.069	20.917	0.105	-0.085
-598.055	-42.666	0.048	-0.024
-597.040	-53.196	-0.294	-0.134
-596.025	102.662	0.045	0.053
-595.011	-92.959	-0.240	-0.067
-593.996	-63.636	0.303	-0.124
-592.982	670.901	-0.020	0.052
-591.967	-200.000	-0.017	0.094
-590.952	390.868	-0.125	-0.259
-589.938	519.394	0.066	-0.154
-588.923	145.944	0.126	-0.168
-587.909	800.000	0.089	0.307
-586.894	45.644	-0.084	0.077
-585.879	-200.000	0.038	-0.316
-584.865	-161.877	0.285	-0.014
-583.850	316.871	-0.063	-0.119
-582.836	128.851	-0.150	-0.190
-581.821	-156.582	0.107	-0.007
-580.806	-117.022	-0.159	0.029
-579.792	643.488	-0.014	0.037
-578.777	-200.000	-0.070	-0.423
-577.763	195.888	-0.126	-0.191
-576.748	-28.696	-0.191	-0.109
-575.733	-26.145	-0.093	-0.054
-574.719	178.700	-0.101	-0.147
-573.704	65.553	0.128	0.129
-572.690	-72.106	-0.236	-0.087
-571.675	-107.996	-0.259	0.056
-570.661	13.380	0.356	-0.274
-569.646	44.952	-0.219	0.200
-568.631	-124.710	0.153	-0.024
-567.617	68.626	0.155	0.158
-566.602	10.368	0.115	-0.087
-565.588	-200.000	0.006	-0.259
-564.573	382.732	0.090	0.185
-563.558	-120.965	0.118	0.020
-562.544	-200.000	-0.354	-0.001
-561.529	256.564	0.038	-0.064
-560.515	-159.085	0.031	-0.002
-559.500	6.613	-0.441	-0.326
-558.485	62.902	-0.101	0.100
-557.471	800.000	-0.174	-0.659
-556.456	800.000	-0.089	0.376
-555.442	140.495	-0.060	-0.078
-554.427	82.370	0.097	-0.105
-553.412	-47.744	-0.151	-0.073
-552.398	-200.000	-0.003	0.064
-551.383	-200.000	-0.043	0.286
-550.369	-200.000	0.013	0.126
-549.354	249.486	0.153	0.257
-548.339	-30.939	-0.294	-0.165
-547.325	-14.079	0.115	-0.073
-546.310	308.032	-0.094	0.175
-545.296	-26.346	-0.298	-0.173
-544.281	800.000	0.026	0.105
-543.266	800.000	-0.080	0.221
-542.252	800.000	0.067	-0.287
-541.237	588.856	-0.029	-0.071
-540.223	-49.844	0.347	0.164
-539.208	-101.793	-0.043	-0.010
-538.193	-200.000	-0.016	0.313
-537.179	-185.501	0.111	-0.002
-536.164	32.024	-0.180	0.154
-535.150	83.055	0.127	0.137
-534.135	290.304	0.119	0.214
-533.121	-200.000	0.022	-0.167
-532.106	-30.956	-0.392	-0.220
-531.091	800.000	-0.169	-0.603
-530.077	483.561	-0.186	-0.421
-529.062	800.000	-0.039	0.153
-528.048	-157.182	0.152	-0.009
-527.033	-200.000	0.028	0.147
-526.018	-142.465	-0.049	0.005
-525.004	107.530	0.372	-0.439
-523.989	-200.000	0.015	0.184
-522.975	89.160	-0.162	-0.179
-521.960	581.170	0.061	-0.148
-520.945	-41.591	0.284	-0.145
-519.931	-79.995	-0.036	-0.012
-518.916	173.107	0.057	-0.082
-517.902	57.035	0.148	0.143
-516.887	-95.877	-0.219	-0.058
-515.872	-24.903	-0.143	0.084
-514.858	800.000	-0.120	0.429
-513.843	47.156	0.147	-0.136
-512.829	695.687	-0.125	0.325
-511.814	-14.773	0.131	0.084
-510.799	-4.932	0.045	-0.030
-509.785	-200.000	-0.104	0.493
-508.770	217.343	0.027	0.042
-507.756	-7.830	-0.526	-0.352
-506.741	-96.892	0.136	-0.036
-505.726	-158.128	0.096	-0.006
-504.712	-90.993	-0.193	0.055
-503.697	800.000	-0.036	-0.128
-502.683	-8.449	0.089	-0.059
-501.668	-160.223	-0.296	0.016
-500.653	-200.000	-0.043	0.189
-499.639	-30.115	-0.086	-0.048
-498.624	2.128	-0.129	-0.092
-497.610	-40.266	-0.207	0.107
-496.595	-48.588	0.217	-0.103
-495.581	135.973	-0.080	0.103
-494.566	-200.000	-0.021	-0.097
-493.551	-99.996	0.260	-0.064
-492.537	453.219	0.075	0.165
-491.522	-200.000	-0.029	0.326
-490.508	459.279	-0.096	-0.211
-489.493	37.353	-0.100	0.088
-488.478	12.832	-0.091	0.070
-487.464	-81.002	-0.070	0.023
-486.449	65.224	-0.433	-0.434
-485.435	694.344	0.109	-0.284
-484.420	313.580	-0.150	-0.279
-483.405	87.132	-0.091	0.100
-482.391	-200.000	-0.002	-0.054
-481.376	233.588	-0.107	0.174
-480.362	37.011	0.373	0.327
-479.347	800.000	0.040	-0.159
-478.332	-200.000	0.003	-0.036
-477.318	747.023	-0.107	-0.287
-476.303	-200.000	0.037	-0.655
-475.289	-72.578	0.256	0.094
-474.274	-20.628	0.149	-0.090
-473.259	122.142	0.196	-0.242
-472.245	800.000	0.194	-0.563
-471.230	-200.000	0.181	0.001
-470.216	-192.044	-0.099	-0.001
-469.201	6.480	-0.218	0.161
-468.186	-68.573	-0.166	-0.064
-467.172	74.546	-0.304	0.317
-466.157	-109.940	-0.269	0.056
-465.143	73.588	-0.160	0.166
-464.128	121.042	-0.112	0.138
-463.113	-121.301	-0.301	-0.050
-462.099	-124.795	0.129	-0.020
-461.084	-109.679	-0.134	-0.028
-460.070	800.000	-0.049	0.159
-459.055	58.278	0.069	-0.067
-458.040	-2.814	0.279	0.193
-457.026	800.000	0.134	0.443
-456.011	800.000	-0.056	0.184
-454.997	268.851	0.109	-0.189
-453.982	-124.491	0.450	0.069
-452.968	370.723	-0.055	-0.110
-451.953	-12.294	-0.303	0.196
-450.938	172.816	-0.029	-0.041
-449.924	-200.000	-0.035	-0.226
-448.909	-200.000	0.007	0.539
-447.895	-78.800	-0.320	-0.108
-446.880	-127.685	0.421	-0.060
-445.865	406.150	0.166	0.347
-444.851	33.611	-0.322	-0.277
-443.836	-200.000	0.064	-0.290
-442.822	-150.066	0.100	-0.008
-441.807	270.406	-0.224	0.389
-440.792	-80.059	-0.248	-0.082
-439.778	-90.659	-0.150	0.043
-438.763	-151.023	-0.197	-0.015
-437.749	-200.000	0.052	-0.383
-436.734	-65.711	-0.141	-0.056
-435.719	-52.877	-0.210	0.096
-434.705	-200.000	-0.012	-0.528
-433.690	-200.000	-0.029	0.159
-432.676	283.033	0.223	0.395
-431.661	-200.000	-0.025	-0.125
-430.646	24.735	-0.312	-0.256
-429.632	-92.274	0.562	-0.157
-428.617	-150.227	-0.327	-0.025
-427.603	135.753	-0.210	0.271
-426.588	79.815	-0.086	-0.092
-425.573	-172.041	0.424	0.014
-424.559	277.642	-0.129	0.228
-423.544	473.897	0.055	0.122
-422.530	-200.000	0.005	-0.248
-421.515	-200.000	0.019	0.133
-420.500	-18.327	0.085	-0.052
-419.486	431.288	-0.034	-0.072
-418.471	112.220	-0.055	0.066
-417.457	800.000	-0.014	0.055
-416.442	-77.334	0.478	-0.164
-415.428	101.447	-0.162	0.187
-414.413	223.682	0.189	-0.301
-413.398	-150.039	-0.178	-0.014
-412.384	36.738	0.097	-0.085
-411.369	-200.000	-0.002	0.213
-410.355	-127.069	0.212	-0.031
-409.340	-200.000	0.005	-0.213
-408.325	-159.451	-0.280	0.015
-407.311	-200.000	0.051	-0.282
-406.296	-200.000	-0.000	-0.138
-405.282	-16.281	-0.217	0.136
-404.267	-200.000	0.006	-0.185
-403.252	390.593	0.067	-0.137
-402.238	-200.000	-0.007	-0.470
-401.223	443.602	-0.135	-0.292
-400.209	800.000	0.034	0.110
-399.194	-26.845	-0.176	-0.101
-398.179	175.590	-0.329	0.471
-397.165	173.711	-0.230	-0.329
-396.150	12.811	0.137	0.104
-395.136	693.441	0.041	0.107
-394.121	-32.972	-0.088	-0.048
-393.106	-200.000	0.001	-0.075
-392.092	-200.000	0.010	-0.062
-391.077	-104.867	0.208	0.047
-390.063	55.458	0.112	0.107
-389.048	260.943	0.230	0.393
-388.033	-100.830	0.110	0.027
-387.019	-73.600	-0.246	-0.089
-386.004	97.871	-0.157	-0.179
-384.990	-81.569	-0.341	-0.111
-383.975	800.000	0.065	-0.236
-382.960	-86.443	0.164	-0.050
-381.946	-100.070	-0.092	0.023
-380.931	800.000	0.033	0.110
-379.917	800.000	-0.068	0.262
-378.902	800.000	-0.081	-0.343
-377.888	-200.000	0.024	0.172
-376.873	-84.954	0.471	-0.146
-375.858	-31.621	0.156	-0.086
-374.844	-200.000	-0.002	-0.120
-373.829	-72.633	0.182	-0.066
-372.815	800.000	0.102	0.360
-371.800	-100.373	-0.286	0.070
-370.785	-200.000	0.028	0.146
-369.771	236.546	-0.023	-0.037
-368.756	-15.258	-0.188	0.119
-367.742	-189.374	-0.092	0.001
-366.727	212.544	0.085	0.133
-365.712	-68.349	-0.205	-0.078
-364.698	800.000	-0.041	0.170
-363.683	300.728	-0.120	-0.218
-362.669	-101.339	0.263	-0.063
-361.654	-53.652	0.234	0.105
-360.639	225.322	-0.183	-0.293
-359.625	-95.896	0.488	-0.128
-358.610	510.394	-0.089	0.205
-357.596	141.341	-0.079	0.104
-356.581	800.000	0.053	-0.199
-355.566	-200.000	-0.009	0.183
-354.552	800.000	0.063	0.182
-353.537	-34.349	-0.230	-0.124
-352.523	-175.309	-0.013	-0.000
-351.508	-200.000	-0.021	0.406
-350.493	-135.946	0.316	-0.037
-349.479	-200.000	-0.038	0.196
-348.464	267.481	-0.174	-0.300
-347.450	23.047	0.109	0.088
-346.435	-38.837	-0.157	0.081
-345.420	-62.290	0.296	-0.122
-344.406	-67.661	0.310	0.120
-343.391	-81.048	-0.409	0.133
-342.377	-73.083	0.017	-0.006
-341.362	583.175	0.119	-0.287
-340.348	-152.984	-0.208	0.014
-339.333	-121.029	0.277	0.046
-338.318	-200.000	-0.026	0.192
-337.304	56.490	0.208	0.200
-336.289	660.883	0.065	-0.164
-335.275	-26.913	0.423	0.243
-334.260	800.000	0.056	0.222
-333.245	515.783	0.186	0.429
-332.231	110.393	-0.184	0.218
-331.216	-171.884	0.093	0.003
-330.202	-162.106	0.188	0.009
-329.187	-35.826	0.202	-0.108
-328.172	-46.693	0.316	0.152
-327.158	-73.533	-0.410	0.147
-326.143	-15.775	-0.150	-0.094
-325.129	-200.000	0.023	-0.143
-324.114	-200.000	0.019	-0.107
-323.099	695.797	-0.105	-0.273
-322.085	800.000	-0.045	0.178
-321.070	26.064	0.083	-0.068
-320.056	-127.673	0.267	0.038
-319.041	-129.761	0.262	0.035
-318.026	-200.000	0.022	-0.149
-317.012	-159.098	0.127	-0.007
-315.997	127.094	0.057	-0.071
-314.983	443.608	-0.122	-0.263
-313.968	800.000	0.046	-0.140
-312.953	647.246	0.113	0.284
-311.939	64.178	-0.246	0.244
-310.924	-22.780	-0.133	-0.079
-309.910	-38.615	0.270	0.140
-308.895	-1.446	-0.249	0.173
-307.880	72.704	0.358	0.368
-306.866	-63.443	-0.179	0.073
-305.851	95.738	0.278	-0.313
-304.837	104.787	0.227	0.264
-303.822	379.268	-0.079	0.159
-302.807	-71.208	-0.163	0.060
-301.793	-108.266	-0.099	0.021
-300.778	-200.000	0.007	-0.101
-299.764	800.000	0.013	-0.051
-298.749	800.000	-0.040	-0.118
-297.735	30.097	0.155	0.130
-296.720	-200.000	0.011	0.122
-295.705	-167.973	-0.013	-0.001
-294.691	137.982	-0.175	0.226
-293.676	-134.169	-0.150	0.018
-292.662	-44.395	-0.150	-0.074
-291.647	387.960	-0.044	0.090
-290.632	21.451	0.343	0.275
-289.618	-200.000	0.032	0.202
-288.603	-200.000	-0.018	0.123
-287.589	-46.522	0.126	-0.061
-286.574	800.000	-0.075	0.316
-285.559	800.000	0.106	0.297
-284.545	46.959	-0.290	-0.265
-283.530	121.985	-0.130	0.159
-282.516	390.637	0.106	-0.216
-281.501	-72.574	-0.566	-0.206
-280.486	-17.868	-0.245	-0.151
-279.472	254.129	0.063	0.107
-278.457	-38.438	0.269	-0.140
-277.443	565.250	0.115	-0.273
-276.428	406.699	0.110	-0.229
-275.413	-200.000	0.035	0.228
-274.399	800.000	0.121	0.478
-273.384	-200.000	-0.013	0.245
-272.370	203.308	0.165	-0.251
-271.355	195.910	0.074	-0.111
-270.340	800.000	0.175	0.502
-269.326	-131.269	-0.475	0.062
-268.311	47.690	0.253	0.232
-267.297	358.630	0.119	0.234
-266.282	-92.651	0.157	-0.043
-265.267	-118.251	0.209	-0.037
-264.253	48.924	-0.111	-0.102
-263.238	-125.928	0.107	0.016
-262.224	-54.302	-0.159	-0.071
-261.209	15.207	-0.069	-0.053
-260.195	-13.652	-0.273	-0.174
-259.180	-80.853	0.111	-0.036
-258.165	800.000	0.007	0.028
-257.151	-111.752	-0.013	0.003
-256.136	-147.611	-0.551	-0.046
-255.122	-200.000	0.005	0.089
-254.107	-200.000	0.003	0.078
-253.092	-200.000	-0.082	-0.380
-252.078	-200.000	-0.041	0.337
-251.063	-117.558	0.141	-0.025
-250.049	487.220	-0.069	-0.155
-249.034	42.803	0.291	-0.260
-248.019	-107.246	0.316	-0.068
-247.005	-27.938	0.227	-0.129
-245.990	22.317	0.049	0.039
-244.976	6.248	0.134	-0.098
-243.961	-150.664	0.135	0.010
-242.946	-174.048	0.291	-0.008
-241.932	-120.557	0.233	-0.039
-240.917	12.276	0.125	-0.095
-239.903	-162.952	-0.215	0.010
-238.888	274.274	0.029	-0.050
-237.873	216.824	-0.194	-0.304
-236.859	-1.532	0.172	0.119
-235.844	-172.646	0.333	0.010
-234.830	171.524	0.138	-0.195
-233.815	-11.823	-0.126	-0.081
-232.800	52.748	0.237	0.223
-231.786	241.355	0.127	-0.208
-230.771	24.473	0.058	-0.047
-229.757	-200.000	0.037	0.318
-228.742	-200.000	0.061	-0.425
-227.727	206.500	0.034	0.052
-226.713	-59.848	0.422	0.177
-225.698	-155.798	0.208	-0.013
-224.684	-200.000	0.009	-0.039
-223.669	108.525	0.298	-0.349
-222.655	118.233	-0.040	0.049
-221.640	-200.000	-0.001	0.254
-220.625	132.992	-0.146	0.184
-219.611	-9.587	-0.101	0.066
-218.596	543.245	-0.058	0.135
-217.582	-110.222	-0.150	-0.031
-216.567	-200.000	0.026	-0.183
-215.552	35.609	-0.102	-0.087
-214.538	78.780	0.136	0.143
-213.523	-107.404	-0.209	-0.045
-212.509	172.974	0.279	0.394
-211.494	14.049	-0.248	-0.189
-210.479	-62.090	-0.312	-0.128
-209.465	9.253	0.237	0.175
-208.450	66.946	-0.126	0.126
-207.436	-200.000	-0.004	0.219
-206.421	92.812	0.223	-0.246
-205.406	-128.153	0.303	-0.043
-204.392	53.728	0.109	-0.103
-203.377	-83.431	0.211	-0.066
-202.363	168.528	-0.168	0.234
-201.348	-200.000	-0.045	-0.213
-200.333	-200.000	0.002	-0.182
-199.319	-172.358	0.151	-0.005
-198.304	800.000	0.052	0.143
-197.290	573.514	-0.091	0.217
-196.275	8.384	-0.187	-0.138
-195.260	59.707	-0.026	-0.025
-194.246	-34.321	-0.150	-0.080
-193.231	800.000	0.027	-0.086
-192.217	-200.000	-0.003	-0.089
-191.202	-200.000	0.025	0.350
-190.187	-200.000	-0.012	0.387
-189.173	-54.184	0.402	-0.179
-188.158	54.090	-0.062	0.058
-187.144	-150.974	0.106	-0.008
-186.129	800.000	-0.047	0.128
-185.114	292.688	0.228	-0.408
-184.100	612.698	-0.146	0.357
-183.085	257.307	0.245	0.412
-182.071	-200.000	-0.024	0.138
-181.056	-200.000	-0.001	-0.064
-180.042	800.000	0.105	0.397
-179.027	-38.540	0.386	-0.200
-178.012	-200.000	0.038	-0.214
-176.998	-6.489	0.324	0.216
-175.983	27.711	-0.196	0.162
-174.969	-78.714	-0.235	0.078
-173.954	-61.669	0.170	0.070
-172.939	-21.369	0.248	0.149
-171.925	-38.884	0.250	0.129
-170.910	103.496	-0.277	0.319
-169.896	107.100	0.106	-0.123
-168.881	66.035	0.081	-0.081
-167.866	10.502	-0.095	-0.071
-166.852	-16.856	0.099	-0.061
-165.837	-84.249	-0.311	-0.096
-164.823	-73.599	0.587	0.209
-163.808	157.726	0.032	-0.043
-162.793	-200.000	0.018	-0.193
-161.779	-200.000	-0.010	0.176
-160.764	539.553	0.077	-0.178
-159.750	51.971	0.144	-0.135
-158.735	53.101	0.210	0.197
-157.720	736.666	-0.032	0.084
-156.706	-93.978	0.494	-0.133
-155.691	-200.000	0.000	0.196
-154.677	12.496	0.214	0.161
-153.662	-74.206	0.276	0.098
-152.647	470.649	-0.166	0.365
-151.633	-43.894	-0.094	-0.046
-150.618	800.000	-0.022	0.073
-149.604	66.675	-0.128	0.128
-148.589	-108.263	-0.190	0.040
-147.574	512.098	-0.070	0.159
-146.560	14.559	-0.218	0.166
-145.545	800.000	-0.096	-0.373
-144.531	-9.279	-0.338	0.221
-143.516	303.661	-0.089	-0.161
-142.502	-3.880	0.240	0.163
-141.487	7.772	-0.347	0.254
-140.472	325.248	0.169	0.316
-139.458	49.717	-0.129	-0.119
-138.443	223.519	0.157	-0.248
-137.429	612.125	0.054	-0.133
-136.414	-200.000	0.032	-0.251
-135.399	-135.907	-0.159	0.018
-134.385	248.465	0.112	0.185
-133.370	-104.490	-0.214	-0.048
-132.356	0.377	-0.223	-0.156
-131.341	-28.556	-0.104	-0.059
-130.326	152.513	0.305	-0.407
-129.312	-200.000	-0.027	-0.158
-128.297	330.977	-0.112	-0.210
-127.283	6.436	0.231	0.167
-126.268	-200.000	-0.002	0.180
-125.253	-57.261	-0.379	0.163
-124.239	-12.048	0.285	0.183
-123.224	-123.146	-0.167	-0.026
-122.210	640.271	-0.043	-0.106
