DTS Sentinel unit serial number:	SN413079Multiplexer serial number:	ORYXHardware model number:	OX4-SRSoftware version number:	ORYX F/W v4.00 Oryx Data Collector v3.7.2.0data status	okinstallation	princeton_trtdifferential loss correction	single-endedforward channel	channel 1reverse channel	N/Adate	2019/09/13time	11:22:35forward acquisition time	60.00reverse acquisition time	0.00gamma	496.2192k internal	0.2316k external	0.2316temperature offset calibration	1.0150default loss term (dB/km)	0.3790temperature slope calibration	1.0000multiplexer offset coefficient	1.0000multiplexer slope coefficient	1.0000fibre end	0.00T internal ref (°C)	32.50T ext. ref 1 (°C)	4.39T ext. ref 2 (°C)	29.64length (m)	temperature (°C)	Stokes	anti-Stokes-747.200	59.374	0.041	0.041
-746.185	-82.594	0.207	-0.068
-745.171	-135.759	0.111	0.013
-744.156	800.000	0.061	0.204
-743.142	-128.934	-0.199	0.028
-742.127	59.488	-0.209	0.209
-741.112	-200.000	-0.023	0.320
-740.098	13.099	-0.015	-0.011
-739.083	-121.481	0.345	-0.058
-738.069	68.930	0.185	0.193
-737.054	474.496	-0.124	-0.284
-736.039	-96.042	-0.242	-0.065
-735.025	-135.894	0.181	0.022
-734.010	29.502	-0.286	-0.246
-732.996	-7.702	-0.074	0.050
-731.981	-33.509	0.180	0.101
-730.966	28.355	-0.175	-0.150
-729.952	-88.099	-0.386	0.117
-728.937	64.120	-0.051	0.052
-727.923	-200.000	-0.010	0.109
-726.908	-77.907	0.144	0.050
-725.894	-90.896	0.263	-0.077
-724.879	71.672	-0.124	0.131
-723.864	-67.747	0.228	-0.090
-722.850	-146.252	-0.454	0.040
-721.835	6.131	0.087	-0.065
-720.821	-76.888	0.075	-0.026
-719.806	-200.000	0.004	-0.297
-718.791	-107.887	-0.322	-0.071
-717.777	154.250	-0.154	0.213
-716.762	-200.000	0.026	0.147
-715.748	-200.000	-0.004	-0.117
-714.733	568.288	0.028	0.069
-713.718	324.032	0.118	0.228
-712.704	800.000	0.052	0.177
-711.689	-200.000	-0.002	0.117
-710.675	222.602	-0.152	-0.248
-709.660	1.419	0.221	-0.160
-708.645	-19.789	-0.159	0.099
-707.631	-143.974	-0.195	0.019
-706.616	800.000	0.063	-0.197
-705.602	377.790	0.154	-0.319
-704.587	457.206	0.072	-0.161
-703.572	-152.289	-0.173	0.013
-702.558	230.355	0.238	0.394
-701.543	-142.438	0.137	0.014
-700.529	-200.000	-0.032	-0.203
-699.514	343.144	-0.034	-0.067
-698.499	48.800	-0.342	-0.325
-697.485	69.293	0.030	-0.031
-696.470	-33.036	-0.160	-0.090
-695.456	-27.095	0.255	-0.151
-694.441	-128.817	-0.077	-0.011
-693.426	-64.305	0.280	0.115
-692.412	289.747	-0.062	0.113
-691.397	77.551	-0.181	-0.195
-690.383	-79.207	-0.253	-0.087
-689.368	185.477	0.179	-0.269
-688.354	-200.000	0.005	0.060
-687.339	611.455	0.044	0.111
-686.324	306.575	0.068	-0.128
-685.310	10.381	-0.223	0.172
-684.295	19.200	-0.165	-0.134
-683.281	131.157	-0.093	0.120
-682.266	-200.000	-0.021	0.149
-681.251	265.564	0.100	0.176
-680.237	122.574	0.240	0.304
-679.222	-150.398	-0.067	-0.005
-678.208	-116.181	-0.158	0.030
-677.193	665.002	0.023	-0.061
-676.178	-200.000	-0.034	0.161
-675.164	204.718	-0.078	0.122
-674.149	-83.080	0.096	0.031
-673.135	-200.000	0.020	0.143
-672.120	567.710	0.150	0.368
-671.105	800.000	0.095	-0.298
-670.091	333.870	0.086	0.167
-669.076	-6.885	0.252	0.173
-668.062	-200.000	-0.027	-0.148
-667.047	48.475	-0.317	-0.299
-666.032	156.327	0.116	0.162
-665.018	114.175	0.126	0.155
-664.003	-185.035	-0.266	0.004
-662.989	9.957	0.126	0.097
-661.974	102.063	-0.302	0.356
-660.959	-178.283	0.307	-0.007
-659.945	-73.528	0.207	0.076
-658.930	530.820	-0.088	0.209
-657.916	-2.867	0.247	0.174
-656.901	150.625	0.101	-0.138
-655.886	-200.000	-0.004	-0.298
-654.872	49.937	-0.100	0.095
-653.857	-16.484	-0.094	0.060
-652.843	373.663	-0.127	-0.260
-651.828	128.095	-0.167	-0.215
-650.814	-200.000	-0.089	-0.413
-649.799	543.852	-0.128	-0.309
-648.784	16.146	-0.112	0.089
-647.770	-28.396	-0.162	0.095
-646.755	-16.470	0.062	-0.040
-645.741	-112.861	0.190	0.038
-644.726	-87.579	-0.398	0.121
-643.711	-44.243	-0.085	0.043
-642.697	347.385	-0.085	0.169
-641.682	-61.307	-0.132	0.056
-640.668	-200.000	-0.021	-0.120
-639.653	-131.973	-0.266	0.035
-638.638	193.894	0.115	-0.175
-637.624	-6.583	-0.100	0.069
-636.609	26.508	0.235	-0.198
-635.595	800.000	-0.152	-0.502
-634.580	338.523	-0.132	-0.259
-633.565	-18.016	0.158	-0.100
-632.551	-200.000	-0.036	-0.280
-631.536	220.469	-0.128	0.207
-630.522	-66.847	-0.102	0.041
-629.507	266.217	-0.202	0.356
-628.492	47.206	0.143	0.134
-627.478	-107.349	0.135	-0.030
-626.463	-84.748	0.338	-0.107
-625.449	-30.406	-0.241	-0.138
-624.434	-73.193	0.340	-0.126
-623.419	65.859	-0.191	0.195
-622.405	282.566	-0.069	0.126
-621.390	332.478	-0.029	-0.057
-620.376	800.000	-0.073	-0.277
-619.361	116.441	-0.026	-0.032
-618.346	-56.890	-0.385	-0.172
-617.332	653.544	-0.085	0.219
-616.317	-65.000	0.065	0.026
-615.303	675.717	-0.079	0.207
-614.288	-95.152	0.230	0.063
-613.273	-98.672	0.159	0.041
-612.259	-200.000	0.010	-0.468
-611.244	-42.329	-0.227	-0.117
-610.230	-23.043	0.110	-0.067
-609.215	-14.143	-0.031	-0.020
-608.201	482.688	0.095	-0.218
-607.186	800.000	0.054	-0.181
-606.171	30.181	-0.149	0.128
-605.157	282.299	0.199	0.360
-604.142	26.800	-0.106	-0.089
-603.128	92.083	-0.296	0.336
-602.113	508.947	0.089	0.209
-601.098	188.944	-0.079	0.119
-600.084	800.000	-0.056	0.167
-599.069	-87.311	-0.189	0.058
-598.055	-158.387	0.074	-0.004
-597.040	-33.749	0.064	0.036
-596.025	-86.935	0.329	-0.101
-595.011	800.000	0.025	0.107
-593.996	-103.925	0.092	-0.022
-592.982	36.398	-0.123	0.109
-591.967	-166.536	0.212	0.009
-590.952	33.283	-0.208	-0.181
-589.938	-48.293	-0.482	0.234
-588.923	26.309	0.015	-0.013
-587.909	800.000	0.007	0.029
-586.894	196.998	0.124	0.191
-585.879	-130.599	-0.048	0.007
-584.865	86.000	0.098	0.109
-583.850	-200.000	-0.007	0.039
-582.836	-30.944	-0.212	0.121
-581.821	-102.733	0.181	0.044
-580.806	-200.000	-0.038	0.233
-579.792	-200.000	0.013	0.295
-578.777	54.029	0.094	0.091
-577.763	107.209	-0.144	-0.172
-576.748	109.874	-0.183	-0.220
-575.733	146.380	-0.082	0.110
-574.719	-200.000	-0.002	0.207
-573.704	123.579	0.055	0.070
-572.690	-200.000	-0.004	0.099
-571.675	210.931	0.061	-0.096
-570.661	366.663	-0.046	0.094
-569.646	45.757	-0.245	0.227
-568.631	-72.027	0.150	-0.056
-567.617	-200.000	-0.004	-0.105
-566.602	-200.000	-0.012	-0.163
-565.588	-50.394	0.244	-0.116
-564.573	-103.247	0.105	0.025
-563.558	647.745	0.041	-0.105
-562.544	-52.447	-0.157	0.073
-561.529	800.000	-0.050	0.147
-560.515	-53.785	-0.368	-0.169
-559.500	91.861	-0.043	-0.048
-558.485	-55.286	-0.298	-0.135
-557.471	292.343	-0.069	-0.126
-556.456	13.110	0.508	0.396
-555.442	-99.502	0.282	-0.071
-554.427	-37.854	-0.118	-0.063
-553.412	-174.843	0.226	0.006
-552.398	45.388	0.342	0.317
-551.383	-84.642	0.241	-0.076
-550.369	-98.260	-0.224	0.058
-549.354	-200.000	-0.024	0.167
-548.339	-111.495	0.210	0.043
-547.325	14.021	0.134	0.105
-546.310	20.000	-0.093	-0.075
-545.296	18.003	0.024	0.020
-544.281	800.000	-0.062	0.221
-543.266	77.392	-0.223	-0.238
-542.252	-200.000	0.075	-0.440
-541.237	-200.000	-0.022	-0.304
-540.223	-69.345	0.380	-0.147
-539.208	21.339	0.050	-0.041
-538.193	-115.306	-0.064	0.012
-537.179	-100.421	-0.177	0.044
-536.164	-51.883	0.107	-0.050
-535.150	250.423	-0.025	0.043
-534.135	-200.000	0.025	0.344
-533.121	-200.000	0.004	0.130
-532.106	-200.000	0.018	-0.217
-531.091	43.821	-0.050	0.046
-530.077	-200.000	-0.035	0.187
-529.062	-152.556	0.033	0.002
-528.048	173.495	0.269	-0.389
-527.033	-48.077	0.404	-0.196
-526.018	-103.394	0.096	-0.023
-525.004	204.633	-0.175	0.272
-523.989	-136.300	-0.073	0.009
-522.975	-200.000	-0.003	0.208
-521.960	226.202	-0.036	0.058
-520.945	16.897	-0.163	0.129
-519.931	24.047	-0.137	0.114
-518.916	-3.544	0.209	0.146
-517.902	77.556	-0.087	-0.094
-516.887	-51.426	-0.235	-0.110
-515.872	800.000	0.091	0.346
-514.858	-67.875	0.364	-0.143
-513.843	-200.000	-0.024	-0.131
-512.829	-153.507	-0.246	-0.017
-511.814	118.074	-0.223	-0.275
-510.799	-142.064	-0.442	0.044
-509.785	800.000	-0.049	0.169
-508.770	728.493	0.041	-0.109
-507.756	800.000	0.053	-0.213
-506.741	-159.129	-0.126	-0.007
-505.726	8.811	-0.175	-0.133
-504.712	-77.748	-0.170	-0.059
-503.697	0.370	0.249	-0.178
-502.683	195.863	-0.213	-0.325
-501.668	800.000	0.038	-0.136
-500.653	-200.000	-0.007	0.044
-499.639	-50.083	0.261	-0.124
-498.624	-154.543	0.208	-0.014
-497.610	-200.000	-0.041	-0.449
-496.595	60.871	0.084	-0.083
-495.581	129.120	0.220	-0.281
-494.566	-94.793	0.256	0.070
-493.551	-37.469	-0.208	0.111
-492.537	376.851	0.109	0.223
-491.522	273.133	-0.103	-0.183
-490.508	-104.891	0.086	0.020
-489.493	73.136	0.082	-0.086
-488.478	495.109	-0.050	0.116
-487.464	-20.993	-0.080	0.049
-486.449	234.156	-0.106	-0.175
-485.435	40.242	0.328	-0.296
-484.420	-200.000	0.039	-0.257
-483.405	36.653	-0.180	-0.159
-482.391	800.000	0.030	-0.083
-481.376	-116.900	-0.094	-0.017
-480.362	-19.226	0.078	-0.048
-479.347	-97.632	0.177	-0.046
-478.332	800.000	0.083	-0.257
-477.318	-74.740	-0.148	0.053
-476.303	-187.227	-0.131	0.002
-475.289	107.210	0.283	0.337
-474.274	-112.235	0.225	0.045
-473.259	244.680	-0.110	-0.185
-472.245	-200.000	-0.012	-0.190
-471.230	42.470	0.231	0.211
-470.216	-200.000	0.014	0.131
-469.201	256.055	-0.040	-0.069
-468.186	800.000	-0.132	-0.389
-467.172	86.035	-0.233	0.257
-466.157	800.000	-0.046	0.154
-465.143	6.258	0.259	-0.192
-464.128	242.861	0.087	0.145
-463.113	35.213	-0.077	-0.068
-462.099	800.000	0.078	-0.226
-461.084	10.663	-0.049	0.037
-460.070	495.635	-0.090	-0.208
-459.055	-200.000	0.028	0.166
-458.040	800.000	-0.041	0.150
-457.026	83.614	-0.125	-0.136
-456.011	-86.643	0.153	0.047
-454.997	-161.549	-0.045	-0.002
-453.982	-45.066	-0.177	0.088
-452.968	-126.426	-0.108	0.016
-451.953	187.730	0.066	0.098
-450.938	141.771	-0.062	0.083
-449.924	198.202	0.106	-0.163
-448.909	399.254	-0.171	-0.359
-447.895	800.000	0.027	-0.100
-446.880	-135.506	-0.394	0.047
-445.865	427.352	-0.072	0.155
-444.851	182.647	-0.058	-0.085
-443.836	-85.468	-0.090	0.028
-442.822	-77.193	-0.302	0.105
-441.807	-200.000	0.056	-0.309
-440.792	-78.873	-0.162	0.055
-439.778	-44.625	0.220	-0.110
-438.763	-152.266	0.128	0.009
-437.749	-200.000	0.073	0.423
-436.734	144.525	-0.036	-0.049
-435.719	2.315	-0.175	0.127
-434.705	-150.486	-0.160	-0.012
-433.690	-200.000	0.012	-0.060
-432.676	25.279	-0.075	0.062
-431.661	277.903	0.094	0.168
-430.646	302.563	-0.058	-0.107
-429.632	-200.000	-0.012	0.123
-428.617	127.387	0.204	0.259
-427.603	373.472	-0.172	0.351
-426.588	-200.000	0.029	-0.191
-425.573	140.185	-0.093	-0.123
-424.559	-114.011	0.317	-0.061
-423.544	-54.792	0.212	0.096
-422.530	361.087	-0.049	-0.099
-421.515	26.402	-0.482	-0.403
-420.500	-49.702	0.213	-0.101
-419.486	-141.389	0.379	0.038
-418.471	-57.213	-0.238	0.105
-417.457	354.238	0.143	0.283
-416.442	-28.913	-0.114	0.066
-415.428	205.853	0.091	0.142
-414.413	-75.097	-0.115	-0.041
-413.398	34.927	0.063	0.055
-412.384	23.335	-0.072	0.059
-411.369	-91.057	-0.143	-0.041
-410.355	290.084	0.105	0.190
-409.340	-125.579	-0.678	0.103
-408.325	-62.023	-0.125	0.052
-407.311	110.418	-0.337	0.405
-406.296	-137.441	0.246	0.028
-405.282	13.646	-0.288	-0.224
-404.267	800.000	0.027	-0.111
-403.252	-80.665	-0.319	0.106
-402.238	-111.534	0.111	-0.023
-401.223	800.000	-0.037	0.104
-400.209	-130.204	-0.191	0.026
-399.194	-87.705	-0.083	-0.025
-398.179	249.961	-0.071	0.121
-397.165	-32.938	-0.304	0.169
-396.150	-31.117	0.174	0.098
-395.136	511.488	0.086	0.201
-394.121	-186.300	0.222	-0.003
-393.106	214.507	0.062	-0.098
-392.092	335.668	0.072	0.140
-391.077	-81.811	0.277	-0.091
-390.063	160.558	0.058	0.081
-389.048	80.596	-0.260	0.280
-388.033	373.146	0.109	-0.221
-387.019	800.000	-0.092	-0.265
-386.004	-88.577	0.192	-0.057
-384.990	-200.000	0.041	0.222
-383.975	461.389	0.205	-0.456
-382.960	30.794	0.169	0.145
-381.946	-4.789	0.190	0.131
-380.931	219.543	0.161	-0.257
-379.917	17.495	0.118	0.093
-378.902	77.688	-0.175	0.186
-377.888	-85.891	-0.182	0.056
-376.873	230.996	0.181	-0.296
-375.858	-120.617	0.057	0.010
-374.844	-58.390	0.167	0.073
-373.829	204.205	0.062	0.096
-372.815	-135.642	-0.411	0.049
-371.800	800.000	0.134	0.423
-370.785	309.451	-0.047	-0.088
-369.771	78.193	-0.155	0.166
-368.756	800.000	0.109	-0.321
-367.742	7.522	0.151	-0.113
-366.727	-42.564	0.169	-0.086
-365.712	-200.000	0.007	0.269
-364.698	-95.217	-0.159	-0.043
-363.683	-200.000	0.025	0.170
-362.669	-55.669	0.168	0.075
-361.654	-200.000	-0.016	-0.133
-360.639	649.868	0.037	-0.095
-359.625	800.000	0.049	-0.183
-358.610	91.909	-0.185	-0.207
-357.596	116.893	-0.152	-0.186
-356.581	110.244	-0.155	-0.186
-355.566	-200.000	-0.003	0.145
-354.552	35.907	0.109	-0.096
-353.537	-49.293	0.065	-0.031
-352.523	-200.000	-0.004	0.111
-351.508	-200.000	0.004	-0.106
-350.493	61.673	0.183	0.182
-349.479	-157.467	0.175	-0.010
-348.464	10.110	-0.131	-0.099
-347.450	15.089	-0.097	-0.076
-346.435	192.482	-0.213	-0.321
-345.420	144.453	0.073	0.097
-344.406	800.000	-0.069	0.251
-343.391	-71.676	0.241	0.090
-342.377	800.000	-0.057	0.171
-341.362	800.000	-0.063	-0.242
-340.348	48.530	-0.215	-0.201
-339.333	-200.000	0.011	-0.245
-338.318	-200.000	-0.020	-0.312
-337.304	-200.000	0.010	-0.240
-336.289	800.000	0.110	0.336
-335.275	-200.000	-0.051	0.237
-334.260	-118.392	-0.278	0.049
-333.245	402.829	0.034	-0.070
-332.231	800.000	-0.046	-0.188
-331.216	-6.248	0.029	-0.019
-330.202	20.863	-0.157	0.127
-329.187	185.765	-0.000	-0.000
-328.172	-47.653	0.315	0.153
-327.158	-140.840	0.108	0.011
-326.143	800.000	-0.029	-0.106
-325.129	5.624	0.213	-0.156
-324.114	153.511	0.078	0.106
-323.099	180.841	0.028	0.042
-322.085	-110.302	0.268	0.056
-321.070	-11.431	0.364	0.238
-320.056	-125.188	0.195	0.030
-319.041	-200.000	-0.009	-0.139
-318.026	-44.976	0.053	-0.026
-317.012	-200.000	0.067	0.494
-315.997	379.290	0.009	-0.018
-314.983	415.877	0.154	-0.327
-313.968	230.443	-0.120	-0.196
-312.953	288.063	-0.108	0.195
-311.939	-99.768	0.238	0.059
-310.924	55.567	-0.061	0.059
-309.910	-18.565	-0.112	0.070
-308.895	-66.946	-0.094	-0.037
-307.880	460.468	0.034	0.076
-306.866	-48.292	0.175	-0.084
-305.851	338.135	0.080	0.154
-304.837	-151.072	0.182	-0.014
-303.822	-75.983	-0.044	0.016
-302.807	-200.000	-0.003	-0.355
-301.793	800.000	-0.064	-0.254
-300.778	15.711	-0.128	-0.100
-299.764	-200.000	0.017	-0.305
-298.749	58.848	0.196	0.192
-297.735	424.552	0.252	0.540
-296.720	-69.287	0.099	0.038
-295.705	68.126	-0.336	0.343
-294.691	17.816	0.275	0.218
-293.676	4.171	-0.152	0.111
-292.662	-200.000	-0.007	-0.264
-291.647	800.000	-0.048	0.150
-290.632	-200.000	-0.156	-0.000
-289.618	-80.866	0.496	0.164
-288.603	158.209	-0.094	0.130
-287.589	-200.000	-0.042	0.258
-286.574	10.281	0.045	-0.034
-285.559	-17.671	-0.073	0.046
-284.545	-71.389	0.075	0.028
-283.530	-200.000	0.032	0.344
-282.516	-35.191	0.122	-0.066
-281.501	-59.536	0.331	0.141
-280.486	298.730	0.133	0.244
-279.472	-177.076	0.197	0.005
-278.457	-25.423	0.084	-0.049
-277.443	-35.803	-0.140	-0.075
-276.428	251.214	-0.020	0.033
-275.413	800.000	0.088	0.365
-274.399	-91.171	0.279	0.080
-273.384	22.599	-0.256	-0.208
-272.370	36.341	-0.181	-0.159
-271.355	17.062	-0.321	-0.253
-270.340	-77.955	0.576	-0.197
-269.326	-11.718	-0.077	0.050
-268.311	800.000	0.069	0.274
-267.297	-80.529	-0.157	-0.052
-266.282	-111.598	-0.109	0.022
-265.267	-7.607	-0.468	-0.314
-264.253	-47.841	-0.112	-0.054
-263.238	-28.229	-0.339	-0.194
-262.224	-78.849	-0.207	-0.070
-261.209	105.875	0.083	0.097
-260.195	-200.000	0.027	0.142
-259.180	-120.892	0.116	-0.019
-258.165	128.560	0.075	-0.095
-257.151	631.267	0.042	-0.107
-256.136	-127.116	-0.168	0.024
-255.122	238.437	0.214	-0.353
-254.107	-86.123	-0.065	0.020
-253.092	-83.307	-0.341	0.109
-252.078	-200.000	-0.021	0.278
-251.063	-136.413	0.302	0.035
-250.049	800.000	-0.044	-0.173
-249.034	-200.000	0.012	-0.159
-248.019	82.174	0.076	-0.082
-247.005	-153.599	-0.180	-0.012
-245.990	58.196	0.058	-0.057
-244.976	25.487	-0.199	-0.165
-243.961	800.000	0.099	-0.333
-242.946	98.343	0.169	0.193
-241.932	-172.735	0.199	-0.006
-240.917	-200.000	-0.007	0.288
-239.903	469.954	0.079	-0.177
-238.888	-200.000	-0.033	-0.245
-237.873	-47.323	0.102	-0.049
-236.859	511.584	-0.029	-0.067
-235.844	-9.649	-0.106	-0.070
-234.830	-200.000	0.067	-0.326
-233.815	2.144	0.050	0.036
-232.800	652.569	-0.185	0.472
-231.786	92.936	0.036	-0.041
-230.771	39.282	0.156	0.138
-229.757	21.212	0.105	0.084
-228.742	800.000	-0.081	0.347
-227.727	494.813	0.037	0.084
-226.713	65.859	-0.137	0.137
-225.698	-98.930	-0.189	-0.048
-224.684	68.800	0.127	-0.129
-223.669	-200.000	0.008	0.104
-222.655	37.600	0.388	0.342
-221.640	127.377	-0.184	0.231
-220.625	-200.000	-0.034	-0.305
-219.611	542.121	0.149	-0.351
-218.596	-200.000	0.015	0.105
-217.582	-119.750	-0.145	0.025
-216.567	141.380	-0.039	-0.052
-215.552	-60.457	-0.109	0.046
-214.538	800.000	0.123	0.371
-213.523	-200.000	-0.021	-0.100
-212.509	-72.886	0.205	0.075
-211.494	800.000	-0.072	-0.258
-210.479	-56.215	0.217	-0.096
-209.465	-200.000	0.019	-0.162
-208.450	-200.000	0.004	-0.301
-207.436	-139.080	-0.513	-0.055
-206.421	15.633	0.098	-0.076
-205.406	258.142	0.145	0.248
-204.392	95.297	0.099	-0.112
-203.377	800.000	-0.077	-0.212
-202.363	25.380	0.285	-0.235
-201.348	82.979	0.134	-0.144
-200.333	-53.874	-0.096	0.044
-199.319	-200.000	-0.004	0.149
-198.304	800.000	-0.037	0.109
-197.290	-105.776	0.539	0.121
-196.275	-200.000	0.009	-0.042
-195.260	150.963	0.225	0.303
-194.246	-55.779	0.229	-0.102
-193.231	-200.000	0.021	-0.423
-192.217	-22.499	-0.155	-0.093
-191.202	800.000	0.010	-0.033
-190.187	246.330	0.116	-0.194
-189.173	-200.000	-0.012	0.104
-188.158	-76.852	0.045	0.016
-187.144	-123.578	-0.241	-0.038
-186.129	-0.034	-0.347	-0.245
-185.114	800.000	0.023	-0.071
-184.100	107.500	-0.228	-0.269
-183.085	-69.528	-0.236	-0.090
-182.071	-158.497	0.267	-0.015
-181.056	-109.027	-0.226	-0.048
-180.042	138.732	0.124	0.162
-179.027	-18.729	-0.196	0.121
-178.012	292.528	0.078	0.142
-176.998	113.710	0.172	0.208
-175.983	-105.091	-0.225	0.051
-174.969	15.124	-0.292	0.227
-173.954	-65.198	0.134	0.053
-172.939	-200.000	-0.012	-0.111
-171.925	-116.245	0.150	0.028
-170.910	-101.138	-0.155	0.037
-169.896	-102.361	0.178	-0.042
-168.881	155.703	-0.119	-0.162
-167.866	-31.504	0.295	0.164
-166.852	800.000	-0.067	0.201
-165.837	617.798	-0.149	0.370
-164.823	-200.000	0.009	0.101
-163.808	-133.462	-0.315	-0.039
-162.793	-67.970	0.224	0.087
-161.779	47.561	0.155	0.143
-160.764	800.000	0.055	0.213
-159.750	-200.000	0.053	-0.251
-158.735	217.492	0.050	-0.079
-157.720	800.000	-0.030	0.125
-156.706	-162.421	-0.195	0.010
-155.691	-200.000	-0.006	0.198
-154.677	0.963	-0.137	-0.097
-153.662	454.171	0.053	-0.116
-152.647	-16.165	-0.128	0.081
-151.633	112.597	0.026	0.032
-150.618	-70.390	0.221	0.083
-149.604	544.977	0.124	-0.292
-148.589	150.271	0.141	-0.189
-147.574	94.656	-0.223	0.251
-146.560	154.898	0.179	-0.243
-145.545	-73.790	0.440	0.158
-144.531	-54.862	0.079	-0.035
-143.516	753.672	-0.023	0.063
-142.502	-12.129	-0.057	0.037
-141.487	327.712	-0.055	-0.104
-140.472	123.219	0.256	0.317
-139.458	205.762	-0.071	0.109
-138.443	-200.000	-0.015	0.091
-137.429	-90.701	0.082	0.023
-136.414	35.701	0.225	0.196
-135.399	132.302	0.191	-0.243
-134.385	777.782	-0.067	0.181
-133.370	800.000	-0.058	-0.213
-132.356	-32.522	0.081	0.045
-131.341	6.036	-0.181	-0.133
-130.326	61.963	-0.110	0.108
-129.312	245.106	-0.144	-0.239
-128.297	73.290	0.162	0.167
-127.283	649.292	-0.104	0.263
-126.268	128.921	0.238	-0.300
-125.253	5.842	-0.211	-0.154
-124.239	-162.744	-0.327	0.016
-123.224	224.726	0.062	0.099
-122.210	86.821	0.097	0.106
-121.195	-129.027	0.221	0.031
-120.180	167.753	-0.202	0.284
-119.166	-115.502	0.327	-0.061
