DTS Sentinel unit serial number:	SN413079Multiplexer serial number:	ORYXHardware model number:	OX4-SRSoftware version number:	ORYX F/W v4.00 Oryx Data Collector v3.7.2.0data status	okinstallation	princeton_trtdifferential loss correction	single-endedforward channel	channel 1reverse channel	N/Adate	2019/09/12time	19:53:34forward acquisition time	15.00reverse acquisition time	0.00gamma	496.2192k internal	0.2324k external	0.2324temperature offset calibration	1.0139default loss term (dB/km)	0.3790temperature slope calibration	1.0000multiplexer offset coefficient	1.0000multiplexer slope coefficient	1.0000fibre end	0.00T internal ref (°C)	31.87T ext. ref 1 (°C)	3.45T ext. ref 2 (°C)	26.44length (m)	temperature (°C)	Stokes	anti-Stokes-747.200	-138.414	0.448	-0.050
-746.185	-200.000	0.056	0.467
-745.171	470.671	-0.321	0.728
-744.156	-115.456	0.797	-0.152
-743.142	-63.478	-0.526	-0.218
-742.127	-2.114	0.368	0.261
-741.112	404.845	0.125	0.266
-740.098	774.066	0.160	-0.441
-739.083	800.000	0.198	0.630
-738.069	-74.949	0.376	0.136
-737.054	800.000	-0.024	-0.089
-736.039	-1.045	0.614	0.438
-735.025	414.065	0.356	0.764
-734.010	-200.000	-0.018	0.376
-732.996	-200.000	0.083	-0.464
-731.981	58.194	-0.421	-0.417
-730.966	-114.478	0.480	-0.093
-729.952	3.401	0.373	0.274
-728.937	10.993	-0.421	-0.325
-727.923	362.693	0.202	-0.409
-726.908	-119.972	-0.380	-0.066
-725.894	-200.000	-0.041	0.266
-724.879	357.443	-0.122	0.246
-723.864	-141.115	0.515	0.053
-722.850	-144.180	-0.795	0.075
-721.835	-200.000	0.108	0.487
-720.821	-186.978	0.166	0.002
-719.806	-74.277	0.233	-0.085
-718.791	-53.425	0.338	-0.156
-717.777	-200.000	0.052	-0.238
-716.762	-102.433	0.429	-0.104
-715.748	-113.676	-0.881	0.173
-714.733	57.223	0.611	-0.601
-713.718	-21.963	-0.287	0.176
-712.704	-75.279	0.465	0.167
-711.689	65.925	-0.418	-0.427
-710.675	-28.888	-0.480	0.278
-709.660	800.000	-0.090	-0.344
-708.645	0.508	0.802	-0.578
-707.631	800.000	-0.130	0.424
-706.616	-200.000	-0.200	1.252
-705.602	-200.000	-0.091	0.806
-704.587	-98.170	-0.425	0.110
-703.572	-200.000	0.232	-1.069
-702.558	-10.288	0.431	-0.288
-701.543	-96.020	0.312	-0.084
-700.529	-200.000	-0.045	-0.235
-699.514	69.104	-0.642	-0.665
-698.499	-92.809	-1.243	-0.350
-697.485	111.559	-0.330	-0.401
-696.470	26.424	-0.816	-0.687
-695.456	-93.080	-0.626	-0.176
-694.441	63.913	-0.587	-0.594
-693.426	55.018	-0.312	-0.303
-692.412	800.000	0.031	0.125
-691.397	91.312	0.322	0.364
-690.383	-90.757	0.317	0.092
-689.368	-133.427	0.475	-0.060
-688.354	195.912	0.301	-0.462
-687.339	-200.000	0.071	-0.416
-686.324	25.071	0.466	0.389
-685.310	-200.000	-0.938	0.004
-684.295	800.000	-0.312	1.125
-683.281	62.523	0.415	0.417
-682.266	310.168	-0.126	0.238
-681.251	-69.287	-0.500	0.194
-680.237	-20.185	-0.673	0.418
-679.222	-77.212	-0.497	0.174
-678.208	125.066	0.393	-0.499
-677.193	-200.000	-0.021	0.455
-676.178	-119.153	-0.559	-0.098
-675.164	41.257	-0.151	-0.138
-674.149	49.097	0.384	0.363
-673.135	-27.081	0.722	-0.424
-672.120	800.000	-0.232	-0.872
-671.105	366.184	-0.066	-0.134
-670.091	-34.539	0.454	-0.250
-669.076	-60.777	-0.303	-0.129
-668.062	264.997	-0.069	-0.122
-667.047	800.000	0.036	0.123
-666.032	-1.055	-0.040	0.028
-665.018	471.811	-0.321	0.728
-664.003	8.915	-0.210	0.160
-662.989	800.000	0.141	-0.542
-661.974	-0.966	0.393	-0.280
-660.959	-34.166	0.160	0.088
-659.945	-200.000	0.023	0.614
-658.930	-91.517	0.646	-0.186
-657.916	-68.645	0.253	-0.099
-656.901	778.229	-0.258	-0.708
-655.886	111.402	-0.296	-0.359
-654.872	13.920	0.432	0.338
-653.857	216.105	0.309	0.494
-652.843	-5.441	-0.397	0.274
-651.828	-34.816	-0.944	0.519
-650.814	-200.000	-0.065	-0.743
-649.799	-79.096	-0.051	-0.017
-648.784	751.834	-0.150	-0.409
-647.770	7.671	-0.321	-0.241
-646.755	800.000	-0.130	0.506
-645.741	685.787	-0.183	-0.480
-644.726	395.013	0.148	0.310
-643.711	-170.393	-0.381	-0.013
-642.697	-109.363	0.403	0.086
-641.682	386.004	0.202	-0.419
-640.668	-63.891	0.065	0.027
-639.653	-156.807	-0.604	-0.037
-638.638	-110.194	0.581	-0.122
-637.624	-99.261	0.303	0.077
-636.609	29.722	-0.627	0.537
-635.595	237.402	0.367	0.612
-634.580	-22.973	-0.467	0.283
-633.565	-64.983	-0.098	0.040
-632.551	-78.076	-0.393	-0.136
-631.536	40.958	-0.459	0.417
-630.522	-77.914	-0.702	0.244
-629.507	-147.051	0.350	0.030
-628.492	32.546	0.448	0.389
-627.478	-112.761	0.673	-0.134
-626.463	95.411	0.174	-0.200
-625.449	-42.282	-0.781	-0.401
-624.434	-200.000	-0.067	0.441
-623.419	14.700	-0.888	-0.697
-622.405	403.199	-0.253	-0.535
-621.390	64.340	-0.474	0.479
-620.376	-46.386	1.420	-0.701
-619.361	800.000	0.175	-0.487
-618.346	235.484	0.281	0.467
-617.332	516.067	-0.406	0.952
-616.317	47.051	-0.451	0.422
-615.303	-128.920	-0.405	0.057
-614.288	-83.877	0.494	-0.158
-613.273	-10.676	0.613	-0.408
-612.259	123.518	-0.163	0.205
-611.244	-44.678	0.752	-0.377
-610.230	-41.015	-0.587	0.305
-609.215	208.944	-0.101	-0.158
-608.201	0.450	-0.658	-0.472
-607.186	-5.774	0.230	0.158
-606.171	-200.000	0.077	-0.388
-605.157	-11.317	-0.143	0.094
-604.142	-50.716	0.718	-0.340
-603.128	-200.000	-0.089	-0.553
-602.113	-200.000	-0.005	-0.618
-601.098	-200.000	-0.047	-0.423
-600.084	-200.000	0.071	-0.415
-599.069	153.934	-0.519	0.714
-598.055	716.760	0.158	0.421
-597.040	-102.096	-1.379	-0.333
-596.025	38.719	-0.655	-0.587
-595.011	-200.000	0.045	0.486
-593.996	-119.137	-0.763	0.134
-592.982	99.157	-0.262	-0.304
-591.967	47.950	0.142	-0.133
-590.952	377.760	0.114	0.235
-589.938	-52.298	-0.102	-0.048
-588.923	-26.625	-0.674	-0.396
-587.909	-169.720	0.173	-0.006
-586.894	-88.798	0.459	0.137
-585.879	-128.323	-0.041	0.006
-584.865	119.238	0.367	-0.456
-583.850	149.871	-0.132	-0.179
-582.836	-34.379	0.483	0.266
-581.821	315.050	-0.615	-1.162
-580.806	-65.845	0.520	-0.209
-579.792	-36.576	0.677	0.365
-578.777	800.000	0.032	-0.103
-577.763	-88.621	0.787	0.235
-576.748	412.917	-0.266	0.568
-575.733	-200.000	0.045	-0.339
-574.719	-45.334	-0.373	0.185
-573.704	268.460	-0.434	-0.763
-572.690	-92.098	-0.398	-0.113
-571.675	-35.519	0.749	0.408
-570.661	102.897	-0.782	-0.919
-569.646	-200.000	-0.005	0.150
-568.631	534.781	0.152	-0.361
-567.617	-143.462	0.366	0.035
-566.602	787.658	-0.169	0.464
-565.588	644.034	-0.014	0.037
-564.573	-4.071	0.346	-0.241
-563.558	501.736	-0.208	-0.482
-562.544	-136.009	-0.593	0.070
-561.529	-81.878	-0.364	-0.119
-560.515	-200.000	-0.020	0.676
-559.500	27.170	0.244	-0.206
-558.485	-17.112	0.217	-0.137
-557.471	161.837	0.085	-0.119
-556.456	-200.000	0.054	-0.724
-555.442	1.076	-0.852	-0.613
-554.427	405.826	0.326	-0.690
-553.412	207.303	-0.286	-0.447
-552.398	7.707	0.155	0.116
-551.383	-116.199	1.026	0.191
-550.369	-200.000	-0.062	-0.539
-549.354	736.094	-0.256	0.687
-548.339	150.738	0.365	0.497
-547.325	-200.000	0.103	-0.564
-546.310	-119.655	0.425	-0.074
-545.296	-200.000	0.027	-0.130
-544.281	800.000	0.021	0.075
-543.266	3.456	0.340	-0.248
-542.252	-13.800	-0.615	-0.398
-541.237	48.200	-0.631	-0.591
-540.223	-70.242	-0.308	0.117
-539.208	75.245	-0.700	-0.739
-538.193	-26.540	0.361	-0.212
-537.179	51.460	0.225	-0.214
-536.164	433.957	0.171	0.373
-535.150	302.872	-0.143	0.264
-534.135	51.234	-0.524	0.498
-533.121	-110.221	-0.135	0.028
-532.106	800.000	0.154	-0.533
-531.091	-200.000	0.094	-0.700
-530.077	-102.551	-1.057	0.253
-529.062	-200.000	0.068	0.577
-528.048	-34.913	-0.555	-0.303
-527.033	36.846	0.617	0.546
-526.018	-18.833	0.394	-0.245
-525.004	800.000	-0.290	-1.027
-523.989	-200.000	-0.020	-0.519
-522.975	121.342	-0.622	0.775
-521.960	-86.427	-0.242	0.074
-520.945	-200.000	-0.065	-0.594
-519.931	-116.230	0.267	0.050
-518.916	20.421	-0.518	0.419
-517.902	-200.000	0.012	-0.368
-516.887	-108.870	-0.228	0.049
-515.872	247.991	-0.040	-0.067
-514.858	800.000	-0.027	0.081
-513.843	-60.457	-0.877	-0.373
-512.829	800.000	-0.130	-0.384
-511.814	-200.000	0.013	-0.483
-510.799	-126.866	1.062	0.157
-509.785	800.000	-0.278	1.114
-508.770	23.146	0.717	0.589
-507.756	91.123	-0.365	0.410
-506.741	-133.362	-0.454	0.057
-505.726	563.542	-0.195	-0.471
-504.712	-3.354	0.742	0.517
-503.697	144.272	0.291	0.389
-502.683	53.358	-0.027	0.026
-501.668	87.384	0.200	-0.222
-500.653	3.126	-0.060	0.043
-499.639	-200.000	0.006	0.163
-498.624	-200.000	-0.019	-0.295
-497.610	160.621	-0.416	0.581
-496.595	-166.474	0.617	-0.026
-495.581	-94.628	-1.127	-0.306
-494.566	-106.359	-0.554	-0.124
-493.551	246.450	0.234	-0.395
-492.537	45.832	-0.274	-0.254
-491.522	96.425	0.550	0.629
-490.508	22.070	-0.676	-0.551
-489.493	154.857	-0.122	0.168
-488.478	40.426	0.560	-0.504
-487.464	-200.000	-0.044	0.793
-486.449	-5.581	0.579	0.397
-485.435	25.326	0.629	-0.522
-484.420	44.245	-0.320	-0.293
-483.405	107.304	-0.011	-0.013
-482.391	-200.000	-0.104	0.872
-481.376	361.403	0.285	0.571
-480.362	652.906	-0.276	-0.708
-479.347	-67.735	-0.724	-0.283
-478.332	-200.000	-0.036	0.349
-477.318	-60.956	-1.101	-0.465
-476.303	-29.002	0.175	-0.101
-475.289	800.000	-0.210	0.790
-474.274	195.143	0.763	1.158
-473.259	-55.725	0.357	-0.160
-472.245	97.282	-0.034	0.038
-471.230	-161.225	0.577	0.030
-470.216	800.000	-0.140	-0.583
-469.201	800.000	0.058	0.200
-468.186	-200.000	0.177	0.790
-467.172	-43.806	-0.202	-0.102
-466.157	-60.136	-1.016	-0.433
-465.143	-35.509	-0.233	0.126
-464.128	-31.478	0.487	-0.273
-463.113	-200.000	-0.109	0.546
-462.099	-94.380	0.368	-0.100
-461.084	800.000	-0.113	-0.460
-460.070	-200.000	-0.100	-0.600
-459.055	-126.896	-0.716	-0.105
-458.040	80.282	0.357	-0.383
-457.026	800.000	-0.203	0.582
-456.011	-183.546	0.142	0.002
-454.997	-200.000	-0.043	-0.430
-453.982	-96.514	0.306	-0.081
-452.968	-58.891	-0.730	0.315
-451.953	-74.624	-0.594	0.213
-450.938	-200.000	0.005	0.783
-449.924	-147.294	-0.691	-0.059
-448.909	48.623	-0.401	-0.375
-447.895	-60.335	0.389	-0.165
-446.880	-0.805	-0.473	0.334
-445.865	-102.098	0.224	-0.054
-444.851	16.470	0.449	0.354
-443.836	-31.410	-0.470	0.264
-442.822	64.487	-0.486	-0.488
-441.807	-135.018	-0.385	0.046
-440.792	75.831	-0.374	-0.394
-439.778	-116.129	-0.419	0.078
-438.763	800.000	-0.057	0.213
-437.749	48.127	-0.739	0.689
-436.734	-107.180	-0.273	-0.060
-435.719	-160.488	0.318	-0.017
-434.705	-42.348	-0.579	0.295
-433.690	-200.000	-0.053	0.306
-432.676	535.316	-0.184	0.436
-431.661	21.051	0.546	0.442
-430.646	800.000	-0.122	0.336
-429.632	131.209	0.190	0.244
-428.617	-177.118	0.368	-0.009
-427.603	463.109	0.130	-0.290
-426.588	-45.611	0.448	0.221
-425.573	545.869	0.268	0.639
-424.559	-200.000	-0.007	-0.422
-423.544	-141.077	0.580	-0.059
-422.530	-200.000	-0.039	-0.583
-421.515	41.020	-0.173	-0.156
-420.500	204.037	0.326	0.504
-419.486	-200.000	-0.012	-0.517
-418.471	12.959	1.006	-0.776
-417.457	-51.369	-0.517	-0.241
-416.442	62.922	0.099	0.099
-415.428	-200.000	0.013	-0.376
-414.413	-107.176	-0.256	0.056
-413.398	-81.097	0.372	-0.123
-412.384	-29.428	0.156	-0.089
-411.369	-38.040	-0.502	0.266
-410.355	25.484	-0.521	-0.432
-409.340	53.979	-0.108	-0.103
-408.325	-200.000	0.105	-0.720
-407.311	276.143	0.022	-0.039
-406.296	43.631	0.621	-0.566
-405.282	134.229	-0.254	-0.329
-404.267	61.219	0.737	0.730
-403.252	29.521	0.339	0.287
-402.238	397.382	0.522	-1.088
-401.223	-66.329	0.347	0.138
-400.209	283.019	-0.186	0.333
-399.194	-34.606	-1.023	0.558
-398.179	-151.219	0.157	-0.012
-397.165	68.941	-0.663	-0.678
-396.150	-129.741	-0.352	0.048
-395.136	-38.146	-0.428	-0.226
-394.121	215.877	-0.318	0.503
-393.106	-56.629	0.783	-0.345
-392.092	-17.211	0.278	-0.175
-391.077	-100.470	-0.445	-0.110
-390.063	9.466	-0.429	0.323
-389.048	800.000	0.112	-0.414
-388.033	800.000	0.284	-0.797
-387.019	515.546	-0.212	-0.494
-386.004	-62.163	-0.739	-0.307
-384.990	269.396	0.235	-0.411
-383.975	-143.803	-0.210	-0.020
-382.960	-43.529	0.786	-0.395
-381.946	-200.000	0.097	-0.798
-380.931	800.000	-0.176	0.565
-379.917	319.136	-0.087	-0.164
-378.902	134.882	0.132	-0.170
-377.888	235.085	-0.308	-0.506
-376.873	41.565	-0.391	0.353
-375.858	-65.319	0.627	0.251
-374.844	-47.495	0.619	-0.299
-373.829	36.942	-0.449	0.395
-372.815	-42.314	0.452	-0.229
-371.800	195.671	0.094	-0.143
-370.785	-69.474	0.442	-0.169
-369.771	-200.000	0.045	-0.898
-368.756	380.142	0.052	0.106
-367.742	-200.000	-0.132	1.444
-366.727	81.954	0.304	0.327
-365.712	-159.145	-0.817	-0.046
-364.698	616.516	0.123	0.307
-363.683	-86.626	0.310	-0.095
-362.669	-76.833	0.249	0.087
-361.654	-200.000	0.075	-0.367
-360.639	-117.184	-0.240	-0.043
-359.625	-54.386	-0.532	-0.240
-358.610	65.802	0.616	-0.621
-357.596	32.992	0.076	-0.065
-356.581	800.000	0.243	0.775
-355.566	144.094	0.184	-0.244
-354.552	-81.800	-0.233	0.076
-353.537	-49.750	0.587	-0.278
-352.523	70.645	-0.544	0.560
-351.508	163.350	0.128	0.178
-350.493	-200.000	0.126	1.294
-349.479	319.748	0.486	0.916
-348.464	-200.000	-0.037	0.503
-347.450	-109.384	0.505	-0.106
-346.435	-46.894	-0.095	0.046
-345.420	274.954	0.239	0.421
-344.406	187.532	0.309	0.458
-343.391	119.504	-0.402	-0.495
-342.377	-134.181	0.276	-0.034
-341.362	-54.811	0.833	0.374
-340.348	69.304	0.157	0.161
-339.333	439.145	0.125	0.271
-338.318	76.829	0.379	0.399
-337.304	-80.949	-0.469	-0.154
-336.289	41.700	-0.314	-0.283
-335.275	-41.843	0.491	0.250
-334.260	-154.615	-0.895	0.059
-333.245	141.041	-0.290	-0.381
-332.231	-6.005	0.261	0.177
-331.216	-200.000	0.058	0.363
-330.202	-200.000	0.066	0.686
-329.187	-76.596	-0.603	0.210
-328.172	88.328	0.206	-0.227
-327.158	-200.000	0.011	0.509
-326.143	135.476	-0.287	-0.371
-325.129	-171.847	-0.571	-0.019
-324.114	-6.198	0.930	0.631
-323.099	-78.185	0.104	-0.036
-322.085	800.000	-0.237	-0.680
-321.070	242.376	0.167	-0.277
-320.056	-167.500	-0.503	-0.020
-319.041	-63.655	0.434	0.177
-318.026	76.438	-0.445	0.468
-317.012	5.778	-0.310	0.228
-315.997	-35.028	0.608	-0.329
-314.983	-8.397	-0.377	-0.251
-313.968	-200.000	0.021	0.632
-312.953	506.149	0.099	0.228
-311.939	-200.000	-0.014	0.518
-310.924	800.000	-0.238	0.708
-309.910	-200.000	0.201	-0.000
-308.895	-142.094	-0.344	-0.034
-307.880	64.707	0.460	-0.460
-306.866	31.378	-0.200	-0.170
-305.851	177.582	0.590	-0.853
-304.837	-200.000	0.011	0.323
-303.822	58.885	0.028	-0.027
-302.807	-87.749	-0.475	-0.142
-301.793	-13.890	0.116	-0.074
-300.778	800.000	0.074	0.225
-299.764	-200.000	0.024	0.164
-298.749	-200.000	0.005	0.083
-297.735	-174.590	-0.299	0.008
-296.720	194.539	-0.250	0.377
-295.705	49.679	0.471	0.441
-294.691	482.491	0.164	-0.370
-293.676	-129.617	-0.314	-0.043
-292.662	86.935	0.841	-0.921
-291.647	800.000	-0.089	0.290
-290.632	243.262	0.225	-0.374
-289.618	-184.915	0.726	-0.011
-288.603	-26.716	1.111	-0.645
-287.589	8.050	0.482	0.359
-286.574	-151.153	0.446	-0.033
-285.559	11.185	-0.273	0.207
-284.545	-200.000	-0.117	0.580
-283.530	193.665	-0.148	-0.221
-282.516	262.901	-0.417	0.718
-281.501	-124.127	0.401	0.062
-280.486	117.060	-0.109	-0.132
-279.472	-143.137	-0.132	0.013
-278.457	589.782	0.203	0.496
-277.443	-151.699	0.108	0.008
-276.428	291.464	0.352	0.635
-275.413	800.000	0.190	0.572
-274.399	704.801	-0.153	0.400
-273.384	109.720	-0.309	0.368
-272.370	-22.867	0.202	-0.121
-271.355	433.363	0.231	-0.497
-270.340	-200.000	0.048	0.314
-269.326	800.000	0.114	-0.358
-268.311	-96.322	0.916	0.240
-267.297	32.428	0.208	0.178
-266.282	800.000	-0.321	1.060
-265.267	-200.000	-0.027	-0.441
-264.253	310.736	0.268	-0.498
-263.238	587.631	0.095	-0.233
-262.224	-35.906	0.595	0.319
-261.209	-35.089	-0.714	0.385
-260.195	-37.939	0.419	-0.220
-259.180	-132.979	-0.378	0.048
-258.165	765.361	0.145	-0.390
-257.151	134.836	0.559	-0.718
-256.136	-150.617	0.404	0.031
-255.122	-200.000	0.031	-0.206
-254.107	-68.333	0.925	0.356
-253.092	8.400	0.247	0.184
-252.078	-149.104	-0.282	-0.022
-251.063	-32.129	-0.451	-0.250
-250.049	-24.840	0.952	-0.560
-249.034	-64.380	0.137	-0.055
-248.019	800.000	-0.089	-0.267
-247.005	308.112	-0.156	0.287
-245.990	-28.711	-0.392	-0.223
-244.976	126.619	0.222	-0.279
-243.961	72.737	-0.670	-0.692
-242.946	-117.009	-0.505	0.091
-241.932	161.715	0.137	0.190
-240.917	442.094	-0.286	-0.621
-239.903	-69.614	1.109	-0.420
-238.888	330.054	0.071	-0.135
-237.873	-58.028	-0.423	-0.183
-236.859	114.657	0.594	0.717
-235.844	16.453	0.395	-0.309
-234.830	736.541	0.081	-0.216
-233.815	800.000	0.075	0.251
-232.800	-87.159	-0.677	0.204
-231.786	111.305	0.583	0.695
-230.771	118.285	-0.741	0.904
-229.757	800.000	0.158	0.614
-228.742	119.372	0.133	-0.162
-227.727	467.446	0.074	-0.165
-226.713	-200.000	0.020	-0.655
-225.698	749.790	0.129	0.343
-224.684	-132.623	0.529	0.067
-223.669	-200.000	0.021	-0.236
-222.655	-54.232	-0.427	0.192
-221.640	280.736	0.252	-0.446
-220.625	507.248	0.307	-0.705
-219.611	-168.439	-1.132	0.043
-218.596	-200.000	0.106	0.636
-217.582	-200.000	0.111	-0.647
-216.567	800.000	-0.222	0.714
-215.552	-200.000	-0.020	-0.314
-214.538	-150.565	-0.415	-0.031
-213.523	148.386	0.281	0.375
-212.509	310.979	0.219	0.407
-211.494	319.521	0.027	-0.050
-210.479	-20.533	-0.383	0.233
-209.465	-64.520	0.431	-0.173
-208.450	800.000	0.054	0.222
-207.436	87.703	0.461	0.505
-206.421	-200.000	0.100	-0.599
-205.406	-60.094	0.679	0.286
-204.392	-65.808	-1.064	0.421
-203.377	-70.770	0.590	-0.220
-202.363	-73.224	-0.171	-0.062
-201.348	216.523	-0.169	0.266
-200.333	60.433	-0.225	-0.220
-199.319	-68.818	0.419	-0.160
-198.304	-200.000	0.036	0.440
-197.290	695.987	0.357	0.925
-196.275	800.000	0.202	0.853
-195.260	112.674	-0.941	1.125
-194.246	28.517	0.310	0.259
-193.231	-103.716	1.192	0.276
-192.217	-46.855	0.880	0.425
-191.202	181.716	0.256	-0.372
-190.187	-200.000	0.031	0.243
-189.173	-119.106	0.650	-0.112
-188.158	459.541	-0.160	-0.352
-187.144	-111.199	0.514	0.104
-186.129	800.000	0.026	-0.093
-185.114	206.751	0.280	-0.431
-184.100	-55.946	0.455	0.201
-183.085	-66.529	-0.134	-0.053
-182.071	411.543	0.246	-0.516
-181.056	-200.000	-0.129	-0.564
-180.042	-14.124	-0.753	0.479
-179.027	-17.467	0.384	-0.239
-178.012	800.000	-0.042	0.179
-176.998	159.946	0.490	-0.674
-175.983	-15.532	-0.364	-0.229
-174.969	800.000	0.052	-0.172
-173.954	-56.527	-0.369	0.162
-172.939	800.000	-0.273	0.785
-171.925	797.878	-0.118	-0.322
-170.910	-124.403	-0.044	-0.007
-169.896	800.000	0.100	-0.336
-168.881	-159.573	0.796	0.044
-167.866	191.107	-0.121	-0.180
-166.852	800.000	0.106	0.296
-165.837	59.004	-0.228	-0.221
-164.823	800.000	0.264	0.746
-163.808	-32.853	0.684	0.375
-162.793	-18.199	-0.325	0.201
-161.779	800.000	-0.107	-0.364
-160.764	544.578	-0.333	-0.785
-159.750	-30.928	-0.330	0.184
-158.735	30.362	-0.838	-0.706
-157.720	-157.692	-0.609	-0.036
-156.706	-159.526	-0.539	0.030
-155.691	216.588	-0.181	0.284
-154.677	-75.323	-0.576	0.203
-153.662	-53.878	0.082	0.037
-152.647	-200.000	0.169	0.888
-151.633	800.000	-0.140	-0.430
-150.618	-200.000	0.037	-0.303
-149.604	526.412	-0.468	-1.088
-148.589	-200.000	0.013	-0.187
-147.574	-200.000	-0.034	-0.804
-146.560	800.000	0.071	0.253
-145.545	-200.000	-0.025	-0.595
-144.531	-63.165	-0.586	0.238
-143.516	65.048	0.458	0.456
-142.502	507.099	-0.054	0.123
-141.487	416.740	-0.248	0.521
-140.472	13.959	0.256	-0.196
-139.458	800.000	-0.087	-0.364
-138.443	-57.066	-0.532	-0.231
-137.429	-200.000	0.027	-0.499
-136.414	30.074	0.217	0.182
-135.399	-90.119	-0.259	0.074
-134.385	-80.641	0.838	0.275
-133.370	-44.890	0.897	-0.441
-132.356	-11.791	-0.285	-0.185
-131.341	-200.000	0.033	0.663
-130.326	800.000	0.050	0.207
-129.312	800.000	-0.091	-0.306
-128.297	-130.962	0.273	0.036
-127.283	-200.000	0.136	-0.635
-126.268	378.267	0.309	0.623
-125.253	800.000	-0.165	-0.575
-124.239	-67.063	-0.804	0.313
-123.224	-90.979	-0.539	-0.153
-122.210	-200.000	-0.006	-0.589
-121.195	-97.495	-0.989	-0.253
