DTS Sentinel unit serial number:	SN413079Multiplexer serial number:	ORYXHardware model number:	OX4-SRSoftware version number:	ORYX F/W v4.00 Oryx Data Collector v3.7.2.0data status	okinstallation	princeton_trtdifferential loss correction	single-endedforward channel	channel 1reverse channel	N/Adate	2019/09/18time	05:42:35forward acquisition time	60.00reverse acquisition time	0.00gamma	496.2192k internal	0.2339k external	0.2339temperature offset calibration	0.9980default loss term (dB/km)	0.3790temperature slope calibration	1.0000multiplexer offset coefficient	1.0000multiplexer slope coefficient	1.0000fibre end	0.00T internal ref (°C)	23.31T ext. ref 1 (°C)	0.19T ext. ref 2 (°C)	16.89length (m)	temperature (°C)	Stokes	anti-Stokes-747.200	101.418	0.195	0.228
-746.185	-125.078	0.172	-0.027
-745.171	-108.973	0.155	0.033
-744.156	290.959	-0.083	0.152
-743.142	12.221	0.379	0.293
-742.127	224.150	-0.176	0.285
-741.112	-164.197	0.406	-0.019
-740.098	343.168	0.008	-0.015
-739.083	529.790	0.164	-0.389
-738.069	-103.015	-0.128	0.030
-737.054	27.936	-0.324	0.274
-736.039	-112.022	0.138	-0.028
-735.025	182.943	0.164	-0.242
-734.010	366.881	0.085	-0.172
-732.996	125.646	-0.132	0.167
-731.981	-200.000	0.053	0.261
-730.966	300.493	0.159	0.294
-729.952	-200.000	0.054	0.394
-728.937	-41.982	-0.358	0.184
-727.923	-90.901	-0.415	0.120
-726.908	81.945	0.242	-0.263
-725.894	550.808	-0.003	-0.006
-724.879	-146.847	0.303	-0.026
-723.864	-80.743	-0.267	0.089
-722.850	-150.410	-0.269	-0.021
-721.835	800.000	0.016	0.064
-720.821	-200.000	0.024	-0.108
-719.806	152.253	0.176	-0.241
-718.791	-200.000	0.013	-0.084
-717.777	-93.918	-0.355	0.098
-716.762	-37.848	-0.100	0.053
-715.748	-200.000	0.021	0.137
-714.733	-200.000	-0.034	-0.237
-713.718	63.940	0.178	-0.180
-712.704	111.114	-0.147	-0.178
-711.689	-27.671	0.286	0.166
-710.675	-87.717	0.134	0.040
-709.660	-88.349	-0.035	-0.010
-708.645	-54.803	-0.235	-0.106
-707.631	-16.281	0.242	-0.154
-706.616	172.900	-0.083	0.120
-705.602	-200.000	0.029	-0.326
-704.587	-87.355	0.103	0.031
-703.572	131.574	0.249	0.320
-702.558	-200.000	0.002	0.181
-701.543	219.481	-0.069	0.110
-700.529	609.280	0.066	0.165
-699.514	-37.094	0.145	0.078
-698.499	-130.896	-0.350	-0.047
-697.485	-59.419	0.316	0.136
-696.470	17.886	-0.283	-0.225
-695.456	-87.570	-0.030	0.009
-694.441	18.110	-0.141	-0.112
-693.426	73.742	-0.090	0.094
-692.412	-74.155	-0.085	-0.031
-691.397	-200.000	-0.003	0.168
-690.383	-18.681	-0.266	0.166
-689.368	800.000	-0.070	0.209
-688.354	-56.707	0.171	0.076
-687.339	-200.000	-0.021	-0.196
-686.324	-200.000	0.048	0.434
-685.310	551.185	-0.093	0.224
-684.295	11.129	0.192	0.147
-683.281	-200.000	0.018	-0.195
-682.266	-108.682	0.355	-0.076
-681.251	20.891	0.167	-0.135
-680.237	-200.000	-0.057	0.433
-679.222	559.135	0.048	-0.115
-678.208	-28.475	0.128	0.074
-677.193	178.706	0.176	-0.257
-676.178	20.441	0.283	-0.228
-675.164	-142.212	-0.114	0.011
-674.149	28.545	-0.187	-0.158
-673.135	-97.127	0.387	0.101
-672.120	-26.469	0.231	-0.135
-671.105	35.073	0.142	-0.124
-670.091	108.725	-0.063	-0.075
-669.076	-200.000	0.030	-0.259
-668.062	-15.783	0.190	0.121
-667.047	-200.000	-0.077	-0.000
-666.032	503.420	0.044	0.103
-665.018	-32.805	-0.215	-0.120
-664.003	-117.132	0.065	0.012
-662.989	294.177	-0.113	-0.206
-661.974	800.000	-0.115	0.325
-660.959	131.501	0.078	0.100
-659.945	409.719	-0.208	-0.441
-658.930	-200.000	0.033	-0.195
-657.916	-200.000	-0.027	-0.140
-656.901	-149.924	-0.108	-0.008
-655.886	5.068	0.199	-0.146
-654.872	800.000	-0.057	0.202
-653.857	270.356	-0.012	-0.021
-652.843	-200.000	-0.023	-0.350
-651.828	-200.000	-0.020	-0.184
-650.814	-200.000	0.005	-0.065
-649.799	9.152	-0.041	-0.031
-648.784	40.167	0.112	0.101
-647.770	-109.133	-0.184	-0.039
-646.755	310.848	-0.126	-0.235
-645.741	173.625	0.075	0.108
-644.726	185.023	-0.105	0.155
-643.711	800.000	0.039	-0.141
-642.697	-78.688	-0.344	0.118
-641.682	51.721	-0.234	0.222
-640.668	800.000	-0.070	0.215
-639.653	10.972	0.159	-0.121
-638.638	648.832	0.102	-0.261
-637.624	800.000	-0.047	0.194
-636.609	169.000	0.133	0.189
-635.595	98.363	-0.161	-0.185
-634.580	-200.000	-0.012	-0.067
-633.565	119.494	-0.152	-0.188
-632.551	-94.107	-0.156	0.043
-631.536	-23.178	0.108	-0.065
-630.522	25.126	-0.134	-0.111
-629.507	5.479	0.324	0.238
-628.492	800.000	0.077	0.229
-627.478	50.381	0.166	0.156
-626.463	349.138	-0.139	-0.275
-625.449	-200.000	0.071	-0.528
-624.434	7.060	-0.136	0.101
-623.419	-74.866	-0.154	0.055
-622.405	-200.000	-0.018	-0.315
-621.390	106.755	0.301	0.357
-620.376	4.491	0.265	-0.194
-619.361	50.368	-0.122	0.115
-618.346	-21.526	-0.140	-0.085
-617.332	-74.198	0.364	0.131
-616.317	135.368	-0.277	-0.360
-615.303	143.905	0.158	0.210
-614.288	25.131	0.225	-0.187
-613.273	-173.314	-0.344	-0.010
-612.259	-117.335	-0.172	-0.031
-611.244	-146.738	0.161	-0.014
-610.230	-200.000	-0.040	-0.236
-609.215	-200.000	0.020	-0.234
-608.201	160.005	-0.091	0.126
-607.186	-48.908	0.061	-0.029
-606.171	-200.000	-0.001	-0.153
-605.157	-200.000	-0.002	0.019
-604.142	269.252	0.140	-0.245
-603.128	279.887	-0.228	-0.406
-602.113	152.938	-0.061	0.083
-601.098	-6.401	0.199	0.135
-600.084	335.153	0.135	0.260
-599.069	800.000	-0.105	0.449
-598.055	16.783	0.293	0.231
-597.040	-139.527	-0.239	0.025
-596.025	171.524	0.151	0.216
-595.011	800.000	-0.108	-0.372
-593.996	22.686	0.054	0.044
-592.982	-64.217	-0.161	-0.065
-591.967	-96.601	0.343	0.090
-590.952	-200.000	0.000	-0.122
-589.938	189.451	-0.083	0.123
-588.923	800.000	0.047	-0.174
-587.909	-200.000	0.070	-0.341
-586.894	-53.035	0.470	-0.215
-585.879	131.861	-0.107	-0.137
-584.865	-86.955	0.205	0.062
-583.850	800.000	0.063	-0.207
-582.836	-133.879	0.190	-0.024
-581.821	-5.949	0.233	0.159
-580.806	-23.010	0.291	0.175
-579.792	-129.087	0.405	-0.056
-578.777	-200.000	0.006	0.076
-577.763	56.924	0.273	-0.265
-576.748	157.013	-0.173	-0.239
-575.733	-113.417	-0.423	0.083
-574.719	-107.808	0.269	0.058
-573.704	-200.000	0.006	-0.265
-572.690	35.048	-0.229	-0.200
-571.675	79.333	0.182	-0.195
-570.661	182.102	-0.149	0.218
-569.646	-200.000	0.063	0.387
-568.631	-200.000	0.029	-0.143
-567.617	-68.843	0.225	-0.086
-566.602	-60.882	0.109	0.046
-565.588	-200.000	0.062	-0.283
-564.573	31.214	0.092	-0.079
-563.558	800.000	0.075	-0.246
-562.544	117.141	0.166	-0.203
-561.529	39.795	0.085	0.076
-560.515	-10.335	0.152	-0.100
-559.500	800.000	-0.064	0.266
-558.485	-200.000	0.005	0.307
-557.471	800.000	0.064	0.214
-556.456	211.826	0.224	-0.351
-555.442	-200.000	0.064	-0.302
-554.427	-8.296	-0.163	-0.109
-553.412	-98.199	0.123	0.032
-552.398	-7.952	-0.225	0.151
-551.383	363.526	-0.086	-0.173
-550.369	45.471	0.183	-0.169
-549.354	800.000	0.115	0.340
-548.339	65.673	0.165	0.167
-547.325	-47.087	0.323	-0.157
-546.310	-200.000	-0.029	0.213
-545.296	-200.000	0.007	-0.096
-544.281	37.147	-0.148	-0.131
-543.266	-112.889	-0.365	-0.072
-542.252	140.447	0.235	0.308
-541.237	-23.265	-0.369	-0.221
-540.223	-138.345	-0.247	0.027
-539.208	256.749	0.153	0.261
-538.193	800.000	0.082	-0.346
-537.179	25.442	0.226	-0.187
-536.164	211.633	-0.035	-0.054
-535.150	13.939	-0.311	-0.240
-534.135	-69.991	-0.308	-0.117
-533.121	800.000	-0.055	0.209
-532.106	800.000	-0.018	-0.059
-531.091	-200.000	0.005	0.142
-530.077	41.404	-0.178	-0.160
-529.062	61.481	-0.019	0.019
-528.048	-71.205	-0.285	-0.106
-527.033	15.925	0.151	0.118
-526.018	70.495	0.264	0.272
-525.004	-200.000	-0.004	-0.143
-523.989	-103.676	0.083	0.019
-522.975	-168.858	-0.351	0.013
-521.960	-160.484	-0.503	-0.027
-520.945	-52.705	0.127	0.058
-519.931	-123.759	-0.409	0.064
-518.916	772.685	-0.152	0.412
-517.902	81.859	0.109	0.117
-516.887	-200.000	0.012	0.229
-515.872	74.304	0.145	0.151
-514.858	-142.747	-0.413	-0.040
-513.843	-104.920	0.310	-0.071
-512.829	-115.537	0.299	-0.056
-511.814	507.599	-0.149	-0.344
-510.799	2.609	-0.252	-0.181
-509.785	-116.457	-0.107	0.020
-508.770	-200.000	0.004	-0.268
-507.756	-29.079	-0.317	0.181
-506.741	800.000	0.137	0.390
-505.726	26.891	-0.123	-0.103
-504.712	229.806	-0.113	-0.183
-503.697	800.000	-0.066	0.263
-502.683	-130.355	-0.538	0.073
-501.668	170.225	-0.045	-0.065
-500.653	-101.220	0.464	0.113
-499.639	-97.695	-0.180	0.046
-498.624	142.159	0.135	-0.178
-497.610	49.960	-0.143	-0.134
-496.595	800.000	-0.044	-0.128
-495.581	-32.455	0.210	0.116
-494.566	800.000	-0.101	-0.398
-493.551	-55.845	0.208	-0.092
-492.537	-200.000	0.006	0.113
-491.522	-21.964	0.221	-0.133
-490.508	-46.622	-0.030	-0.015
-489.493	104.465	0.137	0.160
-488.478	175.698	-0.063	0.090
-487.464	132.189	0.067	0.086
-486.449	-200.000	0.078	0.394
-485.435	-100.417	-0.248	-0.061
-484.420	800.000	-0.093	0.268
-483.405	-200.000	-0.033	0.238
-482.391	42.878	0.137	0.124
-481.376	-79.240	-0.136	0.046
-480.362	-100.047	-0.087	-0.022
-479.347	-78.228	0.022	0.007
-478.332	213.329	0.152	0.238
-477.318	-76.141	0.179	-0.063
-476.303	89.726	-0.128	-0.142
-475.289	23.730	-0.126	-0.103
-474.274	34.440	-0.184	-0.160
-473.259	109.782	0.227	-0.270
-472.245	-200.000	0.015	-0.119
-471.230	800.000	0.118	0.401
-470.216	30.820	0.022	-0.019
-469.201	-46.699	-0.082	-0.040
-468.186	-143.438	-0.132	0.013
-467.172	447.932	0.081	-0.178
-466.157	-34.897	0.138	-0.075
-465.143	-110.615	0.181	-0.037
-464.128	191.101	0.191	-0.285
-463.113	-14.514	-0.305	0.195
-462.099	225.186	0.169	-0.271
-461.084	-43.918	-0.103	-0.051
-460.070	31.678	-0.146	0.125
-459.055	94.606	0.192	-0.217
-458.040	14.885	-0.247	0.191
-457.026	89.438	0.132	-0.145
-456.011	-200.000	0.051	0.422
-454.997	114.188	0.217	-0.262
-453.982	-15.110	-0.273	-0.173
-452.968	-25.762	0.241	-0.141
-451.953	-138.589	0.210	-0.023
-450.938	213.639	0.312	0.489
-449.924	3.934	-0.182	0.132
-448.909	-94.376	-0.196	-0.053
-447.895	115.299	-0.103	0.125
-446.880	626.771	-0.098	0.245
-445.865	-200.000	0.001	0.318
-444.851	-200.000	-0.024	-0.181
-443.836	-103.958	0.353	-0.082
-442.822	-168.646	0.191	-0.007
-441.807	106.394	-0.074	0.086
-440.792	800.000	0.051	0.146
-439.778	-147.963	0.145	-0.012
-438.763	71.776	0.072	-0.074
-437.749	-74.535	0.142	0.051
-436.734	486.336	0.117	-0.264
-435.719	-122.125	0.404	0.066
-434.705	-42.973	0.099	0.050
-433.690	54.578	0.164	-0.156
-432.676	80.541	-0.330	0.352
-431.661	-115.646	-0.301	0.056
-430.646	-121.813	0.069	-0.011
-429.632	-200.000	-0.079	0.350
-428.617	-200.000	-0.003	0.034
-427.603	-14.064	-0.216	0.138
-426.588	-200.000	0.015	0.090
-425.573	493.647	0.063	0.142
-424.559	800.000	-0.115	0.405
-423.544	-200.000	-0.070	0.404
-422.530	-42.942	0.159	0.080
-421.515	-152.148	-0.117	-0.008
-420.500	55.701	-0.182	0.174
-419.486	800.000	-0.067	0.257
-418.471	-115.685	-0.141	0.026
-417.457	800.000	-0.066	-0.235
-416.442	174.144	0.128	0.183
-415.428	519.657	0.032	-0.074
-414.413	668.185	0.043	0.109
-413.398	669.739	-0.115	0.295
-412.384	-200.000	-0.015	0.128
-411.369	81.401	-0.021	-0.023
-410.355	258.867	0.109	0.185
-409.340	-200.000	0.012	0.079
-408.325	-118.298	-0.100	-0.018
-407.311	-123.950	-0.359	-0.056
-406.296	800.000	0.077	-0.329
-405.282	-145.233	-0.188	0.017
-404.267	-200.000	0.049	0.330
-403.252	-160.139	-0.192	0.010
-402.238	-109.995	0.016	-0.003
-401.223	-82.448	0.286	0.092
-400.209	-200.000	-0.020	0.232
-399.194	62.840	-0.163	-0.161
-398.179	111.275	0.161	-0.192
-397.165	800.000	-0.135	-0.466
-396.150	-83.878	0.045	-0.014
-395.136	41.915	-0.207	-0.186
-394.121	800.000	-0.041	0.161
-393.106	-84.271	-0.189	0.059
-392.092	-200.000	0.012	-0.306
-391.077	382.771	-0.122	0.249
-390.063	126.975	0.118	0.147
-389.048	-156.969	0.074	0.005
-388.033	-16.358	-0.198	0.124
-387.019	259.289	-0.212	0.361
-386.004	7.880	-0.217	-0.161
-384.990	-200.000	-0.035	0.243
-383.975	-127.722	-0.216	-0.031
-382.960	-0.133	0.128	0.090
-381.946	511.959	-0.039	-0.089
-380.931	-21.629	0.206	-0.124
-379.917	-200.000	-0.057	0.269
-378.902	-144.884	0.447	0.040
-377.888	-200.000	0.012	-0.111
-376.873	800.000	-0.115	0.362
-375.858	-153.717	0.113	0.008
-374.844	132.857	-0.181	0.231
-373.829	-200.000	-0.062	-0.304
-372.815	-61.815	-0.460	-0.190
-371.800	298.222	0.126	-0.229
-370.785	-1.492	0.197	-0.137
-369.771	214.716	-0.076	-0.120
-368.756	185.699	-0.107	-0.158
-367.742	-86.347	0.293	-0.089
-366.727	289.447	0.080	-0.143
-365.712	-200.000	0.017	-0.294
-364.698	154.714	-0.135	-0.184
-363.683	13.742	0.109	-0.084
-362.669	-57.012	0.315	0.137
-361.654	215.332	-0.021	-0.032
-360.639	-43.765	-0.104	-0.052
-359.625	-200.000	-0.043	-0.258
-358.610	164.087	0.080	-0.112
-357.596	-123.302	0.204	-0.032
-356.581	-86.861	-0.245	-0.074
-355.566	332.203	-0.158	-0.301
-354.552	395.398	-0.084	-0.174
-353.537	-14.543	-0.051	-0.033
-352.523	199.854	0.071	0.107
-351.508	33.541	-0.194	0.167
-350.493	114.062	-0.072	-0.086
-349.479	103.194	0.098	-0.113
-348.464	-179.989	0.337	-0.007
-347.450	-87.457	-0.304	0.091
-346.435	800.000	-0.063	-0.202
-345.420	140.985	0.210	0.274
-344.406	53.465	-0.196	-0.185
-343.391	181.239	0.105	0.152
-342.377	-200.000	0.002	0.056
-341.362	-46.594	-0.323	0.156
-340.348	-168.385	0.214	-0.008
-339.333	-159.436	0.436	0.024
-338.318	6.159	-0.402	0.294
-337.304	-200.000	-0.016	0.118
-336.289	168.954	0.113	0.160
-335.275	23.615	0.122	-0.099
-334.260	-58.856	-0.297	-0.127
-333.245	-149.697	-0.412	-0.032
-332.231	-44.098	-0.360	0.178
-331.216	-177.124	0.185	0.005
-330.202	224.255	0.118	-0.188
-329.187	46.464	-0.168	-0.154
-328.172	-51.038	0.340	0.157
-327.158	121.213	-0.076	0.094
-326.143	-200.000	-0.024	0.264
-325.129	32.976	-0.112	-0.096
-324.114	800.000	-0.056	-0.160
-323.099	-94.627	0.392	-0.105
-322.085	28.551	0.200	0.167
-321.070	-136.806	-0.370	0.042
-320.056	24.264	0.186	0.152
-319.041	309.162	-0.032	-0.060
-318.026	-87.082	0.363	-0.109
-317.012	373.452	0.148	-0.297
-315.997	800.000	0.039	-0.140
-314.983	-51.550	-0.110	0.051
-313.968	19.384	-0.139	0.110
-312.953	-200.000	-0.014	0.115
-311.939	-116.503	-0.292	0.053
-310.924	44.367	-0.173	0.157
-309.910	442.602	-0.048	0.104
-308.895	800.000	0.082	-0.231
-307.880	26.987	-0.243	-0.201
-306.866	-94.416	-0.468	-0.126
-305.851	568.271	0.089	0.214
-304.837	800.000	0.115	0.398
-303.822	-16.183	0.190	0.119
-302.807	-137.094	0.221	0.025
-301.793	137.214	0.118	0.152
-300.778	441.868	-0.053	-0.113
-299.764	-101.431	-0.213	-0.051
-298.749	224.548	0.133	0.212
-297.735	484.916	0.102	0.228
-296.720	57.880	-0.136	0.131
-295.705	217.445	0.131	0.206
-294.691	-103.422	-0.453	0.105
-293.676	-200.000	0.014	0.070
-292.662	-39.652	0.287	-0.148
-291.647	123.313	0.248	-0.306
-290.632	105.087	-0.119	-0.138
-289.618	-200.000	0.015	0.073
-288.603	-132.209	0.208	0.027
-287.589	-200.000	-0.030	0.165
-286.574	-93.128	0.243	0.067
-285.559	355.862	0.046	0.091
-284.545	24.421	-0.312	0.254
-283.530	-72.337	0.151	-0.055
-282.516	12.666	-0.258	0.196
-281.501	314.591	0.219	0.407
-280.486	-87.236	0.280	-0.084
-279.472	-200.000	0.016	-0.111
-278.457	74.640	-0.201	0.208
-277.443	96.870	-0.248	0.280
-276.428	-9.581	0.207	0.136
-275.413	-200.000	-0.004	-0.690
-274.399	-102.912	0.114	-0.027
-273.384	1.796	0.017	-0.012
-272.370	178.162	-0.074	0.107
-271.355	-35.736	-0.324	0.173
-270.340	751.831	-0.103	0.275
-269.326	146.896	0.258	-0.341
-268.311	-200.000	-0.041	0.226
-267.297	689.030	-0.031	-0.081
-266.282	800.000	-0.090	-0.325
-265.267	63.764	-0.084	0.083
-264.253	335.430	0.084	0.159
-263.238	71.161	-0.065	-0.066
-262.224	422.540	0.072	-0.152
-261.209	-99.088	0.075	-0.019
-260.195	792.692	-0.026	-0.069
-259.180	636.069	0.072	-0.180
-258.165	-148.007	-0.436	-0.036
-257.151	-200.000	0.052	0.486
-256.136	2.756	-0.346	0.247
-255.122	5.401	0.165	-0.120
-254.107	-124.595	0.114	0.017
-253.092	44.522	-0.083	0.075
-252.078	-200.000	0.033	-0.384
-251.063	-151.665	0.148	0.011
-250.049	470.227	0.122	0.270
-249.034	800.000	0.099	0.282
-248.019	800.000	0.123	0.357
-247.005	423.518	-0.030	0.063
-245.990	-109.128	0.155	0.032
-244.976	426.416	0.120	-0.255
-243.961	-2.447	0.125	-0.086
-242.946	236.800	0.109	0.177
-241.932	163.895	-0.171	-0.236
-240.917	-43.884	0.139	-0.069
-239.903	-200.000	0.054	-0.341
-238.888	58.723	0.243	0.235
-237.873	73.377	-0.203	0.209
-236.859	-200.000	0.018	-0.114
-235.844	62.029	0.090	0.088
-234.830	9.091	-0.083	0.061
-233.815	7.491	-0.247	0.182
-232.800	524.959	0.086	-0.200
-231.786	-200.000	0.017	-0.198
-230.771	336.077	-0.088	-0.167
-229.757	-25.910	0.379	-0.219
-228.742	-185.120	-0.593	0.009
-227.727	800.000	0.101	0.307
-226.713	-93.204	-0.103	0.028
-225.698	-200.000	0.222	-0.000
-224.684	89.193	-0.121	-0.132
-223.669	32.041	-0.095	-0.081
-222.655	469.211	0.048	-0.107
-221.640	-98.648	0.213	-0.053
-220.625	-200.000	-0.012	-0.074
-219.611	49.508	-0.092	0.085
-218.596	800.000	-0.060	-0.168
-217.582	176.914	0.099	0.142
-216.567	195.959	0.114	-0.170
-215.552	88.854	0.228	-0.249
-214.538	-102.609	0.373	-0.088
-213.523	694.907	0.030	0.078
-212.509	-200.000	-0.009	-0.118
-211.494	800.000	0.082	-0.274
-210.479	371.438	0.024	0.048
-209.465	198.406	0.104	0.156
-208.450	184.721	-0.129	-0.188
-207.436	-58.453	-0.220	0.094
-206.421	28.950	-0.076	0.063
-205.406	113.544	0.189	-0.225
-204.392	-149.067	-0.068	0.005
-203.377	190.176	-0.138	-0.204
-202.363	-103.416	0.043	0.010
-201.348	-78.547	-0.400	0.134
-200.333	-98.663	-0.174	0.044
-199.319	-126.393	-0.302	0.044
-198.304	800.000	-0.066	-0.271
-197.290	789.435	0.126	0.341
-196.275	-48.373	-0.125	-0.059
-195.260	-200.000	-0.022	-0.109
-194.246	100.569	-0.031	-0.035
-193.231	-62.909	-0.461	-0.187
-192.217	-200.000	0.057	-0.293
-191.202	566.817	-0.122	-0.290
-190.187	800.000	-0.066	0.190
-189.173	104.968	-0.144	-0.167
-188.158	-46.898	0.203	0.097
-187.144	10.218	0.265	-0.198
-186.129	-32.497	-0.240	-0.131
-185.114	56.109	0.131	0.125
-184.100	-58.996	0.100	-0.042
-183.085	548.321	0.046	0.108
-182.071	-150.725	0.274	-0.020
-181.056	661.848	-0.080	-0.202
-180.042	-200.000	0.044	0.263
-179.027	-132.405	0.295	-0.037
-178.012	14.322	0.264	0.202
-176.998	-200.000	-0.032	0.155
-175.983	-200.000	0.051	-0.580
-174.969	-200.000	-0.040	0.173
-173.954	790.153	-0.160	-0.430
-172.939	-110.302	0.202	0.041
-171.925	8.756	0.201	0.149
-170.910	-128.769	-0.248	0.034
-169.896	-73.617	0.342	0.122
-168.881	-200.000	0.025	-0.145
-167.866	-47.111	0.173	0.083
-166.852	-200.000	0.023	-0.187
-165.837	144.263	-0.077	0.101
-164.823	-120.974	0.206	-0.034
-163.808	-108.093	-0.240	0.051
-162.793	-200.000	-0.001	-0.103
-161.779	-200.000	-0.024	-0.253
-160.764	-161.983	0.064	-0.003
-159.750	162.512	-0.068	0.093
-158.735	-200.000	0.057	0.396
-157.720	-200.000	0.025	-0.155
-156.706	126.876	0.091	-0.112
-155.691	460.501	-0.133	-0.290
-154.677	-71.200	-0.366	-0.135
-153.662	78.249	0.268	0.280
-152.647	75.902	-0.183	0.189
-151.633	800.000	-0.059	0.241
-150.618	549.413	0.069	-0.161
-149.604	100.236	0.273	-0.311
-148.589	-200.000	-0.010	-0.426
-147.574	-98.571	-0.169	-0.042
-146.560	-200.000	0.306	0.000
-145.545	136.204	-0.114	-0.145
-144.531	-97.378	-0.206	-0.052
-143.516	-93.922	0.120	-0.032
-142.502	-200.000	-0.010	-0.312
-141.487	-63.792	0.238	-0.095
-140.472	-169.199	0.461	0.017
-139.458	-88.042	0.085	-0.025
-138.443	559.857	-0.101	-0.239
-137.429	69.914	-0.126	0.128
-136.414	-200.000	0.023	0.435
-135.399	-49.471	-0.150	-0.070
-134.385	-61.798	-0.180	0.074
-133.370	-0.937	-0.085	-0.059
-132.356	-47.665	0.101	-0.048
-131.341	-200.000	0.022	0.212
-130.326	156.481	0.093	-0.125
-129.312	624.432	-0.171	0.421
-128.297	-41.576	0.175	0.088
-127.283	-200.000	0.001	0.090
-126.268	-107.866	0.281	0.060
-125.253	800.000	-0.045	0.191
-124.239	156.082	-0.066	-0.089
-123.224	800.000	0.069	-0.273
-122.210	-137.534	0.175	-0.019
-121.195	292.095	0.089	0.158
