DTS Sentinel unit serial number:	SN413079Multiplexer serial number:	ORYXHardware model number:	OX4-SRSoftware version number:	ORYX F/W v4.00 Oryx Data Collector v3.7.2.0data status	okinstallation	princeton_trtdifferential loss correction	single-endedforward channel	channel 1reverse channel	N/Adate	2019/09/19time	12:54:35forward acquisition time	60.00reverse acquisition time	0.00gamma	496.2192k internal	0.2329k external	0.2329temperature offset calibration	1.0012default loss term (dB/km)	0.3790temperature slope calibration	1.0000multiplexer offset coefficient	1.0000multiplexer slope coefficient	1.0000fibre end	0.00T internal ref (°C)	28.33T ext. ref 1 (°C)	0.91T ext. ref 2 (°C)	26.62length (m)	temperature (°C)	Stokes	anti-Stokes-747.200	-120.417	0.220	-0.038
-746.185	-85.931	0.107	-0.033
-745.171	-114.489	-0.166	0.032
-744.156	-200.000	0.025	0.214
-743.142	256.215	-0.146	-0.252
-742.127	800.000	-0.146	0.433
-741.112	-200.000	0.021	-0.109
-740.098	-1.084	-0.185	0.132
-739.083	-200.000	0.007	0.077
-738.069	-182.340	0.408	-0.008
-737.054	9.637	0.358	0.273
-736.039	-162.811	-0.419	0.021
-735.025	-200.000	0.024	0.309
-734.010	-22.572	0.436	0.265
-732.996	-1.019	-0.010	0.007
-731.981	-12.298	0.183	0.120
-730.966	800.000	-0.045	-0.133
-729.952	79.008	0.151	-0.163
-728.937	-126.870	-0.241	0.036
-727.923	56.771	0.047	0.046
-726.908	287.335	-0.076	0.138
-725.894	800.000	0.063	0.252
-724.879	800.000	-0.031	0.093
-723.864	-19.490	-0.242	-0.151
-722.850	21.087	-0.156	-0.127
-721.835	-134.020	-0.261	0.032
-720.821	121.052	0.094	0.118
-719.806	27.221	-0.278	-0.235
-718.791	-200.000	-0.038	0.301
-717.777	-186.221	-0.139	0.002
-716.762	-143.997	-0.180	-0.017
-715.748	-200.000	-0.028	-0.188
-714.733	-183.300	-0.237	0.004
-713.718	800.000	0.084	-0.263
-712.704	800.000	-0.082	-0.314
-711.689	238.449	0.039	-0.065
-710.675	-81.195	0.370	0.123
-709.660	76.790	-0.232	0.248
-708.645	-99.891	0.205	-0.052
-707.631	-200.000	-0.005	-0.215
-706.616	-83.763	0.038	0.012
-705.602	261.503	0.089	-0.155
-704.587	29.880	-0.154	-0.132
-703.572	127.224	-0.095	-0.122
-702.558	-144.794	0.404	0.037
-701.543	-125.842	0.186	0.028
-700.529	2.368	-0.184	0.134
-699.514	800.000	0.087	0.323
-698.499	-200.000	-0.026	-0.132
-697.485	130.532	-0.146	0.188
-696.470	-152.601	0.339	-0.024
-695.456	-200.000	0.003	0.026
-694.441	-98.156	-0.256	-0.066
-693.426	10.474	-0.378	-0.290
-692.412	800.000	-0.037	-0.146
-691.397	93.657	-0.092	0.104
-690.383	107.294	-0.118	-0.141
-689.368	-200.000	0.016	-0.113
-688.354	233.873	0.161	-0.266
-687.339	-200.000	0.019	0.134
-686.324	47.515	0.245	0.229
-685.310	-109.684	0.402	-0.085
-684.295	800.000	-0.071	-0.239
-683.281	-25.211	-0.181	0.108
-682.266	-200.000	-0.071	-0.469
-681.251	-39.403	-0.361	0.190
-680.237	-23.133	-0.459	-0.277
-679.222	800.000	-0.121	-0.336
-678.208	800.000	-0.012	-0.044
-677.193	-82.366	-0.164	-0.054
-676.178	-200.000	-0.016	-0.193
-675.164	-200.000	-0.014	-0.185
-674.149	-140.962	-0.071	0.007
-673.135	103.912	-0.081	0.096
-672.120	220.058	0.068	0.110
-671.105	-200.000	0.043	0.278
-670.091	-200.000	-0.012	-0.236
-669.076	-24.118	-0.148	0.089
-668.062	-200.000	0.016	-0.357
-667.047	2.536	0.224	-0.163
-666.032	-66.658	0.105	-0.042
-665.018	-200.000	0.032	-0.154
-664.003	79.716	0.099	-0.106
-662.989	776.858	-0.089	0.245
-661.974	-43.374	0.140	0.071
-660.959	-200.000	-0.007	0.071
-659.945	120.384	-0.078	-0.097
-658.930	-200.000	0.006	-0.256
-657.916	310.104	-0.069	-0.129
-656.901	800.000	0.065	0.276
-655.886	683.774	0.123	-0.323
-654.872	-200.000	0.011	-0.187
-653.857	800.000	-0.082	-0.272
-652.843	-66.279	-0.111	0.044
-651.828	-200.000	0.081	-0.419
-650.814	-87.326	0.157	0.048
-649.799	757.069	-0.043	0.117
-648.784	-200.000	0.007	0.031
-647.770	450.715	-0.051	-0.113
-646.755	-200.000	0.055	-0.264
-645.741	234.847	0.056	-0.093
-644.726	-81.212	0.175	-0.058
-643.711	27.737	-0.044	-0.037
-642.697	384.897	-0.077	0.160
-641.682	458.348	0.049	-0.109
-640.668	-70.385	0.296	0.112
-639.653	40.044	-0.145	-0.131
-638.638	486.777	0.084	0.192
-637.624	-78.368	0.085	0.029
-636.609	-101.450	-0.358	0.088
-635.595	-81.484	-0.277	-0.091
-634.580	-7.303	-0.132	0.090
-633.565	-95.533	-0.326	0.088
-632.551	-23.496	-0.433	0.261
-631.536	-200.000	0.023	-0.113
-630.522	-45.864	-0.255	0.126
-629.507	92.559	-0.123	0.139
-628.492	-92.654	-0.085	0.024
-627.478	-109.604	0.233	0.049
-626.463	800.000	0.005	0.018
-625.449	692.987	-0.018	0.046
-624.434	-167.553	0.125	0.005
-623.419	-92.470	0.039	0.011
-622.405	-78.333	0.089	0.031
-621.390	-31.478	-0.244	0.138
-620.376	-66.934	-0.217	-0.086
-619.361	76.749	-0.065	-0.069
-618.346	239.933	0.057	0.095
-617.332	75.984	-0.135	-0.143
-616.317	-110.161	0.360	-0.075
-615.303	144.677	-0.129	-0.173
-614.288	-153.138	0.192	0.013
-613.273	188.276	0.135	0.202
-612.259	-88.774	-0.423	0.126
-611.244	-105.871	0.160	-0.036
-610.230	-54.219	-0.176	-0.080
-609.215	-27.960	-0.213	-0.123
-608.201	800.000	0.083	-0.337
-607.186	-108.560	-0.190	0.041
-606.171	-200.000	0.020	0.265
-605.157	645.874	0.211	-0.539
-604.142	-200.000	0.003	0.234
-603.128	631.275	0.115	0.293
-602.113	-200.000	0.005	0.174
-601.098	-200.000	0.032	-0.177
-600.084	-44.026	0.405	-0.204
-599.069	-141.160	0.126	0.013
-598.055	-49.382	-0.202	-0.097
-597.040	-189.562	0.040	0.000
-596.025	60.158	-0.224	-0.221
-595.011	25.383	0.269	-0.224
-593.996	-200.000	-0.041	-0.217
-592.982	-113.532	0.112	-0.022
-591.967	337.529	-0.242	-0.472
-590.952	-71.661	0.377	-0.141
-589.938	-200.000	0.021	0.188
-588.923	-128.188	0.148	-0.021
-587.909	-124.791	0.168	0.026
-586.894	35.682	-0.141	-0.124
-585.879	109.631	-0.153	-0.183
-584.865	266.494	0.091	0.159
-583.850	-72.879	-0.249	0.092
-582.836	-68.522	-0.161	0.063
-581.821	216.919	-0.143	-0.227
-580.806	-69.039	0.245	-0.094
-579.792	-37.713	-0.192	0.102
-578.777	-88.344	0.099	0.030
-577.763	-137.308	0.157	-0.018
-576.748	-112.945	-0.162	0.032
-575.733	530.141	0.043	-0.102
-574.719	-134.165	0.101	-0.012
-573.704	800.000	-0.060	-0.197
-572.690	-106.620	0.397	-0.088
-571.675	-29.811	-0.322	-0.184
-570.661	-200.000	-0.005	0.117
-569.646	-117.826	-0.244	-0.044
-568.631	-200.000	-0.028	0.186
-567.617	11.393	0.244	-0.187
-566.602	-114.612	-0.102	0.019
-565.588	-116.884	0.112	0.020
-564.573	114.215	-0.031	-0.037
-563.558	-200.000	-0.002	0.032
-562.544	178.292	-0.083	-0.121
-561.529	-137.074	-0.124	0.014
-560.515	-63.414	0.094	-0.039
-559.500	35.404	0.176	-0.155
-558.485	64.486	0.248	-0.250
-557.471	102.830	-0.228	0.267
-556.456	-55.884	-0.105	0.047
-555.442	577.191	0.105	-0.257
-554.427	113.361	-0.130	0.158
-553.412	451.027	0.086	-0.190
-552.398	284.289	0.098	-0.176
-551.383	49.359	-0.183	0.172
-550.369	-200.000	-0.010	0.092
-549.354	-64.909	0.091	-0.037
-548.339	238.262	0.096	0.160
-547.325	130.092	-0.022	-0.029
-546.310	-22.712	-0.132	0.080
-545.296	-200.000	-0.017	0.255
-544.281	636.060	-0.035	0.089
-543.266	137.917	0.197	0.258
-542.252	-200.000	0.047	-0.220
-541.237	119.578	0.111	0.137
-540.223	800.000	-0.036	-0.106
-539.208	448.379	-0.067	-0.148
-538.193	-66.007	0.324	0.129
-537.179	-113.447	0.080	-0.016
-536.164	690.751	-0.049	-0.129
-535.150	-137.188	-0.390	0.044
-534.135	49.959	-0.108	0.102
-533.121	-73.256	-0.159	-0.058
-532.106	65.922	-0.089	-0.090
-531.091	-200.000	0.052	-0.331
-530.077	416.690	0.056	0.118
-529.062	-22.588	0.226	0.136
-528.048	584.545	-0.068	0.168
-527.033	96.058	-0.273	-0.312
-526.018	-66.707	-0.284	-0.113
-525.004	-200.000	0.045	-0.251
-523.989	29.430	0.182	-0.154
-522.975	337.289	-0.171	-0.331
-521.960	199.969	0.053	0.081
-520.945	393.966	0.089	0.186
-519.931	-66.382	-0.026	-0.010
-518.916	-37.616	-0.072	0.038
-517.902	-200.000	-0.088	0.000
-516.887	-139.762	0.274	0.029
-515.872	-200.000	-0.008	-0.246
-514.858	-25.136	0.319	-0.189
-513.843	-63.845	-0.257	0.105
-512.829	-200.000	-0.010	-0.168
-511.814	-126.443	-0.362	-0.054
-510.799	-82.881	-0.394	-0.127
-509.785	7.407	0.302	0.225
-508.770	-83.685	-0.348	0.111
-507.756	158.315	0.047	-0.066
-506.741	-101.775	-0.392	-0.095
-505.726	800.000	-0.037	0.117
-504.712	-10.519	0.197	-0.130
-503.697	319.744	-0.193	-0.365
-502.683	-158.036	-0.165	-0.010
-501.668	143.111	-0.026	0.034
-500.653	254.107	-0.063	-0.107
-499.639	-200.000	-0.038	0.495
-498.624	-200.000	0.090	0.479
-497.610	-112.043	0.222	-0.045
-496.595	800.000	0.110	0.387
-495.581	-20.875	0.080	0.049
-494.566	-200.000	0.110	-0.486
-493.551	-148.241	-0.210	0.017
-492.537	-20.525	-0.082	0.050
-491.522	-200.000	0.028	-0.273
-490.508	-109.749	0.146	-0.031
-489.493	90.205	-0.259	-0.288
-488.478	606.302	-0.073	0.180
-487.464	-64.937	-0.462	-0.186
-486.449	243.217	0.153	0.255
-485.435	161.431	-0.105	0.146
-484.420	-200.000	0.025	-0.164
-483.405	111.675	0.156	-0.188
-482.391	-32.734	0.365	0.202
-481.376	-200.000	-0.022	0.139
-480.362	-113.003	-0.269	-0.053
-479.347	57.847	0.023	0.022
-478.332	-200.000	0.025	-0.176
-477.318	-94.418	-0.131	0.035
-476.303	2.223	0.047	-0.034
-475.289	4.204	0.015	0.011
-474.274	7.419	0.103	0.076
-473.259	-40.423	-0.188	0.097
-472.245	-200.000	-0.003	-0.107
-471.230	121.609	0.098	0.121
-470.216	45.362	-0.298	0.274
-469.201	-140.044	0.204	-0.021
-468.186	-131.007	-0.110	-0.015
-467.172	-200.000	0.003	-0.268
-466.157	0.160	-0.136	-0.097
-465.143	211.462	0.015	-0.024
-464.128	-25.703	-0.112	-0.066
-463.113	800.000	-0.041	-0.133
-462.099	-94.906	-0.072	0.020
-461.084	-24.862	0.368	0.218
-460.070	535.565	0.162	-0.383
-459.055	-33.240	-0.150	-0.083
-458.040	-104.259	0.113	0.026
-457.026	49.508	0.112	-0.105
-456.011	343.126	-0.078	-0.152
-454.997	121.744	0.164	-0.203
-453.982	-55.811	-0.052	-0.023
-452.968	33.442	0.144	0.124
-451.953	-129.144	-0.240	0.033
-450.938	-54.896	-0.393	-0.177
-449.924	-19.422	-0.207	-0.128
-448.909	89.126	0.093	0.103
-447.895	174.114	0.100	-0.144
-446.880	-157.124	-0.231	0.014
-445.865	267.630	0.025	-0.044
-444.851	-118.835	-0.060	0.011
-443.836	-200.000	-0.015	-0.250
-442.822	156.696	-0.258	-0.354
-441.807	152.103	0.147	-0.200
-440.792	-200.000	-0.010	-0.143
-439.778	-200.000	0.000	0.244
-438.763	-200.000	0.007	0.341
-437.749	6.879	-0.204	0.151
-436.734	-45.529	-0.062	0.031
-435.719	800.000	-0.113	0.340
-434.705	-44.170	0.120	-0.060
-433.690	-119.113	0.085	0.015
-432.676	-42.924	0.076	0.038
-431.661	226.887	0.115	0.186
-430.646	-128.662	0.302	0.042
-429.632	-25.378	-0.079	-0.046
-428.617	191.880	-0.041	0.062
-427.603	-200.000	0.058	-0.255
-426.588	-60.870	0.315	-0.132
-425.573	-6.673	0.195	0.132
-424.559	-200.000	0.034	-0.228
-423.544	281.372	-0.087	-0.156
-422.530	14.964	0.272	0.211
-421.515	-66.919	-0.282	0.111
-420.500	138.838	0.182	0.237
-419.486	-54.110	0.121	0.055
-418.471	184.999	-0.116	-0.171
-417.457	-197.767	0.090	0.001
-416.442	-96.721	-0.196	-0.051
-415.428	420.101	-0.067	0.142
-414.413	-165.472	0.143	-0.006
-413.398	133.631	0.121	-0.156
-412.384	-200.000	-0.019	-0.205
-411.369	800.000	-0.042	-0.117
-410.355	800.000	-0.042	-0.123
-409.340	-200.000	0.022	0.134
-408.325	341.276	0.131	0.254
-407.311	585.546	-0.096	0.234
-406.296	166.275	-0.153	-0.216
-405.282	551.516	-0.014	-0.034
-404.267	-1.572	-0.166	0.116
-403.252	-111.481	0.461	-0.093
-402.238	-87.799	-0.325	0.097
-401.223	165.827	-0.100	-0.141
-400.209	154.177	0.194	-0.265
-399.194	-133.216	0.090	-0.011
-398.179	800.000	0.044	0.123
-397.165	-159.496	0.192	0.011
-396.150	-27.185	0.136	0.079
-395.136	517.086	-0.090	0.209
-394.121	-13.010	-0.396	0.256
-393.106	82.687	0.334	0.361
-392.092	800.000	0.040	-0.111
-391.077	800.000	-0.104	0.307
-390.063	339.737	0.028	-0.054
-389.048	36.196	0.090	0.078
-388.033	800.000	0.065	0.269
-387.019	-200.000	0.009	-0.040
-386.004	-200.000	-0.021	-0.288
-384.990	654.520	0.083	-0.213
-383.975	-140.909	0.297	0.030
-382.960	98.642	-0.129	-0.147
-381.946	-91.631	-0.092	-0.026
-380.931	-77.174	-0.106	-0.037
-379.917	-41.248	-0.263	-0.135
-378.902	-200.000	0.001	-0.026
-377.888	-200.000	0.022	-0.122
-376.873	-63.522	0.192	-0.078
-375.858	476.369	-0.107	-0.240
-374.844	-200.000	0.050	-0.245
-373.829	585.977	0.038	0.094
-372.815	-200.000	-0.005	0.112
-371.800	277.761	0.044	-0.078
-370.785	-49.097	-0.286	0.136
-369.771	-115.035	0.302	-0.057
-368.756	-73.659	0.053	0.019
-367.742	145.464	-0.170	0.227
-366.727	-46.429	-0.102	-0.050
-365.712	-135.780	-0.090	-0.011
-364.698	-200.000	0.032	0.258
-363.683	-147.324	0.294	-0.025
-362.669	-61.703	-0.243	0.101
-361.654	800.000	-0.099	-0.399
-360.639	-60.201	0.344	-0.146
-359.625	29.294	-0.199	-0.167
-358.610	31.174	-0.113	0.096
-357.596	425.915	0.094	0.201
-356.581	-39.032	0.298	0.155
-355.566	-14.927	-0.207	0.131
-354.552	268.342	-0.082	0.142
-353.537	-48.707	-0.123	0.058
-352.523	-125.913	0.121	-0.018
-351.508	99.618	0.228	-0.262
-350.493	800.000	-0.014	-0.050
-349.479	-48.915	0.213	0.101
-348.464	-78.688	0.157	-0.053
-347.450	-42.112	-0.325	0.165
-346.435	-95.562	-0.252	-0.067
-345.420	558.924	0.078	0.187
-344.406	-27.810	0.114	-0.065
-343.391	85.807	0.054	0.059
-342.377	22.185	-0.270	-0.218
-341.362	800.000	0.086	-0.268
-340.348	180.357	-0.282	-0.411
-339.333	448.762	0.164	-0.358
-338.318	-156.946	0.200	0.012
-337.304	783.374	-0.030	-0.081
-336.289	800.000	0.064	-0.271
-335.275	-44.700	0.185	0.091
-334.260	-200.000	-0.029	0.242
-333.245	-200.000	-0.038	-0.200
-332.231	800.000	-0.026	0.103
-331.216	-62.372	0.054	-0.022
-330.202	-168.107	-0.144	-0.006
-329.187	91.739	0.185	0.207
-328.172	800.000	0.039	-0.145
-327.158	40.667	0.113	-0.101
-326.143	-78.517	0.170	-0.058
-325.129	266.541	-0.017	0.029
-324.114	-160.510	0.257	0.014
-323.099	431.532	-0.041	0.089
-322.085	-200.000	0.057	-0.299
-321.070	800.000	-0.024	-0.085
-320.056	29.281	0.295	0.248
-319.041	-200.000	-0.014	0.153
-318.026	39.949	-0.159	-0.141
-317.012	35.780	0.099	-0.086
-315.997	-101.228	0.177	-0.043
-314.983	145.865	-0.187	0.248
-313.968	38.841	-0.042	0.037
-312.953	-200.000	-0.003	-0.070
-311.939	-62.655	-0.217	0.089
-310.924	21.727	0.319	0.257
-309.910	401.804	0.051	-0.106
-308.895	-58.619	-0.231	-0.099
-307.880	-200.000	-0.008	0.240
-306.866	-83.161	-0.288	-0.092
-305.851	-28.982	-0.027	0.016
-304.837	-47.129	-0.305	-0.147
-303.822	-8.312	0.080	0.053
-302.807	426.545	-0.107	0.228
-301.793	460.415	-0.125	0.276
-300.778	316.270	0.114	-0.214
-299.764	-51.735	0.068	0.031
-298.749	290.922	-0.116	0.208
-297.735	-15.426	-0.191	0.121
-296.720	-40.108	-0.128	0.066
-295.705	-74.078	-0.164	0.059
-294.691	124.636	-0.102	-0.127
-293.676	8.756	0.200	0.149
-292.662	-150.688	0.327	0.025
-291.647	-92.552	-0.154	-0.043
-290.632	-72.796	0.130	0.047
-289.618	-44.296	-0.081	-0.040
-288.603	-200.000	0.007	-0.035
-287.589	308.558	0.202	-0.373
-286.574	800.000	0.054	-0.189
-285.559	507.624	-0.103	-0.237
-284.545	32.312	0.185	-0.158
-283.530	20.082	0.153	-0.122
-282.516	-200.000	-0.044	0.353
-281.501	241.751	0.220	-0.363
-280.486	-200.000	-0.005	-0.147
-279.472	800.000	-0.055	0.163
-278.457	-72.980	-0.306	-0.111
-277.443	-41.731	0.158	0.080
-276.428	-200.000	-0.034	0.394
-275.413	161.839	0.101	-0.140
-274.399	-44.089	-0.281	0.140
-273.384	-151.766	0.216	0.016
-272.370	-110.091	0.313	0.065
-271.355	-20.190	0.254	0.155
-270.340	800.000	-0.120	0.411
-269.326	-42.493	-0.178	-0.090
-268.311	-20.386	0.125	-0.076
-267.297	34.027	-0.081	-0.070
-266.282	800.000	-0.034	0.125
-265.267	-200.000	-0.005	-0.134
-264.253	-68.269	0.198	-0.076
-263.238	55.503	0.163	0.156
-262.224	651.221	-0.012	-0.031
-261.209	-200.000	-0.005	0.380
-260.195	-200.000	0.168	-0.000
-259.180	328.412	-0.036	-0.069
-258.165	-89.014	-0.028	-0.008
-257.151	-2.305	0.161	-0.112
-256.136	-113.703	0.291	0.056
-255.122	-54.990	0.123	0.055
-254.107	324.713	0.183	0.345
-253.092	128.205	-0.124	0.156
-252.078	101.266	-0.092	0.106
-251.063	56.166	-0.087	-0.083
-250.049	-168.294	0.475	-0.018
-249.034	-70.494	-0.143	0.054
-248.019	-115.271	0.253	-0.047
-247.005	800.000	-0.055	-0.176
-245.990	-73.178	-0.108	-0.039
-244.976	-200.000	0.063	-0.281
-243.961	-75.421	-0.091	0.032
-242.946	260.140	-0.113	-0.193
-241.932	-200.000	0.001	0.064
-240.917	800.000	0.094	0.392
-239.903	-56.891	0.246	0.108
-238.888	-106.788	-0.159	-0.035
-237.873	800.000	-0.055	0.166
-236.859	-37.905	-0.222	-0.117
-235.844	35.911	0.015	-0.013
-234.830	729.346	-0.056	0.146
-233.815	138.144	-0.126	-0.164
-232.800	681.181	-0.135	-0.347
-231.786	-46.508	-0.200	0.097
-230.771	203.546	0.093	0.143
-229.757	-150.729	-0.336	-0.025
-228.742	18.912	-0.009	-0.007
-227.727	-200.000	0.008	0.096
-226.713	-141.052	0.192	0.019
-225.698	800.000	0.025	-0.077
-224.684	-200.000	-0.017	0.201
-223.669	-104.274	-0.255	-0.058
-222.655	19.787	-0.084	-0.067
-221.640	15.413	-0.068	0.053
-220.625	-76.074	-0.035	0.012
-219.611	-32.591	-0.253	-0.139
-218.596	-59.056	0.361	0.154
-217.582	452.417	0.097	-0.212
-216.567	800.000	0.063	-0.187
-215.552	26.983	0.153	0.127
-214.538	-200.000	0.014	0.373
-213.523	-200.000	-0.008	-0.075
-212.509	397.336	0.137	-0.283
-211.494	-31.735	-0.159	-0.088
-210.479	399.434	0.102	0.210
-209.465	-5.844	-0.058	0.039
-208.450	-200.000	-0.017	0.126
-207.436	-200.000	-0.033	-0.206
-206.421	373.647	0.153	0.308
-205.406	-151.712	0.257	-0.019
-204.392	800.000	0.037	0.107
-203.377	-3.849	-0.132	-0.090
-202.363	0.713	0.262	0.185
-201.348	-113.112	-0.090	-0.018
-200.333	599.702	0.045	-0.109
-199.319	800.000	0.033	0.136
-198.304	-66.104	-0.263	0.104
-197.290	-45.570	0.258	-0.126
-196.275	-115.128	0.101	0.019
-195.260	-176.904	-0.138	0.003
-194.246	58.566	0.066	0.063
-193.231	351.814	0.121	0.237
-192.217	278.675	-0.049	0.087
-191.202	138.979	0.236	0.305
-190.187	800.000	-0.068	0.225
-189.173	617.535	0.175	0.434
-188.158	-107.844	-0.126	0.027
-187.144	-105.894	-0.283	0.063
-186.129	-200.000	-0.022	0.609
-185.114	-127.117	0.079	0.011
-184.100	136.250	0.076	-0.098
-183.085	33.454	0.060	0.051
-182.071	-29.553	-0.038	-0.022
-181.056	-200.000	-0.023	-0.180
-180.042	-200.000	-0.014	0.095
-179.027	61.819	-0.239	0.235
-178.012	310.376	0.072	0.132
-176.998	800.000	-0.076	0.212
-175.983	-78.016	-0.178	-0.060
-174.969	-165.874	-0.116	-0.005
-173.954	-200.000	0.008	0.397
-172.939	800.000	0.060	0.172
-171.925	-30.119	-0.183	-0.103
-170.910	-200.000	0.060	0.264
-169.896	-146.282	0.570	0.049
-168.881	-149.984	0.317	0.024
-167.866	100.533	0.170	0.195
-166.852	-200.000	0.036	-0.177
-165.837	110.912	0.106	0.125
-164.823	-147.617	-0.131	-0.011
-163.808	-138.999	0.308	0.033
-162.793	-170.648	-0.200	-0.007
-161.779	-200.000	0.043	-0.213
-160.764	-64.925	0.110	0.044
-159.750	-200.000	0.063	-0.490
-158.735	-90.360	0.248	-0.071
-157.720	412.539	-0.093	0.194
-156.706	217.789	-0.219	0.344
-155.691	124.353	-0.140	0.173
-154.677	189.950	-0.062	0.092
-153.662	99.336	-0.105	0.119
-152.647	-30.109	-0.219	-0.123
-151.633	-200.000	0.073	-0.449
-150.618	333.933	-0.135	0.257
-149.604	59.577	-0.108	0.105
-148.589	64.490	0.105	0.104
-147.574	-142.995	0.070	0.007
-146.560	-59.953	0.114	0.048
-145.545	-105.650	0.239	-0.053
-144.531	158.556	0.100	0.136
-143.516	-67.265	-0.164	0.063
-142.502	457.161	-0.033	-0.073
-141.487	-86.074	0.082	0.025
-140.472	-23.398	0.117	-0.069
-139.458	48.507	-0.120	0.111
-138.443	-126.140	0.169	-0.025
-137.429	800.000	-0.151	0.487
-136.414	219.365	-0.308	0.485
-135.399	-68.389	0.013	-0.005
-134.385	-28.720	0.139	0.079
-133.370	-200.000	-0.026	0.255
-132.356	-71.455	-0.224	0.082
-131.341	193.757	0.240	0.358
-130.326	181.955	-0.042	-0.061
-129.312	156.224	-0.069	0.094
-128.297	-36.938	-0.177	0.094
-127.283	-119.443	0.343	0.059
-126.268	-79.547	0.363	0.121
-125.253	197.721	-0.181	-0.271
-124.239	-87.008	-0.192	0.057
-123.224	-30.728	-0.127	-0.071
-122.210	-152.519	0.289	-0.020
