DTS Sentinel unit serial number:	SN413079Multiplexer serial number:	ORYXHardware model number:	OX4-SRSoftware version number:	ORYX F/W v4.00 Oryx Data Collector v3.7.2.0data status	okinstallation	princeton_trtdifferential loss correction	single-endedforward channel	channel 1reverse channel	N/Adate	2019/09/13time	23:34:35forward acquisition time	60.00reverse acquisition time	0.00gamma	496.2192k internal	0.2337k external	0.2337temperature offset calibration	1.0081default loss term (dB/km)	0.3790temperature slope calibration	1.0000multiplexer offset coefficient	1.0000multiplexer slope coefficient	1.0000fibre end	0.00T internal ref (°C)	26.80T ext. ref 1 (°C)	3.19T ext. ref 2 (°C)	21.05length (m)	temperature (°C)	Stokes	anti-Stokes-747.200	174.619	-0.019	0.027
-746.185	43.064	0.043	0.039
-745.171	-2.657	-0.127	0.089
-744.156	-69.258	0.177	0.068
-743.142	-80.498	0.353	0.118
-742.127	597.512	0.075	-0.188
-741.112	260.405	-0.098	0.171
-740.098	-200.000	0.022	-0.120
-739.083	-130.032	-0.318	-0.044
-738.069	-200.000	0.041	0.301
-737.054	-72.261	-0.149	-0.055
-736.039	246.258	-0.115	-0.194
-735.025	287.524	0.070	-0.127
-734.010	94.867	-0.089	0.102
-732.996	-200.000	0.027	-0.202
-731.981	-74.861	-0.111	-0.040
-730.966	800.000	0.021	0.090
-729.952	-157.305	-0.215	0.013
-728.937	800.000	-0.023	-0.100
-727.923	-200.000	0.023	-0.307
-726.908	-173.991	-0.261	0.008
-725.894	-200.000	-0.017	0.077
-724.879	-99.450	0.054	-0.014
-723.864	800.000	0.058	0.209
-722.850	145.165	0.172	0.231
-721.835	-111.045	-0.286	-0.059
-720.821	-200.000	0.002	-0.152
-719.806	102.313	-0.146	-0.171
-718.791	-10.321	-0.205	-0.137
-717.777	526.877	0.106	-0.251
-716.762	-200.000	-0.065	-0.343
-715.748	2.533	0.168	0.122
-714.733	141.819	0.154	-0.204
-713.718	-82.519	0.116	0.038
-712.704	-100.413	-0.371	-0.092
-711.689	195.131	0.164	-0.250
-710.675	240.537	-0.219	0.367
-709.660	41.407	0.257	-0.233
-708.645	60.995	-0.213	0.212
-707.631	-28.154	0.279	0.162
-706.616	800.000	-0.038	-0.157
-705.602	122.275	0.080	-0.100
-704.587	-200.000	-0.030	0.266
-703.572	800.000	-0.056	-0.239
-702.558	-91.083	-0.513	-0.148
-701.543	128.275	0.160	-0.204
-700.529	146.074	-0.145	-0.195
-699.514	54.321	0.025	-0.025
-698.499	-106.068	-0.192	-0.043
-697.485	-86.090	0.292	-0.090
-696.470	228.722	-0.125	-0.204
-695.456	35.491	0.164	-0.144
-694.441	316.122	0.047	-0.089
-693.426	-14.011	-0.248	-0.160
-692.412	-200.000	0.030	-0.168
-691.397	-128.246	-0.176	0.025
-690.383	-114.437	-0.347	0.067
-689.368	54.768	-0.113	-0.110
-688.354	-192.088	0.214	0.002
-687.339	800.000	0.077	-0.219
-686.324	-108.573	-0.301	0.065
-685.310	-200.000	0.010	-0.210
-684.295	-52.550	0.107	-0.049
-683.281	-86.157	0.244	-0.075
-682.266	3.396	-0.154	0.112
-681.251	49.685	-0.196	-0.185
-680.237	800.000	-0.061	0.169
-679.222	211.294	0.099	0.157
-678.208	458.708	-0.069	0.153
-677.193	1.893	0.095	0.069
-676.178	-200.000	-0.014	-0.171
-675.164	-200.000	0.009	0.120
-674.149	-200.000	0.049	-0.542
-673.135	-94.011	0.358	-0.098
-672.120	-38.450	-0.157	0.083
-671.105	793.202	0.124	0.342
-670.091	702.088	0.078	-0.205
-669.076	107.046	0.093	-0.111
-668.062	-200.000	0.016	0.081
-667.047	-18.858	-0.158	-0.098
-666.032	178.181	-0.133	0.195
-665.018	104.456	-0.141	0.166
-664.003	147.553	-0.060	0.080
-662.989	115.770	0.171	0.209
-661.974	492.770	-0.084	-0.193
-660.959	34.076	-0.203	0.177
-659.945	800.000	0.012	0.051
-658.930	-200.000	0.064	-0.305
-657.916	133.259	0.184	-0.237
-656.901	800.000	0.149	-0.527
-655.886	-98.247	0.464	-0.119
-654.872	-121.755	0.340	0.056
-653.857	4.266	0.073	0.053
-652.843	800.000	-0.084	-0.265
-651.828	-170.272	-0.110	-0.004
-650.814	-102.447	0.187	0.045
-649.799	289.050	-0.200	0.362
-648.784	109.774	-0.270	0.324
-647.770	439.424	-0.159	-0.348
-646.755	800.000	-0.113	-0.312
-645.741	44.253	-0.098	-0.090
-644.726	-200.000	-0.013	0.110
-643.711	523.470	-0.109	0.256
-642.697	25.530	0.160	0.133
-641.682	287.165	-0.208	0.376
-640.668	-19.490	-0.114	-0.071
-639.653	-114.089	-0.214	0.041
-638.638	-52.245	-0.267	-0.124
-637.624	62.501	0.198	-0.198
-636.609	-200.000	0.051	0.341
-635.595	800.000	-0.048	-0.149
-634.580	-200.000	0.026	0.274
-633.565	592.831	-0.098	0.242
-632.551	-74.722	-0.261	0.094
-631.536	800.000	-0.056	0.174
-630.522	-200.000	0.007	0.189
-629.507	123.562	-0.160	0.201
-628.492	146.489	-0.137	-0.184
-627.478	796.759	0.030	0.084
-626.463	-200.000	0.011	-0.175
-625.449	4.213	-0.140	0.103
-624.434	-100.647	0.169	-0.042
-623.419	794.872	0.036	-0.099
-622.405	22.741	-0.249	0.204
-621.390	699.634	0.090	0.237
-620.376	-106.511	-0.152	0.034
-619.361	-64.719	-0.130	-0.053
-618.346	-23.547	-0.083	-0.049
-617.332	189.061	-0.082	-0.122
-616.317	135.977	-0.072	-0.094
-615.303	45.363	-0.048	0.044
-614.288	156.440	0.091	0.126
-613.273	-200.000	0.021	0.131
-612.259	-73.343	-0.206	0.075
-611.244	159.541	0.065	0.091
-610.230	748.500	0.118	0.317
-609.215	-168.932	0.198	0.007
-608.201	476.404	0.067	0.150
-607.186	-106.730	0.458	-0.102
-606.171	-121.467	-0.340	-0.056
-605.157	-68.656	0.152	0.059
-604.142	-63.171	0.345	0.142
-603.128	352.127	-0.132	-0.261
-602.113	800.000	-0.065	-0.215
-601.098	-200.000	0.005	-0.233
-600.084	793.541	0.078	-0.215
-599.069	-32.100	0.173	-0.096
-598.055	-26.187	-0.143	-0.084
-597.040	-200.000	-0.043	0.188
-596.025	230.371	0.116	-0.189
-595.011	-200.000	0.052	0.276
-593.996	402.921	-0.096	0.202
-592.982	53.839	-0.119	-0.114
-591.967	9.360	0.249	-0.188
-590.952	-148.352	-0.055	-0.004
-589.938	92.703	0.067	-0.075
-588.923	42.115	-0.082	-0.075
-587.909	783.471	0.115	0.313
-586.894	243.165	0.117	0.195
-585.879	-200.000	0.063	-0.320
-584.865	800.000	-0.032	-0.121
-583.850	-129.717	0.168	-0.023
-582.836	-138.729	-0.258	-0.028
-581.821	533.393	-0.102	0.240
-580.806	-200.000	-0.041	0.250
-579.792	-136.187	0.248	0.029
-578.777	-26.748	-0.137	-0.080
-577.763	-46.724	0.265	0.129
-576.748	294.675	-0.106	0.193
-575.733	800.000	0.040	0.114
-574.719	206.516	0.139	-0.215
-573.704	-114.254	-0.334	-0.064
-572.690	20.016	-0.265	-0.213
-571.675	-63.214	0.233	0.096
-570.661	-6.127	-0.285	-0.194
-569.646	-200.000	-0.026	0.127
-568.631	-134.937	0.385	0.046
-567.617	222.890	0.015	-0.024
-566.602	-86.058	-0.278	0.085
-565.588	800.000	0.054	-0.184
-564.573	-111.495	-0.108	-0.022
-563.558	-151.569	0.117	-0.009
-562.544	800.000	0.139	0.547
-561.529	425.951	0.041	-0.088
-560.515	54.000	0.276	-0.264
-559.500	-66.368	-0.108	-0.043
-558.485	-84.543	0.268	0.084
-557.471	-156.409	0.350	0.022
-556.456	429.107	0.048	-0.103
-555.442	800.000	-0.056	-0.224
-554.427	-38.907	0.402	0.211
-553.412	115.183	0.120	0.146
-552.398	-200.000	0.000	-0.222
-551.383	84.591	0.063	0.069
-550.369	82.261	-0.121	-0.131
-549.354	84.084	-0.095	-0.103
-548.339	268.734	0.087	-0.151
-547.325	-22.488	-0.068	-0.041
-546.310	-200.000	-0.005	0.207
-545.296	800.000	-0.032	-0.096
-544.281	800.000	0.164	-0.486
-543.266	445.809	-0.056	-0.123
-542.252	-200.000	0.002	0.270
-541.237	354.227	-0.040	0.080
-540.223	42.421	-0.310	0.281
-539.208	-28.338	-0.245	0.141
-538.193	-200.000	-0.001	0.050
-537.179	-16.486	0.160	-0.101
-536.164	800.000	0.122	-0.458
-535.150	-9.452	0.141	0.094
-534.135	800.000	0.049	-0.213
-533.121	800.000	-0.034	-0.132
-532.106	276.754	0.056	-0.098
-531.091	-200.000	-0.019	0.237
-530.077	44.244	0.190	0.174
-529.062	263.221	0.034	-0.058
-528.048	-84.261	-0.247	-0.078
-527.033	53.163	-0.057	0.054
-526.018	-101.250	-0.353	0.086
-525.004	34.535	0.108	0.094
-523.989	72.468	-0.133	0.138
-522.975	53.619	0.223	0.213
-521.960	-42.482	0.345	0.175
-520.945	-104.452	-0.247	-0.057
-519.931	-121.751	-0.231	-0.038
-518.916	-200.000	-0.001	0.056
-517.902	36.028	-0.070	-0.061
-516.887	-17.823	0.160	0.100
-515.872	800.000	0.108	-0.401
-514.858	-108.639	-0.106	-0.023
-513.843	-200.000	-0.043	0.205
-512.829	101.923	0.316	0.367
-511.814	19.212	-0.122	-0.098
-510.799	-115.133	-0.302	-0.057
-509.785	85.610	0.150	-0.164
-508.770	-95.901	0.305	-0.081
-507.756	46.312	0.308	-0.284
-506.741	-200.000	-0.014	0.131
-505.726	183.794	-0.136	0.200
-504.712	647.257	0.020	-0.051
-503.697	-200.000	-0.078	-0.443
-502.683	-132.007	0.292	-0.038
-501.668	139.017	-0.194	-0.254
-500.653	-37.609	-0.165	0.088
-499.639	-200.000	-0.013	-0.211
-498.624	-40.040	-0.337	-0.175
-497.610	-200.000	-0.016	-0.148
-496.595	518.927	0.107	-0.249
-495.581	-112.782	-0.301	-0.059
-494.566	800.000	0.098	0.327
-493.551	-200.000	-0.048	0.246
-492.537	107.589	-0.286	0.339
-491.522	-13.961	-0.088	0.057
-490.508	62.758	-0.101	0.101
-489.493	225.643	-0.090	-0.146
-488.478	-200.000	-0.020	-0.299
-487.464	-200.000	0.004	-0.264
-486.449	-154.142	-0.417	-0.028
-485.435	57.724	-0.227	-0.221
-484.420	-152.164	-0.338	-0.024
-483.405	-200.000	-0.021	-0.154
-482.391	-63.123	-0.144	0.059
-481.376	63.022	0.196	-0.195
-480.362	800.000	-0.013	-0.037
-479.347	-200.000	-0.021	-0.220
-478.332	-200.000	0.000	-0.334
-477.318	-57.238	-0.496	0.217
-476.303	113.745	0.257	-0.310
-475.289	11.441	0.050	-0.038
-474.274	-110.430	-0.187	0.039
-473.259	-200.000	0.040	0.565
-472.245	-158.967	0.244	0.014
-471.230	-9.725	-0.323	-0.214
-470.216	68.898	-0.210	-0.215
-469.201	800.000	-0.052	0.156
-468.186	4.618	-0.184	-0.134
-467.172	-200.000	0.041	-0.211
-466.157	-200.000	0.005	-0.138
-465.143	-110.492	0.245	-0.050
-464.128	-68.837	-0.118	-0.045
-463.113	-29.936	0.109	-0.062
-462.099	-111.415	0.086	0.017
-461.084	162.816	-0.010	0.015
-460.070	78.134	-0.096	-0.102
-459.055	20.998	-0.344	-0.277
-458.040	89.038	0.138	-0.153
-457.026	730.473	0.089	-0.236
-456.011	147.927	0.017	-0.022
-454.997	800.000	-0.094	0.276
-453.982	-200.000	0.018	0.113
-452.968	-200.000	-0.014	0.099
-451.953	-36.003	-0.067	0.036
-450.938	-200.000	0.020	0.143
-449.924	108.027	-0.142	0.168
-448.909	-200.000	-0.020	-0.175
-447.895	-41.177	0.162	-0.083
-446.880	577.323	0.183	0.445
-445.865	-133.968	0.044	0.005
-444.851	-68.907	-0.299	-0.114
-443.836	261.934	-0.221	0.381
-442.822	27.661	-0.055	0.046
-441.807	-108.391	0.434	0.093
-440.792	224.704	-0.053	-0.085
-439.778	20.402	0.107	0.085
-438.763	8.110	-0.372	-0.277
-437.749	-200.000	-0.014	0.269
-436.734	-95.191	0.318	-0.085
-435.719	-4.773	0.122	0.084
-434.705	-5.993	-0.274	0.186
-433.690	162.157	0.239	0.333
-432.676	-68.150	0.290	0.112
-431.661	178.867	-0.016	0.023
-430.646	56.585	-0.149	0.144
-429.632	4.437	-0.236	-0.172
-428.617	67.582	-0.101	0.102
-427.603	-163.449	-0.195	0.009
-426.588	253.021	-0.197	-0.334
-425.573	-200.000	0.011	-0.253
-424.559	-200.000	0.002	0.016
-423.544	362.453	-0.137	-0.273
-422.530	89.183	-0.279	-0.308
-421.515	110.288	-0.137	-0.163
-420.500	-41.202	0.193	-0.099
-419.486	800.000	-0.068	0.285
-418.471	603.751	0.061	-0.150
-417.457	201.970	-0.134	-0.205
-416.442	-180.521	-0.318	0.007
-415.428	-200.000	-0.001	-0.166
-414.413	191.079	-0.066	0.098
-413.398	11.286	-0.287	0.217
-412.384	800.000	0.096	-0.292
-411.369	-200.000	-0.006	-0.060
-410.355	800.000	-0.033	-0.100
-409.340	800.000	-0.068	-0.253
-408.325	21.792	-0.152	0.123
-407.311	-40.091	0.088	0.046
-406.296	-190.387	-0.232	0.003
-405.282	79.163	0.149	0.158
-404.267	26.974	0.152	0.126
-403.252	282.217	0.110	-0.195
-402.238	347.702	0.020	0.040
-401.223	318.796	-0.115	0.217
-400.209	641.309	0.117	-0.296
-399.194	112.423	-0.012	-0.015
-398.179	-157.751	0.501	0.030
-397.165	13.845	0.073	0.056
-396.150	-200.000	-0.019	-0.089
-395.136	-86.525	-0.037	-0.011
-394.121	800.000	0.103	0.352
-393.106	450.095	0.076	-0.166
-392.092	-47.303	0.118	-0.057
-391.077	121.945	0.029	-0.036
-390.063	800.000	0.030	-0.097
-389.048	14.172	-0.302	0.233
-388.033	-200.000	-0.051	0.317
-387.019	800.000	0.033	-0.101
-386.004	800.000	0.064	0.231
-384.990	800.000	0.032	-0.111
-383.975	-75.543	0.366	-0.129
-382.960	113.736	-0.102	0.122
-381.946	66.805	0.121	0.122
-380.931	126.204	0.080	-0.100
-379.917	-37.453	0.455	0.240
-378.902	-91.126	0.071	-0.020
-377.888	-200.000	0.024	0.216
-376.873	-54.584	-0.102	-0.045
-375.858	-119.682	0.150	-0.026
-374.844	48.469	0.363	-0.336
-373.829	-137.820	-0.291	0.032
-372.815	-200.000	0.030	-0.228
-371.800	-104.173	0.165	-0.038
-370.785	-28.295	0.062	-0.035
-369.771	13.749	-0.124	0.095
-368.756	302.422	0.266	0.486
-367.742	-73.109	0.037	0.013
-366.727	108.505	0.157	-0.185
-365.712	149.128	0.145	0.194
-364.698	-65.214	-0.235	0.094
-363.683	-200.000	-0.020	-0.094
-362.669	15.707	0.079	-0.062
-361.654	-95.725	0.100	-0.026
-360.639	290.800	-0.156	-0.280
-359.625	-40.948	0.324	-0.166
-358.610	10.650	0.056	-0.042
-357.596	430.395	0.006	-0.013
-356.581	601.786	0.034	-0.084
-355.566	-45.424	-0.057	0.028
-354.552	-200.000	-0.001	-0.184
-353.537	-151.604	0.266	-0.019
-352.523	795.029	-0.042	0.114
-351.508	-162.463	0.330	0.016
-350.493	256.743	0.226	0.384
-349.479	328.349	0.028	-0.054
-348.464	-149.437	0.040	-0.003
-347.450	-96.188	-0.191	0.050
-346.435	-53.476	0.221	-0.100
-345.420	800.000	0.018	-0.063
-344.406	563.115	0.072	-0.173
-343.391	45.981	-0.166	0.152
-342.377	552.728	-0.135	-0.321
-341.362	10.566	0.154	0.116
-340.348	-18.473	0.314	0.194
-339.333	-23.756	-0.083	0.049
-338.318	-200.000	0.010	0.065
-337.304	159.879	0.182	0.251
-336.289	800.000	0.053	0.164
-335.275	-200.000	-0.021	0.232
-334.260	61.614	0.141	-0.138
-333.245	208.992	0.093	0.144
-332.231	-148.637	0.204	0.016
-331.216	435.408	0.005	-0.010
-330.202	12.042	-0.136	-0.103
-329.187	800.000	0.105	0.344
-328.172	-25.160	-0.144	-0.084
-327.158	287.151	-0.078	-0.138
-326.143	-65.003	0.362	0.145
-325.129	675.252	-0.030	0.076
-324.114	206.735	-0.131	-0.202
-323.099	-95.286	0.161	-0.043
-322.085	209.438	0.144	0.223
-321.070	-64.239	0.116	-0.047
-320.056	800.000	-0.031	-0.135
-319.041	218.128	-0.089	-0.140
-318.026	-121.678	-0.321	0.053
-317.012	608.225	0.162	-0.399
-315.997	643.567	-0.016	0.039
-314.983	47.415	0.076	0.070
-313.968	311.536	0.110	-0.203
-312.953	623.066	-0.083	0.205
-311.939	-19.560	0.307	0.187
-310.924	-81.512	0.029	0.009
-309.910	-184.004	0.083	-0.001
-308.895	-163.186	-0.147	-0.007
-307.880	-131.204	0.213	0.028
-306.866	-200.000	-0.027	-0.566
-305.851	97.261	-0.165	0.186
-304.837	800.000	-0.040	0.119
-303.822	60.842	0.277	-0.271
-302.807	-90.649	-0.551	0.157
-301.793	-200.000	-0.018	0.126
-300.778	-101.998	-0.070	0.017
-299.764	233.244	-0.083	0.134
-298.749	-200.000	0.003	-0.113
-297.735	29.673	0.162	-0.136
-296.720	800.000	-0.041	0.128
-295.705	23.568	0.094	0.076
-294.691	-200.000	0.003	-0.296
-293.676	244.081	-0.180	-0.297
-292.662	83.138	-0.299	-0.321
-291.647	800.000	-0.070	0.252
-290.632	-17.427	-0.117	-0.073
-289.618	800.000	-0.021	-0.082
-288.603	134.910	0.076	0.097
-287.589	800.000	0.149	-0.518
-286.574	484.524	-0.031	-0.069
-285.559	-76.222	-0.082	-0.029
-284.545	-10.204	-0.325	0.213
-283.530	-40.586	-0.449	-0.230
-282.516	13.451	0.101	0.077
-281.501	-200.000	0.015	-0.119
-280.486	121.764	0.026	-0.032
-279.472	-200.000	0.001	0.067
-278.457	-113.118	0.263	0.051
-277.443	-0.898	0.177	-0.124
-276.428	-200.000	-0.032	-0.467
-275.413	-49.094	0.210	0.099
-274.399	-161.109	0.101	-0.005
-273.384	222.196	0.056	-0.089
-272.370	-200.000	-0.024	-0.323
-271.355	-88.896	-0.252	0.074
-270.340	270.044	-0.125	0.217
-269.326	800.000	0.015	0.063
-268.311	-34.506	-0.132	0.071
-267.297	-200.000	0.027	0.278
-266.282	149.495	-0.077	0.102
-265.267	-88.947	-0.287	-0.084
-264.253	-77.858	0.099	-0.034
-263.238	-189.452	0.416	-0.005
-262.224	55.090	-0.356	0.339
-261.209	-6.661	-0.087	0.058
-260.195	-101.578	0.308	0.074
-259.180	-51.553	-0.120	0.055
-258.165	20.780	-0.446	0.356
-257.151	-200.000	-0.036	0.223
-256.136	800.000	0.093	-0.255
-255.122	-63.675	-0.458	0.185
-254.107	10.290	-0.178	-0.133
-253.092	388.321	0.089	-0.182
-252.078	-10.526	-0.117	-0.076
-251.063	-42.206	-0.037	-0.018
-250.049	141.289	0.199	0.260
-249.034	-55.932	-0.174	0.076
-248.019	-200.000	-0.019	0.118
-247.005	-181.638	0.217	0.004
-245.990	0.909	0.198	-0.140
-244.976	20.992	-0.251	0.200
-243.961	465.394	0.040	-0.088
-242.946	-200.000	0.003	-0.180
-241.932	-77.968	0.335	0.114
-240.917	-34.929	0.178	-0.096
-239.903	-125.668	-0.051	0.008
-238.888	49.114	-0.097	0.089
-237.873	-79.315	-0.198	-0.066
-236.859	-152.743	-0.073	-0.005
-235.844	21.863	0.078	0.062
-234.830	403.552	0.030	0.062
-233.815	385.516	0.245	0.498
-232.800	116.657	0.057	-0.068
-231.786	91.843	0.252	0.280
-230.771	532.114	0.047	0.109
-229.757	-57.067	0.314	0.136
-228.742	-100.846	0.079	0.019
-227.727	-167.069	-0.055	0.002
-226.713	-126.525	0.113	0.016
-225.698	720.825	-0.056	-0.145
-224.684	-110.708	0.186	0.038
-223.669	800.000	0.106	0.332
-222.655	-200.000	-0.001	-0.235
-221.640	-150.166	0.253	0.019
-220.625	800.000	0.079	0.235
-219.611	-200.000	0.012	0.136
-218.596	106.923	0.326	0.381
-217.582	-185.867	0.113	-0.002
-216.567	469.743	-0.103	-0.227
-215.552	187.432	0.156	-0.228
-214.538	-76.672	-0.350	0.121
-213.523	366.032	-0.236	-0.468
-212.509	-124.335	0.166	-0.025
-211.494	129.092	-0.115	-0.145
-210.479	61.015	0.199	0.194
-209.465	-200.000	0.002	0.064
-208.450	787.852	-0.039	0.106
-207.436	-46.493	-0.164	-0.079
-206.421	-200.000	0.022	-0.245
-205.406	-135.736	-0.169	-0.020
-204.392	69.160	-0.364	0.368
-203.377	-1.983	-0.227	-0.157
-202.363	618.546	-0.031	0.078
-201.348	800.000	0.086	-0.242
-200.333	86.021	-0.172	-0.186
-199.319	-5.565	0.059	-0.040
-198.304	800.000	-0.129	0.437
-197.290	800.000	-0.103	0.280
-196.275	-200.000	-0.091	0.433
-195.260	479.738	0.032	0.070
-194.246	481.100	-0.103	-0.230
-193.231	-129.839	0.187	0.025
-192.217	442.315	0.041	0.087
-191.202	114.688	0.142	-0.170
-190.187	800.000	0.088	-0.245
-189.173	52.249	0.089	0.083
-188.158	-200.000	0.071	-0.406
-187.144	-43.669	-0.315	0.156
-186.129	592.075	0.058	0.141
-185.114	-200.000	0.011	0.356
-184.100	-126.413	0.276	0.040
-183.085	-200.000	0.021	-0.192
-182.071	-97.166	0.241	-0.062
-181.056	-64.645	0.346	0.138
-180.042	-107.316	-0.245	0.053
-179.027	800.000	0.133	0.379
-178.012	-98.181	0.151	-0.038
-176.998	18.650	0.106	0.083
-175.983	265.062	-0.104	-0.179
-174.969	-22.818	0.124	0.074
-173.954	226.971	-0.031	0.049
-172.939	-32.576	-0.196	0.107
-171.925	800.000	0.099	-0.391
-170.910	729.473	-0.055	0.143
-169.896	318.202	-0.140	-0.260
-168.881	185.300	0.061	0.089
-167.866	80.903	-0.063	0.067
-166.852	-90.308	0.376	0.107
-165.837	800.000	0.044	-0.139
-164.823	-53.383	-0.077	-0.034
-163.808	-15.257	-0.210	-0.132
-162.793	124.421	0.154	-0.190
-161.779	123.581	-0.161	0.198
-160.764	85.918	-0.160	-0.173
-159.750	800.000	0.072	0.269
-158.735	137.393	0.124	-0.159
-157.720	-141.492	-0.033	-0.003
-156.706	-68.496	0.243	-0.092
-155.691	41.700	0.202	-0.179
-154.677	-17.230	0.183	-0.113
-153.662	-16.152	-0.411	-0.256
-152.647	-90.320	-0.225	-0.064
-151.633	-36.558	0.296	0.156
-150.618	1.243	-0.295	0.208
-149.604	-51.358	-0.409	0.187
-148.589	587.928	0.038	-0.092
-147.574	19.894	-0.168	0.133
-146.560	-178.150	-0.185	0.004
-145.545	219.796	-0.059	-0.093
-144.531	107.011	0.253	0.295
-143.516	-70.749	0.260	-0.096
-142.502	2.364	-0.327	0.232
-141.487	-127.402	-0.205	-0.029
-140.472	-200.000	0.006	-0.168
-139.458	800.000	-0.024	-0.102
-138.443	800.000	0.044	0.159
-137.429	-200.000	-0.007	-0.187
-136.414	-61.043	0.153	0.063
-135.399	-97.293	0.186	0.048
-134.385	-99.932	0.316	0.077
-133.370	-50.694	0.326	-0.150
-132.356	-61.407	0.410	-0.169
-131.341	-49.090	-0.227	0.107
-130.326	-58.204	0.337	0.144
-129.312	234.061	0.011	0.018
-128.297	-71.904	-0.034	0.012
-127.283	59.699	-0.175	0.169
-126.268	-200.000	0.036	0.203
-125.253	619.442	-0.043	-0.105
-124.239	-200.000	0.010	-0.261
-123.224	163.922	0.131	-0.180
-122.210	235.073	0.163	0.263
-121.195	800.000	0.017	-0.049
