DTS Sentinel unit serial number:	SN413079Multiplexer serial number:	ORYXHardware model number:	OX4-SRSoftware version number:	ORYX F/W v4.00 Oryx Data Collector v3.7.2.0data status	okinstallation	princeton_trtdifferential loss correction	single-endedforward channel	channel 1reverse channel	N/Adate	2019/09/12time	19:39:34forward acquisition time	15.00reverse acquisition time	0.00gamma	496.2192k internal	0.2322k external	0.2322temperature offset calibration	1.0117default loss term (dB/km)	0.3790temperature slope calibration	1.0000multiplexer offset coefficient	1.0000multiplexer slope coefficient	1.0000fibre end	0.00T internal ref (°C)	32.12T ext. ref 1 (°C)	3.24T ext. ref 2 (°C)	26.68length (m)	temperature (°C)	Stokes	anti-Stokes-747.200	-29.749	0.909	0.524
-746.185	51.829	-0.088	0.084
-745.171	366.199	0.091	-0.186
-744.156	-106.589	0.028	0.006
-743.142	-164.428	0.790	0.036
-742.127	-200.000	-0.147	0.730
-741.112	58.585	0.306	0.303
-740.098	224.931	0.404	0.661
-739.083	-200.000	0.025	-0.600
-738.069	-32.729	0.340	-0.191
-737.054	-102.155	-1.050	0.255
-736.039	3.049	0.910	0.668
-735.025	-3.097	0.310	-0.218
-734.010	715.601	0.224	0.599
-732.996	304.742	-0.130	-0.243
-731.981	-158.437	-0.257	-0.015
-730.966	48.156	0.216	0.204
-729.952	-125.017	0.295	-0.046
-728.937	299.436	-0.465	-0.865
-727.923	-168.979	0.212	0.008
-726.908	-200.000	-0.118	-0.637
-725.894	-113.076	0.499	0.099
-724.879	800.000	-0.107	0.310
-723.864	49.706	0.251	0.239
-722.850	46.270	-0.333	-0.311
-721.835	252.483	-0.381	-0.656
-720.821	800.000	0.095	-0.379
-719.806	-200.000	-0.008	0.178
-718.791	34.079	-0.256	0.225
-717.777	74.302	-0.710	0.753
-716.762	-200.000	-0.013	0.835
-715.748	800.000	0.222	-0.893
-714.733	328.046	-0.246	-0.477
-713.718	-121.122	-0.978	-0.165
-712.704	-200.000	-0.022	-0.291
-711.689	-119.014	-0.939	0.166
-710.675	-112.842	-0.720	-0.144
-709.660	-31.227	0.752	-0.427
-708.645	-94.583	0.244	0.067
-707.631	-200.000	-0.081	0.625
-706.616	8.328	-0.212	0.161
-705.602	80.329	-0.846	0.918
-704.587	57.332	-0.461	0.454
-703.572	-200.000	0.075	0.343
-702.558	-200.000	-0.176	0.802
-701.543	22.033	0.503	0.413
-700.529	-128.672	0.537	0.076
-699.514	-29.808	-0.235	-0.135
-698.499	-200.000	-0.019	-0.379
-697.485	330.311	-0.349	0.678
-696.470	-21.980	0.351	0.215
-695.456	800.000	0.121	-0.361
-694.441	212.526	-0.060	0.096
-693.426	480.224	-0.288	-0.658
-692.412	172.836	0.204	0.296
-691.397	800.000	-0.057	-0.200
-690.383	46.640	-0.567	0.531
-689.368	234.773	0.482	0.802
-688.354	-170.494	-0.108	0.004
-687.339	724.356	0.088	-0.237
-686.324	-60.951	-0.714	-0.304
-685.310	-22.287	0.707	0.432
-684.295	-119.530	-0.443	-0.077
-683.281	-91.549	0.802	-0.230
-682.266	46.354	-0.326	0.305
-681.251	160.960	-0.145	-0.204
-680.237	233.365	-0.201	-0.333
-679.222	-48.418	0.547	-0.266
-678.208	90.067	0.255	-0.288
-677.193	-141.300	-0.476	-0.049
-676.178	278.560	0.293	0.527
-675.164	122.786	0.394	0.497
-674.149	800.000	-0.183	-0.674
-673.135	-72.353	-0.170	-0.063
-672.120	-58.997	-0.686	0.298
-671.105	-5.572	0.531	-0.367
-670.091	15.986	0.191	0.152
-669.076	-122.736	0.464	0.076
-668.062	-75.101	-1.209	-0.436
-667.047	-200.000	-0.085	-0.410
-666.032	191.229	0.151	-0.229
-665.018	25.041	0.710	0.593
-664.003	231.808	-0.433	-0.715
-662.989	-6.481	0.294	0.202
-661.974	79.794	0.776	0.840
-660.959	273.646	-0.184	0.327
-659.945	800.000	0.269	-0.798
-658.930	-101.850	0.626	-0.153
-657.916	-200.000	0.067	-0.931
-656.901	-87.723	0.589	-0.179
-655.886	-84.570	-0.621	-0.197
-654.872	-149.981	0.262	0.021
-653.857	-53.422	-1.004	0.463
-652.843	-80.644	0.230	-0.077
-651.828	-122.696	0.540	0.088
-650.814	-40.425	0.033	0.017
-649.799	-73.809	-0.298	0.109
-648.784	207.694	-0.671	-1.055
-647.770	-200.000	-0.015	-0.437
-646.755	498.649	-0.189	0.437
-645.741	800.000	-0.149	-0.457
-644.726	-132.968	0.547	0.070
-643.711	-183.420	0.244	0.004
-642.697	285.791	-0.282	0.511
-641.682	-74.742	0.184	-0.067
-640.668	-200.000	-0.005	0.063
-639.653	-103.120	0.500	0.119
-638.638	209.275	-0.487	-0.768
-637.624	-200.000	-0.050	0.285
-636.609	-88.277	1.015	-0.306
-635.595	-23.697	-0.232	0.140
-634.580	-108.308	0.376	-0.082
-633.565	83.707	0.460	-0.505
-632.551	168.688	-0.433	0.620
-631.536	163.470	0.327	0.463
-630.522	-87.976	0.165	0.050
-629.507	-4.922	-0.449	0.311
-628.492	-200.000	-0.013	-0.321
-627.478	-191.871	0.501	0.005
-626.463	9.915	-0.427	-0.326
-625.449	-200.000	0.113	1.075
-624.434	-127.751	0.689	0.100
-623.419	800.000	0.176	-0.620
-622.405	-200.000	0.108	1.004
-621.390	83.325	0.188	-0.206
-620.376	800.000	-0.195	-0.737
-619.361	-60.982	-0.208	-0.088
-618.346	-200.000	0.021	-0.561
-617.332	26.931	-0.754	0.635
-616.317	-86.094	1.072	0.333
-615.303	49.969	0.293	-0.278
-614.288	53.726	-0.476	-0.459
-613.273	-133.752	-0.316	-0.040
-612.259	-16.191	-0.371	-0.237
-611.244	800.000	-0.188	0.610
-610.230	-108.526	0.486	0.105
-609.215	-112.920	-0.184	0.037
-608.201	120.275	0.260	-0.325
-607.186	563.427	0.057	-0.138
-606.171	-200.000	-0.143	0.921
-605.157	-200.000	-0.069	1.078
-604.142	-103.995	0.163	0.038
-603.128	5.431	-0.943	-0.699
-602.113	398.010	0.111	-0.234
-601.098	-200.000	0.085	0.615
-600.084	177.475	0.178	-0.260
-599.069	-21.832	-0.528	-0.323
-598.055	-147.538	0.561	0.048
-597.040	-200.000	-0.011	-0.469
-596.025	136.992	-0.218	-0.286
-595.011	-75.589	0.078	0.028
-593.996	-114.619	-0.404	-0.078
-592.982	-21.362	0.315	-0.193
-591.967	101.995	-0.448	0.525
-590.952	-200.000	0.048	-0.271
-589.938	-200.000	-0.004	-0.544
-588.923	-149.139	0.638	0.051
-587.909	-67.917	-0.728	-0.285
-586.894	800.000	-0.290	0.828
-585.879	287.898	-0.356	0.648
-584.865	-161.581	-0.302	-0.016
-583.850	-112.069	-0.557	-0.113
-582.836	-18.440	-0.474	0.297
-581.821	-103.061	0.251	-0.060
-580.806	132.359	-0.571	-0.738
-579.792	800.000	0.030	-0.130
-578.777	109.042	-0.830	0.996
-577.763	-115.563	0.576	0.109
-576.748	-200.000	0.102	0.808
-575.733	-200.000	-0.023	-0.261
-574.719	59.627	0.657	0.650
-573.704	159.155	0.154	0.215
-572.690	263.622	0.245	-0.427
-571.675	-68.090	0.705	0.276
-570.661	222.258	-0.632	-1.020
-569.646	-123.798	0.244	-0.039
-568.631	131.638	-0.717	0.925
-567.617	-55.354	-0.593	0.267
-566.602	-28.711	-0.311	-0.180
-565.588	-162.610	-0.622	-0.031
-564.573	640.429	-0.271	-0.691
-563.558	800.000	0.067	-0.241
-562.544	25.376	0.386	0.322
-561.529	320.499	0.234	-0.445
-560.515	-2.858	0.533	-0.373
-559.500	-116.999	-0.716	0.131
-558.485	-200.000	0.071	0.326
-557.471	800.000	0.094	0.261
-556.456	800.000	-0.079	-0.273
-555.442	-81.290	0.509	0.168
-554.427	-13.412	-0.460	0.299
-553.412	602.650	0.233	0.581
-552.398	800.000	0.115	-0.390
-551.383	-36.490	-0.406	0.219
-550.369	182.644	0.454	0.671
-549.354	-200.000	-0.017	0.558
-548.339	30.114	-0.386	-0.330
-547.325	800.000	0.164	-0.699
-546.310	-200.000	0.033	-0.363
-545.296	-0.057	-0.130	0.092
-544.281	-116.427	0.375	0.069
-543.266	434.252	-0.293	0.637
-542.252	355.465	0.129	-0.257
-541.237	342.794	-0.346	-0.679
-540.223	-40.233	0.349	0.182
-539.208	36.135	0.567	0.501
-538.193	-198.351	0.670	-0.004
-537.179	800.000	-0.046	0.185
-536.164	42.317	0.263	0.239
-535.150	800.000	-0.108	0.401
-534.135	734.090	-0.180	0.482
-533.121	113.074	0.617	0.750
-532.106	375.452	0.230	0.469
-531.091	-47.961	-0.153	0.074
-530.077	94.518	-0.450	-0.513
-529.062	512.683	0.256	-0.598
-528.048	-200.000	-0.079	-0.533
-527.033	57.725	0.139	0.136
-526.018	104.673	0.367	-0.433
-525.004	-200.000	0.017	-0.268
-523.989	800.000	-0.247	0.761
-522.975	800.000	0.250	-0.763
-521.960	161.998	0.150	-0.211
-520.945	311.858	0.123	0.231
-519.931	31.084	-0.197	-0.169
-518.916	-119.430	-0.511	-0.089
-517.902	-51.056	-0.907	-0.426
-516.887	-200.000	-0.115	-0.670
-515.872	295.131	0.491	0.900
-514.858	-112.236	-0.128	0.026
-513.843	800.000	-0.158	-0.610
-512.829	-93.066	0.381	0.106
-511.814	108.652	-0.244	-0.292
-510.799	800.000	0.119	-0.421
-509.785	-84.515	-0.071	0.022
-508.770	-5.783	0.181	0.124
-507.756	-23.866	0.710	0.425
-506.741	596.820	-0.106	0.263
-505.726	104.943	-0.170	-0.201
-504.712	-200.000	0.093	-0.471
-503.697	200.455	0.609	0.937
-502.683	-52.102	-0.142	0.066
-501.668	800.000	-0.236	-0.793
-500.653	800.000	-0.268	-0.912
-499.639	21.805	0.682	-0.556
-498.624	770.050	-0.152	-0.415
-497.610	201.663	0.464	0.715
-496.595	199.957	0.158	0.242
-495.581	259.212	-0.399	0.688
-494.566	68.549	0.350	0.359
-493.551	800.000	0.167	-0.574
-492.537	712.821	0.072	-0.192
-491.522	11.980	-0.186	-0.143
-490.508	-200.000	0.076	0.498
-489.493	-200.000	0.010	0.105
-488.478	133.510	-0.334	0.431
-487.464	38.477	0.234	0.208
-486.449	45.174	0.434	0.400
-485.435	127.863	0.471	0.598
-484.420	-34.074	0.480	0.264
-483.405	61.215	0.374	-0.372
-482.391	117.235	-0.552	-0.679
-481.376	800.000	-0.248	-0.875
-480.362	-18.682	0.415	0.258
-479.347	131.087	-0.395	0.507
-478.332	-75.413	-0.594	0.212
-477.318	18.809	0.129	-0.103
-476.303	-86.115	0.213	0.066
-475.289	-200.000	-0.128	0.660
-474.274	-139.659	0.426	0.045
-473.259	-122.435	-0.368	-0.060
-472.245	-125.449	-0.118	0.018
-471.230	-73.226	0.757	0.277
-470.216	-102.462	-0.440	0.105
-469.201	245.770	0.087	-0.147
-468.186	-200.000	0.276	0.001
-467.172	-130.931	-0.122	-0.016
-466.157	40.143	0.338	0.303
-465.143	135.322	0.191	0.248
-464.128	-62.728	0.391	0.162
-463.113	800.000	-0.074	0.280
-462.099	-130.153	-0.530	0.072
-461.084	57.890	0.258	-0.252
-460.070	237.671	0.119	0.197
-459.055	-72.993	0.395	-0.145
-458.040	577.169	-0.562	1.372
-457.026	-43.515	0.159	-0.080
-456.011	-80.164	0.659	0.221
-454.997	-145.190	-0.385	0.035
-453.982	101.743	-0.105	0.122
-452.968	10.106	-0.480	0.364
-451.953	558.928	0.206	0.497
-450.938	-44.482	-0.610	-0.305
-449.924	29.152	-0.624	0.529
-448.909	-93.156	-0.612	-0.170
-447.895	800.000	0.232	0.694
-446.880	-2.019	-0.208	0.146
-445.865	86.311	-0.971	-1.068
-444.851	193.308	-0.157	0.237
-443.836	800.000	-0.254	0.987
-442.822	264.498	0.417	0.725
-441.807	-136.702	-0.298	-0.034
-440.792	104.313	-0.271	-0.319
-439.778	-79.358	-0.499	0.168
-438.763	-7.370	0.106	-0.071
-437.749	198.034	-0.132	0.201
-436.734	-11.828	-0.915	-0.599
-435.719	-135.187	-0.589	-0.071
-434.705	-58.006	-0.654	-0.285
-433.690	49.827	0.317	0.298
-432.676	79.880	-0.460	-0.494
-431.661	174.625	-0.473	0.683
-430.646	15.423	0.198	0.155
-429.632	625.884	-0.095	0.240
-428.617	80.177	-0.867	0.930
-427.603	-200.000	-0.010	-0.469
-426.588	-182.814	-0.484	0.009
-425.573	-200.000	-0.002	0.066
-424.559	115.491	0.282	-0.344
-423.544	709.694	0.138	0.365
-422.530	-200.000	-0.050	0.716
-421.515	-200.000	-0.050	0.313
-420.500	248.140	-0.170	0.287
-419.486	-23.855	0.366	-0.218
-418.471	7.402	-0.446	-0.333
-417.457	-200.000	-0.023	0.240
-416.442	381.104	0.293	-0.600
-415.428	-78.473	-1.059	0.362
-414.413	-83.981	-0.428	0.136
-413.398	-120.030	-0.767	-0.131
-412.384	-200.000	0.001	-0.869
-411.369	-200.000	-0.161	0.761
-410.355	231.573	-0.148	-0.241
-409.340	48.726	0.395	-0.369
-408.325	-19.634	-0.368	0.227
-407.311	-59.506	-0.491	0.210
-406.296	117.151	-0.082	-0.100
-405.282	-135.772	-0.463	-0.055
-404.267	-118.302	-0.591	0.105
-403.252	-200.000	-0.096	-0.800
-402.238	-78.482	0.602	-0.206
-401.223	-51.343	0.370	0.173
-400.209	-137.150	-0.235	0.027
-399.194	800.000	0.079	-0.242
-398.179	430.760	0.198	0.427
-397.165	-200.000	0.026	-0.359
-396.150	173.754	0.289	-0.415
-395.136	-142.818	-0.435	0.042
-394.121	278.320	-0.331	0.588
-393.106	25.394	0.756	-0.627
-392.092	-23.041	-0.499	-0.299
-391.077	-200.000	0.004	-0.347
-390.063	241.867	0.096	-0.161
-389.048	7.655	-0.695	0.519
-388.033	800.000	0.151	0.550
-387.019	-118.852	0.142	0.025
-386.004	800.000	0.154	-0.648
-384.990	57.960	0.469	0.457
-383.975	303.171	0.261	0.481
-382.960	-75.874	-0.373	-0.132
-381.946	281.163	0.344	0.613
-380.931	-44.612	-0.591	0.294
-379.917	190.660	-0.294	-0.440
-378.902	26.619	-0.397	-0.331
-377.888	649.564	-0.063	-0.159
-376.873	41.639	-0.481	-0.434
-375.858	-87.738	0.308	-0.093
-374.844	-94.437	-0.333	-0.090
-373.829	-200.000	0.143	-0.665
-372.815	800.000	-0.262	0.721
-371.800	800.000	-0.036	-0.139
-370.785	-200.000	-0.056	0.296
-369.771	-114.260	0.511	0.098
-368.756	-200.000	-0.122	-1.124
-367.742	-200.000	0.165	-0.737
-366.727	144.986	-0.907	-1.208
-365.712	-200.000	-0.187	-0.974
-364.698	-107.168	-0.491	0.108
-363.683	-21.180	0.322	0.196
-362.669	-91.211	-0.344	0.098
-361.654	3.736	-0.460	0.334
-360.639	-61.101	0.569	-0.239
-359.625	-127.972	0.274	-0.039
-358.610	-33.579	0.574	0.315
-357.596	55.901	-0.326	0.315
-356.581	290.316	0.477	-0.862
-355.566	-114.378	-0.086	-0.017
-354.552	34.791	-0.268	-0.233
-353.537	341.409	0.167	-0.324
-352.523	136.320	0.198	-0.257
-351.508	-200.000	0.010	0.211
-350.493	-112.836	-0.590	0.116
-349.479	-40.194	0.309	-0.160
-348.464	34.552	0.321	-0.279
-347.450	-186.001	0.734	-0.011
-346.435	454.325	0.334	0.736
-345.420	-200.000	0.050	-0.264
-344.406	3.451	0.743	0.538
-343.391	-0.268	0.843	-0.596
-342.377	73.792	-1.058	1.103
-341.362	-200.000	0.004	0.174
-340.348	790.659	-0.340	-0.929
-339.333	119.262	-0.265	0.326
-338.318	-59.012	0.166	0.071
-337.304	-173.398	0.873	0.026
-336.289	-111.946	0.433	-0.087
-335.275	556.420	-0.133	0.320
-334.260	-101.748	-0.341	0.082
-333.245	-200.000	-0.081	0.879
-332.231	18.996	0.239	-0.191
-331.216	-81.182	0.625	-0.205
-330.202	82.989	0.487	-0.527
-329.187	-200.000	-0.047	-1.033
-328.172	-200.000	0.012	0.654
-327.158	800.000	-0.154	-0.611
-326.143	-41.636	-0.429	0.219
-325.129	452.125	-0.178	0.392
-324.114	-200.000	0.053	0.351
-323.099	-59.059	-0.944	0.405
-322.085	140.335	0.323	0.423
-321.070	-200.000	-0.119	0.931
-320.056	-200.000	0.086	0.480
-319.041	24.022	0.470	-0.385
-318.026	87.888	0.069	0.076
-317.012	-113.085	-0.454	-0.089
-315.997	-4.568	0.654	-0.449
-314.983	800.000	-0.255	-1.063
-313.968	-19.520	0.414	-0.255
-312.953	-200.000	-0.001	0.548
-311.939	-10.477	-0.800	0.526
-310.924	-5.469	0.425	0.290
-309.910	187.244	0.340	0.504
-308.895	57.036	0.583	-0.564
-307.880	-200.000	-0.067	0.609
-306.866	-200.000	0.134	-1.061
-305.851	186.869	-0.191	-0.283
-304.837	-1.861	0.684	0.478
-303.822	-48.819	0.253	-0.121
-302.807	3.794	-0.289	-0.209
-301.793	800.000	-0.066	-0.239
-300.778	35.640	-0.266	-0.232
-299.764	13.893	-0.585	-0.452
-298.749	-113.032	0.789	0.155
-297.735	-66.264	-0.164	0.065
-296.720	-200.000	0.004	0.349
-295.705	800.000	-0.109	-0.305
-294.691	-146.654	0.494	0.043
-293.676	0.674	-0.276	-0.196
-292.662	-20.946	0.210	-0.128
-291.647	348.767	0.192	-0.376
-290.632	129.276	0.029	-0.037
-289.618	56.073	-0.458	-0.442
-288.603	63.420	0.593	-0.590
-287.589	329.488	0.312	-0.595
-286.574	-200.000	0.053	-0.251
-285.559	666.986	-0.099	0.254
-284.545	61.556	-0.765	0.755
-283.530	-152.725	-0.891	-0.063
-282.516	-81.311	-0.392	-0.128
-281.501	-79.330	0.318	0.107
-280.486	5.829	0.399	0.293
-279.472	86.040	-0.600	0.656
-278.457	541.208	0.352	0.833
-277.443	762.770	-0.073	-0.196
-276.428	800.000	0.121	-0.345
-275.413	-200.000	0.023	-0.277
-274.399	800.000	0.280	-0.972
-273.384	-200.000	0.009	-0.864
-272.370	80.738	0.305	-0.326
-271.355	69.249	0.291	-0.297
-270.340	-116.609	0.442	-0.081
-269.326	423.489	0.180	-0.383
-268.311	-200.000	0.115	0.588
-267.297	33.189	0.274	0.236
-266.282	-89.062	-1.194	0.350
-265.267	800.000	0.094	0.307
-264.253	-200.000	0.016	0.732
-263.238	-200.000	-0.022	-0.339
-262.224	358.557	-0.336	-0.666
-261.209	-99.954	0.596	-0.148
-260.195	800.000	0.242	-0.794
-259.180	800.000	0.195	-0.718
-258.165	800.000	0.040	-0.135
-257.151	-172.097	0.623	0.020
-256.136	433.718	-0.554	-1.193
-255.122	800.000	0.181	-0.775
-254.107	-200.000	0.036	-0.391
-253.092	77.937	0.357	0.377
-252.078	567.009	-0.177	0.425
-251.063	40.295	0.701	0.625
-250.049	50.494	0.322	0.301
-249.034	-24.736	0.269	-0.158
-248.019	573.434	0.369	-0.893
-247.005	-56.984	-0.522	-0.228
-245.990	-200.000	0.054	0.807
-244.976	43.379	-0.412	-0.373
-243.961	-200.000	0.020	0.323
-242.946	800.000	-0.261	0.851
-241.932	-20.926	-0.282	0.171
-240.917	800.000	-0.210	-0.615
-239.903	800.000	0.111	0.380
-238.888	-5.034	-0.639	0.436
-237.873	800.000	-0.106	-0.420
-236.859	15.765	-0.492	-0.383
-235.844	57.371	-0.495	-0.478
-234.830	-99.588	0.556	0.138
-233.815	-200.000	-0.033	0.483
-232.800	-59.466	0.407	0.173
-231.786	-158.745	-0.793	0.045
-230.771	-92.244	0.574	0.160
-229.757	419.824	0.076	-0.162
-228.742	50.580	0.400	-0.375
-227.727	191.168	0.164	0.244
-226.713	800.000	-0.141	0.500
-225.698	-200.000	0.122	-0.697
-224.684	345.269	-0.247	0.480
-223.669	355.617	-0.142	0.280
-222.655	-100.923	-0.483	-0.117
-221.640	-200.000	0.062	0.615
-220.625	9.551	0.586	-0.439
-219.611	800.000	-0.224	-0.777
-218.596	34.846	0.447	-0.387
-217.582	5.130	0.307	-0.224
-216.567	372.595	0.267	-0.538
-215.552	101.015	-0.273	-0.314
-214.538	-189.722	-0.216	-0.002
-213.523	48.123	-0.431	0.399
-212.509	-200.000	-0.077	-0.369
-211.494	-4.557	0.764	0.522
-210.479	13.492	0.601	-0.462
-209.465	98.220	-0.462	0.526
-208.450	-24.373	-0.282	-0.166
-207.436	-200.000	-0.016	-0.434
-206.421	-79.592	1.108	0.370
-205.406	-72.522	0.746	0.273
-204.392	310.366	0.142	-0.263
-203.377	301.514	0.171	-0.313
-202.363	158.172	0.093	-0.127
-201.348	800.000	-0.145	0.421
-200.333	-104.227	-0.687	-0.158
-199.319	-73.837	0.434	0.156
-198.304	152.972	-0.413	0.558
-197.290	95.992	-0.285	-0.322
-196.275	84.319	0.603	-0.652
-195.260	408.222	0.279	-0.584
-194.246	17.824	0.546	-0.430
-193.231	-200.000	-0.024	-0.765
-192.217	-111.264	-0.696	0.141
-191.202	-151.018	-0.601	0.045
-190.187	113.268	0.511	-0.612
-189.173	-138.665	0.990	-0.107
-188.158	-42.769	-0.669	-0.336
-187.144	533.933	0.109	-0.255
-186.129	46.482	0.585	0.536
-185.114	-73.984	-1.000	0.359
-184.100	-65.225	0.408	-0.162
-183.085	-200.000	-0.151	0.805
-182.071	-200.000	0.088	0.974
-181.056	1.667	0.324	-0.230
-180.042	-160.013	0.549	0.030
-179.027	-200.000	0.038	0.386
-178.012	14.951	0.507	0.392
-176.998	378.983	-0.282	0.570
-175.983	-69.384	0.357	0.135
-174.969	598.482	0.087	0.213
-173.954	-200.000	0.103	0.472
-172.939	361.164	0.217	-0.429
-171.925	88.613	-0.245	0.269
-170.910	-94.265	0.515	0.139
-169.896	-200.000	-0.191	-1.293
-168.881	3.707	1.016	0.733
-167.866	-56.498	0.582	0.255
-166.852	-64.516	-0.470	-0.188
-165.837	155.533	-0.667	-0.907
-164.823	-128.928	-0.558	-0.077
-163.808	-58.720	0.234	0.100
-162.793	-200.000	-0.017	0.558
-161.779	221.141	0.302	-0.479
-160.764	214.441	0.496	-0.776
-159.750	800.000	-0.281	0.791
-158.735	800.000	-0.091	-0.264
-157.720	379.919	-0.548	1.108
-156.706	187.442	-0.337	0.496
-155.691	110.759	0.645	-0.766
-154.677	-200.000	0.132	0.592
-153.662	135.140	-0.521	0.668
-152.647	-62.304	0.310	0.127
-151.633	-115.475	1.164	-0.216
-150.618	800.000	0.096	-0.344
-149.604	7.496	0.220	-0.163
-148.589	6.978	0.686	0.505
-147.574	76.648	-0.740	0.775
-146.560	641.867	0.074	0.186
-145.545	-200.000	0.026	0.330
-144.531	193.259	0.162	-0.242
-143.516	800.000	0.100	0.426
-142.502	-87.393	-0.201	-0.060
-141.487	-200.000	-0.101	0.463
-140.472	684.454	-0.311	-0.802
-139.458	-89.985	0.671	-0.193
-138.443	210.802	-0.224	0.347
-137.429	93.044	0.286	0.319
-136.414	-200.000	0.019	-0.698
-135.399	800.000	-0.077	0.327
-134.385	196.068	-0.214	0.322
-133.370	800.000	-0.164	-0.508
-132.356	800.000	-0.258	-1.107
-131.341	-61.620	0.261	0.108
-130.326	180.284	-0.586	0.848
-129.312	-31.166	-1.142	-0.635
-128.297	206.966	0.243	0.373
-127.283	161.218	0.828	1.142
-126.268	-43.081	-0.119	0.059
-125.253	-109.034	0.889	-0.187
-124.239	178.518	0.107	0.154
-123.224	-172.096	0.269	-0.009
-122.210	-80.089	0.085	0.028
-121.195	-200.000	0.028	-0.767
-120.180	-19.744	0.277	0.169
