DTS Sentinel unit serial number:	SN413079Multiplexer serial number:	ORYXHardware model number:	OX4-SRSoftware version number:	ORYX F/W v4.00 Oryx Data Collector v3.7.2.0data status	okinstallation	princeton_trtdifferential loss correction	single-endedforward channel	channel 1reverse channel	N/Adate	2019/09/14time	05:26:35forward acquisition time	60.00reverse acquisition time	0.00gamma	496.2192k internal	0.2334k external	0.2334temperature offset calibration	1.0083default loss term (dB/km)	0.3790temperature slope calibration	1.0000multiplexer offset coefficient	1.0000multiplexer slope coefficient	1.0000fibre end	0.00T internal ref (°C)	26.94T ext. ref 1 (°C)	3.39T ext. ref 2 (°C)	21.89length (m)	temperature (°C)	Stokes	anti-Stokes-747.200	-200.000	0.064	0.488
-746.185	-45.037	-0.147	0.074
-745.171	11.568	-0.037	0.028
-744.156	-200.000	0.011	-0.080
-743.142	800.000	-0.044	0.125
-742.127	-200.000	-0.051	0.258
-741.112	136.587	-0.061	-0.081
-740.098	-158.918	-0.319	-0.018
-739.083	163.052	0.108	0.153
-738.069	556.042	0.072	0.175
-737.054	-87.409	0.227	-0.069
-736.039	685.131	-0.083	-0.217
-735.025	55.209	0.206	-0.201
-734.010	235.027	-0.159	-0.264
-732.996	-109.293	-0.582	0.124
-731.981	-48.015	-0.110	-0.053
-730.966	-32.232	-0.186	0.104
-729.952	215.093	-0.075	-0.120
-728.937	524.127	0.130	0.307
-727.923	-51.754	0.102	0.048
-726.908	472.013	-0.100	-0.227
-725.894	-16.929	-0.343	0.218
-724.879	-51.648	-0.401	0.188
-723.864	800.000	0.078	-0.223
-722.850	-172.466	-0.023	0.001
-721.835	46.254	-0.033	0.031
-720.821	-38.473	-0.279	-0.148
-719.806	513.530	0.061	-0.143
-718.791	119.350	-0.088	0.109
-717.777	-68.398	-0.061	0.024
-716.762	-94.496	-0.266	-0.073
-715.748	-200.000	0.019	-0.180
-714.733	-139.700	-0.106	0.011
-713.718	105.322	0.078	-0.093
-712.704	56.319	0.448	-0.437
-711.689	405.156	0.096	0.204
-710.675	292.671	0.084	0.155
-709.660	153.734	0.019	0.026
-708.645	800.000	0.136	-0.486
-707.631	40.637	0.054	-0.049
-706.616	28.725	-0.040	-0.034
-705.602	-46.763	0.064	-0.032
-704.587	71.117	0.099	0.103
-703.572	-200.000	0.003	0.091
-702.558	395.316	0.060	0.125
-701.543	8.712	0.221	0.167
-700.529	800.000	-0.080	0.305
-699.514	800.000	-0.067	-0.228
-698.499	513.837	-0.102	-0.239
-697.485	-200.000	0.036	0.297
-696.470	40.431	0.123	0.111
-695.456	-18.962	0.033	-0.020
-694.441	800.000	-0.148	-0.547
-693.426	-56.303	-0.106	0.047
-692.412	-200.000	-0.016	-0.143
-691.397	137.088	0.134	-0.176
-690.383	97.403	-0.105	0.121
-689.368	800.000	-0.091	-0.264
-688.354	611.246	-0.058	-0.144
-687.339	-84.258	-0.248	-0.079
-686.324	13.447	-0.204	0.158
-685.310	-200.000	-0.025	-0.245
-684.295	303.582	0.055	0.103
-683.281	-45.799	-0.153	0.076
-682.266	800.000	0.071	-0.242
-681.251	65.039	-0.071	-0.072
-680.237	-90.627	0.401	0.116
-679.222	-82.692	-0.153	-0.050
-678.208	800.000	-0.102	-0.343
-677.193	-156.671	-0.132	0.008
-676.178	-200.000	0.018	-0.112
-675.164	-17.905	0.174	0.109
-674.149	67.467	-0.260	-0.266
-673.135	-102.855	-0.355	-0.085
-672.120	-130.965	0.174	0.023
-671.105	64.718	-0.139	0.140
-670.091	744.715	0.064	-0.172
-669.076	-153.724	0.271	-0.019
-668.062	26.383	-0.087	0.073
-667.047	-200.000	-0.019	0.217
-666.032	62.538	-0.203	-0.203
-665.018	55.434	0.056	-0.055
-664.003	83.773	0.169	-0.185
-662.989	-104.174	-0.259	-0.060
-661.974	13.726	0.298	0.232
-660.959	253.138	0.090	0.154
-659.945	-93.609	0.232	0.064
-658.930	800.000	-0.026	0.075
-657.916	31.721	0.091	0.079
-656.901	-94.823	0.366	-0.100
-655.886	80.989	-0.256	-0.277
-654.872	-200.000	-0.015	0.071
-653.857	515.909	-0.069	-0.162
-652.843	-92.438	0.169	0.048
-651.828	800.000	-0.076	-0.325
-650.814	-76.158	-0.250	0.088
-649.799	183.316	-0.141	-0.209
-648.784	-43.571	0.145	-0.073
-647.770	-105.597	0.123	-0.028
-646.755	-180.762	0.188	-0.004
-645.741	52.732	0.242	0.231
-644.726	146.359	-0.133	0.179
-643.711	-155.739	0.438	-0.028
-642.697	-82.852	0.219	0.071
-641.682	-20.139	0.154	0.095
-640.668	-200.000	-0.018	-0.119
-639.653	-134.804	0.244	-0.030
-638.638	-106.254	0.287	0.064
-637.624	147.352	0.119	-0.160
-636.609	-100.418	0.294	-0.073
-635.595	97.743	0.345	-0.397
-634.580	700.203	-0.027	-0.072
-633.565	-82.448	0.139	-0.045
-632.551	1.163	0.079	-0.057
-631.536	90.680	-0.177	0.199
-630.522	-200.000	-0.048	0.275
-629.507	69.037	-0.045	0.046
-628.492	31.655	-0.132	-0.114
-627.478	800.000	0.088	-0.286
-626.463	-68.606	0.315	-0.122
-625.449	560.379	0.088	-0.214
-624.434	33.650	-0.158	0.138
-623.419	199.831	-0.087	-0.134
-622.405	141.963	-0.032	0.042
-621.390	800.000	-0.042	-0.157
-620.376	194.800	0.212	0.321
-619.361	487.280	0.018	-0.042
-618.346	-200.000	-0.025	-0.177
-617.332	329.072	-0.041	-0.079
-616.317	48.813	-0.313	-0.294
-615.303	-32.069	0.203	-0.114
-614.288	6.599	-0.120	-0.089
-613.273	-34.137	-0.088	0.048
-612.259	-57.130	-0.051	-0.023
-611.244	57.825	-0.180	-0.176
-610.230	-73.480	0.382	-0.139
-609.215	-200.000	0.009	-0.303
-608.201	-12.503	-0.086	0.056
-607.186	46.366	-0.172	0.159
-606.171	-90.841	0.086	-0.025
-605.157	204.345	-0.115	-0.178
-604.142	-200.000	0.004	0.128
-603.128	-37.455	-0.146	-0.078
-602.113	316.492	-0.207	0.391
-601.098	800.000	0.078	-0.282
-600.084	-122.382	-0.093	0.015
-599.069	-200.000	-0.016	-0.134
-598.055	-200.000	0.005	0.029
-597.040	364.087	-0.166	0.334
-596.025	-72.763	-0.333	-0.123
-595.011	-22.888	-0.239	0.144
-593.996	-200.000	-0.036	0.215
-592.982	-200.000	-0.044	0.280
-591.967	44.068	-0.144	0.132
-590.952	87.535	-0.120	0.132
-589.938	-112.353	0.125	-0.025
-588.923	-83.619	0.269	0.086
-587.909	548.457	-0.166	0.398
-586.894	195.069	-0.100	0.152
-585.879	706.206	-0.127	-0.334
-584.865	800.000	0.074	0.221
-583.850	-34.786	0.156	-0.085
-582.836	46.206	0.149	-0.138
-581.821	-88.129	-0.127	-0.038
-580.806	-136.841	0.375	0.043
-579.792	-200.000	-0.007	0.260
-578.777	-31.226	-0.083	-0.047
-577.763	33.823	0.104	-0.090
-576.748	92.906	0.187	0.211
-575.733	224.332	-0.080	0.129
-574.719	-200.000	-0.034	0.198
-573.704	311.475	-0.187	0.349
-572.690	800.000	0.043	-0.145
-571.675	-200.000	0.013	0.086
-570.661	376.951	0.130	0.265
-569.646	-34.816	0.177	0.096
-568.631	-200.000	0.017	0.168
-567.617	-26.648	0.240	-0.140
-566.602	324.698	-0.044	-0.084
-565.588	383.392	0.034	-0.069
-564.573	91.736	-0.104	-0.117
-563.558	-200.000	0.010	-0.089
-562.544	118.895	-0.109	-0.135
-561.529	-200.000	-0.003	-0.096
-560.515	800.000	-0.054	0.166
-559.500	43.808	0.190	-0.174
-558.485	-87.199	-0.258	0.078
-557.471	336.988	-0.105	0.204
-556.456	-18.049	-0.115	0.072
-555.442	800.000	0.096	-0.280
-554.427	-54.509	-0.188	0.085
-553.412	-94.061	0.063	-0.017
-552.398	-200.000	0.014	-0.072
-551.383	-196.850	0.071	0.000
-550.369	-89.431	-0.179	-0.052
-549.354	-60.790	-0.226	0.096
-548.339	111.229	0.113	0.135
-547.325	800.000	-0.066	0.250
-546.310	71.610	0.227	-0.235
-545.296	-200.000	0.002	0.282
-544.281	75.925	0.185	0.195
-543.266	-148.918	-0.211	0.017
-542.252	-69.643	-0.386	-0.147
-541.237	-153.264	-0.101	0.007
-540.223	-102.793	0.394	-0.094
-539.208	205.071	-0.253	-0.392
-538.193	430.621	-0.054	0.116
-537.179	-44.594	0.244	-0.121
-536.164	800.000	0.048	0.185
-535.150	240.038	0.108	-0.180
-534.135	-83.741	0.160	-0.051
-533.121	800.000	-0.063	0.177
-532.106	114.787	-0.085	0.104
-531.091	27.931	0.188	0.158
-530.077	-200.000	-0.031	0.184
-529.062	-104.138	-0.211	0.049
-528.048	-13.045	-0.273	0.177
-527.033	-4.373	-0.262	0.181
-526.018	338.868	-0.118	0.229
-525.004	6.536	-0.263	0.195
-523.989	-122.798	0.221	0.036
-522.975	-36.671	0.194	0.104
-521.960	-146.112	0.195	-0.017
-520.945	17.187	-0.299	-0.236
-519.931	191.317	0.060	-0.090
-518.916	205.126	-0.189	-0.292
-517.902	-100.707	0.200	0.049
-516.887	32.885	-0.145	-0.125
-515.872	-28.671	-0.376	0.216
-514.858	-86.061	0.177	-0.054
-513.843	-115.339	0.036	0.007
-512.829	-200.000	0.001	-0.126
-511.814	-28.099	-0.117	-0.067
-510.799	-200.000	-0.016	-0.159
-509.785	-82.894	-0.137	0.044
-508.770	128.133	0.168	-0.212
-507.756	-189.152	0.140	-0.002
-506.741	213.934	-0.213	-0.336
-505.726	113.172	-0.239	-0.288
-504.712	-200.000	-0.002	0.429
-503.697	-200.000	-0.015	-0.127
-502.683	-93.135	0.251	0.070
-501.668	-200.000	-0.023	-0.128
-500.653	-142.737	0.098	0.010
-499.639	800.000	-0.119	-0.488
-498.624	49.646	-0.078	0.073
-497.610	556.635	0.031	-0.075
-496.595	152.702	-0.135	0.184
-495.581	-200.000	0.053	-0.263
-494.566	-58.050	-0.249	-0.108
-493.551	-71.430	-0.143	0.053
-492.537	136.013	0.211	0.274
-491.522	-42.787	-0.118	0.060
-490.508	54.661	0.078	0.075
-489.493	13.953	0.302	-0.234
-488.478	275.246	-0.077	-0.135
-487.464	-200.000	-0.024	-0.391
-486.449	-80.964	0.041	0.013
-485.435	65.515	0.292	-0.294
-484.420	251.626	-0.234	0.397
-483.405	-14.674	0.179	-0.115
-482.391	58.580	-0.133	-0.130
-481.376	-200.000	-0.019	-0.144
-480.362	-54.607	0.296	0.133
-479.347	-169.226	-0.185	0.007
-478.332	800.000	0.051	0.143
-477.318	-49.231	0.064	-0.031
-476.303	-58.660	-0.099	-0.043
-475.289	-26.361	-0.263	0.154
-474.274	38.584	-0.052	0.046
-473.259	800.000	0.062	-0.265
-472.245	-135.093	0.051	-0.006
-471.230	128.924	-0.119	0.151
-470.216	-187.534	0.136	0.002
-469.201	-200.000	-0.002	-0.219
-468.186	-200.000	0.036	-0.361
-467.172	-125.092	0.515	-0.079
-466.157	-111.138	-0.120	0.024
-465.143	390.287	-0.029	0.061
-464.128	-64.677	0.132	-0.053
-463.113	-200.000	0.046	0.234
-462.099	800.000	0.003	0.010
-461.084	335.594	-0.141	0.273
-460.070	-200.000	-0.035	-0.352
-459.055	-200.000	0.019	-0.109
-458.040	-114.791	-0.412	-0.078
-457.026	524.616	-0.128	0.299
-456.011	-166.573	-0.222	-0.009
-454.997	-183.138	-0.202	0.004
-453.982	800.000	-0.043	-0.166
-452.968	70.729	-0.070	0.072
-451.953	-200.000	-0.033	0.251
-450.938	-95.392	0.300	-0.080
-449.924	-93.131	-0.161	-0.044
-448.909	397.520	-0.084	-0.174
-447.895	-158.584	0.179	0.010
-446.880	-6.783	0.071	0.048
-445.865	-176.172	0.164	-0.004
-444.851	640.559	-0.069	-0.174
-443.836	-200.000	-0.002	-0.260
-442.822	800.000	-0.022	-0.061
-441.807	-200.000	-0.005	0.092
-440.792	355.326	-0.065	-0.128
-439.778	-138.336	0.201	0.022
-438.763	202.853	-0.036	-0.055
-437.749	141.518	-0.067	0.088
-436.734	800.000	0.087	0.267
-435.719	-200.000	0.059	0.297
-434.705	18.128	-0.048	0.038
-433.690	-140.618	-0.114	0.012
-432.676	-119.924	-0.178	0.030
-431.661	-127.245	0.382	-0.055
-430.646	190.625	-0.188	0.281
-429.632	432.723	0.146	0.315
-428.617	-35.440	0.113	0.061
-427.603	131.726	-0.242	-0.309
-426.588	-129.044	0.125	-0.017
-425.573	800.000	0.077	-0.222
-424.559	-3.572	0.213	-0.147
-423.544	800.000	-0.074	-0.226
-422.530	-200.000	0.022	-0.101
-421.515	297.286	0.111	-0.202
-420.500	-60.548	-0.074	-0.031
-419.486	800.000	-0.015	0.058
-418.471	-91.283	-0.121	-0.034
-417.457	-200.000	0.050	-0.234
-416.442	-107.286	0.205	0.045
-415.428	-72.665	0.248	0.091
-414.413	592.334	-0.145	-0.355
-413.398	222.512	-0.038	0.061
-412.384	77.020	0.491	-0.517
-411.369	800.000	0.067	0.209
-410.355	-200.000	-0.015	0.106
-409.340	12.990	0.235	-0.180
-408.325	-200.000	0.266	-0.001
-407.311	-200.000	-0.012	0.292
-406.296	-117.009	-0.255	0.046
-405.282	-179.500	0.026	-0.001
-404.267	-62.927	0.229	0.094
-403.252	389.724	0.094	-0.193
-402.238	-200.000	0.007	0.092
-401.223	-200.000	-0.019	-0.315
-400.209	-172.492	0.099	0.003
-399.194	3.394	-0.190	-0.138
-398.179	-53.090	-0.228	-0.104
-397.165	-200.000	-0.014	-0.347
-396.150	-200.000	0.026	-0.139
-395.136	-200.000	-0.018	-0.341
-394.121	3.121	-0.072	0.052
-393.106	-44.710	-0.132	-0.065
-392.092	45.108	0.154	-0.141
-391.077	-65.345	-0.349	-0.139
-390.063	-11.181	-0.094	-0.062
-389.048	-200.000	-0.013	-0.068
-388.033	150.077	-0.145	0.194
-387.019	-188.591	0.147	0.002
-386.004	-51.195	0.230	-0.107
-384.990	-51.002	0.142	-0.066
-383.975	-96.598	0.163	0.043
-382.960	-51.196	0.178	-0.083
-381.946	1.160	-0.128	0.091
-380.931	214.140	-0.061	-0.096
-379.917	503.866	-0.152	0.348
-378.902	-131.545	0.149	0.019
-377.888	15.574	0.205	0.159
-376.873	269.614	0.060	0.104
-375.858	-200.000	-0.026	0.410
-374.844	-18.211	-0.071	-0.044
-373.829	-136.413	-0.213	-0.025
-372.815	189.322	-0.110	0.164
-371.800	-153.303	0.462	0.032
-370.785	58.000	0.240	-0.233
-369.771	-200.000	-0.160	0.000
-368.756	102.306	0.343	-0.397
-367.742	34.346	-0.410	-0.354
-366.727	-106.480	-0.214	0.047
-365.712	800.000	-0.039	-0.159
-364.698	164.490	0.125	-0.175
-363.683	14.000	-0.169	-0.130
-362.669	525.130	-0.080	0.187
-361.654	105.046	-0.045	-0.052
-360.639	-200.000	-0.024	0.261
-359.625	-121.722	0.075	-0.012
-358.610	-40.002	0.194	0.100
-357.596	-133.142	0.057	0.007
-356.581	-200.000	-0.016	-0.134
-355.566	8.486	-0.331	-0.246
-354.552	-97.522	0.187	0.048
-353.537	800.000	0.079	0.306
-352.523	-176.101	-0.210	-0.005
-351.508	-27.116	0.169	0.098
-350.493	-200.000	-0.016	0.339
-349.479	-200.000	0.000	0.177
-348.464	-123.301	0.208	0.033
-347.450	-19.938	0.132	0.080
-346.435	-27.494	-0.128	-0.074
-345.420	449.545	-0.050	0.109
-344.406	800.000	0.064	0.261
-343.391	800.000	-0.093	-0.258
-342.377	211.765	0.015	-0.023
-341.362	-200.000	0.010	0.336
-340.348	800.000	-0.070	0.290
-339.333	85.541	-0.051	0.055
-338.318	-6.814	-0.235	0.158
-337.304	10.856	-0.210	0.158
-336.289	114.243	-0.182	0.219
-335.275	-4.114	0.117	0.080
-334.260	-33.195	-0.116	-0.064
-333.245	111.156	0.101	0.120
-332.231	-16.984	-0.236	0.147
-331.216	-13.564	-0.216	0.138
-330.202	-200.000	0.070	0.314
-329.187	-25.437	0.230	0.134
-328.172	76.147	0.119	-0.125
-327.158	276.296	-0.117	-0.205
-326.143	-200.000	-0.037	0.235
-325.129	-63.941	0.075	0.030
-324.114	720.664	-0.041	0.107
-323.099	135.950	-0.221	0.285
-322.085	-200.000	0.027	0.135
-321.070	219.379	-0.124	0.197
-320.056	-173.874	0.250	0.007
-319.041	61.990	-0.165	-0.163
-318.026	656.494	-0.025	-0.063
-317.012	46.612	-0.072	-0.066
-315.997	-200.000	0.008	0.058
-314.983	-59.944	0.361	0.153
-313.968	800.000	0.083	-0.342
-312.953	-98.108	0.213	-0.054
-311.939	-120.551	-0.118	-0.020
-310.924	48.612	0.206	0.190
-309.910	485.790	0.031	-0.071
-308.895	-59.793	-0.313	0.133
-307.880	635.793	0.108	-0.270
-306.866	-109.075	0.177	-0.037
-305.851	33.750	-0.195	-0.168
-304.837	-47.016	-0.084	-0.041
-303.822	-200.000	-0.071	0.349
-302.807	-132.322	-0.184	0.023
-301.793	-80.553	0.095	0.031
-300.778	-103.481	0.167	-0.039
-299.764	162.691	-0.163	-0.226
-298.749	-95.728	0.213	0.056
-297.735	702.801	0.040	-0.105
-296.720	800.000	-0.096	0.274
-295.705	-26.904	0.050	-0.029
-294.691	98.904	0.076	0.087
-293.676	276.020	-0.031	0.054
-292.662	-47.991	0.229	0.110
-291.647	-200.000	0.015	-0.106
-290.632	-200.000	0.030	0.164
-289.618	-200.000	0.014	-0.260
-288.603	92.512	-0.056	0.062
-287.589	444.947	-0.064	-0.139
-286.574	-43.301	0.306	0.153
-285.559	-94.089	-0.264	-0.072
-284.545	340.017	-0.132	0.254
-283.530	-127.590	0.278	-0.040
-282.516	117.075	0.357	-0.433
-281.501	-200.000	-0.012	-0.087
-280.486	-200.000	-0.019	-0.126
-279.472	-200.000	0.030	0.177
-278.457	17.392	-0.039	-0.031
-277.443	347.701	-0.081	0.158
-276.428	-87.477	-0.144	-0.043
-275.413	-51.775	0.278	0.128
-274.399	109.446	0.223	0.263
-273.384	86.812	-0.094	0.102
-272.370	800.000	-0.025	0.070
-271.355	-200.000	-0.054	-0.268
-270.340	-110.959	0.105	-0.021
-269.326	727.619	0.091	0.239
-268.311	-92.631	0.272	0.075
-267.297	-24.416	-0.200	0.117
-266.282	-200.000	0.033	0.167
-265.267	-14.354	0.165	0.105
-264.253	-38.217	-0.316	0.165
-263.238	-200.000	-0.011	0.336
-262.224	631.485	-0.058	-0.144
-261.209	305.490	0.080	0.146
-260.195	-200.000	-0.104	0.481
-259.180	-16.213	-0.155	0.097
-258.165	800.000	-0.048	-0.196
-257.151	800.000	-0.026	-0.074
-256.136	-2.863	0.207	-0.143
-255.122	-7.160	-0.416	-0.279
-254.107	129.128	-0.353	0.444
-253.092	-1.534	-0.199	0.138
-252.078	239.331	-0.177	-0.291
-251.063	93.406	0.117	-0.131
-250.049	36.193	0.126	-0.110
-249.034	6.651	0.206	0.151
-248.019	-117.393	-0.188	-0.034
-247.005	-107.440	0.503	-0.109
-245.990	-200.000	0.003	0.115
-244.976	400.777	0.166	0.343
-243.961	-62.837	0.150	0.061
-242.946	740.328	-0.119	0.314
-241.932	-26.792	0.017	0.010
-240.917	-55.680	-0.178	0.078
-239.903	-80.056	0.311	-0.103
-238.888	-58.607	-0.149	0.064
-237.873	518.631	-0.027	0.063
-236.859	79.651	-0.139	-0.147
-235.844	-70.155	0.300	0.113
-234.830	69.931	0.122	-0.124
-233.815	221.921	0.128	-0.203
-232.800	-38.112	0.194	-0.101
-231.786	800.000	-0.018	0.064
-230.771	611.789	-0.034	0.083
-229.757	-137.098	-0.182	0.020
-228.742	-4.624	0.245	0.167
-227.727	-200.000	-0.032	-0.250
-226.713	7.073	-0.117	0.086
-225.698	24.365	-0.081	-0.066
-224.684	-45.895	-0.185	0.090
-223.669	800.000	0.081	0.228
-222.655	800.000	0.115	-0.374
-221.640	800.000	0.105	-0.310
-220.625	-163.568	-0.162	-0.008
-219.611	160.308	0.145	-0.199
-218.596	169.692	-0.135	-0.191
-217.582	17.112	-0.198	-0.155
-216.567	-36.704	-0.152	0.081
-215.552	385.792	-0.100	0.203
-214.538	-200.000	-0.008	-0.087
-213.523	196.800	0.100	-0.150
-212.509	-53.529	-0.380	0.171
-211.494	800.000	0.122	0.343
-210.479	-200.000	0.000	-0.221
-209.465	104.853	-0.066	-0.076
-208.450	-170.862	0.322	0.011
-207.436	-3.643	0.255	0.174
-206.421	-200.000	-0.005	-0.104
-205.406	34.602	-0.287	-0.246
-204.392	-11.401	0.170	-0.110
-203.377	555.120	-0.150	0.356
-202.363	281.947	-0.149	-0.262
-201.348	-94.164	-0.304	0.082
-200.333	472.127	0.081	-0.180
-199.319	75.932	-0.042	0.044
-198.304	800.000	0.077	0.313
-197.290	323.163	-0.066	-0.124
-196.275	100.519	0.156	-0.178
-195.260	93.006	-0.118	-0.131
-194.246	-200.000	0.022	0.201
-193.231	-136.193	0.232	0.027
-192.217	-155.510	-0.335	0.021
-191.202	800.000	0.065	-0.240
-190.187	122.875	-0.091	-0.112
-189.173	-116.651	-0.149	0.027
-188.158	94.511	0.237	0.265
-187.144	350.116	-0.026	0.050
-186.129	146.576	0.084	-0.112
-185.114	16.624	-0.194	0.151
-184.100	-102.479	-0.069	0.016
-183.085	-120.064	-0.277	-0.047
-182.071	94.187	-0.138	0.153
-181.056	-200.000	-0.013	0.103
-180.042	-172.132	0.216	0.007
-179.027	-14.331	-0.091	-0.058
-178.012	355.168	0.053	-0.103
-176.998	67.785	-0.145	-0.146
-175.983	5.210	-0.128	-0.093
-174.969	-139.118	-0.340	-0.036
-173.954	-73.353	0.220	0.079
-172.939	6.053	-0.182	-0.133
-171.925	-200.000	0.037	-0.195
-170.910	34.151	-0.100	0.086
-169.896	-200.000	-0.006	0.307
-168.881	221.988	0.076	-0.121
-167.866	-176.022	0.206	0.005
-166.852	-80.635	-0.253	-0.083
-165.837	-200.000	0.034	-0.145
-164.823	221.725	-0.128	-0.202
-163.808	70.731	-0.088	-0.090
-162.793	-200.000	-0.003	0.130
-161.779	34.097	-0.144	-0.124
-160.764	-56.374	-0.166	0.073
-159.750	556.323	-0.082	0.194
-158.735	147.583	-0.180	-0.239
-157.720	800.000	0.044	0.128
-156.706	145.475	0.130	-0.171
-155.691	48.649	-0.169	-0.155
-154.677	-151.796	0.190	-0.014
-153.662	-127.927	0.237	-0.033
-152.647	-73.221	0.270	0.097
-151.633	-8.540	0.103	0.068
-150.618	-100.978	0.275	-0.066
-149.604	800.000	0.028	0.105
-148.589	283.719	-0.246	0.434
-147.574	220.645	0.059	0.092
-146.560	-191.278	0.224	-0.002
-145.545	-200.000	0.019	0.130
-144.531	737.187	-0.109	-0.287
-143.516	-200.000	-0.017	0.180
-142.502	428.158	-0.120	0.255
-141.487	-20.335	-0.203	-0.123
-140.472	-90.988	0.186	0.053
-139.458	-200.000	0.065	0.495
-138.443	-47.389	-0.247	0.118
-137.429	-200.000	0.063	0.321
-136.414	111.430	-0.015	0.018
-135.399	-200.000	0.043	0.215
-134.385	-200.000	-0.010	0.066
-133.370	197.867	0.041	-0.061
-132.356	-121.568	0.278	-0.045
-131.341	-84.563	-0.217	-0.067
-130.326	175.293	0.164	-0.233
-129.312	-200.000	0.196	-0.000
-128.297	387.575	-0.068	0.139
-127.283	-166.134	0.150	0.006
-126.268	709.223	-0.120	-0.310
-125.253	-2.346	0.450	0.309
-124.239	-200.000	0.013	0.215
-123.224	-51.159	-0.453	-0.208
-122.210	-200.000	-0.026	-0.153
