DTS Sentinel unit serial number:	SN413079Multiplexer serial number:	ORYXHardware model number:	OX4-SRSoftware version number:	ORYX F/W v4.00 Oryx Data Collector v3.7.2.0data status	okinstallation	princeton_trtdifferential loss correction	single-endedforward channel	channel 1reverse channel	N/Adate	2019/09/13time	22:58:35forward acquisition time	60.00reverse acquisition time	0.00gamma	496.2192k internal	0.2334k external	0.2334temperature offset calibration	1.0088default loss term (dB/km)	0.3790temperature slope calibration	1.0000multiplexer offset coefficient	1.0000multiplexer slope coefficient	1.0000fibre end	0.00T internal ref (°C)	27.37T ext. ref 1 (°C)	3.20T ext. ref 2 (°C)	21.36length (m)	temperature (°C)	Stokes	anti-Stokes-747.200	155.626	0.168	-0.233
-746.185	-50.580	-0.345	-0.164
-745.171	79.938	0.139	-0.151
-744.156	-165.613	0.274	0.012
-743.142	641.443	0.159	-0.406
-742.127	-118.724	-0.164	0.029
-741.112	800.000	0.122	-0.527
-740.098	-4.534	-0.288	-0.200
-739.083	-95.548	-0.062	-0.017
-738.069	-114.509	0.051	0.010
-737.054	8.377	-0.281	-0.212
-736.039	186.978	-0.128	0.192
-735.025	26.037	-0.221	-0.185
-734.010	197.492	-0.131	0.201
-732.996	-120.480	-0.124	-0.021
-731.981	15.414	-0.084	-0.067
-730.966	-125.999	-0.348	0.053
-729.952	424.975	-0.100	0.217
-728.937	-75.147	0.229	-0.082
-727.923	800.000	-0.048	-0.140
-726.908	-66.931	-0.267	-0.106
-725.894	66.191	-0.240	-0.245
-724.879	800.000	-0.053	-0.151
-723.864	16.498	0.070	-0.055
-722.850	440.247	-0.036	-0.080
-721.835	86.333	-0.047	-0.052
-720.821	33.438	-0.294	-0.257
-719.806	400.206	-0.146	-0.308
-718.791	-77.493	-0.257	-0.089
-717.777	-154.747	0.208	-0.014
-716.762	800.000	0.068	-0.210
-715.748	-158.575	-0.270	-0.016
-714.733	0.945	-0.161	0.116
-713.718	-40.929	0.102	-0.053
-712.704	-97.820	-0.295	-0.076
-711.689	-92.505	-0.108	0.030
-710.675	-83.591	-0.344	-0.110
-709.660	465.788	0.107	-0.240
-708.645	-80.777	0.267	0.089
-707.631	-200.000	-0.031	-0.146
-706.616	800.000	-0.061	-0.206
-705.602	-149.836	0.343	0.027
-704.587	-37.974	-0.240	-0.128
-703.572	-200.000	-0.013	-0.109
-702.558	800.000	0.116	-0.474
-701.543	800.000	0.069	0.210
-700.529	-200.000	-0.046	-0.287
-699.514	-46.343	0.103	-0.051
-698.499	-128.307	-0.370	-0.053
-697.485	28.576	0.126	-0.107
-696.470	-88.745	-0.267	-0.080
-695.456	85.960	0.065	0.072
-694.441	54.195	-0.264	-0.255
-693.426	-200.000	0.020	-0.180
-692.412	-200.000	-0.007	-0.055
-691.397	-200.000	0.018	-0.111
-690.383	-198.786	-0.087	0.000
-689.368	2.417	0.255	-0.185
-688.354	167.990	-0.172	0.246
-687.339	-11.644	-0.222	0.146
-686.324	-150.155	-0.181	-0.014
-685.310	-200.000	-0.024	-0.376
-684.295	-108.939	-0.166	-0.035
-683.281	-111.420	0.096	0.020
-682.266	427.154	-0.052	-0.112
-681.251	320.859	-0.064	0.121
-680.237	76.812	-0.140	-0.149
-679.222	206.215	-0.235	-0.366
-678.208	-80.331	-0.109	-0.036
-677.193	-64.091	-0.156	0.064
-676.178	-73.940	-0.243	-0.088
-675.164	161.196	-0.113	-0.158
-674.149	231.550	0.063	0.104
-673.135	-112.709	0.323	0.064
-672.120	313.484	-0.168	0.317
-671.105	-81.527	-0.060	-0.020
-670.091	70.928	0.206	0.214
-669.076	229.291	0.090	0.147
-668.062	800.000	0.058	0.208
-667.047	23.047	0.013	0.011
-666.032	-62.990	-0.315	0.131
-665.018	143.217	0.155	0.207
-664.003	-198.516	0.190	0.001
-662.989	231.536	0.202	-0.331
-661.974	800.000	-0.027	0.116
-660.959	67.434	0.178	-0.182
-659.945	298.550	-0.166	-0.307
-658.930	-46.895	-0.114	-0.056
-657.916	185.315	-0.121	-0.179
-656.901	513.293	0.039	0.090
-655.886	-104.361	0.121	-0.028
-654.872	-30.082	-0.102	0.058
-653.857	31.002	0.051	0.043
-652.843	694.436	-0.162	-0.425
-651.828	-39.266	-0.195	0.103
-650.814	-102.514	0.130	-0.031
-649.799	-2.449	0.176	-0.123
-648.784	-32.906	0.234	0.130
-647.770	21.580	0.210	-0.171
-646.755	52.857	0.146	0.139
-645.741	800.000	-0.101	0.291
-644.726	125.306	-0.183	-0.231
-643.711	252.373	-0.088	-0.150
-642.697	451.501	0.207	-0.459
-641.682	800.000	0.052	0.206
-640.668	392.951	0.043	-0.089
-639.653	96.010	-0.108	-0.123
-638.638	-200.000	0.006	0.036
-637.624	800.000	-0.098	-0.308
-636.609	768.040	-0.056	0.153
-635.595	-122.347	-0.088	0.014
-634.580	-108.127	-0.293	0.063
-633.565	110.984	-0.020	-0.025
-632.551	-200.000	-0.006	0.088
-631.536	-200.000	0.004	-0.153
-630.522	-200.000	-0.006	-0.280
-629.507	-72.671	0.065	-0.024
-628.492	56.228	0.095	-0.092
-627.478	-200.000	-0.023	0.185
-626.463	-200.000	0.006	0.154
-625.449	800.000	-0.077	0.239
-624.434	53.195	-0.262	0.251
-623.419	-86.824	-0.201	-0.061
-622.405	-82.966	-0.067	-0.022
-621.390	354.968	-0.093	0.184
-620.376	-35.894	0.148	-0.080
-619.361	-110.495	-0.393	0.082
-618.346	-200.000	-0.109	-0.496
-617.332	16.050	-0.098	0.077
-616.317	19.064	-0.155	-0.125
-615.303	-38.107	-0.085	0.045
-614.288	43.631	0.103	-0.094
-613.273	183.386	0.238	-0.351
-612.259	584.502	-0.051	0.125
-611.244	-200.000	0.010	-0.325
-610.230	-97.044	-0.126	-0.033
-609.215	295.203	0.186	-0.340
-608.201	-63.185	-0.227	-0.094
-607.186	619.645	0.032	-0.079
-606.171	-91.703	-0.295	-0.084
-605.157	269.639	0.073	0.129
-604.142	800.000	0.027	0.105
-603.128	-200.000	-0.031	0.280
-602.113	-200.000	0.020	0.406
-601.098	-50.099	-0.235	-0.111
-600.084	-200.000	0.002	0.231
-599.069	-150.226	-0.085	0.007
-598.055	80.450	0.300	-0.323
-597.040	800.000	0.042	0.131
-596.025	-182.329	0.117	0.002
-595.011	-6.361	0.153	0.104
-593.996	499.210	-0.027	0.061
-592.982	-200.000	0.019	0.332
-591.967	31.199	-0.457	0.392
-590.952	-0.729	-0.144	-0.102
-589.938	160.770	0.142	0.198
-588.923	319.224	0.184	0.349
-587.909	68.893	-0.050	-0.051
-586.894	-122.896	0.145	-0.023
-585.879	800.000	0.055	0.154
-584.865	800.000	-0.094	0.292
-583.850	-105.741	0.078	0.018
-582.836	-196.944	-0.519	-0.003
-581.821	-39.256	-0.251	0.132
-580.806	-129.686	0.232	0.032
-579.792	107.658	-0.060	0.071
-578.777	38.560	-0.195	-0.174
-577.763	38.014	-0.145	-0.129
-576.748	-138.921	0.368	0.040
-575.733	40.406	0.255	0.229
-574.719	342.069	-0.006	0.011
-573.704	85.649	0.050	-0.055
-572.690	800.000	0.059	-0.187
-571.675	-41.111	-0.215	0.111
-570.661	548.811	0.052	0.126
-569.646	110.718	-0.285	-0.342
-568.631	-200.000	-0.018	-0.399
-567.617	-75.323	0.194	-0.069
-566.602	-109.192	-0.129	-0.027
-565.588	199.673	-0.214	0.327
-564.573	129.158	-0.182	0.231
-563.558	100.032	0.157	0.182
-562.544	-15.757	-0.272	0.173
-561.529	-70.790	-0.261	-0.098
-560.515	-112.394	-0.372	0.074
-559.500	663.498	0.034	0.087
-558.485	800.000	0.006	-0.018
-557.471	-64.033	0.243	-0.099
-556.456	-149.507	0.373	0.029
-555.442	-76.919	-0.095	-0.033
-554.427	-72.855	-0.185	-0.068
-553.412	-161.473	0.271	0.014
-552.398	35.877	0.250	0.219
-551.383	800.000	0.022	0.063
-550.369	22.299	0.029	0.024
-549.354	119.802	0.143	-0.177
-548.339	-49.216	-0.222	0.106
-547.325	189.927	-0.078	0.116
-546.310	-15.976	0.164	-0.104
-545.296	-73.692	0.273	-0.099
-544.281	117.096	0.105	0.128
-543.266	117.858	-0.193	-0.237
-542.252	-32.023	0.434	-0.242
-541.237	-18.748	0.099	-0.061
-540.223	-121.250	0.244	0.041
-539.208	268.354	-0.025	0.044
-538.193	702.627	0.054	-0.142
-537.179	800.000	0.105	0.341
-536.164	-39.889	-0.040	0.021
-535.150	-131.868	0.086	-0.011
-534.135	63.741	0.096	0.096
-533.121	-200.000	-0.039	-0.265
-532.106	526.853	0.047	0.111
-531.091	-12.503	0.033	0.022
-530.077	-177.805	-0.153	-0.004
-529.062	800.000	0.067	0.249
-528.048	-54.973	0.058	0.026
-527.033	-83.200	-0.185	0.059
-526.018	-44.340	0.173	0.086
-525.004	9.489	0.179	-0.135
-523.989	102.246	0.122	-0.143
-522.975	800.000	-0.054	0.160
-521.960	-118.487	-0.131	-0.023
-520.945	271.129	0.105	-0.185
-519.931	-92.362	0.232	-0.065
-518.916	-200.000	-0.038	0.323
-517.902	-109.150	0.211	0.045
-516.887	156.435	0.112	-0.155
-515.872	-96.751	0.132	-0.035
-514.858	632.189	-0.075	0.190
-513.843	185.128	0.033	-0.049
-512.829	254.862	-0.099	0.169
-511.814	-2.088	0.089	-0.062
-510.799	-22.997	-0.142	0.085
-509.785	-57.623	-0.183	0.080
-508.770	67.921	0.241	-0.245
-507.756	-100.736	-0.133	0.033
-506.741	800.000	0.033	0.112
-505.726	198.148	0.054	0.082
-504.712	-24.412	-0.260	0.154
-503.697	206.657	0.121	-0.188
-502.683	-126.908	-0.250	-0.037
-501.668	-200.000	-0.014	-0.111
-500.653	-32.379	0.071	-0.040
-499.639	-50.473	0.073	0.034
-498.624	800.000	-0.083	-0.340
-497.610	-200.000	-0.001	0.151
-496.595	-200.000	0.038	-0.168
-495.581	-149.234	-0.291	-0.023
-494.566	-200.000	-0.031	0.135
-493.551	98.343	0.206	0.237
-492.537	674.215	-0.067	0.172
-491.522	-200.000	0.026	0.159
-490.508	45.807	0.162	-0.149
-489.493	-31.477	-0.167	0.094
-488.478	323.495	-0.032	-0.060
-487.464	88.142	-0.183	-0.202
-486.449	-200.000	-0.097	-0.501
-485.435	-10.389	0.168	0.111
-484.420	-200.000	-0.002	-0.263
-483.405	101.907	0.113	0.132
-482.391	553.805	0.034	0.081
-481.376	-20.056	-0.088	-0.054
-480.362	703.416	0.107	0.280
-479.347	621.327	0.068	0.170
-478.332	-200.000	-0.019	-0.208
-477.318	125.827	-0.093	-0.117
-476.303	31.634	0.306	0.262
-475.289	16.433	0.143	0.112
-474.274	37.619	0.018	-0.016
-473.259	-200.000	0.000	0.136
-472.245	-200.000	0.066	0.308
-471.230	41.507	-0.087	0.078
-470.216	-60.736	0.130	0.055
-469.201	-200.000	-0.009	0.082
-468.186	293.218	-0.158	-0.286
-467.172	236.704	-0.141	0.233
-466.157	207.650	0.146	0.227
-465.143	299.525	-0.129	0.237
-464.128	-1.543	0.071	-0.050
-463.113	-158.343	0.324	0.019
-462.099	72.725	-0.102	-0.106
-461.084	-200.000	0.011	0.075
-460.070	-107.202	0.232	0.051
-459.055	-70.127	-0.225	-0.085
-458.040	149.109	-0.063	0.085
-457.026	533.595	-0.075	-0.176
-456.011	151.957	0.192	0.260
-454.997	-136.607	-0.312	-0.036
-453.982	609.876	0.081	0.202
-452.968	-91.325	-0.131	0.037
-451.953	-200.000	0.003	-0.110
-450.938	-200.000	0.043	-0.409
-449.924	18.511	-0.178	-0.141
-448.909	-78.501	0.235	0.080
-447.895	-200.000	0.024	-0.115
-446.880	-4.863	0.376	0.257
-445.865	-200.000	-0.008	0.147
-444.851	-96.493	-0.656	0.172
-443.836	62.268	-0.159	-0.157
-442.822	-32.873	-0.203	-0.112
-441.807	-200.000	-0.025	-0.120
-440.792	-200.000	-0.017	0.075
-439.778	143.120	0.136	0.179
-438.763	-116.287	-0.173	0.032
-437.749	165.790	-0.054	0.075
-436.734	800.000	-0.056	-0.169
-435.719	800.000	0.072	0.263
-434.705	-200.000	-0.004	-0.105
-433.690	-128.518	0.385	0.054
-432.676	800.000	-0.078	0.243
-431.661	21.411	-0.301	-0.243
-430.646	301.249	-0.120	-0.220
-429.632	652.115	-0.087	-0.220
-428.617	800.000	-0.107	-0.398
-427.603	-200.000	0.021	0.107
-426.588	-144.934	-0.241	0.022
-425.573	-25.825	-0.213	0.125
-424.559	128.785	0.244	0.309
-423.544	-200.000	0.073	-0.437
-422.530	3.491	-0.066	-0.048
-421.515	163.368	0.101	0.141
-420.500	-200.000	-0.006	0.311
-419.486	-54.149	0.265	-0.120
-418.471	-200.000	-0.035	-0.244
-417.457	-200.000	0.057	-0.370
-416.442	703.002	0.036	-0.093
-415.428	208.076	0.169	0.262
-414.413	-200.000	0.002	-0.135
-413.398	-93.275	-0.226	0.062
-412.384	-85.602	0.303	0.093
-411.369	177.950	-0.109	-0.158
-410.355	361.396	0.175	0.349
-409.340	-28.755	-0.053	-0.030
-408.325	26.696	-0.246	0.204
-407.311	-200.000	-0.047	0.258
-406.296	-200.000	0.052	-0.339
-405.282	-148.758	0.181	-0.015
-404.267	-54.850	0.120	0.054
-403.252	-9.193	0.148	-0.098
-402.238	-95.822	0.103	-0.027
-401.223	-200.000	0.019	0.329
-400.209	104.828	0.089	-0.104
-399.194	-84.082	-0.248	0.078
-398.179	-99.384	0.120	0.030
-397.165	-116.787	0.133	-0.024
-396.150	214.027	0.117	0.183
-395.136	-30.115	-0.104	-0.058
-394.121	800.000	-0.081	-0.223
-393.106	41.681	0.077	-0.069
-392.092	189.630	0.048	0.072
-391.077	86.364	-0.169	0.184
-390.063	144.891	0.188	0.250
-389.048	120.632	-0.137	0.169
-388.033	380.229	0.108	0.220
-387.019	66.168	-0.245	0.246
-386.004	-34.522	-0.163	-0.088
-384.990	-200.000	-0.060	0.374
-383.975	-159.284	-0.336	-0.019
-382.960	777.363	-0.068	-0.185
-381.946	-78.357	-0.191	0.065
-380.931	-200.000	0.136	-0.000
-379.917	-54.507	-0.117	-0.053
-378.902	62.191	0.219	-0.216
-377.888	624.962	0.114	-0.284
-376.873	-200.000	-0.017	-0.218
-375.858	7.954	-0.097	0.072
-374.844	154.213	0.185	0.251
-373.829	-102.197	0.523	0.124
-372.815	-69.571	-0.367	-0.139
-371.800	129.228	0.082	-0.103
-370.785	800.000	-0.117	0.374
-369.771	-200.000	0.049	0.309
-368.756	139.360	-0.224	0.292
-367.742	-200.000	0.005	0.051
-366.727	49.459	-0.197	-0.184
-365.712	760.518	0.028	0.076
-364.698	-200.000	0.053	-0.260
-363.683	800.000	-0.053	-0.214
-362.669	1.243	0.236	-0.168
-361.654	800.000	0.062	-0.177
-360.639	58.185	0.190	-0.184
-359.625	280.899	0.109	-0.193
-358.610	113.979	-0.133	0.160
-357.596	49.152	0.087	-0.081
-356.581	-22.629	-0.218	0.130
-355.566	631.745	-0.054	-0.135
-354.552	-80.897	0.346	-0.113
-353.537	-149.308	0.013	-0.001
-352.523	-141.156	-0.042	-0.004
-351.508	101.224	-0.120	0.138
-350.493	-200.000	0.007	0.044
-349.479	-135.363	-0.121	0.014
-348.464	-140.879	-0.317	0.032
-347.450	46.817	0.228	-0.210
-346.435	-200.000	0.014	-0.113
-345.420	-200.000	-0.001	-0.266
-344.406	-81.778	-0.506	-0.164
-343.391	-200.000	-0.062	-0.312
-342.377	440.674	0.053	-0.115
-341.362	-40.739	0.036	-0.018
-340.348	-76.005	-0.236	-0.082
-339.333	-30.245	0.111	-0.063
-338.318	71.316	-0.102	0.104
-337.304	-1.723	-0.241	-0.168
-336.289	-110.821	-0.252	0.051
-335.275	-200.000	0.030	0.393
-334.260	543.807	0.055	-0.130
-333.245	-200.000	-0.026	-0.120
-332.231	800.000	0.037	0.114
-331.216	-200.000	-0.032	0.454
-330.202	299.868	-0.081	0.147
-329.187	-200.000	0.003	0.286
-328.172	542.862	-0.097	-0.230
-327.158	562.416	0.107	0.257
-326.143	698.468	-0.077	0.200
-325.129	-36.693	-0.378	-0.201
-324.114	115.913	-0.066	-0.079
-323.099	49.289	-0.021	-0.019
-322.085	86.812	-0.240	-0.262
-321.070	800.000	-0.083	0.328
-320.056	-84.389	-0.089	-0.028
-319.041	-82.035	-0.124	-0.040
-318.026	238.639	-0.064	0.105
-317.012	19.190	0.251	0.199
-315.997	800.000	0.022	0.068
-314.983	800.000	0.086	0.335
-313.968	115.603	-0.058	-0.070
-312.953	284.471	0.051	-0.091
-311.939	231.500	-0.202	0.328
-310.924	325.615	-0.020	0.038
-309.910	249.294	0.180	-0.301
-308.895	-200.000	-0.004	-0.375
-307.880	324.056	-0.141	-0.265
-306.866	319.971	-0.049	-0.092
-305.851	183.321	0.106	-0.154
-304.837	106.869	0.030	0.035
-303.822	-200.000	0.017	0.098
-302.807	-20.001	-0.211	-0.129
-301.793	800.000	0.086	0.262
-300.778	-200.000	-0.048	-0.393
-299.764	-30.484	-0.111	-0.062
-298.749	-14.941	-0.283	-0.179
-297.735	-200.000	-0.003	0.193
-296.720	302.762	0.096	0.176
-295.705	-32.012	0.102	-0.056
-294.691	800.000	-0.030	0.113
-293.676	71.011	0.110	0.113
-292.662	-135.541	0.219	0.026
-291.647	176.050	-0.093	-0.133
-290.632	-200.000	-0.025	-0.176
-289.618	466.253	-0.191	0.423
-288.603	-200.000	0.019	-0.236
-287.589	-75.113	-0.164	-0.058
-286.574	-200.000	0.050	0.448
-285.559	-142.791	-0.200	-0.019
-284.545	27.807	-0.093	-0.078
-283.530	800.000	-0.007	-0.019
-282.516	85.818	0.060	0.066
-281.501	-101.676	0.270	0.065
-280.486	-54.679	0.120	0.053
-279.472	-200.000	-0.016	0.084
-278.457	464.915	-0.065	-0.143
-277.443	-127.968	0.301	0.043
-276.428	121.517	-0.199	0.245
-275.413	10.161	-0.273	-0.205
-274.399	-37.964	-0.144	0.075
-273.384	72.441	0.121	0.125
-272.370	354.540	-0.138	-0.271
-271.355	-7.402	0.422	0.282
-270.340	-200.000	-0.043	-0.240
-269.326	116.581	-0.049	0.059
-268.311	60.471	-0.107	-0.105
-267.297	474.868	0.108	0.241
-266.282	-109.016	-0.252	0.053
-265.267	-107.535	0.211	0.046
-264.253	-200.000	-0.011	-0.097
-263.238	-200.000	-0.012	0.153
-262.224	800.000	0.108	-0.349
-261.209	800.000	0.104	-0.307
-260.195	-105.392	0.157	0.035
-259.180	-182.818	-0.081	0.001
-258.165	169.060	-0.120	0.169
-257.151	-166.671	0.286	0.012
-256.136	109.010	0.141	0.166
-255.122	240.505	-0.123	-0.203
-254.107	-200.000	-0.003	-0.128
-253.092	-22.167	0.216	-0.129
-252.078	-200.000	-0.023	-0.114
-251.063	-151.866	0.119	0.009
-250.049	-55.966	0.254	-0.111
-249.034	800.000	-0.018	-0.052
-248.019	-200.000	0.045	-0.251
-247.005	-0.137	-0.214	-0.150
-245.990	-110.175	0.261	-0.054
-244.976	32.965	0.204	0.174
-243.961	22.310	-0.256	0.206
-242.946	-200.000	-0.030	-0.251
-241.932	-157.944	0.091	-0.005
-240.917	542.949	0.087	-0.205
-239.903	-107.936	0.136	-0.029
-238.888	-32.029	0.202	0.111
-237.873	-200.000	-0.028	0.130
-236.859	-138.192	-0.145	-0.016
-235.844	33.399	0.022	0.019
-234.830	289.205	0.120	-0.214
-233.815	-96.129	-0.046	-0.012
-232.800	310.332	-0.076	0.140
-231.786	-106.512	0.214	0.047
-230.771	479.346	0.107	0.238
-229.757	-200.000	0.014	-0.175
-228.742	53.138	0.245	0.231
-227.727	800.000	-0.011	0.047
-226.713	-200.000	0.003	-0.035
-225.698	-66.472	-0.098	-0.038
-224.684	-79.643	0.053	-0.018
-223.669	106.444	0.201	-0.234
-222.655	-88.068	0.283	-0.084
-221.640	-200.000	-0.005	-0.461
-220.625	63.673	-0.136	-0.134
-219.611	97.194	0.179	-0.202
-218.596	-21.087	0.166	-0.100
-217.582	-200.000	-0.040	0.227
-216.567	800.000	0.021	-0.092
-215.552	50.445	0.094	-0.087
-214.538	-4.856	0.101	0.069
-213.523	-200.000	-0.010	0.206
-212.509	-43.269	-0.348	-0.173
-211.494	-125.521	0.177	0.026
-210.479	82.595	0.314	-0.336
-209.465	719.831	-0.214	0.560
-208.450	-200.000	0.021	-0.184
-207.436	800.000	-0.153	-0.423
-206.421	28.496	0.396	-0.329
-205.406	598.908	0.118	-0.287
-204.392	214.419	0.196	-0.305
-203.377	222.486	0.040	0.063
-202.363	4.855	0.110	-0.080
-201.348	149.430	-0.122	0.163
-200.333	-145.333	-0.387	-0.034
-199.319	-109.694	-0.091	0.019
-198.304	-140.146	-0.186	0.019
-197.290	-84.783	-0.085	-0.026
-196.275	-81.054	-0.215	0.070
-195.260	-124.832	0.229	0.035
-194.246	454.007	0.123	-0.268
-193.231	800.000	-0.010	-0.031
-192.217	70.086	0.146	-0.148
-191.202	-62.367	-0.306	-0.125
-190.187	-17.614	0.142	-0.088
-189.173	-200.000	-0.044	-0.378
-188.158	-78.105	-0.179	-0.061
-187.144	554.021	-0.112	-0.264
-186.129	-63.338	0.325	-0.131
-185.114	354.009	-0.055	-0.107
-184.100	-76.395	-0.222	-0.077
-183.085	136.437	0.120	0.154
-182.071	-37.413	-0.300	0.157
-181.056	248.801	-0.080	0.133
-180.042	374.384	0.160	0.320
-179.027	-114.792	-0.139	-0.026
-178.012	-23.205	0.189	0.112
-176.998	24.326	0.281	0.228
-175.983	-200.000	0.043	0.363
-174.969	-43.234	-0.151	0.075
-173.954	-88.772	0.268	0.078
-172.939	-29.030	-0.168	0.095
-171.925	800.000	-0.007	0.021
-170.910	7.052	-0.195	0.143
-169.896	98.879	-0.160	0.182
-168.881	800.000	0.052	-0.172
-167.866	172.193	0.141	-0.199
-166.852	29.723	0.315	-0.263
-165.837	47.648	-0.200	0.183
-164.823	3.293	0.097	-0.070
-163.808	800.000	-0.102	-0.305
-162.793	-79.984	0.291	0.096
-161.779	60.279	-0.132	0.128
-160.764	800.000	0.085	0.316
-159.750	-77.661	0.191	-0.065
-158.735	59.836	0.028	-0.027
-157.720	-151.069	0.098	0.007
-156.706	-87.276	0.262	-0.078
-155.691	93.336	-0.144	0.160
-154.677	-92.872	-0.267	0.073
-153.662	-35.610	0.197	0.105
-152.647	-89.602	0.207	0.060
-151.633	11.673	-0.070	0.053
-150.618	62.675	-0.198	0.194
-149.604	17.203	0.445	-0.346
-148.589	120.667	0.150	0.183
-147.574	276.996	-0.194	0.338
-146.560	783.775	0.049	0.133
-145.545	-76.623	-0.123	-0.042
-144.531	205.395	-0.070	-0.107
-143.516	800.000	0.071	0.213
-142.502	800.000	0.171	-0.481
-141.487	774.308	0.130	0.348
-140.472	-130.538	-0.286	0.038
-139.458	354.720	0.183	0.357
-138.443	524.766	0.113	0.260
-137.429	800.000	-0.083	-0.285
-136.414	-14.524	-0.247	0.156
-135.399	-122.261	0.184	0.029
-134.385	82.993	0.284	0.303
-133.370	-6.629	0.248	0.166
-132.356	-103.461	-0.178	-0.041
-131.341	-200.000	0.002	0.282
-130.326	171.150	-0.089	0.125
-129.312	-15.883	-0.068	0.042
-128.297	140.384	0.170	-0.221
-127.283	-200.000	-0.022	0.104
-126.268	107.805	-0.103	-0.121
-125.253	-25.819	-0.326	-0.189
-124.239	-181.276	0.232	0.004
-123.224	-24.215	-0.050	-0.029
-122.210	-200.000	0.012	0.216
-121.195	-200.000	-0.042	0.230
