DTS Sentinel unit serial number:	SN413079Multiplexer serial number:	ORYXHardware model number:	OX4-SRSoftware version number:	ORYX F/W v4.00 Oryx Data Collector v3.7.2.0data status	okinstallation	princeton_trtdifferential loss correction	single-endedforward channel	channel 1reverse channel	N/Adate	2019/09/14time	09:58:35forward acquisition time	60.00reverse acquisition time	0.00gamma	496.2192k internal	0.2315k external	0.2315temperature offset calibration	1.0064default loss term (dB/km)	0.3790temperature slope calibration	1.0000multiplexer offset coefficient	1.0000multiplexer slope coefficient	1.0000fibre end	0.00T internal ref (°C)	32.94T ext. ref 1 (°C)	3.99T ext. ref 2 (°C)	31.41length (m)	temperature (°C)	Stokes	anti-Stokes-747.200	53.930	-0.226	-0.220
-746.185	128.840	0.216	0.279
-745.171	-43.477	0.245	0.126
-744.156	-200.000	-0.046	0.402
-743.142	307.138	-0.036	0.068
-742.127	-42.478	0.119	0.062
-741.112	54.205	0.174	-0.170
-740.098	-179.616	-0.219	-0.005
-739.083	409.226	-0.179	-0.384
-738.069	800.000	-0.138	0.474
-737.054	695.607	0.190	0.506
-736.039	312.683	-0.144	-0.275
-735.025	-136.249	0.087	0.010
-734.010	-50.481	-0.094	-0.045
-732.996	-34.328	-0.114	-0.063
-731.981	-200.000	-0.030	-0.237
-730.966	66.459	0.110	-0.113
-729.952	-13.472	0.163	-0.107
-728.937	-200.000	-0.039	-0.207
-727.923	82.821	-0.072	0.079
-726.908	-200.000	0.007	-0.140
-725.894	-200.000	-0.008	-0.127
-724.879	30.385	-0.249	-0.216
-723.864	-127.060	-0.022	-0.003
-722.850	-117.974	-0.123	0.022
-721.835	24.888	-0.092	0.077
-720.821	29.832	-0.423	0.364
-719.806	346.427	-0.201	0.400
-718.791	134.319	0.086	-0.113
-717.777	-106.858	-0.640	0.144
-716.762	53.785	0.166	0.161
-715.748	14.839	-0.146	-0.115
-714.733	-6.394	-0.210	-0.145
-713.718	800.000	-0.057	0.234
-712.704	-2.647	-0.391	-0.277
-711.689	13.625	0.034	-0.027
-710.675	-121.949	0.085	0.014
-709.660	66.765	-0.142	-0.146
-708.645	97.564	-0.144	0.168
-707.631	465.543	0.066	0.150
-706.616	-200.000	-0.041	-0.376
-705.602	-91.779	-0.180	-0.052
-704.587	171.320	0.130	-0.188
-703.572	-52.599	0.362	0.169
-702.558	-104.223	0.214	-0.050
-701.543	101.686	-0.155	-0.183
-700.529	192.555	0.104	0.158
-699.514	-66.936	0.161	0.064
-698.499	-149.223	0.088	0.007
-697.485	-28.937	-0.225	0.130
-696.470	-90.437	-0.219	0.064
-695.456	-118.646	0.479	0.086
-694.441	-59.649	-0.297	0.129
-693.426	-137.484	0.155	0.018
-692.412	-135.976	0.102	0.012
-691.397	-200.000	0.330	0.000
-690.383	158.514	0.215	-0.303
-689.368	-200.000	0.006	-0.042
-688.354	-143.961	0.162	-0.015
-687.339	49.299	-0.252	0.240
-686.324	-152.441	-0.337	-0.024
-685.310	392.722	-0.066	-0.139
-684.295	-200.000	0.044	-0.235
-683.281	71.302	-0.075	-0.078
-682.266	-200.000	-0.019	0.339
-681.251	238.837	-0.189	-0.317
-680.237	-200.000	-0.016	-0.079
-679.222	800.000	0.063	0.245
-678.208	-33.310	0.392	0.219
-677.193	-32.655	0.112	0.063
-676.178	-46.489	0.240	0.119
-675.164	-100.444	-0.132	0.033
-674.149	55.005	0.100	-0.098
-673.135	487.436	0.027	-0.063
-672.120	800.000	0.014	-0.043
-671.105	-200.000	-0.055	-0.519
-670.091	70.674	-0.139	-0.145
-669.076	-161.469	-0.327	0.017
-668.062	-84.328	0.053	0.017
-667.047	114.988	0.181	0.223
-666.032	112.676	0.037	-0.045
-665.018	556.228	0.061	0.148
-664.003	26.868	-0.310	-0.262
-662.989	-147.264	-0.333	0.029
-661.974	-70.105	-0.111	-0.043
-660.959	333.731	-0.075	-0.146
-659.945	205.717	0.074	0.117
-658.930	385.636	-0.047	0.099
-657.916	-124.167	0.022	-0.004
-656.901	262.218	-0.229	-0.400
-655.886	87.335	-0.033	0.037
-654.872	-200.000	-0.024	0.234
-653.857	200.784	-0.105	0.163
-652.843	-50.209	0.289	0.138
-651.828	-36.715	-0.431	0.234
-650.814	153.545	0.110	0.152
-649.799	127.085	-0.154	0.197
-648.784	800.000	-0.040	0.124
-647.770	-131.660	0.267	0.035
-646.755	-124.369	-0.384	0.061
-645.741	522.998	-0.115	0.273
-644.726	-200.000	-0.024	0.246
-643.711	-200.000	0.006	0.087
-642.697	164.815	-0.254	-0.361
-641.682	158.942	0.021	-0.029
-640.668	-80.572	-0.369	-0.124
-639.653	-47.778	0.142	0.070
-638.638	800.000	0.056	-0.166
-637.624	-60.469	0.055	0.024
-636.609	-95.137	-0.054	-0.015
-635.595	84.326	0.155	0.171
-634.580	-139.970	0.104	0.011
-633.565	-200.000	0.020	-0.169
-632.551	477.213	0.091	-0.208
-631.536	-52.088	0.184	-0.086
-630.522	-200.000	-0.039	-0.253
-629.507	261.732	-0.158	0.276
-628.492	25.248	0.186	0.156
-627.478	31.335	-0.127	0.110
-626.463	-200.000	0.022	0.186
-625.449	-200.000	-0.011	-0.099
-624.434	105.269	-0.155	0.185
-623.419	-166.828	-0.129	0.005
-622.405	42.624	-0.115	-0.106
-621.390	-103.725	-0.464	-0.110
-620.376	1.730	-0.255	0.185
-619.361	224.930	-0.054	0.088
-618.346	-21.663	0.186	-0.114
-617.332	800.000	0.020	0.085
-616.317	-180.935	-0.091	0.002
-615.303	-50.568	-0.096	0.046
-614.288	486.864	-0.082	-0.188
-613.273	800.000	-0.113	0.334
-612.259	-47.550	-0.137	0.067
-611.244	439.559	0.128	-0.282
-610.230	133.768	-0.134	-0.175
-609.215	-119.150	-0.344	-0.061
-608.201	-200.000	0.056	-0.293
-607.186	102.048	0.093	-0.110
-606.171	-47.424	0.047	0.023
-605.157	-62.836	0.293	0.122
-604.142	-42.613	0.212	0.109
-603.128	44.158	0.200	0.185
-602.113	-45.432	0.053	0.027
-601.098	380.785	-0.087	-0.180
-600.084	396.511	-0.108	0.226
-599.069	332.344	-0.145	0.283
-598.055	-103.132	-0.112	0.027
-597.040	232.517	-0.089	0.147
-596.025	800.000	0.083	-0.295
-595.011	-90.341	-0.192	-0.056
-593.996	-174.868	0.228	-0.006
-592.982	-200.000	-0.026	0.364
-591.967	-61.068	-0.190	-0.081
-590.952	800.000	-0.133	-0.422
-589.938	341.049	-0.125	0.246
-588.923	76.317	-0.186	0.199
-587.909	-200.000	0.024	-0.123
-586.894	-18.927	-0.209	-0.131
-585.879	127.375	-0.151	-0.193
-584.865	-87.329	0.216	0.066
-583.850	-152.098	-0.111	-0.008
-582.836	-94.401	0.104	0.029
-581.821	326.716	-0.116	0.224
-580.806	789.852	0.038	0.105
-579.792	-200.000	-0.006	0.102
-578.777	-59.352	-0.273	0.118
-577.763	-200.000	-0.007	-0.075
-576.748	-60.427	0.095	0.041
-575.733	-200.000	-0.068	0.315
-574.719	-120.986	0.205	0.035
-573.704	68.987	-0.106	0.110
-572.690	-200.000	-0.017	-0.389
-571.675	-12.913	0.187	0.122
-570.661	-200.000	0.076	-0.452
-569.646	181.266	-0.210	0.310
-568.631	474.836	0.070	-0.159
-567.617	-200.000	0.039	-0.313
-566.602	256.222	0.106	-0.183
-565.588	36.839	0.167	-0.148
-564.573	-141.265	0.129	-0.013
-563.558	115.386	0.045	0.056
-562.544	-79.993	-0.267	0.090
-561.529	-172.850	0.164	-0.005
-560.515	-120.141	-0.164	-0.028
-559.500	-200.000	0.037	0.301
-558.485	-29.363	0.064	-0.037
-557.471	-200.000	0.004	-0.456
-556.456	9.641	0.086	-0.065
-555.442	224.034	0.093	0.151
-554.427	-83.370	-0.219	-0.071
-553.412	426.218	0.141	-0.307
-552.398	51.908	-0.113	-0.108
-551.383	-146.284	-0.326	-0.029
-550.369	572.131	0.046	0.112
-549.354	233.412	-0.060	-0.100
-548.339	800.000	0.012	-0.044
-547.325	-200.000	-0.011	-0.122
-546.310	-200.000	0.026	-0.362
-545.296	-18.066	0.081	-0.051
-544.281	39.374	0.093	-0.083
-543.266	-36.811	-0.206	0.111
-542.252	203.077	0.077	0.120
-541.237	-0.913	-0.190	-0.136
-540.223	-2.803	0.147	-0.104
-539.208	-89.178	0.283	-0.084
-538.193	800.000	-0.039	-0.125
-537.179	-59.366	-0.249	-0.108
-536.164	360.142	-0.073	0.148
-535.150	159.505	-0.219	0.307
-534.135	-200.000	-0.014	-0.077
-533.121	-14.485	0.027	0.018
-532.106	146.321	-0.096	0.130
-531.091	339.147	0.082	0.160
-530.077	-31.433	0.183	0.104
-529.062	-105.344	-0.244	-0.056
-528.048	-148.521	-0.145	0.012
-527.033	361.113	0.044	-0.089
-526.018	194.511	0.071	-0.109
-525.004	-99.148	0.138	0.035
-523.989	-163.545	0.184	0.009
-522.975	63.310	-0.194	-0.196
-521.960	46.324	-0.100	-0.093
-520.945	-200.000	-0.022	0.212
-519.931	-18.443	-0.232	0.146
-518.916	255.753	0.155	0.267
-517.902	19.781	0.095	-0.077
-516.887	-4.571	0.170	-0.118
-515.872	93.233	0.125	-0.143
-514.858	97.112	0.152	-0.175
-513.843	421.536	-0.086	-0.186
-512.829	43.326	0.232	-0.212
-511.814	800.000	-0.041	0.129
-510.799	-95.159	0.197	0.053
-509.785	-31.354	0.255	-0.144
-508.770	788.083	0.103	-0.285
-507.756	198.623	-0.121	0.185
-506.741	-67.284	0.064	-0.025
-505.726	-51.702	-0.288	0.135
-504.712	-12.696	0.172	0.113
-503.697	25.946	0.207	0.173
-502.683	-129.874	-0.086	0.012
-501.668	-70.835	0.178	-0.067
-500.653	161.600	-0.114	0.161
-499.639	-200.000	-0.017	0.097
-498.624	-79.591	0.157	0.053
-497.610	134.058	-0.131	-0.171
-496.595	800.000	-0.137	0.484
-495.581	-75.993	0.186	0.066
-494.566	-10.441	0.255	-0.170
-493.551	-53.309	-0.196	0.090
-492.537	209.796	-0.100	0.158
-491.522	-200.000	-0.012	-0.164
-490.508	-200.000	-0.003	-0.222
-489.493	-200.000	-0.002	-0.013
-488.478	-200.000	-0.006	0.091
-487.464	-145.558	-0.142	0.013
-486.449	314.985	-0.110	0.209
-485.435	2.089	-0.191	-0.138
-484.420	-29.052	-0.195	-0.113
-483.405	-200.000	-0.072	0.383
-482.391	-200.000	-0.008	-0.123
-481.376	140.831	0.098	-0.129
-480.362	242.185	-0.046	-0.077
-479.347	-200.000	-0.002	-0.020
-478.332	-39.150	0.114	0.060
-477.318	-154.085	-0.362	-0.025
-476.303	-109.637	-0.185	0.039
-475.289	212.286	0.115	0.182
-474.274	489.445	0.007	0.016
-473.259	-200.000	-0.032	-0.247
-472.245	-93.219	-0.278	-0.078
-471.230	442.169	0.081	0.177
-470.216	-174.748	-0.343	-0.010
-469.201	-2.989	-0.400	0.280
-468.186	-200.000	0.030	0.310
-467.172	728.006	0.036	0.095
-466.157	-58.017	-0.138	-0.060
-465.143	-39.154	0.299	0.157
-464.128	-45.548	0.358	-0.178
-463.113	-63.356	0.063	-0.026
-462.099	800.000	-0.093	-0.274
-461.084	-59.689	-0.263	-0.113
-460.070	-97.804	-0.207	0.054
-459.055	10.178	-0.191	0.146
-458.040	-85.100	0.101	0.032
-457.026	-200.000	-0.008	-0.347
-456.011	800.000	-0.086	0.293
-454.997	269.572	0.124	-0.219
-453.982	80.014	-0.063	0.068
-452.968	10.694	0.338	-0.259
-451.953	-15.247	0.261	0.167
-450.938	48.329	0.351	0.329
-449.924	-49.798	-0.157	-0.075
-448.909	-49.806	-0.053	-0.025
-447.895	-42.440	0.237	-0.121
-446.880	196.791	-0.046	-0.070
-445.865	-74.732	0.445	-0.160
-444.851	-73.145	-0.416	-0.153
-443.836	-82.193	0.264	-0.086
-442.822	29.333	-0.095	0.081
-441.807	-200.000	-0.005	0.403
-440.792	-9.920	0.291	0.194
-439.778	-156.996	-0.183	0.011
-438.763	-51.523	-0.214	-0.100
-437.749	-21.054	-0.101	-0.062
-436.734	86.555	-0.078	-0.086
-435.719	-200.000	0.067	0.410
-434.705	-200.000	-0.049	-0.217
-433.690	-135.498	0.225	-0.027
-432.676	335.156	0.085	-0.165
-431.661	800.000	-0.055	0.164
-430.646	127.649	0.266	0.338
-429.632	-91.230	-0.117	0.034
-428.617	-131.444	-0.383	-0.051
-427.603	-195.302	-0.208	0.002
-426.588	-147.700	-0.088	-0.007
-425.573	97.970	-0.154	0.178
-424.559	-200.000	0.053	0.313
-423.544	-147.847	0.221	0.018
-422.530	-74.724	-0.063	-0.023
-421.515	800.000	-0.041	-0.133
-420.500	-18.346	-0.060	0.037
-419.486	-45.133	0.370	0.184
-418.471	-139.364	-0.368	-0.039
-417.457	264.327	-0.155	0.269
-416.442	83.848	0.487	-0.532
-415.428	125.119	-0.126	-0.159
-414.413	-153.456	0.165	0.011
-413.398	-200.000	-0.003	0.224
-412.384	382.805	-0.049	0.101
-411.369	800.000	0.127	0.368
-410.355	800.000	-0.057	-0.171
-409.340	-153.373	0.193	0.013
-408.325	-200.000	0.004	0.067
-407.311	-143.137	0.241	-0.023
-406.296	-78.376	-0.310	-0.106
-405.282	-71.422	-0.256	-0.096
-404.267	39.724	0.088	0.079
-403.252	266.281	-0.103	-0.179
-402.238	-83.721	0.240	0.077
-401.223	-77.209	0.158	0.055
-400.209	326.043	0.109	0.208
-399.194	428.655	0.101	-0.218
-398.179	279.673	-0.006	-0.011
-397.165	192.319	-0.116	0.175
-396.150	21.303	-0.122	-0.099
-395.136	-20.335	-0.048	0.030
-394.121	23.716	0.176	0.145
-393.106	23.485	-0.114	-0.094
-392.092	-97.709	0.344	0.089
-391.077	-111.485	0.055	-0.011
-390.063	-109.201	-0.409	0.087
-389.048	-114.612	0.236	0.045
-388.033	-33.771	0.078	-0.043
-387.019	800.000	-0.012	0.042
-386.004	-139.637	0.238	-0.025
-384.990	-200.000	-0.014	-0.113
-383.975	264.386	-0.175	0.304
-382.960	36.736	0.129	-0.114
-381.946	-19.037	-0.178	-0.111
-380.931	-194.467	-0.400	-0.003
-379.917	-200.000	-0.016	0.156
-378.902	34.079	-0.181	0.157
-377.888	-200.000	0.007	0.317
-376.873	-200.000	0.015	-0.112
-375.858	84.563	-0.127	-0.139
-374.844	-200.000	-0.050	-0.306
-373.829	62.998	-0.033	0.033
-372.815	-200.000	-0.048	-0.291
-371.800	102.750	-0.132	-0.155
-370.785	-106.373	0.193	0.043
-369.771	-200.000	0.030	0.366
-368.756	96.125	0.281	-0.321
-367.742	100.096	0.145	0.168
-366.727	-148.372	-0.303	0.025
-365.712	-162.008	-0.316	0.016
-364.698	-136.762	0.269	-0.031
-363.683	-165.277	-0.381	-0.017
-362.669	800.000	0.019	0.073
-361.654	-102.776	-0.126	-0.030
-360.639	-200.000	-0.015	-0.098
-359.625	-126.650	0.136	-0.020
-358.610	-200.000	-0.039	-0.284
-357.596	-200.000	-0.015	0.179
-356.581	-200.000	-0.010	-0.076
-355.566	-73.410	-0.138	0.050
-354.552	-117.416	0.513	0.093
-353.537	-12.127	0.268	0.175
-352.523	41.749	0.291	0.263
-351.508	-22.142	-0.221	-0.134
-350.493	206.495	0.024	-0.037
-349.479	609.184	-0.069	-0.171
-348.464	37.019	0.101	0.089
-347.450	137.226	-0.070	0.091
-346.435	58.480	-0.109	-0.107
-345.420	-27.473	0.099	-0.057
-344.406	387.027	0.082	-0.169
-343.391	-200.000	-0.053	0.235
-342.377	-200.000	0.026	0.152
-341.362	-200.000	0.013	-0.137
-340.348	-200.000	0.024	0.113
-339.333	233.638	0.175	0.287
-338.318	260.596	-0.098	-0.169
-337.304	165.667	-0.091	-0.128
-336.289	800.000	0.061	0.193
-335.275	-11.088	0.270	0.177
-334.260	-200.000	0.346	-0.001
-333.245	202.755	0.116	0.179
-332.231	654.482	0.066	0.169
-331.216	-200.000	-0.084	-0.406
-330.202	-200.000	-0.021	0.387
-329.187	521.096	0.097	0.228
-328.172	-200.000	-0.037	-0.207
-327.158	269.892	0.092	-0.162
-326.143	4.092	0.052	0.038
-325.129	-200.000	0.013	0.200
-324.114	-31.692	0.123	-0.069
-323.099	-15.943	-0.223	0.142
-322.085	131.256	-0.074	0.095
-321.070	19.143	-0.134	-0.107
-320.056	151.728	0.124	-0.168
-319.041	-27.002	0.163	-0.095
-318.026	800.000	0.053	0.170
-317.012	-107.300	0.053	-0.012
-315.997	-200.000	0.011	0.106
-314.983	25.496	-0.171	0.142
-313.968	800.000	0.058	-0.222
-312.953	43.520	0.210	0.192
-311.939	800.000	0.084	-0.242
-310.924	-103.860	0.068	0.016
-309.910	33.606	-0.203	-0.176
-308.895	-146.049	-0.167	0.015
-307.880	-137.398	0.295	-0.033
-306.866	613.996	-0.135	-0.337
-305.851	4.330	0.145	-0.106
-304.837	103.554	-0.152	0.178
-303.822	160.163	-0.120	-0.166
-302.807	88.070	0.053	0.058
-301.793	-54.834	-0.225	-0.101
-300.778	-195.862	-0.065	0.000
-299.764	267.781	0.045	-0.078
-298.749	-21.269	0.099	0.060
-297.735	-200.000	-0.050	-0.405
-296.720	-200.000	0.008	-0.063
-295.705	142.971	-0.108	0.142
-294.691	42.016	0.153	0.138
-293.676	54.632	-0.147	-0.141
-292.662	48.624	0.058	-0.054
-291.647	-200.000	0.024	-0.107
-290.632	800.000	-0.084	0.262
-289.618	4.343	0.032	0.024
-288.603	359.618	0.120	-0.240
-287.589	-88.867	0.082	0.024
-286.574	587.528	-0.126	-0.309
-285.559	65.506	0.335	-0.337
-284.545	-61.763	-0.079	-0.033
-283.530	382.613	0.119	-0.243
-282.516	-200.000	-0.010	0.075
-281.501	-0.851	0.202	-0.142
-280.486	-30.787	0.278	0.156
-279.472	-23.978	-0.187	0.111
-278.457	-2.640	0.330	-0.230
-277.443	-200.000	-0.051	0.327
-276.428	284.528	0.089	0.159
-275.413	27.040	0.261	-0.218
-274.399	274.329	0.068	-0.121
-273.384	353.797	-0.123	0.244
-272.370	88.648	0.183	-0.203
-271.355	-162.848	0.032	0.002
-270.340	-200.000	-0.003	-0.201
-269.326	-71.980	0.237	-0.088
-268.311	-72.549	0.085	0.031
-267.297	-110.435	-0.341	-0.070
-266.282	-64.503	0.215	-0.087
-265.267	75.541	0.190	0.200
-264.253	78.138	0.199	0.211
-263.238	800.000	-0.016	0.051
-262.224	-137.702	0.133	-0.015
-261.209	33.249	-0.484	0.418
-260.195	-144.593	-0.205	-0.019
-259.180	800.000	-0.074	0.272
-258.165	-86.279	-0.422	-0.129
-257.151	397.424	0.089	0.184
-256.136	510.455	-0.104	-0.240
-255.122	357.044	-0.136	0.270
-254.107	353.096	0.058	0.115
-253.092	258.985	-0.060	0.104
-252.078	-141.932	0.198	0.020
-251.063	-165.398	0.073	0.003
-250.049	-200.000	0.025	-0.301
-249.034	-147.541	0.377	-0.032
-248.019	167.805	0.081	-0.114
-247.005	-31.654	-0.292	-0.163
-245.990	19.858	0.255	-0.204
-244.976	-53.471	0.167	0.076
-243.961	-76.230	-0.060	-0.021
-242.946	524.073	0.057	0.133
-241.932	-96.947	-0.100	0.026
-240.917	-114.942	-0.244	-0.046
-239.903	-200.000	-0.023	0.231
-238.888	-2.215	-0.187	0.130
-237.873	270.430	0.207	-0.362
-236.859	-18.419	-0.059	-0.037
-235.844	310.015	-0.087	0.163
-234.830	24.558	0.183	0.151
-233.815	35.914	0.101	-0.089
-232.800	8.579	-0.255	-0.190
-231.786	800.000	-0.058	0.200
-230.771	-50.140	-0.142	0.067
-229.757	-200.000	-0.019	-0.410
-228.742	7.889	0.209	0.156
-227.727	800.000	-0.068	-0.195
-226.713	178.746	0.137	0.199
-225.698	-155.546	-0.088	-0.006
-224.684	800.000	-0.044	0.184
-223.669	-200.000	-0.005	0.038
-222.655	-200.000	0.009	-0.271
-221.640	24.506	-0.083	-0.068
-220.625	88.405	0.226	0.249
-219.611	225.338	0.061	-0.097
-218.596	-145.087	-0.169	0.015
-217.582	-146.925	-0.292	-0.025
-216.567	-119.792	-0.157	0.027
-215.552	-63.787	0.061	-0.025
-214.538	-32.772	-0.267	-0.148
-213.523	-56.980	0.284	0.124
-212.509	-163.789	0.305	-0.014
-211.494	800.000	-0.064	-0.201
-210.479	194.506	0.049	0.073
-209.465	-154.341	0.069	0.005
-208.450	-200.000	0.017	-0.130
-207.436	-200.000	0.022	0.166
-206.421	800.000	0.077	0.247
-205.406	-19.008	-0.194	0.119
-204.392	-11.448	-0.158	0.103
-203.377	800.000	0.034	0.137
-202.363	11.015	-0.078	0.059
-201.348	-56.465	-0.064	-0.028
-200.333	-133.978	0.385	0.047
-199.319	62.595	0.139	0.138
-198.304	-106.505	-0.203	0.045
-197.290	12.946	0.204	0.157
-196.275	-200.000	-0.033	-0.304
-195.260	82.213	0.306	-0.329
-194.246	-45.050	-0.367	-0.181
-193.231	-136.859	0.555	-0.063
-192.217	99.199	0.309	-0.354
-191.202	-58.156	-0.353	0.152
-190.187	-200.000	0.002	-0.231
-189.173	-62.706	-0.158	-0.065
-188.158	-62.916	-0.108	-0.044
-187.144	-200.000	-0.003	-0.102
-186.129	-200.000	0.032	-0.355
-185.114	-200.000	0.002	0.056
-184.100	-69.742	0.117	0.044
-183.085	-200.000	0.014	0.176
-182.071	-15.866	-0.200	0.126
-181.056	34.373	0.203	0.175
-180.042	-0.331	0.060	-0.042
-179.027	237.197	0.061	0.100
-178.012	423.891	-0.115	0.245
-176.998	524.854	0.058	0.135
-175.983	165.138	-0.068	-0.095
-174.969	-84.359	0.326	-0.102
-173.954	-187.885	-0.132	0.002
-172.939	-200.000	0.010	0.066
-171.925	94.533	0.110	-0.124
-170.910	151.785	0.054	-0.073
-169.896	552.604	-0.034	-0.082
-168.881	-120.659	0.182	-0.031
-167.866	-200.000	0.000	0.111
-166.852	-200.000	-0.036	-0.183
-165.837	61.162	0.100	0.098
-164.823	565.025	0.023	0.055
-163.808	93.856	0.064	-0.072
-162.793	-61.159	0.147	-0.062
-161.779	800.000	0.056	0.190
-160.764	-26.376	-0.155	-0.090
-159.750	100.928	-0.168	-0.193
-158.735	-120.757	-0.180	-0.030
-157.720	-137.688	0.087	0.010
-156.706	-67.447	0.236	0.092
-155.691	-139.904	0.069	-0.007
-154.677	120.441	0.116	-0.142
-153.662	-200.000	-0.043	0.195
-152.647	-49.904	-0.508	-0.239
-151.633	-144.599	-0.095	0.009
-150.618	139.528	0.205	0.267
-149.604	-200.000	-0.356	-0.001
-148.589	-200.000	0.019	-0.200
-147.574	-154.174	-0.351	0.024
-146.560	11.086	0.320	-0.242
-145.545	534.941	0.108	0.254
-144.531	-43.816	0.267	0.133
-143.516	269.869	0.117	-0.203
-142.502	800.000	-0.058	0.174
-141.487	-82.586	0.170	-0.054
-140.472	7.219	-0.135	-0.100
-139.458	40.672	0.187	-0.167
-138.443	-65.385	0.264	-0.105
-137.429	41.130	-0.132	0.118
-136.414	-164.459	-0.049	-0.002
-135.399	800.000	0.073	0.248
-134.385	-36.247	0.147	-0.078
-133.370	82.980	-0.032	-0.035
-132.356	515.267	0.116	0.269
-131.341	722.064	0.070	0.185
-130.326	432.114	0.095	0.205
-129.312	479.687	0.080	-0.179
-128.297	-128.590	-0.236	0.033
-127.283	-200.000	-0.044	0.219
-126.268	800.000	-0.063	-0.222
-125.253	-200.000	-0.007	-0.326
-124.239	-39.055	-0.324	0.169
-123.224	-173.612	0.063	0.002
-122.210	565.940	0.027	0.064
-121.195	-48.868	0.304	0.144
