DTS Sentinel unit serial number:	SN413079Multiplexer serial number:	ORYXHardware model number:	OX4-SRSoftware version number:	ORYX F/W v4.00 Oryx Data Collector v3.7.2.0data status	okinstallation	princeton_trtdifferential loss correction	single-endedforward channel	channel 1reverse channel	N/Adate	2019/09/13time	16:22:35forward acquisition time	60.00reverse acquisition time	0.00gamma	496.2192k internal	0.2303k external	0.2303temperature offset calibration	1.0158default loss term (dB/km)	0.3790temperature slope calibration	1.0000multiplexer offset coefficient	1.0000multiplexer slope coefficient	1.0000fibre end	0.00T internal ref (°C)	35.00T ext. ref 1 (°C)	4.86T ext. ref 2 (°C)	31.12length (m)	temperature (°C)	Stokes	anti-Stokes-747.200	17.052	0.086	-0.069
-746.185	-2.159	-0.201	-0.143
-745.171	396.849	0.159	-0.338
-744.156	-57.160	-0.146	-0.065
-743.142	133.131	0.143	-0.189
-742.127	-48.905	-0.229	0.112
-741.112	-80.854	0.098	0.033
-740.098	786.427	-0.065	0.181
-739.083	-94.417	-0.120	0.033
-738.069	800.000	-0.075	0.332
-737.054	27.430	-0.081	-0.069
-736.039	-200.000	0.066	-0.372
-735.025	49.244	0.241	-0.231
-734.010	-47.399	-0.328	-0.163
-732.996	-124.890	-0.184	-0.029
-731.981	-9.557	0.103	0.070
-730.966	-142.739	-0.320	-0.032
-729.952	72.456	0.206	-0.218
-728.937	128.497	-0.152	-0.197
-727.923	-156.606	-0.352	-0.022
-726.908	277.875	0.025	-0.046
-725.894	-77.248	-0.253	-0.090
-724.879	93.139	0.250	0.287
-723.864	253.941	-0.095	-0.165
-722.850	-22.853	-0.017	0.011
-721.835	-127.459	0.258	-0.038
-720.821	46.386	-0.035	-0.033
-719.806	-162.299	-0.338	0.017
-718.791	-146.363	-0.175	0.016
-717.777	100.382	-0.040	0.047
-716.762	34.300	-0.159	-0.141
-715.748	-11.133	-0.252	-0.169
-714.733	390.281	-0.095	0.199
-713.718	-135.526	0.171	-0.021
-712.704	346.721	-0.101	-0.201
-711.689	-200.000	0.077	0.370
-710.675	-178.677	-0.324	0.008
-709.660	-98.713	0.322	-0.084
-708.645	-122.126	-0.296	0.049
-707.631	576.518	0.091	0.227
-706.616	145.377	-0.078	-0.106
-705.602	-54.372	0.146	0.067
-704.587	-200.000	0.039	-0.227
-703.572	-200.000	0.002	-0.336
-702.558	800.000	-0.062	-0.202
-701.543	800.000	0.013	-0.050
-700.529	177.285	-0.040	0.060
-699.514	-46.236	-0.209	0.104
-698.499	-32.939	-0.211	0.119
-697.485	-141.210	-0.041	-0.004
-696.470	493.115	0.051	0.118
-695.456	256.373	-0.158	-0.275
-694.441	361.966	-0.035	-0.071
-693.426	-73.253	0.433	0.161
-692.412	207.601	0.240	-0.380
-691.397	800.000	-0.066	0.230
-690.383	800.000	-0.047	-0.151
-689.368	207.038	-0.017	0.027
-688.354	22.631	-0.339	-0.282
-687.339	-94.699	0.246	0.068
-686.324	212.293	-0.111	-0.178
-685.310	369.399	-0.201	-0.414
-684.295	-120.440	-0.327	-0.056
-683.281	167.268	0.113	0.163
-682.266	-46.685	0.140	-0.070
-681.251	331.845	0.105	-0.206
-680.237	121.723	0.174	0.221
-679.222	21.226	0.178	-0.147
-678.208	379.366	0.189	-0.394
-677.193	180.222	-0.079	0.118
-676.178	140.154	-0.127	-0.170
-675.164	-60.887	0.056	-0.024
-674.149	545.346	-0.074	0.180
-673.135	-78.894	-0.108	-0.038
-672.120	-200.000	0.006	0.221
-671.105	-148.809	-0.182	-0.015
-670.091	139.747	0.048	0.064
-669.076	9.033	-0.255	0.196
-668.062	-150.117	0.059	-0.005
-667.047	21.604	-0.109	0.090
-666.032	120.452	0.072	0.091
-665.018	800.000	-0.099	0.377
-664.003	-200.000	-0.009	0.238
-662.989	164.959	-0.150	0.215
-661.974	-148.658	0.164	-0.014
-660.959	800.000	-0.099	-0.331
-659.945	-200.000	-0.029	-0.162
-658.930	61.861	0.090	-0.091
-657.916	-101.247	-0.132	-0.033
-656.901	-71.368	-0.149	0.056
-655.886	-200.000	-0.020	0.136
-654.872	-92.469	-0.117	-0.033
-653.857	663.291	-0.079	-0.208
-652.843	800.000	0.016	-0.068
-651.828	-200.000	-0.016	0.278
-650.814	-89.301	0.053	-0.016
-649.799	220.171	0.056	-0.090
-648.784	-200.000	0.264	0.000
-647.770	-93.447	-0.324	0.091
-646.755	164.013	-0.037	0.054
-645.741	667.203	-0.149	-0.392
-644.726	255.067	0.168	-0.291
-643.711	-200.000	-0.082	-0.385
-642.697	-154.088	0.236	0.016
-641.682	69.385	-0.109	0.114
-640.668	-86.456	-0.157	0.049
-639.653	-37.424	0.128	-0.069
-638.638	143.233	-0.133	0.180
-637.624	-200.000	0.014	0.083
-636.609	800.000	0.037	-0.120
-635.595	-82.578	-0.293	0.096
-634.580	-105.646	-0.201	-0.046
-633.565	-67.468	0.227	-0.090
-632.551	-64.304	-0.280	-0.116
-631.536	800.000	-0.098	-0.420
-630.522	669.623	-0.151	-0.397
-629.507	-143.302	-0.090	0.009
-628.492	-59.597	0.201	-0.087
-627.478	312.321	0.031	0.059
-626.463	-200.000	0.053	-0.444
-625.449	800.000	0.105	-0.313
-624.434	-21.333	0.054	0.033
-623.419	219.584	0.100	0.162
-622.405	598.296	0.068	-0.172
-621.390	-52.543	0.254	0.119
-620.376	-200.000	0.016	-0.184
-619.361	48.409	0.095	-0.090
-618.346	61.299	0.079	-0.079
-617.332	227.031	-0.048	0.080
-616.317	-52.342	0.184	0.086
-615.303	800.000	0.139	-0.609
-614.288	800.000	0.064	0.192
-613.273	-56.621	-0.072	-0.032
-612.259	800.000	-0.047	-0.157
-611.244	185.560	0.199	-0.299
-610.230	-33.091	-0.172	-0.096
-609.215	-200.000	-0.038	-0.225
-608.201	-147.366	0.244	0.021
-607.186	-200.000	0.017	-0.143
-606.171	1.075	0.115	0.084
-605.157	109.005	-0.123	-0.149
-604.142	-64.518	-0.179	-0.073
-603.128	-69.652	0.196	-0.076
-602.113	-200.000	0.004	0.131
-601.098	70.063	-0.296	0.309
-600.084	-32.035	0.125	0.071
-599.069	-56.720	-0.068	-0.030
-598.055	-97.690	0.263	0.069
-597.040	-62.220	0.210	-0.089
-596.025	-200.000	-0.002	-0.029
-595.011	-163.842	0.109	0.005
-593.996	-200.000	0.012	-0.124
-592.982	-96.029	-0.161	-0.043
-591.967	-82.062	-0.202	-0.067
-590.952	-20.565	0.330	0.205
-589.938	-76.137	-0.230	0.082
-588.923	22.209	-0.078	0.064
-587.909	56.744	-0.060	0.059
-586.894	107.433	-0.162	0.195
-585.879	-110.508	0.275	0.058
-584.865	27.914	0.150	0.128
-583.850	266.100	-0.052	0.092
-582.836	800.000	0.064	-0.203
-581.821	-65.537	-0.201	-0.082
-580.806	-200.000	0.038	-0.245
-579.792	-200.000	-0.032	-0.303
-578.777	19.264	-0.052	-0.042
-577.763	-107.622	-0.286	0.063
-576.748	38.580	-0.202	-0.182
-575.733	222.680	0.132	-0.214
-574.719	130.377	0.171	-0.221
-573.704	-108.892	0.068	0.015
-572.690	800.000	0.018	-0.070
-571.675	-200.000	0.070	0.335
-570.661	327.493	0.045	0.088
-569.646	-200.000	0.027	0.166
-568.631	-200.000	-0.003	-0.305
-567.617	-5.123	-0.265	-0.184
-566.602	-40.916	0.021	-0.011
-565.588	220.123	0.104	0.169
-564.573	800.000	0.117	0.345
-563.558	181.405	-0.088	0.131
-562.544	-141.748	-0.322	-0.033
-561.529	-151.881	0.378	-0.028
-560.515	-2.870	-0.088	0.062
-559.500	258.796	-0.109	0.191
-558.485	560.207	-0.109	-0.266
-557.471	-200.000	0.019	-0.138
-556.456	114.748	-0.252	0.311
-555.442	-48.859	-0.149	0.072
-554.427	-200.000	-0.018	-0.080
-553.412	-80.360	-0.236	0.080
-552.398	205.361	0.076	0.120
-551.383	-77.170	0.330	0.116
-550.369	-200.000	-0.051	-0.270
-549.354	800.000	0.117	-0.365
-548.339	-138.380	-0.241	-0.027
-547.325	5.670	0.087	-0.065
-546.310	-39.989	-0.242	-0.128
-545.296	-105.362	0.166	-0.038
-544.281	-28.089	0.247	-0.144
-543.266	-151.032	-0.075	0.006
-542.252	514.042	0.104	-0.245
-541.237	122.414	-0.226	0.286
-540.223	-132.464	-0.199	0.026
-539.208	-109.781	-0.175	0.037
-538.193	-200.000	0.039	0.203
-537.179	305.586	-0.058	-0.109
-536.164	800.000	-0.014	-0.055
-535.150	-86.888	-0.171	0.053
-534.135	800.000	-0.034	0.109
-533.121	-200.000	0.027	-0.282
-532.106	-101.823	-0.240	-0.059
-531.091	20.023	0.035	-0.028
-530.077	59.258	-0.231	-0.230
-529.062	-131.178	-0.363	-0.049
-528.048	219.893	-0.219	-0.354
-527.033	107.846	0.148	-0.178
-526.018	-79.335	0.436	0.149
-525.004	71.179	0.154	-0.161
-523.989	25.869	-0.042	0.035
-522.975	669.105	0.083	0.218
-521.960	-58.313	0.390	0.171
-520.945	-66.075	-0.100	0.040
-519.931	-200.000	0.019	0.103
-518.916	30.333	-0.253	-0.218
-517.902	-3.698	0.376	-0.264
-516.887	-157.670	-0.110	0.007
-515.872	140.918	0.162	0.217
-514.858	800.000	-0.060	0.167
-513.843	106.456	-0.138	0.165
-512.829	261.150	-0.146	0.255
-511.814	107.512	0.154	0.185
-510.799	-29.802	-0.128	0.074
-509.785	-63.502	0.102	-0.042
-508.770	-200.000	-0.005	-0.095
-507.756	-75.807	-0.059	-0.021
-506.741	-113.187	0.041	-0.008
-505.726	-200.000	-0.048	-0.331
-504.712	71.210	-0.461	-0.483
-503.697	800.000	-0.048	0.197
-502.683	800.000	0.112	0.382
-501.668	-130.224	-0.203	0.028
-500.653	-200.000	0.030	-0.139
-499.639	735.851	0.031	0.085
-498.624	115.603	0.160	-0.197
-497.610	202.546	0.245	0.381
-496.595	-14.857	0.274	0.177
-495.581	-18.936	-0.209	0.131
-494.566	-101.956	-0.188	-0.046
-493.551	800.000	-0.062	0.220
-492.537	312.147	0.065	-0.123
-491.522	-200.000	-0.017	-0.089
-490.508	251.723	-0.195	0.334
-489.493	225.013	-0.111	-0.181
-488.478	-200.000	0.007	0.147
-487.464	64.315	-0.120	0.122
-486.449	158.646	-0.204	0.286
-485.435	-200.000	0.008	-0.112
-484.420	-23.800	0.252	-0.152
-483.405	-200.000	-0.041	-0.209
-482.391	-43.524	-0.088	0.045
-481.376	560.634	-0.111	-0.272
-480.362	-35.394	0.126	-0.069
-479.347	-41.612	-0.356	0.184
-478.332	-200.000	-0.008	0.349
-477.318	20.586	0.131	0.107
-476.303	126.729	-0.121	-0.154
-475.289	135.219	0.036	-0.047
-474.274	538.224	0.093	0.224
-473.259	161.026	0.154	0.217
-472.245	-52.813	0.186	0.086
-471.230	-119.439	0.203	-0.036
-470.216	-200.000	-0.008	-0.106
-469.201	134.082	0.155	0.203
-468.186	18.965	-0.180	0.146
-467.172	26.419	0.301	0.254
-466.157	800.000	0.059	-0.229
-465.143	-44.876	0.253	0.127
-464.128	800.000	-0.052	0.155
-463.113	-111.622	-0.080	-0.016
-462.099	-97.317	0.328	0.086
-461.084	86.754	0.230	0.256
-460.070	-153.800	-0.035	0.002
-459.055	-200.000	0.013	-0.100
-458.040	191.673	-0.200	0.304
-457.026	750.277	0.110	0.300
-456.011	-200.000	-0.012	-0.303
-454.997	-40.864	0.373	0.195
-453.982	294.234	0.121	0.223
-452.968	-200.000	-0.033	-0.171
-451.953	800.000	-0.084	-0.285
-450.938	800.000	0.017	-0.054
-449.924	-142.013	0.153	0.015
-448.909	-17.274	0.216	0.137
-447.895	-85.031	0.108	-0.034
-446.880	248.379	-0.163	-0.277
-445.865	20.928	-0.219	-0.178
-444.851	-200.000	0.074	-0.409
-443.836	289.703	-0.090	-0.164
-442.822	800.000	0.037	-0.106
-441.807	185.005	0.121	-0.180
-440.792	180.701	0.114	0.168
-439.778	-87.299	-0.190	0.058
-438.763	-200.000	-0.004	-0.279
-437.749	-145.710	-0.050	0.005
-436.734	800.000	-0.079	-0.257
-435.719	-68.597	-0.327	-0.127
-434.705	-39.438	0.123	-0.065
-433.690	216.125	0.118	0.189
-432.676	208.189	-0.027	0.043
-431.661	-142.951	0.258	0.025
-430.646	77.719	0.108	0.116
-429.632	-108.191	0.175	-0.038
-428.617	51.179	0.207	-0.198
-427.603	229.713	-0.052	0.086
-426.588	-200.000	0.016	0.098
-425.573	-72.969	-0.012	0.005
-424.559	-65.744	-0.540	-0.217
-423.544	351.768	0.098	0.196
-422.530	-15.410	0.257	0.165
-421.515	-149.191	-0.167	-0.013
-420.500	190.513	0.146	0.221
-419.486	-46.041	0.309	0.153
-418.471	112.119	-0.162	-0.197
-417.457	194.455	0.103	0.157
-416.442	800.000	0.079	-0.225
-415.428	145.720	0.129	0.174
-414.413	-25.671	-0.043	-0.025
-413.398	-58.924	0.214	0.093
-412.384	23.164	-0.121	-0.100
-411.369	-200.000	0.029	0.163
-410.355	-200.000	-0.059	0.373
-409.340	-142.370	-0.239	0.024
-408.325	800.000	0.006	0.023
-407.311	348.531	-0.129	0.255
-406.296	655.927	0.037	0.096
-405.282	39.432	0.319	-0.288
-404.267	13.221	-0.224	-0.174
-403.252	-27.328	-0.328	0.192
-402.238	-82.807	-0.126	0.041
-401.223	800.000	0.123	-0.443
-400.209	-36.192	-0.310	-0.168
-399.194	-200.000	-0.018	0.141
-398.179	21.160	-0.096	0.079
-397.165	563.425	0.148	-0.360
-396.150	439.717	-0.150	-0.330
-395.136	-81.064	-0.368	-0.122
-394.121	-200.000	-0.032	0.242
-393.106	-194.529	0.272	-0.002
-392.092	-31.736	-0.020	0.011
-391.077	-200.000	0.011	-0.053
-390.063	522.136	0.149	-0.351
-389.048	17.147	0.312	-0.248
-388.033	716.539	-0.063	-0.167
-387.019	180.566	0.097	0.143
-386.004	-199.135	-0.196	-0.001
-384.990	-191.011	-0.137	-0.001
-383.975	-178.121	-0.313	-0.007
-382.960	-94.735	-0.125	-0.034
-381.946	563.070	-0.065	0.158
-380.931	-142.579	-0.443	-0.044
-379.917	27.785	0.033	-0.028
-378.902	-200.000	0.008	0.067
-377.888	-22.990	-0.154	-0.093
-376.873	-146.828	0.289	-0.025
-375.858	800.000	-0.073	-0.242
-374.844	-200.000	-0.069	0.330
-373.829	379.194	-0.213	0.438
-372.815	104.641	-0.172	-0.203
-371.800	-86.938	-0.333	0.102
-370.785	337.840	-0.131	0.256
-369.771	-200.000	-0.018	-0.173
-368.756	-37.611	-0.299	0.160
-367.742	-200.000	-0.043	0.237
-366.727	-200.000	0.011	0.215
-365.712	-17.105	-0.402	0.255
-364.698	16.788	-0.268	0.212
-363.683	-89.349	-0.048	0.014
-362.669	151.965	0.055	0.075
-361.654	-200.000	0.190	0.000
-360.639	48.600	0.090	-0.085
-359.625	-200.000	-0.026	-0.166
-358.610	-50.894	0.113	-0.053
-357.596	-109.167	-0.159	0.034
-356.581	-200.000	0.034	-0.292
-355.566	800.000	0.052	0.148
-354.552	-113.271	0.116	-0.023
-353.537	-90.848	0.148	-0.043
-352.523	-108.836	0.148	0.032
-351.508	183.687	0.148	-0.220
-350.493	-200.000	0.047	-0.255
-349.479	-71.655	-0.312	-0.117
-348.464	188.330	0.072	0.108
-347.450	126.223	-0.091	-0.116
-346.435	-30.999	-0.240	0.136
-345.420	-87.703	0.302	0.091
-344.406	35.318	0.263	-0.231
-343.391	-153.031	0.139	-0.010
-342.377	-200.000	-0.032	-0.163
-341.362	-200.000	-0.007	-0.074
-340.348	-41.292	0.284	0.147
-339.333	-200.000	0.018	-0.148
-338.318	-66.053	0.162	0.065
-337.304	800.000	-0.071	-0.307
-336.289	384.397	-0.075	0.155
-335.275	423.189	0.086	0.185
-334.260	-66.035	0.207	-0.083
-333.245	119.168	-0.150	0.186
-332.231	800.000	-0.035	0.103
-331.216	-200.000	0.007	0.087
-330.202	-168.712	0.128	-0.005
-329.187	800.000	0.029	-0.101
-328.172	-108.223	0.356	-0.077
-327.158	-164.458	0.309	-0.014
-326.143	277.847	0.069	-0.123
-325.129	3.586	0.201	0.147
-324.114	509.825	0.043	0.100
-323.099	-200.000	0.016	0.372
-322.085	19.656	0.138	0.111
-321.070	-200.000	-0.000	0.109
-320.056	101.741	0.078	-0.091
-319.041	800.000	-0.162	0.467
-318.026	113.246	0.202	-0.246
-317.012	265.385	0.060	-0.104
-315.997	308.841	-0.023	0.043
-314.983	-39.166	-0.198	0.104
-313.968	178.372	0.211	-0.308
-312.953	311.064	-0.066	-0.124
-311.939	-143.070	-0.315	0.031
-310.924	58.981	0.253	0.249
-309.910	661.839	-0.029	-0.074
-308.895	-200.000	-0.020	0.230
-307.880	-118.749	0.287	0.051
-306.866	-107.185	-0.104	-0.023
-305.851	-200.000	0.034	-0.162
-304.837	341.762	0.109	0.213
-303.822	333.672	0.115	0.223
-302.807	26.276	-0.264	0.221
-301.793	23.187	-0.288	0.237
-300.778	-200.000	0.027	0.129
-299.764	-83.670	0.035	0.011
-298.749	25.476	-0.168	-0.140
-297.735	-106.540	-0.040	-0.009
-296.720	35.131	-0.095	-0.083
-295.705	-160.728	0.141	0.007
-294.691	-64.032	0.212	0.087
-293.676	-81.294	-0.265	0.087
-292.662	225.517	-0.072	0.117
-291.647	-23.499	0.224	-0.135
-290.632	41.950	0.315	-0.286
-289.618	-200.000	0.017	-0.166
-288.603	-24.383	0.170	0.101
-287.589	280.270	-0.041	0.073
-286.574	-99.750	0.230	-0.058
-285.559	-195.444	-0.229	0.002
-284.545	-67.527	-0.154	0.061
-283.530	18.666	0.075	-0.060
-282.516	-9.932	0.215	-0.143
-281.501	36.534	0.087	0.077
-280.486	-124.016	-0.378	0.059
-279.472	-200.000	-0.025	0.111
-278.457	-50.192	-0.458	0.217
-277.443	321.955	-0.042	0.079
-276.428	-99.491	-0.139	-0.035
-275.413	-101.049	0.348	-0.085
-274.399	186.102	-0.041	-0.062
-273.384	-68.414	-0.048	-0.019
-272.370	-56.565	-0.181	-0.080
-271.355	-175.563	-0.260	0.007
-270.340	-55.865	-0.094	0.042
-269.326	-45.380	0.064	-0.032
-268.311	-200.000	-0.028	-0.306
-267.297	70.103	-0.186	0.192
-266.282	-21.108	-0.439	0.268
-265.267	483.107	0.080	-0.181
-264.253	35.752	0.180	0.158
-263.238	800.000	-0.078	-0.217
-262.224	-143.536	0.192	0.018
-261.209	800.000	0.059	0.182
-260.195	-100.808	0.122	-0.030
-259.180	-40.433	0.274	0.142
-258.165	403.914	-0.097	0.204
-257.151	-200.000	0.023	0.153
-256.136	-96.688	-0.270	-0.071
-255.122	-145.129	-0.199	0.018
-254.107	7.228	-0.034	0.025
-253.092	-64.886	0.018	-0.007
-252.078	800.000	0.078	0.222
-251.063	52.993	-0.171	-0.163
-250.049	-83.757	-0.077	0.024
-249.034	97.715	0.119	0.136
-248.019	-31.273	0.412	0.232
-247.005	433.493	0.073	0.158
-245.990	-22.674	0.236	-0.143
-244.976	-85.261	0.056	-0.017
-243.961	40.026	0.292	-0.262
-242.946	16.847	0.292	-0.231
-241.932	167.646	0.123	-0.175
-240.917	-200.000	-0.006	-0.271
-239.903	-56.427	0.243	-0.108
-238.888	-79.908	-0.189	-0.064
-237.873	800.000	0.040	0.124
-236.859	198.636	-0.204	-0.311
-235.844	226.764	0.111	-0.180
-234.830	-48.042	-0.120	-0.058
-233.815	161.481	-0.141	0.197
-232.800	-180.310	-0.067	0.001
-231.786	-200.000	-0.067	0.307
-230.771	145.911	-0.086	-0.115
-229.757	120.716	0.090	0.112
-228.742	800.000	0.064	0.271
-227.727	175.455	0.262	-0.380
-226.713	-200.000	-0.015	-0.134
-225.698	-158.245	0.219	0.013
-224.684	334.088	0.050	0.097
-223.669	109.601	0.199	-0.238
-222.655	336.647	0.087	0.168
-221.640	-150.294	-0.110	-0.008
-220.625	-200.000	0.017	-0.206
-219.611	183.853	0.232	-0.343
-218.596	-200.000	-0.065	-0.416
-217.582	359.296	0.007	0.013
-216.567	-200.000	-0.003	0.018
-215.552	-34.321	0.083	-0.045
-214.538	12.427	-0.103	0.079
-213.523	-200.000	0.034	0.169
-212.509	73.493	-0.091	0.095
-211.494	235.842	-0.140	0.231
-210.479	-59.401	0.367	0.157
-209.465	187.364	0.131	-0.195
-208.450	-58.887	0.079	-0.034
-207.436	91.831	-0.140	0.158
-206.421	800.000	-0.063	-0.237
-205.406	340.259	0.072	-0.139
-204.392	28.593	-0.211	0.178
-203.377	7.165	-0.257	-0.191
-202.363	-91.344	-0.248	0.071
-201.348	45.343	-0.209	0.192
-200.333	7.112	0.106	0.079
-199.319	800.000	-0.083	0.274
-198.304	-200.000	0.012	0.206
-197.290	-78.210	0.244	-0.083
-196.275	-42.414	-0.344	0.175
-195.260	101.511	-0.023	0.027
-194.246	-57.137	-0.211	0.092
-193.231	-32.478	0.300	0.167
-192.217	-200.000	-0.007	-0.144
-191.202	34.864	0.050	0.043
-190.187	-60.822	0.213	0.090
-189.173	-200.000	-0.037	-0.195
-188.158	-74.289	0.228	0.082
-187.144	131.276	0.129	-0.165
-186.129	800.000	0.029	0.090
-185.114	56.204	0.211	0.204
-184.100	-145.600	0.104	-0.009
-183.085	190.065	-0.105	-0.158
-182.071	-200.000	0.048	0.518
-181.056	-197.163	0.068	0.000
-180.042	51.534	0.049	0.046
-179.027	-200.000	0.045	0.401
-178.012	-12.152	-0.225	0.147
-176.998	800.000	0.060	0.238
-175.983	-82.820	0.134	-0.043
-174.969	62.083	0.148	0.147
-173.954	-200.000	0.018	-0.126
-172.939	-145.014	0.087	0.008
-171.925	-17.943	-0.307	0.192
-170.910	11.466	-0.090	0.069
-169.896	-200.000	0.017	0.116
-168.881	-40.153	0.094	-0.049
-167.866	-5.828	-0.221	-0.150
-166.852	-173.367	-0.227	-0.007
-165.837	-200.000	0.025	-0.447
-164.823	-200.000	0.002	0.228
-163.808	496.976	0.070	-0.161
-162.793	112.613	0.085	0.102
-161.779	-50.585	-0.156	0.073
-160.764	274.833	-0.134	0.236
-159.750	800.000	0.106	0.314
-158.735	-141.350	-0.162	0.016
-157.720	207.705	-0.140	-0.217
-156.706	253.547	0.075	0.128
-155.691	-97.263	-0.340	-0.088
-154.677	800.000	-0.047	-0.167
-153.662	-73.552	0.069	-0.025
-152.647	51.918	-0.203	0.192
-151.633	-200.000	0.057	0.305
-150.618	371.753	-0.193	0.389
-149.604	-177.126	0.237	-0.006
-148.589	24.923	0.280	-0.231
-147.574	-83.871	0.120	-0.038
-146.560	-200.000	0.000	-0.239
-145.545	17.974	0.125	-0.099
-144.531	131.244	0.138	-0.176
-143.516	-172.922	-0.085	-0.003
-142.502	213.476	0.173	0.272
-141.487	102.433	-0.113	-0.132
-140.472	-112.029	0.161	-0.032
-139.458	-38.637	0.069	-0.036
-138.443	296.240	-0.079	-0.144
-137.429	47.550	0.071	0.065
-136.414	-88.532	-0.262	-0.078
-135.399	-9.478	0.255	0.169
-134.385	383.841	0.037	0.075
-133.370	-18.072	0.026	-0.016
-132.356	90.724	0.295	-0.328
-131.341	31.364	-0.122	0.104
-130.326	-67.365	0.186	-0.073
-129.312	395.088	-0.085	0.176
-128.297	800.000	-0.033	0.136
-127.283	-98.055	-0.296	0.076
-126.268	-124.940	0.136	0.021
-125.253	-112.760	0.221	0.044
-124.239	-122.254	-0.250	-0.041
-123.224	101.996	-0.216	-0.251
-122.210	-137.207	0.202	-0.023
-121.195	-66.192	-0.092	-0.036
