DTS Sentinel unit serial number:	SN413079Multiplexer serial number:	ORYXHardware model number:	OX4-SRSoftware version number:	ORYX F/W v4.00 Oryx Data Collector v3.7.2.0data status	okinstallation	princeton_trtdifferential loss correction	single-endedforward channel	channel 1reverse channel	N/Adate	2019/09/15time	17:58:35forward acquisition time	60.00reverse acquisition time	0.00gamma	496.2192k internal	0.2291k external	0.2291temperature offset calibration	0.9936default loss term (dB/km)	0.3790temperature slope calibration	1.0000multiplexer offset coefficient	1.0000multiplexer slope coefficient	1.0000fibre end	0.00T internal ref (°C)	44.75T ext. ref 1 (°C)	6.43T ext. ref 2 (°C)	39.59length (m)	temperature (°C)	Stokes	anti-Stokes-747.200	343.274	-0.013	-0.025
-746.185	-93.092	-0.222	0.063
-745.171	364.133	0.144	0.298
-744.156	0.480	-0.235	0.172
-743.142	25.152	0.171	0.146
-742.127	-200.000	-0.166	0.001
-741.112	-118.695	0.155	-0.028
-740.098	800.000	0.014	0.061
-739.083	-103.093	-0.126	-0.031
-738.069	2.184	-0.034	-0.025
-737.054	-186.092	-0.045	0.001
-736.039	-82.945	0.197	0.065
-735.025	-73.359	0.209	-0.078
-734.010	68.072	-0.183	-0.192
-732.996	-58.937	0.128	-0.057
-731.981	-194.799	-0.085	-0.001
-730.966	-95.525	0.056	-0.015
-729.952	94.597	0.092	0.107
-728.937	-200.000	-0.029	0.208
-727.923	-127.862	0.091	0.013
-726.908	-66.999	0.341	0.138
-725.894	-61.972	-0.285	0.122
-724.879	-8.660	-0.190	0.130
-723.864	-149.176	-0.327	-0.027
-722.850	-104.662	0.091	-0.021
-721.835	36.015	0.315	0.284
-720.821	324.163	0.034	0.066
-719.806	-135.512	-0.230	-0.028
-718.791	-146.705	0.130	0.012
-717.777	-200.000	0.019	-0.348
-716.762	392.888	0.092	-0.196
-715.748	-162.734	0.383	0.019
-714.733	168.447	-0.082	0.119
-713.718	-155.908	0.097	-0.006
-712.704	251.786	-0.075	0.130
-711.689	61.512	0.052	-0.053
-710.675	169.430	0.099	-0.145
-709.660	4.976	-0.306	-0.231
-708.645	-200.000	0.003	-0.031
-707.631	239.018	0.169	-0.288
-706.616	90.123	0.122	0.140
-705.602	-124.976	-0.072	0.011
-704.587	-111.988	0.131	0.027
-703.572	-200.000	0.027	-0.182
-702.558	-98.966	-0.171	0.044
-701.543	45.222	-0.119	-0.112
-700.529	-3.220	-0.120	-0.085
-699.514	5.667	-0.308	0.233
-698.499	667.025	0.030	0.080
-697.485	-83.256	0.211	0.069
-696.470	800.000	0.028	0.096
-695.456	-21.879	-0.172	0.107
-694.441	-88.482	-0.048	0.015
-693.426	216.077	-0.155	-0.252
-692.412	-84.144	-0.158	0.051
-691.397	-200.000	0.003	-0.260
-690.383	15.246	-0.244	-0.196
-689.368	313.657	-0.123	-0.237
-688.354	-71.367	0.176	0.067
-687.339	40.629	-0.179	0.164
-686.324	346.538	0.164	0.330
-685.310	-200.000	0.047	0.324
-684.295	216.004	-0.029	0.048
-683.281	119.139	0.042	0.053
-682.266	800.000	0.015	-0.045
-681.251	190.622	0.197	0.302
-680.237	-35.585	0.109	0.060
-679.222	109.558	-0.155	-0.190
-678.208	329.918	0.077	-0.151
-677.193	51.812	-0.149	-0.144
-676.178	5.939	0.321	0.243
-675.164	-200.000	0.066	0.436
-674.149	36.439	0.261	-0.235
-673.135	-33.237	0.414	0.234
-672.120	74.710	-0.098	0.105
-671.105	-200.000	0.030	-0.181
-670.091	-119.235	-0.108	0.019
-669.076	219.723	-0.011	-0.018
-668.062	-200.000	0.035	-0.177
-667.047	10.858	-0.171	-0.133
-666.032	18.675	-0.293	-0.239
-665.018	800.000	-0.026	-0.090
-664.003	76.378	0.272	-0.295
-662.989	73.346	0.048	0.051
-661.974	-88.698	-0.096	-0.029
-660.959	690.748	-0.144	0.386
-659.945	283.609	0.111	0.203
-658.930	800.000	0.029	0.122
-657.916	800.000	0.066	0.260
-656.901	-65.335	0.405	-0.166
-655.886	96.658	0.167	-0.195
-654.872	800.000	-0.046	-0.205
-653.857	-200.000	-0.012	-0.244
-652.843	800.000	0.128	-0.430
-651.828	545.996	-0.146	-0.356
-650.814	800.000	-0.071	-0.229
-649.799	-47.262	0.041	-0.020
-648.784	227.780	-0.135	0.225
-647.770	800.000	0.065	-0.205
-646.755	-200.000	0.036	-0.417
-645.741	115.567	0.235	0.293
-644.726	-200.000	0.053	0.390
-643.711	32.332	0.098	0.087
-642.697	800.000	-0.048	0.148
-641.682	-200.000	-0.021	0.175
-640.668	-200.000	0.039	0.184
-639.653	-114.793	-0.217	0.042
-638.638	65.943	-0.315	-0.326
-637.624	-104.417	-0.127	-0.030
-636.609	221.641	0.089	-0.147
-635.595	146.967	-0.065	-0.090
-634.580	752.803	0.088	0.242
-633.565	-23.113	-0.246	-0.151
-632.551	252.360	-0.133	-0.232
-631.536	44.290	-0.224	-0.210
-630.522	369.935	-0.121	0.250
-629.507	-106.543	0.182	-0.041
-628.492	374.635	-0.289	0.600
-627.478	-10.143	-0.059	-0.040
-626.463	562.289	0.147	0.362
-625.449	-53.673	0.233	-0.108
-624.434	446.051	-0.076	-0.169
-623.419	-114.635	-0.266	-0.052
-622.405	-200.000	0.028	-0.125
-621.390	-200.000	0.010	-0.441
-620.376	800.000	-0.105	-0.430
-619.361	260.646	0.135	0.239
-618.346	25.424	-0.068	0.058
-617.332	-200.000	-0.044	0.261
-616.317	-200.000	0.031	-0.238
-615.303	178.811	-0.066	-0.098
-614.288	-172.580	-0.219	0.007
-613.273	800.000	0.012	-0.044
-612.259	-49.956	0.061	0.029
-611.244	800.000	-0.082	-0.264
-610.230	98.905	0.106	0.125
-609.215	-40.481	0.075	-0.040
-608.201	-56.992	0.096	-0.043
-607.186	-22.371	-0.130	-0.080
-606.171	-200.000	0.006	-0.044
-605.157	-90.607	0.208	-0.061
-604.142	-154.074	-0.132	-0.009
-603.128	-0.882	0.230	0.166
-602.113	-40.017	0.285	-0.151
-601.098	800.000	0.068	-0.218
-600.084	31.506	-0.126	0.111
-599.069	33.742	0.099	0.087
-598.055	225.457	0.132	0.217
-597.040	-200.000	-0.016	0.165
-596.025	-50.074	0.246	-0.119
-595.011	-200.000	-0.026	-0.307
-593.996	-104.542	-0.060	0.014
-592.982	310.570	-0.077	-0.147
-591.967	-93.254	-0.198	0.056
-590.952	5.937	0.311	0.234
-589.938	14.104	0.206	-0.163
-588.923	640.958	-0.022	0.058
-587.909	597.486	-0.104	-0.262
-586.894	69.825	0.090	-0.094
-585.879	78.577	0.213	-0.231
-584.865	-106.055	-0.092	-0.021
-583.850	800.000	-0.105	0.368
-582.836	-82.291	-0.114	0.038
-581.821	-200.000	0.020	-0.190
-580.806	-200.000	-0.025	0.247
-579.792	-135.686	0.286	0.034
-578.777	-159.081	0.084	0.005
-577.763	168.038	-0.065	-0.094
-576.748	54.578	0.325	0.319
-575.733	119.635	0.101	0.128
-574.719	598.026	0.145	0.367
-573.704	-170.485	0.361	0.013
-572.690	800.000	-0.067	-0.225
-571.675	32.130	-0.303	-0.266
-570.661	44.125	-0.186	-0.173
-569.646	-139.882	0.096	-0.010
-568.631	26.121	0.197	-0.167
-567.617	81.466	-0.046	0.051
-566.602	800.000	-0.061	-0.213
-565.588	-200.000	-0.272	0.000
-564.573	18.060	-0.125	-0.101
-563.558	-176.565	-0.213	-0.006
-562.544	-34.885	-0.146	-0.081
-561.529	-200.000	-0.005	-0.285
-560.515	800.000	-0.039	0.123
-559.500	-133.580	0.454	-0.058
-558.485	763.074	0.078	-0.215
-557.471	-23.929	-0.169	-0.103
-556.456	-185.801	0.220	0.003
-555.442	-73.156	0.354	-0.132
-554.427	800.000	0.036	0.113
-553.412	-174.246	-0.173	0.005
-552.398	-101.324	-0.355	-0.088
-551.383	97.445	0.203	0.237
-550.369	147.085	-0.104	0.142
-549.354	254.121	0.038	0.066
-548.339	228.942	-0.021	-0.035
-547.325	-48.085	-0.172	0.084
-546.310	-200.000	-0.012	0.131
-545.296	-40.342	-0.186	0.098
-544.281	-1.351	-0.080	0.057
-543.266	-72.672	-0.238	0.089
-542.252	-46.436	0.169	0.084
-541.237	-200.000	-0.002	-0.128
-540.223	-67.635	0.174	0.069
-539.208	-32.547	0.168	-0.095
-538.193	317.149	-0.089	-0.170
-537.179	-200.000	-0.005	0.130
-536.164	-200.000	0.007	-0.185
-535.150	-178.660	-0.195	-0.005
-534.135	-92.462	-0.124	-0.036
-533.121	183.856	-0.144	0.216
-532.106	48.856	0.146	-0.139
-531.091	800.000	0.053	0.154
-530.077	800.000	0.045	0.149
-529.062	298.072	0.068	-0.128
-528.048	-132.475	-0.213	0.028
-527.033	800.000	-0.041	-0.118
-526.018	83.732	0.215	-0.238
-525.004	800.000	-0.040	0.160
-523.989	-81.157	-0.218	-0.073
-522.975	-200.000	-0.017	0.108
-521.960	74.115	-0.176	0.188
-520.945	-200.000	0.025	0.115
-519.931	27.246	0.031	0.027
-518.916	413.356	-0.106	-0.229
-517.902	-58.526	-0.206	-0.091
-516.887	196.625	-0.048	0.074
-515.872	72.106	-0.144	-0.152
-514.858	800.000	-0.107	0.308
-513.843	-200.000	0.010	-0.399
-512.829	34.775	0.212	-0.188
-511.814	168.782	-0.076	0.110
-510.799	-128.289	0.192	0.028
-509.785	-159.317	-0.184	0.010
-508.770	-100.182	0.106	-0.027
-507.756	120.360	-0.107	-0.134
-506.741	-59.835	-0.136	0.059
-505.726	-121.531	-0.314	-0.053
-504.712	-2.341	0.132	0.094
-503.697	800.000	-0.061	-0.257
-502.683	16.161	-0.047	-0.038
-501.668	83.835	0.152	-0.168
-500.653	-69.675	0.076	0.029
-499.639	54.148	-0.135	0.132
-498.624	-138.797	0.107	-0.012
-497.610	-200.000	0.006	-0.149
-496.595	264.919	-0.107	0.190
-495.581	-117.965	0.420	0.076
-494.566	-200.000	-0.024	0.125
-493.551	-67.968	0.118	-0.047
-492.537	511.598	0.042	-0.099
-491.522	-119.715	-0.032	0.006
-490.508	800.000	0.081	0.233
-489.493	-200.000	-0.011	-0.262
-488.478	-200.000	0.004	0.204
-487.464	-200.000	-0.004	0.206
-486.449	788.937	0.104	-0.289
-485.435	-200.000	0.005	0.069
-484.420	-200.000	0.454	0.002
-483.405	-1.168	0.250	-0.179
-482.391	-127.652	0.280	-0.041
-481.376	188.955	-0.174	-0.264
-480.362	371.908	-0.050	-0.103
-479.347	-71.824	0.250	0.094
-478.332	-1.611	0.173	-0.124
-477.318	-94.227	0.124	-0.034
-476.303	-200.000	-0.004	0.086
-475.289	-31.948	-0.119	0.068
-474.274	155.513	0.150	-0.209
-473.259	-200.000	0.018	-0.290
-472.245	-6.826	-0.242	0.167
-471.230	61.209	-0.068	-0.068
-470.216	800.000	0.063	-0.222
-469.201	-60.534	-0.345	-0.149
-468.186	-200.000	-0.021	0.242
-467.172	-48.759	0.154	0.075
-466.157	-35.226	0.148	0.081
-465.143	61.500	-0.060	0.061
-464.128	-200.000	0.018	0.293
-463.113	-200.000	0.033	-0.216
-462.099	121.917	-0.167	0.212
-461.084	-43.228	0.271	0.139
-460.070	47.098	-0.093	0.088
-459.055	-200.000	0.022	-0.183
-458.040	343.783	-0.098	0.194
-457.026	-18.546	-0.418	-0.264
-456.011	-107.177	-0.190	-0.042
-454.997	-200.000	0.046	-0.256
-453.982	-200.000	-0.028	-0.267
-452.968	-4.623	0.084	-0.059
-451.953	-18.175	-0.254	0.161
-450.938	346.747	-0.046	0.092
-449.924	38.311	-0.276	-0.249
-448.909	-157.296	0.375	0.023
-447.895	-68.106	0.170	-0.067
-446.880	800.000	0.049	0.199
-445.865	170.584	0.165	0.239
-444.851	-25.143	0.046	-0.027
-443.836	-200.000	-0.032	-0.305
-442.822	256.598	0.084	0.145
-441.807	-41.767	-0.242	0.126
-440.792	-200.000	-0.011	-0.445
-439.778	-84.810	-0.225	0.072
-438.763	292.969	0.219	0.404
-437.749	2.272	-0.264	0.193
-436.734	-62.734	-0.393	0.165
-435.719	-63.203	0.244	-0.102
-434.705	800.000	-0.064	-0.253
-433.690	800.000	0.070	-0.208
-432.676	586.218	0.096	-0.240
-431.661	-149.768	-0.037	-0.003
-430.646	37.041	-0.198	0.177
-429.632	161.868	0.033	-0.047
-428.617	-66.699	0.070	0.028
-427.603	800.000	-0.092	-0.405
-426.588	-52.873	0.241	-0.112
-425.573	-129.439	-0.292	-0.041
-424.559	225.737	-0.107	-0.176
-423.544	121.603	0.168	-0.212
-422.530	-8.016	-0.148	0.101
-421.515	-119.391	-0.282	0.050
-420.500	-143.830	0.271	-0.026
-419.486	800.000	0.050	0.204
-418.471	-152.124	0.425	0.031
-417.457	51.946	0.131	-0.126
-416.442	8.865	0.332	0.253
-415.428	-93.250	0.389	-0.109
-414.413	-200.000	-0.013	0.170
-413.398	800.000	-0.038	0.116
-412.384	704.040	0.051	0.135
-411.369	226.003	-0.106	-0.174
-410.355	90.275	-0.086	-0.098
-409.340	-200.000	0.011	-0.189
-408.325	-31.771	0.187	-0.106
-407.311	800.000	0.012	0.039
-406.296	164.327	-0.225	-0.321
-405.282	59.290	0.061	-0.061
-404.267	800.000	0.058	-0.183
-403.252	-23.803	-0.070	-0.042
-402.238	-200.000	0.022	-0.257
-401.223	-146.614	-0.207	-0.018
-400.209	800.000	0.077	-0.284
-399.194	-37.352	0.105	0.057
-398.179	37.219	-0.285	0.255
-397.165	246.796	0.069	-0.118
-396.150	-89.457	0.242	-0.072
-395.136	800.000	-0.022	-0.094
-394.121	52.888	-0.193	0.186
-393.106	-200.000	-0.034	-0.296
-392.092	126.280	0.125	0.160
-391.077	800.000	0.083	0.250
-390.063	379.371	0.076	0.158
-389.048	216.906	0.047	0.076
-388.033	-200.000	0.046	0.265
-387.019	-122.664	-0.049	0.008
-386.004	-39.223	-0.103	-0.055
-384.990	-118.792	-0.045	0.008
-383.975	-84.282	0.249	-0.080
-382.960	-103.769	0.092	0.022
-381.946	-65.067	0.093	0.038
-380.931	7.440	-0.282	0.213
-379.917	-31.453	0.131	0.074
-378.902	-56.912	0.150	0.067
-377.888	800.000	-0.054	-0.226
-376.873	-21.356	0.072	0.044
-375.858	9.745	-0.073	-0.056
-374.844	127.447	0.206	0.265
-373.829	153.147	-0.101	-0.140
-372.815	-33.946	0.242	-0.135
-371.800	-13.011	0.189	-0.124
-370.785	-94.091	-0.010	0.003
-369.771	-157.726	-0.238	0.014
-368.756	-66.797	-0.255	-0.102
-367.742	139.767	-0.028	0.038
-366.727	800.000	-0.067	-0.188
-365.712	-27.843	-0.075	-0.044
-364.698	-200.000	-0.075	0.346
-363.683	-200.000	0.044	0.372
-362.669	403.817	0.128	0.273
-361.654	-96.835	-0.248	-0.066
-360.639	-116.267	0.074	-0.014
-359.625	-200.000	0.001	0.257
-358.610	-74.846	-0.280	-0.101
-357.596	759.841	0.099	-0.270
-356.581	10.094	-0.191	-0.147
-355.566	97.174	-0.386	0.446
-354.552	-147.032	0.114	0.010
-353.537	-122.983	-0.111	-0.018
-352.523	307.742	0.128	-0.240
-351.508	800.000	0.059	0.240
-350.493	-200.000	-0.017	-0.347
-349.479	141.218	0.122	-0.162
-348.464	23.648	0.157	0.131
-347.450	178.727	-0.153	-0.225
-346.435	315.677	0.081	0.154
-345.420	92.771	-0.223	0.254
-344.406	733.430	0.078	-0.210
-343.391	-98.378	0.211	-0.055
-342.377	95.924	0.304	-0.350
-341.362	-108.133	0.233	0.051
-340.348	34.422	0.209	-0.184
-339.333	-158.013	0.094	0.006
-338.318	358.512	-0.136	0.274
-337.304	519.659	-0.045	-0.107
-336.289	-112.041	-0.592	-0.120
-335.275	192.963	-0.076	0.116
-334.260	258.839	0.125	0.217
-333.245	-128.283	0.389	0.056
-332.231	-200.000	0.004	0.135
-331.216	519.596	0.054	0.128
-330.202	4.726	-0.151	-0.112
-329.187	375.784	0.036	-0.074
-328.172	487.688	0.058	0.133
-327.158	-84.161	-0.169	0.054
-326.143	119.895	-0.232	-0.289
-325.129	-200.000	0.003	0.200
-324.114	-159.735	-0.127	-0.007
-323.099	-131.980	0.191	-0.025
-322.085	-107.125	-0.239	-0.053
-321.070	37.542	-0.204	-0.182
-320.056	-93.001	-0.224	-0.063
-319.041	-30.495	0.396	-0.226
-318.026	-53.838	-0.174	-0.080
-317.012	-166.719	-0.269	0.011
-315.997	-31.233	-0.235	0.133
-314.983	-61.444	-0.118	0.050
-313.968	-81.964	0.401	0.132
-312.953	609.908	-0.047	0.118
-311.939	-1.325	0.149	-0.106
-310.924	-9.890	-0.071	0.048
-309.910	-38.626	0.143	0.076
-308.895	800.000	0.043	0.185
-307.880	261.964	-0.074	-0.130
-306.866	-37.275	0.170	-0.091
-305.851	-148.697	-0.186	-0.015
-304.837	-93.015	0.085	0.024
-303.822	-61.620	-0.044	0.018
-302.807	-200.000	0.007	-0.118
-301.793	-134.769	0.061	0.007
-300.778	6.982	-0.147	0.110
-299.764	-68.539	0.319	-0.124
-298.749	18.490	0.103	0.083
-297.735	-197.802	0.034	0.000
-296.720	-66.917	0.252	0.100
-295.705	-200.000	0.035	-0.306
-294.691	-200.000	-0.000	0.198
-293.676	-91.922	-0.188	0.054
-292.662	-5.272	0.400	0.276
-291.647	-200.000	-0.045	0.476
-290.632	-200.000	0.007	0.163
-289.618	800.000	0.061	-0.246
-288.603	800.000	0.052	0.202
-287.589	41.899	0.319	0.291
-286.574	-115.601	-0.249	0.047
-285.559	53.348	-0.117	0.112
-284.545	118.512	-0.358	-0.445
-283.530	-200.000	-0.011	-0.320
-282.516	140.864	0.048	-0.063
-281.501	-21.637	0.222	0.136
-280.486	185.933	0.025	0.037
-279.472	-71.181	-0.200	0.076
-278.457	23.444	-0.300	0.248
-277.443	-190.335	-0.235	0.003
-276.428	-200.000	-0.048	-0.308
-275.413	39.264	0.276	0.248
-274.399	-200.000	-0.005	0.024
-273.384	5.207	0.266	0.197
-272.370	800.000	0.135	-0.563
-271.355	800.000	0.055	-0.192
-270.340	-200.000	0.024	0.369
-269.326	559.944	0.037	-0.091
-268.311	-79.088	-0.158	0.054
-267.297	-63.005	-0.267	0.111
-266.282	8.120	-0.274	0.207
-265.267	-200.000	0.056	0.251
-264.253	-200.000	0.033	0.263
-263.238	-53.719	0.105	-0.048
-262.224	-122.523	0.192	-0.031
-261.209	-83.235	0.522	0.169
-260.195	82.396	-0.057	-0.063
-259.180	119.651	0.138	-0.172
-258.165	20.058	0.063	0.051
-257.151	-162.056	-0.445	-0.022
-256.136	110.220	-0.118	-0.143
-255.122	-47.758	-0.065	-0.032
-254.107	-200.000	0.051	-0.298
-253.092	800.000	0.027	0.081
-252.078	800.000	-0.082	0.330
-251.063	800.000	0.092	-0.259
-250.049	-89.967	0.101	0.030
-249.034	0.010	-0.214	0.153
-248.019	-3.902	-0.225	-0.157
-247.005	90.337	-0.190	0.214
-245.990	29.955	0.110	-0.095
-244.976	-131.343	-0.169	0.022
-243.961	-34.543	0.355	-0.195
-242.946	-200.000	0.020	-0.299
-241.932	351.894	0.105	0.208
-240.917	185.462	-0.080	-0.119
-239.903	-150.545	0.292	0.022
-238.888	-103.425	-0.207	0.049
-237.873	-98.884	-0.302	0.077
-236.859	-200.000	0.004	-0.108
-235.844	-200.000	0.045	0.625
-234.830	225.451	0.056	0.091
-233.815	1.249	-0.199	0.143
-232.800	93.485	-0.142	0.162
-231.786	353.235	0.083	0.166
-230.771	454.039	0.085	-0.189
-229.757	-3.792	0.202	0.141
-228.742	-97.637	0.066	0.017
-227.727	800.000	0.011	-0.044
-226.713	96.897	0.177	0.204
-225.698	-97.739	0.047	-0.012
-224.684	-52.664	0.086	0.040
-223.669	98.378	0.127	0.147
-222.655	-200.000	0.000	0.203
-221.640	-73.574	0.168	-0.062
-220.625	-200.000	-0.038	0.256
-219.611	-113.895	-0.438	0.085
-218.596	124.068	0.109	-0.138
-217.582	-200.000	-0.057	-0.328
-216.567	1.651	0.203	0.147
-215.552	-61.205	-0.346	0.146
-214.538	-55.030	0.280	0.126
-213.523	217.803	0.181	0.290
-212.509	76.232	0.148	-0.158
-211.494	-178.633	-0.048	-0.001
-210.479	-200.000	0.064	0.380
-209.465	152.324	0.196	0.268
-208.450	-32.521	0.176	0.098
-207.436	119.592	-0.170	0.212
-206.421	-124.344	-0.252	-0.039
-205.406	239.549	-0.179	0.299
-204.392	800.000	0.115	0.387
-203.377	800.000	0.068	-0.233
-202.363	363.335	-0.045	-0.092
-201.348	278.361	0.032	0.057
-200.333	-200.000	0.044	0.222
-199.319	-107.354	-0.059	0.013
-198.304	720.760	0.140	-0.373
-197.290	-36.214	0.169	-0.091
-196.275	-82.144	-0.353	-0.115
-195.260	-200.000	0.004	0.026
-194.246	520.765	0.065	0.153
-193.231	53.172	0.186	-0.178
-192.217	800.000	-0.085	0.242
-191.202	592.902	0.037	-0.091
-190.187	-172.923	-0.261	-0.008
-189.173	-89.477	0.230	0.068
-188.158	-114.159	-0.299	-0.058
-187.144	-147.340	-0.414	-0.035
-186.129	800.000	0.065	0.246
-185.114	800.000	-0.070	-0.285
-184.100	165.831	-0.123	-0.174
-183.085	35.828	0.211	-0.186
-182.071	-122.408	-0.210	-0.034
-181.056	-102.840	-0.124	0.030
-180.042	33.503	0.145	0.126
-179.027	-200.000	0.081	0.368
-178.012	800.000	0.092	-0.405
-176.998	-106.767	0.186	-0.041
-175.983	-148.249	0.477	0.039
-174.969	-104.970	-0.312	-0.072
-173.954	-39.744	-0.134	-0.070
-172.939	194.042	0.114	-0.172
-171.925	3.959	0.024	0.018
-170.910	-174.693	-0.170	0.005
-169.896	273.174	-0.169	-0.299
-168.881	93.544	-0.156	0.177
-167.866	-95.412	0.332	-0.089
-166.852	11.019	-0.225	0.172
-165.837	-200.000	-0.064	-0.304
-164.823	800.000	0.095	0.338
-163.808	-200.000	0.013	-0.192
-162.793	-125.038	-0.086	-0.013
-161.779	-200.000	-0.046	-0.354
-160.764	96.427	-0.264	-0.303
-159.750	22.673	0.167	-0.137
-158.735	562.231	-0.153	0.371
-157.720	-114.952	-0.338	-0.064
-156.706	-200.000	0.002	-0.092
-155.691	-14.543	0.070	0.045
-154.677	-135.468	0.161	0.019
-153.662	-59.312	0.193	0.083
-152.647	113.940	-0.150	0.182
-151.633	658.548	-0.056	0.145
-150.618	-200.000	0.006	0.137
-149.604	89.538	-0.036	-0.040
-148.589	57.649	0.082	-0.080
-147.574	218.747	0.041	-0.066
-146.560	31.890	0.396	-0.341
-145.545	48.748	-0.226	-0.212
-144.531	-6.470	0.069	-0.047
-143.516	-136.559	-0.040	-0.005
-142.502	-170.347	0.192	-0.007
-141.487	-55.158	0.106	-0.048
-140.472	-200.000	0.021	0.272
-139.458	82.661	0.406	-0.441
-138.443	-13.910	-0.125	-0.081
-137.429	138.674	0.095	-0.124
-136.414	225.081	0.139	0.225
-135.399	-200.000	-0.016	0.248
-134.385	800.000	-0.039	-0.154
-133.370	-181.247	-0.349	-0.007
-132.356	6.292	0.083	-0.061
-131.341	162.527	0.230	-0.322
-130.326	-200.000	-0.047	-0.343
-129.312	242.902	0.088	-0.147
-128.297	252.638	-0.034	-0.058
-127.283	-39.744	-0.084	-0.044
-126.268	800.000	0.007	0.027
-125.253	46.234	-0.193	-0.179
-124.239	12.373	0.213	-0.164
-123.224	-54.483	0.216	0.098
-122.210	259.671	-0.023	0.040
-121.195	347.750	0.225	-0.443
-120.180	-107.166	-0.258	-0.057
