DTS Sentinel unit serial number:	SN413079Multiplexer serial number:	ORYXHardware model number:	OX4-SRSoftware version number:	ORYX F/W v4.00 Oryx Data Collector v3.7.2.0data status	okinstallation	princeton_trtdifferential loss correction	single-endedforward channel	channel 1reverse channel	N/Adate	2019/09/18time	02:54:35forward acquisition time	60.00reverse acquisition time	0.00gamma	496.2192k internal	0.2341k external	0.2341temperature offset calibration	0.9977default loss term (dB/km)	0.3790temperature slope calibration	1.0000multiplexer offset coefficient	1.0000multiplexer slope coefficient	1.0000fibre end	0.00T internal ref (°C)	22.75T ext. ref 1 (°C)	0.16T ext. ref 2 (°C)	16.64length (m)	temperature (°C)	Stokes	anti-Stokes-747.200	-200.000	0.017	-0.162
-746.185	150.064	-0.169	0.230
-745.171	4.456	0.016	0.011
-744.156	9.489	0.206	0.156
-743.142	-4.904	0.179	0.123
-742.127	311.638	-0.229	0.431
-741.112	-200.000	0.011	0.270
-740.098	-160.687	0.091	-0.005
-739.083	-116.900	-0.222	0.041
-738.069	-200.000	-0.007	0.195
-737.054	-46.507	0.111	0.055
-736.039	20.719	-0.305	-0.248
-735.025	745.370	0.087	-0.236
-734.010	800.000	0.014	-0.061
-732.996	-76.555	-0.236	-0.083
-731.981	800.000	0.025	0.084
-730.966	800.000	0.077	-0.320
-729.952	-114.329	-0.452	0.087
-728.937	60.528	-0.151	-0.150
-727.923	-165.947	0.310	-0.013
-726.908	318.743	-0.055	0.104
-725.894	-28.708	-0.211	-0.121
-724.879	-127.780	-0.484	0.070
-723.864	-32.064	0.358	0.201
-722.850	-200.000	-0.033	-0.300
-721.835	-200.000	0.134	0.000
-720.821	-113.825	-0.332	-0.065
-719.806	800.000	-0.077	0.235
-718.791	-85.780	-0.210	-0.065
-717.777	-74.319	-0.266	-0.096
-716.762	95.051	-0.105	-0.119
-715.748	189.858	-0.293	-0.441
-714.733	-92.784	-0.126	-0.035
-713.718	127.770	0.173	-0.220
-712.704	111.823	0.139	-0.168
-711.689	-85.654	0.545	0.169
-710.675	-200.000	0.016	-0.356
-709.660	-200.000	0.010	-0.324
-708.645	-200.000	-0.026	-0.306
-707.631	800.000	0.020	0.068
-706.616	251.313	0.091	-0.155
-705.602	540.623	-0.137	-0.327
-704.587	800.000	-0.039	-0.127
-703.572	1.985	-0.327	0.236
-702.558	-200.000	0.025	0.248
-701.543	800.000	-0.099	-0.350
-700.529	40.604	0.360	-0.325
-699.514	38.886	-0.247	-0.221
-698.499	-149.772	-0.235	-0.018
-697.485	-200.000	-0.079	-0.390
-696.470	81.536	-0.333	-0.360
-695.456	-200.000	-0.014	0.130
-694.441	800.000	0.046	-0.157
-693.426	-77.053	-0.449	0.157
-692.412	128.032	0.282	-0.358
-691.397	72.160	-0.141	-0.147
-690.383	-100.273	-0.252	0.063
-689.368	800.000	0.017	0.067
-688.354	-21.463	-0.391	0.239
-687.339	207.266	-0.144	0.225
-686.324	-11.083	-0.297	0.196
-685.310	2.866	-0.166	0.121
-684.295	-115.635	0.132	-0.025
-683.281	-200.000	0.015	-0.290
-682.266	7.666	0.189	-0.141
-681.251	-123.193	-0.222	-0.036
-680.237	-200.000	0.056	-0.263
-679.222	41.193	-0.261	-0.236
-678.208	139.130	-0.376	-0.494
-677.193	256.244	0.096	0.165
-676.178	404.154	-0.131	-0.277
-675.164	-81.480	0.198	0.065
-674.149	-59.290	-0.221	-0.095
-673.135	-112.898	0.099	0.020
-672.120	135.788	0.030	0.038
-671.105	-200.000	0.028	0.200
-670.091	111.726	0.199	0.239
-669.076	511.081	0.032	-0.075
-668.062	-96.578	-0.526	0.139
-667.047	6.730	-0.319	0.237
-666.032	84.059	-0.241	-0.264
-665.018	404.671	0.074	-0.157
-664.003	-200.000	0.037	-0.238
-662.989	800.000	-0.043	-0.178
-661.974	-2.231	-0.239	-0.167
-660.959	800.000	0.025	-0.111
-659.945	181.186	-0.021	-0.031
-658.930	530.588	0.129	-0.306
-657.916	291.560	0.170	0.308
-656.901	-200.000	-0.003	-0.138
-655.886	-54.445	-0.123	-0.056
-654.872	-65.465	-0.107	0.043
-653.857	86.619	0.137	0.151
-652.843	278.175	-0.069	0.123
-651.828	-27.136	0.102	0.059
-650.814	-200.000	0.002	-0.137
-649.799	-14.815	-0.174	-0.112
-648.784	306.746	-0.236	0.440
-647.770	-14.769	-0.103	0.066
-646.755	-24.132	0.079	-0.047
-645.741	-145.651	-0.021	-0.002
-644.726	-200.000	-0.034	-0.198
-643.711	-200.000	-0.001	-0.230
-642.697	-34.489	0.159	-0.087
-641.682	-19.714	0.169	0.104
-640.668	152.684	0.056	0.077
-639.653	199.828	-0.262	0.402
-638.638	2.829	0.295	0.214
-637.624	-25.799	0.400	0.235
-636.609	-157.057	-0.304	-0.018
-635.595	800.000	0.065	-0.205
-634.580	210.872	0.148	-0.231
-633.565	-103.253	-0.248	0.059
-632.551	671.887	0.039	-0.100
-631.536	-200.000	-0.064	0.313
-630.522	-2.365	-0.279	0.195
-629.507	-200.000	0.043	-0.193
-628.492	-43.797	-0.276	-0.139
-627.478	800.000	0.094	0.303
-626.463	69.619	0.009	0.009
-625.449	455.898	0.092	-0.203
-624.434	-20.669	-0.511	-0.313
-623.419	111.839	-0.325	-0.391
-622.405	800.000	0.009	0.033
-621.390	800.000	0.045	0.169
-620.376	-200.000	-0.002	0.252
-619.361	164.350	0.093	-0.131
-618.346	-63.045	-0.148	-0.061
-617.332	15.424	-0.221	0.173
-616.317	38.563	0.098	0.088
-615.303	-91.258	-0.261	0.075
-614.288	-49.520	-0.218	0.104
-613.273	-200.000	0.005	-0.321
-612.259	253.946	-0.132	-0.226
-611.244	800.000	0.037	-0.141
-610.230	-148.889	-0.356	-0.029
-609.215	-155.542	0.225	0.014
-608.201	-188.256	0.310	0.004
-607.186	68.619	-0.038	0.039
-606.171	-129.744	-0.020	0.003
-605.157	277.186	0.114	-0.203
-604.142	744.426	-0.136	0.366
-603.128	800.000	0.089	-0.309
-602.113	-200.000	0.049	0.283
-601.098	-83.866	-0.162	-0.051
-600.084	-122.811	-0.177	-0.028
-599.069	154.669	-0.059	-0.081
-598.055	0.438	0.311	-0.222
-597.040	-200.000	-0.037	0.290
-596.025	-49.721	-0.151	0.072
-595.011	12.571	-0.125	0.096
-593.996	-37.285	-0.025	-0.013
-592.982	17.782	-0.034	-0.027
-591.967	-200.000	0.002	0.122
-590.952	35.970	-0.219	0.192
-589.938	217.553	-0.038	0.061
-588.923	176.593	-0.059	0.085
-587.909	-200.000	0.012	0.139
-586.894	43.130	0.287	-0.261
-585.879	-2.436	0.229	-0.160
-584.865	485.409	0.086	-0.195
-583.850	-83.224	0.356	0.114
-582.836	92.697	0.013	0.015
-581.821	-130.134	-0.288	0.039
-580.806	800.000	-0.060	-0.230
-579.792	63.620	0.226	-0.226
-578.777	-95.633	-0.248	0.066
-577.763	-45.754	0.075	0.037
-576.748	406.254	-0.149	0.313
-575.733	83.229	0.086	-0.093
-574.719	-200.000	0.008	0.095
-573.704	7.253	0.140	-0.104
-572.690	800.000	0.076	-0.224
-571.675	525.850	-0.093	-0.217
-570.661	-200.000	-0.053	-0.318
-569.646	66.592	-0.160	-0.162
-568.631	-114.879	0.144	0.027
-567.617	83.208	0.193	0.209
-566.602	-161.273	-0.231	-0.012
-565.588	-130.859	-0.546	-0.073
-564.573	-125.192	-0.291	-0.044
-563.558	13.220	-0.293	-0.226
-562.544	659.568	-0.079	0.202
-561.529	-177.673	0.256	-0.006
-560.515	-133.271	0.171	0.021
-559.500	-200.000	-0.010	-0.393
-558.485	46.344	-0.234	-0.216
-557.471	412.573	-0.126	-0.266
-556.456	-86.530	0.125	0.038
-555.442	-197.444	-0.321	0.002
-554.427	800.000	0.063	-0.246
-553.412	800.000	0.058	-0.170
-552.398	-133.546	0.101	-0.013
-551.383	37.547	-0.272	-0.240
-550.369	-145.504	-0.222	0.020
-549.354	-142.451	-0.274	0.027
-548.339	-164.346	-0.217	-0.010
-547.325	-77.355	-0.145	0.050
-546.310	-200.000	-0.011	0.458
-545.296	-0.860	0.203	-0.143
-544.281	800.000	-0.106	0.311
-543.266	-80.479	0.375	0.125
-542.252	-17.713	0.045	0.028
-541.237	-200.000	-0.076	-0.391
-540.223	156.960	-0.165	-0.226
-539.208	800.000	0.101	-0.405
-538.193	-31.882	-0.223	-0.124
-537.179	-200.000	0.083	-0.372
-536.164	-120.024	0.421	0.072
-535.150	-73.555	0.362	-0.131
-534.135	180.157	0.156	-0.227
-533.121	-29.215	-0.211	-0.120
-532.106	41.421	0.066	-0.059
-531.091	-57.666	0.153	0.067
-530.077	466.254	0.169	-0.377
-529.062	-109.987	-0.136	0.028
-528.048	-13.410	-0.098	-0.063
-527.033	-129.023	-0.246	-0.034
-526.018	537.476	-0.187	0.443
-525.004	352.473	0.045	-0.088
-523.989	79.560	-0.103	-0.109
-522.975	800.000	0.068	0.226
-521.960	71.152	0.299	0.308
-520.945	134.879	0.087	-0.112
-519.931	404.860	0.104	-0.218
-518.916	110.224	0.151	-0.180
-517.902	-146.711	-0.122	-0.010
-516.887	14.925	0.052	0.040
-515.872	-49.166	0.185	0.088
-514.858	47.911	-0.214	0.198
-513.843	-118.859	0.260	0.045
-512.829	800.000	-0.072	-0.278
-511.814	36.589	0.179	-0.157
-510.799	91.446	-0.080	0.089
-509.785	-148.454	-0.322	0.026
-508.770	-130.232	-0.277	-0.037
-507.756	203.109	0.088	0.136
-506.741	159.524	0.127	0.175
-505.726	-200.000	0.021	0.114
-504.712	800.000	-0.083	-0.255
-503.697	-14.493	0.161	0.103
-502.683	-140.553	-0.244	0.025
-501.668	78.976	-0.183	0.195
-500.653	-200.000	-0.031	0.189
-499.639	-82.878	0.158	0.051
-498.624	-63.662	0.222	0.090
-497.610	-200.000	-0.040	-0.197
-496.595	-62.888	0.304	-0.125
-495.581	-154.481	0.171	-0.011
-494.566	-94.400	-0.213	-0.058
-493.551	-172.025	0.320	0.010
-492.537	206.132	-0.172	-0.265
-491.522	800.000	0.027	-0.091
-490.508	-77.091	-0.216	-0.075
-489.493	101.002	0.139	-0.160
-488.478	800.000	-0.166	0.525
-487.464	-144.768	0.522	0.048
-486.449	-200.000	0.017	0.115
-485.435	-79.579	0.291	-0.098
-484.420	-88.688	-0.200	0.059
-483.405	81.356	0.086	0.093
-482.391	-105.052	0.321	-0.073
-481.376	800.000	0.090	-0.312
-480.362	192.924	-0.097	-0.145
-479.347	-200.000	-0.004	-0.274
-478.332	-200.000	-0.006	0.309
-477.318	-200.000	0.016	-0.130
-476.303	-154.528	0.205	-0.014
-475.289	230.811	0.112	-0.182
-474.274	800.000	-0.040	0.133
-473.259	-121.907	0.185	0.030
-472.245	-102.161	0.044	-0.010
-471.230	-173.804	0.396	-0.012
-470.216	-83.172	-0.369	0.118
-469.201	-200.000	0.007	0.050
-468.186	-29.518	-0.422	0.239
-467.172	-161.729	0.060	0.003
-466.157	-200.000	-0.030	0.146
-465.143	-66.303	0.251	0.099
-464.128	-119.558	-0.266	0.046
-463.113	-37.421	-0.130	0.069
-462.099	130.274	0.115	0.146
-461.084	-200.000	0.033	0.201
-460.070	800.000	0.072	-0.242
-459.055	-123.331	0.073	0.011
-458.040	443.617	0.097	-0.210
-457.026	60.933	0.141	-0.138
-456.011	-200.000	0.034	-0.259
-454.997	33.375	-0.125	-0.108
-453.982	-200.000	0.048	0.246
-452.968	800.000	-0.016	-0.050
-451.953	800.000	-0.068	0.288
-450.938	236.832	-0.045	-0.074
-449.924	40.895	0.121	-0.108
-448.909	-26.327	-0.163	-0.095
-447.895	-61.849	-0.149	0.062
-446.880	-127.900	-0.166	0.024
-445.865	-76.796	-0.085	0.029
-444.851	746.064	-0.078	-0.208
-443.836	233.316	0.062	0.101
-442.822	33.903	-0.086	0.075
-441.807	800.000	-0.047	0.162
-440.792	-200.000	0.299	0.001
-439.778	113.923	0.049	-0.059
-438.763	25.717	-0.133	0.110
-437.749	-7.152	-0.142	0.096
-436.734	800.000	-0.028	-0.097
-435.719	-57.341	0.353	0.154
-434.705	16.799	0.125	-0.098
-433.690	-32.112	-0.092	0.051
-432.676	-94.334	-0.120	-0.033
-431.661	-79.528	0.221	-0.074
-430.646	-82.247	0.039	-0.013
-429.632	169.368	-0.166	0.235
-428.617	800.000	-0.072	0.207
-427.603	-93.428	0.397	0.109
-426.588	239.497	0.069	0.113
-425.573	800.000	-0.066	0.204
-424.559	192.411	-0.326	-0.488
-423.544	-5.829	0.247	-0.168
-422.530	6.809	-0.214	-0.158
-421.515	-125.286	-0.048	-0.007
-420.500	409.617	-0.140	0.293
-419.486	233.180	-0.107	-0.175
-418.471	800.000	-0.032	0.131
-417.457	-101.047	0.334	-0.081
-416.442	19.291	-0.142	-0.113
-415.428	-98.653	0.289	-0.073
-414.413	297.449	0.175	0.317
-413.398	800.000	-0.039	-0.133
-412.384	-200.000	0.007	0.134
-411.369	-200.000	0.021	0.301
-410.355	-113.825	-0.043	-0.008
-409.340	56.435	0.184	0.177
-408.325	-200.000	0.024	0.288
-407.311	296.562	-0.102	0.185
-406.296	26.362	-0.149	0.123
-405.282	-200.000	0.063	0.307
-404.267	-24.097	-0.226	0.134
-403.252	800.000	-0.086	-0.317
-402.238	-76.758	0.422	0.146
-401.223	136.496	-0.310	0.400
-400.209	74.656	0.195	0.203
-399.194	-81.998	0.449	0.145
-398.179	169.018	-0.129	0.181
-397.165	25.655	0.043	-0.035
-396.150	30.858	-0.400	0.339
-395.136	86.597	0.407	0.444
-394.121	-102.170	-0.099	-0.024
-393.106	-200.000	0.055	0.262
-392.092	-200.000	-0.012	-0.274
-391.077	51.458	0.105	-0.099
-390.063	-94.578	-0.116	-0.031
-389.048	-200.000	-0.023	0.331
-388.033	5.656	-0.165	-0.121
-387.019	-74.702	-0.127	-0.045
-386.004	9.233	-0.074	-0.055
-384.990	-107.783	-0.178	-0.038
-383.975	240.996	0.127	-0.210
-382.960	-51.477	0.146	-0.068
-381.946	-1.353	-0.149	0.104
-380.931	-39.642	0.045	-0.023
-379.917	81.023	0.161	0.171
-378.902	473.479	-0.116	-0.257
-377.888	-93.426	-0.266	0.073
-376.873	-88.368	0.253	-0.075
-375.858	-2.643	0.261	0.181
-374.844	-200.000	-0.015	-0.165
-373.829	-132.714	0.290	0.037
-372.815	-2.390	-0.119	-0.083
-371.800	91.433	0.125	-0.138
-370.785	112.344	0.337	-0.402
-369.771	-200.000	-0.001	0.179
-368.756	-200.000	-0.030	0.149
-367.742	31.558	0.045	0.038
-366.727	120.456	-0.085	0.104
-365.712	583.883	0.038	-0.093
-364.698	196.584	-0.166	0.250
-363.683	-53.363	-0.554	-0.251
-362.669	-124.983	0.133	0.020
-361.654	-4.458	0.244	-0.166
-360.639	3.939	-0.069	-0.049
-359.625	164.487	-0.118	0.165
-358.610	-56.746	0.281	-0.123
-357.596	-103.073	0.336	-0.079
-356.581	-67.997	0.167	0.064
-355.566	-43.529	-0.246	-0.122
-354.552	-84.607	0.168	-0.052
-353.537	70.916	0.086	0.088
-352.523	-136.264	-0.376	0.043
-351.508	272.671	-0.158	-0.275
-350.493	113.612	-0.126	0.151
-349.479	-72.765	0.302	0.110
-348.464	349.817	-0.029	-0.056
-347.450	-109.720	-0.285	-0.059
-346.435	-105.633	-0.335	0.075
-345.420	-39.167	0.190	-0.099
-344.406	-143.473	0.225	-0.021
-343.391	-94.120	0.108	0.029
-342.377	-119.546	0.027	0.005
-341.362	800.000	0.043	0.122
-340.348	800.000	-0.039	0.119
-339.333	342.653	-0.159	-0.307
-338.318	65.237	0.245	-0.245
-337.304	-121.606	0.196	0.032
-336.289	-200.000	-0.017	0.109
-335.275	800.000	0.057	-0.200
-334.260	-93.798	0.238	-0.065
-333.245	12.705	0.066	0.050
-332.231	-76.450	-0.031	-0.011
-331.216	-64.070	-0.214	0.086
-330.202	273.798	0.073	-0.126
-329.187	-38.347	-0.088	0.046
-328.172	-87.700	-0.373	0.111
-327.158	800.000	0.046	-0.144
-326.143	-136.336	0.273	0.031
-325.129	-154.884	-0.131	-0.009
-324.114	-157.850	-0.456	0.027
-323.099	-90.240	-0.466	-0.133
-322.085	199.528	-0.053	-0.080
-321.070	-200.000	-0.010	0.164
-320.056	-200.000	0.032	0.254
-319.041	64.067	0.193	0.192
-318.026	58.356	-0.048	0.046
-317.012	324.623	-0.077	0.145
-315.997	-105.940	-0.340	0.075
-314.983	-55.545	0.197	0.087
-313.968	-200.000	0.003	0.216
-312.953	-61.008	-0.158	0.066
-311.939	-163.541	0.307	-0.014
-310.924	-168.109	-0.381	0.015
-309.910	181.157	-0.052	-0.076
-308.895	40.918	0.008	0.007
-307.880	-95.689	-0.182	0.048
-306.866	-200.000	0.000	0.101
-305.851	-146.077	0.475	-0.041
-304.837	-1.290	-0.165	-0.115
-303.822	5.894	-0.206	-0.150
-302.807	-200.000	0.009	-0.101
-301.793	-200.000	-0.018	0.142
-300.778	155.737	0.232	0.315
-299.764	800.000	0.043	0.168
-298.749	-200.000	-0.000	-0.332
-297.735	0.300	0.203	-0.143
-296.720	-18.871	-0.057	0.035
-295.705	-85.009	-0.084	0.026
-294.691	-200.000	-0.011	0.264
-293.676	-200.000	0.025	-0.111
-292.662	-101.360	-0.154	0.037
-291.647	-120.675	-0.168	-0.028
-290.632	800.000	0.017	0.049
-289.618	-200.000	0.016	0.278
-288.603	-84.500	0.150	0.046
-287.589	9.671	-0.248	0.185
-286.574	161.490	-0.089	-0.122
-285.559	157.943	0.039	-0.053
-284.545	-101.430	-0.207	0.050
-283.530	800.000	0.052	-0.143
-282.516	-200.000	-0.020	0.432
-281.501	-200.000	-0.010	0.241
-280.486	-28.838	0.402	-0.227
-279.472	800.000	-0.063	0.218
-278.457	35.993	0.091	-0.079
-277.443	-14.256	-0.216	0.137
-276.428	-200.000	0.030	-0.179
-275.413	-59.659	-0.200	-0.084
-274.399	-200.000	-0.015	0.132
-273.384	-63.730	-0.216	0.087
-272.370	653.988	-0.169	-0.426
-271.355	350.933	-0.058	0.114
-270.340	-16.006	0.015	-0.009
-269.326	50.905	0.161	0.150
-268.311	-85.956	0.043	0.013
-267.297	77.195	-0.134	-0.140
-266.282	583.533	0.113	0.272
-265.267	130.074	-0.154	0.194
-264.253	800.000	-0.085	0.257
-263.238	214.975	0.067	-0.105
-262.224	651.542	-0.189	-0.475
-261.209	-128.388	-0.109	0.015
-260.195	-200.000	0.046	-0.243
-259.180	-56.273	0.255	0.112
-258.165	-71.619	-0.122	0.045
-257.151	-169.619	0.259	0.009
-256.136	800.000	-0.079	0.276
-255.122	12.522	0.288	-0.218
-254.107	9.319	-0.262	-0.195
-253.092	0.837	0.316	-0.222
-252.078	-22.283	-0.302	0.180
-251.063	-200.000	0.008	-0.133
-250.049	-200.000	0.046	-0.310
-249.034	-89.860	-0.097	-0.028
-248.019	-103.648	-0.159	-0.037
-247.005	-129.168	0.380	0.052
-245.990	800.000	-0.094	0.272
-244.976	189.701	0.096	-0.141
-243.961	496.906	0.121	0.273
-242.946	-82.403	0.245	-0.078
-241.932	126.957	-0.259	0.323
-240.917	800.000	-0.068	-0.196
-239.903	173.712	-0.129	-0.183
-238.888	-200.000	0.005	-0.164
-237.873	-107.851	0.153	0.033
-236.859	114.327	0.095	0.114
-235.844	-200.000	-0.077	-0.344
-234.830	95.865	-0.224	0.251
-233.815	-1.797	0.054	-0.037
-232.800	-200.000	0.052	-0.241
-231.786	-121.770	-0.132	-0.021
-230.771	-69.923	-0.119	-0.045
-229.757	-94.857	-0.145	0.038
-228.742	-200.000	0.012	-0.208
-227.727	77.998	-0.040	-0.042
-226.713	57.653	-0.245	-0.235
-225.698	-122.384	0.079	-0.013
-224.684	418.614	0.236	0.496
-223.669	160.426	-0.026	-0.035
-222.655	-148.256	-0.204	0.017
-221.640	-125.004	0.199	0.030
-220.625	55.190	0.322	-0.306
-219.611	800.000	0.040	0.139
-218.596	-110.738	0.344	-0.070
-217.582	-17.410	0.129	0.079
-216.567	-127.295	0.109	0.016
-215.552	-67.447	-0.360	0.139
-214.538	-145.456	-0.139	-0.012
-213.523	-53.681	0.235	-0.105
-212.509	330.744	0.077	0.145
-211.494	-200.000	-0.056	0.245
-210.479	165.020	0.086	-0.119
-209.465	122.551	-0.185	0.227
-208.450	544.487	-0.135	-0.318
-207.436	-200.000	-0.053	0.248
-206.421	-15.691	0.125	-0.078
-205.406	-200.000	-0.002	-0.060
-204.392	-156.097	0.102	-0.006
-203.377	-53.880	0.330	-0.148
-202.363	-200.000	-0.046	0.338
-201.348	-200.000	0.010	0.319
-200.333	-122.534	-0.170	-0.027
-199.319	800.000	0.083	-0.225
-198.304	165.785	0.188	-0.260
-197.290	-129.052	0.263	-0.036
-196.275	-18.831	0.116	0.071
-195.260	35.800	0.256	0.221
-194.246	149.876	-0.075	-0.100
-193.231	231.766	-0.118	-0.190
-192.217	28.507	0.188	-0.156
-191.202	-10.449	0.163	-0.106
-190.187	-89.190	0.084	0.024
-189.173	-116.217	-0.053	0.010
-188.158	-67.982	0.248	-0.095
-187.144	-200.000	-0.037	0.263
-186.129	-65.422	0.198	-0.078
-185.114	-82.515	0.346	0.110
-184.100	-62.067	-0.090	0.037
-183.085	164.298	0.056	0.077
-182.071	-200.000	-0.041	0.257
-181.056	418.102	-0.154	0.322
-180.042	75.721	-0.050	0.052
-179.027	800.000	0.044	-0.141
-178.012	-146.336	0.179	-0.015
-176.998	-200.000	0.023	-0.358
-175.983	174.139	-0.195	0.276
-174.969	800.000	-0.020	-0.056
-173.954	-200.000	-0.066	-0.582
-172.939	456.694	-0.032	0.070
-171.925	-36.393	0.318	-0.168
-170.910	215.593	0.240	0.374
-169.896	684.421	-0.076	0.194
-168.881	62.018	0.282	-0.276
-167.866	-49.160	-0.167	-0.078
-166.852	49.928	-0.080	-0.074
-165.837	-200.000	0.023	0.145
-164.823	-81.575	-0.140	-0.045
-163.808	-200.000	0.032	0.397
-162.793	-200.000	-0.045	0.300
-161.779	-166.783	-0.351	-0.014
-160.764	-19.145	0.422	-0.257
-159.750	-28.156	-0.041	0.023
-158.735	331.306	-0.110	-0.208
-157.720	-200.000	0.044	-0.214
-156.706	37.534	-0.077	0.067
-155.691	29.800	-0.069	-0.058
-154.677	310.619	0.145	-0.266
-153.662	800.000	0.037	-0.108
-152.647	800.000	0.047	-0.143
-151.633	-20.557	-0.095	0.057
-150.618	7.209	0.196	-0.143
-149.604	-165.856	-0.456	0.019
-148.589	184.330	0.239	-0.346
-147.574	-101.894	-0.213	0.050
-146.560	349.273	0.069	-0.133
-145.545	800.000	0.070	0.199
-144.531	-0.354	-0.123	-0.086
-143.516	-108.339	0.195	0.041
-142.502	-3.550	0.239	0.163
-141.487	233.873	-0.066	0.106
-140.472	-130.948	-0.311	-0.041
-139.458	566.570	0.103	0.245
-138.443	72.632	-0.264	0.270
-137.429	130.985	0.063	0.079
-136.414	-22.352	-0.335	-0.198
-135.399	800.000	0.121	0.445
-134.385	218.690	-0.082	-0.128
-133.370	-200.000	0.007	0.273
-132.356	235.553	0.146	-0.237
-131.341	-200.000	0.033	-0.232
-130.326	-113.888	0.250	0.048
-129.312	-118.997	0.045	-0.008
-128.297	337.123	0.113	0.215
-127.283	565.906	-0.049	-0.116
-126.268	-25.042	-0.040	0.023
-125.253	-145.686	-0.445	0.039
-124.239	-147.824	0.092	-0.007
-123.224	-200.000	-0.038	-0.175
-122.210	-85.307	-0.110	-0.033
