DTS Sentinel unit serial number:	SN413079Multiplexer serial number:	ORYXHardware model number:	OX4-SRSoftware version number:	ORYX F/W v4.00 Oryx Data Collector v3.7.2.0data status	okinstallation	princeton_trtdifferential loss correction	single-endedforward channel	channel 1reverse channel	N/Adate	2019/09/17time	19:26:35forward acquisition time	60.00reverse acquisition time	0.00gamma	496.2192k internal	0.2308k external	0.2308temperature offset calibration	0.9969default loss term (dB/km)	0.3790temperature slope calibration	1.0000multiplexer offset coefficient	1.0000multiplexer slope coefficient	1.0000fibre end	0.00T internal ref (°C)	37.16T ext. ref 1 (°C)	0.25T ext. ref 2 (°C)	25.40length (m)	temperature (°C)	Stokes	anti-Stokes-747.200	96.279	0.016	-0.018
-746.185	-85.388	-0.165	0.052
-745.171	32.632	-0.160	0.141
-744.156	-200.000	0.022	0.194
-743.142	154.182	0.036	0.051
-742.127	-200.000	-0.101	0.524
-741.112	-32.548	-0.279	0.158
-740.098	109.952	-0.083	-0.101
-739.083	-200.000	0.015	0.344
-738.069	117.873	-0.141	-0.176
-737.054	-200.000	0.003	-0.023
-736.039	800.000	0.113	-0.368
-735.025	5.512	0.119	-0.090
-734.010	442.095	-0.077	0.171
-732.996	-200.000	0.051	-0.306
-731.981	-108.336	-0.340	0.074
-730.966	-50.582	0.128	-0.061
-729.952	-60.749	-0.231	-0.099
-728.937	-17.059	0.286	-0.183
-727.923	-200.000	-0.001	-0.366
-726.908	-200.000	0.028	-0.214
-725.894	-82.903	-0.104	-0.034
-724.879	49.183	-0.331	-0.316
-723.864	-200.000	-0.029	-0.233
-722.850	121.165	-0.080	-0.101
-721.835	84.539	0.236	-0.263
-720.821	-200.000	0.003	0.056
-719.806	38.138	0.110	0.100
-718.791	227.352	0.062	-0.102
-717.777	-83.559	-0.375	0.122
-716.762	-143.603	-0.319	-0.031
-715.748	41.960	0.327	0.301
-714.733	154.335	-0.037	0.051
-713.718	-7.077	0.248	0.171
-712.704	107.042	-0.241	-0.290
-711.689	-127.162	-0.219	-0.033
-710.675	48.622	0.114	0.108
-709.660	-200.000	0.039	0.226
-708.645	-155.286	-0.284	0.019
-707.631	347.000	-0.130	0.260
-706.616	-122.127	0.130	0.022
-705.602	4.544	0.072	0.054
-704.587	800.000	-0.057	0.163
-703.572	261.039	0.040	0.070
-702.558	8.677	0.013	-0.010
-701.543	745.952	-0.120	0.329
-700.529	33.881	-0.054	0.047
-699.514	-200.000	-0.016	0.119
-698.499	-200.000	0.311	0.001
-697.485	-44.088	-0.070	0.036
-696.470	-81.029	-0.388	-0.130
-695.456	-200.000	-0.021	-0.249
-694.441	-81.035	-0.322	0.108
-693.426	109.567	0.062	0.075
-692.412	151.086	0.199	-0.274
-691.397	109.072	-0.253	-0.307
-690.383	88.447	0.103	0.116
-689.368	748.445	-0.078	0.212
-688.354	-68.589	-0.313	0.123
-687.339	12.892	0.102	0.080
-686.324	28.211	0.071	0.061
-685.310	96.807	-0.039	-0.045
-684.295	-200.000	-0.037	0.171
-683.281	3.451	-0.148	-0.110
-682.266	-71.070	0.183	0.070
-681.251	230.849	0.086	-0.142
-680.237	-7.465	0.289	-0.198
-679.222	580.597	-0.092	-0.228
-678.208	-52.210	0.187	-0.088
-677.193	-200.000	-0.002	-0.176
-676.178	-125.442	0.280	-0.043
-675.164	45.490	0.143	-0.134
-674.149	244.953	0.043	0.073
-673.135	796.235	0.110	-0.307
-672.120	-57.088	0.291	-0.130
-671.105	351.869	0.160	0.322
-670.091	-112.447	0.109	0.022
-669.076	-200.000	-0.002	0.277
-668.062	800.000	0.105	-0.326
-667.047	-200.000	0.016	0.125
-666.032	-44.329	0.050	0.025
-665.018	-200.000	-0.057	0.559
-664.003	259.080	0.222	-0.388
-662.989	94.950	0.050	0.058
-661.974	148.651	-0.168	-0.230
-660.959	157.955	-0.037	0.052
-659.945	-200.000	-0.015	-0.354
-658.930	-33.185	0.157	0.088
-657.916	102.320	0.265	-0.314
-656.901	350.762	0.095	0.190
-655.886	439.034	0.037	0.083
-654.872	-200.000	0.040	-0.289
-653.857	64.275	0.156	0.159
-652.843	-18.685	-0.259	0.164
-651.828	379.858	0.089	-0.186
-650.814	42.246	-0.124	0.114
-649.799	45.352	-0.172	-0.161
-648.784	628.584	0.085	0.217
-647.770	-65.943	-0.097	-0.039
-646.755	800.000	0.091	-0.293
-645.741	82.582	-0.334	-0.367
-644.726	-24.929	-0.362	-0.217
-643.711	800.000	0.059	-0.238
-642.697	194.445	0.154	-0.236
-641.682	117.761	-0.080	0.100
-640.668	-128.742	0.152	-0.022
-639.653	252.197	0.114	0.197
-638.638	800.000	0.032	0.138
-637.624	-102.281	0.220	0.054
-636.609	233.556	-0.161	0.268
-635.595	-155.936	0.198	-0.013
-634.580	-168.348	-0.242	0.009
-633.565	3.867	-0.185	0.137
-632.551	292.195	0.141	0.260
-631.536	-129.166	-0.299	-0.042
-630.522	592.659	0.131	-0.327
-629.507	-200.000	0.011	-0.338
-628.492	25.766	0.112	0.095
-627.478	-49.395	0.111	0.053
-626.463	-148.345	0.420	-0.035
-625.449	-32.280	-0.234	-0.132
-624.434	-139.808	-0.175	-0.019
-623.419	418.708	-0.197	-0.427
-622.405	800.000	-0.032	0.136
-621.390	264.557	0.055	0.096
-620.376	-200.000	-0.040	-0.288
-619.361	-69.680	0.326	-0.126
-618.346	23.748	-0.007	0.006
-617.332	260.132	-0.036	-0.063
-616.317	-43.227	0.265	-0.136
-615.303	36.956	-0.131	-0.117
-614.288	-200.000	0.009	0.153
-613.273	460.472	0.071	0.159
-612.259	47.163	-0.138	0.130
-611.244	26.733	0.018	0.015
-610.230	-52.996	0.269	0.125
-609.215	800.000	-0.086	-0.259
-608.201	-90.270	-0.360	0.106
-607.186	-200.000	0.026	0.208
-606.171	-136.811	0.294	-0.034
-605.157	-3.881	-0.110	-0.077
-604.142	-138.286	0.249	-0.028
-603.128	62.870	0.075	0.076
-602.113	-200.000	0.018	0.244
-601.098	-42.624	0.547	-0.281
-600.084	-3.945	0.222	0.156
-599.069	14.020	0.113	0.089
-598.055	122.788	-0.045	-0.057
-597.040	-100.855	-0.077	-0.019
-596.025	-121.303	-0.272	-0.046
-595.011	-184.042	0.355	0.006
-593.996	-125.173	0.178	-0.028
-592.982	-34.622	-0.381	-0.210
-591.967	-85.205	0.172	-0.054
-590.952	31.689	-0.358	0.312
-589.938	-200.000	-0.001	-0.093
-588.923	-200.000	-0.026	-0.201
-587.909	-120.891	0.259	0.044
-586.894	-200.000	-0.008	-0.093
-585.879	-200.000	-0.014	0.235
-584.865	67.520	0.108	0.111
-583.850	37.110	0.152	-0.136
-582.836	146.343	0.184	-0.250
-581.821	124.832	-0.080	-0.102
-580.806	-200.000	0.029	-0.223
-579.792	-92.782	-0.201	-0.057
-578.777	800.000	-0.033	-0.115
-577.763	340.504	0.060	0.117
-576.748	5.346	0.161	0.120
-575.733	294.804	-0.119	-0.220
-574.719	17.940	-0.333	-0.268
-573.704	589.819	0.065	-0.162
-572.690	-106.213	0.236	0.054
-571.675	-101.576	-0.160	-0.039
-570.661	137.901	0.124	-0.164
-569.646	-10.238	-0.181	-0.121
-568.631	800.000	-0.060	0.201
-567.617	60.774	0.081	0.081
-566.602	800.000	0.079	-0.256
-565.588	-67.237	0.106	0.042
-564.573	273.990	-0.131	-0.235
-563.558	-200.000	0.030	0.295
-562.544	-41.913	-0.181	0.094
-561.529	114.079	0.260	-0.319
-560.515	800.000	-0.020	0.059
-559.500	-35.804	0.328	0.179
-558.485	578.365	-0.029	0.071
-557.471	106.735	-0.243	0.291
-556.456	800.000	0.102	-0.391
-555.442	-87.025	-0.106	-0.033
-554.427	800.000	-0.058	0.200
-553.412	-200.000	-0.014	-0.207
-552.398	-144.642	-0.414	-0.039
-551.383	-99.445	0.203	-0.052
-550.369	-198.737	-0.176	-0.001
-549.354	-200.000	0.014	-0.422
-548.339	800.000	0.024	-0.067
-547.325	-110.348	0.187	-0.039
-546.310	729.230	-0.070	0.189
-545.296	450.266	0.148	0.329
-544.281	-200.000	-0.012	0.473
-543.266	-173.617	0.219	0.007
-542.252	-159.629	-0.233	-0.013
-541.237	-145.777	0.193	0.017
-540.223	92.989	-0.234	0.267
-539.208	214.090	-0.112	-0.179
-538.193	148.212	-0.088	-0.119
-537.179	194.447	0.092	0.141
-536.164	-117.767	-0.194	-0.035
-535.150	70.079	-0.042	0.044
-534.135	-66.881	-0.164	0.066
-533.121	331.441	0.214	-0.417
-532.106	641.424	0.046	-0.118
-531.091	-100.238	0.291	0.073
-530.077	-53.283	0.174	-0.080
-529.062	-95.042	0.466	0.127
-528.048	800.000	-0.113	-0.321
-527.033	-134.363	-0.169	0.021
-526.018	434.173	-0.190	-0.416
-525.004	23.570	-0.094	0.078
-523.989	-127.913	-0.202	0.029
-522.975	-21.693	0.424	-0.260
-521.960	-200.000	0.015	0.249
-520.945	175.770	0.019	0.028
-519.931	-200.000	0.024	0.119
-518.916	-144.554	0.082	0.008
-517.902	-103.307	-0.136	-0.032
-516.887	37.770	0.064	0.058
-515.872	-115.892	-0.354	-0.067
-514.858	-200.000	-0.060	-0.278
-513.843	1.451	0.118	-0.085
-512.829	800.000	0.120	-0.338
-511.814	-76.809	0.133	-0.047
-510.799	-97.696	0.041	-0.011
-509.785	6.183	-0.158	-0.118
-508.770	-200.000	-0.025	-0.176
-507.756	127.706	-0.116	-0.148
-506.741	800.000	0.041	-0.127
-505.726	-138.411	0.327	0.036
-504.712	43.794	0.151	0.140
-503.697	651.850	0.083	0.215
-502.683	112.634	-0.202	0.247
-501.668	524.340	-0.104	-0.246
-500.653	-112.406	0.208	-0.042
-499.639	-20.228	0.131	0.081
-498.624	187.688	-0.170	-0.256
-497.610	-200.000	-0.006	-0.234
-496.595	626.904	0.023	-0.059
-495.581	-148.056	-0.145	-0.012
-494.566	48.261	-0.134	-0.127
-493.551	-149.587	0.582	-0.046
-492.537	-81.255	-0.160	0.053
-491.522	-200.000	-0.029	0.169
-490.508	-200.000	-0.019	-0.203
-489.493	-200.000	-0.003	0.040
-488.478	-98.771	-0.102	0.026
-487.464	-109.149	0.082	-0.018
-486.449	111.375	0.113	-0.137
-485.435	-18.879	0.077	-0.048
-484.420	-72.665	0.061	0.023
-483.405	161.882	0.222	-0.314
-482.391	800.000	-0.035	-0.102
-481.376	284.160	-0.046	0.083
-480.362	-81.099	-0.136	0.045
-479.347	800.000	0.142	-0.424
-478.332	800.000	-0.062	-0.202
-477.318	800.000	0.089	0.258
-476.303	506.654	-0.049	-0.114
-475.289	536.445	-0.112	0.267
-474.274	-200.000	-0.035	0.278
-473.259	75.810	0.249	0.264
-472.245	171.850	-0.124	0.180
-471.230	-200.000	0.035	0.221
-470.216	547.147	-0.127	-0.306
-469.201	-111.851	-0.152	-0.031
-468.186	43.398	0.391	0.359
-467.172	-200.000	0.040	-0.261
-466.157	781.306	0.035	-0.096
-465.143	83.762	-0.102	0.112
-464.128	-111.221	-0.218	0.045
-463.113	-200.000	-0.076	-0.427
-462.099	-166.941	-0.254	-0.010
-461.084	-78.248	0.216	-0.075
-460.070	610.019	-0.077	0.194
-459.055	-20.693	-0.266	-0.164
-458.040	-200.000	-0.028	0.223
-457.026	-200.000	-0.001	-0.083
-456.011	147.496	0.057	0.077
-454.997	194.679	0.086	-0.132
-453.982	-200.000	0.024	-0.109
-452.968	-100.861	-0.237	0.059
-451.953	174.627	-0.159	0.232
-450.938	-133.590	0.436	0.055
-449.924	17.737	0.141	0.113
-448.909	-200.000	-0.004	0.031
-447.895	-200.000	-0.012	-0.200
-446.880	-25.429	-0.266	0.158
-445.865	123.317	-0.194	-0.245
-444.851	281.501	0.032	0.058
-443.836	-200.000	-0.017	-0.218
-442.822	-104.717	0.127	-0.029
-441.807	105.447	0.253	-0.300
-440.792	82.801	-0.052	-0.057
-439.778	800.000	0.087	0.275
-438.763	800.000	0.055	0.203
-437.749	44.213	0.094	-0.086
-436.734	-200.000	-0.066	0.295
-435.719	-67.300	0.170	-0.067
-434.705	-8.647	-0.053	0.036
-433.690	-200.000	0.018	0.309
-432.676	153.484	-0.119	0.164
-431.661	350.675	-0.070	0.139
-430.646	19.025	0.220	0.177
-429.632	295.089	-0.068	0.125
-428.617	-117.745	-0.196	-0.035
-427.603	-45.244	0.391	-0.195
-426.588	-109.818	0.220	0.046
-425.573	63.050	-0.231	-0.232
-424.559	-10.310	0.207	-0.138
-423.544	139.959	0.215	0.284
-422.530	-140.296	0.080	-0.008
-421.515	800.000	-0.022	0.072
-420.500	25.592	-0.184	0.154
-419.486	20.539	-0.157	0.127
-418.471	-144.685	-0.184	0.017
-417.457	203.043	0.187	0.290
-416.442	66.444	0.125	0.128
-415.428	-73.598	0.165	0.061
-414.413	197.726	0.188	0.288
-413.398	800.000	0.094	0.311
-412.384	-200.000	0.006	-0.212
-411.369	116.776	-0.127	-0.156
-410.355	-33.427	-0.341	-0.189
-409.340	-125.891	-0.277	0.042
-408.325	-53.207	0.173	-0.080
-407.311	-16.540	-0.071	-0.045
-406.296	331.173	0.228	-0.440
-405.282	-198.849	-0.282	0.002
-404.267	60.100	-0.144	0.143
-403.252	7.111	-0.338	-0.253
-402.238	17.056	0.078	0.062
-401.223	10.227	-0.118	0.090
-400.209	-30.897	0.096	0.054
-399.194	800.000	0.090	0.336
-398.179	-47.440	0.169	-0.083
-397.165	237.019	-0.033	-0.055
-396.150	125.585	-0.159	0.201
-395.136	800.000	0.061	-0.259
-394.121	85.674	-0.067	-0.074
-393.106	800.000	0.052	-0.204
-392.092	800.000	-0.068	0.244
-391.077	800.000	-0.084	-0.250
-390.063	518.214	-0.069	0.161
-389.048	173.689	-0.108	0.156
-388.033	800.000	0.068	-0.288
-387.019	-72.598	-0.257	0.095
-386.004	-178.615	0.069	-0.002
-384.990	-200.000	0.017	0.213
-383.975	-200.000	0.088	0.000
-382.960	800.000	-0.061	0.207
-381.946	-95.411	0.234	-0.063
-380.931	-90.383	0.104	0.030
-379.917	-31.810	0.598	0.336
-378.902	89.012	-0.250	-0.279
-377.888	327.987	0.059	-0.113
-376.873	277.050	-0.030	-0.054
-375.858	-200.000	0.019	-0.230
-374.844	21.361	-0.016	0.013
-373.829	44.126	0.225	0.207
-372.815	-84.149	-0.379	-0.120
-371.800	-200.000	-0.040	-0.320
-370.785	-38.475	0.055	-0.029
-369.771	548.214	0.063	0.151
-368.756	13.282	0.049	-0.038
-367.742	-200.000	0.003	-0.051
-366.727	800.000	-0.060	-0.251
-365.712	55.232	-0.208	0.201
-364.698	-139.776	-0.259	-0.028
-363.683	-200.000	-0.013	0.129
-362.669	-2.130	-0.217	0.153
-361.654	-24.004	-0.096	0.058
-360.639	-124.825	0.222	0.034
-359.625	39.495	-0.178	0.160
-358.610	58.548	0.257	-0.252
-357.596	-127.352	0.063	-0.009
-356.581	254.885	-0.176	0.302
-355.566	506.792	-0.073	0.168
-354.552	-85.449	-0.110	0.034
-353.537	11.990	0.432	0.333
-352.523	-200.000	0.012	0.191
-351.508	-10.153	-0.082	-0.054
-350.493	-21.930	0.135	0.082
-349.479	-56.421	0.120	0.053
-348.464	329.755	0.133	-0.256
-347.450	-200.000	-0.335	0.000
-346.435	24.058	0.402	-0.332
-345.420	800.000	-0.146	0.415
-344.406	646.165	-0.114	-0.291
-343.391	-36.674	-0.041	-0.022
-342.377	-58.612	-0.384	0.167
-341.362	-134.790	-0.398	-0.048
-340.348	18.009	-0.151	-0.121
-339.333	396.513	0.203	-0.424
-338.318	-200.000	0.004	-0.275
-337.304	230.410	-0.089	0.146
-336.289	-93.532	0.093	0.026
-335.275	660.454	-0.122	-0.315
-334.260	-37.454	-0.109	0.058
-333.245	-200.000	-0.022	0.140
-332.231	-41.428	0.144	-0.074
-331.216	-162.621	-0.089	-0.004
-330.202	-5.411	0.092	0.063
-329.187	-54.551	-0.011	-0.005
-328.172	-9.125	0.052	0.035
-327.158	7.805	0.096	-0.072
-326.143	-107.308	0.117	-0.026
-325.129	-200.000	-0.007	-0.269
-324.114	227.743	0.064	-0.105
-323.099	163.220	0.067	-0.094
-322.085	39.726	-0.116	0.104
-321.070	-33.686	0.425	0.234
-320.056	-200.000	0.236	0.001
-319.041	-28.648	-0.123	0.071
-318.026	33.178	-0.184	0.159
-317.012	-126.163	-0.434	0.065
-315.997	800.000	0.030	-0.118
-314.983	-91.189	0.416	0.119
-313.968	691.556	0.108	0.282
-312.953	-153.142	-0.227	0.016
-311.939	331.407	-0.134	0.258
-310.924	-2.543	-0.016	0.011
-309.910	-200.000	0.033	0.263
-308.895	800.000	-0.093	0.269
-307.880	800.000	-0.060	0.201
-306.866	-115.186	-0.320	0.061
-305.851	211.201	-0.204	0.320
-304.837	800.000	-0.042	-0.138
-303.822	-164.624	-0.418	-0.019
-302.807	-128.934	0.188	-0.026
-301.793	-17.931	0.079	0.050
-300.778	34.989	-0.031	-0.027
-299.764	146.054	-0.113	0.151
-298.749	-116.383	0.047	-0.009
-297.735	173.187	0.116	0.167
-296.720	-200.000	-0.012	0.078
-295.705	800.000	0.040	-0.127
-294.691	800.000	0.066	0.231
-293.676	-200.000	0.031	0.216
-292.662	557.765	-0.089	0.215
-291.647	166.410	-0.052	-0.073
-290.632	-8.010	0.095	-0.064
-289.618	-46.444	0.298	-0.146
-288.603	-164.014	-0.281	-0.013
-287.589	443.101	0.156	-0.341
-286.574	-200.000	0.010	0.051
-285.559	800.000	-0.073	-0.258
-284.545	165.308	0.049	-0.069
-283.530	-98.380	0.456	0.117
-282.516	-164.606	0.133	-0.006
-281.501	64.447	0.163	-0.164
-280.486	-200.000	-0.018	0.142
-279.472	89.845	-0.100	-0.112
-278.457	-11.308	0.176	-0.116
-277.443	754.967	-0.023	-0.063
-276.428	-72.522	0.136	-0.050
-275.413	220.990	0.065	0.104
-274.399	209.672	-0.052	0.081
-273.384	-104.281	-0.066	-0.015
-272.370	-53.444	-0.308	0.141
-271.355	-106.307	0.289	0.065
-270.340	-20.500	-0.097	-0.059
-269.326	46.832	-0.042	0.039
-268.311	-200.000	0.008	0.381
-267.297	399.064	-0.075	-0.157
-266.282	149.179	-0.150	-0.202
-265.267	-64.537	-0.217	0.088
-264.253	-200.000	0.052	0.357
-263.238	-200.000	0.015	0.174
-262.224	-58.658	-0.262	-0.113
-261.209	93.761	-0.166	0.187
-260.195	-159.613	-0.450	-0.025
-259.180	-74.416	-0.253	0.091
-258.165	-200.000	0.271	0.000
-257.151	-200.000	0.019	0.234
-256.136	96.133	0.137	0.156
-255.122	51.119	-0.048	0.046
-254.107	-38.683	0.164	0.086
-253.092	-200.000	0.020	-0.175
-252.078	-200.000	0.023	0.132
-251.063	800.000	-0.035	0.137
-250.049	-59.553	-0.299	-0.128
-249.034	160.417	0.208	-0.290
-248.019	8.233	0.139	-0.104
-247.005	-45.526	-0.168	0.083
-245.990	10.268	-0.289	0.219
-244.976	121.935	-0.143	-0.178
-243.961	9.419	0.228	-0.172
-242.946	276.087	0.017	-0.030
-241.932	288.313	0.053	0.096
-240.917	-30.256	0.185	0.105
-239.903	694.798	0.065	-0.170
-238.888	32.574	0.175	0.151
-237.873	800.000	-0.034	-0.141
-236.859	-80.659	-0.467	0.155
-235.844	800.000	0.015	0.046
-234.830	186.479	0.179	0.265
-233.815	430.884	0.120	0.259
-232.800	-48.701	-0.246	-0.118
-231.786	-81.100	0.244	-0.080
-230.771	-105.426	-0.546	-0.124
-229.757	-28.289	-0.013	0.007
-228.742	-200.000	0.093	-0.483
-227.727	125.635	0.120	-0.152
-226.713	51.827	0.096	0.091
-225.698	354.437	0.121	0.239
-224.684	351.221	-0.148	0.293
-223.669	-152.281	0.197	0.014
-222.655	-63.751	0.208	0.085
-221.640	-90.879	-0.168	-0.048
-220.625	55.524	-0.048	0.046
-219.611	87.744	0.040	-0.045
-218.596	11.352	-0.298	-0.227
-217.582	-200.000	-0.006	-0.333
-216.567	-200.000	-0.035	0.152
-215.552	-200.000	-0.155	0.001
-214.538	477.744	-0.143	-0.322
-213.523	-137.878	-0.122	0.014
-212.509	-200.000	-0.025	0.133
-211.494	-200.000	-0.005	0.408
-210.479	-200.000	0.039	0.207
-209.465	-0.685	0.114	0.080
-208.450	-40.779	0.411	0.212
-207.436	800.000	0.120	0.344
-206.421	-111.178	-0.169	-0.035
-205.406	-200.000	0.054	-0.260
-204.392	-200.000	0.046	0.323
-203.377	63.256	0.053	-0.053
-202.363	126.211	-0.220	0.277
-201.348	-20.917	0.220	0.134
-200.333	-85.999	-0.298	-0.092
-199.319	224.856	0.166	0.267
-198.304	2.632	-0.108	-0.078
-197.290	29.262	0.219	-0.185
-196.275	409.599	-0.147	-0.309
-195.260	-151.385	-0.276	-0.020
-194.246	-150.396	0.307	-0.024
-193.231	800.000	0.040	0.142
-192.217	-200.000	0.039	0.177
-191.202	321.548	-0.090	-0.171
-190.187	218.276	0.065	0.103
-189.173	-200.000	-0.010	0.397
-188.158	-53.121	0.186	-0.085
-187.144	-29.722	0.244	0.139
-186.129	39.027	-0.033	0.029
-185.114	185.762	-0.040	0.059
-184.100	-200.000	0.044	0.213
-183.085	-121.621	-0.167	0.028
-182.071	-200.000	0.028	-0.316
-181.056	22.394	-0.136	-0.111
-180.042	361.438	-0.034	-0.068
-179.027	-200.000	0.022	0.149
-178.012	246.913	0.064	-0.107
-176.998	-200.000	0.074	-0.337
-175.983	800.000	0.042	-0.158
-174.969	68.361	0.191	-0.195
-173.954	-200.000	-0.032	-0.322
-172.939	438.153	0.063	0.137
-171.925	-200.000	0.001	0.109
-170.910	-200.000	0.067	-0.317
-169.896	-110.067	-0.250	0.052
-168.881	-93.340	0.218	0.060
-167.866	68.065	-0.134	-0.136
-166.852	35.446	-0.210	-0.183
-165.837	217.292	-0.114	0.181
-164.823	62.232	0.389	-0.386
-163.808	552.736	0.032	-0.077
-162.793	278.887	-0.067	-0.118
-161.779	-200.000	-0.028	-0.160
-160.764	-200.000	-0.029	0.310
-159.750	-26.710	-0.251	0.146
-158.735	-200.000	0.004	-0.080
-157.720	202.206	0.068	-0.104
-156.706	386.133	-0.288	0.590
-155.691	58.147	0.047	0.046
-154.677	7.996	0.213	-0.158
-153.662	54.858	-0.142	0.137
-152.647	7.545	-0.149	0.110
-151.633	-200.000	0.015	0.245
-150.618	45.750	-0.113	0.104
-149.604	800.000	-0.070	0.299
-148.589	-115.341	0.410	-0.077
-147.574	-52.557	0.338	-0.155
-146.560	24.955	-0.133	0.110
-145.545	-200.000	-0.012	0.230
-144.531	-38.050	-0.188	-0.099
-143.516	56.321	-0.201	-0.194
-142.502	-29.334	-0.539	-0.306
-141.487	96.394	0.051	-0.058
-140.472	-179.428	0.215	-0.005
-139.458	800.000	0.022	0.082
-138.443	-52.270	-0.329	0.151
-137.429	-37.285	-0.148	0.078
-136.414	-200.000	-0.039	-0.237
-135.399	-113.380	-0.083	0.016
-134.385	800.000	-0.049	-0.154
-133.370	177.942	-0.147	0.213
-132.356	800.000	-0.043	0.163
-131.341	369.235	0.113	0.227
-130.326	-125.920	0.211	-0.032
-129.312	-100.235	0.165	-0.041
-128.297	-138.866	-0.169	-0.018
-127.283	-200.000	0.009	0.041
-126.268	17.911	0.388	0.307
-125.253	71.662	0.136	-0.141
-124.239	30.662	0.126	0.107
-123.224	800.000	0.040	-0.165
-122.210	-7.400	0.162	-0.109
-121.195	-150.951	-0.191	0.014
-120.180	89.440	0.203	0.224
