DTS Sentinel unit serial number:	SN413079Multiplexer serial number:	ORYXHardware model number:	OX4-SRSoftware version number:	ORYX F/W v4.00 Oryx Data Collector v3.7.2.0data status	okinstallation	princeton_trtdifferential loss correction	single-endedforward channel	channel 1reverse channel	N/Adate	2019/09/12time	12:32:11forward acquisition time	60.00reverse acquisition time	0.00gamma	496.2192k internal	0.2292k external	0.2292temperature offset calibration	1.0035default loss term (dB/km)	0.3790temperature slope calibration	1.0000multiplexer offset coefficient	1.0000multiplexer slope coefficient	1.0000fibre end	0.00T internal ref (°C)	40.50T ext. ref 1 (°C)	1.94T ext. ref 2 (°C)	35.70length (m)	temperature (°C)	Stokes	anti-Stokes-747.200	-133.198	0.429	-0.056
-746.185	206.697	-0.195	0.310
-745.171	155.586	-0.075	0.106
-744.156	-131.303	0.270	-0.037
-743.142	54.097	0.217	0.213
-742.127	-113.359	0.232	0.047
-741.112	151.041	-0.175	0.243
-740.098	683.271	0.059	0.156
-739.083	175.797	0.405	0.602
-738.069	6.988	0.080	0.061
-737.054	-200.000	0.003	-0.050
-736.039	-44.565	0.144	0.074
-735.025	8.344	-0.118	0.090
-734.010	131.432	-0.100	-0.131
-732.996	304.759	0.124	-0.236
-731.981	-103.128	0.035	-0.009
-730.966	64.551	0.179	-0.185
-729.952	800.000	0.066	0.293
-728.937	193.001	-0.062	0.096
-727.923	68.066	0.301	0.315
-726.908	429.426	-0.054	-0.120
-725.894	-143.384	-0.307	0.030
-724.879	-18.253	-0.155	0.099
-723.864	800.000	-0.109	0.378
-722.850	354.536	0.081	-0.165
-721.835	447.971	0.209	-0.472
-720.821	-105.239	0.166	0.039
-719.806	87.019	0.097	0.110
-718.791	-84.565	-0.176	0.057
-717.777	-150.321	0.146	-0.012
-716.762	-112.262	-0.186	-0.038
-715.748	51.982	-0.161	0.157
-714.733	-22.489	0.096	0.059
-713.718	66.234	0.160	0.166
-712.704	-80.018	0.193	0.066
-711.689	27.932	-0.209	0.180
-710.675	-31.359	-0.090	0.052
-709.660	121.067	-0.146	-0.186
-708.645	393.949	0.122	-0.260
-707.631	323.642	-0.092	-0.179
-706.616	-60.397	0.136	0.059
-705.602	28.125	-0.169	-0.145
-704.587	-198.132	-0.216	-0.001
-703.572	-116.878	0.128	-0.024
-702.558	-109.893	0.115	0.025
-701.543	200.147	0.050	-0.078
-700.529	-85.376	0.203	0.065
-699.514	-151.295	-0.395	-0.030
-698.499	-200.000	-0.019	-0.233
-697.485	1.743	-0.213	0.157
-696.470	-200.000	0.063	0.429
-695.456	-200.000	0.005	0.138
-694.441	326.054	0.080	-0.157
-693.426	-38.804	-0.111	0.060
-692.412	36.596	0.232	-0.209
-691.397	-180.502	0.178	0.004
-690.383	-29.098	-0.145	-0.085
-689.368	-85.838	0.250	-0.079
-688.354	167.172	-0.144	0.209
-687.339	472.905	-0.076	0.175
-686.324	-66.640	0.165	0.067
-685.310	-62.178	0.141	-0.060
-684.295	-155.439	-0.212	0.014
-683.281	0.405	-0.159	-0.116
-682.266	194.708	0.075	-0.116
-681.251	33.421	-0.412	0.365
-680.237	-138.532	-0.133	0.015
-679.222	800.000	-0.012	0.047
-678.208	-200.000	-0.019	-0.107
-677.193	-58.560	-0.198	-0.088
-676.178	52.771	-0.171	0.167
-675.164	529.239	0.037	-0.089
-674.149	-141.692	-0.236	0.024
-673.135	-200.000	0.004	0.227
-672.120	79.492	-0.248	-0.271
-671.105	800.000	-0.092	0.306
-670.091	800.000	0.073	0.297
-669.076	800.000	-0.068	0.276
-668.062	5.716	0.108	-0.081
-667.047	-149.928	0.138	0.011
-666.032	-154.298	0.224	-0.015
-665.018	800.000	-0.063	0.178
-664.003	26.706	0.245	0.209
-662.989	-12.101	-0.185	0.124
-661.974	-67.326	0.450	-0.180
-660.959	77.447	-0.147	0.159
-659.945	-120.198	-0.435	0.076
-658.930	-47.290	-0.072	0.036
-657.916	-200.000	0.038	0.261
-656.901	13.924	0.372	0.295
-655.886	-200.000	0.054	0.302
-654.872	33.306	-0.378	-0.334
-653.857	224.743	0.077	-0.127
-652.843	-200.000	0.058	-0.342
-651.828	761.640	-0.018	-0.049
-650.814	58.179	-0.115	0.115
-649.799	111.943	0.185	-0.228
-648.784	169.859	0.312	-0.455
-647.770	362.163	0.026	-0.052
-646.755	492.684	0.104	-0.243
-645.741	-88.752	-0.423	0.128
-644.726	294.189	0.117	-0.218
-643.711	-200.000	-0.007	0.270
-642.697	-79.640	-0.076	0.026
-641.682	-128.872	-0.132	-0.019
-640.668	283.289	-0.192	-0.351
-639.653	634.975	-0.108	0.280
-638.638	593.754	0.086	-0.218
-637.624	95.470	-0.234	0.272
-636.609	9.144	0.062	0.048
-635.595	16.328	0.197	-0.158
-634.580	455.066	0.080	0.181
-633.565	800.000	0.101	0.342
-632.551	-200.000	-0.031	0.321
-631.536	800.000	-0.047	-0.162
-630.522	-93.026	-0.068	0.019
-629.507	-41.181	-0.304	-0.160
-628.492	17.550	0.240	-0.194
-627.478	-121.915	-0.417	-0.070
-626.463	-121.923	-0.277	-0.046
-625.449	-200.000	0.035	0.257
-624.434	-102.784	-0.092	0.022
-623.419	-94.741	-0.302	0.084
-622.405	100.731	-0.250	-0.296
-621.390	33.400	-0.117	0.103
-620.376	356.328	-0.050	0.101
-619.361	-200.000	0.028	0.279
-618.346	-97.262	0.119	-0.032
-617.332	171.477	0.131	0.191
-616.317	-130.069	-0.128	0.018
-615.303	800.000	0.074	-0.316
-614.288	6.113	0.260	-0.196
-613.273	-164.122	-0.165	0.008
-612.259	42.960	-0.067	0.063
-611.244	-153.357	-0.179	0.013
-610.230	-76.175	-0.409	-0.147
-609.215	121.251	-0.062	0.078
-608.201	800.000	0.132	0.371
-607.186	205.018	-0.271	0.428
-606.171	-52.124	0.134	0.063
-605.157	-50.348	-0.233	0.112
-604.142	51.157	0.250	-0.241
-603.128	82.582	0.214	-0.236
-602.113	145.388	-0.226	0.308
-601.098	56.364	0.050	0.050
-600.084	474.415	-0.129	-0.296
-599.069	800.000	-0.065	0.227
-598.055	-6.991	-0.193	-0.133
-597.040	72.290	0.074	-0.078
-596.025	-200.000	0.011	-0.272
-595.011	136.058	-0.038	0.051
-593.996	673.555	-0.111	0.293
-592.982	-200.000	0.010	-0.091
-591.967	172.219	0.077	-0.113
-590.952	729.430	0.054	-0.147
-589.938	-34.100	-0.225	0.126
-588.923	-123.454	-0.400	0.065
-587.909	204.941	-0.079	0.125
-586.894	-200.000	-0.019	-0.121
-585.879	305.924	-0.032	0.060
-584.865	-94.030	0.378	-0.105
-583.850	-146.677	0.546	-0.048
-582.836	234.818	0.107	0.179
-581.821	800.000	-0.134	-0.379
-580.806	445.075	-0.086	0.192
-579.792	-112.027	0.210	0.043
-578.777	272.696	0.126	0.226
-577.763	204.673	-0.100	0.158
-576.748	181.183	-0.097	0.145
-575.733	-136.737	-0.324	-0.038
-574.719	-200.000	0.026	-0.149
-573.704	110.799	0.217	0.265
-572.690	800.000	-0.021	-0.071
-571.675	103.224	-0.221	0.263
-570.661	-65.356	0.270	-0.111
-569.646	382.407	-0.237	-0.496
-568.631	-200.000	-0.219	-0.000
-567.617	-200.000	-0.059	0.293
-566.602	-160.599	-0.287	-0.016
-565.588	-134.485	-0.258	-0.032
-564.573	292.540	0.090	-0.166
-563.558	105.646	-0.143	-0.172
-562.544	-154.041	-0.122	-0.008
-561.529	-200.000	-0.031	0.311
-560.515	12.181	0.092	-0.072
-559.500	119.984	0.067	-0.084
-558.485	231.942	0.086	-0.144
-557.471	-107.147	-0.226	0.051
-556.456	55.684	0.117	-0.115
-555.442	-41.426	0.143	0.075
-554.427	-100.883	-0.034	-0.008
-553.412	-54.085	0.292	-0.135
-552.398	72.849	-0.359	0.381
-551.383	365.962	-0.133	0.272
-550.369	-106.058	0.297	0.068
-549.354	551.061	-0.100	0.245
-548.339	-150.356	0.178	-0.014
-547.325	-200.000	0.013	-0.228
-546.310	382.394	-0.051	0.106
-545.296	-200.000	-0.058	0.343
-544.281	128.211	0.159	0.205
-543.266	-29.110	-0.196	0.114
-542.252	-200.000	0.037	0.282
-541.237	33.689	-0.031	-0.027
-540.223	-67.087	0.062	-0.025
-539.208	-200.000	-0.014	0.191
-538.193	148.838	-0.080	0.109
-537.179	114.126	0.023	0.028
-536.164	796.064	0.079	0.222
-535.150	39.534	0.064	0.058
-534.135	-200.000	0.089	-0.401
-533.121	-78.561	0.134	-0.047
-532.106	800.000	-0.038	-0.141
-531.091	-135.970	0.103	-0.012
-530.077	-44.456	0.081	0.041
-529.062	-6.007	-0.221	0.153
-528.048	-57.592	-0.157	0.070
-527.033	74.625	-0.088	-0.094
-526.018	-172.758	0.165	0.005
-525.004	404.612	0.094	-0.200
-523.989	5.609	0.105	0.079
-522.975	800.000	0.044	-0.132
-521.960	-2.962	0.277	0.196
-520.945	27.680	-0.080	-0.068
-519.931	-22.225	-0.045	0.028
-518.916	27.320	-0.155	-0.132
-517.902	-96.719	-0.249	-0.066
-516.887	46.181	-0.011	0.010
-515.872	800.000	0.130	0.428
-514.858	-23.046	0.176	-0.108
-513.843	-200.000	-0.023	-0.165
-512.829	-200.000	0.004	0.213
-511.814	-200.000	-0.030	-0.141
-510.799	-170.047	-0.315	-0.011
-509.785	150.934	-0.070	-0.096
-508.770	83.402	-0.131	0.145
-507.756	73.434	-0.123	0.131
-506.741	800.000	0.088	0.260
-505.726	-84.769	-0.186	-0.059
-504.712	-148.804	0.120	0.010
-503.697	509.449	-0.054	-0.127
-502.683	174.284	-0.198	-0.291
-501.668	-200.000	0.019	-0.337
-500.653	-13.800	0.218	-0.143
-499.639	-145.500	-0.421	0.038
-498.624	-200.000	-0.049	-0.221
-497.610	254.615	-0.126	-0.219
-496.595	-200.000	0.010	0.071
-495.581	-200.000	0.020	-0.186
-494.566	-200.000	-0.002	-0.042
-493.551	-180.637	0.376	-0.008
-492.537	0.642	-0.199	-0.144
-491.522	-3.115	-0.179	0.126
-490.508	-18.844	0.121	-0.077
-489.493	-200.000	0.004	-0.313
-488.478	-200.000	-0.032	-0.169
-487.464	-36.981	-0.392	0.213
-486.449	705.549	-0.106	-0.282
-485.435	800.000	0.148	0.477
-484.420	327.682	0.077	0.150
-483.405	-200.000	0.210	0.000
-482.391	-82.239	-0.114	-0.038
-481.376	139.872	-0.104	-0.139
-480.362	-81.973	0.186	-0.062
-479.347	57.936	-0.139	0.138
-478.332	-99.017	0.225	-0.058
-477.318	664.188	0.151	0.395
-476.303	298.176	0.114	0.213
-475.289	563.138	0.079	0.193
-474.274	106.560	-0.313	0.376
-473.259	205.432	0.154	0.243
-472.245	79.245	0.260	-0.282
-471.230	361.634	-0.056	-0.113
-470.216	-200.000	-0.020	-0.282
-469.201	307.501	-0.136	-0.256
-468.186	-170.416	0.187	-0.007
-467.172	-200.000	-0.006	-0.230
-466.157	-200.000	-0.008	-0.233
-465.143	-200.000	0.062	-0.377
-464.128	-200.000	-0.024	-0.130
-463.113	-200.000	-0.008	0.326
-462.099	-200.000	0.046	0.256
-461.084	-32.648	-0.191	0.108
-460.070	800.000	0.072	0.221
-459.055	-200.000	0.078	0.437
-458.040	179.107	-0.105	0.155
-457.026	707.266	0.043	-0.116
-456.011	-72.753	-0.421	-0.157
-454.997	121.846	-0.078	-0.098
-453.982	254.859	0.040	-0.070
-452.968	-146.994	-0.125	0.011
-451.953	-164.499	-0.138	-0.006
-450.938	139.683	-0.243	0.324
-449.924	-79.632	-0.151	-0.051
-448.909	-200.000	0.022	-0.371
-447.895	800.000	0.134	0.514
-446.880	511.854	0.154	-0.364
-445.865	-200.000	0.009	-0.051
-444.851	-200.000	-0.008	0.334
-443.836	800.000	-0.132	-0.390
-442.822	-200.000	-0.025	-0.214
-441.807	419.497	0.035	-0.076
-440.792	-200.000	0.036	-0.343
-439.778	800.000	-0.105	-0.401
-438.763	77.381	0.194	0.209
-437.749	469.277	-0.183	0.416
-436.734	192.989	0.031	0.047
-435.719	239.268	0.074	0.125
-434.705	329.196	0.016	-0.031
-433.690	-109.690	0.127	-0.027
-432.676	-25.948	0.425	-0.253
-431.661	-30.129	-0.241	-0.139
-430.646	800.000	-0.033	-0.132
-429.632	-134.375	0.300	-0.037
-428.617	-191.064	0.244	0.003
-427.603	453.386	-0.034	0.077
-426.588	-81.961	0.241	-0.080
-425.573	-94.474	-0.349	-0.096
-424.559	-64.150	-0.141	-0.058
-423.544	800.000	0.044	-0.179
-422.530	-130.497	0.242	-0.033
-421.515	800.000	0.023	-0.070
-420.500	-200.000	0.052	-0.422
-419.486	-128.630	-0.167	0.024
-418.471	-200.000	-0.041	-0.210
-417.457	277.263	-0.125	-0.225
-416.442	-159.021	-0.182	0.010
-415.428	394.764	0.016	-0.033
-414.413	105.307	-0.049	0.059
-413.398	-77.418	0.087	-0.031
-412.384	67.600	0.185	-0.191
-411.369	33.780	-0.113	-0.099
-410.355	79.272	0.121	-0.132
-409.340	800.000	0.054	-0.206
-408.325	-200.000	-0.009	0.058
-407.311	-200.000	0.007	-0.100
-406.296	-126.877	-0.415	-0.062
-405.282	-75.609	-0.259	-0.093
-404.267	-65.823	0.126	0.051
-403.252	-200.000	-0.035	0.177
-402.238	-64.373	-0.094	-0.039
-401.223	-4.412	0.151	0.105
-400.209	82.865	-0.179	0.197
-399.194	-100.217	0.253	0.063
-398.179	249.643	-0.146	0.250
-397.165	-17.311	-0.189	-0.120
-396.150	-127.809	0.188	-0.027
-395.136	-36.584	0.120	0.065
-394.121	800.000	0.101	-0.382
-393.106	-94.101	0.392	0.108
-392.092	-53.462	0.266	0.123
-391.077	242.302	-0.075	-0.127
-390.063	800.000	-0.048	0.204
-389.048	500.967	0.024	-0.057
-388.033	-200.000	-0.057	0.610
-387.019	296.212	0.081	0.151
-386.004	97.047	-0.172	-0.199
-384.990	108.229	0.144	-0.173
-383.975	-70.041	0.216	0.083
-382.960	104.474	0.025	0.030
-381.946	800.000	0.039	-0.128
-380.931	-200.000	0.079	0.367
-379.917	-200.000	-0.033	-0.389
-378.902	191.456	0.082	-0.125
-377.888	0.795	0.255	0.184
-376.873	90.665	-0.172	-0.195
-375.858	-200.000	-0.027	-0.282
-374.844	121.620	0.166	-0.208
-373.829	262.200	0.177	0.310
-372.815	629.601	-0.032	0.081
-371.800	410.637	0.159	0.341
-370.785	-123.145	-0.099	0.016
-369.771	-200.000	0.028	0.151
-368.756	86.162	0.149	-0.166
-367.742	17.009	0.046	0.036
-366.727	181.822	-0.170	0.252
-365.712	-200.000	0.005	-0.044
-364.698	246.485	-0.009	0.015
-363.683	70.288	-0.197	-0.206
-362.669	664.678	-0.140	-0.365
-361.654	280.765	-0.082	-0.148
-360.639	24.723	-0.168	-0.140
-359.625	800.000	-0.106	-0.370
-358.610	247.680	0.118	0.201
-357.596	-98.813	0.196	0.050
-356.581	-52.262	0.135	0.063
-355.566	-128.465	0.261	-0.037
-354.552	6.373	0.072	-0.054
-353.537	-1.642	-0.461	-0.328
-352.523	157.036	-0.107	-0.149
-351.508	800.000	-0.030	-0.126
-350.493	51.923	0.208	-0.200
-349.479	-8.569	0.072	0.049
-348.464	-14.671	0.229	-0.149
-347.450	-145.129	-0.207	-0.019
-346.435	-103.815	-0.101	-0.024
-345.420	800.000	0.063	-0.226
-344.406	46.921	0.181	0.170
-343.391	-25.886	0.164	-0.097
-342.377	-200.000	-0.022	-0.133
-341.362	-6.024	-0.069	-0.047
-340.348	-113.535	0.215	-0.042
-339.333	152.084	-0.093	-0.127
-338.318	-102.475	0.090	-0.022
-337.304	212.483	-0.131	-0.209
-336.289	-135.392	-0.317	-0.038
-335.275	55.248	-0.051	0.049
-334.260	209.274	-0.058	0.092
-333.245	239.152	0.173	-0.291
-332.231	91.693	-0.099	0.112
-331.216	216.355	0.174	0.279
-330.202	83.446	0.116	-0.128
-329.187	158.208	0.025	-0.034
-328.172	54.034	-0.302	0.293
-327.158	720.682	-0.092	-0.247
-326.143	632.098	-0.029	-0.074
-325.129	-80.555	0.204	0.069
-324.114	387.954	0.082	0.171
-323.099	713.865	0.070	0.186
-322.085	-138.279	0.038	0.004
-321.070	-117.866	-0.059	-0.011
-320.056	-86.542	0.263	-0.081
-319.041	436.626	0.095	-0.208
-318.026	260.452	0.019	-0.034
-317.012	398.924	0.091	-0.191
-315.997	800.000	0.047	0.131
-314.983	-161.037	-0.168	-0.009
-313.968	-163.460	0.328	-0.016
-312.953	-200.000	0.013	-0.256
-311.939	-89.347	0.058	-0.017
-310.924	-93.114	-0.290	-0.081
-309.910	387.913	-0.098	0.204
-308.895	-33.787	-0.037	-0.021
-307.880	-200.000	-0.004	0.070
-306.866	771.513	0.118	0.322
-305.851	-200.000	-0.064	-0.334
-304.837	-98.993	0.264	-0.067
-303.822	-13.294	0.228	0.149
-302.807	-179.501	0.423	-0.009
-301.793	800.000	-0.104	0.311
-300.778	0.293	-0.232	0.167
-299.764	92.300	0.083	0.095
-298.749	10.568	0.174	-0.133
-297.735	-200.000	0.057	-0.260
-296.720	-200.000	0.001	-0.265
-295.705	132.061	-0.102	0.133
-294.691	111.274	0.287	0.348
-293.676	36.660	0.336	0.298
-292.662	-200.000	0.014	0.178
-291.647	-200.000	0.018	-0.137
-290.632	-137.737	0.202	-0.023
-289.618	800.000	-0.061	0.172
-288.603	408.148	-0.049	0.105
-287.589	-140.274	-0.120	-0.013
-286.574	800.000	0.144	-0.446
-285.559	800.000	0.044	-0.144
-284.545	-194.590	-0.266	0.002
-283.530	-119.606	0.302	0.052
-282.516	-200.000	0.046	0.296
-281.501	302.890	0.152	0.283
-280.486	-12.228	0.063	-0.042
-279.472	-3.155	-0.185	0.130
-278.457	283.302	0.130	-0.234
-277.443	-57.887	-0.222	-0.097
-276.428	2.715	-0.107	0.078
-275.413	-200.000	0.009	0.174
-274.399	800.000	0.076	0.258
-273.384	-126.966	-0.292	0.043
-272.370	-127.693	0.088	0.013
-271.355	-200.000	-0.023	0.130
-270.340	-97.319	0.313	-0.082
-269.326	736.401	-0.013	0.035
-268.311	303.649	0.083	-0.155
-267.297	140.682	-0.144	0.191
-266.282	-93.140	0.309	0.086
-265.267	800.000	0.088	0.317
-264.253	-72.268	-0.081	0.030
-263.238	94.497	0.166	0.190
-262.224	800.000	-0.057	0.247
-261.209	178.111	-0.034	0.049
-260.195	-158.178	0.180	0.011
-259.180	96.150	-0.248	0.285
-258.165	-200.000	0.013	0.086
-257.151	-200.000	-0.055	0.279
-256.136	139.082	-0.075	0.099
-255.122	-113.794	-0.456	-0.089
-254.107	-22.283	0.327	0.199
-253.092	-200.000	-0.004	0.249
-252.078	219.441	0.271	-0.436
-251.063	396.202	0.195	-0.409
-250.049	-200.000	-0.020	0.182
-249.034	-60.796	0.255	0.109
-248.019	800.000	0.024	-0.102
-247.005	92.363	-0.033	-0.037
-245.990	-109.147	0.320	-0.068
-244.976	-129.950	0.135	0.019
-243.961	-90.035	-0.189	-0.055
-242.946	-191.850	0.343	-0.003
-241.932	-122.765	-0.233	0.038
-240.917	117.428	0.057	0.070
-239.903	-16.474	0.030	-0.019
-238.888	-200.000	0.011	0.553
-237.873	-70.401	-0.342	-0.130
-236.859	50.272	-0.114	-0.109
-235.844	-21.529	0.109	0.067
-234.830	234.321	-0.075	-0.124
-233.815	800.000	0.054	0.186
-232.800	-2.201	0.202	0.142
-231.786	178.708	-0.076	-0.111
-230.771	-128.741	-0.479	-0.068
-229.757	-200.000	0.075	-0.335
-228.742	-35.869	-0.212	-0.115
-227.727	-118.318	0.229	-0.041
-226.713	2.879	-0.051	0.037
-225.698	649.372	-0.099	0.255
-224.684	-65.502	0.096	0.039
-223.669	136.158	-0.010	-0.013
-222.655	-42.807	-0.167	0.085
-221.640	-0.521	-0.182	0.130
-220.625	11.715	0.141	-0.109
-219.611	-200.000	0.035	-0.211
-218.596	-200.000	-0.043	-0.509
-217.582	158.416	-0.063	0.088
-216.567	764.299	-0.118	-0.322
-215.552	-156.800	0.016	-0.001
-214.538	-200.000	-0.002	-0.078
-213.523	800.000	-0.079	-0.258
-212.509	136.397	0.155	0.203
-211.494	-54.054	-0.267	0.122
-210.479	1.737	0.148	0.107
-209.465	-200.000	0.048	-0.211
-208.450	39.096	0.095	-0.085
-207.436	301.399	-0.148	0.274
-206.421	-162.554	0.257	-0.013
-205.406	-68.388	0.105	0.041
-204.392	-10.072	0.371	0.247
-203.377	171.350	0.092	0.133
-202.363	86.811	0.220	-0.243
-201.348	-92.289	-0.257	-0.073
-200.333	800.000	0.027	0.113
-199.319	-43.715	-0.126	-0.064
-198.304	-200.000	0.033	0.217
-197.290	-38.226	-0.034	-0.018
-196.275	-148.367	0.012	-0.001
-195.260	-25.844	-0.346	-0.204
-194.246	-200.000	-0.126	0.000
-193.231	238.158	0.163	0.272
-192.217	800.000	-0.091	0.339
-191.202	557.921	-0.101	-0.243
-190.187	-152.253	-0.536	0.039
-189.173	19.709	-0.067	0.054
-188.158	-132.945	-0.190	-0.024
-187.144	-103.593	-0.275	-0.065
-186.129	-18.239	0.329	0.206
-185.114	-200.000	0.004	0.044
-184.100	72.063	0.095	0.099
-183.085	-157.927	0.131	0.008
-182.071	86.650	-0.172	0.190
-181.056	800.000	-0.116	0.405
-180.042	-200.000	0.095	0.440
-179.027	372.326	0.156	0.318
-178.012	104.604	0.369	-0.435
-176.998	135.809	0.016	0.021
-175.983	-200.000	-0.042	-0.370
-174.969	-200.000	-0.083	0.396
-173.954	-200.000	0.002	0.193
-172.939	-200.000	0.011	0.052
-171.925	-127.418	0.043	-0.006
-170.910	403.569	0.078	-0.164
-169.896	-200.000	0.031	-0.184
-168.881	-77.215	0.131	0.046
-167.866	-56.590	0.113	-0.050
-166.852	82.463	0.134	-0.146
-165.837	-127.328	-0.288	0.042
-164.823	125.267	0.027	0.034
-163.808	-91.905	0.262	-0.074
-162.793	-200.000	0.002	0.069
-161.779	52.119	-0.128	-0.122
-160.764	800.000	-0.079	0.277
-159.750	143.980	-0.121	0.161
-158.735	175.921	-0.174	-0.253
-157.720	-73.036	0.295	-0.108
-156.706	284.486	-0.111	-0.200
-155.691	-165.661	0.112	-0.005
-154.677	-43.148	-0.368	-0.186
-153.662	188.158	0.058	0.087
-152.647	-45.827	0.338	-0.167
-151.633	-15.693	0.136	-0.087
-150.618	-101.111	-0.175	0.043
-149.604	171.305	-0.148	-0.212
-148.589	63.143	-0.049	-0.049
-147.574	-106.505	-0.104	0.023
-146.560	-81.678	0.211	0.069
-145.545	481.600	-0.119	0.269
-144.531	-82.820	-0.209	0.067
-143.516	-200.000	-0.015	-0.112
-142.502	-148.887	-0.137	-0.011
-141.487	241.267	-0.109	-0.182
-140.472	-2.731	-0.413	-0.289
-139.458	-120.054	0.063	-0.011
-138.443	-37.817	0.324	0.172
-137.429	-200.000	0.015	-0.129
-136.414	800.000	0.062	-0.225
-135.399	-54.110	-0.217	0.099
-134.385	97.631	0.050	0.058
-133.370	152.412	-0.079	-0.108
-132.356	9.787	-0.109	-0.083
-131.341	-134.390	-0.281	-0.034
-130.326	800.000	-0.056	-0.154
-129.312	-200.000	-0.033	0.149
-128.297	-118.226	-0.102	-0.018
-127.283	-93.860	0.161	0.044
-126.268	-200.000	-0.043	0.332
-125.253	800.000	-0.033	0.112
-124.239	-200.000	0.014	0.220
-123.224	800.000	-0.053	0.197
-122.210	800.000	0.010	0.037
-121.195	485.133	-0.148	0.336
