DTS Sentinel unit serial number:	SN413079Multiplexer serial number:	ORYXHardware model number:	OX4-SRSoftware version number:	ORYX F/W v4.00 Oryx Data Collector v3.7.2.0data status	okinstallation	princeton_trtdifferential loss correction	single-endedforward channel	channel 1reverse channel	N/Adate	2019/09/14time	19:06:35forward acquisition time	60.00reverse acquisition time	0.00gamma	496.2192k internal	0.2309k external	0.2309temperature offset calibration	1.0031default loss term (dB/km)	0.3790temperature slope calibration	1.0000multiplexer offset coefficient	1.0000multiplexer slope coefficient	1.0000fibre end	0.00T internal ref (°C)	35.44T ext. ref 1 (°C)	4.88T ext. ref 2 (°C)	29.35length (m)	temperature (°C)	Stokes	anti-Stokes-747.200	218.553	-0.128	0.208
-746.185	344.126	0.027	-0.054
-745.171	-123.455	0.269	0.043
-744.156	452.700	0.128	0.287
-743.142	-48.558	0.085	0.041
-742.127	-43.336	-0.177	0.091
-741.112	-57.944	-0.206	-0.091
-740.098	-200.000	0.027	0.583
-739.083	-121.800	0.216	-0.036
-738.069	800.000	-0.106	-0.317
-737.054	261.633	0.180	0.317
-736.039	-200.000	0.021	-0.135
-735.025	-200.000	0.009	-0.509
-734.010	-110.604	-0.087	-0.018
-732.996	162.974	-0.090	-0.128
-731.981	183.352	0.142	0.214
-730.966	215.641	0.132	-0.213
-729.952	-35.224	-0.178	0.099
-728.937	43.151	-0.316	-0.293
-727.923	589.616	0.057	-0.143
-726.908	79.448	-0.206	0.225
-725.894	-160.790	-0.278	-0.015
-724.879	-175.716	0.326	0.009
-723.864	-200.000	0.002	-0.240
-722.850	-8.031	0.079	-0.054
-721.835	-6.535	-0.076	-0.053
-720.821	67.937	0.031	0.032
-719.806	-90.097	-0.185	0.055
-718.791	-154.311	0.093	0.006
-717.777	-88.196	-0.163	-0.050
-716.762	-86.046	0.220	-0.069
-715.748	79.175	0.101	0.110
-714.733	353.371	0.117	0.236
-713.718	-200.000	0.001	0.060
-712.704	3.111	-0.119	-0.088
-711.689	-77.882	0.277	0.097
-710.675	-200.000	0.063	-0.302
-709.660	-200.000	0.061	-0.271
-708.645	553.623	0.100	-0.244
-707.631	131.406	-0.099	0.129
-706.616	-94.509	-0.542	-0.150
-705.602	-34.311	0.138	-0.077
-704.587	44.221	-0.176	-0.164
-703.572	-25.930	-0.288	0.172
-702.558	-114.066	-0.563	-0.111
-701.543	-162.670	-0.141	0.007
-700.529	-62.315	-0.354	-0.149
-699.514	74.069	0.303	-0.323
-698.499	-146.266	-0.170	0.015
-697.485	-167.379	-0.275	-0.011
-696.470	-75.841	-0.118	0.042
-695.456	-50.189	-0.284	-0.136
-694.441	757.238	0.026	0.070
-693.426	138.354	-0.150	0.200
-692.412	103.173	0.113	-0.134
-691.397	271.440	0.159	-0.283
-690.383	28.199	-0.300	0.257
-689.368	196.889	-0.039	-0.060
-688.354	49.811	0.345	-0.330
-687.339	613.128	-0.084	0.213
-686.324	-200.000	0.090	0.428
-685.310	800.000	-0.098	-0.385
-684.295	-109.146	-0.273	-0.059
-683.281	-86.230	-0.229	-0.072
-682.266	16.914	0.213	0.171
-681.251	-200.000	0.038	0.177
-680.237	129.183	0.076	0.098
-679.222	800.000	0.148	0.500
-678.208	-84.075	-0.168	0.054
-677.193	-96.178	0.296	0.079
-676.178	-40.365	0.255	-0.134
-675.164	644.945	0.066	0.170
-674.149	260.765	-0.087	0.153
-673.135	-200.000	0.060	0.282
-672.120	-27.602	0.155	-0.091
-671.105	-88.962	0.227	-0.068
-670.091	-101.614	0.084	0.021
-669.076	66.841	0.149	0.154
-668.062	800.000	0.053	-0.223
-667.047	125.611	0.080	0.102
-666.032	-133.482	-0.173	0.022
-665.018	-200.000	-0.045	-0.315
-664.003	189.170	-0.038	-0.058
-662.989	206.874	-0.085	-0.134
-661.974	-157.596	0.223	-0.014
-660.959	-200.000	0.012	-0.121
-659.945	158.410	0.156	-0.219
-658.930	-40.412	-0.243	0.128
-657.916	-31.805	-0.364	0.206
-656.901	401.602	-0.219	0.465
-655.886	4.903	-0.184	-0.137
-654.872	-71.252	-0.119	-0.045
-653.857	-111.360	-0.313	0.065
-652.843	-168.323	-0.280	0.011
-651.828	-134.400	0.126	0.016
-650.814	-200.000	-0.045	0.219
-649.799	-112.629	0.152	0.031
-648.784	24.636	-0.162	0.136
-647.770	238.136	0.059	-0.099
-646.755	453.979	-0.076	0.171
-645.741	-200.000	0.001	-0.203
-644.726	24.192	-0.289	0.241
-643.711	375.044	0.100	0.207
-642.697	-69.657	0.187	0.073
-641.682	800.000	-0.056	0.194
-640.668	-78.123	-0.415	-0.145
-639.653	-187.533	-0.253	0.003
-638.638	-23.055	-0.130	0.079
-637.624	800.000	0.033	0.120
-636.609	-71.896	0.407	-0.153
-635.595	267.206	0.035	0.061
-634.580	-200.000	-0.022	0.180
-633.565	-145.780	-0.137	0.012
-632.551	71.140	-0.053	0.055
-631.536	-69.960	0.233	0.090
-630.522	118.727	0.047	0.058
-629.507	-78.702	0.148	0.051
-628.492	-28.599	-0.196	0.114
-627.478	133.206	0.112	0.146
-626.463	46.349	-0.239	-0.224
-625.449	509.529	0.053	0.123
-624.434	-109.741	0.120	0.026
-623.419	-186.981	0.297	-0.004
-622.405	92.486	-0.215	0.245
-621.390	800.000	-0.010	0.033
-620.376	712.054	0.157	0.422
-619.361	87.504	0.312	-0.349
-618.346	-27.637	0.165	0.097
-617.332	-44.599	-0.212	0.107
-616.317	29.272	-0.035	-0.030
-615.303	-67.727	0.175	-0.069
-614.288	800.000	0.063	-0.231
-613.273	-200.000	-0.006	-0.343
-612.259	-57.650	0.153	0.068
-611.244	255.783	-0.074	0.128
-610.230	-75.352	0.370	0.134
-609.215	-32.716	0.296	0.166
-608.201	-200.000	-0.001	0.321
-607.186	13.391	-0.162	-0.127
-606.171	30.334	-0.235	0.203
-605.157	-16.893	-0.011	-0.007
-604.142	669.375	-0.047	0.124
-603.128	-154.799	0.253	-0.017
-602.113	-31.723	0.194	0.110
-601.098	-162.903	0.091	-0.004
-600.084	-39.898	0.192	-0.101
-599.069	800.000	-0.014	0.048
-598.055	20.337	0.275	0.224
-597.040	320.588	-0.009	-0.018
-596.025	-130.205	-0.216	-0.030
-595.011	-200.000	0.013	-0.173
-593.996	272.853	-0.101	-0.181
-592.982	-10.506	0.085	0.057
-591.967	-200.000	0.017	0.152
-590.952	800.000	0.131	0.562
-589.938	-160.482	-0.172	-0.009
-588.923	-32.146	0.264	-0.149
-587.909	68.765	-0.124	-0.128
-586.894	-85.586	-0.253	0.080
-585.879	-200.000	0.048	-0.263
-584.865	-3.632	0.253	-0.178
-583.850	9.971	0.061	-0.047
-582.836	-60.253	0.197	0.085
-581.821	50.283	-0.201	-0.192
-580.806	-130.630	0.155	-0.021
-579.792	366.999	-0.084	0.172
-578.777	595.893	0.046	-0.116
-577.763	-135.933	-0.354	0.042
-576.748	123.280	-0.197	0.249
-575.733	32.409	0.225	-0.196
-574.719	-89.592	-0.311	-0.092
-573.704	-178.474	-0.104	0.002
-572.690	-200.000	-0.040	0.249
-571.675	-109.068	-0.074	0.016
-570.661	-116.129	0.301	0.056
-569.646	670.579	0.053	0.139
-568.631	-200.000	-0.020	0.136
-567.617	-133.982	-0.145	-0.018
-566.602	-1.662	-0.057	0.041
-565.588	-2.830	-0.238	-0.168
-564.573	-200.000	0.017	-0.390
-563.558	42.651	-0.094	0.086
-562.544	434.602	-0.119	-0.262
-561.529	300.347	-0.038	0.071
-560.515	29.012	-0.247	-0.211
-559.500	104.858	0.294	-0.350
-558.485	278.635	0.184	-0.332
-557.471	134.804	0.076	0.099
-556.456	14.183	0.073	-0.057
-555.442	94.334	-0.134	-0.154
-554.427	800.000	-0.075	-0.276
-553.412	349.938	0.067	-0.134
-552.398	-41.023	-0.148	-0.077
-551.383	-31.454	-0.163	-0.092
-550.369	113.404	0.086	-0.106
-549.354	439.607	0.057	-0.126
-548.339	303.597	-0.170	-0.317
-547.325	-200.000	0.051	-0.315
-546.310	9.072	0.118	0.090
-545.296	-5.788	-0.303	-0.209
-544.281	-59.278	-0.263	0.114
-543.266	191.340	-0.071	-0.108
-542.252	138.694	0.156	0.206
-541.237	99.921	-0.042	0.049
-540.223	-109.452	0.086	-0.018
-539.208	-24.481	0.227	-0.136
-538.193	31.140	-0.215	-0.186
-537.179	45.569	-0.224	-0.209
-536.164	-200.000	-0.027	0.172
-535.150	200.545	-0.201	-0.312
-534.135	-45.122	-0.137	-0.069
-533.121	48.061	-0.040	0.038
-532.106	-89.174	0.113	-0.034
-531.091	-200.000	0.079	-0.362
-530.077	-168.872	-0.149	0.006
-529.062	162.986	-0.179	0.254
-528.048	710.761	0.036	0.097
-527.033	-69.761	-0.082	0.032
-526.018	-68.732	0.068	-0.026
-525.004	-51.606	-0.349	-0.164
-523.989	800.000	-0.057	0.159
-522.975	27.287	-0.220	0.186
-521.960	800.000	-0.090	0.296
-520.945	-86.824	0.163	-0.050
-519.931	-27.624	-0.133	-0.078
-518.916	150.848	0.044	-0.060
-517.902	-200.000	-0.033	0.249
-516.887	-35.369	-0.284	0.156
-515.872	-200.000	0.030	-0.199
-514.858	-86.908	0.183	-0.056
-513.843	-10.879	-0.203	-0.135
-512.829	-24.775	-0.088	0.053
-511.814	-200.000	0.005	0.125
-510.799	377.110	-0.218	0.449
-509.785	-106.505	0.273	0.061
-508.770	-83.139	-0.176	0.057
-507.756	-107.766	-0.067	-0.015
-506.741	-200.000	0.072	0.000
-505.726	-161.351	0.122	0.006
-504.712	-200.000	0.016	0.115
-503.697	322.708	-0.009	-0.018
-502.683	-200.000	-0.029	0.173
-501.668	-150.383	0.157	-0.012
-500.653	115.003	0.248	0.304
-499.639	23.513	-0.055	-0.046
-498.624	54.031	0.062	0.060
-497.610	800.000	-0.092	0.381
-496.595	344.305	-0.049	0.097
-495.581	398.543	0.062	-0.130
-494.566	-55.872	0.149	-0.067
-493.551	-55.535	0.086	0.039
-492.537	-50.868	-0.126	0.060
-491.522	326.310	0.050	-0.097
-490.508	284.000	0.049	0.089
-489.493	458.851	0.141	-0.315
-488.478	800.000	-0.030	-0.093
-487.464	800.000	-0.052	-0.168
-486.449	-109.463	0.206	0.044
-485.435	-163.258	-0.160	-0.008
-484.420	800.000	-0.118	-0.367
-483.405	-43.092	-0.395	-0.201
-482.391	800.000	0.073	0.320
-481.376	-200.000	0.010	-0.048
-480.362	205.593	0.193	0.301
-479.347	800.000	0.026	0.079
-478.332	78.457	0.185	-0.199
-477.318	-200.000	-0.023	-0.486
-476.303	-17.121	0.196	0.124
-475.289	-14.800	-0.182	0.117
-474.274	54.803	0.161	-0.156
-473.259	-122.600	-0.250	-0.041
-472.245	800.000	-0.096	-0.389
-471.230	97.049	0.286	-0.329
-470.216	-148.382	-0.148	-0.012
-469.201	-177.588	0.115	-0.003
-468.186	800.000	-0.041	0.158
-467.172	-79.638	0.080	-0.027
-466.157	560.460	-0.106	-0.257
-465.143	114.400	-0.152	0.187
-464.128	-178.100	-0.346	-0.008
-463.113	141.293	-0.114	-0.152
-462.099	66.923	0.086	0.088
-461.084	-93.353	-0.264	0.073
-460.070	800.000	0.095	-0.300
-459.055	134.197	0.139	-0.181
-458.040	-200.000	0.008	0.200
-457.026	-120.346	0.101	-0.017
-456.011	-91.945	0.075	0.021
-454.997	-47.594	0.248	-0.121
-453.982	59.326	-0.307	0.303
-452.968	727.775	0.095	-0.255
-451.953	509.127	0.163	-0.381
-450.938	-200.000	0.018	-0.128
-449.924	211.992	0.217	0.343
-448.909	13.717	-0.088	-0.069
-447.895	-200.000	0.029	-0.163
-446.880	-200.000	0.030	-0.226
-445.865	-200.000	0.032	0.217
-444.851	207.637	-0.103	0.161
-443.836	-61.805	-0.337	-0.142
-442.822	28.990	0.155	-0.132
-441.807	58.041	-0.166	0.163
-440.792	225.109	-0.082	-0.134
-439.778	183.775	-0.095	-0.141
-438.763	-123.917	-0.146	-0.023
-437.749	93.452	0.127	0.144
-436.734	-169.114	-0.525	0.020
-435.719	-52.677	0.392	-0.181
-434.705	74.361	0.046	-0.049
-433.690	-124.071	0.208	-0.033
-432.676	302.056	-0.113	-0.209
-431.661	-40.272	-0.037	-0.019
-430.646	-37.098	0.111	0.060
-429.632	-45.672	0.248	0.123
-428.617	-200.000	-0.017	0.172
-427.603	800.000	0.075	0.306
-426.588	-101.335	0.258	0.063
-425.573	275.813	-0.065	0.115
-424.559	495.764	-0.109	0.252
-423.544	-118.188	-0.122	0.022
-422.530	456.591	0.077	-0.172
-421.515	-107.100	0.207	-0.046
-420.500	-21.798	0.378	0.231
-419.486	4.444	-0.018	-0.013
-418.471	800.000	-0.085	-0.313
-417.457	-144.728	-0.070	-0.006
-416.442	321.586	0.103	0.197
-415.428	766.008	-0.042	0.115
-414.413	-44.870	-0.087	0.044
-413.398	695.722	0.139	0.367
-412.384	-151.205	-0.194	-0.015
-411.369	-83.852	0.309	0.099
-410.355	800.000	-0.076	-0.254
-409.340	-200.000	-0.004	-0.354
-408.325	-163.801	0.139	0.007
-407.311	403.367	0.082	-0.173
-406.296	-8.923	-0.058	-0.039
-405.282	-3.956	0.036	-0.025
-404.267	-74.714	-0.080	0.029
-403.252	-112.492	-0.123	-0.025
-402.238	-67.318	-0.298	-0.118
-401.223	-25.019	0.088	-0.052
-400.209	-200.000	-0.004	0.076
-399.194	-10.085	-0.131	0.087
-398.179	-5.842	0.314	0.216
-397.165	63.107	0.093	0.093
-396.150	-200.000	0.003	-0.225
-395.136	-48.886	-0.247	-0.119
-394.121	-20.146	0.074	0.046
-393.106	-94.796	-0.210	0.057
-392.092	-59.221	0.191	-0.083
-391.077	-200.000	-0.009	-0.042
-390.063	-36.713	-0.062	0.033
-389.048	95.824	0.130	-0.149
-388.033	15.360	-0.317	-0.249
-387.019	-29.947	-0.121	-0.069
-386.004	-200.000	0.020	0.133
-384.990	-24.503	0.494	0.295
-383.975	-14.685	-0.099	0.064
-382.960	-21.330	-0.165	-0.101
-381.946	-29.211	-0.313	0.179
-380.931	-124.808	-0.125	0.019
-379.917	21.577	0.091	0.075
-378.902	-136.658	0.265	0.031
-377.888	800.000	0.095	-0.306
-376.873	-200.000	-0.028	-0.178
-375.858	69.094	0.222	-0.229
-374.844	-200.000	-0.067	-0.355
-373.829	-174.117	-0.264	0.008
-372.815	-200.000	-0.001	-0.088
-371.800	800.000	-0.094	-0.295
-370.785	-96.361	-0.094	-0.025
-369.771	-23.261	0.201	-0.121
-368.756	220.988	-0.109	-0.176
-367.742	-4.049	0.167	-0.116
-366.727	505.567	-0.171	-0.396
-365.712	125.263	0.130	-0.164
-364.698	-31.917	-0.350	-0.196
-363.683	24.350	-0.267	0.221
-362.669	-173.704	0.221	-0.007
-361.654	800.000	-0.081	0.228
-360.639	800.000	0.066	0.191
-359.625	46.757	-0.068	-0.063
-358.610	53.234	0.153	0.147
-357.596	383.774	0.072	0.148
-356.581	-3.003	-0.117	-0.082
-355.566	-178.883	0.059	0.001
-354.552	441.075	-0.040	-0.087
-353.537	-47.279	-0.234	-0.114
-352.523	46.051	-0.132	-0.122
-351.508	-36.271	-0.172	-0.093
-350.493	800.000	0.061	0.193
-349.479	-200.000	-0.057	-0.251
-348.464	66.771	0.078	-0.080
-347.450	177.328	-0.134	0.196
-346.435	536.825	-0.079	0.187
-345.420	-81.081	-0.104	-0.034
-344.406	-89.288	0.474	-0.140
-343.391	106.570	0.183	-0.217
-342.377	-127.533	-0.193	-0.028
-341.362	-61.886	-0.137	0.057
-340.348	-81.663	-0.279	-0.092
-339.333	25.077	-0.148	0.123
-338.318	-165.622	0.122	-0.005
-337.304	-163.233	-0.384	-0.018
-336.289	62.872	-0.093	0.093
-335.275	-98.019	0.145	0.037
-334.260	-200.000	0.003	0.307
-333.245	125.844	-0.025	-0.031
-332.231	296.772	0.068	-0.125
-331.216	800.000	-0.084	0.352
-330.202	-200.000	0.001	0.028
-329.187	66.454	-0.055	0.056
-328.172	-200.000	-0.006	0.110
-327.158	-89.611	0.325	0.095
-326.143	449.036	0.062	-0.136
-325.129	-200.000	0.020	0.140
-324.114	503.657	-0.179	0.413
-323.099	-96.339	0.132	0.035
-322.085	271.862	0.130	0.229
-321.070	-95.328	0.150	-0.040
-320.056	-200.000	0.005	0.361
-319.041	-200.000	-0.011	0.230
-318.026	-75.106	-0.273	-0.097
-317.012	30.608	-0.395	-0.338
-315.997	29.309	0.245	0.208
-314.983	185.109	-0.204	0.302
-313.968	-4.809	0.200	-0.138
-312.953	-144.553	0.162	-0.015
-311.939	-11.216	0.193	0.127
-310.924	54.519	-0.128	-0.123
-309.910	230.830	0.041	0.067
-308.895	644.513	-0.073	0.185
-307.880	117.163	0.205	-0.251
-306.866	-200.000	0.015	0.069
-305.851	-84.721	0.285	0.090
-304.837	82.692	-0.171	0.185
-303.822	-84.895	0.088	-0.028
-302.807	143.672	0.102	0.136
-301.793	15.995	0.254	0.200
-300.778	-62.222	-0.192	-0.080
-299.764	-200.000	-0.008	-0.052
-298.749	298.702	0.084	0.154
-297.735	-200.000	-0.061	0.414
-296.720	-27.771	0.291	0.169
-295.705	-126.670	0.151	0.022
-294.691	800.000	-0.086	-0.239
-293.676	342.135	-0.033	-0.065
-292.662	52.884	-0.158	0.151
-291.647	41.138	0.117	-0.106
-290.632	800.000	-0.072	-0.272
-289.618	-89.062	0.169	-0.050
-288.603	-24.989	-0.128	-0.076
-287.589	45.424	0.053	-0.049
-286.574	-200.000	0.002	0.292
-285.559	800.000	-0.105	-0.328
-284.545	50.579	0.154	-0.145
-283.530	800.000	-0.080	-0.314
-282.516	234.133	0.032	0.053
-281.501	-132.467	0.239	0.031
-280.486	275.818	-0.039	0.069
-279.472	-2.416	0.262	0.183
-278.457	-14.228	0.265	0.170
-277.443	164.134	0.112	-0.157
-276.428	-109.190	-0.303	-0.064
-275.413	303.129	-0.072	-0.132
-274.399	-179.746	0.152	-0.003
-273.384	-200.000	-0.047	-0.348
-272.370	-200.000	-0.053	0.323
-271.355	-200.000	0.007	0.122
-270.340	67.158	0.124	0.126
-269.326	-200.000	0.041	0.236
-268.311	217.238	-0.058	0.093
-267.297	231.593	0.186	0.303
-266.282	232.858	0.115	0.189
-265.267	-9.884	-0.120	0.080
-264.253	-27.327	-0.238	0.138
-263.238	-200.000	0.079	-0.555
-262.224	-157.424	0.017	-0.001
-261.209	-200.000	0.004	0.136
-260.195	-81.026	0.213	0.070
-259.180	218.204	0.009	-0.015
-258.165	-97.654	-0.181	-0.047
-257.151	89.663	0.230	0.256
-256.136	65.781	0.103	-0.104
-255.122	11.051	-0.045	0.035
-254.107	800.000	-0.069	-0.239
-253.092	198.908	0.088	-0.134
-252.078	800.000	0.050	0.174
-251.063	-66.097	0.304	0.121
-250.049	-32.583	-0.271	0.150
-249.034	800.000	0.146	0.454
-248.019	-86.908	0.120	0.037
-247.005	51.199	-0.127	-0.120
-245.990	800.000	0.056	0.237
-244.976	64.093	0.161	-0.162
-243.961	-180.259	-0.235	-0.005
-242.946	52.165	0.172	0.164
-241.932	-1.054	0.116	-0.082
-240.917	-200.000	-0.011	0.190
-239.903	278.392	-0.102	0.182
-238.888	-5.838	0.095	0.065
-237.873	-67.330	-0.235	0.092
-236.859	-69.977	-0.379	-0.144
-235.844	-2.359	0.222	0.155
-234.830	-200.000	0.024	-0.161
-233.815	33.457	0.180	-0.156
-232.800	-84.638	-0.229	-0.072
-231.786	800.000	-0.046	-0.185
-230.771	198.561	0.168	-0.257
-229.757	-200.000	-0.015	0.078
-228.742	17.430	-0.020	0.016
-227.727	10.267	0.129	0.098
-226.713	-8.013	0.167	-0.112
-225.698	-0.264	-0.339	-0.240
-224.684	-18.351	-0.093	-0.058
-223.669	-97.982	-0.294	-0.075
-222.655	119.025	-0.072	0.089
-221.640	63.613	0.222	-0.222
-220.625	108.811	-0.178	-0.212
-219.611	800.000	0.063	-0.239
-218.596	-40.514	-0.333	-0.172
-217.582	-4.754	0.125	-0.086
-216.567	-127.106	0.235	0.034
-215.552	800.000	0.074	0.227
-214.538	-147.323	0.549	-0.046
-213.523	-50.510	0.357	-0.167
-212.509	374.066	0.109	-0.220
-211.494	-149.808	0.493	0.038
-210.479	-79.050	-0.175	0.059
-209.465	-143.966	0.070	0.007
-208.450	800.000	0.052	0.191
-207.436	800.000	0.064	0.198
-206.421	-167.299	-0.520	-0.021
-205.406	-95.945	-0.247	0.065
-204.392	-93.271	0.119	-0.033
-203.377	-85.643	0.155	-0.048
-202.363	35.517	-0.240	-0.209
-201.348	229.317	-0.185	0.300
-200.333	-55.670	-0.025	0.011
-199.319	-88.372	-0.293	-0.087
-198.304	64.172	-0.063	0.063
-197.290	-200.000	0.004	-0.040
-196.275	-200.000	0.017	-0.109
-195.260	-200.000	0.083	0.000
-194.246	-200.000	-0.026	-0.176
-193.231	-200.000	0.007	-0.108
-192.217	98.335	-0.170	-0.194
-191.202	124.764	-0.092	0.115
-190.187	-141.613	-0.112	-0.011
-189.173	578.909	0.076	0.186
-188.158	-120.180	0.184	-0.031
-187.144	190.735	0.161	0.241
-186.129	129.323	0.237	0.301
-185.114	2.453	0.133	-0.096
-184.100	197.575	-0.137	-0.208
-183.085	-99.283	0.243	0.061
-182.071	800.000	-0.072	0.291
-181.056	-126.307	0.042	0.006
-180.042	257.724	0.042	-0.072
-179.027	-148.227	-0.454	-0.037
-178.012	-60.824	0.015	0.006
-176.998	-92.734	0.162	0.045
-175.983	-88.475	0.147	0.044
-174.969	-200.000	-0.026	-0.193
-173.954	-58.652	-0.211	0.091
-172.939	-200.000	-0.030	-0.250
-171.925	-115.586	-0.130	-0.024
-170.910	-200.000	0.036	0.240
-169.896	121.372	-0.013	0.017
-168.881	-200.000	0.001	0.226
-167.866	-38.553	-0.318	0.167
-166.852	58.276	0.216	0.210
-165.837	-189.995	0.019	0.000
-164.823	-121.225	0.316	0.052
-163.808	-200.000	0.001	-0.515
-162.793	161.714	0.047	-0.066
-161.779	25.946	0.055	-0.045
-160.764	-24.852	0.136	0.080
-159.750	-154.992	-0.263	-0.017
-158.735	800.000	-0.114	0.427
-157.720	-200.000	0.064	0.439
-156.706	-30.368	-0.183	0.103
-155.691	36.212	-0.098	0.086
-154.677	-41.768	0.157	-0.080
-153.662	360.280	0.110	-0.219
-152.647	67.768	-0.231	-0.234
-151.633	298.719	0.033	-0.060
-150.618	-197.653	0.122	-0.001
-149.604	-116.776	-0.044	0.008
-148.589	-62.290	0.106	0.044
-147.574	-200.000	-0.003	0.200
-146.560	-104.434	-0.020	-0.005
-145.545	-152.135	0.325	-0.023
-144.531	-100.196	0.381	0.094
-143.516	-83.907	-0.186	-0.059
-142.502	534.149	-0.188	0.442
-141.487	-78.677	0.065	0.022
-140.472	31.710	0.063	0.054
-139.458	-109.429	0.254	0.053
-138.443	-200.000	-0.022	0.396
-137.429	800.000	0.045	0.154
-136.414	-28.811	-0.313	0.178
-135.399	282.794	0.119	0.212
-134.385	-109.535	0.242	0.051
-133.370	151.727	-0.113	-0.153
-132.356	-38.120	-0.076	-0.040
-131.341	84.934	-0.053	0.058
-130.326	19.063	0.182	0.145
-129.312	142.792	0.037	0.049
-128.297	-137.599	-0.470	-0.053
-127.283	205.339	-0.129	0.199
-126.268	-134.013	-0.092	-0.011
-125.253	800.000	-0.057	0.201
-124.239	-79.447	-0.072	0.024
-123.224	-53.273	0.230	-0.105
-122.210	-156.481	0.137	-0.008
-121.195	34.163	-0.246	0.212
-120.180	-200.000	-0.045	0.380
