DTS Sentinel unit serial number:	SN413079Multiplexer serial number:	ORYXHardware model number:	OX4-SRSoftware version number:	ORYX F/W v4.00 Oryx Data Collector v3.7.2.0data status	okinstallation	princeton_trtdifferential loss correction	single-endedforward channel	channel 1reverse channel	N/Adate	2019/09/19time	02:22:35forward acquisition time	60.00reverse acquisition time	0.00gamma	496.2192k internal	0.2344k external	0.2344temperature offset calibration	1.0020default loss term (dB/km)	0.3790temperature slope calibration	1.0000multiplexer offset coefficient	1.0000multiplexer slope coefficient	1.0000fibre end	0.00T internal ref (°C)	21.06T ext. ref 1 (°C)	0.68T ext. ref 2 (°C)	14.69length (m)	temperature (°C)	Stokes	anti-Stokes-747.200	217.003	0.170	-0.271
-746.185	-65.908	-0.353	-0.141
-745.171	-122.261	0.193	-0.032
-744.156	-52.627	0.400	-0.185
-743.142	-69.574	0.211	-0.081
-742.127	-77.395	-0.256	-0.089
-741.112	21.361	-0.105	0.086
-740.098	99.834	-0.382	0.443
-739.083	-132.775	0.362	-0.046
-738.069	-126.532	-0.264	0.039
-737.054	800.000	-0.010	0.029
-736.039	-20.879	-0.329	-0.202
-735.025	-149.164	0.284	0.023
-734.010	43.901	0.090	-0.082
-732.996	-126.131	0.229	0.034
-731.981	-104.162	-0.212	0.049
-730.966	-110.021	-0.147	-0.031
-729.952	-72.671	0.044	0.016
-728.937	800.000	-0.125	-0.376
-727.923	-53.004	0.149	0.068
-726.908	-138.435	-0.498	-0.055
-725.894	-162.304	-0.287	-0.014
-724.879	-165.088	-0.357	-0.016
-723.864	369.080	0.179	-0.362
-722.850	800.000	-0.074	-0.209
-721.835	-25.744	0.134	0.079
-720.821	103.267	-0.082	0.097
-719.806	-162.212	-0.070	0.003
-718.791	-152.489	0.218	0.016
-717.777	-33.337	-0.081	-0.045
-716.762	-70.390	0.115	-0.043
-715.748	-200.000	0.012	-0.185
-714.733	53.487	-0.334	-0.321
-713.718	-37.458	0.141	0.075
-712.704	-20.543	-0.182	0.112
-711.689	-72.831	-0.068	0.025
-710.675	-3.114	0.093	0.065
-709.660	-61.569	-0.319	-0.134
-708.645	-200.000	-0.021	-0.121
-707.631	43.224	-0.221	0.201
-706.616	-20.210	0.198	-0.122
-705.602	-117.461	-0.579	-0.105
-704.587	-77.736	-0.140	-0.048
-703.572	185.385	-0.151	-0.224
-702.558	-90.989	0.188	-0.054
-701.543	-122.763	0.198	-0.032
-700.529	283.711	0.058	-0.104
-699.514	113.758	0.280	-0.340
-698.499	-88.325	-0.475	0.142
-697.485	-200.000	0.030	0.220
-696.470	321.196	-0.047	-0.088
-695.456	-40.580	0.313	0.162
-694.441	103.912	-0.038	0.045
-693.426	-36.962	-0.491	-0.263
-692.412	-200.000	-0.010	0.366
-691.397	472.031	0.063	0.143
-690.383	129.565	-0.217	-0.277
-689.368	-13.253	0.094	-0.061
-688.354	28.526	0.100	-0.084
-687.339	-200.000	0.028	-0.174
-686.324	-200.000	0.006	-0.413
-685.310	-106.799	-0.180	0.040
-684.295	98.694	-0.159	-0.184
-683.281	800.000	-0.050	0.153
-682.266	-200.000	0.002	0.229
-681.251	329.632	-0.034	-0.065
-680.237	-85.104	-0.191	-0.060
-679.222	-200.000	-0.054	0.242
-678.208	-200.000	-0.019	-0.153
-677.193	-0.335	-0.169	0.120
-676.178	-139.536	-0.167	-0.018
-675.164	584.037	0.097	0.239
-674.149	501.704	-0.200	-0.460
-673.135	800.000	-0.057	0.164
-672.120	157.899	-0.145	0.200
-671.105	120.824	-0.208	-0.258
-670.091	-200.000	0.009	0.591
-669.076	-57.928	-0.307	0.134
-668.062	-116.238	-0.070	-0.013
-667.047	-30.914	-0.163	0.092
-666.032	-200.000	-0.044	-0.282
-665.018	-77.814	-0.187	-0.064
-664.003	-200.000	-0.057	-0.258
-662.989	-11.341	-0.142	-0.093
-661.974	-46.859	-0.068	0.033
-660.959	86.581	0.301	-0.331
-659.945	-23.848	-0.110	-0.066
-658.930	-164.805	-0.240	-0.011
-657.916	-200.000	0.016	-0.236
-656.901	-2.332	0.311	-0.218
-655.886	-111.766	0.130	-0.026
-654.872	-200.000	-0.019	0.190
-653.857	741.642	0.149	0.399
-652.843	-30.058	-0.057	0.033
-651.828	800.000	0.060	-0.228
-650.814	800.000	0.061	-0.258
-649.799	800.000	-0.136	0.400
-648.784	39.411	0.174	0.156
-647.770	-123.208	-0.289	-0.046
-646.755	-27.076	-0.443	-0.257
-645.741	34.486	0.173	-0.150
-644.726	-84.720	-0.140	-0.044
-643.711	43.110	0.200	-0.182
-642.697	800.000	0.093	0.269
-641.682	-186.517	-0.289	-0.004
-640.668	-200.000	0.056	-0.303
-639.653	-176.919	0.108	0.003
-638.638	103.580	0.068	-0.079
-637.624	-142.486	0.204	0.020
-636.609	-89.120	0.145	-0.043
-635.595	70.846	0.174	-0.179
-634.580	115.249	-0.045	-0.055
-633.565	390.045	-0.061	0.125
-632.551	-200.000	0.033	0.226
-631.536	112.468	0.098	-0.119
-630.522	165.209	0.085	0.119
-629.507	-200.000	0.007	-0.176
-628.492	-7.095	-0.125	-0.085
-627.478	395.754	-0.039	0.082
-626.463	256.921	-0.165	0.283
-625.449	-122.144	-0.094	0.015
-624.434	800.000	-0.093	-0.382
-623.419	-15.341	-0.188	0.120
-622.405	-97.872	0.132	-0.034
-621.390	16.313	-0.070	0.055
-620.376	105.251	-0.320	0.377
-619.361	800.000	0.122	-0.366
-618.346	86.898	0.063	0.069
-617.332	-200.000	-0.005	0.128
-616.317	224.228	-0.150	-0.242
-615.303	800.000	-0.095	-0.367
-614.288	-200.000	-0.049	0.308
-613.273	277.491	-0.141	-0.249
-612.259	419.167	0.114	-0.243
-611.244	274.498	0.221	-0.390
-610.230	-132.324	-0.412	0.053
-609.215	-17.378	-0.145	0.091
-608.201	-78.767	-0.115	0.039
-607.186	88.078	0.100	-0.111
-606.171	-200.000	0.033	-0.162
-605.157	224.693	0.061	-0.099
-604.142	3.370	0.039	0.028
-603.128	-159.430	-0.213	-0.012
-602.113	123.639	-0.057	-0.071
-601.098	-4.421	-0.180	-0.124
-600.084	648.324	0.075	-0.190
-599.069	321.703	-0.260	-0.492
-598.055	524.685	-0.103	-0.241
-597.040	-200.000	0.069	-0.312
-596.025	346.976	0.093	-0.181
-595.011	-33.922	0.145	-0.079
-593.996	800.000	0.103	-0.314
-592.982	-200.000	0.001	-0.081
-591.967	800.000	-0.015	0.050
-590.952	-200.000	-0.005	0.145
-589.938	106.172	-0.065	0.076
-588.923	31.382	-0.062	-0.053
-587.909	-12.551	-0.320	-0.208
-586.894	-13.232	-0.304	0.196
-585.879	-91.793	-0.394	-0.111
-584.865	-75.447	-0.202	0.072
-583.850	800.000	0.045	-0.139
-582.836	-89.022	-0.209	-0.061
-581.821	-24.619	-0.354	-0.209
-580.806	800.000	0.070	-0.294
-579.792	-137.211	-0.171	-0.019
-578.777	648.943	-0.220	0.559
-577.763	-89.527	0.270	0.079
-576.748	800.000	0.106	0.322
-575.733	-50.414	0.175	0.082
-574.719	-200.000	-0.018	-0.336
-573.704	189.065	-0.109	0.163
-572.690	-117.671	-0.207	-0.037
-571.675	16.431	0.196	-0.154
-570.661	-200.000	-0.006	0.053
-569.646	-90.057	-0.454	-0.132
-568.631	56.964	-0.194	-0.188
-567.617	-23.991	-0.100	0.059
-566.602	-43.802	0.226	0.113
-565.588	-102.926	-0.198	-0.047
-564.573	-200.000	-0.017	-0.074
-563.558	683.470	0.025	-0.065
-562.544	-53.917	-0.110	-0.050
-561.529	332.640	0.042	0.081
-560.515	625.258	-0.101	0.254
-559.500	-37.280	0.119	-0.063
-558.485	222.048	0.137	0.219
-557.471	-35.429	0.061	-0.033
-556.456	-200.000	-0.028	-0.224
-555.442	-159.826	-0.417	0.023
-554.427	-113.107	-0.222	-0.043
-553.412	161.724	0.269	0.374
-552.398	192.140	0.098	0.147
-551.383	-169.547	0.256	-0.009
-550.369	-101.697	0.217	-0.052
-549.354	315.227	0.125	-0.235
-548.339	-200.000	-0.021	-0.124
-547.325	172.378	0.205	-0.293
-546.310	-107.692	-0.257	0.056
-545.296	208.339	0.213	0.330
-544.281	114.244	0.350	-0.423
-543.266	701.099	-0.006	0.015
-542.252	46.888	0.134	-0.124
-541.237	16.064	0.135	0.105
-540.223	265.886	-0.141	-0.244
-539.208	800.000	0.134	-0.475
-538.193	-129.535	0.168	0.023
-537.179	-12.623	0.263	-0.171
-536.164	-195.451	0.228	0.002
-535.150	-10.773	-0.333	-0.219
-534.135	13.592	-0.104	-0.080
-533.121	800.000	-0.063	0.230
-532.106	-65.630	-0.443	-0.176
-531.091	-200.000	0.015	-0.244
-530.077	274.316	-0.008	0.014
-529.062	-200.000	-0.015	-0.108
-528.048	800.000	0.079	-0.242
-527.033	499.277	0.055	-0.127
-526.018	-71.532	-0.237	0.088
-525.004	272.573	-0.066	-0.116
-523.989	460.912	-0.050	0.110
-522.975	-32.503	-0.112	0.062
-521.960	312.398	-0.129	-0.241
-520.945	-127.126	-0.126	-0.018
-519.931	49.014	0.176	0.164
-518.916	-200.000	0.056	0.272
-517.902	-161.479	0.301	-0.015
-516.887	-200.000	0.024	0.195
-515.872	-115.389	0.060	0.011
-514.858	800.000	0.080	-0.254
-513.843	-93.939	0.334	0.091
-512.829	29.494	-0.261	0.220
-511.814	130.286	0.030	-0.038
-510.799	-2.952	-0.176	-0.122
-509.785	-3.810	-0.159	-0.109
-508.770	3.316	0.311	-0.224
-507.756	-125.454	0.183	-0.028
-506.741	800.000	-0.070	0.305
-505.726	21.710	0.114	-0.092
-504.712	-121.331	-0.241	-0.040
-503.697	-135.689	-0.403	0.047
-502.683	-146.844	0.515	0.044
-501.668	800.000	0.056	0.172
-500.653	664.393	0.081	0.208
-499.639	-150.461	-0.085	-0.006
-498.624	-200.000	0.006	-0.186
-497.610	-152.984	0.263	-0.018
-496.595	64.010	-0.061	0.061
-495.581	73.593	0.114	-0.119
-494.566	-200.000	0.009	-0.188
-493.551	800.000	-0.078	-0.253
-492.537	10.461	-0.035	0.026
-491.522	800.000	0.026	0.079
-490.508	619.060	-0.058	0.144
-489.493	-94.449	0.359	-0.097
-488.478	-45.392	-0.111	0.054
-487.464	-124.964	0.199	0.030
-486.449	-200.000	-0.046	0.203
-485.435	178.392	0.106	0.153
-484.420	196.326	0.092	-0.139
-483.405	-111.765	-0.329	-0.066
-482.391	-46.076	-0.291	0.142
-481.376	517.843	0.059	0.136
-480.362	-7.551	-0.042	0.028
-479.347	58.880	-0.214	-0.208
-478.332	19.421	-0.122	0.097
-477.318	47.417	0.039	0.036
-476.303	370.519	0.084	0.168
-475.289	800.000	0.027	0.086
-474.274	800.000	-0.037	-0.130
-473.259	36.919	-0.176	0.154
-472.245	-200.000	0.020	-0.131
-471.230	115.334	-0.218	-0.263
-470.216	-200.000	0.006	0.153
-469.201	-32.091	0.047	0.026
-468.186	60.742	0.269	-0.264
-467.172	-135.264	0.321	-0.038
-466.157	-144.539	0.069	0.006
-465.143	800.000	0.042	0.135
-464.128	483.071	0.050	-0.114
-463.113	-101.320	-0.235	0.057
-462.099	-148.800	-0.236	0.019
-461.084	-60.704	0.190	-0.080
-460.070	-115.724	-0.233	0.043
-459.055	-200.000	0.033	0.455
-458.040	-81.977	-0.182	0.059
-457.026	417.807	0.143	-0.302
-456.011	-10.821	-0.321	-0.210
-454.997	-34.366	-0.332	0.180
-453.982	-72.564	-0.380	-0.139
-452.968	141.720	-0.121	0.159
-451.953	270.899	-0.072	0.126
-450.938	181.497	0.210	0.306
-449.924	59.863	0.197	0.192
-448.909	-200.000	-0.021	0.228
-447.895	152.658	0.282	0.381
-446.880	-200.000	0.010	0.128
-445.865	-87.899	-0.186	-0.055
-444.851	-47.532	-0.127	-0.061
-443.836	-141.131	-0.104	-0.010
-442.822	-200.000	0.047	-0.397
-441.807	-124.524	0.240	-0.037
-440.792	56.408	-0.265	-0.255
-439.778	-121.676	0.152	-0.025
-438.763	-200.000	-0.010	-0.207
-437.749	-47.458	-0.250	-0.120
-436.734	244.161	-0.249	0.414
-435.719	800.000	-0.021	-0.060
-434.705	-67.895	-0.235	-0.091
-433.690	-86.782	-0.023	0.007
-432.676	800.000	-0.041	-0.143
-431.661	-200.000	0.003	0.217
-430.646	754.182	-0.102	0.272
-429.632	-76.441	0.174	0.061
-428.617	-61.833	0.415	-0.172
-427.603	-200.000	-0.108	-0.471
-426.588	800.000	0.065	0.259
-425.573	122.186	0.221	0.272
-424.559	442.462	-0.080	-0.172
-423.544	-10.554	0.250	-0.163
-422.530	-82.061	-0.249	0.080
-421.515	800.000	0.074	-0.225
-420.500	661.094	0.102	0.260
-419.486	-66.386	0.140	0.055
-418.471	50.310	0.103	0.096
-417.457	-182.275	0.262	0.005
-416.442	-200.000	-0.009	-0.125
-415.428	75.044	0.280	-0.291
-414.413	133.371	0.065	0.083
-413.398	-58.341	-0.159	-0.068
-412.384	-58.392	0.280	0.120
-411.369	-200.000	0.041	-0.255
-410.355	-149.124	-0.239	-0.019
-409.340	-136.784	-0.161	-0.018
-408.325	-123.827	-0.243	0.038
-407.311	-141.182	-0.343	-0.035
-406.296	-130.217	0.182	-0.024
-405.282	-24.741	-0.108	-0.063
-404.267	800.000	0.042	0.131
-403.252	198.963	0.304	0.460
-402.238	-200.000	-0.024	0.229
-401.223	-200.000	-0.010	-0.199
-400.209	-33.254	-0.216	0.118
-399.194	-148.261	0.267	-0.022
-398.179	-54.225	-0.238	0.107
-397.165	800.000	-0.031	-0.108
-396.150	100.372	0.053	-0.061
-395.136	5.598	0.301	0.219
-394.121	278.940	0.284	0.499
-393.106	6.355	-0.253	0.186
-392.092	274.253	-0.010	-0.017
-391.077	-10.861	-0.222	0.145
-390.063	800.000	-0.111	0.310
-389.048	301.832	0.148	-0.270
-388.033	74.872	-0.201	-0.209
-387.019	119.432	0.239	0.291
-386.004	-7.955	0.125	-0.083
-384.990	117.896	0.159	-0.194
-383.975	-92.541	-0.127	0.035
-382.960	-124.018	0.202	-0.031
-381.946	374.423	-0.160	0.321
-380.931	171.612	-0.062	0.088
-379.917	238.030	0.144	0.236
-378.902	-115.616	-0.321	0.059
-377.888	1.223	-0.353	0.250
-376.873	-32.309	0.483	0.266
-375.858	800.000	-0.100	0.336
-374.844	-78.655	-0.130	-0.044
-373.829	-200.000	-0.001	-0.148
-372.815	-200.000	-0.010	-0.184
-371.800	-43.318	-0.204	0.102
-370.785	-200.000	-0.015	0.235
-369.771	-200.000	0.024	-0.227
-368.756	-75.407	0.138	0.048
-367.742	-129.822	0.336	-0.046
-366.727	9.210	0.170	-0.127
-365.712	223.593	0.094	-0.150
-364.698	-42.231	-0.256	0.129
-363.683	-122.877	0.342	-0.054
-362.669	-200.000	0.028	0.268
-361.654	-200.000	-0.042	0.244
-360.639	112.658	-0.086	0.103
-359.625	-44.974	0.153	0.075
-358.610	123.173	-0.074	-0.092
-357.596	-145.280	-0.303	-0.027
-356.581	-68.789	-0.195	0.074
-355.566	21.151	0.036	0.029
-354.552	-104.889	-0.209	-0.047
-353.537	170.657	0.116	0.164
-352.523	800.000	0.217	0.642
-351.508	89.273	0.152	-0.167
-350.493	3.440	-0.064	0.046
-349.479	103.372	-0.172	0.199
-348.464	9.281	0.110	-0.082
-347.450	-200.000	-0.053	-0.302
-346.435	-94.291	0.264	-0.071
-345.420	-17.954	-0.184	0.114
-344.406	220.473	-0.052	0.082
-343.391	-146.791	-0.257	0.022
-342.377	31.940	-0.221	0.188
-341.362	800.000	-0.075	-0.223
-340.348	-153.049	-0.344	0.024
-339.333	615.333	0.056	0.137
-338.318	-158.517	0.325	-0.018
-337.304	-18.863	0.359	0.220
-336.289	-200.000	0.032	-0.244
-335.275	-200.000	0.036	0.160
-334.260	101.456	0.121	-0.139
-333.245	-200.000	0.091	-0.428
-332.231	63.327	0.055	-0.054
-331.216	609.402	-0.098	-0.240
-330.202	-49.414	-0.300	-0.141
-329.187	-128.703	-0.349	-0.048
-328.172	-90.184	-0.279	0.080
-327.158	-61.700	0.116	0.048
-326.143	800.000	-0.142	-0.413
-325.129	196.427	0.056	0.085
-324.114	-200.000	-0.032	0.329
-323.099	-9.375	-0.107	-0.071
-322.085	-200.000	0.014	0.171
-321.070	129.294	-0.181	-0.227
-320.056	-145.854	0.182	-0.016
-319.041	-200.000	-0.010	0.049
-318.026	-92.341	0.542	0.150
-317.012	-46.302	0.252	-0.122
-315.997	-48.518	0.463	0.219
-314.983	62.592	-0.271	-0.266
-313.968	117.442	0.084	-0.102
-312.953	484.137	0.170	0.380
-311.939	-151.666	0.363	0.026
-310.924	740.551	-0.119	-0.315
-309.910	-200.000	0.009	0.159
-308.895	-24.969	0.113	0.066
-307.880	-60.109	0.089	-0.037
-306.866	82.851	0.122	-0.131
-305.851	496.791	0.089	-0.201
-304.837	111.583	-0.052	-0.062
-303.822	-200.000	0.018	-0.116
-302.807	-123.963	-0.396	0.061
-301.793	151.752	-0.112	-0.150
-300.778	196.171	-0.012	0.017
-299.764	-141.429	0.160	-0.016
-298.749	800.000	-0.064	0.198
-297.735	-118.627	-0.071	-0.012
-296.720	-113.240	-0.078	-0.015
-295.705	-30.683	0.102	0.057
-294.691	-200.000	0.066	0.364
-293.676	-20.281	-0.131	-0.079
-292.662	-116.020	-0.129	0.024
-291.647	800.000	0.107	0.341
-290.632	0.617	0.076	0.053
-289.618	203.051	-0.070	0.107
-288.603	231.705	0.131	-0.211
-287.589	-200.000	-0.016	-0.177
-286.574	783.292	0.195	0.525
-285.559	-44.323	-0.107	0.053
-284.545	800.000	0.081	-0.303
-283.530	-102.225	0.027	-0.006
-282.516	-200.000	0.033	-0.238
-281.501	800.000	0.048	-0.139
-280.486	317.555	0.089	0.165
-279.472	377.000	-0.038	0.076
-278.457	-120.502	0.048	0.008
-277.443	-200.000	0.014	0.080
-276.428	49.802	-0.113	0.105
-275.413	800.000	-0.085	0.247
-274.399	-0.006	0.118	-0.083
-273.384	-44.694	0.197	-0.097
-272.370	-200.000	-0.001	-0.014
-271.355	-105.509	-0.193	0.043
-270.340	-66.661	-0.071	-0.028
-269.326	418.545	0.100	0.211
-268.311	-42.564	0.244	0.122
-267.297	-78.267	0.165	-0.056
-266.282	163.033	0.231	0.319
-265.267	679.855	-0.070	0.180
-264.253	-200.000	0.008	0.161
-263.238	-200.000	-0.041	-0.234
-262.224	800.000	0.025	-0.079
-261.209	800.000	-0.047	0.135
-260.195	-113.592	-0.081	-0.016
-259.180	65.981	0.250	0.249
-258.165	88.328	0.301	0.328
-257.151	-93.330	0.043	-0.012
-256.136	800.000	0.050	0.201
-255.122	-41.907	0.066	-0.033
-254.107	627.756	0.130	-0.323
-253.092	610.354	-0.062	0.152
-252.078	-190.531	0.284	0.003
-251.063	-200.000	0.094	0.458
-250.049	-112.764	0.245	-0.048
-249.034	-124.583	0.254	0.039
-248.019	-200.000	0.055	-0.398
-247.005	19.814	-0.134	-0.106
-245.990	-200.000	-0.029	0.274
-244.976	-145.434	-0.357	-0.032
-243.961	-105.204	-0.377	-0.084
-242.946	-97.293	0.094	0.024
-241.932	72.182	0.213	-0.218
-240.917	-24.562	0.041	0.024
-239.903	0.891	0.168	-0.118
-238.888	-139.736	-0.203	0.021
-237.873	-200.000	0.022	-0.293
-236.859	-200.000	-0.008	-0.150
-235.844	137.255	-0.292	0.374
-234.830	4.802	-0.164	-0.118
-233.815	397.870	0.076	0.156
-232.800	97.902	-0.115	0.130
-231.786	195.268	-0.011	0.016
-230.771	32.617	-0.120	-0.102
-229.757	460.112	0.073	0.159
-228.742	-30.769	-0.117	0.065
-227.727	361.462	-0.090	-0.178
-226.713	-156.965	0.098	-0.006
-225.698	-146.900	0.147	-0.012
-224.684	-200.000	-0.001	-0.082
-223.669	-200.000	0.016	-0.073
-222.655	-85.872	0.160	0.048
-221.640	-147.733	0.265	-0.022
-220.625	347.645	-0.109	-0.210
-219.611	-200.000	0.030	0.213
-218.596	-200.000	0.027	-0.251
-217.582	-30.921	0.320	-0.177
-216.567	17.619	-0.321	-0.250
-215.552	800.000	-0.086	0.320
-214.538	-3.414	0.026	0.017
-213.523	-200.000	0.010	0.049
-212.509	800.000	-0.023	-0.094
-211.494	-89.739	0.247	-0.071
-210.479	-75.534	0.105	-0.036
-209.465	182.263	-0.045	0.064
-208.450	-200.000	0.018	-0.197
-207.436	137.186	0.063	0.081
-206.421	192.250	0.071	0.104
-205.406	800.000	0.047	0.132
-204.392	-90.898	-0.332	0.094
-203.377	-45.624	0.200	-0.097
-202.363	793.721	0.109	0.293
-201.348	-134.309	-0.368	0.044
-200.333	800.000	-0.035	0.145
-199.319	182.463	0.049	0.070
-198.304	-120.994	0.332	-0.055
-197.290	-146.703	0.034	0.003
-196.275	-53.398	0.122	0.055
-195.260	124.708	-0.079	0.098
-194.246	800.000	0.074	0.224
-193.231	0.146	0.122	0.085
-192.217	-38.134	0.239	-0.124
-191.202	74.805	-0.101	-0.104
-190.187	396.994	0.080	0.165
-189.173	94.471	0.103	-0.115
-188.158	42.273	-0.122	0.108
-187.144	-132.379	-0.329	-0.042
-186.129	486.870	0.092	0.206
-185.114	-65.842	0.182	-0.071
-184.100	-126.669	-0.128	-0.019
-183.085	375.841	-0.030	-0.060
-182.071	800.000	-0.063	-0.222
-181.056	-64.788	-0.304	0.120
-180.042	509.932	-0.048	0.109
-179.027	208.149	0.111	0.170
-178.012	-112.235	0.030	-0.006
-176.998	-200.000	0.061	0.288
-175.983	-60.503	-0.088	0.037
-174.969	-136.109	0.141	0.016
-173.954	-168.224	0.127	-0.005
-172.939	-200.000	0.016	-0.155
-171.925	-61.918	0.186	0.076
-170.910	33.294	0.204	-0.173
-169.896	800.000	0.049	-0.180
-168.881	-28.183	-0.294	-0.166
-167.866	-42.782	0.147	-0.073
-166.852	-71.705	0.035	0.013
-165.837	-200.000	0.046	0.278
-164.823	-200.000	-0.027	0.122
-163.808	317.202	0.181	0.335
-162.793	443.104	-0.078	-0.167
-161.779	-40.374	-0.343	0.174
-160.764	-57.087	0.130	0.056
-159.750	86.999	-0.139	0.151
-158.735	178.420	0.133	-0.190
-157.720	-200.000	0.061	-0.410
-156.706	383.253	0.013	-0.026
-155.691	103.529	-0.319	-0.366
-154.677	339.851	0.065	0.123
-153.662	137.192	0.196	-0.250
-152.647	-200.000	0.040	-0.243
-151.633	170.659	-0.033	0.047
-150.618	730.715	0.181	0.473
-149.604	-46.401	-0.168	-0.081
-148.589	-49.541	0.257	-0.120
-147.574	-200.000	0.015	-0.157
-146.560	51.758	-0.358	0.333
-145.545	165.902	0.154	0.213
-144.531	-32.476	0.218	-0.119
-143.516	-83.384	0.213	-0.067
-142.502	161.283	0.173	-0.236
-141.487	-2.351	0.090	-0.062
-140.472	-60.719	0.246	0.102
-139.458	800.000	0.054	-0.198
-138.443	800.000	0.047	0.129
-137.429	65.143	0.201	-0.199
-136.414	121.501	0.061	0.074
-135.399	2.266	-0.296	0.209
-134.385	-21.416	-0.036	-0.021
-133.370	800.000	0.042	0.153
-132.356	-4.772	0.250	-0.169
-131.341	800.000	-0.049	0.145
-130.326	-5.479	0.206	0.138
-129.312	-114.191	0.012	-0.002
-128.297	800.000	-0.073	0.223
-127.283	-200.000	0.019	0.287
-126.268	-200.000	-0.032	-0.179
-125.253	44.635	0.090	0.081
-124.239	79.544	0.200	0.210
-123.224	-100.700	0.078	0.019
-122.210	-145.552	-0.084	-0.007
