DTS Sentinel unit serial number:	SN413079Multiplexer serial number:	ORYXHardware model number:	OX4-SRSoftware version number:	ORYX F/W v4.00 Oryx Data Collector v3.7.2.0data status	okinstallation	princeton_trtdifferential loss correction	single-endedforward channel	channel 1reverse channel	N/Adate	2019/09/18time	20:14:35forward acquisition time	60.00reverse acquisition time	0.00gamma	496.2192k internal	0.2331k external	0.2331temperature offset calibration	1.0029default loss term (dB/km)	0.3790temperature slope calibration	1.0000multiplexer offset coefficient	1.0000multiplexer slope coefficient	1.0000fibre end	0.00T internal ref (°C)	29.33T ext. ref 1 (°C)	0.87T ext. ref 2 (°C)	19.86length (m)	temperature (°C)	Stokes	anti-Stokes-747.200	800.000	0.079	-0.249
-746.185	-200.000	-0.035	0.251
-745.171	1.594	0.148	-0.108
-744.156	92.913	-0.281	0.319
-743.142	-22.246	-0.208	-0.127
-742.127	-55.100	0.098	-0.044
-741.112	45.702	-0.155	0.145
-740.098	-13.864	-0.355	0.231
-739.083	522.045	0.087	-0.206
-738.069	23.899	0.010	0.008
-737.054	-160.029	-0.156	0.009
-736.039	13.612	-0.204	0.160
-735.025	-200.000	0.062	0.349
-734.010	433.805	-0.036	0.078
-732.996	-74.681	-0.128	-0.046
-731.981	-119.452	0.055	0.010
-730.966	-67.071	-0.221	0.088
-729.952	-200.000	-0.098	-0.667
-728.937	-155.021	-0.327	-0.022
-727.923	-28.988	-0.139	-0.081
-726.908	-75.710	-0.108	-0.038
-725.894	53.621	-0.153	-0.147
-724.879	107.820	0.181	-0.216
-723.864	-56.792	0.176	0.078
-722.850	248.874	-0.120	0.205
-721.835	138.476	-0.086	-0.114
-720.821	-98.005	0.424	0.110
-719.806	-152.879	0.113	-0.008
-718.791	127.410	0.241	-0.307
-717.777	-7.968	-0.119	-0.081
-716.762	-200.000	-0.010	0.246
-715.748	-200.000	-0.019	0.350
-714.733	373.292	0.144	0.294
-713.718	-87.324	0.129	-0.039
-712.704	-161.330	-0.233	0.012
-711.689	-200.000	-0.009	-0.454
-710.675	-200.000	0.007	-0.188
-709.660	67.084	-0.243	0.249
-708.645	189.234	0.097	0.147
-707.631	110.798	0.149	-0.181
-706.616	90.488	-0.279	-0.314
-705.602	723.900	0.104	-0.278
-704.587	-42.598	0.212	0.108
-703.572	-56.223	0.283	-0.126
-702.558	-6.678	0.370	0.253
-701.543	58.431	0.160	-0.158
-700.529	204.229	-0.056	-0.087
-699.514	-200.000	-0.013	-0.219
-698.499	-65.069	-0.340	0.138
-697.485	26.195	0.153	-0.129
-696.470	7.152	-0.226	0.169
-695.456	89.820	-0.153	-0.171
-694.441	-62.416	0.285	-0.119
-693.426	-17.303	0.155	-0.098
-692.412	1.076	-0.423	0.305
-691.397	-143.274	-0.211	0.020
-690.383	-4.812	0.165	0.114
-689.368	60.856	-0.251	-0.250
-688.354	-200.000	-0.039	0.175
-687.339	-42.172	0.043	-0.022
-686.324	729.747	0.046	-0.122
-685.310	370.870	-0.134	0.273
-684.295	-18.743	0.235	0.147
-683.281	-26.908	-0.274	0.160
-682.266	-100.040	0.192	0.048
-681.251	800.000	-0.053	0.208
-680.237	-38.874	-0.072	0.038
-679.222	63.769	0.088	0.089
-678.208	-101.368	0.117	0.029
-677.193	-125.251	0.066	0.010
-676.178	-110.739	0.286	0.059
-675.164	-40.052	-0.145	-0.076
-674.149	68.688	0.117	-0.120
-673.135	-116.413	-0.125	0.023
-672.120	-200.000	0.013	0.195
-671.105	118.339	0.106	-0.131
-670.091	-200.000	-0.018	0.222
-669.076	159.096	-0.138	-0.192
-668.062	289.427	-0.048	0.088
-667.047	21.972	0.048	-0.039
-666.032	7.305	-0.163	-0.122
-665.018	288.033	-0.120	0.219
-664.003	-52.788	-0.412	0.191
-662.989	72.515	0.111	-0.116
-661.974	635.378	0.062	-0.158
-660.959	-200.000	-0.061	-0.391
-659.945	-89.787	-0.044	0.013
-658.930	-131.761	0.107	0.014
-657.916	-38.327	-0.246	0.131
-656.901	-200.000	0.013	0.269
-655.886	334.631	-0.135	-0.262
-654.872	213.491	0.122	-0.193
-653.857	-168.020	-0.237	0.009
-652.843	-200.000	0.000	-0.085
-651.828	444.281	-0.010	-0.022
-650.814	-199.943	0.097	-0.000
-649.799	200.359	0.134	-0.206
-648.784	-125.915	-0.182	0.027
-647.770	800.000	-0.108	-0.387
-646.755	441.161	-0.054	-0.118
-645.741	-143.338	-0.297	-0.029
-644.726	689.872	0.119	-0.312
-643.711	-28.623	0.095	-0.055
-642.697	683.748	-0.075	0.195
-641.682	265.487	-0.203	-0.355
-640.668	800.000	-0.044	-0.179
-639.653	-86.495	0.047	0.014
-638.638	195.960	0.145	0.221
-637.624	-166.646	-0.266	0.011
-636.609	-138.349	-0.188	0.021
-635.595	800.000	0.067	0.232
-634.580	-3.719	-0.091	0.063
-633.565	-200.000	-0.011	-0.166
-632.551	-46.460	0.202	-0.099
-631.536	-200.000	-0.018	-0.112
-630.522	369.749	-0.064	0.129
-629.507	-23.761	-0.005	-0.003
-628.492	800.000	-0.025	-0.079
-627.478	-113.457	-0.199	-0.039
-626.463	186.026	0.161	-0.239
-625.449	29.898	0.192	0.164
-624.434	123.488	0.087	-0.110
-623.419	-14.936	-0.171	0.110
-622.405	800.000	0.051	0.162
-621.390	-102.391	-0.169	-0.040
-620.376	-97.013	0.219	-0.057
-619.361	-173.743	0.077	-0.002
-618.346	285.845	-0.009	0.016
-617.332	116.700	-0.172	-0.212
-616.317	-200.000	0.034	0.244
-615.303	-127.662	0.193	0.028
-614.288	-200.000	0.081	-0.391
-613.273	10.531	0.158	-0.120
-612.259	-40.883	-0.055	-0.029
-611.244	158.389	0.116	0.161
-610.230	78.702	-0.017	-0.018
-609.215	-131.832	-0.183	0.024
-608.201	181.120	-0.121	-0.178
-607.186	-86.235	-0.293	-0.090
-606.171	-31.843	-0.010	-0.006
-605.157	306.250	-0.062	0.115
-604.142	-23.071	-0.145	0.088
-603.128	-68.449	0.122	-0.047
-602.113	800.000	-0.051	-0.212
-601.098	35.092	0.200	0.175
-600.084	40.933	0.139	-0.125
-599.069	800.000	-0.008	-0.027
-598.055	-200.000	-0.074	0.366
-597.040	800.000	0.023	0.084
-596.025	269.783	-0.121	-0.212
-595.011	-74.737	0.053	-0.019
-593.996	-68.204	0.248	-0.096
-592.982	-1.003	-0.086	-0.061
-591.967	90.483	0.085	-0.095
-590.952	0.954	-0.223	-0.160
-589.938	800.000	-0.039	0.160
-588.923	-79.181	-0.108	-0.037
-587.909	-68.421	-0.269	0.104
-586.894	170.640	0.136	-0.195
-585.879	-125.895	-0.124	0.019
-584.865	436.737	0.188	-0.409
-583.850	-12.418	0.072	0.047
-582.836	-25.290	-0.220	0.130
-581.821	-6.257	-0.386	0.263
-580.806	-101.747	0.176	0.043
-579.792	-154.422	0.108	0.007
-578.777	800.000	0.076	0.321
-577.763	71.717	-0.211	0.219
-576.748	-56.014	0.197	-0.088
-575.733	-200.000	-0.010	0.058
-574.719	800.000	-0.051	-0.198
-573.704	-200.000	0.004	0.095
-572.690	82.542	0.105	-0.114
-571.675	368.248	-0.072	-0.145
-570.661	-200.000	0.077	-0.432
-569.646	-200.000	-0.002	-0.075
-568.631	-152.574	0.248	-0.018
-567.617	-113.725	0.174	-0.034
-566.602	-200.000	-0.015	0.079
-565.588	-98.873	0.266	-0.067
-564.573	-7.659	0.171	-0.115
-563.558	54.468	0.243	0.234
-562.544	137.090	-0.177	-0.232
-561.529	50.640	0.048	-0.045
-560.515	-55.280	-0.209	-0.094
-559.500	-113.843	0.266	0.052
-558.485	-200.000	0.065	0.305
-557.471	244.249	-0.256	0.430
-556.456	-200.000	0.012	-0.175
-555.442	-200.000	0.052	-0.261
-554.427	-0.693	0.181	0.128
-553.412	-8.516	-0.139	-0.094
-552.398	237.993	-0.204	0.337
-551.383	800.000	-0.009	0.032
-550.369	-0.188	0.211	0.150
-549.354	171.240	-0.313	0.448
-548.339	22.443	-0.199	0.163
-547.325	800.000	0.049	0.210
-546.310	-175.183	0.110	-0.003
-545.296	291.078	0.158	-0.287
-544.281	-103.001	-0.283	0.067
-543.266	-200.000	0.030	-0.226
-542.252	-130.763	-0.146	-0.020
-541.237	101.690	0.068	0.079
-540.223	-143.464	-0.256	-0.024
-539.208	800.000	-0.051	0.214
-538.193	359.816	-0.080	-0.160
-537.179	-200.000	0.022	0.145
-536.164	-200.000	-0.008	0.233
-535.150	6.374	0.101	0.075
-534.135	18.564	-0.078	0.062
-533.121	-200.000	0.011	0.075
-532.106	800.000	-0.035	-0.123
-531.091	-200.000	-0.041	-0.278
-530.077	-13.839	0.534	0.344
-529.062	731.074	0.116	0.310
-528.048	84.969	-0.126	0.138
-527.033	-1.005	0.294	-0.207
-526.018	-27.755	0.240	0.139
-525.004	-80.547	-0.079	-0.026
-523.989	-26.588	-0.083	-0.048
-522.975	513.990	-0.124	-0.289
-521.960	-161.968	-0.296	-0.015
-520.945	395.769	0.123	-0.256
-519.931	-67.861	0.142	0.055
-518.916	168.732	-0.135	-0.192
-517.902	152.965	0.105	0.143
-516.887	-200.000	-0.029	-0.353
-515.872	-105.766	-0.102	-0.023
-514.858	-34.179	0.403	-0.221
-513.843	-200.000	-0.011	-0.048
-512.829	-5.276	-0.022	-0.015
-511.814	151.714	-0.106	0.144
-510.799	-6.241	0.308	0.210
-509.785	-37.939	-0.258	-0.137
-508.770	-200.000	0.008	-0.312
-507.756	47.510	0.091	0.085
-506.741	800.000	-0.059	-0.254
-505.726	184.423	0.086	0.127
-504.712	-136.705	0.191	-0.022
-503.697	-147.172	0.291	0.025
-502.683	800.000	-0.071	0.255
-501.668	800.000	-0.163	0.468
-500.653	176.677	-0.145	0.210
-499.639	-94.390	-0.110	0.030
-498.624	-200.000	0.014	-0.167
-497.610	-200.000	0.032	-0.141
-496.595	-200.000	-0.008	0.093
-495.581	800.000	0.095	-0.283
-494.566	-200.000	0.049	-0.398
-493.551	-200.000	0.014	0.204
-492.537	-47.096	-0.464	0.226
-491.522	461.031	-0.173	0.385
-490.508	-83.397	-0.286	-0.091
-489.493	-95.952	0.166	-0.044
-488.478	-108.655	0.152	-0.033
-487.464	531.861	-0.040	0.094
-486.449	800.000	-0.057	-0.167
-485.435	-200.000	-0.011	-0.136
-484.420	15.168	-0.225	-0.176
-483.405	65.922	-0.259	0.262
-482.391	-61.627	-0.191	-0.080
-481.376	-200.000	0.025	0.267
-480.362	-200.000	0.043	-0.353
-479.347	-75.038	0.177	0.063
-478.332	800.000	-0.059	-0.178
-477.318	-200.000	-0.014	-0.284
-476.303	-92.559	-0.253	-0.071
-475.289	-28.157	-0.201	-0.116
-474.274	-200.000	0.004	-0.248
-473.259	-76.492	0.068	0.024
-472.245	55.535	-0.130	0.125
-471.230	-53.025	-0.170	0.078
-470.216	-197.392	-0.149	-0.001
-469.201	-121.505	0.186	0.031
-468.186	-21.010	-0.124	-0.076
-467.172	-168.026	-0.186	0.007
-466.157	7.887	-0.130	-0.097
-465.143	-132.547	0.190	0.024
-464.128	210.671	0.246	-0.384
-463.113	-43.483	0.137	-0.069
-462.099	400.427	-0.074	0.153
-461.084	34.810	0.104	0.090
-460.070	2.733	0.042	-0.031
-459.055	-109.077	0.243	0.051
-458.040	533.525	0.055	-0.130
-457.026	-17.193	-0.293	-0.184
-456.011	82.433	0.162	0.174
-454.997	-200.000	-0.004	-0.175
-453.982	-200.000	0.002	-0.157
-452.968	71.962	-0.154	-0.160
-451.953	-28.769	-0.275	-0.157
-450.938	-200.000	0.012	-0.163
-449.924	-200.000	0.025	0.191
-448.909	-55.028	0.328	-0.147
-447.895	-175.565	0.043	0.001
-446.880	41.326	0.225	0.203
-445.865	-137.275	0.512	0.058
-444.851	-121.368	0.307	0.051
-443.836	-123.119	-0.245	0.039
-442.822	-86.327	-0.092	-0.028
-441.807	-200.000	0.043	0.397
-440.792	-3.625	0.133	-0.092
-439.778	-30.826	-0.258	-0.145
-438.763	800.000	-0.064	0.269
-437.749	-121.835	-0.025	-0.004
-436.734	-200.000	-0.020	-0.181
-435.719	230.378	0.109	-0.176
-434.705	16.719	0.155	-0.122
-433.690	-200.000	-0.046	-0.286
-432.676	65.022	-0.301	-0.303
-431.661	-98.943	0.305	0.077
-430.646	14.963	0.240	-0.187
-429.632	487.277	-0.111	0.251
-428.617	-95.497	-0.063	0.017
-427.603	800.000	-0.058	-0.200
-426.588	-32.506	0.323	0.179
-425.573	-82.207	0.276	-0.089
-424.559	76.715	0.092	0.097
-423.544	79.578	0.207	-0.220
-422.530	58.781	-0.117	-0.114
-421.515	-124.171	0.238	-0.037
-420.500	165.077	-0.114	0.160
-419.486	-200.000	0.005	-0.175
-418.471	33.817	0.170	0.147
-417.457	-33.721	-0.081	0.044
-416.442	-32.199	0.064	0.035
-415.428	63.213	-0.099	-0.098
-414.413	91.180	0.245	0.273
-413.398	284.935	0.129	0.231
-412.384	-85.265	0.253	0.079
-411.369	800.000	-0.073	-0.218
-410.355	280.869	-0.018	0.032
-409.340	559.562	-0.091	0.218
-408.325	800.000	-0.034	-0.108
-407.311	137.323	-0.076	-0.099
-406.296	176.253	0.049	-0.071
-405.282	255.221	-0.065	0.110
-404.267	-185.075	0.147	-0.002
-403.252	-200.000	-0.030	-0.176
-402.238	211.169	-0.104	0.162
-401.223	242.711	0.164	0.273
-400.209	-94.806	-0.412	-0.111
-399.194	-83.985	0.125	0.039
-398.179	37.909	-0.200	0.176
-397.165	13.013	-0.052	0.040
-396.150	146.310	-0.109	-0.145
-395.136	7.038	-0.276	0.204
-394.121	800.000	-0.052	0.170
-393.106	20.927	0.111	-0.090
-392.092	21.073	0.086	-0.069
-391.077	-200.000	0.036	0.233
-390.063	138.001	0.164	0.214
-389.048	251.923	-0.105	-0.178
-388.033	-49.501	-0.194	0.092
-387.019	307.290	-0.064	0.118
-386.004	-93.972	-0.268	0.073
-384.990	-200.000	0.051	-0.232
-383.975	-200.000	0.022	-0.176
-382.960	-8.074	0.275	-0.184
-381.946	-53.681	0.103	0.047
-380.931	-200.000	-0.034	0.490
-379.917	-169.060	-0.083	0.003
-378.902	-141.272	0.057	0.006
-377.888	-200.000	-0.042	-0.258
-376.873	800.000	0.129	-0.422
-375.858	-46.506	0.302	-0.147
-374.844	-72.848	-0.108	-0.039
-373.829	159.147	0.110	-0.152
-372.815	343.798	0.220	0.428
-371.800	123.581	-0.151	-0.188
-370.785	-20.369	0.378	-0.231
-369.771	800.000	-0.122	-0.416
-368.756	186.163	0.133	0.196
-367.742	-200.000	-0.006	-0.200
-366.727	-26.652	-0.277	-0.161
-365.712	-190.423	-0.336	-0.004
-364.698	-60.206	-0.221	-0.093
-363.683	800.000	0.035	0.102
-362.669	176.151	0.023	-0.033
-361.654	27.143	0.262	-0.218
-360.639	-15.348	0.100	-0.064
-359.625	-160.452	-0.174	-0.009
-358.610	-200.000	-0.058	0.364
-357.596	-200.000	0.002	0.214
-356.581	6.721	-0.393	-0.290
-355.566	284.987	-0.079	-0.141
-354.552	129.575	0.072	-0.091
-353.537	45.233	-0.424	0.388
-352.523	-93.530	0.410	0.112
-351.508	-122.228	0.062	0.010
-350.493	-200.000	-0.078	0.370
-349.479	49.345	0.095	0.088
-348.464	-136.441	-0.227	0.026
-347.450	-167.860	0.173	-0.007
-346.435	120.794	-0.229	0.282
-345.420	800.000	0.090	0.301
-344.406	156.883	-0.067	0.092
-343.391	58.915	0.122	0.119
-342.377	91.544	0.097	0.108
-341.362	64.988	0.151	-0.152
-340.348	471.661	-0.070	0.155
-339.333	-111.202	-0.179	-0.036
-338.318	-200.000	-0.059	-0.349
-337.304	-73.520	-0.274	0.099
-336.289	29.271	0.108	-0.091
-335.275	262.485	0.190	-0.327
-334.260	-161.983	0.209	-0.010
-333.245	-132.933	-0.279	-0.035
-332.231	149.220	0.115	-0.154
-331.216	-58.264	0.131	-0.057
-330.202	-200.000	0.030	0.218
-329.187	-166.744	-0.368	-0.015
-328.172	-17.290	0.030	0.019
-327.158	782.039	0.053	0.144
-326.143	-47.561	0.206	-0.099
-325.129	800.000	-0.074	0.228
-324.114	-8.608	-0.224	0.149
-323.099	800.000	-0.036	0.142
-322.085	15.583	0.143	0.111
-321.070	105.939	0.103	-0.121
-320.056	20.885	-0.225	0.181
-319.041	106.264	0.225	-0.264
-318.026	-128.070	-0.303	0.043
-317.012	-23.665	0.165	0.098
-315.997	-200.000	0.002	0.103
-314.983	-186.921	-0.221	-0.003
-313.968	-36.383	0.069	-0.037
-312.953	-176.456	-0.299	0.008
-311.939	265.206	0.244	-0.421
-310.924	370.088	-0.089	0.179
-309.910	-200.000	-0.025	0.146
-308.895	-200.000	0.006	0.208
-307.880	35.483	0.124	0.108
-306.866	-134.770	0.202	0.024
-305.851	-103.389	-0.215	-0.050
-304.837	74.908	-0.020	0.021
-303.822	283.974	-0.213	0.379
-302.807	-200.000	-0.004	-0.241
-301.793	9.078	-0.197	-0.147
-300.778	-91.485	0.306	0.086
-299.764	800.000	-0.123	0.357
-298.749	-200.000	0.007	0.087
-297.735	-117.050	-0.307	-0.055
-296.720	-200.000	0.010	-0.090
-295.705	800.000	0.049	-0.211
-294.691	-61.746	0.224	0.093
-293.676	-136.589	-0.218	-0.025
-292.662	1.303	0.290	-0.206
-291.647	-200.000	-0.015	0.140
-290.632	149.026	-0.074	0.099
-289.618	98.175	-0.086	0.098
-288.603	438.306	-0.118	-0.255
-287.589	-149.888	-0.128	0.010
-286.574	-151.527	0.187	-0.014
-285.559	-86.493	0.172	-0.052
-284.545	185.126	-0.095	0.139
-283.530	207.724	0.135	0.208
-282.516	-100.287	-0.318	0.078
-281.501	102.056	-0.113	0.131
-280.486	198.728	-0.140	0.212
-279.472	-200.000	-0.011	0.142
-278.457	-125.029	0.178	-0.027
-277.443	111.020	0.287	0.342
-276.428	-200.000	-0.016	-0.106
-275.413	684.452	-0.056	0.145
-274.399	-200.000	0.008	0.331
-273.384	517.425	-0.200	0.463
-272.370	291.872	0.020	0.036
-271.355	-146.713	0.265	0.023
-270.340	-10.075	0.178	0.117
-269.326	-200.000	-0.053	0.253
-268.311	-200.000	-0.018	0.174
-267.297	115.940	0.330	-0.399
-266.282	-19.927	-0.249	-0.152
-265.267	-200.000	-0.052	0.319
-264.253	-200.000	0.005	-0.272
-263.238	-55.654	0.174	-0.077
-262.224	6.181	0.189	-0.138
-261.209	78.062	-0.095	-0.100
-260.195	-8.405	0.166	0.110
-259.180	-200.000	0.003	-0.053
-258.165	-200.000	0.049	-0.282
-257.151	489.582	0.063	-0.143
-256.136	230.441	0.182	0.295
-255.122	-200.000	-0.024	-0.147
-254.107	-174.626	-0.183	0.005
-253.092	361.051	-0.099	0.195
-252.078	800.000	0.093	0.350
-251.063	-73.511	-0.127	0.046
-250.049	120.675	0.131	-0.161
-249.034	-117.333	-0.165	0.030
-248.019	463.173	0.029	0.063
-247.005	138.722	0.190	-0.246
-245.990	-143.787	-0.053	-0.005
-244.976	800.000	-0.042	0.153
-243.961	-15.998	0.065	0.041
-242.946	83.211	0.214	0.230
-241.932	-200.000	0.018	-0.248
-240.917	-99.791	0.270	0.067
-239.903	-49.539	0.304	-0.143
-238.888	800.000	0.085	0.315
-237.873	-106.157	0.161	0.036
-236.859	71.687	0.136	0.139
-235.844	-133.761	0.141	-0.017
-234.830	-0.974	0.141	0.099
-233.815	-82.855	-0.210	-0.067
-232.800	-123.670	-0.219	0.034
-231.786	-13.180	-0.125	0.080
-230.771	44.867	-0.041	0.037
-229.757	800.000	-0.128	-0.412
-228.742	639.731	0.143	0.358
-227.727	-94.082	-0.300	0.081
-226.713	-112.028	-0.141	0.028
-225.698	800.000	0.071	0.259
-224.684	-76.691	0.155	0.054
-223.669	-200.000	0.015	-0.097
-222.655	-130.722	-0.235	0.031
-221.640	800.000	0.022	-0.095
-220.625	-152.418	-0.188	0.013
-219.611	-107.892	-0.094	-0.020
-218.596	159.656	0.077	-0.105
-217.582	184.967	-0.175	-0.256
-216.567	-51.949	0.292	-0.134
-215.552	-105.829	-0.282	0.063
-214.538	489.917	-0.154	-0.348
-213.523	11.288	0.046	-0.035
-212.509	-200.000	-0.032	-0.183
-211.494	-91.878	-0.375	-0.105
-210.479	-146.680	-0.180	0.015
-209.465	800.000	-0.056	-0.170
-208.450	29.016	0.173	0.144
-207.436	-200.000	0.066	0.320
-206.421	-200.000	-0.010	0.096
-205.406	240.448	0.087	-0.142
-204.392	24.956	-0.110	-0.090
-203.377	-200.000	0.014	0.083
-202.363	774.553	0.085	0.229
-201.348	-165.333	0.280	0.012
-200.333	54.561	-0.266	0.253
-199.319	800.000	0.014	0.054
-198.304	800.000	0.118	-0.402
-197.290	800.000	0.068	0.214
-196.275	-200.000	0.010	0.220
-195.260	21.662	0.273	0.219
-194.246	77.241	-0.174	-0.182
-193.231	53.935	0.015	0.014
-192.217	170.280	0.097	0.137
-191.202	-97.232	-0.241	0.062
-190.187	91.595	0.137	0.152
-189.173	-90.714	0.229	-0.065
-188.158	2.540	0.327	0.233
-187.144	58.356	-0.227	-0.219
-186.129	104.435	0.088	-0.102
-185.114	133.188	-0.107	0.136
-184.100	-119.992	-0.123	-0.021
-183.085	-200.000	0.031	-0.315
-182.071	-200.000	0.046	-0.287
-181.056	800.000	0.056	-0.221
-180.042	800.000	-0.082	-0.284
-179.027	35.230	0.057	0.049
-178.012	800.000	0.018	-0.070
-176.998	187.958	0.069	0.101
-175.983	800.000	0.105	-0.305
-174.969	-51.492	0.281	0.129
-173.954	204.599	0.128	0.196
-172.939	238.468	0.120	-0.196
-171.925	-200.000	-0.013	0.099
-170.910	800.000	0.045	0.157
-169.896	123.819	0.060	0.074
-168.881	340.025	0.065	0.125
-167.866	-46.670	0.302	0.145
-166.852	226.162	-0.253	0.404
-165.837	191.761	-0.144	-0.214
-164.823	-200.000	-0.082	-0.411
-163.808	-10.888	-0.052	-0.034
-162.793	-46.567	-0.266	-0.128
-161.779	122.421	0.072	-0.088
-160.764	-33.733	-0.205	0.111
-159.750	156.166	0.233	-0.317
-158.735	117.123	0.297	0.359
-157.720	-200.000	-0.041	-0.453
-156.706	-200.000	-0.001	0.015
-155.691	6.997	-0.318	0.233
-154.677	800.000	0.049	-0.132
-153.662	277.106	-0.165	0.288
-152.647	-47.602	-0.046	-0.022
-151.633	-61.567	-0.269	-0.111
-150.618	131.931	0.169	0.213
-149.604	99.042	-0.166	-0.189
-148.589	510.992	0.117	-0.267
-147.574	184.476	-0.055	0.080
-146.560	5.200	-0.260	0.189
-145.545	-109.881	0.288	0.059
-144.531	-200.000	0.004	0.335
-143.516	277.806	-0.095	-0.166
-142.502	-200.000	0.002	-0.058
-141.487	-144.604	0.123	-0.011
-140.472	-200.000	0.004	0.126
-139.458	-93.543	0.046	0.013
-138.443	156.635	-0.049	0.067
-137.429	106.285	0.139	0.162
-136.414	123.213	-0.379	-0.467
-135.399	48.145	-0.169	0.156
-134.385	800.000	0.034	-0.141
-133.370	-200.000	0.045	-0.228
-132.356	-200.000	0.257	-0.001
-131.341	-95.266	-0.288	0.076
-130.326	-84.608	0.169	-0.052
-129.312	-119.115	-0.177	0.030
-128.297	-82.992	-0.200	0.063
-127.283	352.708	0.120	-0.234
-126.268	-177.763	0.185	0.004
-125.253	152.964	-0.089	0.119
-124.239	800.000	-0.063	-0.262
-123.224	29.603	-0.048	0.040
-122.210	-200.000	0.012	0.115
-121.195	156.410	-0.157	-0.212
