DTS Sentinel unit serial number:	SN413079Multiplexer serial number:	ORYXHardware model number:	OX4-SRSoftware version number:	ORYX F/W v4.00 Oryx Data Collector v3.7.2.0data status	okinstallation	princeton_trtdifferential loss correction	single-endedforward channel	channel 1reverse channel	N/Adate	2019/09/12time	23:58:36forward acquisition time	60.00reverse acquisition time	0.00gamma	496.2192k internal	0.2328k external	0.2328temperature offset calibration	1.0145default loss term (dB/km)	0.3790temperature slope calibration	1.0000multiplexer offset coefficient	1.0000multiplexer slope coefficient	1.0000fibre end	0.00T internal ref (°C)	28.69T ext. ref 1 (°C)	3.77T ext. ref 2 (°C)	23.38length (m)	temperature (°C)	Stokes	anti-Stokes-747.200	-161.731	-0.114	-0.006
-746.185	-200.000	0.021	0.239
-745.171	-27.959	0.317	0.185
-744.156	42.257	0.230	0.210
-743.142	40.275	0.058	-0.052
-742.127	-200.000	0.008	-0.042
-741.112	-200.000	-0.007	-0.212
-740.098	132.967	-0.189	0.245
-739.083	361.115	-0.048	0.096
-738.069	-71.657	-0.157	-0.059
-737.054	-117.532	-0.288	0.052
-736.039	-51.484	-0.134	0.063
-735.025	-59.522	0.125	0.054
-734.010	-25.469	0.209	-0.125
-732.996	800.000	-0.042	-0.144
-731.981	-155.656	-0.360	-0.023
-730.966	-108.453	0.249	-0.054
-729.952	-155.614	-0.320	-0.021
-728.937	800.000	-0.068	0.269
-727.923	100.768	-0.200	-0.234
-726.908	91.753	0.220	0.249
-725.894	-123.876	-0.292	0.046
-724.879	-200.000	-0.001	0.107
-723.864	-200.000	-0.016	-0.206
-722.850	-200.000	0.035	0.221
-721.835	263.866	0.148	0.259
-720.821	80.031	-0.074	-0.081
-719.806	215.100	-0.177	-0.282
-718.791	-200.000	0.027	-0.205
-717.777	54.723	-0.099	0.096
-716.762	-87.136	0.227	-0.069
-715.748	800.000	0.024	0.095
-714.733	-200.000	0.038	-0.489
-713.718	800.000	0.070	0.196
-712.704	112.130	0.085	0.103
-711.689	177.868	0.189	-0.278
-710.675	422.026	0.088	-0.190
-709.660	519.401	-0.067	-0.158
-708.645	134.344	0.109	0.143
-707.631	-94.640	-0.095	0.026
-706.616	32.205	0.152	-0.132
-705.602	-200.000	-0.022	-0.381
-704.587	-81.029	-0.153	-0.051
-703.572	627.497	-0.109	-0.276
-702.558	110.337	-0.198	-0.239
-701.543	-101.504	-0.251	-0.062
-700.529	444.926	-0.060	-0.132
-699.514	-54.088	-0.080	-0.037
-698.499	145.182	0.097	0.130
-697.485	-125.910	0.031	-0.005
-696.470	174.283	-0.185	0.269
-695.456	-75.741	0.353	0.126
-694.441	-136.618	-0.224	0.026
-693.426	77.409	0.172	-0.184
-692.412	-200.000	0.005	-0.184
-691.397	800.000	0.040	0.118
-690.383	-41.321	-0.362	-0.188
-689.368	800.000	0.049	0.160
-688.354	800.000	-0.047	-0.157
-687.339	-29.892	-0.095	0.054
-686.324	-103.070	0.056	-0.013
-685.310	109.616	-0.178	-0.215
-684.295	-130.440	0.161	-0.022
-683.281	4.179	0.196	-0.144
-682.266	-91.276	-0.349	0.101
-681.251	-53.937	0.369	0.169
-680.237	-93.268	-0.168	-0.047
-679.222	-200.000	0.021	-0.147
-678.208	-25.052	0.036	-0.022
-677.193	-84.967	-0.062	0.020
-676.178	-200.000	0.015	0.192
-675.164	-21.401	-0.288	0.176
-674.149	-200.000	-0.016	0.475
-673.135	-53.590	-0.255	0.117
-672.120	-40.744	-0.323	0.168
-671.105	-133.299	0.125	-0.016
-670.091	-0.196	0.160	-0.114
-669.076	-111.193	-0.235	0.048
-668.062	-146.368	0.181	0.016
-667.047	-30.275	0.316	-0.180
-666.032	-51.663	0.174	-0.081
-665.018	-124.007	0.109	-0.017
-664.003	-200.000	-0.017	0.109
-662.989	-200.000	-0.350	-0.001
-661.974	-21.793	0.179	-0.109
-660.959	-13.057	0.049	0.032
-659.945	-167.821	0.174	0.007
-658.930	-3.854	-0.168	-0.117
-657.916	85.919	-0.088	0.097
-656.901	444.029	0.060	-0.133
-655.886	-200.000	0.016	-0.174
-654.872	296.846	-0.163	0.300
-653.857	-83.726	-0.233	-0.075
-652.843	-155.076	-0.357	0.023
-651.828	-66.058	0.293	-0.117
-650.814	-95.460	0.293	-0.079
-649.799	-101.839	-0.262	-0.064
-648.784	800.000	0.129	0.388
-647.770	-200.000	-0.083	0.518
-646.755	70.719	-0.252	-0.262
-645.741	-151.923	0.084	-0.006
-644.726	151.867	-0.098	0.134
-643.711	182.311	-0.071	0.105
-642.697	78.488	0.109	-0.117
-641.682	-200.000	-0.003	-0.229
-640.668	-200.000	0.047	-0.518
-639.653	53.914	0.110	-0.106
-638.638	-109.676	0.041	0.009
-637.624	-141.153	-0.196	0.020
-636.609	-200.000	0.027	-0.169
-635.595	-141.622	0.170	-0.017
-634.580	800.000	0.066	-0.244
-633.565	800.000	0.015	0.047
-632.551	-200.000	0.009	0.070
-631.536	800.000	0.053	-0.228
-630.522	-120.257	-0.332	-0.057
-629.507	-164.266	0.253	-0.012
-628.492	65.026	0.079	-0.080
-627.478	721.662	0.053	-0.140
-626.463	340.332	-0.137	-0.268
-625.449	-88.575	0.163	0.049
-624.434	800.000	-0.034	0.115
-623.419	39.841	0.044	0.039
-622.405	800.000	-0.071	-0.264
-621.390	113.372	-0.180	-0.219
-620.376	-200.000	-0.010	0.171
-619.361	800.000	0.067	-0.294
-618.346	-200.000	0.033	0.246
-617.332	-80.647	-0.311	-0.104
-616.317	-153.137	0.251	-0.018
-615.303	-75.225	-0.205	-0.073
-614.288	800.000	0.042	0.121
-613.273	626.150	-0.010	-0.026
-612.259	-160.828	0.354	0.019
-611.244	-45.829	0.443	0.219
-610.230	-62.429	0.217	-0.090
-609.215	-53.917	0.201	-0.092
-608.201	35.426	0.143	-0.126
-607.186	157.820	-0.076	-0.105
-606.171	-35.117	-0.193	0.105
-605.157	-57.244	0.162	0.072
-604.142	-176.775	0.199	0.005
-603.128	-156.223	0.065	0.004
-602.113	5.791	0.115	0.085
-601.098	91.438	0.067	0.075
-600.084	75.769	0.144	-0.152
-599.069	-13.248	-0.132	-0.086
-598.055	516.199	0.091	-0.212
-597.040	800.000	0.133	0.449
-596.025	-200.000	-0.007	0.126
-595.011	-147.557	-0.161	0.014
-593.996	-12.746	0.032	-0.021
-592.982	171.337	0.144	0.208
-591.967	-102.984	0.393	0.094
-590.952	-39.309	-0.566	-0.298
-589.938	-200.000	-0.030	0.285
-588.923	321.253	0.072	0.137
-587.909	-53.995	0.363	0.166
-586.894	800.000	-0.025	-0.094
-585.879	724.268	0.045	-0.119
-584.865	-60.398	0.153	-0.065
-583.850	57.741	-0.186	-0.182
-582.836	105.528	-0.194	-0.229
-581.821	-147.650	0.154	0.013
-580.806	-91.408	-0.356	0.102
-579.792	51.079	-0.130	0.124
-578.777	622.049	0.014	0.034
-577.763	800.000	-0.040	0.154
-576.748	-93.226	-0.101	-0.028
-575.733	580.178	-0.153	0.374
-574.719	-176.913	-0.314	-0.008
-573.704	-101.363	-0.230	-0.056
-572.690	-43.903	-0.079	0.040
-571.675	-80.500	-0.143	0.048
-570.661	-124.861	-0.405	-0.063
-569.646	635.548	-0.102	0.258
-568.631	379.845	0.043	0.088
-567.617	-136.561	0.278	0.032
-566.602	527.604	0.083	0.196
-565.588	800.000	-0.102	0.344
-564.573	51.008	0.039	0.037
-563.558	50.798	-0.150	-0.142
-562.544	-120.287	0.120	-0.020
-561.529	-31.294	-0.099	-0.056
-560.515	25.859	0.036	-0.030
-559.500	800.000	-0.127	-0.426
-558.485	-200.000	-0.065	-0.315
-557.471	-69.387	0.302	0.116
-556.456	-103.398	-0.148	0.035
-555.442	-126.451	-0.130	-0.019
-554.427	-61.859	0.015	0.006
-553.412	-46.752	-0.344	0.168
-552.398	800.000	0.033	0.095
-551.383	-200.000	0.008	0.129
-550.369	-70.915	-0.162	-0.061
-549.354	324.472	0.223	0.427
-548.339	12.264	0.073	-0.056
-547.325	459.233	-0.037	-0.083
-546.310	-200.000	-0.032	0.256
-545.296	-22.701	-0.082	-0.050
-544.281	2.087	0.078	0.056
-543.266	141.220	0.140	0.186
-542.252	-200.000	0.019	-0.113
-541.237	-200.000	0.015	0.191
-540.223	77.581	-0.178	0.190
-539.208	190.751	0.137	0.206
-538.193	800.000	0.066	0.241
-537.179	-177.373	-0.517	-0.013
-536.164	-49.271	0.167	-0.080
-535.150	-114.091	0.279	0.054
-534.135	-113.999	0.218	0.042
-533.121	143.799	-0.265	0.353
-532.106	242.929	-0.114	0.191
-531.091	-200.000	-0.046	0.531
-530.077	-54.952	0.210	-0.094
-529.062	9.465	-0.038	0.029
-528.048	516.628	0.232	-0.541
-527.033	36.908	-0.232	-0.205
-526.018	115.905	-0.071	-0.087
-525.004	-97.948	0.264	0.068
-523.989	498.425	-0.097	-0.222
-522.975	-96.526	-0.275	-0.073
-521.960	102.419	-0.051	0.059
-520.945	-32.642	-0.412	-0.229
-519.931	-31.728	0.166	-0.093
-518.916	362.524	0.045	-0.091
-517.902	-81.503	0.287	0.094
-516.887	491.732	-0.027	-0.061
-515.872	-109.571	0.065	0.014
-514.858	-58.928	0.316	0.136
-513.843	800.000	0.099	0.363
-512.829	-160.679	-0.138	0.007
-511.814	-124.760	-0.205	0.032
-510.799	295.952	0.067	-0.122
-509.785	-54.455	-0.258	-0.117
-508.770	-85.250	-0.033	-0.010
-507.756	800.000	0.038	-0.149
-506.741	152.170	-0.171	-0.233
-505.726	-56.777	0.308	0.136
-504.712	-89.899	-0.120	0.035
-503.697	9.325	0.127	-0.096
-502.683	800.000	-0.141	0.476
-501.668	-50.043	0.173	-0.082
-500.653	60.894	-0.147	-0.146
-499.639	-0.482	-0.244	0.173
-498.624	-200.000	0.001	-0.062
-497.610	-54.194	0.053	0.024
-496.595	-43.234	-0.213	0.108
-495.581	-48.019	0.088	-0.043
-494.566	-129.178	-0.219	0.030
-493.551	-117.707	0.380	-0.068
-492.537	644.183	0.093	-0.238
-491.522	-200.000	0.007	-0.210
-490.508	-12.302	-0.054	-0.035
-489.493	155.387	-0.107	0.147
-488.478	-176.251	0.229	0.006
-487.464	15.387	0.255	-0.199
-486.449	-200.000	0.007	-0.050
-485.435	-200.000	0.005	-0.025
-484.420	800.000	-0.019	0.056
-483.405	-200.000	-0.001	-0.047
-482.391	176.121	0.189	0.274
-481.376	313.271	0.045	-0.085
-480.362	386.807	-0.094	0.194
-479.347	174.832	-0.333	0.480
-478.332	172.622	-0.159	0.228
-477.318	-200.000	-0.202	0.001
-476.303	-104.701	-0.264	0.061
-475.289	44.328	0.194	0.177
-474.274	-200.000	-0.006	0.164
-473.259	-21.794	0.210	-0.127
-472.245	800.000	-0.029	0.120
-471.230	50.659	0.312	0.295
-470.216	-54.982	0.167	-0.075
-469.201	-122.318	-0.063	-0.010
-468.186	-91.479	-0.202	-0.057
-467.172	356.453	-0.052	-0.103
-466.157	-105.442	-0.281	-0.064
-465.143	267.225	0.181	-0.316
-464.128	-200.000	-0.050	-0.225
-463.113	-92.449	0.102	-0.029
-462.099	-93.477	0.400	0.110
-461.084	47.668	0.058	0.054
-460.070	-76.166	-0.095	0.033
-459.055	6.005	-0.174	-0.129
-458.040	-17.938	-0.190	-0.119
-457.026	311.756	0.148	0.277
-456.011	-80.349	-0.215	0.071
-454.997	-200.000	-0.028	0.353
-453.982	800.000	0.039	-0.148
-452.968	26.993	-0.248	0.207
-451.953	224.091	0.146	-0.236
-450.938	-50.828	-0.080	-0.038
-449.924	152.722	-0.260	-0.354
-448.909	-53.549	0.127	-0.058
-447.895	-69.562	-0.218	-0.083
-446.880	-95.609	-0.139	0.037
-445.865	556.829	0.053	-0.128
-444.851	-62.963	-0.083	0.034
-443.836	-62.460	0.133	0.055
-442.822	58.652	0.226	-0.221
-441.807	800.000	0.100	-0.284
-440.792	-105.958	0.203	-0.046
-439.778	-5.409	-0.163	-0.111
-438.763	-106.143	-0.163	-0.036
-437.749	166.160	-0.140	-0.198
-436.734	-28.291	-0.101	-0.058
-435.719	30.279	0.160	-0.136
-434.705	-74.081	-0.158	-0.057
-433.690	479.424	0.124	-0.279
-432.676	265.761	0.060	-0.104
-431.661	249.628	-0.074	0.125
-430.646	603.814	0.046	0.115
-429.632	52.986	0.137	-0.131
-428.617	65.261	0.150	0.151
-427.603	98.244	0.191	0.219
-426.588	87.219	-0.147	-0.161
-425.573	-133.771	0.306	-0.038
-424.559	-189.160	-0.281	0.003
-423.544	-55.615	0.175	0.078
-422.530	234.964	-0.087	-0.144
-421.515	-130.770	0.267	0.036
-420.500	-38.914	-0.454	-0.238
-419.486	800.000	0.022	-0.061
-418.471	160.913	-0.257	0.357
-417.457	-71.303	0.230	0.086
-416.442	267.103	0.062	-0.108
-415.428	-46.156	0.124	-0.061
-414.413	-125.015	-0.279	0.043
-413.398	-39.748	0.025	0.013
-412.384	47.659	-0.098	-0.091
-411.369	8.756	0.110	0.083
-410.355	800.000	0.010	0.039
-409.340	800.000	0.078	-0.217
-408.325	-61.517	-0.142	-0.059
-407.311	145.821	0.030	-0.040
-406.296	605.136	0.084	-0.208
-405.282	41.385	-0.077	0.069
-404.267	-105.623	-0.068	0.015
-403.252	-48.446	-0.266	0.127
-402.238	-200.000	-0.012	-0.233
-401.223	800.000	0.111	-0.362
-400.209	88.504	0.009	-0.010
-399.194	450.548	0.124	0.273
-398.179	-72.949	-0.170	0.062
-397.165	-200.000	-0.013	0.177
-396.150	-108.193	0.180	0.039
-395.136	-60.544	0.380	-0.161
-394.121	-83.464	0.252	-0.080
-393.106	-42.651	-0.075	0.038
-392.092	741.085	0.064	0.172
-391.077	45.100	-0.194	-0.177
-390.063	-200.000	0.009	-0.203
-389.048	-110.497	0.149	0.031
-388.033	-73.808	-0.078	0.028
-387.019	-48.640	-0.165	-0.079
-386.004	-135.502	-0.207	-0.025
-384.990	-146.539	-0.148	0.013
-383.975	-200.000	-0.027	0.231
-382.960	800.000	0.050	0.209
-381.946	192.472	-0.203	0.305
-380.931	-69.691	-0.114	-0.043
-379.917	-4.506	0.182	-0.125
-378.902	32.585	0.047	-0.040
-377.888	369.284	-0.099	0.199
-376.873	-41.239	0.151	-0.077
-375.858	-110.788	-0.221	0.045
-374.844	-200.000	-0.020	0.088
-373.829	-97.547	0.038	0.010
-372.815	-145.507	0.309	-0.028
-371.800	77.683	-0.098	0.104
-370.785	-42.479	-0.095	-0.048
-369.771	508.413	-0.160	-0.370
-368.756	-128.128	0.339	0.048
-367.742	206.713	-0.025	-0.038
-366.727	60.802	0.197	0.194
-365.712	-140.843	-0.069	0.007
-364.698	97.668	0.282	-0.321
-363.683	-4.468	0.166	0.114
-362.669	331.298	-0.140	0.267
-361.654	239.848	-0.089	0.147
-360.639	-15.396	0.169	-0.107
-359.625	-200.000	-0.022	-0.189
-358.610	-115.386	0.184	-0.034
-357.596	-17.194	-0.147	0.092
-356.581	107.794	0.089	0.106
-355.566	-96.665	0.264	-0.069
-354.552	-116.206	-0.192	0.035
-353.537	-62.271	0.297	-0.123
-352.523	-45.090	-0.291	0.144
-351.508	800.000	-0.022	0.086
-350.493	1.950	-0.219	0.157
-349.479	800.000	-0.055	0.193
-348.464	255.515	0.101	0.172
-347.450	-136.132	0.124	-0.014
-346.435	800.000	0.089	0.261
-345.420	161.004	0.127	0.176
-344.406	-50.608	0.300	-0.140
-343.391	800.000	0.076	-0.300
-342.377	-122.223	-0.272	0.044
-341.362	-200.000	-0.003	-0.126
-340.348	158.764	0.141	-0.194
-339.333	-92.526	-0.190	-0.053
-338.318	40.839	0.214	-0.192
-337.304	-200.000	0.036	-0.180
-336.289	765.015	0.096	0.257
-335.275	33.944	0.352	0.304
-334.260	-200.000	-0.049	-0.427
-333.245	191.823	-0.120	0.179
-332.231	800.000	0.049	0.166
-331.216	-200.000	-0.007	-0.077
-330.202	274.698	0.035	-0.061
-329.187	-193.827	-0.045	-0.000
-328.172	-11.758	-0.133	-0.087
-327.158	512.290	0.089	-0.205
-326.143	116.248	0.219	0.266
-325.129	-35.357	-0.387	0.209
-324.114	-88.616	0.068	0.020
-323.099	144.192	0.163	-0.216
-322.085	14.657	-0.076	0.059
-321.070	72.848	-0.124	0.128
-320.056	29.640	0.091	0.077
-319.041	-200.000	0.041	0.184
-318.026	-11.624	0.176	-0.115
-317.012	-21.427	0.381	-0.230
-315.997	-146.203	-0.445	0.039
-314.983	180.920	0.090	0.131
-313.968	-140.490	0.279	-0.029
-312.953	737.238	0.088	-0.235
-311.939	-67.722	-0.178	-0.069
-310.924	-200.000	0.027	-0.148
-309.910	-74.719	0.213	0.076
-308.895	-144.296	0.043	0.004
-307.880	-200.000	-0.016	0.103
-306.866	1.076	-0.451	-0.321
-305.851	364.547	-0.117	-0.234
-304.837	-59.925	0.351	-0.149
-303.822	-200.000	0.021	-0.159
-302.807	-107.145	-0.449	0.098
-301.793	-120.011	0.160	-0.027
-300.778	-79.797	-0.399	0.133
-299.764	38.090	-0.084	0.074
-298.749	-94.571	0.332	-0.090
-297.735	-27.109	-0.038	0.022
-296.720	-69.626	0.271	0.103
-295.705	-76.912	-0.226	0.078
-294.691	-99.852	0.326	-0.081
-293.676	218.275	-0.211	-0.333
-292.662	94.935	-0.192	0.217
-291.647	454.130	-0.160	0.352
-290.632	-104.630	0.331	-0.076
-289.618	219.166	0.036	0.057
-288.603	-105.937	0.259	0.058
-287.589	-200.000	-0.004	0.098
-286.574	-119.506	-0.353	-0.061
-285.559	-51.705	0.375	-0.173
-284.545	-15.348	-0.114	0.072
-283.530	-153.895	0.206	-0.014
-282.516	-11.681	-0.030	0.019
-281.501	20.297	-0.175	0.140
-280.486	-200.000	0.013	0.079
-279.472	124.427	0.090	-0.113
-278.457	-68.669	0.164	-0.063
-277.443	-43.547	-0.533	0.266
-276.428	142.436	0.080	-0.105
-275.413	-38.067	-0.062	0.033
-274.399	-200.000	0.045	-0.231
-273.384	46.770	0.246	-0.226
-272.370	-93.993	0.191	0.052
-271.355	350.151	0.124	-0.243
-270.340	-31.758	0.359	-0.199
-269.326	47.266	-0.193	-0.178
-268.311	30.490	-0.038	0.032
-267.297	-200.000	-0.001	0.021
-266.282	-131.015	-0.156	-0.021
-265.267	-200.000	0.021	-0.166
-264.253	-109.265	0.265	-0.056
-263.238	109.339	-0.177	0.210
-262.224	248.447	0.229	-0.384
-261.209	-95.366	-0.100	-0.027
-260.195	77.314	0.137	-0.144
-259.180	-149.798	-0.097	-0.008
-258.165	112.198	0.254	-0.304
-257.151	-55.594	0.100	0.044
-256.136	688.930	-0.107	-0.278
-255.122	20.008	-0.139	-0.111
-254.107	-64.908	0.266	-0.106
-253.092	-70.184	-0.095	-0.036
-252.078	-129.960	0.126	-0.017
-251.063	461.379	0.034	0.075
-250.049	-59.393	-0.156	-0.066
-249.034	-200.000	0.016	0.262
-248.019	-200.000	-0.020	-0.129
-247.005	74.799	-0.236	-0.246
-245.990	-29.551	0.130	-0.073
-244.976	-84.673	0.159	0.049
-243.961	320.577	-0.065	0.122
-242.946	-200.000	0.007	-0.271
-241.932	0.770	0.111	-0.079
-240.917	800.000	-0.108	-0.351
-239.903	-200.000	0.023	-0.191
-238.888	58.374	0.240	-0.232
-237.873	-89.805	-0.303	0.087
-236.859	800.000	0.069	-0.289
-235.844	72.033	0.140	0.144
-234.830	-200.000	-0.044	0.210
-233.815	107.684	0.109	0.128
-232.800	800.000	-0.097	-0.419
-231.786	-200.000	-0.009	0.144
-230.771	-200.000	0.027	-0.118
-229.757	104.807	-0.328	0.382
-228.742	279.315	-0.073	-0.129
-227.727	-141.467	0.120	-0.012
-226.713	-200.000	-0.041	0.350
-225.698	338.774	-0.143	0.275
-224.684	-116.623	-0.306	0.056
-223.669	-200.000	-0.046	0.202
-222.655	-102.588	0.196	0.046
-221.640	161.460	-0.153	0.212
-220.625	80.463	0.089	-0.095
-219.611	201.568	0.224	-0.341
-218.596	36.172	-0.193	-0.168
-217.582	-57.971	0.154	-0.066
-216.567	-0.748	-0.193	0.135
-215.552	-200.000	-0.046	0.234
-214.538	-200.000	0.057	0.250
-213.523	-121.369	-0.152	0.025
-212.509	722.903	-0.012	0.033
-211.494	-200.000	-0.043	-0.247
-210.479	44.460	-0.174	-0.158
-209.465	-84.605	0.086	0.027
-208.450	280.570	0.159	-0.281
-207.436	-122.507	-0.188	0.030
-206.421	120.833	-0.106	0.130
-205.406	-200.000	-0.033	0.233
-204.392	-175.163	-0.289	0.008
-203.377	44.719	-0.099	0.090
-202.363	-60.558	-0.155	-0.065
-201.348	-200.000	0.003	0.162
-200.333	-96.818	0.139	0.036
-199.319	81.708	-0.077	-0.083
-198.304	-170.508	-0.295	0.010
-197.290	262.787	-0.135	0.231
-196.275	-123.823	-0.136	0.021
-195.260	561.080	-0.151	0.359
-194.246	-11.864	0.037	-0.024
-193.231	73.693	-0.152	0.157
-192.217	-105.632	0.131	-0.029
-191.202	-148.314	-0.436	-0.035
-190.187	-61.123	-0.292	0.121
-189.173	89.535	0.135	-0.148
-188.158	-125.855	0.182	-0.027
-187.144	618.789	0.098	0.243
-186.129	575.142	0.156	0.376
-185.114	-200.000	-0.032	0.226
-184.100	-57.656	0.331	0.143
-183.085	35.446	-0.084	0.073
-182.071	59.562	0.162	0.157
-181.056	-200.000	-0.002	-0.045
-180.042	-83.935	0.226	0.071
-179.027	-117.480	-0.467	0.083
-178.012	-153.275	-0.056	-0.004
-176.998	-102.607	0.080	-0.019
-175.983	-200.000	0.011	-0.191
-174.969	-200.000	-0.037	-0.262
-173.954	-130.554	-0.082	0.011
-172.939	509.502	-0.114	0.262
-171.925	-200.000	0.033	-0.327
-170.910	-58.751	0.104	0.044
-169.896	-149.325	-0.324	0.025
-168.881	-46.941	0.459	-0.221
-167.866	-200.000	-0.047	0.223
-166.852	-71.316	-0.113	-0.042
-165.837	87.067	-0.173	-0.188
-164.823	-200.000	0.024	0.239
-163.808	-14.554	0.211	-0.133
-162.793	-177.075	-0.033	-0.001
-161.779	348.527	0.091	0.177
-160.764	-69.006	0.096	0.036
-159.750	74.412	0.058	0.060
-158.735	578.856	-0.052	-0.126
-157.720	-47.957	0.335	0.160
-156.706	800.000	0.065	0.278
-155.691	-66.079	-0.084	-0.033
-154.677	-200.000	0.010	-0.207
-153.662	22.525	-0.085	-0.069
-152.647	-41.515	0.206	0.104
-151.633	-200.000	0.036	0.177
-150.618	509.471	0.098	-0.223
-149.604	48.549	0.120	0.110
-148.589	-66.724	0.325	-0.127
-147.574	92.347	-0.170	0.189
-146.560	13.687	0.104	0.079
-145.545	715.583	-0.042	-0.110
-144.531	-200.000	-0.379	-0.001
-143.516	76.022	0.076	-0.079
-142.502	-40.557	-0.184	0.094
-141.487	-98.493	0.203	0.051
-140.472	-36.114	0.101	0.054
-139.458	-107.947	-0.163	-0.035
-138.443	-123.860	0.134	-0.021
-137.429	-150.414	-0.339	-0.026
-136.414	551.342	-0.139	0.329
-135.399	-81.659	0.266	-0.086
-134.385	-71.091	-0.249	-0.092
-133.370	-102.018	-0.074	-0.018
-132.356	-124.066	0.099	-0.015
-131.341	-64.213	-0.097	0.039
-130.326	-150.048	-0.032	0.002
-129.312	-69.804	-0.392	0.147
-128.297	-105.770	0.208	0.046
-127.283	346.047	0.125	-0.242
-126.268	-76.978	0.260	0.089
-125.253	31.233	-0.195	-0.165
-124.239	-200.000	-0.002	0.191
-123.224	0.219	-0.077	-0.054
-122.210	-96.254	0.284	0.074
