DTS Sentinel unit serial number:	SN413079Multiplexer serial number:	ORYXHardware model number:	OX4-SRSoftware version number:	ORYX F/W v4.00 Oryx Data Collector v3.7.2.0data status	okinstallation	princeton_trtdifferential loss correction	single-endedforward channel	channel 1reverse channel	N/Adate	2019/09/17time	04:50:35forward acquisition time	60.00reverse acquisition time	0.00gamma	496.2192k internal	0.2323k external	0.2323temperature offset calibration	0.9960default loss term (dB/km)	0.3790temperature slope calibration	1.0000multiplexer offset coefficient	1.0000multiplexer slope coefficient	1.0000fibre end	0.00T internal ref (°C)	29.56T ext. ref 1 (°C)	0.14T ext. ref 2 (°C)	24.01length (m)	temperature (°C)	Stokes	anti-Stokes-747.200	-120.595	0.137	0.023
-746.185	32.633	0.064	0.056
-745.171	-200.000	-0.004	-0.091
-744.156	-200.000	0.030	0.547
-743.142	113.148	-0.275	0.337
-742.127	152.841	0.279	0.385
-741.112	-200.000	-0.002	-0.028
-740.098	-200.000	-0.060	0.405
-739.083	800.000	-0.083	0.259
-738.069	-152.885	-0.216	0.015
-737.054	-90.941	0.120	0.035
-736.039	120.015	0.115	-0.144
-735.025	142.589	0.083	0.111
-734.010	-12.031	-0.066	-0.044
-732.996	158.010	-0.200	0.279
-731.981	800.000	-0.073	-0.225
-730.966	-200.000	-0.001	-0.135
-729.952	510.814	0.020	-0.048
-728.937	-41.119	-0.200	-0.104
-727.923	95.354	-0.178	-0.205
-726.908	144.160	-0.286	-0.385
-725.894	169.161	-0.168	-0.242
-724.879	241.821	-0.196	-0.331
-723.864	154.191	0.189	0.262
-722.850	154.637	0.150	-0.208
-721.835	-104.673	-0.157	-0.037
-720.821	88.538	-0.122	-0.136
-719.806	42.737	-0.157	-0.145
-718.791	-50.349	-0.236	-0.113
-717.777	-200.000	0.034	-0.187
-716.762	447.463	-0.160	0.355
-715.748	168.202	-0.074	0.106
-714.733	32.475	0.289	-0.252
-713.718	-22.839	0.396	0.241
-712.704	-59.368	-0.067	0.029
-711.689	-128.262	-0.119	-0.017
-710.675	302.275	-0.049	0.091
-709.660	-200.000	0.032	-0.216
-708.645	-93.376	0.217	-0.061
-707.631	-107.983	-0.106	-0.023
-706.616	-48.375	-0.154	-0.075
-705.602	-200.000	-0.048	-0.330
-704.587	712.992	-0.060	-0.160
-703.572	-25.420	-0.210	-0.125
-702.558	-6.170	0.197	-0.136
-701.543	412.538	-0.107	-0.228
-700.529	800.000	-0.004	-0.012
-699.514	-200.000	0.039	0.172
-698.499	800.000	-0.065	0.184
-697.485	800.000	-0.035	0.142
-696.470	-197.649	0.133	0.001
-695.456	-21.629	-0.122	-0.075
-694.441	49.606	-0.076	-0.072
-693.426	-135.206	0.113	0.014
-692.412	326.570	0.065	-0.126
-691.397	194.660	-0.112	0.171
-690.383	-63.275	0.159	0.066
-689.368	101.702	0.108	-0.127
-688.354	48.933	-0.170	0.161
-687.339	-115.993	0.254	0.048
-686.324	164.280	0.151	-0.215
-685.310	-69.497	0.282	-0.109
-684.295	-72.666	-0.259	-0.096
-683.281	-127.189	0.215	0.032
-682.266	112.182	-0.066	0.080
-681.251	5.183	-0.144	-0.107
-680.237	-139.285	0.385	0.042
-679.222	-71.372	0.221	0.083
-678.208	800.000	0.013	-0.037
-677.193	-200.000	0.024	-0.184
-676.178	-132.637	-0.233	0.030
-675.164	43.836	0.233	-0.215
-674.149	138.391	-0.100	-0.132
-673.135	-46.822	-0.079	0.039
-672.120	-200.000	0.037	0.164
-671.105	660.192	-0.050	-0.131
-670.091	800.000	0.037	-0.153
-669.076	154.257	0.177	-0.244
-668.062	713.322	0.062	-0.166
-667.047	-200.000	0.208	-0.000
-666.032	185.444	-0.349	0.521
-665.018	-116.418	-0.186	0.035
-664.003	-200.000	0.027	-0.133
-662.989	-200.000	0.013	0.126
-661.974	-17.186	-0.059	-0.038
-660.959	-122.475	-0.370	0.061
-659.945	112.574	-0.124	-0.151
-658.930	400.630	-0.065	0.138
-657.916	-137.159	0.218	-0.025
-656.901	-70.668	-0.225	0.086
-655.886	-200.000	-0.052	-0.276
-654.872	96.485	0.075	0.086
-653.857	121.347	0.187	0.234
-652.843	102.881	-0.113	0.133
-651.828	-72.390	0.133	-0.050
-650.814	-200.000	-0.005	0.136
-649.799	140.725	0.078	0.103
-648.784	-28.299	-0.140	-0.082
-647.770	-127.007	-0.125	-0.018
-646.755	-44.691	0.198	-0.100
-645.741	-84.742	-0.194	0.061
-644.726	361.570	-0.115	-0.232
-643.711	25.103	-0.148	-0.124
-642.697	-63.772	-0.118	-0.049
-641.682	-163.665	-0.164	-0.008
-640.668	-15.773	-0.067	0.043
-639.653	137.665	-0.084	0.111
-638.638	100.893	0.154	-0.180
-637.624	-50.139	-0.151	-0.072
-636.609	-200.000	0.026	-0.132
-635.595	-104.195	0.212	-0.050
-634.580	344.951	-0.029	-0.058
-633.565	-66.217	-0.047	0.019
-632.551	-114.529	-0.187	0.036
-631.536	-122.872	-0.111	0.018
-630.522	-62.198	0.268	0.112
-629.507	-200.000	0.047	0.245
-628.492	-182.118	-0.141	-0.003
-627.478	800.000	0.035	-0.098
-626.463	-200.000	-0.054	-0.320
-625.449	100.717	-0.202	0.236
-624.434	-69.519	0.258	-0.100
-623.419	179.197	0.109	-0.160
-622.405	129.110	0.189	-0.242
-621.390	800.000	0.040	-0.115
-620.376	-200.000	0.016	-0.234
-619.361	177.482	0.178	0.261
-618.346	123.970	0.089	0.112
-617.332	-62.614	-0.085	0.036
-616.317	-74.469	0.005	-0.002
-615.303	306.947	-0.110	-0.206
-614.288	-89.502	-0.257	0.076
-613.273	-67.334	0.110	-0.043
-612.259	-138.123	-0.297	-0.033
-611.244	-149.240	-0.325	0.026
-610.230	-200.000	0.014	0.210
-609.215	-65.349	-0.178	-0.072
-608.201	515.416	-0.087	-0.205
-607.186	-74.181	-0.148	-0.054
-606.171	-200.000	0.034	-0.281
-605.157	-173.542	-0.273	0.008
-604.142	520.744	0.159	-0.375
-603.128	-200.000	-0.001	-0.237
-602.113	-200.000	0.043	0.250
-601.098	-2.226	-0.109	0.077
-600.084	81.738	-0.065	0.071
-599.069	-95.966	-0.085	0.023
-598.055	800.000	-0.048	-0.209
-597.040	104.208	-0.055	-0.065
-596.025	634.119	0.036	-0.091
-595.011	390.053	0.117	0.244
-593.996	-200.000	-0.011	0.049
-592.982	-11.693	-0.102	-0.068
-591.967	19.972	0.119	-0.096
-590.952	-200.000	0.006	-0.035
-589.938	-1.729	-0.027	0.019
-588.923	666.343	-0.018	-0.047
-587.909	-52.832	0.097	-0.045
-586.894	-106.656	-0.220	0.049
-585.879	-37.022	-0.126	-0.068
-584.865	-200.000	0.055	0.322
-583.850	-6.315	0.397	0.272
-582.836	-200.000	-0.016	0.109
-581.821	-50.982	-0.069	0.033
-580.806	-28.216	-0.076	-0.044
-579.792	-75.615	-0.322	-0.115
-578.777	800.000	-0.073	-0.267
-577.763	-63.001	0.326	0.135
-576.748	201.481	-0.028	0.043
-575.733	-57.969	-0.068	0.030
-574.719	-200.000	-0.016	-0.195
-573.704	12.460	-0.037	0.028
-572.690	-200.000	-0.021	-0.131
-571.675	-191.624	0.282	-0.003
-570.661	203.018	-0.028	0.043
-569.646	-103.701	0.389	-0.091
-568.631	241.727	0.082	-0.137
-567.617	10.802	0.119	0.091
-566.602	148.018	0.096	-0.130
-565.588	-143.900	0.228	0.022
-564.573	114.111	0.136	0.166
-563.558	-200.000	-0.004	-0.118
-562.544	-200.000	-0.015	-0.181
-561.529	-59.834	-0.258	-0.111
-560.515	320.203	-0.047	-0.089
-559.500	-143.451	0.061	0.006
-558.485	-95.342	0.206	0.055
-557.471	-200.000	-0.010	-0.165
-556.456	108.302	-0.152	0.182
-555.442	-200.000	-0.019	-0.089
-554.427	-164.325	0.131	0.006
-553.412	-200.000	-0.005	-0.109
-552.398	655.077	0.107	-0.276
-551.383	65.537	0.083	0.084
-550.369	-200.000	-0.027	0.236
-549.354	-150.846	0.270	0.021
-548.339	-32.117	0.238	-0.133
-547.325	-200.000	0.028	0.132
-546.310	-154.498	0.274	-0.018
-545.296	206.525	-0.172	-0.269
-544.281	-28.882	-0.172	-0.099
-543.266	475.624	0.096	0.216
-542.252	800.000	0.096	0.350
-541.237	39.277	-0.158	0.142
-540.223	226.620	0.087	-0.142
-539.208	40.524	0.356	-0.321
-538.193	800.000	-0.082	-0.260
-537.179	800.000	0.056	0.163
-536.164	161.735	0.154	0.215
-535.150	-93.270	-0.136	-0.038
-534.135	-134.743	0.284	-0.035
-533.121	150.497	0.126	-0.171
-532.106	5.811	-0.147	0.109
-531.091	13.379	0.260	-0.202
-530.077	-200.000	0.071	-0.356
-529.062	214.122	-0.195	0.309
-528.048	367.982	0.137	0.277
-527.033	800.000	0.051	0.164
-526.018	448.590	-0.024	-0.054
-525.004	50.134	0.168	-0.159
-523.989	234.552	0.035	0.057
-522.975	-26.644	0.169	-0.099
-521.960	-200.000	-0.034	0.262
-520.945	-200.000	-0.033	0.163
-519.931	108.673	0.165	-0.198
-518.916	-200.000	0.025	0.120
-517.902	-84.143	-0.141	-0.045
-516.887	-78.497	-0.413	-0.142
-515.872	-110.261	0.385	0.080
-514.858	8.220	0.218	-0.164
-513.843	-200.000	0.004	0.167
-512.829	79.246	-0.129	0.139
-511.814	800.000	0.073	-0.311
-510.799	800.000	0.074	0.240
-509.785	-57.030	0.419	0.185
-508.770	-85.195	-0.557	0.174
-507.756	-15.077	-0.047	0.030
-506.741	41.319	0.075	-0.068
-505.726	218.798	0.122	0.196
-504.712	-86.056	-0.327	0.101
-503.697	209.454	0.053	-0.083
-502.683	-42.341	0.154	-0.079
-501.668	127.278	0.120	0.153
-500.653	329.907	0.045	-0.087
-499.639	147.488	-0.017	-0.023
-498.624	185.306	0.067	-0.100
-497.610	-200.000	-0.024	-0.264
-496.595	-200.000	0.006	0.268
-495.581	29.692	-0.323	-0.275
-494.566	28.395	-0.109	0.092
-493.551	-200.000	-0.039	0.255
-492.537	645.342	0.085	-0.218
-491.522	91.361	0.402	0.452
-490.508	800.000	0.017	-0.053
-489.493	-200.000	0.030	-0.323
-488.478	-171.564	0.134	-0.004
-487.464	320.256	0.084	-0.159
-486.449	34.245	-0.279	0.243
-485.435	282.717	-0.054	-0.097
-484.420	257.342	0.048	0.082
-483.405	261.674	-0.099	0.172
-482.391	-200.000	0.006	0.101
-481.376	-200.000	0.000	0.014
-480.362	-200.000	0.100	0.477
-479.347	-32.213	0.111	0.062
-478.332	7.842	0.083	0.062
-477.318	-111.092	0.055	0.011
-476.303	-6.631	-0.197	0.134
-475.289	-200.000	0.018	0.155
-474.274	-185.493	0.030	0.000
-473.259	-112.388	0.233	-0.047
-472.245	429.544	0.024	0.052
-471.230	26.228	-0.184	-0.153
-470.216	68.170	-0.319	0.326
-469.201	726.351	0.080	-0.212
-468.186	-200.000	0.027	-0.337
-467.172	800.000	0.119	-0.465
-466.157	-116.408	0.245	-0.045
-465.143	239.793	-0.142	-0.237
-464.128	119.856	-0.042	-0.052
-463.113	262.885	-0.100	-0.173
-462.099	-70.701	-0.342	0.129
-461.084	636.495	0.052	0.132
-460.070	-40.207	0.379	0.197
-459.055	-200.000	-0.008	0.271
-458.040	-19.611	-0.135	-0.083
-457.026	108.300	0.254	0.303
-456.011	273.478	-0.054	-0.095
-454.997	-200.000	-0.007	-0.262
-453.982	-109.690	0.197	0.041
-452.968	-200.000	0.032	-0.148
-451.953	800.000	-0.077	0.244
-450.938	2.448	-0.255	-0.185
-449.924	800.000	-0.019	0.063
-448.909	-190.744	-0.567	-0.006
-447.895	0.319	-0.091	0.065
-446.880	-63.216	0.262	0.108
-445.865	397.062	-0.034	-0.072
-444.851	-3.906	0.224	0.155
-443.836	-147.759	-0.165	-0.014
-442.822	28.538	0.233	-0.196
-441.807	-115.617	-0.373	-0.070
-440.792	-200.000	-0.077	-0.426
-439.778	123.595	-0.157	0.197
-438.763	215.652	-0.119	0.189
-437.749	-171.878	-0.110	0.004
-436.734	-5.728	0.409	0.280
-435.719	-200.000	-0.027	-0.167
-434.705	-106.833	0.194	-0.043
-433.690	-200.000	-0.022	0.271
-432.676	-40.744	0.313	0.162
-431.661	-110.597	-0.211	-0.044
-430.646	492.096	-0.078	0.179
-429.632	479.451	-0.045	-0.102
-428.617	-38.948	0.311	0.163
-427.603	37.596	-0.178	0.158
-426.588	-200.000	-0.020	0.092
-425.573	-98.392	-0.286	-0.073
-424.559	-20.179	0.143	-0.088
-423.544	47.099	-0.190	-0.176
-422.530	800.000	-0.050	0.193
-421.515	-67.030	0.325	-0.128
-420.500	497.371	-0.055	-0.127
-419.486	20.798	0.290	-0.234
-418.471	-159.554	0.243	-0.013
-417.457	50.603	0.044	0.042
-416.442	-67.271	-0.238	-0.093
-415.428	800.000	0.042	-0.161
-414.413	-8.585	0.281	0.188
-413.398	317.966	-0.110	0.207
-412.384	520.514	-0.045	-0.106
-411.369	-200.000	0.039	0.198
-410.355	260.932	0.064	0.110
-409.340	-14.231	-0.312	0.201
-408.325	-45.471	0.164	-0.081
-407.311	49.009	-0.155	-0.145
-406.296	692.660	0.157	-0.409
-405.282	800.000	0.056	0.200
-404.267	-78.046	0.388	0.133
-403.252	-83.878	0.272	-0.086
-402.238	175.579	0.069	-0.100
-401.223	182.352	-0.053	-0.077
-400.209	-142.054	-0.160	-0.016
-399.194	-43.997	0.358	0.179
-398.179	800.000	0.058	0.251
-397.165	-184.057	0.303	-0.005
-396.150	28.522	-0.162	0.137
-395.136	-78.237	0.105	-0.036
-394.121	-24.597	0.128	-0.076
-393.106	192.720	0.058	0.087
-392.092	-78.578	0.081	0.028
-391.077	247.614	0.152	0.256
-390.063	-71.050	-0.531	0.199
-389.048	-38.097	-0.160	0.084
-388.033	-85.189	0.336	0.105
-387.019	352.214	0.044	0.086
-386.004	108.914	-0.211	-0.252
-384.990	-159.227	-0.329	0.018
-383.975	800.000	-0.069	0.270
-382.960	-158.254	0.153	-0.009
-381.946	-94.188	0.098	0.027
-380.931	-0.716	-0.242	0.171
-379.917	-200.000	-0.027	-0.125
-378.902	-89.059	0.196	-0.058
-377.888	800.000	-0.027	-0.091
-376.873	-200.000	0.017	-0.092
-375.858	-15.578	-0.259	0.164
-374.844	-200.000	0.012	0.085
-373.829	45.546	-0.068	-0.062
-372.815	182.348	-0.223	-0.327
-371.800	1.830	-0.136	0.098
-370.785	800.000	-0.012	-0.048
-369.771	-117.808	-0.211	0.038
-368.756	78.399	0.022	0.023
-367.742	-200.000	-0.035	0.189
-366.727	295.418	0.225	-0.410
-365.712	-57.446	-0.255	0.111
-364.698	-33.482	-0.419	-0.230
-363.683	800.000	-0.051	0.208
-362.669	279.864	-0.100	-0.178
-361.654	-200.000	0.057	-0.400
-360.639	-89.561	0.059	0.017
-359.625	800.000	0.096	0.280
-358.610	64.767	-0.163	-0.163
-357.596	-45.378	-0.083	-0.041
-356.581	632.886	0.045	-0.113
-355.566	-30.915	0.240	0.135
-354.552	-200.000	-0.060	0.372
-353.537	-171.697	-0.147	-0.005
-352.523	800.000	-0.107	0.365
-351.508	-35.255	-0.445	-0.241
-350.493	766.513	0.135	-0.364
-349.479	209.239	0.160	-0.249
-348.464	78.622	0.087	-0.093
-347.450	107.460	0.106	0.126
-346.435	-43.197	-0.045	0.023
-345.420	254.649	0.141	0.241
-344.406	404.874	0.105	0.220
-343.391	-87.748	-0.349	-0.104
-342.377	-104.073	0.248	-0.057
-341.362	208.733	-0.156	0.242
-340.348	-57.046	0.169	0.074
-339.333	-200.000	-0.037	0.189
-338.318	44.458	-0.104	0.095
-337.304	460.966	0.161	0.357
-336.289	46.119	-0.231	0.213
-335.275	-11.297	-0.135	0.089
-334.260	-97.220	0.510	-0.132
-333.245	-200.000	-0.010	-0.315
-332.231	-200.000	-0.022	-0.466
-331.216	182.342	-0.097	0.142
-330.202	-14.854	0.215	0.137
-329.187	-121.593	-0.175	-0.029
-328.172	-200.000	-0.003	-0.032
-327.158	-114.925	0.175	0.033
-326.143	711.697	0.048	-0.127
-325.129	-92.919	-0.176	-0.049
-324.114	13.820	-0.183	-0.142
-323.099	62.780	-0.136	-0.135
-322.085	99.136	0.221	0.254
-321.070	-17.164	-0.425	0.266
-320.056	-73.565	0.130	-0.047
-319.041	-46.680	-0.370	-0.180
-318.026	6.664	-0.298	-0.220
-317.012	2.674	-0.058	0.042
-315.997	800.000	0.074	-0.207
-314.983	-20.004	-0.230	-0.141
-313.968	-200.000	0.000	-0.255
-312.953	-88.839	0.146	-0.043
-311.939	142.079	-0.049	-0.064
-310.924	-200.000	-0.009	-0.072
-309.910	92.343	0.152	0.171
-308.895	-200.000	0.029	0.301
-307.880	-31.593	0.113	-0.063
-306.866	-200.000	-0.043	0.269
-305.851	428.979	-0.128	-0.274
-304.837	-66.865	-0.394	-0.155
-303.822	-99.672	-0.309	0.077
-302.807	-92.863	0.093	-0.026
-301.793	-157.389	-0.090	0.005
-300.778	-200.000	-0.028	-0.284
-299.764	800.000	-0.090	-0.258
-298.749	27.165	-0.203	-0.169
-297.735	-117.044	0.044	-0.008
-296.720	-97.274	0.125	0.032
-295.705	-42.480	-0.358	-0.181
-294.691	779.954	0.126	-0.342
-293.676	800.000	-0.039	-0.164
-292.662	800.000	0.088	0.268
-291.647	-47.194	0.112	0.054
-290.632	191.949	-0.121	-0.180
-289.618	-37.561	-0.257	0.136
-288.603	-30.335	-0.062	-0.035
-287.589	99.819	0.270	0.311
-286.574	-6.106	0.212	-0.143
-285.559	-138.966	0.036	-0.004
-284.545	-70.622	0.227	-0.085
-283.530	-172.279	-0.496	-0.016
-282.516	-173.835	-0.291	0.009
-281.501	-105.614	-0.134	-0.030
-280.486	-200.000	-0.045	0.235
-279.472	800.000	-0.035	0.106
-278.457	626.329	-0.058	-0.145
-277.443	553.914	0.083	0.198
-276.428	-95.171	-0.308	-0.082
-275.413	106.971	-0.146	-0.171
-274.399	190.165	0.088	0.130
-273.384	22.957	0.191	-0.155
-272.370	800.000	-0.063	-0.174
-271.355	-114.922	-0.334	0.063
-270.340	-167.595	-0.194	0.008
-269.326	27.150	-0.168	0.140
-268.311	194.075	-0.086	-0.129
-267.297	298.125	0.303	0.553
-266.282	128.438	-0.166	0.209
-265.267	-200.000	0.002	0.208
-264.253	344.128	-0.172	-0.334
-263.238	189.115	-0.198	-0.294
-262.224	-33.021	-0.283	-0.155
-261.209	322.523	-0.098	0.184
-260.195	165.983	-0.155	-0.217
-259.180	268.945	-0.025	0.043
-258.165	-65.015	0.370	-0.148
-257.151	-156.702	-0.116	-0.007
-256.136	-70.163	0.376	0.142
-255.122	-49.101	-0.390	-0.185
-254.107	91.432	0.076	-0.085
-253.092	60.966	0.337	0.332
-252.078	-88.400	0.106	-0.031
-251.063	245.376	0.111	-0.185
-250.049	92.349	0.251	-0.281
-249.034	-65.739	0.091	-0.036
-248.019	-189.139	-0.119	-0.001
-247.005	82.175	-0.169	-0.182
-245.990	399.796	-0.043	0.088
-244.976	-155.653	-0.096	-0.006
-243.961	-120.544	-0.070	0.012
-242.946	369.734	0.124	0.248
-241.932	393.024	-0.178	0.367
-240.917	71.809	0.045	-0.047
-239.903	-149.083	-0.272	-0.022
-238.888	378.092	-0.084	0.171
-237.873	51.593	-0.098	0.092
-236.859	144.272	-0.243	0.321
-235.844	288.596	0.120	0.216
-234.830	449.618	0.071	-0.154
-233.815	350.864	0.122	0.240
-232.800	376.915	0.091	0.185
-231.786	800.000	-0.043	-0.135
-230.771	-114.777	0.192	-0.036
-229.757	26.764	0.141	0.117
-228.742	800.000	-0.044	-0.147
-227.727	-74.517	0.215	-0.077
-226.713	-155.376	0.359	0.023
-225.698	-96.210	-0.061	0.016
-224.684	-101.321	0.146	0.035
-223.669	-35.582	0.319	-0.171
-222.655	-200.000	0.002	-0.094
-221.640	-29.972	0.374	0.210
-220.625	163.101	-0.210	0.291
-219.611	798.671	0.102	-0.279
-218.596	-139.709	0.251	0.026
-217.582	-146.239	0.191	-0.017
-216.567	-200.000	-0.026	0.159
-215.552	24.629	-0.320	-0.262
-214.538	-104.558	-0.204	0.047
-213.523	9.966	-0.174	-0.131
-212.509	-200.000	0.011	-0.251
-211.494	-200.000	0.044	0.287
-210.479	-200.000	0.003	0.183
-209.465	41.139	0.014	-0.013
-208.450	-160.224	0.092	0.005
-207.436	-109.022	-0.084	0.018
-206.421	102.319	0.115	-0.132
-205.406	-200.000	-0.001	-0.065
-204.392	174.886	0.075	-0.108
-203.377	393.776	-0.065	0.134
-202.363	-26.406	-0.143	0.083
-201.348	-72.979	-0.248	0.090
-200.333	-70.971	-0.204	-0.076
-199.319	464.544	0.148	-0.327
-198.304	13.760	0.245	-0.188
-197.290	-200.000	0.031	0.197
-196.275	-149.650	-0.429	0.033
-195.260	800.000	0.050	0.144
-194.246	11.655	0.190	0.144
-193.231	195.744	-0.129	0.194
-192.217	481.722	-0.057	-0.128
-191.202	-109.139	-0.156	0.033
-190.187	-102.391	0.233	0.055
-189.173	-94.066	0.195	-0.053
-188.158	-114.690	0.064	0.012
-187.144	314.578	0.059	0.110
-186.129	477.823	0.168	0.377
-185.114	109.804	0.137	-0.163
-184.100	58.031	-0.114	-0.111
-183.085	-111.308	0.310	-0.063
-182.071	-120.018	-0.113	-0.019
-181.056	-100.794	-0.052	-0.013
-180.042	-69.243	0.534	-0.203
-179.027	213.951	0.132	-0.207
-178.012	189.918	-0.070	0.104
-176.998	-120.149	-0.172	0.029
-175.983	800.000	-0.052	0.155
-174.969	-200.000	-0.012	0.144
-173.954	-1.211	0.079	0.055
-172.939	116.619	0.146	-0.176
-171.925	800.000	-0.041	0.178
-170.910	-109.659	0.314	0.065
-169.896	195.182	-0.032	-0.048
-168.881	-74.011	0.464	0.166
-167.866	318.978	-0.167	-0.313
-166.852	84.988	0.224	0.242
-165.837	-53.510	0.157	0.071
-164.823	-200.000	-0.029	0.152
-163.808	-32.794	-0.137	0.075
-162.793	205.508	0.107	0.163
-161.779	-97.526	0.474	0.122
-160.764	-67.584	-0.404	-0.156
-159.750	-200.000	-0.008	0.173
-158.735	122.404	-0.192	0.236
-157.720	377.466	-0.025	-0.051
-156.706	800.000	-0.065	-0.258
-155.691	800.000	0.021	0.083
-154.677	81.203	-0.127	-0.135
-153.662	-200.000	0.038	0.257
-152.647	-67.321	0.112	0.044
-151.633	-200.000	0.002	-0.360
-150.618	-82.583	-0.355	-0.114
-149.604	9.755	-0.166	-0.124
-148.589	-8.823	0.266	-0.176
-147.574	180.693	-0.128	-0.186
-146.560	-73.497	0.477	-0.172
-145.545	139.528	0.091	0.118
-144.531	-140.263	-0.286	0.029
-143.516	41.782	0.199	-0.178
-142.502	-200.000	-0.004	-0.094
-141.487	-200.000	0.037	0.192
-140.472	149.500	0.113	0.151
-139.458	-111.893	0.493	-0.098
-138.443	-200.000	0.036	0.266
-137.429	-200.000	-0.010	0.111
-136.414	55.402	0.246	0.235
-135.399	-41.572	0.142	0.072
-134.385	800.000	0.020	0.067
-133.370	195.836	0.114	0.171
-132.356	-113.674	0.436	-0.084
-131.341	96.299	-0.061	0.068
-130.326	-200.000	0.058	-0.521
-129.312	102.922	0.093	0.108
-128.297	180.327	0.170	0.246
-127.283	-64.192	-0.059	-0.024
-126.268	-11.136	-0.252	0.164
-125.253	-68.385	-0.066	-0.025
-124.239	-81.806	0.138	-0.044
-123.224	632.108	-0.060	-0.151
-122.210	62.321	0.147	0.144
