DTS Sentinel unit serial number:	SN413079Multiplexer serial number:	ORYXHardware model number:	OX4-SRSoftware version number:	ORYX F/W v4.00 Oryx Data Collector v3.7.2.0data status	okinstallation	princeton_trtdifferential loss correction	single-endedforward channel	channel 1reverse channel	N/Adate	2019/09/12time	01:44:11forward acquisition time	60.00reverse acquisition time	0.00gamma	496.2192k internal	0.2320k external	0.2320temperature offset calibration	1.0075default loss term (dB/km)	0.3790temperature slope calibration	1.0000multiplexer offset coefficient	1.0000multiplexer slope coefficient	1.0000fibre end	0.00T internal ref (°C)	32.87T ext. ref 1 (°C)	2.09T ext. ref 2 (°C)	27.47length (m)	temperature (°C)	Stokes	anti-Stokes-747.200	118.901	0.229	0.286
-746.185	26.005	-0.066	-0.056
-745.171	-21.257	-0.166	0.103
-744.156	-13.401	-0.226	-0.148
-743.142	262.615	0.037	-0.065
-742.127	-200.000	0.033	-0.151
-741.112	800.000	0.026	-0.083
-740.098	120.594	-0.179	0.225
-739.083	-200.000	-0.007	0.170
-738.069	346.750	0.076	0.152
-737.054	-24.421	0.055	0.033
-736.039	-39.409	-0.340	0.180
-735.025	-89.959	-0.227	0.067
-734.010	-3.193	-0.374	-0.263
-732.996	800.000	0.079	-0.267
-731.981	58.959	0.444	-0.441
-730.966	76.261	0.118	0.126
-729.952	84.895	0.095	0.105
-728.937	76.994	0.081	-0.087
-727.923	247.479	-0.134	0.228
-726.908	-121.808	-0.081	0.013
-725.894	-182.082	0.328	0.006
-724.879	-71.744	0.052	0.019
-723.864	-73.413	0.137	0.051
-722.850	-165.496	0.219	0.010
-721.835	-200.000	-0.006	-0.100
-720.821	-104.750	-0.191	0.044
-719.806	800.000	-0.067	0.228
-718.791	509.326	0.115	0.269
-717.777	170.339	0.194	-0.280
-716.762	-41.334	-0.082	-0.043
-715.748	7.987	0.187	-0.142
-714.733	-87.569	-0.103	0.031
-713.718	-200.000	-0.000	-0.257
-712.704	37.172	-0.118	0.105
-711.689	-200.000	0.044	-0.317
-710.675	329.077	-0.043	-0.084
-709.660	258.888	0.160	0.278
-708.645	-139.254	0.094	0.010
-707.631	97.558	-0.049	-0.057
-706.616	0.239	-0.072	-0.052
-705.602	-101.169	0.130	-0.032
-704.587	-149.183	-0.243	-0.020
-703.572	-188.725	0.191	-0.002
-702.558	253.545	0.047	0.080
-701.543	-25.333	0.279	0.167
-700.529	800.000	0.059	0.170
-699.514	138.240	0.130	0.172
-698.499	-85.829	0.259	-0.081
-697.485	-111.318	-0.241	-0.050
-696.470	139.987	0.148	-0.197
-695.456	119.804	0.207	-0.259
-694.441	10.383	-0.322	0.247
-693.426	-51.770	-0.118	0.055
-692.412	-9.632	-0.185	0.124
-691.397	800.000	0.032	-0.103
-690.383	117.474	0.087	-0.108
-689.368	138.759	-0.222	-0.294
-688.354	71.579	-0.073	-0.076
-687.339	-200.000	-0.049	0.329
-686.324	-145.303	-0.091	0.008
-685.310	140.694	0.068	0.090
-684.295	-10.330	-0.318	0.213
-683.281	-15.561	-0.186	-0.119
-682.266	-200.000	0.085	-0.379
-681.251	-89.098	-0.062	-0.018
-680.237	379.941	0.043	0.088
-679.222	124.481	0.400	-0.508
-678.208	-31.253	-0.322	-0.183
-677.193	-31.142	-0.468	0.266
-676.178	-187.366	-0.253	-0.003
-675.164	-200.000	-0.002	-0.127
-674.149	-181.906	0.287	-0.006
-673.135	-113.354	0.081	-0.016
-672.120	376.984	0.077	-0.158
-671.105	-11.026	0.251	-0.167
-670.091	100.974	-0.072	0.084
-669.076	24.535	-0.266	-0.222
-668.062	31.720	-0.180	-0.156
-667.047	-35.611	0.093	-0.051
-666.032	13.606	0.181	0.142
-665.018	-81.344	-0.218	0.073
-664.003	44.894	0.069	0.064
-662.989	88.087	0.044	0.049
-661.974	102.643	-0.200	-0.236
-660.959	-122.391	-0.351	-0.058
-659.945	-200.000	-0.052	0.359
-658.930	-200.000	-0.004	0.107
-657.916	551.145	-0.025	0.061
-656.901	13.192	-0.153	0.119
-655.886	-80.173	-0.324	0.109
-654.872	150.528	0.135	0.185
-653.857	-200.000	0.022	0.247
-652.843	800.000	-0.130	-0.375
-651.828	60.096	0.218	-0.217
-650.814	540.285	0.024	0.057
-649.799	755.675	0.077	0.209
-648.784	-200.000	0.008	0.070
-647.770	-48.946	0.286	-0.138
-646.755	-45.240	0.222	0.111
-645.741	-24.369	0.144	0.086
-644.726	-182.478	0.184	-0.003
-643.711	800.000	0.088	-0.352
-642.697	86.698	0.329	-0.366
-641.682	-53.557	-0.360	0.166
-640.668	-38.036	0.119	-0.064
-639.653	-98.864	0.339	-0.087
-638.638	497.460	-0.084	-0.194
-637.624	13.035	-0.216	-0.168
-636.609	373.868	-0.069	0.141
-635.595	84.393	0.199	0.219
-634.580	731.268	-0.065	0.174
-633.565	-200.000	0.009	-0.081
-632.551	-26.593	-0.214	0.126
-631.536	48.937	-0.186	0.176
-630.522	-125.758	0.289	0.044
-629.507	750.441	-0.134	0.364
-628.492	800.000	-0.026	0.082
-627.478	156.306	-0.044	0.062
-626.463	-33.433	0.438	0.244
-625.449	800.000	0.095	-0.326
-624.434	139.854	-0.191	0.253
-623.419	-6.102	-0.226	-0.156
-622.405	-200.000	0.010	-0.130
-621.390	-4.933	-0.345	-0.239
-620.376	126.597	-0.101	0.129
-619.361	800.000	-0.018	-0.062
-618.346	-200.000	-0.058	-0.442
-617.332	-71.648	-0.173	-0.065
-616.317	133.576	0.071	0.093
-615.303	66.888	0.249	-0.255
-614.288	-200.000	0.004	0.062
-613.273	74.444	-0.185	-0.196
-612.259	-200.000	0.009	-0.317
-611.244	196.632	0.109	0.167
-610.230	-128.314	-0.288	-0.041
-609.215	342.889	0.123	-0.242
-608.201	-4.508	-0.333	0.231
-607.186	-200.000	-0.008	-0.113
-606.171	-26.675	-0.028	0.016
-605.157	79.666	0.005	0.005
-604.142	-131.203	-0.067	-0.009
-603.128	22.133	-0.089	0.073
-602.113	-135.408	-0.359	-0.043
-601.098	40.479	0.079	-0.071
-600.084	331.875	0.068	-0.133
-599.069	-200.000	-0.026	-0.142
-598.055	-13.413	0.012	0.008
-597.040	800.000	-0.110	-0.339
-596.025	715.782	-0.068	-0.181
-595.011	389.822	0.088	-0.183
-593.996	-143.652	0.227	0.022
-592.982	79.419	-0.168	-0.182
-591.967	-200.000	-0.043	-0.619
-590.952	292.672	0.169	-0.310
-589.938	403.364	-0.124	-0.262
-588.923	-200.000	0.022	-0.185
-587.909	-200.000	-0.062	-0.273
-586.894	252.984	-0.176	0.301
-585.879	-11.375	0.396	-0.262
-584.865	-124.974	-0.136	-0.021
-583.850	-156.561	0.117	-0.007
-582.836	800.000	0.008	-0.033
-581.821	19.129	-0.210	0.169
-580.806	-200.000	-0.027	0.436
-579.792	138.518	-0.127	0.168
-578.777	339.067	0.099	0.195
-577.763	19.673	-0.215	-0.174
-576.748	518.644	0.194	-0.455
-575.733	-52.774	-0.186	0.086
-574.719	-200.000	0.009	0.117
-573.704	800.000	-0.056	-0.184
-572.690	-200.000	-0.005	-0.128
-571.675	33.102	-0.095	0.083
-570.661	-200.000	0.083	-0.374
-569.646	800.000	-0.096	0.358
-568.631	-147.526	0.349	0.030
-567.617	115.123	-0.136	-0.166
-566.602	-200.000	-0.020	-0.119
-565.588	69.672	0.029	-0.030
-564.573	224.159	-0.270	0.438
-563.558	-150.476	-0.326	0.025
-562.544	800.000	0.102	0.304
-561.529	800.000	0.015	0.042
-560.515	-200.000	-0.091	-0.449
-559.500	-115.500	0.391	-0.074
-558.485	-200.000	-0.017	0.139
-557.471	-83.830	0.417	-0.133
-556.456	-200.000	-0.043	-0.229
-555.442	-200.000	0.007	-0.193
-554.427	800.000	0.087	0.259
-553.412	-93.853	-0.172	0.048
-552.398	-130.124	0.137	0.019
-551.383	-6.920	-0.099	-0.068
-550.369	195.621	0.033	-0.051
-549.354	-75.202	-0.430	-0.154
-548.339	262.893	-0.115	-0.200
-547.325	-123.962	-0.089	0.014
-546.310	56.258	-0.187	0.182
-545.296	-200.000	-0.071	0.498
-544.281	267.672	0.192	-0.336
-543.266	32.607	0.276	0.239
-542.252	158.152	0.271	0.377
-541.237	-115.319	-0.169	-0.032
-540.223	800.000	-0.047	-0.197
-539.208	-200.000	-0.038	-0.175
-538.193	519.445	0.125	0.294
-537.179	-76.772	0.305	0.107
-536.164	-200.000	-0.047	-0.309
-535.150	424.974	0.171	-0.369
-534.135	153.300	0.151	0.207
-533.121	632.381	0.108	0.276
-532.106	362.976	-0.058	0.116
-531.091	-98.073	0.253	-0.065
-530.077	-200.000	-0.017	0.277
-529.062	90.382	0.268	0.300
-528.048	800.000	0.035	-0.152
-527.033	-63.578	-0.032	-0.013
-526.018	49.090	-0.291	0.274
-525.004	739.052	0.085	-0.228
-523.989	41.679	0.241	-0.219
-522.975	-85.045	0.148	-0.046
-521.960	63.529	-0.179	0.180
-520.945	-53.648	-0.208	-0.095
-519.931	-102.493	-0.295	-0.071
-518.916	-200.000	-0.012	0.079
-517.902	-200.000	-0.279	0.000
-516.887	336.154	0.034	0.066
-515.872	-200.000	0.002	-0.063
-514.858	171.665	0.091	-0.131
-513.843	153.082	-0.038	0.052
-512.829	472.958	0.051	0.115
-511.814	800.000	0.009	0.031
-510.799	26.269	0.290	0.243
-509.785	16.985	-0.159	0.126
-508.770	-87.539	-0.148	-0.045
-507.756	-183.221	-0.364	-0.006
-506.741	800.000	-0.041	0.146
-505.726	2.030	0.085	0.061
-504.712	-200.000	0.011	0.169
-503.697	-80.179	0.150	0.050
-502.683	-200.000	0.004	-0.056
-501.668	377.815	-0.054	0.111
-500.653	800.000	-0.130	0.488
-499.639	-124.631	0.066	0.010
-498.624	325.128	-0.168	-0.321
-497.610	211.846	0.065	0.103
-496.595	800.000	-0.074	-0.251
-495.581	-117.347	0.061	0.011
-494.566	625.224	0.016	-0.040
-493.551	-200.000	-0.001	0.020
-492.537	136.181	-0.093	0.121
-491.522	-200.000	0.004	-0.089
-490.508	195.071	0.134	0.204
-489.493	-152.172	-0.199	-0.014
-488.478	-11.854	0.132	-0.087
-487.464	-180.124	0.217	0.005
-486.449	-20.866	0.207	0.127
-485.435	-78.880	-0.082	-0.028
-484.420	-185.472	0.097	-0.001
-483.405	130.439	-0.176	0.226
-482.391	800.000	0.033	-0.141
-481.376	-200.000	0.032	0.184
-480.362	800.000	0.074	0.255
-479.347	-146.456	-0.299	0.026
-478.332	-60.921	0.149	-0.063
-477.318	-40.440	-0.195	0.101
-476.303	-66.908	0.031	-0.012
-475.289	-82.095	-0.451	-0.147
-474.274	-72.060	0.399	0.148
-473.259	800.000	0.043	0.154
-472.245	617.504	0.038	0.095
-471.230	-15.120	0.456	-0.292
-470.216	-200.000	0.003	-0.026
-469.201	-117.395	0.194	-0.035
-468.186	83.233	0.065	0.070
-467.172	70.092	-0.161	0.166
-466.157	789.327	0.116	0.318
-465.143	196.506	0.044	0.067
-464.128	800.000	-0.067	-0.265
-463.113	-43.722	0.161	0.081
-462.099	297.223	0.084	0.154
-461.084	-163.611	-0.177	-0.008
-460.070	36.390	-0.319	0.281
-459.055	136.878	0.043	0.056
-458.040	161.758	-0.135	-0.189
-457.026	800.000	-0.073	0.243
-456.011	445.218	-0.130	0.285
-454.997	800.000	-0.076	-0.236
-453.982	-200.000	0.024	-0.118
-452.968	68.723	-0.144	0.148
-451.953	23.833	-0.318	-0.262
-450.938	287.111	-0.131	0.236
-449.924	-83.245	0.316	0.101
-448.909	-200.000	0.008	-0.130
-447.895	20.894	-0.187	-0.151
-446.880	-200.000	0.010	-0.167
-445.865	-59.187	0.159	-0.068
-444.851	-156.422	0.312	0.019
-443.836	-21.417	0.323	0.197
-442.822	-2.272	0.109	-0.077
-441.807	-200.000	-0.018	-0.254
-440.792	39.836	-0.076	-0.068
-439.778	-70.450	-0.098	-0.037
-438.763	-112.969	-0.068	0.013
-437.749	-200.000	0.091	0.554
-436.734	-200.000	-0.005	0.155
-435.719	-200.000	0.015	-0.124
-434.705	69.977	0.192	0.198
-433.690	-200.000	-0.088	-0.574
-432.676	23.333	0.041	-0.033
-431.661	-159.697	0.154	0.008
-430.646	-200.000	-0.057	0.289
-429.632	608.212	-0.128	-0.320
-428.617	-43.071	-0.012	0.006
-427.603	-182.068	0.063	0.001
-426.588	771.136	-0.058	-0.159
-425.573	800.000	0.044	0.186
-424.559	-46.219	0.119	-0.059
-423.544	123.037	-0.176	0.221
-422.530	-95.162	0.033	0.009
-421.515	643.482	-0.148	0.377
-420.500	37.175	0.238	0.210
-419.486	5.512	0.023	-0.017
-418.471	120.561	-0.123	0.153
-417.457	123.784	-0.041	-0.051
-416.442	-79.658	0.383	-0.129
-415.428	-180.826	-0.205	-0.004
-414.413	-61.131	0.090	-0.038
-413.398	-200.000	-0.010	0.391
-412.384	800.000	-0.056	0.181
-411.369	81.150	0.307	-0.331
-410.355	-200.000	-0.051	0.233
-409.340	800.000	0.063	-0.249
-408.325	517.128	-0.102	0.238
-407.311	114.608	0.058	-0.070
-406.296	-160.929	0.144	0.008
-405.282	80.336	0.030	0.032
-404.267	74.787	0.183	-0.192
-403.252	-66.746	-0.225	0.089
-402.238	-200.000	0.059	0.302
-401.223	-28.379	0.324	-0.186
-400.209	-42.452	-0.111	0.057
-399.194	-200.000	-0.016	-0.133
-398.179	344.468	0.133	-0.261
-397.165	-200.000	-0.109	-0.541
-396.150	140.911	-0.167	-0.220
-395.136	-121.136	0.131	0.022
-394.121	-57.169	-0.187	0.082
-393.106	387.313	-0.052	-0.107
-392.092	-5.256	-0.174	-0.119
-391.077	256.248	-0.131	-0.224
-390.063	-200.000	-0.025	-0.119
-389.048	-200.000	-0.056	-0.276
-388.033	-94.717	-0.075	0.020
-387.019	-79.527	-0.491	-0.165
-386.004	693.694	0.188	-0.492
-384.990	-4.391	-0.110	-0.076
-383.975	-77.077	0.245	-0.085
-382.960	800.000	-0.067	0.196
-381.946	800.000	-0.134	-0.440
-380.931	800.000	-0.024	0.097
-379.917	7.706	-0.421	0.314
-378.902	-14.235	-0.186	-0.119
-377.888	-41.061	0.132	0.068
-376.873	-21.708	0.247	0.150
-375.858	633.678	0.081	-0.204
-374.844	-200.000	0.039	-0.408
-373.829	-11.421	-0.268	-0.176
-372.815	-4.954	-0.170	0.117
-371.800	70.709	0.047	-0.048
-370.785	-21.257	-0.132	-0.081
-369.771	408.655	0.128	0.269
-368.756	428.800	0.158	-0.339
-367.742	312.619	0.070	-0.130
-366.727	-148.368	0.238	0.019
-365.712	-63.594	-0.108	-0.044
-364.698	-200.000	0.010	0.226
-363.683	800.000	0.116	0.349
-362.669	273.540	0.095	0.168
-361.654	17.079	0.151	0.119
-360.639	800.000	0.014	0.049
-359.625	-64.461	-0.219	-0.089
-358.610	86.090	0.254	-0.278
-357.596	-96.440	0.104	0.027
-356.581	-191.720	-0.210	-0.002
-355.566	800.000	0.076	-0.312
-354.552	37.393	-0.281	0.248
-353.537	186.420	-0.235	-0.349
-352.523	759.484	-0.122	0.328
-351.508	-59.775	-0.241	0.103
-350.493	-38.701	0.247	0.130
-349.479	29.736	0.198	0.168
-348.464	-17.907	-0.267	0.167
-347.450	-66.834	0.225	-0.089
-346.435	-143.265	-0.088	-0.008
-345.420	-115.580	-0.269	-0.050
-344.406	-110.437	0.139	0.029
-343.391	-70.483	0.297	0.112
-342.377	283.828	0.051	0.092
-341.362	-200.000	0.066	-0.306
-340.348	30.690	0.182	0.155
-339.333	800.000	-0.094	0.381
-338.318	66.813	-0.164	0.166
-337.304	76.596	-0.023	-0.024
-336.289	-75.885	-0.102	0.036
-335.275	-104.888	0.237	-0.054
-334.260	442.405	0.171	0.373
-333.245	-145.811	-0.104	0.009
-332.231	-31.028	-0.236	-0.132
-331.216	-49.473	0.161	-0.076
-330.202	800.000	0.042	-0.173
-329.187	524.905	0.051	0.120
-328.172	800.000	-0.111	0.352
-327.158	330.986	-0.028	0.053
-326.143	-9.729	-0.187	-0.124
-325.129	8.532	-0.330	-0.247
-324.114	-27.310	0.113	-0.066
-323.099	-186.047	-0.296	-0.004
-322.085	-105.714	-0.108	-0.024
-321.070	-33.927	-0.128	-0.070
-320.056	224.669	-0.068	0.109
-319.041	326.485	0.129	0.245
-318.026	35.817	-0.151	-0.132
-317.012	-91.732	0.311	0.088
-315.997	38.708	0.054	0.048
-314.983	-107.937	0.133	0.029
-313.968	800.000	0.064	-0.190
-312.953	-169.262	-0.044	0.002
-311.939	118.577	0.219	0.269
-310.924	-172.835	0.095	0.003
-309.910	-144.642	0.264	0.024
-308.895	136.115	-0.208	0.269
-307.880	534.912	-0.136	0.320
-306.866	-84.073	-0.214	-0.067
-305.851	85.957	-0.175	0.192
-304.837	142.837	0.043	-0.057
-303.822	10.206	-0.033	0.025
-302.807	28.132	0.218	0.183
-301.793	-200.000	-0.059	-0.362
-300.778	-126.092	0.186	0.028
-299.764	159.426	0.295	-0.408
-298.749	-200.000	0.009	-0.175
-297.735	106.611	-0.083	-0.097
-296.720	389.069	-0.112	0.230
-295.705	638.103	0.072	0.182
-294.691	45.714	-0.221	0.203
-293.676	0.965	-0.109	-0.078
-292.662	-153.056	-0.107	-0.007
-291.647	332.894	0.125	-0.239
-290.632	800.000	-0.061	-0.181
-289.618	-97.011	0.263	0.068
-288.603	-6.653	0.172	-0.116
-287.589	39.995	0.090	-0.080
-286.574	-65.976	0.101	0.040
-285.559	326.970	0.187	0.356
-284.545	-200.000	0.008	0.521
-283.530	-200.000	-0.031	-0.196
-282.516	-200.000	0.004	-0.029
-281.501	800.000	0.050	-0.207
-280.486	-20.072	0.319	-0.196
-279.472	-123.371	-0.224	-0.035
-278.457	-200.000	0.048	-0.290
-277.443	551.707	0.099	-0.237
-276.428	547.468	0.024	0.057
-275.413	-121.979	-0.236	0.038
-274.399	-85.012	-0.096	0.030
-273.384	-47.730	0.391	-0.188
-272.370	800.000	-0.036	0.142
-271.355	800.000	0.153	0.559
-270.340	244.141	0.167	-0.278
-269.326	77.007	0.062	-0.066
-268.311	-48.754	0.109	0.052
-267.297	57.097	-0.127	0.123
-266.282	68.456	0.254	0.258
-265.267	-59.423	0.132	0.056
-264.253	181.107	0.270	0.393
-263.238	327.080	-0.052	0.099
-262.224	-140.451	-0.209	-0.022
-261.209	-200.000	-0.339	-0.001
-260.195	-200.000	-0.077	0.392
-259.180	800.000	0.095	0.287
-258.165	-95.963	0.064	-0.017
-257.151	-30.964	-0.140	-0.078
-256.136	-200.000	-0.000	0.113
-255.122	169.779	-0.018	-0.026
-254.107	59.057	-0.047	-0.045
-253.092	-200.000	-0.009	0.132
-252.078	190.717	0.067	0.100
-251.063	-67.790	-0.163	-0.063
-250.049	800.000	0.063	0.202
-249.034	81.887	0.146	-0.157
-248.019	-200.000	0.026	-0.382
-247.005	-200.000	-0.011	0.234
-245.990	45.074	0.032	0.029
-244.976	-200.000	-0.015	0.145
-243.961	394.921	-0.016	0.034
-242.946	-34.721	-0.255	-0.138
-241.932	280.128	-0.128	-0.226
-240.917	-40.148	-0.233	0.120
-239.903	152.737	0.188	-0.255
-238.888	232.307	-0.129	-0.211
-237.873	800.000	-0.070	-0.202
-236.859	47.837	-0.099	-0.092
-235.844	402.951	0.183	0.381
-234.830	-63.120	-0.087	-0.036
-233.815	800.000	-0.127	-0.383
-232.800	-198.014	-0.100	-0.001
-231.786	-200.000	-0.048	0.216
-230.771	-200.000	-0.015	0.088
-229.757	60.153	0.111	-0.109
-228.742	15.804	0.169	0.131
-227.727	-3.205	-0.091	0.063
-226.713	205.186	-0.057	-0.088
-225.698	-200.000	-0.076	-0.412
-224.684	-39.942	-0.098	0.051
-223.669	-200.000	-0.009	-0.360
-222.655	260.782	-0.070	-0.120
-221.640	-87.816	-0.351	0.105
-220.625	468.961	0.061	-0.136
-219.611	-200.000	0.013	0.138
-218.596	-200.000	-0.005	-0.115
-217.582	222.668	-0.116	0.185
-216.567	96.978	0.332	-0.377
-215.552	350.728	-0.052	-0.101
-214.538	7.553	-0.191	-0.141
-213.523	-15.923	0.182	-0.115
-212.509	173.210	-0.158	0.225
-211.494	-200.000	-0.033	0.266
-210.479	-61.812	0.168	0.070
-209.465	-200.000	0.003	-0.031
-208.450	-35.965	-0.040	-0.022
-207.436	-150.383	0.472	0.036
-206.421	236.923	0.087	0.143
-205.406	-114.708	-0.226	0.043
-204.392	78.732	0.133	-0.141
-203.377	85.719	-0.334	-0.364
-202.363	-66.847	0.381	0.149
-201.348	-27.205	-0.249	0.143
-200.333	343.291	0.048	-0.093
-199.319	165.543	-0.149	-0.208
-198.304	-88.837	0.440	0.129
-197.290	-10.310	-0.281	0.185
-196.275	109.586	-0.120	0.142
-195.260	-10.266	0.139	-0.091
-194.246	204.329	-0.213	-0.327
-193.231	800.000	-0.048	-0.171
-192.217	800.000	0.049	0.159
-191.202	-126.668	0.360	-0.053
-190.187	405.960	0.121	0.253
-189.173	-200.000	-0.096	-0.435
-188.158	-200.000	-0.012	-0.094
-187.144	-200.000	0.053	0.324
-186.129	-63.937	-0.149	-0.060
-185.114	-93.499	-0.178	-0.049
-184.100	555.113	0.080	-0.191
-183.085	-40.685	-0.044	-0.023
-182.071	194.090	0.231	0.346
-181.056	800.000	-0.081	0.225
-180.042	-166.741	-0.298	0.012
-179.027	-62.258	-0.260	-0.107
-178.012	-22.235	-0.132	-0.079
-176.998	70.344	0.045	0.046
-175.983	-200.000	0.023	0.178
-174.969	128.931	0.169	0.213
-173.954	800.000	-0.078	0.212
-172.939	-111.366	-0.424	-0.086
-171.925	-23.929	0.383	-0.227
-170.910	1.958	-0.111	0.079
-169.896	150.395	-0.132	-0.178
-168.881	718.830	0.010	0.025
-167.866	-3.520	-0.263	-0.181
-166.852	-11.840	0.270	-0.175
-165.837	-60.106	0.244	0.103
-164.823	33.708	0.281	0.241
-163.808	193.958	-0.146	0.219
-162.793	-13.684	0.143	0.092
-161.779	34.608	0.121	0.105
-160.764	87.557	0.191	-0.209
-159.750	-56.896	-0.218	0.095
-158.735	-200.000	0.011	0.074
-157.720	-53.823	-0.347	0.157
-156.706	-99.234	0.380	-0.095
-155.691	-84.267	0.076	-0.024
-154.677	695.100	0.054	0.141
-153.662	-75.291	-0.132	-0.046
-152.647	800.000	0.079	0.264
-151.633	-162.929	0.204	0.010
-150.618	169.365	0.244	0.344
-149.604	48.440	-0.208	0.192
-148.589	-97.674	-0.197	0.050
-147.574	-86.990	0.177	0.053
-146.560	581.391	0.047	-0.115
-145.545	109.566	0.217	0.257
-144.531	-88.696	0.185	-0.054
-143.516	-107.897	0.065	-0.014
-142.502	-200.000	0.009	-0.182
-141.487	-61.656	0.171	0.071
-140.472	-13.889	-0.137	0.087
-139.458	-75.911	-0.138	-0.048
-138.443	-34.200	-0.213	-0.116
-137.429	-134.198	0.161	0.020
-136.414	515.333	-0.035	0.080
-135.399	-43.593	0.170	-0.085
-134.385	-65.063	0.469	-0.187
-133.370	-200.000	-0.019	0.236
-132.356	-200.000	0.015	-0.121
-131.341	-20.783	-0.077	0.047
-130.326	800.000	-0.110	0.335
-129.312	-200.000	-0.060	0.484
-128.297	800.000	-0.034	0.143
-127.283	-200.000	0.032	0.208
-126.268	-92.547	-0.179	0.050
-125.253	-42.771	-0.103	0.052
-124.239	-26.906	0.179	-0.103
-123.224	-200.000	0.003	0.176
-122.210	172.760	0.182	0.259
-121.195	39.392	-0.263	0.232
-120.180	-200.000	0.009	-0.167
