DTS Sentinel unit serial number:	SN413079Multiplexer serial number:	ORYXHardware model number:	OX4-SRSoftware version number:	ORYX F/W v4.00 Oryx Data Collector v3.7.2.0data status	okinstallation	princeton_trtdifferential loss correction	single-endedforward channel	channel 1reverse channel	N/Adate	2019/09/15time	06:34:35forward acquisition time	60.00reverse acquisition time	0.00gamma	496.2192k internal	0.2325k external	0.2325temperature offset calibration	0.9991default loss term (dB/km)	0.3790temperature slope calibration	1.0000multiplexer offset coefficient	1.0000multiplexer slope coefficient	1.0000fibre end	0.00T internal ref (°C)	30.50T ext. ref 1 (°C)	4.80T ext. ref 2 (°C)	25.39length (m)	temperature (°C)	Stokes	anti-Stokes-747.200	-61.617	-0.104	0.044
-746.185	290.845	-0.088	0.162
-745.171	-85.478	-0.158	-0.050
-744.156	435.835	0.130	0.285
-743.142	28.788	0.190	-0.162
-742.127	336.632	-0.101	0.198
-741.112	330.201	-0.120	0.233
-740.098	-200.000	-0.026	-0.149
-739.083	123.295	-0.150	0.189
-738.069	-97.514	-0.582	0.153
-737.054	800.000	-0.045	-0.193
-736.039	170.825	-0.184	-0.265
-735.025	-12.073	0.305	-0.202
-734.010	-33.386	-0.211	0.118
-732.996	-121.555	-0.140	-0.024
-731.981	60.840	-0.146	0.146
-730.966	800.000	0.006	-0.019
-729.952	14.664	0.265	0.209
-728.937	-101.510	-0.291	0.072
-727.923	-200.000	0.009	-0.193
-726.908	5.100	-0.135	0.100
-725.894	-200.000	-0.011	-0.224
-724.879	12.361	-0.201	-0.156
-723.864	-67.112	0.147	-0.058
-722.850	800.000	0.052	0.176
-721.835	37.456	-0.167	-0.149
-720.821	-82.034	0.219	-0.072
-719.806	-9.390	-0.113	0.076
-718.791	-200.000	-0.010	-0.253
-717.777	800.000	0.041	-0.131
-716.762	-200.000	-0.036	0.158
-715.748	-125.837	0.071	-0.011
-714.733	-90.101	-0.186	0.055
-713.718	618.950	0.090	-0.228
-712.704	-46.448	0.176	-0.087
-711.689	-71.863	0.224	0.084
-710.675	-200.000	0.078	-0.391
-709.660	0.721	0.126	-0.091
-708.645	-0.634	-0.209	0.150
-707.631	-73.015	0.127	-0.047
-706.616	201.506	-0.143	-0.223
-705.602	-200.000	0.002	-0.115
-704.587	-95.706	-0.091	0.024
-703.572	162.627	-0.056	-0.080
-702.558	-47.704	-0.175	0.085
-701.543	-45.977	0.131	0.065
-700.529	-62.012	0.068	0.029
-699.514	-192.076	-0.402	0.004
-698.499	71.411	-0.064	0.067
-697.485	800.000	-0.062	-0.216
-696.470	-171.147	0.185	-0.006
-695.456	-200.000	0.023	0.332
-694.441	140.335	0.116	-0.154
-693.426	100.198	-0.127	-0.148
-692.412	79.036	0.358	-0.386
-691.397	-98.715	-0.382	-0.098
-690.383	-15.331	-0.056	-0.036
-689.368	-45.812	0.247	-0.123
-688.354	236.236	-0.152	0.254
-687.339	-33.866	-0.058	0.032
-686.324	-74.414	-0.461	0.167
-685.310	-93.734	0.181	0.050
-684.295	-200.000	0.017	0.134
-683.281	-200.000	0.002	-0.164
-682.266	62.558	0.380	-0.382
-681.251	192.585	0.184	0.280
-680.237	-16.206	0.162	0.104
-679.222	94.150	0.094	0.108
-678.208	-131.527	-0.314	0.042
-677.193	132.620	0.192	-0.249
-676.178	26.273	0.052	0.043
-675.164	-22.364	-0.425	0.259
-674.149	328.405	0.014	0.027
-673.135	-200.000	-0.014	0.184
-672.120	394.655	0.167	0.351
-671.105	-30.066	-0.535	0.306
-670.091	-70.310	0.116	0.044
-669.076	-94.610	0.521	-0.143
-668.062	322.072	-0.087	-0.167
-667.047	800.000	0.069	0.267
-666.032	800.000	-0.079	0.288
-665.018	26.333	-0.219	-0.184
-664.003	-140.842	-0.311	-0.032
-662.989	116.703	-0.091	0.113
-661.974	-8.957	0.176	-0.119
-660.959	-200.000	-0.000	0.082
-659.945	64.914	-0.118	-0.120
-658.930	-6.312	-0.148	0.102
-657.916	-149.451	0.303	0.024
-656.901	107.762	0.026	0.032
-655.886	-74.385	-0.343	-0.124
-654.872	800.000	-0.028	-0.094
-653.857	-54.836	-0.335	-0.152
-652.843	106.253	0.226	-0.269
-651.828	175.529	0.268	-0.391
-650.814	-200.000	-0.018	-0.329
-649.799	800.000	-0.008	-0.034
-648.784	-200.000	-0.052	-0.287
-647.770	78.766	0.285	0.306
-646.755	69.176	0.221	0.228
-645.741	67.456	-0.219	0.225
-644.726	-200.000	-0.017	-0.147
-643.711	-200.000	-0.041	0.334
-642.697	419.008	-0.129	0.277
-641.682	381.617	0.187	0.386
-640.668	-80.214	-0.143	0.048
-639.653	800.000	-0.034	-0.113
-638.638	-186.576	-0.174	-0.002
-637.624	-79.277	-0.019	0.007
-636.609	151.129	0.090	-0.124
-635.595	213.436	-0.112	0.177
-634.580	125.518	0.071	-0.090
-633.565	46.486	-0.104	-0.097
-632.551	-84.329	0.078	0.025
-631.536	-200.000	-0.011	0.151
-630.522	71.185	0.123	-0.128
-629.507	144.221	-0.110	-0.147
-628.492	-96.474	0.079	-0.021
-627.478	538.529	0.144	0.343
-626.463	-200.000	0.034	-0.373
-625.449	660.358	0.142	0.366
-624.434	-75.443	-0.139	-0.050
-623.419	204.424	-0.163	0.254
-622.405	-200.000	0.039	-0.180
-621.390	-27.426	-0.075	-0.044
-620.376	161.207	0.160	-0.224
-619.361	68.107	-0.071	-0.073
-618.346	116.056	0.129	0.159
-617.332	-113.951	-0.202	0.039
-616.317	207.497	-0.158	-0.248
-615.303	-112.352	-0.241	0.048
-614.288	800.000	-0.146	0.418
-613.273	523.541	0.105	-0.248
-612.259	506.559	0.143	0.332
-611.244	-200.000	-0.026	-0.331
-610.230	-57.447	-0.241	0.106
-609.215	206.912	-0.060	-0.093
-608.201	4.818	-0.251	0.185
-607.186	-177.465	-0.250	-0.006
-606.171	14.402	-0.121	-0.095
-605.157	44.116	0.193	0.178
-604.142	800.000	-0.045	0.146
-603.128	425.190	0.236	0.510
-602.113	-200.000	-0.006	-0.378
-601.098	-12.235	-0.188	-0.124
-600.084	-200.000	-0.011	0.091
-599.069	-200.000	-0.024	-0.210
-598.055	29.389	-0.060	-0.051
-597.040	456.465	0.206	0.460
-596.025	250.679	0.125	0.213
-595.011	578.255	-0.065	-0.161
-593.996	597.907	0.140	-0.348
-592.982	158.088	-0.157	-0.218
-591.967	-135.975	-0.330	-0.039
-590.952	-10.346	-0.167	-0.111
-589.938	-200.000	0.003	-0.194
-588.923	1.499	-0.176	-0.127
-587.909	-112.573	-0.128	-0.025
-586.894	30.283	-0.070	-0.060
-585.879	800.000	0.067	-0.188
-584.865	-14.482	-0.334	0.215
-583.850	9.273	-0.162	-0.123
-582.836	-77.640	0.168	-0.058
-581.821	-74.251	-0.144	0.052
-580.806	-200.000	-0.005	-0.278
-579.792	-35.893	0.030	-0.016
-578.777	-128.129	-0.163	-0.023
-577.763	-150.719	0.380	0.029
-576.748	-41.300	-0.050	0.026
-575.733	6.304	-0.276	0.206
-574.719	27.816	-0.144	0.121
-573.704	-166.016	0.053	0.002
-572.690	741.830	0.046	-0.124
-571.675	-161.937	-0.027	0.001
-570.661	800.000	0.076	0.217
-569.646	-76.230	-0.112	-0.039
-568.631	357.567	0.131	0.262
-567.617	-200.000	0.008	-0.105
-566.602	-200.000	-0.007	-0.095
-565.588	-55.056	0.269	0.121
-564.573	-122.953	-0.207	-0.033
-563.558	-35.771	-0.081	0.044
-562.544	-50.106	-0.110	0.052
-561.529	-64.196	-0.132	0.054
-560.515	-200.000	-0.003	0.210
-559.500	512.243	-0.064	-0.148
-558.485	194.547	-0.049	-0.074
-557.471	3.541	0.144	-0.106
-556.456	-200.000	0.016	-0.175
-555.442	-200.000	0.048	0.237
-554.427	-10.842	-0.293	0.194
-553.412	522.385	-0.099	-0.233
-552.398	-52.227	0.258	0.120
-551.383	-200.000	-0.042	-0.237
-550.369	17.697	0.168	-0.134
-549.354	263.660	0.157	0.272
-548.339	160.952	-0.188	-0.264
-547.325	16.201	-0.127	-0.100
-546.310	-148.582	0.141	0.012
-545.296	-154.947	-0.118	0.008
-544.281	800.000	0.037	0.119
-543.266	-13.887	0.309	0.200
-542.252	-200.000	-0.003	-0.084
-541.237	28.339	0.188	-0.159
-540.223	203.778	-0.076	-0.117
-539.208	273.977	0.063	-0.111
-538.193	-158.477	0.052	-0.003
-537.179	-81.323	-0.262	0.086
-536.164	37.745	0.092	-0.082
-535.150	-35.698	-0.116	0.063
-534.135	-120.027	-0.088	0.015
-533.121	-7.112	0.340	0.231
-532.106	39.757	-0.021	0.019
-531.091	-200.000	0.003	0.113
-530.077	-11.439	0.181	0.119
-529.062	-49.342	0.051	0.025
-528.048	-22.764	-0.048	-0.029
-527.033	370.185	-0.176	0.357
-526.018	-200.000	-0.049	-0.375
-525.004	-105.989	0.241	0.054
-523.989	-129.137	0.023	-0.003
-522.975	-134.134	-0.291	0.036
-521.960	462.017	-0.040	-0.089
-520.945	82.377	0.150	-0.163
-519.931	800.000	0.045	0.164
-518.916	29.129	-0.263	0.223
-517.902	-71.977	-0.379	-0.141
-516.887	-200.000	0.016	0.077
-515.872	800.000	-0.178	0.567
-514.858	-178.298	0.106	-0.002
-513.843	-200.000	-0.042	0.190
-512.829	-200.000	0.008	0.249
-511.814	-132.910	0.175	-0.022
-510.799	0.214	0.319	0.228
-509.785	175.472	-0.111	-0.161
-508.770	44.711	0.117	-0.108
-507.756	-138.397	0.235	0.026
-506.741	-200.000	-0.055	0.265
-505.726	-112.945	0.057	-0.011
-504.712	-154.816	0.293	0.019
-503.697	183.298	0.122	0.180
-502.683	63.758	-0.133	-0.133
-501.668	-40.955	-0.149	-0.077
-500.653	-174.761	-0.209	-0.006
-499.639	-18.430	0.158	-0.098
-498.624	11.006	0.026	-0.020
-497.610	800.000	0.022	0.062
-496.595	193.577	-0.286	-0.433
-495.581	-108.622	0.410	-0.088
-494.566	-93.499	0.225	0.062
-493.551	-124.361	-0.360	0.056
-492.537	-28.443	-0.018	0.010
-491.522	800.000	-0.103	-0.300
-490.508	-114.353	-0.091	-0.017
-489.493	-75.883	0.246	-0.087
-488.478	1.077	0.259	0.186
-487.464	64.363	-0.392	0.394
-486.449	212.610	0.157	0.247
-485.435	-61.211	-0.138	0.058
-484.420	-98.341	-0.172	0.044
-483.405	86.676	0.169	-0.186
-482.391	292.656	-0.088	0.161
-481.376	11.761	-0.054	0.041
-480.362	800.000	0.043	0.124
-479.347	-105.889	-0.352	-0.079
-478.332	343.420	0.191	-0.373
-477.318	-141.938	-0.054	-0.005
-476.303	800.000	0.034	-0.103
-475.289	-26.819	0.049	0.029
-474.274	28.948	0.225	-0.190
-473.259	-200.000	-0.008	-0.101
-472.245	7.118	0.366	0.273
-471.230	800.000	-0.115	-0.349
-470.216	-70.010	0.154	-0.059
-469.201	77.066	-0.241	-0.255
-468.186	101.299	-0.048	-0.056
-467.172	390.501	-0.116	-0.240
-466.157	800.000	0.089	-0.312
-465.143	-12.814	-0.195	-0.127
-464.128	-5.099	0.107	0.074
-463.113	-41.844	0.183	0.094
-462.099	-110.298	-0.083	-0.017
-461.084	800.000	-0.057	-0.226
-460.070	417.450	-0.034	0.073
-459.055	267.450	-0.114	-0.199
-458.040	264.744	0.099	-0.172
-457.026	330.683	-0.177	-0.340
-456.011	-104.047	-0.334	-0.078
-454.997	238.690	0.236	0.391
-453.982	342.774	-0.029	-0.057
-452.968	-66.098	0.129	0.051
-451.953	-200.000	0.001	-0.303
-450.938	-200.000	-0.019	-0.106
-449.924	366.823	-0.130	0.261
-448.909	-200.000	0.003	-0.097
-447.895	-49.189	0.085	0.040
-446.880	-104.405	-0.164	0.038
-445.865	-82.239	0.165	0.054
-444.851	-26.022	-0.020	-0.012
-443.836	430.573	-0.047	0.102
-442.822	-21.004	0.198	0.121
-441.807	-200.000	-0.272	-0.000
-440.792	800.000	-0.080	-0.265
-439.778	-71.699	0.150	-0.056
-438.763	26.599	0.148	-0.123
-437.749	160.662	0.139	-0.194
-436.734	574.640	-0.048	0.116
-435.719	744.891	0.114	0.306
-434.705	127.282	-0.153	0.193
-433.690	57.932	-0.199	-0.194
-432.676	800.000	0.104	-0.308
-431.661	243.466	0.088	-0.148
-430.646	-26.921	0.028	0.016
-429.632	-106.094	0.161	0.036
-428.617	-34.797	-0.384	-0.209
-427.603	242.976	-0.065	0.108
-426.588	131.395	-0.149	-0.191
-425.573	20.980	0.302	0.244
-424.559	-38.813	0.345	0.181
-423.544	-200.000	-0.033	-0.232
-422.530	90.396	0.285	-0.318
-421.515	-128.149	0.073	0.010
-420.500	26.354	0.183	-0.152
-419.486	-61.333	-0.302	0.127
-418.471	363.922	0.068	0.137
-417.457	34.171	0.235	0.204
-416.442	-14.082	0.171	0.110
-415.428	-22.416	-0.132	0.080
-414.413	66.877	0.192	0.195
-413.398	93.745	0.067	0.076
-412.384	-122.138	-0.056	-0.009
-411.369	-200.000	0.030	0.309
-410.355	-200.000	-0.021	0.141
-409.340	-2.108	0.152	0.106
-408.325	-200.000	-0.018	0.080
-407.311	800.000	0.044	-0.136
-406.296	220.855	-0.046	0.074
-405.282	-60.409	0.071	-0.030
-404.267	72.375	-0.253	-0.262
-403.252	-88.410	0.311	0.093
-402.238	800.000	-0.028	0.101
-401.223	770.070	-0.014	0.037
-400.209	-200.000	-0.003	-0.029
-399.194	64.040	0.174	-0.174
-398.179	-200.000	0.028	0.303
-397.165	559.562	-0.079	0.189
-396.150	449.055	0.067	0.147
-395.136	-131.789	0.184	0.024
-394.121	-117.576	0.257	0.046
-393.106	62.122	-0.045	-0.045
-392.092	373.986	-0.027	0.054
-391.077	-77.493	0.146	-0.050
-390.063	-200.000	-0.045	0.215
-389.048	-21.812	-0.290	-0.175
-388.033	-200.000	0.013	-0.153
-387.019	-97.593	-0.262	-0.068
-386.004	78.311	0.034	-0.036
-384.990	-104.756	0.092	0.021
-383.975	578.320	0.190	-0.463
-382.960	-32.412	-0.317	-0.176
-381.946	-101.338	0.227	-0.055
-380.931	119.482	-0.114	0.140
-379.917	5.339	0.081	-0.060
-378.902	-171.006	0.170	-0.006
-377.888	-76.153	0.267	0.094
-376.873	200.095	-0.080	0.123
-375.858	-200.000	-0.010	-0.214
-374.844	197.314	0.171	0.260
-373.829	17.719	-0.187	-0.148
-372.815	-200.000	0.034	0.301
-371.800	-200.000	0.018	0.178
-370.785	-62.215	-0.278	0.115
-369.771	248.001	0.047	-0.079
-368.756	-100.472	-0.153	0.038
-367.742	324.507	-0.151	-0.288
-366.727	800.000	-0.068	-0.254
-365.712	21.339	-0.172	-0.139
-364.698	-161.649	-0.023	-0.001
-363.683	674.722	-0.023	0.060
-362.669	-150.761	-0.314	-0.024
-361.654	-117.881	0.199	-0.035
-360.639	-35.630	0.226	-0.122
-359.625	27.873	0.114	0.095
-358.610	626.293	0.027	-0.067
-357.596	800.000	0.064	0.264
-356.581	-200.000	-0.002	0.319
-355.566	158.201	0.189	-0.260
-354.552	-200.000	-0.000	-0.210
-353.537	199.241	-0.079	-0.121
-352.523	251.766	-0.236	-0.399
-351.508	162.294	-0.136	-0.189
-350.493	-135.501	-0.480	-0.057
-349.479	3.106	-0.116	-0.084
-348.464	18.459	-0.142	0.113
-347.450	-28.058	0.371	0.213
-346.435	-114.071	0.056	-0.011
-345.420	92.962	0.037	-0.041
-344.406	420.470	-0.017	0.035
-343.391	-115.766	0.345	0.064
-342.377	141.919	-0.148	0.195
-341.362	-130.884	0.386	0.051
-340.348	800.000	0.108	-0.361
-339.333	-70.175	0.173	0.065
-338.318	-70.951	-0.151	-0.057
-337.304	-200.000	0.055	-0.274
-336.289	-200.000	-0.005	-0.030
-335.275	9.103	0.163	-0.122
-334.260	800.000	0.046	-0.145
-333.245	-200.000	0.066	-0.332
-332.231	-42.263	-0.273	0.138
-331.216	-200.000	0.001	-0.123
-330.202	-183.071	0.107	-0.002
-329.187	-124.086	0.229	-0.036
-328.172	182.431	-0.251	-0.368
-327.158	-116.925	-0.180	0.033
-326.143	478.558	-0.140	0.314
-325.129	-164.694	0.217	0.010
-324.114	800.000	-0.003	-0.013
-323.099	180.688	-0.095	-0.138
-322.085	28.191	0.074	-0.062
-321.070	-52.754	-0.278	-0.127
-320.056	207.707	0.162	0.251
-319.041	-200.000	0.002	0.162
-318.026	-200.000	0.015	0.143
-317.012	487.149	-0.038	-0.087
-315.997	284.331	-0.136	-0.244
-314.983	473.323	0.096	-0.215
-313.968	372.860	-0.078	-0.157
-312.953	-73.547	0.366	-0.132
-311.939	-154.165	0.102	0.007
-310.924	-90.979	-0.392	-0.112
-309.910	-148.742	0.280	-0.023
-308.895	311.182	0.123	-0.229
-307.880	178.556	-0.133	-0.193
-306.866	-56.492	0.219	0.096
-305.851	-200.000	-0.079	0.359
-304.837	15.797	0.105	-0.082
-303.822	371.080	0.120	-0.242
-302.807	127.452	-0.038	-0.048
-301.793	56.654	-0.127	0.122
-300.778	-77.153	-0.231	-0.080
-299.764	-120.215	0.238	-0.040
-298.749	95.885	-0.180	-0.203
-297.735	97.351	0.140	-0.159
-296.720	-200.000	0.004	-0.044
-295.705	69.582	-0.151	-0.155
-294.691	199.373	-0.073	-0.111
-293.676	-5.287	-0.394	-0.268
-292.662	-200.000	0.034	-0.310
-291.647	800.000	-0.043	-0.133
-290.632	139.647	0.028	-0.037
-289.618	-200.000	-0.044	0.258
-288.603	140.260	-0.066	-0.086
-287.589	176.832	0.072	0.104
-286.574	800.000	-0.034	0.116
-285.559	-85.100	-0.060	-0.019
-284.545	800.000	-0.093	-0.307
-283.530	-89.504	-0.015	0.004
-282.516	-200.000	-0.011	0.110
-281.501	25.511	0.128	-0.106
-280.486	-200.000	0.027	0.193
-279.472	-31.739	-0.268	-0.149
-278.457	-200.000	0.005	-0.027
-277.443	-200.000	0.009	0.043
-276.428	-2.875	0.020	-0.014
-275.413	450.546	0.017	0.037
-274.399	188.214	-0.046	0.067
-273.384	-200.000	0.048	-0.235
-272.370	-200.000	0.030	0.437
-271.355	602.015	-0.102	0.252
-270.340	213.939	-0.201	0.316
-269.326	171.936	-0.163	0.232
-268.311	8.698	-0.084	-0.063
-267.297	-73.419	-0.021	0.007
-266.282	779.862	0.050	-0.136
-265.267	800.000	0.051	-0.149
-264.253	-30.193	-0.158	0.089
-263.238	-41.712	0.091	-0.046
-262.224	-200.000	-0.049	0.379
-261.209	-141.438	-0.232	-0.023
-260.195	-200.000	-0.046	0.218
-259.180	-5.098	0.184	0.125
-258.165	-97.487	0.356	0.092
-257.151	-131.378	0.064	-0.008
-256.136	88.017	0.210	0.231
-255.122	234.143	0.064	-0.105
-254.107	57.591	0.121	0.117
-253.092	79.681	-0.069	0.074
-252.078	56.688	-0.246	0.237
-251.063	-19.686	-0.108	-0.066
-250.049	-200.000	-0.005	0.081
-249.034	76.571	0.310	0.325
-248.019	800.000	0.085	-0.315
-247.005	140.766	-0.252	-0.329
-245.990	147.635	0.054	-0.073
-244.976	72.385	0.200	0.206
-243.961	118.630	-0.069	0.085
-242.946	57.884	0.011	-0.011
-241.932	95.407	0.090	0.101
-240.917	232.130	-0.126	0.204
-239.903	-200.000	0.008	0.114
-238.888	56.742	0.100	0.097
-237.873	31.945	-0.220	-0.187
-236.859	-40.388	-0.055	-0.028
-235.844	-0.745	-0.064	0.045
-234.830	-86.974	-0.225	0.068
-233.815	13.227	-0.222	-0.170
-232.800	800.000	0.081	0.235
-231.786	-154.324	0.121	-0.008
-230.771	344.666	-0.042	0.081
-229.757	398.395	-0.112	0.231
-228.742	164.202	0.108	-0.150
-227.727	18.299	-0.134	0.106
-226.713	800.000	-0.037	-0.117
-225.698	394.801	-0.086	-0.177
-224.684	-151.878	-0.195	0.014
-223.669	-100.286	-0.261	0.064
-222.655	568.055	-0.034	0.082
-221.640	-200.000	0.014	0.192
-220.625	-156.153	0.096	0.006
-219.611	-50.169	0.228	-0.107
-218.596	-133.315	-0.175	0.022
-217.582	-82.081	-0.162	-0.052
-216.567	-5.584	0.162	-0.110
-215.552	-200.000	0.045	-0.218
-214.538	36.579	0.218	0.190
-213.523	327.033	0.024	0.046
-212.509	47.093	-0.172	-0.158
-211.494	125.250	0.166	0.206
-210.479	560.665	0.116	-0.277
-209.465	-200.000	0.056	0.316
-208.450	-200.000	-0.010	0.185
-207.436	499.189	0.127	-0.288
-206.421	267.993	-0.143	-0.248
-205.406	41.406	0.192	0.172
-204.392	800.000	0.089	0.253
-203.377	-200.000	0.007	0.243
-202.363	-200.000	-0.039	0.210
-201.348	-190.257	-0.268	0.003
-200.333	-23.269	0.064	-0.038
-199.319	-200.000	0.019	0.096
-198.304	104.317	0.166	0.192
-197.290	61.474	0.231	0.227
-196.275	82.130	-0.048	-0.051
-195.260	-155.006	-0.116	0.008
-194.246	-58.159	-0.375	0.161
-193.231	292.525	0.094	-0.169
-192.217	-151.879	0.251	0.018
-191.202	-144.609	-0.355	0.032
-190.187	37.767	0.153	-0.134
-189.173	-200.000	-0.063	0.286
-188.158	342.493	-0.077	-0.149
-187.144	800.000	0.014	-0.048
-186.129	461.259	0.038	0.085
-185.114	-111.768	-0.194	0.039
-184.100	-89.131	0.536	0.156
-183.085	102.534	-0.031	0.036
-182.071	-123.814	0.128	0.020
-181.056	-58.984	0.237	0.101
-180.042	50.348	0.209	-0.195
-179.027	260.859	0.122	-0.208
-178.012	81.813	-0.190	-0.203
-176.998	-200.000	0.053	0.439
-175.983	-15.686	-0.490	0.308
-174.969	-129.224	0.063	0.009
-173.954	-73.110	0.314	-0.114
-172.939	12.089	0.239	0.182
-171.925	800.000	0.132	-0.388
-170.910	101.978	-0.116	-0.133
-169.896	-94.282	0.358	-0.097
-168.881	455.095	-0.168	-0.367
-167.866	-168.547	-0.372	0.014
-166.852	280.478	0.172	0.304
-165.837	-200.000	-0.013	-0.074
-164.823	-130.393	0.271	0.036
-163.808	127.284	-0.045	-0.056
-162.793	-8.298	0.153	-0.101
-161.779	-200.000	0.007	0.157
-160.764	153.223	-0.096	0.130
-159.750	-200.000	0.001	-0.097
-158.735	-200.000	0.063	-0.292
-157.720	31.334	-0.118	0.100
-156.706	-13.713	0.094	0.060
-155.691	-200.000	-0.019	-0.108
-154.677	42.110	-0.055	-0.049
-153.662	-104.744	0.355	0.081
-152.647	-200.000	0.007	0.182
-151.633	-91.021	0.195	-0.055
-150.618	800.000	-0.036	0.149
-149.604	427.580	0.120	-0.256
-148.589	322.426	-0.144	-0.270
-147.574	-127.072	0.119	0.017
-146.560	800.000	-0.032	-0.117
-145.545	-11.489	0.265	-0.172
-144.531	-160.465	0.088	-0.005
-143.516	-86.280	-0.403	0.122
-142.502	-200.000	-0.007	0.266
-141.487	60.807	0.202	0.197
-140.472	148.606	0.089	0.119
-139.458	723.717	0.163	-0.429
-138.443	97.140	-0.195	0.221
-137.429	800.000	-0.052	-0.147
-136.414	-109.592	0.304	-0.063
-135.399	211.978	-0.094	-0.146
-134.385	-112.698	-0.116	0.023
-133.370	356.471	-0.171	0.336
-132.356	483.751	-0.053	0.118
-131.341	-200.000	-0.020	0.127
-130.326	71.362	-0.215	-0.219
-129.312	-200.000	0.046	0.334
-128.297	97.496	-0.087	-0.099
-127.283	-84.209	-0.129	0.040
-126.268	-200.000	-0.044	0.205
-125.253	-65.405	0.305	0.121
-124.239	474.296	0.108	-0.240
-123.224	42.214	0.240	-0.215
-122.210	166.362	-0.045	0.062
-121.195	213.357	-0.243	-0.378
