DTS Sentinel unit serial number:	SN413079Multiplexer serial number:	ORYXHardware model number:	OX4-SRSoftware version number:	ORYX F/W v4.00 Oryx Data Collector v3.7.2.0data status	okinstallation	princeton_trtdifferential loss correction	single-endedforward channel	channel 1reverse channel	N/Adate	2019/09/17time	07:58:35forward acquisition time	60.00reverse acquisition time	0.00gamma	496.2192k internal	0.2330k external	0.2330temperature offset calibration	0.9964default loss term (dB/km)	0.3790temperature slope calibration	1.0000multiplexer offset coefficient	1.0000multiplexer slope coefficient	1.0000fibre end	0.00T internal ref (°C)	27.25T ext. ref 1 (°C)	0.11T ext. ref 2 (°C)	22.32length (m)	temperature (°C)	Stokes	anti-Stokes-747.200	32.017	0.218	0.189
-746.185	653.730	-0.167	0.431
-745.171	-27.693	-0.224	0.131
-744.156	12.093	-0.348	-0.269
-743.142	-198.175	0.021	-0.000
-742.127	-168.795	-0.328	-0.012
-741.112	-48.794	0.089	-0.043
-740.098	800.000	-0.086	0.339
-739.083	-52.482	-0.181	-0.084
-738.069	20.408	-0.161	0.131
-737.054	-66.796	0.230	0.092
-736.039	-111.448	-0.423	-0.087
-735.025	-139.260	0.105	-0.011
-734.010	-30.394	-0.407	0.232
-732.996	12.033	0.316	-0.245
-731.981	800.000	0.059	-0.250
-730.966	129.705	0.083	0.107
-729.952	689.161	-0.150	-0.396
-728.937	-23.936	-0.178	-0.107
-727.923	-2.074	-0.173	-0.122
-726.908	-104.498	0.082	-0.019
-725.894	-128.386	-0.228	0.033
-724.879	-52.829	-0.228	-0.106
-723.864	-20.255	0.176	-0.109
-722.850	-142.641	0.159	0.016
-721.835	800.000	-0.055	-0.175
-720.821	-78.649	-0.367	-0.126
-719.806	10.094	-0.047	-0.036
-718.791	414.026	0.114	-0.244
-717.777	800.000	-0.085	0.317
-716.762	682.654	-0.129	0.337
-715.748	97.131	0.101	-0.117
-714.733	-55.790	0.221	0.099
-713.718	-96.078	-0.225	-0.060
-712.704	-88.486	0.075	0.022
-711.689	89.738	0.360	-0.404
-710.675	-144.613	0.116	0.011
-709.660	-35.802	-0.177	-0.096
-708.645	800.000	-0.070	-0.213
-707.631	-148.898	0.216	0.018
-706.616	35.232	0.165	0.145
-705.602	194.749	0.096	0.147
-704.587	267.819	-0.031	0.055
-703.572	-21.620	0.236	-0.144
-702.558	-116.012	-0.293	-0.055
-701.543	223.082	0.153	0.247
-700.529	-147.360	-0.216	-0.018
-699.514	-20.044	0.264	-0.163
-698.499	800.000	0.052	-0.181
-697.485	-162.710	0.112	0.006
-696.470	354.954	0.103	-0.206
-695.456	14.483	-0.067	-0.053
-694.441	80.796	0.074	-0.081
-693.426	-149.695	-0.346	0.027
-692.412	800.000	-0.063	-0.278
-691.397	376.118	-0.056	0.114
-690.383	-30.681	0.072	-0.041
-689.368	-36.472	0.253	0.137
-688.354	231.545	-0.194	0.320
-687.339	-72.169	0.244	-0.091
-686.324	800.000	-0.056	0.172
-685.310	-108.578	-0.365	0.079
-684.295	-200.000	-0.053	0.394
-683.281	19.567	0.087	0.071
-682.266	-66.233	-0.237	-0.095
-681.251	-134.687	0.239	0.029
-680.237	-14.003	-0.117	0.076
-679.222	-0.415	0.235	0.167
-678.208	-181.793	0.140	0.003
-677.193	14.325	-0.135	-0.106
-676.178	3.544	-0.145	-0.106
-675.164	800.000	0.048	0.143
-674.149	-83.737	-0.344	-0.110
-673.135	43.867	0.076	0.070
-672.120	-140.903	-0.279	-0.029
-671.105	-200.000	0.019	-0.139
-670.091	21.469	0.135	0.110
-669.076	57.048	-0.249	-0.243
-668.062	-200.000	-0.015	-0.130
-667.047	268.489	0.127	0.224
-666.032	106.174	-0.225	0.267
-665.018	800.000	0.048	-0.189
-664.003	-200.000	0.017	0.166
-662.989	-128.809	0.315	0.044
-661.974	-200.000	-0.028	-0.164
-660.959	-37.406	-0.149	0.080
-659.945	327.341	-0.012	-0.023
-658.930	-42.227	0.112	0.057
-657.916	800.000	0.128	-0.404
-656.901	23.836	-0.056	0.047
-655.886	-200.000	-0.004	-0.072
-654.872	577.992	0.065	-0.159
-653.857	199.598	0.110	0.169
-652.843	39.086	-0.235	-0.211
-651.828	-111.291	0.104	-0.021
-650.814	-200.000	-0.074	-0.341
-649.799	-200.000	-0.070	-0.358
-648.784	39.679	0.208	-0.187
-647.770	-30.659	-0.416	-0.236
-646.755	521.750	-0.095	0.224
-645.741	800.000	-0.067	-0.294
-644.726	-47.705	-0.093	-0.045
-643.711	800.000	-0.120	0.368
-642.697	-92.853	-0.292	0.082
-641.682	159.112	0.163	-0.227
-640.668	-67.844	-0.134	0.052
-639.653	-129.153	0.218	-0.031
-638.638	-155.238	0.143	-0.009
-637.624	36.691	-0.270	-0.239
-636.609	-200.000	-0.060	0.369
-635.595	-200.000	-0.001	0.201
-634.580	-172.396	-0.122	0.004
-633.565	236.291	-0.087	0.145
-632.551	291.557	0.086	0.158
-631.536	800.000	-0.073	0.263
-630.522	800.000	-0.068	0.225
-629.507	-99.409	-0.057	0.014
-628.492	-200.000	0.044	-0.282
-627.478	-48.611	-0.307	0.148
-626.463	-129.524	0.190	0.026
-625.449	2.275	-0.352	0.255
-624.434	186.580	0.068	0.101
-623.419	800.000	-0.051	-0.142
-622.405	161.285	-0.017	0.024
-621.390	334.642	-0.196	0.380
-620.376	-71.886	-0.173	0.065
-619.361	30.079	0.110	-0.094
-618.346	137.424	-0.051	-0.067
-617.332	-95.404	0.147	0.040
-616.317	-60.321	-0.050	-0.022
-615.303	-38.601	0.049	0.026
-614.288	-45.208	-0.107	0.053
-613.273	106.278	-0.132	-0.157
-612.259	-23.034	-0.128	-0.078
-611.244	599.958	-0.058	0.144
-610.230	3.614	0.173	0.126
-609.215	-200.000	-0.020	-0.307
-608.201	800.000	0.028	-0.100
-607.186	-30.615	-0.022	0.012
-606.171	184.625	-0.014	0.020
-605.157	-14.815	0.098	-0.063
-604.142	30.246	-0.083	0.071
-603.128	17.766	0.227	0.181
-602.113	32.101	-0.194	-0.168
-601.098	-167.161	0.394	-0.016
-600.084	-17.635	-0.024	-0.015
-599.069	-82.749	0.039	0.013
-598.055	109.072	-0.120	0.144
-597.040	166.571	0.216	-0.306
-596.025	-119.792	-0.243	0.042
-595.011	-6.228	0.266	0.182
-593.996	800.000	-0.100	-0.284
-592.982	-200.000	0.068	0.313
-591.967	-120.312	-0.395	-0.067
-590.952	159.302	-0.085	0.119
-589.938	-200.000	0.004	0.094
-588.923	800.000	-0.068	-0.191
-587.909	-77.511	0.204	-0.071
-586.894	-197.384	0.075	0.000
-585.879	658.850	-0.096	-0.248
-584.865	-103.767	0.111	0.026
-583.850	800.000	-0.115	-0.371
-582.836	-38.438	0.151	0.080
-581.821	-200.000	0.048	-0.000
-580.806	800.000	-0.068	-0.221
-579.792	111.531	0.151	-0.182
-578.777	681.874	-0.078	0.203
-577.763	360.370	0.108	0.215
-576.748	102.929	0.235	-0.275
-575.733	-200.000	0.047	0.282
-574.719	23.133	-0.154	0.126
-573.704	-52.278	0.128	0.059
-572.690	-200.000	0.017	-0.094
-571.675	722.928	0.039	0.105
-570.661	-200.000	-0.048	0.367
-569.646	77.338	0.154	-0.164
-568.631	-39.875	-0.083	-0.044
-567.617	22.778	0.199	-0.163
-566.602	-200.000	0.061	-0.287
-565.588	800.000	-0.035	0.138
-564.573	-180.924	0.200	0.004
-563.558	-67.061	0.357	-0.141
-562.544	-56.024	-0.133	0.059
-561.529	242.581	-0.006	-0.010
-560.515	-100.524	-0.161	0.040
-559.500	-200.000	0.043	0.228
-558.485	2.000	-0.174	0.125
-557.471	109.801	-0.292	0.349
-556.456	-69.490	-0.127	0.049
-555.442	465.944	0.047	-0.104
-554.427	138.927	-0.133	0.175
-553.412	-61.492	-0.283	0.119
-552.398	800.000	-0.096	0.266
-551.383	-116.746	-0.094	-0.017
-550.369	217.113	0.282	0.448
-549.354	-53.692	-0.179	0.082
-548.339	299.581	-0.234	0.431
-547.325	-150.582	0.044	-0.003
-546.310	-57.986	-0.306	0.134
-545.296	-200.000	0.036	0.238
-544.281	800.000	-0.041	-0.132
-543.266	-47.521	0.161	0.078
-542.252	-27.978	-0.122	-0.071
-541.237	-200.000	0.064	-0.289
-540.223	48.329	0.225	0.211
-539.208	178.127	-0.130	0.189
-538.193	464.294	-0.086	0.192
-537.179	800.000	-0.126	-0.504
-536.164	-150.101	-0.079	0.006
-535.150	800.000	0.122	-0.366
-534.135	68.562	0.147	-0.151
-533.121	-200.000	-0.001	0.096
-532.106	142.812	0.060	0.080
-531.091	233.440	0.186	-0.305
-530.077	-200.000	0.015	0.183
-529.062	156.055	0.103	-0.142
-528.048	103.210	0.095	0.111
-527.033	353.680	-0.078	-0.155
-526.018	-151.547	-0.386	-0.029
-525.004	440.529	-0.084	-0.182
-523.989	-137.757	0.145	0.016
-522.975	-157.188	0.260	-0.016
-521.960	-108.985	0.230	-0.049
-520.945	-154.827	0.144	0.010
-519.931	-200.000	0.007	0.218
-518.916	274.004	-0.168	-0.296
-517.902	16.352	0.130	0.102
-516.887	18.041	-0.314	-0.249
-515.872	-200.000	0.050	0.264
-514.858	-62.288	0.104	0.043
-513.843	479.805	0.077	0.175
-512.829	-93.880	0.438	0.120
-511.814	20.743	-0.147	-0.119
-510.799	16.757	0.240	0.190
-509.785	12.726	-0.047	-0.036
-508.770	570.030	-0.071	-0.171
-507.756	-192.181	-0.237	0.002
-506.741	183.234	-0.149	-0.219
-505.726	800.000	-0.123	-0.359
-504.712	-200.000	-0.009	-0.095
-503.697	-13.887	0.115	0.074
-502.683	573.724	-0.142	0.346
-501.668	73.604	-0.255	0.266
-500.653	59.662	0.167	-0.165
-499.639	800.000	0.032	-0.128
-498.624	-12.036	0.117	-0.076
-497.610	75.434	-0.274	0.288
-496.595	633.640	0.117	0.296
-495.581	-104.585	-0.071	0.016
-494.566	31.398	0.285	0.244
-493.551	632.874	-0.144	-0.364
-492.537	-200.000	-0.022	0.206
-491.522	-184.561	-0.287	0.005
-490.508	103.413	-0.215	0.252
-489.493	-77.167	0.152	0.053
-488.478	183.957	-0.046	-0.067
-487.464	330.156	0.042	0.080
-486.449	73.551	-0.172	0.179
-485.435	-41.168	-0.161	-0.083
-484.420	-137.579	0.087	-0.010
-483.405	13.003	-0.193	-0.149
-482.391	438.889	0.076	-0.165
-481.376	-45.203	-0.273	-0.135
-480.362	800.000	-0.054	0.159
-479.347	-75.967	0.027	-0.009
-478.332	-146.980	-0.163	-0.014
-477.318	-134.870	-0.309	0.037
-476.303	220.394	0.255	0.408
-475.289	97.488	0.133	0.152
-474.274	84.649	-0.045	0.049
-473.259	-200.000	-0.061	-0.355
-472.245	-9.438	0.132	-0.088
-471.230	-200.000	0.023	0.377
-470.216	159.153	-0.052	0.071
-469.201	12.469	-0.211	0.162
-468.186	126.528	0.101	-0.127
-467.172	255.069	0.159	-0.270
-466.157	69.956	0.286	-0.294
-465.143	258.485	0.222	-0.380
-464.128	-69.551	-0.238	0.091
-463.113	90.679	0.045	-0.050
-462.099	658.914	-0.014	0.036
-461.084	-61.671	0.446	-0.186
-460.070	-200.000	0.044	-0.437
-459.055	125.191	0.141	0.177
-458.040	-113.343	-0.079	0.015
-457.026	-13.051	-0.282	-0.182
-456.011	483.998	0.128	0.289
-454.997	84.592	-0.118	-0.128
-453.982	-97.218	0.292	-0.076
-452.968	-200.000	0.005	0.182
-451.953	-142.217	0.202	0.020
-450.938	448.720	-0.100	0.219
-449.924	-103.167	-0.076	0.018
-448.909	-200.000	0.028	0.326
-447.895	-200.000	0.006	-0.194
-446.880	-200.000	-0.001	0.014
-445.865	-101.036	-0.334	0.081
-444.851	151.019	0.090	0.122
-443.836	-21.752	0.215	-0.130
-442.822	-200.000	0.006	0.199
-441.807	-63.550	-0.093	-0.038
-440.792	-156.617	-0.142	-0.009
-439.778	-15.971	-0.334	0.211
-438.763	189.156	-0.193	-0.288
-437.749	-200.000	-0.005	-0.152
-436.734	-200.000	0.064	-0.347
-435.719	-88.808	-0.157	0.046
-434.705	724.218	-0.057	0.152
-433.690	-157.259	-0.168	0.010
-432.676	53.566	0.188	0.179
-431.661	-161.474	0.180	0.009
-430.646	-51.357	-0.133	-0.062
-429.632	800.000	0.049	-0.164
-428.617	298.743	-0.129	0.235
-427.603	-22.414	-0.552	0.332
-426.588	-119.384	-0.117	-0.020
-425.573	-43.947	-0.026	-0.013
-424.559	94.258	0.039	0.044
-423.544	318.591	0.237	-0.447
-422.530	-125.502	-0.240	-0.036
-421.515	-43.212	0.033	-0.017
-420.500	-200.000	-0.000	-0.150
-419.486	-44.603	0.213	-0.106
-418.471	-147.067	0.243	0.021
-417.457	-127.727	-0.187	-0.027
-416.442	-20.897	0.137	0.084
-415.428	-102.906	-0.425	-0.100
-414.413	-130.462	-0.262	0.035
-413.398	232.487	-0.112	0.182
-412.384	233.263	0.128	0.210
-411.369	-67.937	0.177	-0.069
-410.355	800.000	0.023	0.073
-409.340	31.318	-0.071	0.061
-408.325	-200.000	-0.012	0.294
-407.311	113.319	-0.123	-0.148
-406.296	20.328	-0.085	0.068
-405.282	-200.000	-0.307	0.000
-404.267	-136.599	0.212	-0.024
-403.252	-54.444	0.612	-0.275
-402.238	-200.000	0.006	-0.126
-401.223	-200.000	-0.013	0.063
-400.209	-41.563	-0.226	0.116
-399.194	104.064	0.208	0.243
-398.179	-26.674	-0.150	0.087
-397.165	-200.000	0.009	0.165
-396.150	-119.615	0.198	0.034
-395.136	-118.036	0.147	0.026
-394.121	135.000	0.085	-0.110
-393.106	800.000	0.117	-0.351
-392.092	-200.000	0.036	0.184
-391.077	-93.835	-0.114	-0.031
-390.063	-149.004	-0.296	0.024
-389.048	-95.802	0.148	-0.039
-388.033	-85.659	-0.173	-0.053
-387.019	3.339	0.206	0.149
-386.004	-86.582	-0.088	-0.027
-384.990	240.674	0.154	0.255
-383.975	-78.359	0.149	-0.051
-382.960	-200.000	-0.065	-0.348
-381.946	670.358	0.105	0.269
-380.931	-158.599	-0.143	-0.008
-379.917	92.620	0.299	0.335
-378.902	-200.000	-0.013	-0.175
-377.888	-118.930	-0.292	-0.051
-376.873	194.687	0.035	0.053
-375.858	-128.575	0.227	-0.032
-374.844	-64.675	-0.095	0.038
-373.829	-103.982	-0.151	-0.035
-372.815	800.000	0.058	0.195
-371.800	141.268	0.206	0.271
-370.785	-44.412	-0.199	-0.099
-369.771	-200.000	-0.029	0.150
-368.756	-200.000	-0.011	-0.153
-367.742	-58.791	-0.242	0.104
-366.727	-200.000	0.000	-0.068
-365.712	51.188	-0.080	0.075
-364.698	59.400	0.145	0.141
-363.683	-147.083	-0.345	-0.029
-362.669	-26.514	0.206	0.120
-361.654	-55.029	-0.204	-0.091
-360.639	416.539	-0.137	-0.291
-359.625	-101.274	0.232	-0.056
-358.610	286.785	0.094	0.169
-357.596	359.260	-0.076	-0.150
-356.581	-200.000	-0.014	-0.096
-355.566	-186.046	0.144	0.002
-354.552	-44.552	-0.144	0.071
-353.537	161.022	-0.146	0.202
-352.523	-90.571	-0.112	0.032
-351.508	-23.626	-0.036	-0.021
-350.493	-200.000	0.038	-0.406
-349.479	153.118	-0.061	-0.083
-348.464	494.154	0.062	0.141
-347.450	800.000	0.122	-0.446
-346.435	454.887	-0.087	-0.191
-345.420	-200.000	-0.036	-0.454
-344.406	141.379	0.251	-0.329
-343.391	800.000	0.037	0.153
-342.377	-138.097	-0.282	0.031
-341.362	676.268	-0.069	0.177
-340.348	116.685	-0.046	0.056
-339.333	211.491	-0.224	-0.349
-338.318	229.104	0.132	0.213
-337.304	-3.553	0.249	-0.171
-336.289	800.000	0.052	-0.195
-335.275	-140.103	-0.330	0.034
-334.260	-155.557	0.314	-0.020
-333.245	602.984	0.118	-0.290
-332.231	800.000	0.038	0.143
-331.216	-85.286	0.028	0.009
-330.202	34.209	-0.012	0.010
-329.187	-96.084	0.340	-0.089
-328.172	800.000	-0.008	0.035
-327.158	800.000	-0.064	-0.226
-326.143	294.251	0.063	0.114
-325.129	-109.723	0.407	-0.085
-324.114	248.288	-0.114	-0.191
-323.099	334.551	-0.115	-0.221
-322.085	43.561	0.141	-0.127
-321.070	558.881	0.040	0.097
-320.056	800.000	0.098	0.324
-319.041	-85.762	0.150	0.046
-318.026	75.697	-0.027	0.028
-317.012	-47.885	-0.127	0.061
-315.997	26.439	0.281	-0.232
-314.983	-36.639	-0.174	0.093
-313.968	-180.609	0.116	-0.002
-312.953	-21.926	0.310	0.186
-311.939	124.476	0.217	-0.271
-310.924	800.000	0.074	0.208
-309.910	-200.000	0.051	0.461
-308.895	242.480	0.140	0.232
-307.880	504.640	0.092	-0.210
-306.866	399.907	0.088	0.182
-305.851	-15.028	-0.071	-0.045
-304.837	-200.000	0.050	0.299
-303.822	-200.000	0.001	0.244
-302.807	-191.102	0.235	0.002
-301.793	-200.000	-0.013	-0.318
-300.778	257.414	0.083	-0.141
-299.764	121.984	0.104	0.128
-298.749	-41.626	0.130	-0.066
-297.735	-50.223	0.260	0.122
-296.720	298.336	-0.086	-0.157
-295.705	-132.873	-0.192	-0.024
-294.691	29.452	-0.226	-0.190
-293.676	-94.313	-0.208	0.056
-292.662	-88.181	0.240	0.071
-291.647	-200.000	-0.006	0.148
-290.632	-200.000	0.007	0.325
-289.618	-123.891	-0.106	0.017
-288.603	-79.712	-0.156	-0.052
-287.589	-68.839	0.074	0.028
-286.574	25.324	-0.302	-0.248
-285.559	-103.922	0.280	0.065
-284.545	800.000	0.094	-0.282
-283.530	107.907	0.048	0.057
-282.516	-80.025	-0.259	0.086
-281.501	-156.763	-0.081	0.005
-280.486	144.022	0.245	-0.323
-279.472	-72.269	-0.099	-0.036
-278.457	-56.581	-0.426	-0.187
-277.443	-73.284	0.142	0.051
-276.428	800.000	-0.107	-0.419
-275.413	-163.977	-0.116	-0.005
-274.399	-29.123	-0.121	0.068
-273.384	-9.423	-0.121	-0.080
-272.370	241.815	-0.112	-0.185
-271.355	-100.302	-0.428	0.105
-270.340	800.000	-0.081	-0.302
-269.326	-5.217	-0.070	0.047
-268.311	669.875	-0.023	-0.059
-267.297	46.015	-0.038	0.034
-266.282	-125.513	0.078	0.012
-265.267	-200.000	-0.050	-0.280
-264.253	-156.413	0.085	0.005
-263.238	-200.000	-0.095	0.526
-262.224	-200.000	-0.019	0.289
-261.209	179.917	-0.149	0.215
-260.195	-200.000	0.007	0.312
-259.180	-64.892	0.265	0.106
-258.165	413.342	0.062	-0.129
-257.151	-173.285	-0.113	-0.003
-256.136	320.624	0.095	-0.179
-255.122	121.374	-0.116	0.143
-254.107	800.000	0.097	0.325
-253.092	800.000	-0.091	0.323
-252.078	800.000	0.028	-0.117
-251.063	143.593	0.133	0.175
-250.049	-116.175	0.230	-0.042
-249.034	77.562	-0.100	0.105
-248.019	-105.525	0.074	0.017
-247.005	-142.992	-0.159	0.015
-245.990	-71.171	0.366	-0.136
-244.976	-139.788	0.129	0.014
-243.961	-200.000	0.045	-0.248
-242.946	-114.331	0.273	0.052
-241.932	-73.902	0.299	0.107
-240.917	-37.817	-0.212	0.111
-239.903	800.000	-0.023	0.071
-238.888	132.487	-0.109	0.138
-237.873	329.482	0.194	-0.369
-236.859	-186.320	0.283	0.004
-235.844	-13.595	0.221	0.141
-234.830	-200.000	0.027	-0.173
-233.815	121.046	-0.098	-0.120
-232.800	-42.255	0.155	-0.078
-231.786	533.967	0.143	-0.334
-230.771	728.313	0.070	0.186
-229.757	-62.980	0.206	0.084
-228.742	-164.153	-0.157	0.007
-227.727	180.061	0.272	-0.393
-226.713	77.992	0.067	-0.071
-225.698	21.624	-0.286	0.230
-224.684	-174.957	-0.263	-0.007
-223.669	-131.281	-0.249	-0.033
-222.655	343.166	-0.158	0.305
-221.640	167.110	0.146	0.204
-220.625	135.779	-0.286	-0.367
-219.611	-200.000	0.022	0.138
-218.596	-43.716	0.386	0.192
-217.582	64.443	0.076	-0.075
-216.567	-200.000	-0.005	-0.131
-215.552	-200.000	0.003	-0.120
-214.538	-179.996	0.091	-0.002
-213.523	-200.000	0.002	-0.180
-212.509	800.000	-0.119	0.379
-211.494	-109.858	0.137	0.028
-210.479	540.318	0.147	-0.345
-209.465	75.527	0.186	0.194
-208.450	-66.818	-0.074	-0.029
-207.436	-200.000	0.038	-0.200
-206.421	80.029	-0.155	0.164
-205.406	33.511	0.229	0.196
-204.392	703.225	-0.028	0.074
-203.377	80.179	-0.134	0.142
-202.363	180.718	-0.116	0.169
-201.348	-200.000	0.019	0.125
-200.333	800.000	-0.104	0.339
-199.319	-200.000	0.015	-0.085
-198.304	-200.000	-0.044	-0.296
-197.290	-200.000	-0.042	-0.197
-196.275	-200.000	0.004	-0.113
-195.260	-200.000	0.047	-0.401
-194.246	349.270	0.099	-0.193
-193.231	650.936	-0.118	0.298
-192.217	494.718	0.203	0.459
-191.202	-25.743	-0.161	0.094
-190.187	-5.369	-0.299	0.203
-189.173	149.833	0.027	-0.037
-188.158	-200.000	0.014	-0.278
-187.144	59.596	0.152	-0.148
-186.129	7.210	-0.252	-0.185
-185.114	-63.454	0.171	-0.069
-184.100	800.000	0.127	0.352
-183.085	-38.740	0.101	-0.052
-182.071	-168.139	0.201	-0.008
-181.056	-103.359	0.279	0.065
-180.042	-151.588	0.115	0.008
-179.027	-200.000	-0.020	-0.207
-178.012	-42.720	0.189	0.095
-176.998	46.916	0.292	-0.267
-175.983	273.076	-0.122	-0.213
-174.969	-75.863	0.066	0.023
-173.954	143.944	0.090	-0.118
-172.939	-200.000	0.024	0.237
-171.925	115.076	0.068	0.081
-170.910	142.705	-0.216	0.282
-169.896	800.000	-0.063	-0.179
-168.881	800.000	-0.046	-0.176
-167.866	158.214	-0.051	-0.070
-166.852	-200.000	-0.060	-0.383
-165.837	-12.191	-0.277	-0.178
-164.823	-200.000	-0.042	0.314
-163.808	-79.200	0.132	-0.044
-162.793	219.279	0.098	-0.154
-161.779	-170.661	0.263	0.009
-160.764	800.000	-0.073	0.203
-159.750	74.981	-0.095	0.099
-158.735	-117.264	0.105	0.019
-157.720	-66.893	-0.050	0.019
-156.706	800.000	0.102	-0.294
-155.691	-181.247	0.337	0.007
-154.677	-200.000	-0.008	-0.225
-153.662	-200.000	-0.023	-0.126
-152.647	422.649	0.128	-0.270
-151.633	53.629	-0.509	-0.480
-150.618	121.424	0.145	-0.178
-149.604	-200.000	0.044	-0.215
-148.589	56.104	0.135	-0.129
-147.574	-46.899	0.206	-0.099
-146.560	103.515	-0.093	0.107
-145.545	-200.000	-0.032	0.186
-144.531	-200.000	0.021	0.094
-143.516	-30.527	-0.177	0.099
-142.502	-102.118	0.125	-0.030
-141.487	169.867	0.162	0.228
-140.472	-18.336	0.285	-0.175
-139.458	730.354	0.056	-0.146
-138.443	-63.572	-0.251	-0.101
-137.429	-63.216	0.516	0.209
-136.414	-61.101	0.145	0.060
-135.399	-71.795	0.221	-0.081
-134.385	51.427	-0.167	0.156
-133.370	407.596	0.152	-0.316
-132.356	212.195	0.144	-0.223
-131.341	747.091	0.093	-0.246
-130.326	-200.000	-0.001	-0.376
-129.312	-200.000	-0.000	0.073
-128.297	-13.213	-0.358	-0.228
-127.283	187.597	0.152	0.223
-126.268	-140.886	0.160	0.016
-125.253	-15.821	0.111	-0.069
-124.239	75.555	-0.096	0.100
-123.224	-166.858	-0.144	0.006
-122.210	-96.070	0.191	0.050
