DTS Sentinel unit serial number:	SN413079Multiplexer serial number:	ORYXHardware model number:	OX4-SRSoftware version number:	ORYX F/W v4.00 Oryx Data Collector v3.7.2.0data status	okinstallation	princeton_trtdifferential loss correction	single-endedforward channel	channel 1reverse channel	N/Adate	2019/09/13time	14:46:35forward acquisition time	60.00reverse acquisition time	0.00gamma	496.2192k internal	0.2299k external	0.2299temperature offset calibration	1.0159default loss term (dB/km)	0.3790temperature slope calibration	1.0000multiplexer offset coefficient	1.0000multiplexer slope coefficient	1.0000fibre end	0.00T internal ref (°C)	35.50T ext. ref 1 (°C)	4.67T ext. ref 2 (°C)	32.53length (m)	temperature (°C)	Stokes	anti-Stokes-747.200	-200.000	0.016	0.090
-746.185	-200.000	-0.074	0.540
-745.171	-45.074	-0.294	-0.149
-744.156	-200.000	-0.069	0.374
-743.142	-200.000	-0.017	-0.084
-742.127	196.093	-0.045	0.069
-741.112	-44.069	-0.208	0.107
-740.098	-200.000	-0.046	0.291
-739.083	-92.938	0.203	0.058
-738.069	221.966	0.096	0.157
-737.054	-0.691	-0.206	0.149
-736.039	-40.994	-0.160	0.085
-735.025	14.407	0.188	0.149
-734.010	-33.355	0.191	-0.108
-732.996	526.091	0.063	-0.152
-731.981	292.218	-0.211	-0.392
-730.966	-126.322	0.316	-0.048
-729.952	249.976	-0.048	0.083
-728.937	-200.000	-0.002	-0.253
-727.923	-42.639	-0.419	0.217
-726.908	222.577	-0.060	0.098
-725.894	-172.564	-0.190	-0.006
-724.879	137.356	-0.323	-0.430
-723.864	250.714	-0.081	0.141
-722.850	-200.000	-0.003	0.225
-721.835	-140.953	0.231	0.024
-720.821	-82.472	-0.258	0.085
-719.806	-200.000	0.007	-0.076
-718.791	-86.331	-0.187	-0.059
-717.777	-200.000	0.058	0.369
-716.762	15.099	0.301	0.240
-715.748	-24.856	-0.299	0.181
-714.733	-36.260	0.366	-0.201
-713.718	130.366	0.179	-0.234
-712.704	-165.875	0.203	0.009
-711.689	800.000	-0.114	-0.341
-710.675	375.060	-0.097	-0.202
-709.660	226.528	-0.093	0.153
-708.645	480.957	0.076	0.176
-707.631	188.438	-0.040	-0.061
-706.616	562.004	0.064	-0.158
-705.602	-136.760	-0.217	0.025
-704.587	-200.000	-0.015	0.127
-703.572	-44.839	0.354	0.180
-702.558	-46.650	0.124	0.062
-701.543	-6.161	-0.157	0.110
-700.529	-96.485	0.115	-0.031
-699.514	-200.000	0.004	-0.100
-698.499	-19.898	0.150	-0.094
-697.485	-41.849	-0.120	-0.062
-696.470	282.917	0.081	-0.147
-695.456	-28.052	-0.225	0.133
-694.441	-111.063	-0.052	-0.011
-693.426	67.455	0.224	-0.233
-692.412	111.472	-0.232	-0.285
-691.397	800.000	-0.103	-0.303
-690.383	1.436	-0.046	-0.034
-689.368	-200.000	0.001	-0.214
-688.354	-144.926	0.255	0.024
-687.339	800.000	-0.141	-0.433
-686.324	-125.953	-0.152	0.023
-685.310	104.953	-0.123	0.147
-684.295	65.153	-0.087	0.090
-683.281	-41.135	0.035	0.018
-682.266	362.426	-0.087	-0.178
-681.251	51.495	-0.022	0.021
-680.237	-91.542	-0.179	-0.052
-679.222	125.724	-0.140	0.180
-678.208	-200.000	0.047	0.234
-677.193	-160.423	0.131	-0.007
-676.178	-200.000	-0.033	-0.274
-675.164	-200.000	-0.038	-0.221
-674.149	-108.490	0.397	-0.087
-673.135	-71.275	-0.142	0.054
-672.120	-42.238	-0.167	0.087
-671.105	18.530	0.006	-0.005
-670.091	-56.597	0.282	-0.127
-669.076	-5.059	-0.147	0.103
-668.062	746.704	0.090	0.247
-667.047	-29.156	-0.323	0.189
-666.032	800.000	0.040	-0.177
-665.018	-36.301	0.058	0.032
-664.003	431.126	-0.180	0.397
-662.989	-81.659	0.060	0.020
-661.974	-200.000	-0.000	-0.195
-660.959	-32.207	-0.097	0.055
-659.945	-172.845	-0.286	-0.009
-658.930	39.545	-0.288	0.263
-657.916	219.002	0.082	-0.133
-656.901	247.797	0.124	-0.214
-655.886	2.314	0.162	-0.119
-654.872	44.001	-0.117	0.109
-653.857	-3.659	-0.329	0.232
-652.843	-2.432	-0.271	-0.193
-651.828	-21.438	-0.161	-0.100
-650.814	69.548	-0.163	-0.170
-649.799	368.668	0.023	0.047
-648.784	227.778	-0.175	-0.289
-647.770	-96.325	-0.047	-0.013
-646.755	-59.825	0.361	0.157
-645.741	-178.094	-0.079	0.002
-644.726	-42.577	-0.029	0.015
-643.711	-200.000	0.001	0.305
-642.697	-108.640	-0.309	-0.067
-641.682	175.943	0.233	-0.344
-640.668	7.649	0.162	0.123
-639.653	-115.326	0.194	0.037
-638.638	-129.534	0.175	0.025
-637.624	206.431	-0.047	0.075
-636.609	-200.000	0.045	0.214
-635.595	-63.258	-0.135	0.057
-634.580	-55.448	0.139	0.063
-633.565	305.647	-0.165	0.312
-632.551	-52.804	0.341	0.160
-631.536	-50.931	-0.199	0.095
-630.522	-16.394	0.042	0.027
-629.507	-26.551	0.265	0.158
-628.492	-123.851	0.343	-0.055
-627.478	800.000	-0.106	-0.352
-626.463	800.000	0.027	-0.077
-625.449	-128.831	-0.204	-0.029
-624.434	7.871	0.242	0.184
-623.419	-200.000	0.020	0.298
-622.405	61.283	0.175	-0.176
-621.390	-144.784	-0.111	0.010
-620.376	-12.820	0.125	-0.082
-619.361	77.208	0.141	0.153
-618.346	-37.209	-0.048	-0.026
-617.332	-200.000	-0.008	-0.131
-616.317	113.084	-0.086	0.106
-615.303	157.138	-0.227	-0.319
-614.288	-200.000	-0.043	0.199
-613.273	64.981	-0.123	0.126
-612.259	153.834	0.219	-0.304
-611.244	-200.000	0.029	-0.162
-610.230	597.589	0.086	0.216
-609.215	-122.291	0.306	-0.051
-608.201	800.000	-0.027	0.093
-607.186	-107.595	0.521	-0.116
-606.171	172.942	-0.094	-0.138
-605.157	-47.286	0.223	0.110
-604.142	-200.000	0.013	-0.654
-603.128	-113.976	-0.069	-0.014
-602.113	160.119	0.082	0.117
-601.098	453.529	0.106	-0.238
-600.084	-200.000	0.035	-0.255
-599.069	114.152	-0.074	0.091
-598.055	407.631	0.057	0.123
-597.040	-95.304	0.165	0.045
-596.025	346.994	-0.020	0.040
-595.011	-140.331	-0.203	0.021
-593.996	376.178	0.153	-0.317
-592.982	-200.000	0.014	0.241
-591.967	-138.383	0.087	-0.010
-590.952	137.855	-0.186	0.248
-589.938	-127.394	0.333	0.049
-588.923	126.860	0.195	-0.251
-587.909	-200.000	-0.028	-0.277
-586.894	-102.546	-0.040	0.010
-585.879	-3.781	-0.065	0.046
-584.865	-75.080	-0.224	0.081
-583.850	195.798	0.214	0.330
-582.836	119.695	-0.130	0.164
-581.821	-85.401	-0.107	0.034
-580.806	316.617	0.088	-0.169
-579.792	172.473	0.110	0.160
-578.777	800.000	0.076	-0.220
-577.763	-80.806	0.159	0.054
-576.748	-73.702	-0.086	-0.032
-575.733	13.971	0.108	-0.085
-574.719	104.007	-0.063	0.075
-573.704	800.000	-0.080	-0.292
-572.690	100.943	0.072	0.085
-571.675	6.155	0.242	-0.182
-570.661	174.487	0.030	0.043
-569.646	295.371	0.145	-0.269
-568.631	-65.247	-0.111	-0.045
-567.617	48.317	-0.172	0.164
-566.602	-200.000	-0.021	0.144
-565.588	-200.000	0.002	-0.009
-564.573	160.076	0.193	0.273
-563.558	29.756	0.076	0.066
-562.544	7.932	-0.218	0.166
-561.529	282.169	0.219	0.398
-560.515	-69.406	0.146	0.057
-559.500	85.891	0.206	-0.229
-558.485	-136.455	0.277	-0.033
-557.471	-200.000	0.002	0.365
-556.456	-62.064	-0.253	-0.107
-555.442	-71.623	-0.302	0.114
-554.427	-137.348	0.466	0.054
-553.412	-70.229	0.102	0.039
-552.398	119.399	-0.314	-0.394
-551.383	-87.551	-0.106	0.033
-550.369	26.721	-0.107	-0.091
-549.354	-200.000	-0.000	0.033
-548.339	-9.261	0.085	0.058
-547.325	-93.562	-0.266	-0.074
-546.310	36.986	0.373	0.334
-545.296	93.964	-0.026	0.030
-544.281	-39.388	-0.083	0.044
-543.266	563.565	-0.051	0.125
-542.252	-200.000	0.054	-0.335
-541.237	-114.424	-0.156	-0.030
-540.223	-200.000	-0.041	0.208
-539.208	-200.000	0.040	0.184
-538.193	69.474	-0.106	-0.111
-537.179	-200.000	-0.001	-0.161
-536.164	800.000	0.057	0.170
-535.150	-22.802	-0.107	-0.065
-534.135	151.816	0.091	0.125
-533.121	-51.171	0.196	-0.093
-532.106	-88.879	-0.466	-0.140
-531.091	43.085	-0.101	-0.093
-530.077	460.251	-0.053	-0.120
-529.062	-200.000	0.055	-0.404
-528.048	-200.000	0.029	0.376
-527.033	-71.606	-0.051	0.019
-526.018	188.612	-0.150	-0.227
-525.004	271.905	-0.143	-0.255
-523.989	-28.940	-0.152	-0.088
-522.975	-82.530	0.189	-0.062
-521.960	471.799	-0.062	0.140
-520.945	-22.213	-0.190	-0.117
-519.931	517.929	-0.051	0.121
-518.916	42.249	0.075	-0.069
-517.902	150.276	-0.355	-0.487
-516.887	33.471	0.089	0.078
-515.872	28.067	-0.234	-0.200
-514.858	-174.296	0.387	-0.011
-513.843	65.993	-0.151	-0.155
-512.829	-200.000	0.001	0.239
-511.814	-29.297	-0.174	0.101
-510.799	-30.490	0.241	-0.138
-509.785	-76.810	-0.144	0.051
-508.770	800.000	0.080	0.319
-507.756	548.645	0.098	0.237
-506.741	-132.885	0.140	-0.018
-505.726	-200.000	-0.062	-0.333
-504.712	-166.779	-0.088	0.004
-503.697	86.108	-0.315	0.351
-502.683	-5.596	-0.170	0.118
-501.668	-200.000	0.003	0.038
-500.653	226.746	-0.131	-0.214
-499.639	-32.162	0.030	0.017
-498.624	800.000	-0.140	-0.469
-497.610	5.114	-0.165	-0.123
-496.595	73.224	0.211	-0.223
-495.581	-200.000	-0.057	-0.267
-494.566	18.007	0.184	-0.148
-493.551	-121.287	-0.178	0.030
-492.537	-200.000	0.001	0.211
-491.522	-200.000	-0.019	-0.139
-490.508	-44.298	0.047	0.024
-489.493	-200.000	0.001	-0.044
-488.478	800.000	0.122	0.382
-487.464	392.997	-0.037	-0.078
-486.449	24.274	-0.108	0.090
-485.435	522.280	-0.048	0.115
-484.420	800.000	0.090	0.329
-483.405	109.353	0.071	-0.086
-482.391	-80.047	0.286	0.097
-481.376	-1.903	-0.245	-0.174
-480.362	99.544	-0.405	-0.473
-479.347	-115.701	-0.223	0.042
-478.332	800.000	-0.084	0.245
-477.318	-112.382	0.239	0.048
-476.303	-146.204	0.426	0.038
-475.289	-48.166	-0.218	-0.106
-474.274	22.801	-0.191	0.158
-473.259	22.805	-0.289	-0.239
-472.245	-200.000	0.019	-0.315
-471.230	-185.319	0.247	0.004
-470.216	-20.160	-0.144	-0.089
-469.201	45.146	0.026	0.024
-468.186	-200.000	0.002	0.056
-467.172	-181.207	-0.082	-0.002
-466.157	49.113	-0.037	0.035
-465.143	-132.116	0.240	0.031
-464.128	22.970	0.278	-0.230
-463.113	19.022	0.238	0.193
-462.099	-48.225	-0.206	0.100
-461.084	31.499	0.033	-0.028
-460.070	73.434	0.223	-0.236
-459.055	-25.238	0.093	-0.055
-458.040	197.939	0.027	0.041
-457.026	-73.974	-0.054	-0.020
-456.011	-200.000	-0.025	0.298
-454.997	95.655	0.118	0.136
-453.982	-86.662	-0.074	0.023
-452.968	-95.583	0.024	-0.007
-451.953	-57.539	-0.284	-0.126
-450.938	-72.275	0.102	-0.038
-449.924	-193.329	0.106	-0.001
-448.909	24.899	0.139	0.116
-447.895	160.466	-0.055	-0.077
-446.880	-142.785	-0.142	0.014
-445.865	-177.900	0.367	0.009
-444.851	-143.480	-0.142	0.014
-443.836	-200.000	0.039	0.406
-442.822	-84.505	0.177	0.056
-441.807	-157.530	0.249	-0.015
-440.792	589.522	-0.120	-0.299
-439.778	-200.000	-0.042	0.484
-438.763	283.199	0.159	0.287
-437.749	-200.000	-0.020	-0.098
-436.734	-138.496	0.393	0.044
-435.719	-49.727	0.434	-0.208
-434.705	-47.222	0.325	0.160
-433.690	-167.769	0.215	0.009
-432.676	-48.539	-0.259	-0.126
-431.661	174.051	-0.139	-0.203
-430.646	-200.000	0.014	0.242
-429.632	40.965	-0.085	0.078
-428.617	-200.000	-0.028	0.146
-427.603	454.672	-0.064	-0.144
-426.588	217.152	0.182	0.293
-425.573	-3.157	-0.225	0.158
-424.559	-96.977	0.590	-0.156
-423.544	195.848	0.039	-0.060
-422.530	-19.565	0.078	0.049
-421.515	341.381	0.022	-0.044
-420.500	-86.165	0.356	0.111
-419.486	205.994	-0.052	-0.081
-418.471	-103.747	-0.130	-0.031
-417.457	800.000	-0.108	0.402
-416.442	292.558	0.128	0.235
-415.428	-200.000	-0.009	0.180
-414.413	-84.016	0.169	-0.054
-413.398	-200.000	0.051	-0.252
-412.384	10.180	0.285	0.218
-411.369	-101.640	0.265	-0.065
-410.355	-200.000	-0.013	-0.227
-409.340	-200.000	-0.007	-0.242
-408.325	-175.726	0.247	-0.007
-407.311	-38.125	0.143	-0.076
-406.296	-161.990	-0.065	-0.003
-405.282	65.914	-0.106	0.109
-404.267	155.632	-0.201	-0.279
-403.252	12.081	-0.211	0.164
-402.238	111.021	0.116	-0.140
-401.223	-200.000	0.005	0.072
-400.209	-18.185	0.100	-0.063
-399.194	-170.913	0.378	0.013
-398.179	-111.170	-0.386	0.080
-397.165	77.056	0.133	0.142
-396.150	-128.026	0.104	-0.015
-395.136	-200.000	-0.018	0.178
-394.121	-200.000	-0.013	0.086
-393.106	-87.827	0.088	-0.027
-392.092	800.000	-0.090	0.333
-391.077	800.000	-0.061	-0.235
-390.063	-200.000	-0.009	-0.157
-389.048	-200.000	0.020	-0.135
-388.033	42.679	0.342	-0.313
-387.019	-70.159	-0.209	0.080
-386.004	-200.000	-0.094	-0.416
-384.990	-148.138	-0.334	0.028
-383.975	-200.000	0.084	-0.502
-382.960	-200.000	-0.065	-0.308
-381.946	166.712	0.261	-0.373
-380.931	-179.700	0.059	0.001
-379.917	392.964	-0.083	0.175
-378.902	-200.000	0.006	-0.250
-377.888	-177.008	-0.312	-0.008
-376.873	-101.815	0.077	0.019
-375.858	351.555	-0.046	-0.092
-374.844	-157.409	-0.325	0.020
-373.829	-169.123	0.202	0.008
-372.815	-200.000	-0.001	-0.391
-371.800	-4.946	-0.027	0.018
-370.785	-200.000	0.051	-0.339
-369.771	-200.000	0.057	0.383
-368.756	800.000	-0.019	-0.054
-367.742	-135.613	0.327	0.039
-366.727	48.843	-0.294	0.277
-365.712	-200.000	-0.055	-0.341
-364.698	800.000	0.077	-0.214
-363.683	-200.000	-0.022	0.292
-362.669	44.919	-0.095	0.088
-361.654	412.410	-0.136	0.290
-360.639	-200.000	-0.009	-0.093
-359.625	-200.000	-0.013	-0.136
-358.610	17.443	-0.210	0.167
-357.596	340.526	-0.081	0.159
-356.581	569.564	-0.079	0.192
-355.566	-24.325	-0.211	-0.126
-354.552	175.363	0.201	0.293
-353.537	-68.880	-0.198	-0.077
-352.523	556.927	0.034	-0.082
-351.508	-200.000	0.010	-0.126
-350.493	204.846	-0.301	0.469
-349.479	800.000	-0.053	-0.213
-348.464	-200.000	0.001	-0.133
-347.450	14.119	0.214	-0.168
-346.435	114.160	-0.076	-0.093
-345.420	-54.427	0.201	-0.092
-344.406	-200.000	-0.006	0.089
-343.391	-132.884	-0.132	0.017
-342.377	-171.881	-0.535	-0.018
-341.362	-57.988	0.221	0.097
-340.348	-123.649	0.386	-0.061
-339.333	800.000	-0.117	-0.352
-338.318	-159.723	-0.260	-0.014
-337.304	64.708	0.214	-0.217
-336.289	800.000	0.005	-0.020
-335.275	-93.883	0.219	-0.061
-334.260	-163.097	-0.244	0.012
-333.245	-1.001	-0.331	-0.235
-332.231	59.671	-0.108	0.107
-331.216	-79.008	-0.321	0.109
-330.202	-200.000	-0.028	0.295
-329.187	-15.243	-0.197	0.127
-328.172	89.633	0.153	-0.171
-327.158	-200.000	-0.023	-0.191
-326.143	33.973	-0.066	-0.058
-325.129	33.996	0.339	-0.296
-324.114	800.000	0.096	-0.362
-323.099	800.000	0.042	0.154
-322.085	800.000	0.021	0.068
-321.070	-155.215	0.070	0.005
-320.056	110.579	0.091	-0.110
-319.041	228.919	-0.068	-0.111
-318.026	253.115	0.061	-0.104
-317.012	236.088	-0.097	-0.160
-315.997	-200.000	0.044	-0.301
-314.983	151.951	-0.096	-0.131
-313.968	-40.362	-0.137	-0.072
-312.953	800.000	0.036	0.134
-311.939	89.833	-0.161	-0.180
-310.924	800.000	0.023	-0.078
-309.910	18.146	0.090	0.072
-308.895	102.207	0.063	0.074
-307.880	-200.000	0.003	-0.047
-306.866	116.162	0.230	0.283
-305.851	-124.244	-0.326	0.051
-304.837	-200.000	0.014	-0.156
-303.822	20.961	-0.169	0.137
-302.807	65.285	0.072	-0.073
-301.793	-200.000	0.049	0.251
-300.778	-60.615	-0.488	0.208
-299.764	236.895	-0.077	-0.129
-298.749	-162.658	0.181	-0.009
-297.735	800.000	0.032	-0.108
-296.720	220.787	-0.059	-0.095
-295.705	-200.000	-0.047	0.220
-294.691	-82.750	0.158	-0.051
-293.676	-116.236	-0.412	-0.077
-292.662	800.000	-0.103	0.307
-291.647	447.219	0.170	0.375
-290.632	-200.000	0.072	-0.333
-289.618	-96.379	0.074	0.020
-288.603	-29.740	0.075	0.043
-287.589	800.000	0.062	-0.192
-286.574	-121.363	-0.046	-0.008
-285.559	-200.000	0.012	-0.107
-284.545	-53.670	-0.100	0.046
-283.530	12.846	-0.225	-0.174
-282.516	-111.010	-0.295	0.061
-281.501	95.388	0.202	0.231
-280.486	-2.046	0.145	0.102
-279.472	211.178	0.233	0.367
-278.457	-55.717	-0.395	0.177
-277.443	-135.177	0.167	0.020
-276.428	59.132	0.163	0.160
-275.413	312.490	0.093	0.175
-274.399	-10.748	-0.130	0.086
-273.384	-33.589	-0.126	-0.069
-272.370	139.936	-0.100	-0.132
-271.355	38.773	-0.103	-0.092
-270.340	-200.000	-0.002	0.231
-269.326	-103.591	-0.109	-0.026
-268.311	-200.000	-0.021	0.173
-267.297	-48.462	-0.058	-0.028
-266.282	-110.400	-0.150	-0.031
-265.267	110.896	0.038	0.046
-264.253	159.450	-0.052	-0.073
-263.238	-200.000	0.005	-0.041
-262.224	-70.192	-0.212	0.081
-261.209	147.514	-0.278	-0.375
-260.195	-200.000	-0.040	0.260
-259.180	49.197	-0.201	0.189
-258.165	-95.557	0.352	-0.095
-257.151	370.896	0.063	0.128
-256.136	-200.000	0.002	-0.010
-255.122	19.443	-0.053	-0.042
-254.107	86.842	0.057	0.063
-253.092	-55.085	-0.240	-0.108
-252.078	3.811	0.106	-0.077
-251.063	-200.000	0.006	0.422
-250.049	-128.169	-0.411	0.059
-249.034	-188.807	0.368	-0.004
-248.019	46.153	-0.125	-0.116
-247.005	-123.159	-0.071	-0.011
-245.990	-200.000	0.037	-0.205
-244.976	183.838	0.136	0.201
-243.961	800.000	-0.040	0.125
-242.946	800.000	0.047	0.152
-241.932	-200.000	-0.037	0.324
-240.917	-61.442	-0.249	-0.105
-239.903	-59.540	-0.195	0.084
-238.888	-51.756	-0.311	0.145
-237.873	-126.659	0.026	-0.004
-236.859	-124.187	-0.241	-0.038
-235.844	-12.743	-0.030	0.020
-234.830	-99.970	-0.302	0.075
-233.815	509.753	-0.066	-0.154
-232.800	-200.000	-0.028	0.268
-231.786	-11.512	-0.273	-0.180
-230.771	-49.913	0.169	-0.080
-229.757	431.414	0.113	-0.244
-228.742	-35.869	-0.170	0.092
-227.727	122.552	0.184	0.230
-226.713	-15.788	-0.163	0.104
-225.698	6.069	0.238	0.176
-224.684	-33.036	0.076	-0.042
-223.669	-200.000	0.022	-0.165
-222.655	-111.528	-0.338	-0.069
-221.640	-10.491	0.098	0.065
-220.625	-200.000	0.043	-0.293
-219.611	-181.632	-0.192	-0.004
-218.596	800.000	0.095	0.411
-217.582	36.582	0.170	-0.150
-216.567	-124.583	0.148	-0.023
-215.552	-200.000	-0.215	0.001
-214.538	-105.654	-0.427	-0.097
-213.523	-107.052	-0.249	-0.055
-212.509	-200.000	-0.020	0.154
-211.494	78.494	-0.144	0.154
-210.479	302.209	0.133	0.246
-209.465	-200.000	0.014	0.189
-208.450	148.612	-0.121	0.163
-207.436	800.000	0.070	0.305
-206.421	-73.519	-0.070	-0.026
-205.406	33.808	0.232	-0.201
-204.392	-130.343	0.304	0.041
-203.377	416.273	-0.019	-0.039
-202.363	800.000	0.144	0.412
-201.348	-108.604	-0.087	0.019
-200.333	-77.108	0.340	0.118
-199.319	-100.948	0.172	-0.042
-198.304	191.213	-0.107	-0.162
-197.290	395.607	-0.116	-0.241
-196.275	195.895	-0.191	-0.290
-195.260	337.112	-0.095	0.184
-194.246	-51.401	-0.244	-0.114
-193.231	-39.357	-0.236	-0.124
-192.217	-55.711	-0.063	0.028
-191.202	-108.510	-0.336	0.072
-190.187	800.000	0.200	0.569
-189.173	-71.531	0.116	0.043
-188.158	319.274	-0.207	-0.392
-187.144	-9.880	-0.030	-0.020
-186.129	-8.200	0.245	-0.165
-185.114	-66.203	0.180	-0.072
-184.100	67.526	-0.047	0.048
-183.085	-55.548	0.411	0.184
-182.071	800.000	0.069	-0.241
-181.056	800.000	-0.071	-0.246
-180.042	-200.000	0.002	-0.399
-179.027	-134.282	-0.324	0.040
-178.012	800.000	0.074	-0.267
-176.998	-51.926	0.131	0.061
-175.983	-25.298	0.142	-0.084
-174.969	-200.000	0.008	0.156
-173.954	-200.000	0.024	0.242
-172.939	-83.145	0.355	0.114
-171.925	-6.045	0.141	0.096
-170.910	-200.000	0.008	0.096
-169.896	-200.000	-0.003	0.175
-168.881	47.194	-0.060	-0.056
-167.866	-200.000	0.017	-0.172
-166.852	390.401	0.072	0.149
-165.837	212.665	0.042	0.066
-164.823	-125.561	0.492	-0.074
-163.808	-64.622	-0.333	0.135
-162.793	99.858	0.059	-0.068
-161.779	88.186	-0.138	-0.153
-160.764	-96.769	0.295	0.077
-159.750	-7.169	-0.421	-0.285
-158.735	94.768	0.049	-0.055
-157.720	64.405	0.026	-0.026
-156.706	-200.000	-0.029	0.274
-155.691	-109.407	-0.161	-0.034
-154.677	800.000	-0.087	0.280
-153.662	-200.000	-0.014	0.077
-152.647	800.000	0.037	-0.159
-151.633	595.241	0.067	0.166
-150.618	-94.740	0.277	0.075
-149.604	-23.496	-0.233	-0.140
-148.589	-59.922	0.325	0.139
-147.574	705.729	0.051	-0.134
-146.560	281.252	-0.118	0.211
-145.545	289.857	-0.080	0.144
-144.531	271.644	-0.132	-0.232
-143.516	-108.212	-0.295	0.064
-142.502	130.667	-0.128	0.163
-141.487	800.000	0.094	0.330
-140.472	800.000	0.077	-0.256
-139.458	222.057	0.123	0.197
-138.443	-173.109	-0.300	0.009
-137.429	279.620	-0.071	0.126
-136.414	406.423	0.060	0.125
-135.399	17.556	0.091	-0.072
-134.385	762.922	-0.027	0.074
-133.370	134.007	-0.222	0.286
-132.356	38.262	0.145	0.129
-131.341	181.676	-0.227	0.332
-130.326	-85.803	-0.146	0.045
-129.312	17.235	-0.147	0.116
-128.297	149.570	-0.053	0.072
-127.283	-149.557	-0.186	0.015
-126.268	49.305	-0.119	-0.111
-125.253	800.000	-0.071	-0.205
-124.239	-88.487	0.343	0.102
-123.224	-161.745	-0.167	-0.008
-122.210	-15.005	-0.269	-0.172
