DTS Sentinel unit serial number:	SN413079Multiplexer serial number:	ORYXHardware model number:	OX4-SRSoftware version number:	ORYX F/W v4.00 Oryx Data Collector v3.7.2.0data status	okinstallation	princeton_trtdifferential loss correction	single-endedforward channel	channel 1reverse channel	N/Adate	2019/09/17time	14:02:35forward acquisition time	60.00reverse acquisition time	0.00gamma	496.2192k internal	0.2301k external	0.2301temperature offset calibration	0.9970default loss term (dB/km)	0.3790temperature slope calibration	1.0000multiplexer offset coefficient	1.0000multiplexer slope coefficient	1.0000fibre end	0.00T internal ref (°C)	35.62T ext. ref 1 (°C)	0.42T ext. ref 2 (°C)	32.67length (m)	temperature (°C)	Stokes	anti-Stokes-747.200	43.742	0.173	0.161
-746.185	759.425	-0.114	0.316
-745.171	-157.523	-0.270	0.017
-744.156	-200.000	0.005	0.208
-743.142	-54.430	0.190	-0.088
-742.127	-107.239	0.189	-0.042
-741.112	326.942	0.123	0.241
-740.098	35.758	-0.054	-0.049
-739.083	101.509	-0.074	0.088
-738.069	-111.584	-0.174	0.036
-737.054	-200.000	0.001	-0.158
-736.039	-92.203	-0.420	-0.121
-735.025	112.321	-0.110	-0.136
-734.010	-41.616	0.095	-0.050
-732.996	800.000	0.020	0.064
-731.981	448.691	-0.081	0.183
-730.966	-200.000	0.058	0.284
-729.952	3.048	-0.176	-0.130
-728.937	800.000	0.042	0.180
-727.923	28.607	-0.044	0.038
-726.908	-79.603	-0.294	0.101
-725.894	-195.689	-0.377	-0.003
-724.879	141.345	-0.079	-0.107
-723.864	-138.704	-0.118	-0.013
-722.850	-200.000	-0.016	-0.187
-721.835	-200.000	0.047	0.304
-720.821	-121.074	0.103	-0.018
-719.806	-91.650	-0.314	-0.091
-718.791	-91.220	0.296	-0.086
-717.777	-50.362	-0.297	0.143
-716.762	-68.637	0.163	-0.064
-715.748	33.778	0.255	0.226
-714.733	421.648	-0.085	-0.185
-713.718	-200.000	-0.031	-0.206
-712.704	97.685	-0.164	0.192
-711.689	59.267	0.085	-0.085
-710.675	158.646	-0.130	-0.184
-709.660	800.000	0.032	0.116
-708.645	367.627	-0.124	-0.255
-707.631	21.160	0.141	0.117
-706.616	800.000	0.017	0.074
-705.602	752.136	-0.087	0.238
-704.587	68.880	-0.083	-0.087
-703.572	-109.052	0.301	-0.065
-702.558	-200.000	-0.012	0.266
-701.543	-104.336	-0.229	-0.054
-700.529	-1.921	0.202	-0.145
-699.514	-89.662	0.525	0.157
-698.499	800.000	0.064	0.205
-697.485	-156.331	0.200	-0.013
-696.470	86.931	0.065	0.073
-695.456	149.171	0.174	-0.239
-694.441	-3.296	-0.119	-0.084
-693.426	496.406	-0.193	-0.453
-692.412	-26.505	-0.056	0.033
-691.397	-200.000	0.022	-0.392
-690.383	256.984	-0.084	-0.147
-689.368	210.672	-0.043	-0.069
-688.354	-113.722	0.110	-0.022
-687.339	221.806	0.108	-0.176
-686.324	-48.642	-0.113	-0.055
-685.310	-200.000	0.037	-0.226
-684.295	800.000	0.065	0.218
-683.281	-200.000	0.018	0.237
-682.266	47.546	0.182	-0.173
-681.251	210.731	-0.035	-0.057
-680.237	161.348	0.142	0.202
-679.222	303.621	0.031	0.058
-678.208	-17.597	0.055	0.035
-677.193	444.504	-0.117	0.262
-676.178	174.810	-0.198	-0.291
-675.164	-85.259	-0.279	-0.089
-674.149	-70.091	-0.097	0.038
-673.135	269.099	0.118	0.211
-672.120	468.688	0.153	-0.350
-671.105	369.426	-0.118	-0.242
-670.091	-200.000	-0.074	0.540
-669.076	656.414	-0.087	0.227
-668.062	36.862	0.241	0.217
-667.047	-39.880	-0.165	-0.088
-666.032	-102.858	-0.126	0.030
-665.018	98.683	0.256	-0.300
-664.003	800.000	-0.082	-0.301
-662.989	-200.000	-0.007	0.086
-661.974	-149.380	0.164	0.013
-660.959	56.842	0.153	-0.151
-659.945	-128.779	-0.257	0.037
-658.930	-3.509	-0.246	-0.174
-657.916	225.479	0.117	-0.192
-656.901	263.778	0.136	0.240
-655.886	26.551	0.026	-0.022
-654.872	157.106	-0.164	-0.231
-653.857	-27.336	-0.213	0.126
-652.843	-200.000	-0.010	-0.053
-651.828	120.585	0.312	-0.394
-650.814	38.162	-0.246	0.222
-649.799	-71.645	0.162	-0.062
-648.784	780.639	-0.037	0.103
-647.770	71.953	-0.061	-0.065
-646.755	-138.217	-0.293	0.033
-645.741	800.000	-0.124	-0.368
-644.726	1.112	-0.117	-0.085
-643.711	26.289	0.144	-0.122
-642.697	800.000	-0.023	0.101
-641.682	-11.673	-0.156	0.104
-640.668	-71.431	0.404	0.154
-639.653	-19.384	0.164	-0.103
-638.638	800.000	0.023	0.068
-637.624	107.509	-0.033	-0.040
-636.609	-200.000	0.014	-0.163
-635.595	800.000	-0.078	0.232
-634.580	-22.644	0.099	0.061
-633.565	-62.336	-0.459	0.194
-632.551	-119.818	-0.265	-0.046
-631.536	463.484	0.106	0.240
-630.522	158.942	-0.085	0.119
-629.507	-186.903	0.163	-0.002
-628.492	569.448	0.156	-0.385
-627.478	-200.000	0.040	-0.335
-626.463	800.000	-0.048	0.139
-625.449	-200.000	0.008	-0.171
-624.434	-200.000	-0.255	-0.001
-623.419	-16.616	-0.151	-0.097
-622.405	265.331	-0.077	0.136
-621.390	8.587	-0.260	-0.199
-620.376	-200.000	0.013	0.090
-619.361	-20.743	0.291	0.181
-618.346	-157.633	-0.373	0.023
-617.332	100.835	0.220	-0.260
-616.317	-137.835	-0.250	0.028
-615.303	-182.128	-0.268	0.005
-614.288	-144.036	0.099	0.009
-613.273	-86.103	-0.102	0.032
-612.259	241.740	-0.102	0.173
-611.244	-60.055	-0.152	0.066
-610.230	-200.000	0.071	-0.366
-609.215	-200.000	0.009	-0.183
-608.201	102.847	0.228	0.271
-607.186	41.518	-0.117	-0.107
-606.171	-200.000	-0.004	0.117
-605.157	426.310	0.127	0.277
-604.142	0.350	-0.116	0.084
-603.128	246.649	0.025	0.042
-602.113	41.499	-0.026	0.024
-601.098	-27.270	-0.267	0.158
-600.084	225.516	-0.088	-0.144
-599.069	-127.915	-0.418	0.061
-598.055	20.108	0.267	0.219
-597.040	-191.486	-0.225	0.002
-596.025	-122.631	-0.240	-0.039
-595.011	-36.941	-0.162	-0.088
-593.996	799.160	0.089	0.249
-592.982	-35.007	-0.201	-0.111
-591.967	-130.885	0.266	0.036
-590.952	800.000	0.023	0.082
-589.938	119.090	0.027	-0.033
-588.923	-25.756	-0.166	0.099
-587.909	-12.829	-0.105	0.069
-586.894	31.465	0.114	0.099
-585.879	-200.000	0.027	0.437
-584.865	-163.370	-0.385	-0.019
-583.850	306.254	0.124	0.234
-582.836	-200.000	0.064	0.506
-581.821	-200.000	0.025	0.120
-580.806	-200.000	0.012	-0.077
-579.792	8.750	-0.111	-0.085
-578.777	-200.000	-0.004	0.216
-577.763	163.810	0.112	0.160
-576.748	800.000	-0.041	-0.160
-575.733	-200.000	0.054	-0.256
-574.719	-155.434	-0.454	-0.030
-573.704	51.041	-0.107	0.103
-572.690	-200.000	0.039	0.348
-571.675	-188.158	-0.353	-0.005
-570.661	-23.465	-0.276	0.168
-569.646	800.000	-0.043	0.177
-568.631	-167.445	-0.064	0.003
-567.617	39.473	0.137	0.125
-566.602	-64.943	0.150	-0.062
-565.588	800.000	0.039	-0.115
-564.573	-200.000	0.036	0.244
-563.558	-74.315	0.127	-0.046
-562.544	800.000	0.052	-0.210
-561.529	218.786	0.160	0.258
-560.515	-0.612	0.057	-0.041
-559.500	30.151	0.183	-0.158
-558.485	118.496	-0.247	0.309
-557.471	-6.549	-0.402	0.277
-556.456	-200.000	-0.000	0.061
-555.442	10.211	-0.144	-0.111
-554.427	-200.000	0.009	-0.325
-553.412	-128.465	0.188	-0.027
-552.398	337.518	-0.063	0.124
-551.383	-200.000	0.024	0.322
-550.369	-200.000	0.012	0.164
-549.354	369.640	-0.107	-0.218
-548.339	284.914	-0.075	-0.136
-547.325	-80.864	0.178	0.060
-546.310	428.887	0.149	-0.327
-545.296	71.832	-0.141	0.148
-544.281	-109.885	0.132	0.028
-543.266	549.056	0.156	0.377
-542.252	45.443	0.108	0.101
-541.237	-138.224	-0.034	-0.004
-540.223	-33.732	0.193	-0.108
-539.208	538.769	-0.087	-0.209
-538.193	-200.000	0.003	-0.060
-537.179	555.986	-0.058	-0.140
-536.164	47.550	-0.030	-0.028
-535.150	121.011	0.306	-0.385
-534.135	-55.454	0.070	0.032
-533.121	156.299	-0.198	-0.276
-532.106	-71.534	-0.129	0.049
-531.091	6.610	-0.269	-0.202
-530.077	378.227	0.071	0.147
-529.062	-200.000	0.045	-0.285
-528.048	-133.153	0.336	-0.043
-527.033	146.665	-0.024	0.033
-526.018	800.000	-0.044	0.135
-525.004	800.000	0.056	-0.168
-523.989	-25.495	0.015	0.009
-522.975	800.000	-0.027	0.117
-521.960	557.997	0.065	-0.158
-520.945	-200.000	-0.001	0.063
-519.931	-122.931	0.042	-0.007
-518.916	-200.000	-0.022	-0.265
-517.902	-24.960	0.323	0.194
-516.887	-200.000	0.014	0.075
-515.872	800.000	0.064	-0.192
-514.858	165.547	-0.116	-0.165
-513.843	37.444	-0.288	0.258
-512.829	41.763	0.141	0.129
-511.814	-46.022	0.193	0.096
-510.799	387.342	0.080	0.168
-509.785	-192.105	0.329	-0.003
-508.770	-200.000	0.042	-0.211
-507.756	-86.688	0.120	0.037
-506.741	-200.000	0.088	0.528
-505.726	271.100	0.265	0.471
-504.712	284.359	0.090	0.164
-503.697	-200.000	-0.046	0.268
-502.683	-200.000	-0.074	0.350
-501.668	-200.000	-0.003	0.410
-500.653	53.371	0.053	-0.051
-499.639	-200.000	0.014	0.187
-498.624	101.910	-0.215	0.253
-497.610	-200.000	0.004	0.109
-496.595	800.000	0.089	-0.272
-495.581	-200.000	-0.013	0.262
-494.566	-200.000	0.000	0.121
-493.551	800.000	-0.164	0.497
-492.537	97.455	-0.114	0.132
-491.522	-60.248	-0.054	0.023
-490.508	7.058	-0.098	0.074
-489.493	-200.000	0.018	0.082
-488.478	800.000	-0.042	0.143
-487.464	-82.345	-0.154	0.051
-486.449	243.578	0.021	0.035
-485.435	129.874	-0.230	0.296
-484.420	189.294	-0.042	-0.063
-483.405	-114.008	0.127	0.025
-482.391	-50.463	0.296	-0.141
-481.376	20.624	-0.157	-0.129
-480.362	324.939	0.061	-0.119
-479.347	102.696	0.297	-0.350
-478.332	-57.388	-0.070	-0.031
-477.318	-74.552	0.037	-0.014
-476.303	800.000	-0.069	-0.223
-475.289	151.626	-0.107	0.147
-474.274	-85.531	0.149	0.047
-473.259	137.349	-0.199	-0.263
-472.245	270.910	-0.206	-0.365
-471.230	-200.000	-0.028	-0.272
-470.216	800.000	0.042	0.152
-469.201	-139.569	-0.014	0.002
-468.186	800.000	-0.029	0.096
-467.172	61.488	0.026	0.026
-466.157	-3.448	0.172	-0.121
-465.143	800.000	0.121	-0.455
-464.128	-66.957	0.255	0.102
-463.113	-127.665	0.219	0.032
-462.099	-200.000	-0.012	-0.128
-461.084	58.423	-0.257	-0.254
-460.070	-200.000	0.010	-0.053
-459.055	73.680	0.122	0.129
-458.040	53.722	0.085	-0.083
-457.026	66.011	-0.172	0.175
-456.011	-120.312	0.288	0.049
-454.997	-24.658	-0.228	-0.137
-453.982	-200.000	0.059	0.269
-452.968	737.384	0.105	-0.284
-451.953	242.069	0.103	0.174
-450.938	-200.000	0.000	-0.162
-449.924	-130.323	0.229	-0.031
-448.909	800.000	-0.135	-0.484
-447.895	274.694	0.107	-0.190
-446.880	-11.527	-0.097	0.064
-445.865	134.792	0.260	-0.340
-444.851	800.000	0.049	0.210
-443.836	129.579	-0.065	-0.084
-442.822	-53.892	-0.118	-0.054
-441.807	800.000	0.012	-0.053
-440.792	97.864	0.115	-0.134
-439.778	-200.000	-0.018	0.261
-438.763	-200.000	0.016	0.083
-437.749	44.818	-0.173	-0.161
-436.734	-17.110	-0.284	0.181
-435.719	800.000	0.036	0.107
-434.705	3.112	0.335	0.245
-433.690	101.296	-0.148	-0.174
-432.676	800.000	0.030	-0.119
-431.661	-158.953	0.298	-0.017
-430.646	729.231	-0.033	0.089
-429.632	-0.833	-0.140	0.100
-428.617	-29.997	-0.307	0.176
-427.603	-194.632	-0.220	-0.002
-426.588	-200.000	-0.019	-0.147
-425.573	-9.513	0.111	0.074
-424.559	-200.000	-0.049	0.343
-423.544	217.464	-0.086	0.138
-422.530	-144.534	0.318	-0.030
-421.515	27.763	-0.237	-0.201
-420.500	-52.233	-0.212	-0.099
-419.486	-200.000	-0.006	-0.062
-418.471	-67.649	0.351	-0.138
-417.457	-200.000	0.003	0.046
-416.442	-26.327	0.062	0.037
-415.428	-200.000	-0.007	0.057
-414.413	-97.817	-0.091	-0.024
-413.398	-200.000	-0.038	0.196
-412.384	-96.907	-0.087	-0.023
-411.369	117.001	0.378	0.468
-410.355	800.000	0.051	0.150
-409.340	-200.000	-0.180	-0.001
-408.325	66.802	0.144	-0.148
-407.311	21.573	-0.188	-0.154
-406.296	165.669	-0.084	0.120
-405.282	-69.037	-0.088	0.034
-404.267	800.000	-0.062	0.182
-403.252	169.947	0.134	-0.193
-402.238	81.230	-0.115	-0.125
-401.223	45.008	-0.332	-0.307
-400.209	-155.551	-0.285	0.018
-399.194	222.477	-0.158	-0.255
-398.179	-158.753	-0.102	0.006
-397.165	523.857	-0.149	0.353
-396.150	741.344	0.027	-0.073
-395.136	7.691	0.182	-0.137
-394.121	800.000	0.142	0.421
-393.106	-164.392	-0.354	-0.016
-392.092	-155.203	0.300	0.020
-391.077	-17.760	0.268	0.169
-390.063	45.543	0.130	0.121
-389.048	800.000	0.041	0.167
-388.033	-90.711	-0.191	0.056
-387.019	48.168	-0.131	0.123
-386.004	-72.779	-0.134	0.050
-384.990	48.357	-0.157	-0.147
-383.975	-110.691	0.412	-0.086
-382.960	-200.000	-0.042	0.218
-381.946	-200.000	-0.042	0.235
-380.931	8.821	-0.138	-0.105
-379.917	172.600	0.176	0.254
-378.902	49.800	0.087	0.083
-377.888	800.000	-0.048	-0.166
-376.873	-81.664	-0.392	0.129
-375.858	-19.549	0.344	-0.214
-374.844	512.621	0.075	0.176
-373.829	-59.140	-0.299	0.130
-372.815	-182.438	-0.286	-0.005
-371.800	-88.640	0.223	0.067
-370.785	3.538	-0.233	0.171
-369.771	800.000	0.086	0.245
-368.756	248.828	-0.028	0.047
-367.742	17.011	-0.378	-0.301
-366.727	311.713	-0.151	0.284
-365.712	-84.123	0.162	0.052
-364.698	-199.281	0.160	-0.001
-363.683	-70.116	-0.243	-0.093
-362.669	-46.349	-0.097	0.048
-361.654	24.630	0.098	-0.082
-360.639	-7.128	-0.170	0.116
-359.625	-56.420	0.050	-0.022
-358.610	166.174	-0.173	-0.246
-357.596	432.108	0.038	-0.083
-356.581	-200.000	-0.001	-0.065
-355.566	-17.620	0.024	-0.015
-354.552	131.610	0.108	0.140
-353.537	764.638	0.089	0.244
-352.523	800.000	0.087	0.296
-351.508	800.000	-0.102	-0.292
-350.493	24.942	-0.059	-0.050
-349.479	-200.000	0.024	-0.176
-348.464	-137.719	0.475	0.054
-347.450	-200.000	0.024	-0.148
-346.435	-56.752	-0.327	-0.145
-345.420	-23.195	0.257	0.155
-344.406	800.000	-0.101	0.385
-343.391	-200.000	-0.003	-0.125
-342.377	-19.654	0.022	-0.013
-341.362	167.474	-0.095	-0.135
-340.348	155.571	-0.121	-0.168
-339.333	-200.000	0.044	-0.488
-338.318	-200.000	0.015	-0.095
-337.304	83.952	-0.087	0.096
-336.289	800.000	0.053	0.180
-335.275	530.027	-0.033	0.078
-334.260	5.756	-0.124	0.092
-333.245	800.000	0.098	-0.270
-332.231	-47.641	0.094	0.046
-331.216	-176.772	-0.247	0.006
-330.202	85.318	-0.113	0.125
-329.187	243.439	-0.100	-0.168
-328.172	340.213	0.163	0.320
-327.158	233.423	0.051	-0.084
-326.143	-200.000	0.034	-0.271
-325.129	-124.959	-0.231	0.036
-324.114	-200.000	-0.028	0.232
-323.099	800.000	-0.031	-0.088
-322.085	-200.000	0.002	0.339
-321.070	-200.000	0.046	0.286
-320.056	58.919	0.211	0.208
-319.041	-9.179	-0.119	-0.080
-318.026	254.637	0.162	0.279
-317.012	-97.091	-0.197	-0.052
-315.997	-3.734	0.216	0.151
-314.983	-145.402	-0.142	-0.013
-313.968	800.000	0.071	0.201
-312.953	24.918	0.194	-0.161
-311.939	-100.730	0.179	-0.044
-310.924	-117.087	-0.364	0.067
-309.910	-200.000	0.067	-0.341
-308.895	800.000	0.040	-0.165
-307.880	-200.000	-0.027	-0.124
-306.866	-87.726	0.180	-0.055
-305.851	-8.986	-0.193	-0.130
-304.837	191.390	0.069	-0.104
-303.822	-135.408	-0.233	0.028
-302.807	-133.003	0.271	0.034
-301.793	237.747	-0.088	0.146
-300.778	-165.808	-0.184	0.008
-299.764	-200.000	-0.067	-0.468
-298.749	-133.077	0.321	-0.041
-297.735	800.000	0.100	-0.301
-296.720	-59.203	-0.026	0.011
-295.705	42.889	0.115	-0.105
-294.691	-62.455	0.426	0.177
-293.676	-136.275	0.350	-0.041
-292.662	-18.531	-0.105	0.065
-291.647	-200.000	-0.001	-0.379
-290.632	-71.735	0.071	-0.026
-289.618	-157.229	-0.098	0.006
-288.603	166.207	0.042	0.059
-287.589	-200.000	-0.016	-0.096
-286.574	-108.017	0.037	-0.008
-285.559	260.761	0.139	-0.241
-284.545	15.976	0.117	-0.093
-283.530	-56.379	0.257	-0.114
-282.516	-51.790	-0.099	-0.046
-281.501	-172.946	0.195	-0.006
-280.486	-107.425	0.045	-0.010
-279.472	-141.090	-0.442	0.045
-278.457	800.000	-0.058	-0.243
-277.443	-137.610	-0.253	0.029
-276.428	-46.239	-0.326	-0.160
-275.413	26.051	0.326	-0.273
-274.399	-200.000	-0.072	0.370
-273.384	150.402	0.174	-0.236
-272.370	-74.351	0.077	-0.028
-271.355	-136.523	0.069	-0.008
-270.340	-200.000	0.000	-0.136
-269.326	1.839	-0.107	-0.077
-268.311	800.000	0.086	0.329
-267.297	-41.159	0.286	0.148
-266.282	-129.050	0.123	-0.017
-265.267	-74.001	0.136	-0.049
-264.253	27.946	-0.097	-0.082
-263.238	40.985	-0.249	-0.225
-262.224	-200.000	0.027	0.240
-261.209	5.173	0.105	-0.078
-260.195	-146.925	-0.127	-0.011
-259.180	38.445	0.030	0.027
-258.165	212.493	-0.179	0.282
-257.151	-119.982	0.291	0.050
-256.136	-7.850	-0.162	0.109
-255.122	133.082	-0.153	-0.198
-254.107	119.892	0.068	-0.085
-253.092	613.934	-0.200	-0.500
-252.078	11.580	-0.111	-0.085
-251.063	-139.713	-0.107	-0.011
-250.049	-89.526	-0.172	-0.051
-249.034	-62.632	-0.129	-0.054
-248.019	11.733	0.182	-0.139
-247.005	34.196	-0.012	-0.010
-245.990	-75.613	0.199	-0.071
-244.976	-197.791	0.239	-0.001
-243.961	135.229	-0.118	-0.153
-242.946	148.615	0.074	0.100
-241.932	306.439	0.126	-0.235
-240.917	52.796	-0.185	-0.177
-239.903	144.373	-0.165	-0.220
-238.888	-58.856	0.434	0.188
-237.873	-200.000	-0.020	-0.409
-236.859	208.139	0.084	-0.131
-235.844	364.297	0.106	0.212
-234.830	143.411	-0.125	0.167
-233.815	-42.893	-0.147	-0.075
-232.800	181.734	-0.069	0.102
-231.786	585.099	-0.026	-0.064
-230.771	-50.474	0.077	-0.036
-229.757	9.756	0.130	-0.099
-228.742	249.409	-0.280	0.473
-227.727	-161.826	-0.226	0.011
-226.713	-16.563	-0.509	-0.322
-225.698	11.811	0.232	-0.178
-224.684	-146.828	-0.106	-0.009
-223.669	-133.018	-0.380	-0.048
-222.655	800.000	0.016	-0.059
-221.640	-4.174	0.322	-0.223
-220.625	312.226	-0.181	-0.339
-219.611	-15.407	0.358	-0.228
-218.596	-200.000	-0.013	-0.068
-217.582	-200.000	0.028	-0.211
-216.567	140.358	0.166	-0.219
-215.552	800.000	-0.059	0.224
-214.538	719.545	0.042	0.112
-213.523	-1.845	0.250	0.175
-212.509	-200.000	0.020	-0.161
-211.494	800.000	0.076	0.269
-210.479	92.938	-0.093	-0.104
-209.465	26.313	-0.116	-0.097
-208.450	800.000	0.002	-0.007
-207.436	-81.549	0.080	-0.026
-206.421	-44.421	0.191	0.095
-205.406	-200.000	0.019	0.094
-204.392	-45.854	0.342	-0.169
-203.377	445.592	-0.055	0.120
-202.363	-147.952	-0.250	0.021
-201.348	-8.104	0.074	-0.049
-200.333	-79.923	-0.335	0.112
-199.319	6.012	0.254	0.187
-198.304	800.000	0.124	0.453
-197.290	365.562	-0.237	0.476
-196.275	-2.725	0.180	-0.126
-195.260	-200.000	0.008	-0.104
-194.246	131.158	-0.062	-0.080
-193.231	-110.640	-0.185	-0.038
-192.217	391.463	0.072	0.149
-191.202	-23.525	0.271	-0.162
-190.187	-10.821	0.143	-0.094
-189.173	445.971	-0.062	-0.136
-188.158	-153.884	0.303	0.021
-187.144	-178.482	0.369	-0.009
-186.129	-156.258	0.177	-0.011
-185.114	238.419	0.111	-0.184
-184.100	-169.408	-0.186	-0.007
-183.085	98.444	0.098	-0.112
-182.071	-200.000	-0.010	0.074
-181.056	671.465	0.076	-0.197
-180.042	-54.206	-0.317	-0.144
-179.027	-113.725	0.093	0.018
-178.012	-200.000	-0.062	0.280
-176.998	323.447	0.078	0.148
-175.983	199.659	0.033	-0.050
-174.969	-151.514	0.147	0.011
-173.954	670.882	-0.021	0.054
-172.939	-67.947	-0.368	0.143
-171.925	-66.545	-0.155	-0.061
-170.910	483.082	0.025	-0.056
-169.896	-4.506	-0.114	0.078
-168.881	89.152	-0.135	0.150
-167.866	-21.118	0.123	0.075
-166.852	687.551	-0.171	-0.445
-165.837	800.000	0.052	-0.214
-164.823	-200.000	-0.005	0.182
-163.808	12.289	-0.312	-0.240
-162.793	433.196	0.103	-0.222
-161.779	15.507	0.193	-0.151
-160.764	17.818	0.227	0.180
-159.750	-165.873	0.443	-0.019
-158.735	-78.069	0.393	-0.135
-157.720	-39.636	0.527	-0.275
-156.706	-200.000	-0.001	0.019
-155.691	316.317	0.160	-0.300
-154.677	10.989	-0.083	0.063
-153.662	800.000	-0.082	-0.238
-152.647	-14.028	0.224	0.144
-151.633	800.000	0.049	-0.168
-150.618	397.760	0.014	-0.029
-149.604	-200.000	0.020	0.419
-148.589	800.000	-0.082	-0.264
-147.574	-21.084	-0.139	0.085
-146.560	-74.802	-0.176	0.063
-145.545	-200.000	0.014	-0.060
-144.531	-36.512	-0.140	0.075
-143.516	-108.221	-0.182	0.039
-142.502	-87.227	-0.190	-0.058
-141.487	102.015	0.188	0.219
-140.472	102.412	0.049	-0.056
-139.458	-200.000	-0.011	-0.228
-138.443	-15.071	0.104	0.066
-137.429	-200.000	-0.020	0.176
-136.414	577.782	0.095	-0.232
-135.399	63.960	0.157	0.157
-134.385	-140.920	0.036	-0.004
-133.370	-200.000	-0.005	0.125
-132.356	-134.971	0.114	0.014
-131.341	41.672	0.115	0.103
-130.326	-84.855	0.192	-0.060
-129.312	-113.717	0.045	0.009
-128.297	-83.197	0.330	-0.106
-127.283	4.933	0.269	-0.197
-126.268	-60.583	0.219	0.093
-125.253	-200.000	0.001	-0.232
-124.239	74.867	0.175	0.184
-123.224	-200.000	0.044	0.362
-122.210	-78.786	-0.395	-0.134
-121.195	383.863	-0.064	-0.131
