DTS Sentinel unit serial number:	SN413079Multiplexer serial number:	ORYXHardware model number:	OX4-SRSoftware version number:	ORYX F/W v4.00 Oryx Data Collector v3.7.2.0data status	okinstallation	princeton_trtdifferential loss correction	single-endedforward channel	channel 1reverse channel	N/Adate	2019/09/15time	01:06:35forward acquisition time	60.00reverse acquisition time	0.00gamma	496.2192k internal	0.2321k external	0.2321temperature offset calibration	0.9989default loss term (dB/km)	0.3790temperature slope calibration	1.0000multiplexer offset coefficient	1.0000multiplexer slope coefficient	1.0000fibre end	0.00T internal ref (°C)	32.00T ext. ref 1 (°C)	4.53T ext. ref 2 (°C)	26.83length (m)	temperature (°C)	Stokes	anti-Stokes-747.200	40.278	0.097	0.088
-746.185	-66.503	-0.028	0.011
-745.171	177.140	0.030	-0.043
-744.156	142.213	0.061	0.082
-743.142	-200.000	-0.015	-0.262
-742.127	775.090	0.081	-0.223
-741.112	-88.277	-0.292	-0.088
-740.098	800.000	0.101	0.302
-739.083	-128.797	0.057	-0.008
-738.069	-126.699	-0.136	0.020
-737.054	800.000	0.012	-0.045
-736.039	-29.548	-0.358	-0.207
-735.025	-62.722	0.191	0.080
-734.010	80.183	0.088	0.096
-732.996	472.205	-0.086	-0.195
-731.981	-55.793	-0.262	-0.118
-730.966	-71.298	-0.358	0.136
-729.952	800.000	-0.030	0.087
-728.937	800.000	-0.066	0.193
-727.923	204.874	0.091	-0.143
-726.908	-23.758	-0.299	-0.181
-725.894	11.478	-0.108	-0.083
-724.879	-38.833	-0.396	-0.211
-723.864	-200.000	0.038	0.241
-722.850	88.570	-0.220	0.247
-721.835	691.037	0.061	-0.160
-720.821	800.000	-0.089	-0.324
-719.806	1.259	0.083	-0.060
-718.791	-57.992	0.258	0.114
-717.777	-124.805	-0.321	-0.050
-716.762	580.889	0.086	-0.213
-715.748	-41.281	-0.148	0.077
-714.733	95.344	0.153	-0.177
-713.718	-200.000	0.018	-0.372
-712.704	-32.756	-0.222	-0.125
-711.689	-99.178	-0.293	-0.075
-710.675	-22.361	-0.158	0.097
-709.660	-124.774	-0.421	-0.066
-708.645	163.581	0.268	-0.380
-707.631	-3.945	-0.133	0.093
-706.616	-133.095	0.611	0.078
-705.602	-200.000	0.032	0.195
-704.587	-200.000	0.029	-0.357
-703.572	800.000	0.070	-0.296
-702.558	-130.070	0.044	-0.006
-701.543	171.717	0.135	-0.196
-700.529	620.020	-0.026	0.065
-699.514	-61.970	-0.436	-0.184
-698.499	-72.234	0.165	-0.062
-697.485	-200.000	-0.015	0.158
-696.470	-200.000	0.031	0.179
-695.456	27.477	0.301	0.255
-694.441	702.962	-0.039	-0.104
-693.426	-64.327	-0.151	-0.062
-692.412	275.673	0.054	-0.097
-691.397	-163.109	0.221	-0.011
-690.383	-200.000	0.025	-0.166
-689.368	161.826	0.080	-0.113
-688.354	-200.000	-0.008	0.060
-687.339	266.172	0.161	-0.284
-686.324	800.000	0.072	-0.258
-685.310	-103.688	-0.039	-0.009
-684.295	800.000	-0.092	0.297
-683.281	25.491	0.255	-0.214
-682.266	73.881	0.152	-0.161
-681.251	74.711	0.136	0.144
-680.237	-200.000	-0.019	0.158
-679.222	217.361	-0.175	-0.280
-678.208	-44.773	0.171	-0.086
-677.193	-59.564	-0.353	-0.153
-676.178	-200.000	0.023	0.163
-675.164	-200.000	0.036	-0.165
-674.149	49.429	-0.123	0.117
-673.135	800.000	-0.053	0.231
-672.120	65.578	0.078	-0.080
-671.105	9.029	-0.189	0.143
-670.091	-200.000	-0.005	0.059
-669.076	800.000	0.125	0.388
-668.062	-200.000	-0.053	-0.261
-667.047	503.044	-0.077	-0.179
-666.032	306.737	0.183	-0.343
-665.018	-85.519	-0.235	-0.074
-664.003	206.987	-0.033	-0.051
-662.989	-68.884	0.061	0.024
-661.974	-200.000	-0.044	-0.211
-660.959	342.215	0.128	-0.252
-659.945	-157.580	0.214	0.013
-658.930	-59.121	-0.175	-0.076
-657.916	-116.208	0.114	-0.021
-656.901	168.913	0.207	-0.298
-655.886	393.105	-0.112	-0.234
-654.872	-200.000	-0.012	-0.148
-653.857	-103.903	-0.260	0.061
-652.843	179.767	0.058	0.086
-651.828	-146.735	-0.249	0.022
-650.814	161.839	-0.150	-0.212
-649.799	-63.596	-0.185	-0.076
-648.784	755.842	0.055	-0.151
-647.770	173.595	0.071	0.104
-646.755	-200.000	-0.026	-0.196
-645.741	130.938	0.128	-0.165
-644.726	-45.706	0.098	-0.049
-643.711	47.364	-0.141	-0.132
-642.697	49.318	-0.287	0.271
-641.682	70.102	0.317	0.330
-640.668	-200.000	-0.006	0.227
-639.653	-72.532	-0.240	0.089
-638.638	-102.116	-0.245	-0.059
-637.624	-200.000	-0.015	-0.067
-636.609	-62.598	-0.127	-0.053
-635.595	-145.821	-0.345	0.031
-634.580	398.414	-0.141	0.297
-633.565	-133.127	-0.155	0.020
-632.551	625.094	-0.189	-0.480
-631.536	-82.683	0.078	0.026
-630.522	-143.182	0.211	0.020
-629.507	206.733	0.073	0.115
-628.492	128.493	-0.255	-0.327
-627.478	-86.852	-0.220	0.068
-626.463	500.853	-0.040	0.092
-625.449	-138.421	-0.157	0.017
-624.434	800.000	0.039	0.124
-623.419	-65.364	-0.038	-0.015
-622.405	198.544	0.035	-0.054
-621.390	770.979	-0.160	0.440
-620.376	201.797	-0.068	-0.105
-619.361	800.000	0.042	0.168
-618.346	36.551	-0.176	-0.156
-617.332	9.557	0.115	-0.087
-616.317	95.169	-0.125	0.143
-615.303	-25.374	-0.135	-0.081
-614.288	-67.107	-0.242	-0.096
-613.273	-200.000	-0.027	-0.309
-612.259	-51.883	0.200	-0.094
-611.244	24.880	-0.364	-0.303
-610.230	93.809	-0.117	0.134
-609.215	-62.418	-0.189	-0.079
-608.201	-200.000	0.026	0.238
-607.186	-11.838	-0.227	0.150
-606.171	800.000	-0.097	0.301
-605.157	398.079	0.096	-0.202
-604.142	-163.616	-0.186	0.009
-603.128	-134.473	-0.171	0.021
-602.113	159.616	-0.042	0.058
-601.098	-150.011	-0.138	0.011
-600.084	800.000	0.058	0.205
-599.069	-200.000	0.034	0.233
-598.055	-101.841	-0.038	0.009
-597.040	-140.440	-0.328	0.034
-596.025	274.304	-0.134	-0.239
-595.011	-64.201	-0.153	0.062
-593.996	-99.105	-0.157	-0.040
-592.982	-76.295	0.127	0.045
-591.967	105.708	0.083	-0.099
-590.952	32.516	0.130	-0.113
-589.938	291.975	0.123	0.224
-588.923	110.358	-0.143	0.172
-587.909	-177.999	-0.270	0.006
-586.894	434.813	-0.256	0.559
-585.879	-159.297	-0.249	0.014
-584.865	-151.820	0.185	0.014
-583.850	-200.000	-0.029	0.199
-582.836	362.908	0.050	-0.100
-581.821	110.253	-0.015	0.018
-580.806	-75.603	0.050	0.018
-579.792	363.954	-0.061	0.124
-578.777	-200.000	0.006	0.100
-577.763	-200.000	-0.003	-0.191
-576.748	-5.635	-0.137	0.094
-575.733	-181.865	0.089	-0.002
-574.719	0.732	-0.274	-0.197
-573.704	-9.421	0.287	-0.192
-572.690	-200.000	0.000	-0.161
-571.675	24.152	-0.513	-0.425
-570.661	28.934	0.038	-0.032
-569.646	-13.468	0.131	0.085
-568.631	-17.647	-0.280	0.177
-567.617	30.572	0.073	-0.062
-566.602	-87.000	-0.103	-0.031
-565.588	45.170	-0.250	-0.231
-564.573	-119.508	0.219	0.038
-563.558	800.000	0.034	-0.120
-562.544	800.000	0.120	-0.351
-561.529	22.182	0.218	-0.179
-560.515	517.961	-0.107	-0.252
-559.500	399.310	-0.022	0.046
-558.485	-115.349	0.158	-0.030
-557.471	-200.000	-0.037	-0.166
-556.456	-135.424	0.222	-0.027
-555.442	-200.000	0.009	-0.178
-554.427	800.000	0.057	0.199
-553.412	-32.762	-0.054	0.030
-552.398	800.000	0.100	-0.390
-551.383	-131.972	-0.125	0.016
-550.369	19.892	0.284	0.230
-549.354	306.747	-0.194	0.363
-548.339	104.590	0.043	-0.051
-547.325	800.000	-0.053	0.178
-546.310	-113.140	-0.199	-0.039
-545.296	800.000	0.072	0.269
-544.281	-149.791	-0.470	0.037
-543.266	377.826	-0.068	-0.139
-542.252	254.967	0.161	-0.277
-541.237	28.263	-0.261	-0.221
-540.223	259.574	-0.016	-0.028
-539.208	800.000	0.071	-0.245
-538.193	-200.000	0.000	-0.091
-537.179	479.884	0.120	0.273
-536.164	48.254	0.027	-0.025
-535.150	-94.450	0.321	0.088
-534.135	260.630	-0.072	-0.125
-533.121	-120.371	-0.146	-0.025
-532.106	390.809	-0.035	-0.074
-531.091	-71.643	-0.338	-0.127
-530.077	151.398	0.086	0.118
-529.062	-200.000	0.064	0.341
-528.048	31.377	-0.039	0.034
-527.033	800.000	-0.049	-0.147
-526.018	119.155	0.125	0.155
-525.004	-200.000	-0.074	0.364
-523.989	-26.776	-0.254	0.149
-522.975	-110.528	-0.357	-0.074
-521.960	-200.000	0.003	-0.295
-520.945	-200.000	0.027	0.126
-519.931	99.411	0.213	-0.247
-518.916	-163.849	-0.052	-0.002
-517.902	-63.946	0.199	0.081
-516.887	-200.000	-0.070	0.325
-515.872	-86.974	0.259	0.079
-514.858	800.000	0.047	0.174
-513.843	246.342	0.068	-0.115
-512.829	87.315	-0.208	-0.230
-511.814	-13.535	-0.078	-0.051
-510.799	-6.977	0.101	-0.069
-509.785	307.984	0.076	-0.142
-508.770	-143.126	0.300	0.029
-507.756	51.241	-0.221	0.210
-506.741	800.000	-0.029	0.080
-505.726	194.591	0.065	-0.099
-504.712	-128.651	-0.166	0.024
-503.697	340.716	-0.101	0.198
-502.683	-200.000	-0.020	0.122
-501.668	-136.379	0.071	-0.008
-500.653	65.315	0.150	-0.151
-499.639	-38.427	-0.403	-0.213
-498.624	365.904	0.066	-0.133
-497.610	-200.000	0.006	0.086
-496.595	-182.910	0.450	-0.008
-495.581	-94.350	-0.180	0.049
-494.566	-89.789	0.310	0.091
-493.551	-1.865	-0.228	0.160
-492.537	191.579	0.074	-0.112
-491.522	125.311	0.050	0.064
-490.508	-48.908	-0.150	0.072
-489.493	-83.932	0.209	0.067
-488.478	127.712	0.171	0.217
-487.464	-139.388	0.223	0.024
-486.449	-77.354	-0.108	0.037
-485.435	-120.860	-0.070	0.012
-484.420	-64.861	0.336	0.136
-483.405	25.280	0.193	0.160
-482.391	32.154	0.285	-0.246
-481.376	800.000	0.043	0.146
-480.362	66.370	0.197	0.200
-479.347	-163.090	0.194	-0.009
-478.332	-62.575	0.319	0.132
-477.318	-71.996	0.111	-0.041
-476.303	72.864	0.226	-0.236
-475.289	-99.287	-0.109	0.028
-474.274	191.245	-0.019	0.028
-473.259	165.956	-0.018	-0.026
-472.245	-128.963	-0.252	0.035
-471.230	198.017	-0.235	0.360
-470.216	81.679	0.149	-0.162
-469.201	-154.411	0.493	-0.033
-468.186	-16.491	0.069	-0.044
-467.172	-200.000	-0.047	0.299
-466.157	36.204	-0.078	-0.069
-465.143	352.428	-0.137	0.271
-464.128	-36.456	-0.151	0.081
-463.113	430.964	0.030	0.066
-462.099	800.000	0.060	-0.171
-461.084	-191.649	-0.104	-0.001
-460.070	-38.954	0.327	-0.172
-459.055	-200.000	0.006	-0.234
-458.040	-49.674	0.160	-0.076
-457.026	-200.000	0.002	-0.112
-456.011	130.369	0.174	0.223
-454.997	-115.484	0.188	0.035
-453.982	-200.000	-0.018	-0.182
-452.968	-25.745	0.125	-0.074
-451.953	-34.339	0.091	0.050
-450.938	105.815	-0.048	0.057
-449.924	-18.495	0.113	0.070
-448.909	800.000	-0.071	0.264
-447.895	800.000	-0.007	-0.025
-446.880	12.541	-0.041	-0.032
-445.865	86.111	0.147	-0.161
-444.851	60.288	-0.214	0.211
-443.836	-92.178	-0.394	0.111
-442.822	-200.000	0.052	0.302
-441.807	19.584	-0.177	0.142
-440.792	-121.172	0.159	0.027
-439.778	-200.000	0.240	-0.001
-438.763	-29.268	0.257	0.147
-437.749	-200.000	-0.054	-0.304
-436.734	71.339	0.200	0.207
-435.719	-40.193	-0.326	-0.170
-434.705	78.376	0.102	-0.109
-433.690	124.530	-0.105	0.132
-432.676	214.758	0.121	-0.192
-431.661	-161.531	-0.157	-0.008
-430.646	-200.000	-0.004	0.018
-429.632	-200.000	0.051	-0.283
-428.617	-48.380	0.098	-0.047
-427.603	115.143	0.030	0.037
-426.588	43.342	0.049	-0.045
-425.573	-114.226	0.168	-0.032
-424.559	145.641	0.126	-0.169
-423.544	-15.439	-0.094	0.060
-422.530	-110.592	-0.303	0.063
-421.515	-84.964	-0.236	0.074
-420.500	32.690	0.313	0.270
-419.486	296.579	-0.136	-0.250
-418.471	265.381	-0.194	-0.337
-417.457	86.448	-0.310	0.341
-416.442	-200.000	-0.003	-0.113
-415.428	-110.353	0.352	-0.073
-414.413	-47.991	-0.243	-0.117
-413.398	-158.594	-0.265	0.015
-412.384	48.758	-0.064	0.060
-411.369	110.414	-0.167	-0.201
-410.355	189.658	0.085	-0.127
-409.340	-200.000	0.020	-0.251
-408.325	-62.538	-0.185	0.077
-407.311	288.849	0.167	0.303
-406.296	800.000	-0.099	-0.384
-405.282	-200.000	-0.033	-0.277
-404.267	-200.000	0.010	0.087
-403.252	181.568	0.128	-0.189
-402.238	598.783	0.069	0.170
-401.223	800.000	0.027	0.102
-400.209	-200.000	0.004	-0.092
-399.194	-200.000	0.027	-0.225
-398.179	-87.616	0.026	0.008
-397.165	-49.169	-0.211	0.100
-396.150	-98.347	0.211	-0.054
-395.136	309.618	0.024	-0.045
-394.121	205.281	0.035	-0.054
-393.106	45.748	-0.178	-0.164
-392.092	-200.000	0.018	-0.130
-391.077	800.000	0.030	0.119
-390.063	-200.000	-0.051	0.354
-389.048	123.524	-0.186	0.232
-388.033	494.399	-0.072	0.165
-387.019	87.689	0.081	0.089
-386.004	-200.000	0.012	-0.089
-384.990	-200.000	0.013	-0.554
-383.975	-200.000	-0.064	-0.368
-382.960	8.163	0.200	0.150
-381.946	-88.491	0.106	-0.031
-380.931	140.601	-0.147	0.193
-379.917	104.270	0.219	0.257
-378.902	-60.456	0.140	0.059
-377.888	288.090	0.029	0.052
-376.873	-0.579	0.041	0.029
-375.858	187.832	0.111	0.165
-374.844	124.345	0.028	-0.035
-373.829	-200.000	-0.083	0.460
-372.815	111.448	-0.277	-0.332
-371.800	800.000	0.137	-0.415
-370.785	-30.192	0.544	0.308
-369.771	-153.280	0.130	0.009
-368.756	-24.026	0.089	0.053
-367.742	-39.660	0.073	-0.038
-366.727	-200.000	-0.014	0.070
-365.712	-130.323	-0.121	0.016
-364.698	-152.560	0.355	0.025
-363.683	232.773	-0.108	-0.177
-362.669	52.884	0.107	0.102
-361.654	66.756	0.199	0.202
-360.639	94.933	0.175	-0.198
-359.625	-122.416	0.179	-0.029
-358.610	800.000	0.101	-0.299
-357.596	-145.940	-0.340	-0.030
-356.581	560.734	-0.093	-0.224
-355.566	202.472	0.165	-0.254
-354.552	-28.090	-0.263	-0.151
-353.537	797.281	-0.047	-0.128
-352.523	-85.114	0.150	0.047
-351.508	206.441	-0.026	0.040
-350.493	-200.000	-0.004	0.378
-349.479	-56.292	-0.171	0.076
-348.464	-200.000	0.021	0.113
-347.450	-200.000	-0.011	-0.144
-346.435	800.000	0.076	-0.273
-345.420	800.000	0.025	0.075
-344.406	800.000	-0.012	0.038
-343.391	292.173	0.136	0.247
-342.377	-111.883	0.260	-0.052
-341.362	291.048	0.038	-0.069
-340.348	205.782	-0.094	-0.145
-339.333	322.167	-0.120	0.228
-338.318	632.419	0.060	0.152
-337.304	600.876	0.052	0.128
-336.289	-200.000	0.052	0.285
-335.275	329.035	0.130	-0.249
-334.260	39.814	0.238	0.213
-333.245	-106.335	-0.385	0.086
-332.231	-200.000	-0.019	0.248
-331.216	416.355	0.074	0.157
-330.202	-69.327	0.250	0.096
-329.187	255.880	0.058	-0.098
-328.172	212.491	0.075	0.117
-327.158	-91.863	-0.066	-0.019
-326.143	100.176	0.027	-0.031
-325.129	237.943	0.175	-0.289
-324.114	-183.689	0.127	0.002
-323.099	22.295	0.159	0.129
-322.085	-200.000	-0.002	0.305
-321.070	42.491	-0.107	-0.097
-320.056	-49.961	0.378	-0.178
-319.041	-86.329	-0.195	-0.060
-318.026	-200.000	0.007	-0.198
-317.012	-118.687	-0.235	0.041
-315.997	-36.788	0.160	0.085
-314.983	-200.000	-0.019	-0.238
-313.968	800.000	-0.106	-0.420
-312.953	-186.962	0.108	0.001
-311.939	-200.000	-0.037	-0.238
-310.924	127.343	-0.283	-0.357
-309.910	-200.000	-0.007	0.118
-308.895	1.956	0.122	0.087
-307.880	800.000	-0.046	-0.171
-306.866	116.790	0.201	0.246
-305.851	54.638	-0.035	-0.033
-304.837	92.475	0.108	-0.121
-303.822	-200.000	0.007	0.257
-302.807	609.168	-0.066	0.164
-301.793	-200.000	-0.005	0.063
-300.778	21.825	-0.138	0.111
-299.764	175.357	0.296	0.427
-298.749	76.882	-0.025	0.026
-297.735	69.583	-0.233	0.239
-296.720	-97.886	-0.167	0.043
-295.705	-200.000	0.001	-0.139
-294.691	-43.229	0.027	0.013
-293.676	800.000	-0.088	-0.298
-292.662	196.002	-0.151	0.228
-291.647	-57.619	0.056	0.024
-290.632	0.353	0.219	-0.156
-289.618	328.395	-0.078	-0.149
-288.603	48.983	-0.059	-0.055
-287.589	155.885	-0.108	-0.147
-286.574	-34.328	0.196	0.107
-285.559	478.723	-0.054	-0.122
-284.545	67.609	-0.064	-0.065
-283.530	200.840	0.054	-0.083
-282.516	800.000	0.075	0.236
-281.501	-80.762	-0.304	0.100
-280.486	-75.891	-0.109	-0.038
-279.472	-200.000	0.089	0.387
-278.457	-200.000	0.005	0.220
-277.443	-44.075	-0.196	0.098
-276.428	-122.346	-0.227	0.037
-275.413	713.631	-0.124	-0.327
-274.399	-33.244	-0.063	-0.035
-273.384	-113.803	-0.549	-0.106
-272.370	-127.812	-0.156	0.022
-271.355	-100.032	0.137	0.034
-270.340	-56.490	0.194	-0.085
-269.326	766.726	0.104	-0.282
-268.311	20.718	-0.247	-0.198
-267.297	170.452	-0.158	0.224
-266.282	-13.580	0.169	0.108
-265.267	136.306	-0.032	-0.041
-264.253	-44.075	0.412	-0.205
-263.238	-21.647	-0.290	0.175
-262.224	-67.411	0.309	0.120
-261.209	589.577	-0.096	0.235
-260.195	-138.515	-0.353	-0.038
-259.180	-89.865	0.184	0.053
-258.165	800.000	0.062	-0.209
-257.151	-172.981	0.264	0.008
-256.136	28.602	0.226	0.190
-255.122	2.747	-0.154	-0.111
-254.107	705.053	0.048	0.125
-253.092	800.000	0.066	0.276
-252.078	-75.689	-0.136	0.048
-251.063	-76.859	0.221	0.077
-250.049	-200.000	0.043	0.261
-249.034	-200.000	-0.050	0.305
-248.019	-76.683	0.097	-0.034
-247.005	66.223	0.152	-0.153
-245.990	137.767	-0.019	0.025
-244.976	-200.000	0.036	0.193
-243.961	-89.813	0.176	0.051
-242.946	-103.698	0.219	0.051
-241.932	509.597	-0.134	-0.310
-240.917	800.000	0.023	-0.076
-239.903	667.901	-0.093	0.238
-238.888	800.000	0.076	0.269
-237.873	-57.507	0.251	0.109
-236.859	27.288	0.228	-0.190
-235.844	-81.468	-0.231	0.075
-234.830	-200.000	-0.014	-0.098
-233.815	-55.963	0.229	-0.101
-232.800	-200.000	-0.090	-0.472
-231.786	-43.118	-0.116	0.058
-230.771	-70.762	0.296	-0.111
-229.757	-0.931	-0.189	0.133
-228.742	-86.881	0.045	-0.014
-227.727	800.000	-0.041	-0.130
-226.713	607.534	-0.102	-0.251
-225.698	196.505	-0.071	0.107
-224.684	-23.493	0.194	-0.115
-223.669	32.405	-0.104	-0.089
-222.655	79.665	-0.250	0.265
-221.640	-74.828	-0.300	-0.107
-220.625	2.883	-0.205	0.147
-219.611	376.194	-0.288	-0.583
-218.596	-116.604	0.101	0.018
-217.582	-28.624	0.208	0.119
-216.567	198.356	0.101	0.154
-215.552	69.374	0.054	-0.055
-214.538	200.983	-0.186	0.284
-213.523	-200.000	-0.014	-0.441
-212.509	67.867	0.129	-0.131
-211.494	50.745	-0.151	-0.142
-210.479	-101.707	0.210	0.050
-209.465	-133.567	0.228	0.028
-208.450	-157.016	0.119	0.007
-207.436	800.000	-0.065	-0.242
-206.421	65.800	0.133	0.133
-205.406	800.000	0.073	-0.246
-204.392	20.943	-0.094	-0.076
-203.377	333.074	0.060	0.114
-202.363	-86.007	0.150	-0.046
-201.348	147.343	-0.061	0.082
-200.333	-96.533	-0.245	-0.064
-199.319	-122.580	-0.266	-0.043
-198.304	800.000	0.022	0.068
-197.290	-171.295	0.362	-0.012
-196.275	224.595	-0.128	-0.204
-195.260	459.959	-0.146	0.321
-194.246	-53.569	-0.095	0.043
-193.231	-36.506	0.284	0.151
-192.217	-114.990	-0.240	0.045
-191.202	-51.538	0.268	0.124
-190.187	800.000	-0.048	0.190
-189.173	311.751	-0.026	0.049
-188.158	-107.203	-0.150	0.033
-187.144	41.986	0.122	0.109
-186.129	-136.337	-0.317	0.037
-185.114	286.437	-0.126	0.224
-184.100	-200.000	-0.033	0.240
-183.085	-53.325	0.132	-0.060
-182.071	353.504	0.127	-0.250
-181.056	96.489	0.131	-0.148
-180.042	-38.175	-0.378	-0.198
-179.027	463.525	0.151	-0.334
-178.012	49.890	0.176	0.164
-176.998	800.000	0.056	0.194
-175.983	-20.930	-0.130	-0.079
-174.969	178.298	0.033	0.047
-173.954	-0.158	0.275	-0.193
-172.939	800.000	-0.069	-0.238
-171.925	-84.422	0.397	0.124
-170.910	79.455	0.298	-0.316
-169.896	800.000	-0.077	-0.318
-168.881	-75.024	-0.211	0.075
-167.866	-200.000	-0.005	0.133
-166.852	-40.029	0.203	-0.105
-165.837	-176.626	0.225	-0.006
-164.823	571.556	-0.017	0.041
-163.808	149.873	-0.084	0.112
-162.793	251.440	0.187	0.314
-161.779	-159.566	0.166	-0.009
-160.764	-200.000	-0.005	-0.097
-159.750	-200.000	-0.015	-0.114
-158.735	-200.000	0.020	-0.134
-157.720	-116.970	0.180	0.032
-156.706	-200.000	0.031	-0.221
-155.691	27.450	0.085	0.071
-154.677	800.000	0.045	-0.129
-153.662	14.616	-0.323	0.249
-152.647	800.000	0.050	-0.175
-151.633	-26.532	-0.021	-0.012
-150.618	412.788	-0.101	0.211
-149.604	800.000	0.059	-0.183
-148.589	-149.314	0.183	-0.014
-147.574	695.943	0.137	0.355
-146.560	-70.663	-0.151	0.056
-145.545	63.243	-0.212	-0.210
-144.531	-200.000	0.051	0.308
-143.516	-173.887	0.099	0.003
-142.502	800.000	0.132	0.411
-141.487	433.425	0.035	0.076
-140.472	-200.000	-0.066	-0.347
-139.458	95.556	0.204	0.229
-138.443	-200.000	-0.042	-0.188
-137.429	-58.105	-0.147	-0.063
-136.414	-200.000	-0.002	0.179
-135.399	-200.000	-0.009	0.182
-134.385	235.023	0.124	0.203
-133.370	800.000	-0.031	0.111
-132.356	-85.841	0.292	0.089
-131.341	-86.798	-0.054	-0.016
-130.326	-77.639	0.106	-0.036
-129.312	196.501	0.137	-0.206
-128.297	800.000	-0.045	-0.171
-127.283	65.154	-0.304	0.303
-126.268	176.626	-0.264	-0.379
-125.253	-7.202	-0.082	-0.055
-124.239	-200.000	0.010	0.085
-123.224	-100.138	-0.195	-0.048
-122.210	-200.000	-0.008	-0.297
-121.195	-101.886	-0.335	-0.080
