DTS Sentinel unit serial number:	SN413079Multiplexer serial number:	ORYXHardware model number:	OX4-SRSoftware version number:	ORYX F/W v4.00 Oryx Data Collector v3.7.2.0data status	okinstallation	princeton_trtdifferential loss correction	single-endedforward channel	channel 1reverse channel	N/Adate	2019/09/19time	14:06:35forward acquisition time	60.00reverse acquisition time	0.00gamma	496.2192k internal	0.2323k external	0.2323temperature offset calibration	1.0018default loss term (dB/km)	0.3790temperature slope calibration	1.0000multiplexer offset coefficient	1.0000multiplexer slope coefficient	1.0000fibre end	0.00T internal ref (°C)	31.34T ext. ref 1 (°C)	1.03T ext. ref 2 (°C)	28.58length (m)	temperature (°C)	Stokes	anti-Stokes-747.200	-134.850	0.110	0.013
-746.185	-110.801	-0.058	-0.012
-745.171	35.482	0.123	-0.109
-744.156	-65.541	0.090	-0.036
-743.142	175.555	-0.007	0.011
-742.127	-177.240	-0.202	0.005
-741.112	800.000	-0.013	0.045
-740.098	-200.000	-0.032	0.350
-739.083	-101.045	0.329	0.081
-738.069	-200.000	0.006	0.272
-737.054	148.267	-0.105	-0.143
-736.039	-173.978	-0.124	-0.004
-735.025	21.862	0.244	0.200
-734.010	70.293	-0.092	-0.096
-732.996	-146.308	-0.308	0.027
-731.981	-51.380	0.075	0.035
-730.966	-108.122	-0.478	0.105
-729.952	140.319	0.185	0.247
-728.937	-151.862	-0.360	0.027
-727.923	-200.000	0.008	0.331
-726.908	-200.000	0.004	-0.062
-725.894	-200.000	0.003	-0.235
-724.879	800.000	0.014	0.048
-723.864	-134.721	-0.099	0.012
-722.850	-200.000	0.026	-0.294
-721.835	23.151	-0.132	0.109
-720.821	-69.364	-0.232	0.090
-719.806	-145.565	0.136	-0.012
-718.791	-200.000	-0.010	-0.323
-717.777	185.797	0.180	-0.269
-716.762	298.222	0.100	0.185
-715.748	-83.644	-0.308	0.099
-714.733	-200.000	0.041	-0.190
-713.718	-81.387	0.253	0.084
-712.704	800.000	0.079	0.263
-711.689	-141.490	-0.111	0.011
-710.675	-194.382	0.213	-0.002
-709.660	94.197	0.190	0.218
-708.645	-81.418	-0.181	-0.060
-707.631	7.850	0.215	-0.163
-706.616	228.285	-0.047	0.077
-705.602	283.281	0.086	0.157
-704.587	-52.213	0.057	0.026
-703.572	18.156	0.084	-0.068
-702.558	267.488	0.188	0.332
-701.543	286.174	0.168	-0.306
-700.529	800.000	-0.048	-0.187
-699.514	136.286	-0.075	-0.099
-698.499	-200.000	-0.011	-0.387
-697.485	86.864	-0.207	0.231
-696.470	-131.957	0.281	-0.037
-695.456	-200.000	0.004	0.237
-694.441	509.647	-0.122	-0.285
-693.426	270.686	0.189	-0.334
-692.412	-155.162	-0.499	0.033
-691.397	800.000	0.097	0.317
-690.383	-52.592	-0.163	-0.076
-689.368	782.653	-0.018	0.049
-688.354	36.520	0.111	0.099
-687.339	-119.502	-0.059	-0.010
-686.324	404.833	0.092	0.195
-685.310	315.268	-0.039	0.075
-684.295	-13.149	-0.176	-0.115
-683.281	69.593	-0.062	0.064
-682.266	186.122	0.120	0.180
-681.251	214.017	0.093	0.148
-680.237	108.447	0.241	-0.289
-679.222	83.442	0.154	-0.169
-678.208	-61.943	0.111	0.047
-677.193	-89.830	0.179	0.053
-676.178	-118.717	0.142	-0.025
-675.164	800.000	-0.106	0.357
-674.149	163.671	-0.191	-0.270
-673.135	98.120	0.016	0.019
-672.120	155.957	-0.120	0.166
-671.105	-46.089	-0.477	-0.236
-670.091	-82.679	0.298	0.097
-669.076	138.983	-0.152	-0.201
-668.062	124.106	-0.177	-0.224
-667.047	92.536	0.231	0.263
-666.032	216.727	0.222	0.356
-665.018	295.977	0.075	-0.138
-664.003	-63.805	0.121	0.050
-662.989	-74.981	0.184	-0.066
-661.974	148.339	-0.076	0.104
-660.959	223.103	0.110	-0.179
-659.945	-129.744	0.271	0.038
-658.930	-200.000	0.043	-0.223
-657.916	-106.067	-0.072	0.016
-656.901	23.719	-0.122	-0.101
-655.886	-120.377	-0.197	0.034
-654.872	-200.000	-0.006	0.367
-653.857	800.000	-0.117	0.415
-652.843	-200.000	-0.006	-0.172
-651.828	248.032	-0.071	0.121
-650.814	-87.033	-0.175	0.054
-649.799	-200.000	-0.047	-0.326
-648.784	1.280	0.086	-0.062
-647.770	168.876	-0.269	-0.386
-646.755	187.778	0.266	-0.399
-645.741	163.564	0.156	0.221
-644.726	-8.382	-0.269	-0.182
-643.711	-136.914	-0.146	-0.017
-642.697	800.000	-0.117	0.445
-641.682	-200.000	-0.022	0.233
-640.668	-93.270	-0.100	-0.028
-639.653	233.766	0.119	0.197
-638.638	800.000	0.090	0.272
-637.624	-102.687	-0.286	-0.069
-636.609	194.569	0.056	-0.085
-635.595	-75.715	-0.264	-0.094
-634.580	-91.142	0.328	-0.095
-633.565	258.107	0.097	0.168
-632.551	38.965	0.178	-0.160
-631.536	179.054	-0.067	-0.099
-630.522	-55.222	0.229	0.103
-629.507	-50.638	0.231	-0.109
-628.492	202.162	0.108	-0.168
-627.478	-143.558	0.103	0.010
-626.463	98.132	0.104	0.121
-625.449	-200.000	-0.001	0.070
-624.434	0.697	-0.174	-0.125
-623.419	-182.911	0.277	-0.005
-622.405	345.275	-0.163	-0.322
-621.390	49.298	-0.068	0.064
-620.376	184.432	-0.113	-0.168
-619.361	423.211	-0.071	-0.153
-618.346	-21.969	0.139	-0.085
-617.332	-200.000	-0.016	-0.491
-616.317	-113.362	0.345	-0.068
-615.303	267.947	0.127	-0.224
-614.288	-127.117	-0.112	-0.016
-613.273	-13.893	0.242	-0.157
-612.259	-118.409	-0.141	-0.025
-611.244	428.353	0.012	-0.026
-610.230	66.265	0.048	0.049
-609.215	0.742	-0.131	-0.094
-608.201	-200.000	-0.022	0.123
-607.186	-153.081	0.035	-0.002
-606.171	-31.157	-0.092	0.052
-605.157	115.660	-0.121	-0.149
-604.142	754.008	0.035	-0.095
-603.128	316.921	0.117	0.222
-602.113	-104.273	0.147	0.034
-601.098	-1.911	-0.267	0.189
-600.084	169.370	0.224	0.321
-599.069	42.865	-0.229	0.209
-598.055	-71.762	-0.110	-0.041
-597.040	99.717	-0.072	-0.084
-596.025	-200.000	-0.028	-0.164
-595.011	800.000	-0.044	-0.189
-593.996	-200.000	0.021	-0.362
-592.982	-200.000	-0.004	0.164
-591.967	-111.903	0.121	-0.024
-590.952	-61.692	-0.328	0.138
-589.938	-110.047	0.279	-0.059
-588.923	-200.000	-0.047	0.218
-587.909	-200.000	0.002	0.127
-586.894	229.391	-0.118	0.193
-585.879	17.366	0.020	-0.016
-584.865	-200.000	0.008	0.205
-583.850	147.572	-0.022	-0.030
-582.836	-138.622	0.130	0.014
-581.821	-117.855	-0.181	-0.033
-580.806	19.153	-0.155	0.124
-579.792	68.633	-0.226	-0.233
-578.777	-85.101	0.125	-0.039
-577.763	171.780	0.069	0.099
-576.748	-158.330	0.098	0.006
-575.733	800.000	0.120	-0.341
-574.719	-4.636	0.065	0.045
-573.704	385.268	0.132	0.273
-572.690	-147.688	-0.334	0.028
-571.675	-200.000	-0.021	-0.167
-570.661	-200.000	-0.075	-0.374
-569.646	-77.778	-0.038	-0.013
-568.631	-200.000	-0.003	-0.186
-567.617	618.553	-0.072	-0.180
-566.602	-7.442	-0.024	-0.017
-565.588	18.433	-0.028	0.022
-564.573	49.179	0.252	-0.238
-563.558	82.107	0.081	0.088
-562.544	-125.268	-0.301	0.046
-561.529	-200.000	-0.016	-0.076
-560.515	148.830	-0.156	-0.211
-559.500	-200.000	-0.083	0.433
-558.485	-119.839	-0.191	0.033
-557.471	29.986	0.042	0.036
-556.456	800.000	0.038	-0.108
-555.442	18.538	-0.223	0.179
-554.427	-121.080	-0.147	-0.025
-553.412	100.367	-0.051	-0.059
-552.398	800.000	0.054	-0.231
-551.383	-200.000	-0.019	-0.234
-550.369	-200.000	0.005	0.058
-549.354	1.668	0.020	-0.015
-548.339	800.000	-0.047	0.173
-547.325	228.622	-0.189	-0.308
-546.310	-143.249	0.335	-0.032
-545.296	-36.145	-0.262	0.142
-544.281	-200.000	0.052	0.416
-543.266	10.769	0.160	-0.122
-542.252	52.121	-0.121	0.116
-541.237	-110.745	-0.274	0.057
-540.223	199.715	-0.200	0.308
-539.208	-122.569	-0.219	0.036
-538.193	-27.861	0.148	-0.086
-537.179	308.651	-0.109	0.205
-536.164	73.981	0.327	0.344
-535.150	-200.000	-0.028	0.137
-534.135	-165.252	-0.258	-0.011
-533.121	800.000	0.058	-0.175
-532.106	225.566	0.172	0.280
-531.091	-94.702	-0.355	-0.096
-530.077	-179.990	0.178	-0.004
-529.062	-147.020	0.095	-0.008
-528.048	202.269	-0.199	0.308
-527.033	-200.000	-0.002	0.221
-526.018	48.648	-0.058	0.055
-525.004	114.127	-0.126	-0.153
-523.989	-200.000	0.040	0.402
-522.975	276.590	-0.068	-0.120
-521.960	-125.686	-0.095	-0.014
-520.945	800.000	0.116	0.375
-519.931	297.599	-0.178	-0.328
-518.916	-101.896	-0.485	0.117
-517.902	-76.233	-0.546	-0.193
-516.887	-9.233	-0.289	0.194
-515.872	227.401	-0.063	-0.102
-514.858	-34.618	-0.160	-0.087
-513.843	-43.781	0.182	-0.092
-512.829	-73.777	-0.179	0.065
-511.814	190.914	-0.075	-0.112
-510.799	-59.070	-0.329	-0.142
-509.785	118.378	0.359	-0.443
-508.770	112.392	0.083	-0.100
-507.756	-200.000	0.010	0.079
-506.741	717.536	0.109	0.290
-505.726	78.619	-0.077	0.082
-504.712	-132.468	-0.077	-0.010
-503.697	419.421	0.076	-0.163
-502.683	-93.123	0.276	-0.077
-501.668	396.289	-0.176	-0.367
-500.653	-115.495	0.106	0.020
-499.639	89.204	0.204	-0.227
-498.624	-69.519	0.160	-0.061
-497.610	127.987	0.059	-0.075
-496.595	-200.000	-0.055	0.265
-495.581	359.307	-0.106	0.213
-494.566	581.303	-0.027	0.066
-493.551	-19.400	0.166	0.103
-492.537	170.829	-0.216	-0.309
-491.522	-85.037	0.263	-0.082
-490.508	-115.255	0.482	0.091
-489.493	42.498	-0.366	0.332
-488.478	-125.396	-0.291	-0.044
-487.464	203.010	0.135	-0.208
-486.449	97.570	-0.186	0.213
-485.435	-25.591	-0.309	-0.183
-484.420	149.567	0.155	0.210
-483.405	309.641	0.109	0.203
-482.391	-44.208	0.148	0.074
-481.376	366.030	-0.128	-0.258
-480.362	800.000	-0.037	0.116
-479.347	-200.000	0.038	-0.243
-478.332	17.998	0.290	0.231
-477.318	-23.231	0.254	0.153
-476.303	177.446	-0.274	0.398
-475.289	147.741	-0.149	-0.201
-474.274	303.644	-0.090	0.166
-473.259	73.768	0.098	-0.102
-472.245	-49.868	0.180	0.085
-471.230	-200.000	0.010	-0.138
-470.216	-185.461	-0.096	-0.001
-469.201	-37.326	-0.213	-0.114
-468.186	-98.372	0.150	-0.038
-467.172	-55.523	0.289	-0.129
-466.157	-200.000	-0.001	-0.111
-465.143	-200.000	-0.020	0.191
-464.128	-145.631	-0.045	0.004
-463.113	-48.883	-0.244	0.117
-462.099	-93.242	-0.251	0.070
-461.084	-200.000	-0.002	-0.170
-460.070	-27.711	-0.070	0.041
-459.055	-89.957	-0.241	-0.070
-458.040	-118.667	-0.182	-0.032
-457.026	201.905	0.089	0.137
-456.011	675.121	0.023	0.058
-454.997	-200.000	-0.010	0.068
-453.982	-95.466	-0.178	0.048
-452.968	800.000	-0.028	-0.093
-451.953	-2.829	0.299	-0.208
-450.938	377.160	0.059	-0.119
-449.924	53.019	-0.163	0.156
-448.909	-200.000	0.006	-0.214
-447.895	-41.222	-0.019	0.010
-446.880	323.605	-0.104	-0.198
-445.865	-200.000	0.054	-0.296
-444.851	330.559	-0.051	0.097
-443.836	16.524	-0.283	-0.223
-442.822	-77.858	0.184	0.063
-441.807	-3.277	0.121	0.084
-440.792	-200.000	0.057	0.252
-439.778	-33.814	-0.051	-0.028
-438.763	391.073	0.097	-0.201
-437.749	800.000	-0.096	0.419
-436.734	-125.970	0.269	0.040
-435.719	800.000	-0.057	-0.193
-434.705	800.000	0.048	0.161
-433.690	290.890	0.068	-0.123
-432.676	-200.000	0.007	0.273
-431.661	-71.982	0.086	0.032
-430.646	163.795	-0.030	0.042
-429.632	-200.000	-0.002	-0.035
-428.617	-153.542	0.248	0.017
-427.603	-27.489	0.090	0.052
-426.588	50.736	0.224	0.212
-425.573	-47.754	-0.197	0.095
-424.559	-138.778	0.313	-0.034
-423.544	122.695	0.078	-0.097
-422.530	58.687	0.152	0.149
-421.515	-14.069	-0.199	-0.128
-420.500	-45.881	-0.257	-0.127
-419.486	-78.465	-0.172	-0.059
-418.471	-200.000	0.054	-0.469
-417.457	211.781	-0.082	-0.129
-416.442	-73.276	0.202	-0.074
-415.428	-200.000	0.069	-0.389
-414.413	-145.905	0.264	0.023
-413.398	-182.112	0.245	-0.005
-412.384	-11.068	0.179	0.118
-411.369	-24.939	-0.110	0.065
-410.355	-44.582	0.150	0.075
-409.340	-185.543	-0.097	-0.001
-408.325	202.083	0.140	-0.215
-407.311	-148.056	-0.435	0.036
-406.296	-200.000	-0.005	0.032
-405.282	74.662	0.173	-0.181
-404.267	128.514	-0.240	-0.304
-403.252	-130.254	-0.201	0.027
-402.238	-60.465	0.322	0.136
-401.223	80.210	0.164	-0.175
-400.209	-200.000	0.001	-0.388
-399.194	800.000	-0.106	-0.296
-398.179	17.593	-0.148	-0.117
-397.165	78.077	0.155	0.165
-396.150	-159.023	0.081	-0.005
-395.136	49.542	0.120	0.113
-394.121	101.320	-0.081	-0.094
-393.106	800.000	-0.050	0.214
-392.092	-200.000	-0.030	0.174
-391.077	250.809	-0.124	-0.210
-390.063	-31.282	-0.365	-0.204
-389.048	-53.029	0.300	0.138
-388.033	129.907	0.135	0.172
-387.019	-4.802	0.176	0.121
-386.004	800.000	0.059	0.238
-384.990	800.000	0.043	0.140
-383.975	110.195	0.240	-0.287
-382.960	612.480	0.058	0.144
-381.946	-200.000	-0.001	0.105
-380.931	-126.703	-0.348	0.051
-379.917	-200.000	0.002	-0.089
-378.902	800.000	0.032	-0.109
-377.888	-48.554	0.301	-0.144
-376.873	-200.000	-0.014	0.192
-375.858	-39.771	-0.431	0.224
-374.844	191.959	-0.113	-0.170
-373.829	330.749	0.066	-0.126
-372.815	-1.261	-0.169	-0.119
-371.800	-39.028	0.145	0.076
-370.785	137.369	-0.167	-0.218
-369.771	169.306	-0.194	0.276
-368.756	-112.759	0.140	-0.028
-367.742	76.987	0.099	0.105
-366.727	264.289	-0.091	-0.157
-365.712	90.307	-0.151	0.168
-364.698	413.602	0.037	0.078
-363.683	-18.027	-0.119	0.074
-362.669	-200.000	-0.055	0.374
-361.654	359.801	-0.037	0.074
-360.639	-48.074	0.078	0.038
-359.625	800.000	0.076	-0.234
-358.610	800.000	0.043	0.119
-357.596	-119.181	-0.405	0.070
-356.581	-110.834	0.180	-0.037
-355.566	-117.030	-0.197	0.036
-354.552	800.000	0.106	0.334
-353.537	-200.000	0.006	-0.100
-352.523	-18.228	-0.143	0.089
-351.508	-192.348	0.105	-0.001
-350.493	-200.000	-0.012	0.131
-349.479	-48.742	-0.174	-0.083
-348.464	-16.359	-0.125	0.079
-347.450	800.000	0.028	0.084
-346.435	-200.000	0.002	-0.105
-345.420	-116.729	-0.212	0.039
-344.406	800.000	-0.007	-0.028
-343.391	-82.570	0.347	0.112
-342.377	800.000	-0.101	-0.377
-341.362	800.000	-0.035	-0.134
-340.348	-200.000	-0.029	0.186
-339.333	292.788	-0.077	-0.139
-338.318	-83.576	-0.382	0.122
-337.304	-24.647	-0.229	-0.136
-336.289	-59.289	0.248	0.106
-335.275	-167.559	0.298	-0.012
-334.260	-126.454	0.211	-0.031
-333.245	7.217	0.117	-0.086
-332.231	332.474	-0.095	-0.181
-331.216	160.997	0.073	0.101
-330.202	-200.000	-0.004	0.140
-329.187	-10.248	-0.166	0.109
-328.172	800.000	-0.107	-0.335
-327.158	190.866	0.085	0.126
-326.143	-143.206	0.086	0.008
-325.129	-81.238	-0.076	0.025
-324.114	-105.102	0.190	-0.043
-323.099	-147.475	-0.209	0.018
-322.085	-23.364	-0.054	-0.032
-321.070	298.303	0.169	0.308
-320.056	-64.129	-0.177	-0.072
-319.041	-130.150	0.420	0.057
-318.026	-137.169	0.154	0.017
-317.012	130.523	0.013	-0.016
-315.997	212.475	-0.099	0.155
-314.983	800.000	-0.076	0.214
-313.968	61.782	-0.059	-0.058
-312.953	-174.873	-0.066	0.002
-311.939	800.000	-0.053	0.149
-310.924	-184.933	0.309	-0.005
-309.910	-126.650	-0.091	-0.013
-308.895	468.131	-0.122	0.271
-307.880	118.027	0.126	0.154
-306.866	150.368	0.062	0.083
-305.851	40.052	0.119	-0.106
-304.837	-200.000	-0.027	-0.138
-303.822	-200.000	-0.014	0.062
-302.807	-200.000	0.001	0.082
-301.793	-66.861	0.212	-0.083
-300.778	-200.000	-0.037	-0.289
-299.764	-22.360	-0.191	0.115
-298.749	500.236	-0.051	0.117
-297.735	628.899	-0.109	-0.274
-296.720	-200.000	-0.015	0.193
-295.705	446.017	0.112	-0.245
-294.691	188.882	0.122	-0.182
-293.676	18.974	0.130	-0.104
-292.662	320.768	0.171	-0.322
-291.647	-14.071	-0.140	-0.090
-290.632	772.506	-0.067	0.180
-289.618	-200.000	-0.305	-0.000
-288.603	128.737	-0.094	-0.119
-287.589	-200.000	-0.019	0.171
-286.574	-57.659	0.146	0.063
-285.559	-108.046	-0.065	0.014
-284.545	108.728	0.149	0.177
-283.530	-36.691	-0.339	-0.181
-282.516	189.799	0.024	0.035
-281.501	88.472	0.288	0.318
-280.486	-104.948	0.097	0.022
-279.472	800.000	0.052	0.157
-278.457	-24.527	-0.199	0.117
-277.443	67.484	-0.202	-0.204
-276.428	213.401	-0.246	-0.385
-275.413	-200.000	-0.001	0.447
-274.399	31.227	-0.117	0.100
-273.384	86.184	0.258	0.282
-272.370	-190.864	0.247	0.003
-271.355	236.063	0.096	-0.157
-270.340	-200.000	-0.002	0.084
-269.326	-61.716	-0.076	0.032
-268.311	800.000	0.041	-0.142
-267.297	-5.235	0.308	-0.210
-266.282	170.526	0.150	-0.213
-265.267	-103.763	-0.072	-0.017
-264.253	-108.040	0.088	-0.019
-263.238	103.818	0.156	-0.181
-262.224	716.663	-0.053	0.139
-261.209	609.848	-0.089	-0.221
-260.195	240.278	0.048	0.079
-259.180	-200.000	-0.030	-0.207
-258.165	-151.150	-0.350	0.026
-257.151	-156.670	0.210	-0.013
-256.136	800.000	0.133	0.422
-255.122	800.000	0.084	0.272
-254.107	48.928	0.112	-0.104
-253.092	-200.000	0.031	0.261
-252.078	-52.682	0.273	0.125
-251.063	-58.115	0.235	0.102
-250.049	-200.000	0.015	-0.076
-249.034	70.733	-0.093	0.096
-248.019	71.350	-0.253	-0.260
-247.005	228.227	-0.074	-0.119
-245.990	-187.921	0.316	0.004
-244.976	579.549	0.077	-0.187
-243.961	-200.000	-0.019	-0.115
-242.946	-52.027	-0.164	-0.076
-241.932	251.708	0.190	0.321
-240.917	311.783	0.091	0.168
-239.903	197.704	0.178	0.269
-238.888	-80.933	0.291	0.095
-237.873	-200.000	0.014	0.166
-236.859	-43.563	0.068	0.034
-235.844	-34.132	-0.223	0.121
-234.830	-200.000	-0.006	0.265
-233.815	-143.308	-0.156	-0.015
-232.800	248.721	0.120	0.202
-231.786	11.825	-0.216	-0.164
-230.771	-200.000	-0.018	-0.147
-229.757	-44.062	-0.318	0.158
-228.742	-80.212	0.195	0.065
-227.727	596.545	-0.098	0.241
-226.713	19.094	0.221	-0.175
-225.698	170.357	0.108	0.153
-224.684	-152.151	0.240	0.017
-223.669	-131.713	0.179	-0.023
-222.655	-129.968	0.185	-0.025
-221.640	638.108	0.091	0.229
-220.625	192.941	0.073	-0.110
-219.611	-200.000	0.040	-0.224
-218.596	-38.248	0.207	0.109
-217.582	-14.294	0.097	-0.062
-216.567	34.433	0.166	-0.143
-215.552	-37.890	0.133	0.070
-214.538	800.000	0.035	-0.145
-213.523	-111.934	0.250	0.050
-212.509	79.109	-0.169	-0.179
-211.494	-51.241	-0.197	-0.091
-210.479	152.099	0.059	0.080
-209.465	800.000	-0.034	0.096
-208.450	704.061	-0.036	0.093
-207.436	-46.699	-0.142	-0.069
-206.421	-56.740	-0.083	0.036
-205.406	728.699	-0.093	-0.247
-204.392	-200.000	0.010	0.071
-203.377	-200.000	-0.034	-0.315
-202.363	363.621	-0.190	0.378
-201.348	-98.626	0.231	0.058
-200.333	-36.471	-0.047	-0.025
-199.319	-200.000	-0.005	0.033
-198.304	69.330	0.144	0.146
-197.290	14.207	0.110	0.085
-196.275	-200.000	0.003	-0.323
-195.260	-100.896	-0.277	-0.067
-194.246	1.278	0.255	0.181
-193.231	-187.903	-0.201	0.003
-192.217	123.243	0.112	-0.139
-191.202	185.186	0.200	-0.293
-190.187	-173.183	0.250	-0.008
-189.173	-2.335	-0.395	-0.273
-188.158	-84.546	0.101	0.032
-187.144	-8.622	-0.219	-0.146
-186.129	-140.733	0.174	-0.018
-185.114	124.454	-0.109	0.135
-184.100	-73.469	-0.544	-0.196
-183.085	30.484	0.206	0.174
-182.071	279.018	0.117	0.207
-181.056	397.285	0.086	0.177
-180.042	-200.000	-0.021	-0.105
-179.027	703.974	0.033	-0.086
-178.012	-200.000	-0.107	-0.577
-176.998	-24.841	0.193	-0.113
-175.983	87.890	-0.184	-0.202
-174.969	-140.489	0.077	0.008
-173.954	-24.071	0.112	0.066
-172.939	93.133	-0.219	0.245
-171.925	-200.000	-0.038	0.249
-170.910	239.830	-0.184	0.303
-169.896	-92.715	0.288	-0.080
-168.881	-147.175	-0.269	-0.023
-167.866	-122.949	-0.243	0.039
-166.852	22.544	0.150	0.121
-165.837	-200.000	0.040	0.239
-164.823	-200.000	-0.023	-0.369
-163.808	-23.808	0.189	-0.112
-162.793	-21.025	0.106	0.064
-161.779	-200.000	-0.009	-0.208
-160.764	24.363	0.236	0.193
-159.750	-1.835	0.134	0.093
-158.735	-200.000	-0.041	-0.199
-157.720	-24.212	0.028	-0.017
-156.706	292.700	0.088	0.158
-155.691	-105.058	0.181	0.041
-154.677	598.505	-0.027	0.066
-153.662	-200.000	-0.025	0.154
-152.647	-200.000	-0.007	0.207
-151.633	94.265	-0.060	-0.067
-150.618	712.398	-0.017	0.044
-149.604	-125.898	0.161	0.024
-148.589	-155.865	0.200	-0.013
-147.574	800.000	0.045	-0.188
-146.560	306.707	-0.110	-0.202
-145.545	-119.417	0.168	-0.029
-144.531	-115.915	-0.189	-0.035
-143.516	-200.000	0.006	-0.092
-142.502	800.000	0.013	-0.041
-141.487	13.946	0.259	-0.199
-140.472	435.857	-0.073	-0.157
-139.458	-163.934	0.210	0.010
-138.443	56.210	0.200	-0.191
-137.429	-68.523	-0.283	-0.108
-136.414	198.239	-0.033	0.049
-135.399	645.360	-0.127	-0.319
-134.385	-84.120	-0.379	0.118
-133.370	-200.000	0.007	0.115
-132.356	-58.067	0.366	0.157
-131.341	-132.568	-0.193	-0.024
-130.326	-200.000	0.027	-0.262
-129.312	-18.891	0.124	-0.076
-128.297	800.000	-0.071	0.206
-127.283	-200.000	-0.005	-0.374
-126.268	-104.870	0.296	-0.067
-125.253	161.919	0.070	-0.096
-124.239	318.523	-0.037	-0.069
-123.224	-67.221	0.059	0.023
-122.210	304.835	-0.079	-0.144
