DTS Sentinel unit serial number:	SN413079Multiplexer serial number:	ORYXHardware model number:	OX4-SRSoftware version number:	ORYX F/W v4.00 Oryx Data Collector v3.7.2.0data status	okinstallation	princeton_trtdifferential loss correction	single-endedforward channel	channel 1reverse channel	N/Adate	2019/09/11time	14:56:11forward acquisition time	60.00reverse acquisition time	0.00gamma	496.2192k internal	0.2291k external	0.2291temperature offset calibration	0.9983default loss term (dB/km)	0.3790temperature slope calibration	1.0000multiplexer offset coefficient	1.0000multiplexer slope coefficient	1.0000fibre end	0.00T internal ref (°C)	42.73T ext. ref 1 (°C)	0.94T ext. ref 2 (°C)	38.74length (m)	temperature (°C)	Stokes	anti-Stokes-747.200	-127.502	0.094	-0.014
-746.185	800.000	0.091	0.261
-745.171	-0.896	0.137	-0.099
-744.156	-200.000	-0.013	0.254
-743.142	-94.676	-0.128	-0.036
-742.127	86.959	-0.144	0.163
-741.112	-127.432	0.308	0.046
-740.098	-200.000	-0.024	0.216
-739.083	-103.841	0.057	0.014
-738.069	83.222	0.283	0.315
-737.054	800.000	-0.127	-0.362
-736.039	463.430	-0.173	-0.396
-735.025	-159.596	-0.346	-0.020
-734.010	-52.101	0.134	-0.063
-732.996	-200.000	0.013	0.157
-731.981	29.012	-0.069	-0.060
-730.966	138.287	-0.054	-0.073
-729.952	-53.917	0.153	0.071
-728.937	-52.722	-0.223	-0.105
-727.923	-70.623	-0.191	-0.074
-726.908	129.834	-0.156	0.204
-725.894	-7.105	-0.177	0.123
-724.879	-119.958	-0.307	-0.054
-723.864	102.104	-0.073	-0.088
-722.850	131.044	-0.201	0.265
-721.835	800.000	-0.003	0.011
-720.821	-200.000	0.058	-0.490
-719.806	160.735	0.146	-0.208
-718.791	800.000	-0.043	0.185
-717.777	48.865	-0.261	-0.251
-716.762	-200.000	-0.017	-0.120
-715.748	-34.567	0.113	0.064
-714.733	99.720	-0.290	0.344
-713.718	-63.218	-0.091	-0.038
-712.704	208.487	0.009	0.014
-711.689	4.555	-0.265	0.199
-710.675	397.503	-0.044	-0.094
-709.660	283.860	-0.142	-0.261
-708.645	116.745	-0.296	-0.372
-707.631	-54.772	-0.509	0.235
-706.616	-185.948	0.340	0.005
-705.602	-145.931	-0.124	0.011
-704.587	-144.775	0.385	-0.036
-703.572	82.528	-0.120	0.133
-702.558	-40.374	-0.028	-0.015
-701.543	-79.990	0.143	-0.049
-700.529	4.586	-0.152	-0.114
-699.514	-42.677	-0.084	0.044
-698.499	-114.256	0.226	0.045
-697.485	-112.212	-0.147	0.030
-696.470	800.000	0.022	-0.071
-695.456	42.153	-0.257	-0.239
-694.441	-65.106	-0.196	-0.081
-693.426	-200.000	-0.035	-0.195
-692.412	-200.000	0.062	-0.327
-691.397	-200.000	0.030	0.180
-690.383	-151.239	-0.153	0.012
-689.368	50.283	-0.157	-0.151
-688.354	-149.794	0.042	0.003
-687.339	-150.817	-0.260	0.020
-686.324	-82.671	0.178	-0.059
-685.310	-82.446	0.238	0.079
-684.295	-125.663	0.345	0.053
-683.281	-200.000	0.033	-0.246
-682.266	800.000	-0.084	-0.247
-681.251	112.001	0.040	0.049
-680.237	-149.866	-0.186	-0.015
-679.222	799.902	-0.129	-0.364
-678.208	200.685	0.053	-0.083
-677.193	-200.000	0.022	0.371
-676.178	330.656	0.037	-0.072
-675.164	-51.694	-0.063	-0.030
-674.149	-23.051	-0.161	0.099
-673.135	-12.288	-0.303	0.202
-672.120	12.636	0.165	0.130
-671.105	175.980	0.049	-0.073
-670.091	95.920	-0.080	0.094
-669.076	-109.555	0.125	0.027
-668.062	-200.000	-0.023	-0.434
-667.047	-6.130	-0.237	0.165
-666.032	-152.982	0.273	-0.020
-665.018	6.920	-0.067	0.051
-664.003	66.213	0.129	0.134
-662.989	241.007	0.146	-0.249
-661.974	87.203	0.171	-0.193
-660.959	-50.640	-0.303	-0.146
-659.945	290.042	-0.104	0.192
-658.930	-63.278	0.021	-0.009
-657.916	-91.500	0.354	-0.103
-656.901	-200.000	-0.060	-0.332
-655.886	-49.583	-0.231	0.112
-654.872	64.007	0.021	0.022
-653.857	-99.946	-0.050	-0.013
-652.843	-200.000	0.005	0.285
-651.828	800.000	0.022	0.081
-650.814	-175.519	-0.253	-0.007
-649.799	-200.000	-0.017	-0.115
-648.784	81.397	-0.163	-0.179
-647.770	85.009	0.111	-0.124
-646.755	-200.000	0.015	-0.201
-645.741	-9.082	-0.061	-0.041
-644.726	192.503	-0.134	0.206
-643.711	-200.000	-0.098	-0.548
-642.697	-44.679	-0.125	-0.064
-641.682	560.833	-0.111	-0.274
-640.668	-200.000	-0.029	0.148
-639.653	158.486	-0.055	-0.078
-638.638	168.043	-0.016	0.024
-637.624	-172.911	-0.238	0.008
-636.609	68.021	0.212	0.221
-635.595	274.495	0.201	0.363
-634.580	18.188	-0.119	0.097
-633.565	-90.839	-0.104	0.031
-632.551	-200.000	0.004	-0.186
-631.536	-69.867	-0.150	-0.058
-630.522	-53.471	-0.174	0.081
-629.507	-99.462	-0.227	0.058
-628.492	74.335	-0.078	-0.084
-627.478	67.346	0.177	0.184
-626.463	-171.390	-0.113	0.004
-625.449	512.452	-0.010	-0.024
-624.434	-134.036	0.247	0.031
-623.419	-17.097	0.261	0.168
-622.405	646.372	-0.040	-0.104
-621.390	5.014	0.326	-0.244
-620.376	160.043	0.127	0.180
-619.361	57.194	0.136	0.135
-618.346	-28.677	0.261	0.153
-617.332	-68.056	0.207	0.082
-616.317	-195.334	-0.277	-0.002
-615.303	-186.770	0.138	-0.002
-614.288	-94.120	-0.096	-0.027
-613.273	-200.000	-0.045	-0.277
-612.259	800.000	0.112	-0.332
-611.244	601.913	0.036	0.092
-610.230	-166.971	-0.099	0.004
-609.215	-104.988	0.072	0.017
-608.201	266.963	-0.076	-0.136
-607.186	-98.820	-0.477	0.124
-606.171	181.591	-0.129	0.193
-605.157	24.764	-0.184	-0.155
-604.142	-16.144	-0.132	-0.085
-603.128	-27.221	0.062	0.036
-602.113	105.699	-0.080	-0.097
-601.098	-94.231	0.150	0.042
-600.084	412.655	0.070	0.152
-599.069	85.737	0.095	-0.106
-598.055	179.687	-0.167	-0.249
-597.040	270.169	0.111	-0.198
-596.025	35.307	0.133	-0.119
-595.011	-54.645	0.179	0.083
-593.996	-200.000	-0.055	0.417
-592.982	-57.488	0.072	-0.032
-591.967	246.518	0.289	-0.497
-590.952	-200.000	-0.050	0.335
-589.938	562.251	-0.071	0.176
-588.923	-139.373	-0.274	0.030
-587.909	73.930	-0.329	-0.351
-586.894	144.790	-0.337	0.459
-585.879	319.253	0.047	0.091
-584.865	128.169	0.158	0.205
-583.850	432.476	-0.078	-0.172
-582.836	226.730	0.142	-0.235
-581.821	-38.364	-0.155	-0.083
-580.806	-200.000	0.005	-0.028
-579.792	194.330	0.102	-0.158
-578.777	-140.043	-0.038	-0.004
-577.763	-84.489	-0.173	-0.055
-576.748	-13.737	0.245	-0.161
-575.733	-104.796	0.233	-0.055
-574.719	-74.533	0.298	0.109
-573.704	40.876	0.247	-0.227
-572.690	-200.000	0.004	0.289
-571.675	800.000	-0.082	-0.280
-570.661	-111.841	-0.218	-0.045
-569.646	800.000	0.027	0.096
-568.631	-25.721	0.436	0.261
-567.617	568.686	-0.073	0.181
-566.602	36.940	0.038	0.034
-565.588	526.879	-0.039	-0.094
-564.573	-69.898	-0.290	-0.113
-563.558	88.645	0.220	-0.249
-562.544	309.823	0.181	-0.345
-561.529	392.835	-0.182	0.385
-560.515	18.954	-0.173	0.141
-559.500	800.000	0.012	0.052
-558.485	-200.000	0.004	0.101
-557.471	179.556	0.124	0.184
-556.456	-71.398	-0.020	-0.008
-555.442	-14.955	-0.060	-0.039
-554.427	-157.746	0.161	0.010
-553.412	450.688	-0.078	-0.176
-552.398	-22.180	0.330	0.203
-551.383	800.000	0.054	-0.224
-550.369	800.000	-0.043	-0.156
-549.354	-200.000	0.053	-0.288
-548.339	-1.238	-0.189	0.136
-547.325	24.941	-0.275	-0.232
-546.310	-122.975	0.337	-0.055
-545.296	-112.510	-0.216	-0.044
-544.281	173.142	0.166	-0.243
-543.266	-152.623	0.109	-0.008
-542.252	800.000	0.073	0.278
-541.237	-200.000	0.046	0.319
-540.223	-22.310	-0.132	0.081
-539.208	-93.794	-0.249	-0.070
-538.193	-49.834	-0.072	-0.035
-537.179	440.683	0.049	0.109
-536.164	-165.151	0.381	-0.017
-535.150	-134.766	-0.259	-0.032
-534.135	800.000	-0.056	-0.183
-533.121	381.753	-0.124	0.258
-532.106	312.398	-0.054	0.102
-531.091	14.494	0.177	0.140
-530.077	65.318	0.157	0.162
-529.062	-200.000	-0.017	0.091
-528.048	768.951	-0.050	-0.139
-527.033	800.000	0.059	0.192
-526.018	-59.518	-0.198	0.087
-525.004	55.538	-0.147	0.145
-523.989	198.537	0.095	-0.147
-522.975	285.517	0.168	-0.308
-521.960	-102.543	-0.422	0.102
-520.945	-163.315	0.128	0.006
-519.931	3.997	-0.078	0.058
-518.916	-98.670	0.471	0.122
-517.902	533.905	-0.091	-0.219
-516.887	76.580	0.197	-0.212
-515.872	185.341	-0.162	0.245
-514.858	800.000	-0.053	0.153
-513.843	-181.552	0.303	-0.006
-512.829	-20.867	-0.033	0.021
-511.814	-41.271	0.082	-0.043
-510.799	-3.142	-0.105	0.074
-509.785	-200.000	-0.001	0.152
-508.770	-200.000	-0.011	0.129
-507.756	-90.374	-0.201	0.059
-506.741	-35.548	-0.298	0.164
-505.726	513.065	-0.070	0.165
-504.712	-200.000	-0.002	0.055
-503.697	-200.000	0.060	0.292
-502.683	-109.382	-0.156	0.034
-501.668	-200.000	0.006	-0.306
-500.653	523.169	-0.061	-0.146
-499.639	82.385	-0.190	-0.209
-498.624	-76.736	0.200	-0.071
-497.610	-55.510	-0.027	0.012
-496.595	800.000	-0.085	-0.249
-495.581	56.195	-0.121	-0.119
-494.566	-200.000	0.007	-0.145
-493.551	23.349	-0.267	-0.222
-492.537	-200.000	-0.084	0.438
-491.522	770.137	0.156	0.430
-490.508	800.000	0.027	0.094
-489.493	-114.280	0.148	-0.029
-488.478	-138.459	0.527	0.059
-487.464	199.086	0.123	0.191
-486.449	800.000	-0.027	0.121
-485.435	23.901	-0.170	0.142
-484.420	800.000	-0.037	0.159
-483.405	-200.000	0.018	-0.165
-482.391	484.747	0.042	0.098
-481.376	-200.000	0.026	-0.283
-480.362	-200.000	-0.024	-0.172
-479.347	2.568	-0.105	-0.077
-478.332	155.315	0.111	-0.155
-477.318	-86.734	0.117	-0.036
-476.303	-132.167	0.150	-0.020
-475.289	159.316	-0.074	0.105
-474.274	800.000	-0.145	-0.410
-473.259	-28.054	-0.209	-0.123
-472.245	-100.573	-0.175	0.044
-471.230	-191.647	-0.152	-0.002
-470.216	335.792	-0.087	-0.170
-469.201	-24.239	0.105	-0.063
-468.186	-39.597	0.463	0.246
-467.172	482.852	0.084	0.194
-466.157	-16.841	0.076	-0.049
-465.143	-200.000	0.005	-0.366
-464.128	535.314	-0.129	0.310
-463.113	-45.563	0.397	-0.199
-462.099	-162.248	0.152	0.008
-461.084	-5.857	0.059	0.041
-460.070	800.000	0.106	0.322
-459.055	-91.587	-0.276	-0.079
-458.040	-103.524	-0.153	0.036
-457.026	229.535	0.044	-0.073
-456.011	259.065	0.188	-0.328
-454.997	-200.000	-0.131	-0.000
-453.982	1.296	-0.119	-0.087
-452.968	459.518	-0.131	0.295
-451.953	-5.135	-0.148	0.103
-450.938	-11.741	-0.123	0.082
-449.924	172.046	0.259	0.377
-448.909	-70.295	0.189	0.073
-447.895	20.657	0.262	-0.214
-446.880	-200.000	0.014	-0.183
-445.865	-3.353	-0.178	-0.125
-444.851	800.000	-0.032	0.105
-443.836	-135.260	-0.239	-0.029
-442.822	85.386	-0.107	0.119
-441.807	-200.000	-0.037	-0.279
-440.792	73.294	-0.257	0.272
-439.778	-9.077	0.192	-0.130
-438.763	-36.188	0.079	0.043
-437.749	14.724	0.079	-0.063
-436.734	49.871	0.058	-0.055
-435.719	137.698	-0.169	0.224
-434.705	-131.238	0.325	0.044
-433.690	560.501	-0.067	0.164
-432.676	-56.247	-0.249	-0.112
-431.661	-138.234	0.379	0.042
-430.646	-70.428	-0.050	-0.019
-429.632	-116.249	-0.126	-0.024
-428.617	-133.275	0.189	0.024
-427.603	80.135	-0.228	-0.248
-426.588	138.666	-0.093	-0.123
-425.573	800.000	-0.035	0.103
-424.559	-126.319	0.508	-0.077
-423.544	148.405	0.123	0.167
-422.530	136.661	0.154	-0.203
-421.515	-200.000	0.056	0.284
-420.500	-200.000	0.052	-0.264
-419.486	-94.329	-0.182	0.050
-418.471	800.000	0.106	0.324
-417.457	115.189	0.084	-0.104
-416.442	800.000	0.042	0.122
-415.428	181.662	0.099	0.147
-414.413	499.445	0.065	-0.151
-413.398	317.011	-0.158	-0.302
-412.384	-150.399	-0.285	-0.022
-411.369	800.000	0.020	0.056
-410.355	338.440	0.102	0.202
-409.340	800.000	-0.049	-0.144
-408.325	-106.520	0.317	0.071
-407.311	800.000	0.060	-0.205
-406.296	133.651	0.125	-0.164
-405.282	-200.000	-0.026	-0.264
-404.267	-200.000	0.036	-0.307
-403.252	-121.829	-0.183	0.031
-402.238	709.763	0.033	0.087
-401.223	1.772	0.144	0.105
-400.209	-200.000	0.037	-0.246
-399.194	-8.729	-0.184	0.125
-398.179	-200.000	-0.001	0.166
-397.165	285.299	-0.106	0.193
-396.150	8.281	0.421	0.319
-395.136	485.825	0.155	0.358
-394.121	-143.237	-0.302	0.029
-393.106	-175.435	0.265	-0.007
-392.092	353.432	0.009	0.019
-391.077	-65.165	-0.126	-0.051
-390.063	-87.389	0.241	0.074
-389.048	17.024	-0.106	-0.085
-388.033	229.162	-0.207	-0.341
-387.019	-68.919	0.169	-0.066
-386.004	17.614	-0.494	0.397
-384.990	37.354	-0.117	0.105
-383.975	-22.820	0.235	0.143
-382.960	-23.852	0.335	0.202
-381.946	-106.150	-0.182	-0.041
-380.931	35.747	0.212	-0.188
-379.917	-145.395	-0.306	0.028
-378.902	-104.603	-0.269	-0.063
-377.888	-200.000	-0.010	-0.142
-376.873	-200.000	-0.014	0.132
-375.858	800.000	0.087	-0.253
-374.844	-200.000	-0.020	0.120
-373.829	157.181	0.102	-0.143
-372.815	578.978	0.109	-0.268
-371.800	-75.875	0.309	0.110
-370.785	-84.960	-0.166	-0.052
-369.771	800.000	-0.077	0.253
-368.756	-99.516	-0.258	-0.066
-367.742	-144.994	-0.364	0.034
-366.727	-115.254	-0.089	0.017
-365.712	-17.411	-0.268	0.170
-364.698	50.456	-0.150	-0.143
-363.683	-4.196	-0.127	0.089
-362.669	-200.000	-0.047	-0.303
-361.654	800.000	0.056	-0.201
-360.639	102.359	0.284	0.334
-359.625	-53.881	0.239	0.110
-358.610	-53.257	0.236	0.109
-357.596	-53.176	-0.334	0.155
-356.581	268.592	-0.044	0.078
-355.566	77.116	0.135	-0.145
-354.552	-3.674	0.080	-0.056
-353.537	-200.000	-0.012	0.097
-352.523	-87.149	0.288	-0.088
-351.508	-200.000	0.052	-0.464
-350.493	-125.903	0.232	-0.035
-349.479	-119.337	-0.211	0.037
-348.464	-174.220	-0.273	0.008
-347.450	-36.435	0.146	0.079
-346.435	41.228	-0.163	-0.149
-345.420	357.220	0.063	0.126
-344.406	-200.000	-0.049	0.248
-343.391	800.000	0.071	-0.208
-342.377	-200.000	-0.038	0.379
-341.362	800.000	-0.116	0.442
-340.348	-200.000	-0.043	0.204
-339.333	800.000	-0.124	0.354
-338.318	37.174	-0.095	0.085
-337.304	-66.293	0.600	0.241
-336.289	31.948	-0.029	-0.025
-335.275	-84.611	0.246	0.078
-334.260	123.232	0.221	-0.279
-333.245	603.936	0.016	-0.040
-332.231	-109.900	-0.084	-0.018
-331.216	-100.220	0.145	0.036
-330.202	-200.000	-0.012	0.134
-329.187	800.000	-0.050	0.200
-328.172	800.000	-0.056	-0.172
-327.158	91.496	-0.290	-0.328
-326.143	-153.506	0.252	-0.018
-325.129	22.845	-0.308	0.254
-324.114	800.000	-0.092	-0.317
-323.099	59.738	0.215	-0.214
-322.085	28.762	-0.091	0.077
-321.070	-200.000	-0.036	-0.171
-320.056	714.174	0.086	-0.230
-319.041	-200.000	-0.007	0.147
-318.026	-8.826	-0.177	-0.119
-317.012	-79.725	-0.314	-0.106
-315.997	800.000	-0.017	-0.069
-314.983	6.174	-0.134	0.100
-313.968	288.463	-0.147	0.268
-312.953	-200.000	0.031	-0.279
-311.939	424.005	0.072	-0.156
-310.924	-200.000	0.059	-0.457
-309.910	-116.577	-0.353	0.065
-308.895	800.000	-0.075	-0.216
-307.880	80.851	0.224	-0.243
-306.866	159.636	0.052	-0.073
-305.851	-200.000	-0.016	0.266
-304.837	-79.362	-0.075	-0.026
-303.822	-7.026	-0.158	0.108
-302.807	-35.833	-0.271	-0.148
-301.793	-157.905	-0.392	0.023
-300.778	-160.734	-0.186	0.010
-299.764	-35.377	-0.117	0.064
-298.749	-25.528	0.250	-0.149
-297.735	416.918	-0.092	0.197
-296.720	-200.000	0.059	0.348
-295.705	800.000	0.045	-0.179
-294.691	-200.000	0.016	0.097
-293.676	-41.883	-0.298	0.154
-292.662	800.000	-0.039	0.154
-291.647	-121.472	-0.175	-0.029
-290.632	800.000	0.029	-0.109
-289.618	800.000	-0.070	-0.265
-288.603	411.516	-0.044	0.094
-287.589	572.379	0.094	0.231
-286.574	9.642	0.279	0.213
-285.559	-13.314	0.211	0.138
-284.545	-200.000	0.020	-0.135
-283.530	-200.000	-0.030	0.407
-282.516	-200.000	-0.010	0.139
-281.501	57.787	0.147	0.145
-280.486	287.786	0.070	0.128
-279.472	-97.928	0.158	0.041
-278.457	417.043	-0.099	-0.213
-277.443	-58.812	-0.361	0.157
-276.428	163.498	0.052	0.073
-275.413	81.245	-0.095	0.103
-274.399	800.000	0.067	-0.257
-273.384	-200.000	-0.002	0.029
-272.370	528.487	-0.090	-0.214
-271.355	-80.383	0.094	0.032
-270.340	-5.419	-0.236	0.163
-269.326	-200.000	-0.041	-0.446
-268.311	-200.000	-0.009	0.167
-267.297	410.053	-0.115	0.244
-266.282	-110.836	-0.337	0.070
-265.267	800.000	0.061	-0.247
-264.253	-116.462	-0.238	-0.044
-263.238	800.000	0.072	-0.225
-262.224	-200.000	0.006	-0.169
-261.209	-200.000	0.011	0.111
-260.195	-46.758	0.068	-0.034
-259.180	408.142	-0.143	-0.305
-258.165	263.500	-0.139	-0.242
-257.151	16.885	-0.163	-0.130
-256.136	-28.047	-0.213	-0.124
-255.122	550.090	-0.074	-0.178
-254.107	-200.000	-0.005	-0.258
-253.092	-54.342	0.282	0.128
-252.078	-200.000	-0.034	0.198
-251.063	71.428	-0.120	-0.125
-250.049	-200.000	0.019	0.183
-249.034	-38.812	0.233	-0.123
-248.019	-112.744	-0.250	-0.050
-247.005	-49.845	0.419	-0.200
-245.990	322.468	0.054	0.103
-244.976	-68.404	0.083	-0.032
-243.961	193.723	0.060	-0.091
-242.946	-112.929	0.329	0.065
-241.932	174.863	0.021	-0.030
-240.917	54.056	0.064	-0.062
-239.903	-133.967	0.671	0.084
-238.888	205.733	0.110	0.171
-237.873	-119.397	0.289	-0.050
-236.859	147.712	0.123	-0.166
-235.844	-141.319	0.366	-0.037
-234.830	353.872	0.136	0.272
-233.815	-174.230	-0.042	-0.001
-232.800	-200.000	0.036	0.239
-231.786	164.056	0.158	-0.224
-230.771	-200.000	0.088	-0.407
-229.757	15.869	-0.259	-0.204
-228.742	148.818	0.103	-0.140
-227.727	-125.125	0.434	0.067
-226.713	-200.000	-0.002	-0.183
-225.698	200.169	-0.234	-0.360
-224.684	39.783	-0.050	-0.045
-223.669	800.000	0.008	-0.027
-222.655	659.438	-0.045	-0.115
-221.640	-102.344	-0.249	0.060
-220.625	-177.326	-0.187	-0.005
-219.611	-159.944	-0.290	-0.016
-218.596	151.977	0.089	0.122
-217.582	64.747	-0.074	0.075
-216.567	-200.000	0.014	0.202
-215.552	-54.985	0.035	-0.016
-214.538	-200.000	0.048	0.238
-213.523	-34.653	-0.275	-0.151
-212.509	12.717	0.167	0.130
-211.494	172.215	0.188	0.271
-210.479	-8.400	0.415	0.280
-209.465	56.772	-0.063	0.062
-208.450	-200.000	-0.006	0.058
-207.436	528.713	-0.031	-0.074
-206.421	-155.378	-0.174	-0.011
-205.406	173.161	-0.075	0.109
-204.392	-112.804	-0.211	0.042
-203.377	-200.000	-0.011	0.097
-202.363	59.705	0.243	-0.240
-201.348	-49.399	-0.251	-0.120
-200.333	-162.014	0.179	0.009
-199.319	-71.153	-0.181	0.068
-198.304	142.060	-0.046	-0.061
-197.290	144.595	-0.228	-0.305
-196.275	-59.856	-0.179	0.077
-195.260	475.919	-0.113	0.255
-194.246	178.529	-0.167	0.244
-193.231	-57.645	-0.417	0.183
-192.217	508.775	0.228	0.532
-191.202	-67.132	0.178	-0.070
-190.187	516.690	-0.167	-0.392
-189.173	-200.000	-0.032	-0.195
-188.158	10.267	-0.220	0.167
-187.144	64.306	0.366	0.369
-186.129	-200.000	0.000	0.203
-185.114	-200.000	-0.003	-0.153
-184.100	-59.012	-0.134	-0.058
-183.085	154.169	0.055	0.076
-182.071	484.811	-0.116	0.265
-181.056	12.786	0.050	0.039
-180.042	248.130	-0.179	0.304
-179.027	90.532	0.222	0.249
-178.012	97.818	0.225	-0.259
-176.998	-191.978	-0.102	0.001
-175.983	-111.694	0.220	0.045
-174.969	-25.066	0.164	0.097
-173.954	160.163	-0.048	0.068
-172.939	343.115	0.285	-0.559
-171.925	-200.000	-0.011	-0.214
-170.910	800.000	0.107	0.381
-169.896	-173.412	-0.295	-0.009
-168.881	-132.937	-0.381	0.049
-167.866	-83.690	0.204	0.065
-166.852	-148.931	-0.284	-0.023
-165.837	452.761	-0.063	-0.139
-164.823	-95.404	0.297	-0.080
-163.808	-141.998	-0.192	0.019
-162.793	-144.624	-0.237	-0.022
-161.779	-90.100	0.084	-0.024
-160.764	-32.225	0.279	0.156
-159.750	16.224	-0.208	-0.164
-158.735	474.576	0.086	-0.195
-157.720	-200.000	0.011	-0.320
-156.706	89.747	-0.194	0.217
-155.691	-100.341	0.523	-0.130
-154.677	280.517	0.139	-0.248
-153.662	-200.000	0.060	0.272
-152.647	-200.000	0.007	0.091
-151.633	-129.642	0.266	-0.037
-150.618	-48.511	-0.231	-0.111
-149.604	-103.563	0.370	0.087
-148.589	-164.268	0.437	-0.020
-147.574	301.495	-0.211	-0.389
-146.560	286.028	-0.045	-0.081
-145.545	-200.000	-0.025	-0.258
-144.531	42.292	0.229	0.208
-143.516	-129.065	0.277	-0.039
-142.502	-109.175	-0.353	-0.075
-141.487	-22.313	0.217	0.131
-140.472	-122.289	0.142	0.023
-139.458	721.629	-0.161	-0.427
-138.443	-13.392	-0.312	0.202
-137.429	-59.037	-0.151	0.065
-136.414	800.000	0.116	-0.342
-135.399	-200.000	0.401	-0.001
-134.385	-11.917	-0.156	0.103
-133.370	-92.962	-0.418	0.117
-132.356	574.576	0.064	0.157
-131.341	400.977	-0.052	0.109
-130.326	86.868	-0.140	0.155
-129.312	-130.660	0.200	-0.027
-128.297	800.000	0.070	-0.252
-127.283	-110.692	0.260	-0.054
-126.268	-66.914	0.350	0.138
-125.253	158.426	0.052	-0.072
-124.239	143.277	0.183	0.243
-123.224	-200.000	0.180	0.001
-122.210	-200.000	0.032	0.291
