DTS Sentinel unit serial number:	SN413079Multiplexer serial number:	ORYXHardware model number:	OX4-SRSoftware version number:	ORYX F/W v4.00 Oryx Data Collector v3.7.2.0data status	okinstallation	princeton_trtdifferential loss correction	single-endedforward channel	channel 1reverse channel	N/Adate	2019/09/16time	04:46:35forward acquisition time	60.00reverse acquisition time	0.00gamma	496.2192k internal	0.2333k external	0.2333temperature offset calibration	0.9980default loss term (dB/km)	0.3790temperature slope calibration	1.0000multiplexer offset coefficient	1.0000multiplexer slope coefficient	1.0000fibre end	0.00T internal ref (°C)	27.19T ext. ref 1 (°C)	10.92T ext. ref 2 (°C)	21.50length (m)	temperature (°C)	Stokes	anti-Stokes-747.200	-78.157	0.385	0.133
-746.185	-79.087	-0.186	0.064
-745.171	317.293	-0.151	0.287
-744.156	-200.000	-0.031	0.165
-743.142	800.000	0.081	0.265
-742.127	-200.000	-0.028	0.380
-741.112	2.029	-0.082	-0.059
-740.098	142.607	-0.072	0.096
-739.083	70.157	0.188	0.195
-738.069	48.295	-0.292	0.274
-737.054	-72.531	0.197	0.073
-736.039	-60.683	-0.437	-0.186
-735.025	-110.296	-0.061	-0.013
-734.010	-200.000	-0.008	-0.350
-732.996	-200.000	-0.026	-0.230
-731.981	181.568	0.149	-0.220
-730.966	94.921	0.187	0.214
-729.952	-129.685	-0.324	0.045
-728.937	-60.976	-0.718	-0.305
-727.923	800.000	0.094	-0.309
-726.908	-75.567	-0.149	0.053
-725.894	-137.440	-0.088	-0.010
-724.879	-38.645	-0.064	0.034
-723.864	17.550	-0.333	-0.266
-722.850	-136.278	0.349	-0.041
-721.835	-33.040	-0.237	0.132
-720.821	-65.153	-0.177	0.072
-719.806	-28.904	-0.041	-0.024
-718.791	353.123	-0.046	0.092
-717.777	-5.251	-0.174	-0.120
-716.762	-57.147	0.143	0.063
-715.748	-24.760	-0.167	0.100
-714.733	-128.665	-0.110	0.016
-713.718	-41.845	0.358	-0.184
-712.704	-200.000	-0.054	-0.342
-711.689	-23.774	-0.273	-0.164
-710.675	166.544	0.180	0.256
-709.660	-22.072	-0.222	-0.136
-708.645	-14.881	0.082	-0.053
-707.631	23.469	0.099	-0.082
-706.616	-18.485	-0.210	-0.132
-705.602	-200.000	-0.027	-0.288
-704.587	21.871	-0.217	-0.178
-703.572	-64.278	-0.086	-0.035
-702.558	-200.000	-0.042	0.308
-701.543	-100.019	0.118	-0.030
-700.529	71.766	0.147	0.154
-699.514	-88.659	-0.195	0.058
-698.499	404.018	0.119	-0.251
-697.485	-200.000	0.052	-0.312
-696.470	-31.554	-0.072	0.041
-695.456	302.110	-0.172	-0.320
-694.441	49.089	-0.292	-0.275
-693.426	-93.869	-0.155	-0.043
-692.412	-91.358	0.177	-0.051
-691.397	13.064	-0.246	-0.191
-690.383	540.823	-0.098	-0.234
-689.368	-190.491	-0.214	-0.002
-688.354	495.414	0.048	0.111
-687.339	26.304	-0.296	0.248
-686.324	800.000	-0.044	-0.156
-685.310	800.000	-0.035	-0.110
-684.295	-41.042	-0.329	0.170
-683.281	354.604	-0.079	-0.157
-682.266	-6.947	-0.097	0.066
-681.251	-122.492	-0.391	0.064
-680.237	-200.000	0.081	0.374
-679.222	800.000	-0.016	-0.059
-678.208	-67.561	0.141	0.055
-677.193	-49.605	-0.335	-0.160
-676.178	800.000	0.047	-0.183
-675.164	-200.000	0.012	0.102
-674.149	244.855	0.062	0.105
-673.135	-200.000	0.063	-0.518
-672.120	-83.953	-0.341	-0.109
-671.105	51.025	-0.083	-0.079
-670.091	-157.846	-0.270	0.016
-669.076	-200.000	-0.021	0.148
-668.062	282.243	0.123	0.221
-667.047	-123.515	0.238	0.038
-666.032	538.596	0.163	-0.389
-665.018	-200.000	-0.035	-0.332
-664.003	128.611	-0.026	0.033
-662.989	-79.262	0.408	0.139
-661.974	800.000	0.045	0.173
-660.959	-102.732	-0.361	-0.086
-659.945	0.041	-0.298	0.213
-658.930	253.763	-0.133	-0.227
-657.916	-104.932	0.118	0.027
-656.901	-200.000	-0.011	0.086
-655.886	235.579	0.143	-0.236
-654.872	508.952	-0.065	-0.151
-653.857	-162.019	-0.271	0.014
-652.843	-91.867	-0.146	-0.042
-651.828	86.979	-0.180	-0.199
-650.814	-97.152	0.196	0.051
-649.799	-200.000	-0.060	-0.312
-648.784	-93.927	-0.082	-0.023
-647.770	-123.191	0.198	0.032
-646.755	498.385	0.106	-0.246
-645.741	159.104	-0.110	0.153
-644.726	312.948	-0.097	-0.183
-643.711	-53.792	-0.241	-0.110
-642.697	414.549	0.064	-0.137
-641.682	81.085	-0.114	-0.124
-640.668	59.301	0.174	-0.172
-639.653	-170.657	-0.141	-0.005
-638.638	435.069	0.094	0.206
-637.624	52.213	0.383	0.366
-636.609	-79.190	0.495	0.168
-635.595	-200.000	0.003	0.056
-634.580	-158.253	-0.486	0.028
-633.565	-81.101	0.055	-0.018
-632.551	562.060	0.032	0.077
-631.536	-200.000	0.021	-0.315
-630.522	-28.026	-0.049	-0.028
-629.507	-67.155	0.120	-0.047
-628.492	658.382	0.087	0.223
-627.478	-81.413	-0.174	-0.057
-626.463	586.103	0.124	-0.305
-625.449	-74.113	-0.451	0.164
-624.434	-76.812	0.307	0.108
-623.419	501.408	0.021	0.048
-622.405	266.386	0.141	0.247
-621.390	475.356	-0.097	-0.220
-620.376	-198.734	0.099	-0.001
-619.361	-45.511	-0.271	-0.134
-618.346	-154.101	-0.246	-0.017
-617.332	-113.242	0.189	-0.037
-616.317	-200.000	0.084	-0.405
-615.303	-200.000	-0.084	-0.406
-614.288	-200.000	0.024	-0.227
-613.273	-128.841	0.330	0.046
-612.259	-114.986	-0.291	-0.055
-611.244	191.498	0.146	-0.219
-610.230	-115.143	-0.191	-0.036
-609.215	-58.187	0.102	0.045
-608.201	28.398	-0.230	-0.195
-607.186	15.070	-0.298	0.234
-606.171	-200.000	0.011	0.175
-605.157	-120.214	0.249	-0.043
-604.142	-148.757	-0.383	-0.031
-603.128	337.007	0.098	0.190
-602.113	210.563	-0.140	-0.221
-601.098	-43.265	0.316	-0.160
-600.084	50.360	0.289	-0.273
-599.069	-38.922	0.277	-0.146
-598.055	-158.582	-0.300	-0.017
-597.040	709.544	-0.083	0.219
-596.025	-0.036	-0.065	0.047
-595.011	-36.689	-0.287	0.154
-593.996	-114.874	-0.469	-0.089
-592.982	165.236	0.212	0.300
-591.967	-200.000	0.020	0.193
-590.952	-200.000	0.029	0.165
-589.938	-5.104	-0.094	0.064
-588.923	235.287	-0.107	0.177
-587.909	564.186	-0.020	0.049
-586.894	800.000	-0.027	0.084
-585.879	-90.860	-0.151	0.043
-584.865	-116.798	0.097	-0.018
-583.850	-200.000	-0.018	0.364
-582.836	358.348	0.165	-0.330
-581.821	800.000	-0.056	0.227
-580.806	230.718	0.055	-0.090
-579.792	439.142	0.046	-0.101
-578.777	-9.480	-0.139	-0.093
-577.763	-200.000	0.015	-0.245
-576.748	-98.011	0.161	-0.041
-575.733	-22.257	0.175	-0.106
-574.719	-40.882	-0.288	-0.149
-573.704	697.299	-0.063	0.166
-572.690	78.830	-0.206	-0.220
-571.675	-145.928	0.099	0.009
-570.661	-200.000	0.016	0.282
-569.646	-127.820	-0.471	-0.068
-568.631	29.582	-0.026	-0.022
-567.617	-81.295	-0.403	0.133
-566.602	25.325	-0.137	-0.114
-565.588	-200.000	-0.054	-0.351
-564.573	-22.911	-0.365	-0.220
-563.558	-151.897	-0.146	-0.011
-562.544	-101.121	0.233	-0.057
-561.529	0.967	-0.167	0.120
-560.515	-200.000	0.001	-0.056
-559.500	-83.062	-0.198	-0.064
-558.485	-47.048	0.060	-0.029
-557.471	360.303	-0.110	-0.219
-556.456	-200.000	0.015	0.129
-555.442	95.563	0.134	0.153
-554.427	-200.000	-0.003	-0.114
-553.412	-54.305	-0.243	0.110
-552.398	-83.366	-0.182	-0.058
-551.383	107.838	-0.094	-0.111
-550.369	0.946	-0.428	0.307
-549.354	-200.000	0.019	0.446
-548.339	-21.877	0.045	0.027
-547.325	25.976	0.052	0.044
-546.310	665.802	-0.028	-0.071
-545.296	279.528	-0.026	-0.046
-544.281	112.399	-0.155	0.188
-543.266	146.078	0.178	0.238
-542.252	30.783	0.183	0.156
-541.237	-158.835	-0.285	0.016
-540.223	412.699	0.130	0.276
-539.208	419.062	0.187	0.399
-538.193	800.000	-0.021	0.063
-537.179	-27.574	0.049	0.029
-536.164	206.865	0.175	0.273
-535.150	-200.000	-0.010	-0.417
-534.135	-78.729	-0.182	-0.062
-533.121	800.000	0.071	0.243
-532.106	800.000	0.061	-0.179
-531.091	800.000	-0.096	-0.351
-530.077	393.412	-0.305	-0.634
-529.062	173.277	0.023	-0.033
-528.048	-133.391	-0.225	0.028
-527.033	-152.327	0.251	-0.018
-526.018	-130.829	0.265	0.035
-525.004	333.750	0.076	-0.146
-523.989	68.362	-0.206	0.210
-522.975	-40.981	-0.325	0.167
-521.960	64.109	0.390	-0.391
-520.945	-105.794	-0.080	-0.018
-519.931	-120.192	-0.342	0.058
-518.916	-154.413	0.330	-0.022
-517.902	293.367	-0.164	-0.297
-516.887	-94.311	-0.141	-0.039
-515.872	-62.592	0.031	-0.013
-514.858	800.000	0.037	0.104
-513.843	800.000	0.101	0.394
-512.829	124.731	-0.190	-0.238
-511.814	52.821	0.399	-0.381
-510.799	-133.034	0.283	0.036
-509.785	-32.645	0.092	-0.051
-508.770	800.000	-0.051	0.180
-507.756	216.808	0.182	-0.288
-506.741	5.917	-0.463	0.342
-505.726	-28.296	0.186	0.107
-504.712	-151.872	-0.107	-0.008
-503.697	-149.429	-0.097	-0.008
-502.683	-9.725	0.097	-0.064
-501.668	-12.001	0.264	-0.172
-500.653	494.844	-0.159	-0.364
-499.639	-89.368	0.289	0.085
-498.624	131.879	0.128	-0.164
-497.610	800.000	0.041	-0.151
-496.595	48.073	0.187	-0.174
-495.581	-200.000	-0.009	-0.209
-494.566	29.086	0.124	0.104
-493.551	200.476	0.070	0.108
-492.537	193.079	0.142	0.214
-491.522	800.000	0.019	0.054
-490.508	800.000	0.021	-0.066
-489.493	-122.524	-0.118	0.019
-488.478	-200.000	-0.035	-0.336
-487.464	74.652	0.104	0.109
-486.449	-170.929	-0.411	0.014
-485.435	-200.000	-0.004	-0.223
-484.420	140.471	-0.138	-0.181
-483.405	60.781	-0.306	0.302
-482.391	650.976	-0.047	0.121
-481.376	-6.758	-0.120	0.081
-480.362	167.250	-0.103	-0.146
-479.347	73.556	0.173	0.180
-478.332	221.137	0.091	0.146
-477.318	-133.531	0.169	-0.021
-476.303	-200.000	0.013	-0.074
-475.289	12.300	0.137	0.105
-474.274	49.022	0.078	0.073
-473.259	-51.011	0.437	0.204
-472.245	-200.000	0.050	0.668
-471.230	142.910	-0.206	-0.273
-470.216	-200.000	-0.008	-0.199
-469.201	25.025	-0.211	0.174
-468.186	-82.719	0.387	-0.125
-467.172	-147.340	0.072	0.006
-466.157	110.798	-0.048	0.058
-465.143	-59.371	0.092	0.039
-464.128	666.935	-0.012	0.031
-463.113	-200.000	-0.030	-0.156
-462.099	-200.000	-0.028	-0.329
-461.084	-174.960	-0.266	-0.007
-460.070	-42.825	-0.127	0.064
-459.055	-78.313	-0.262	-0.089
-458.040	415.407	0.022	0.048
-457.026	454.985	-0.169	-0.372
-456.011	137.359	0.153	0.199
-454.997	-142.472	-0.061	0.006
-453.982	-56.090	0.157	0.070
-452.968	-200.000	-0.012	0.267
-451.953	293.914	-0.176	-0.319
-450.938	-139.397	0.079	-0.008
-449.924	42.449	-0.187	0.169
-448.909	-94.198	0.290	-0.079
-447.895	-66.423	0.371	-0.147
-446.880	-57.687	0.176	-0.077
-445.865	345.698	-0.223	-0.435
-444.851	9.570	-0.100	-0.075
-443.836	-137.944	0.181	0.020
-442.822	800.000	-0.022	0.062
-441.807	37.510	-0.044	0.039
-440.792	28.695	0.312	0.262
-439.778	231.352	0.089	-0.145
-438.763	-200.000	-0.091	0.458
-437.749	-200.000	0.006	-0.128
-436.734	617.951	-0.034	0.084
-435.719	45.622	0.191	-0.176
-434.705	328.697	0.070	-0.133
-433.690	148.739	-0.112	0.150
-432.676	-79.675	0.117	0.039
-431.661	-200.000	0.001	0.227
-430.646	34.638	-0.325	0.282
-429.632	-200.000	-0.061	-0.276
-428.617	-50.453	-0.111	-0.052
-427.603	-200.000	0.067	-0.505
-426.588	7.145	0.020	0.015
-425.573	-35.304	-0.306	0.165
-424.559	-137.589	0.132	-0.015
-423.544	95.760	0.126	-0.142
-422.530	-78.261	-0.150	0.051
-421.515	132.767	0.155	-0.198
-420.500	-62.426	-0.148	0.061
-419.486	800.000	-0.080	0.281
-418.471	8.080	-0.021	0.016
-417.457	237.842	-0.187	0.309
-416.442	-200.000	0.015	0.285
-415.428	227.114	-0.059	0.094
-414.413	-200.000	0.003	-0.144
-413.398	114.469	-0.172	0.207
-412.384	-23.335	-0.194	-0.116
-411.369	88.169	0.242	0.267
-410.355	25.031	-0.075	0.062
-409.340	76.959	0.149	-0.157
-408.325	0.110	0.289	-0.205
-407.311	154.914	-0.111	-0.151
-406.296	29.063	-0.305	0.257
-405.282	205.202	0.140	-0.216
-404.267	63.271	-0.095	-0.094
-403.252	65.924	0.324	0.326
-402.238	-200.000	-0.033	0.247
-401.223	72.211	0.134	-0.138
-400.209	-28.763	-0.321	-0.183
-399.194	199.322	0.014	0.021
-398.179	-72.526	0.185	-0.068
-397.165	-200.000	-0.005	0.181
-396.150	-200.000	-0.006	0.072
-395.136	-7.096	0.068	-0.045
-394.121	1.820	-0.161	0.115
-393.106	109.565	0.176	-0.210
-392.092	-97.472	0.275	-0.071
-391.077	-2.050	-0.146	-0.102
-390.063	25.588	0.198	-0.163
-389.048	3.642	0.067	0.048
-388.033	-200.000	0.059	-0.271
-387.019	10.272	0.236	0.178
-386.004	-53.040	0.142	0.065
-384.990	-63.087	-0.053	0.022
-383.975	246.855	-0.105	0.176
-382.960	28.484	-0.105	0.088
-381.946	-200.000	0.005	-0.366
-380.931	749.704	-0.068	0.183
-379.917	-81.397	0.340	0.111
-378.902	0.666	0.204	-0.145
-377.888	800.000	-0.075	0.235
-376.873	85.761	-0.126	-0.137
-375.858	-51.597	0.086	0.040
-374.844	800.000	0.069	-0.262
-373.829	-24.780	-0.214	0.126
-372.815	-18.134	-0.275	-0.170
-371.800	-8.877	0.104	-0.069
-370.785	-68.327	-0.164	-0.063
-369.771	800.000	-0.162	-0.494
-368.756	278.616	-0.116	-0.206
-367.742	118.038	-0.129	0.157
-366.727	-46.900	-0.318	-0.154
-365.712	-86.548	0.480	-0.146
-364.698	-200.000	0.085	-0.500
-363.683	486.899	-0.204	-0.460
-362.669	-176.209	-0.139	0.004
-361.654	302.561	-0.128	-0.234
-360.639	800.000	-0.051	-0.154
-359.625	337.225	0.067	-0.129
-358.610	17.180	0.284	-0.223
-357.596	-200.000	0.005	-0.258
-356.581	217.780	0.225	0.355
-355.566	-167.374	-0.183	0.007
-354.552	35.894	-0.050	-0.044
-353.537	452.895	0.072	-0.159
-352.523	37.727	-0.198	0.174
-351.508	-200.000	-0.038	0.253
-350.493	-200.000	0.003	-0.246
-349.479	-24.365	0.197	0.116
-348.464	74.780	0.125	0.131
-347.450	202.199	0.167	0.255
-346.435	-142.519	0.187	-0.018
-345.420	68.256	0.105	-0.106
-344.406	800.000	0.034	-0.096
-343.391	50.609	-0.181	-0.170
-342.377	800.000	-0.101	0.310
-341.362	-138.452	-0.322	-0.035
-340.348	-3.399	0.156	-0.108
-339.333	205.649	-0.095	-0.146
-338.318	135.391	-0.030	-0.038
-337.304	-190.051	-0.056	0.001
-336.289	-141.883	0.290	-0.029
-335.275	5.618	0.150	0.110
-334.260	-200.000	0.040	0.278
-333.245	-14.131	-0.159	0.101
-332.231	-17.237	-0.134	-0.084
-331.216	-147.884	0.245	0.020
-330.202	-105.518	0.422	0.095
-329.187	800.000	-0.038	-0.111
-328.172	-200.000	-0.016	-0.257
-327.158	527.579	-0.041	0.096
-326.143	-78.976	-0.358	-0.121
-325.129	288.375	0.071	0.127
-324.114	42.066	-0.071	0.064
-323.099	198.771	-0.204	0.309
-322.085	6.009	0.188	0.138
-321.070	-65.175	-0.220	0.088
-320.056	234.860	0.098	0.160
-319.041	107.690	0.041	0.049
-318.026	-200.000	0.064	-0.285
-317.012	-135.059	0.234	-0.028
-315.997	-92.648	0.278	0.077
-314.983	-200.000	-0.012	0.052
-313.968	-91.825	0.277	-0.078
-312.953	-124.081	0.048	-0.007
-311.939	-200.000	-0.024	0.276
-310.924	-35.263	-0.281	0.151
-309.910	-87.458	0.084	0.025
-308.895	-174.073	-0.390	0.011
-307.880	635.831	-0.098	0.247
-306.866	-128.304	-0.186	-0.026
-305.851	-62.037	0.171	0.071
-304.837	-200.000	-0.074	-0.383
-303.822	-180.701	-0.424	-0.009
-302.807	-82.035	0.058	-0.019
-301.793	99.455	-0.068	-0.077
-300.778	-200.000	-0.001	0.065
-299.764	8.545	-0.091	0.068
-298.749	75.861	-0.182	0.190
-297.735	30.111	0.154	0.130
-296.720	538.813	0.120	-0.283
-295.705	-79.092	0.090	0.030
-294.691	-31.539	0.194	0.108
-293.676	-200.000	0.095	0.470
-292.662	379.279	-0.227	0.459
-291.647	200.291	-0.206	0.313
-290.632	-200.000	0.032	-0.221
-289.618	735.388	-0.089	-0.235
-288.603	111.583	-0.065	0.077
-287.589	-50.958	-0.041	0.019
-286.574	-60.914	-0.082	-0.034
-285.559	800.000	-0.010	0.030
-284.545	-34.281	0.306	0.166
-283.530	190.750	-0.047	0.070
-282.516	-200.000	-0.030	-0.196
-281.501	121.195	0.023	0.028
-280.486	-40.134	0.054	0.028
-279.472	-200.000	-0.030	0.160
-278.457	-159.864	0.159	0.009
-277.443	162.311	0.140	0.194
-276.428	159.846	-0.182	0.251
-275.413	560.606	-0.051	-0.122
-274.399	-133.149	0.153	-0.019
-273.384	207.977	0.133	-0.205
-272.370	800.000	0.066	-0.202
-271.355	-200.000	-0.001	-0.105
-270.340	-178.238	0.059	0.001
-269.326	-110.796	0.218	-0.044
-268.311	-81.390	-0.187	-0.061
-267.297	210.410	-0.177	-0.274
-266.282	-4.626	0.255	0.173
-265.267	-14.466	-0.072	0.046
-264.253	406.445	0.093	0.194
-263.238	-175.021	0.268	-0.007
-262.224	-109.063	-0.064	-0.013
-261.209	800.000	0.129	0.437
-260.195	-127.612	-0.177	-0.025
-259.180	253.350	0.110	0.185
-258.165	-200.000	-0.030	0.239
-257.151	-99.742	0.230	0.057
-256.136	49.273	0.135	-0.126
-255.122	-200.000	0.010	0.151
-254.107	800.000	0.042	0.182
-253.092	362.275	0.123	0.243
-252.078	258.461	-0.227	0.385
-251.063	800.000	0.044	0.149
-250.049	-50.710	-0.257	-0.119
-249.034	-130.791	-0.129	-0.017
-248.019	65.401	0.287	-0.287
-247.005	-107.700	0.188	0.040
-245.990	488.181	-0.115	-0.258
-244.976	-37.429	-0.087	0.046
-243.961	588.266	0.097	-0.235
-242.946	800.000	-0.041	0.117
-241.932	26.593	0.007	0.005
-240.917	-43.923	-0.235	-0.116
-239.903	-16.203	-0.122	0.077
-238.888	-82.830	-0.259	0.083
-237.873	-33.331	0.310	0.169
-236.859	-100.084	0.088	0.022
-235.844	58.435	-0.259	-0.251
-234.830	-174.443	0.255	-0.007
-233.815	525.832	-0.043	-0.099
-232.800	125.521	-0.082	-0.102
-231.786	-132.077	0.180	0.023
-230.771	202.864	0.130	0.198
-229.757	35.253	0.178	0.153
-228.742	-200.000	-0.032	0.391
-227.727	528.826	0.016	0.037
-226.713	-108.207	0.200	-0.043
-225.698	13.962	0.131	0.100
-224.684	58.993	0.093	0.090
-223.669	-78.456	-0.074	-0.025
-222.655	800.000	-0.095	-0.259
-221.640	178.014	-0.057	-0.081
-220.625	173.031	0.052	0.074
-219.611	-200.000	0.011	0.352
-218.596	-200.000	0.008	-0.112
-217.582	759.156	-0.004	-0.012
-216.567	298.044	-0.148	0.267
-215.552	800.000	0.087	0.321
-214.538	632.283	0.197	0.491
-213.523	-74.783	0.235	0.083
-212.509	302.246	0.162	-0.295
-211.494	-200.000	0.032	-0.239
-210.479	-48.985	0.115	0.054
-209.465	-140.571	0.349	0.036
-208.450	68.450	0.074	0.074
-207.436	-200.000	0.000	0.047
-206.421	-200.000	0.023	-0.311
-205.406	800.000	0.031	-0.089
-204.392	45.031	-0.054	-0.049
-203.377	467.665	0.100	0.220
-202.363	74.688	0.181	0.187
-201.348	-176.136	-0.127	0.003
-200.333	800.000	-0.076	0.310
-199.319	-200.000	-0.003	-0.069
-198.304	-16.754	-0.127	0.079
-197.290	517.586	-0.095	-0.218
-196.275	792.863	0.079	-0.213
-195.260	-21.584	-0.208	0.125
-194.246	800.000	-0.055	0.149
-193.231	58.130	-0.203	0.196
-192.217	-77.529	-0.228	0.078
-191.202	-32.866	0.020	0.011
-190.187	-24.840	-0.114	0.067
-189.173	-200.000	-0.042	-0.247
-188.158	-153.036	0.233	-0.016
-187.144	6.909	0.080	0.059
-186.129	-200.000	0.011	0.077
-185.114	-118.974	0.259	-0.045
-184.100	756.976	-0.098	0.260
-183.085	138.503	-0.126	-0.163
-182.071	-174.463	0.028	0.001
-181.056	-200.000	0.029	0.172
-180.042	343.470	0.091	-0.175
-179.027	-72.781	-0.201	0.073
-178.012	187.912	0.121	-0.178
-176.998	-21.105	0.179	-0.108
-175.983	331.436	-0.004	0.007
-174.969	38.677	0.090	-0.079
-173.954	-42.874	-0.121	0.060
-172.939	-169.097	-0.230	-0.008
-171.925	157.306	-0.060	0.082
-170.910	-200.000	0.042	0.274
-169.896	-5.295	0.153	-0.103
-168.881	-141.482	-0.132	-0.013
-167.866	-77.393	-0.269	0.092
-166.852	31.585	0.122	-0.103
-165.837	-49.459	-0.203	-0.095
-164.823	-200.000	-0.068	0.430
-163.808	186.832	0.105	-0.154
-162.793	-200.000	-0.005	0.127
-161.779	800.000	-0.065	-0.275
-160.764	-114.231	-0.208	-0.039
-159.750	108.544	-0.128	-0.151
-158.735	-96.144	0.352	-0.092
-157.720	213.745	0.083	-0.129
-156.706	800.000	0.078	0.252
-155.691	310.055	0.112	0.206
-154.677	219.871	0.138	-0.217
-153.662	401.480	0.186	-0.383
-152.647	800.000	-0.057	-0.206
-151.633	-200.000	0.009	-0.060
-150.618	-200.000	-0.010	-0.268
-149.604	235.788	0.113	0.184
-148.589	-200.000	0.038	0.338
-147.574	-37.554	-0.234	0.122
-146.560	106.966	-0.252	-0.294
-145.545	214.788	0.208	-0.324
-144.531	800.000	0.063	-0.237
-143.516	800.000	0.080	-0.244
-142.502	-15.969	0.131	0.082
-141.487	-93.194	-0.115	0.031
-140.472	-180.054	0.134	-0.003
-139.458	-5.620	-0.192	0.129
-138.443	-134.488	-0.360	0.043
-137.429	-53.796	-0.150	-0.067
-136.414	-20.574	0.249	-0.150
-135.399	519.892	-0.071	-0.163
-134.385	54.361	0.224	-0.212
-133.370	306.486	0.016	0.030
-132.356	148.622	0.079	0.105
-131.341	800.000	-0.126	0.431
-130.326	701.918	-0.117	0.302
-129.312	-200.000	0.001	0.217
-128.297	-200.000	-0.054	0.242
-127.283	64.956	0.056	0.056
-126.268	-200.000	0.012	0.148
-125.253	218.595	-0.164	0.258
-124.239	256.040	0.081	0.137
-123.224	277.099	0.047	0.082
-122.210	-109.414	0.225	0.047
-121.195	-112.832	0.211	0.041
