DTS Sentinel unit serial number:	SN413079Multiplexer serial number:	ORYXHardware model number:	OX4-SRSoftware version number:	ORYX F/W v4.00 Oryx Data Collector v3.7.2.0data status	okinstallation	princeton_trtdifferential loss correction	single-endedforward channel	channel 1reverse channel	N/Adate	2019/09/11time	15:40:11forward acquisition time	60.00reverse acquisition time	0.00gamma	496.2192k internal	0.2291k external	0.2291temperature offset calibration	0.9991default loss term (dB/km)	0.3790temperature slope calibration	1.0000multiplexer offset coefficient	1.0000multiplexer slope coefficient	1.0000fibre end	0.00T internal ref (°C)	42.81T ext. ref 1 (°C)	1.00T ext. ref 2 (°C)	37.41length (m)	temperature (°C)	Stokes	anti-Stokes-747.200	95.069	-0.052	-0.061
-746.185	-149.460	-0.087	-0.007
-745.171	-163.031	0.434	-0.022
-744.156	2.958	-0.376	0.280
-743.142	-126.768	-0.047	-0.007
-742.127	97.338	-0.249	0.293
-741.112	-200.000	0.015	0.566
-740.098	-166.504	-0.023	0.001
-739.083	-200.000	-0.029	0.256
-738.069	-37.240	-0.339	-0.186
-737.054	-153.586	-0.544	-0.038
-736.039	-149.030	-0.183	-0.015
-735.025	89.205	0.249	0.283
-734.010	39.629	0.320	-0.294
-732.996	-67.476	-0.083	-0.033
-731.981	-200.000	0.075	0.410
-730.966	-126.105	-0.363	0.056
-729.952	-55.043	-0.259	-0.119
-728.937	-104.278	0.171	0.040
-727.923	-200.000	0.032	-0.358
-726.908	-14.477	0.224	-0.148
-725.894	800.000	-0.044	-0.128
-724.879	112.120	-0.215	0.266
-723.864	-68.100	0.319	0.127
-722.850	-105.635	-0.255	0.059
-721.835	-17.106	-0.159	0.103
-720.821	273.422	-0.090	-0.163
-719.806	-28.161	0.181	0.107
-718.791	75.687	0.041	0.045
-717.777	35.558	-0.142	0.128
-716.762	-7.191	-0.413	-0.287
-715.748	-39.339	0.112	-0.060
-714.733	800.000	0.028	-0.111
-713.718	-57.650	0.435	0.195
-712.704	800.000	0.014	0.042
-711.689	4.022	0.213	-0.159
-710.675	142.401	-0.147	-0.200
-709.660	-200.000	0.025	0.307
-708.645	74.172	-0.353	-0.379
-707.631	20.736	0.103	0.086
-706.616	800.000	0.100	0.298
-705.602	-200.000	-0.058	0.303
-704.587	800.000	0.050	-0.189
-703.572	11.436	-0.164	-0.129
-702.558	-146.506	-0.356	0.032
-701.543	-200.000	0.047	0.597
-700.529	800.000	-0.062	-0.252
-699.514	-79.653	0.325	-0.112
-698.499	-125.534	-0.085	0.013
-697.485	144.309	0.089	-0.122
-696.470	-31.999	0.109	0.063
-695.456	-66.953	0.439	-0.177
-694.441	107.086	0.159	-0.193
-693.426	-156.295	-0.207	-0.013
-692.412	-200.000	-0.014	0.173
-691.397	-190.499	-0.180	-0.002
-690.383	-67.851	0.195	0.078
-689.368	471.252	-0.065	-0.150
-688.354	0.211	-0.300	0.219
-687.339	102.239	0.182	0.218
-686.324	-200.000	0.068	-0.314
-685.310	-200.000	-0.003	0.015
-684.295	-33.507	0.136	0.077
-683.281	-127.707	-0.301	-0.044
-682.266	-99.567	0.013	0.003
-681.251	148.603	-0.164	-0.227
-680.237	-50.214	0.358	-0.173
-679.222	257.146	0.171	0.300
-678.208	-15.668	0.110	-0.072
-677.193	-200.000	-0.005	-0.066
-676.178	7.032	0.234	-0.178
-675.164	9.533	0.006	0.004
-674.149	1.948	0.138	0.102
-673.135	-69.838	-0.112	-0.044
-672.120	-43.501	-0.361	0.186
-671.105	475.691	-0.108	-0.249
-670.091	-133.570	-0.166	-0.021
-669.076	-57.529	-0.272	-0.122
-668.062	-139.655	-0.383	-0.042
-667.047	-147.991	-0.193	-0.016
-666.032	23.185	0.067	0.056
-665.018	15.568	-0.206	0.165
-664.003	-128.839	0.327	0.047
-662.989	-153.451	-0.209	0.015
-661.974	-2.128	0.086	0.061
-660.959	-49.022	0.198	0.097
-659.945	-200.000	-0.013	-0.178
-658.930	-200.000	-0.132	-0.644
-657.916	-200.000	0.010	-0.091
-656.901	338.732	0.037	-0.073
-655.886	-92.099	-0.331	-0.095
-654.872	71.356	0.224	-0.237
-653.857	469.013	0.132	-0.302
-652.843	13.125	0.108	0.085
-651.828	316.023	-0.076	-0.147
-650.814	-200.000	0.003	-0.060
-649.799	-41.799	0.277	-0.145
-648.784	-94.171	-0.273	0.076
-647.770	269.612	-0.086	0.155
-646.755	-86.972	-0.161	-0.050
-645.741	800.000	-0.109	0.452
-644.726	800.000	-0.081	-0.255
-643.711	-200.000	0.001	-0.363
-642.697	800.000	-0.090	-0.373
-641.682	-73.815	-0.111	0.041
-640.668	-47.546	0.482	-0.239
-639.653	-116.041	-0.192	-0.037
-638.638	-0.699	-0.153	0.111
-637.624	77.391	-0.209	-0.226
-636.609	106.607	0.141	0.171
-635.595	177.356	-0.104	-0.155
-634.580	800.000	-0.018	-0.061
-633.565	-200.000	-0.056	-0.341
-632.551	109.331	-0.144	-0.176
-631.536	-59.853	-0.175	-0.076
-630.522	260.265	-0.143	-0.252
-629.507	-96.186	-0.282	-0.076
-628.492	-148.258	-0.333	0.028
-627.478	-53.381	0.296	-0.138
-626.463	-34.208	0.152	0.085
-625.449	-127.025	0.273	-0.041
-624.434	118.906	-0.208	-0.262
-623.419	154.284	0.151	-0.212
-622.405	-110.271	0.431	-0.091
-621.390	42.346	-0.282	0.261
-620.376	-116.454	0.121	-0.023
-619.361	-200.000	0.005	0.022
-618.346	-80.197	0.223	0.076
-617.332	-165.306	0.327	0.015
-616.317	-5.595	0.083	-0.058
-615.303	800.000	-0.074	0.218
-614.288	800.000	-0.105	-0.391
-613.273	-200.000	-0.003	-0.361
-612.259	-64.705	-0.189	-0.078
-611.244	48.380	-0.066	-0.063
-610.230	-36.536	-0.025	-0.014
-609.215	96.853	0.037	-0.043
-608.201	-200.000	0.009	0.260
-607.186	-95.954	-0.079	-0.022
-606.171	-75.057	0.254	0.093
-605.157	-62.435	0.089	-0.038
-604.142	800.000	0.037	0.114
-603.128	-96.138	0.313	-0.085
-602.113	510.706	-0.037	0.089
-601.098	457.911	0.015	-0.033
-600.084	-154.093	0.278	0.019
-599.069	-42.302	0.272	0.142
-598.055	213.536	-0.061	0.098
-597.040	524.690	0.068	0.164
-596.025	-20.853	-0.214	0.134
-595.011	-200.000	0.009	0.353
-593.996	83.480	-0.050	0.055
-592.982	-200.000	0.031	0.153
-591.967	241.522	0.121	-0.206
-590.952	-112.195	0.463	-0.095
-589.938	-14.994	0.066	0.043
-588.923	-50.175	-0.226	-0.109
-587.909	333.334	0.194	0.382
-586.894	-133.271	-0.112	-0.014
-585.879	-78.282	-0.198	-0.069
-584.865	-90.544	0.076	-0.022
-583.850	333.673	-0.161	-0.317
-582.836	314.320	0.184	-0.352
-581.821	-112.973	0.089	-0.018
-580.806	-200.000	-0.004	-0.242
-579.792	157.807	-0.090	-0.127
-578.777	-103.125	-0.031	0.008
-577.763	58.203	0.152	-0.152
-576.748	-200.000	-0.001	-0.044
-575.733	215.562	0.121	-0.195
-574.719	-11.607	-0.076	-0.051
-573.704	232.598	0.117	0.196
-572.690	-200.000	-0.058	-0.430
-571.675	-200.000	-0.013	-0.241
-570.661	-137.241	-0.296	-0.034
-569.646	408.988	0.180	0.388
-568.631	-17.630	0.107	-0.069
-567.617	665.670	-0.141	0.372
-566.602	327.468	-0.055	-0.106
-565.588	-37.467	0.178	-0.097
-564.573	-151.943	0.377	-0.028
-563.558	-200.000	0.045	0.232
-562.544	-31.142	-0.254	0.146
-561.529	-91.990	-0.166	0.048
-560.515	-104.932	-0.282	-0.066
-559.500	35.146	0.215	-0.191
-558.485	-107.823	0.186	0.041
-557.471	53.055	0.148	-0.144
-556.456	28.871	0.227	0.195
-555.442	54.056	-0.127	0.125
-554.427	-200.000	-0.006	-0.216
-553.412	30.985	0.123	-0.107
-552.398	13.437	0.141	0.111
-551.383	-129.127	-0.151	-0.021
-550.369	10.085	-0.171	-0.132
-549.354	-200.000	0.002	-0.019
-548.339	41.521	-0.051	-0.047
-547.325	800.000	0.049	0.178
-546.310	-200.000	0.006	0.189
-545.296	135.217	-0.216	-0.285
-544.281	-200.000	0.051	0.281
-543.266	54.273	0.114	-0.112
-542.252	-25.936	0.298	-0.178
-541.237	-137.600	0.117	0.013
-540.223	-200.000	0.003	-0.238
-539.208	13.289	-0.352	0.278
-538.193	-200.000	0.004	0.044
-537.179	194.547	-0.266	0.410
-536.164	-135.223	0.180	-0.022
-535.150	-77.884	0.036	0.013
-534.135	-122.039	0.325	0.054
-533.121	-39.812	-0.123	-0.065
-532.106	127.260	-0.055	-0.070
-531.091	-173.990	-0.181	-0.005
-530.077	-169.221	-0.501	0.019
-529.062	365.076	0.076	0.156
-528.048	297.038	-0.068	0.126
-527.033	21.364	-0.096	0.079
-526.018	3.109	-0.114	0.084
-525.004	-200.000	0.001	0.036
-523.989	-4.768	-0.395	0.277
-522.975	151.385	-0.053	-0.073
-521.960	332.072	-0.133	-0.260
-520.945	-134.827	0.339	-0.042
-519.931	7.641	0.368	0.280
-518.916	-109.944	0.257	-0.055
-517.902	140.502	0.139	-0.186
-516.887	351.976	-0.203	0.408
-515.872	800.000	-0.053	0.187
-514.858	-140.213	-0.193	-0.021
-513.843	34.658	-0.185	0.164
-512.829	-55.684	0.367	-0.167
-511.814	-88.213	0.356	0.108
-510.799	-93.187	0.154	-0.043
-509.785	2.935	-0.453	0.334
-508.770	-103.750	0.230	0.055
-507.756	290.950	-0.084	0.156
-506.741	287.325	0.097	0.177
-505.726	107.323	-0.056	0.067
-504.712	800.000	-0.053	0.202
-503.697	-8.646	-0.233	0.159
-502.683	-98.229	0.300	-0.078
-501.668	113.798	0.102	-0.126
-500.653	-167.455	-0.305	-0.012
-499.639	-57.735	0.003	0.001
-498.624	151.542	0.239	0.330
-497.610	190.467	-0.112	-0.171
-496.595	152.208	-0.092	0.128
-495.581	-145.401	-0.026	-0.002
-494.566	-200.000	-0.003	-0.047
-493.551	-200.000	-0.018	0.098
-492.537	800.000	0.035	-0.124
-491.522	-118.710	-0.300	0.054
-490.508	50.885	0.101	0.097
-489.493	119.855	0.175	-0.220
-488.478	800.000	0.042	-0.158
-487.464	350.356	0.134	0.269
-486.449	-26.306	0.229	0.136
-485.435	675.074	0.002	0.006
-484.420	60.791	-0.132	-0.133
-483.405	14.420	0.284	0.224
-482.391	800.000	0.079	0.314
-481.376	-200.000	-0.015	0.478
-480.362	149.684	0.227	0.312
-479.347	428.196	-0.103	-0.225
-478.332	-57.033	0.181	0.081
-477.318	800.000	-0.030	0.121
-476.303	538.051	0.075	-0.181
-475.289	-69.599	0.234	-0.091
-474.274	238.928	-0.038	0.063
-473.259	220.272	-0.080	-0.130
-472.245	-59.408	0.103	0.045
-471.230	101.485	-0.096	0.114
-470.216	-100.749	-0.156	0.039
-469.201	183.814	-0.051	0.076
-468.186	99.672	-0.205	-0.240
-467.172	-200.000	-0.022	0.327
-466.157	141.486	0.057	-0.077
-465.143	10.872	0.156	-0.120
-464.128	656.714	0.017	0.045
-463.113	800.000	0.127	0.417
-462.099	-194.559	0.029	0.000
-461.084	112.693	-0.078	0.095
-460.070	-127.441	-0.202	0.030
-459.055	-200.000	0.037	-0.264
-458.040	28.485	0.312	0.267
-457.026	-75.439	-0.169	0.061
-456.011	-106.686	-0.177	0.040
-454.997	-200.000	0.039	-0.196
-453.982	800.000	0.019	-0.082
-452.968	-200.000	-0.015	0.201
-451.953	318.499	0.105	-0.201
-450.938	250.990	-0.079	-0.136
-449.924	800.000	0.050	-0.187
-448.909	800.000	0.024	0.071
-447.895	26.710	0.228	-0.193
-446.880	-140.721	-0.285	-0.030
-445.865	137.352	0.148	0.196
-444.851	462.010	-0.141	0.317
-443.836	-83.813	0.078	-0.025
-442.822	130.366	-0.089	-0.116
-441.807	-200.000	-0.002	0.041
-440.792	-83.474	-0.084	0.027
-439.778	-200.000	-0.027	-0.244
-438.763	-200.000	-0.014	-0.141
-437.749	800.000	-0.033	0.093
-436.734	-172.657	0.224	0.007
-435.719	10.499	0.276	-0.213
-434.705	-200.000	-0.001	0.092
-433.690	-200.000	0.038	-0.286
-432.676	22.680	-0.116	0.096
-431.661	28.437	0.111	-0.095
-430.646	194.284	-0.074	-0.114
-429.632	-200.000	0.015	0.081
-428.617	241.866	0.278	-0.470
-427.603	-180.556	-0.352	-0.007
-426.588	-13.409	0.306	-0.200
-425.573	-101.415	-0.095	-0.023
-424.559	-69.043	-0.163	0.063
-423.544	-55.055	0.350	-0.160
-422.530	-181.530	-0.135	0.003
-421.515	54.711	-0.262	-0.256
-420.500	-200.000	0.014	-0.222
-419.486	-56.752	0.448	0.200
-418.471	130.445	-0.070	-0.091
-417.457	697.444	-0.107	0.284
-416.442	66.324	-0.063	-0.064
-415.428	-129.177	-0.338	0.048
-414.413	800.000	-0.090	0.267
-413.398	26.070	0.331	0.279
-412.384	-132.282	0.405	0.053
-411.369	-32.504	0.283	0.159
-410.355	-200.000	0.058	-0.336
-409.340	-108.784	-0.146	-0.032
-408.325	323.666	-0.160	0.309
-407.311	800.000	-0.081	-0.317
-406.296	438.846	-0.124	-0.273
-405.282	120.043	0.108	-0.135
-404.267	16.726	-0.172	-0.138
-403.252	222.425	-0.111	-0.181
-402.238	-55.673	0.278	-0.126
-401.223	-85.032	-0.138	-0.044
-400.209	-64.542	-0.483	0.198
-399.194	-200.000	0.011	0.226
-398.179	-64.143	0.007	0.003
-397.165	30.162	0.107	0.093
-396.150	64.198	-0.013	-0.013
-395.136	-109.348	-0.163	0.035
-394.121	800.000	0.154	-0.502
-393.106	-156.273	-0.223	-0.014
-392.092	-17.224	0.262	-0.167
-391.077	800.000	0.047	0.155
-390.063	116.898	0.223	-0.276
-389.048	-52.886	-0.082	0.038
-388.033	-200.000	0.064	-0.501
-387.019	47.295	-0.083	-0.078
-386.004	601.810	-0.130	0.326
-384.990	-200.000	0.005	0.052
-383.975	-16.969	0.272	-0.173
-382.960	-200.000	0.044	-0.356
-381.946	-3.972	0.148	-0.103
-380.931	-164.268	0.187	0.009
-379.917	404.541	0.099	-0.211
-378.902	404.361	-0.204	0.433
-377.888	149.636	0.202	0.276
-376.873	-200.000	-0.021	0.261
-375.858	800.000	-0.048	0.146
-374.844	-200.000	-0.001	0.237
-373.829	-200.000	0.030	-0.189
-372.815	-200.000	-0.001	0.012
-371.800	-200.000	0.019	-0.214
-370.785	157.542	-0.025	-0.035
-369.771	612.315	-0.193	-0.487
-368.756	17.833	0.168	-0.135
-367.742	220.886	0.037	0.060
-366.727	-91.552	0.027	-0.008
-365.712	33.760	0.314	0.275
-364.698	-200.000	0.047	0.231
-363.683	61.962	0.170	0.171
-362.669	-200.000	-0.001	0.098
-361.654	495.818	-0.004	0.009
-360.639	241.146	0.237	0.400
-359.625	138.875	0.141	0.187
-358.610	606.071	0.042	0.107
-357.596	-105.082	0.381	-0.088
-356.581	800.000	-0.093	0.272
-355.566	-47.916	-0.294	0.143
-354.552	204.610	0.100	0.156
-353.537	800.000	-0.081	0.282
-352.523	98.590	0.107	-0.124
-351.508	-27.559	-0.102	-0.060
-350.493	42.201	-0.163	0.149
-349.479	185.485	-0.118	-0.176
-348.464	26.349	0.089	-0.075
-347.450	800.000	0.071	-0.244
-346.435	-77.029	0.253	-0.089
-345.420	-1.500	-0.378	0.269
-344.406	800.000	0.038	-0.127
-343.391	5.858	-0.263	-0.196
-342.377	328.232	-0.051	-0.099
-341.362	-86.864	0.152	-0.047
-340.348	-29.218	-0.132	-0.076
-339.333	-200.000	0.007	0.063
-338.318	-51.843	0.142	0.067
-337.304	-200.000	-0.031	-0.250
-336.289	644.686	0.058	0.148
-335.275	-82.271	-0.194	-0.064
-334.260	-200.000	0.048	0.293
-333.245	800.000	-0.045	0.196
-332.231	800.000	0.065	-0.251
-331.216	-95.881	0.289	-0.078
-330.202	399.949	0.162	-0.342
-329.187	93.290	-0.045	-0.051
-328.172	68.376	0.128	-0.132
-327.158	-112.499	0.219	0.044
-326.143	-200.000	-0.159	0.000
-325.129	-200.000	0.024	-0.158
-324.114	62.472	0.193	0.195
-323.099	-14.919	-0.253	0.164
-322.085	-200.000	0.075	0.442
-321.070	800.000	-0.019	-0.061
-320.056	-46.175	-0.195	-0.096
-319.041	800.000	-0.101	-0.337
-318.026	167.565	-0.141	-0.202
-317.012	-128.453	-0.223	-0.032
-315.997	-200.000	0.027	-0.125
-314.983	313.012	-0.108	-0.204
-313.968	800.000	0.063	0.211
-312.953	-176.763	0.121	0.003
-311.939	237.341	-0.105	-0.175
-310.924	-137.294	0.202	0.023
-309.910	-200.000	-0.027	0.309
-308.895	800.000	0.057	-0.224
-307.880	575.407	0.116	-0.286
-306.866	-46.732	-0.141	-0.070
-305.851	91.607	-0.197	-0.223
-304.837	-200.000	0.022	0.228
-303.822	-91.645	-0.288	-0.083
-302.807	120.738	0.297	-0.372
-301.793	312.957	-0.144	-0.272
-300.778	-200.000	-0.004	0.085
-299.764	221.271	-0.221	-0.357
-298.749	-102.221	-0.185	-0.045
-297.735	-93.792	-0.260	-0.072
-296.720	-166.173	0.174	-0.007
-295.705	709.478	-0.107	-0.285
-294.691	-200.000	-0.016	-0.072
-293.676	800.000	-0.046	0.175
-292.662	-35.457	0.300	0.164
-291.647	-102.477	-0.119	0.029
-290.632	-55.183	0.285	0.129
-289.618	-128.423	0.138	-0.020
-288.603	800.000	0.011	-0.042
-287.589	472.215	0.046	0.105
-286.574	800.000	-0.087	0.358
-285.559	-72.230	-0.320	0.119
-284.545	-200.000	-0.014	0.105
-283.530	53.611	-0.240	0.232
-282.516	-102.831	0.085	0.020
-281.501	-200.000	0.037	-0.551
-280.486	-68.315	-0.216	0.084
-279.472	497.215	0.078	-0.180
-278.457	98.386	-0.083	-0.096
-277.443	800.000	0.014	-0.053
-276.428	-200.000	-0.029	0.326
-275.413	-51.631	-0.270	0.126
-274.399	-114.645	-0.373	-0.072
-273.384	-200.000	-0.012	0.309
-272.370	-112.088	-0.099	-0.020
-271.355	-103.780	0.083	0.020
-270.340	-46.341	-0.132	-0.065
-269.326	-10.376	-0.105	-0.070
-268.311	-200.000	-0.009	0.351
-267.297	48.385	0.193	0.182
-266.282	375.683	0.119	-0.245
-265.267	144.983	-0.092	-0.123
-264.253	693.186	0.092	0.244
-263.238	262.597	0.121	-0.210
-262.224	-200.000	-0.033	-0.264
-261.209	206.678	0.162	-0.253
-260.195	52.344	0.127	-0.122
-259.180	39.224	0.213	-0.192
-258.165	7.451	-0.223	0.168
-257.151	-175.198	0.013	-0.000
-256.136	-123.105	-0.211	-0.034
-255.122	-175.403	-0.310	-0.009
-254.107	800.000	0.040	-0.151
-253.092	-192.507	0.310	0.003
-252.078	103.763	0.097	-0.114
-251.063	146.808	-0.082	-0.110
-250.049	-166.246	0.269	0.011
-249.034	800.000	0.094	0.263
-248.019	-8.017	0.168	0.114
-247.005	-95.518	-0.108	0.029
-245.990	-200.000	0.060	0.360
-244.976	-172.752	0.480	0.015
-243.961	-200.000	0.200	0.000
-242.946	-48.049	0.072	0.035
-241.932	20.364	-0.281	0.228
-240.917	-184.576	0.433	-0.007
-239.903	67.286	-0.167	0.171
-238.888	-65.436	-0.246	-0.099
-237.873	362.211	0.021	0.043
-236.859	248.082	0.073	-0.123
-235.844	438.592	0.076	0.167
-234.830	539.484	0.084	0.201
-233.815	293.866	0.217	0.398
-232.800	800.000	-0.080	-0.290
-231.786	10.909	-0.074	-0.057
-230.771	51.464	0.163	-0.155
-229.757	-129.272	-0.105	-0.015
-228.742	-50.851	0.129	0.061
-227.727	230.607	0.071	-0.116
-226.713	4.198	-0.093	0.068
-225.698	26.667	-0.180	-0.151
-224.684	800.000	-0.055	-0.198
-223.669	-121.931	-0.168	0.028
-222.655	-47.669	-0.206	0.101
-221.640	-29.690	0.075	-0.043
-220.625	-106.344	0.232	0.052
-219.611	-79.523	0.077	-0.026
-218.596	32.076	-0.267	0.231
-217.582	26.428	-0.256	-0.214
-216.567	800.000	-0.091	0.282
-215.552	-184.215	-0.009	0.000
-214.538	-163.722	-0.213	0.010
-213.523	-200.000	0.016	-0.138
-212.509	11.059	0.100	0.077
-211.494	800.000	-0.107	0.305
-210.479	129.606	-0.162	0.208
-209.465	800.000	0.041	-0.119
-208.450	-200.000	0.027	-0.258
-207.436	148.138	0.098	0.132
-206.421	-20.417	-0.089	0.055
-205.406	344.818	-0.255	0.502
-204.392	61.753	0.081	-0.081
-203.377	800.000	-0.102	-0.358
-202.363	12.881	-0.122	-0.094
-201.348	645.638	-0.019	-0.048
-200.333	26.550	-0.173	-0.145
-199.319	-200.000	0.032	-0.387
-198.304	-45.804	-0.326	-0.162
-197.290	-27.158	0.330	0.193
-196.275	-104.909	0.156	0.036
-195.260	800.000	0.115	0.342
-194.246	-200.000	0.040	-0.228
-193.231	-180.943	-0.205	0.004
-192.217	-200.000	0.020	0.273
-191.202	-200.000	0.134	0.590
-190.187	-8.670	0.040	-0.027
-189.173	800.000	-0.074	0.218
-188.158	-200.000	-0.144	0.001
-187.144	-69.663	-0.204	-0.078
-186.129	470.129	-0.084	-0.189
-185.114	3.584	0.249	-0.182
-184.100	35.597	-0.151	-0.133
-183.085	800.000	0.064	-0.205
-182.071	-133.831	-0.157	0.020
-181.056	-157.912	0.168	-0.010
-180.042	-200.000	0.043	0.265
-179.027	113.216	-0.091	0.110
-178.012	474.143	0.122	0.275
-176.998	-200.000	-0.026	-0.162
-175.983	-200.000	0.016	0.115
-174.969	518.938	-0.127	0.299
-173.954	-116.668	-0.065	-0.012
-172.939	-200.000	0.039	-0.253
-171.925	-171.738	-0.277	-0.009
-170.910	32.502	-0.116	0.101
-169.896	-200.000	-0.034	0.371
-168.881	36.266	0.161	0.142
-167.866	17.748	-0.066	-0.053
-166.852	-31.142	-0.135	0.076
-165.837	-200.000	-0.010	-0.195
-164.823	-22.732	-0.181	0.109
-163.808	-200.000	-0.294	-0.001
-162.793	-200.000	0.018	0.128
-161.779	-82.250	0.078	0.025
-160.764	-200.000	-0.050	0.242
-159.750	727.869	-0.031	-0.082
-158.735	-129.470	-0.212	-0.029
-157.720	795.735	-0.092	-0.254
-156.706	443.030	0.031	0.067
-155.691	-89.726	-0.348	0.102
-154.677	-135.248	0.193	0.023
-153.662	-200.000	-0.022	-0.263
-152.647	60.247	0.108	-0.107
-151.633	114.543	-0.138	0.168
-150.618	10.974	-0.112	0.086
-149.604	-200.000	0.028	-0.310
-148.589	304.039	-0.080	-0.149
-147.574	-15.933	0.329	-0.209
-146.560	-200.000	0.012	0.125
-145.545	-109.287	0.123	0.026
-144.531	77.875	0.089	-0.095
-143.516	59.948	0.272	0.268
-142.502	-41.631	-0.087	0.044
-141.487	-21.777	0.308	0.188
-140.472	-96.080	0.151	-0.040
-139.458	-108.025	0.326	-0.071
-138.443	-157.625	-0.149	0.009
-137.429	800.000	0.071	-0.219
-136.414	140.516	0.190	-0.251
-135.399	800.000	0.010	-0.032
-134.385	-115.691	0.146	0.027
-133.370	106.273	0.060	0.071
-132.356	-53.609	-0.136	-0.062
-131.341	81.679	-0.289	-0.312
-130.326	-127.194	-0.061	-0.009
-129.312	92.052	0.217	0.245
-128.297	48.474	-0.067	0.063
-127.283	-125.971	-0.359	-0.054
-126.268	17.172	-0.115	0.091
-125.253	220.682	0.141	-0.226
-124.239	193.822	-0.078	0.118
-123.224	60.356	0.039	-0.038
-122.210	235.357	-0.021	-0.034
