DTS Sentinel unit serial number:	SN413079Multiplexer serial number:	ORYXHardware model number:	OX4-SRSoftware version number:	ORYX F/W v4.00 Oryx Data Collector v3.7.2.0data status	okinstallation	princeton_trtdifferential loss correction	single-endedforward channel	channel 1reverse channel	N/Adate	2019/09/12time	11:32:11forward acquisition time	60.00reverse acquisition time	0.00gamma	496.2192k internal	0.2294k external	0.2294temperature offset calibration	1.0040default loss term (dB/km)	0.3790temperature slope calibration	1.0000multiplexer offset coefficient	1.0000multiplexer slope coefficient	1.0000fibre end	0.00T internal ref (°C)	39.42T ext. ref 1 (°C)	1.96T ext. ref 2 (°C)	36.53length (m)	temperature (°C)	Stokes	anti-Stokes-747.200	-90.051	-0.264	-0.079
-746.185	65.216	-0.202	-0.209
-745.171	-94.353	-0.389	-0.109
-744.156	-200.000	0.029	0.222
-743.142	800.000	0.073	0.291
-742.127	-200.000	0.006	0.094
-741.112	-181.142	0.417	-0.009
-740.098	284.403	0.245	0.450
-739.083	158.356	-0.126	0.179
-738.069	800.000	0.032	-0.132
-737.054	-124.924	-0.197	0.031
-736.039	4.549	-0.373	0.280
-735.025	-73.162	0.063	0.024
-734.010	204.067	0.103	-0.163
-732.996	800.000	-0.017	0.055
-731.981	800.000	0.116	0.428
-730.966	501.837	-0.105	0.248
-729.952	-129.247	-0.287	0.041
-728.937	114.233	0.218	-0.271
-727.923	-200.000	-0.013	-0.195
-726.908	-200.000	-0.064	-0.297
-725.894	-145.987	-0.070	0.006
-724.879	515.461	-0.111	0.265
-723.864	-59.345	0.133	0.058
-722.850	-63.749	-0.274	0.115
-721.835	-3.596	-0.081	-0.057
-720.821	-95.379	-0.246	-0.068
-719.806	800.000	-0.134	-0.393
-718.791	361.651	-0.138	0.283
-717.777	800.000	0.109	-0.323
-716.762	-17.215	0.187	0.120
-715.748	-76.883	0.373	-0.133
-714.733	60.561	-0.230	-0.232
-713.718	87.566	-0.176	-0.199
-712.704	-13.198	-0.116	-0.077
-711.689	-16.848	-0.074	-0.048
-710.675	35.862	-0.237	0.213
-709.660	-102.992	0.022	-0.005
-708.645	60.274	0.128	-0.129
-707.631	-18.168	-0.287	0.183
-706.616	-200.000	0.005	0.119
-705.602	-55.942	-0.141	-0.064
-704.587	-200.000	-0.033	-0.158
-703.572	-52.753	-0.243	0.114
-702.558	-88.572	-0.145	-0.044
-701.543	59.883	-0.111	-0.112
-700.529	-21.541	0.216	-0.134
-699.514	91.867	-0.126	0.145
-698.499	68.575	-0.282	-0.295
-697.485	-200.000	0.010	0.391
-696.470	-8.573	-0.267	-0.183
-695.456	369.473	-0.093	0.191
-694.441	-44.212	0.130	0.067
-693.426	-135.224	0.284	0.035
-692.412	-25.478	-0.284	0.171
-691.397	-23.380	-0.279	0.171
-690.383	85.484	0.057	0.063
-689.368	-200.000	-0.050	0.318
-688.354	800.000	-0.079	-0.295
-687.339	-68.476	-0.161	-0.064
-686.324	98.896	-0.215	0.253
-685.310	-200.000	-0.066	0.297
-684.295	675.380	0.026	-0.068
-683.281	-154.310	0.200	0.014
-682.266	-93.653	-0.324	0.091
-681.251	-45.921	-0.210	-0.106
-680.237	-63.966	0.293	-0.122
-679.222	629.888	0.144	-0.370
-678.208	-84.891	-0.144	0.046
-677.193	800.000	0.021	0.094
-676.178	-200.000	0.000	0.020
-675.164	-200.000	-0.185	0.000
-674.149	-200.000	0.027	0.289
-673.135	-86.127	-0.154	-0.049
-672.120	-32.490	-0.165	-0.094
-671.105	253.138	0.184	0.320
-670.091	148.937	-0.159	0.219
-669.076	370.413	-0.090	0.186
-668.062	5.894	-0.216	0.163
-667.047	64.454	0.172	-0.177
-666.032	658.095	-0.149	0.390
-665.018	94.267	-0.094	-0.109
-664.003	173.868	-0.057	0.084
-662.989	-120.280	0.081	0.014
-661.974	13.615	0.148	-0.117
-660.959	50.089	-0.092	0.089
-659.945	499.268	-0.071	-0.167
-658.930	506.683	0.061	0.145
-657.916	-200.000	0.034	-0.160
-656.901	-63.224	-0.108	0.045
-655.886	-111.831	-0.257	0.053
-654.872	96.382	-0.226	0.263
-653.857	98.076	0.066	-0.077
-652.843	3.842	-0.256	-0.190
-651.828	-60.845	-0.242	0.105
-650.814	-12.230	0.122	-0.081
-649.799	154.995	0.090	-0.126
-648.784	-156.898	0.134	-0.008
-647.770	-200.000	0.013	-0.085
-646.755	800.000	-0.025	0.102
-645.741	-4.683	-0.064	-0.045
-644.726	171.177	0.208	0.303
-643.711	418.852	-0.099	0.215
-642.697	170.827	-0.055	-0.081
-641.682	-53.324	-0.192	-0.090
-640.668	800.000	0.130	-0.469
-639.653	-106.268	-0.185	-0.042
-638.638	-26.826	0.217	0.129
-637.624	-200.000	-0.034	-0.429
-636.609	77.425	0.268	-0.290
-635.595	177.393	-0.206	-0.306
-634.580	66.253	-0.260	0.269
-633.565	134.002	-0.169	0.223
-632.551	176.584	0.083	-0.123
-631.536	-101.860	-0.156	-0.038
-630.522	-200.000	0.017	0.184
-629.507	216.591	-0.129	0.209
-628.492	-115.224	0.090	-0.017
-627.478	118.069	0.271	0.340
-626.463	17.507	-0.270	0.219
-625.449	-200.000	-0.028	0.416
-624.434	800.000	0.159	0.703
-623.419	-76.245	0.207	-0.074
-622.405	-89.198	0.294	0.088
-621.390	800.000	0.082	-0.249
-620.376	34.084	0.163	-0.144
-619.361	235.526	-0.042	-0.071
-618.346	-200.000	-0.061	-0.401
-617.332	66.222	0.205	-0.212
-616.317	92.407	-0.194	0.223
-615.303	251.720	0.218	0.378
-614.288	-16.712	0.113	0.073
-613.273	92.546	-0.305	-0.350
-612.259	101.440	-0.310	-0.368
-611.244	34.930	-0.249	-0.221
-610.230	-76.238	-0.101	-0.036
-609.215	26.170	-0.254	-0.216
-608.201	-31.631	-0.300	-0.171
-607.186	800.000	0.074	-0.307
-606.171	26.188	0.113	0.096
-605.157	-200.000	0.017	-0.131
-604.142	-44.248	-0.198	-0.101
-603.128	-27.620	0.119	0.071
-602.113	-156.532	-0.362	-0.023
-601.098	63.065	-0.237	0.242
-600.084	80.583	-0.023	-0.026
-599.069	469.243	-0.059	0.134
-598.055	235.003	-0.160	0.269
-597.040	134.109	-0.191	0.251
-596.025	-200.000	0.018	-0.086
-595.011	-93.217	0.110	0.031
-593.996	-200.000	-0.004	0.084
-592.982	37.421	-0.122	-0.110
-591.967	800.000	-0.088	-0.347
-590.952	150.952	-0.085	0.117
-589.938	-200.000	0.009	0.222
-588.923	-200.000	0.007	-0.171
-587.909	9.575	-0.198	0.153
-586.894	-200.000	-0.064	0.312
-585.879	627.752	0.087	0.225
-584.865	-84.378	0.155	0.050
-583.850	-200.000	-0.051	0.234
-582.836	-84.456	-0.282	-0.090
-581.821	107.525	-0.125	-0.151
-580.806	19.516	0.170	-0.139
-579.792	-70.279	-0.242	-0.093
-578.777	150.913	-0.078	0.108
-577.763	-200.000	-0.028	0.473
-576.748	120.072	0.226	0.285
-575.733	73.311	-0.095	-0.101
-574.719	-126.002	0.373	-0.057
-573.704	-69.717	0.128	-0.050
-572.690	-200.000	-0.021	-0.134
-571.675	-200.000	0.002	-0.070
-570.661	57.045	0.179	0.178
-569.646	168.384	0.075	-0.109
-568.631	-57.235	0.031	0.014
-567.617	-200.000	-0.092	0.543
-566.602	-200.000	-0.041	0.501
-565.588	800.000	0.081	0.277
-564.573	677.311	0.125	0.330
-563.558	-89.625	0.309	-0.092
-562.544	125.351	-0.172	0.220
-561.529	-96.573	-0.085	-0.023
-560.515	-176.210	0.214	-0.006
-559.500	30.569	0.047	0.041
-558.485	-120.926	0.350	-0.060
-557.471	23.963	0.304	0.255
-556.456	-182.000	-0.221	0.004
-555.442	-142.003	0.149	-0.015
-554.427	-125.476	0.503	-0.078
-553.412	-55.595	0.106	0.048
-552.398	-161.869	-0.076	-0.004
-551.383	800.000	0.089	0.255
-550.369	48.826	0.226	0.215
-549.354	-23.072	-0.281	-0.172
-548.339	800.000	-0.054	-0.206
-547.325	712.040	-0.084	-0.224
-546.310	-200.000	-0.040	-0.264
-545.296	800.000	0.075	-0.270
-544.281	-159.709	0.260	-0.015
-543.266	11.107	-0.237	0.184
-542.252	244.471	-0.084	-0.144
-541.237	-41.084	-0.137	0.072
-540.223	430.101	0.139	0.305
-539.208	338.357	-0.168	-0.332
-538.193	429.226	0.147	-0.323
-537.179	6.777	0.098	-0.074
-536.164	-200.000	-0.018	-0.202
-535.150	-200.000	-0.086	-0.392
-534.135	-31.502	0.128	-0.073
-533.121	241.547	0.079	0.135
-532.106	31.083	0.148	-0.129
-531.091	462.800	-0.112	-0.253
-530.077	75.858	0.204	0.219
-529.062	-145.549	0.006	0.001
-528.048	800.000	0.115	-0.341
-527.033	-127.702	0.047	0.007
-526.018	256.841	-0.092	0.161
-525.004	340.394	-0.084	-0.167
-523.989	392.451	-0.033	-0.069
-522.975	112.909	0.242	-0.297
-521.960	800.000	0.038	-0.148
-520.945	-200.000	0.025	-0.146
-519.931	-10.064	0.222	-0.149
-518.916	-111.490	0.132	-0.027
-517.902	202.072	-0.161	-0.251
-516.887	-14.842	-0.344	-0.224
-515.872	800.000	-0.036	0.124
-514.858	56.995	0.157	0.155
-513.843	-200.000	-0.041	0.217
-512.829	-200.000	0.059	-0.313
-511.814	-163.804	-0.096	0.005
-510.799	65.244	-0.164	-0.168
-509.785	-53.508	0.117	0.054
-508.770	159.831	-0.175	0.247
-507.756	164.390	0.061	0.088
-506.741	-34.088	-0.136	-0.076
-505.726	225.501	0.169	-0.277
-504.712	-74.829	-0.142	-0.052
-503.697	-200.000	0.041	-0.263
-502.683	-100.053	0.122	0.031
-501.668	107.883	0.078	0.094
-500.653	55.685	-0.119	-0.116
-499.639	-97.911	-0.253	-0.066
-498.624	-200.000	-0.097	0.522
-497.610	-48.220	0.172	0.084
-496.595	-66.538	-0.112	-0.045
-495.581	-200.000	0.032	0.361
-494.566	119.169	-0.084	0.106
-493.551	-200.000	0.016	0.140
-492.537	-200.000	-0.040	-0.491
-491.522	-200.000	-0.040	0.318
-490.508	215.118	0.117	0.188
-489.493	-121.339	0.199	-0.034
-488.478	318.108	-0.124	-0.239
-487.464	-90.603	0.253	-0.074
-486.449	322.257	0.130	0.251
-485.435	-62.252	-0.136	-0.057
-484.420	9.432	0.116	-0.089
-483.405	5.664	-0.167	-0.125
-482.391	-190.994	0.136	0.001
-481.376	-11.826	0.096	0.064
-480.362	-200.000	0.017	-0.108
-479.347	800.000	-0.057	0.192
-478.332	130.227	-0.047	0.061
-477.318	81.718	-0.239	0.262
-476.303	800.000	0.071	-0.211
-475.289	-56.913	-0.068	0.031
-474.274	800.000	0.011	-0.041
-473.259	-39.732	-0.346	0.183
-472.245	800.000	-0.107	-0.412
-471.230	-200.000	0.096	-0.447
-470.216	84.232	-0.112	-0.124
-469.201	34.689	0.084	0.075
-468.186	800.000	-0.052	0.206
-467.172	-152.622	-0.286	-0.021
-466.157	-166.996	0.074	0.003
-465.143	-12.645	-0.111	-0.073
-464.128	-200.000	0.015	-0.281
-463.113	-66.119	0.185	-0.075
-462.099	-200.000	-0.023	0.121
-461.084	800.000	0.002	-0.009
-460.070	489.479	-0.070	0.161
-459.055	136.873	-0.244	-0.322
-458.040	163.959	0.044	0.063
-457.026	-200.000	-0.063	-0.282
-456.011	53.112	-0.157	-0.152
-454.997	305.340	-0.026	0.048
-453.982	-156.850	-0.039	-0.002
-452.968	-46.816	0.180	0.089
-451.953	241.611	0.255	-0.431
-450.938	-101.697	-0.221	-0.054
-449.924	-200.000	0.015	-0.082
-448.909	-39.047	0.318	-0.169
-447.895	18.023	0.088	0.071
-446.880	-200.000	-0.013	0.066
-445.865	-200.000	-0.070	0.341
-444.851	-37.419	0.221	0.119
-443.836	800.000	0.062	-0.199
-442.822	-12.448	-0.345	0.228
-441.807	-158.747	-0.093	-0.005
-440.792	-127.948	0.056	0.008
-439.778	401.661	0.006	-0.013
-438.763	-131.839	-0.192	-0.025
-437.749	792.672	-0.037	-0.104
-436.734	-24.987	-0.200	-0.120
-435.719	-149.846	0.182	-0.014
-434.705	-181.855	-0.210	-0.004
-433.690	681.930	-0.056	-0.146
-432.676	800.000	0.110	-0.415
-431.661	44.994	-0.273	0.254
-430.646	-101.931	-0.108	0.026
-429.632	-19.258	0.469	0.294
-428.617	-141.721	-0.327	-0.033
-427.603	47.519	-0.160	-0.151
-426.588	11.160	-0.158	-0.122
-425.573	-200.000	0.003	0.043
-424.559	-31.507	-0.328	0.186
-423.544	-78.718	-0.017	0.006
-422.530	-3.751	0.385	-0.270
-421.515	173.173	-0.142	0.206
-420.500	-80.664	-0.088	-0.030
-419.486	69.147	0.092	-0.096
-418.471	-10.738	-0.119	-0.079
-417.457	-200.000	-0.023	0.186
-416.442	10.817	-0.063	-0.049
-415.428	-200.000	-0.008	-0.236
-414.413	-90.623	0.223	0.065
-413.398	-56.546	-0.100	0.045
-412.384	-123.446	-0.302	-0.049
-411.369	-200.000	0.033	0.334
-410.355	-41.316	-0.119	-0.062
-409.340	-53.634	-0.210	0.097
-408.325	-158.472	0.162	0.009
-407.311	264.163	0.102	-0.179
-406.296	-131.402	-0.069	0.009
-405.282	-39.782	0.094	0.050
-404.267	-44.042	0.278	0.141
-403.252	319.582	0.121	-0.231
-402.238	-146.354	-0.261	-0.023
-401.223	-126.340	0.115	-0.017
-400.209	-94.904	0.174	-0.048
-399.194	51.537	0.097	0.093
-398.179	65.061	0.153	-0.156
-397.165	-80.243	-0.234	-0.079
-396.150	163.676	-0.057	-0.081
-395.136	618.262	-0.039	-0.099
-394.121	-87.138	-0.187	-0.057
-393.106	-200.000	0.052	0.245
-392.092	800.000	0.081	0.253
-391.077	800.000	-0.052	-0.187
-390.063	-200.000	-0.064	-0.392
-389.048	-100.140	0.360	-0.090
-388.033	274.309	-0.146	0.261
-387.019	58.163	0.092	-0.091
-386.004	-200.000	-0.097	0.451
-384.990	-113.186	0.110	0.022
-383.975	435.158	-0.018	0.039
-382.960	279.374	0.182	0.328
-381.946	-111.972	0.424	0.086
-380.931	-17.511	0.184	-0.117
-379.917	140.097	0.042	0.056
-378.902	-161.262	0.155	0.008
-377.888	-69.150	0.017	0.006
-376.873	-200.000	0.040	-0.189
-375.858	-200.000	-0.040	-0.315
-374.844	-107.647	-0.077	0.017
-373.829	-135.031	0.108	-0.013
-372.815	800.000	0.083	0.315
-371.800	800.000	-0.066	0.287
-370.785	800.000	0.038	0.152
-369.771	-200.000	0.006	0.212
-368.756	-90.303	0.440	0.129
-367.742	-111.752	-0.171	0.035
-366.727	-100.546	-0.178	0.044
-365.712	-120.731	0.093	-0.016
-364.698	-2.601	0.046	0.032
-363.683	800.000	0.082	-0.324
-362.669	304.543	0.113	-0.211
-361.654	205.906	-0.152	0.238
-360.639	55.532	0.200	-0.195
-359.625	-200.000	-0.007	0.090
-358.610	-114.249	0.142	-0.028
-357.596	-40.590	-0.182	0.095
-356.581	797.367	0.109	0.302
-355.566	245.500	0.063	0.106
-354.552	-134.039	-0.169	0.021
-353.537	-43.416	0.184	-0.094
-352.523	37.766	0.193	-0.173
-351.508	-12.599	-0.207	-0.136
-350.493	119.955	-0.276	-0.345
-349.479	-82.784	-0.191	0.062
-348.464	-17.478	0.375	-0.238
-347.450	416.020	-0.069	-0.149
-346.435	800.000	0.095	-0.416
-345.420	-44.316	-0.186	0.094
-344.406	-45.887	0.145	-0.072
-343.391	-200.000	0.033	0.250
-342.377	234.404	-0.073	0.122
-341.362	-200.000	0.013	0.176
-340.348	800.000	0.067	0.251
-339.333	-50.359	0.308	-0.147
-338.318	47.184	0.230	0.215
-337.304	89.629	-0.086	-0.096
-336.289	-120.176	0.171	-0.029
-335.275	-189.206	0.145	0.002
-334.260	114.061	-0.012	0.015
-333.245	-64.034	0.286	0.117
-332.231	-200.000	0.044	0.194
-331.216	-200.000	-0.012	-0.102
-330.202	-85.544	0.226	-0.071
-329.187	-200.000	0.059	-0.312
-328.172	-110.250	-0.004	-0.001
-327.158	-200.000	0.015	0.151
-326.143	107.663	-0.145	0.173
-325.129	800.000	0.082	0.310
-324.114	26.464	-0.336	-0.283
-323.099	-134.689	0.051	0.006
-322.085	-146.834	-0.265	0.023
-321.070	351.684	0.017	-0.034
-320.056	-200.000	-0.015	-0.308
-319.041	22.129	-0.240	0.197
-318.026	130.554	-0.049	0.063
-317.012	375.222	0.186	-0.381
-315.997	-137.416	0.217	-0.025
-314.983	203.197	0.079	-0.122
-313.968	66.530	-0.110	0.112
-312.953	498.543	-0.190	0.440
-311.939	800.000	-0.035	0.148
-310.924	633.514	0.051	-0.131
-309.910	-106.591	0.216	0.048
-308.895	-80.068	-0.152	-0.051
-307.880	-200.000	-0.035	0.205
-306.866	188.169	0.085	0.128
-305.851	180.094	-0.158	0.233
-304.837	-101.982	-0.234	-0.057
-303.822	30.246	-0.228	-0.195
-302.807	26.102	0.132	0.110
-301.793	-26.939	0.287	0.168
-300.778	-65.395	-0.284	-0.115
-299.764	-1.033	-0.045	-0.032
-298.749	502.529	0.038	-0.088
-297.735	-121.567	0.429	-0.072
-296.720	36.506	0.203	0.180
-295.705	-17.331	0.252	-0.159
-294.691	683.680	0.056	-0.147
-293.676	222.889	0.094	0.153
-292.662	67.003	0.083	0.085
-291.647	-26.266	0.072	-0.042
-290.632	-171.051	0.173	0.006
-289.618	-98.779	-0.163	-0.042
-288.603	-200.000	-0.042	-0.258
-287.589	-55.708	0.256	-0.115
-286.574	-105.865	0.041	0.009
-285.559	103.830	-0.058	-0.068
-284.545	251.130	0.162	0.277
-283.530	26.055	0.216	-0.181
-282.516	88.031	0.097	-0.108
-281.501	-200.000	0.032	0.275
-280.486	800.000	0.117	0.348
-279.472	-200.000	0.017	-0.195
-278.457	12.613	-0.378	0.293
-277.443	-146.547	-0.162	-0.014
-276.428	-120.415	-0.227	-0.039
-275.413	800.000	-0.078	0.296
-274.399	747.269	0.022	-0.059
-273.384	42.850	-0.147	0.135
-272.370	-200.000	-0.004	0.083
-271.355	-8.563	-0.334	0.225
-270.340	-124.371	0.332	0.052
-269.326	-137.218	0.347	-0.040
-268.311	800.000	-0.028	-0.117
-267.297	800.000	-0.036	0.132
-266.282	-6.200	-0.181	0.124
-265.267	-200.000	-0.012	0.117
-264.253	43.978	-0.274	0.252
-263.238	-127.796	-0.364	-0.053
-262.224	93.222	0.061	0.069
-261.209	800.000	-0.050	-0.152
-260.195	800.000	0.103	-0.295
-259.180	113.471	0.107	0.131
-258.165	325.687	-0.052	-0.100
-257.151	800.000	-0.027	0.084
-256.136	-97.653	-0.262	-0.068
-255.122	11.742	-0.247	0.191
-254.107	17.003	0.209	-0.166
-253.092	31.232	-0.082	-0.071
-252.078	-70.129	-0.064	0.025
-251.063	-75.562	-0.180	0.064
-250.049	192.094	0.062	0.094
-249.034	-138.894	0.076	0.008
-248.019	24.725	0.039	-0.032
-247.005	800.000	-0.087	0.288
-245.990	-200.000	0.002	0.112
-244.976	-150.938	-0.494	-0.037
-243.961	-200.000	-0.003	0.088
-242.946	119.187	-0.156	-0.193
-241.932	-200.000	0.010	-0.161
-240.917	330.782	0.145	-0.281
-239.903	-200.000	0.033	-0.184
-238.888	336.965	-0.056	0.109
-237.873	327.019	-0.202	0.388
-236.859	800.000	0.049	-0.196
-235.844	-138.260	-0.222	-0.025
-234.830	-200.000	-0.026	0.121
-233.815	-200.000	-0.039	-0.266
-232.800	121.798	0.071	0.089
-231.786	800.000	0.050	0.166
-230.771	-72.406	-0.361	-0.134
-229.757	-28.928	-0.049	-0.028
-228.742	-1.625	-0.223	-0.157
-227.727	-49.325	0.318	-0.152
-226.713	-73.551	-0.137	-0.050
-225.698	174.093	-0.029	0.042
-224.684	-200.000	0.000	0.324
-223.669	-71.156	0.304	-0.114
-222.655	122.372	0.181	0.226
-221.640	-117.982	0.383	0.069
-220.625	-191.295	-0.135	-0.001
-219.611	721.945	-0.098	-0.262
-218.596	-81.785	-0.179	-0.059
-217.582	148.839	0.177	-0.240
-216.567	-19.681	-0.284	-0.176
-215.552	419.178	0.140	0.301
-214.538	-76.805	-0.305	0.107
-213.523	22.502	-0.059	-0.048
-212.509	-70.712	0.211	-0.080
-211.494	-35.666	-0.233	-0.127
-210.479	497.812	-0.068	-0.158
-209.465	-73.960	0.223	-0.081
-208.450	-103.568	-0.358	-0.084
-207.436	59.974	-0.014	-0.014
-206.421	190.611	0.098	0.147
-205.406	-120.409	-0.121	0.021
-204.392	-200.000	-0.031	0.138
-203.377	143.655	-0.082	0.109
-202.363	-200.000	0.046	-0.217
-201.348	127.953	0.247	0.315
-200.333	-84.910	-0.070	0.022
-199.319	-135.981	0.128	0.015
-198.304	358.983	-0.073	0.146
-197.290	800.000	0.095	-0.284
-196.275	-200.000	-0.022	0.116
-195.260	-200.000	-0.010	0.207
-194.246	535.654	-0.058	-0.138
-193.231	142.339	-0.167	-0.222
-192.217	160.150	0.220	-0.307
-191.202	-67.489	-0.357	0.140
-190.187	159.112	0.143	0.199
-189.173	-72.219	0.282	-0.104
-188.158	-60.470	0.400	0.170
-187.144	-198.057	-0.118	0.001
-186.129	-200.000	0.019	0.319
-185.114	85.456	-0.030	-0.033
-184.100	-200.000	-0.041	-0.210
-183.085	84.531	-0.258	0.282
-182.071	-127.031	-0.094	0.014
-181.056	179.309	0.088	-0.129
-180.042	66.032	-0.055	0.056
-179.027	-59.668	-0.012	-0.005
-178.012	-68.984	0.154	-0.060
-176.998	92.335	-0.035	0.040
-175.983	-200.000	0.008	0.151
-174.969	-200.000	0.025	-0.220
-173.954	2.508	-0.090	-0.065
-172.939	441.649	-0.132	-0.289
-171.925	800.000	0.029	-0.112
-170.910	9.840	0.072	0.055
-169.896	116.093	0.252	0.308
-168.881	-137.106	-0.215	-0.025
-167.866	65.750	-0.149	-0.151
-166.852	-54.846	0.046	0.021
-165.837	-190.516	0.320	-0.003
-164.823	93.263	0.109	0.123
-163.808	25.417	0.194	-0.161
-162.793	-86.209	0.246	-0.076
-161.779	-69.826	0.144	0.055
-160.764	-28.826	-0.213	0.122
-159.750	-116.204	0.129	-0.024
-158.735	60.210	-0.102	-0.101
-157.720	-40.765	0.156	-0.081
-156.706	800.000	0.049	-0.178
-155.691	-200.000	-0.031	0.165
-154.677	-52.564	0.120	0.056
-153.662	-133.036	-0.409	-0.052
-152.647	800.000	0.112	0.315
-151.633	-131.943	-0.063	-0.008
-150.618	-30.499	-0.193	-0.109
-149.604	339.692	-0.126	-0.245
-148.589	115.502	-0.034	0.042
-147.574	-92.277	-0.159	0.045
-146.560	24.229	-0.293	-0.242
-145.545	1.271	0.248	0.178
-144.531	38.516	-0.111	-0.099
-143.516	402.360	-0.110	-0.231
-142.502	538.636	-0.117	-0.277
-141.487	-130.126	-0.116	-0.016
-140.472	-200.000	0.033	0.160
-139.458	1.230	-0.305	-0.219
-138.443	-61.866	0.351	-0.147
-137.429	57.633	0.034	-0.033
-136.414	-1.382	0.053	-0.037
-135.399	-52.483	-0.183	-0.085
-134.385	-43.611	-0.332	0.167
-133.370	166.274	0.192	-0.272
-132.356	-46.395	0.154	-0.075
-131.341	-56.419	-0.294	-0.130
-130.326	206.222	0.025	-0.038
-129.312	800.000	0.032	0.106
-128.297	239.366	-0.092	0.153
-127.283	39.668	0.117	0.105
-126.268	-102.307	-0.131	-0.031
-125.253	75.944	0.133	-0.140
-124.239	-200.000	0.017	0.225
-123.224	141.141	0.059	-0.078
-122.210	800.000	-0.063	-0.252
