DTS Sentinel unit serial number:	SN413079Multiplexer serial number:	ORYXHardware model number:	OX4-SRSoftware version number:	ORYX F/W v4.00 Oryx Data Collector v3.7.2.0data status	okinstallation	princeton_trtdifferential loss correction	single-endedforward channel	channel 1reverse channel	N/Adate	2019/09/14time	06:42:36forward acquisition time	60.00reverse acquisition time	0.00gamma	496.2192k internal	0.2337k external	0.2337temperature offset calibration	1.0081default loss term (dB/km)	0.3790temperature slope calibration	1.0000multiplexer offset coefficient	1.0000multiplexer slope coefficient	1.0000fibre end	0.00T internal ref (°C)	26.31T ext. ref 1 (°C)	3.41T ext. ref 2 (°C)	20.53length (m)	temperature (°C)	Stokes	anti-Stokes-747.200	412.816	-0.101	0.216
-746.185	-176.514	0.126	-0.003
-745.171	104.836	0.188	0.222
-744.156	69.791	0.149	0.154
-743.142	-46.942	0.465	0.228
-742.127	389.847	0.138	0.287
-741.112	189.972	-0.152	0.228
-740.098	2.541	0.098	0.071
-739.083	-155.929	0.166	0.011
-738.069	-136.633	0.069	0.008
-737.054	-200.000	-0.029	0.137
-736.039	-59.099	-0.181	-0.078
-735.025	-134.476	-0.365	-0.045
-734.010	84.515	-0.189	-0.207
-732.996	-143.441	-0.362	-0.035
-731.981	-122.730	0.450	0.073
-730.966	-50.241	-0.110	0.052
-729.952	63.691	-0.131	-0.132
-728.937	677.111	0.096	-0.251
-727.923	134.370	-0.106	-0.138
-726.908	-107.468	-0.378	0.083
-725.894	164.690	-0.124	-0.175
-724.879	-200.000	-0.038	-0.236
-723.864	83.753	-0.099	-0.108
-722.850	-146.978	-0.285	-0.025
-721.835	-40.866	0.130	0.067
-720.821	102.774	0.154	0.180
-719.806	800.000	0.009	0.026
-718.791	-4.176	0.131	-0.091
-717.777	64.240	0.124	-0.125
-716.762	447.390	0.067	-0.148
-715.748	-200.000	0.024	-0.188
-714.733	-200.000	0.085	-0.399
-713.718	187.711	-0.037	-0.056
-712.704	40.347	0.213	-0.192
-711.689	55.855	-0.123	0.120
-710.675	-101.276	-0.141	-0.035
-709.660	-76.559	-0.036	-0.013
-708.645	800.000	-0.095	0.340
-707.631	-27.249	0.219	-0.128
-706.616	-161.420	0.073	0.004
-705.602	800.000	0.032	0.110
-704.587	730.849	-0.133	-0.355
-703.572	-77.464	-0.208	0.072
-702.558	800.000	-0.128	0.496
-701.543	-146.860	-0.299	0.026
-700.529	217.528	0.081	0.129
-699.514	62.233	0.137	-0.137
-698.499	471.964	0.116	0.262
-697.485	246.405	-0.152	-0.256
-696.470	-179.121	0.030	-0.001
-695.456	484.818	-0.101	-0.231
-694.441	-128.317	-0.174	-0.025
-693.426	100.005	0.100	-0.117
-692.412	309.286	0.108	-0.202
-691.397	-6.085	-0.306	-0.209
-690.383	47.333	0.042	-0.039
-689.368	93.436	-0.095	0.108
-688.354	800.000	-0.092	0.288
-687.339	-200.000	-0.027	-0.160
-686.324	-18.078	-0.082	-0.052
-685.310	-106.852	-0.163	0.036
-684.295	-141.825	-0.208	0.021
-683.281	-59.844	0.271	0.116
-682.266	-71.239	0.133	-0.050
-681.251	98.562	0.066	0.077
-680.237	-66.057	-0.290	0.116
-679.222	-32.317	0.374	0.209
-678.208	-64.057	0.016	-0.006
-677.193	72.867	0.131	0.137
-676.178	800.000	0.059	-0.178
-675.164	-200.000	0.000	-0.144
-674.149	218.198	-0.045	0.072
-673.135	-200.000	0.028	-0.394
-672.120	-200.000	-0.040	0.250
-671.105	486.162	0.053	0.121
-670.091	-171.022	-0.190	0.006
-669.076	118.822	-0.134	-0.166
-668.062	-200.000	-0.199	0.001
-667.047	-200.000	0.014	-0.187
-666.032	29.208	0.178	0.151
-665.018	-43.694	0.054	0.027
-664.003	-48.029	0.255	0.123
-662.989	-42.415	-0.078	0.040
-661.974	-129.649	-0.237	0.033
-660.959	63.472	0.155	0.156
-659.945	-138.711	-0.012	0.001
-658.930	-41.274	-0.238	-0.123
-657.916	-28.772	0.171	0.098
-656.901	-186.906	-0.181	-0.003
-655.886	113.259	-0.164	0.199
-654.872	-95.050	0.421	-0.114
-653.857	-80.858	-0.218	-0.073
-652.843	-35.703	-0.175	-0.095
-651.828	800.000	-0.072	-0.221
-650.814	252.198	0.098	-0.167
-649.799	-46.165	0.151	0.074
-648.784	-200.000	-0.004	0.147
-647.770	128.247	0.164	0.209
-646.755	-13.426	-0.295	0.192
-645.741	-110.500	0.138	-0.029
-644.726	-107.727	0.241	-0.053
-643.711	-24.239	-0.209	0.125
-642.697	-200.000	0.040	-0.314
-641.682	-53.456	0.214	-0.098
-640.668	-152.114	-0.186	-0.013
-639.653	145.926	-0.142	0.190
-638.638	454.849	0.062	-0.137
-637.624	-158.292	-0.338	0.020
-636.609	171.051	-0.093	0.133
-635.595	-95.538	0.139	-0.037
-634.580	127.144	0.040	-0.051
-633.565	51.118	0.132	0.125
-632.551	142.852	-0.082	-0.109
-631.536	19.429	0.142	0.114
-630.522	-90.293	-0.429	0.125
-629.507	-200.000	-0.004	-0.041
-628.492	-200.000	0.076	-0.509
-627.478	-145.700	-0.159	-0.014
-626.463	-200.000	0.003	0.368
-625.449	-200.000	-0.007	-0.106
-624.434	276.082	-0.058	0.103
-623.419	652.614	-0.099	0.253
-622.405	86.912	0.033	-0.037
-621.390	800.000	-0.065	-0.217
-620.376	-49.938	0.159	0.075
-619.361	-163.548	0.083	-0.004
-618.346	-54.450	0.177	-0.080
-617.332	64.892	0.175	0.176
-616.317	-200.000	-0.074	0.355
-615.303	800.000	0.058	0.230
-614.288	5.314	-0.068	-0.050
-613.273	-106.469	-0.216	-0.048
-612.259	-104.592	-0.275	0.063
-611.244	-158.447	0.158	-0.009
-610.230	29.992	-0.053	-0.045
-609.215	800.000	0.066	-0.196
-608.201	-80.462	0.272	-0.091
-607.186	-57.537	-0.317	0.139
-606.171	256.820	0.149	0.256
-605.157	229.740	0.174	-0.284
-604.142	-187.555	0.066	-0.001
-603.128	-41.232	0.456	0.235
-602.113	-30.039	0.176	-0.100
-601.098	-200.000	0.088	-0.404
-600.084	186.502	-0.142	-0.211
-599.069	129.600	0.115	-0.146
-598.055	-124.274	0.243	-0.038
-597.040	-200.000	0.047	0.325
-596.025	416.110	0.073	-0.155
-595.011	-24.409	-0.256	-0.152
-593.996	191.935	0.120	0.181
-592.982	-200.000	-0.009	-0.088
-591.967	-167.419	-0.315	-0.013
-590.952	-129.038	-0.320	-0.045
-589.938	60.258	0.345	-0.340
-588.923	-1.565	0.296	0.208
-587.909	240.948	0.195	0.324
-586.894	-41.014	0.250	0.129
-585.879	-101.106	-0.105	0.026
-584.865	-166.875	0.157	0.006
-583.850	24.220	-0.157	0.129
-582.836	-200.000	-0.022	-0.202
-581.821	-28.161	-0.210	-0.121
-580.806	-60.793	-0.049	0.021
-579.792	-121.187	0.197	-0.033
-578.777	-114.881	-0.036	0.007
-577.763	800.000	-0.042	-0.159
-576.748	-200.000	-0.006	0.037
-575.733	-79.709	-0.211	-0.071
-574.719	265.563	0.117	-0.204
-573.704	-200.000	-0.015	-0.176
-572.690	-105.471	-0.555	-0.126
-571.675	244.657	0.177	0.297
-570.661	-132.464	0.189	-0.024
-569.646	-200.000	-0.014	0.138
-568.631	147.098	-0.179	0.240
-567.617	-133.392	-0.149	-0.019
-566.602	26.054	-0.185	-0.154
-565.588	7.042	-0.120	-0.090
-564.573	253.234	-0.065	-0.110
-563.558	-12.615	0.178	-0.116
-562.544	-187.487	-0.351	0.005
-561.529	15.370	-0.230	-0.180
-560.515	123.667	0.103	-0.129
-559.500	800.000	-0.093	-0.332
-558.485	-4.898	0.245	-0.168
-557.471	101.311	-0.156	0.181
-556.456	-34.523	0.241	0.131
-555.442	-130.532	0.335	-0.045
-554.427	48.104	0.030	0.028
-553.412	-116.571	-0.399	0.073
-552.398	11.977	-0.162	-0.124
-551.383	-20.173	-0.288	-0.177
-550.369	-108.667	0.210	-0.045
-549.354	-166.401	-0.458	-0.019
-548.339	800.000	-0.025	-0.103
-547.325	-131.086	-0.209	-0.028
-546.310	230.918	0.230	-0.375
-545.296	-182.698	0.131	-0.002
-544.281	-129.325	-0.251	0.035
-543.266	-200.000	-0.003	0.161
-542.252	-22.071	0.250	-0.151
-541.237	103.280	0.150	-0.176
-540.223	-37.318	0.234	-0.125
-539.208	-58.242	-0.042	0.018
-538.193	-49.304	-0.256	0.122
-537.179	-122.411	0.249	0.040
-536.164	90.866	-0.217	0.242
-535.150	-200.000	-0.015	-0.146
-534.135	-131.513	0.246	0.032
-533.121	222.381	-0.122	0.195
-532.106	-200.000	0.161	0.000
-531.091	482.510	-0.171	-0.388
-530.077	-200.000	-0.018	-0.137
-529.062	26.496	-0.209	0.174
-528.048	-179.246	-0.399	0.009
-527.033	469.576	-0.209	0.468
-526.018	-195.057	-0.342	0.003
-525.004	-200.000	0.181	-0.000
-523.989	-200.000	-0.007	-0.046
-522.975	-200.000	0.007	-0.051
-521.960	-154.253	-0.333	-0.022
-520.945	-200.000	-0.047	0.214
-519.931	78.821	0.048	-0.051
-518.916	280.414	-0.184	0.327
-517.902	-200.000	-0.028	-0.135
-516.887	-53.443	0.128	0.058
-515.872	800.000	0.085	0.237
-514.858	-200.000	0.002	0.023
-513.843	-67.749	-0.060	0.023
-512.829	-52.741	0.094	-0.043
-511.814	331.226	0.028	0.053
-510.799	800.000	0.098	0.368
-509.785	800.000	0.079	0.291
-508.770	-200.000	-0.010	-0.113
-507.756	773.356	-0.141	0.382
-506.741	59.993	0.206	-0.202
-505.726	53.106	0.177	-0.169
-504.712	-24.214	0.089	-0.053
-503.697	-34.324	-0.134	0.073
-502.683	-190.553	0.361	0.004
-501.668	-23.877	-0.244	-0.145
-500.653	-23.391	-0.201	-0.120
-499.639	-11.496	0.282	-0.185
-498.624	-41.450	0.240	-0.123
-497.610	-200.000	-0.023	-0.238
-496.595	204.414	-0.120	-0.184
-495.581	505.881	-0.178	0.411
-494.566	-30.352	0.042	0.024
-493.551	-114.917	0.149	-0.028
-492.537	800.000	0.060	-0.187
-491.522	-113.182	0.248	-0.049
-490.508	-200.000	0.011	0.128
-489.493	405.760	-0.074	0.155
-488.478	420.246	-0.095	0.203
-487.464	30.326	0.060	0.051
-486.449	-151.212	0.309	0.023
-485.435	-150.803	0.200	0.015
-484.420	800.000	-0.032	0.101
-483.405	-48.656	-0.101	0.048
-482.391	-105.607	0.169	0.038
-481.376	800.000	-0.035	0.136
-480.362	-200.000	0.001	0.390
-479.347	437.740	-0.014	-0.030
-478.332	-92.765	-0.417	-0.116
-477.318	800.000	-0.055	0.212
-476.303	-200.000	-0.042	0.238
-475.289	164.525	-0.119	0.166
-474.274	204.477	0.065	-0.100
-473.259	-200.000	-0.019	-0.145
-472.245	-54.954	-0.223	0.100
-471.230	190.734	0.181	0.270
-470.216	-114.279	0.291	-0.056
-469.201	800.000	-0.054	-0.198
-468.186	-3.327	-0.181	0.125
-467.172	800.000	0.087	-0.256
-466.157	-176.774	-0.230	0.006
-465.143	321.214	0.101	-0.191
-464.128	-200.000	-0.031	-0.295
-463.113	800.000	-0.071	0.276
-462.099	-200.000	-0.048	0.360
-461.084	-163.400	-0.450	-0.021
-460.070	-200.000	0.041	-0.345
-459.055	800.000	-0.021	0.086
-458.040	-85.880	-0.216	-0.066
-457.026	-65.944	-0.095	0.038
-456.011	-200.000	-0.018	-0.124
-454.997	-167.780	-0.108	-0.004
-453.982	-36.059	-0.120	0.065
-452.968	-113.425	-0.138	-0.027
-451.953	-200.000	0.039	0.203
-450.938	-14.562	-0.241	0.154
-449.924	800.000	-0.108	-0.373
-448.909	19.669	0.141	0.112
-447.895	-75.921	-0.177	0.062
-446.880	230.679	0.099	0.161
-445.865	-51.554	0.149	0.069
-444.851	-55.769	0.282	-0.125
-443.836	-41.327	-0.348	-0.178
-442.822	28.641	0.139	-0.117
-441.807	273.050	-0.154	0.269
-440.792	-110.825	0.041	-0.008
-439.778	-86.407	-0.357	-0.109
-438.763	-200.000	0.039	0.348
-437.749	-45.774	0.210	0.103
-436.734	-200.000	-0.035	-0.318
-435.719	210.782	-0.126	-0.196
-434.705	-115.944	-0.141	-0.026
-433.690	-200.000	-0.030	0.288
-432.676	165.950	-0.229	0.322
-431.661	-26.209	0.078	-0.046
-430.646	-78.026	-0.250	-0.085
-429.632	214.659	0.089	-0.140
-428.617	173.745	0.098	0.140
-427.603	241.242	0.039	-0.065
-426.588	-120.743	0.260	0.044
-425.573	172.428	0.242	-0.346
-424.559	-62.424	0.043	-0.018
-423.544	-200.000	0.034	0.318
-422.530	-63.018	0.266	-0.109
-421.515	75.401	0.178	0.186
-420.500	800.000	0.041	0.125
-419.486	-200.000	0.046	-0.289
-418.471	282.293	0.026	-0.046
-417.457	-200.000	-0.033	-0.172
-416.442	-113.927	-0.201	0.039
-415.428	-60.690	0.149	0.063
-414.413	-86.607	0.145	0.044
-413.398	208.466	-0.104	-0.161
-412.384	-124.559	-0.273	-0.042
-411.369	51.527	-0.179	0.168
-410.355	-200.000	-0.022	0.257
-409.340	-200.000	-0.008	-0.117
-408.325	-200.000	0.040	-0.251
-407.311	-200.000	0.029	-0.304
-406.296	-109.901	-0.180	-0.037
-405.282	-29.091	0.102	0.058
-404.267	264.570	-0.163	-0.282
-403.252	800.000	0.180	-0.611
-402.238	-114.677	0.147	-0.028
-401.223	-134.026	0.088	-0.011
-400.209	-200.000	0.006	-0.207
-399.194	-188.961	-0.398	0.005
-398.179	192.443	0.063	0.094
-397.165	800.000	-0.010	0.032
-396.150	44.060	0.126	-0.114
-395.136	-23.309	-0.138	0.082
-394.121	-140.866	0.173	0.018
-393.106	22.578	0.146	0.118
-392.092	-78.524	0.267	-0.090
-391.077	650.328	-0.139	0.352
-390.063	56.039	-0.194	-0.186
-389.048	-113.645	-0.052	0.010
-388.033	-200.000	0.014	-0.113
-387.019	391.226	-0.160	-0.328
-386.004	-200.000	0.055	-0.366
-384.990	-177.501	-0.441	-0.011
-383.975	-82.365	-0.129	-0.042
-382.960	-155.332	0.136	0.009
-381.946	800.000	0.050	0.187
-380.931	-50.247	0.121	-0.057
-379.917	35.418	-0.073	-0.064
-378.902	-96.439	0.211	-0.055
-377.888	-32.056	0.060	0.033
-376.873	-100.276	0.207	0.051
-375.858	465.927	0.079	0.175
-374.844	800.000	-0.108	0.361
-373.829	-114.538	0.163	-0.031
-372.815	800.000	-0.073	-0.259
-371.800	-200.000	0.004	-0.026
-370.785	-83.342	-0.318	-0.101
-369.771	667.150	-0.024	-0.060
-368.756	-149.434	0.244	-0.019
-367.742	-148.607	-0.229	0.018
-366.727	-200.000	0.035	0.267
-365.712	800.000	-0.049	-0.188
-364.698	-135.631	0.160	-0.019
-363.683	800.000	0.066	-0.189
-362.669	-54.717	-0.132	0.059
-361.654	135.438	-0.121	-0.156
-360.639	800.000	0.124	-0.402
-359.625	166.441	0.090	0.126
-358.610	-63.902	-0.305	0.124
-357.596	513.711	-0.083	0.192
-356.581	-11.517	0.218	0.142
-355.566	28.937	-0.046	0.039
-354.552	453.987	-0.102	0.224
-353.537	800.000	0.078	-0.217
-352.523	46.014	0.075	-0.069
-351.508	-67.089	0.146	-0.057
-350.493	-15.458	0.163	-0.103
-349.479	-200.000	0.057	0.265
-348.464	131.460	-0.022	-0.028
-347.450	-75.084	0.339	-0.120
-346.435	-147.256	0.224	0.019
-345.420	800.000	0.048	0.139
-344.406	-74.217	0.242	-0.086
-343.391	-169.994	-0.120	0.004
-342.377	-135.219	0.213	0.025
-341.362	-200.000	0.004	0.239
-340.348	201.113	-0.124	0.188
-339.333	-109.355	-0.261	0.055
-338.318	800.000	-0.129	-0.519
-337.304	-26.085	0.232	-0.135
-336.289	-36.544	0.242	0.129
-335.275	6.477	-0.064	-0.047
-334.260	-1.168	0.180	-0.126
-333.245	47.477	-0.152	0.140
-332.231	-53.202	-0.393	-0.178
-331.216	-27.813	0.277	0.159
-330.202	120.049	0.210	-0.257
-329.187	-96.657	-0.440	-0.114
-328.172	800.000	0.061	0.227
-327.158	-96.163	-0.294	-0.077
-326.143	476.960	-0.095	0.213
-325.129	24.061	0.166	0.135
-324.114	800.000	0.041	0.115
-323.099	-161.079	-0.088	-0.005
-322.085	142.376	-0.109	-0.143
-321.070	12.735	0.090	-0.069
-320.056	106.130	0.159	0.186
-319.041	-69.453	0.314	0.119
-318.026	-200.000	0.040	0.223
-317.012	25.761	0.099	0.081
-315.997	261.255	0.123	0.210
-314.983	26.434	0.269	0.222
-313.968	-2.049	0.219	0.152
-312.953	86.346	0.345	0.375
-311.939	-87.166	0.101	-0.030
-310.924	-20.132	0.245	0.149
-309.910	-182.518	0.189	0.003
-308.895	143.558	-0.179	-0.235
-307.880	110.400	-0.045	-0.053
-306.866	-127.791	-0.132	0.019
-305.851	10.246	-0.261	0.196
-304.837	-83.398	0.134	0.042
-303.822	-61.373	-0.046	-0.019
-302.807	48.870	-0.046	-0.043
-301.793	-146.790	0.310	-0.026
-300.778	129.193	0.054	-0.069
-299.764	-200.000	0.006	-0.164
-298.749	-113.431	-0.276	0.053
-297.735	800.000	-0.030	0.107
-296.720	-108.290	0.216	0.046
-295.705	-200.000	0.012	-0.230
-294.691	102.350	-0.211	0.243
-293.676	99.179	0.091	-0.104
-292.662	95.592	-0.219	0.247
-291.647	-29.368	-0.177	0.100
-290.632	800.000	-0.011	0.037
-289.618	-140.629	0.526	0.054
-288.603	75.016	0.065	-0.067
-287.589	-189.117	-0.190	0.002
-286.574	-146.513	0.188	0.016
-285.559	328.658	-0.076	-0.145
-284.545	-5.674	0.360	-0.243
-283.530	-200.000	0.032	-0.159
-282.516	-68.782	-0.136	-0.052
-281.501	-200.000	0.006	0.260
-280.486	155.883	-0.129	-0.175
-279.472	89.840	-0.272	-0.299
-278.457	-200.000	0.008	0.070
-277.443	-200.000	-0.071	-0.315
-276.428	-74.970	-0.032	0.011
-275.413	-92.154	0.199	0.055
-274.399	-189.233	-0.146	0.002
-273.384	800.000	-0.064	0.188
-272.370	-154.666	-0.296	-0.019
-271.355	-158.570	0.287	-0.016
-270.340	-200.000	0.036	0.249
-269.326	-200.000	-0.031	0.224
-268.311	-200.000	0.041	-0.335
-267.297	-200.000	0.024	0.145
-266.282	91.718	-0.145	0.161
-265.267	37.860	0.306	0.268
-264.253	-84.108	-0.231	-0.072
-263.238	-200.000	-0.020	-0.234
-262.224	-111.342	-0.085	-0.017
-261.209	-82.762	-0.198	0.063
-260.195	800.000	0.037	0.143
-259.180	-98.555	-0.194	-0.049
-258.165	-136.824	0.234	-0.027
-257.151	-22.276	-0.244	-0.145
-256.136	-32.334	-0.132	0.073
-255.122	-67.023	-0.120	0.047
-254.107	-99.770	-0.381	-0.094
-253.092	175.103	0.138	-0.197
-252.078	-143.439	0.177	0.017
-251.063	-172.267	-0.193	-0.006
-250.049	6.564	0.269	0.197
-249.034	-24.555	-0.125	0.073
-248.019	-189.002	0.357	-0.004
-247.005	104.139	-0.229	-0.265
-245.990	-86.398	-0.189	-0.057
-244.976	-57.148	-0.279	0.121
-243.961	-125.604	-0.251	-0.037
-242.946	43.771	-0.160	-0.144
-241.932	291.704	0.161	-0.288
-240.917	-115.344	0.172	-0.032
-239.903	-31.669	0.122	-0.068
-238.888	-200.000	0.039	0.181
-237.873	-95.879	0.290	0.076
-236.859	-0.414	0.287	0.201
-235.844	-200.000	0.032	-0.159
-234.830	6.405	-0.292	0.214
-233.815	-102.610	0.068	0.016
-232.800	-117.776	-0.253	-0.045
-231.786	-103.026	0.054	0.013
-230.771	95.178	-0.021	-0.023
-229.757	-200.000	-0.027	0.327
-228.742	-166.603	-0.188	-0.008
-227.727	632.265	-0.138	-0.344
-226.713	186.498	0.076	0.112
-225.698	21.024	0.245	-0.196
-224.684	403.182	-0.153	-0.316
-223.669	-70.135	0.188	-0.070
-222.655	-16.037	0.183	0.114
-221.640	-141.665	-0.106	-0.010
-220.625	-200.000	0.038	-0.197
-219.611	207.414	-0.084	-0.130
-218.596	18.314	-0.107	-0.084
-217.582	-123.117	0.068	0.011
-216.567	-108.132	0.233	0.050
-215.552	-10.206	-0.056	-0.036
-214.538	800.000	-0.054	0.231
-213.523	-200.000	-0.029	-0.357
-212.509	-51.148	0.127	0.058
-211.494	42.831	0.237	-0.212
-210.479	-200.000	-0.072	-0.377
-209.465	25.423	0.108	0.088
-208.450	-69.591	0.124	-0.047
-207.436	71.944	-0.176	-0.180
-206.421	406.081	-0.081	0.168
-205.406	232.059	0.085	0.136
-204.392	-145.683	0.220	-0.019
-203.377	800.000	0.046	0.151
-202.363	-200.000	-0.041	0.261
-201.348	-200.000	-0.006	0.289
-200.333	19.867	0.244	0.194
-199.319	135.670	0.047	-0.060
-198.304	110.032	-0.064	-0.075
-197.290	-90.034	-0.471	0.135
-196.275	408.206	0.110	0.229
-195.260	-127.744	0.170	-0.024
-194.246	-9.830	0.215	-0.141
-193.231	10.080	0.103	0.077
-192.217	464.391	-0.046	0.101
-191.202	23.298	0.119	-0.096
-190.187	14.190	0.234	0.179
-189.173	79.069	0.231	-0.243
-188.158	-85.786	-0.072	0.022
-187.144	1.809	0.150	-0.106
-186.129	50.848	0.096	0.089
-185.114	-123.516	-0.226	0.035
-184.100	42.712	0.138	-0.123
-183.085	-200.000	-0.031	-0.176
-182.071	138.839	0.113	-0.145
-181.056	800.000	-0.073	-0.309
-180.042	-37.735	0.261	0.137
-179.027	34.298	0.218	0.187
-178.012	206.945	0.086	-0.131
-176.998	124.742	-0.037	-0.046
-175.983	-113.328	-0.241	0.046
-174.969	135.974	0.099	0.127
-173.954	-35.581	0.224	-0.119
-172.939	-50.984	-0.204	0.094
-171.925	-200.000	-0.002	0.038
-170.910	800.000	0.054	0.206
-169.896	-45.905	-0.158	0.076
-168.881	19.089	-0.266	-0.209
-167.866	-66.185	0.268	0.105
-166.852	34.565	0.149	-0.128
-165.837	-52.074	0.101	-0.046
-164.823	-63.339	-0.272	-0.110
-163.808	225.792	0.200	-0.318
-162.793	-94.497	-0.125	-0.033
-161.779	800.000	-0.095	0.353
-160.764	-60.062	-0.095	0.040
-159.750	-40.334	0.181	-0.092
-158.735	-62.145	-0.357	0.146
-157.720	726.735	0.050	-0.132
-156.706	48.690	0.211	0.194
-155.691	384.467	0.162	0.328
-154.677	-92.976	-0.285	-0.078
-153.662	-90.542	-0.617	0.175
-152.647	294.485	-0.188	0.337
-151.633	-10.975	0.225	-0.146
-150.618	55.927	0.082	-0.078
-149.604	-200.000	-0.009	0.072
-148.589	-104.738	0.261	0.059
-147.574	800.000	0.087	0.276
-146.560	186.384	-0.108	0.157
-145.545	600.233	0.090	-0.220
-144.531	-98.777	0.145	0.036
-143.516	-200.000	-0.025	-0.196
-142.502	-84.625	-0.114	-0.035
-141.487	800.000	0.072	-0.282
-140.472	-65.628	0.391	0.154
-139.458	-104.931	-0.298	-0.067
-138.443	95.458	-0.048	0.053
-137.429	90.648	-0.121	-0.133
-136.414	-136.009	-0.399	0.046
-135.399	-14.393	-0.153	-0.096
-134.385	800.000	-0.082	-0.247
-133.370	71.808	-0.240	0.244
-132.356	565.116	0.064	-0.153
-131.341	514.103	0.153	0.351
-130.326	-44.839	-0.089	-0.043
-129.312	-30.446	0.120	0.067
-128.297	197.283	-0.028	0.043
-127.283	-120.068	0.209	0.035
-126.268	-200.000	-0.084	-0.503
-125.253	5.075	0.381	-0.275
-124.239	800.000	0.049	0.189
-123.224	0.483	0.233	-0.163
-122.210	224.707	-0.104	-0.165
