DTS Sentinel unit serial number:	SN413079Multiplexer serial number:	ORYXHardware model number:	OX4-SRSoftware version number:	ORYX F/W v4.00 Oryx Data Collector v3.7.2.0data status	okinstallation	princeton_trtdifferential loss correction	single-endedforward channel	channel 1reverse channel	N/Adate	2019/09/19time	01:50:35forward acquisition time	60.00reverse acquisition time	0.00gamma	496.2192k internal	0.2345k external	0.2345temperature offset calibration	1.0016default loss term (dB/km)	0.3790temperature slope calibration	1.0000multiplexer offset coefficient	1.0000multiplexer slope coefficient	1.0000fibre end	0.00T internal ref (°C)	21.37T ext. ref 1 (°C)	0.68T ext. ref 2 (°C)	14.80length (m)	temperature (°C)	Stokes	anti-Stokes-747.200	-68.395	-0.165	-0.064
-746.185	-200.000	0.030	-0.164
-745.171	-155.451	-0.216	-0.014
-744.156	-100.189	-0.251	0.063
-743.142	103.384	0.179	0.210
-742.127	316.895	0.287	0.542
-741.112	-3.343	-0.172	0.120
-740.098	-200.000	-0.050	0.500
-739.083	800.000	0.060	0.192
-738.069	613.282	-0.124	-0.311
-737.054	9.112	0.192	-0.145
-736.039	241.369	-0.195	-0.326
-735.025	-116.681	0.248	-0.046
-734.010	-60.957	-0.361	-0.153
-732.996	-113.920	-0.144	0.028
-731.981	800.000	-0.066	-0.250
-730.966	61.408	-0.458	-0.455
-729.952	-54.480	0.186	-0.084
-728.937	6.522	-0.250	0.186
-727.923	-77.151	-0.099	0.035
-726.908	-45.952	-0.224	-0.110
-725.894	-11.153	-0.060	-0.040
-724.879	800.000	-0.096	-0.378
-723.864	59.126	0.031	-0.031
-722.850	-200.000	-0.031	0.137
-721.835	-13.280	-0.235	-0.153
-720.821	697.859	-0.201	0.529
-719.806	-16.839	0.113	0.071
-718.791	-48.550	0.109	-0.053
-717.777	-71.227	-0.237	0.089
-716.762	-50.009	0.231	-0.109
-715.748	-200.000	0.013	-0.083
-714.733	-50.978	-0.185	0.087
-713.718	692.147	-0.111	-0.290
-712.704	800.000	0.095	-0.350
-711.689	-200.000	-0.031	0.317
-710.675	-111.586	0.029	0.006
-709.660	-75.071	-0.137	0.049
-708.645	91.120	0.067	-0.075
-707.631	-81.481	-0.146	-0.048
-706.616	800.000	0.059	0.166
-705.602	-110.268	-0.080	-0.017
-704.587	-200.000	0.011	-0.284
-703.572	-200.000	0.015	-0.116
-702.558	5.310	0.217	0.160
-701.543	-200.000	-0.003	-0.178
-700.529	-128.267	-0.346	0.049
-699.514	-90.840	-0.128	0.037
-698.499	-64.074	0.060	-0.024
-697.485	-15.086	-0.293	0.188
-696.470	-106.820	-0.316	0.070
-695.456	177.551	0.111	-0.162
-694.441	-55.912	0.499	0.222
-693.426	96.380	0.181	0.207
-692.412	-153.219	-0.208	0.015
-691.397	-51.273	0.065	0.030
-690.383	-73.197	-0.162	0.059
-689.368	-200.000	0.029	-0.498
-688.354	-39.490	0.460	-0.241
-687.339	2.088	-0.165	0.119
-686.324	-40.422	0.215	0.112
-685.310	145.267	0.210	0.281
-684.295	800.000	-0.012	0.043
-683.281	296.571	0.210	-0.385
-682.266	800.000	-0.073	0.203
-681.251	21.906	0.098	0.079
-680.237	461.344	0.077	0.171
-679.222	318.602	0.046	0.087
-678.208	-115.181	-0.220	0.042
-677.193	-110.460	0.331	-0.068
-676.178	130.419	0.080	-0.103
-675.164	-200.000	0.003	0.166
-674.149	-51.594	-0.164	0.076
-673.135	-158.288	0.171	0.010
-672.120	-34.341	-0.122	-0.067
-671.105	800.000	-0.100	0.298
-670.091	-57.573	-0.240	-0.105
-669.076	-147.208	-0.266	-0.023
-668.062	-7.857	-0.100	0.067
-667.047	126.441	0.103	-0.130
-666.032	224.597	0.075	-0.121
-665.018	-159.551	-0.244	-0.014
-664.003	312.280	0.057	-0.107
-662.989	6.232	-0.264	0.195
-661.974	-78.659	-0.294	0.100
-660.959	208.230	-0.166	-0.258
-659.945	131.507	-0.186	-0.239
-658.930	-200.000	0.012	-0.163
-657.916	-200.000	0.051	-0.402
-656.901	-59.114	-0.235	0.101
-655.886	-143.223	0.517	-0.050
-654.872	-200.000	0.013	-0.313
-653.857	800.000	-0.102	0.293
-652.843	-200.000	-0.024	0.430
-651.828	215.361	0.136	-0.215
-650.814	372.017	0.019	-0.039
-649.799	-103.887	0.201	0.047
-648.784	-46.015	0.290	-0.143
-647.770	246.447	-0.049	0.083
-646.755	-200.000	-0.011	0.142
-645.741	201.225	0.072	0.110
-644.726	650.430	0.021	0.054
-643.711	-200.000	0.048	0.277
-642.697	-200.000	0.027	0.130
-641.682	-25.203	-0.079	0.047
-640.668	-50.195	-0.255	-0.120
-639.653	282.654	-0.065	-0.116
-638.638	495.563	-0.168	-0.384
-637.624	-124.615	0.067	-0.010
-636.609	234.512	-0.037	-0.060
-635.595	-200.000	0.011	-0.212
-634.580	-11.342	-0.127	0.083
-633.565	800.000	0.017	-0.061
-632.551	12.385	-0.074	-0.057
-631.536	800.000	-0.064	-0.208
-630.522	800.000	-0.064	-0.245
-629.507	43.199	0.212	-0.193
-628.492	-200.000	0.025	-0.155
-627.478	800.000	-0.027	0.114
-626.463	-200.000	-0.040	-0.598
-625.449	134.864	0.112	-0.145
-624.434	-200.000	0.001	0.036
-623.419	-178.917	0.098	0.002
-622.405	-200.000	-0.047	0.372
-621.390	-121.700	-0.180	-0.030
-620.376	-133.447	-0.217	0.027
-619.361	-116.578	0.263	0.048
-618.346	-0.626	-0.164	-0.116
-617.332	107.667	-0.107	0.127
-616.317	614.057	-0.032	-0.079
-615.303	-200.000	0.052	-0.436
-614.288	135.127	-0.203	-0.263
-613.273	-200.000	0.030	-0.189
-612.259	-200.000	-0.047	0.267
-611.244	433.850	0.051	-0.109
-610.230	-152.243	-0.051	0.004
-609.215	-97.892	-0.164	-0.042
-608.201	-200.000	0.010	-0.277
-607.186	-128.614	0.264	-0.037
-606.171	668.012	-0.021	0.054
-605.157	15.918	-0.068	0.053
-604.142	-143.405	0.234	0.022
-603.128	800.000	0.091	0.354
-602.113	800.000	-0.051	0.196
-601.098	-156.842	-0.136	0.008
-600.084	-43.745	0.027	0.014
-599.069	358.226	-0.021	-0.042
-598.055	22.663	0.083	-0.067
-597.040	800.000	-0.067	-0.205
-596.025	119.326	0.086	-0.106
-595.011	-26.284	0.128	-0.075
-593.996	-80.262	0.299	0.099
-592.982	90.790	0.210	-0.235
-591.967	-200.000	0.031	-0.207
-590.952	-17.341	0.061	0.038
-589.938	45.551	-0.282	-0.259
-588.923	800.000	-0.089	-0.349
-587.909	-118.476	-0.116	-0.021
-586.894	108.883	0.151	-0.179
-585.879	159.466	0.102	-0.142
-584.865	-200.000	0.047	-0.345
-583.850	-200.000	-0.116	-0.519
-582.836	-100.337	-0.202	-0.050
-581.821	-200.000	0.047	-0.421
-580.806	-200.000	-0.008	0.200
-579.792	-125.141	-0.290	0.044
-578.777	-56.361	0.081	0.036
-577.763	-200.000	0.004	-0.017
-576.748	16.042	0.041	-0.032
-575.733	-200.000	0.173	-0.761
-574.719	-22.882	0.288	-0.173
-573.704	800.000	-0.034	-0.142
-572.690	-200.000	-0.004	0.123
-571.675	-55.375	0.272	0.121
-570.661	-13.410	-0.037	-0.024
-569.646	43.242	-0.181	0.164
-568.631	21.613	-0.104	-0.084
-567.617	70.277	0.070	-0.072
-566.602	203.502	0.178	-0.274
-565.588	-200.000	0.003	-0.025
-564.573	-133.427	-0.364	0.045
-563.558	88.789	0.011	0.012
-562.544	-200.000	-0.004	0.237
-561.529	113.923	-0.152	-0.184
-560.515	-200.000	0.096	-0.511
-559.500	-97.005	0.356	-0.093
-558.485	-80.216	-0.126	-0.042
-557.471	-56.770	-0.286	0.126
-556.456	-7.200	-0.159	-0.107
-555.442	24.672	-0.208	-0.171
-554.427	31.640	0.062	-0.053
-553.412	-200.000	0.036	0.229
-552.398	-4.308	0.327	-0.225
-551.383	-200.000	0.013	-0.143
-550.369	-53.303	-0.060	-0.027
-549.354	399.444	0.092	-0.192
-548.339	-79.730	0.007	0.002
-547.325	-56.499	-0.253	0.111
-546.310	131.964	0.161	0.206
-545.296	493.328	0.021	-0.048
-544.281	-97.792	-0.197	0.051
-543.266	335.052	0.218	0.420
-542.252	-136.154	0.207	-0.024
-541.237	31.832	0.312	0.267
-540.223	300.315	-0.033	0.060
-539.208	-200.000	0.020	0.155
-538.193	-200.000	-0.003	0.263
-537.179	39.933	-0.185	0.165
-536.164	-200.000	0.019	0.201
-535.150	-65.363	-0.282	0.113
-534.135	-76.337	-0.122	-0.043
-533.121	-159.321	-0.246	-0.014
-532.106	-21.697	-0.308	0.186
-531.091	-200.000	0.081	0.426
-530.077	528.200	-0.072	-0.169
-529.062	14.441	0.040	0.031
-528.048	447.893	-0.179	-0.390
-527.033	650.029	0.155	0.393
-526.018	-175.385	0.070	0.002
-525.004	-156.117	-0.164	-0.010
-523.989	26.441	0.125	0.104
-522.975	-200.000	-0.002	0.114
-521.960	-112.853	0.081	0.016
-520.945	-200.000	0.006	-0.220
-519.931	66.437	0.062	0.063
-518.916	223.172	-0.195	0.312
-517.902	263.699	-0.035	-0.060
-516.887	558.478	-0.108	0.259
-515.872	43.616	0.230	0.208
-514.858	-91.245	0.449	-0.127
-513.843	251.183	0.095	0.161
-512.829	-113.754	0.171	-0.033
-511.814	-146.052	-0.327	0.029
-510.799	-23.968	0.432	-0.256
-509.785	800.000	0.062	-0.233
-508.770	-200.000	-0.040	0.284
-507.756	102.000	-0.082	0.095
-506.741	210.193	0.159	0.247
-505.726	800.000	0.035	0.123
-504.712	800.000	0.082	0.281
-503.697	194.732	-0.137	0.206
-502.683	-200.000	0.028	0.280
-501.668	-26.762	0.186	-0.108
-500.653	-101.698	-0.022	0.005
-499.639	111.646	0.135	0.162
-498.624	800.000	0.067	-0.252
-497.610	32.938	-0.180	0.154
-496.595	800.000	-0.110	0.424
-495.581	800.000	0.120	0.356
-494.566	-152.203	0.075	-0.005
-493.551	-71.360	-0.490	-0.182
-492.537	-200.000	-0.027	-0.450
-491.522	-200.000	0.009	0.231
-490.508	-85.810	0.095	-0.029
-489.493	800.000	0.081	-0.263
-488.478	60.404	-0.211	0.207
-487.464	-200.000	0.045	0.281
-486.449	-29.955	0.129	-0.073
-485.435	-151.675	0.219	0.016
-484.420	-82.960	-0.205	-0.065
-483.405	-173.266	0.176	0.005
-482.391	714.434	0.062	0.164
-481.376	484.354	0.205	-0.461
-480.362	-78.966	-0.589	-0.198
-479.347	-121.489	0.262	-0.043
-478.332	-200.000	0.042	-0.254
-477.318	118.990	0.146	-0.179
-476.303	41.620	-0.050	-0.045
-475.289	-27.007	0.097	0.056
-474.274	800.000	-0.085	-0.318
-473.259	272.200	0.020	-0.036
-472.245	-124.701	-0.254	0.039
-471.230	-65.759	0.203	0.081
-470.216	39.182	-0.031	0.027
-469.201	170.735	-0.184	0.261
-468.186	-105.855	0.165	-0.037
-467.172	-200.000	-0.019	-0.236
-466.157	-132.118	-0.192	-0.025
-465.143	-144.723	-0.092	-0.008
-464.128	171.178	-0.083	-0.117
-463.113	80.255	0.065	-0.070
-462.099	32.835	0.091	0.078
-461.084	228.719	-0.134	-0.215
-460.070	-102.662	0.352	-0.083
-459.055	102.022	-0.187	-0.216
-458.040	113.009	-0.192	0.230
-457.026	-10.587	0.091	0.059
-456.011	-105.009	-0.155	-0.035
-454.997	157.779	0.103	-0.141
-453.982	800.000	0.028	0.100
-452.968	84.001	-0.191	-0.207
-451.953	-18.947	0.205	0.126
-450.938	-58.427	0.345	-0.148
-449.924	176.072	-0.104	0.150
-448.909	-93.219	0.318	0.087
-447.895	42.445	-0.116	-0.104
-446.880	800.000	-0.069	0.271
-445.865	-149.307	0.043	-0.003
-444.851	-131.955	-0.142	-0.018
-443.836	29.326	-0.184	-0.155
-442.822	513.098	-0.093	0.214
-441.807	-200.000	0.009	0.135
-440.792	800.000	0.052	0.153
-439.778	610.232	-0.082	-0.203
-438.763	100.976	-0.089	0.103
-437.749	-16.433	0.031	-0.019
-436.734	122.415	-0.088	-0.109
-435.719	100.530	0.103	0.118
-434.705	-96.167	0.186	0.049
-433.690	228.000	-0.246	0.395
-432.676	-87.058	0.393	0.118
-431.661	-110.596	-0.232	-0.047
-430.646	800.000	-0.115	0.407
-429.632	-200.000	0.044	0.225
-428.617	761.975	0.069	-0.184
-427.603	-144.198	0.230	-0.021
-426.588	160.942	-0.042	0.057
-425.573	-200.000	0.001	0.112
-424.559	103.207	-0.201	-0.233
-423.544	3.671	0.096	0.069
-422.530	800.000	-0.070	0.204
-421.515	-96.648	0.153	0.040
-420.500	800.000	-0.022	-0.061
-419.486	143.137	0.059	-0.077
-418.471	154.235	-0.181	-0.245
-417.457	537.713	-0.096	-0.225
-416.442	23.960	-0.060	-0.049
-415.428	-87.355	-0.157	-0.047
-414.413	-91.882	0.290	0.081
-413.398	-2.209	-0.063	0.044
-412.384	800.000	-0.025	0.105
-411.369	800.000	0.133	0.370
-410.355	32.455	-0.129	0.110
-409.340	-118.430	0.301	-0.053
-408.325	24.406	0.157	0.129
-407.311	-200.000	-0.022	-0.331
-406.296	-200.000	-0.017	0.273
-405.282	800.000	0.119	0.329
-404.267	800.000	0.023	-0.098
-403.252	-88.673	0.678	-0.199
-402.238	-110.973	-0.155	-0.031
-401.223	-200.000	0.032	0.293
-400.209	-143.398	-0.395	0.037
-399.194	-200.000	-0.002	-0.162
-398.179	800.000	-0.085	-0.240
-397.165	-79.060	-0.443	0.149
-396.150	-125.872	-0.353	0.053
-395.136	-156.275	0.130	-0.008
-394.121	136.861	0.146	0.189
-393.106	391.161	-0.039	0.080
-392.092	-200.000	-0.025	0.128
-391.077	43.636	0.334	0.302
-390.063	327.506	0.049	0.092
-389.048	582.337	0.039	-0.093
-388.033	135.122	-0.218	0.279
-387.019	-138.452	0.344	0.037
-386.004	209.160	-0.106	-0.164
-384.990	-200.000	-0.008	-0.086
-383.975	-200.000	-0.022	-0.257
-382.960	98.391	-0.126	-0.144
-381.946	-55.730	-0.224	0.099
-380.931	-132.095	-0.058	0.007
-379.917	-21.602	0.300	0.181
-378.902	44.466	-0.134	0.121
-377.888	-25.795	-0.089	-0.052
-376.873	266.659	-0.079	0.136
-375.858	-141.716	-0.189	0.019
-374.844	-200.000	0.024	-0.161
-373.829	149.163	-0.026	0.035
-372.815	-17.612	-0.302	-0.187
-371.800	-111.854	-0.468	0.093
-370.785	-95.654	-0.141	-0.037
-369.771	687.197	0.023	0.060
-368.756	26.255	0.235	-0.194
-367.742	681.755	0.043	-0.109
-366.727	306.695	0.074	-0.136
-365.712	-200.000	-0.016	0.149
-364.698	13.182	0.100	0.076
-363.683	-114.006	0.107	0.020
-362.669	-42.069	-0.122	0.061
-361.654	-19.872	-0.257	0.156
-360.639	800.000	0.086	0.305
-359.625	599.499	0.051	-0.125
-358.610	119.531	-0.017	-0.021
-357.596	800.000	0.030	0.119
-356.581	535.043	0.195	0.456
-355.566	551.980	-0.095	-0.224
-354.552	-200.000	-0.088	-0.391
-353.537	-61.864	-0.162	0.067
-352.523	351.174	-0.042	-0.082
-351.508	800.000	0.069	-0.238
-350.493	142.067	0.109	-0.143
-349.479	-136.114	0.366	0.042
-348.464	267.890	-0.036	-0.062
-347.450	233.036	-0.149	-0.241
-346.435	611.426	-0.077	0.189
-345.420	-33.314	-0.322	0.176
-344.406	-200.000	-0.015	-0.138
-343.391	-81.776	0.081	-0.026
-342.377	273.416	-0.091	0.159
-341.362	-200.000	0.007	-0.326
-340.348	191.122	0.159	0.236
-339.333	-134.366	-0.216	0.026
-338.318	-49.750	0.090	0.042
-337.304	110.966	0.028	-0.033
-336.289	-101.637	-0.262	-0.063
-335.275	129.823	-0.122	-0.153
-334.260	-67.242	0.167	0.065
-333.245	541.259	0.170	0.399
-332.231	-131.531	0.187	-0.024
-331.216	-184.797	0.294	-0.005
-330.202	-31.793	0.069	-0.038
-329.187	-93.780	0.234	-0.063
-328.172	70.872	-0.231	-0.236
-327.158	-57.356	0.097	0.042
-326.143	72.320	0.293	-0.300
-325.129	22.070	-0.408	-0.327
-324.114	-200.000	0.091	0.407
-323.099	5.118	-0.080	-0.058
-322.085	186.997	-0.121	0.177
-321.070	418.302	0.113	0.237
-320.056	-30.996	0.169	0.094
-319.041	217.071	-0.115	-0.180
-318.026	-58.182	0.191	0.082
-317.012	-135.287	0.257	0.030
-315.997	-200.000	-0.021	-0.100
-314.983	800.000	-0.056	0.156
-313.968	-185.014	0.164	-0.003
-312.953	-200.000	-0.003	0.098
-311.939	19.375	0.119	-0.094
-310.924	27.447	0.215	0.178
-309.910	-165.599	0.097	-0.004
-308.895	-137.241	0.447	-0.050
-307.880	185.924	-0.088	0.129
-306.866	89.213	0.138	0.152
-305.851	492.352	0.031	-0.070
-304.837	-139.951	-0.152	-0.016
-303.822	77.730	0.114	-0.119
-302.807	-84.072	-0.148	0.046
-301.793	7.112	0.173	0.127
-300.778	-74.734	-0.336	0.119
-299.764	-62.363	0.090	0.037
-298.749	94.474	0.103	0.115
-297.735	92.974	-0.165	-0.184
-296.720	-56.317	0.246	-0.108
-295.705	40.597	-0.214	-0.190
-294.691	4.674	-0.088	-0.063
-293.676	-66.508	0.132	0.051
-292.662	-109.260	-0.377	0.079
-291.647	-21.907	0.225	0.134
-290.632	447.904	-0.046	0.099
-289.618	105.571	0.076	-0.088
-288.603	-28.073	-0.173	0.099
-287.589	96.291	-0.145	-0.163
-286.574	-92.447	0.363	-0.100
-285.559	402.014	-0.077	-0.160
-284.545	800.000	-0.058	-0.220
-283.530	-200.000	-0.006	-0.118
-282.516	104.474	-0.115	0.133
-281.501	301.793	-0.200	0.363
-280.486	-200.000	-0.019	0.142
-279.472	135.442	-0.091	0.116
-278.457	-13.839	0.163	0.103
-277.443	10.453	-0.087	0.065
-276.428	616.578	-0.150	-0.369
-275.413	661.015	-0.068	-0.173
-274.399	-200.000	0.044	0.273
-273.384	-14.232	0.046	-0.029
-272.370	51.993	-0.149	0.139
-271.355	-200.000	0.022	0.273
-270.340	-108.473	0.075	0.016
-269.326	217.399	-0.156	-0.244
-268.311	-61.845	-0.205	-0.084
-267.297	-133.707	0.166	0.020
-266.282	-124.457	-0.142	-0.022
-265.267	29.638	0.012	-0.010
-264.253	800.000	0.034	0.095
-263.238	85.804	-0.153	0.165
-262.224	-26.434	0.257	0.148
-261.209	65.374	-0.168	-0.167
-260.195	125.024	0.125	0.154
-259.180	264.379	-0.199	0.339
-258.165	482.399	0.054	-0.119
-257.151	-72.412	-0.211	0.077
-256.136	-64.003	0.375	0.150
-255.122	-200.000	0.005	-0.113
-254.107	800.000	-0.034	-0.095
-253.092	-80.980	-0.284	0.092
-252.078	-13.758	0.383	-0.243
-251.063	77.824	0.180	-0.188
-250.049	-136.937	-0.096	0.011
-249.034	800.000	-0.123	-0.408
-248.019	-84.757	0.382	-0.118
-247.005	119.666	0.179	0.218
-245.990	343.039	-0.135	0.260
-244.976	-152.940	-0.131	0.009
-243.961	116.205	0.299	0.359
-242.946	-170.123	0.379	0.013
-241.932	29.972	0.055	0.046
-240.917	-119.026	0.217	0.037
-239.903	-0.374	0.186	-0.130
-238.888	-106.553	0.172	0.038
-237.873	-200.000	0.025	-0.132
-236.859	800.000	-0.014	0.048
-235.844	-83.117	0.263	0.083
-234.830	128.971	0.140	0.176
-233.815	-79.415	0.027	0.009
-232.800	216.823	0.114	-0.178
-231.786	45.443	-0.208	-0.188
-230.771	800.000	-0.065	0.183
-229.757	-13.947	-0.077	-0.049
-228.742	108.724	0.052	0.061
-227.727	-57.839	0.135	-0.058
-226.713	-151.658	0.086	-0.006
-225.698	282.639	-0.131	0.230
-224.684	642.204	-0.165	-0.412
-223.669	680.178	0.049	-0.125
-222.655	-0.008	-0.191	-0.133
-221.640	401.199	-0.100	-0.206
-220.625	131.306	-0.111	-0.140
-219.611	-200.000	-0.045	0.402
-218.596	-81.326	0.060	-0.019
-217.582	4.983	0.040	-0.029
-216.567	-125.242	0.156	-0.023
-215.552	321.851	-0.066	-0.123
-214.538	-161.104	-0.081	-0.004
-213.523	-65.251	-0.342	0.135
-212.509	9.863	0.308	-0.229
-211.494	800.000	-0.075	-0.258
-210.479	134.817	-0.153	0.195
-209.465	-68.472	-0.158	0.060
-208.450	721.388	-0.071	0.185
-207.436	-10.094	0.115	-0.075
-206.421	-200.000	0.029	-0.172
-205.406	776.326	-0.057	-0.154
-204.392	-18.891	0.358	0.218
-203.377	-200.000	0.255	0.001
-202.363	-200.000	-0.026	-0.270
-201.348	227.892	-0.087	0.138
-200.333	232.091	0.285	0.458
-199.319	45.578	0.280	-0.253
-198.304	800.000	-0.037	-0.135
-197.290	-14.117	-0.119	-0.075
-196.275	143.233	-0.101	-0.131
-195.260	-28.263	0.189	-0.107
-194.246	25.443	-0.382	-0.311
-193.231	-150.935	-0.211	-0.016
-192.217	100.920	-0.159	0.181
-191.202	7.433	0.074	-0.054
-190.187	-200.000	0.362	0.000
-189.173	-121.478	-0.231	0.038
-188.158	209.726	0.096	0.148
-187.144	-163.208	0.117	0.005
-186.129	484.245	0.116	0.259
-185.114	70.653	-0.478	-0.484
-184.100	-102.671	-0.263	0.061
-183.085	-80.366	0.196	-0.064
-182.071	-56.115	0.240	0.105
-181.056	91.038	0.329	0.362
-180.042	293.401	0.126	0.225
-179.027	-119.953	-0.072	-0.012
-178.012	-40.268	-0.399	-0.203
-176.998	654.554	-0.008	0.020
-175.983	128.031	0.113	-0.140
-174.969	-18.551	-0.187	-0.114
-173.954	-16.928	-0.406	-0.251
-172.939	-200.000	-0.016	0.234
-171.925	-6.479	-0.226	-0.151
-170.910	-88.457	-0.287	-0.084
-169.896	-186.659	-0.172	-0.002
-168.881	-200.000	0.049	0.313
-167.866	5.269	-0.240	0.173
-166.852	313.564	-0.185	-0.341
-165.837	-200.000	-0.047	-0.422
-164.823	-200.000	0.026	0.374
-163.808	300.347	0.177	0.320
-162.793	85.342	-0.255	0.273
-161.779	-200.000	0.036	0.328
-160.764	59.103	-0.046	0.044
-159.750	-200.000	0.011	0.210
-158.735	-42.805	0.218	0.109
-157.720	79.401	0.172	-0.181
-156.706	-60.980	-0.268	-0.111
-155.691	351.635	0.123	0.239
-154.677	35.500	-0.262	0.225
-153.662	31.357	-0.063	-0.053
-152.647	169.170	0.037	0.052
-151.633	-200.000	-0.028	0.127
-150.618	800.000	-0.087	-0.319
-149.604	800.000	0.061	-0.228
-148.589	-101.386	-0.197	-0.047
-147.574	-200.000	-0.016	-0.411
-146.560	165.011	-0.111	0.153
-145.545	332.334	-0.030	-0.057
-144.531	-9.838	0.194	0.127
-143.516	-65.520	-0.086	-0.034
-142.502	83.242	-0.170	-0.181
-141.487	-63.396	0.359	-0.144
-140.472	800.000	0.021	-0.057
-139.458	272.176	-0.102	0.175
-138.443	74.096	-0.189	-0.194
-137.429	-83.223	-0.312	0.098
-136.414	17.483	-0.018	-0.014
-135.399	34.299	-0.194	0.165
-134.385	78.658	0.304	0.317
-133.370	-200.000	0.011	-0.216
-132.356	-200.000	-0.096	0.614
-131.341	207.167	0.170	0.259
-130.326	80.117	0.209	0.220
-129.312	-111.941	0.093	-0.018
-128.297	379.795	0.080	0.160
-127.283	-156.072	-0.185	-0.011
-126.268	490.870	0.053	-0.119
-125.253	-22.887	-0.189	-0.111
-124.239	-93.420	0.195	0.053
-123.224	330.491	0.235	-0.443
-122.210	80.417	0.186	0.195
-121.195	316.643	0.038	-0.070
