DTS Sentinel unit serial number:	SN413079Multiplexer serial number:	ORYXHardware model number:	OX4-SRSoftware version number:	ORYX F/W v4.00 Oryx Data Collector v3.7.2.0data status	okinstallation	princeton_trtdifferential loss correction	single-endedforward channel	channel 1reverse channel	N/Adate	2019/09/15time	14:30:35forward acquisition time	60.00reverse acquisition time	0.00gamma	496.2192k internal	0.2291k external	0.2291temperature offset calibration	0.9960default loss term (dB/km)	0.3790temperature slope calibration	1.0000multiplexer offset coefficient	1.0000multiplexer slope coefficient	1.0000fibre end	0.00T internal ref (°C)	39.36T ext. ref 1 (°C)	4.92T ext. ref 2 (°C)	36.28length (m)	temperature (°C)	Stokes	anti-Stokes-747.200	10.486	0.442	-0.345
-746.185	-200.000	-0.021	0.220
-745.171	-200.000	-0.064	0.575
-744.156	168.818	-0.120	0.175
-743.142	-83.738	0.325	0.106
-742.127	2.321	-0.393	0.291
-741.112	-115.600	-0.087	0.017
-740.098	-55.759	0.209	0.095
-739.083	-69.868	-0.246	-0.096
-738.069	53.298	-0.140	-0.138
-737.054	-94.311	-0.075	-0.021
-736.039	19.389	0.074	0.061
-735.025	800.000	0.055	0.203
-734.010	-200.000	-0.008	-0.361
-732.996	-161.282	-0.107	-0.006
-731.981	242.876	-0.333	0.570
-730.966	-66.128	-0.058	0.024
-729.952	494.463	0.114	0.267
-728.937	-53.195	0.096	-0.045
-727.923	69.314	-0.185	0.194
-726.908	42.945	-0.115	0.107
-725.894	-84.052	-0.290	-0.094
-724.879	112.435	-0.106	-0.131
-723.864	-200.000	0.012	-0.149
-722.850	800.000	0.024	0.100
-721.835	-134.302	0.020	0.002
-720.821	-99.602	-0.049	-0.012
-719.806	-118.208	0.220	-0.040
-718.791	625.246	-0.071	-0.182
-717.777	800.000	-0.023	0.075
-716.762	-200.000	-0.050	-0.228
-715.748	8.929	0.148	0.114
-714.733	51.284	0.067	-0.065
-713.718	371.898	-0.028	0.058
-712.704	-13.949	0.212	0.140
-711.689	-74.201	-0.176	-0.065
-710.675	-163.446	0.070	0.003
-709.660	755.375	-0.139	0.383
-708.645	-71.660	0.046	0.018
-707.631	-200.000	-0.006	-0.120
-706.616	-97.691	0.212	0.056
-705.602	-71.693	-0.142	-0.054
-704.587	-79.686	0.164	0.056
-703.572	-17.958	-0.227	-0.146
-702.558	-200.000	-0.025	-0.259
-701.543	-103.316	0.073	0.018
-700.529	83.072	0.276	0.307
-699.514	32.088	0.060	0.053
-698.499	-200.000	0.011	0.238
-697.485	22.024	-0.143	-0.119
-696.470	-123.426	-0.378	-0.061
-695.456	-77.781	0.012	0.004
-694.441	33.529	-0.269	0.238
-693.426	-200.000	0.044	0.215
-692.412	-200.000	0.018	0.147
-691.397	-200.000	0.021	0.191
-690.383	-186.042	0.058	0.001
-689.368	800.000	0.021	0.073
-688.354	136.203	-0.150	-0.200
-687.339	-200.000	0.021	-0.505
-686.324	-16.227	-0.379	0.246
-685.310	129.823	0.123	0.160
-684.295	107.114	-0.092	-0.112
-683.281	800.000	0.050	0.212
-682.266	-22.270	0.042	-0.026
-681.251	-90.111	0.055	-0.017
-680.237	-200.000	-0.111	-0.000
-679.222	213.602	0.184	0.298
-678.208	-200.000	-0.035	-0.172
-677.193	-198.598	0.253	0.001
-676.178	-200.000	0.066	0.333
-675.164	-77.719	-0.277	0.098
-674.149	433.177	-0.064	0.141
-673.135	353.205	0.059	0.120
-672.120	800.000	0.018	-0.078
-671.105	-200.000	0.016	0.102
-670.091	800.000	0.062	0.228
-669.076	137.954	0.138	-0.185
-668.062	-33.060	0.273	-0.154
-667.047	380.474	-0.040	0.084
-666.032	5.465	-0.013	0.009
-665.018	137.826	-0.034	-0.046
-664.003	-65.260	0.050	0.020
-662.989	2.625	0.184	0.136
-661.974	-126.874	-0.217	0.033
-660.959	-200.000	0.026	-0.208
-659.945	-200.000	0.005	0.077
-658.930	-181.981	0.213	0.004
-657.916	800.000	-0.062	-0.223
-656.901	-140.988	-0.025	0.003
-655.886	-123.985	0.236	-0.038
-654.872	-56.149	-0.128	-0.058
-653.857	-114.762	-0.321	0.063
-652.843	-111.062	0.195	-0.041
-651.828	50.067	-0.222	-0.214
-650.814	-62.486	0.087	-0.037
-649.799	107.360	0.052	-0.063
-648.784	-84.940	-0.152	0.049
-647.770	-103.144	-0.077	-0.019
-646.755	13.557	-0.412	0.326
-645.741	800.000	0.059	0.187
-644.726	-9.086	0.172	0.117
-643.711	-104.937	0.145	0.034
-642.697	-85.868	-0.189	-0.060
-641.682	-152.809	-0.255	-0.018
-640.668	-200.000	-0.040	-0.260
-639.653	310.504	-0.157	-0.301
-638.638	-18.039	-0.120	-0.077
-637.624	623.324	0.037	-0.094
-636.609	697.543	-0.084	-0.225
-635.595	800.000	-0.150	-0.435
-634.580	120.253	-0.182	-0.231
-633.565	-128.244	-0.187	0.027
-632.551	352.917	0.158	0.319
-631.536	353.393	-0.099	0.201
-630.522	-200.000	-0.006	-0.136
-629.507	-24.148	0.081	-0.049
-628.492	329.461	0.066	0.129
-627.478	-115.491	-0.232	0.045
-626.463	75.466	-0.076	-0.082
-625.449	-137.501	-0.258	0.030
-624.434	-91.701	-0.282	-0.082
-623.419	-157.757	-0.302	-0.018
-622.405	-200.000	-0.021	0.212
-621.390	369.023	0.184	0.379
-620.376	133.509	-0.141	0.186
-619.361	-15.876	0.194	0.126
-618.346	33.486	0.095	-0.084
-617.332	-114.246	-0.311	-0.061
-616.317	178.960	0.155	-0.231
-615.303	-104.250	-0.196	0.046
-614.288	-5.955	0.020	0.014
-613.273	-4.042	-0.326	-0.230
-612.259	-77.975	0.022	-0.008
-611.244	18.090	-0.256	-0.208
-610.230	-57.083	0.101	-0.045
-609.215	71.267	0.100	-0.105
-608.201	164.253	-0.159	-0.229
-607.186	-200.000	-0.032	0.203
-606.171	-7.928	0.296	0.203
-605.157	-91.793	-0.341	0.099
-604.142	-146.825	0.456	0.040
-603.128	-200.000	0.073	-0.450
-602.113	-200.000	-0.057	-0.376
-601.098	-124.108	-0.218	0.035
-600.084	352.937	0.056	0.113
-599.069	128.825	-0.123	0.159
-598.055	33.805	-0.372	-0.329
-597.040	-34.184	0.078	-0.044
-596.025	504.301	-0.039	0.092
-595.011	-2.902	-0.035	-0.025
-593.996	87.190	0.099	-0.111
-592.982	-24.280	-0.093	-0.057
-591.967	-200.000	0.005	-0.167
-590.952	-30.638	0.234	0.135
-589.938	361.877	-0.208	-0.424
-588.923	16.756	0.155	0.125
-587.909	-200.000	0.027	0.376
-586.894	-29.221	0.210	0.123
-585.879	246.016	0.072	-0.124
-584.865	800.000	0.098	-0.280
-583.850	-200.000	0.038	0.256
-582.836	800.000	0.054	0.239
-581.821	-112.272	0.152	0.031
-580.806	800.000	0.108	-0.310
-579.792	-200.000	-0.019	-0.130
-578.777	81.149	-0.201	-0.221
-577.763	8.584	-0.157	-0.120
-576.748	385.240	0.094	-0.197
-575.733	800.000	-0.051	-0.207
-574.719	800.000	-0.062	-0.268
-573.704	12.436	0.336	0.264
-572.690	40.326	0.405	0.371
-571.675	-98.848	-0.202	-0.052
-570.661	85.403	0.062	-0.070
-569.646	-97.152	-0.214	-0.057
-568.631	-200.000	0.017	-0.268
-567.617	-76.065	-0.102	-0.037
-566.602	-120.658	-0.217	0.037
-565.588	85.486	0.241	0.269
-564.573	-96.757	0.093	-0.025
-563.558	-24.714	-0.128	-0.077
-562.544	-70.686	-0.077	0.030
-561.529	227.106	-0.190	-0.314
-560.515	488.669	0.055	-0.128
-559.500	-200.000	0.005	-0.081
-558.485	260.342	0.136	-0.239
-557.471	68.535	0.063	0.066
-556.456	-36.074	0.093	0.051
-555.442	-200.000	0.011	0.159
-554.427	-79.094	0.184	0.063
-553.412	49.848	-0.165	0.158
-552.398	-121.409	-0.100	0.017
-551.383	-107.409	-0.451	0.101
-550.369	-84.625	-0.095	-0.030
-549.354	21.429	-0.034	-0.028
-548.339	-200.000	-0.010	-0.225
-547.325	-106.305	0.271	0.062
-546.310	-16.032	0.124	0.080
-545.296	77.626	-0.125	-0.135
-544.281	-50.739	0.139	-0.066
-543.266	345.557	-0.047	-0.094
-542.252	179.893	-0.070	-0.104
-541.237	-43.243	-0.233	0.120
-540.223	-19.544	-0.478	0.301
-539.208	181.843	-0.178	0.266
-538.193	-46.562	-0.079	0.039
-537.179	-119.726	0.067	-0.012
-536.164	-99.166	0.186	-0.048
-535.150	-63.501	0.200	-0.084
-534.135	-49.561	-0.327	-0.158
-533.121	23.572	0.155	-0.130
-532.106	85.365	0.125	0.139
-531.091	-200.000	0.043	0.414
-530.077	-200.000	-0.026	0.256
-529.062	-200.000	-0.001	0.103
-528.048	288.989	-0.195	-0.359
-527.033	-74.194	-0.181	-0.067
-526.018	-200.000	-0.016	-0.146
-525.004	645.663	-0.106	-0.275
-523.989	800.000	-0.019	0.079
-522.975	-166.599	-0.126	0.005
-521.960	48.132	-0.052	0.050
-520.945	-200.000	-0.010	0.124
-519.931	-24.233	0.146	0.088
-518.916	800.000	-0.064	0.248
-517.902	-112.206	-0.307	0.062
-516.887	-188.906	0.159	-0.002
-515.872	27.995	-0.376	0.322
-514.858	-135.295	0.221	-0.027
-513.843	534.411	0.104	-0.250
-512.829	-138.301	0.214	0.024
-511.814	163.389	0.073	0.104
-510.799	-57.178	0.296	-0.132
-509.785	279.539	0.101	-0.183
-508.770	800.000	0.079	0.275
-507.756	-56.446	0.190	0.086
-506.741	-200.000	0.030	0.199
-505.726	-188.228	-0.209	-0.003
-504.712	-200.000	0.006	0.099
-503.697	-3.438	-0.219	-0.155
-502.683	-200.000	0.049	-0.220
-501.668	24.374	-0.268	0.225
-500.653	-200.000	-0.010	-0.068
-499.639	-70.969	0.338	0.129
-498.624	-168.565	0.045	0.002
-497.610	-91.285	0.185	0.054
-496.595	-200.000	-0.001	-0.033
-495.581	132.446	0.141	-0.184
-494.566	172.336	0.173	-0.252
-493.551	800.000	-0.074	-0.238
-492.537	4.889	0.132	-0.098
-491.522	-77.084	-0.186	0.066
-490.508	-57.691	-0.115	-0.051
-489.493	-131.850	0.067	0.009
-488.478	-26.719	0.158	-0.094
-487.464	-87.526	0.159	0.049
-486.449	163.377	-0.087	0.124
-485.435	182.591	-0.084	-0.125
-484.420	47.160	-0.224	0.211
-483.405	-38.168	0.106	0.057
-482.391	458.981	0.147	0.332
-481.376	39.856	-0.148	0.134
-480.362	-34.228	-0.123	-0.068
-479.347	222.973	-0.068	0.111
-478.332	-200.000	0.074	0.428
-477.318	-91.168	-0.204	-0.059
-476.303	-132.343	-0.422	0.055
-475.289	181.641	-0.110	0.164
-474.274	-151.973	0.185	-0.014
-473.259	-113.155	0.219	-0.044
-472.245	440.872	-0.133	0.294
-471.230	800.000	-0.018	0.064
-470.216	715.313	-0.054	-0.144
-469.201	-90.193	-0.190	-0.056
-468.186	72.664	-0.018	-0.019
-467.172	-59.141	0.095	-0.041
-466.157	125.909	0.180	-0.230
-465.143	-12.044	-0.211	-0.140
-464.128	34.798	0.482	0.427
-463.113	5.607	-0.151	-0.113
-462.099	-37.367	0.249	0.134
-461.084	-107.057	0.197	-0.044
-460.070	-93.101	-0.130	-0.037
-459.055	31.874	0.226	0.197
-458.040	-200.000	0.009	-0.223
-457.026	-179.812	-0.185	-0.004
-456.011	206.679	-0.040	-0.063
-454.997	-6.378	0.031	0.021
-453.982	-32.228	0.277	0.157
-452.968	800.000	0.009	-0.036
-451.953	37.535	-0.083	-0.075
-450.938	172.621	-0.321	-0.467
-449.924	-52.251	0.138	-0.065
-448.909	87.346	0.172	-0.193
-447.895	-20.418	0.151	-0.094
-446.880	-200.000	0.002	-0.016
-445.865	-200.000	0.016	-0.082
-444.851	212.208	0.218	0.348
-443.836	-200.000	0.005	0.083
-442.822	800.000	0.085	-0.293
-441.807	800.000	-0.092	0.276
-440.792	-1.630	-0.340	-0.242
-439.778	800.000	-0.069	0.235
-438.763	4.782	0.250	0.186
-437.749	87.480	-0.131	0.147
-436.734	268.094	0.050	-0.088
-435.719	800.000	0.077	-0.315
-434.705	-200.000	-0.034	-0.232
-433.690	4.202	0.143	0.106
-432.676	181.934	0.235	0.349
-431.661	-45.702	-0.080	-0.040
-430.646	-29.403	-0.245	-0.142
-429.632	-8.979	-0.168	0.114
-428.617	-97.356	0.163	0.043
-427.603	200.255	0.063	0.098
-426.588	-46.833	-0.266	-0.132
-425.573	-200.000	-0.071	-0.400
-424.559	2.208	-0.146	-0.107
-423.544	800.000	-0.109	-0.309
-422.530	-123.622	0.203	0.032
-421.515	-57.606	0.412	0.182
-420.500	-200.000	-0.002	0.083
-419.486	175.743	-0.109	0.159
-418.471	6.439	-0.095	0.072
-417.457	-165.740	0.171	-0.007
-416.442	33.135	0.204	-0.179
-415.428	-31.329	0.024	-0.014
-414.413	115.847	-0.227	0.281
-413.398	339.576	0.044	0.086
-412.384	28.235	0.258	-0.220
-411.369	56.085	-0.292	0.287
-410.355	-148.742	0.058	-0.005
-409.340	-39.652	0.154	-0.081
-408.325	126.611	0.131	-0.167
-407.311	-200.000	0.051	0.384
-406.296	35.961	0.073	0.065
-405.282	800.000	-0.002	-0.007
-404.267	800.000	-0.092	0.345
-403.252	-71.258	0.333	-0.126
-402.238	-45.951	-0.454	0.226
-401.223	203.012	-0.143	0.223
-400.209	-81.202	0.025	0.008
-399.194	800.000	-0.017	-0.060
-398.179	144.721	0.109	0.147
-397.165	103.578	0.236	0.280
-396.150	77.401	0.232	0.250
-395.136	85.660	0.219	0.243
-394.121	-18.297	0.254	0.161
-393.106	-40.389	-0.252	0.132
-392.092	359.190	-0.090	0.182
-391.077	-8.026	0.266	-0.181
-390.063	-7.838	-0.033	-0.023
-389.048	200.596	-0.190	-0.295
-388.033	-5.946	0.319	0.220
-387.019	-139.914	-0.365	-0.039
-386.004	-19.473	0.036	0.023
-384.990	-13.660	-0.268	0.175
-383.975	-200.000	0.029	-0.291
-382.960	157.358	-0.138	0.193
-381.946	184.383	-0.089	-0.134
-380.931	-31.917	0.467	-0.264
-379.917	-200.000	0.062	-0.304
-378.902	-200.000	0.011	-0.062
-377.888	202.856	0.256	-0.399
-376.873	800.000	0.094	-0.314
-375.858	-124.547	0.273	0.043
-374.844	60.255	0.245	0.245
-373.829	-46.704	-0.141	0.070
-372.815	-70.481	0.206	-0.079
-371.800	-49.325	-0.232	-0.112
-370.785	218.978	0.155	-0.250
-369.771	113.268	0.098	0.120
-368.756	-46.101	0.034	-0.017
-367.742	800.000	0.086	-0.320
-366.727	-28.959	-0.332	0.192
-365.712	-200.000	-0.008	0.095
-364.698	165.366	0.123	-0.175
-363.683	800.000	-0.113	-0.380
-362.669	-105.559	0.180	0.041
-361.654	41.440	0.048	0.044
-360.639	-42.371	-0.107	-0.055
-359.625	4.319	-0.067	0.050
-358.610	-39.239	0.204	-0.108
-357.596	134.564	0.285	0.373
-356.581	-130.318	0.140	0.019
-355.566	-17.095	0.151	-0.096
-354.552	-39.044	0.265	0.140
-353.537	-64.404	0.140	0.057
-352.523	171.704	-0.236	-0.342
-351.508	-24.337	0.326	-0.196
-350.493	25.718	0.144	0.121
-349.479	-75.295	-0.144	-0.052
-348.464	800.000	0.019	0.061
-347.450	-150.765	0.238	0.018
-346.435	-90.202	-0.202	0.059
-345.420	-50.686	-0.057	-0.027
-344.406	-200.000	-0.046	0.252
-343.391	-96.338	-0.115	-0.031
-342.377	-10.708	0.183	0.122
-341.362	255.777	0.077	-0.134
-340.348	-64.993	0.382	-0.155
-339.333	-77.975	0.142	-0.049
-338.318	800.000	-0.038	-0.132
-337.304	13.926	0.052	0.041
-336.289	2.570	-0.059	-0.043
-335.275	124.773	-0.156	0.198
-334.260	620.695	0.108	-0.274
-333.245	725.075	-0.037	-0.099
-332.231	-200.000	-0.005	0.094
-331.216	527.012	-0.125	0.297
-330.202	-102.049	-0.119	0.029
-329.187	34.801	-0.212	0.187
-328.172	9.029	-0.122	0.093
-327.158	-200.000	-0.054	-0.253
-326.143	381.320	-0.121	0.251
-325.129	-200.000	-0.023	0.139
-324.114	36.940	0.143	0.127
-323.099	-140.139	-0.219	0.023
-322.085	-98.886	-0.120	0.031
-321.070	800.000	0.037	0.127
-320.056	184.870	-0.101	0.151
-319.041	800.000	-0.034	0.103
-318.026	116.928	-0.124	-0.154
-317.012	-133.748	0.190	0.024
-315.997	-30.380	0.103	0.059
-314.983	-145.736	0.231	0.021
-313.968	800.000	-0.079	-0.227
-312.953	31.949	-0.050	-0.043
-311.939	52.188	-0.096	-0.092
-310.924	-200.000	0.043	-0.260
-309.910	-89.127	0.275	0.082
-308.895	-61.164	-0.179	0.076
-307.880	-101.739	-0.180	-0.044
-306.866	-33.981	0.086	-0.047
-305.851	-80.089	-0.282	-0.095
-304.837	82.134	0.145	-0.158
-303.822	367.073	0.110	0.224
-302.807	154.207	0.114	-0.158
-301.793	415.342	-0.038	0.082
-300.778	-42.669	-0.330	-0.169
-299.764	113.401	0.031	-0.038
-298.749	124.516	0.126	0.159
-297.735	-23.342	-0.262	0.159
-296.720	-66.661	-0.256	-0.102
-295.705	127.046	-0.039	0.050
-294.691	224.316	0.157	0.255
-293.676	35.762	-0.092	0.081
-292.662	-52.057	0.129	-0.060
-291.647	-200.000	0.021	-0.153
-290.632	-147.487	-0.140	-0.012
-289.618	-200.000	-0.022	-0.186
-288.603	603.130	-0.055	0.137
-287.589	-56.877	0.077	0.034
-286.574	-143.543	0.339	0.032
-285.559	81.514	0.162	-0.176
-284.545	-200.000	0.054	-0.269
-283.530	470.885	-0.090	0.205
-282.516	-49.369	0.120	0.057
-281.501	800.000	0.061	-0.251
-280.486	68.824	-0.345	0.356
-279.472	-52.139	-0.192	0.090
-278.457	-50.581	0.296	-0.140
-277.443	-74.164	-0.190	-0.069
-276.428	-180.048	-0.133	-0.003
-275.413	9.627	-0.174	-0.132
-274.399	649.753	-0.044	-0.113
-273.384	404.783	-0.060	-0.127
-272.370	-80.907	-0.449	-0.150
-271.355	-200.000	0.033	-0.188
-270.340	87.619	0.319	-0.355
-269.326	-62.273	-0.472	-0.198
-268.311	-97.885	0.082	0.021
-267.297	-82.853	0.109	-0.035
-266.282	-155.017	-0.153	0.010
-265.267	153.393	0.060	-0.083
-264.253	800.000	-0.058	-0.246
-263.238	800.000	-0.056	0.167
-262.224	-140.819	0.242	0.025
-261.209	-84.642	0.284	-0.090
-260.195	348.370	0.271	-0.537
-259.180	219.685	-0.129	-0.208
-258.165	18.209	-0.263	0.211
-257.151	-136.558	-0.161	-0.019
-256.136	800.000	-0.032	0.096
-255.122	12.492	-0.011	-0.008
-254.107	-200.000	0.092	-0.000
-253.092	36.019	-0.049	-0.043
-252.078	-46.631	0.244	0.120
-251.063	67.242	-0.049	-0.050
-250.049	-200.000	-0.002	0.480
-249.034	-125.117	0.266	-0.041
-248.019	-76.954	-0.303	-0.106
-247.005	32.093	0.298	-0.258
-245.990	182.382	0.095	0.140
-244.976	-142.809	0.143	-0.014
-243.961	800.000	0.033	0.110
-242.946	-100.833	0.280	0.069
-241.932	652.325	-0.059	0.152
-240.917	-200.000	0.036	0.190
-239.903	-14.668	0.288	-0.186
-238.888	31.690	-0.121	0.105
-237.873	-200.000	-0.027	0.141
-236.859	-121.997	0.073	0.012
-235.844	-200.000	0.009	0.051
-234.830	-200.000	-0.003	-0.058
-233.815	123.282	0.258	0.324
-232.800	-131.927	-0.144	0.019
-231.786	800.000	0.102	-0.372
-230.771	154.310	-0.159	-0.218
-229.757	-19.305	0.158	0.099
-228.742	-84.775	-0.214	-0.067
-227.727	167.045	-0.082	0.116
-226.713	-39.280	0.068	-0.036
-225.698	-104.567	0.121	0.028
-224.684	483.411	-0.052	-0.118
-223.669	-89.340	0.140	-0.041
-222.655	122.518	0.147	0.184
-221.640	-83.224	0.211	0.068
-220.625	7.936	-0.070	-0.053
-219.611	800.000	-0.049	0.149
-218.596	57.456	0.136	-0.133
-217.582	-67.440	-0.224	-0.088
-216.567	8.869	0.078	-0.059
-215.552	-151.824	0.115	-0.008
-214.538	-27.687	0.154	0.090
-213.523	36.730	-0.052	0.046
-212.509	232.085	0.136	-0.224
-211.494	-5.830	0.242	-0.166
-210.479	-109.498	-0.276	0.058
-209.465	168.114	0.186	0.266
-208.450	800.000	-0.016	-0.064
-207.436	571.553	0.129	0.315
-206.421	800.000	-0.041	0.142
-205.406	-200.000	0.062	0.327
-204.392	-200.000	0.012	-0.055
-203.377	21.314	-0.172	0.140
-202.363	-73.289	0.194	-0.071
-201.348	-24.386	0.332	0.198
-200.333	80.308	-0.130	-0.140
-199.319	800.000	0.066	0.203
-198.304	-64.907	0.234	-0.095
-197.290	684.921	0.191	-0.498
-196.275	416.873	0.155	0.332
-195.260	-118.673	0.241	-0.043
-194.246	212.512	0.028	-0.044
-193.231	-73.038	-0.251	-0.092
-192.217	690.155	0.084	0.222
-191.202	-60.192	-0.421	0.180
-190.187	-200.000	-0.010	0.080
-189.173	22.816	-0.023	-0.019
-188.158	-58.967	-0.241	-0.104
-187.144	-200.000	0.007	-0.145
-186.129	-123.073	-0.401	-0.064
-185.114	330.341	-0.083	0.159
-184.100	-200.000	0.039	-0.244
-183.085	-200.000	-0.014	0.285
-182.071	242.381	0.156	-0.262
-181.056	186.289	-0.225	-0.336
-180.042	-200.000	-0.033	0.432
-179.027	-87.725	0.343	-0.104
-178.012	187.909	0.080	0.120
-176.998	506.452	-0.079	0.183
-175.983	-14.080	-0.140	-0.091
-174.969	202.014	-0.291	0.449
-173.954	-69.859	-0.163	-0.062
-172.939	-158.004	0.103	0.006
-171.925	-200.000	0.023	-0.213
-170.910	-200.000	-0.043	0.327
-169.896	-6.357	-0.134	0.092
-168.881	800.000	-0.028	0.109
-167.866	200.767	0.089	0.137
-166.852	-146.126	-0.303	-0.027
-165.837	-168.926	0.238	-0.009
-164.823	226.002	-0.146	0.237
-163.808	300.077	-0.146	0.269
-162.793	-163.431	-0.063	-0.003
-161.779	-128.229	-0.101	-0.014
-160.764	-200.000	-0.021	0.156
-159.750	39.459	-0.180	0.161
-158.735	-123.846	0.197	-0.031
-157.720	-105.149	-0.167	0.038
-156.706	57.027	0.045	0.044
-155.691	192.555	0.071	-0.107
-154.677	-138.120	0.159	-0.018
-153.662	-149.209	-0.102	0.008
-152.647	253.039	-0.152	-0.259
-151.633	-155.220	0.062	-0.004
-150.618	-200.000	-0.065	-0.316
-149.604	-200.000	0.011	0.096
-148.589	-33.754	0.179	-0.099
-147.574	128.901	0.197	-0.251
-146.560	352.912	-0.048	-0.095
-145.545	-91.747	0.265	-0.075
-144.531	179.526	-0.153	0.223
-143.516	91.002	0.035	0.040
-142.502	122.504	-0.250	-0.312
-141.487	-82.520	-0.360	-0.117
-140.472	-200.000	0.037	0.232
-139.458	-200.000	-0.001	0.007
-138.443	-166.964	0.160	-0.007
-137.429	-112.705	0.217	-0.043
-136.414	154.777	-0.052	0.072
-135.399	-65.949	0.183	0.073
-134.385	32.028	0.144	0.124
-133.370	100.371	-0.122	0.141
-132.356	21.107	-0.264	0.214
-131.341	-92.529	-0.369	-0.104
-130.326	400.807	-0.103	-0.217
-129.312	-200.000	0.019	0.229
-128.297	-58.783	-0.114	0.049
-127.283	-72.145	0.243	-0.090
-126.268	800.000	-0.114	-0.365
-125.253	-155.787	-0.323	0.021
-124.239	-200.000	0.009	-0.050
-123.224	150.162	0.043	-0.058
-122.210	-139.174	0.336	-0.036
-121.195	306.261	0.082	-0.152
