DTS Sentinel unit serial number:	SN413079Multiplexer serial number:	ORYXHardware model number:	OX4-SRSoftware version number:	ORYX F/W v4.00 Oryx Data Collector v3.7.2.0data status	okinstallation	princeton_trtdifferential loss correction	single-endedforward channel	channel 1reverse channel	N/Adate	2019/09/17time	03:22:35forward acquisition time	60.00reverse acquisition time	0.00gamma	496.2192k internal	0.2323k external	0.2323temperature offset calibration	0.9962default loss term (dB/km)	0.3790temperature slope calibration	1.0000multiplexer offset coefficient	1.0000multiplexer slope coefficient	1.0000fibre end	0.00T internal ref (°C)	30.00T ext. ref 1 (°C)	0.14T ext. ref 2 (°C)	24.84length (m)	temperature (°C)	Stokes	anti-Stokes-747.200	-200.000	0.014	0.312
-746.185	199.861	-0.167	0.259
-745.171	665.553	0.030	0.079
-744.156	310.568	-0.151	0.286
-743.142	60.375	0.090	-0.090
-742.127	-107.928	0.100	0.022
-741.112	193.445	-0.170	0.259
-740.098	-50.008	0.118	-0.057
-739.083	61.409	-0.202	0.202
-738.069	-8.122	0.268	0.182
-737.054	36.638	-0.133	-0.119
-736.039	143.239	-0.070	0.094
-735.025	-100.779	-0.235	-0.059
-734.010	800.000	-0.025	-0.083
-732.996	-200.000	-0.003	-0.290
-731.981	-69.855	-0.375	-0.144
-730.966	-200.000	-0.069	-0.309
-729.952	800.000	-0.079	0.255
-728.937	-127.811	-0.238	-0.035
-727.923	-163.667	-0.234	-0.011
-726.908	-161.421	-0.117	-0.006
-725.894	-73.098	-0.299	0.111
-724.879	6.674	0.120	-0.090
-723.864	-72.586	-0.186	-0.069
-722.850	800.000	0.037	-0.150
-721.835	-200.000	0.054	0.264
-720.821	-74.024	-0.277	0.101
-719.806	338.482	-0.179	-0.353
-718.791	-117.996	-0.145	0.026
-717.777	658.649	0.088	0.229
-716.762	-200.000	-0.059	0.463
-715.748	275.526	0.036	0.064
-714.733	-134.563	0.270	-0.033
-713.718	-35.344	0.364	0.200
-712.704	-16.234	-0.225	0.144
-711.689	-183.994	0.098	0.002
-710.675	222.828	-0.019	-0.031
-709.660	798.082	0.054	0.151
-708.645	800.000	-0.017	0.072
-707.631	-107.207	-0.293	0.065
-706.616	19.140	0.200	0.162
-705.602	-200.000	0.015	-0.190
-704.587	-200.000	-0.019	0.207
-703.572	-117.284	-0.115	-0.021
-702.558	116.275	-0.123	0.152
-701.543	800.000	0.013	-0.048
-700.529	87.984	-0.109	0.121
-699.514	1.492	-0.233	-0.169
-698.499	134.272	-0.240	0.313
-697.485	-63.411	-0.051	0.021
-696.470	-45.533	0.014	-0.007
-695.456	-200.000	0.018	-0.259
-694.441	50.248	-0.290	-0.276
-693.426	65.166	-0.121	-0.123
-692.412	286.631	-0.201	-0.366
-691.397	40.275	0.129	0.117
-690.383	-87.292	0.182	0.056
-689.368	800.000	-0.082	-0.342
-688.354	9.931	0.081	0.062
-687.339	-47.082	0.284	-0.140
-686.324	-200.000	0.002	0.214
-685.310	144.926	-0.210	-0.282
-684.295	-200.000	-0.022	-0.104
-683.281	645.124	-0.119	0.305
-682.266	-107.889	-0.106	-0.023
-681.251	-200.000	0.005	-0.143
-680.237	172.915	-0.132	0.192
-679.222	1.215	0.120	-0.087
-678.208	224.307	-0.101	0.164
-677.193	139.208	0.254	-0.336
-676.178	278.641	0.093	-0.167
-675.164	-14.742	0.046	-0.030
-674.149	353.999	0.066	-0.132
-673.135	-153.176	0.111	-0.008
-672.120	23.543	0.218	0.181
-671.105	625.680	-0.119	-0.301
-670.091	800.000	-0.134	-0.380
-669.076	-19.287	0.257	0.161
-668.062	-61.219	0.085	0.036
-667.047	185.563	-0.069	-0.104
-666.032	-109.054	-0.468	0.100
-665.018	175.776	-0.089	0.130
-664.003	-56.052	-0.237	0.106
-662.989	-92.184	0.235	-0.067
-661.974	-61.349	-0.283	-0.120
-660.959	196.778	0.078	0.120
-659.945	-55.718	-0.140	0.063
-658.930	595.481	0.055	-0.136
-657.916	800.000	0.023	0.087
-656.901	800.000	0.032	0.106
-655.886	-126.226	-0.081	0.012
-654.872	61.738	0.127	0.127
-653.857	234.087	-0.111	-0.185
-652.843	-20.398	-0.095	-0.059
-651.828	-200.000	0.010	0.133
-650.814	319.694	-0.145	0.277
-649.799	-7.784	-0.225	0.153
-648.784	316.195	0.128	0.243
-647.770	-71.448	0.082	0.031
-646.755	-200.000	0.017	0.286
-645.741	-132.347	-0.467	-0.061
-644.726	800.000	0.086	-0.248
-643.711	131.777	0.192	0.248
-642.697	-64.054	-0.072	0.029
-641.682	-200.000	0.006	-0.212
-640.668	-27.656	0.367	-0.215
-639.653	-200.000	0.004	0.050
-638.638	-200.000	0.062	0.391
-637.624	-83.989	-0.205	0.065
-636.609	210.830	0.108	-0.171
-635.595	-119.458	0.228	-0.040
-634.580	2.170	0.145	-0.105
-633.565	-77.228	-0.062	-0.022
-632.551	-81.869	-0.224	0.074
-631.536	-124.285	-0.064	0.010
-630.522	352.432	-0.050	-0.099
-629.507	-95.935	-0.262	-0.070
-628.492	-149.022	-0.081	0.007
-627.478	-200.000	-0.008	0.308
-626.463	-33.803	-0.040	-0.022
-625.449	10.719	0.469	0.360
-624.434	-42.494	-0.137	0.070
-623.419	-103.655	-0.398	-0.094
-622.405	-66.725	-0.224	-0.089
-621.390	16.790	0.186	0.148
-620.376	-103.835	-0.211	-0.050
-619.361	-136.060	0.153	0.018
-618.346	-94.929	0.143	-0.039
-617.332	121.965	-0.092	-0.115
-616.317	-7.372	0.335	-0.228
-615.303	-106.875	0.123	0.027
-614.288	167.140	0.200	-0.285
-613.273	-8.890	-0.243	0.163
-612.259	-7.123	-0.188	-0.128
-611.244	60.123	-0.051	-0.050
-610.230	55.235	-0.196	-0.191
-609.215	-200.000	0.013	0.239
-608.201	800.000	0.034	0.136
-607.186	-200.000	-0.017	-0.161
-606.171	138.020	-0.215	0.283
-605.157	49.058	0.110	0.103
-604.142	800.000	-0.060	0.257
-603.128	800.000	-0.045	-0.195
-602.113	-24.502	0.037	-0.022
-601.098	-200.000	0.037	-0.267
-600.084	-112.315	0.116	0.023
-599.069	-61.786	-0.252	0.106
-598.055	800.000	0.059	-0.204
-597.040	-141.713	-0.095	0.010
-596.025	-159.427	-0.066	-0.004
-595.011	131.774	0.183	0.236
-593.996	79.054	0.213	0.229
-592.982	-41.007	0.015	-0.008
-591.967	130.824	0.181	-0.233
-590.952	-154.266	0.074	0.005
-589.938	800.000	-0.089	-0.280
-588.923	251.471	-0.069	0.118
-587.909	-98.074	-0.243	0.063
-586.894	244.392	0.207	0.349
-585.879	66.053	0.249	0.253
-584.865	15.366	-0.219	0.173
-583.850	-200.000	0.022	0.353
-582.836	-46.966	-0.222	-0.109
-581.821	181.959	0.131	0.193
-580.806	-104.734	-0.220	-0.051
-579.792	194.269	-0.152	0.231
-578.777	60.116	0.355	-0.352
-577.763	-65.138	-0.069	-0.028
-576.748	-200.000	0.028	-0.420
-575.733	-200.000	0.016	-0.147
-574.719	317.806	0.143	-0.271
-573.704	32.288	-0.332	0.287
-572.690	-45.959	0.275	-0.136
-571.675	60.834	-0.137	-0.136
-570.661	165.326	-0.073	0.103
-569.646	-97.538	0.247	-0.064
-568.631	-84.340	0.285	0.091
-567.617	-173.159	0.354	0.011
-566.602	93.015	0.071	-0.080
-565.588	63.055	0.384	-0.386
-564.573	352.310	0.106	-0.210
-563.558	-114.967	0.500	-0.095
-562.544	24.638	-0.183	0.152
-561.529	-28.261	0.213	-0.123
-560.515	-95.518	-0.291	-0.078
-559.500	8.517	0.236	-0.178
-558.485	-107.676	-0.201	-0.044
-557.471	131.507	-0.106	-0.136
-556.456	-17.186	0.234	-0.148
-555.442	-110.902	-0.238	-0.049
-554.427	-131.786	-0.224	-0.029
-553.412	80.736	0.129	-0.140
-552.398	159.817	-0.143	-0.200
-551.383	-200.000	0.048	-0.228
-550.369	54.809	0.078	-0.076
-549.354	-52.126	0.117	0.055
-548.339	17.467	-0.136	-0.108
-547.325	-101.212	0.325	0.080
-546.310	-94.425	0.277	-0.076
-545.296	-47.955	-0.122	-0.059
-544.281	16.684	-0.107	-0.085
-543.266	82.045	-0.058	0.063
-542.252	-200.000	-0.041	-0.208
-541.237	-109.674	-0.242	0.051
-540.223	298.822	-0.035	-0.064
-539.208	800.000	0.081	-0.329
-538.193	34.959	-0.301	-0.264
-537.179	-147.900	0.194	0.016
-536.164	4.594	-0.044	0.032
-535.150	-18.980	-0.191	-0.119
-534.135	37.146	-0.075	-0.067
-533.121	800.000	-0.121	-0.395
-532.106	-200.000	-0.010	-0.130
-531.091	349.285	-0.205	-0.406
-530.077	-200.000	0.029	0.188
-529.062	-100.663	-0.317	0.078
-528.048	-200.000	0.035	0.368
-527.033	-200.000	0.053	0.328
-526.018	-69.234	-0.290	0.112
-525.004	-91.767	-0.115	-0.033
-523.989	-191.593	-0.062	-0.001
-522.975	-39.139	-0.205	0.108
-521.960	477.162	-0.090	0.205
-520.945	-85.252	-0.462	-0.145
-519.931	800.000	-0.148	0.458
-518.916	-126.701	-0.214	-0.032
-517.902	-163.422	0.069	-0.003
-516.887	82.606	-0.190	0.207
-515.872	800.000	0.044	0.168
-514.858	-141.481	0.080	0.008
-513.843	146.613	-0.129	0.173
-512.829	54.893	-0.155	0.150
-511.814	684.259	-0.051	0.132
-510.799	4.724	0.112	0.082
-509.785	120.207	-0.113	-0.141
-508.770	-157.339	0.127	-0.008
-507.756	43.853	0.361	-0.331
-506.741	-200.000	-0.071	-0.369
-505.726	50.349	0.105	-0.099
-504.712	1.189	0.081	-0.058
-503.697	114.917	-0.137	-0.167
-502.683	800.000	0.105	0.298
-501.668	-43.012	-0.181	0.092
-500.653	800.000	-0.126	-0.422
-499.639	15.142	0.145	0.114
-498.624	126.866	-0.213	-0.270
-497.610	-84.059	0.273	-0.087
-496.595	-124.182	-0.141	-0.022
-495.581	104.138	-0.140	0.165
-494.566	-122.774	-0.298	0.048
-493.551	-200.000	0.030	0.138
-492.537	-42.770	0.046	-0.023
-491.522	133.269	0.080	0.104
-490.508	-98.551	-0.144	0.037
-489.493	-47.910	-0.268	0.130
-488.478	28.443	0.225	0.190
-487.464	-90.444	-0.248	-0.072
-486.449	19.667	0.163	-0.131
-485.435	800.000	0.047	0.135
-484.420	-200.000	-0.018	0.144
-483.405	-200.000	-0.001	-0.161
-482.391	132.172	-0.136	0.175
-481.376	71.249	0.066	0.068
-480.362	-149.680	-0.107	-0.008
-479.347	91.205	0.162	0.182
-478.332	-47.957	0.090	0.044
-477.318	-49.847	0.233	0.111
-476.303	-128.103	-0.077	0.011
-475.289	26.994	-0.409	-0.343
-474.274	-40.399	-0.134	0.070
-473.259	800.000	-0.067	0.199
-472.245	-140.966	-0.160	0.016
-471.230	-108.665	-0.380	-0.081
-470.216	38.045	0.130	-0.116
-469.201	-200.000	0.005	0.093
-468.186	-99.046	0.090	-0.023
-467.172	18.769	-0.294	0.235
-466.157	-200.000	-0.022	-0.177
-465.143	-115.373	0.089	0.017
-464.128	-178.015	0.467	-0.011
-463.113	800.000	0.016	0.059
-462.099	-200.000	0.010	0.078
-461.084	-200.000	-0.043	0.291
-460.070	-83.590	0.381	0.122
-459.055	-200.000	-0.010	0.087
-458.040	-75.816	0.266	0.094
-457.026	-200.000	0.000	0.137
-456.011	79.513	-0.295	0.316
-454.997	22.039	0.177	0.144
-453.982	-169.149	-0.273	0.010
-452.968	-76.150	-0.325	-0.114
-451.953	-200.000	-0.014	-0.306
-450.938	-200.000	-0.005	-0.072
-449.924	-25.560	0.021	0.012
-448.909	-68.045	0.149	0.058
-447.895	253.189	0.059	-0.100
-446.880	515.308	-0.153	0.356
-445.865	-135.166	0.036	0.004
-444.851	2.983	0.194	-0.140
-443.836	172.389	-0.046	0.065
-442.822	412.170	-0.196	-0.415
-441.807	53.614	-0.105	-0.100
-440.792	-9.697	0.155	-0.103
-439.778	-109.477	0.255	0.054
-438.763	-144.287	0.225	0.021
-437.749	-11.236	0.306	-0.201
-436.734	-200.000	-0.003	-0.033
-435.719	800.000	-0.106	-0.334
-434.705	22.826	-0.302	0.247
-433.690	82.311	0.120	-0.129
-432.676	-116.599	0.254	-0.047
-431.661	-115.866	0.335	-0.062
-430.646	83.229	-0.091	-0.099
-429.632	118.080	0.062	-0.076
-428.617	-200.000	0.083	0.417
-427.603	800.000	0.058	-0.177
-426.588	800.000	-0.028	0.096
-425.573	509.490	-0.070	0.162
-424.559	-91.317	0.407	-0.116
-423.544	82.029	-0.356	0.385
-422.530	-90.304	0.180	-0.052
-421.515	-53.040	-0.186	-0.085
-420.500	-76.847	0.227	-0.079
-419.486	117.028	0.202	-0.248
-418.471	-200.000	-0.028	-0.141
-417.457	143.813	-0.214	0.285
-416.442	800.000	-0.025	-0.109
-415.428	800.000	-0.068	-0.231
-414.413	800.000	-0.121	-0.383
-413.398	-94.953	0.194	0.052
-412.384	-200.000	0.016	-0.347
-411.369	324.714	-0.087	0.166
-410.355	-200.000	-0.102	-0.472
-409.340	-4.811	-0.246	0.169
-408.325	506.095	-0.086	-0.198
-407.311	-155.693	-0.341	-0.022
-406.296	-200.000	-0.031	-0.250
-405.282	57.702	-0.203	-0.198
-404.267	800.000	-0.091	0.271
-403.252	699.797	0.166	0.436
-402.238	40.344	0.091	-0.082
-401.223	173.245	-0.018	0.026
-400.209	-11.194	-0.198	0.130
-399.194	74.835	-0.177	-0.185
-398.179	800.000	-0.093	-0.396
-397.165	350.721	0.155	0.305
-396.150	159.779	0.248	0.344
-395.136	-57.474	0.258	-0.113
-394.121	-11.968	-0.088	0.058
-393.106	40.051	0.125	0.112
-392.092	401.300	0.179	0.373
-391.077	114.874	-0.109	0.132
-390.063	142.264	0.130	0.172
-389.048	-38.733	-0.119	-0.063
-388.033	159.588	0.267	0.369
-387.019	165.831	0.206	-0.290
-386.004	-163.872	0.454	-0.021
-384.990	84.673	-0.094	-0.103
-383.975	-121.763	0.228	0.038
-382.960	-83.909	0.290	-0.092
-381.946	2.944	0.114	-0.083
-380.931	73.008	0.275	0.286
-379.917	159.094	-0.122	-0.169
-378.902	-39.475	0.095	0.050
-377.888	-146.262	0.029	0.002
-376.873	-42.416	0.163	-0.083
-375.858	-131.133	0.211	0.028
-374.844	-31.079	0.269	-0.151
-373.829	751.906	0.071	0.191
-372.815	-149.123	-0.095	0.008
-371.800	136.329	-0.136	0.176
-370.785	109.617	-0.068	0.081
-369.771	-68.999	0.122	-0.047
-368.756	-97.749	-0.273	-0.070
-367.742	400.444	-0.131	-0.274
-366.727	-78.669	0.069	0.023
-365.712	-200.000	0.081	-0.555
-364.698	-200.000	0.004	-0.103
-363.683	299.436	-0.014	-0.026
-362.669	88.414	-0.153	-0.169
-361.654	482.195	0.049	-0.110
-360.639	9.029	-0.153	-0.115
-359.625	276.462	-0.056	0.098
-358.610	4.659	0.191	-0.140
-357.596	-64.024	0.273	0.111
-356.581	15.488	-0.159	-0.124
-355.566	299.728	-0.034	0.062
-354.552	489.752	0.063	-0.144
-353.537	-200.000	-0.021	0.303
-352.523	379.929	-0.070	0.142
-351.508	85.925	-0.198	-0.217
-350.493	194.653	-0.128	0.192
-349.479	337.298	0.166	0.321
-348.464	3.936	-0.107	0.078
-347.450	-112.532	-0.156	-0.031
-346.435	-186.440	0.040	-0.001
-345.420	-200.000	-0.017	-0.112
-344.406	-200.000	0.008	0.377
-343.391	113.194	0.237	0.286
-342.377	-6.010	-0.427	0.291
-341.362	-200.000	-0.002	0.206
-340.348	251.829	-0.042	0.070
-339.333	538.809	0.040	-0.096
-338.318	35.239	0.318	0.277
-337.304	-85.697	0.072	0.022
-336.289	41.726	0.127	-0.114
-335.275	185.492	-0.121	0.178
-334.260	-114.997	0.251	0.047
-333.245	752.761	0.070	-0.189
-332.231	30.921	0.042	0.036
-331.216	-127.850	0.094	0.013
-330.202	-46.956	-0.139	0.067
-329.187	-18.134	0.381	0.237
-328.172	800.000	0.021	-0.090
-327.158	760.676	-0.153	-0.413
-326.143	-200.000	-0.036	-0.289
-325.129	-200.000	0.014	-0.075
-324.114	194.516	0.047	0.070
-323.099	-51.110	-0.020	-0.009
-322.085	711.761	-0.055	0.145
-321.070	212.449	0.245	-0.384
-320.056	73.213	0.080	0.083
-319.041	-125.937	0.281	-0.042
-318.026	166.716	0.056	-0.079
-317.012	0.941	0.078	0.056
-315.997	-200.000	-0.041	-0.178
-314.983	112.445	-0.193	0.231
-313.968	-200.000	0.027	0.231
-312.953	-133.790	-0.276	-0.034
-311.939	50.541	-0.124	-0.117
-310.924	44.382	0.192	-0.175
-309.910	-167.513	0.209	-0.008
-308.895	-19.695	-0.222	0.136
-307.880	-200.000	0.015	0.124
-306.866	-106.032	-0.277	-0.062
-305.851	299.941	-0.037	0.067
-304.837	48.437	-0.067	0.062
-303.822	682.619	-0.095	-0.246
-302.807	-101.123	-0.167	0.041
-301.793	-172.885	-0.370	-0.011
-300.778	114.193	0.143	-0.172
-299.764	-66.718	-0.077	0.030
-298.749	211.314	-0.136	0.212
-297.735	-132.327	0.087	0.011
-296.720	259.162	-0.130	-0.223
-295.705	-122.203	0.158	0.026
-294.691	-61.496	0.221	0.092
-293.676	-61.741	-0.366	-0.152
-292.662	502.438	0.132	-0.304
-291.647	-93.906	-0.364	0.099
-290.632	-138.229	0.254	-0.028
-289.618	217.164	0.193	-0.305
-288.603	-110.521	0.134	-0.028
-287.589	-200.000	0.003	-0.121
-286.574	33.120	0.167	0.144
-285.559	-200.000	0.423	0.002
-284.545	-126.989	-0.227	0.033
-283.530	115.302	0.185	0.224
-282.516	39.288	-0.114	-0.101
-281.501	15.290	-0.115	0.089
-280.486	294.472	0.109	-0.197
-279.472	35.131	0.279	0.242
-278.457	-63.721	-0.129	-0.052
-277.443	-105.120	-0.242	0.055
-276.428	-178.904	-0.144	0.003
-275.413	36.838	0.277	0.243
-274.399	-200.000	-0.006	-0.071
-273.384	-171.915	-0.257	-0.008
-272.370	-59.523	0.165	-0.070
-271.355	22.331	-0.342	0.277
-270.340	19.689	0.259	-0.207
-269.326	382.280	-0.046	-0.095
-268.311	120.927	0.073	0.090
-267.297	-111.610	-0.364	0.073
-266.282	-113.173	0.313	-0.061
-265.267	-72.928	0.286	-0.104
-264.253	-67.066	-0.114	-0.045
-263.238	-200.000	0.002	-0.038
-262.224	-149.891	0.061	0.005
-261.209	-164.811	0.101	0.004
-260.195	-49.117	0.126	-0.060
-259.180	-200.000	-0.028	0.130
-258.165	-138.761	-0.163	0.018
-257.151	-120.136	0.102	0.017
-256.136	-120.051	-0.036	-0.006
-255.122	-95.539	-0.429	-0.114
-254.107	-104.816	-0.302	0.069
-253.092	3.703	-0.043	0.031
-252.078	345.539	-0.150	0.292
-251.063	-114.835	0.087	-0.016
-250.049	-39.188	-0.108	-0.056
-249.034	-200.000	-0.023	-0.222
-248.019	-200.000	0.022	-0.179
-247.005	-156.667	0.227	-0.014
-245.990	-62.277	-0.081	0.033
-244.976	-166.796	0.223	0.009
-243.961	253.888	-0.100	0.169
-242.946	-200.000	0.008	0.262
-241.932	800.000	-0.019	-0.080
-240.917	-200.000	0.054	0.484
-239.903	99.611	-0.139	-0.159
-238.888	291.098	-0.154	0.277
-237.873	25.230	0.053	-0.044
-236.859	800.000	-0.070	-0.261
-235.844	-200.000	0.010	0.143
-234.830	131.213	-0.125	-0.159
-233.815	800.000	-0.070	-0.245
-232.800	50.997	-0.253	-0.237
-231.786	-75.185	-0.304	0.107
-230.771	-112.810	-0.286	-0.056
-229.757	-10.050	0.276	0.182
-228.742	155.563	-0.233	0.317
-227.727	-200.000	-0.010	0.267
-226.713	-62.591	-0.472	-0.194
-225.698	98.778	0.127	-0.145
-224.684	-142.714	0.354	0.034
-223.669	-124.376	-0.186	-0.029
-222.655	500.456	-0.111	-0.252
-221.640	-200.000	0.022	-0.189
-220.625	-74.762	-0.183	-0.065
-219.611	-145.377	-0.273	-0.024
-218.596	459.911	0.071	-0.156
-217.582	487.691	-0.165	0.373
-216.567	-67.606	-0.295	0.114
-215.552	-200.000	0.011	0.126
-214.538	-135.424	-0.207	0.024
-213.523	-167.151	-0.217	0.009
-212.509	-131.708	0.148	0.019
-211.494	-75.775	0.326	0.114
-210.479	64.705	-0.178	-0.178
-209.465	55.577	0.213	0.204
-208.450	800.000	0.054	-0.177
-207.436	800.000	-0.004	0.016
-206.421	472.710	0.020	-0.043
-205.406	1.555	-0.228	-0.162
-204.392	-200.000	-0.028	0.416
-203.377	-139.517	-0.009	-0.001
-202.363	-88.821	-0.074	0.022
-201.348	-200.000	-0.022	-0.201
-200.333	-34.423	0.179	0.097
-199.319	-136.653	0.064	-0.007
-198.304	367.679	0.225	0.450
-197.290	-200.000	0.007	0.194
-196.275	-200.000	0.025	0.110
-195.260	421.079	0.016	-0.035
-194.246	-200.000	0.011	0.425
-193.231	78.280	-0.150	-0.158
-192.217	-38.235	0.331	-0.173
-191.202	-97.356	0.219	0.056
-190.187	-124.489	0.078	-0.012
-189.173	28.255	0.198	0.165
-188.158	84.456	0.131	-0.141
-187.144	143.190	0.084	-0.110
-186.129	51.547	-0.261	-0.245
-185.114	364.242	-0.062	0.123
-184.100	-200.000	-0.022	0.367
-183.085	108.542	-0.107	-0.126
-182.071	-200.000	-0.032	0.364
-181.056	-200.000	-0.011	-0.163
-180.042	-31.880	0.189	0.104
-179.027	-200.000	-0.031	0.382
-178.012	91.066	-0.072	0.080
-176.998	487.270	0.083	-0.188
-175.983	-8.427	-0.278	-0.185
-174.969	129.907	0.120	0.152
-173.954	-200.000	0.022	-0.167
-172.939	391.692	-0.133	-0.273
-171.925	-40.090	0.248	0.128
-170.910	-200.000	0.017	-0.089
-169.896	-42.148	0.062	-0.031
-168.881	12.758	-0.268	-0.205
-167.866	-85.545	0.424	-0.130
-166.852	16.013	0.152	0.118
-165.837	637.086	0.160	-0.401
-164.823	375.384	0.056	0.113
-163.808	82.643	0.136	-0.146
-162.793	800.000	0.067	0.196
-161.779	58.201	-0.148	0.143
-160.764	-29.968	0.302	-0.170
-159.750	237.516	0.112	0.183
-158.735	-2.721	-0.118	-0.082
-157.720	-95.364	0.125	-0.033
-156.706	712.274	-0.077	-0.201
-155.691	-116.981	-0.132	0.024
-154.677	-145.509	0.127	0.011
-153.662	-48.642	0.398	0.189
-152.647	390.616	0.087	0.178
-151.633	493.654	0.066	-0.149
-150.618	-114.287	0.391	-0.074
-149.604	-12.344	0.108	-0.070
-148.589	-40.040	-0.078	0.040
-147.574	-147.666	0.241	0.020
-146.560	-8.139	-0.013	0.009
-145.545	-200.000	0.031	0.139
-144.531	2.996	-0.292	0.210
-143.516	77.711	0.166	0.175
-142.502	-200.000	-0.231	-0.001
-141.487	106.416	-0.169	-0.197
-140.472	777.690	-0.107	-0.288
-139.458	-200.000	0.003	0.125
-138.443	-32.567	-0.213	-0.117
-137.429	-133.190	-0.439	-0.055
-136.414	30.687	0.078	0.066
-135.399	288.926	0.109	-0.195
-134.385	-176.652	0.483	-0.012
-133.370	26.979	-0.250	-0.207
-132.356	-100.108	-0.390	-0.096
-131.341	148.318	0.051	-0.068
-130.326	-200.000	-0.027	-0.299
-129.312	101.634	-0.159	-0.183
-128.297	-95.587	0.280	-0.074
-127.283	-200.000	-0.043	0.278
-126.268	20.110	0.326	0.260
-125.253	-200.000	0.023	0.232
-124.239	44.363	-0.329	0.298
-123.224	-46.485	-0.173	-0.084
-122.210	56.387	-0.179	0.172
-121.195	155.616	0.338	-0.459
