DTS Sentinel unit serial number:	SN413079Multiplexer serial number:	ORYXHardware model number:	OX4-SRSoftware version number:	ORYX F/W v4.00 Oryx Data Collector v3.7.2.0data status	okinstallation	princeton_trtdifferential loss correction	single-endedforward channel	channel 1reverse channel	N/Adate	2019/09/17time	11:50:35forward acquisition time	60.00reverse acquisition time	0.00gamma	496.2192k internal	0.2322k external	0.2322temperature offset calibration	0.9976default loss term (dB/km)	0.3790temperature slope calibration	1.0000multiplexer offset coefficient	1.0000multiplexer slope coefficient	1.0000fibre end	0.00T internal ref (°C)	30.94T ext. ref 1 (°C)	0.39T ext. ref 2 (°C)	26.85length (m)	temperature (°C)	Stokes	anti-Stokes-747.200	-145.993	-0.216	-0.019
-746.185	47.924	-0.374	0.353
-745.171	118.291	0.274	0.342
-744.156	-2.913	-0.386	0.273
-743.142	137.606	0.083	0.109
-742.127	9.077	-0.299	0.228
-741.112	97.367	0.079	-0.091
-740.098	291.592	-0.176	-0.324
-739.083	208.773	-0.126	-0.199
-738.069	-141.268	0.260	0.027
-737.054	800.000	-0.070	0.231
-736.039	-200.000	-0.040	-0.234
-735.025	148.747	0.245	0.335
-734.010	-98.650	0.152	0.039
-732.996	-200.000	-0.060	-0.427
-731.981	-70.772	-0.050	-0.019
-730.966	258.333	-0.061	-0.107
-729.952	800.000	-0.050	-0.186
-728.937	-47.231	-0.298	0.147
-727.923	377.040	0.162	0.333
-726.908	-76.600	-0.313	-0.111
-725.894	-63.224	0.124	-0.051
-724.879	-131.999	-0.287	0.038
-723.864	-14.513	-0.162	-0.105
-722.850	800.000	0.082	0.241
-721.835	-83.317	0.096	0.031
-720.821	-94.214	-0.047	-0.013
-719.806	-30.745	-0.297	-0.169
-718.791	773.121	0.114	-0.313
-717.777	800.000	0.046	0.190
-716.762	130.386	0.039	0.050
-715.748	-55.329	0.367	0.166
-714.733	-88.417	-0.395	-0.119
-713.718	-45.402	0.198	-0.099
-712.704	800.000	-0.050	-0.169
-711.689	79.085	0.105	0.114
-710.675	-82.170	0.093	0.031
-709.660	-101.166	-0.225	0.056
-708.645	-182.711	-0.154	-0.003
-707.631	770.873	-0.067	-0.184
-706.616	-90.542	0.242	-0.071
-705.602	-15.781	-0.451	0.290
-704.587	253.949	0.195	-0.336
-703.572	-162.552	-0.183	0.009
-702.558	211.694	-0.217	0.344
-701.543	13.594	-0.173	-0.135
-700.529	9.399	0.210	0.160
-699.514	579.923	-0.070	-0.172
-698.499	-52.163	-0.329	0.154
-697.485	-200.000	0.033	0.284
-696.470	35.577	-0.095	-0.084
-695.456	-57.948	0.105	0.046
-694.441	240.616	-0.133	-0.224
-693.426	-117.681	-0.238	0.043
-692.412	300.412	0.098	-0.182
-691.397	-106.904	0.414	-0.092
-690.383	288.624	-0.105	-0.192
-689.368	-36.779	-0.128	-0.069
-688.354	285.652	-0.120	0.217
-687.339	109.210	-0.260	0.314
-686.324	-18.233	-0.097	-0.061
-685.310	325.041	0.050	0.097
-684.295	-5.670	-0.060	0.041
-683.281	453.874	-0.035	0.078
-682.266	-75.661	-0.068	0.024
-681.251	-200.000	-0.015	0.318
-680.237	-78.911	0.299	-0.103
-679.222	-22.345	-0.182	0.111
-678.208	611.118	-0.127	0.320
-677.193	800.000	0.088	-0.307
-676.178	-141.696	-0.116	-0.012
-675.164	800.000	0.072	-0.278
-674.149	51.324	-0.329	-0.315
-673.135	17.452	-0.133	-0.106
-672.120	-200.000	-0.020	-0.215
-671.105	135.184	-0.086	-0.112
-670.091	-200.000	-0.017	0.249
-669.076	-105.277	-0.641	0.147
-668.062	-200.000	-0.015	-0.118
-667.047	9.456	-0.105	-0.080
-666.032	-139.883	0.162	0.017
-665.018	-101.700	0.076	0.019
-664.003	-107.309	-0.353	-0.078
-662.989	-200.000	0.025	-0.167
-661.974	146.307	0.033	0.044
-660.959	-121.993	0.299	-0.050
-659.945	18.929	-0.103	-0.083
-658.930	79.227	0.038	0.041
-657.916	-112.302	-0.251	-0.051
-656.901	225.024	-0.247	-0.403
-655.886	682.104	0.051	0.133
-654.872	100.500	-0.153	0.179
-653.857	-184.523	0.055	0.001
-652.843	800.000	-0.052	-0.198
-651.828	800.000	0.141	0.578
-650.814	125.202	0.100	0.127
-649.799	-38.980	0.101	-0.054
-648.784	800.000	-0.051	-0.181
-647.770	12.553	-0.136	-0.105
-646.755	60.943	-0.162	-0.161
-645.741	467.510	0.115	-0.259
-644.726	92.970	0.167	0.190
-643.711	-200.000	0.017	0.315
-642.697	75.818	-0.198	0.211
-641.682	-153.040	-0.069	0.005
-640.668	800.000	-0.169	-0.589
-639.653	229.861	0.112	0.184
-638.638	266.709	-0.110	-0.193
-637.624	-200.000	-0.010	0.092
-636.609	222.335	0.129	0.210
-635.595	-5.155	-0.193	0.133
-634.580	800.000	-0.055	-0.166
-633.565	800.000	0.053	0.231
-632.551	-200.000	0.034	0.214
-631.536	-200.000	0.029	-0.352
-630.522	41.731	0.137	0.125
-629.507	-10.104	0.176	-0.118
-628.492	255.740	0.059	0.101
-627.478	580.397	0.070	0.173
-626.463	97.299	-0.136	0.157
-625.449	800.000	0.037	-0.159
-624.434	-24.978	0.221	0.132
-623.419	-146.789	-0.132	-0.011
-622.405	69.271	0.147	0.153
-621.390	-75.525	-0.243	0.087
-620.376	-31.565	0.075	0.042
-619.361	179.638	-0.156	0.230
-618.346	-200.000	0.038	0.359
-617.332	-200.000	-0.055	0.474
-616.317	478.958	0.135	0.307
-615.303	23.419	-0.109	-0.090
-614.288	318.276	0.061	0.116
-613.273	-148.183	0.245	0.020
-612.259	32.664	-0.169	-0.147
-611.244	82.173	0.237	-0.259
-610.230	-58.604	-0.238	-0.104
-609.215	645.927	-0.203	-0.520
-608.201	702.903	-0.117	0.311
-607.186	29.194	-0.283	-0.242
-606.171	-165.008	-0.071	0.003
-605.157	-45.814	-0.039	-0.019
-604.142	-200.000	-0.014	-0.141
-603.128	34.166	-0.211	-0.185
-602.113	-200.000	0.037	-0.282
-601.098	800.000	0.080	-0.264
-600.084	-52.323	-0.151	0.070
-599.069	-51.544	-0.218	-0.102
-598.055	50.339	0.167	0.158
-597.040	161.508	-0.137	0.192
-596.025	321.247	0.118	-0.225
-595.011	18.073	-0.104	-0.083
-593.996	-171.143	-0.224	0.008
-592.982	49.336	-0.142	-0.134
-591.967	526.162	-0.029	-0.069
-590.952	166.195	-0.136	0.193
-589.938	127.784	0.113	0.145
-588.923	-176.720	0.272	-0.007
-587.909	-131.647	0.150	0.020
-586.894	208.880	0.291	-0.457
-585.879	800.000	-0.067	-0.203
-584.865	-200.000	-0.007	0.469
-583.850	-54.091	-0.255	-0.116
-582.836	46.723	-0.072	-0.068
-581.821	-67.183	0.043	-0.017
-580.806	284.569	-0.084	0.151
-579.792	48.382	0.132	-0.124
-578.777	68.916	0.323	-0.333
-577.763	622.494	0.113	-0.286
-576.748	327.547	0.114	0.220
-575.733	284.348	-0.085	0.153
-574.719	-91.597	0.246	0.070
-573.704	283.828	-0.167	-0.302
-572.690	-53.237	-0.109	-0.050
-571.675	212.006	-0.095	-0.150
-570.661	19.228	0.154	0.124
-569.646	800.000	-0.075	0.218
-568.631	-200.000	0.000	0.291
-567.617	37.744	-0.177	-0.157
-566.602	-55.313	0.250	0.113
-565.588	141.129	0.121	-0.161
-564.573	800.000	-0.070	-0.260
-563.558	4.415	0.169	-0.125
-562.544	124.790	0.292	-0.369
-561.529	-200.000	-0.024	-0.222
-560.515	78.724	0.040	-0.043
-559.500	-200.000	0.003	0.219
-558.485	-38.725	0.015	-0.008
-557.471	-189.695	-0.215	-0.002
-556.456	108.311	0.168	0.201
-555.442	-200.000	0.026	0.318
-554.427	-115.057	0.187	-0.036
-553.412	800.000	0.087	0.281
-552.398	-200.000	-0.030	-0.205
-551.383	472.215	0.181	0.408
-550.369	-28.021	-0.157	0.091
-549.354	800.000	-0.038	0.145
-548.339	-200.000	0.065	-0.423
-547.325	-200.000	-0.005	0.088
-546.310	-145.323	-0.110	0.010
-545.296	87.903	-0.130	-0.145
-544.281	-2.797	-0.246	0.173
-543.266	800.000	-0.115	0.351
-542.252	136.343	-0.193	-0.253
-541.237	6.470	-0.264	-0.197
-540.223	-52.649	-0.165	-0.076
-539.208	577.130	-0.103	-0.252
-538.193	-35.282	-0.185	-0.101
-537.179	800.000	0.033	-0.093
-536.164	-200.000	0.038	0.232
-535.150	-92.784	0.111	0.031
-534.135	-155.590	0.177	-0.011
-533.121	-200.000	0.020	-0.200
-532.106	-31.197	-0.362	0.205
-531.091	800.000	-0.077	-0.320
-530.077	342.057	0.138	-0.271
-529.062	-23.525	-0.073	0.044
-528.048	-154.877	-0.274	-0.018
-527.033	-200.000	0.006	0.029
-526.018	30.435	0.137	-0.118
-525.004	-99.285	-0.182	0.046
-523.989	-40.982	0.049	0.026
-522.975	-45.774	-0.438	0.217
-521.960	-168.966	-0.147	0.005
-520.945	-183.294	0.121	0.002
-519.931	-128.201	0.077	0.011
-518.916	-13.781	-0.210	-0.136
-517.902	11.985	-0.208	0.160
-516.887	-200.000	0.049	0.310
-515.872	-56.702	-0.061	-0.027
-514.858	-68.762	0.175	-0.068
-513.843	-61.127	0.155	-0.066
-512.829	-200.000	0.032	-0.212
-511.814	-154.133	-0.228	0.015
-510.799	800.000	0.052	0.220
-509.785	312.450	0.076	0.143
-508.770	14.790	0.076	0.059
-507.756	154.011	-0.303	0.416
-506.741	-200.000	0.035	0.365
-505.726	-9.735	0.243	0.162
-504.712	302.937	-0.194	-0.360
-503.697	-100.819	-0.039	-0.010
-502.683	49.286	0.244	0.230
-501.668	6.826	0.129	0.096
-500.653	52.557	-0.257	-0.245
-499.639	-200.000	-0.015	-0.235
-498.624	-200.000	0.052	-0.244
-497.610	-100.297	-0.117	0.029
-496.595	27.948	0.083	-0.070
-495.581	-149.098	-0.081	0.007
-494.566	80.552	0.158	0.171
-493.551	216.875	-0.085	0.136
-492.537	-200.000	0.031	-0.389
-491.522	800.000	-0.065	-0.263
-490.508	-14.496	0.108	-0.069
-489.493	-200.000	-0.005	-0.215
-488.478	487.930	0.061	-0.139
-487.464	-71.876	0.121	0.045
-486.449	-166.847	-0.264	0.011
-485.435	-150.237	0.265	-0.020
-484.420	-200.000	0.005	-0.029
-483.405	232.548	0.047	0.077
-482.391	-33.728	-0.076	0.042
-481.376	-136.551	-0.228	0.026
-480.362	350.684	-0.083	-0.165
-479.347	-138.858	-0.243	0.026
-478.332	800.000	0.080	-0.290
-477.318	-200.000	0.041	0.340
-476.303	800.000	-0.066	0.249
-475.289	149.874	-0.092	-0.125
-474.274	-120.388	0.114	-0.019
-473.259	15.064	-0.110	0.086
-472.245	800.000	-0.042	-0.151
-471.230	-200.000	0.001	0.112
-470.216	-200.000	0.000	0.345
-469.201	-146.807	-0.496	0.043
-468.186	23.229	0.078	-0.064
-467.172	13.050	-0.043	0.033
-466.157	240.017	-0.150	0.249
-465.143	-200.000	-0.012	0.067
-464.128	800.000	0.061	0.263
-463.113	-46.812	0.048	0.023
-462.099	800.000	0.075	0.231
-461.084	-0.926	-0.107	-0.076
-460.070	-79.408	0.135	0.046
-459.055	97.897	-0.228	-0.263
-458.040	800.000	0.042	-0.156
-457.026	-165.051	0.120	0.005
-456.011	800.000	-0.064	-0.212
-454.997	-86.226	-0.167	0.051
-453.982	-44.240	-0.029	-0.015
-452.968	-23.840	-0.042	-0.025
-451.953	800.000	0.068	0.205
-450.938	246.977	-0.165	0.279
-449.924	3.097	0.183	-0.133
-448.909	-200.000	-0.010	-0.060
-447.895	472.603	-0.090	-0.203
-446.880	100.556	-0.149	0.172
-445.865	-200.000	-0.023	-0.284
-444.851	57.859	0.034	-0.033
-443.836	800.000	-0.035	-0.100
-442.822	-114.322	-0.035	0.007
-441.807	800.000	0.010	-0.030
-440.792	46.163	0.216	-0.200
-439.778	599.958	-0.109	-0.270
-438.763	262.727	-0.073	-0.126
-437.749	105.897	-0.294	0.347
-436.734	-200.000	0.009	-0.044
-435.719	-200.000	0.011	-0.050
-434.705	-42.350	0.123	0.063
-433.690	-18.878	0.337	0.209
-432.676	-71.559	0.242	0.090
-431.661	800.000	0.023	0.077
-430.646	-115.345	0.219	0.041
-429.632	-200.000	-0.009	-0.173
-428.617	-52.376	-0.246	0.114
-427.603	33.483	-0.176	0.153
-426.588	-108.252	0.226	0.049
-425.573	-192.427	-0.497	0.005
-424.559	41.015	0.341	0.307
-423.544	-31.789	0.196	0.110
-422.530	80.175	-0.138	-0.148
-421.515	800.000	-0.078	0.231
-420.500	-200.000	0.037	-0.378
-419.486	-126.669	0.546	0.081
-418.471	131.259	0.125	0.160
-417.457	52.840	-0.244	0.233
-416.442	-8.499	0.278	-0.186
-415.428	323.876	0.163	-0.309
-414.413	1.793	0.171	0.123
-413.398	-146.754	-0.266	0.023
-412.384	44.468	0.346	0.317
-411.369	-114.406	-0.224	-0.043
-410.355	-29.912	-0.122	-0.069
-409.340	278.320	0.168	0.298
-408.325	-200.000	-0.035	0.199
-407.311	12.769	0.250	-0.193
-406.296	-200.000	-0.014	-0.115
-405.282	-200.000	-0.027	0.363
-404.267	-200.000	-0.025	-0.387
-403.252	146.169	-0.054	-0.073
-402.238	-47.938	0.174	0.084
-401.223	150.327	0.164	0.222
-400.209	-200.000	0.000	-0.098
-399.194	-200.000	0.023	-0.305
-398.179	-63.930	-0.215	0.088
-397.165	-110.208	0.260	-0.054
-396.150	-200.000	0.006	0.069
-395.136	9.974	-0.167	0.126
-394.121	-156.037	-0.200	0.013
-393.106	24.199	0.325	0.267
-392.092	800.000	-0.069	-0.249
-391.077	-4.641	0.153	-0.106
-390.063	202.479	0.245	0.377
-389.048	-103.492	0.320	0.075
-388.033	-132.102	-0.339	0.044
-387.019	-54.111	-0.285	-0.129
-386.004	96.124	-0.162	-0.184
-384.990	-138.357	-0.191	0.021
-383.975	-200.000	0.033	-0.144
-382.960	-200.000	-0.044	-0.309
-381.946	113.225	-0.031	-0.037
-380.931	-41.169	-0.334	-0.172
-379.917	-123.582	0.102	-0.016
-378.902	22.162	-0.064	-0.052
-377.888	23.485	-0.121	0.099
-376.873	127.218	0.166	-0.210
-375.858	19.167	0.180	-0.144
-374.844	188.519	0.142	-0.211
-373.829	662.363	0.167	0.430
-372.815	64.262	0.238	0.239
-371.800	-200.000	0.007	0.231
-370.785	-111.956	-0.084	-0.017
-369.771	-28.887	-0.371	0.212
-368.756	-139.640	0.134	-0.014
-367.742	-191.290	0.102	0.001
-366.727	800.000	0.055	0.179
-365.712	-200.000	0.026	-0.127
-364.698	800.000	0.019	0.056
-363.683	-79.084	-0.344	0.116
-362.669	800.000	-0.027	-0.092
-361.654	-200.000	-0.043	-0.266
-360.639	540.436	0.018	-0.042
-359.625	-59.397	-0.245	0.105
-358.610	-118.787	-0.084	-0.015
-357.596	-200.000	0.009	0.246
-356.581	-94.115	0.059	0.016
-355.566	77.357	0.261	0.276
-354.552	-200.000	-0.008	-0.097
-353.537	679.729	-0.063	-0.163
-352.523	14.144	0.265	-0.205
-351.508	3.631	0.130	-0.094
-350.493	-60.009	-0.344	0.146
-349.479	800.000	0.065	-0.199
-348.464	41.707	-0.160	-0.145
-347.450	-200.000	0.053	0.277
-346.435	-116.732	0.104	-0.019
-345.420	30.599	0.158	0.134
-344.406	-44.569	0.451	-0.224
-343.391	-158.691	-0.146	0.008
-342.377	-200.000	-0.059	-0.288
-341.362	87.459	-0.189	0.208
-340.348	-86.908	-0.076	0.023
-339.333	-12.299	0.231	-0.150
-338.318	-95.424	-0.037	0.010
-337.304	800.000	0.048	0.179
-336.289	74.320	0.187	0.195
-335.275	-19.827	0.167	0.103
-334.260	101.620	0.150	-0.174
-333.245	-200.000	-0.037	-0.313
-332.231	-200.000	-0.001	0.392
-331.216	-16.266	0.072	-0.045
-330.202	216.502	-0.165	-0.260
-329.187	-26.383	0.416	-0.242
-328.172	-150.065	-0.057	-0.004
-327.158	3.892	0.067	-0.049
-326.143	-200.000	-0.010	0.074
-325.129	424.755	-0.077	0.165
-324.114	199.485	-0.039	0.059
-323.099	-200.000	-0.019	0.100
-322.085	-13.306	-0.172	-0.111
-321.070	-36.882	-0.238	0.127
-320.056	491.600	0.113	0.257
-319.041	-31.365	-0.135	-0.076
-318.026	800.000	0.088	0.300
-317.012	17.750	0.073	0.058
-315.997	800.000	0.051	-0.195
-314.983	730.096	-0.128	0.339
-313.968	-5.471	-0.197	0.134
-312.953	312.659	-0.053	-0.099
-311.939	-124.628	-0.256	-0.039
-310.924	-66.301	0.116	0.046
-309.910	107.913	0.018	-0.021
-308.895	-105.968	0.171	0.038
-307.880	-25.599	0.113	-0.066
-306.866	-145.251	0.244	0.022
-305.851	-50.841	-0.235	-0.110
-304.837	101.331	0.214	-0.247
-303.822	800.000	-0.005	-0.014
-302.807	-163.293	0.166	-0.008
-301.793	-148.535	0.149	0.012
-300.778	-151.038	0.161	-0.012
-299.764	-200.000	-0.021	0.195
-298.749	-65.835	-0.183	-0.073
-297.735	-74.872	0.095	-0.034
-296.720	-94.651	0.180	-0.049
-295.705	204.719	0.084	0.130
-294.691	-200.000	-0.020	0.000
-293.676	189.074	-0.121	0.180
-292.662	-200.000	-0.002	0.012
-291.647	-168.506	-0.296	-0.011
-290.632	-51.082	-0.067	0.031
-289.618	13.050	0.184	0.142
-288.603	-200.000	0.002	0.173
-287.589	-128.349	0.152	-0.021
-286.574	126.918	-0.158	-0.199
-285.559	484.163	-0.080	0.181
-284.545	-10.587	-0.148	-0.097
-283.530	-200.000	-0.009	0.244
-282.516	-122.013	0.250	0.041
-281.501	284.062	0.096	-0.171
-280.486	135.698	0.233	0.301
-279.472	-13.479	0.184	0.118
-278.457	-84.122	-0.126	-0.040
-277.443	-167.288	0.257	0.010
-276.428	-180.581	0.283	0.006
-275.413	-55.214	0.269	0.120
-274.399	-200.000	0.013	0.086
-273.384	-103.862	-0.096	-0.022
-272.370	-200.000	0.011	0.103
-271.355	9.156	-0.090	-0.068
-270.340	-200.000	-0.026	-0.217
-269.326	165.440	-0.066	-0.093
-268.311	-50.786	-0.246	-0.115
-267.297	-78.169	-0.161	-0.055
-266.282	102.348	-0.119	0.137
-265.267	88.769	0.087	-0.096
-264.253	339.818	-0.145	-0.281
-263.238	-71.173	0.168	-0.063
-262.224	511.218	0.109	0.252
-261.209	-200.000	0.015	0.138
-260.195	352.488	-0.115	-0.227
-259.180	103.430	-0.188	0.218
-258.165	129.645	0.198	0.250
-257.151	-11.265	0.238	0.155
-256.136	-200.000	0.030	-0.133
-255.122	361.190	0.048	-0.096
-254.107	278.483	0.144	-0.254
-253.092	254.913	0.169	-0.286
-252.078	-17.879	-0.357	-0.222
-251.063	-200.000	-0.012	-0.136
-250.049	-47.342	-0.269	-0.130
-249.034	32.474	-0.182	-0.156
-248.019	137.648	-0.082	0.107
-247.005	-68.133	0.117	0.045
-245.990	340.769	-0.269	0.520
-244.976	800.000	0.023	0.068
-243.961	502.992	0.129	-0.297
-242.946	-119.336	0.176	0.030
-241.932	-4.331	-0.183	0.125
-240.917	113.761	0.129	-0.155
-239.903	-200.000	-0.057	-0.355
-238.888	-200.000	0.001	0.048
-237.873	137.321	-0.051	-0.066
-236.859	-200.000	0.016	-0.354
-235.844	65.681	0.037	0.037
-234.830	-50.619	0.072	0.034
-233.815	-75.036	0.123	0.044
-232.800	-188.490	-0.052	0.001
-231.786	-123.130	0.203	0.032
-230.771	-0.875	-0.249	0.175
-229.757	800.000	-0.089	-0.355
-228.742	-150.677	0.261	-0.020
-227.727	-69.894	-0.169	-0.064
-226.713	-8.749	-0.302	-0.201
-225.698	184.211	0.108	-0.159
-224.684	800.000	0.097	0.293
-223.669	278.035	0.039	-0.069
-222.655	87.093	-0.130	0.142
-221.640	-153.705	-0.015	-0.001
-220.625	-133.072	0.119	0.015
-219.611	57.923	-0.110	-0.106
-218.596	-53.259	0.352	0.160
-217.582	-155.703	0.169	-0.011
-216.567	32.317	-0.103	0.088
-215.552	216.377	0.119	-0.188
-214.538	83.733	-0.211	0.228
-213.523	-181.811	-0.282	0.005
-212.509	-21.860	-0.300	-0.180
-211.494	-200.000	0.042	-0.270
-210.479	32.856	0.120	-0.102
-209.465	503.572	0.026	-0.058
-208.450	336.469	0.102	-0.197
-207.436	-200.000	0.006	0.368
-206.421	-159.928	-0.179	0.010
-205.406	-18.222	-0.333	-0.206
-204.392	160.915	0.138	-0.191
-203.377	-110.378	-0.170	0.035
-202.363	-100.208	0.374	0.092
-201.348	137.605	-0.145	0.188
-200.333	-200.000	0.057	0.279
-199.319	-145.443	-0.105	-0.009
-198.304	-43.802	0.175	-0.087
-197.290	-94.877	0.370	-0.099
-196.275	-200.000	-0.004	0.240
-195.260	-200.000	0.000	-0.025
-194.246	800.000	0.165	-0.492
-193.231	-62.917	0.111	0.045
-192.217	263.148	0.171	-0.293
-191.202	416.315	0.186	0.393
-190.187	-200.000	0.021	-0.200
-189.173	-200.000	-0.011	0.137
-188.158	-14.505	-0.366	-0.233
-187.144	435.952	0.081	-0.174
-186.129	757.577	-0.044	0.118
-185.114	348.107	-0.072	-0.140
-184.100	55.400	-0.326	-0.312
-183.085	-186.266	0.290	-0.004
-182.071	-146.142	-0.314	0.027
-181.056	-47.910	0.204	-0.097
-180.042	44.334	0.101	0.091
-179.027	100.615	0.080	0.092
-178.012	796.754	0.052	-0.142
-176.998	-200.000	-0.049	0.428
-175.983	800.000	0.052	0.189
-174.969	63.513	0.092	-0.091
-173.954	67.785	-0.083	-0.084
-172.939	-200.000	0.037	0.243
-171.925	-1.188	0.019	-0.013
-170.910	55.792	-0.049	0.047
-169.896	40.212	0.223	0.199
-168.881	-159.820	-0.071	-0.004
-167.866	800.000	0.048	0.153
-166.852	-154.388	0.365	-0.024
-165.837	-94.887	-0.278	-0.074
-164.823	217.206	-0.090	0.142
-163.808	3.505	0.200	0.144
-162.793	-12.427	0.292	-0.188
-161.779	-15.283	-0.166	0.105
-160.764	541.640	0.058	-0.137
-159.750	-100.802	-0.220	0.053
-158.735	-200.000	0.060	-0.269
-157.720	694.649	-0.047	-0.121
-156.706	-39.863	-0.067	-0.034
-155.691	33.568	0.132	0.113
-154.677	-96.686	-0.131	0.034
-153.662	800.000	-0.086	0.349
-152.647	696.515	0.108	0.279
-151.633	800.000	-0.053	-0.149
-150.618	377.994	0.053	0.106
-149.604	800.000	-0.052	0.161
-148.589	-200.000	0.022	0.320
-147.574	-200.000	0.014	-0.151
-146.560	88.757	-0.191	0.210
-145.545	-200.000	-0.004	-0.259
-144.531	-23.802	0.422	0.249
-143.516	800.000	-0.134	-0.376
-142.502	40.109	0.221	0.196
-141.487	800.000	0.067	-0.231
-140.472	510.253	-0.040	0.093
-139.458	-159.337	-0.128	-0.007
-138.443	-146.199	0.079	0.007
-137.429	23.923	-0.317	0.258
-136.414	504.575	0.165	0.378
-135.399	-200.000	-0.005	0.221
-134.385	-200.000	-0.006	-0.084
-133.370	-22.329	-0.186	0.111
-132.356	552.812	-0.095	0.226
-131.341	-173.291	0.011	0.000
-130.326	-102.472	0.201	-0.047
-129.312	135.411	0.160	0.205
-128.297	-111.880	0.283	-0.056
-127.283	-74.479	0.162	0.058
-126.268	-36.828	-0.405	0.214
-125.253	-26.720	-0.434	0.250
-124.239	-58.097	0.150	0.064
-123.224	-47.257	0.381	-0.183
-122.210	-157.736	0.066	0.004
-121.195	-62.995	0.441	-0.180
