DTS Sentinel unit serial number:	SN413079Multiplexer serial number:	ORYXHardware model number:	OX4-SRSoftware version number:	ORYX F/W v4.00 Oryx Data Collector v3.7.2.0data status	okinstallation	princeton_trtdifferential loss correction	single-endedforward channel	channel 1reverse channel	N/Adate	2019/09/19time	02:14:35forward acquisition time	60.00reverse acquisition time	0.00gamma	496.2192k internal	0.2344k external	0.2344temperature offset calibration	1.0018default loss term (dB/km)	0.3790temperature slope calibration	1.0000multiplexer offset coefficient	1.0000multiplexer slope coefficient	1.0000fibre end	0.00T internal ref (°C)	21.12T ext. ref 1 (°C)	0.68T ext. ref 2 (°C)	14.65length (m)	temperature (°C)	Stokes	anti-Stokes-747.200	800.000	0.052	0.187
-746.185	-200.000	0.030	0.174
-745.171	-62.257	0.072	-0.030
-744.156	-21.120	-0.095	0.058
-743.142	-91.834	-0.233	-0.066
-742.127	-18.413	-0.205	0.128
-741.112	156.649	0.168	-0.232
-740.098	83.419	-0.271	0.295
-739.083	351.863	-0.172	-0.340
-738.069	664.244	-0.078	0.201
-737.054	-116.090	-0.486	-0.090
-736.039	-38.928	-0.169	-0.089
-735.025	-200.000	0.002	-0.022
-734.010	-36.554	-0.180	-0.097
-732.996	-139.288	-0.401	0.043
-731.981	162.521	-0.052	0.073
-730.966	-21.431	-0.274	-0.167
-729.952	-200.000	-0.038	0.269
-728.937	-107.464	-0.209	0.046
-727.923	-145.563	-0.116	0.010
-726.908	-99.617	-0.178	-0.045
-725.894	-200.000	0.002	0.090
-724.879	-83.092	-0.248	0.080
-723.864	-200.000	-0.037	-0.188
-722.850	-200.000	-0.092	-0.481
-721.835	349.046	-0.054	0.107
-720.821	271.171	0.088	0.156
-719.806	-38.460	0.078	-0.041
-718.791	252.823	0.101	-0.173
-717.777	-200.000	-0.032	0.282
-716.762	6.496	-0.234	0.174
-715.748	-53.868	-0.185	0.084
-714.733	203.090	0.143	0.221
-713.718	-200.000	0.001	-0.284
-712.704	299.692	-0.032	-0.058
-711.689	-59.144	-0.172	-0.074
-710.675	-162.401	-0.169	-0.008
-709.660	-200.000	0.010	-0.159
-708.645	-158.029	-0.365	-0.021
-707.631	295.349	0.150	0.274
-706.616	196.577	-0.088	-0.134
-705.602	-50.322	-0.229	-0.108
-704.587	-108.865	0.197	0.042
-703.572	-117.071	0.274	-0.050
-702.558	-139.535	-0.257	-0.027
-701.543	40.255	0.117	-0.105
-700.529	-200.000	0.008	-0.095
-699.514	96.199	0.218	0.248
-698.499	-45.090	0.170	0.085
-697.485	-18.616	0.094	0.059
-696.470	-40.909	-0.466	-0.241
-695.456	-200.000	-0.026	-0.164
-694.441	393.624	0.110	-0.229
-693.426	-7.653	0.084	-0.057
-692.412	35.944	-0.371	0.326
-691.397	143.158	0.063	-0.084
-690.383	97.307	-0.143	0.164
-689.368	-4.728	0.178	-0.123
-688.354	-30.641	0.271	-0.153
-687.339	-97.025	0.277	0.072
-686.324	-11.636	-0.077	-0.051
-685.310	-49.094	0.258	0.123
-684.295	111.652	-0.170	0.205
-683.281	51.267	0.076	0.072
-682.266	-92.215	0.266	-0.075
-681.251	-23.917	-0.306	0.183
-680.237	-163.189	-0.079	0.004
-679.222	-101.083	0.209	0.051
-678.208	-108.155	0.147	0.032
-677.193	-200.000	0.040	0.220
-676.178	-55.961	-0.363	-0.162
-675.164	212.924	0.091	-0.144
-674.149	-48.683	-0.278	-0.133
-673.135	-76.070	0.438	0.154
-672.120	-1.963	0.146	-0.102
-671.105	-200.000	0.008	0.213
-670.091	-200.000	-0.040	-0.197
-669.076	-86.662	0.312	-0.095
-668.062	-160.179	-0.271	-0.015
-667.047	-57.974	0.079	0.034
-666.032	-122.612	0.201	-0.033
-665.018	800.000	0.019	-0.070
-664.003	174.017	-0.169	0.243
-662.989	511.053	-0.079	0.183
-661.974	-200.000	0.009	-0.226
-660.959	-200.000	0.044	0.254
-659.945	210.647	0.084	0.132
-658.930	142.585	0.199	-0.264
-657.916	-86.471	-0.126	0.039
-656.901	-138.979	-0.170	0.018
-655.886	-200.000	-0.037	-0.360
-654.872	-200.000	0.009	0.200
-653.857	-110.946	0.347	0.071
-652.843	326.971	0.163	0.312
-651.828	61.699	-0.093	-0.093
-650.814	-82.164	0.186	-0.060
-649.799	-57.217	-0.386	0.169
-648.784	-200.000	-0.022	0.207
-647.770	-104.104	-0.249	-0.058
-646.755	-130.547	-0.270	-0.036
-645.741	343.083	-0.143	-0.280
-644.726	800.000	0.066	0.202
-643.711	-200.000	0.009	-0.273
-642.697	-34.261	-0.338	0.185
-641.682	623.875	0.083	0.210
-640.668	-105.550	0.047	0.011
-639.653	137.953	0.019	0.024
-638.638	-200.000	0.017	0.141
-637.624	338.336	0.117	0.227
-636.609	193.362	0.119	-0.180
-635.595	-200.000	-0.013	0.066
-634.580	-34.211	0.128	-0.070
-633.565	-0.186	-0.296	0.210
-632.551	800.000	0.113	-0.382
-631.536	-91.792	0.326	-0.092
-630.522	0.892	0.116	-0.083
-629.507	-112.534	0.308	0.061
-628.492	1.245	-0.191	-0.137
-627.478	-122.937	0.457	0.073
-626.463	162.801	0.058	-0.081
-625.449	153.988	0.146	-0.199
-624.434	-154.125	-0.183	0.012
-623.419	800.000	0.121	-0.332
-622.405	-96.857	-0.072	-0.019
-621.390	-200.000	0.010	0.052
-620.376	-200.000	0.045	-0.302
-619.361	-86.759	0.258	-0.079
-618.346	-96.442	-0.188	0.049
-617.332	-200.000	-0.027	-0.117
-616.317	-93.730	-0.155	0.043
-615.303	800.000	-0.065	0.282
-614.288	12.446	0.105	0.081
-613.273	595.308	-0.103	0.254
-612.259	543.853	0.054	-0.128
-611.244	-65.629	0.321	0.128
-610.230	-200.000	0.009	-0.148
-609.215	-32.760	0.059	-0.032
-608.201	37.502	-0.173	0.153
-607.186	-200.000	-0.000	0.199
-606.171	124.506	0.111	0.139
-605.157	-66.160	0.171	0.068
-604.142	257.406	0.128	-0.219
-603.128	-79.911	0.255	-0.085
-602.113	-200.000	0.023	-0.178
-601.098	9.488	-0.222	0.167
-600.084	-200.000	-0.032	-0.164
-599.069	297.173	0.070	-0.129
-598.055	294.786	0.194	-0.353
-597.040	-114.259	-0.189	0.036
-596.025	-71.109	0.228	-0.085
-595.011	800.000	0.039	0.150
-593.996	96.590	-0.288	0.328
-592.982	40.189	0.005	0.004
-591.967	86.446	-0.159	0.175
-590.952	512.192	0.196	-0.454
-589.938	-58.442	-0.190	0.082
-588.923	60.300	0.209	-0.206
-587.909	138.167	-0.153	-0.200
-586.894	349.907	0.117	0.231
-585.879	-64.973	-0.280	-0.113
-584.865	79.903	-0.275	0.293
-583.850	-200.000	-0.053	0.359
-582.836	-200.000	-0.052	0.237
-581.821	800.000	0.069	0.252
-580.806	392.035	0.033	-0.069
-579.792	-134.561	-0.231	0.028
-578.777	6.299	-0.215	0.159
-577.763	115.913	-0.083	0.101
-576.748	400.021	0.145	0.302
-575.733	-200.000	0.047	0.242
-574.719	-147.800	-0.174	0.014
-573.704	800.000	0.034	0.129
-572.690	-161.532	-0.191	-0.010
-571.675	-62.683	-0.067	0.028
-570.661	-49.167	-0.192	-0.091
-569.646	3.457	0.209	0.152
-568.631	-200.000	0.002	-0.148
-567.617	277.026	0.063	-0.111
-566.602	-29.653	0.242	-0.138
-565.588	28.809	-0.152	-0.128
-564.573	794.169	-0.052	0.141
-563.558	-30.996	0.259	-0.146
-562.544	-48.005	-0.187	-0.090
-561.529	-62.867	-0.248	0.102
-560.515	120.086	0.208	-0.256
-559.500	-51.854	-0.099	0.046
-558.485	-200.000	-0.016	0.133
-557.471	-200.000	-0.019	-0.165
-556.456	-116.763	-0.111	0.020
-555.442	-200.000	0.068	0.312
-554.427	-131.408	-0.026	-0.003
-553.412	-129.817	-0.053	0.007
-552.398	303.193	0.055	0.101
-551.383	44.375	-0.148	-0.135
-550.369	-200.000	-0.048	-0.220
-549.354	388.717	0.052	-0.106
-548.339	104.596	-0.079	-0.092
-547.325	507.480	-0.103	-0.237
-546.310	68.287	0.143	-0.146
-545.296	-21.511	-0.269	0.163
-544.281	-200.000	0.000	-0.242
-543.266	-115.966	0.270	-0.050
-542.252	-44.364	0.057	0.028
-541.237	-22.817	0.260	0.156
-540.223	217.188	0.166	-0.262
-539.208	800.000	-0.055	0.173
-538.193	167.912	0.148	-0.209
-537.179	-150.163	-0.287	-0.022
-536.164	-37.251	0.359	0.191
-535.150	-139.228	0.368	-0.039
-534.135	32.391	0.191	-0.163
-533.121	368.783	-0.217	0.436
-532.106	-115.655	-0.300	-0.056
-531.091	800.000	0.021	-0.087
-530.077	-106.782	-0.145	-0.032
-529.062	24.586	0.219	0.180
-528.048	-106.244	0.416	0.093
-527.033	-9.734	-0.249	0.165
-526.018	-30.155	-0.019	-0.010
-525.004	-122.385	0.262	-0.042
-523.989	-83.148	0.165	-0.053
-522.975	73.195	-0.236	0.245
-521.960	-100.550	-0.099	0.024
-520.945	-10.628	0.257	0.169
-519.931	800.000	0.075	0.279
-518.916	-117.691	-0.220	0.039
-517.902	-176.513	0.404	-0.010
-516.887	540.402	-0.061	-0.145
-515.872	38.299	-0.239	0.211
-514.858	-6.648	0.132	0.089
-513.843	800.000	-0.114	-0.312
-512.829	651.861	0.058	-0.148
-511.814	142.194	-0.121	-0.159
-510.799	22.950	0.152	-0.124
-509.785	87.714	-0.092	0.101
-508.770	-57.516	0.365	0.159
-507.756	622.359	0.109	-0.272
-506.741	77.330	0.091	-0.095
-505.726	-58.198	-0.158	-0.068
-504.712	-50.669	-0.048	-0.023
-503.697	-63.776	0.244	0.099
-502.683	-200.000	-0.008	-0.057
-501.668	156.811	-0.168	0.229
-500.653	-5.830	-0.219	0.149
-499.639	-200.000	0.006	-0.045
-498.624	-200.000	-0.026	0.203
-497.610	138.459	0.094	0.122
-496.595	-48.416	0.218	0.104
-495.581	-105.038	-0.138	0.031
-494.566	-159.924	0.200	0.011
-493.551	-90.423	0.271	-0.078
-492.537	-200.000	0.011	0.308
-491.522	-26.562	-0.144	0.083
-490.508	-67.632	-0.350	0.136
-489.493	-8.923	-0.143	0.095
-488.478	-200.000	-0.025	-0.157
-487.464	-40.105	0.270	-0.140
-486.449	-47.082	-0.176	0.085
-485.435	-200.000	0.020	-0.175
-484.420	-116.730	-0.367	-0.067
-483.405	-85.384	0.192	0.059
-482.391	-148.934	-0.292	0.023
-481.376	92.087	0.258	-0.288
-480.362	323.869	-0.100	-0.189
-479.347	800.000	-0.053	0.206
-478.332	-110.371	0.172	-0.035
-477.318	1.331	-0.169	0.120
-476.303	-35.469	-0.242	-0.130
-475.289	-130.164	-0.033	0.005
-474.274	-120.903	-0.195	-0.033
-473.259	800.000	0.093	-0.361
-472.245	-107.328	0.227	-0.049
-471.230	-55.217	0.280	-0.125
-470.216	194.023	-0.141	-0.212
-469.201	209.844	0.078	-0.121
-468.186	108.745	0.312	0.369
-467.172	67.442	0.050	0.050
-466.157	51.505	0.187	-0.176
-465.143	272.596	0.092	-0.161
-464.128	-181.816	-0.039	-0.001
-463.113	-52.754	-0.194	-0.089
-462.099	-131.347	0.058	-0.008
-461.084	-200.000	0.037	-0.188
-460.070	-156.529	0.085	0.005
-459.055	-15.723	0.388	0.245
-458.040	-76.062	-0.198	-0.069
-457.026	-181.025	-0.259	-0.005
-456.011	-58.608	-0.375	-0.161
-454.997	-200.000	0.070	-0.405
-453.982	78.060	0.164	-0.173
-452.968	82.991	0.194	0.208
-451.953	-200.000	-0.056	0.269
-450.938	-37.811	-0.335	-0.176
-449.924	-67.516	0.105	0.041
-448.909	-1.621	0.270	0.189
-447.895	270.761	-0.068	-0.118
-446.880	-168.968	-0.178	0.007
-445.865	-59.696	-0.214	-0.091
-444.851	-16.535	-0.260	-0.163
-443.836	-84.811	0.131	0.041
-442.822	-200.000	0.035	-0.492
-441.807	-200.000	-0.002	-0.043
-440.792	391.594	-0.082	0.169
-439.778	-4.719	-0.104	-0.071
-438.763	-102.750	0.094	-0.022
-437.749	-158.152	0.441	-0.026
-436.734	-200.000	0.007	-0.160
-435.719	32.268	0.270	0.230
-434.705	44.015	0.210	0.190
-433.690	27.329	0.246	-0.205
-432.676	60.806	-0.103	-0.101
-431.661	44.952	-0.049	-0.044
-430.646	183.121	-0.106	-0.155
-429.632	-63.245	-0.383	-0.156
-428.617	-200.000	-0.049	-0.305
-427.603	129.438	0.251	-0.317
-426.588	-47.665	-0.398	0.191
-425.573	-124.944	0.305	-0.046
-424.559	180.149	-0.178	-0.257
-423.544	95.174	-0.144	0.162
-422.530	103.849	0.030	0.035
-421.515	-50.113	0.139	-0.065
-420.500	202.845	-0.041	-0.063
-419.486	-163.112	0.252	-0.012
-418.471	399.488	0.100	0.208
-417.457	-73.228	-0.328	0.119
-416.442	-200.000	-0.005	-0.088
-415.428	-25.516	-0.083	0.049
-414.413	-77.598	-0.076	-0.026
-413.398	99.471	-0.278	-0.318
-412.384	133.019	-0.138	-0.175
-411.369	9.837	0.193	-0.145
-410.355	147.113	0.263	-0.350
-409.340	-158.925	-0.206	0.012
-408.325	8.904	-0.268	-0.200
-407.311	600.569	0.075	0.185
-406.296	137.055	0.069	0.089
-405.282	-125.026	-0.163	0.025
-404.267	742.916	0.079	-0.211
-403.252	-200.000	-0.061	0.268
-402.238	-90.508	-0.189	-0.054
-401.223	-200.000	-0.045	0.218
-400.209	109.844	-0.148	-0.175
-399.194	11.623	-0.194	0.147
-398.179	-200.000	-0.070	-0.550
-397.165	-143.432	-0.276	0.026
-396.150	-96.443	0.182	-0.047
-395.136	-29.243	-0.222	-0.126
-394.121	800.000	-0.074	-0.232
-393.106	-40.133	0.138	0.071
-392.092	-64.212	-0.173	0.070
-391.077	198.221	0.190	0.287
-390.063	-200.000	0.026	-0.236
-389.048	-42.386	-0.421	-0.212
-388.033	-200.000	-0.031	-0.212
-387.019	800.000	-0.064	-0.273
-386.004	217.675	-0.053	0.083
-384.990	-84.547	-0.456	-0.142
-383.975	517.854	-0.052	-0.119
-382.960	-12.999	0.170	0.109
-381.946	800.000	-0.081	0.322
-380.931	53.658	0.095	-0.090
-379.917	-100.174	-0.299	-0.073
-378.902	-0.834	0.427	-0.299
-377.888	-24.140	0.254	0.150
-376.873	-124.734	0.188	0.029
-375.858	-173.649	0.089	-0.003
-374.844	-76.973	-0.601	0.207
-373.829	406.226	0.211	0.439
-372.815	-126.633	-0.078	-0.011
-371.800	-200.000	0.016	0.225
-370.785	106.415	0.135	0.157
-369.771	800.000	0.074	-0.246
-368.756	366.699	0.062	0.123
-367.742	-200.000	0.001	-0.198
-366.727	-42.692	0.522	-0.262
-365.712	-143.916	0.132	0.012
-364.698	-20.976	0.140	0.084
-363.683	-200.000	0.000	0.071
-362.669	-200.000	0.010	-0.392
-361.654	313.130	0.107	-0.199
-360.639	800.000	0.017	-0.049
-359.625	259.188	-0.010	-0.017
-358.610	128.237	0.133	0.167
-357.596	91.825	0.083	-0.092
-356.581	225.578	0.185	-0.296
-355.566	-164.474	0.068	-0.003
-354.552	-200.000	0.088	0.404
-353.537	27.379	0.051	0.042
-352.523	187.382	-0.087	0.128
-351.508	-89.682	-0.221	-0.064
-350.493	-3.295	0.108	-0.074
-349.479	-200.000	-0.046	0.368
-348.464	229.749	-0.141	0.228
-347.450	-163.218	-0.143	-0.007
-346.435	193.391	0.125	-0.187
-345.420	-200.000	0.029	-0.249
-344.406	-1.162	-0.145	0.101
-343.391	800.000	-0.039	0.159
-342.377	-137.235	0.649	-0.073
-341.362	-200.000	-0.004	-0.235
-340.348	-131.080	0.356	-0.047
-339.333	578.069	0.110	0.264
-338.318	-200.000	-0.017	0.316
-337.304	-64.892	-0.392	0.156
-336.289	-5.240	-0.331	-0.224
-335.275	67.581	-0.081	0.081
-334.260	-200.000	-0.016	-0.123
-333.245	15.442	0.091	0.071
-332.231	52.802	0.062	0.059
-331.216	274.677	0.068	-0.119
-330.202	800.000	0.061	0.210
-329.187	800.000	-0.111	0.335
-328.172	5.453	0.200	-0.146
-327.158	639.114	-0.069	0.173
-326.143	296.998	-0.174	0.313
-325.129	-74.942	0.238	-0.084
-324.114	-39.603	-0.176	-0.091
-323.099	227.927	-0.097	-0.155
-322.085	352.967	0.143	-0.278
-321.070	475.544	-0.109	0.243
-320.056	155.969	0.147	-0.199
-319.041	-110.288	-0.289	0.059
-318.026	47.501	0.059	0.054
-317.012	129.095	-0.079	0.099
-315.997	197.365	0.214	0.321
-314.983	800.000	0.102	0.324
-313.968	-120.605	-0.018	0.003
-312.953	111.670	0.309	0.367
-311.939	-13.068	0.091	0.058
-310.924	178.683	0.160	0.229
-309.910	362.601	-0.173	0.342
-308.895	-64.705	-0.278	0.111
-307.880	43.341	0.090	0.081
-306.866	20.216	-0.149	0.119
-305.851	97.058	-0.074	-0.083
-304.837	-150.216	-0.288	0.022
-303.822	142.337	0.323	0.422
-302.807	-50.815	-0.063	-0.029
-301.793	-200.000	0.001	-0.198
-300.778	120.179	0.131	-0.160
-299.764	377.357	0.312	0.628
-298.749	-17.610	0.112	0.069
-297.735	474.457	0.054	-0.120
-296.720	-100.483	-0.111	-0.027
-295.705	-200.000	0.014	0.362
-294.691	461.157	-0.271	0.595
-293.676	-200.000	-0.001	-0.130
-292.662	271.429	0.112	0.193
-291.647	656.744	0.232	-0.586
-290.632	89.559	-0.183	0.201
-289.618	-45.527	0.220	0.107
-288.603	37.864	0.086	-0.075
-287.589	-43.335	-0.111	0.055
-286.574	194.342	-0.043	0.064
-285.559	-98.114	-0.403	0.102
-284.545	71.952	-0.049	-0.050
-283.530	800.000	-0.062	0.189
-282.516	42.923	-0.210	0.188
-281.501	-200.000	0.076	-0.452
-280.486	624.950	-0.058	0.145
-279.472	167.650	-0.110	-0.153
-278.457	363.871	-0.159	-0.315
-277.443	180.442	0.095	-0.137
-276.428	-200.000	-0.034	0.224
-275.413	-200.000	-0.002	0.029
-274.399	-23.072	0.160	-0.095
-273.384	145.273	-0.287	-0.378
-272.370	-200.000	0.001	-0.179
-271.355	-149.796	0.387	0.030
-270.340	17.464	-0.299	-0.233
-269.326	-13.321	0.154	-0.098
-268.311	-79.439	0.354	-0.118
-267.297	421.116	-0.129	-0.272
-266.282	80.697	0.158	0.167
-265.267	-200.000	-0.013	-0.131
-264.253	86.399	-0.326	-0.353
-263.238	-73.576	0.296	-0.106
-262.224	343.242	-0.133	0.255
-261.209	-148.320	0.336	0.027
-260.195	-200.000	0.001	-0.028
-259.180	334.245	-0.077	0.147
-258.165	-156.974	-0.176	0.011
-257.151	444.823	-0.090	-0.194
-256.136	-49.674	-0.173	-0.081
-255.122	102.722	0.263	0.303
-254.107	139.894	0.302	0.391
-253.092	93.975	0.223	0.248
-252.078	-131.079	0.273	-0.036
-251.063	-95.798	0.215	-0.056
-250.049	353.496	0.053	0.103
-249.034	-153.783	-0.234	0.016
-248.019	800.000	0.058	0.158
-247.005	126.214	-0.150	0.187
-245.990	-54.954	0.032	0.014
-244.976	-24.998	0.242	0.141
-243.961	51.588	-0.097	0.090
-242.946	-200.000	-0.006	0.194
-241.932	271.562	-0.129	0.224
-240.917	-26.826	0.249	0.143
-239.903	-200.000	-0.042	0.217
-238.888	137.036	-0.102	0.131
-237.873	-200.000	0.005	0.287
-236.859	-42.910	-0.183	-0.091
-235.844	-75.487	-0.262	0.091
-234.830	159.713	-0.110	0.150
-233.815	-195.675	0.284	-0.002
-232.800	-98.143	-0.290	0.073
-231.786	-11.454	0.135	-0.087
-230.771	-86.119	-0.282	0.085
-229.757	-81.725	-0.214	-0.069
-228.742	-144.971	0.234	0.021
-227.727	-5.627	0.137	-0.092
-226.713	-87.240	-0.186	-0.056
-225.698	-77.704	-0.346	-0.118
-224.684	-200.000	0.032	-0.312
-223.669	-148.005	0.116	0.009
-222.655	-13.394	-0.218	0.138
-221.640	45.708	0.246	0.223
-220.625	325.962	-0.076	-0.142
-219.611	-200.000	0.024	0.313
-218.596	-136.827	-0.030	-0.003
-217.582	9.361	0.211	0.156
-216.567	332.573	0.152	-0.289
-215.552	-181.447	-0.119	0.002
-214.538	153.609	-0.122	-0.163
-213.523	5.634	-0.410	-0.297
-212.509	-82.884	0.173	-0.055
-211.494	-200.000	0.051	-0.271
-210.479	800.000	0.023	-0.084
-209.465	-93.748	-0.172	0.046
-208.450	-97.717	0.128	-0.033
-207.436	-19.891	0.441	-0.267
-206.421	-44.374	-0.179	0.088
-205.406	-48.786	0.199	-0.093
-204.392	-81.253	0.134	-0.044
-203.377	-18.129	0.257	-0.158
-202.363	80.541	-0.194	-0.205
-201.348	45.459	0.071	0.064
-200.333	-147.332	0.323	-0.027
-199.319	-200.000	0.044	0.220
-198.304	414.188	-0.084	-0.175
-197.290	-78.496	0.149	0.050
-196.275	-47.696	-0.196	-0.093
-195.260	-200.000	0.053	-0.272
-194.246	-200.000	0.023	-0.128
-193.231	73.694	-0.277	0.284
-192.217	-162.496	0.377	-0.018
-191.202	64.490	-0.192	0.190
-190.187	-171.462	-0.063	-0.002
-189.173	520.914	-0.028	-0.064
-188.158	371.524	-0.080	-0.158
-187.144	-27.732	-0.040	-0.023
-186.129	800.000	-0.033	-0.120
-185.114	311.027	-0.048	-0.089
-184.100	6.908	0.097	0.071
-183.085	-53.570	0.191	0.085
-182.071	-116.216	-0.116	-0.021
-181.056	96.965	-0.238	-0.267
-180.042	187.349	0.114	0.166
-179.027	378.717	0.111	0.223
-178.012	-200.000	0.005	-0.292
-176.998	-200.000	-0.027	0.359
-175.983	60.023	-0.183	-0.177
-174.969	-60.974	-0.241	-0.100
-173.954	-101.459	-0.156	0.037
-172.939	-88.141	0.084	-0.025
-171.925	-200.000	0.024	0.264
-170.910	800.000	-0.075	0.234
-169.896	-13.697	-0.180	-0.114
-168.881	428.980	-0.101	-0.214
-167.866	800.000	-0.052	0.187
-166.852	-200.000	-0.383	-0.001
-165.837	-164.191	-0.316	0.014
-164.823	327.152	0.035	0.066
-163.808	-200.000	-0.043	0.217
-162.793	-85.489	-0.165	0.050
-161.779	800.000	0.040	-0.141
-160.764	-21.938	0.218	-0.129
-159.750	-200.000	-0.003	0.095
-158.735	224.701	-0.032	-0.050
-157.720	-200.000	-0.002	-0.031
-156.706	342.717	-0.071	-0.136
-155.691	-32.279	0.343	0.188
-154.677	-6.273	0.082	0.055
-153.662	800.000	-0.092	-0.268
-152.647	-114.529	0.300	0.056
-151.633	-76.943	-0.139	-0.048
-150.618	95.037	-0.015	-0.017
-149.604	-200.000	0.014	-0.395
-148.589	25.528	-0.054	-0.044
-147.574	26.088	0.139	-0.114
-146.560	-180.551	-0.297	0.006
-145.545	-70.662	0.272	0.101
-144.531	217.462	0.025	0.038
-143.516	124.740	-0.090	0.111
-142.502	-200.000	0.007	0.220
-141.487	-12.437	-0.284	0.181
-140.472	800.000	-0.091	0.252
-139.458	-146.809	0.354	-0.030
-138.443	300.587	0.037	0.067
-137.429	-78.818	0.212	0.071
-136.414	-100.734	-0.234	0.056
-135.399	800.000	0.028	-0.080
-134.385	81.639	0.022	0.023
-133.370	12.596	0.201	0.151
-132.356	-59.252	0.150	0.063
-131.341	54.157	0.058	0.055
-130.326	282.029	-0.135	-0.236
-129.312	580.732	-0.099	0.237
-128.297	800.000	-0.088	0.265
-127.283	391.709	0.089	0.182
-126.268	-200.000	0.012	0.123
-125.253	-114.788	-0.166	-0.031
-124.239	800.000	-0.059	0.182
-123.224	352.623	0.073	0.142
-122.210	-100.614	0.280	-0.068
