DTS Sentinel unit serial number:	SN413079Multiplexer serial number:	ORYXHardware model number:	OX4-SRSoftware version number:	ORYX F/W v4.00 Oryx Data Collector v3.7.2.0data status	okinstallation	princeton_trtdifferential loss correction	single-endedforward channel	channel 1reverse channel	N/Adate	2019/09/16time	10:30:35forward acquisition time	60.00reverse acquisition time	0.00gamma	496.2192k internal	0.2306k external	0.2306temperature offset calibration	0.9965default loss term (dB/km)	0.3790temperature slope calibration	1.0000multiplexer offset coefficient	1.0000multiplexer slope coefficient	1.0000fibre end	0.00T internal ref (°C)	35.30T ext. ref 1 (°C)	12.57T ext. ref 2 (°C)	33.71length (m)	temperature (°C)	Stokes	anti-Stokes-747.200	-29.266	0.084	-0.049
-746.185	-37.529	-0.304	0.165
-745.171	-49.617	-0.076	0.037
-744.156	-90.072	0.150	0.045
-743.142	-182.883	-0.152	0.003
-742.127	-145.052	0.393	0.036
-741.112	134.348	0.109	0.143
-740.098	8.720	-0.138	-0.106
-739.083	556.921	0.036	-0.088
-738.069	594.173	-0.036	0.090
-737.054	-200.000	-0.015	0.094
-736.039	800.000	0.026	0.088
-735.025	151.180	0.058	0.081
-734.010	800.000	-0.086	-0.333
-732.996	6.951	-0.261	-0.198
-731.981	-28.584	0.175	0.103
-730.966	122.499	-0.105	0.134
-729.952	-200.000	0.063	-0.316
-728.937	-200.000	-0.016	0.263
-727.923	-36.443	-0.092	-0.051
-726.908	146.635	-0.261	-0.357
-725.894	800.000	0.024	0.090
-724.879	-174.994	0.033	-0.001
-723.864	-122.897	0.211	0.035
-722.850	92.136	-0.078	0.089
-721.835	-200.000	-0.000	-0.010
-720.821	-27.954	0.167	-0.098
-719.806	9.779	-0.166	0.128
-718.791	524.019	0.074	-0.177
-717.777	-200.000	0.008	-0.269
-716.762	-100.924	0.065	-0.016
-715.748	309.595	0.109	0.207
-714.733	3.160	-0.122	0.090
-713.718	43.511	-0.181	0.169
-712.704	663.906	0.088	-0.230
-711.689	93.249	-0.206	-0.237
-710.675	-44.764	0.285	-0.144
-709.660	800.000	0.025	0.078
-708.645	773.236	0.120	-0.332
-707.631	-200.000	0.013	-0.256
-706.616	95.157	0.107	0.124
-705.602	0.097	0.272	-0.197
-704.587	-2.493	-0.341	-0.242
-703.572	-185.805	-0.143	-0.002
-702.558	202.449	0.127	0.200
-701.543	20.240	-0.172	-0.141
-700.529	800.000	0.064	-0.185
-699.514	-163.944	-0.187	0.009
-698.499	81.476	0.084	-0.092
-697.485	-23.435	0.107	-0.065
-696.470	-200.000	0.038	-0.440
-695.456	123.853	0.060	-0.077
-694.441	51.736	0.183	0.177
-693.426	115.627	-0.171	-0.213
-692.412	-200.000	0.015	-0.368
-691.397	-200.000	-0.022	-0.193
-690.383	127.356	0.221	-0.285
-689.368	-53.904	-0.108	0.050
-688.354	-53.152	-0.227	0.106
-687.339	90.143	-0.019	0.022
-686.324	247.418	-0.063	0.107
-685.310	-200.000	0.004	0.050
-684.295	18.033	-0.262	-0.212
-683.281	800.000	-0.030	-0.098
-682.266	25.195	0.063	0.053
-681.251	301.967	0.027	0.052
-680.237	186.063	0.171	0.258
-679.222	95.224	0.298	0.344
-678.208	-88.067	-0.130	0.039
-677.193	-115.072	0.356	0.069
-676.178	-200.000	0.018	-0.181
-675.164	-73.889	0.415	0.153
-674.149	800.000	-0.024	0.107
-673.135	-101.151	-0.317	0.079
-672.120	-200.000	-0.008	-0.053
-671.105	800.000	-0.057	0.161
-670.091	-200.000	-0.039	-0.254
-669.076	800.000	0.126	-0.473
-668.062	53.301	0.135	-0.131
-667.047	-200.000	-0.013	-0.266
-666.032	96.618	0.218	-0.253
-665.018	800.000	-0.068	-0.204
-664.003	-102.320	0.082	0.020
-662.989	-200.000	-0.004	0.057
-661.974	-159.585	-0.051	-0.003
-660.959	36.123	-0.250	-0.223
-659.945	87.247	0.113	0.126
-658.930	800.000	0.022	-0.083
-657.916	240.263	-0.156	0.264
-656.901	4.697	0.165	0.123
-655.886	-43.094	-0.287	0.147
-654.872	-156.320	-0.544	-0.035
-653.857	-26.551	0.213	-0.127
-652.843	-87.721	0.195	-0.060
-651.828	22.104	0.107	0.088
-650.814	-145.981	-0.330	-0.030
-649.799	-92.536	-0.065	-0.018
-648.784	251.131	-0.056	-0.096
-647.770	160.614	-0.269	-0.380
-646.755	-90.896	-0.178	0.052
-645.741	-36.153	-0.261	0.143
-644.726	644.518	-0.103	-0.267
-643.711	-113.167	-0.195	0.039
-642.697	-30.499	0.158	-0.091
-641.682	-85.391	0.099	-0.031
-640.668	-28.772	0.304	0.177
-639.653	64.108	0.221	0.225
-638.638	-94.007	-0.252	0.070
-637.624	477.059	-0.068	-0.156
-636.609	800.000	0.031	0.128
-635.595	4.877	0.097	0.072
-634.580	414.715	-0.063	-0.136
-633.565	293.227	0.030	0.055
-632.551	405.324	-0.184	0.392
-631.536	123.605	-0.338	0.430
-630.522	-200.000	0.052	0.379
-629.507	6.016	-0.342	-0.256
-628.492	-136.204	-0.149	-0.018
-627.478	-121.154	0.187	-0.032
-626.463	-121.474	0.160	-0.027
-625.449	-63.766	0.518	-0.215
-624.434	12.523	-0.337	-0.263
-623.419	29.414	0.120	-0.103
-622.405	134.458	0.125	0.164
-621.390	-30.675	-0.365	0.209
-620.376	-25.603	-0.104	-0.062
-619.361	-108.054	0.126	0.028
-618.346	-200.000	0.023	-0.121
-617.332	-44.535	0.294	0.149
-616.317	800.000	-0.082	0.230
-615.303	-17.472	0.175	0.112
-614.288	-130.582	-0.240	0.033
-613.273	63.664	-0.092	0.094
-612.259	-200.000	0.021	0.158
-611.244	-23.115	0.065	0.040
-610.230	121.972	-0.048	0.061
-609.215	379.288	0.084	-0.174
-608.201	-176.551	-0.294	-0.008
-607.186	-97.728	0.125	-0.033
-606.171	173.542	-0.105	-0.154
-605.157	-91.490	0.077	0.022
-604.142	476.347	0.077	0.175
-603.128	11.320	-0.335	-0.260
-602.113	-200.000	-0.003	0.048
-601.098	146.482	0.062	0.084
-600.084	77.663	0.236	-0.255
-599.069	172.565	-0.134	-0.195
-598.055	-200.000	-0.089	-0.463
-597.040	362.995	-0.187	-0.380
-596.025	-7.301	0.184	-0.126
-595.011	-200.000	-0.045	-0.292
-593.996	-200.000	0.011	-0.147
-592.982	800.000	0.070	0.275
-591.967	-66.128	0.176	-0.071
-590.952	-200.000	0.015	0.164
-589.938	-1.306	-0.134	-0.096
-588.923	15.486	-0.149	0.118
-587.909	-88.784	0.079	0.024
-586.894	188.324	0.111	0.167
-585.879	17.156	0.129	0.103
-584.865	552.942	0.047	-0.114
-583.850	61.007	0.220	0.220
-582.836	400.890	0.102	0.216
-581.821	238.823	0.059	0.098
-580.806	-200.000	-0.040	-0.292
-579.792	-35.907	0.303	0.166
-578.777	245.501	0.095	0.162
-577.763	12.718	-0.233	-0.182
-576.748	800.000	-0.044	0.134
-575.733	800.000	0.077	0.219
-574.719	96.982	-0.170	0.197
-573.704	46.560	-0.157	-0.147
-572.690	-168.056	0.163	-0.006
-571.675	-164.522	0.218	0.010
-570.661	31.479	-0.273	-0.237
-569.646	-128.809	0.118	0.017
-568.631	30.414	0.229	-0.198
-567.617	-122.268	-0.071	0.012
-566.602	46.514	-0.092	0.086
-565.588	-200.000	-0.053	0.337
-564.573	34.811	0.066	-0.058
-563.558	332.316	-0.131	0.255
-562.544	-25.744	0.188	0.112
-561.529	800.000	-0.090	-0.253
-560.515	-73.678	0.085	-0.031
-559.500	-15.177	0.022	0.014
-558.485	295.884	-0.071	0.131
-557.471	86.221	-0.089	-0.099
-556.456	-166.810	-0.393	-0.016
-555.442	139.170	0.233	0.310
-554.427	264.344	-0.119	-0.210
-553.412	-129.559	-0.340	0.047
-552.398	226.135	0.138	-0.226
-551.383	-41.173	0.119	0.062
-550.369	384.731	-0.020	0.041
-549.354	-9.677	-0.139	0.094
-548.339	297.280	-0.117	-0.216
-547.325	-149.864	-0.208	-0.016
-546.310	-139.670	0.250	0.027
-545.296	99.983	-0.254	0.297
-544.281	-200.000	-0.060	0.367
-543.266	800.000	0.145	0.408
-542.252	-200.000	-0.001	0.042
-541.237	-113.638	0.137	-0.027
-540.223	-35.685	0.144	-0.079
-539.208	-200.000	-0.029	-0.141
-538.193	-170.517	-0.168	0.006
-537.179	-97.666	-0.176	0.046
-536.164	4.536	-0.045	0.033
-535.150	9.663	-0.159	0.122
-534.135	200.563	-0.203	-0.315
-533.121	46.147	-0.158	0.148
-532.106	800.000	-0.052	-0.173
-531.091	-92.188	-0.360	-0.103
-530.077	-40.759	-0.164	0.086
-529.062	-200.000	0.022	0.118
-528.048	-28.517	-0.189	-0.110
-527.033	21.441	0.125	0.103
-526.018	-200.000	-0.005	0.286
-525.004	140.754	0.023	0.031
-523.989	722.166	-0.064	0.172
-522.975	32.634	-0.129	-0.113
-521.960	79.162	-0.081	-0.087
-520.945	79.879	-0.083	-0.090
-519.931	-59.461	0.119	-0.052
-518.916	71.107	0.271	0.284
-517.902	238.313	0.107	-0.180
-516.887	-200.000	0.012	-0.135
-515.872	28.392	0.099	0.085
-514.858	229.555	-0.148	-0.244
-513.843	800.000	-0.083	0.340
-512.829	-137.715	0.254	-0.029
-511.814	110.494	-0.101	0.122
-510.799	164.636	-0.130	-0.185
-509.785	22.189	0.104	0.086
-508.770	-75.634	0.225	0.081
-507.756	-200.000	-0.038	0.177
-506.741	-137.507	0.269	-0.031
-505.726	-110.435	0.207	-0.043
-504.712	-129.849	0.241	0.033
-503.697	-107.221	0.249	0.055
-502.683	800.000	-0.034	-0.125
-501.668	185.289	0.083	0.124
-500.653	60.737	-0.224	-0.224
-499.639	345.375	0.025	0.049
-498.624	800.000	-0.123	-0.502
-497.610	-104.082	0.240	-0.056
-496.595	-108.802	-0.270	0.058
-495.581	136.219	0.028	0.037
-494.566	-141.326	-0.181	-0.019
-493.551	208.131	-0.087	-0.137
-492.537	-27.172	-0.162	0.095
-491.522	-20.531	0.309	-0.191
-490.508	-101.160	-0.274	-0.068
-489.493	-157.219	0.104	0.006
-488.478	533.655	-0.120	-0.286
-487.464	29.247	0.340	-0.291
-486.449	800.000	-0.061	-0.242
-485.435	-50.922	-0.382	-0.181
-484.420	-86.513	-0.105	0.033
-483.405	-200.000	0.028	0.278
-482.391	800.000	0.063	0.192
-481.376	71.148	-0.167	-0.175
-480.362	-52.804	0.125	0.058
-479.347	800.000	0.157	0.444
-478.332	-200.000	-0.069	-0.321
-477.318	800.000	0.118	-0.374
-476.303	-52.106	0.283	0.132
-475.289	-47.446	0.115	0.056
-474.274	85.164	-0.250	-0.276
-473.259	-75.117	0.140	0.050
-472.245	68.589	0.129	0.133
-471.230	336.492	-0.107	-0.209
-470.216	-200.000	0.017	-0.136
-469.201	-111.616	0.366	-0.075
-468.186	-49.908	-0.232	-0.111
-467.172	-54.998	0.107	-0.049
-466.157	13.185	0.226	-0.176
-465.143	20.961	0.218	-0.178
-464.128	-1.525	0.085	0.061
-463.113	-133.750	0.023	-0.003
-462.099	58.487	0.260	0.257
-461.084	-6.606	-0.269	0.185
-460.070	356.379	-0.120	-0.241
-459.055	-62.355	-0.347	-0.145
-458.040	-200.000	0.026	0.132
-457.026	-147.782	0.364	-0.031
-456.011	559.758	-0.157	-0.381
-454.997	-108.406	-0.134	-0.029
-453.982	441.634	0.064	0.141
-452.968	-200.000	0.004	0.160
-451.953	207.084	-0.063	-0.099
-450.938	-200.000	-0.036	-0.373
-449.924	800.000	-0.029	0.086
-448.909	800.000	0.073	0.228
-447.895	800.000	-0.053	0.181
-446.880	-25.116	-0.224	0.134
-445.865	32.734	0.071	0.061
-444.851	-153.881	-0.212	-0.015
-443.836	338.159	0.061	0.120
-442.822	531.867	-0.121	0.287
-441.807	-7.240	-0.062	-0.042
-440.792	-200.000	0.026	0.147
-439.778	63.825	-0.067	-0.068
-438.763	-25.466	0.031	0.018
-437.749	-179.729	-0.071	0.002
-436.734	90.673	-0.057	0.064
-435.719	-50.843	-0.198	0.094
-434.705	-147.012	0.322	0.028
-433.690	-153.906	-0.202	0.014
-432.676	-126.404	-0.076	0.011
-431.661	529.123	-0.020	0.048
-430.646	-141.338	0.263	0.027
-429.632	43.768	-0.082	-0.076
-428.617	-151.533	0.208	-0.015
-427.603	133.861	0.284	0.369
-426.588	-200.000	-0.022	0.318
-425.573	800.000	-0.117	-0.402
-424.559	-200.000	-0.003	0.184
-423.544	800.000	0.066	-0.267
-422.530	52.199	-0.015	-0.014
-421.515	-134.179	0.208	-0.026
-420.500	109.334	0.188	-0.226
-419.486	-129.542	0.205	-0.028
-418.471	-200.000	0.022	-0.421
-417.457	-123.360	0.252	-0.040
-416.442	48.216	0.118	0.111
-415.428	-104.282	0.201	-0.047
-414.413	-35.061	-0.128	-0.070
-413.398	-200.000	-0.009	-0.042
-412.384	-3.070	-0.198	-0.139
-411.369	-200.000	0.058	-0.277
-410.355	-137.752	-0.188	-0.021
-409.340	30.597	0.236	-0.202
-408.325	220.391	-0.092	0.148
-407.311	83.583	-0.209	-0.229
-406.296	-33.957	-0.149	-0.083
-405.282	-97.670	-0.286	0.074
-404.267	-148.075	-0.206	-0.017
-403.252	800.000	0.032	0.121
-402.238	-50.455	0.265	0.125
-401.223	-43.651	-0.119	0.060
-400.209	450.543	-0.022	0.049
-399.194	-169.022	0.407	-0.015
-398.179	-42.430	0.216	-0.111
-397.165	800.000	0.003	-0.011
-396.150	-92.850	-0.246	0.069
-395.136	-200.000	-0.012	-0.165
-394.121	-170.502	0.122	0.004
-393.106	-57.131	-0.100	0.044
-392.092	-200.000	0.029	-0.361
-391.077	-151.628	0.027	-0.002
-390.063	87.538	-0.093	0.103
-389.048	800.000	-0.091	-0.315
-388.033	63.061	-0.187	0.188
-387.019	154.266	0.170	0.234
-386.004	-88.296	-0.155	-0.046
-384.990	45.285	0.143	0.132
-383.975	-200.000	0.034	-0.212
-382.960	88.222	0.119	0.133
-381.946	-123.312	-0.328	0.053
-380.931	-69.336	0.177	-0.068
-379.917	-8.651	0.175	-0.118
-378.902	-200.000	0.004	-0.310
-377.888	34.745	0.080	0.070
-376.873	-91.899	-0.195	-0.055
-375.858	-200.000	-0.047	-0.292
-374.844	-70.086	-0.153	0.058
-373.829	-45.702	0.056	0.028
-372.815	103.959	-0.251	0.295
-371.800	489.423	0.078	0.179
-370.785	80.714	-0.078	0.084
-369.771	-200.000	-0.068	0.353
-368.756	800.000	-0.033	-0.100
-367.742	-95.833	-0.134	0.036
-366.727	-7.629	-0.183	0.124
-365.712	-116.179	-0.197	0.037
-364.698	702.151	0.101	-0.268
-363.683	227.829	-0.093	0.151
-362.669	800.000	0.028	-0.115
-361.654	-59.805	-0.214	-0.092
-360.639	-177.710	0.468	0.011
-359.625	800.000	0.082	-0.317
-358.610	350.633	0.131	-0.261
-357.596	-200.000	0.029	-0.395
-356.581	242.548	-0.169	0.284
-355.566	800.000	-0.016	0.044
-354.552	-120.128	0.151	0.026
-353.537	-200.000	-0.003	0.360
-352.523	87.749	0.057	-0.064
-351.508	-200.000	-0.044	-0.245
-350.493	372.751	-0.044	-0.090
-349.479	115.929	0.153	-0.188
-348.464	-200.000	-0.034	0.336
-347.450	23.585	-0.151	0.125
-346.435	800.000	0.056	0.203
-345.420	-200.000	-0.024	-0.121
-344.406	-75.923	-0.243	0.086
-343.391	-101.674	-0.290	0.070
-342.377	-162.472	0.478	0.024
-341.362	-13.989	-0.407	0.263
-340.348	-48.289	-0.003	-0.002
-339.333	-161.682	0.323	-0.017
-338.318	-200.000	0.002	0.118
-337.304	800.000	0.088	0.246
-336.289	68.314	0.317	-0.325
-335.275	138.350	0.230	-0.302
-334.260	-200.000	-0.001	0.175
-333.245	31.228	-0.107	0.092
-332.231	-134.269	-0.135	-0.017
-331.216	800.000	0.035	0.150
-330.202	-200.000	-0.001	0.243
-329.187	224.919	-0.175	0.284
-328.172	800.000	-0.037	0.156
-327.158	-47.764	-0.141	0.068
-326.143	-14.767	-0.200	0.128
-325.129	-158.613	-0.209	-0.012
-324.114	-82.694	-0.205	0.066
-323.099	557.749	0.179	-0.433
-322.085	800.000	-0.067	0.245
-321.070	91.376	0.046	0.051
-320.056	-200.000	0.006	-0.137
-319.041	8.696	-0.090	0.068
-318.026	-123.048	0.272	-0.044
-317.012	290.016	0.224	0.407
-315.997	547.271	-0.081	0.193
-314.983	408.362	0.106	0.225
-313.968	-200.000	-0.016	-0.186
-312.953	800.000	0.025	0.077
-311.939	-71.457	0.190	-0.071
-310.924	800.000	-0.030	-0.101
-309.910	169.454	0.293	-0.418
-308.895	-127.011	0.256	-0.038
-307.880	-17.710	-0.132	0.083
-306.866	-73.587	-0.148	-0.054
-305.851	-200.000	0.013	0.292
-304.837	-40.836	0.205	0.106
-303.822	-200.000	-0.035	0.350
-302.807	-94.926	0.315	-0.085
-301.793	10.059	-0.098	0.074
-300.778	4.420	-0.160	-0.118
-299.764	179.070	-0.136	-0.199
-298.749	-200.000	0.001	-0.383
-297.735	744.956	-0.106	-0.286
-296.720	800.000	-0.077	-0.215
-295.705	-98.730	-0.264	-0.067
-294.691	800.000	0.122	0.424
-293.676	156.174	-0.159	0.219
-292.662	-5.437	0.039	-0.027
-291.647	24.496	-0.070	-0.058
-290.632	371.762	0.036	-0.074
-289.618	-58.394	-0.356	-0.155
-288.603	-143.159	-0.192	-0.018
-287.589	136.820	0.108	-0.141
-286.574	91.985	-0.204	0.230
-285.559	-31.726	0.144	0.081
-284.545	8.196	0.261	0.196
-283.530	-200.000	0.031	0.166
-282.516	88.445	-0.051	-0.057
-281.501	-105.845	0.208	-0.047
-280.486	-200.000	0.022	0.298
-279.472	-68.896	0.054	0.021
-278.457	-65.211	-0.382	0.154
-277.443	-164.440	0.265	0.012
-276.428	-5.320	-0.060	-0.041
-275.413	578.227	-0.107	0.261
-274.399	-84.895	0.207	0.065
-273.384	-121.854	0.279	-0.046
-272.370	-200.000	0.011	0.189
-271.355	800.000	0.098	0.375
-270.340	-200.000	0.037	0.283
-269.326	-200.000	0.029	-0.201
-268.311	86.342	0.052	0.057
-267.297	800.000	0.025	0.074
-266.282	-63.966	-0.141	0.057
-265.267	-146.904	-0.072	-0.006
-264.253	-200.000	0.012	-0.231
-263.238	40.603	-0.119	-0.107
-262.224	14.591	-0.150	0.117
-261.209	155.908	-0.179	0.247
-260.195	-117.635	-0.446	0.080
-259.180	-110.553	0.070	0.014
-258.165	-24.326	0.198	-0.118
-257.151	800.000	-0.042	0.118
-256.136	738.770	-0.070	-0.188
-255.122	555.162	0.058	-0.139
-254.107	-81.330	0.182	0.060
-253.092	256.284	-0.031	0.053
-252.078	800.000	0.113	0.406
-251.063	-200.000	0.029	0.000
-250.049	56.049	0.137	0.132
-249.034	114.303	-0.148	0.180
-248.019	-57.106	0.202	-0.089
-247.005	435.765	-0.051	-0.111
-245.990	359.339	0.090	-0.180
-244.976	102.564	-0.121	0.142
-243.961	-200.000	-0.046	0.206
-242.946	800.000	-0.113	-0.424
-241.932	1.913	-0.193	0.139
-240.917	762.236	0.048	0.130
-239.903	591.041	-0.122	-0.300
-238.888	-75.957	-0.085	-0.030
-237.873	-200.000	-0.008	-0.250
-236.859	137.920	-0.310	-0.405
-235.844	247.634	-0.089	0.150
-234.830	63.098	0.097	-0.097
-233.815	26.852	-0.370	0.309
-232.800	800.000	0.050	0.168
-231.786	108.535	0.075	-0.090
-230.771	-200.000	0.048	0.304
-229.757	12.658	0.150	-0.115
-228.742	-200.000	-0.006	0.038
-227.727	487.343	0.154	-0.350
-226.713	-200.000	0.048	0.212
-225.698	-73.697	-0.505	0.183
-224.684	-200.000	-0.002	-0.199
-223.669	-161.458	0.193	0.010
-222.655	800.000	-0.088	-0.356
-221.640	60.415	0.241	-0.238
-220.625	23.194	-0.113	0.092
-219.611	336.379	0.073	-0.141
-218.596	46.750	0.060	0.055
-217.582	-200.000	-0.036	-0.197
-216.567	-39.898	0.120	-0.063
-215.552	35.540	-0.198	0.174
-214.538	-0.742	-0.072	0.051
-213.523	100.088	0.114	-0.132
-212.509	-8.422	0.066	-0.044
-211.494	-132.508	0.497	0.064
-210.479	173.748	-0.251	-0.360
-209.465	-144.364	0.067	0.006
-208.450	-44.585	-0.150	0.075
-207.436	6.836	0.072	-0.054
-206.421	33.126	0.109	-0.094
-205.406	331.893	-0.108	0.207
-204.392	181.086	0.148	-0.216
-203.377	-200.000	0.030	0.309
-202.363	553.807	-0.064	-0.154
-201.348	-200.000	0.006	-0.162
-200.333	-71.922	0.262	-0.097
-199.319	-200.000	-0.003	0.071
-198.304	-7.771	0.264	-0.178
-197.290	133.620	-0.191	-0.247
-196.275	689.093	0.142	-0.369
-195.260	-157.278	0.225	-0.014
-194.246	94.473	-0.205	0.232
-193.231	134.934	-0.173	-0.223
-192.217	392.052	0.178	0.368
-191.202	-104.990	-0.268	-0.061
-190.187	224.760	-0.118	-0.190
-189.173	-118.532	-0.211	0.037
-188.158	800.000	0.051	-0.211
-187.144	-82.138	-0.107	-0.035
-186.129	68.375	0.076	0.077
-185.114	-95.486	0.190	-0.051
-184.100	800.000	-0.037	0.122
-183.085	92.138	0.155	0.173
-182.071	142.124	-0.269	0.355
-181.056	42.262	0.223	-0.201
-180.042	-25.344	-0.076	-0.045
-179.027	-75.520	-0.080	0.028
-178.012	-88.284	-0.164	-0.049
-176.998	-200.000	0.025	-0.137
-175.983	-150.244	0.385	0.030
-174.969	-115.116	-0.213	0.040
-173.954	-200.000	-0.015	0.066
-172.939	131.375	0.278	-0.355
-171.925	-2.924	-0.117	-0.081
-170.910	-55.124	0.176	-0.079
-169.896	263.981	0.127	0.220
-168.881	800.000	-0.108	-0.361
-167.866	467.219	0.032	0.072
-166.852	-101.526	0.187	0.045
-165.837	-200.000	0.017	0.172
-164.823	-121.092	-0.252	0.042
-163.808	9.345	0.218	0.164
-162.793	13.969	-0.072	0.056
-161.779	727.530	0.049	-0.130
-160.764	-190.130	0.346	0.004
-159.750	-103.977	0.311	0.072
-158.735	118.952	0.145	0.178
-157.720	800.000	0.076	0.239
-156.706	800.000	-0.058	0.179
-155.691	-67.884	0.293	0.114
-154.677	-200.000	0.000	0.016
-153.662	-78.400	0.247	-0.084
-152.647	-200.000	0.037	-0.187
-151.633	-200.000	-0.003	-0.220
-150.618	-68.328	-0.082	-0.032
-149.604	393.057	-0.043	0.088
-148.589	800.000	0.020	0.066
-147.574	-79.589	-0.192	0.065
-146.560	-107.438	0.130	-0.028
-145.545	800.000	-0.027	0.085
-144.531	-200.000	0.019	0.265
-143.516	-200.000	-0.019	-0.092
-142.502	800.000	-0.082	-0.290
-141.487	-49.801	0.200	-0.094
-140.472	61.970	-0.144	-0.143
-139.458	71.758	0.272	-0.281
-138.443	15.310	0.294	0.229
-137.429	-34.314	0.263	-0.143
-136.414	-200.000	-0.033	-0.380
-135.399	144.412	-0.073	-0.096
-134.385	800.000	0.044	0.135
-133.370	-46.234	0.198	-0.097
-132.356	94.952	-0.127	-0.144
-131.341	-55.441	0.157	-0.070
-130.326	-49.445	0.113	0.053
-129.312	-125.887	0.289	-0.043
-128.297	88.583	0.067	0.074
-127.283	507.692	0.133	0.308
-126.268	800.000	0.082	0.240
-125.253	-191.626	-0.204	-0.002
-124.239	135.986	0.054	0.070
-123.224	88.678	0.039	0.043
-122.210	41.507	0.077	-0.069
-121.195	460.096	-0.116	0.257
-120.180	-93.591	-0.174	0.048
