DTS Sentinel unit serial number:	SN413079Multiplexer serial number:	ORYXHardware model number:	OX4-SRSoftware version number:	ORYX F/W v4.00 Oryx Data Collector v3.7.2.0data status	okinstallation	princeton_trtdifferential loss correction	single-endedforward channel	channel 1reverse channel	N/Adate	2019/09/19time	11:18:35forward acquisition time	60.00reverse acquisition time	0.00gamma	496.2192k internal	0.2338k external	0.2338temperature offset calibration	1.0010default loss term (dB/km)	0.3790temperature slope calibration	1.0000multiplexer offset coefficient	1.0000multiplexer slope coefficient	1.0000fibre end	0.00T internal ref (°C)	25.19T ext. ref 1 (°C)	0.79T ext. ref 2 (°C)	20.83length (m)	temperature (°C)	Stokes	anti-Stokes-747.200	190.700	-0.086	0.130
-746.185	92.684	-0.293	0.332
-745.171	800.000	-0.056	0.226
-744.156	683.144	-0.059	0.155
-743.142	-200.000	0.066	0.314
-742.127	-15.285	-0.135	0.087
-741.112	-109.137	-0.422	0.090
-740.098	366.348	0.096	0.194
-739.083	-111.115	0.296	0.061
-738.069	-89.984	-0.376	0.110
-737.054	-49.569	0.079	0.038
-736.039	-200.000	-0.000	-0.112
-735.025	162.523	0.062	0.088
-734.010	-200.000	0.064	-0.375
-732.996	303.093	-0.096	0.178
-731.981	216.426	-0.152	-0.242
-730.966	557.883	-0.101	-0.244
-729.952	-154.623	0.081	0.005
-728.937	-70.471	0.142	0.054
-727.923	-200.000	-0.017	-0.452
-726.908	87.419	-0.207	-0.230
-725.894	595.930	0.072	0.178
-724.879	-200.000	-0.001	-0.050
-723.864	35.290	0.162	-0.143
-722.850	-200.000	0.049	-0.361
-721.835	616.112	0.111	-0.279
-720.821	43.845	0.205	-0.188
-719.806	294.501	-0.147	-0.269
-718.791	387.865	-0.108	-0.225
-717.777	800.000	0.051	-0.192
-716.762	-102.836	-0.119	0.028
-715.748	-200.000	0.037	-0.270
-714.733	-81.258	-0.069	0.023
-713.718	7.577	0.331	-0.248
-712.704	-104.265	-0.251	-0.058
-711.689	-60.374	0.174	-0.074
-710.675	-200.000	0.024	0.142
-709.660	-200.000	0.079	0.359
-708.645	-32.097	-0.096	0.054
-707.631	1.286	0.194	-0.140
-706.616	-124.793	-0.131	-0.020
-705.602	-200.000	0.047	0.000
-704.587	800.000	-0.057	0.192
-703.572	800.000	-0.034	0.120
-702.558	451.085	0.043	0.095
-701.543	-200.000	-0.000	-0.013
-700.529	-31.998	0.182	-0.102
-699.514	800.000	-0.023	-0.069
-698.499	30.290	-0.144	0.123
-697.485	-200.000	-0.025	-0.191
-696.470	261.453	-0.034	-0.059
-695.456	118.552	-0.157	0.194
-694.441	-93.650	-0.253	0.070
-693.426	-52.768	-0.254	0.117
-692.412	439.969	-0.118	0.258
-691.397	-200.000	0.035	-0.166
-690.383	-22.932	0.225	-0.136
-689.368	123.881	0.240	-0.302
-688.354	-96.820	-0.076	0.020
-687.339	-116.154	-0.063	-0.012
-686.324	-8.751	-0.180	-0.121
-685.310	137.003	-0.062	0.081
-684.295	149.956	-0.142	-0.193
-683.281	-38.103	-0.485	-0.258
-682.266	-54.395	-0.208	0.094
-681.251	-123.138	-0.247	-0.040
-680.237	800.000	0.038	0.159
-679.222	81.637	-0.318	-0.344
-678.208	-200.000	0.021	-0.221
-677.193	66.551	0.278	-0.283
-676.178	80.025	-0.172	0.185
-675.164	52.852	-0.116	-0.111
-674.149	-122.639	-0.344	0.056
-673.135	61.296	-0.139	0.138
-672.120	756.112	-0.099	-0.269
-671.105	-124.737	0.307	-0.048
-670.091	-138.152	0.184	-0.020
-669.076	-128.169	-0.179	0.026
-668.062	2.563	0.197	0.142
-667.047	44.161	0.131	0.120
-666.032	-200.000	-0.004	-0.190
-665.018	87.007	0.298	-0.329
-664.003	-35.142	0.206	-0.112
-662.989	714.059	0.075	0.199
-661.974	217.623	0.070	-0.112
-660.959	-37.295	-0.144	-0.077
-659.945	-200.000	0.007	0.241
-658.930	-33.314	0.179	0.099
-657.916	81.471	0.082	-0.089
-656.901	-200.000	-0.025	0.264
-655.886	-146.676	-0.181	-0.016
-654.872	-59.276	-0.165	-0.071
-653.857	800.000	0.010	0.031
-652.843	-200.000	-0.007	0.249
-651.828	77.418	0.196	-0.208
-650.814	-164.250	-0.285	-0.013
-649.799	555.946	-0.277	0.667
-648.784	387.487	0.065	0.134
-647.770	-120.975	-0.228	-0.038
-646.755	768.504	0.080	0.218
-645.741	-17.708	-0.182	-0.114
-644.726	-200.000	0.030	0.259
-643.711	-33.536	-0.271	0.149
-642.697	-83.068	0.333	-0.107
-641.682	-200.000	-0.071	-0.372
-640.668	-133.590	0.163	-0.020
-639.653	-109.980	-0.338	0.071
-638.638	800.000	-0.106	0.349
-637.624	-200.000	-0.002	0.054
-636.609	800.000	-0.045	-0.192
-635.595	393.557	-0.140	-0.292
-634.580	800.000	0.031	-0.127
-633.565	-156.998	-0.210	0.013
-632.551	-62.440	-0.309	0.128
-631.536	-135.685	-0.345	0.041
-630.522	-144.057	0.362	0.034
-629.507	-200.000	-0.027	0.146
-628.492	304.431	0.035	-0.064
-627.478	432.612	0.157	-0.341
-626.463	-62.666	-0.179	-0.074
-625.449	-47.124	-0.082	-0.040
-624.434	121.761	0.032	-0.039
-623.419	-47.407	0.278	-0.135
-622.405	417.222	0.079	-0.169
-621.390	40.969	-0.165	0.149
-620.376	-200.000	-0.004	0.170
-619.361	-200.000	-0.006	-0.282
-618.346	-200.000	0.002	-0.289
-617.332	-110.415	0.152	-0.032
-616.317	480.814	-0.078	0.176
-615.303	800.000	0.064	-0.185
-614.288	361.661	-0.147	0.295
-613.273	126.065	0.158	0.199
-612.259	-200.000	-0.016	0.203
-611.244	-200.000	0.071	-0.414
-610.230	144.685	0.080	0.107
-609.215	-200.000	-0.074	0.000
-608.201	-200.000	0.033	-0.272
-607.186	-123.148	-0.203	0.032
-606.171	-9.240	-0.127	0.085
-605.157	-94.515	0.070	-0.019
-604.142	-49.209	-0.174	-0.083
-603.128	23.906	-0.230	-0.189
-602.113	530.228	0.046	-0.108
-601.098	-126.885	-0.352	0.052
-600.084	57.496	-0.166	0.162
-599.069	394.809	0.036	-0.076
-598.055	-146.376	-0.015	0.001
-597.040	-200.000	-0.058	0.257
-596.025	56.360	-0.173	-0.168
-595.011	-200.000	0.006	-0.073
-593.996	-79.220	-0.405	0.137
-592.982	-168.118	0.045	-0.002
-591.967	-93.226	0.257	-0.071
-590.952	-3.482	0.051	0.035
-589.938	800.000	0.035	-0.119
-588.923	-145.925	-0.370	0.033
-587.909	-82.166	-0.441	-0.143
-586.894	-200.000	0.014	-0.079
-585.879	-58.828	0.204	-0.088
-584.865	-59.470	0.188	-0.081
-583.850	74.564	-0.051	-0.053
-582.836	-136.525	0.060	-0.007
-581.821	-142.912	-0.197	-0.019
-580.806	-13.127	0.260	0.169
-579.792	51.622	-0.255	-0.242
-578.777	-200.000	-0.003	0.257
-577.763	49.431	0.232	0.218
-576.748	18.231	-0.326	-0.260
-575.733	67.786	-0.020	-0.021
-574.719	-50.801	0.051	-0.024
-573.704	800.000	-0.096	-0.292
-572.690	292.971	-0.043	-0.078
-571.675	-200.000	-0.011	-0.138
-570.661	53.441	-0.088	0.084
-569.646	57.999	0.277	-0.270
-568.631	765.662	0.096	-0.259
-567.617	-111.192	0.074	0.015
-566.602	-83.191	-0.208	-0.067
-565.588	-200.000	-0.058	-0.313
-564.573	-80.441	-0.274	0.091
-563.558	-32.744	-0.336	0.186
-562.544	-135.564	-0.191	0.023
-561.529	-167.121	-0.101	0.004
-560.515	-200.000	0.000	0.175
-559.500	191.857	0.134	-0.201
-558.485	-169.214	-0.227	0.008
-557.471	-30.821	-0.242	-0.136
-556.456	36.917	0.108	-0.095
-555.442	119.843	0.231	0.285
-554.427	-200.000	0.055	0.270
-553.412	-200.000	0.036	0.190
-552.398	493.553	0.073	-0.166
-551.383	-160.835	0.298	0.016
-550.369	354.458	-0.119	0.236
-549.354	-200.000	-0.007	0.474
-548.339	142.014	-0.140	-0.184
-547.325	311.385	0.212	-0.396
-546.310	-52.354	0.109	-0.050
-545.296	171.306	0.181	-0.258
-544.281	-196.215	0.330	0.002
-543.266	65.723	0.154	-0.156
-542.252	-29.473	0.157	0.089
-541.237	54.165	-0.065	-0.062
-540.223	122.578	0.173	-0.215
-539.208	-200.000	-0.053	-0.363
-538.193	800.000	-0.048	0.145
-537.179	-200.000	0.007	-0.058
-536.164	37.273	-0.221	-0.195
-535.150	-66.930	0.193	0.076
-534.135	800.000	0.025	0.077
-533.121	-114.643	-0.207	-0.039
-532.106	-99.729	0.070	0.018
-531.091	284.246	0.083	-0.148
-530.077	-65.532	0.144	0.058
-529.062	-37.123	0.181	-0.096
-528.048	60.520	-0.042	0.042
-527.033	-96.728	0.287	0.075
-526.018	-136.140	0.186	0.022
-525.004	15.650	-0.089	0.070
-523.989	63.662	-0.024	0.024
-522.975	180.730	-0.142	0.208
-521.960	110.942	-0.103	0.123
-520.945	49.782	0.228	0.213
-519.931	114.785	-0.139	0.169
-518.916	199.807	-0.200	-0.306
-517.902	-200.000	-0.010	-0.106
-516.887	-38.068	0.377	0.199
-515.872	-200.000	-0.014	0.064
-514.858	-49.195	-0.164	0.078
-513.843	-53.921	-0.404	0.183
-512.829	173.963	-0.131	0.188
-511.814	-9.379	0.151	0.100
-510.799	-108.487	0.311	0.067
-509.785	-200.000	-0.012	-0.105
-508.770	-65.063	0.274	-0.110
-507.756	-61.965	-0.396	-0.165
-506.741	119.994	0.183	-0.226
-505.726	-3.843	-0.271	-0.187
-504.712	-200.000	-0.001	0.169
-503.697	5.512	0.049	0.036
-502.683	39.808	0.128	-0.114
-501.668	-119.015	-0.177	-0.031
-500.653	742.214	-0.046	0.123
-499.639	-200.000	0.001	-0.079
-498.624	29.766	0.028	0.023
-497.610	-200.000	0.000	-0.074
-496.595	-68.850	-0.225	-0.086
-495.581	-46.191	-0.069	-0.034
-494.566	-200.000	0.015	0.247
-493.551	100.997	-0.256	0.296
-492.537	-200.000	-0.068	-0.468
-491.522	-200.000	0.029	0.179
-490.508	-190.877	-0.403	-0.004
-489.493	210.256	0.059	-0.093
-488.478	-200.000	-0.014	0.099
-487.464	12.735	-0.281	-0.215
-486.449	132.779	0.192	-0.246
-485.435	25.643	-0.081	-0.067
-484.420	148.589	0.172	-0.231
-483.405	-108.356	-0.374	0.080
-482.391	-200.000	0.026	0.355
-481.376	78.073	0.135	-0.143
-480.362	-49.265	0.133	0.063
-479.347	-110.679	-0.194	0.040
-478.332	-200.000	-0.035	0.246
-477.318	-200.000	-0.064	0.363
-476.303	800.000	0.026	-0.074
-475.289	-41.305	0.203	0.104
-474.274	-12.205	-0.086	-0.056
-473.259	713.955	-0.077	-0.201
-472.245	-25.769	-0.088	-0.051
-471.230	36.381	-0.246	-0.215
-470.216	-200.000	-0.002	0.199
-469.201	-166.047	0.139	-0.006
-468.186	47.551	0.133	0.123
-467.172	117.280	0.104	-0.127
-466.157	674.320	-0.129	0.332
-465.143	244.776	-0.094	0.157
-464.128	-200.000	0.021	0.104
-463.113	-2.905	0.230	0.160
-462.099	170.765	0.223	-0.317
-461.084	668.374	0.084	-0.215
-460.070	-70.763	-0.053	-0.020
-459.055	800.000	-0.054	-0.180
-458.040	-200.000	0.005	-0.034
-457.026	61.388	0.163	-0.161
-456.011	-29.344	-0.290	0.165
-454.997	249.861	-0.058	0.097
-453.982	216.342	-0.167	0.263
-452.968	-68.362	0.358	0.138
-451.953	-200.000	-0.053	0.254
-450.938	-5.450	-0.076	-0.052
-449.924	178.279	0.080	-0.116
-448.909	-18.624	0.200	-0.124
-447.895	-53.981	-0.278	-0.126
-446.880	88.264	-0.241	-0.265
-445.865	135.895	-0.047	-0.060
-444.851	-155.054	-0.113	0.007
-443.836	-200.000	0.024	-0.130
-442.822	800.000	0.037	0.158
-441.807	-200.000	0.013	-0.064
-440.792	230.317	-0.139	0.226
-439.778	318.505	0.072	-0.135
-438.763	89.034	0.313	0.345
-437.749	-64.354	-0.105	-0.043
-436.734	-16.019	-0.139	-0.088
-435.719	-88.590	0.166	0.049
-434.705	27.806	0.195	-0.163
-433.690	-200.000	0.021	-0.221
-432.676	-164.623	-0.262	0.012
-431.661	266.470	-0.085	-0.148
-430.646	-72.835	-0.051	-0.019
-429.632	224.581	0.246	0.395
-428.617	-54.424	0.218	0.098
-427.603	0.527	0.381	0.270
-426.588	800.000	-0.128	0.399
-425.573	-200.000	-0.021	0.245
-424.559	-89.042	0.213	0.062
-423.544	204.732	-0.083	0.128
-422.530	216.544	-0.079	0.125
-421.515	-200.000	-0.011	-0.066
-420.500	-108.485	0.381	0.081
-419.486	58.998	-0.148	-0.145
-418.471	86.259	0.243	0.265
-417.457	800.000	-0.101	0.280
-416.442	-200.000	0.033	-0.325
-415.428	410.798	0.079	-0.166
-414.413	-200.000	0.012	-0.111
-413.398	-200.000	-0.002	0.340
-412.384	800.000	-0.035	0.102
-411.369	548.322	-0.164	0.390
-410.355	-92.411	0.119	-0.033
-409.340	265.798	0.099	0.172
-408.325	64.947	0.180	-0.180
-407.311	136.821	0.101	0.130
-406.296	-200.000	0.006	-0.036
-405.282	-36.857	0.083	0.044
-404.267	-24.864	0.292	-0.171
-403.252	223.618	0.184	0.294
-402.238	-200.000	0.040	0.180
-401.223	-200.000	0.033	-0.309
-400.209	-200.000	-0.048	-0.221
-399.194	115.437	-0.110	0.133
-398.179	118.832	0.025	0.031
-397.165	-74.624	0.268	-0.095
-396.150	56.612	0.292	0.281
-395.136	110.728	-0.116	-0.138
-394.121	-44.751	-0.047	0.023
-393.106	-200.000	-0.032	0.238
-392.092	-89.723	0.325	-0.094
-391.077	729.777	0.167	-0.441
-390.063	-200.000	-0.001	-0.086
-389.048	551.214	-0.093	-0.221
-388.033	40.792	0.163	-0.145
-387.019	40.440	0.340	-0.303
-386.004	8.183	-0.320	0.238
-384.990	-139.385	-0.114	0.012
-383.975	21.544	0.136	0.110
-382.960	2.539	-0.075	0.053
-381.946	800.000	-0.091	0.338
-380.931	136.642	0.154	0.199
-379.917	127.864	-0.237	-0.298
-378.902	27.566	-0.248	-0.207
-377.888	-48.685	0.219	-0.104
-376.873	495.909	0.114	0.259
-375.858	-200.000	0.327	-0.000
-374.844	800.000	-0.044	0.127
-373.829	-12.386	-0.258	-0.167
-372.815	293.759	-0.075	0.135
-371.800	-200.000	-0.024	0.371
-370.785	-200.000	-0.001	-0.072
-369.771	6.581	-0.259	0.190
-368.756	-183.488	-0.214	0.004
-367.742	64.872	0.320	-0.320
-366.727	800.000	0.012	-0.049
-365.712	-53.913	0.126	-0.057
-364.698	93.400	0.161	-0.180
-363.683	290.299	-0.074	0.133
-362.669	257.223	-0.054	-0.093
-361.654	87.690	-0.126	0.138
-360.639	-200.000	-0.184	0.000
-359.625	-105.963	0.265	-0.059
-358.610	-24.749	-0.335	0.197
-357.596	148.475	-0.183	0.245
-356.581	-57.700	-0.206	-0.089
-355.566	100.685	-0.247	-0.284
-354.552	-151.903	-0.254	0.018
-353.537	292.831	-0.027	-0.048
-352.523	-147.258	-0.163	-0.014
-351.508	-200.000	0.074	0.329
-350.493	301.487	-0.091	0.166
-349.479	88.457	-0.099	0.108
-348.464	-127.111	-0.279	0.040
-347.450	-200.000	0.008	0.238
-346.435	800.000	-0.030	0.107
-345.420	262.045	0.145	0.249
-344.406	-75.417	-0.126	-0.044
-343.391	-62.981	-0.117	0.048
-342.377	-105.443	-0.170	0.038
-341.362	122.528	0.122	0.150
-340.348	171.474	0.126	0.179
-339.333	800.000	-0.087	0.306
-338.318	-29.663	0.108	-0.061
-337.304	-57.792	-0.134	-0.058
-336.289	-100.166	0.292	0.072
-335.275	-54.215	0.153	-0.069
-334.260	-132.752	0.129	0.016
-333.245	129.958	-0.105	-0.133
-332.231	95.423	-0.068	0.077
-331.216	194.022	-0.055	-0.083
-330.202	689.569	-0.070	0.181
-329.187	33.440	0.251	-0.215
-328.172	35.392	0.201	0.174
-327.158	-121.900	-0.261	0.043
-326.143	800.000	0.082	0.276
-325.129	-95.297	0.180	-0.048
-324.114	-103.751	0.362	0.084
-323.099	174.929	-0.018	0.025
-322.085	97.787	-0.072	-0.082
-321.070	-200.000	-0.025	0.141
-320.056	84.941	-0.158	0.171
-319.041	-100.704	0.206	-0.050
-318.026	104.245	-0.286	0.333
-317.012	-79.818	-0.057	0.019
-315.997	78.207	0.215	-0.227
-314.983	-34.756	-0.177	-0.095
-313.968	128.998	0.173	0.218
-312.953	800.000	-0.159	0.556
-311.939	681.469	0.027	0.070
-310.924	-101.019	0.265	0.064
-309.910	-27.696	-0.356	-0.204
-308.895	304.361	0.070	-0.129
-307.880	-83.757	0.284	-0.089
-306.866	-200.000	0.024	-0.139
-305.851	188.832	0.084	0.124
-304.837	-84.119	0.177	-0.055
-303.822	-22.395	-0.231	0.138
-302.807	-23.052	-0.193	-0.115
-301.793	-200.000	0.037	0.181
-300.778	-200.000	-0.011	-0.110
-299.764	14.433	-0.211	0.162
-298.749	2.460	0.273	0.195
-297.735	-200.000	-0.035	-0.288
-296.720	-110.215	-0.130	0.027
-295.705	-88.080	0.172	-0.051
-294.691	145.363	0.217	-0.286
-293.676	-200.000	0.055	-0.558
-292.662	800.000	0.085	0.306
-291.647	19.166	-0.278	-0.220
-290.632	-170.126	-0.163	0.006
-289.618	140.390	-0.239	0.310
-288.603	-81.237	0.236	0.077
-287.589	125.210	-0.106	0.132
-286.574	800.000	-0.034	-0.108
-285.559	-200.000	-0.005	-0.131
-284.545	296.915	0.275	-0.497
-283.530	146.575	-0.134	0.178
-282.516	-200.000	-0.045	-0.295
-281.501	800.000	-0.088	-0.341
-280.486	148.823	-0.135	-0.180
-279.472	-121.617	0.168	0.027
-278.457	-127.540	0.212	-0.030
-277.443	96.508	-0.267	0.301
-276.428	-181.320	0.148	0.003
-275.413	800.000	-0.081	-0.257
-274.399	800.000	-0.089	-0.266
-273.384	460.346	0.147	-0.323
-272.370	-93.174	0.280	0.077
-271.355	-131.070	0.164	0.021
-270.340	410.905	-0.077	-0.162
-269.326	800.000	-0.127	-0.407
-268.311	-84.595	-0.062	-0.019
-267.297	-30.234	0.256	-0.143
-266.282	131.877	0.300	-0.381
-265.267	800.000	0.078	0.333
-264.253	-200.000	0.006	0.218
-263.238	-141.590	-0.243	0.024
-262.224	-200.000	-0.013	-0.421
-261.209	-25.547	0.182	-0.106
-260.195	-92.787	0.326	-0.090
-259.180	800.000	-0.022	-0.060
-258.165	378.278	0.101	-0.204
-257.151	43.727	0.156	0.140
-256.136	800.000	0.067	-0.247
-255.122	222.183	-0.062	-0.099
-254.107	-75.138	-0.078	-0.028
-253.092	800.000	0.037	0.144
-252.078	-23.293	0.103	0.061
-251.063	52.925	-0.214	0.202
-250.049	-80.467	0.183	0.060
-249.034	328.534	-0.145	0.274
-248.019	89.500	-0.194	0.213
-247.005	-125.406	0.076	-0.011
-245.990	-120.074	-0.312	-0.053
-244.976	-135.620	-0.102	-0.012
-243.961	800.000	-0.105	0.369
-242.946	787.269	0.106	-0.287
-241.932	-200.000	0.037	-0.491
-240.917	-200.000	0.287	0.000
-239.903	-103.262	0.243	-0.057
-238.888	-100.987	-0.106	0.025
-237.873	-200.000	-0.059	0.343
-236.859	-200.000	0.034	-0.373
-235.844	-167.018	0.099	-0.004
-234.830	800.000	0.055	-0.210
-233.815	-142.127	0.114	-0.011
-232.800	46.387	-0.114	-0.104
-231.786	123.355	-0.087	-0.107
-230.771	800.000	-0.039	0.153
-229.757	-118.653	-0.106	0.018
-228.742	44.886	-0.252	-0.228
-227.727	110.854	0.111	0.131
-226.713	-185.635	0.026	0.000
-225.698	-12.591	0.201	0.129
-224.684	-200.000	0.005	0.041
-223.669	-55.605	0.047	0.021
-222.655	-200.000	0.024	-0.202
-221.640	157.830	-0.137	-0.187
-220.625	-37.990	-0.189	0.099
-219.611	-33.460	-0.200	-0.109
-218.596	153.235	0.091	0.122
-217.582	-104.516	0.141	-0.032
-216.567	408.681	-0.111	0.231
-215.552	-200.000	-0.005	-0.135
-214.538	192.242	0.132	0.196
-213.523	-63.114	0.208	-0.084
-212.509	-185.427	0.152	-0.002
-211.494	-3.087	0.016	-0.011
-210.479	800.000	0.048	0.160
-209.465	-136.776	-0.471	-0.053
-208.450	405.366	0.193	-0.400
-207.436	160.387	0.065	0.089
-206.421	74.883	0.296	-0.306
-205.406	-200.000	-0.031	-0.204
-204.392	58.536	-0.265	-0.255
-203.377	-76.080	0.121	-0.042
-202.363	244.712	-0.129	0.212
-201.348	-61.846	0.246	0.101
-200.333	-200.000	-0.024	-0.118
-199.319	-58.138	-0.099	-0.043
-198.304	-77.871	-0.210	-0.071
-197.290	53.849	-0.195	-0.184
-196.275	-68.499	0.277	0.106
-195.260	-200.000	-0.025	-0.192
-194.246	800.000	-0.056	-0.202
-193.231	-149.352	0.073	0.006
-192.217	79.197	0.134	0.141
-191.202	510.300	0.071	0.162
-190.187	79.837	-0.315	-0.332
-189.173	-133.315	0.282	0.035
-188.158	-200.000	0.036	0.286
-187.144	-20.164	-0.238	0.144
-186.129	-129.348	0.398	-0.054
-185.114	-96.537	0.090	-0.023
-184.100	125.043	-0.120	-0.148
-183.085	-101.666	-0.352	0.084
-182.071	800.000	0.061	0.169
-181.056	-200.000	0.031	0.328
-180.042	384.797	0.078	0.158
-179.027	472.638	0.034	-0.076
-178.012	657.363	-0.033	0.084
-176.998	477.836	0.044	0.097
-175.983	-8.290	0.173	0.114
-174.969	-15.203	0.100	-0.063
-173.954	-11.794	-0.147	-0.095
-172.939	118.446	0.172	0.209
-171.925	546.968	0.162	-0.381
-170.910	774.171	-0.076	-0.204
-169.896	-200.000	0.007	-0.286
-168.881	-95.892	0.169	0.044
-167.866	-104.390	0.056	-0.013
-166.852	-174.609	-0.400	0.011
-165.837	64.514	-0.125	-0.123
-164.823	-200.000	-0.022	-0.194
-163.808	247.314	0.149	-0.247
-162.793	44.664	-0.246	0.222
-161.779	-140.377	-0.134	0.014
-160.764	246.436	-0.133	0.220
-159.750	-87.417	-0.223	0.066
-158.735	-140.041	0.357	0.037
-157.720	-21.172	0.169	0.101
-156.706	-19.379	0.261	0.159
-155.691	183.031	0.139	0.201
-154.677	196.539	0.254	0.379
-153.662	-162.197	0.252	-0.012
-152.647	43.248	0.329	0.295
-151.633	-65.793	-0.152	0.059
-150.618	27.158	0.106	-0.087
-149.604	659.740	0.106	0.268
-148.589	800.000	0.080	-0.255
-147.574	153.684	0.252	-0.339
-146.560	-193.159	-0.194	0.002
-145.545	-176.373	0.213	0.005
-144.531	-107.422	-0.254	0.055
-143.516	800.000	-0.102	-0.288
-142.502	99.496	-0.134	0.152
-141.487	207.259	0.153	-0.233
-140.472	243.086	0.054	0.088
-139.458	-25.026	-0.259	-0.150
-138.443	-56.447	-0.355	-0.154
-137.429	-99.986	0.121	0.029
-136.414	-200.000	0.044	0.307
-135.399	-200.000	-0.059	-0.353
-134.385	0.331	-0.246	0.172
-133.370	301.986	0.063	-0.114
-132.356	231.594	-0.199	0.319
-131.341	-61.725	0.093	-0.038
-130.326	-32.681	0.220	0.120
-129.312	-112.845	0.161	0.031
-128.297	332.183	0.106	0.200
-127.283	-91.636	-0.180	-0.050
-126.268	5.516	-0.254	-0.184
-125.253	-27.586	-0.148	-0.084
-124.239	-200.000	0.015	-0.106
-123.224	-97.471	0.307	-0.078
-122.210	-200.000	0.028	-0.357
