DTS Sentinel unit serial number:	SN413079Multiplexer serial number:	ORYXHardware model number:	OX4-SRSoftware version number:	ORYX F/W v4.00 Oryx Data Collector v3.7.2.0data status	okinstallation	princeton_trtdifferential loss correction	single-endedforward channel	channel 1reverse channel	N/Adate	2019/09/15time	18:54:35forward acquisition time	60.00reverse acquisition time	0.00gamma	496.2192k internal	0.2290k external	0.2290temperature offset calibration	0.9943default loss term (dB/km)	0.3790temperature slope calibration	1.0000multiplexer offset coefficient	1.0000multiplexer slope coefficient	1.0000fibre end	0.00T internal ref (°C)	42.70T ext. ref 1 (°C)	6.95T ext. ref 2 (°C)	32.96length (m)	temperature (°C)	Stokes	anti-Stokes-747.200	-200.000	0.019	-0.245
-746.185	59.677	-0.086	0.086
-745.171	-200.000	-0.022	0.115
-744.156	-15.515	-0.293	0.191
-743.142	-200.000	-0.036	0.309
-742.127	108.620	0.236	0.289
-741.112	-94.049	-0.444	-0.125
-740.098	-85.753	-0.131	0.042
-739.083	-200.000	-0.029	-0.187
-738.069	0.738	0.217	0.159
-737.054	159.118	0.124	0.177
-736.039	-43.868	-0.250	0.129
-735.025	-100.466	-0.168	-0.042
-734.010	140.334	-0.079	0.106
-732.996	326.530	-0.147	0.289
-731.981	-200.000	-0.010	-0.246
-730.966	57.826	-0.127	-0.127
-729.952	-102.305	-0.192	-0.047
-728.937	-108.360	-0.169	0.037
-727.923	44.319	-0.235	-0.221
-726.908	663.021	-0.055	-0.145
-725.894	800.000	0.031	0.126
-724.879	65.589	-0.148	0.153
-723.864	800.000	-0.087	-0.311
-722.850	-200.000	0.002	-0.424
-721.835	-64.735	-0.339	-0.141
-720.821	-65.583	0.186	0.076
-719.806	232.188	0.087	0.146
-718.791	-14.525	-0.206	-0.135
-717.777	158.278	-0.258	0.366
-716.762	10.073	0.157	0.122
-715.748	-62.250	-0.232	-0.099
-714.733	-200.000	0.010	0.240
-713.718	66.642	-0.066	0.069
-712.704	-200.000	-0.005	0.199
-711.689	800.000	0.062	-0.245
-710.675	800.000	0.019	0.078
-709.660	598.417	-0.041	0.104
-708.645	-1.883	0.029	0.021
-707.631	-200.000	-0.006	0.206
-706.616	29.748	0.157	-0.137
-705.602	39.913	0.144	-0.133
-704.587	-84.822	-0.267	0.086
-703.572	211.897	-0.072	0.116
-702.558	109.599	-0.114	-0.139
-701.543	430.646	-0.093	-0.207
-700.529	160.498	-0.034	0.048
-699.514	38.899	-0.294	-0.269
-698.499	800.000	-0.078	-0.321
-697.485	-142.138	0.166	0.017
-696.470	-103.559	-0.061	-0.015
-695.456	213.572	0.122	-0.198
-694.441	436.499	0.115	0.256
-693.426	-84.105	0.252	-0.082
-692.412	229.727	-0.205	-0.342
-691.397	-76.380	0.198	0.071
-690.383	3.551	0.127	-0.094
-689.368	186.693	-0.127	-0.193
-688.354	-200.000	-0.009	-0.073
-687.339	-159.273	-0.315	-0.018
-686.324	95.768	0.194	-0.226
-685.310	45.966	-0.132	-0.125
-684.295	275.724	0.026	0.048
-683.281	187.192	-0.232	-0.353
-682.266	-110.365	-0.287	-0.061
-681.251	133.728	0.114	0.151
-680.237	-101.988	-0.054	0.013
-679.222	283.916	-0.147	-0.270
-678.208	-143.398	-0.116	-0.011
-677.193	787.135	0.044	-0.123
-676.178	-200.000	0.050	0.260
-675.164	381.336	-0.042	-0.088
-674.149	-151.690	-0.179	0.014
-673.135	800.000	-0.067	-0.260
-672.120	30.070	0.212	-0.184
-671.105	-21.136	0.262	-0.164
-670.091	150.862	0.054	0.075
-669.076	39.829	-0.128	0.118
-668.062	143.235	0.217	0.295
-667.047	-200.000	-0.024	0.181
-666.032	-55.592	-0.073	0.033
-665.018	32.455	0.052	-0.046
-664.003	-100.416	0.224	0.057
-662.989	-48.970	-0.161	0.079
-661.974	50.636	-0.192	-0.186
-660.959	-65.689	0.197	-0.080
-659.945	-147.572	-0.292	0.025
-658.930	800.000	0.105	0.308
-657.916	-200.000	0.000	0.249
-656.901	-200.000	-0.010	0.056
-655.886	1.270	-0.204	-0.149
-654.872	-105.415	0.289	0.067
-653.857	43.849	-0.189	0.176
-652.843	-200.000	-0.063	-0.336
-651.828	371.464	0.040	-0.083
-650.814	-168.077	-0.352	0.014
-649.799	99.694	0.039	-0.046
-648.784	-106.078	-0.283	0.065
-647.770	-198.176	-0.301	-0.002
-646.755	-200.000	-0.009	0.059
-645.741	-200.000	0.065	0.352
-644.726	75.882	-0.061	0.065
-643.711	-200.000	-0.043	-0.269
-642.697	-100.395	-0.089	0.023
-641.682	449.908	0.090	0.203
-640.668	800.000	-0.040	0.120
-639.653	800.000	0.130	0.412
-638.638	66.973	-0.209	0.217
-637.624	45.165	-0.111	-0.104
-636.609	76.773	-0.126	0.137
-635.595	-72.990	0.224	-0.084
-634.580	49.845	0.158	0.152
-633.565	-151.564	0.265	0.020
-632.551	739.850	-0.125	0.343
-631.536	800.000	-0.140	0.429
-630.522	-121.600	-0.156	-0.026
-629.507	-200.000	-0.005	-0.364
-628.492	800.000	0.034	-0.140
-627.478	190.095	0.222	-0.339
-626.463	714.743	0.031	0.084
-625.449	-200.000	-0.007	-0.116
-624.434	-10.546	0.243	0.164
-623.419	-33.922	-0.254	-0.142
-622.405	-42.365	0.236	0.123
-621.390	-130.555	-0.176	0.024
-620.376	390.370	0.209	-0.441
-619.361	800.000	-0.034	0.122
-618.346	-200.000	-0.052	0.277
-617.332	800.000	0.083	-0.269
-616.317	279.150	-0.066	-0.120
-615.303	-94.234	-0.216	-0.060
-614.288	106.346	-0.156	-0.188
-613.273	800.000	0.114	-0.411
-612.259	351.351	0.140	0.282
-611.244	-35.312	-0.345	-0.191
-610.230	163.744	-0.095	-0.137
-609.215	-35.631	0.094	-0.052
-608.201	-66.645	-0.032	0.013
-607.186	-12.356	-0.242	0.161
-606.171	163.199	0.129	-0.185
-605.157	11.561	-0.051	-0.040
-604.142	-200.000	-0.010	0.059
-603.128	336.418	-0.129	0.255
-602.113	85.473	0.080	0.090
-601.098	-93.595	0.357	-0.101
-600.084	-83.887	-0.192	-0.062
-599.069	-200.000	-0.032	0.213
-598.055	-115.906	-0.436	-0.083
-597.040	-200.000	0.002	0.128
-596.025	217.927	0.122	-0.198
-595.011	-85.973	0.135	-0.042
-593.996	-35.219	-0.192	-0.106
-592.982	155.303	-0.031	-0.043
-591.967	568.648	0.077	0.191
-590.952	-145.208	0.164	-0.015
-589.938	-200.000	-0.005	-0.164
-588.923	754.800	0.115	-0.317
-587.909	-157.144	-0.205	0.013
-586.894	27.234	-0.105	0.090
-585.879	-35.870	-0.257	0.141
-584.865	343.132	-0.100	-0.200
-583.850	800.000	0.051	-0.196
-582.836	-76.502	0.390	-0.140
-581.821	-6.789	0.152	0.105
-580.806	-54.933	0.070	0.032
-579.792	208.173	0.121	-0.192
-578.777	-81.491	-0.409	-0.137
-577.763	217.930	0.201	0.326
-576.748	125.484	-0.245	-0.315
-575.733	800.000	0.040	0.166
-574.719	0.789	0.043	0.031
-573.704	-123.253	0.079	0.013
-572.690	-195.315	-0.178	-0.001
-571.675	32.878	-0.153	0.135
-570.661	-58.328	-0.277	-0.123
-569.646	567.673	0.123	-0.304
-568.631	535.372	0.096	-0.231
-567.617	-194.375	-0.213	-0.002
-566.602	-118.660	0.164	-0.029
-565.588	122.568	0.095	-0.121
-564.573	-40.281	0.175	-0.093
-563.558	21.934	0.286	0.237
-562.544	-27.052	-0.100	-0.059
-561.529	-88.056	-0.102	-0.031
-560.515	-28.956	0.244	0.143
-559.500	-9.402	0.116	0.078
-558.485	800.000	0.101	-0.320
-557.471	244.950	0.151	0.258
-556.456	-98.397	-0.248	-0.065
-555.442	-40.338	0.076	-0.040
-554.427	9.090	-0.309	-0.238
-553.412	-91.873	0.337	-0.097
-552.398	55.938	-0.126	0.125
-551.383	-16.078	-0.317	0.205
-550.369	-32.218	-0.122	-0.069
-549.354	-35.632	0.383	-0.211
-548.339	677.302	0.072	-0.191
-547.325	127.546	-0.146	-0.189
-546.310	-157.053	-0.273	0.017
-545.296	65.300	-0.187	0.192
-544.281	-94.920	-0.252	-0.069
-543.266	-27.667	-0.213	0.125
-542.252	3.969	-0.348	0.259
-541.237	44.859	0.098	0.092
-540.223	-121.102	0.209	0.036
-539.208	-162.553	-0.290	-0.015
-538.193	-116.293	0.280	-0.053
-537.179	-200.000	0.035	-0.206
-536.164	800.000	0.002	0.006
-535.150	-200.000	-0.003	-0.015
-534.135	182.263	-0.187	-0.280
-533.121	179.498	0.067	-0.100
-532.106	800.000	-0.037	-0.104
-531.091	70.182	-0.105	-0.110
-530.077	1.667	-0.292	-0.214
-529.062	-48.033	0.095	0.047
-528.048	800.000	-0.046	-0.170
-527.033	55.743	0.264	0.260
-526.018	98.075	0.221	0.258
-525.004	11.816	-0.164	0.128
-523.989	-56.665	-0.210	-0.094
-522.975	148.546	0.015	-0.020
-521.960	-8.013	0.094	-0.065
-520.945	-200.000	0.002	0.045
-519.931	-2.787	-0.081	0.057
-518.916	-95.629	-0.326	0.089
-517.902	53.007	0.149	-0.144
-516.887	102.052	-0.013	-0.016
-515.872	74.945	0.144	0.154
-514.858	-64.456	0.366	-0.151
-513.843	46.315	0.157	-0.148
-512.829	-0.356	-0.199	-0.144
-511.814	191.469	0.100	0.152
-510.799	151.182	-0.247	-0.341
-509.785	454.187	0.150	0.336
-508.770	-67.992	0.201	-0.080
-507.756	-97.011	0.050	0.013
-506.741	305.147	0.058	0.109
-505.726	-68.250	0.436	-0.172
-504.712	450.373	0.060	0.134
-503.697	160.518	0.051	0.072
-502.683	159.323	0.025	0.035
-501.668	207.107	0.068	0.108
-500.653	59.062	-0.161	0.161
-499.639	800.000	0.024	-0.106
-498.624	15.332	0.049	0.039
-497.610	-121.303	0.317	0.054
-496.595	37.960	-0.222	0.201
-495.581	-200.000	0.011	0.183
-494.566	-200.000	0.003	-0.217
-493.551	-132.051	0.348	0.046
-492.537	151.300	-0.102	0.141
-491.522	-113.227	0.162	-0.032
-490.508	-162.967	-0.250	-0.012
-489.493	778.722	-0.129	0.359
-488.478	-20.288	-0.249	0.156
-487.464	-161.517	-0.174	-0.009
-486.449	-143.554	-0.123	0.012
-485.435	-46.567	-0.147	-0.073
-484.420	369.836	0.034	0.070
-483.405	-22.357	0.192	-0.118
-482.391	156.040	0.086	0.120
-481.376	800.000	0.033	0.114
-480.362	-87.624	-0.144	-0.044
-479.347	156.493	0.039	0.054
-478.332	75.216	-0.023	-0.025
-477.318	-10.033	0.228	0.154
-476.303	49.437	0.080	0.076
-475.289	-136.938	-0.078	-0.009
-474.274	104.825	-0.087	-0.103
-473.259	-126.093	-0.276	-0.042
-472.245	157.035	0.251	-0.352
-471.230	-168.156	-0.366	0.014
-470.216	54.118	0.084	-0.082
-469.201	16.553	-0.041	-0.033
-468.186	434.658	0.146	-0.321
-467.172	-45.227	0.149	-0.075
-466.157	304.884	0.032	0.061
-465.143	267.188	-0.055	-0.098
-464.128	-41.038	0.135	0.070
-463.113	-200.000	0.038	-0.176
-462.099	76.102	0.197	-0.211
-461.084	800.000	-0.043	-0.145
-460.070	-121.564	0.146	-0.024
-459.055	86.997	-0.103	-0.115
-458.040	366.177	0.059	-0.120
-457.026	511.127	0.191	-0.451
-456.011	-200.000	-0.011	-0.195
-454.997	95.284	0.165	-0.191
-453.982	-200.000	0.014	0.073
-452.968	-200.000	0.010	0.263
-451.953	-200.000	0.048	0.374
-450.938	-200.000	-0.039	0.349
-449.924	-7.438	0.129	-0.088
-448.909	-200.000	0.010	0.254
-447.895	15.031	0.159	0.126
-446.880	-10.599	0.108	0.072
-445.865	-128.733	-0.193	0.028
-444.851	-25.780	0.044	-0.026
-443.836	-182.590	0.074	0.001
-442.822	-111.890	0.127	0.026
-441.807	-115.869	-0.140	-0.027
-440.792	-92.856	-0.227	0.064
-439.778	53.053	-0.111	-0.108
-438.763	66.637	0.278	0.286
-437.749	258.330	-0.237	0.413
-436.734	-37.134	-0.147	-0.080
-435.719	40.582	-0.174	-0.159
-434.705	800.000	-0.050	0.184
-433.690	-45.524	-0.199	-0.100
-432.676	24.116	-0.156	-0.131
-431.661	-200.000	0.000	-0.004
-430.646	-70.305	0.107	0.041
-429.632	549.460	-0.092	-0.224
-428.617	-96.961	-0.464	0.123
-427.603	800.000	0.047	-0.152
-426.588	167.037	-0.030	0.043
-425.573	122.270	0.161	-0.204
-424.559	-120.079	-0.145	0.025
-423.544	133.115	0.238	-0.311
-422.530	-140.430	-0.352	-0.037
-421.515	519.303	0.108	0.256
-420.500	-166.139	-0.152	0.007
-419.486	245.529	0.054	0.092
-418.471	-200.000	-0.006	-0.152
-417.457	773.750	0.049	0.135
-416.442	-200.000	0.012	0.301
-415.428	-54.155	-0.345	0.159
-414.413	695.803	0.085	0.226
-413.398	-38.909	0.106	0.056
-412.384	275.327	0.106	-0.190
-411.369	-89.259	-0.365	-0.109
-410.355	-124.556	0.264	0.041
-409.340	-36.488	0.206	0.112
-408.325	-66.750	0.364	0.146
-407.311	80.178	0.118	-0.129
-406.296	14.191	-0.196	-0.154
-405.282	-200.000	-0.041	-0.298
-404.267	150.600	0.115	0.158
-403.252	-200.000	-0.014	0.130
-402.238	-117.900	-0.073	0.013
-401.223	795.211	-0.065	0.181
-400.209	773.644	-0.062	0.170
-399.194	-11.003	-0.138	-0.092
-398.179	-39.027	-0.228	-0.121
-397.165	314.660	0.022	-0.042
-396.150	16.620	-0.156	0.125
-395.136	259.709	-0.131	0.229
-394.121	800.000	0.021	-0.092
-393.106	-78.352	-0.360	0.125
-392.092	-60.525	-0.174	0.075
-391.077	59.117	-0.243	-0.242
-390.063	-101.137	0.288	0.071
-389.048	-142.897	-0.143	-0.014
-388.033	-70.133	0.038	0.015
-387.019	11.021	-0.233	0.180
-386.004	141.040	-0.234	0.312
-384.990	800.000	-0.078	0.257
-383.975	72.663	0.173	-0.182
-382.960	115.708	0.176	0.218
-381.946	-200.000	0.002	-0.015
-380.931	-26.246	-0.118	-0.070
-379.917	800.000	0.082	-0.253
-378.902	-17.338	-0.101	0.064
-377.888	-85.964	0.037	0.012
-376.873	50.233	0.097	-0.093
-375.858	47.078	0.148	-0.139
-374.844	-32.311	-0.115	-0.065
-373.829	42.947	0.338	0.311
-372.815	-78.298	-0.107	0.037
-371.800	-109.515	0.173	0.037
-370.785	231.395	-0.178	-0.294
-369.771	63.095	-0.286	-0.289
-368.756	-125.896	-0.183	-0.028
-367.742	-70.462	0.317	0.121
-366.727	-128.969	-0.047	-0.007
-365.712	-91.761	-0.204	-0.058
-364.698	-63.591	0.221	0.092
-363.683	175.638	0.123	-0.180
-362.669	-53.144	-0.339	-0.157
-361.654	-93.439	0.108	0.030
-360.639	-66.953	-0.238	0.095
-359.625	93.501	-0.132	-0.151
-358.610	-200.000	0.050	0.266
-357.596	360.380	-0.236	-0.476
-356.581	-38.919	0.277	-0.147
-355.566	-200.000	-0.073	0.392
-354.552	-97.946	-0.141	0.037
-353.537	-200.000	-0.005	0.024
-352.523	-45.908	-0.158	-0.079
-351.508	-140.781	-0.140	0.015
-350.493	-46.583	-0.337	-0.167
-349.479	697.423	-0.121	0.321
-348.464	-200.000	-0.019	0.375
-347.450	-12.321	-0.064	0.042
-346.435	133.778	-0.236	-0.308
-345.420	-76.721	0.128	-0.045
-344.406	404.844	0.067	0.142
-343.391	83.970	-0.187	-0.206
-342.377	-55.803	-0.283	0.128
-341.362	-81.811	-0.137	-0.045
-340.348	-116.224	-0.251	-0.047
-339.333	156.425	0.113	-0.158
-338.318	-118.286	0.199	-0.036
-337.304	176.164	-0.055	-0.080
-336.289	800.000	-0.017	0.069
-335.275	83.658	-0.208	-0.229
-334.260	101.268	-0.098	0.116
-333.245	532.801	0.173	0.414
-332.231	208.687	0.293	0.463
-331.216	228.893	0.139	0.229
-330.202	247.460	0.091	0.155
-329.187	160.578	-0.158	0.222
-328.172	-123.969	0.431	0.068
-327.158	-95.662	-0.034	-0.009
-326.143	3.798	-0.135	0.100
-325.129	193.571	0.131	-0.200
-324.114	207.516	-0.057	0.089
-323.099	800.000	0.046	-0.129
-322.085	-200.000	-0.018	-0.335
-321.070	-200.000	0.029	0.130
-320.056	163.882	-0.224	-0.317
-319.041	-13.669	0.272	-0.177
-318.026	55.805	0.358	-0.350
-317.012	-28.215	-0.145	0.084
-315.997	-117.701	0.372	0.067
-314.983	-34.544	-0.251	-0.139
-313.968	-17.735	0.152	-0.096
-312.953	-86.914	0.473	-0.145
-311.939	-105.462	0.112	0.026
-310.924	261.198	-0.189	-0.330
-309.910	-169.857	0.208	-0.008
-308.895	599.498	0.094	0.234
-307.880	94.582	0.032	-0.036
-306.866	210.574	0.124	-0.197
-305.851	343.877	0.070	-0.138
-304.837	-40.251	-0.128	0.067
-303.822	800.000	0.029	-0.100
-302.807	-70.043	-0.375	0.144
-301.793	-90.567	0.239	-0.069
-300.778	-121.104	-0.153	0.026
-299.764	-24.213	0.148	-0.089
-298.749	41.765	0.196	-0.179
-297.735	-121.765	-0.335	-0.056
-296.720	-57.503	-0.106	-0.047
-295.705	-57.581	-0.144	0.063
-294.691	-25.207	-0.123	0.073
-293.676	-110.179	0.370	-0.078
-292.662	-21.949	-0.261	0.160
-291.647	71.605	-0.183	0.192
-290.632	293.264	-0.059	0.109
-289.618	-100.577	0.443	0.110
-288.603	208.232	0.157	0.248
-287.589	98.919	0.057	0.066
-286.574	130.668	-0.115	-0.148
-285.559	-200.000	-0.027	-0.163
-284.545	-25.712	-0.294	0.175
-283.530	-38.172	0.369	0.197
-282.516	658.682	-0.081	0.209
-281.501	-92.965	0.203	0.057
-280.486	147.281	0.218	-0.296
-279.472	-200.000	-0.002	-0.379
-278.457	-49.812	0.168	-0.080
-277.443	223.052	0.174	-0.282
-276.428	-77.199	-0.090	-0.032
-275.413	82.547	-0.040	-0.043
-274.399	109.231	0.055	-0.066
-273.384	800.000	-0.063	-0.255
-272.370	171.361	-0.102	-0.148
-271.355	800.000	-0.021	0.073
-270.340	-51.940	0.148	0.069
-269.326	378.257	-0.059	-0.122
-268.311	15.584	-0.074	0.059
-267.297	257.798	0.152	-0.263
-266.282	9.775	0.075	0.057
-265.267	56.034	-0.081	-0.079
-264.253	66.742	-0.203	-0.207
-263.238	134.883	-0.161	0.210
-262.224	-200.000	-0.039	-0.395
-261.209	-60.644	0.146	0.062
-260.195	-60.220	0.091	0.039
-259.180	-200.000	-0.004	0.131
-258.165	-134.353	0.127	0.016
-257.151	800.000	-0.048	-0.210
-256.136	-34.113	0.143	-0.079
-255.122	130.902	0.084	0.108
-254.107	191.070	-0.161	0.244
-253.092	595.238	-0.054	-0.134
-252.078	133.057	0.209	0.271
-251.063	-57.418	0.054	-0.024
-250.049	-200.000	-0.015	-0.287
-249.034	52.129	0.048	0.046
-248.019	-200.000	0.017	0.206
-247.005	147.885	0.150	-0.203
-245.990	-200.000	0.026	-0.205
-244.976	800.000	-0.112	-0.352
-243.961	-84.284	0.422	0.134
-242.946	-192.899	0.200	0.002
-241.932	-144.342	0.132	-0.012
-240.917	-68.043	0.075	-0.029
-239.903	-114.436	0.248	0.048
-238.888	-200.000	0.011	0.373
-237.873	-35.207	0.301	0.164
-236.859	-200.000	0.001	-0.010
-235.844	-48.316	0.101	0.049
-234.830	800.000	-0.055	-0.155
-233.815	-200.000	-0.008	-0.175
-232.800	257.939	0.230	-0.397
-231.786	59.401	0.284	-0.281
-230.771	-200.000	-0.027	-0.197
-229.757	484.845	0.059	0.134
-228.742	35.947	-0.090	0.080
-227.727	132.096	0.128	-0.165
-226.713	775.507	0.009	0.026
-225.698	306.816	-0.173	0.324
-224.684	597.882	-0.061	0.152
-223.669	310.207	0.142	0.267
-222.655	-195.889	-0.192	0.001
-221.640	14.876	0.123	-0.097
-220.625	-145.507	0.117	-0.011
-219.611	-8.505	0.177	-0.119
-218.596	-200.000	-0.005	0.086
-217.582	-153.504	-0.094	-0.007
-216.567	-30.774	-0.225	-0.128
-215.552	-74.810	0.245	0.088
-214.538	-104.160	0.386	0.090
-213.523	800.000	0.118	0.333
-212.509	-126.975	0.166	-0.024
-211.494	428.620	-0.023	0.049
-210.479	-200.000	0.003	-0.051
-209.465	-200.000	0.007	0.078
-208.450	39.656	0.165	0.149
-207.436	367.138	0.096	0.194
-206.421	541.381	-0.099	0.237
-205.406	161.713	0.048	-0.067
-204.392	-130.348	-0.288	-0.039
-203.377	-200.000	0.012	-0.236
-202.363	-200.000	0.003	-0.162
-201.348	-35.140	0.166	-0.091
-200.333	800.000	0.019	-0.062
-199.319	-200.000	0.025	0.249
-198.304	800.000	-0.065	-0.222
-197.290	-110.841	-0.497	-0.103
-196.275	140.072	0.199	0.264
-195.260	-109.178	-0.123	0.026
-194.246	-136.745	0.526	0.061
-193.231	-200.000	0.006	0.053
-192.217	-200.000	0.011	0.171
-191.202	-28.564	-0.196	0.113
-190.187	93.863	0.190	-0.216
-189.173	-200.000	-0.009	0.212
-188.158	-200.000	-0.017	0.121
-187.144	19.080	-0.162	-0.130
-186.129	-47.502	-0.055	-0.027
-185.114	58.513	0.196	0.192
-184.100	32.299	-0.147	-0.127
-183.085	-200.000	-0.251	-0.001
-182.071	218.959	0.057	0.091
-181.056	59.501	-0.302	0.299
-180.042	420.705	-0.087	0.186
-179.027	353.408	0.091	0.181
-178.012	-94.809	0.147	0.040
-176.998	96.025	0.065	0.075
-175.983	-56.116	-0.115	0.051
-174.969	-200.000	0.073	-0.320
-173.954	-144.318	-0.497	-0.046
-172.939	-123.508	-0.051	0.008
-171.925	-200.000	-0.016	-0.148
-170.910	-65.929	-0.519	-0.208
-169.896	-19.613	-0.133	-0.083
-168.881	-53.363	0.266	0.122
-167.866	800.000	-0.021	-0.089
-166.852	-72.187	0.161	-0.060
-165.837	-126.414	-0.159	-0.024
-164.823	1.704	0.149	0.108
-163.808	-103.844	0.250	0.058
-162.793	122.883	-0.163	0.204
-161.779	-139.331	0.024	-0.003
-160.764	-108.820	-0.136	-0.029
-159.750	172.309	0.149	0.215
-158.735	63.417	-0.184	0.185
-157.720	160.481	0.167	0.234
-156.706	-123.365	0.218	0.035
-155.691	71.235	0.270	-0.281
-154.677	-11.092	-0.139	-0.092
-153.662	68.491	0.239	0.245
-152.647	-200.000	0.045	0.296
-151.633	-200.000	-0.034	0.368
-150.618	-200.000	0.047	0.238
-149.604	98.719	0.156	-0.180
-148.589	-100.136	0.370	0.092
-147.574	800.000	-0.009	0.027
-146.560	-23.914	-0.131	-0.079
-145.545	214.305	-0.039	-0.062
-144.531	-200.000	-0.017	-0.230
-143.516	-50.876	0.296	0.139
-142.502	-91.697	0.200	0.057
-141.487	39.009	0.262	0.235
-140.472	-200.000	-0.041	-0.333
-139.458	59.091	-0.203	-0.200
-138.443	-200.000	-0.025	-0.275
-137.429	-128.621	0.057	-0.008
-136.414	-30.155	0.079	-0.045
-135.399	-119.886	-0.296	0.051
-134.385	49.049	-0.166	0.156
-133.370	-142.717	-0.178	-0.017
-132.356	800.000	0.031	0.120
-131.341	-200.000	0.000	0.055
-130.326	-14.233	-0.280	0.181
-129.312	-57.698	0.132	-0.058
-128.297	137.049	0.209	0.273
-127.283	800.000	-0.077	-0.222
-126.268	-76.402	-0.353	-0.124
-125.253	800.000	0.087	0.276
-124.239	-96.493	0.087	-0.023
-123.224	-200.000	0.048	-0.341
-122.210	-96.214	-0.200	-0.053
-121.195	800.000	-0.025	0.084
