DTS Sentinel unit serial number:	SN413079Multiplexer serial number:	ORYXHardware model number:	OX4-SRSoftware version number:	ORYX F/W v4.00 Oryx Data Collector v3.7.2.0data status	okinstallation	princeton_trtdifferential loss correction	single-endedforward channel	channel 1reverse channel	N/Adate	2019/09/18time	23:10:35forward acquisition time	60.00reverse acquisition time	0.00gamma	496.2192k internal	0.2340k external	0.2340temperature offset calibration	1.0023default loss term (dB/km)	0.3790temperature slope calibration	1.0000multiplexer offset coefficient	1.0000multiplexer slope coefficient	1.0000fibre end	0.00T internal ref (°C)	23.94T ext. ref 1 (°C)	0.78T ext. ref 2 (°C)	17.44length (m)	temperature (°C)	Stokes	anti-Stokes-747.200	498.348	-0.142	0.328
-746.185	190.460	0.087	0.132
-745.171	-200.000	0.040	-0.255
-744.156	117.834	-0.050	0.061
-743.142	-200.000	-0.011	0.062
-742.127	-200.000	0.045	0.377
-741.112	-137.783	0.070	-0.008
-740.098	434.414	0.024	0.053
-739.083	800.000	0.028	0.096
-738.069	-111.304	-0.409	0.084
-737.054	-50.302	0.145	-0.069
-736.039	-60.959	-0.340	0.144
-735.025	-200.000	-0.033	0.174
-734.010	-200.000	0.002	-0.111
-732.996	-200.000	0.011	0.250
-731.981	-181.221	-0.342	0.007
-730.966	800.000	-0.035	0.131
-729.952	163.656	-0.032	0.046
-728.937	-120.056	-0.268	0.046
-727.923	-180.498	-0.153	-0.003
-726.908	36.333	0.130	0.115
-725.894	-67.303	-0.355	0.140
-724.879	601.991	-0.146	0.363
-723.864	-5.258	0.241	-0.166
-722.850	17.899	0.166	-0.132
-721.835	-52.390	-0.364	-0.169
-720.821	51.530	-0.184	0.175
-719.806	542.718	0.023	-0.056
-718.791	-200.000	-0.068	-0.443
-717.777	381.350	-0.138	-0.283
-716.762	-120.822	-0.143	0.024
-715.748	-125.773	-0.227	-0.034
-714.733	653.100	-0.058	-0.150
-713.718	-25.089	-0.166	0.099
-712.704	7.887	-0.230	0.173
-711.689	309.785	-0.065	-0.121
-710.675	159.152	0.045	-0.062
-709.660	-57.594	-0.284	0.125
-708.645	-200.000	-0.039	-0.270
-707.631	8.979	-0.095	0.071
-706.616	-144.464	0.437	0.041
-705.602	133.756	0.180	-0.234
-704.587	-154.364	-0.093	-0.006
-703.572	-200.000	-0.015	-0.187
-702.558	-161.299	0.240	-0.012
-701.543	-22.560	-0.160	-0.097
-700.529	547.594	0.065	0.155
-699.514	92.878	0.018	-0.020
-698.499	491.407	0.033	-0.075
-697.485	-148.384	-0.323	0.027
-696.470	5.676	0.310	-0.229
-695.456	-147.652	-0.171	0.014
-694.441	61.706	-0.063	0.063
-693.426	-200.000	-0.060	0.319
-692.412	-194.980	0.290	-0.002
-691.397	-130.684	-0.331	0.045
-690.383	472.229	-0.049	-0.109
-689.368	-55.760	-0.315	0.141
-688.354	-38.208	-0.059	-0.031
-687.339	-141.676	-0.493	0.050
-686.324	-57.502	-0.011	0.005
-685.310	40.293	0.176	0.159
-684.295	800.000	-0.070	0.239
-683.281	-173.266	-0.177	-0.005
-682.266	14.194	0.100	-0.078
-681.251	10.645	-0.104	-0.080
-680.237	-149.641	0.115	0.009
-679.222	-83.873	0.208	0.066
-678.208	800.000	-0.125	-0.362
-677.193	584.389	0.096	-0.237
-676.178	422.389	-0.142	0.304
-675.164	38.068	0.289	0.257
-674.149	-144.838	0.062	0.006
-673.135	525.776	-0.143	-0.337
-672.120	-21.938	-0.398	-0.242
-671.105	-78.139	-0.225	0.077
-670.091	-200.000	0.054	-0.255
-669.076	409.475	-0.050	0.105
-668.062	-200.000	-0.014	0.206
-667.047	-21.674	0.175	-0.106
-666.032	-75.465	0.357	0.127
-665.018	-141.055	-0.384	-0.039
-664.003	436.222	0.191	-0.415
-662.989	126.265	0.155	-0.196
-661.974	70.704	-0.166	-0.172
-660.959	-71.886	-0.130	0.049
-659.945	-87.192	0.406	0.123
-658.930	165.265	0.071	-0.100
-657.916	-70.591	0.208	-0.078
-656.901	-148.777	-0.259	-0.021
-655.886	800.000	-0.060	-0.192
-654.872	-73.802	0.048	-0.018
-653.857	-200.000	-0.015	-0.349
-652.843	-134.511	0.115	0.014
-651.828	800.000	-0.132	0.440
-650.814	-200.000	0.006	0.212
-649.799	-200.000	-0.035	0.178
-648.784	800.000	-0.036	-0.123
-647.770	800.000	-0.059	0.163
-646.755	-9.826	-0.070	-0.046
-645.741	111.510	-0.218	-0.263
-644.726	-200.000	-0.066	-0.419
-643.711	236.973	0.192	0.318
-642.697	56.180	-0.008	0.008
-641.682	-103.981	0.165	0.038
-640.668	172.449	0.032	-0.046
-639.653	-59.450	0.137	-0.059
-638.638	-20.006	-0.207	-0.127
-637.624	60.133	-0.166	0.164
-636.609	-23.558	-0.252	0.151
-635.595	98.471	-0.174	-0.200
-634.580	-81.790	-0.374	0.122
-633.565	205.016	-0.107	-0.165
-632.551	113.190	-0.134	0.163
-631.536	800.000	0.015	-0.052
-630.522	226.327	0.057	-0.092
-629.507	-66.966	-0.275	0.108
-628.492	-200.000	-0.003	0.201
-627.478	50.492	0.038	-0.036
-626.463	-145.237	0.157	-0.014
-625.449	800.000	0.026	-0.103
-624.434	-87.769	-0.190	0.057
-623.419	223.076	-0.250	0.402
-622.405	22.662	0.120	0.098
-621.390	46.644	0.363	0.336
-620.376	-98.805	-0.268	0.068
-619.361	-200.000	0.047	-0.213
-618.346	-150.891	-0.235	-0.018
-617.332	179.556	-0.136	0.198
-616.317	800.000	-0.028	0.094
-615.303	148.475	0.156	0.210
-614.288	124.274	-0.169	0.212
-613.273	-96.024	-0.034	-0.009
-612.259	41.213	-0.183	0.165
-611.244	131.956	0.222	0.285
-610.230	537.145	0.023	-0.053
-609.215	7.304	-0.143	-0.106
-608.201	-200.000	0.001	-0.472
-607.186	108.996	-0.238	-0.284
-606.171	-200.000	-0.009	0.101
-605.157	-200.000	0.028	-0.295
-604.142	-200.000	-0.023	0.166
-603.128	211.724	-0.074	0.117
-602.113	800.000	0.038	0.129
-601.098	8.216	0.089	-0.067
-600.084	-200.000	-0.050	-0.225
-599.069	-200.000	-0.001	-0.288
-598.055	-200.000	0.048	-0.353
-597.040	644.601	-0.071	-0.180
-596.025	-120.593	0.231	0.039
-595.011	12.612	-0.122	0.094
-593.996	424.561	-0.116	0.250
-592.982	202.353	0.090	-0.139
-591.967	164.960	0.166	0.234
-590.952	-168.821	-0.621	0.023
-589.938	12.483	0.177	0.136
-588.923	130.489	-0.102	0.130
-587.909	131.604	-0.190	0.243
-586.894	6.603	0.092	-0.068
-585.879	-1.121	0.042	0.029
-584.865	-56.135	-0.084	0.037
-583.850	99.713	0.235	0.271
-582.836	232.833	0.194	-0.318
-581.821	-71.556	-0.081	-0.030
-580.806	-83.693	0.221	-0.070
-579.792	365.222	0.047	-0.095
-578.777	17.614	0.272	-0.215
-577.763	-83.528	-0.123	-0.039
-576.748	800.000	-0.034	0.127
-575.733	-200.000	0.003	-0.063
-574.719	-55.239	0.303	0.136
-573.704	294.015	0.132	0.240
-572.690	-42.660	0.097	0.049
-571.675	13.669	0.231	0.179
-570.661	-200.000	-0.046	-0.231
-569.646	682.022	0.135	0.351
-568.631	-69.136	0.275	-0.105
-567.617	345.140	-0.067	-0.131
-566.602	-89.126	0.218	0.064
-565.588	-28.169	0.438	-0.252
-564.573	18.381	-0.150	0.119
-563.558	384.199	0.028	0.057
-562.544	43.611	-0.177	-0.161
-561.529	-200.000	0.015	0.196
-560.515	-200.000	-0.004	0.308
-559.500	-200.000	0.014	-0.096
-558.485	262.969	-0.175	-0.303
-557.471	168.632	0.030	-0.043
-556.456	-30.886	0.206	0.116
-555.442	-187.699	0.257	0.003
-554.427	-200.000	0.005	0.250
-553.412	-112.495	0.371	0.074
-552.398	113.097	-0.115	0.139
-551.383	214.293	0.147	-0.231
-550.369	322.794	-0.068	-0.128
-549.354	6.179	-0.177	-0.131
-548.339	800.000	-0.031	-0.117
-547.325	-200.000	0.001	0.004
-546.310	26.908	0.059	-0.049
-545.296	-200.000	0.054	-0.335
-544.281	57.455	0.069	-0.067
-543.266	-147.316	0.130	0.011
-542.252	-11.446	0.102	0.067
-541.237	-88.960	-0.409	0.121
-540.223	-75.108	0.187	-0.067
-539.208	800.000	-0.116	0.373
-538.193	3.272	-0.062	0.045
-537.179	626.419	-0.022	0.056
-536.164	89.691	0.291	-0.322
-535.150	7.948	-0.157	-0.117
-534.135	186.543	-0.080	-0.118
-533.121	184.073	0.114	-0.167
-532.106	460.232	0.018	-0.041
-531.091	22.845	-0.073	0.060
-530.077	-130.350	0.433	0.058
-529.062	800.000	0.027	0.090
-528.048	-200.000	-0.006	0.042
-527.033	89.198	0.084	0.094
-526.018	-200.000	0.045	-0.401
-525.004	-76.216	0.036	0.013
-523.989	42.314	0.100	0.090
-522.975	800.000	-0.031	-0.125
-521.960	48.074	0.181	-0.168
-520.945	800.000	-0.073	0.302
-519.931	800.000	0.076	0.234
-518.916	669.123	0.143	0.367
-517.902	-46.581	0.157	0.077
-516.887	25.323	-0.048	-0.039
-515.872	407.590	0.118	0.248
-514.858	-123.757	0.078	-0.012
-513.843	117.814	-0.177	-0.217
-512.829	-129.725	0.189	-0.026
-511.814	-150.391	0.134	-0.010
-510.799	-55.218	0.085	-0.038
-509.785	-29.850	0.293	-0.166
-508.770	-140.331	0.487	-0.051
-507.756	-200.000	0.047	-0.560
-506.741	-59.821	-0.193	-0.082
-505.726	-76.562	-0.063	0.022
-504.712	-24.190	0.108	-0.064
-503.697	-90.195	-0.190	-0.055
-502.683	-200.000	0.018	-0.254
-501.668	365.923	0.139	-0.279
-500.653	800.000	0.038	0.122
-499.639	98.250	-0.148	0.169
-498.624	53.277	0.160	-0.152
-497.610	411.413	-0.023	0.048
-496.595	-116.124	0.427	-0.079
-495.581	643.982	-0.072	-0.183
-494.566	86.296	0.177	-0.193
-493.551	-58.056	-0.119	0.052
-492.537	-200.000	-0.022	0.159
-491.522	-32.537	0.196	0.108
-490.508	-200.000	0.006	0.109
-489.493	-63.740	0.105	0.043
-488.478	-57.729	-0.054	0.024
-487.464	209.181	0.133	-0.206
-486.449	198.032	0.107	0.163
-485.435	91.714	0.189	0.211
-484.420	8.404	-0.148	0.110
-483.405	-101.917	0.206	0.049
-482.391	-127.422	-0.052	0.008
-481.376	243.973	0.017	-0.029
-480.362	532.391	-0.078	0.184
-479.347	-158.944	-0.287	0.016
-478.332	138.420	-0.104	-0.136
-477.318	800.000	-0.057	-0.164
-476.303	372.768	0.073	-0.147
-475.289	6.518	-0.095	0.070
-474.274	-200.000	0.056	0.259
-473.259	394.489	0.125	-0.259
-472.245	-166.553	-0.332	-0.014
-471.230	-188.633	-0.061	0.001
-470.216	-188.720	-0.491	-0.006
-469.201	-200.000	0.047	-0.369
-468.186	-43.063	-0.190	0.096
-467.172	149.947	0.095	-0.127
-466.157	-96.814	-0.169	-0.044
-465.143	190.329	-0.098	0.146
-464.128	-200.000	0.005	0.241
-463.113	800.000	-0.031	-0.096
-462.099	800.000	0.085	-0.354
-461.084	-138.975	0.284	0.031
-460.070	776.463	0.081	-0.218
-459.055	380.487	-0.075	0.152
-458.040	-151.315	0.177	-0.013
-457.026	-65.897	0.110	-0.044
-456.011	-200.000	0.041	-0.194
-454.997	-55.606	0.060	-0.027
-453.982	65.901	0.077	-0.078
-452.968	-8.459	0.254	-0.169
-451.953	800.000	0.062	0.176
-450.938	-200.000	0.039	0.317
-449.924	-148.246	0.139	0.011
-448.909	800.000	-0.077	-0.287
-447.895	-18.163	0.114	0.071
-446.880	15.678	0.336	-0.262
-445.865	-200.000	-0.011	-0.243
-444.851	17.841	-0.225	-0.177
-443.836	-127.322	0.227	0.033
-442.822	178.762	-0.010	-0.015
-441.807	598.278	-0.093	-0.228
-440.792	-59.711	0.052	-0.022
-439.778	55.755	-0.260	-0.250
-438.763	419.209	-0.129	-0.273
-437.749	9.348	0.163	0.122
-436.734	-200.000	0.078	0.363
-435.719	107.199	-0.081	-0.096
-434.705	291.535	-0.077	0.139
-433.690	-53.462	0.188	-0.085
-432.676	-52.733	-0.023	0.011
-431.661	-40.171	-0.214	-0.111
-430.646	465.195	0.114	-0.253
-429.632	-136.165	-0.189	0.022
-428.617	-22.035	-0.274	-0.165
-427.603	-99.130	0.537	0.135
-426.588	412.739	0.069	0.145
-425.573	32.113	0.107	0.091
-424.559	-2.317	-0.176	-0.122
-423.544	-13.881	0.351	-0.225
-422.530	-160.965	-0.280	-0.015
-421.515	232.177	-0.192	0.312
-420.500	-189.004	0.486	-0.006
-419.486	160.567	-0.176	-0.243
-418.471	-49.642	-0.135	-0.064
-417.457	-129.257	0.254	0.035
-416.442	-200.000	-0.033	0.237
-415.428	84.275	-0.071	-0.077
-414.413	156.486	0.144	0.196
-413.398	-102.539	-0.311	0.073
-412.384	-125.245	-0.147	-0.022
-411.369	64.477	-0.030	0.030
-410.355	450.644	0.135	-0.295
-409.340	-86.472	-0.208	0.063
-408.325	-200.000	0.001	0.062
-407.311	-182.714	0.238	0.004
-406.296	800.000	0.043	0.151
-405.282	-200.000	0.015	0.109
-404.267	-142.609	-0.462	-0.045
-403.252	-99.921	-0.350	0.087
-402.238	-126.507	0.185	0.027
-401.223	533.220	0.091	0.214
-400.209	-125.919	0.378	0.056
-399.194	-200.000	-0.062	0.308
-398.179	223.774	-0.071	0.113
-397.165	115.104	0.232	0.281
-396.150	113.202	-0.253	-0.303
-395.136	-200.000	0.009	-0.194
-394.121	330.589	-0.077	-0.147
-393.106	-2.469	-0.242	-0.167
-392.092	36.837	-0.179	0.156
-391.077	24.897	0.081	-0.066
-390.063	-200.000	0.003	0.112
-389.048	-4.719	-0.133	-0.091
-388.033	800.000	-0.060	0.168
-387.019	-131.711	-0.268	-0.035
-386.004	117.692	0.093	0.113
-384.990	74.132	-0.162	-0.168
-383.975	-186.729	-0.139	0.002
-382.960	-51.547	-0.165	-0.076
-381.946	151.021	0.181	-0.243
-380.931	-93.450	-0.199	-0.054
-379.917	401.280	-0.091	0.188
-378.902	-36.851	0.360	0.191
-377.888	24.022	-0.198	0.161
-376.873	105.386	0.114	0.133
-375.858	-200.000	-0.005	0.224
-374.844	-200.000	-0.026	-0.159
-373.829	162.853	-0.150	0.208
-372.815	26.893	-0.226	-0.187
-371.800	-138.330	0.088	-0.010
-370.785	-30.719	-0.181	0.101
-369.771	800.000	-0.061	-0.256
-368.756	-104.827	0.163	0.037
-367.742	-90.544	-0.036	-0.010
-366.727	-200.000	-0.042	-0.207
-365.712	-200.000	-0.009	0.115
-364.698	-91.037	0.068	-0.019
-363.683	-35.274	0.097	0.052
-362.669	188.828	0.090	-0.133
-361.654	2.837	0.210	0.151
-360.639	376.158	0.108	-0.217
-359.625	-100.355	-0.065	-0.016
-358.610	175.298	-0.189	-0.271
-357.596	11.444	0.164	0.124
-356.581	381.909	-0.082	-0.167
-355.566	33.587	-0.146	-0.126
-354.552	-74.900	-0.138	-0.049
-353.537	60.065	-0.237	-0.231
-352.523	-159.551	-0.051	0.003
-351.508	-200.000	-0.075	0.368
-350.493	-200.000	-0.013	-0.190
-349.479	-21.443	-0.156	0.094
-348.464	155.387	0.079	0.107
-347.450	800.000	-0.146	-0.435
-346.435	-170.136	0.262	0.009
-345.420	680.837	0.049	-0.126
-344.406	-200.000	0.026	0.356
-343.391	190.810	-0.092	0.137
-342.377	412.639	-0.162	-0.339
-341.362	102.281	-0.194	0.223
-340.348	402.220	-0.082	-0.170
-339.333	519.996	-0.124	0.287
-338.318	136.927	0.087	0.112
-337.304	-30.749	-0.160	-0.089
-336.289	29.151	-0.295	-0.247
-335.275	-195.637	0.395	0.003
-334.260	-200.000	-0.008	-0.070
-333.245	403.270	-0.025	0.051
-332.231	-143.232	0.074	-0.007
-331.216	43.414	-0.180	0.163
-330.202	800.000	0.065	0.272
-329.187	-75.758	-0.502	0.176
-328.172	114.726	-0.034	-0.041
-327.158	420.303	-0.204	0.430
-326.143	-200.000	-0.007	-0.068
-325.129	-167.101	-0.240	-0.010
-324.114	-103.568	-0.093	-0.022
-323.099	800.000	-0.066	0.268
-322.085	-200.000	-0.054	-0.299
-321.070	176.618	-0.033	-0.047
-320.056	-109.447	-0.025	0.005
-319.041	448.039	-0.117	-0.254
-318.026	6.074	0.232	0.169
-317.012	800.000	-0.012	-0.032
-315.997	-10.169	-0.076	0.049
-314.983	48.351	-0.269	-0.248
-313.968	94.304	-0.132	-0.148
-312.953	-200.000	-0.045	-0.214
-311.939	-200.000	-0.002	-0.151
-310.924	192.524	-0.062	0.092
-309.910	-108.969	-0.262	-0.055
-308.895	-52.282	0.374	-0.171
-307.880	-187.750	-0.284	0.004
-306.866	89.167	-0.130	-0.142
-305.851	-105.656	-0.209	0.047
-304.837	-200.000	-0.008	0.344
-303.822	800.000	0.013	0.055
-302.807	54.277	0.082	-0.077
-301.793	-6.690	0.164	0.110
-300.778	173.187	0.096	0.137
-299.764	-141.030	-0.510	0.052
-298.749	22.238	0.076	-0.061
-297.735	-24.990	0.303	0.177
-296.720	-54.772	-0.094	0.042
-295.705	546.585	-0.074	0.175
-294.691	72.684	-0.055	-0.056
-293.676	-58.157	0.233	0.100
-292.662	-200.000	-0.024	0.203
-291.647	-200.000	-0.006	0.098
-290.632	-127.901	0.160	0.023
-289.618	153.710	0.196	0.265
-288.603	-95.869	-0.330	-0.087
-287.589	220.719	-0.110	0.173
-286.574	-63.933	-0.296	0.119
-285.559	-43.152	-0.105	-0.052
-284.545	19.771	-0.178	-0.141
-283.530	10.732	-0.127	0.095
-282.516	-160.918	0.370	0.019
-281.501	-50.053	0.205	0.095
-280.486	-152.729	-0.272	0.019
-279.472	-1.228	-0.301	-0.210
-278.457	192.874	-0.134	-0.200
-277.443	74.235	0.115	0.118
-276.428	-200.000	-0.024	-0.130
-275.413	225.113	-0.148	-0.236
-274.399	44.050	0.403	-0.364
-273.384	34.345	0.159	-0.137
-272.370	-200.000	-0.003	0.214
-271.355	70.441	-0.283	-0.288
-270.340	26.308	0.104	-0.085
-269.326	-5.831	-0.193	-0.130
-268.311	108.562	0.259	-0.304
-267.297	800.000	0.108	-0.296
-266.282	-165.383	0.100	-0.004
-265.267	-115.555	-0.258	0.048
-264.253	69.960	0.067	0.068
-263.238	-200.000	0.019	-0.195
-262.224	-200.000	-0.010	-0.105
-261.209	133.974	-0.151	0.192
-260.195	21.636	-0.115	0.092
-259.180	-110.206	-0.336	-0.069
-258.165	435.859	0.045	-0.096
-257.151	-200.000	-0.002	0.247
-256.136	-72.123	-0.222	-0.081
-255.122	351.798	-0.257	-0.501
-254.107	14.978	0.178	0.137
-253.092	-200.000	0.058	0.257
-252.078	57.911	0.120	-0.115
-251.063	416.847	0.100	0.209
-250.049	34.542	-0.155	-0.134
-249.034	114.533	0.134	-0.161
-248.019	707.489	-0.050	-0.130
-247.005	-200.000	0.020	0.125
-245.990	800.000	-0.111	0.326
-244.976	526.352	-0.143	-0.331
-243.961	-200.000	-0.002	-0.084
-242.946	31.925	0.236	-0.200
-241.932	-200.000	-0.025	0.176
-240.917	-200.000	0.021	-0.174
-239.903	417.432	0.275	0.577
-238.888	-92.819	-0.225	0.062
-237.873	23.466	-0.163	0.132
-236.859	144.299	0.265	0.347
-235.844	-200.000	-0.031	0.306
-234.830	-8.103	0.137	-0.091
-233.815	42.834	-0.045	-0.040
-232.800	220.919	0.174	-0.275
-231.786	-22.003	-0.157	-0.094
-230.771	-5.981	0.259	0.174
-229.757	-57.760	0.260	-0.112
-228.742	-120.989	0.237	0.039
-227.727	144.846	0.082	-0.108
-226.713	-107.408	-0.090	-0.019
-225.698	-106.314	0.273	-0.060
-224.684	-34.270	0.235	0.127
-223.669	-52.367	-0.134	0.061
-222.655	-79.943	0.187	-0.062
-221.640	460.120	0.066	-0.145
-220.625	168.234	0.102	-0.143
-219.611	346.916	0.059	0.113
-218.596	13.894	-0.313	-0.239
-217.582	-11.376	0.277	0.179
-216.567	645.965	0.050	-0.125
-215.552	-200.000	0.076	0.353
-214.538	416.637	-0.115	-0.240
-213.523	42.305	-0.157	0.140
-212.509	-108.971	0.280	-0.059
-211.494	800.000	-0.118	0.405
-210.479	800.000	-0.096	0.318
-209.465	-200.000	-0.052	0.381
-208.450	500.176	0.093	0.210
-207.436	13.685	0.250	0.191
-206.421	-200.000	0.028	0.287
-205.406	-40.284	0.041	0.021
-204.392	219.608	0.035	0.055
-203.377	-3.878	-0.044	0.030
-202.363	-122.179	-0.233	0.037
-201.348	241.618	-0.157	-0.257
-200.333	-44.833	0.203	0.099
-199.319	-28.112	-0.192	0.109
-198.304	-107.622	0.384	-0.082
-197.290	252.296	-0.068	0.114
-196.275	-79.846	0.400	-0.132
-195.260	535.217	0.092	-0.214
-194.246	-200.000	0.005	-0.068
-193.231	-24.096	-0.288	0.169
-192.217	-127.597	0.138	-0.020
-191.202	185.978	0.021	0.031
-190.187	5.707	0.271	-0.197
-189.173	-70.843	-0.121	-0.045
-188.158	-129.895	-0.330	-0.044
-187.144	-14.361	0.288	-0.182
-186.129	800.000	0.047	0.197
-185.114	428.170	0.137	0.290
-184.100	82.466	0.228	0.243
-183.085	800.000	-0.049	0.146
-182.071	48.812	-0.238	-0.219
-181.056	800.000	-0.100	0.305
-180.042	517.953	0.038	0.087
-179.027	-183.536	0.140	-0.002
-178.012	636.293	0.077	-0.192
-176.998	349.703	0.034	-0.066
-175.983	314.217	0.155	0.285
-174.969	-200.000	-0.033	-0.263
-173.954	-13.079	-0.276	0.176
-172.939	-62.910	0.192	-0.078
-171.925	-200.000	0.015	-0.084
-170.910	-105.029	-0.209	-0.047
-169.896	-200.000	-0.003	0.141
-168.881	46.356	-0.063	0.057
-167.866	800.000	0.028	-0.096
-166.852	-80.885	0.231	-0.075
-165.837	-141.561	-0.283	0.028
-164.823	82.766	-0.012	0.013
-163.808	-200.000	-0.035	0.392
-162.793	-143.165	-0.112	0.011
-161.779	121.257	0.095	0.116
-160.764	800.000	-0.056	-0.157
-159.750	-24.896	-0.087	-0.050
-158.735	-2.098	0.347	0.239
-157.720	433.786	-0.055	0.117
-156.706	-200.000	0.019	-0.152
-155.691	-116.685	0.360	0.065
-154.677	-200.000	-0.043	-0.397
-153.662	55.297	-0.051	-0.048
-152.647	-127.223	-0.135	-0.019
-151.633	800.000	-0.040	0.162
-150.618	-8.447	-0.402	0.264
-149.604	-42.116	0.443	0.222
-148.589	57.093	-0.171	-0.163
-147.574	-87.233	0.238	0.071
-146.560	147.577	-0.182	0.240
-145.545	-155.926	-0.107	0.007
-144.531	-26.912	-0.341	0.195
-143.516	56.434	-0.065	-0.062
-142.502	-84.109	0.311	-0.097
-141.487	-200.000	0.081	0.454
-140.472	-156.836	0.259	-0.016
-139.458	-19.906	-0.226	0.137
-138.443	-200.000	0.044	0.290
-137.429	-66.011	-0.166	-0.065
-136.414	800.000	-0.192	0.576
-135.399	-122.234	0.325	0.052
-134.385	107.369	-0.142	0.166
-133.370	2.275	0.377	-0.267
-132.356	-200.000	-0.002	0.058
-131.341	800.000	-0.146	0.474
-130.326	-158.013	0.188	-0.011
-129.312	745.310	-0.086	0.226
-128.297	-200.000	0.005	0.069
-127.283	-134.883	-0.059	0.007
-126.268	-200.000	0.019	0.184
-125.253	-200.000	0.025	-0.244
-124.239	315.387	0.275	0.508
-123.224	148.226	0.249	-0.328
-122.210	34.970	-0.279	0.239
-121.195	-126.372	0.387	0.056
