DTS Sentinel unit serial number:	SN413079Multiplexer serial number:	ORYXHardware model number:	OX4-SRSoftware version number:	ORYX F/W v4.00 Oryx Data Collector v3.7.2.0data status	okinstallation	princeton_trtdifferential loss correction	single-endedforward channel	channel 1reverse channel	N/Adate	2019/09/17time	00:10:35forward acquisition time	60.00reverse acquisition time	0.00gamma	496.2192k internal	0.2325k external	0.2325temperature offset calibration	0.9955default loss term (dB/km)	0.3790temperature slope calibration	1.0000multiplexer offset coefficient	1.0000multiplexer slope coefficient	1.0000fibre end	0.00T internal ref (°C)	29.56T ext. ref 1 (°C)	0.11T ext. ref 2 (°C)	23.78length (m)	temperature (°C)	Stokes	anti-Stokes-747.200	286.643	0.148	0.269
-746.185	103.495	-0.276	0.327
-745.171	26.961	0.321	-0.272
-744.156	-186.665	-0.133	-0.002
-743.142	800.000	-0.029	0.103
-742.127	-78.330	-0.415	0.144
-741.112	71.569	-0.114	-0.120
-740.098	122.200	-0.215	0.271
-739.083	-33.663	0.466	0.259
-738.069	45.078	-0.254	0.236
-737.054	44.344	-0.220	0.204
-736.039	800.000	0.098	-0.408
-735.025	-200.000	0.016	0.344
-734.010	800.000	0.079	0.251
-732.996	98.832	-0.162	0.189
-731.981	228.356	0.094	0.155
-730.966	-63.088	-0.060	0.025
-729.952	-200.000	0.028	0.242
-728.937	-70.843	-0.360	0.137
-727.923	501.059	0.084	0.196
-726.908	119.275	0.224	-0.280
-725.894	150.151	-0.260	-0.356
-724.879	294.690	-0.060	0.111
-723.864	-104.590	-0.136	-0.032
-722.850	-99.414	-0.242	-0.061
-721.835	800.000	-0.079	0.275
-720.821	-200.000	0.023	-0.146
-719.806	800.000	0.125	-0.394
-718.791	-89.259	-0.088	-0.026
-717.777	-200.000	-0.028	-0.497
-716.762	86.394	-0.278	0.308
-715.748	800.000	0.089	-0.266
-714.733	-150.045	-0.172	-0.013
-713.718	-40.999	-0.152	0.079
-712.704	-101.187	0.123	-0.030
-711.689	-112.515	-0.134	-0.027
-710.675	251.490	0.143	0.245
-709.660	117.026	-0.175	0.217
-708.645	-158.550	-0.251	0.015
-707.631	110.434	-0.139	-0.169
-706.616	91.328	0.102	-0.116
-705.602	800.000	0.025	0.079
-704.587	-98.098	-0.191	-0.050
-703.572	-73.260	-0.173	0.064
-702.558	281.059	-0.096	0.173
-701.543	506.557	0.015	-0.035
-700.529	-69.857	-0.331	-0.127
-699.514	-64.410	0.216	0.088
-698.499	-200.000	-0.008	0.372
-697.485	-200.000	-0.003	-0.240
-696.470	41.975	0.051	0.047
-695.456	800.000	-0.062	0.240
-694.441	111.310	0.187	-0.227
-693.426	-200.000	-0.037	-0.322
-692.412	-10.262	-0.177	0.118
-691.397	-145.224	-0.450	0.041
-690.383	-200.000	-0.018	-0.161
-689.368	759.726	-0.080	-0.217
-688.354	-99.585	-0.432	-0.109
-687.339	800.000	0.062	-0.188
-686.324	-200.000	-0.005	-0.145
-685.310	467.608	0.100	0.226
-684.295	800.000	-0.099	-0.318
-683.281	241.830	-0.134	0.226
-682.266	-158.714	0.254	-0.015
-681.251	-200.000	0.023	-0.103
-680.237	-200.000	-0.024	-0.159
-679.222	21.698	-0.154	0.126
-678.208	-12.263	0.249	-0.164
-677.193	40.571	-0.173	-0.157
-676.178	-120.069	-0.109	0.019
-675.164	-200.000	0.003	-0.191
-674.149	98.611	0.083	-0.096
-673.135	-74.225	0.046	0.017
-672.120	-73.027	-0.080	-0.029
-671.105	176.331	-0.081	-0.118
-670.091	-200.000	-0.070	0.319
-669.076	-150.104	-0.207	-0.016
-668.062	-148.858	-0.141	0.011
-667.047	-96.757	0.040	-0.011
-666.032	-58.827	-0.243	0.106
-665.018	-78.136	0.255	0.088
-664.003	-82.253	0.421	-0.138
-662.989	-200.000	0.050	-0.285
-661.974	-18.263	-0.045	0.029
-660.959	800.000	0.053	0.149
-659.945	-200.000	0.004	-0.227
-658.930	164.364	-0.128	0.182
-657.916	25.766	0.151	-0.126
-656.901	33.617	-0.232	-0.203
-655.886	-200.000	0.113	-0.001
-654.872	507.625	-0.079	0.185
-653.857	-54.377	-0.300	0.137
-652.843	254.546	0.031	-0.053
-651.828	-106.268	-0.185	0.042
-650.814	-22.367	0.086	-0.052
-649.799	-132.342	0.171	0.022
-648.784	800.000	0.092	0.277
-647.770	11.863	0.230	-0.177
-646.755	729.715	-0.101	-0.271
-645.741	-200.000	0.013	0.185
-644.726	-97.616	0.412	-0.107
-643.711	86.348	-0.323	-0.357
-642.697	674.291	-0.045	-0.117
-641.682	-2.779	0.261	0.183
-640.668	-112.840	-0.189	0.038
-639.653	-69.536	0.055	-0.021
-638.638	190.619	-0.080	-0.121
-637.624	71.920	-0.159	0.167
-636.609	-135.734	0.265	-0.032
-635.595	-50.591	-0.323	0.153
-634.580	11.044	-0.228	-0.175
-633.565	-120.666	-0.152	0.026
-632.551	-200.000	0.044	-0.200
-631.536	-126.149	0.076	-0.011
-630.522	800.000	-0.093	0.341
-629.507	-200.000	0.045	-0.222
-628.492	93.210	0.145	-0.164
-627.478	-69.897	0.150	0.057
-626.463	34.087	0.226	0.198
-625.449	6.353	0.084	-0.062
-624.434	-52.421	-0.112	-0.052
-623.419	-200.000	0.034	0.192
-622.405	352.110	-0.157	-0.313
-621.390	689.404	-0.107	-0.281
-620.376	56.983	-0.046	0.045
-619.361	214.371	0.051	-0.081
-618.346	-171.830	0.399	0.013
-617.332	-67.905	-0.208	-0.082
-616.317	800.000	0.108	-0.382
-615.303	73.822	-0.160	0.168
-614.288	41.241	-0.243	0.221
-613.273	-200.000	0.036	0.168
-612.259	-94.662	-0.228	-0.062
-611.244	-182.873	0.178	-0.003
-610.230	-200.000	-0.005	0.097
-609.215	-82.332	-0.021	-0.007
-608.201	124.889	-0.144	0.182
-607.186	-118.067	-0.251	0.045
-606.171	192.049	-0.090	0.136
-605.157	-69.204	-0.239	-0.092
-604.142	291.820	0.165	0.301
-603.128	282.235	0.022	-0.040
-602.113	-79.062	0.296	-0.101
-601.098	12.798	-0.122	0.094
-600.084	-200.000	-0.027	-0.187
-599.069	-200.000	-0.020	-0.122
-598.055	800.000	-0.077	-0.249
-597.040	-44.892	-0.111	0.055
-596.025	-112.689	-0.217	0.043
-595.011	-123.516	-0.320	0.051
-593.996	230.446	-0.172	0.283
-592.982	159.971	0.180	-0.252
-591.967	-200.000	0.007	0.122
-590.952	-43.825	-0.165	0.083
-589.938	-73.577	-0.396	0.145
-588.923	54.909	0.317	0.307
-587.909	677.142	0.085	0.222
-586.894	280.540	-0.129	-0.230
-585.879	347.061	0.113	-0.223
-584.865	-10.566	0.261	-0.173
-583.850	40.787	-0.079	-0.072
-582.836	-63.228	-0.115	0.047
-581.821	-58.535	-0.222	-0.097
-580.806	-84.108	0.080	-0.025
-579.792	-78.947	-0.053	-0.018
-578.777	85.914	-0.390	0.430
-577.763	1.695	0.110	0.079
-576.748	-200.000	-0.013	0.194
-575.733	-200.000	-0.042	0.214
-574.719	229.360	0.071	0.116
-573.704	800.000	-0.130	0.382
-572.690	163.685	0.061	-0.085
-571.675	-125.684	-0.215	-0.033
-570.661	-200.000	-0.009	-0.207
-569.646	-40.027	0.172	0.090
-568.631	79.937	-0.196	-0.211
-567.617	-149.109	0.416	0.033
-566.602	-66.272	-0.192	-0.077
-565.588	148.840	-0.090	0.122
-564.573	5.274	-0.039	0.029
-563.558	-4.504	0.075	-0.052
-562.544	-166.239	0.262	-0.011
-561.529	-200.000	0.033	0.186
-560.515	158.267	-0.121	-0.168
-559.500	213.662	0.166	0.263
-558.485	55.634	0.144	0.140
-557.471	-91.193	-0.409	0.117
-556.456	-67.630	0.075	-0.029
-555.442	-200.000	-0.036	-0.174
-554.427	-100.868	0.257	0.063
-553.412	17.008	0.229	0.181
-552.398	704.353	-0.081	0.213
-551.383	-200.000	-0.036	0.438
-550.369	-20.049	0.069	0.043
-549.354	223.127	0.135	-0.218
-548.339	-113.929	-0.157	-0.031
-547.325	-165.431	-0.136	0.006
-546.310	-73.395	0.146	0.053
-545.296	107.882	0.120	0.143
-544.281	3.258	-0.182	-0.132
-543.266	-200.000	-0.037	-0.197
-542.252	-103.604	-0.317	-0.074
-541.237	-101.123	-0.029	0.007
-540.223	-108.458	0.105	-0.023
-539.208	190.204	-0.103	0.155
-538.193	245.071	-0.077	0.130
-537.179	-200.000	-0.001	-0.058
-536.164	800.000	-0.113	-0.380
-535.150	800.000	0.040	-0.146
-534.135	266.963	-0.033	0.058
-533.121	102.904	-0.028	-0.033
-532.106	172.715	0.163	0.234
-531.091	-170.514	0.210	0.007
-530.077	-200.000	0.010	0.101
-529.062	-173.227	-0.120	-0.004
-528.048	87.021	0.119	-0.131
-527.033	-77.178	0.129	0.045
-526.018	-63.803	0.266	0.109
-525.004	-200.000	-0.008	0.284
-523.989	178.663	-0.090	0.132
-522.975	-79.754	-0.062	-0.021
-521.960	-101.642	-0.341	-0.083
-520.945	-67.752	-0.223	0.087
-519.931	-97.375	0.179	0.047
-518.916	800.000	0.048	-0.154
-517.902	92.762	-0.040	-0.045
-516.887	-60.070	-0.107	0.046
-515.872	-66.624	0.352	-0.139
-514.858	-66.591	-0.307	0.122
-513.843	-120.985	0.181	0.030
-512.829	-117.493	0.111	0.020
-511.814	800.000	0.072	-0.293
-510.799	-91.819	0.174	-0.049
-509.785	155.341	-0.061	-0.084
-508.770	42.501	-0.110	-0.100
-507.756	800.000	-0.103	0.377
-506.741	145.047	-0.163	0.218
-505.726	92.633	-0.180	0.203
-504.712	-200.000	-0.005	-0.101
-503.697	198.321	-0.106	0.162
-502.683	327.299	0.147	-0.282
-501.668	77.213	-0.115	0.122
-500.653	-136.883	-0.461	-0.053
-499.639	800.000	0.119	-0.416
-498.624	127.684	0.036	-0.045
-497.610	-178.586	0.331	0.008
-496.595	-140.796	-0.105	0.011
-495.581	-104.979	-0.077	0.018
-494.566	381.201	-0.030	-0.061
-493.551	800.000	-0.049	-0.140
-492.537	800.000	0.151	-0.474
-491.522	-15.553	0.132	0.084
-490.508	-120.076	-0.059	0.010
-489.493	-200.000	-0.034	-0.347
-488.478	-200.000	0.006	-0.067
-487.464	-200.000	0.002	0.067
-486.449	-200.000	0.006	-0.055
-485.435	34.668	0.062	0.054
-484.420	35.879	-0.045	0.039
-483.405	800.000	-0.066	0.240
-482.391	-97.729	-0.174	0.045
-481.376	-39.296	-0.137	0.072
-480.362	106.585	-0.040	-0.048
-479.347	207.914	0.114	-0.178
-478.332	-200.000	0.094	-0.442
-477.318	121.644	-0.127	-0.158
-476.303	12.149	-0.076	-0.058
-475.289	135.294	-0.050	0.064
-474.274	-87.688	0.278	0.084
-473.259	438.656	-0.128	0.278
-472.245	-46.555	-0.088	-0.043
-471.230	7.611	0.312	0.233
-470.216	-200.000	0.030	-0.181
-469.201	142.407	0.065	0.086
-468.186	800.000	-0.064	-0.199
-467.172	-145.499	-0.290	0.026
-466.157	197.245	0.113	-0.172
-465.143	351.290	-0.145	-0.287
-464.128	37.032	0.006	-0.005
-463.113	800.000	0.022	-0.067
-462.099	-200.000	-0.011	0.276
-461.084	-200.000	-0.220	-0.000
-460.070	-10.120	0.208	-0.138
-459.055	19.492	0.128	-0.103
-458.040	800.000	-0.117	-0.341
-457.026	-200.000	-0.042	-0.345
-456.011	-62.957	0.182	-0.075
-454.997	800.000	-0.030	-0.083
-453.982	70.680	-0.105	-0.109
-452.968	-77.084	-0.167	0.058
-451.953	-71.896	-0.219	-0.081
-450.938	-74.191	-0.096	0.034
-449.924	701.585	-0.073	0.191
-448.909	-35.383	-0.190	0.103
-447.895	256.584	-0.117	0.200
-446.880	-200.000	-0.008	-0.102
-445.865	216.048	-0.065	-0.103
-444.851	-77.068	-0.328	-0.114
-443.836	224.946	-0.112	0.181
-442.822	209.801	0.041	0.064
-441.807	-200.000	0.007	-0.351
-440.792	-105.294	-0.523	0.119
-439.778	256.481	-0.063	-0.107
-438.763	-39.210	0.382	0.200
-437.749	800.000	0.051	-0.164
-436.734	-200.000	0.009	0.076
-435.719	-155.175	-0.111	-0.007
-434.705	10.032	-0.128	-0.097
-433.690	800.000	-0.037	-0.152
-432.676	491.152	-0.030	-0.067
-431.661	180.902	0.112	0.164
-430.646	479.497	-0.047	0.106
-429.632	-55.814	-0.093	-0.041
-428.617	54.203	-0.167	-0.161
-427.603	183.500	-0.162	0.239
-426.588	-87.388	0.059	0.018
-425.573	-106.494	-0.167	-0.037
-424.559	-141.216	-0.103	0.010
-423.544	-83.040	0.112	-0.036
-422.530	83.703	0.151	0.164
-421.515	-60.976	0.202	-0.085
-420.500	-200.000	-0.006	-0.429
-419.486	-65.108	-0.195	0.079
-418.471	-71.379	0.209	-0.078
-417.457	-200.000	-0.014	-0.084
-416.442	-52.167	-0.229	0.106
-415.428	-30.275	0.360	0.204
-414.413	96.574	0.103	-0.117
-413.398	11.584	0.073	0.056
-412.384	13.299	0.075	-0.058
-411.369	48.797	-0.166	0.155
-410.355	548.193	0.142	-0.340
-409.340	63.289	-0.188	-0.188
-408.325	355.814	-0.110	-0.217
-407.311	124.721	0.153	0.191
-406.296	157.313	0.205	-0.283
-405.282	-79.592	0.293	-0.099
-404.267	-65.929	-0.318	-0.127
-403.252	-24.068	0.014	0.008
-402.238	-200.000	0.028	-0.311
-401.223	104.993	-0.154	-0.181
-400.209	-3.744	0.085	-0.059
-399.194	800.000	0.051	0.171
-398.179	-200.000	0.025	0.163
-397.165	800.000	-0.089	0.278
-396.150	-200.000	-0.005	-0.143
-395.136	-200.000	0.012	-0.143
-394.121	37.679	-0.192	0.170
-393.106	-78.059	-0.097	-0.033
-392.092	740.400	-0.063	0.170
-391.077	-178.522	-0.221	0.005
-390.063	37.184	-0.024	0.021
-389.048	-166.541	0.266	0.011
-388.033	-48.230	-0.177	-0.085
-387.019	-200.000	-0.045	-0.222
-386.004	30.216	0.113	-0.096
-384.990	75.575	0.063	-0.066
-383.975	78.684	0.240	-0.256
-382.960	-32.690	0.078	-0.043
-381.946	800.000	0.018	-0.064
-380.931	404.065	-0.126	-0.263
-379.917	121.007	-0.089	0.110
-378.902	-30.811	-0.120	-0.067
-377.888	272.314	0.187	-0.329
-376.873	184.324	-0.159	-0.235
-375.858	283.432	0.069	-0.123
-374.844	-156.811	-0.288	-0.018
-373.829	-60.435	-0.201	-0.085
-372.815	-90.087	0.223	0.065
-371.800	-147.475	-0.239	0.020
-370.785	-60.792	0.106	-0.045
-369.771	81.367	0.094	-0.101
-368.756	800.000	-0.065	-0.264
-367.742	123.963	0.154	-0.193
-366.727	800.000	-0.084	-0.248
-365.712	45.510	0.251	0.231
-364.698	800.000	0.039	-0.117
-363.683	210.713	-0.231	-0.360
-362.669	-116.370	0.435	-0.080
-361.654	42.608	-0.256	-0.231
-360.639	-64.479	0.151	0.061
-359.625	131.030	-0.071	0.090
-358.610	792.076	-0.092	-0.252
-357.596	-115.843	0.363	-0.067
-356.581	-36.500	0.281	-0.150
-355.566	-200.000	-0.005	0.085
-354.552	800.000	-0.027	-0.093
-353.537	-200.000	0.011	-0.120
-352.523	-56.290	0.235	-0.104
-351.508	-200.000	0.001	0.229
-350.493	33.377	-0.254	0.219
-349.479	15.156	-0.399	-0.311
-348.464	12.069	0.162	0.124
-347.450	-200.000	-0.069	0.351
-346.435	28.557	0.333	-0.280
-345.420	37.431	0.107	0.094
-344.406	-5.200	-0.341	0.233
-343.391	-133.706	-0.230	0.029
-342.377	-62.830	-0.344	0.141
-341.362	-89.786	-0.200	0.058
-340.348	30.955	-0.281	0.239
-339.333	5.297	0.204	0.149
-338.318	418.490	0.083	-0.177
-337.304	-73.188	-0.346	-0.126
-336.289	115.641	-0.321	-0.389
-335.275	-200.000	0.023	0.325
-334.260	365.443	-0.079	-0.158
-333.245	271.377	0.071	0.124
-332.231	202.952	-0.250	0.383
-331.216	97.545	-0.126	-0.144
-330.202	-35.532	-0.335	0.180
-329.187	-136.079	0.131	-0.015
-328.172	-37.452	-0.260	-0.138
-327.158	-138.733	-0.105	-0.011
-326.143	209.055	0.284	0.442
-325.129	-2.256	-0.321	0.224
-324.114	-142.754	-0.221	0.021
-323.099	-200.000	-0.076	0.338
-322.085	111.321	0.117	-0.140
-321.070	-7.021	0.163	0.110
-320.056	-7.525	0.174	-0.117
-319.041	225.198	0.180	0.289
-318.026	-176.866	0.507	-0.013
-317.012	800.000	-0.055	0.230
-315.997	0.605	0.143	0.102
-314.983	-174.084	0.370	0.011
-313.968	121.175	-0.189	-0.234
-312.953	-16.976	-0.342	0.215
-311.939	-94.775	0.197	0.053
-310.924	-200.000	0.006	-0.066
-309.910	-200.000	0.037	0.342
-308.895	-200.000	0.034	-0.189
-307.880	-111.487	0.151	-0.031
-306.866	75.102	-0.058	-0.061
-305.851	-18.613	-0.128	-0.079
-304.837	651.901	0.095	-0.242
-303.822	-200.000	-0.041	-0.183
-302.807	-163.329	-0.412	-0.020
-301.793	206.799	0.064	0.098
-300.778	-200.000	0.031	0.193
-299.764	-14.802	0.103	0.065
-298.749	-180.039	-0.207	0.004
-297.735	-114.888	0.187	0.035
-296.720	-65.887	-0.107	0.042
-295.705	-149.967	-0.229	0.018
-294.691	-149.837	0.475	-0.037
-293.676	-55.672	0.189	-0.084
-292.662	111.677	0.195	-0.233
-291.647	-200.000	0.021	-0.218
-290.632	800.000	-0.066	-0.215
-289.618	-96.690	0.135	0.035
-288.603	601.432	-0.064	0.158
-287.589	167.156	-0.199	0.280
-286.574	144.265	-0.169	0.224
-285.559	800.000	-0.065	-0.255
-284.545	-68.574	-0.168	0.065
-283.530	116.778	0.122	0.149
-282.516	43.527	0.153	0.139
-281.501	70.048	-0.095	0.097
-280.486	-7.627	0.311	-0.209
-279.472	81.171	0.085	0.091
-278.457	-200.000	0.006	0.140
-277.443	220.107	-0.141	-0.224
-276.428	-200.000	0.054	0.292
-275.413	-21.536	0.271	-0.164
-274.399	-200.000	0.029	-0.331
-273.384	218.700	-0.070	0.111
-272.370	143.451	0.126	0.166
-271.355	-33.079	-0.293	0.161
-270.340	-200.000	0.015	0.178
-269.326	279.028	0.156	-0.275
-268.311	800.000	0.022	0.074
-267.297	-45.221	-0.188	-0.092
-266.282	-200.000	-0.040	0.212
-265.267	-139.992	0.081	-0.008
-264.253	112.868	0.053	0.063
-263.238	-21.527	-0.104	-0.063
-262.224	-4.624	-0.010	0.007
-261.209	-37.274	0.262	0.139
-260.195	-34.975	-0.129	-0.069
-259.180	242.307	-0.180	-0.298
-258.165	800.000	0.120	-0.425
-257.151	-200.000	-0.023	0.348
-256.136	-200.000	0.012	-0.059
-255.122	172.709	0.103	0.147
-254.107	-14.392	0.232	0.148
-253.092	-180.864	-0.387	0.008
-252.078	236.373	0.184	0.301
-251.063	-200.000	-0.004	0.067
-250.049	800.000	-0.074	0.229
-249.034	800.000	-0.023	0.082
-248.019	3.843	0.200	0.145
-247.005	197.372	-0.101	-0.153
-245.990	1.378	0.182	-0.130
-244.976	-200.000	0.002	0.036
-243.961	38.825	-0.076	0.067
-242.946	-117.156	0.415	0.075
-241.932	-200.000	-0.015	0.084
-240.917	-5.397	-0.078	0.053
-239.903	-3.712	0.275	0.189
-238.888	274.902	-0.087	0.152
-237.873	800.000	-0.038	0.143
-236.859	17.424	-0.170	0.134
-235.844	114.351	0.304	0.366
-234.830	800.000	-0.011	0.033
-233.815	-21.681	-0.196	-0.118
-232.800	-22.656	-0.213	0.127
-231.786	60.058	0.065	0.063
-230.771	-92.108	0.133	0.037
-229.757	186.206	0.200	0.294
-228.742	-135.872	-0.224	0.026
-227.727	-74.671	-0.242	-0.086
-226.713	611.247	0.010	-0.024
-225.698	309.662	0.213	-0.394
-224.684	20.553	-0.106	0.085
-223.669	-200.000	-0.030	-0.165
-222.655	141.782	0.194	0.254
-221.640	23.506	-0.015	0.012
-220.625	3.587	-0.192	-0.138
-219.611	-51.522	0.313	-0.144
-218.596	-51.818	0.329	0.152
-217.582	216.704	0.154	0.243
-216.567	433.744	-0.045	-0.096
-215.552	-73.890	0.336	0.121
-214.538	38.098	-0.187	-0.164
-213.523	84.820	0.164	-0.178
-212.509	336.107	-0.070	-0.134
-211.494	168.639	-0.198	0.279
-210.479	132.294	0.108	0.138
-209.465	224.593	0.105	-0.168
-208.450	334.756	-0.009	0.018
-207.436	119.378	0.231	-0.282
-206.421	-200.000	0.038	0.336
-205.406	81.660	0.048	-0.052
-204.392	67.975	0.042	0.043
-203.377	-153.779	0.212	-0.014
-202.363	800.000	0.087	-0.309
-201.348	-46.481	0.068	-0.033
-200.333	335.771	0.102	-0.195
-199.319	-58.971	-0.444	0.190
-198.304	-178.744	0.429	0.010
-197.290	-105.841	0.172	-0.038
-196.275	363.578	0.215	-0.427
-195.260	-126.938	0.184	0.027
-194.246	29.867	0.223	0.187
-193.231	799.134	0.096	0.262
-192.217	-99.935	-0.151	-0.037
-191.202	-76.090	0.105	-0.037
-190.187	100.898	0.055	-0.063
-189.173	-64.231	-0.288	-0.116
-188.158	-129.310	-0.102	-0.014
-187.144	-200.000	0.017	-0.087
-186.129	239.812	-0.079	0.130
-185.114	-200.000	-0.019	0.281
-184.100	-200.000	-0.053	0.334
-183.085	20.772	-0.110	-0.088
-182.071	-114.173	0.406	0.078
-181.056	-3.472	0.107	-0.073
-180.042	506.751	0.069	0.157
-179.027	88.017	-0.241	-0.264
-178.012	140.874	0.087	0.114
-176.998	-200.000	0.041	0.207
-175.983	-200.000	0.090	0.426
-174.969	-43.141	-0.136	0.068
-173.954	37.665	0.048	0.042
-172.939	291.091	-0.096	0.173
-171.925	-68.020	0.201	0.078
-170.910	21.120	0.021	-0.016
-169.896	182.236	0.113	-0.164
-168.881	0.352	0.288	-0.203
-167.866	77.351	0.036	0.038
-166.852	308.402	0.128	0.236
-165.837	-200.000	-0.048	0.330
-164.823	42.210	-0.018	0.016
-163.808	-67.245	-0.095	-0.037
-162.793	38.916	0.160	0.141
-161.779	-169.456	0.211	0.008
-160.764	-200.000	0.008	-0.079
-159.750	-97.511	0.338	0.087
-158.735	148.891	0.127	-0.169
-157.720	-128.082	0.059	0.008
-156.706	-200.000	0.030	-0.257
-155.691	-130.805	0.256	0.034
-154.677	-44.766	0.087	0.043
-153.662	590.698	-0.158	0.385
-152.647	-5.307	0.099	-0.067
-151.633	-200.000	-0.009	-0.322
-150.618	-140.278	-0.186	0.019
-149.604	-53.059	0.245	-0.111
-148.589	-200.000	-0.013	0.073
-147.574	800.000	0.046	0.182
-146.560	-57.826	0.281	-0.121
-145.545	188.793	-0.137	-0.202
-144.531	800.000	0.077	0.290
-143.516	800.000	-0.158	0.522
-142.502	301.798	-0.249	0.454
-141.487	73.678	0.109	0.113
-140.472	-200.000	-0.028	0.235
-139.458	-5.535	0.110	-0.074
-138.443	18.726	-0.229	0.181
-137.429	-103.110	-0.148	-0.035
-136.414	3.100	0.351	0.252
-135.399	-85.372	0.336	-0.103
-134.385	22.704	-0.214	-0.173
-133.370	-66.456	-0.550	-0.215
-132.356	43.021	-0.138	0.124
-131.341	-200.000	0.005	0.114
-130.326	97.960	-0.137	0.156
-129.312	-95.081	-0.323	0.086
-128.297	-52.752	0.162	-0.074
-127.283	151.772	0.081	0.109
-126.268	-31.289	0.128	-0.071
-125.253	25.412	-0.043	-0.036
-124.239	-45.320	0.135	0.066
-123.224	228.750	-0.049	0.078
-122.210	-73.487	0.153	-0.055
-121.195	-200.000	-0.004	0.070
