DTS Sentinel unit serial number:	SN413079Multiplexer serial number:	ORYXHardware model number:	OX4-SRSoftware version number:	ORYX F/W v4.00 Oryx Data Collector v3.7.2.0data status	okinstallation	princeton_trtdifferential loss correction	single-endedforward channel	channel 1reverse channel	N/Adate	2019/09/13time	07:50:35forward acquisition time	60.00reverse acquisition time	0.00gamma	496.2192k internal	0.2333k external	0.2333temperature offset calibration	1.0158default loss term (dB/km)	0.3790temperature slope calibration	1.0000multiplexer offset coefficient	1.0000multiplexer slope coefficient	1.0000fibre end	0.00T internal ref (°C)	26.59T ext. ref 1 (°C)	4.22T ext. ref 2 (°C)	23.11length (m)	temperature (°C)	Stokes	anti-Stokes-747.200	-200.000	0.018	-0.207
-746.185	-100.114	0.197	-0.049
-745.171	-200.000	0.000	0.004
-744.156	-68.848	-0.274	0.107
-743.142	-48.160	0.290	0.141
-742.127	-200.000	0.018	0.307
-741.112	21.496	0.054	-0.044
-740.098	800.000	-0.114	0.361
-739.083	-30.266	-0.267	0.152
-738.069	-200.000	-0.021	0.196
-737.054	-11.622	-0.133	0.088
-736.039	580.260	-0.112	0.275
-735.025	-38.566	0.404	0.214
-734.010	-102.908	-0.202	0.048
-732.996	800.000	0.014	-0.051
-731.981	-200.000	-0.062	0.278
-730.966	-67.373	0.059	0.023
-729.952	-69.453	-0.084	0.033
-728.937	48.919	-0.144	0.135
-727.923	28.190	-0.142	-0.120
-726.908	529.029	0.116	-0.275
-725.894	-184.026	0.167	-0.003
-724.879	-19.806	-0.463	-0.288
-723.864	800.000	0.006	0.023
-722.850	-58.367	-0.237	0.104
-721.835	-73.415	0.415	-0.152
-720.821	-12.813	0.131	0.086
-719.806	317.758	-0.113	-0.215
-718.791	4.711	-0.102	0.076
-717.777	-11.659	-0.204	0.134
-716.762	-200.000	0.007	-0.405
-715.748	50.820	0.096	-0.091
-714.733	493.042	-0.056	-0.130
-713.718	800.000	-0.017	0.052
-712.704	283.689	-0.076	-0.138
-711.689	250.826	-0.048	-0.082
-710.675	800.000	-0.015	0.049
-709.660	27.170	0.171	0.145
-708.645	255.164	0.181	-0.312
-707.631	-126.918	-0.241	-0.036
-706.616	-200.000	0.020	0.100
-705.602	-128.754	0.102	0.014
-704.587	800.000	0.053	0.207
-703.572	-62.485	-0.356	0.148
-702.558	-12.229	0.297	-0.195
-701.543	-129.047	0.306	0.043
-700.529	37.402	-0.232	0.206
-699.514	800.000	-0.064	-0.191
-698.499	74.312	-0.090	0.095
-697.485	-90.059	0.094	0.028
-696.470	-121.155	-0.348	0.058
-695.456	800.000	0.036	0.118
-694.441	49.942	-0.050	0.047
-693.426	340.194	-0.034	-0.067
-692.412	-33.604	0.196	0.108
-691.397	-137.488	-0.253	-0.029
-690.383	378.971	-0.082	-0.167
-689.368	103.120	-0.152	0.179
-688.354	-178.795	0.157	0.004
-687.339	-96.993	-0.112	-0.029
-686.324	448.822	0.159	0.351
-685.310	-200.000	0.008	-0.596
-684.295	-59.507	-0.278	-0.120
-683.281	65.204	-0.117	-0.119
-682.266	294.550	-0.087	0.160
-681.251	800.000	-0.042	0.134
-680.237	-0.996	0.165	-0.117
-679.222	187.778	0.157	-0.235
-678.208	775.938	-0.056	0.152
-677.193	38.666	0.320	-0.286
-676.178	-200.000	-0.095	-0.498
-675.164	-185.595	-0.490	0.007
-674.149	-88.478	-0.191	-0.057
-673.135	591.541	0.084	0.208
-672.120	800.000	0.027	-0.088
-671.105	-94.503	-0.470	0.128
-670.091	800.000	0.054	0.150
-669.076	-30.567	-0.119	-0.068
-668.062	800.000	-0.030	-0.087
-667.047	800.000	-0.086	0.321
-666.032	-20.286	-0.267	0.165
-665.018	25.635	-0.176	0.146
-664.003	-63.469	-0.188	0.077
-662.989	800.000	0.043	-0.186
-661.974	800.000	0.048	-0.146
-660.959	-45.903	-0.347	-0.172
-659.945	-64.701	0.254	-0.103
-658.930	338.891	-0.113	-0.221
-657.916	231.116	0.183	-0.301
-656.901	-19.179	-0.068	-0.042
-655.886	143.649	-0.161	0.215
-654.872	6.836	0.243	0.181
-653.857	477.700	-0.083	0.189
-652.843	-58.401	0.415	0.181
-651.828	-37.921	0.413	-0.220
-650.814	-200.000	0.056	-0.260
-649.799	-38.706	0.064	-0.034
-648.784	204.411	-0.142	-0.221
-647.770	-200.000	-0.037	-0.205
-646.755	-43.333	-0.360	-0.183
-645.741	-42.377	-0.111	-0.057
-644.726	111.248	0.083	-0.100
-643.711	331.176	0.056	-0.108
-642.697	13.681	-0.113	-0.088
-641.682	53.455	0.271	-0.260
-640.668	-165.885	0.305	0.013
-639.653	-81.984	-0.357	-0.117
-638.638	-48.377	0.360	0.174
-637.624	274.704	0.077	0.136
-636.609	-142.593	-0.071	0.007
-635.595	-63.415	0.237	-0.098
-634.580	-73.425	0.093	0.034
-633.565	800.000	0.074	0.303
-632.551	224.601	-0.047	-0.075
-631.536	-180.104	-0.300	-0.006
-630.522	159.514	-0.240	-0.335
-629.507	275.760	-0.060	-0.106
-628.492	-166.930	0.116	0.005
-627.478	-200.000	0.238	-0.000
-626.463	194.163	-0.125	0.190
-625.449	-58.859	0.174	0.075
-624.434	-115.458	-0.425	0.080
-623.419	-67.514	0.016	0.006
-622.405	-62.894	-0.255	0.106
-621.390	-40.539	0.209	-0.109
-620.376	-111.227	-0.093	-0.019
-619.361	-99.751	-0.266	0.067
-618.346	800.000	-0.036	-0.111
-617.332	-118.234	-0.166	-0.030
-616.317	119.476	-0.096	-0.120
-615.303	-166.689	-0.132	-0.005
-614.288	-22.602	-0.139	-0.084
-613.273	331.190	0.025	0.047
-612.259	-9.472	-0.171	-0.114
-611.244	-101.697	0.156	0.038
-610.230	-54.512	-0.331	0.150
-609.215	-192.577	-0.275	0.003
-608.201	-200.000	0.043	0.291
-607.186	-9.204	-0.231	0.155
-606.171	185.787	-0.076	0.112
-605.157	-60.708	0.321	0.136
-604.142	800.000	-0.017	-0.074
-603.128	-200.000	-0.022	-0.206
-602.113	-77.722	0.088	0.030
-601.098	-200.000	0.009	-0.358
-600.084	191.723	0.099	-0.150
-599.069	126.388	-0.100	-0.127
-598.055	-200.000	-0.011	-0.115
-597.040	81.237	-0.119	0.129
-596.025	11.214	-0.310	-0.237
-595.011	800.000	-0.042	0.142
-593.996	584.747	0.100	0.247
-592.982	78.414	-0.060	0.064
-591.967	-200.000	0.012	0.235
-590.952	7.646	0.082	0.062
-589.938	-18.349	-0.205	-0.128
-588.923	800.000	-0.086	-0.255
-587.909	44.385	-0.086	-0.079
-586.894	151.264	-0.113	0.154
-585.879	-180.113	-0.310	0.007
-584.865	-93.638	-0.268	-0.074
-583.850	-200.000	0.001	-0.106
-582.836	-55.181	0.260	0.117
-581.821	-200.000	0.006	0.249
-580.806	52.660	0.275	-0.263
-579.792	-187.608	-0.189	-0.003
-578.777	-85.407	0.405	0.126
-577.763	161.174	0.094	0.131
-576.748	315.822	0.102	-0.193
-575.733	142.657	-0.264	-0.350
-574.719	-107.704	-0.327	0.071
-573.704	-82.074	-0.069	-0.023
-572.690	-16.486	0.100	0.063
-571.675	222.395	0.107	-0.173
-570.661	-5.462	-0.114	-0.078
-569.646	-200.000	-0.042	-0.328
-568.631	496.221	-0.062	-0.142
-567.617	-200.000	0.032	-0.186
-566.602	549.893	-0.053	0.127
-565.588	-2.930	-0.118	-0.082
-564.573	391.787	-0.097	-0.202
-563.558	-11.152	0.208	0.137
-562.544	800.000	-0.056	-0.229
-561.529	-20.046	0.328	-0.202
-560.515	-200.000	-0.070	-0.469
-559.500	800.000	0.015	-0.062
-558.485	-78.566	-0.045	-0.015
-557.471	656.030	0.032	-0.081
-556.456	87.640	0.162	-0.179
-555.442	48.760	0.280	0.262
-554.427	-200.000	0.014	-0.311
-553.412	240.052	-0.042	0.071
-552.398	-200.000	0.014	0.269
-551.383	-63.230	-0.123	-0.051
-550.369	800.000	0.023	-0.095
-549.354	-37.461	-0.064	-0.034
-548.339	39.072	-0.055	-0.049
-547.325	800.000	-0.114	-0.368
-546.310	13.615	0.245	-0.190
-545.296	94.010	0.046	-0.052
-544.281	202.331	-0.095	-0.146
-543.266	-69.353	0.213	0.081
-542.252	132.357	0.161	0.207
-541.237	260.852	-0.113	0.196
-540.223	-106.867	0.237	0.052
-539.208	-200.000	-0.018	0.178
-538.193	-26.286	-0.218	0.128
-537.179	-200.000	0.040	-0.430
-536.164	71.845	-0.175	-0.182
-535.150	-115.134	0.291	-0.055
-534.135	-106.388	-0.177	0.040
-533.121	98.999	0.195	0.224
-532.106	-84.223	0.045	-0.014
-531.091	-200.000	0.036	0.168
-530.077	310.078	0.062	-0.116
-529.062	-70.391	-0.110	0.042
-528.048	-82.288	0.295	0.096
-527.033	-49.792	0.141	0.067
-526.018	800.000	0.073	-0.268
-525.004	-84.016	-0.295	-0.094
-523.989	-4.975	-0.093	-0.064
-522.975	-14.130	0.239	-0.154
-521.960	-106.725	0.097	0.021
-520.945	73.310	-0.105	0.110
-519.931	166.881	-0.086	0.122
-518.916	187.771	-0.204	-0.304
-517.902	-127.938	0.281	0.040
-516.887	-200.000	-0.003	-0.187
-515.872	-92.166	-0.238	0.067
-514.858	-20.418	-0.046	-0.028
-513.843	-200.000	-0.012	0.487
-512.829	-200.000	-0.019	0.154
-511.814	-75.854	0.140	0.049
-510.799	-200.000	0.011	0.140
-509.785	-200.000	-0.006	-0.323
-508.770	2.747	-0.437	-0.316
-507.756	596.279	0.046	0.114
-506.741	800.000	0.018	-0.070
-505.726	-91.324	0.211	0.060
-504.712	-13.510	-0.056	0.036
-503.697	-151.184	-0.335	0.025
-502.683	-149.435	-0.141	-0.011
-501.668	163.088	-0.090	0.126
-500.653	-200.000	-0.032	0.307
-499.639	19.355	0.042	-0.034
-498.624	-84.441	-0.170	-0.054
-497.610	-17.879	-0.233	0.145
-496.595	288.886	0.053	0.095
-495.581	-110.052	-0.173	0.036
-494.566	-200.000	0.032	-0.176
-493.551	-19.748	0.323	0.199
-492.537	-200.000	0.017	-0.075
-491.522	-200.000	0.022	0.164
-490.508	43.319	-0.183	0.166
-489.493	305.595	-0.140	-0.260
-488.478	-129.901	0.220	-0.030
-487.464	-72.191	-0.179	-0.066
-486.449	-39.518	0.147	-0.076
-485.435	-76.278	0.132	-0.046
-484.420	488.756	0.020	0.046
-483.405	-156.391	0.065	0.004
-482.391	4.581	0.220	-0.161
-481.376	368.406	0.076	0.152
-480.362	-200.000	-0.022	-0.461
-479.347	110.177	0.018	0.021
-478.332	320.901	-0.128	-0.242
-477.318	-53.030	0.094	0.043
-476.303	-56.220	-0.369	-0.163
-475.289	275.153	0.067	0.118
-474.274	-7.784	-0.028	0.019
-473.259	-39.531	-0.272	-0.142
-472.245	-85.968	0.200	0.062
-471.230	-1.982	0.169	-0.118
-470.216	16.627	0.109	-0.086
-469.201	78.763	0.111	-0.118
-468.186	-130.214	0.075	0.010
-467.172	-200.000	-0.098	0.450
-466.157	306.118	0.231	-0.428
-465.143	136.197	-0.122	0.158
-464.128	-96.763	0.268	-0.070
-463.113	-52.229	-0.213	-0.098
-462.099	-200.000	0.070	0.489
-461.084	-180.779	0.515	0.010
-460.070	-200.000	-0.056	-0.251
-459.055	-12.372	0.072	-0.047
-458.040	62.663	0.154	0.154
-457.026	800.000	-0.044	0.178
-456.011	55.430	-0.022	0.021
-454.997	10.970	-0.051	-0.039
-453.982	-79.962	0.300	-0.100
-452.968	-56.154	-0.154	-0.068
-451.953	42.182	-0.264	-0.239
-450.938	-200.000	-0.034	0.237
-449.924	-20.618	-0.188	-0.114
-448.909	-96.395	-0.045	0.012
-447.895	98.546	0.163	-0.187
-446.880	800.000	0.061	-0.199
-445.865	-200.000	-0.037	-0.379
-444.851	33.276	-0.108	0.093
-443.836	375.368	-0.038	0.078
-442.822	701.724	0.023	-0.059
-441.807	675.223	-0.084	0.216
-440.792	243.780	-0.048	0.079
-439.778	101.143	-0.352	0.407
-438.763	-200.000	0.002	0.019
-437.749	-28.058	0.080	0.046
-436.734	-78.402	0.337	-0.115
-435.719	127.148	-0.102	0.128
-434.705	-94.349	-0.049	-0.013
-433.690	62.957	0.164	0.163
-432.676	19.151	-0.100	-0.079
-431.661	-46.785	0.053	0.026
-430.646	474.623	0.100	0.224
-429.632	800.000	0.054	0.161
-428.617	792.157	-0.059	0.160
-427.603	-38.699	0.238	-0.125
-426.588	-56.814	-0.378	0.166
-425.573	114.692	0.095	-0.115
-424.559	329.397	0.151	-0.289
-423.544	-2.241	-0.169	0.118
-422.530	-70.551	-0.064	-0.024
-421.515	-31.478	0.161	-0.090
-420.500	209.035	-0.078	-0.122
-419.486	-166.457	-0.240	0.010
-418.471	800.000	0.121	0.457
-417.457	93.399	0.076	0.085
-416.442	79.920	0.118	0.126
-415.428	-44.393	0.249	0.124
-414.413	-120.641	0.240	0.040
-413.398	-200.000	0.036	0.363
-412.384	-200.000	0.007	-0.079
-411.369	-122.608	0.084	-0.013
-410.355	800.000	-0.052	-0.158
-409.340	-11.770	0.185	0.121
-408.325	-95.555	0.134	0.036
-407.311	800.000	-0.040	0.173
-406.296	148.796	-0.058	-0.077
-405.282	183.950	0.128	0.188
-404.267	-145.086	0.125	-0.011
-403.252	-200.000	0.037	-0.213
-402.238	-79.097	0.260	-0.088
-401.223	111.074	0.145	0.173
-400.209	-69.547	0.335	0.127
-399.194	-125.283	-0.110	-0.017
-398.179	-51.972	0.309	0.142
-397.165	196.009	0.210	0.316
-396.150	28.685	0.314	0.264
-395.136	282.619	-0.129	-0.230
-394.121	800.000	-0.027	-0.074
-393.106	71.879	0.314	-0.324
-392.092	-200.000	0.023	-0.379
-391.077	78.850	0.228	0.242
-390.063	448.744	0.084	-0.184
-389.048	-191.944	-0.367	-0.004
-388.033	-137.635	-0.218	0.024
-387.019	800.000	-0.059	0.180
-386.004	156.198	-0.130	0.178
-384.990	116.932	0.202	0.246
-383.975	-75.084	0.337	0.120
-382.960	800.000	-0.040	-0.154
-381.946	113.477	-0.074	-0.089
-380.931	204.324	-0.084	0.129
-379.917	-106.565	-0.303	0.067
-378.902	-55.846	0.367	0.162
-377.888	364.334	-0.148	0.295
-376.873	525.819	-0.136	0.318
-375.858	476.314	0.098	-0.220
-374.844	-99.364	-0.039	0.010
-373.829	206.633	-0.126	0.195
-372.815	322.685	-0.209	0.394
-371.800	13.851	-0.373	0.287
-370.785	-87.178	-0.088	0.027
-369.771	-84.737	-0.121	-0.038
-368.756	-17.686	0.195	0.121
-367.742	-169.918	0.029	-0.001
-366.727	-67.708	0.355	-0.138
-365.712	-61.256	-0.070	0.029
-364.698	-70.330	-0.191	0.072
-363.683	-35.653	-0.221	-0.118
-362.669	800.000	0.091	-0.308
-361.654	-123.415	0.152	-0.024
-360.639	424.650	-0.071	0.151
-359.625	-94.381	0.128	-0.035
-358.610	231.914	0.064	-0.103
-357.596	218.011	-0.091	-0.144
-356.581	800.000	0.065	-0.248
-355.566	297.030	-0.044	-0.080
-354.552	-200.000	-0.032	-0.356
-353.537	-11.065	0.291	-0.190
-352.523	16.260	0.266	-0.208
-351.508	680.931	-0.033	0.085
-350.493	86.506	0.064	0.070
-349.479	80.838	-0.072	-0.077
-348.464	800.000	-0.102	0.300
-347.450	-200.000	-0.005	0.182
-346.435	-8.660	0.204	-0.135
-345.420	-70.303	0.092	-0.034
-344.406	79.111	0.092	-0.098
-343.391	-200.000	-0.010	0.076
-342.377	800.000	-0.149	-0.429
-341.362	-200.000	-0.060	0.380
-340.348	-29.629	-0.143	-0.081
-339.333	-174.949	0.283	-0.008
-338.318	25.615	0.022	0.018
-337.304	-200.000	-0.078	0.466
-336.289	424.368	-0.124	0.264
-335.275	-83.678	0.164	-0.052
-334.260	-105.009	0.405	-0.092
-333.245	-96.595	-0.132	0.034
-332.231	-75.707	0.111	0.039
-331.216	168.887	-0.180	0.254
-330.202	-26.531	0.232	0.135
-329.187	-200.000	0.046	0.474
-328.172	-200.000	-0.035	0.174
-327.158	800.000	0.023	-0.068
-326.143	-130.518	0.319	0.043
-325.129	-169.529	0.308	-0.011
-324.114	31.801	-0.218	0.185
-323.099	-200.000	0.026	0.224
-322.085	-200.000	0.077	0.409
-321.070	278.561	-0.115	-0.203
-320.056	-200.000	0.016	0.080
-319.041	-65.207	0.362	0.144
-318.026	39.564	-0.084	0.075
-317.012	-32.408	-0.161	-0.089
-315.997	-68.764	0.119	0.045
-314.983	626.181	-0.069	-0.173
-313.968	-3.333	-0.144	0.099
-312.953	701.230	0.079	0.206
-311.939	-200.000	-0.054	0.322
-310.924	148.771	0.241	-0.323
-309.910	74.866	-0.172	0.179
-308.895	-153.130	0.259	-0.018
-307.880	-19.861	-0.261	0.159
-306.866	-25.212	0.134	-0.078
-305.851	203.856	0.155	0.237
-304.837	-68.423	-0.300	0.115
-303.822	-200.000	0.000	0.109
-302.807	424.270	-0.051	0.108
-301.793	39.853	0.198	-0.176
-300.778	800.000	-0.032	-0.120
-299.764	-200.000	0.018	0.162
-298.749	-57.633	-0.158	0.068
-297.735	-30.466	0.266	0.149
-296.720	9.523	0.037	-0.027
-295.705	389.920	-0.113	0.231
-294.691	47.106	0.075	0.069
-293.676	-47.613	-0.114	0.055
-292.662	8.491	-0.177	-0.132
-291.647	-200.000	-0.008	0.148
-290.632	307.216	-0.070	0.128
-289.618	-2.924	0.094	-0.065
-288.603	190.215	0.086	-0.127
-287.589	-62.726	0.247	0.101
-286.574	257.311	-0.045	0.076
-285.559	-200.000	0.008	0.511
-284.545	198.213	0.047	0.070
-283.530	24.433	0.103	0.084
-282.516	-200.000	0.035	0.215
-281.501	-173.345	-0.154	0.005
-280.486	-109.745	-0.059	-0.012
-279.472	171.904	0.132	-0.187
-278.457	-200.000	0.017	0.139
-277.443	41.618	-0.083	-0.074
-276.428	-71.859	-0.090	0.033
-275.413	-115.094	-0.045	0.008
-274.399	-200.000	0.013	-0.169
-273.384	-98.411	-0.103	-0.026
-272.370	270.495	0.083	-0.144
-271.355	-30.440	-0.226	-0.126
-270.340	374.322	-0.094	0.189
-269.326	-58.979	-0.077	0.033
-268.311	366.238	-0.073	0.146
-267.297	-200.000	-0.035	0.219
-266.282	800.000	-0.054	0.220
-265.267	-151.319	-0.151	-0.011
-264.253	792.913	0.038	-0.102
-263.238	-82.217	-0.219	0.070
-262.224	-127.737	-0.404	0.058
-261.209	588.021	0.201	-0.488
-260.195	-161.356	-0.187	0.010
-259.180	743.946	-0.025	-0.065
-258.165	-200.000	-0.009	-0.172
-257.151	88.801	0.203	0.222
-256.136	144.330	-0.002	-0.002
-255.122	82.387	-0.193	0.206
-254.107	-48.886	0.352	-0.166
-253.092	-34.045	-0.218	0.118
-252.078	-200.000	-0.002	-0.151
-251.063	-97.646	-0.102	-0.026
-250.049	-111.514	-0.045	0.009
-249.034	-200.000	-0.044	-0.312
-248.019	-107.871	0.071	-0.015
-247.005	-200.000	-0.003	0.345
-245.990	-57.712	0.091	-0.039
-244.976	239.015	0.097	-0.159
-243.961	-200.000	-0.004	0.289
-242.946	21.671	0.255	-0.205
-241.932	-35.949	-0.229	-0.122
-240.917	-200.000	0.012	-0.137
-239.903	-138.681	-0.140	-0.015
-238.888	94.437	0.141	-0.158
-237.873	-177.793	-0.093	-0.002
-236.859	800.000	-0.076	-0.297
-235.844	83.079	0.141	-0.151
-234.830	-126.093	-0.271	0.040
-233.815	-116.570	0.158	0.029
-232.800	278.931	0.041	0.072
-231.786	-200.000	0.038	-0.243
-230.771	44.417	-0.105	-0.095
-229.757	-200.000	-0.063	-0.322
-228.742	1.302	0.045	-0.032
-227.727	-186.536	0.337	-0.005
-226.713	336.865	0.126	-0.241
-225.698	-200.000	0.013	-0.084
-224.684	427.927	-0.114	0.243
-223.669	14.638	0.225	0.173
-222.655	349.214	-0.115	-0.223
-221.640	-10.822	0.253	-0.165
-220.625	-112.971	0.188	0.037
-219.611	756.666	-0.045	-0.121
-218.596	525.008	-0.066	-0.153
-217.582	152.254	-0.038	0.052
-216.567	127.023	-0.218	-0.272
-215.552	-22.832	-0.102	0.061
-214.538	79.598	0.191	-0.202
-213.523	162.245	-0.132	0.182
-212.509	84.546	-0.037	0.040
-211.494	32.086	0.177	-0.151
-210.479	434.775	-0.096	-0.207
-209.465	800.000	0.046	-0.161
-208.450	-35.444	0.173	-0.093
-207.436	205.516	0.093	0.142
-206.421	-115.052	-0.330	-0.062
-205.406	-126.167	0.112	0.017
-204.392	198.040	0.288	-0.433
-203.377	-160.702	-0.505	-0.026
-202.363	761.437	-0.124	0.331
-201.348	299.527	0.062	-0.113
-200.333	-7.093	-0.036	0.024
-199.319	66.941	-0.127	0.127
-198.304	-125.716	-0.300	0.045
-197.290	223.743	0.136	-0.216
-196.275	-38.401	0.171	0.089
-195.260	800.000	0.096	-0.273
-194.246	137.757	-0.016	-0.021
-193.231	-200.000	-0.024	0.149
-192.217	-12.182	-0.367	0.236
-191.202	103.664	-0.093	-0.107
-190.187	-14.506	0.224	-0.142
-189.173	-50.569	-0.164	0.076
-188.158	-200.000	-0.010	-0.180
-187.144	422.916	0.093	-0.196
-186.129	-179.594	-0.084	0.002
-185.114	-127.519	-0.118	-0.017
-184.100	152.032	-0.121	0.162
-183.085	-147.367	-0.216	0.018
-182.071	276.409	0.164	0.286
-181.056	800.000	-0.067	0.280
-180.042	23.607	-0.110	-0.089
-179.027	800.000	0.032	-0.104
-178.012	-148.123	0.172	0.014
-176.998	800.000	0.151	0.528
-175.983	46.172	-0.051	-0.047
-174.969	120.039	-0.278	-0.339
-173.954	-64.231	0.093	0.037
-172.939	598.569	0.122	-0.298
-171.925	232.831	-0.041	0.066
-170.910	-200.000	0.039	0.213
-169.896	-200.000	0.041	-0.365
-168.881	44.339	-0.226	-0.204
-167.866	-200.000	-0.011	0.294
-166.852	-200.000	-0.301	0.000
-165.837	236.635	0.133	0.217
-164.823	800.000	0.088	0.251
-163.808	-200.000	-0.060	0.385
-162.793	13.326	-0.124	0.094
-161.779	-200.000	-0.006	0.206
-160.764	116.759	-0.057	0.069
-159.750	-70.472	0.228	-0.085
-158.735	-77.499	-0.292	0.100
-157.720	-77.896	0.233	-0.079
-156.706	237.922	0.067	-0.109
-155.691	64.382	0.152	-0.151
-154.677	-64.080	-0.192	-0.077
-153.662	127.525	-0.071	-0.089
-152.647	800.000	0.064	-0.266
-151.633	800.000	0.042	-0.154
-150.618	148.911	0.026	-0.034
-149.604	16.996	-0.072	-0.056
-148.589	17.312	-0.191	-0.149
-147.574	485.527	0.070	0.157
-146.560	800.000	-0.129	0.384
-145.545	-200.000	-0.040	0.000
-144.531	-200.000	0.008	-0.206
-143.516	800.000	-0.023	0.069
-142.502	65.590	0.130	0.130
-141.487	-200.000	-0.027	0.353
-140.472	-189.383	0.178	-0.002
-139.458	138.765	0.047	-0.061
-138.443	-200.000	0.082	-0.362
-137.429	314.891	0.117	-0.216
-136.414	-200.000	0.032	-0.260
-135.399	800.000	-0.146	-0.410
-134.385	413.566	-0.206	-0.430
-133.370	66.572	0.223	-0.222
-132.356	-55.260	0.339	-0.149
-131.341	67.040	-0.195	0.195
-130.326	39.478	0.242	-0.213
-129.312	-54.331	-0.342	0.152
-128.297	-153.398	0.303	0.021
-127.283	-106.818	-0.280	0.061
-126.268	-36.598	0.166	0.088
-125.253	-9.349	-0.169	-0.110
-124.239	-200.000	-0.013	0.127
-123.224	279.799	-0.186	-0.326
-122.210	-9.705	-0.132	0.087
-121.195	-130.434	-0.121	-0.016
