DTS Sentinel unit serial number:	SN413079Multiplexer serial number:	ORYXHardware model number:	OX4-SRSoftware version number:	ORYX F/W v4.00 Oryx Data Collector v3.7.2.0data status	okinstallation	princeton_trtdifferential loss correction	single-endedforward channel	channel 1reverse channel	N/Adate	2019/09/16time	13:38:35forward acquisition time	60.00reverse acquisition time	0.00gamma	496.2192k internal	0.2294k external	0.2294temperature offset calibration	0.9949default loss term (dB/km)	0.3790temperature slope calibration	1.0000multiplexer offset coefficient	1.0000multiplexer slope coefficient	1.0000fibre end	0.00T internal ref (°C)	42.08T ext. ref 1 (°C)	13.87T ext. ref 2 (°C)	39.31length (m)	temperature (°C)	Stokes	anti-Stokes-747.200	-200.000	-0.034	-0.323
-746.185	99.516	-0.123	0.146
-745.171	-200.000	-0.013	0.131
-744.156	22.544	-0.252	0.211
-743.142	-200.000	0.016	0.256
-742.127	-12.058	0.244	0.163
-741.112	145.771	0.139	0.190
-740.098	-200.000	0.013	-0.360
-739.083	30.645	0.227	-0.199
-738.069	-200.000	-0.065	0.565
-737.054	174.797	0.088	-0.130
-736.039	321.012	-0.176	0.341
-735.025	-23.092	0.216	-0.133
-734.010	116.680	0.184	-0.231
-732.996	-35.498	-0.091	-0.050
-731.981	-34.806	-0.208	-0.116
-730.966	-174.302	-0.321	-0.009
-729.952	-200.000	0.019	0.131
-728.937	-200.000	0.019	-0.276
-727.923	2.807	-0.066	-0.049
-726.908	116.159	0.021	0.027
-725.894	800.000	0.091	-0.312
-724.879	-123.649	-0.280	-0.045
-723.864	-200.000	0.043	0.251
-722.850	521.656	0.202	-0.485
-721.835	-40.572	-0.215	-0.114
-720.821	-122.530	-0.167	0.028
-719.806	-200.000	0.070	-0.382
-718.791	-2.492	0.465	-0.333
-717.777	-169.669	-0.310	0.011
-716.762	-39.092	-0.286	0.154
-715.748	-108.198	-0.200	0.044
-714.733	-133.401	-0.272	0.035
-713.718	-143.823	-0.026	0.003
-712.704	-95.178	-0.162	0.045
-711.689	-21.513	-0.224	0.139
-710.675	119.783	0.063	-0.079
-709.660	-200.000	-0.035	-0.232
-708.645	135.853	-0.070	0.093
-707.631	800.000	0.029	0.101
-706.616	-125.717	-0.060	0.009
-705.602	800.000	-0.118	-0.416
-704.587	250.473	-0.071	-0.124
-703.572	273.523	0.154	-0.278
-702.558	-200.000	0.003	0.073
-701.543	-200.000	-0.086	0.395
-700.529	-97.634	-0.155	-0.041
-699.514	192.957	0.015	-0.024
-698.499	167.296	-0.067	0.097
-697.485	44.841	0.197	-0.185
-696.470	-113.902	0.189	-0.037
-695.456	-176.172	-0.195	0.005
-694.441	800.000	-0.077	-0.283
-693.426	379.237	-0.031	-0.064
-692.412	-200.000	0.006	0.117
-691.397	-13.112	-0.116	-0.077
-690.383	61.003	-0.215	0.217
-689.368	-200.000	-0.034	-0.189
-688.354	-149.111	-0.065	-0.005
-687.339	295.813	-0.238	0.446
-686.324	-40.926	0.194	-0.102
-685.310	0.467	-0.298	0.217
-684.295	-155.611	-0.305	-0.020
-683.281	-200.000	-0.014	0.067
-682.266	800.000	0.047	0.159
-681.251	242.129	0.079	0.135
-680.237	30.491	-0.312	-0.272
-679.222	156.501	-0.143	0.202
-678.208	248.183	-0.069	0.119
-677.193	-200.000	0.030	0.235
-676.178	327.608	-0.140	-0.274
-675.164	-11.906	0.175	0.117
-674.149	-98.514	-0.124	0.032
-673.135	800.000	-0.055	0.202
-672.120	800.000	0.110	0.380
-671.105	-200.000	-0.011	-0.162
-670.091	-42.420	-0.227	-0.118
-669.076	-49.364	0.097	0.047
-668.062	-84.554	-0.359	-0.116
-667.047	-6.225	0.304	0.212
-666.032	-29.251	-0.219	-0.128
-665.018	273.698	-0.105	0.190
-664.003	265.115	0.122	-0.217
-662.989	1.167	-0.069	-0.051
-661.974	-110.185	-0.030	0.006
-660.959	800.000	0.016	-0.065
-659.945	35.547	-0.105	-0.094
-658.930	174.289	-0.058	0.086
-657.916	-163.360	-0.229	0.011
-656.901	800.000	0.064	0.192
-655.886	-200.000	-0.011	0.066
-654.872	-76.289	0.064	-0.023
-653.857	170.631	-0.179	-0.261
-652.843	-200.000	0.039	0.228
-651.828	-82.330	0.175	0.058
-650.814	-200.000	-0.016	-0.133
-649.799	-135.232	0.077	0.009
-648.784	-200.000	0.002	-0.083
-647.770	25.865	0.218	-0.185
-646.755	22.465	-0.250	-0.209
-645.741	160.452	0.060	-0.086
-644.726	-136.665	-0.370	0.044
-643.711	-13.622	0.144	-0.095
-642.697	-150.770	0.209	-0.016
-641.682	-1.736	-0.028	-0.020
-640.668	-122.108	-0.117	-0.020
-639.653	143.915	-0.199	0.271
-638.638	-200.000	-0.004	-0.344
-637.624	-200.000	0.007	0.091
-636.609	-12.055	0.189	0.126
-635.595	-200.000	0.033	-0.221
-634.580	-200.000	0.031	0.141
-633.565	434.361	-0.045	-0.101
-632.551	182.571	-0.129	0.193
-631.536	54.742	-0.188	0.184
-630.522	-15.053	-0.168	0.110
-629.507	-153.001	-0.101	0.007
-628.492	-101.420	-0.244	-0.060
-627.478	42.613	0.149	-0.138
-626.463	-93.431	-0.194	0.055
-625.449	-84.761	-0.307	0.098
-624.434	50.542	0.199	0.192
-623.419	84.332	0.031	-0.034
-622.405	-103.382	-0.257	0.062
-621.390	-6.174	0.102	0.071
-620.376	-200.000	-0.075	0.377
-619.361	26.240	-0.139	0.118
-618.346	-17.384	-0.316	-0.203
-617.332	522.266	0.087	-0.207
-616.317	10.297	0.179	-0.139
-615.303	-145.009	-0.349	-0.032
-614.288	-200.000	0.027	0.221
-613.273	-38.536	0.242	-0.130
-612.259	106.685	0.046	0.056
-611.244	10.487	-0.204	-0.158
-610.230	-91.097	-0.377	-0.110
-609.215	-68.089	0.268	0.106
-608.201	-200.000	0.021	-0.154
-607.186	-200.000	0.002	-0.151
-606.171	123.960	-0.188	0.240
-605.157	800.000	0.035	-0.123
-604.142	-200.000	0.024	-0.529
-603.128	-200.000	-0.032	-0.190
-602.113	-0.496	0.239	-0.173
-601.098	-200.000	-0.373	0.001
-600.084	56.679	-0.115	0.114
-599.069	123.418	-0.124	-0.159
-598.055	149.341	0.088	0.121
-597.040	97.269	0.081	-0.095
-596.025	-145.368	0.154	-0.014
-595.011	-121.304	-0.159	-0.027
-593.996	-128.998	0.229	0.033
-592.982	91.126	0.201	0.229
-591.967	110.222	0.128	-0.157
-590.952	-86.024	0.221	0.069
-589.938	681.018	-0.098	0.260
-588.923	-126.072	-0.084	-0.013
-587.909	17.084	-0.259	0.209
-586.894	38.014	0.126	0.114
-585.879	-37.917	0.180	-0.097
-584.865	-200.000	-0.016	0.128
-583.850	800.000	-0.026	-0.095
-582.836	-22.563	-0.193	-0.119
-581.821	-133.532	0.106	-0.013
-580.806	-88.948	0.417	0.125
-579.792	-155.743	0.158	0.010
-578.777	165.396	-0.084	-0.121
-577.763	359.630	-0.173	-0.351
-576.748	456.617	0.023	-0.051
-575.733	119.839	-0.266	0.335
-574.719	325.601	0.085	0.165
-573.704	43.220	0.080	-0.074
-572.690	71.079	0.292	-0.308
-571.675	-184.806	-0.200	-0.003
-570.661	-107.563	0.228	-0.051
-569.646	661.335	-0.056	-0.147
-568.631	-110.142	-0.209	-0.044
-567.617	-200.000	0.002	-0.288
-566.602	-200.000	-0.013	-0.184
-565.588	800.000	-0.056	0.175
-564.573	328.475	0.139	0.270
-563.558	-29.176	0.066	0.039
-562.544	28.725	0.269	0.231
-561.529	-200.000	-0.002	-0.106
-560.515	605.066	-0.065	0.164
-559.500	800.000	-0.068	-0.295
-558.485	-35.527	-0.199	-0.110
-557.471	218.119	-0.144	-0.233
-556.456	-42.648	-0.175	-0.091
-555.442	527.138	-0.073	-0.175
-554.427	428.883	-0.065	-0.143
-553.412	-90.129	-0.035	0.010
-552.398	134.654	-0.261	0.344
-551.383	-66.708	-0.222	-0.089
-550.369	178.267	0.052	-0.077
-549.354	-41.305	-0.213	0.112
-548.339	246.909	0.168	0.287
-547.325	-200.000	-0.043	0.307
-546.310	-54.825	0.040	-0.018
-545.296	-54.170	-0.068	0.032
-544.281	-142.572	-0.182	-0.018
-543.266	-65.746	-0.213	0.087
-542.252	-200.000	-0.001	0.010
-541.237	-28.757	-0.068	0.040
-540.223	-200.000	0.012	0.368
-539.208	-200.000	-0.011	-0.063
-538.193	141.292	0.073	-0.097
-537.179	-102.616	0.360	-0.087
-536.164	-22.415	-0.270	0.166
-535.150	-88.009	-0.162	-0.049
-534.135	208.964	0.029	0.046
-533.121	297.635	0.091	0.169
-532.106	136.307	-0.049	0.065
-531.091	-200.000	-0.022	0.246
-530.077	-39.205	-0.151	0.080
-529.062	-4.332	-0.145	0.102
-528.048	-200.000	-0.032	0.174
-527.033	-141.148	-0.221	0.023
-526.018	-200.000	-0.005	-0.145
-525.004	-29.559	0.036	0.021
-523.989	145.767	-0.230	-0.312
-522.975	-118.833	-0.066	-0.012
-521.960	-114.124	0.318	-0.062
-520.945	69.423	0.127	0.132
-519.931	-118.765	-0.222	-0.040
-518.916	24.363	-0.078	-0.065
-517.902	-200.000	0.030	-0.142
-516.887	-160.522	0.146	0.008
-515.872	39.738	0.130	0.119
-514.858	-200.000	-0.053	0.330
-513.843	800.000	-0.063	-0.214
-512.829	-52.140	0.241	-0.113
-511.814	-153.192	-0.329	-0.023
-510.799	-200.000	-0.012	0.409
-509.785	55.353	-0.041	0.040
-508.770	-200.000	0.025	0.169
-507.756	58.510	0.180	-0.179
-506.741	800.000	0.148	-0.524
-505.726	-132.143	-0.413	-0.054
-504.712	-100.079	-0.079	-0.020
-503.697	-200.000	0.026	-0.279
-502.683	33.383	-0.253	-0.223
-501.668	-187.820	-0.179	-0.002
-500.653	39.739	0.164	0.149
-499.639	-200.000	0.034	-0.172
-498.624	150.469	-0.249	-0.343
-497.610	58.990	0.063	0.063
-496.595	120.122	-0.161	-0.203
-495.581	717.505	0.027	0.072
-494.566	143.879	0.313	0.423
-493.551	176.700	0.078	-0.115
-492.537	81.386	-0.138	-0.151
-491.522	602.592	-0.046	-0.115
-490.508	-200.000	-0.043	0.393
-489.493	127.860	0.220	-0.283
-488.478	-40.552	-0.150	0.079
-487.464	-118.972	0.474	-0.084
-486.449	-170.568	-0.286	-0.010
-485.435	-35.786	-0.087	0.048
-484.420	402.704	0.037	-0.078
-483.405	-200.000	0.018	-0.171
-482.391	353.888	-0.087	0.175
-481.376	8.441	-0.148	-0.113
-480.362	-122.726	0.119	0.019
-479.347	163.972	0.066	-0.095
-478.332	-81.581	-0.104	0.035
-477.318	-69.610	0.212	-0.082
-476.303	-149.531	0.244	-0.020
-475.289	41.631	-0.075	0.069
-474.274	-200.000	0.010	0.130
-473.259	637.809	-0.129	0.333
-472.245	-26.802	0.189	-0.112
-471.230	-164.686	0.185	-0.008
-470.216	800.000	-0.062	-0.221
-469.201	196.213	-0.062	-0.096
-468.186	-54.915	-0.341	0.155
-467.172	-169.538	-0.052	0.002
-466.157	143.799	-0.122	-0.165
-465.143	127.837	0.145	0.186
-464.128	257.489	0.154	0.268
-463.113	-120.789	-0.030	0.005
-462.099	-125.946	0.316	0.048
-461.084	455.713	-0.118	-0.264
-460.070	-3.072	-0.097	0.068
-459.055	797.759	0.130	0.361
-458.040	9.987	-0.303	0.233
-457.026	266.862	-0.192	0.339
-456.011	-71.074	-0.072	-0.027
-454.997	800.000	0.080	0.285
-453.982	175.492	-0.187	-0.274
-452.968	800.000	0.049	0.150
-451.953	-87.153	0.206	-0.063
-450.938	-200.000	-0.006	0.437
-449.924	-200.000	0.072	0.424
-448.909	-87.123	0.161	-0.049
-447.895	367.798	-0.097	-0.198
-446.880	544.237	0.066	-0.158
-445.865	-37.025	0.138	0.075
-444.851	-65.802	0.280	0.113
-443.836	-200.000	0.033	-0.247
-442.822	262.098	0.231	-0.404
-441.807	800.000	-0.055	-0.223
-440.792	-131.894	-0.250	-0.033
-439.778	201.850	-0.175	0.272
-438.763	6.897	0.106	-0.080
-437.749	-53.565	0.056	-0.026
-436.734	-200.000	-0.046	0.284
-435.719	294.137	-0.060	-0.111
-434.705	-44.993	-0.432	0.217
-433.690	800.000	-0.022	0.065
-432.676	246.029	-0.077	0.131
-431.661	-132.743	0.166	-0.022
-430.646	276.611	0.094	-0.169
-429.632	-200.000	-0.017	-0.154
-428.617	596.591	0.035	-0.088
-427.603	21.407	0.182	-0.149
-426.588	575.168	0.179	-0.441
-425.573	-136.302	0.314	0.037
-424.559	620.671	-0.094	0.240
-423.544	1.610	-0.257	0.187
-422.530	-44.017	-0.354	0.180
-421.515	-9.523	-0.109	0.073
-420.500	35.124	0.163	0.144
-419.486	-200.000	0.050	-0.232
-418.471	80.262	-0.178	-0.193
-417.457	-200.000	-0.014	-0.079
-416.442	-155.162	0.356	0.023
-415.428	-20.348	-0.271	0.168
-414.413	117.195	0.190	0.236
-413.398	90.954	-0.171	0.194
-412.384	36.261	0.226	-0.201
-411.369	15.961	0.151	-0.120
-410.355	184.476	0.015	-0.023
-409.340	74.744	0.166	-0.177
-408.325	266.619	0.064	0.113
-407.311	-102.261	-0.178	0.043
-406.296	-14.864	0.096	0.062
-405.282	800.000	0.121	-0.359
-404.267	-134.340	-0.361	0.045
-403.252	-123.454	0.153	0.025
-402.238	-200.000	0.057	-0.349
-401.223	-53.763	0.199	0.091
-400.209	-134.131	0.225	0.028
-399.194	-200.000	0.017	0.212
-398.179	67.074	-0.098	0.101
-397.165	-61.177	-0.060	0.026
-396.150	670.694	0.120	0.314
-395.136	800.000	-0.088	-0.262
-394.121	133.145	-0.120	-0.156
-393.106	-165.871	-0.514	-0.022
-392.092	-200.000	0.005	-0.146
-391.077	102.101	-0.144	-0.170
-390.063	-52.584	-0.223	0.104
-389.048	739.151	-0.065	-0.176
-388.033	39.964	0.080	0.072
-387.019	-200.000	-0.002	0.086
-386.004	800.000	0.092	0.273
-384.990	-200.000	-0.017	0.190
-383.975	-41.118	-0.157	-0.082
-382.960	-101.216	0.130	0.032
-381.946	800.000	-0.115	-0.344
-380.931	-200.000	-0.026	-0.340
-379.917	-200.000	-0.093	-0.000
-378.902	52.290	-0.023	0.022
-377.888	263.103	-0.005	-0.008
-376.873	-200.000	-0.028	-0.229
-375.858	38.505	0.435	0.391
-374.844	-159.445	-0.221	-0.012
-373.829	-78.886	-0.265	0.091
-372.815	-200.000	-0.008	0.163
-371.800	-7.291	0.114	0.078
-370.785	107.128	-0.123	0.148
-369.771	-200.000	-0.008	-0.214
-368.756	-102.587	-0.238	0.057
-367.742	-72.788	-0.089	0.033
-366.727	40.462	-0.145	-0.131
-365.712	800.000	-0.047	0.157
-364.698	-103.753	0.265	-0.063
-363.683	-89.222	-0.077	0.023
-362.669	-83.411	0.012	-0.004
-361.654	140.262	-0.045	-0.060
-360.639	166.660	0.131	0.188
-359.625	-38.738	0.310	0.165
-358.610	-92.575	-0.125	-0.035
-357.596	-18.379	-0.108	-0.068
-356.581	-200.000	0.044	-0.198
-355.566	-200.000	-0.006	-0.064
-354.552	107.878	0.278	-0.334
-353.537	603.155	-0.059	0.147
-352.523	193.492	-0.054	0.082
-351.508	231.805	-0.252	0.417
-350.493	-66.340	0.316	0.126
-349.479	-17.274	0.215	-0.136
-348.464	-200.000	0.024	-0.147
-347.450	-200.000	-0.071	-0.318
-346.435	109.577	0.068	0.083
-345.420	-64.710	-0.171	0.070
-344.406	68.993	-0.094	-0.097
-343.391	-96.582	-0.384	-0.102
-342.377	-200.000	-0.022	-0.486
-341.362	-34.662	0.202	-0.112
-340.348	-200.000	0.016	0.109
-339.333	425.087	-0.059	0.128
-338.318	-96.591	0.242	-0.064
-337.304	800.000	0.063	0.225
-336.289	-101.177	0.268	0.066
-335.275	800.000	-0.158	-0.478
-334.260	460.363	0.127	-0.285
-333.245	800.000	0.085	-0.292
-332.231	-200.000	0.001	-0.044
-331.216	-200.000	-0.020	-0.239
-330.202	278.606	0.042	0.075
-329.187	74.231	-0.143	0.151
-328.172	147.184	0.105	0.142
-327.158	471.915	0.063	-0.142
-326.143	-146.999	-0.264	0.023
-325.129	196.757	0.036	-0.055
-324.114	-200.000	0.000	0.385
-323.099	13.324	0.289	-0.225
-322.085	-78.224	-0.074	-0.026
-321.070	37.105	0.093	-0.083
-320.056	-56.268	0.358	0.160
-319.041	-24.667	0.206	-0.124
-318.026	11.323	0.190	-0.146
-317.012	-132.772	0.135	0.017
-315.997	20.596	-0.181	0.147
-314.983	50.634	-0.306	-0.291
-313.968	195.258	0.090	0.138
-312.953	-41.518	-0.119	-0.061
-311.939	39.040	-0.109	-0.098
-310.924	-188.964	-0.282	0.003
-309.910	-200.000	-0.031	0.209
-308.895	169.493	0.089	0.128
-307.880	-60.179	0.267	-0.114
-306.866	-12.506	0.078	0.051
-305.851	7.166	0.300	-0.225
-304.837	295.226	0.127	0.234
-303.822	-65.821	0.305	0.123
-302.807	-100.180	0.295	-0.074
-301.793	47.862	0.174	0.163
-300.778	-45.804	0.079	-0.039
-299.764	-200.000	0.026	-0.180
-298.749	-200.000	0.010	-0.054
-297.735	446.968	0.122	-0.271
-296.720	-200.000	0.000	0.315
-295.705	114.615	0.163	0.199
-294.691	334.971	0.096	-0.187
-293.676	-46.384	-0.160	0.079
-292.662	431.595	-0.166	0.361
-291.647	46.703	-0.087	-0.081
-290.632	297.225	0.169	-0.312
-289.618	-167.751	-0.268	-0.011
-288.603	-200.000	0.047	0.492
-287.589	-15.023	0.176	0.113
-286.574	-103.489	0.099	0.023
-285.559	800.000	0.080	-0.319
-284.545	369.138	0.085	0.174
-283.530	-71.820	0.209	0.078
-282.516	212.785	-0.114	0.181
-281.501	578.441	0.021	-0.052
-280.486	-35.923	0.228	0.124
-279.472	18.798	0.152	-0.122
-278.457	350.625	0.142	-0.282
-277.443	-88.968	-0.031	0.009
-276.428	800.000	0.075	-0.208
-275.413	24.444	-0.121	-0.100
-274.399	77.784	0.107	0.115
-273.384	-129.507	0.220	0.031
-272.370	-42.416	0.302	0.155
-271.355	-89.261	-0.386	0.114
-270.340	18.224	0.308	-0.247
-269.326	-5.963	-0.112	0.077
-268.311	-200.000	-0.019	-0.215
-267.297	209.040	0.026	-0.040
-266.282	-165.645	-0.136	-0.006
-265.267	-164.683	0.055	-0.002
-264.253	-200.000	0.032	0.261
-263.238	-126.417	0.434	0.065
-262.224	-200.000	-0.025	0.210
-261.209	-200.000	0.015	-0.160
-260.195	194.102	-0.159	-0.242
-259.180	-53.237	0.208	0.096
-258.165	180.651	0.118	0.174
-257.151	-117.223	0.164	0.030
-256.136	-200.000	-0.018	-0.091
-255.122	-59.935	-0.101	-0.043
-254.107	222.311	-0.072	-0.116
-253.092	8.905	0.151	0.115
-252.078	-200.000	0.024	0.370
-251.063	190.460	-0.186	0.281
-250.049	800.000	-0.011	-0.047
-249.034	800.000	-0.056	-0.185
-248.019	-200.000	-0.041	0.288
-247.005	-110.500	-0.167	0.035
-245.990	514.574	-0.049	0.114
-244.976	539.358	-0.053	-0.125
-243.961	399.263	-0.018	0.038
-242.946	-92.287	0.397	-0.112
-241.932	-200.000	0.032	0.192
-240.917	-200.000	-0.003	-0.050
-239.903	226.847	0.132	-0.214
-238.888	226.579	-0.101	-0.165
-237.873	-110.273	-0.045	-0.009
-236.859	800.000	0.062	0.197
-235.844	100.029	-0.166	-0.193
-234.830	127.371	0.222	0.282
-233.815	-200.000	0.017	0.127
-232.800	-167.037	0.168	0.007
-231.786	-86.145	-0.021	0.007
-230.771	-189.891	-0.474	0.005
-229.757	-200.000	0.052	-0.245
-228.742	81.194	-0.016	-0.017
-227.727	58.936	0.099	0.097
-226.713	-29.634	0.284	-0.163
-225.698	-94.940	-0.318	-0.086
-224.684	3.341	-0.136	0.099
-223.669	-37.223	0.131	0.070
-222.655	320.838	0.180	0.342
-221.640	800.000	-0.086	0.273
-220.625	-75.055	-0.312	-0.112
-219.611	-3.420	0.080	-0.056
-218.596	297.836	0.122	0.225
-217.582	-200.000	-0.017	0.185
-216.567	-142.687	-0.186	-0.018
-215.552	29.980	-0.259	-0.221
-214.538	800.000	-0.055	-0.180
-213.523	-69.689	0.102	-0.039
-212.509	800.000	0.023	-0.090
-211.494	380.268	0.113	0.232
-210.479	28.037	0.223	0.188
-209.465	8.680	0.331	-0.249
-208.450	-47.736	0.209	0.101
-207.436	71.704	-0.133	-0.139
-206.421	672.557	0.080	0.207
-205.406	-87.649	-0.229	0.069
-204.392	53.379	0.127	-0.121
-203.377	-200.000	0.034	0.306
-202.363	36.959	-0.244	0.216
-201.348	-200.000	-0.030	-0.304
-200.333	-61.929	0.040	0.017
-199.319	541.126	0.078	-0.186
-198.304	-91.125	0.204	0.059
-197.290	-53.587	-0.185	0.085
-196.275	-147.327	-0.223	-0.019
-195.260	100.473	-0.105	-0.122
-194.246	-150.059	-0.151	0.012
-193.231	124.873	-0.208	-0.263
-192.217	800.000	0.054	-0.157
-191.202	-200.000	-0.028	0.285
-190.187	110.555	-0.255	-0.307
-189.173	84.329	-0.256	-0.280
-188.158	-200.000	0.008	-0.058
-187.144	-200.000	0.012	0.166
-186.129	34.478	0.150	0.131
-185.114	-200.000	-0.043	0.255
-184.100	-7.349	-0.175	0.119
-183.085	176.423	0.199	0.289
-182.071	-97.066	0.197	0.052
-181.056	142.161	0.198	-0.263
-180.042	-200.000	-0.011	0.319
-179.027	-60.911	-0.137	-0.058
-178.012	-167.328	0.251	0.010
-176.998	-10.916	-0.286	-0.189
-175.983	686.283	-0.078	0.204
-174.969	-200.000	-0.027	-0.148
-173.954	135.780	-0.060	-0.079
-172.939	-5.646	0.159	0.109
-171.925	241.169	0.137	-0.228
-170.910	297.880	0.040	-0.074
-169.896	-8.792	0.237	0.159
-168.881	565.157	-0.014	-0.033
-167.866	176.100	0.159	-0.231
-166.852	-151.058	-0.292	-0.022
-165.837	-111.309	0.256	0.052
-164.823	-126.439	-0.325	-0.048
-163.808	-118.362	-0.221	0.039
-162.793	-86.272	-0.073	-0.022
-161.779	187.263	-0.053	-0.079
-160.764	-13.968	-0.143	-0.093
-159.750	800.000	0.053	0.176
-158.735	-153.994	0.192	-0.013
-157.720	800.000	-0.017	-0.047
-156.706	-38.544	0.180	0.095
-155.691	105.261	0.163	0.193
-154.677	-200.000	-0.031	0.333
-153.662	509.241	0.136	-0.316
-152.647	-34.661	0.130	0.071
-151.633	-40.988	-0.046	0.024
-150.618	-200.000	-0.000	-0.147
-149.604	-172.191	-0.283	0.009
-148.589	615.499	0.075	-0.188
-147.574	-82.150	-0.155	-0.051
-146.560	800.000	0.084	0.298
-145.545	79.477	0.147	0.158
-144.531	794.979	0.055	-0.151
-143.516	269.523	-0.061	-0.106
-142.502	-102.043	0.123	0.030
-141.487	-200.000	-0.046	-0.000
-140.472	422.450	0.071	-0.151
-139.458	-22.649	0.025	0.015
-138.443	-35.228	-0.149	-0.081
-137.429	-83.339	0.220	-0.071
-136.414	-55.346	-0.110	-0.049
-135.399	800.000	0.053	-0.154
-134.385	-71.893	-0.117	-0.043
-133.370	800.000	0.153	0.475
-132.356	-200.000	0.025	-0.145
-131.341	-69.737	0.135	0.052
-130.326	-200.000	-0.031	0.153
-129.312	116.187	0.101	-0.124
-128.297	800.000	0.051	0.164
-127.283	97.192	-0.463	0.531
-126.268	376.191	-0.117	0.238
-125.253	-200.000	0.012	0.131
-124.239	51.688	-0.083	0.079
-123.224	-143.734	-0.081	-0.008
-122.210	297.857	-0.080	-0.147
