DTS Sentinel unit serial number:	SN413079Multiplexer serial number:	ORYXHardware model number:	OX4-SRSoftware version number:	ORYX F/W v4.00 Oryx Data Collector v3.7.2.0data status	okinstallation	princeton_trtdifferential loss correction	single-endedforward channel	channel 1reverse channel	N/Adate	2019/09/19time	09:58:35forward acquisition time	60.00reverse acquisition time	0.00gamma	496.2192k internal	0.2339k external	0.2339temperature offset calibration	1.0005default loss term (dB/km)	0.3790temperature slope calibration	1.0000multiplexer offset coefficient	1.0000multiplexer slope coefficient	1.0000fibre end	0.00T internal ref (°C)	23.69T ext. ref 1 (°C)	0.66T ext. ref 2 (°C)	19.35length (m)	temperature (°C)	Stokes	anti-Stokes-747.200	-177.532	0.289	0.007
-746.185	800.000	0.034	0.106
-745.171	68.978	0.126	-0.130
-744.156	-58.078	0.093	0.041
-743.142	-200.000	-0.008	0.227
-742.127	11.234	0.097	-0.075
-741.112	-115.682	-0.140	-0.026
-740.098	-136.299	-0.321	0.038
-739.083	-52.137	0.365	-0.170
-738.069	-119.920	-0.248	0.043
-737.054	304.406	0.073	0.136
-736.039	-171.619	-0.589	0.020
-735.025	-108.008	0.324	0.070
-734.010	-108.912	-0.447	-0.096
-732.996	800.000	0.074	-0.256
-731.981	-45.336	-0.083	0.041
-730.966	87.220	-0.088	0.097
-729.952	-136.412	-0.284	0.033
-728.937	-33.136	0.195	0.108
-727.923	716.169	-0.068	0.181
-726.908	-200.000	0.012	0.101
-725.894	-106.690	0.078	-0.017
-724.879	800.000	0.147	0.414
-723.864	-104.839	-0.164	-0.038
-722.850	-88.658	-0.295	0.088
-721.835	-140.742	-0.147	0.015
-720.821	-40.736	0.257	-0.134
-719.806	183.484	-0.214	-0.317
-718.791	308.796	-0.142	-0.265
-717.777	-81.733	-0.012	-0.004
-716.762	-200.000	-0.010	-0.054
-715.748	-70.746	-0.059	-0.022
-714.733	68.513	-0.088	0.091
-713.718	-200.000	0.004	-0.290
-712.704	800.000	-0.051	0.141
-711.689	-200.000	0.000	0.145
-710.675	-200.000	0.035	-0.433
-709.660	-77.245	-0.322	-0.112
-708.645	-96.378	0.228	-0.060
-707.631	-118.977	0.115	-0.020
-706.616	-29.090	-0.229	-0.132
-705.602	12.309	0.237	-0.183
-704.587	-108.821	-0.124	0.027
-703.572	-85.926	-0.166	-0.052
-702.558	-145.515	-0.071	0.006
-701.543	781.558	0.080	-0.219
-700.529	15.602	-0.311	0.244
-699.514	-95.837	0.429	-0.115
-698.499	43.676	-0.140	-0.128
-697.485	296.346	0.076	-0.140
-696.470	487.822	-0.039	0.089
-695.456	-200.000	-0.047	0.411
-694.441	43.858	0.181	0.166
-693.426	-67.164	-0.097	-0.038
-692.412	-200.000	-0.010	-0.058
-691.397	0.943	0.244	-0.175
-690.383	9.028	0.053	0.040
-689.368	-140.230	0.188	-0.020
-688.354	-86.720	0.222	0.068
-687.339	-200.000	-0.003	-0.295
-686.324	34.965	-0.161	0.141
-685.310	-63.854	-0.404	0.165
-684.295	-133.639	0.192	0.024
-683.281	800.000	0.026	0.100
-682.266	-177.796	0.362	0.009
-681.251	12.803	0.073	0.056
-680.237	152.680	-0.162	-0.221
-679.222	53.366	0.164	-0.158
-678.208	-200.000	0.006	0.422
-677.193	281.354	0.054	0.097
-676.178	32.892	-0.083	-0.072
-675.164	-200.000	0.018	-0.154
-674.149	-40.130	-0.180	-0.094
-673.135	102.613	0.072	0.084
-672.120	-122.705	-0.083	0.013
-671.105	800.000	0.022	-0.077
-670.091	-200.000	-0.007	0.216
-669.076	61.128	0.034	-0.033
-668.062	-195.631	-0.321	0.002
-667.047	126.804	-0.215	0.272
-666.032	317.189	0.128	0.242
-665.018	66.477	-0.080	-0.081
-664.003	-91.309	0.146	-0.042
-662.989	625.547	0.114	-0.287
-661.974	-5.881	-0.173	0.118
-660.959	800.000	0.091	0.348
-659.945	187.682	0.146	-0.218
-658.930	800.000	0.055	-0.219
-657.916	-79.889	-0.181	0.061
-656.901	-74.451	-0.414	-0.149
-655.886	-72.880	0.139	-0.051
-654.872	199.889	-0.100	-0.154
-653.857	-44.650	-0.427	0.213
-652.843	-200.000	-0.012	0.186
-651.828	763.612	-0.097	0.262
-650.814	367.738	0.211	-0.426
-649.799	-101.407	-0.356	0.087
-648.784	-200.000	0.011	0.422
-647.770	-136.273	0.246	0.029
-646.755	20.498	-0.269	0.217
-645.741	22.710	-0.032	0.026
-644.726	-192.488	0.041	-0.000
-643.711	-16.264	-0.104	-0.066
-642.697	-110.600	-0.280	0.058
-641.682	164.084	-0.150	0.211
-640.668	335.331	0.206	-0.399
-639.653	-200.000	0.024	-0.158
-638.638	32.912	-0.187	-0.162
-637.624	800.000	0.053	-0.210
-636.609	-42.052	-0.109	-0.056
-635.595	321.519	0.173	-0.329
-634.580	-200.000	0.014	0.238
-633.565	-102.631	0.293	-0.070
-632.551	-200.000	0.026	0.126
-631.536	-172.577	-0.201	0.006
-630.522	-200.000	-0.056	-0.279
-629.507	97.032	-0.283	-0.324
-628.492	-56.288	0.234	-0.104
-627.478	-200.000	0.052	-0.323
-626.463	29.956	0.119	-0.101
-625.449	42.259	-0.072	-0.066
-624.434	247.398	-0.133	-0.224
-623.419	-49.362	-0.328	-0.156
-622.405	-97.516	-0.110	-0.028
-621.390	-42.473	0.077	0.039
-620.376	-117.545	-0.219	0.039
-619.361	-20.800	0.319	-0.195
-618.346	-62.960	-0.385	-0.159
-617.332	-2.466	0.409	0.286
-616.317	-5.076	0.168	-0.116
-615.303	800.000	-0.083	-0.351
-614.288	-131.843	-0.195	-0.025
-613.273	387.008	-0.119	0.246
-612.259	55.771	-0.164	0.158
-611.244	-151.474	-0.397	-0.029
-610.230	-200.000	0.062	-0.284
-609.215	-112.130	0.575	0.115
-608.201	-81.054	-0.357	-0.118
-607.186	21.533	0.123	0.100
-606.171	145.964	0.169	0.226
-605.157	-200.000	-0.079	0.462
-604.142	-200.000	0.031	0.217
-603.128	-137.821	-0.346	0.039
-602.113	11.587	-0.093	0.071
-601.098	141.584	-0.007	-0.009
-600.084	-200.000	0.010	-0.090
-599.069	98.479	-0.302	0.347
-598.055	362.620	-0.068	0.136
-597.040	384.488	0.130	-0.267
-596.025	311.721	0.188	-0.352
-595.011	-56.809	0.052	0.023
-593.996	-81.894	0.122	-0.040
-592.982	800.000	-0.031	0.110
-591.967	201.747	-0.036	0.055
-590.952	586.983	0.042	-0.102
-589.938	-49.841	0.057	0.027
-588.923	160.940	0.215	0.299
-587.909	-91.683	-0.251	0.071
-586.894	-140.463	0.257	0.027
-585.879	-17.413	0.101	0.063
-584.865	-200.000	0.017	-0.271
-583.850	87.876	-0.168	0.186
-582.836	101.947	0.069	-0.080
-581.821	-200.000	0.032	0.266
-580.806	-89.171	-0.319	-0.094
-579.792	255.707	-0.035	-0.060
-578.777	-90.643	0.228	0.066
-577.763	800.000	-0.060	0.171
-576.748	24.793	-0.276	-0.228
-575.733	153.010	-0.170	0.232
-574.719	-111.150	0.187	0.038
-573.704	-200.000	-0.052	-0.276
-572.690	27.790	0.041	-0.034
-571.675	-128.868	-0.143	-0.020
-570.661	94.974	-0.157	0.178
-569.646	81.428	0.213	-0.230
-568.631	98.403	-0.179	-0.206
-567.617	86.937	-0.155	-0.171
-566.602	53.391	0.128	-0.122
-565.588	-100.673	0.359	-0.088
-564.573	199.863	-0.096	0.147
-563.558	205.246	-0.121	-0.187
-562.544	-200.000	-0.075	-0.346
-561.529	800.000	0.054	-0.205
-560.515	-35.897	-0.128	0.069
-559.500	142.289	-0.086	0.113
-558.485	-41.436	0.066	0.034
-557.471	98.461	0.192	-0.221
-556.456	141.713	0.222	-0.293
-555.442	-48.637	-0.158	0.075
-554.427	800.000	-0.099	-0.342
-553.412	628.711	-0.014	-0.036
-552.398	173.239	0.128	0.184
-551.383	26.121	-0.287	-0.238
-550.369	-200.000	0.025	-0.142
-549.354	-142.104	0.416	0.041
-548.339	26.719	0.158	0.132
-547.325	-101.665	0.169	-0.041
-546.310	-108.853	0.269	0.057
-545.296	21.493	-0.024	-0.020
-544.281	-200.000	-0.075	-0.352
-543.266	244.461	0.127	0.213
-542.252	800.000	-0.046	-0.158
-541.237	108.339	-0.039	-0.047
-540.223	-41.739	0.077	-0.040
-539.208	800.000	-0.056	0.222
-538.193	-200.000	-0.003	0.196
-537.179	296.690	-0.136	0.249
-536.164	-127.030	-0.127	-0.019
-535.150	-78.426	-0.253	0.086
-534.135	354.559	0.179	0.355
-533.121	355.784	0.036	0.072
-532.106	-200.000	-0.037	-0.164
-531.091	-200.000	-0.001	0.123
-530.077	-78.269	0.048	0.016
-529.062	-131.017	0.080	0.011
-528.048	-200.000	-0.035	-0.168
-527.033	-200.000	-0.011	-0.281
-526.018	800.000	-0.047	0.202
-525.004	-200.000	-0.039	0.245
-523.989	-19.836	0.296	0.182
-522.975	-86.470	0.304	-0.093
-521.960	-84.231	-0.310	-0.098
-520.945	-121.870	-0.163	-0.027
-519.931	150.429	0.058	-0.078
-518.916	-200.000	0.002	-0.386
-517.902	43.069	-0.223	0.202
-516.887	-140.515	-0.239	0.025
-515.872	-53.749	0.187	-0.085
-514.858	-53.467	-0.214	0.097
-513.843	-18.871	-0.291	0.180
-512.829	-62.661	-0.096	0.040
-511.814	-200.000	0.032	0.195
-510.799	-200.000	-0.013	0.460
-509.785	-200.000	0.002	-0.308
-508.770	-84.596	0.181	-0.057
-507.756	800.000	0.049	0.142
-506.741	-49.323	0.217	0.103
-505.726	-200.000	-0.005	0.053
-504.712	321.850	0.085	0.161
-503.697	443.263	-0.069	-0.151
-502.683	252.720	0.120	-0.204
-501.668	223.831	-0.173	-0.277
-500.653	-170.766	-0.146	-0.005
-499.639	-200.000	-0.014	-0.078
-498.624	505.058	-0.069	-0.158
-497.610	401.106	-0.172	0.360
-496.595	-114.914	0.186	-0.035
-495.581	-96.680	-0.467	-0.122
-494.566	-200.000	-0.019	0.305
-493.551	460.897	-0.141	-0.311
-492.537	67.177	0.244	-0.247
-491.522	-23.574	-0.271	-0.161
-490.508	800.000	0.051	0.205
-489.493	-74.732	-0.229	0.082
-488.478	-200.000	-0.007	-0.125
-487.464	-83.902	-0.240	-0.076
-486.449	398.206	-0.090	-0.187
-485.435	63.722	0.032	0.032
-484.420	55.481	-0.100	0.096
-483.405	5.194	0.318	-0.233
-482.391	-135.715	-0.148	-0.017
-481.376	-90.101	0.345	0.100
-480.362	-124.333	-0.193	0.030
-479.347	46.720	0.180	-0.166
-478.332	-165.702	0.164	-0.007
-477.318	-96.421	0.200	-0.052
-476.303	-63.676	-0.168	-0.068
-475.289	-5.511	-0.189	-0.129
-474.274	-75.098	0.221	-0.078
-473.259	-200.000	0.061	-0.269
-472.245	194.843	-0.109	0.164
-471.230	125.145	0.163	-0.204
-470.216	0.254	-0.206	-0.146
-469.201	-78.480	0.288	-0.098
-468.186	-200.000	-0.002	0.110
-467.172	-58.523	-0.067	0.029
-466.157	153.805	-0.234	0.318
-465.143	-8.670	0.341	0.227
-464.128	-47.226	-0.416	-0.201
-463.113	-200.000	0.038	0.245
-462.099	800.000	0.056	0.206
-461.084	-200.000	-0.031	0.229
-460.070	150.587	0.121	-0.163
-459.055	-115.730	0.354	0.066
-458.040	53.147	-0.145	0.138
-457.026	800.000	-0.047	0.140
-456.011	41.180	0.211	0.189
-454.997	178.755	-0.366	0.530
-453.982	340.136	-0.213	0.412
-452.968	-200.000	-0.006	-0.115
-451.953	-53.584	-0.221	0.100
-450.938	38.980	0.303	-0.269
-449.924	-171.581	0.251	-0.008
-448.909	800.000	-0.049	0.179
-447.895	-164.640	-0.137	0.006
-446.880	401.782	0.140	-0.291
-445.865	-200.000	-0.000	-0.259
-444.851	-186.324	-0.210	-0.003
-443.836	471.816	0.005	-0.010
-442.822	174.488	-0.258	-0.370
-441.807	-104.901	-0.232	0.053
-440.792	-200.000	0.014	0.199
-439.778	-3.079	0.067	-0.046
-438.763	31.237	0.128	0.109
-437.749	-200.000	-0.006	-0.145
-436.734	-43.278	-0.159	-0.080
-435.719	22.551	0.319	0.259
-434.705	112.606	0.069	0.083
-433.690	171.579	0.119	-0.169
-432.676	800.000	-0.004	0.012
-431.661	-200.000	0.028	-0.432
-430.646	-200.000	-0.003	0.159
-429.632	226.666	0.078	0.126
-428.617	-124.391	-0.104	0.016
-427.603	800.000	-0.058	-0.181
-426.588	-200.000	0.009	0.226
-425.573	75.896	-0.049	0.051
-424.559	110.414	0.358	0.426
-423.544	-161.612	-0.177	-0.009
-422.530	-43.830	0.042	0.021
-421.515	-200.000	-0.008	0.204
-420.500	-99.345	-0.333	0.083
-419.486	66.638	0.336	0.338
-418.471	-47.985	-0.187	-0.089
-417.457	255.811	0.115	0.195
-416.442	-48.164	0.374	0.179
-415.428	69.513	0.079	-0.081
-414.413	-64.411	0.190	-0.077
-413.398	98.517	0.198	0.226
-412.384	-200.000	-0.051	0.225
-411.369	-50.087	0.213	0.100
-410.355	-124.715	-0.019	-0.003
-409.340	4.895	-0.166	0.121
-408.325	126.764	-0.160	0.200
-407.311	-7.564	-0.127	-0.085
-406.296	120.347	-0.228	0.281
-405.282	-50.052	0.338	0.158
-404.267	-170.488	0.164	-0.006
-403.252	-136.459	-0.100	-0.012
-402.238	-70.428	0.070	0.026
-401.223	241.494	0.133	0.220
-400.209	13.773	-0.242	-0.186
-399.194	177.952	0.131	0.189
-398.179	502.606	0.194	-0.445
-397.165	-121.576	-0.218	-0.036
-396.150	0.227	-0.296	-0.209
-395.136	87.544	-0.190	0.208
-394.121	22.830	0.190	-0.154
-393.106	-200.000	-0.004	0.172
-392.092	-137.747	0.158	-0.018
-391.077	-39.332	-0.009	-0.005
-390.063	-82.595	0.264	0.085
-389.048	-38.432	0.165	0.086
-388.033	-83.890	0.192	-0.060
-387.019	800.000	0.084	-0.360
-386.004	-115.730	-0.252	-0.047
-384.990	-18.669	0.366	-0.226
-383.975	101.533	-0.217	-0.250
-382.960	-119.498	-0.443	0.076
-381.946	67.011	-0.297	-0.299
-380.931	11.258	0.061	0.047
-379.917	25.745	0.154	0.127
-378.902	-158.947	0.144	-0.008
-377.888	5.442	-0.231	-0.168
-376.873	800.000	0.131	-0.452
-375.858	-200.000	0.015	0.399
-374.844	-33.312	0.241	0.132
-373.829	-200.000	-0.017	0.162
-372.815	-65.656	-0.226	-0.090
-371.800	-200.000	0.007	-0.087
-370.785	-8.587	-0.213	-0.141
-369.771	60.464	0.169	0.166
-368.756	-62.058	0.309	0.128
-367.742	-200.000	0.020	0.193
-366.727	-200.000	-0.011	-0.051
-365.712	-66.993	-0.300	-0.117
-364.698	-81.455	0.189	0.061
-363.683	317.361	-0.139	0.260
-362.669	148.913	0.069	0.092
-361.654	107.638	0.113	0.133
-360.639	-146.904	0.083	0.007
-359.625	-26.462	-0.160	0.093
-358.610	124.797	0.146	0.181
-357.596	-173.065	-0.104	-0.003
-356.581	166.635	0.117	-0.164
-355.566	95.944	-0.143	0.161
-354.552	43.870	0.099	0.090
-353.537	-111.496	0.385	0.077
-352.523	-116.894	-0.289	-0.052
-351.508	-6.681	-0.064	0.043
-350.493	255.245	0.087	-0.146
-349.479	-30.083	0.142	-0.080
-348.464	-200.000	0.004	-0.371
-347.450	115.906	-0.005	-0.007
-346.435	-170.142	-0.176	-0.006
-345.420	800.000	-0.027	0.080
-344.406	-52.952	-0.149	0.068
-343.391	225.801	0.121	-0.194
-342.377	-200.000	0.007	-0.034
-341.362	117.162	0.043	-0.052
-340.348	41.374	0.227	-0.202
-339.333	656.882	-0.080	0.202
-338.318	-188.199	0.218	0.003
-337.304	6.073	-0.081	-0.060
-336.289	357.276	-0.024	-0.047
-335.275	457.392	-0.088	-0.193
-334.260	-131.173	-0.357	-0.047
-333.245	151.118	0.036	0.048
-332.231	800.000	-0.029	0.107
-331.216	768.928	-0.109	-0.294
-330.202	-62.147	-0.236	-0.097
-329.187	-200.000	0.114	-0.000
-328.172	-86.436	-0.133	0.040
-327.158	-200.000	-0.014	0.593
-326.143	800.000	-0.042	-0.153
-325.129	-117.797	-0.206	0.036
-324.114	-200.000	-0.045	0.284
-323.099	662.155	0.041	0.104
-322.085	-82.299	0.340	0.109
-321.070	-131.775	0.253	0.033
-320.056	-66.568	-0.168	0.066
-319.041	-200.000	0.015	0.159
-318.026	98.294	-0.090	0.102
-317.012	-200.000	-0.072	0.340
-315.997	-190.365	0.462	-0.005
-314.983	800.000	0.050	-0.149
-313.968	-116.305	-0.356	0.065
-312.953	493.330	-0.188	0.424
-311.939	-140.730	-0.267	-0.027
-310.924	51.386	-0.119	0.111
-309.910	-187.035	0.354	0.005
-308.895	-200.000	0.007	0.047
-307.880	726.740	-0.200	0.526
-306.866	-78.412	-0.104	0.035
-305.851	-15.807	0.169	-0.106
-304.837	800.000	-0.191	-0.600
-303.822	800.000	0.076	0.269
-302.807	277.581	0.003	0.005
-301.793	9.357	-0.166	0.124
-300.778	228.824	-0.027	-0.043
-299.764	155.417	0.148	0.201
-298.749	190.488	0.103	0.152
-297.735	81.188	0.125	0.133
-296.720	99.376	-0.191	-0.218
-295.705	93.359	-0.103	0.115
-294.691	-59.514	0.038	0.016
-293.676	160.157	0.111	0.153
-292.662	65.228	0.330	0.328
-291.647	-45.221	0.198	0.097
-290.632	-200.000	-0.039	0.473
-289.618	-84.001	0.191	0.060
-288.603	148.733	0.196	-0.262
-287.589	-200.000	-0.003	-0.114
-286.574	-93.268	0.247	0.067
-285.559	-103.776	0.355	0.082
-284.545	800.000	-0.104	0.298
-283.530	14.871	0.108	-0.083
-282.516	16.416	0.110	0.085
-281.501	-83.178	-0.395	-0.125
-280.486	-200.000	-0.002	-0.261
-279.472	-46.557	0.300	-0.145
-278.457	426.126	0.111	-0.236
-277.443	-200.000	0.024	-0.289
-276.428	-43.107	0.066	-0.033
-275.413	90.031	-0.067	0.074
-274.399	6.673	0.158	-0.116
-273.384	19.869	-0.123	0.098
-272.370	664.983	-0.049	-0.124
-271.355	221.385	0.174	-0.275
-270.340	369.335	-0.196	-0.390
-269.326	-192.910	-0.243	-0.002
-268.311	800.000	-0.078	0.257
-267.297	-118.025	0.412	0.072
-266.282	26.981	0.089	-0.074
-265.267	180.340	0.109	-0.157
-264.253	-39.097	-0.143	0.074
-263.238	315.580	0.126	0.234
-262.224	-24.682	0.093	0.055
-261.209	-2.267	0.254	0.176
-260.195	-91.178	0.218	0.062
-259.180	143.680	0.280	0.367
-258.165	-130.483	0.220	-0.029
-257.151	266.033	0.217	0.373
-256.136	-49.752	0.233	0.109
-255.122	238.128	-0.225	-0.368
-254.107	800.000	0.022	-0.071
-253.092	-140.902	0.045	-0.005
-252.078	70.893	0.082	0.083
-251.063	800.000	0.099	-0.323
-250.049	80.324	-0.262	-0.277
-249.034	-96.363	0.164	0.043
-248.019	-200.000	0.009	-0.104
-247.005	-81.404	-0.357	0.115
-245.990	-12.991	0.245	-0.157
-244.976	-200.000	0.024	-0.251
-243.961	-36.423	-0.125	-0.066
-242.946	-75.746	-0.298	0.104
-241.932	235.530	0.106	-0.173
-240.917	55.633	-0.341	-0.325
-239.903	160.261	-0.164	-0.225
-238.888	-200.000	-0.049	0.210
-237.873	-200.000	-0.062	0.413
-236.859	561.155	0.101	-0.241
-235.844	17.446	0.148	-0.116
-234.830	220.425	-0.132	0.208
-233.815	5.444	-0.169	-0.123
-232.800	148.193	-0.129	0.172
-231.786	-130.857	0.107	0.014
-230.771	-4.610	-0.145	-0.098
-229.757	512.475	0.065	-0.148
-228.742	-26.842	0.163	0.094
-227.727	-200.000	0.050	-0.288
-226.713	-28.229	-0.239	-0.136
-225.698	180.146	-0.147	-0.212
-224.684	-61.944	0.346	-0.142
-223.669	115.617	0.266	0.320
-222.655	70.346	-0.307	-0.312
-221.640	153.651	0.229	0.308
-220.625	466.759	-0.080	-0.177
-219.611	800.000	-0.068	0.227
-218.596	-167.367	0.363	-0.014
-217.582	-98.681	-0.118	0.029
-216.567	-94.093	-0.283	0.076
-215.552	-200.000	0.019	0.100
-214.538	97.385	0.272	0.307
-213.523	579.097	-0.206	0.496
-212.509	-200.000	-0.047	-0.206
-211.494	-99.444	0.032	0.008
-210.479	103.296	0.136	-0.157
-209.465	-154.369	-0.057	-0.004
-208.450	-134.556	-0.208	0.025
-207.436	-29.621	0.205	-0.115
-206.421	92.851	0.074	-0.082
-205.406	-200.000	-0.028	0.240
-204.392	-72.712	-0.248	-0.090
-203.377	111.598	-0.105	0.125
-202.363	-200.000	0.030	-0.173
-201.348	54.595	0.334	0.316
-200.333	410.022	-0.075	0.156
-199.319	317.986	-0.095	-0.177
-198.304	-110.911	0.182	0.037
-197.290	520.023	-0.087	-0.201
-196.275	-200.000	-0.020	-0.328
-195.260	-200.000	-0.015	-0.373
-194.246	138.365	-0.216	-0.279
-193.231	800.000	-0.103	0.346
-192.217	-200.000	0.043	0.413
-191.202	50.376	-0.165	-0.153
-190.187	-200.000	-0.038	-0.323
-189.173	90.215	0.311	0.342
-188.158	800.000	0.063	-0.212
-187.144	54.766	-0.160	-0.151
-186.129	-176.700	0.145	-0.004
-185.114	-56.667	-0.153	-0.066
-184.100	-88.298	0.238	0.070
-183.085	63.997	0.101	-0.099
-182.071	-200.000	0.021	0.320
-181.056	62.017	0.125	0.123
-180.042	385.192	-0.038	0.077
-179.027	-158.957	-0.045	0.002
-178.012	-200.000	-0.050	0.230
-176.998	800.000	-0.024	0.070
-175.983	-132.063	0.327	-0.042
-174.969	483.748	0.034	-0.075
-173.954	-124.087	0.091	-0.014
-172.939	357.900	0.144	-0.282
-171.925	-200.000	-0.002	-0.383
-170.910	164.355	0.109	0.151
-169.896	-35.937	-0.264	-0.140
-168.881	-70.909	-0.056	0.021
-167.866	-78.796	0.072	-0.024
-166.852	-97.624	0.188	0.048
-165.837	800.000	0.052	-0.198
-164.823	-143.242	-0.293	0.028
-163.808	79.587	0.027	-0.028
-162.793	800.000	0.095	-0.264
-161.779	289.404	-0.129	-0.229
-160.764	689.518	-0.055	0.142
-159.750	-200.000	0.008	0.388
-158.735	189.736	-0.055	-0.081
-157.720	419.674	0.195	-0.410
-156.706	684.774	-0.067	-0.171
-155.691	-180.241	-0.271	-0.006
-154.677	-53.843	-0.318	-0.142
-153.662	-4.094	-0.161	-0.109
-152.647	-35.158	-0.174	0.093
-151.633	-137.400	0.146	-0.016
-150.618	619.708	-0.071	0.174
-149.604	45.803	0.045	-0.041
-148.589	-86.520	-0.183	-0.055
-147.574	-19.439	0.154	-0.094
-146.560	-98.881	0.464	0.116
-145.545	24.108	-0.180	0.146
-144.531	-46.057	0.197	0.095
-143.516	-200.000	-0.005	0.132
-142.502	-39.113	0.169	-0.087
-141.487	-104.528	0.200	-0.045
-140.472	-49.456	-0.229	0.107
-139.458	137.147	-0.077	-0.099
-138.443	-200.000	-0.021	-0.216
-137.429	432.620	-0.128	-0.271
-136.414	-200.000	-0.060	0.328
-135.399	-108.329	0.208	-0.044
-134.385	161.129	-0.077	0.105
-133.370	257.291	-0.186	0.313
-132.356	-154.753	0.049	-0.003
-131.341	-151.995	0.097	-0.007
-130.326	-27.215	0.106	0.060
-129.312	169.479	-0.117	0.163
-128.297	-97.323	0.426	0.109
-127.283	-200.000	-0.001	0.109
-126.268	54.012	0.146	-0.138
-125.253	-77.597	-0.391	0.133
-124.239	-200.000	-0.002	0.308
-123.224	98.192	0.184	0.207
-122.210	-144.020	-0.250	0.023
-121.195	32.768	0.149	-0.126
