DTS Sentinel unit serial number:	SN413079Multiplexer serial number:	ORYXHardware model number:	OX4-SRSoftware version number:	ORYX F/W v4.00 Oryx Data Collector v3.7.2.0data status	okinstallation	princeton_trtdifferential loss correction	single-endedforward channel	channel 1reverse channel	N/Adate	2019/09/13time	21:10:35forward acquisition time	60.00reverse acquisition time	0.00gamma	496.2192k internal	0.2331k external	0.2331temperature offset calibration	1.0089default loss term (dB/km)	0.3790temperature slope calibration	1.0000multiplexer offset coefficient	1.0000multiplexer slope coefficient	1.0000fibre end	0.00T internal ref (°C)	28.50T ext. ref 1 (°C)	3.25T ext. ref 2 (°C)	23.14length (m)	temperature (°C)	Stokes	anti-Stokes-747.200	16.510	0.130	0.103
-746.185	-56.643	-0.146	0.065
-745.171	-28.069	-0.173	0.101
-744.156	256.450	-0.141	0.243
-743.142	96.040	0.117	0.134
-742.127	234.911	-0.201	0.333
-741.112	-200.000	-0.039	0.193
-740.098	424.109	-0.045	0.097
-739.083	-157.030	-0.099	-0.006
-738.069	-91.183	-0.239	0.069
-737.054	800.000	-0.054	0.181
-736.039	-67.156	-0.059	0.023
-735.025	800.000	0.015	-0.055
-734.010	25.839	-0.355	-0.298
-732.996	150.292	-0.153	-0.209
-731.981	800.000	0.043	0.168
-730.966	-70.954	-0.346	0.131
-729.952	194.717	-0.237	-0.361
-728.937	-19.414	-0.080	-0.050
-727.923	172.636	-0.152	-0.220
-726.908	-135.242	-0.151	0.018
-725.894	644.756	0.104	-0.268
-724.879	756.570	-0.193	0.525
-723.864	118.744	-0.110	0.136
-722.850	-34.953	-0.072	0.040
-721.835	-200.000	-0.001	0.129
-720.821	-43.206	-0.116	0.059
-719.806	327.532	-0.172	-0.332
-718.791	211.473	0.197	-0.311
-717.777	31.357	0.138	0.119
-716.762	-200.000	-0.027	-0.240
-715.748	-36.749	-0.133	0.072
-714.733	279.419	0.058	0.104
-713.718	1.046	-0.076	-0.055
-712.704	-92.212	-0.316	-0.090
-711.689	-154.873	-0.175	-0.012
-710.675	-200.000	0.004	0.160
-709.660	504.241	-0.074	-0.172
-708.645	223.120	0.155	-0.251
-707.631	16.929	-0.123	-0.098
-706.616	115.375	-0.080	0.099
-705.602	-29.951	0.311	-0.178
-704.587	-163.214	-0.163	-0.008
-703.572	-200.000	-0.090	-0.423
-702.558	701.363	0.101	-0.266
-701.543	-30.693	0.150	-0.085
-700.529	333.065	0.119	0.230
-699.514	800.000	-0.063	-0.233
-698.499	-200.000	0.028	-0.263
-697.485	800.000	-0.007	-0.024
-696.470	187.830	0.145	0.218
-695.456	-151.280	-0.412	-0.031
-694.441	85.921	0.229	0.253
-693.426	-200.000	-0.006	-0.122
-692.412	-200.000	-0.007	-0.075
-691.397	141.771	-0.073	0.097
-690.383	-71.386	0.147	0.055
-689.368	8.146	-0.306	-0.231
-688.354	71.070	0.286	0.297
-687.339	-33.061	0.037	0.020
-686.324	-155.217	-0.145	0.010
-685.310	29.364	0.340	0.290
-684.295	-37.422	0.255	0.137
-683.281	4.772	-0.176	-0.130
-682.266	-200.000	-0.018	-0.090
-681.251	-93.973	0.248	-0.069
-680.237	504.358	-0.087	-0.202
-679.222	800.000	0.082	-0.272
-678.208	-39.738	-0.323	0.170
-677.193	-107.690	0.162	0.035
-676.178	-96.746	-0.480	0.127
-675.164	566.277	-0.051	-0.123
-674.149	800.000	-0.101	-0.332
-673.135	32.686	0.158	-0.138
-672.120	-57.193	-0.432	-0.191
-671.105	-93.367	0.113	0.031
-670.091	-153.546	0.355	0.025
-669.076	-1.032	-0.302	-0.214
-668.062	673.460	0.095	-0.247
-667.047	-200.000	0.021	-0.304
-666.032	-105.258	-0.088	-0.020
-665.018	-200.000	0.022	-0.140
-664.003	-58.841	-0.174	0.076
-662.989	754.873	-0.173	-0.470
-661.974	-109.566	-0.267	-0.057
-660.959	-101.880	-0.247	0.060
-659.945	-98.195	-0.363	-0.094
-658.930	-200.000	-0.026	-0.287
-657.916	-200.000	-0.059	0.387
-656.901	47.170	0.102	-0.095
-655.886	-200.000	-0.030	-0.166
-654.872	-200.000	0.014	-0.224
-653.857	-131.579	-0.215	0.028
-652.843	0.214	-0.164	0.117
-651.828	-10.154	-0.124	-0.083
-650.814	-124.552	-0.237	0.037
-649.799	11.100	-0.070	0.054
-648.784	-167.299	-0.221	-0.009
-647.770	-200.000	-0.041	0.259
-646.755	697.469	0.057	-0.150
-645.741	58.288	0.089	0.088
-644.726	800.000	-0.077	0.269
-643.711	-200.000	-0.018	-0.325
-642.697	800.000	-0.032	0.137
-641.682	340.948	0.044	-0.086
-640.668	-115.005	-0.468	0.089
-639.653	-131.530	0.129	-0.017
-638.638	40.821	0.072	-0.065
-637.624	800.000	-0.105	-0.386
-636.609	124.892	0.139	-0.176
-635.595	-12.628	-0.347	0.227
-634.580	296.345	-0.132	0.243
-633.565	15.003	0.266	-0.209
-632.551	-112.960	0.537	0.106
-631.536	-91.785	0.183	0.052
-630.522	546.906	-0.044	0.105
-629.507	-130.627	-0.197	0.027
-628.492	26.145	-0.023	0.019
-627.478	0.807	-0.067	0.048
-626.463	-69.987	0.188	-0.072
-625.449	-200.000	0.004	0.230
-624.434	-76.984	-0.214	0.075
-623.419	-137.463	0.202	-0.023
-622.405	-42.582	-0.288	0.147
-621.390	-143.969	0.103	0.010
-620.376	-19.009	-0.271	-0.169
-619.361	-200.000	-0.043	-0.260
-618.346	191.488	-0.088	0.133
-617.332	-12.068	0.289	-0.190
-616.317	-9.791	0.072	0.048
-615.303	800.000	-0.038	0.128
-614.288	-200.000	-0.012	0.079
-613.273	-115.915	0.112	-0.021
-612.259	173.628	0.167	-0.242
-611.244	-60.040	-0.175	-0.075
-610.230	-95.559	-0.225	0.060
-609.215	-126.211	0.084	-0.013
-608.201	-61.097	-0.053	-0.022
-607.186	-49.558	0.132	0.063
-606.171	15.352	0.122	0.096
-605.157	-200.000	0.023	-0.161
-604.142	-150.952	0.321	-0.024
-603.128	87.936	-0.153	-0.170
-602.113	280.859	0.100	-0.180
-601.098	34.137	-0.206	-0.180
-600.084	732.560	-0.051	-0.137
-599.069	514.632	-0.046	-0.108
-598.055	37.010	0.099	-0.088
-597.040	-141.917	-0.167	0.017
-596.025	-62.804	-0.103	-0.043
-595.011	-127.080	0.238	-0.035
-593.996	800.000	-0.074	-0.272
-592.982	-16.855	0.183	-0.116
-591.967	-97.766	0.329	0.085
-590.952	448.910	-0.132	-0.291
-589.938	800.000	-0.065	-0.194
-588.923	91.792	-0.142	0.160
-587.909	186.422	0.151	0.224
-586.894	-200.000	0.033	-0.411
-585.879	6.052	-0.110	0.082
-584.865	655.589	0.053	-0.136
-583.850	496.723	-0.050	0.115
-582.836	-78.014	-0.141	-0.049
-581.821	-200.000	-0.011	-0.152
-580.806	800.000	0.029	-0.123
-579.792	21.767	0.020	-0.016
-578.777	-108.816	-0.208	0.044
-577.763	45.342	-0.127	0.117
-576.748	-8.527	-0.109	-0.074
-575.733	-200.000	-0.216	0.001
-574.719	19.000	0.116	-0.093
-573.704	-103.456	-0.123	0.029
-572.690	-60.553	-0.159	-0.068
-571.675	-122.917	0.186	-0.030
-570.661	319.893	-0.111	-0.210
-569.646	171.692	0.089	-0.127
-568.631	-62.429	-0.149	0.062
-567.617	-26.810	-0.301	-0.176
-566.602	486.174	0.017	0.040
-565.588	-20.356	-0.100	-0.062
-564.573	-200.000	0.024	-0.180
-563.558	-200.000	0.009	-0.084
-562.544	70.634	-0.224	-0.231
-561.529	800.000	0.067	-0.198
-560.515	-102.195	0.162	-0.039
-559.500	162.708	-0.252	-0.353
-558.485	121.312	-0.106	0.133
-557.471	-1.193	0.051	-0.036
-556.456	82.901	0.230	0.250
-555.442	-121.723	-0.493	-0.081
-554.427	46.486	0.025	-0.023
-553.412	-40.297	0.168	-0.087
-552.398	48.484	-0.094	0.088
-551.383	-200.000	0.030	0.285
-550.369	-133.474	-0.068	0.008
-549.354	316.225	-0.084	-0.158
-548.339	15.447	-0.261	0.204
-547.325	-36.278	0.077	0.041
-546.310	27.763	0.282	0.237
-545.296	156.090	-0.139	0.192
-544.281	-25.462	-0.180	-0.107
-543.266	-94.155	-0.174	0.048
-542.252	-51.197	0.377	0.176
-541.237	290.210	0.133	0.242
-540.223	192.080	-0.059	0.089
-539.208	209.620	-0.142	-0.222
-538.193	-67.953	0.185	0.072
-537.179	-44.964	0.171	-0.085
-536.164	111.913	0.164	0.198
-535.150	432.756	-0.199	-0.430
-534.135	-200.000	0.009	-0.277
-533.121	-132.077	0.009	0.001
-532.106	108.873	0.027	0.032
-531.091	26.029	-0.331	-0.275
-530.077	-138.976	-0.136	-0.015
-529.062	174.364	0.093	0.134
-528.048	-97.953	-0.250	0.064
-527.033	-45.480	0.184	-0.091
-526.018	-200.000	0.015	-0.205
-525.004	-200.000	0.008	-0.284
-523.989	-72.652	0.193	0.071
-522.975	-119.412	0.180	0.031
-521.960	2.383	-0.237	0.171
-520.945	333.774	0.013	-0.026
-519.931	325.518	0.059	0.113
-518.916	-200.000	0.015	-0.127
-517.902	649.036	-0.061	0.156
-516.887	81.408	0.186	-0.201
-515.872	609.543	-0.094	0.235
-514.858	-32.918	0.279	0.155
-513.843	-46.751	0.109	0.053
-512.829	-200.000	0.009	0.054
-511.814	-130.795	-0.259	0.035
-510.799	-10.414	0.054	-0.036
-509.785	-47.345	0.321	0.156
-508.770	-82.319	-0.323	-0.105
-507.756	-32.041	-0.609	0.340
-506.741	106.894	0.242	0.287
-505.726	-179.524	-0.300	0.007
-504.712	146.101	-0.141	0.189
-503.697	-200.000	-0.133	0.001
-502.683	-88.338	0.170	0.051
-501.668	97.042	-0.149	0.171
-500.653	-80.279	-0.262	0.087
-499.639	-92.257	0.213	-0.060
-498.624	-54.893	-0.154	0.069
-497.610	-98.408	-0.297	-0.076
-496.595	49.144	0.180	0.169
-495.581	-104.845	-0.383	0.088
-494.566	-55.957	-0.373	-0.166
-493.551	-200.000	0.047	-0.448
-492.537	-60.087	-0.432	-0.184
-491.522	-200.000	0.020	0.098
-490.508	-99.902	0.350	0.087
-489.493	178.848	0.126	-0.184
-488.478	303.382	0.054	-0.101
-487.464	186.656	0.174	-0.258
-486.449	80.209	0.137	-0.147
-485.435	13.668	0.266	0.206
-484.420	20.541	-0.103	0.083
-483.405	-75.560	0.416	0.147
-482.391	182.735	-0.234	-0.343
-481.376	244.983	-0.092	-0.154
-480.362	-200.000	-0.003	-0.095
-479.347	206.241	-0.132	0.205
-478.332	-104.989	0.152	-0.035
-477.318	367.222	0.076	-0.152
-476.303	-54.340	-0.480	-0.217
-475.289	-41.101	0.124	-0.064
-474.274	-53.274	-0.197	0.090
-473.259	800.000	-0.087	-0.308
-472.245	-177.993	-0.482	0.011
-471.230	-117.833	-0.084	-0.015
-470.216	-139.224	-0.149	0.016
-469.201	-200.000	0.008	0.064
-468.186	40.362	0.030	0.027
-467.172	-4.179	0.136	0.094
-466.157	-200.000	-0.008	-0.396
-465.143	-100.847	-0.152	-0.037
-464.128	327.389	0.136	-0.260
-463.113	-200.000	-0.002	-0.175
-462.099	96.241	0.126	-0.144
-461.084	-187.416	-0.244	-0.003
-460.070	144.621	0.092	-0.122
-459.055	800.000	0.082	-0.268
-458.040	116.426	-0.009	0.010
-457.026	-93.746	0.188	-0.052
-456.011	142.916	-0.250	0.331
-454.997	568.055	-0.125	0.302
-453.982	-72.675	0.317	0.116
-452.968	56.033	-0.146	0.141
-451.953	545.627	0.087	-0.207
-450.938	391.760	-0.056	0.116
-449.924	-6.290	0.221	0.150
-448.909	-21.847	-0.140	-0.085
-447.895	-40.056	-0.078	0.040
-446.880	-200.000	-0.025	0.139
-445.865	800.000	0.063	-0.251
-444.851	-128.350	0.413	-0.059
-443.836	-84.244	0.154	-0.048
-442.822	-31.764	0.269	0.150
-441.807	800.000	-0.085	0.259
-440.792	-200.000	-0.035	0.175
-439.778	-79.186	-0.049	-0.017
-438.763	105.099	-0.093	-0.110
-437.749	-103.639	-0.062	-0.014
-436.734	29.925	-0.144	-0.122
-435.719	-151.556	-0.202	-0.015
-434.705	-147.421	0.199	-0.017
-433.690	-200.000	-0.021	0.123
-432.676	-200.000	-0.007	-0.101
-431.661	299.236	-0.076	0.139
-430.646	6.104	0.084	0.062
-429.632	800.000	-0.038	0.144
-428.617	800.000	0.081	0.249
-427.603	-9.123	0.455	0.303
-426.588	328.066	-0.153	0.292
-425.573	-92.965	-0.067	0.019
-424.559	289.899	0.206	-0.372
-423.544	4.752	0.069	0.051
-422.530	14.146	0.188	0.145
-421.515	-99.864	0.403	0.100
-420.500	471.475	0.136	0.303
-419.486	178.382	-0.102	0.147
-418.471	135.597	-0.137	0.178
-417.457	-200.000	-0.004	0.205
-416.442	798.127	0.107	-0.294
-415.428	106.188	0.253	0.298
-414.413	132.746	-0.094	0.120
-413.398	-112.401	0.076	0.015
-412.384	-67.850	-0.118	-0.046
-411.369	29.438	0.066	0.056
-410.355	139.480	0.083	-0.108
-409.340	-180.973	0.254	-0.005
-408.325	-3.477	0.076	-0.052
-407.311	-159.225	0.147	-0.008
-406.296	-13.438	-0.247	0.159
-405.282	-26.604	0.075	-0.044
-404.267	-200.000	0.015	0.194
-403.252	-32.336	-0.207	0.115
-402.238	58.620	0.067	0.065
-401.223	-200.000	-0.030	0.163
-400.209	651.992	-0.078	0.198
-399.194	800.000	-0.067	0.251
-398.179	-95.510	-0.255	-0.068
-397.165	-150.044	-0.241	-0.019
-396.150	-40.187	-0.202	-0.104
-395.136	11.646	-0.276	-0.211
-394.121	-36.909	-0.136	0.072
-393.106	238.924	0.183	-0.302
-392.092	26.779	0.283	0.235
-391.077	397.757	-0.067	0.139
-390.063	-50.988	0.396	-0.185
-389.048	231.102	-0.139	0.226
-388.033	-168.465	-0.168	-0.006
-387.019	-44.636	0.080	-0.040
-386.004	-200.000	-0.004	-0.077
-384.990	-52.361	0.112	0.051
-383.975	38.299	-0.100	0.088
-382.960	-28.575	-0.054	-0.031
-381.946	221.133	0.060	0.096
-380.931	-200.000	-0.024	-0.112
-379.917	-94.203	0.097	-0.026
-378.902	204.144	-0.111	-0.170
-377.888	-200.000	0.025	0.121
-376.873	800.000	-0.023	0.078
-375.858	-155.525	-0.267	0.017
-374.844	536.403	-0.061	0.144
-373.829	-200.000	0.001	-0.179
-372.815	321.208	0.216	0.407
-371.800	208.484	-0.104	0.161
-370.785	800.000	-0.037	0.134
-369.771	-152.722	0.143	-0.010
-368.756	14.066	0.418	-0.323
-367.742	-138.422	-0.054	-0.006
-366.727	247.826	0.095	-0.159
-365.712	-5.629	0.238	0.162
-364.698	-11.400	0.084	0.055
-363.683	-26.277	0.255	-0.148
-362.669	151.800	-0.132	0.178
-361.654	-200.000	-0.151	0.000
-360.639	51.113	-0.250	-0.235
-359.625	-109.161	0.262	0.055
-358.610	-200.000	-0.008	0.038
-357.596	194.519	-0.185	-0.278
-356.581	403.035	0.191	-0.398
-355.566	43.427	0.258	-0.234
-354.552	305.416	-0.136	0.251
-353.537	2.320	0.038	-0.027
-352.523	587.406	0.047	-0.116
-351.508	-64.760	-0.275	0.110
-350.493	-67.413	0.095	0.037
-349.479	-33.410	0.265	-0.145
-348.464	-60.744	-0.203	-0.085
-347.450	685.640	-0.077	0.199
-346.435	70.568	-0.142	-0.145
-345.420	-53.705	0.138	0.062
-344.406	-1.871	-0.277	0.193
-343.391	185.295	0.241	0.354
-342.377	671.036	0.111	-0.284
-341.362	-200.000	0.017	-0.130
-340.348	-153.356	0.259	-0.018
-339.333	543.376	-0.065	-0.154
-338.318	77.988	0.177	-0.187
-337.304	-200.000	-0.008	-0.483
-336.289	45.842	-0.142	0.130
-335.275	-9.623	0.190	-0.126
-334.260	-125.803	-0.156	-0.023
-333.245	-132.490	0.344	-0.044
-332.231	-200.000	-0.069	-0.384
-331.216	414.566	-0.047	0.099
-330.202	800.000	-0.065	-0.196
-329.187	62.426	0.151	0.150
-328.172	-200.000	-0.021	0.258
-327.158	185.595	-0.149	0.220
-326.143	-168.089	-0.215	0.008
-325.129	-60.247	-0.300	-0.127
-324.114	413.371	0.145	0.306
-323.099	-104.787	0.369	0.084
-322.085	-155.781	-0.242	0.015
-321.070	-8.182	-0.276	-0.184
-320.056	177.020	0.270	0.390
-319.041	154.678	-0.165	-0.225
-318.026	800.000	0.027	-0.110
-317.012	0.557	0.020	-0.014
-315.997	-55.869	0.191	0.084
-314.983	-116.531	-0.293	-0.053
-313.968	371.866	0.043	-0.086
-312.953	-200.000	-0.072	0.407
-311.939	-200.000	0.008	0.158
-310.924	42.703	-0.237	-0.214
-309.910	99.472	0.102	0.116
-308.895	-200.000	-0.031	-0.466
-307.880	-74.863	0.139	0.049
-306.866	-63.677	-0.164	0.066
-305.851	56.053	-0.057	-0.054
-304.837	-4.951	0.266	0.181
-303.822	-102.200	-0.186	-0.044
-302.807	-200.000	-0.020	0.256
-301.793	-200.000	0.019	-0.114
-300.778	690.140	-0.052	-0.135
-299.764	800.000	-0.093	0.267
-298.749	-42.931	-0.149	0.075
-297.735	-200.000	0.017	0.288
-296.720	673.879	0.060	-0.155
-295.705	-26.047	0.434	0.252
-294.691	305.777	-0.009	-0.016
-293.676	756.097	0.093	0.249
-292.662	-78.170	0.116	-0.040
-291.647	-118.558	-0.527	0.092
-290.632	356.740	0.134	0.264
-289.618	-53.173	0.109	-0.049
-288.603	231.855	0.218	0.354
-287.589	-88.324	0.319	0.094
-286.574	-102.447	0.115	0.027
-285.559	440.482	-0.084	-0.182
-284.545	-34.630	-0.031	0.017
-283.530	-92.607	0.122	0.034
-282.516	-3.962	-0.059	-0.040
-281.501	-69.081	-0.197	0.075
-280.486	4.253	0.171	-0.124
-279.472	276.226	-0.144	0.253
-278.457	-200.000	0.003	-0.207
-277.443	-160.124	0.153	-0.008
-276.428	51.746	0.110	-0.103
-275.413	800.000	0.006	-0.024
-274.399	800.000	-0.032	0.129
-273.384	-49.330	0.227	-0.107
-272.370	633.054	-0.017	-0.044
-271.355	497.186	-0.094	-0.213
-270.340	50.628	0.017	-0.015
-269.326	800.000	0.143	-0.473
-268.311	-114.073	0.256	0.049
-267.297	-115.099	-0.222	0.042
-266.282	-46.535	-0.361	-0.175
-265.267	605.929	-0.136	0.334
-264.253	-65.176	0.140	-0.056
-263.238	800.000	0.026	-0.105
-262.224	800.000	-0.098	-0.328
-261.209	-28.431	-0.197	-0.112
-260.195	265.190	-0.016	0.028
-259.180	107.157	-0.184	0.216
-258.165	-37.628	0.169	0.089
-257.151	-32.716	0.277	0.152
-256.136	225.270	-0.055	0.089
-255.122	800.000	0.089	-0.278
-254.107	-116.350	0.505	0.092
-253.092	64.957	0.094	0.093
-252.078	430.756	0.103	-0.220
-251.063	-200.000	0.020	-0.353
-250.049	55.399	0.114	0.108
-249.034	800.000	-0.088	-0.255
-248.019	-107.784	-0.155	-0.033
-247.005	235.784	-0.189	0.309
-245.990	-5.520	-0.273	0.185
-244.976	-158.884	0.259	0.015
-243.961	-200.000	0.025	-0.249
-242.946	-200.000	0.011	-0.230
-241.932	800.000	0.099	-0.395
-240.917	157.145	0.141	-0.192
-239.903	-188.084	-0.445	-0.006
-238.888	800.000	-0.104	0.300
-237.873	45.966	-0.309	-0.282
-236.859	-74.825	-0.045	-0.016
-235.844	-82.488	-0.216	-0.069
-234.830	37.015	0.257	-0.224
-233.815	0.823	-0.231	-0.163
-232.800	-44.149	0.083	-0.041
-231.786	-200.000	0.001	0.099
-230.771	-111.792	0.085	-0.017
-229.757	17.494	0.246	0.193
-228.742	724.420	0.044	0.116
-227.727	-117.216	-0.278	0.050
-226.713	800.000	-0.105	-0.359
-225.698	-113.808	-0.146	0.028
-224.684	3.234	0.156	0.112
-223.669	710.489	0.050	0.130
-222.655	1.155	-0.060	0.043
-221.640	-200.000	-0.011	-0.159
-220.625	-200.000	0.025	-0.297
-219.611	-44.101	-0.132	0.065
-218.596	205.836	-0.253	-0.389
-217.582	413.289	-0.080	-0.168
-216.567	-146.924	0.379	-0.032
-215.552	139.328	-0.121	-0.157
-214.538	-124.606	0.376	0.057
-213.523	525.714	-0.183	0.425
-212.509	516.823	-0.205	0.472
-211.494	-66.778	0.459	0.179
-210.479	800.000	-0.020	-0.074
-209.465	-35.028	-0.218	-0.117
-208.450	-13.047	0.166	-0.106
-207.436	-159.845	0.228	0.012
-206.421	-200.000	-0.006	-0.060
-205.406	116.992	0.250	-0.303
-204.392	199.723	-0.253	0.383
-203.377	-121.017	0.454	0.075
-202.363	24.308	0.061	0.050
-201.348	-200.000	-0.006	-0.045
-200.333	21.292	-0.098	0.078
-199.319	-84.028	-0.374	-0.117
-198.304	66.331	0.199	0.199
-197.290	134.756	0.186	0.238
-196.275	168.360	-0.025	0.035
-195.260	-107.350	0.113	-0.025
-194.246	16.532	-0.119	-0.092
-193.231	679.657	0.077	-0.196
-192.217	78.829	0.100	-0.106
-191.202	800.000	-0.043	-0.138
-190.187	-87.741	-0.283	-0.084
-189.173	-116.466	0.142	0.026
-188.158	-175.379	0.275	0.007
-187.144	800.000	0.102	-0.412
-186.129	-28.832	-0.237	-0.134
-185.114	-59.178	0.263	0.111
-184.100	153.536	0.136	0.183
-183.085	425.218	-0.061	0.130
-182.071	-167.553	0.079	0.003
-181.056	52.003	0.201	0.189
-180.042	287.398	-0.079	0.140
-179.027	44.448	-0.024	0.022
-178.012	542.558	0.112	0.263
-176.998	104.166	-0.154	0.178
-175.983	-92.086	0.436	0.121
-174.969	560.367	0.127	0.301
-173.954	-53.938	0.079	0.035
-172.939	-138.558	-0.067	0.007
-171.925	-52.180	0.114	-0.052
-170.910	160.939	0.301	0.413
-169.896	135.311	-0.155	0.199
-168.881	-200.000	0.018	0.195
-167.866	120.699	-0.070	-0.086
-166.852	682.785	0.139	0.357
-165.837	-126.164	0.281	-0.041
-164.823	-200.000	0.010	0.100
-163.808	-200.000	-0.002	-0.015
-162.793	-51.597	-0.265	-0.122
-161.779	800.000	0.098	0.385
-160.764	228.931	-0.244	-0.392
-159.750	115.987	0.203	-0.245
-158.735	-200.000	-0.052	0.420
-157.720	-16.538	-0.199	-0.124
-156.706	-26.283	-0.398	0.230
-155.691	-109.192	-0.024	-0.005
-154.677	-16.696	0.321	0.200
-153.662	-59.133	0.106	-0.045
-152.647	17.387	-0.118	-0.092
-151.633	-46.278	-0.283	0.137
-150.618	-200.000	0.020	0.474
-149.604	26.632	0.216	-0.178
-148.589	-66.501	-0.360	-0.141
-147.574	93.815	-0.205	-0.228
-146.560	-138.003	0.203	0.022
-145.545	110.798	0.131	-0.155
-144.531	-200.000	-0.032	-0.219
-143.516	-200.000	0.087	-0.378
-142.502	-22.868	-0.141	0.083
-141.487	-114.822	0.237	0.044
-140.472	-172.823	0.286	-0.009
-139.458	101.110	0.051	0.058
-138.443	76.338	-0.156	-0.162
-137.429	-200.000	-0.022	0.415
-136.414	800.000	-0.140	0.409
-135.399	-200.000	-0.020	0.103
-134.385	-78.845	-0.314	0.105
-133.370	-200.000	0.028	0.169
-132.356	-71.578	-0.053	0.019
-131.341	-109.540	0.176	-0.036
-130.326	-37.703	0.076	-0.040
-129.312	-42.286	-0.144	0.072
-128.297	58.279	0.106	0.102
-127.283	-53.935	0.376	-0.168
-126.268	-200.000	0.028	0.163
-125.253	153.391	0.054	0.073
-124.239	800.000	-0.062	-0.180
-123.224	298.942	-0.052	-0.094
-122.210	-92.546	-0.380	-0.105
-121.195	-61.949	-0.167	0.068
