DTS Sentinel unit serial number:	SN413079Multiplexer serial number:	ORYXHardware model number:	OX4-SRSoftware version number:	ORYX F/W v4.00 Oryx Data Collector v3.7.2.0data status	okinstallation	princeton_trtdifferential loss correction	single-endedforward channel	channel 1reverse channel	N/Adate	2019/09/18time	08:34:35forward acquisition time	60.00reverse acquisition time	0.00gamma	496.2192k internal	0.2337k external	0.2337temperature offset calibration	0.9977default loss term (dB/km)	0.3790temperature slope calibration	1.0000multiplexer offset coefficient	1.0000multiplexer slope coefficient	1.0000fibre end	0.00T internal ref (°C)	24.41T ext. ref 1 (°C)	0.22T ext. ref 2 (°C)	20.16length (m)	temperature (°C)	Stokes	anti-Stokes-747.200	-200.000	-0.038	-0.210
-746.185	17.324	-0.098	-0.078
-745.171	-105.391	0.296	0.068
-744.156	800.000	0.052	0.205
-743.142	-90.114	-0.487	-0.142
-742.127	166.095	-0.079	0.113
-741.112	507.168	0.154	0.360
-740.098	46.756	-0.138	0.129
-739.083	-200.000	0.016	-0.195
-738.069	-168.387	0.220	0.008
-737.054	-126.204	0.234	0.035
-736.039	-200.000	-0.351	-0.000
-735.025	-61.688	0.333	-0.140
-734.010	235.251	-0.211	0.350
-732.996	15.595	-0.181	-0.143
-731.981	235.192	-0.106	-0.176
-730.966	106.277	-0.120	0.143
-729.952	186.937	-0.222	-0.331
-728.937	800.000	0.075	-0.313
-727.923	800.000	-0.116	-0.367
-726.908	800.000	0.021	0.065
-725.894	71.119	0.079	0.082
-724.879	-51.863	-0.240	0.112
-723.864	-109.903	-0.266	-0.056
-722.850	96.583	-0.253	-0.291
-721.835	800.000	-0.096	-0.326
-720.821	-34.363	-0.209	-0.115
-719.806	800.000	0.102	-0.301
-718.791	-200.000	-0.014	0.185
-717.777	-200.000	-0.037	-0.197
-716.762	-111.663	0.405	-0.082
-715.748	298.835	-0.085	-0.156
-714.733	31.458	0.172	0.148
-713.718	-28.844	0.134	0.078
-712.704	137.087	0.100	-0.131
-711.689	-70.088	-0.285	-0.109
-710.675	-128.226	0.219	-0.031
-709.660	95.814	-0.278	0.318
-708.645	63.868	-0.286	0.288
-707.631	-50.148	0.130	0.062
-706.616	-22.895	0.365	0.221
-705.602	144.851	0.143	-0.191
-704.587	104.548	-0.102	-0.120
-703.572	73.768	0.253	0.266
-702.558	-95.141	-0.117	-0.032
-701.543	100.914	-0.068	-0.079
-700.529	-100.913	-0.512	-0.126
-699.514	-200.000	-0.044	-0.253
-698.499	75.303	0.133	0.140
-697.485	-153.685	-0.303	-0.021
-696.470	-127.623	-0.287	0.042
-695.456	-200.000	0.014	-0.092
-694.441	-200.000	-0.047	-0.288
-693.426	-148.664	-0.129	0.011
-692.412	-200.000	0.035	0.227
-691.397	-65.479	0.180	-0.072
-690.383	-72.986	-0.220	0.081
-689.368	800.000	-0.138	0.522
-688.354	-95.278	0.090	0.024
-687.339	137.753	-0.089	-0.117
-686.324	86.365	0.032	0.035
-685.310	-151.841	-0.055	0.004
-684.295	-182.368	-0.186	0.003
-683.281	-104.631	-0.293	0.068
-682.266	-36.561	-0.166	-0.089
-681.251	-54.036	-0.243	0.111
-680.237	60.874	-0.142	0.141
-679.222	-44.760	0.393	-0.196
-678.208	-82.681	-0.267	-0.087
-677.193	-182.239	0.168	0.003
-676.178	40.818	-0.245	-0.222
-675.164	-56.623	0.260	-0.115
-674.149	-74.005	-0.371	0.135
-673.135	800.000	0.074	0.217
-672.120	800.000	-0.149	-0.426
-671.105	38.527	0.072	0.064
-670.091	-200.000	-0.035	-0.188
-669.076	-119.846	0.064	-0.011
-668.062	772.538	0.059	-0.160
-667.047	-200.000	0.034	-0.160
-666.032	-200.000	-0.018	0.178
-665.018	-200.000	-0.010	-0.212
-664.003	65.449	-0.018	0.018
-662.989	-156.652	-0.285	-0.018
-661.974	404.783	0.079	-0.168
-660.959	-200.000	-0.014	0.066
-659.945	-200.000	-0.006	0.043
-658.930	301.351	-0.135	0.250
-657.916	158.107	-0.009	0.013
-656.901	438.889	0.069	0.151
-655.886	49.357	-0.103	-0.097
-654.872	800.000	-0.019	0.076
-653.857	-124.868	0.123	0.019
-652.843	-200.000	-0.046	-0.236
-651.828	-121.684	0.110	-0.018
-650.814	-200.000	-0.001	0.130
-649.799	-200.000	0.045	-0.236
-648.784	800.000	-0.027	0.103
-647.770	91.397	-0.069	-0.077
-646.755	598.322	-0.123	-0.304
-645.741	-131.154	0.109	0.014
-644.726	104.435	-0.153	0.180
-643.711	-36.700	-0.191	-0.102
-642.697	-132.430	-0.214	0.028
-641.682	47.596	0.253	0.236
-640.668	-200.000	-0.022	0.171
-639.653	-74.710	-0.197	-0.071
-638.638	-58.401	0.154	0.067
-637.624	800.000	0.011	0.032
-636.609	163.695	0.033	-0.047
-635.595	-142.246	0.289	0.029
-634.580	-65.672	-0.286	-0.114
-633.565	752.879	-0.121	-0.327
-632.551	-200.000	0.014	0.272
-631.536	161.877	0.110	0.154
-630.522	603.512	-0.037	-0.092
-629.507	314.665	-0.113	0.212
-628.492	-200.000	0.006	0.291
-627.478	-77.695	-0.277	-0.096
-626.463	-200.000	-0.055	-0.387
-625.449	-104.274	0.213	0.049
-624.434	153.654	-0.070	-0.096
-623.419	74.781	0.060	0.064
-622.405	-200.000	0.013	-0.098
-621.390	10.075	-0.221	-0.168
-620.376	283.311	-0.073	0.131
-619.361	-36.262	-0.032	-0.017
-618.346	-38.014	-0.227	0.120
-617.332	800.000	0.062	-0.237
-616.317	-12.537	-0.235	0.154
-615.303	-14.297	0.329	0.212
-614.288	81.570	0.253	-0.273
-613.273	441.168	0.060	-0.132
-612.259	-200.000	-0.026	-0.180
-611.244	1.300	-0.212	-0.152
-610.230	38.082	-0.136	-0.121
-609.215	-114.050	0.080	-0.015
-608.201	0.003	-0.059	-0.042
-607.186	58.076	0.196	0.192
-606.171	-123.196	-0.057	-0.009
-605.157	-34.950	-0.030	0.016
-604.142	125.984	0.113	0.143
-603.128	-200.000	-0.030	0.225
-602.113	198.907	-0.043	0.066
-601.098	800.000	0.065	-0.204
-600.084	123.515	0.175	0.219
-599.069	-200.000	0.031	-0.179
-598.055	-200.000	-0.030	-0.329
-597.040	100.188	-0.073	0.085
-596.025	-68.145	0.184	-0.072
-595.011	-200.000	-0.030	-0.409
-593.996	-146.281	0.375	-0.033
-592.982	71.919	-0.093	-0.097
-591.967	106.313	0.183	-0.216
-590.952	3.716	-0.189	0.138
-589.938	800.000	-0.064	0.197
-588.923	-200.000	-0.009	0.101
-587.909	-200.000	0.027	0.141
-586.894	-4.501	0.038	-0.027
-585.879	-38.177	0.344	0.182
-584.865	-102.882	-0.253	-0.060
-583.850	279.007	0.155	-0.277
-582.836	-130.480	-0.240	-0.032
-581.821	58.966	0.219	-0.215
-580.806	127.210	0.160	-0.202
-579.792	-200.000	0.028	0.241
-578.777	-45.132	0.231	-0.115
-577.763	800.000	0.066	0.222
-576.748	800.000	-0.030	-0.116
-575.733	800.000	-0.050	0.191
-574.719	-194.191	-0.497	0.004
-573.704	7.503	0.069	-0.051
-572.690	-130.566	0.177	-0.024
-571.675	-200.000	-0.075	0.439
-570.661	800.000	-0.033	-0.108
-569.646	278.071	0.099	-0.175
-568.631	46.987	0.185	0.172
-567.617	47.477	-0.299	-0.278
-566.602	-174.123	-0.121	-0.004
-565.588	50.783	-0.354	-0.334
-564.573	-128.595	-0.176	0.025
-563.558	-143.566	0.418	-0.040
-562.544	-200.000	0.048	-0.251
-561.529	-113.416	-0.194	0.038
-560.515	168.169	-0.067	-0.096
-559.500	154.655	-0.090	0.123
-558.485	-99.660	-0.189	-0.047
-557.471	-200.000	-0.066	0.372
-556.456	-200.000	-0.018	0.260
-555.442	85.938	0.220	-0.242
-554.427	-73.445	-0.519	-0.189
-553.412	243.029	-0.268	-0.447
-552.398	-110.997	0.130	-0.027
-551.383	536.168	0.075	0.177
-550.369	92.948	0.152	-0.171
-549.354	-200.000	-0.038	-0.228
-548.339	744.782	0.084	-0.226
-547.325	-96.012	-0.330	0.088
-546.310	-106.475	-0.320	0.071
-545.296	229.700	0.133	-0.216
-544.281	-70.906	0.169	0.064
-543.266	-119.606	-0.464	-0.080
-542.252	439.592	-0.085	0.186
-541.237	-200.000	0.008	-0.281
-540.223	-200.000	0.045	-0.414
-539.208	12.593	-0.396	-0.304
-538.193	307.818	0.138	0.255
-537.179	120.312	-0.148	0.183
-536.164	-200.000	-0.044	0.200
-535.150	148.884	-0.118	0.159
-534.135	87.913	-0.167	0.184
-533.121	64.988	0.135	-0.135
-532.106	-83.397	0.119	-0.038
-531.091	3.585	-0.142	-0.103
-530.077	-164.949	-0.183	-0.008
-529.062	25.931	0.021	0.017
-528.048	179.877	0.047	0.068
-527.033	67.965	-0.154	0.157
-526.018	-82.824	0.052	0.017
-525.004	498.135	-0.025	-0.058
-523.989	800.000	-0.070	-0.286
-522.975	800.000	-0.003	-0.013
-521.960	-200.000	-0.019	0.446
-520.945	-70.362	0.397	-0.150
-519.931	-200.000	0.040	-0.256
-518.916	138.313	-0.029	0.037
-517.902	-200.000	-0.027	-0.382
-516.887	30.187	0.127	0.108
-515.872	-200.000	-0.017	-0.193
-514.858	265.774	-0.106	-0.185
-513.843	517.763	0.093	-0.215
-512.829	-200.000	0.003	0.216
-511.814	43.128	-0.048	-0.044
-510.799	-200.000	0.022	-0.220
-509.785	46.651	-0.177	-0.163
-508.770	25.518	0.300	-0.249
-507.756	-200.000	0.048	0.236
-506.741	-200.000	-0.047	-0.290
-505.726	-163.192	0.187	0.009
-504.712	266.747	-0.005	0.008
-503.697	-144.707	0.296	0.027
-502.683	-172.160	-0.154	0.005
-501.668	205.899	0.108	0.168
-500.653	-200.000	0.030	-0.266
-499.639	1.413	-0.410	-0.293
-498.624	395.341	0.055	-0.113
-497.610	147.503	0.087	-0.117
-496.595	-200.000	-0.028	0.131
-495.581	-95.794	-0.325	0.086
-494.566	-53.767	-0.199	-0.090
-493.551	-81.635	0.445	-0.145
-492.537	-200.000	-0.010	-0.349
-491.522	102.108	-0.145	0.168
-490.508	757.375	-0.085	0.228
-489.493	800.000	-0.078	0.231
-488.478	-30.495	0.007	0.004
-487.464	17.215	0.348	0.274
-486.449	-200.000	0.020	-0.234
-485.435	161.823	0.185	-0.257
-484.420	166.882	0.016	-0.023
-483.405	38.940	0.057	0.051
-482.391	93.268	0.270	0.303
-481.376	-200.000	-0.055	0.260
-480.362	-50.575	0.141	-0.066
-479.347	-44.459	-0.264	0.131
-478.332	50.687	-0.189	0.178
-477.318	604.685	0.041	-0.102
-476.303	-120.503	-0.078	-0.013
-475.289	800.000	-0.082	0.340
-474.274	604.865	-0.135	0.333
-473.259	243.674	0.152	0.253
-472.245	163.963	0.073	0.103
-471.230	7.123	0.146	-0.108
-470.216	-31.019	0.130	0.073
-469.201	47.563	0.221	0.205
-468.186	56.916	-0.115	0.111
-467.172	11.127	0.161	-0.122
-466.157	-200.000	-0.007	0.056
-465.143	22.527	0.226	-0.183
-464.128	-178.285	-0.101	-0.002
-463.113	83.462	0.322	0.349
-462.099	127.449	-0.280	0.353
-461.084	-46.523	0.205	-0.100
-460.070	51.627	0.161	0.152
-459.055	-200.000	-0.029	-0.265
-458.040	-132.879	0.493	0.062
-457.026	-105.725	-0.380	-0.085
-456.011	-131.591	0.298	-0.039
-454.997	-187.649	-0.275	0.004
-453.982	-88.061	0.117	0.035
-452.968	212.900	-0.132	0.206
-451.953	-96.229	-0.381	0.100
-450.938	-15.188	-0.295	0.188
-449.924	-85.113	-0.218	0.068
-448.909	-87.598	0.250	0.075
-447.895	-83.120	0.274	0.087
-446.880	800.000	0.032	0.131
-445.865	-130.070	0.416	-0.056
-444.851	-35.159	-0.156	0.084
-443.836	800.000	-0.098	0.292
-442.822	800.000	0.034	0.128
-441.807	114.895	0.127	0.154
-440.792	60.762	-0.180	-0.177
-439.778	60.479	0.073	0.072
-438.763	-200.000	-0.006	0.080
-437.749	-44.714	0.254	0.126
-436.734	-181.905	-0.163	-0.003
-435.719	24.881	-0.158	0.130
-434.705	434.357	0.147	-0.316
-433.690	-200.000	0.014	-0.065
-432.676	799.806	-0.026	-0.070
-431.661	-41.620	0.034	0.017
-430.646	49.928	0.291	0.272
-429.632	-71.144	-0.143	-0.053
-428.617	-200.000	0.041	-0.186
-427.603	-94.713	0.186	0.050
-426.588	-200.000	-0.009	0.081
-425.573	2.299	-0.289	0.207
-424.559	101.551	0.029	0.033
-423.544	800.000	-0.103	0.392
-422.530	509.513	-0.016	0.037
-421.515	132.123	0.156	-0.199
-420.500	-152.498	0.208	-0.015
-419.486	-32.830	0.223	-0.123
-418.471	-200.000	-0.028	0.274
-417.457	-200.000	-0.020	0.133
-416.442	351.052	-0.175	-0.343
-415.428	-34.087	0.228	-0.124
-414.413	172.283	-0.107	0.153
-413.398	-98.027	-0.240	-0.061
-412.384	363.171	-0.124	-0.247
-411.369	-56.338	-0.155	0.068
-410.355	-200.000	0.017	0.354
-409.340	-200.000	0.030	0.139
-408.325	-106.036	0.232	-0.052
-407.311	34.274	0.121	-0.105
-406.296	60.149	0.163	-0.160
-405.282	92.780	0.173	-0.193
-404.267	-45.153	0.163	0.080
-403.252	92.248	0.219	-0.244
-402.238	-79.262	0.258	0.087
-401.223	-200.000	0.011	-0.134
-400.209	-44.900	0.135	-0.067
-399.194	-107.372	0.210	0.046
-398.179	-20.087	0.229	0.140
-397.165	731.281	0.049	0.129
-396.150	5.184	-0.229	-0.167
-395.136	467.958	0.091	-0.201
-394.121	-200.000	-0.002	-0.174
-393.106	124.868	0.038	0.047
-392.092	312.891	0.104	-0.193
-391.077	204.137	-0.207	-0.317
-390.063	800.000	0.057	0.223
-389.048	800.000	0.065	-0.220
-388.033	-200.000	0.026	0.125
-387.019	-200.000	-0.029	-0.142
-386.004	800.000	0.042	0.169
-384.990	43.084	0.130	0.117
-383.975	-180.481	-0.157	-0.003
-382.960	373.336	-0.056	0.112
-381.946	33.587	-0.143	-0.123
-380.931	485.577	-0.182	-0.409
-379.917	-27.932	0.206	-0.118
-378.902	493.746	0.050	0.114
-377.888	-200.000	-0.055	-0.411
-376.873	384.706	0.062	0.126
-375.858	-136.234	-0.142	0.016
-374.844	54.155	-0.307	-0.292
-373.829	46.865	-0.169	0.155
-372.815	-121.068	0.223	-0.037
-371.800	-200.000	-0.010	0.373
-370.785	-74.457	0.238	0.085
-369.771	44.530	0.125	-0.114
-368.756	624.387	0.065	-0.161
-367.742	-120.197	0.351	0.059
-366.727	-1.169	-0.381	0.267
-365.712	-75.750	-0.252	-0.088
-364.698	-200.000	0.023	-0.235
-363.683	-19.289	-0.170	0.104
-362.669	6.021	-0.153	-0.112
-361.654	-83.923	-0.024	0.007
-360.639	143.769	-0.083	-0.109
-359.625	-3.102	0.157	-0.108
-358.610	286.143	-0.118	0.210
-357.596	-200.000	0.077	0.361
-356.581	-41.340	-0.084	-0.043
-355.566	-109.818	0.122	-0.025
-354.552	418.172	0.019	-0.039
-353.537	800.000	0.025	0.091
-352.523	-84.516	-0.262	0.082
-351.508	-53.936	0.211	-0.095
-350.493	-62.284	-0.218	-0.090
-349.479	-135.479	0.231	-0.027
-348.464	-98.173	-0.239	0.061
-347.450	-58.585	-0.097	-0.042
-346.435	-200.000	0.018	-0.193
-345.420	-200.000	0.006	-0.134
-344.406	800.000	0.022	0.062
-343.391	-76.891	-0.212	0.073
-342.377	102.562	-0.250	0.288
-341.362	800.000	0.041	0.116
-340.348	-200.000	0.063	0.472
-339.333	-200.000	-0.035	-0.266
-338.318	567.345	-0.110	0.263
-337.304	-200.000	0.009	-0.127
-336.289	-14.476	-0.269	0.171
-335.275	-200.000	0.008	-0.049
-334.260	-103.097	0.294	-0.069
-333.245	-107.405	0.361	-0.078
-332.231	25.299	-0.264	0.217
-331.216	800.000	0.008	0.022
-330.202	50.576	-0.159	-0.149
-329.187	-122.014	0.157	0.025
-328.172	580.797	-0.134	-0.325
-327.158	-128.662	-0.165	0.023
-326.143	-142.517	-0.136	0.013
-325.129	-95.008	-0.403	0.108
-324.114	168.083	0.036	-0.050
-323.099	105.262	-0.148	0.173
-322.085	-77.107	-0.187	0.064
-321.070	-80.052	0.264	0.087
-320.056	30.245	0.093	0.079
-319.041	-59.364	-0.235	-0.100
-318.026	-18.314	0.138	-0.085
-317.012	191.615	0.158	0.234
-315.997	-68.482	0.120	0.046
-314.983	-200.000	-0.030	-0.524
-313.968	-200.000	-0.043	-0.258
-312.953	201.909	0.262	-0.398
-311.939	24.898	0.115	-0.094
-310.924	-200.000	-0.013	-0.120
-309.910	-87.185	-0.213	0.064
-308.895	800.000	0.045	-0.171
-307.880	-200.000	-0.194	0.001
-306.866	732.236	0.029	-0.076
-305.851	-106.605	-0.411	-0.090
-304.837	14.788	0.220	0.170
-303.822	-100.435	-0.289	0.071
-302.807	-98.047	-0.048	0.012
-301.793	-50.690	0.250	-0.116
-300.778	62.502	-0.067	0.066
-299.764	137.468	0.138	-0.178
-298.749	56.005	0.028	0.026
-297.735	-196.298	0.282	-0.002
-296.720	-56.016	-0.178	-0.078
-295.705	-200.000	0.034	-0.279
-294.691	-191.795	0.164	-0.002
-293.676	18.513	0.177	0.140
-292.662	-118.899	-0.068	0.012
-291.647	-200.000	-0.045	-0.260
-290.632	430.805	0.058	-0.125
-289.618	794.627	0.066	0.179
-288.603	-23.357	0.331	0.196
-287.589	37.178	0.123	-0.107
-286.574	-86.127	-0.211	0.064
-285.559	628.802	-0.094	-0.234
-284.545	-200.000	0.023	-0.103
-283.530	341.448	0.194	-0.375
-282.516	-85.549	-0.457	0.140
-281.501	-164.336	0.411	0.019
-280.486	-200.000	0.044	-0.261
-279.472	-200.000	0.055	0.454
-278.457	-91.103	0.303	-0.086
-277.443	-200.000	0.002	0.084
-276.428	-183.765	0.091	0.002
-275.413	-200.000	0.035	-0.415
-274.399	-40.633	-0.260	0.133
-273.384	-200.000	-0.015	0.338
-272.370	-12.444	-0.333	0.214
-271.355	217.273	0.078	0.123
-270.340	-29.708	-0.232	0.130
-269.326	46.313	0.312	0.285
-268.311	109.794	-0.226	0.267
-267.297	-23.641	0.104	-0.062
-266.282	800.000	-0.153	0.490
-265.267	-120.144	-0.257	0.043
-264.253	709.406	0.049	-0.127
-263.238	-64.698	-0.287	0.115
-262.224	-158.257	0.232	-0.013
-261.209	-89.648	-0.041	-0.012
-260.195	-38.370	-0.335	-0.175
-259.180	-115.519	0.341	0.063
-258.165	162.925	-0.163	-0.226
-257.151	299.393	-0.111	0.201
-256.136	-93.268	-0.305	0.083
-255.122	-200.000	-0.012	0.122
-254.107	428.782	0.091	-0.193
-253.092	-73.294	0.289	0.104
-252.078	-110.690	-0.257	-0.052
-251.063	336.953	0.065	-0.124
-250.049	-96.622	0.355	0.092
-249.034	8.017	0.138	0.102
-248.019	-200.000	0.015	0.094
-247.005	75.767	0.191	-0.199
-245.990	-48.957	-0.123	0.058
-244.976	201.690	0.134	0.203
-243.961	800.000	0.032	0.124
-242.946	69.056	-0.152	0.154
-241.932	-2.022	0.213	-0.147
-240.917	800.000	0.051	0.160
-239.903	123.556	0.144	0.178
-238.888	-200.000	0.018	-0.200
-237.873	476.797	0.055	0.123
-236.859	-200.000	-0.065	0.354
-235.844	763.808	-0.147	-0.393
-234.830	-157.941	-0.064	0.004
-233.815	-200.000	-0.083	-0.383
-232.800	-138.065	-0.414	0.045
-231.786	-72.680	0.153	-0.055
-230.771	91.879	-0.072	-0.079
-229.757	-200.000	-0.023	0.170
-228.742	-127.172	0.283	0.041
-227.727	-15.066	0.072	-0.046
-226.713	-150.591	0.166	-0.012
-225.698	-140.633	-0.201	0.021
-224.684	-200.000	0.117	-0.000
-223.669	68.266	-0.089	0.090
-222.655	90.148	0.115	0.127
-221.640	-200.000	-0.011	0.084
-220.625	-200.000	-0.034	-0.367
-219.611	-200.000	0.016	0.108
-218.596	526.781	-0.087	-0.201
-217.582	800.000	0.071	0.220
-216.567	-200.000	0.042	-0.253
-215.552	361.078	-0.036	0.071
-214.538	414.362	0.075	0.158
-213.523	-50.333	-0.372	-0.173
-212.509	148.078	0.155	-0.206
-211.494	-79.780	0.107	-0.035
-210.479	39.479	-0.169	-0.148
-209.465	-93.921	-0.267	-0.072
-208.450	453.829	0.188	-0.408
-207.436	-124.892	0.175	0.026
-206.421	658.422	0.175	0.442
-205.406	106.806	-0.135	0.157
-204.392	366.353	0.141	-0.279
-203.377	203.589	-0.157	-0.239
-202.363	-1.617	-0.155	0.107
-201.348	74.853	-0.171	-0.177
-200.333	-200.000	-0.002	0.365
-199.319	140.272	-0.073	0.094
-198.304	-200.000	-0.058	0.315
-197.290	-200.000	-0.012	-0.107
-196.275	-29.182	-0.161	-0.090
-195.260	452.798	-0.102	-0.222
-194.246	188.332	-0.129	0.190
-193.231	-200.000	-0.035	0.186
-192.217	-154.922	0.243	-0.016
-191.202	800.000	-0.047	-0.136
-190.187	17.019	0.051	-0.040
-189.173	-200.000	-0.004	0.189
-188.158	-37.165	0.180	-0.094
-187.144	-18.492	-0.233	-0.143
-186.129	-200.000	0.022	0.259
-185.114	-200.000	-0.017	0.258
-184.100	-116.009	-0.311	-0.057
-183.085	-9.178	0.116	-0.076
-182.071	-67.498	-0.293	0.113
-181.056	-200.000	-0.012	-0.097
-180.042	-42.191	0.229	-0.115
-179.027	283.493	-0.205	0.362
-178.012	-12.995	0.171	0.109
-176.998	151.701	-0.066	-0.089
-175.983	-59.390	0.285	0.120
-174.969	-105.018	0.233	0.052
-173.954	-158.798	0.103	0.006
-172.939	-95.902	-0.039	0.010
-171.925	800.000	-0.106	-0.360
-170.910	-70.532	0.359	0.133
-169.896	-14.277	-0.095	-0.060
-168.881	71.843	0.166	0.169
-167.866	-188.835	-0.225	0.003
-166.852	128.987	0.203	0.254
-165.837	-93.829	-0.034	0.009
-164.823	490.181	0.030	-0.067
-163.808	97.938	0.169	0.191
-162.793	-104.630	0.204	-0.046
-161.779	-200.000	0.012	-0.070
-160.764	-200.000	-0.003	0.094
-159.750	98.562	-0.080	0.091
-158.735	366.305	0.071	0.140
-157.720	-43.428	-0.196	-0.097
-156.706	-77.249	0.366	0.125
-155.691	800.000	0.124	0.486
-154.677	-200.000	0.040	0.209
-153.662	800.000	-0.037	-0.103
-152.647	203.742	0.101	0.153
-151.633	187.828	-0.102	-0.150
-150.618	482.375	0.146	-0.326
-149.604	-200.000	-0.066	0.292
-148.589	-200.000	0.019	0.294
-147.574	373.010	0.185	-0.368
-146.560	203.061	0.117	-0.177
-145.545	-1.916	-0.171	-0.118
-144.531	233.178	0.041	0.067
-143.516	-77.767	-0.182	-0.062
-142.502	-36.851	-0.295	0.155
-141.487	-117.564	-0.073	0.013
-140.472	158.868	-0.020	0.028
-139.458	-86.813	-0.222	-0.066
-138.443	-3.370	-0.141	-0.096
-137.429	129.764	-0.145	0.181
-136.414	-38.609	0.156	0.081
-135.399	-131.572	0.265	0.034
-134.385	-76.213	0.034	0.012
-133.370	-147.944	0.177	0.014
-132.356	-200.000	-0.054	-0.265
-131.341	-89.339	0.230	-0.066
-130.326	-97.611	-0.241	0.061
-129.312	-133.655	-0.284	-0.035
-128.297	43.544	-0.088	0.079
-127.283	-146.613	-0.194	0.016
-126.268	-59.740	0.026	-0.011
-125.253	-5.401	-0.064	0.043
-124.239	68.408	0.298	-0.299
-123.224	-45.045	0.159	0.077
-122.210	-200.000	-0.030	0.324
