DTS Sentinel unit serial number:	SN413079Multiplexer serial number:	ORYXHardware model number:	OX4-SRSoftware version number:	ORYX F/W v4.00 Oryx Data Collector v3.7.2.0data status	okinstallation	princeton_trtdifferential loss correction	single-endedforward channel	channel 1reverse channel	N/Adate	2019/09/15time	15:18:35forward acquisition time	60.00reverse acquisition time	0.00gamma	496.2192k internal	0.2292k external	0.2292temperature offset calibration	0.9945default loss term (dB/km)	0.3790temperature slope calibration	1.0000multiplexer offset coefficient	1.0000multiplexer slope coefficient	1.0000fibre end	0.00T internal ref (°C)	40.81T ext. ref 1 (°C)	5.02T ext. ref 2 (°C)	38.18length (m)	temperature (°C)	Stokes	anti-Stokes-747.200	318.488	0.051	0.098
-746.185	-153.844	0.117	0.008
-745.171	-190.289	0.180	-0.002
-744.156	460.352	-0.073	0.167
-743.142	-148.596	-0.111	-0.009
-742.127	59.377	-0.210	0.211
-741.112	19.795	0.275	-0.227
-740.098	-69.389	0.230	0.090
-739.083	125.635	0.113	-0.146
-738.069	107.557	-0.168	0.205
-737.054	-40.056	-0.023	-0.012
-736.039	-12.854	0.155	-0.103
-735.025	-200.000	0.039	0.235
-734.010	104.018	-0.190	0.229
-732.996	567.374	0.047	-0.118
-731.981	-200.000	-0.021	-0.464
-730.966	-55.050	0.194	-0.089
-729.952	-142.042	-0.201	-0.020
-728.937	800.000	-0.034	-0.142
-727.923	-200.000	-0.004	-0.106
-726.908	610.286	-0.070	-0.178
-725.894	154.376	-0.224	0.314
-724.879	127.583	-0.213	-0.277
-723.864	14.142	-0.333	-0.265
-722.850	137.280	0.152	0.204
-721.835	69.387	0.177	-0.186
-720.821	800.000	-0.021	-0.074
-719.806	75.472	-0.200	0.216
-718.791	-200.000	-0.038	0.180
-717.777	-156.259	0.222	-0.014
-716.762	-196.088	0.235	0.002
-715.748	275.491	0.022	0.039
-714.733	800.000	0.086	0.291
-713.718	-162.521	-0.127	0.006
-712.704	-89.158	-0.164	-0.049
-711.689	272.338	-0.044	0.079
-710.675	-95.220	-0.097	0.027
-709.660	526.169	0.047	-0.114
-708.645	-42.181	0.189	-0.099
-707.631	-159.138	-0.118	0.007
-706.616	-200.000	-0.001	-0.162
-705.602	-187.659	0.242	-0.003
-704.587	76.823	0.169	0.183
-703.572	17.408	0.284	-0.230
-702.558	148.342	0.127	0.175
-701.543	800.000	0.029	-0.082
-700.529	-200.000	-0.045	-0.355
-699.514	-200.000	0.025	-0.178
-698.499	-200.000	-0.009	0.164
-697.485	-84.550	0.344	-0.111
-696.470	-125.486	-0.226	0.035
-695.456	-109.687	-0.236	-0.051
-694.441	720.283	-0.070	-0.191
-693.426	-138.164	0.321	-0.036
-692.412	-108.871	-0.132	-0.029
-691.397	-9.472	-0.114	0.078
-690.383	-54.701	0.140	0.065
-689.368	-200.000	0.039	-0.205
-688.354	11.095	0.193	-0.150
-687.339	-49.525	0.195	0.095
-686.324	-200.000	-0.033	0.397
-685.310	-136.226	0.063	0.008
-684.295	-200.000	0.009	0.054
-683.281	800.000	0.043	-0.159
-682.266	-78.301	0.237	-0.083
-681.251	715.871	-0.039	0.106
-680.237	55.264	0.067	0.066
-679.222	-200.000	-0.005	-0.128
-678.208	-200.000	-0.025	-0.186
-677.193	-71.932	-0.339	-0.129
-676.178	-15.363	0.175	0.114
-675.164	417.297	0.099	0.216
-674.149	-122.750	-0.135	0.022
-673.135	125.126	0.106	0.136
-672.120	-200.000	0.011	0.231
-671.105	150.336	0.050	-0.069
-670.091	322.940	0.198	-0.386
-669.076	800.000	-0.049	-0.209
-668.062	-99.677	-0.141	0.036
-667.047	231.551	-0.178	0.298
-666.032	556.576	-0.156	-0.384
-665.018	-27.357	-0.377	0.224
-664.003	-34.667	-0.203	0.113
-662.989	64.543	-0.134	0.138
-661.974	81.054	-0.261	-0.287
-660.959	119.344	0.211	-0.267
-659.945	11.657	0.192	0.150
-658.930	-68.482	0.159	-0.063
-657.916	800.000	-0.081	-0.286
-656.901	-54.300	-0.111	0.051
-655.886	800.000	-0.013	0.045
-654.872	-35.327	0.188	-0.104
-653.857	123.838	0.088	-0.113
-652.843	197.428	0.093	-0.145
-651.828	27.792	-0.103	0.088
-650.814	800.000	-0.025	-0.088
-649.799	220.912	-0.072	0.118
-648.784	-200.000	-0.015	0.270
-647.770	144.986	-0.209	0.285
-646.755	651.016	-0.094	0.244
-645.741	32.071	-0.334	0.294
-644.726	-68.323	0.178	0.071
-643.711	-104.008	0.302	0.072
-642.697	429.079	-0.099	0.219
-641.682	-177.682	0.238	-0.006
-640.668	-31.312	0.405	0.233
-639.653	-147.880	0.240	0.020
-638.638	800.000	-0.046	-0.164
-637.624	800.000	0.075	-0.323
-636.609	27.929	0.088	0.076
-635.595	19.145	0.244	-0.199
-634.580	197.361	0.137	0.213
-633.565	-55.720	0.059	0.027
-632.551	-200.000	-0.004	0.169
-631.536	-45.360	-0.322	0.163
-630.522	45.458	0.149	0.140
-629.507	-15.548	0.080	0.052
-628.492	129.206	-0.103	0.134
-627.478	-200.000	-0.000	-0.205
-626.463	-59.432	-0.157	-0.069
-625.449	800.000	-0.068	-0.290
-624.434	34.019	-0.116	-0.103
-623.419	800.000	-0.050	-0.152
-622.405	126.759	-0.056	-0.072
-621.390	800.000	0.061	-0.177
-620.376	489.471	0.108	-0.252
-619.361	-122.241	0.225	-0.037
-618.346	56.154	-0.218	-0.215
-617.332	-200.000	-0.006	-0.187
-616.317	800.000	0.085	-0.264
-615.303	53.907	-0.059	0.058
-614.288	21.647	0.084	-0.069
-613.273	-16.314	-0.091	0.059
-612.259	779.775	0.102	0.284
-611.244	45.101	-0.179	0.168
-610.230	-200.000	0.045	-0.373
-609.215	255.835	0.190	-0.331
-608.201	-45.419	0.224	-0.113
-607.186	-139.148	-0.264	0.029
-606.171	184.011	0.058	-0.088
-605.157	55.339	-0.237	0.233
-604.142	-55.800	0.149	-0.068
-603.128	800.000	-0.018	0.067
-602.113	-94.305	0.227	0.063
-601.098	-200.000	0.051	0.335
-600.084	25.112	0.176	0.149
-599.069	292.920	0.068	0.126
-598.055	-31.784	-0.045	-0.026
-597.040	177.148	-0.141	0.209
-596.025	-172.215	0.146	0.005
-595.011	800.000	-0.026	-0.075
-593.996	800.000	-0.084	-0.293
-592.982	800.000	-0.038	-0.148
-591.967	-200.000	-0.022	-0.123
-590.952	-31.294	-0.269	0.154
-589.938	800.000	-0.090	0.254
-588.923	-200.000	0.007	0.128
-587.909	-47.417	0.064	0.032
-586.894	153.878	-0.071	-0.099
-585.879	440.599	-0.109	-0.242
-584.865	-160.756	0.200	-0.011
-583.850	168.606	0.115	0.167
-582.836	-18.002	0.441	-0.281
-581.821	70.238	-0.238	0.250
-580.806	-39.866	-0.305	-0.162
-579.792	-132.054	0.387	-0.051
-578.777	-54.362	-0.188	0.087
-577.763	-200.000	-0.007	0.069
-576.748	78.007	-0.102	-0.110
-575.733	-113.960	-0.242	0.048
-574.719	800.000	-0.041	0.150
-573.704	-0.768	0.073	0.052
-572.690	70.193	-0.247	-0.259
-571.675	-11.433	-0.231	-0.154
-570.661	-184.178	-0.446	-0.008
-569.646	326.452	-0.125	0.243
-568.631	-71.432	-0.249	-0.095
-567.617	800.000	-0.056	-0.181
-566.602	434.502	-0.078	-0.173
-565.588	127.017	-0.361	0.465
-564.573	364.611	0.041	-0.083
-563.558	113.304	-0.074	0.091
-562.544	128.608	-0.098	-0.127
-561.529	62.370	-0.200	-0.203
-560.515	-49.177	0.262	0.127
-559.500	-18.111	-0.249	-0.159
-558.485	637.323	-0.082	0.211
-557.471	425.541	0.007	0.015
-556.456	94.102	-0.099	0.114
-555.442	79.750	0.020	-0.022
-554.427	800.000	0.059	0.229
-553.412	49.041	-0.285	0.272
-552.398	146.741	0.168	-0.230
-551.383	83.774	-0.253	0.281
-550.369	126.865	-0.112	-0.144
-549.354	-200.000	0.009	0.127
-548.339	-200.000	-0.027	-0.344
-547.325	-200.000	-0.048	-0.293
-546.310	53.152	-0.051	0.050
-545.296	79.433	0.347	0.378
-544.281	183.128	0.210	-0.315
-543.266	-132.673	0.215	0.028
-542.252	-179.096	0.270	0.006
-541.237	-112.048	0.332	0.068
-540.223	-153.348	-0.253	-0.018
-539.208	-71.544	0.067	0.025
-538.193	126.118	0.138	-0.177
-537.179	-43.645	0.327	-0.167
-536.164	-81.281	0.212	0.071
-535.150	-56.535	0.265	-0.119
-534.135	24.661	0.036	0.030
-533.121	47.915	-0.227	0.215
-532.106	-45.172	0.188	-0.095
-531.091	-168.953	-0.289	-0.011
-530.077	215.534	0.170	-0.274
-529.062	178.672	0.188	0.279
-528.048	-200.000	0.013	0.093
-527.033	420.143	0.069	0.150
-526.018	-105.567	-0.244	0.056
-525.004	-12.647	-0.309	0.204
-523.989	-200.000	0.011	-0.091
-522.975	-200.000	0.008	-0.110
-521.960	228.933	0.122	0.201
-520.945	-6.136	0.098	-0.068
-519.931	-60.811	0.050	-0.022
-518.916	700.258	-0.051	0.136
-517.902	-132.532	-0.269	-0.035
-516.887	39.681	0.065	-0.059
-515.872	75.349	0.143	-0.153
-514.858	576.980	0.065	-0.160
-513.843	-28.004	0.295	0.173
-512.829	199.679	0.075	0.116
-511.814	-200.000	-0.006	0.081
-510.799	61.805	-0.143	0.144
-509.785	-200.000	0.056	0.345
-508.770	428.295	0.045	-0.099
-507.756	71.160	0.116	0.122
-506.741	455.442	0.041	-0.092
-505.726	-106.000	0.307	-0.070
-504.712	-128.799	-0.183	-0.026
-503.697	-60.698	-0.215	-0.092
-502.683	-200.000	-0.009	-0.220
-501.668	-99.273	0.226	0.058
-500.653	-200.000	0.056	-0.397
-499.639	99.131	0.140	-0.164
-498.624	-64.533	0.058	-0.024
-497.610	134.870	0.129	0.169
-496.595	-178.020	-0.191	0.005
-495.581	432.441	0.029	0.063
-494.566	-76.994	0.291	0.103
-493.551	13.361	-0.100	-0.078
-492.537	-71.055	-0.369	-0.141
-491.522	37.176	-0.227	-0.204
-490.508	-35.260	0.067	0.037
-489.493	-31.322	-0.103	-0.059
-488.478	-148.225	0.133	-0.011
-487.464	-10.106	-0.072	-0.048
-486.449	300.354	0.087	-0.163
-485.435	-25.778	0.113	0.068
-484.420	-27.277	0.053	-0.031
-483.405	91.541	0.120	0.137
-482.391	-200.000	-0.007	-0.066
-481.376	131.136	0.055	0.072
-480.362	370.986	0.172	0.353
-479.347	-120.695	0.291	-0.050
-478.332	336.206	-0.068	0.133
-477.318	-29.146	0.380	-0.221
-476.303	38.398	-0.204	-0.184
-475.289	-54.364	0.109	-0.050
-474.274	-35.183	0.262	-0.144
-473.259	55.737	-0.145	-0.142
-472.245	-1.695	0.257	0.184
-471.230	800.000	-0.055	0.235
-470.216	-200.000	0.024	-0.218
-469.201	-99.350	0.148	0.038
-468.186	356.835	0.081	0.163
-467.172	167.003	0.042	-0.061
-466.157	-200.000	-0.002	0.135
-465.143	252.038	0.144	0.248
-464.128	-6.465	0.226	-0.156
-463.113	800.000	-0.065	-0.259
-462.099	-10.834	0.306	-0.205
-461.084	-200.000	-0.028	-0.180
-460.070	-200.000	0.012	0.119
-459.055	-200.000	-0.014	-0.183
-458.040	-111.319	0.248	-0.051
-457.026	152.378	-0.194	0.267
-456.011	-116.956	0.362	0.067
-454.997	210.518	0.154	0.245
-453.982	-40.095	-0.140	-0.074
-452.968	-200.000	-0.028	0.139
-451.953	84.588	-0.305	0.338
-450.938	-4.405	0.179	0.125
-449.924	-143.969	0.310	0.030
-448.909	149.330	-0.163	-0.224
-447.895	9.900	0.598	-0.459
-446.880	-133.848	-0.044	0.006
-445.865	-6.404	-0.420	-0.290
-444.851	14.591	0.074	0.059
-443.836	-43.269	-0.218	0.111
-442.822	377.063	0.063	0.130
-441.807	7.086	0.132	0.100
-440.792	76.386	-0.186	0.199
-439.778	800.000	0.082	-0.245
-438.763	800.000	0.057	0.160
-437.749	800.000	-0.024	0.076
-436.734	-200.000	0.005	-0.029
-435.719	158.012	-0.117	-0.164
-434.705	800.000	0.096	0.380
-433.690	-200.000	0.000	0.139
-432.676	-200.000	-0.044	-0.241
-431.661	-58.013	0.135	0.059
-430.646	162.874	0.205	-0.292
-429.632	-18.394	-0.284	0.179
-428.617	41.176	0.108	0.098
-427.603	800.000	0.036	-0.150
-426.588	342.325	0.084	-0.166
-425.573	-150.752	0.141	-0.011
-424.559	-4.041	-0.123	-0.086
-423.544	17.137	0.049	-0.039
-422.530	76.199	0.131	-0.140
-421.515	-95.280	0.107	0.029
-420.500	128.049	-0.151	0.194
-419.486	-123.755	-0.091	0.015
-418.471	800.000	0.097	-0.391
-417.457	800.000	0.065	-0.232
-416.442	96.689	-0.246	-0.285
-415.428	-200.000	0.043	-0.213
-414.413	381.152	-0.179	0.371
-413.398	10.635	0.064	0.050
-412.384	-200.000	0.010	-0.223
-411.369	113.806	-0.077	-0.094
-410.355	-36.443	0.252	-0.137
-409.340	-69.212	0.167	-0.065
-408.325	-117.984	0.038	-0.007
-407.311	-143.476	0.100	0.010
-406.296	800.000	-0.104	0.307
-405.282	-30.714	0.239	0.137
-404.267	-88.030	0.010	-0.003
-403.252	-200.000	-0.008	-0.477
-402.238	16.660	0.155	0.123
-401.223	4.991	0.059	-0.044
-400.209	-61.036	-0.178	-0.076
-399.194	-69.740	0.091	-0.035
-398.179	608.139	0.099	-0.249
-397.165	800.000	-0.133	-0.426
-396.150	56.372	0.180	0.177
-395.136	382.735	-0.116	0.241
-394.121	116.993	0.099	-0.122
-393.106	63.261	0.154	-0.156
-392.092	51.762	0.275	-0.264
-391.077	-200.000	0.025	-0.306
-390.063	124.785	0.108	-0.138
-389.048	800.000	0.037	0.153
-388.033	-52.818	-0.265	-0.123
-387.019	-200.000	-0.003	-0.190
-386.004	-200.000	0.004	-0.160
-384.990	-200.000	-0.019	0.252
-383.975	-142.609	-0.247	-0.024
-382.960	800.000	0.017	0.073
-381.946	-152.231	-0.050	-0.004
-380.931	-89.074	-0.151	-0.045
-379.917	-200.000	0.003	0.175
-378.902	800.000	0.075	0.304
-377.888	66.635	-0.090	-0.092
-376.873	52.413	0.209	0.202
-375.858	-56.472	-0.168	-0.075
-374.844	-200.000	0.066	0.428
-373.829	124.417	-0.201	0.255
-372.815	-200.000	0.076	0.438
-371.800	-118.305	0.148	0.027
-370.785	28.251	0.129	0.110
-369.771	-200.000	0.027	-0.215
-368.756	-18.536	-0.445	-0.280
-367.742	-200.000	0.013	-0.096
-366.727	33.955	0.176	-0.155
-365.712	-113.611	0.077	-0.015
-364.698	-27.589	-0.220	-0.129
-363.683	-62.222	-0.409	0.172
-362.669	-200.000	-0.087	0.615
-361.654	800.000	0.021	0.072
-360.639	22.062	-0.276	-0.227
-359.625	-194.739	0.195	0.002
-358.610	-129.637	-0.161	0.022
-357.596	-25.464	-0.224	-0.133
-356.581	602.640	-0.143	-0.358
-355.566	-34.595	0.358	0.198
-354.552	402.812	0.008	0.018
-353.537	146.728	0.134	0.182
-352.523	-200.000	0.002	-0.150
-351.508	-84.639	0.251	-0.080
-350.493	14.219	-0.196	-0.154
-349.479	119.427	0.118	-0.147
-348.464	104.123	0.002	-0.002
-347.450	-100.462	-0.239	0.060
-346.435	245.369	0.111	0.189
-345.420	-99.910	0.133	0.033
-344.406	-60.969	-0.045	0.019
-343.391	-9.750	-0.187	-0.125
-342.377	800.000	0.090	-0.300
-341.362	198.213	-0.055	-0.084
-340.348	500.169	-0.093	0.217
-339.333	123.599	0.189	0.239
-338.318	80.326	0.062	-0.068
-337.304	-87.614	-0.167	0.051
-336.289	-93.557	0.088	0.024
-335.275	-0.722	-0.180	-0.129
-334.260	-38.229	0.097	-0.052
-333.245	-3.686	-0.099	0.069
-332.231	-55.071	0.089	-0.040
-331.216	-21.616	-0.411	-0.252
-330.202	-92.672	0.142	-0.040
-329.187	-200.000	0.008	0.212
-328.172	-125.438	-0.207	-0.032
-327.158	-200.000	0.002	0.140
-326.143	-132.889	-0.204	0.026
-325.129	-129.580	-0.089	0.012
-324.114	-200.000	0.025	-0.140
-323.099	-200.000	-0.054	-0.366
-322.085	-53.918	-0.155	0.071
-321.070	-167.613	0.206	-0.008
-320.056	-86.698	-0.384	0.118
-319.041	-103.157	-0.275	-0.065
-318.026	-85.159	-0.177	0.056
-317.012	-174.703	-0.241	0.007
-315.997	-122.500	-0.452	0.074
-314.983	4.048	-0.243	-0.179
-313.968	112.129	0.079	0.096
-312.953	800.000	0.046	0.149
-311.939	-200.000	-0.011	0.304
-310.924	-172.705	0.422	-0.013
-309.910	-0.756	-0.155	0.110
-308.895	84.200	-0.132	-0.146
-307.880	58.187	0.070	-0.069
-306.866	88.314	-0.054	-0.061
-305.851	-30.479	-0.366	-0.209
-304.837	517.522	-0.065	-0.152
-303.822	-12.690	-0.237	-0.155
-302.807	-145.920	0.172	-0.015
-301.793	154.427	0.255	-0.353
-300.778	97.297	0.220	0.254
-299.764	-27.819	-0.052	0.031
-298.749	295.305	-0.111	-0.204
-297.735	-200.000	-0.010	-0.315
-296.720	-148.826	-0.134	-0.011
-295.705	154.413	0.030	-0.041
-294.691	-200.000	-0.031	0.316
-293.676	-200.000	0.008	0.092
-292.662	584.371	-0.066	0.163
-291.647	-106.928	0.359	0.080
-290.632	-200.000	0.029	0.220
-289.618	0.511	-0.118	-0.085
-288.603	-34.409	0.227	0.125
-287.589	-128.287	0.333	-0.048
-286.574	800.000	0.081	0.244
-285.559	6.671	0.175	0.131
-284.545	-39.098	-0.100	-0.053
-283.530	76.840	-0.077	0.082
-282.516	-107.696	0.251	0.055
-281.501	38.676	-0.097	-0.087
-280.486	800.000	-0.018	-0.058
-279.472	474.904	0.049	-0.111
-278.457	-73.411	0.254	0.093
-277.443	57.780	0.214	0.211
-276.428	75.909	-0.223	-0.237
-275.413	-27.683	0.137	0.080
-274.399	-71.414	0.186	0.070
-273.384	-23.142	0.147	0.089
-272.370	-124.947	-0.492	0.076
-271.355	-41.393	-0.400	-0.207
-270.340	-30.108	0.112	0.064
-269.326	15.530	-0.021	-0.016
-268.311	-118.174	-0.375	-0.067
-267.297	-106.286	-0.215	0.048
-266.282	-152.210	-0.267	-0.019
-265.267	-200.000	-0.053	-0.274
-264.253	81.822	0.057	-0.062
-263.238	-200.000	-0.001	0.090
-262.224	247.974	-0.086	0.146
-261.209	111.608	0.049	-0.059
-260.195	77.547	0.151	0.162
-259.180	-135.475	0.348	0.042
-258.165	-2.046	0.107	-0.075
-257.151	-0.809	-0.180	0.128
-256.136	-200.000	0.003	0.133
-255.122	157.526	-0.051	0.071
-254.107	61.737	-0.079	-0.079
-253.092	-106.506	-0.163	-0.037
-252.078	-200.000	-0.032	0.170
-251.063	-51.942	-0.229	-0.107
-250.049	-200.000	-0.037	-0.169
-249.034	-109.993	-0.075	-0.016
-248.019	602.022	0.089	-0.221
-247.005	-65.825	0.142	-0.057
-245.990	-55.223	-0.186	0.084
-244.976	800.000	-0.087	0.312
-243.961	291.828	-0.084	-0.154
-242.946	37.463	-0.106	-0.094
-241.932	-9.694	0.174	0.116
-240.917	-20.159	0.311	0.192
-239.903	325.770	0.059	0.114
-238.888	-31.759	-0.244	-0.137
-237.873	-162.611	0.052	0.003
-236.859	279.175	-0.152	-0.272
-235.844	122.635	-0.166	0.208
-234.830	270.343	-0.048	-0.085
-233.815	103.096	-0.050	0.059
-232.800	-131.346	0.303	0.040
-231.786	-89.400	0.146	-0.043
-230.771	-200.000	-0.055	0.262
-229.757	-200.000	0.014	0.187
-228.742	77.402	-0.105	-0.112
-227.727	1.032	0.121	0.087
-226.713	-200.000	-0.008	-0.290
-225.698	203.652	0.116	0.180
-224.684	756.260	0.051	-0.138
-223.669	800.000	0.052	0.200
-222.655	127.623	-0.209	-0.266
-221.640	-140.161	0.077	0.008
-220.625	19.071	0.373	0.300
-219.611	-200.000	0.025	-0.382
-218.596	48.985	-0.160	0.151
-217.582	-22.371	0.152	0.092
-216.567	115.978	0.328	0.403
-215.552	711.624	0.085	0.225
-214.538	800.000	-0.022	0.079
-213.523	-57.028	-0.235	-0.104
-212.509	-140.292	-0.350	-0.037
-211.494	-192.400	0.179	0.002
-210.479	162.008	-0.119	-0.167
-209.465	-95.959	-0.061	-0.016
-208.450	217.752	0.078	-0.125
-207.436	442.063	0.046	-0.101
-206.421	-200.000	0.039	-0.300
-205.406	76.985	-0.133	0.141
-204.392	-77.435	0.196	0.068
-203.377	800.000	0.087	0.272
-202.363	-65.240	0.131	0.053
-201.348	800.000	-0.139	0.514
-200.333	172.493	-0.174	0.251
-199.319	-44.444	0.120	-0.060
-198.304	-200.000	0.010	-0.143
-197.290	-120.020	-0.111	-0.019
-196.275	25.490	0.185	0.154
-195.260	-82.495	-0.161	-0.052
-194.246	-200.000	-0.001	-0.413
-193.231	52.167	-0.093	0.089
-192.217	-103.807	-0.135	0.032
-191.202	288.002	-0.034	0.061
-190.187	57.341	0.264	-0.258
-189.173	-200.000	-0.021	-0.209
-188.158	-120.408	0.179	0.030
-187.144	51.363	0.147	-0.139
-186.129	-24.359	-0.099	0.059
-185.114	78.966	0.058	0.062
-184.100	-52.725	-0.162	0.075
-183.085	-81.761	0.107	0.035
-182.071	638.376	-0.071	-0.180
-181.056	-35.550	-0.374	0.203
-180.042	-110.531	-0.513	-0.106
-179.027	133.066	0.184	-0.238
-178.012	-50.891	-0.234	-0.110
-176.998	-200.000	-0.039	-0.244
-175.983	-55.148	-0.274	0.123
-174.969	-6.625	0.106	0.072
-173.954	94.254	0.105	-0.119
-172.939	125.630	0.154	-0.195
-171.925	-56.422	-0.088	0.039
-170.910	2.931	0.034	0.024
-169.896	-160.192	0.014	-0.001
-168.881	-24.176	0.151	0.090
-167.866	800.000	0.063	0.176
-166.852	-200.000	-0.020	-0.099
-165.837	-44.168	-0.137	0.069
-164.823	104.810	-0.105	-0.124
-163.808	800.000	-0.028	0.090
-162.793	142.696	-0.170	0.226
-161.779	198.238	-0.135	0.206
-160.764	7.348	-0.135	-0.101
-159.750	105.885	0.213	-0.252
-158.735	-3.965	0.221	-0.153
-157.720	800.000	-0.073	0.208
-156.706	-200.000	0.006	0.237
-155.691	519.088	0.150	-0.351
-154.677	-55.237	-0.172	0.077
-153.662	635.246	0.140	0.356
-152.647	-65.320	-0.019	-0.008
-151.633	495.220	-0.241	0.554
-150.618	166.522	0.159	-0.225
-149.604	-70.221	0.183	-0.070
-148.589	-99.667	-0.069	0.017
-147.574	14.038	0.091	0.071
-146.560	-62.305	0.059	0.025
-145.545	429.855	0.200	-0.432
-144.531	383.856	0.125	0.258
-143.516	-41.757	-0.203	0.104
-142.502	29.353	0.255	0.216
-141.487	-163.282	-0.068	0.003
-140.472	-200.000	-0.020	0.316
-139.458	800.000	0.034	-0.139
-138.443	-102.562	0.245	0.059
-137.429	-23.001	0.291	0.175
-136.414	65.896	-0.065	-0.066
-135.399	800.000	0.056	0.222
-134.385	174.941	-0.108	0.157
-133.370	-200.000	0.005	0.027
-132.356	56.368	-0.227	-0.221
-131.341	-107.383	-0.358	0.079
-130.326	72.864	0.111	-0.116
-129.312	252.640	0.140	-0.239
-128.297	800.000	-0.048	-0.169
-127.283	-57.490	-0.234	0.103
-126.268	94.904	0.130	-0.147
-125.253	13.695	0.297	-0.230
-124.239	-39.013	-0.360	-0.189
-123.224	-200.000	0.006	0.072
-122.210	-122.326	-0.080	0.013
-121.195	358.737	0.174	-0.347
-120.180	29.390	-0.218	0.185
