DTS Sentinel unit serial number:	SN413079Multiplexer serial number:	ORYXHardware model number:	OX4-SRSoftware version number:	ORYX F/W v4.00 Oryx Data Collector v3.7.2.0data status	okinstallation	princeton_trtdifferential loss correction	single-endedforward channel	channel 1reverse channel	N/Adate	2019/09/12time	17:16:12forward acquisition time	60.00reverse acquisition time	0.00gamma	496.2192k internal	0.2314k external	0.2314temperature offset calibration	1.0100default loss term (dB/km)	0.3790temperature slope calibration	1.0000multiplexer offset coefficient	1.0000multiplexer slope coefficient	1.0000fibre end	0.00T internal ref (°C)	35.09T ext. ref 1 (°C)	2.81T ext. ref 2 (°C)	28.81length (m)	temperature (°C)	Stokes	anti-Stokes-747.200	800.000	-0.100	0.314
-746.185	188.205	-0.141	0.214
-745.171	172.899	-0.236	0.345
-744.156	800.000	-0.078	0.337
-743.142	-109.693	-0.146	0.031
-742.127	185.260	0.122	0.183
-741.112	800.000	0.128	-0.366
-740.098	800.000	-0.180	0.661
-739.083	-77.168	-0.264	-0.093
-738.069	-200.000	0.035	0.611
-737.054	214.537	0.134	0.216
-736.039	150.372	-0.220	0.302
-735.025	-70.172	-0.202	-0.078
-734.010	800.000	-0.083	0.277
-732.996	11.414	0.346	0.269
-731.981	123.316	-0.159	0.202
-730.966	-28.434	-0.324	0.189
-729.952	272.697	-0.331	0.593
-728.937	123.126	-0.201	-0.256
-727.923	46.448	-0.140	-0.131
-726.908	-7.913	0.084	-0.058
-725.894	-164.991	-0.385	0.017
-724.879	800.000	-0.066	-0.275
-723.864	-200.000	0.011	-0.143
-722.850	-200.000	0.012	-0.219
-721.835	277.387	0.022	-0.041
-720.821	-94.070	-0.125	-0.035
-719.806	82.529	-0.301	0.331
-718.791	-200.000	0.000	0.221
-717.777	334.906	0.074	0.145
-716.762	-161.790	-0.307	0.016
-715.748	-119.895	0.146	0.025
-714.733	-171.913	0.299	0.010
-713.718	-39.399	-0.103	-0.055
-712.704	-200.000	0.017	0.287
-711.689	-70.492	-0.189	0.073
-710.675	-200.000	-0.029	-0.200
-709.660	800.000	0.064	0.282
-708.645	-200.000	0.035	-0.322
-707.631	-11.798	-0.217	0.144
-706.616	476.465	0.064	-0.147
-705.602	-25.534	-0.307	0.184
-704.587	-200.000	0.043	0.356
-703.572	-21.780	0.239	-0.147
-702.558	-22.665	-0.174	0.106
-701.543	66.417	0.242	0.249
-700.529	-160.587	-0.271	0.015
-699.514	-200.000	-0.055	0.309
-698.499	-200.000	-0.015	-0.130
-697.485	-44.367	-0.072	0.036
-696.470	-97.470	0.128	-0.034
-695.456	35.180	-0.039	0.034
-694.441	800.000	0.041	-0.160
-693.426	144.148	-0.071	0.096
-692.412	-200.000	0.004	-0.195
-691.397	800.000	-0.144	-0.549
-690.383	-126.993	0.077	0.011
-689.368	-19.200	-0.046	0.029
-688.354	-77.480	-0.340	-0.119
-687.339	2.328	0.058	-0.043
-686.324	-133.575	-0.351	0.044
-685.310	47.293	0.086	-0.081
-684.295	59.301	-0.268	0.267
-683.281	429.848	-0.129	0.281
-682.266	800.000	-0.040	-0.157
-681.251	-81.781	-0.193	0.064
-680.237	800.000	-0.026	-0.084
-679.222	-200.000	0.010	-0.117
-678.208	57.408	0.089	0.088
-677.193	23.916	-0.188	-0.157
-676.178	-200.000	0.049	-0.228
-675.164	-129.493	0.286	0.040
-674.149	-102.024	0.163	0.040
-673.135	69.414	-0.159	0.165
-672.120	145.531	-0.147	-0.199
-671.105	-200.000	0.015	0.273
-670.091	143.917	-0.162	0.219
-669.076	726.886	0.055	-0.147
-668.062	800.000	-0.074	-0.296
-667.047	-140.906	-0.164	0.017
-666.032	-200.000	0.047	-0.312
-665.018	-51.990	0.239	-0.112
-664.003	502.809	0.083	0.195
-662.989	800.000	0.091	0.279
-661.974	115.078	-0.162	0.199
-660.959	-200.000	0.080	-0.362
-659.945	-11.732	-0.243	-0.161
-658.930	800.000	0.025	-0.113
-657.916	7.578	-0.201	0.152
-656.901	800.000	-0.103	-0.313
-655.886	68.374	0.158	-0.163
-654.872	53.098	0.192	0.186
-653.857	-70.187	0.093	-0.036
-652.843	-200.000	0.005	-0.211
-651.828	64.369	-0.011	0.011
-650.814	-37.329	0.074	0.040
-649.799	-99.287	-0.254	-0.065
-648.784	495.580	-0.062	-0.144
-647.770	-52.831	0.275	0.128
-646.755	-22.292	-0.257	-0.157
-645.741	800.000	0.053	-0.205
-644.726	-35.135	0.194	-0.107
-643.711	-200.000	-0.056	0.248
-642.697	-103.929	-0.140	-0.033
-641.682	-93.796	-0.068	0.019
-640.668	-144.875	-0.217	0.020
-639.653	-200.000	-0.026	-0.391
-638.638	7.223	0.183	-0.138
-637.624	-200.000	0.019	0.201
-636.609	97.642	0.155	0.180
-635.595	176.239	-0.034	0.050
-634.580	-143.907	0.544	-0.052
-633.565	-200.000	0.008	0.141
-632.551	-97.198	-0.161	-0.042
-631.536	-200.000	0.041	-0.317
-630.522	-155.504	0.189	-0.012
-629.507	-200.000	-0.066	-0.338
-628.492	-34.622	0.087	-0.048
-627.478	173.939	0.053	-0.078
-626.463	65.025	-0.042	0.043
-625.449	40.283	-0.051	0.046
-624.434	-67.135	-0.188	-0.075
-623.419	34.641	-0.142	0.125
-622.405	800.000	0.036	-0.124
-621.390	42.187	0.360	0.330
-620.376	-200.000	0.016	0.279
-619.361	26.265	-0.220	-0.185
-618.346	-72.369	-0.226	-0.084
-617.332	119.014	0.029	-0.036
-616.317	-200.000	0.022	-0.241
-615.303	-24.208	0.148	-0.089
-614.288	155.893	-0.221	-0.308
-613.273	-187.500	-0.324	0.004
-612.259	-26.748	-0.192	0.113
-611.244	278.184	0.075	-0.135
-610.230	66.804	0.081	-0.083
-609.215	-200.000	0.021	-0.111
-608.201	263.845	0.231	0.406
-607.186	-116.308	0.208	0.039
-606.171	62.431	-0.110	-0.111
-605.157	-130.497	0.448	-0.061
-604.142	-200.000	-0.040	0.257
-603.128	800.000	-0.071	-0.287
-602.113	-200.000	0.053	0.280
-601.098	219.829	-0.110	0.178
-600.084	257.946	-0.058	0.100
-599.069	3.839	-0.184	-0.135
-598.055	-200.000	-0.003	-0.056
-597.040	-200.000	0.315	0.001
-596.025	229.637	0.021	0.035
-595.011	33.907	-0.173	-0.152
-593.996	800.000	0.059	-0.206
-592.982	348.520	0.127	0.253
-591.967	104.034	0.197	0.234
-590.952	800.000	-0.039	0.109
-589.938	-200.000	-0.002	0.174
-588.923	8.925	-0.178	0.135
-587.909	644.779	0.072	-0.186
-586.894	-200.000	0.032	0.156
-585.879	275.132	-0.093	0.166
-584.865	-200.000	0.012	0.153
-583.850	49.220	-0.249	-0.236
-582.836	-196.950	0.103	-0.001
-581.821	-200.000	-0.007	-0.035
-580.806	247.349	0.167	-0.284
-579.792	800.000	-0.028	-0.091
-578.777	-166.072	-0.278	0.012
-577.763	800.000	-0.118	-0.349
-576.748	-45.062	0.066	0.033
-575.733	-200.000	0.069	0.373
-574.719	-200.000	-0.009	0.102
-573.704	37.936	0.088	0.079
-572.690	38.499	-0.223	0.201
-571.675	-200.000	-0.009	0.311
-570.661	176.512	0.077	0.113
-569.646	1.295	-0.119	0.086
-568.631	-200.000	0.051	0.234
-567.617	141.149	0.081	0.108
-566.602	-85.887	0.154	-0.048
-565.588	30.154	-0.176	-0.151
-564.573	-149.973	0.145	-0.011
-563.558	110.969	-0.089	0.107
-562.544	671.257	-0.044	-0.113
-561.529	93.451	-0.299	-0.341
-560.515	-51.443	-0.236	0.111
-559.500	65.883	-0.097	0.099
-558.485	553.413	0.107	-0.260
-557.471	16.803	0.209	0.166
-556.456	-16.645	0.122	0.078
-555.442	208.112	-0.032	-0.050
-554.427	-200.000	0.003	0.043
-553.412	-51.277	0.156	-0.073
-552.398	336.491	0.065	0.128
-551.383	-200.000	-0.072	-0.392
-550.369	-200.000	0.041	-0.350
-549.354	-200.000	-0.009	0.177
-548.339	-95.621	0.425	0.114
-547.325	-80.289	0.143	0.048
-546.310	384.415	-0.119	0.246
-545.296	76.112	-0.065	-0.069
-544.281	-200.000	-0.010	0.105
-543.266	-20.970	-0.158	-0.097
-542.252	-11.253	0.354	-0.235
-541.237	-32.695	0.043	0.024
-540.223	48.999	-0.200	0.189
-539.208	-72.259	-0.065	0.024
-538.193	78.138	-0.210	0.225
-537.179	86.899	-0.066	0.074
-536.164	115.435	0.194	-0.238
-535.150	22.312	0.282	-0.232
-534.135	781.090	-0.090	-0.247
-533.121	1.637	0.176	-0.127
-532.106	87.964	-0.119	-0.133
-531.091	281.892	-0.124	0.224
-530.077	-200.000	0.009	-0.197
-529.062	800.000	0.034	0.100
-528.048	-111.593	-0.319	0.065
-527.033	-8.431	0.266	0.180
-526.018	269.373	0.215	-0.380
-525.004	-200.000	0.033	-0.290
-523.989	574.361	0.085	-0.208
-522.975	800.000	-0.047	0.142
-521.960	-50.911	0.273	0.129
-520.945	-110.744	0.108	-0.022
-519.931	-183.635	0.340	0.006
-518.916	-42.712	-0.097	0.049
-517.902	-33.763	0.081	-0.045
-516.887	-84.462	0.183	-0.058
-515.872	313.386	-0.141	0.266
-514.858	-101.108	0.065	-0.016
-513.843	347.097	-0.053	0.105
-512.829	-200.000	-0.022	0.466
-511.814	273.654	0.053	-0.095
-510.799	-46.842	0.169	-0.083
-509.785	-200.000	-0.043	0.378
-508.770	800.000	0.138	0.386
-507.756	202.558	0.023	-0.035
-506.741	52.107	-0.145	-0.139
-505.726	7.078	0.185	-0.139
-504.712	-62.088	-0.065	-0.027
-503.697	800.000	0.068	-0.201
-502.683	-23.688	0.061	0.037
-501.668	-106.652	0.043	0.010
-500.653	-110.286	0.105	0.022
-499.639	-131.928	0.232	0.030
-498.624	-200.000	0.048	0.221
-497.610	-92.550	0.112	-0.032
-496.595	-200.000	0.002	0.172
-495.581	-132.577	-0.011	-0.001
-494.566	244.470	-0.129	0.217
-493.551	52.998	-0.078	0.075
-492.537	-178.446	0.211	0.005
-491.522	-53.742	-0.214	0.098
-490.508	451.632	-0.128	-0.283
-489.493	-90.358	-0.094	-0.027
-488.478	-109.455	0.071	0.015
-487.464	133.713	-0.131	-0.170
-486.449	83.446	-0.115	0.126
-485.435	77.720	0.237	0.254
-484.420	167.082	0.107	-0.152
-483.405	-38.124	0.279	0.149
-482.391	52.409	0.132	-0.126
-481.376	110.994	0.156	-0.188
-480.362	-107.753	-0.085	0.019
-479.347	703.740	0.069	-0.183
-478.332	-72.181	-0.439	0.163
-477.318	188.479	-0.091	-0.137
-476.303	-200.000	-0.003	0.026
-475.289	520.848	-0.026	0.062
-474.274	-103.011	0.071	0.017
-473.259	-95.948	-0.303	0.081
-472.245	300.600	-0.032	-0.060
-471.230	-200.000	-0.016	-0.221
-470.216	-22.045	0.098	0.060
-469.201	326.534	-0.100	0.191
-468.186	800.000	-0.035	-0.128
-467.172	248.438	-0.064	0.109
-466.157	-58.923	-0.299	0.130
-465.143	-158.752	-0.141	-0.008
-464.128	-86.220	0.321	-0.099
-463.113	-83.791	-0.130	0.042
-462.099	-87.581	0.227	0.069
-461.084	71.129	-0.061	0.064
-460.070	-200.000	0.003	-0.121
-459.055	-200.000	-0.029	-0.129
-458.040	12.042	-0.131	-0.101
-457.026	-35.172	0.096	-0.052
-456.011	180.178	0.235	-0.345
-454.997	117.261	0.115	0.141
-453.982	-89.974	0.108	0.032
-452.968	-54.187	0.392	0.178
-451.953	79.269	-0.330	0.355
-450.938	-200.000	-0.076	0.354
-449.924	-136.962	-0.375	-0.043
-448.909	800.000	0.010	0.040
-447.895	-200.000	0.039	-0.197
-446.880	-138.881	-0.017	0.002
-445.865	-200.000	-0.066	-0.308
-444.851	-111.907	-0.129	0.026
-443.836	800.000	-0.085	0.306
-442.822	-9.496	-0.247	-0.165
-441.807	-104.690	0.147	-0.034
-440.792	40.524	0.104	0.094
-439.778	44.770	-0.124	0.114
-438.763	239.030	-0.102	0.170
-437.749	-200.000	-0.066	-0.475
-436.734	62.375	0.302	0.302
-435.719	800.000	-0.073	-0.316
-434.705	629.729	-0.096	0.244
-433.690	162.315	0.208	-0.293
-432.676	800.000	-0.070	0.238
-431.661	713.026	-0.143	0.379
-430.646	9.440	0.302	-0.229
-429.632	-22.571	-0.233	-0.141
-428.617	800.000	0.054	-0.236
-427.603	487.559	-0.140	-0.319
-426.588	104.817	0.138	-0.163
-425.573	800.000	0.030	-0.086
-424.559	-28.619	-0.148	-0.085
-423.544	-200.000	-0.043	-0.222
-422.530	800.000	-0.057	-0.173
-421.515	-99.666	-0.092	0.023
-420.500	44.305	0.145	0.134
-419.486	800.000	0.056	0.170
-418.471	-127.353	0.297	0.043
-417.457	-183.587	0.122	0.002
-416.442	-86.519	-0.175	-0.054
-415.428	-200.000	0.019	-0.235
-414.413	306.656	0.097	-0.181
-413.398	-200.000	-0.039	-0.244
-412.384	12.941	-0.272	-0.211
-411.369	600.612	0.059	0.147
-410.355	-95.385	-0.266	0.071
-409.340	-135.553	-0.385	-0.046
-408.325	48.126	-0.283	-0.265
-407.311	428.659	0.042	-0.091
-406.296	-200.000	-0.009	-0.227
-405.282	77.641	0.149	0.159
-404.267	800.000	-0.019	0.083
-403.252	-200.000	0.067	0.298
-402.238	619.380	-0.197	0.495
-401.223	-200.000	0.008	0.097
-400.209	800.000	-0.075	0.250
-399.194	151.752	0.120	0.164
-398.179	221.093	-0.144	-0.231
-397.165	-90.235	-0.291	0.085
-396.150	800.000	0.139	0.395
-395.136	-200.000	0.008	0.175
-394.121	-115.293	-0.311	0.059
-393.106	800.000	-0.068	-0.260
-392.092	15.441	-0.263	0.206
-391.077	38.037	0.171	0.152
-390.063	-200.000	-0.030	-0.257
-389.048	32.811	-0.165	-0.143
-388.033	297.238	0.053	-0.096
-387.019	14.479	-0.150	0.117
-386.004	55.586	-0.303	0.293
-384.990	-72.281	-0.244	-0.091
-383.975	-19.146	-0.033	-0.021
-382.960	475.064	0.175	0.396
-381.946	114.091	-0.036	0.044
-380.931	-105.767	0.375	0.085
-379.917	-47.962	0.266	0.129
-378.902	648.166	-0.054	-0.139
-377.888	-104.550	0.091	0.021
-376.873	800.000	-0.137	0.394
-375.858	-158.341	0.251	0.015
-374.844	-200.000	-0.058	-0.285
-373.829	318.292	-0.084	0.158
-372.815	-101.770	-0.158	-0.038
-371.800	-146.632	0.326	0.028
-370.785	90.820	0.244	-0.274
-369.771	-88.680	-0.148	0.044
-368.756	230.747	-0.175	-0.286
-367.742	-8.986	-0.408	-0.273
-366.727	-12.634	-0.240	0.156
-365.712	-118.244	0.307	-0.055
-364.698	-51.339	0.055	0.026
-363.683	800.000	0.085	0.322
-362.669	-66.358	0.322	0.128
-361.654	800.000	0.099	0.353
-360.639	-73.724	0.263	-0.096
-359.625	24.340	-0.113	0.093
-358.610	-200.000	0.010	0.171
-357.596	-200.000	0.013	0.131
-356.581	-5.356	0.166	-0.114
-355.566	-71.133	0.177	0.066
-354.552	-46.787	0.193	-0.095
-353.537	-200.000	-0.015	-0.146
-352.523	-160.519	-0.125	-0.007
-351.508	74.080	0.107	-0.113
-350.493	-64.600	-0.083	-0.034
-349.479	-67.712	0.449	0.176
-348.464	-37.538	0.161	-0.086
-347.450	340.408	0.041	0.080
-346.435	-117.761	0.346	-0.062
-345.420	-1.801	-0.086	0.060
-344.406	94.063	-0.113	0.128
-343.391	-110.470	0.239	-0.050
-342.377	16.959	-0.186	0.147
-341.362	-143.412	0.105	-0.010
-340.348	646.792	-0.027	0.069
-339.333	-200.000	-0.032	-0.167
-338.318	786.086	-0.025	-0.069
-337.304	321.601	-0.117	0.221
-336.289	251.984	-0.120	-0.204
-335.275	-64.643	-0.294	-0.119
-334.260	38.791	0.154	0.137
-333.245	-4.336	-0.230	-0.159
-332.231	-48.251	-0.098	-0.047
-331.216	104.877	0.241	0.284
-330.202	358.416	-0.079	0.158
-329.187	32.145	0.109	-0.094
-328.172	-142.515	0.325	0.032
-327.158	-200.000	-0.246	0.001
-326.143	-200.000	0.001	0.031
-325.129	-200.000	-0.019	0.215
-324.114	201.742	0.073	-0.112
-323.099	-200.000	-0.028	0.143
-322.085	-58.445	0.134	0.058
-321.070	-200.000	0.015	-0.113
-320.056	62.073	-0.018	-0.018
-319.041	-105.757	-0.138	0.031
-318.026	280.517	0.079	-0.141
-317.012	-151.854	-0.479	-0.035
-315.997	-107.802	-0.191	-0.041
-314.983	1.694	-0.143	-0.102
-313.968	-29.067	-0.123	0.071
-312.953	-62.363	0.331	-0.137
-311.939	-200.000	0.041	0.391
-310.924	24.289	0.094	0.077
-309.910	-171.207	0.291	-0.010
-308.895	-80.160	0.166	-0.055
-307.880	10.282	0.170	-0.129
-306.866	66.270	-0.089	0.090
-305.851	-200.000	-0.034	0.321
-304.837	-200.000	0.004	0.061
-303.822	49.119	-0.093	-0.087
-302.807	143.554	0.220	-0.292
-301.793	279.161	0.100	-0.178
-300.778	67.785	-0.042	0.043
-299.764	-200.000	0.084	0.392
-298.749	27.199	-0.117	-0.098
-297.735	75.378	-0.201	0.212
-296.720	688.637	-0.166	-0.432
-295.705	-169.298	-0.129	-0.005
-294.691	-90.349	-0.308	-0.089
-293.676	-34.627	0.300	-0.164
-292.662	-200.000	0.012	-0.105
-291.647	-200.000	0.003	-0.234
-290.632	-109.843	0.269	0.056
-289.618	1.585	-0.157	0.112
-288.603	-94.308	-0.161	-0.044
-287.589	323.312	-0.112	0.213
-286.574	12.595	-0.193	0.148
-285.559	683.674	-0.056	0.144
-284.545	-68.256	-0.252	0.098
-283.530	-6.531	0.267	0.181
-282.516	-37.328	-0.204	-0.108
-281.501	-147.169	0.336	0.029
-280.486	800.000	0.081	-0.234
-279.472	800.000	0.065	-0.237
-278.457	350.503	-0.075	0.147
-277.443	-200.000	0.006	-0.189
-276.428	-70.841	0.145	0.055
-275.413	800.000	-0.004	0.013
-274.399	800.000	-0.030	0.103
-273.384	-200.000	0.021	0.349
-272.370	98.485	-0.070	0.080
-271.355	7.565	0.231	0.172
-270.340	-19.096	-0.114	0.070
-269.326	-106.921	-0.197	0.043
-268.311	146.614	-0.161	-0.216
-267.297	-172.766	-0.090	-0.003
-266.282	-200.000	0.023	-0.121
-265.267	215.923	0.041	0.065
-264.253	-200.000	-0.004	-0.099
-263.238	-128.845	-0.117	0.016
-262.224	56.603	0.104	0.101
-261.209	-200.000	-0.025	0.375
-260.195	-200.000	0.006	-0.382
-259.180	-200.000	0.055	-0.273
-258.165	-47.841	-0.327	-0.157
-257.151	-131.178	-0.347	-0.046
-256.136	-177.433	-0.106	0.003
-255.122	800.000	0.078	0.293
-254.107	361.848	0.123	-0.246
-253.092	193.581	0.183	-0.276
-252.078	800.000	0.044	0.145
-251.063	633.876	-0.067	0.168
-250.049	-95.231	-0.381	-0.102
-249.034	69.985	0.283	0.290
-248.019	-59.216	0.204	0.087
-247.005	-56.685	-0.249	0.109
-245.990	-200.000	-0.002	-0.033
-244.976	-61.078	-0.398	0.167
-243.961	800.000	-0.024	-0.083
-242.946	-48.771	0.347	-0.165
-241.932	252.348	-0.117	0.199
-240.917	-200.000	-0.079	0.392
-239.903	-166.928	0.275	0.011
-238.888	-137.881	-0.219	-0.024
-237.873	210.415	-0.134	-0.209
-236.859	75.819	-0.198	0.208
-235.844	225.494	-0.054	0.087
-234.830	-30.319	-0.330	-0.186
-233.815	25.272	-0.153	-0.126
-232.800	800.000	0.046	-0.194
-231.786	-78.137	-0.170	0.058
-230.771	22.426	-0.096	-0.078
-229.757	-200.000	-0.039	-0.335
-228.742	194.325	-0.078	0.117
-227.727	-200.000	0.039	0.195
-226.713	241.743	-0.152	-0.252
-225.698	-158.708	-0.410	0.023
-224.684	800.000	0.121	-0.384
-223.669	-122.776	0.183	0.029
-222.655	-160.387	-0.094	-0.005
-221.640	-89.663	-0.183	-0.053
-220.625	-91.564	0.070	-0.020
-219.611	-200.000	0.011	-0.407
-218.596	-99.463	-0.242	-0.060
-217.582	800.000	0.130	-0.386
-216.567	-25.098	-0.302	-0.178
-215.552	-163.451	0.366	0.017
-214.538	-21.213	-0.150	-0.091
-213.523	-60.013	0.128	-0.054
-212.509	543.067	0.128	0.303
-211.494	-200.000	0.002	-0.130
-210.479	154.999	0.037	-0.051
-209.465	800.000	0.047	0.170
-208.450	-52.198	0.146	-0.067
-207.436	275.258	-0.182	0.321
-206.421	-80.926	0.096	0.031
-205.406	158.674	0.229	-0.316
-204.392	-200.000	-0.038	-0.186
-203.377	-81.930	0.070	-0.023
-202.363	-127.402	-0.126	-0.018
-201.348	141.193	0.071	0.094
-200.333	12.101	-0.249	0.190
-199.319	317.072	0.109	0.205
-198.304	-58.269	-0.274	0.118
-197.290	-200.000	0.040	0.187
-196.275	-200.000	0.063	0.290
-195.260	-98.961	0.189	-0.048
-194.246	705.316	0.214	-0.561
-193.231	-119.394	0.481	-0.083
-192.217	-78.507	-0.146	0.050
-191.202	-119.867	-0.026	-0.004
-190.187	-50.289	0.155	-0.073
-189.173	-200.000	-0.007	0.337
-188.158	-200.000	0.001	0.042
-187.144	179.375	-0.098	0.142
-186.129	-200.000	-0.009	0.052
-185.114	-107.910	0.190	-0.041
-184.100	-62.602	0.337	-0.139
-183.085	-52.201	0.220	-0.101
-182.071	691.117	0.013	-0.033
-181.056	-200.000	-0.038	0.164
-180.042	32.053	0.342	-0.293
-179.027	-76.377	0.241	0.084
-178.012	262.122	0.106	-0.183
-176.998	-200.000	0.087	0.420
-175.983	470.391	0.040	-0.088
-174.969	-30.495	-0.136	-0.077
-173.954	-19.814	0.271	-0.166
-172.939	-79.564	-0.360	0.121
-171.925	-138.476	0.101	0.011
-170.910	-90.577	0.247	-0.071
-169.896	-200.000	-0.009	0.055
-168.881	-200.000	0.038	0.299
-167.866	134.837	0.133	0.171
-166.852	-200.000	-0.040	-0.178
-165.837	-45.600	-0.082	0.040
-164.823	800.000	-0.082	-0.319
-163.808	-125.471	-0.200	0.030
-162.793	-59.086	-0.393	0.168
-161.779	800.000	0.059	-0.235
-160.764	800.000	0.094	-0.300
-159.750	-175.721	-0.223	0.006
-158.735	-46.403	0.088	-0.043
-157.720	272.047	0.147	-0.258
-156.706	800.000	-0.031	-0.091
-155.691	-67.756	0.085	0.033
-154.677	-44.420	-0.096	0.048
-153.662	-83.986	0.046	0.015
-152.647	-33.987	-0.237	-0.129
-151.633	-82.883	0.096	0.031
-150.618	51.568	-0.068	-0.064
-149.604	535.563	-0.041	-0.095
-148.589	-44.364	-0.023	0.012
-147.574	-180.190	0.341	-0.007
-146.560	6.400	-0.041	-0.030
-145.545	285.064	0.038	0.067
-144.531	18.117	0.024	0.019
-143.516	92.688	-0.183	0.205
-142.502	-103.184	0.410	0.096
-141.487	175.947	-0.221	-0.318
-140.472	800.000	0.019	0.063
-139.458	645.324	0.016	0.041
-138.443	229.684	0.138	-0.223
-137.429	800.000	-0.083	0.269
-136.414	272.361	-0.225	0.393
-135.399	383.815	0.140	-0.285
-134.385	-200.000	0.011	0.058
-133.370	-105.005	0.291	-0.066
-132.356	140.133	0.145	0.189
-131.341	-98.865	-0.020	0.005
-130.326	-106.487	0.107	0.024
-129.312	-103.546	0.098	-0.023
-128.297	257.670	0.163	-0.278
-127.283	707.236	-0.058	-0.153
-126.268	-59.709	-0.219	0.093
-125.253	-176.243	-0.052	0.001
-124.239	-114.482	0.233	-0.044
-123.224	-2.745	0.121	-0.084
-122.210	408.859	0.172	-0.361
-121.195	-155.772	0.263	0.017
