DTS Sentinel unit serial number:	SN413079Multiplexer serial number:	ORYXHardware model number:	OX4-SRSoftware version number:	ORYX F/W v4.00 Oryx Data Collector v3.7.2.0data status	okinstallation	princeton_trtdifferential loss correction	single-endedforward channel	channel 1reverse channel	N/Adate	2019/09/12time	06:20:11forward acquisition time	60.00reverse acquisition time	0.00gamma	496.2192k internal	0.2320k external	0.2320temperature offset calibration	1.0048default loss term (dB/km)	0.3790temperature slope calibration	1.0000multiplexer offset coefficient	1.0000multiplexer slope coefficient	1.0000fibre end	0.00T internal ref (°C)	32.12T ext. ref 1 (°C)	1.58T ext. ref 2 (°C)	27.41length (m)	temperature (°C)	Stokes	anti-Stokes-747.200	401.787	0.037	-0.078
-746.185	161.652	-0.064	0.091
-745.171	-48.041	0.355	-0.173
-744.156	-200.000	0.041	0.395
-743.142	-200.000	0.007	0.216
-742.127	45.466	0.207	0.193
-741.112	795.608	-0.076	0.211
-740.098	-199.297	-0.357	0.002
-739.083	-159.988	0.435	0.024
-738.069	-200.000	-0.021	0.290
-737.054	-102.346	-0.247	-0.060
-736.039	-34.862	-0.394	0.218
-735.025	-122.314	0.407	0.067
-734.010	420.898	0.047	-0.103
-732.996	-153.117	-0.087	-0.006
-731.981	28.187	0.110	-0.094
-730.966	-200.000	-0.061	0.296
-729.952	322.126	0.123	-0.236
-728.937	-200.000	0.012	-0.147
-727.923	-35.628	-0.175	0.096
-726.908	204.273	0.238	-0.373
-725.894	623.547	0.118	-0.301
-724.879	-200.000	-0.002	-0.203
-723.864	-149.238	0.136	-0.011
-722.850	-200.000	0.011	0.075
-721.835	-134.427	-0.176	0.022
-720.821	-200.000	0.026	-0.279
-719.806	-22.257	-0.222	0.136
-718.791	34.542	0.194	-0.171
-717.777	-200.000	-0.021	0.196
-716.762	-150.130	-0.125	0.010
-715.748	800.000	0.059	-0.193
-714.733	-9.691	-0.271	-0.182
-713.718	-58.695	0.164	0.072
-712.704	-200.000	-0.041	-0.186
-711.689	-152.227	0.106	-0.008
-710.675	-150.521	-0.489	0.038
-709.660	-129.460	0.174	-0.024
-708.645	800.000	0.098	0.279
-707.631	37.757	0.133	0.120
-706.616	800.000	-0.088	-0.293
-705.602	-74.771	0.268	-0.097
-704.587	52.677	-0.176	-0.170
-703.572	43.439	-0.043	-0.040
-702.558	800.000	0.078	0.309
-701.543	-49.132	0.199	-0.096
-700.529	-200.000	0.022	0.146
-699.514	-148.458	0.307	0.025
-698.499	56.444	0.077	-0.075
-697.485	-47.744	0.179	0.088
-696.470	800.000	0.029	0.089
-695.456	196.120	-0.130	0.199
-694.441	-200.000	-0.025	-0.120
-693.426	95.477	0.092	0.106
-692.412	354.071	0.181	-0.362
-691.397	-105.989	-0.326	-0.074
-690.383	12.689	0.191	0.149
-689.368	83.146	0.046	-0.051
-688.354	30.303	-0.061	-0.053
-687.339	121.357	-0.129	-0.163
-686.324	-101.552	0.201	-0.049
-685.310	-26.484	0.106	0.063
-684.295	-200.000	-0.028	0.265
-683.281	320.133	-0.074	-0.141
-682.266	408.578	-0.117	0.251
-681.251	-200.000	-0.037	0.179
-680.237	-170.471	-0.307	0.011
-679.222	-200.000	-0.026	-0.254
-678.208	800.000	-0.067	-0.262
-677.193	503.530	-0.063	-0.148
-676.178	-83.918	0.111	0.036
-675.164	800.000	0.017	0.065
-674.149	-56.518	0.238	0.107
-673.135	173.931	0.216	-0.315
-672.120	-89.647	-0.133	-0.039
-671.105	-154.521	0.117	0.008
-670.091	-20.965	0.059	0.037
-669.076	456.702	0.062	0.140
-668.062	281.881	0.116	0.210
-667.047	-200.000	0.005	-0.547
-666.032	-81.790	0.216	-0.071
-665.018	-62.909	0.019	-0.008
-664.003	-9.595	-0.187	-0.126
-662.989	41.562	0.171	0.156
-661.974	-151.155	0.191	-0.014
-660.959	-40.240	-0.091	0.048
-659.945	239.638	-0.045	0.076
-658.930	233.512	0.210	-0.348
-657.916	-53.280	-0.035	0.016
-656.901	13.530	-0.075	0.059
-655.886	-74.546	0.266	0.097
-654.872	66.769	-0.177	-0.182
-653.857	-200.000	0.018	-0.145
-652.843	-108.251	-0.115	-0.025
-651.828	-51.149	0.157	0.074
-650.814	-81.830	0.326	-0.108
-649.799	-200.000	0.024	0.170
-648.784	165.318	-0.084	-0.120
-647.770	-129.776	0.414	0.057
-646.755	86.632	0.103	0.115
-645.741	-200.000	0.029	0.224
-644.726	-110.528	-0.285	0.059
-643.711	536.048	0.083	0.197
-642.697	-85.658	-0.184	-0.058
-641.682	16.124	-0.161	-0.128
-640.668	242.949	-0.110	-0.185
-639.653	-200.000	-0.033	0.285
-638.638	-133.868	-0.182	-0.023
-637.624	21.926	0.242	-0.199
-636.609	-119.645	0.422	-0.073
-635.595	-139.669	0.455	-0.049
-634.580	-200.000	-0.014	0.176
-633.565	-88.835	-0.193	-0.058
-632.551	800.000	-0.063	-0.209
-631.536	-102.257	-0.247	0.060
-630.522	-60.516	-0.082	0.035
-629.507	165.312	-0.089	0.127
-628.492	-200.000	0.026	-0.159
-627.478	-200.000	-0.017	0.507
-626.463	248.711	-0.127	-0.217
-625.449	70.302	-0.041	-0.043
-624.434	21.480	-0.143	0.117
-623.419	244.586	-0.138	0.233
-622.405	-63.023	-0.220	-0.091
-621.390	800.000	0.042	-0.172
-620.376	324.035	-0.041	-0.080
-619.361	-200.000	-0.003	-0.194
-618.346	-49.387	0.068	-0.032
-617.332	-181.311	-0.062	-0.001
-616.317	-200.000	-0.007	0.081
-615.303	-55.353	0.130	0.059
-614.288	47.111	0.127	-0.118
-613.273	-66.301	-0.106	-0.043
-612.259	-50.878	0.130	0.062
-611.244	-200.000	0.041	-0.202
-610.230	-73.050	0.295	0.109
-609.215	-11.451	-0.083	0.055
-608.201	787.452	-0.152	-0.421
-607.186	-28.675	0.081	-0.047
-606.171	-200.000	-0.009	0.244
-605.157	-32.888	-0.103	0.057
-604.142	-92.770	0.134	-0.038
-603.128	-200.000	0.001	-0.161
-602.113	173.119	0.113	-0.164
-601.098	-114.192	-0.024	-0.005
-600.084	-79.357	-0.133	0.045
-599.069	766.196	0.057	0.155
-598.055	545.632	-0.025	-0.060
-597.040	50.727	0.150	-0.143
-596.025	21.263	-0.132	-0.107
-595.011	-111.977	-0.345	-0.070
-593.996	-10.288	0.092	-0.061
-592.982	-80.236	0.115	-0.039
-591.967	148.294	0.012	-0.016
-590.952	800.000	-0.022	-0.085
-589.938	33.859	-0.118	0.104
-588.923	-158.888	-0.124	0.007
-587.909	-150.846	0.109	0.008
-586.894	67.405	-0.252	0.258
-585.879	597.593	0.106	0.265
-584.865	46.964	0.074	-0.069
-583.850	-200.000	0.031	0.329
-582.836	-110.023	0.357	0.075
-581.821	80.626	-0.293	-0.318
-580.806	54.406	0.218	0.211
-579.792	-16.941	-0.134	0.085
-578.777	91.328	0.159	0.179
-577.763	313.021	-0.092	-0.173
-576.748	108.122	-0.034	0.041
-575.733	-121.890	0.115	0.019
-574.719	-74.392	-0.078	-0.028
-573.704	25.144	-0.094	0.078
-572.690	-21.383	-0.074	0.046
-571.675	-200.000	-0.016	-0.132
-570.661	-75.262	0.234	0.084
-569.646	192.745	-0.090	-0.137
-568.631	424.201	-0.019	-0.042
-567.617	-59.202	-0.119	-0.051
-566.602	177.309	0.116	-0.170
-565.588	-200.000	0.015	-0.204
-564.573	-10.935	-0.242	-0.160
-563.558	-54.026	-0.128	-0.059
-562.544	652.281	0.067	-0.172
-561.529	559.107	0.056	-0.136
-560.515	244.324	-0.021	0.036
-559.500	-108.633	0.102	-0.022
-558.485	-181.862	-0.165	-0.003
-557.471	-7.641	-0.134	0.091
-556.456	6.994	0.239	-0.179
-555.442	-169.513	-0.285	-0.010
-554.427	-200.000	-0.034	-0.207
-553.412	800.000	0.114	-0.413
-552.398	77.610	-0.109	0.117
-551.383	78.273	0.324	-0.347
-550.369	-200.000	0.005	0.390
-549.354	-68.285	-0.165	-0.064
-548.339	439.782	-0.112	0.245
-547.325	17.262	-0.102	-0.081
-546.310	0.800	0.187	-0.135
-545.296	58.619	0.235	-0.231
-544.281	-116.280	-0.274	-0.051
-543.266	-200.000	-0.022	-0.252
-542.252	80.204	0.190	-0.205
-541.237	238.590	0.216	-0.361
-540.223	-94.090	-0.238	-0.066
-539.208	-4.397	-0.120	0.083
-538.193	800.000	0.085	-0.368
-537.179	164.445	0.251	-0.355
-536.164	372.473	-0.055	-0.112
-535.150	-47.735	-0.181	-0.088
-534.135	63.992	0.049	0.050
-533.121	388.535	0.274	0.569
-532.106	544.193	0.042	-0.101
-531.091	69.979	-0.207	0.214
-530.077	-41.533	0.177	0.091
-529.062	-2.527	0.096	0.067
-528.048	-107.285	0.339	-0.075
-527.033	-91.010	-0.200	0.057
-526.018	14.976	0.158	0.124
-525.004	800.000	0.049	0.146
-523.989	-200.000	0.016	-0.231
-522.975	-55.484	-0.215	-0.097
-521.960	-80.571	-0.061	-0.020
-520.945	64.915	0.168	-0.170
-519.931	-104.122	0.422	0.098
-518.916	800.000	-0.142	0.596
-517.902	34.792	0.142	0.125
-516.887	-31.804	-0.120	-0.067
-515.872	-45.963	0.187	-0.093
-514.858	29.539	0.221	-0.188
-513.843	6.827	-0.237	-0.177
-512.829	-144.474	0.098	-0.009
-511.814	617.987	-0.064	-0.162
-510.799	-70.339	0.227	0.086
-509.785	419.656	-0.034	0.073
-508.770	129.165	-0.212	0.271
-507.756	33.072	-0.151	-0.131
-506.741	257.717	0.114	-0.197
-505.726	10.521	0.243	-0.186
-504.712	235.321	-0.221	-0.365
-503.697	-200.000	0.028	0.158
-502.683	77.081	-0.257	0.274
-501.668	219.485	-0.033	0.053
-500.653	27.912	-0.046	0.038
-499.639	-85.670	-0.205	0.064
-498.624	800.000	-0.017	-0.074
-497.610	-64.262	0.410	-0.167
-496.595	-200.000	0.007	-0.385
-495.581	116.209	0.175	0.215
-494.566	-53.247	-0.172	0.079
-493.551	-200.000	0.045	-0.308
-492.537	-31.411	-0.275	0.155
-491.522	-200.000	0.028	-0.170
-490.508	-17.147	-0.366	0.231
-489.493	195.390	0.069	0.105
-488.478	3.001	0.141	0.103
-487.464	800.000	-0.099	0.415
-486.449	-200.000	-0.011	0.183
-485.435	-14.559	0.185	-0.119
-484.420	167.535	0.074	0.106
-483.405	-28.278	-0.190	-0.110
-482.391	800.000	0.042	0.125
-481.376	135.456	-0.060	-0.078
-480.362	39.424	0.142	0.127
-479.347	-126.695	-0.518	0.077
-478.332	142.087	0.017	0.023
-477.318	800.000	-0.084	-0.237
-476.303	-200.000	-0.036	0.265
-475.289	40.811	-0.071	0.064
-474.274	8.855	0.179	0.135
-473.259	-200.000	-0.032	0.445
-472.245	190.927	0.213	-0.321
-471.230	89.823	-0.338	0.378
-470.216	-200.000	-0.003	0.148
-469.201	28.237	-0.180	0.152
-468.186	-190.104	-0.145	0.002
-467.172	89.235	-0.121	-0.135
-466.157	-48.575	0.155	0.075
-465.143	-50.733	-0.157	0.074
-464.128	-21.852	0.061	0.037
-463.113	78.039	-0.279	0.298
-462.099	-200.000	0.048	-0.254
-461.084	40.710	-0.129	0.116
-460.070	96.789	0.047	0.054
-459.055	-112.435	0.076	-0.015
-458.040	219.014	-0.088	-0.140
-457.026	1.561	-0.112	-0.080
-456.011	330.079	0.101	0.193
-454.997	-52.497	-0.214	-0.099
-453.982	40.292	0.134	0.120
-452.968	-200.000	-0.040	-0.229
-451.953	441.544	0.170	-0.371
-450.938	13.946	-0.122	0.095
-449.924	-161.151	0.082	0.004
-448.909	330.065	-0.178	-0.343
-447.895	800.000	0.095	-0.354
-446.880	-121.998	0.138	-0.023
-445.865	-142.024	0.336	0.033
-444.851	-140.749	0.149	-0.015
-443.836	-100.174	0.104	-0.026
-442.822	20.782	0.183	0.148
-441.807	800.000	0.050	-0.144
-440.792	-30.127	-0.456	-0.259
-439.778	-144.157	-0.121	-0.011
-438.763	-200.000	0.028	0.216
-437.749	-12.790	0.181	0.118
-436.734	436.562	0.098	0.213
-435.719	95.322	0.255	-0.290
-434.705	31.814	0.218	-0.188
-433.690	70.611	0.079	-0.081
-432.676	105.624	-0.168	0.198
-431.661	35.200	-0.301	-0.264
-430.646	-60.502	-0.032	-0.014
-429.632	-200.000	0.004	0.036
-428.617	-80.813	-0.207	0.069
-427.603	-85.957	0.138	-0.043
-426.588	161.387	-0.148	-0.206
-425.573	-44.433	0.358	0.179
-424.559	101.302	0.047	-0.055
-423.544	-200.000	0.008	0.371
-422.530	-200.000	-0.013	-0.200
-421.515	236.321	0.093	0.154
-420.500	-58.577	-0.201	0.087
-419.486	180.502	0.186	-0.273
-418.471	169.161	0.175	0.249
-417.457	-49.379	-0.136	-0.065
-416.442	-70.244	0.164	-0.062
-415.428	-137.711	0.054	0.006
-414.413	-200.000	0.031	-0.163
-413.398	-200.000	-0.011	0.125
-412.384	-200.000	-0.001	0.309
-411.369	-47.171	-0.116	0.056
-410.355	369.303	0.049	-0.098
-409.340	-166.155	-0.049	0.002
-408.325	-57.308	-0.086	-0.038
-407.311	-200.000	-0.062	0.312
-406.296	-182.475	-0.062	0.001
-405.282	5.711	0.121	-0.089
-404.267	553.265	-0.128	-0.308
-403.252	-200.000	0.008	-0.556
-402.238	-200.000	0.047	-0.333
-401.223	-49.062	-0.430	-0.205
-400.209	-73.735	0.336	0.122
-399.194	-200.000	-0.008	0.512
-398.179	386.859	-0.119	-0.246
-397.165	-40.504	-0.164	-0.085
-396.150	386.976	0.063	0.130
-395.136	42.070	-0.303	0.274
-394.121	-60.502	0.284	-0.120
-393.106	-200.000	-0.016	0.589
-392.092	447.846	0.093	-0.204
-391.077	173.290	0.017	0.025
-390.063	33.476	-0.182	0.157
-389.048	-104.285	-0.229	0.053
-388.033	800.000	0.056	0.153
-387.019	-200.000	0.033	-0.148
-386.004	101.022	0.101	-0.117
-384.990	-116.151	-0.360	-0.067
-383.975	-200.000	-0.051	-0.329
-382.960	310.659	-0.166	-0.310
-381.946	102.206	0.133	0.155
-380.931	727.628	-0.057	0.152
-379.917	-184.486	-0.281	0.005
-378.902	-89.583	-0.298	0.087
-377.888	467.896	0.174	0.389
-376.873	-200.000	-0.015	-0.164
-375.858	-19.257	-0.278	0.172
-374.844	330.227	0.070	0.134
-373.829	13.519	-0.128	-0.099
-372.815	800.000	-0.017	-0.060
-371.800	-36.447	-0.143	-0.077
-370.785	-1.149	0.158	-0.111
-369.771	-79.977	-0.108	-0.036
-368.756	-82.953	-0.092	-0.030
-367.742	-30.218	0.234	-0.133
-366.727	-107.357	-0.250	0.055
-365.712	77.378	-0.216	-0.229
-364.698	-113.150	0.196	-0.039
-363.683	800.000	-0.033	-0.093
-362.669	800.000	-0.034	0.118
-361.654	-94.614	0.430	0.117
-360.639	186.431	-0.215	0.319
-359.625	235.725	0.167	-0.275
-358.610	-111.677	0.378	-0.076
-357.596	800.000	-0.067	-0.278
-356.581	-200.000	0.016	0.113
-355.566	-3.760	-0.136	0.094
-354.552	-159.362	0.061	0.003
-353.537	-98.181	-0.147	0.038
-352.523	14.439	0.306	0.238
-351.508	34.736	-0.456	0.397
-350.493	-22.612	-0.217	-0.130
-349.479	11.628	0.141	-0.107
-348.464	-200.000	-0.012	-0.197
-347.450	-60.815	-0.318	0.134
-346.435	501.670	-0.018	-0.042
-345.420	-200.000	0.040	-0.245
-344.406	-99.317	0.286	0.072
-343.391	644.828	-0.051	0.129
-342.377	100.060	0.018	-0.021
-341.362	-200.000	-0.063	0.324
-340.348	-200.000	-0.013	-0.220
-339.333	-87.819	0.242	0.072
-338.318	-98.365	0.325	-0.083
-337.304	-129.241	-0.098	0.014
-336.289	-98.416	0.324	0.083
-335.275	-76.344	-0.238	-0.083
-334.260	123.182	-0.130	0.162
-333.245	-87.220	-0.139	0.042
-332.231	28.600	0.097	0.082
-331.216	120.402	0.034	-0.042
-330.202	800.000	0.082	0.262
-329.187	34.445	0.170	0.148
-328.172	146.500	0.198	-0.265
-327.158	30.320	0.089	0.076
-326.143	32.009	0.114	-0.098
-325.129	800.000	0.051	0.157
-324.114	-19.935	-0.329	0.202
-323.099	-106.549	0.065	-0.014
-322.085	526.925	0.053	-0.124
-321.070	-84.836	0.338	-0.106
-320.056	-200.000	-0.022	0.299
-319.041	-146.686	-0.121	-0.010
-318.026	-85.362	0.150	-0.047
-317.012	-43.363	0.100	-0.050
-315.997	-114.008	0.238	-0.046
-314.983	190.037	0.089	-0.133
-313.968	-91.902	0.169	-0.048
-312.953	220.808	-0.122	0.195
-311.939	800.000	-0.021	-0.075
-310.924	-49.201	0.234	-0.111
-309.910	-200.000	0.029	-0.312
-308.895	-200.000	-0.007	-0.265
-307.880	-200.000	-0.065	0.405
-306.866	94.223	-0.166	-0.187
-305.851	-58.310	-0.099	-0.043
-304.837	3.222	0.339	0.245
-303.822	-200.000	0.035	0.335
-302.807	-102.367	0.037	-0.009
-301.793	-35.980	-0.064	0.034
-300.778	800.000	0.061	0.243
-299.764	-198.573	-0.321	-0.002
-298.749	134.012	-0.083	-0.107
-297.735	-200.000	0.027	0.334
-296.720	-123.518	0.208	0.033
-295.705	557.685	0.043	0.103
-294.691	-200.000	0.029	-0.152
-293.676	484.183	-0.076	-0.173
-292.662	800.000	-0.052	-0.189
-291.647	-200.000	-0.008	-0.059
-290.632	-122.349	0.184	-0.030
-289.618	-200.000	-0.003	-0.047
-288.603	-200.000	0.011	-0.119
-287.589	505.495	0.045	0.104
-286.574	-16.730	-0.229	-0.144
-285.559	-132.949	-0.650	0.082
-284.545	144.121	-0.022	-0.029
-283.530	39.888	0.028	-0.025
-282.516	14.664	0.092	0.071
-281.501	800.000	-0.035	-0.130
-280.486	-200.000	0.022	0.456
-279.472	-148.899	-0.399	-0.032
-278.457	-85.548	0.324	0.100
-277.443	800.000	0.131	0.370
-276.428	-60.910	-0.220	0.092
-275.413	-49.245	-0.160	-0.076
-274.399	334.439	0.108	-0.207
-273.384	-89.841	0.274	0.079
-272.370	-139.271	0.072	0.008
-271.355	35.860	-0.117	0.102
-270.340	-200.000	0.022	0.350
-269.326	57.901	-0.364	0.353
-268.311	-64.961	-0.380	-0.152
-267.297	-200.000	0.017	0.215
-266.282	-85.993	-0.047	0.014
-265.267	-156.020	0.142	-0.009
-264.253	132.634	-0.257	0.328
-263.238	-200.000	0.003	0.037
-262.224	800.000	-0.054	-0.158
-261.209	-103.573	-0.314	0.073
-260.195	-9.165	0.370	-0.245
-259.180	392.299	-0.055	-0.113
-258.165	202.088	-0.061	0.094
-257.151	-55.423	0.323	0.144
-256.136	800.000	0.035	0.122
-255.122	425.294	0.096	0.205
-254.107	-200.000	0.002	0.157
-253.092	-29.168	0.229	0.130
-252.078	-84.221	0.222	0.070
-251.063	-41.303	-0.097	-0.050
-250.049	-200.000	-0.006	0.047
-249.034	-200.000	-0.001	-0.154
-248.019	-78.004	0.135	-0.046
-247.005	-40.658	0.408	-0.210
-245.990	49.164	0.142	0.133
-244.976	81.606	-0.019	0.020
-243.961	-51.892	0.302	0.139
-242.946	128.783	-0.138	-0.175
-241.932	82.824	0.173	0.187
-240.917	800.000	0.082	0.325
-239.903	-85.349	0.313	-0.097
-238.888	-200.000	-0.314	0.000
-237.873	-35.271	0.165	0.089
-236.859	135.543	0.086	-0.111
-235.844	-38.785	0.090	-0.047
-234.830	-56.539	0.245	-0.107
-233.815	11.128	-0.125	0.095
-232.800	277.035	-0.064	-0.114
-231.786	161.791	-0.372	-0.516
-230.771	-79.381	0.070	-0.024
-229.757	-150.424	0.148	0.011
-228.742	134.562	0.087	0.111
-227.727	-108.551	0.163	-0.035
-226.713	24.342	-0.152	0.124
-225.698	72.541	-0.127	0.131
-224.684	-10.511	-0.176	-0.116
-223.669	598.797	0.029	-0.072
-222.655	-41.065	0.264	-0.135
-221.640	357.402	-0.200	-0.396
-220.625	45.371	-0.141	-0.129
-219.611	583.981	-0.144	-0.351
-218.596	-200.000	0.010	-0.105
-217.582	-200.000	0.002	-0.127
-216.567	211.567	0.101	0.157
-215.552	42.853	0.322	0.291
-214.538	52.901	0.143	0.135
-213.523	-129.317	-0.326	-0.045
-212.509	-200.000	-0.025	0.443
-211.494	260.627	-0.195	-0.333
-210.479	800.000	0.138	0.438
-209.465	-99.113	-0.143	0.036
-208.450	397.518	-0.080	0.165
-207.436	266.685	-0.137	-0.237
-206.421	-98.930	0.424	-0.107
-205.406	-168.500	0.205	-0.008
-204.392	-105.356	-0.326	-0.074
-203.377	-27.545	0.171	-0.098
-202.363	-200.000	0.085	-0.510
-201.348	16.722	0.141	0.110
-200.333	-11.185	-0.045	-0.029
-199.319	-4.887	0.292	0.199
-198.304	29.314	0.152	0.128
-197.290	800.000	-0.076	0.224
-196.275	-200.000	-0.050	-0.264
-195.260	-200.000	0.005	0.115
-194.246	24.929	0.286	-0.235
-193.231	-200.000	-0.042	-0.401
-192.217	-103.847	0.382	-0.088
-191.202	-96.348	-0.255	-0.067
-190.187	-125.732	-0.271	-0.041
-189.173	-200.000	-0.028	-0.205
-188.158	-80.612	0.087	0.029
-187.144	-71.881	-0.143	0.053
-186.129	102.990	-0.255	-0.295
-185.114	7.650	-0.110	-0.082
-184.100	-188.588	0.183	-0.002
-183.085	147.544	-0.234	0.312
-182.071	195.083	0.052	0.078
-181.056	-38.022	0.170	-0.089
-180.042	2.143	0.169	-0.121
-179.027	-17.621	-0.281	0.174
-178.012	-79.545	0.072	-0.024
-176.998	105.933	0.064	-0.075
-175.983	-127.142	-0.264	0.038
-174.969	800.000	0.084	0.298
-173.954	74.874	0.042	-0.044
-172.939	21.985	0.344	-0.278
-171.925	-200.000	0.020	-0.651
-170.910	404.772	-0.041	0.086
-169.896	33.557	0.171	0.146
-168.881	-23.471	-0.109	0.065
-167.866	167.600	-0.110	0.154
-166.852	800.000	-0.091	0.335
-165.837	-4.940	-0.350	0.238
-164.823	-153.291	-0.427	-0.029
-163.808	800.000	0.036	-0.132
-162.793	-200.000	0.011	0.112
-161.779	164.831	-0.151	0.210
-160.764	-60.532	-0.088	-0.037
-159.750	456.551	-0.038	-0.082
-158.735	-48.182	0.157	0.075
-157.720	640.379	-0.172	0.433
-156.706	-200.000	-0.037	-0.165
-155.691	-200.000	-0.014	-0.315
-154.677	-200.000	0.007	0.221
-153.662	53.819	0.221	0.210
-152.647	-127.873	0.171	0.024
-151.633	42.773	0.160	0.144
-150.618	225.695	-0.096	-0.153
-149.604	-200.000	-0.022	0.182
-148.589	-30.994	-0.469	-0.262
-147.574	-65.513	-0.184	-0.073
-146.560	1.000	-0.171	-0.121
-145.545	27.821	-0.099	-0.082
-144.531	641.973	-0.071	-0.179
-143.516	-29.030	-0.113	0.064
-142.502	207.844	0.161	-0.248
-141.487	-200.000	0.031	0.258
-140.472	-34.976	0.329	0.177
-139.458	17.546	-0.123	0.096
-138.443	-52.452	-0.012	0.005
-137.429	-200.000	0.010	-0.050
-136.414	159.254	-0.123	0.169
-135.399	-200.000	-0.021	0.202
-134.385	-200.000	0.004	-0.162
-133.370	-104.333	-0.077	-0.018
-132.356	-200.000	-0.018	-0.115
-131.341	-17.543	0.134	0.083
-130.326	-110.831	0.249	0.051
-129.312	-200.000	-0.026	0.204
-128.297	68.346	0.244	0.246
-127.283	383.932	0.129	-0.263
-126.268	-23.796	0.189	0.112
-125.253	-19.385	0.157	-0.096
-124.239	79.776	-0.136	-0.145
-123.224	-151.185	-0.132	0.010
-122.210	748.610	-0.034	0.092
-121.195	-200.000	-0.026	0.121
