DTS Sentinel unit serial number:	SN413079Multiplexer serial number:	ORYXHardware model number:	OX4-SRSoftware version number:	ORYX F/W v4.00 Oryx Data Collector v3.7.2.0data status	okinstallation	princeton_trtdifferential loss correction	single-endedforward channel	channel 1reverse channel	N/Adate	2019/09/16time	21:54:35forward acquisition time	60.00reverse acquisition time	0.00gamma	496.2192k internal	0.2325k external	0.2325temperature offset calibration	0.9954default loss term (dB/km)	0.3790temperature slope calibration	1.0000multiplexer offset coefficient	1.0000multiplexer slope coefficient	1.0000fibre end	0.00T internal ref (°C)	31.23T ext. ref 1 (°C)	0.05T ext. ref 2 (°C)	25.56length (m)	temperature (°C)	Stokes	anti-Stokes-747.200	236.789	-0.148	-0.247
-746.185	98.726	-0.193	-0.225
-745.171	58.410	0.157	-0.156
-744.156	111.595	0.104	-0.126
-743.142	-15.315	0.259	0.167
-742.127	-1.468	-0.200	0.143
-741.112	-200.000	-0.010	-0.177
-740.098	-200.000	0.015	0.154
-739.083	-200.000	0.066	-0.338
-738.069	-200.000	0.064	0.311
-737.054	-25.131	-0.155	-0.092
-736.039	71.374	-0.143	-0.150
-735.025	39.583	-0.317	0.287
-734.010	44.950	-0.121	0.113
-732.996	-200.000	0.028	-0.365
-731.981	800.000	-0.026	-0.083
-730.966	-132.024	-0.313	-0.041
-729.952	-48.440	-0.217	0.106
-728.937	800.000	0.029	-0.099
-727.923	-95.625	-0.435	-0.118
-726.908	-61.334	-0.178	-0.076
-725.894	-200.000	0.016	-0.166
-724.879	503.860	0.082	-0.192
-723.864	292.842	0.058	0.107
-722.850	598.112	0.053	-0.133
-721.835	-153.752	-0.268	0.019
-720.821	35.267	-0.055	-0.049
-719.806	-143.913	-0.458	-0.043
-718.791	-200.000	0.035	-0.199
-717.777	-200.000	-0.028	-0.349
-716.762	-200.000	0.019	0.139
-715.748	-24.622	-0.315	-0.189
-714.733	-116.345	0.455	0.085
-713.718	20.783	-0.344	-0.281
-712.704	-5.490	0.097	0.067
-711.689	517.631	-0.098	0.231
-710.675	-200.000	0.327	-0.002
-709.660	-88.292	-0.059	0.018
-708.645	-83.554	-0.301	0.097
-707.631	192.238	0.065	-0.099
-706.616	-20.797	0.121	0.075
-705.602	800.000	0.095	-0.269
-704.587	-96.083	0.139	-0.037
-703.572	12.706	0.269	-0.209
-702.558	-99.982	0.201	0.051
-701.543	800.000	-0.026	-0.073
-700.529	-161.242	-0.090	0.005
-699.514	493.199	-0.026	0.060
-698.499	26.812	0.146	0.124
-697.485	-69.753	-0.129	0.050
-696.470	-38.430	-0.134	0.071
-695.456	800.000	-0.028	0.098
-694.441	-4.394	0.203	0.141
-693.426	227.420	-0.170	-0.278
-692.412	-200.000	0.026	-0.135
-691.397	469.966	0.072	0.162
-690.383	74.764	0.263	0.279
-689.368	-21.039	-0.189	-0.117
-688.354	-14.895	-0.354	-0.229
-687.339	39.005	-0.117	-0.105
-686.324	-12.849	0.139	0.091
-685.310	-79.381	-0.227	-0.077
-684.295	-200.000	0.008	0.273
-683.281	800.000	-0.092	-0.262
-682.266	284.515	-0.040	-0.072
-681.251	-200.000	-0.046	-0.213
-680.237	800.000	0.102	0.316
-679.222	-3.372	0.028	0.020
-678.208	-82.651	-0.134	-0.044
-677.193	-82.114	0.032	-0.011
-676.178	559.123	-0.105	0.255
-675.164	11.500	-0.271	-0.209
-674.149	84.949	-0.090	-0.100
-673.135	800.000	-0.063	-0.198
-672.120	427.488	0.053	-0.116
-671.105	22.449	-0.142	-0.117
-670.091	-200.000	0.024	0.208
-669.076	-9.749	-0.082	0.055
-668.062	-200.000	0.033	-0.224
-667.047	76.814	-0.266	-0.284
-666.032	-10.185	-0.112	0.074
-665.018	139.714	-0.081	-0.107
-664.003	61.455	0.059	0.059
-662.989	-119.523	0.216	-0.038
-661.974	107.437	-0.049	0.059
-660.959	-21.280	-0.093	0.057
-659.945	-200.000	-0.018	0.168
-658.930	-66.971	-0.153	-0.061
-657.916	357.988	-0.068	-0.137
-656.901	-200.000	-0.019	-0.275
-655.886	41.692	0.105	0.096
-654.872	800.000	0.038	-0.116
-653.857	-200.000	0.091	-0.672
-652.843	293.990	-0.087	-0.160
-651.828	-200.000	-0.458	-0.002
-650.814	-112.162	-0.289	-0.058
-649.799	-144.113	-0.096	0.009
-648.784	-200.000	-0.066	0.292
-647.770	36.277	0.188	-0.167
-646.755	24.333	0.092	-0.076
-645.741	174.140	-0.126	-0.183
-644.726	-43.211	0.089	0.045
-643.711	191.851	-0.041	-0.062
-642.697	-200.000	-0.016	0.123
-641.682	-43.476	0.078	0.040
-640.668	-84.504	-0.278	-0.088
-639.653	-104.661	-0.371	-0.086
-638.638	122.874	-0.109	-0.137
-637.624	-87.946	-0.193	0.058
-636.609	323.307	0.135	0.258
-635.595	-73.069	-0.123	-0.045
-634.580	800.000	0.048	0.170
-633.565	-12.709	0.080	0.052
-632.551	348.318	-0.124	0.245
-631.536	-65.085	-0.316	-0.128
-630.522	800.000	0.051	0.162
-629.507	-133.119	0.036	-0.005
-628.492	154.009	-0.267	-0.367
-627.478	-56.056	-0.357	0.160
-626.463	800.000	-0.067	-0.270
-625.449	-200.000	0.045	-0.240
-624.434	-147.042	0.174	-0.015
-623.419	96.500	0.217	0.250
-622.405	-200.000	0.018	0.085
-621.390	-39.505	-0.211	0.111
-620.376	307.341	-0.038	-0.072
-619.361	-66.057	-0.306	0.122
-618.346	63.229	-0.110	0.110
-617.332	227.919	-0.133	0.218
-616.317	-200.000	0.013	-0.056
-615.303	48.432	0.131	-0.123
-614.288	34.726	-0.153	-0.134
-613.273	-38.881	0.088	-0.047
-612.259	-200.000	0.011	0.182
-611.244	-110.838	0.187	-0.039
-610.230	-200.000	-0.003	-0.081
-609.215	498.421	-0.069	0.160
-608.201	-90.454	-0.253	0.074
-607.186	-70.261	-0.160	0.061
-606.171	-200.000	0.013	0.272
-605.157	54.922	0.287	0.278
-604.142	-200.000	0.026	-0.290
-603.128	-143.567	-0.176	-0.017
-602.113	421.997	0.093	0.200
-601.098	-133.905	-0.295	0.037
-600.084	421.989	-0.019	0.040
-599.069	797.726	-0.075	0.208
-598.055	-68.547	-0.296	-0.115
-597.040	573.977	0.099	-0.243
-596.025	396.589	-0.165	0.346
-595.011	-200.000	0.071	-0.382
-593.996	800.000	-0.046	0.192
-592.982	800.000	0.073	0.296
-591.967	800.000	0.004	-0.013
-590.952	8.772	-0.131	-0.099
-589.938	-34.307	0.180	-0.099
-588.923	-119.619	-0.176	-0.030
-587.909	-200.000	0.013	-0.202
-586.894	176.502	0.075	-0.109
-585.879	800.000	-0.016	-0.066
-584.865	-200.000	-0.010	0.223
-583.850	-24.951	0.108	-0.065
-582.836	12.010	-0.129	-0.100
-581.821	-200.000	-0.006	0.047
-580.806	-200.000	-0.074	-0.326
-579.792	30.321	-0.197	-0.169
-578.777	210.652	-0.113	0.178
-577.763	81.716	0.295	-0.320
-576.748	-87.480	-0.210	0.064
-575.733	-200.000	-0.028	-0.362
-574.719	-200.000	0.157	-0.000
-573.704	-200.000	0.005	0.249
-572.690	-127.391	0.105	-0.015
-571.675	-153.022	-0.330	-0.023
-570.661	122.421	0.148	0.186
-569.646	5.885	-0.061	0.045
-568.631	284.370	-0.052	-0.093
-567.617	-24.479	0.286	-0.171
-566.602	254.668	0.043	-0.073
-565.588	131.764	-0.154	-0.199
-564.573	800.000	0.046	0.161
-563.558	72.838	-0.291	0.304
-562.544	65.007	0.296	0.300
-561.529	-138.475	0.204	0.022
-560.515	-0.833	-0.378	0.268
-559.500	800.000	-0.038	-0.154
-558.485	-63.603	0.139	-0.057
-557.471	-100.378	0.405	0.101
-556.456	800.000	-0.019	-0.069
-555.442	-135.151	-0.228	-0.027
-554.427	35.288	-0.300	-0.264
-553.412	45.398	0.373	-0.344
-552.398	-30.746	-0.205	0.116
-551.383	-97.859	0.259	0.067
-550.369	-24.739	-0.318	0.189
-549.354	-200.000	0.027	-0.155
-548.339	28.767	-0.142	-0.120
-547.325	-200.000	0.031	0.488
-546.310	48.603	0.183	-0.171
-545.296	-92.355	0.312	-0.088
-544.281	9.983	-0.073	-0.056
-543.266	-59.478	-0.140	-0.060
-542.252	-54.011	-0.456	0.208
-541.237	-200.000	-0.007	-0.134
-540.223	128.833	0.211	0.269
-539.208	206.670	0.351	0.548
-538.193	764.448	-0.134	-0.365
-537.179	455.435	-0.079	-0.175
-536.164	-23.885	-0.143	-0.086
-535.150	219.655	0.040	0.065
-534.135	-200.000	-0.021	-0.217
-533.121	800.000	-0.136	-0.404
-532.106	-108.068	0.050	0.011
-531.091	2.402	-0.069	-0.050
-530.077	-37.311	0.119	-0.063
-529.062	-200.000	0.020	0.131
-528.048	413.848	-0.055	-0.116
-527.033	84.514	0.198	0.217
-526.018	-200.000	-0.011	0.208
-525.004	427.683	-0.118	-0.255
-523.989	114.588	-0.058	0.071
-522.975	800.000	-0.068	-0.201
-521.960	-200.000	0.011	-0.173
-520.945	125.736	0.169	-0.214
-519.931	-70.662	0.208	0.079
-518.916	-21.528	0.140	-0.086
-517.902	-200.000	0.007	-0.092
-516.887	-107.560	-0.065	0.014
-515.872	-22.226	0.164	0.099
-514.858	73.873	0.162	-0.170
-513.843	-32.047	-0.142	-0.079
-512.829	300.569	-0.176	-0.324
-511.814	-164.375	0.052	-0.002
-510.799	-176.027	0.122	-0.003
-509.785	6.946	-0.103	0.077
-508.770	-26.984	-0.284	0.166
-507.756	-60.551	-0.105	0.045
-506.741	-119.870	-0.172	-0.030
-505.726	-200.000	0.027	-0.294
-504.712	57.532	0.153	-0.149
-503.697	560.941	-0.155	-0.374
-502.683	122.481	-0.133	0.166
-501.668	-123.910	0.088	0.014
-500.653	28.137	0.159	-0.134
-499.639	800.000	-0.103	0.305
-498.624	-4.762	0.416	0.287
-497.610	-73.597	-0.184	-0.067
-496.595	138.026	-0.208	0.273
-495.581	-200.000	0.041	0.287
-494.566	-200.000	0.054	0.305
-493.551	138.280	-0.140	0.184
-492.537	157.568	0.046	0.063
-491.522	-8.812	0.288	0.193
-490.508	-12.582	-0.189	0.124
-489.493	-200.000	0.018	-0.098
-488.478	800.000	0.044	0.188
-487.464	-146.462	-0.264	0.023
-486.449	570.655	-0.068	0.164
-485.435	-200.000	0.004	-0.133
-484.420	-80.445	-0.311	-0.104
-483.405	-66.276	0.257	-0.102
-482.391	-175.330	-0.407	0.011
-481.376	-75.167	0.284	0.102
-480.362	-56.785	0.352	-0.156
-479.347	413.097	-0.046	0.098
-478.332	92.310	-0.111	0.125
-477.318	467.508	0.051	-0.114
-476.303	89.105	0.131	-0.146
-475.289	500.519	-0.074	-0.170
-474.274	119.651	-0.051	-0.063
-473.259	-112.438	0.426	0.085
-472.245	-85.907	0.133	-0.041
-471.230	-61.453	-0.341	0.143
-470.216	800.000	-0.036	-0.114
-469.201	-84.855	0.031	-0.010
-468.186	800.000	0.058	-0.209
-467.172	-95.480	-0.453	-0.121
-466.157	132.964	0.067	-0.086
-465.143	-132.114	0.044	0.006
-464.128	-200.000	0.035	-0.160
-463.113	217.064	0.147	-0.234
-462.099	800.000	0.076	-0.217
-461.084	-63.010	0.082	-0.034
-460.070	-200.000	-0.009	-0.115
-459.055	-200.000	-0.042	0.217
-458.040	-200.000	0.015	0.112
-457.026	5.517	-0.086	-0.063
-456.011	581.529	0.247	0.604
-454.997	-5.846	0.121	-0.082
-453.982	360.159	-0.081	0.162
-452.968	-170.139	0.089	-0.003
-451.953	31.499	0.094	0.081
-450.938	14.734	0.220	-0.172
-449.924	-5.762	-0.209	-0.143
-448.909	-100.982	0.231	-0.057
-447.895	800.000	0.036	-0.147
-446.880	-112.957	-0.248	0.049
-445.865	104.069	0.204	0.239
-444.851	-136.163	0.471	-0.055
-443.836	-98.141	-0.065	0.017
-442.822	-94.502	0.174	-0.047
-441.807	448.860	0.063	0.139
-440.792	23.488	0.240	-0.197
-439.778	-200.000	-0.046	-0.211
-438.763	-94.486	0.136	-0.037
-437.749	7.094	-0.203	0.151
-436.734	-100.060	0.081	0.020
-435.719	61.204	0.121	-0.120
-434.705	800.000	0.068	-0.257
-433.690	-112.808	0.420	0.083
-432.676	348.959	0.215	-0.424
-431.661	800.000	0.075	-0.215
-430.646	-200.000	0.054	-0.308
-429.632	177.333	0.111	0.162
-428.617	171.994	-0.179	0.256
-427.603	-135.644	0.230	0.027
-426.588	45.436	0.040	0.037
-425.573	-46.681	0.132	-0.065
-424.559	253.115	-0.120	0.204
-423.544	-200.000	0.020	-0.219
-422.530	800.000	-0.051	0.220
-421.515	-64.212	0.023	0.009
-420.500	29.995	0.337	0.287
-419.486	-200.000	0.005	0.076
-418.471	-120.044	0.216	-0.037
-417.457	-52.884	0.234	-0.108
-416.442	-200.000	0.013	0.153
-415.428	126.380	-0.163	-0.206
-414.413	-14.919	-0.059	-0.038
-413.398	-7.848	-0.160	0.107
-412.384	-200.000	-0.011	0.220
-411.369	-200.000	0.019	0.192
-410.355	800.000	-0.060	0.185
-409.340	-200.000	-0.003	-0.148
-408.325	209.573	0.105	0.164
-407.311	137.692	-0.056	0.073
-406.296	-33.342	-0.213	0.117
-405.282	84.743	-0.243	-0.265
-404.267	-77.452	0.020	0.007
-403.252	-80.241	-0.263	0.088
-402.238	-200.000	-0.004	0.167
-401.223	-167.951	0.305	0.012
-400.209	-48.855	0.110	-0.053
-399.194	-200.000	-0.036	0.244
-398.179	-200.000	0.025	0.179
-397.165	-200.000	0.012	0.270
-396.150	-54.321	-0.130	0.059
-395.136	28.647	-0.048	-0.040
-394.121	182.724	0.145	0.214
-393.106	800.000	-0.072	-0.225
-392.092	800.000	-0.081	0.222
-391.077	-74.762	-0.192	-0.069
-390.063	-95.224	0.282	-0.076
-389.048	-10.989	0.183	-0.120
-388.033	800.000	0.054	-0.222
-387.019	-200.000	-0.030	-0.243
-386.004	-69.783	-0.254	-0.097
-384.990	-51.877	0.399	-0.185
-383.975	-160.027	0.090	0.005
-382.960	-35.867	0.130	0.070
-381.946	220.765	-0.252	-0.402
-380.931	209.571	0.098	-0.153
-379.917	-117.735	-0.299	-0.053
-378.902	650.431	0.133	0.338
-377.888	244.891	0.134	-0.224
-376.873	50.255	0.169	-0.159
-375.858	-25.894	0.298	-0.175
-374.844	-105.002	-0.086	-0.020
-373.829	-65.861	0.191	0.076
-372.815	73.942	0.180	0.188
-371.800	800.000	-0.043	-0.131
-370.785	-135.067	-0.431	-0.052
-369.771	499.972	-0.109	0.250
-368.756	-200.000	-0.006	-0.255
-367.742	-155.753	0.707	-0.045
-366.727	-200.000	-0.022	0.380
-365.712	-153.906	-0.158	-0.011
-364.698	192.061	-0.074	-0.111
-363.683	384.933	-0.123	0.253
-362.669	800.000	-0.093	0.277
-361.654	408.799	0.039	0.082
-360.639	73.035	-0.056	0.059
-359.625	-143.070	0.176	-0.017
-358.610	-22.091	0.299	0.180
-357.596	-82.267	0.205	0.066
-356.581	800.000	0.100	0.321
-355.566	173.760	-0.190	-0.272
-354.552	800.000	0.065	0.223
-353.537	-183.183	0.221	-0.004
-352.523	-97.727	-0.083	0.021
-351.508	-200.000	0.005	-0.185
-350.493	782.264	-0.088	0.239
-349.479	-45.277	0.100	0.050
-348.464	49.878	0.117	-0.110
-347.450	127.461	0.137	0.173
-346.435	-200.000	0.025	-0.179
-345.420	216.635	-0.199	-0.315
-344.406	67.417	0.219	0.222
-343.391	-124.908	0.232	-0.035
-342.377	-132.381	0.301	-0.039
-341.362	-124.253	-0.157	-0.024
-340.348	371.041	-0.091	-0.183
-339.333	555.577	0.122	-0.292
-338.318	-155.596	0.088	-0.006
-337.304	9.427	0.205	-0.154
-336.289	-200.000	0.007	0.118
-335.275	217.820	0.081	-0.128
-334.260	-200.000	0.034	-0.244
-333.245	-57.986	-0.047	-0.020
-332.231	-94.250	-0.291	-0.079
-331.216	34.724	-0.311	0.270
-330.202	-200.000	-0.020	-0.204
-329.187	298.862	-0.080	-0.147
-328.172	52.976	-0.115	-0.109
-327.158	-55.618	-0.360	0.160
-326.143	-41.198	-0.146	0.075
-325.129	-39.441	-0.256	0.133
-324.114	99.133	0.119	-0.137
-323.099	-200.000	-0.052	-0.293
-322.085	212.284	0.310	0.486
-321.070	-22.914	-0.235	-0.140
-320.056	-200.000	-0.269	0.000
-319.041	-80.611	-0.098	0.032
-318.026	800.000	0.081	-0.245
-317.012	-124.189	-0.072	-0.011
-315.997	-200.000	-0.027	0.339
-314.983	178.021	0.103	0.148
-313.968	800.000	-0.060	-0.212
-312.953	-150.498	-0.109	0.008
-311.939	-68.194	0.121	0.047
-310.924	384.684	0.172	-0.351
-309.910	800.000	-0.077	-0.313
-308.895	163.886	0.167	0.233
-307.880	-200.000	0.001	0.128
-306.866	-53.270	0.392	-0.178
-305.851	-54.403	-0.173	-0.078
-304.837	800.000	0.107	0.304
-303.822	-90.554	-0.095	-0.027
-302.807	-83.675	0.293	0.093
-301.793	211.609	-0.185	0.289
-300.778	10.948	0.179	0.136
-299.764	48.090	0.211	0.196
-298.749	-200.000	-0.002	-0.231
-297.735	-200.000	0.016	0.185
-296.720	-200.000	0.011	0.074
-295.705	49.908	0.187	-0.175
-294.691	-57.863	-0.260	-0.113
-293.676	290.164	-0.088	0.159
-292.662	-36.171	-0.179	-0.096
-291.647	470.835	0.191	-0.426
-290.632	70.487	0.107	0.110
-289.618	-91.670	-0.114	0.032
-288.603	57.784	-0.174	0.169
-287.589	-200.000	0.031	-0.148
-286.574	-28.575	0.163	0.093
-285.559	800.000	0.052	-0.143
-284.545	306.099	0.122	0.225
-283.530	-200.000	0.030	0.370
-282.516	800.000	0.037	-0.154
-281.501	66.475	0.044	-0.044
-280.486	800.000	-0.042	-0.176
-279.472	-45.579	0.324	-0.159
-278.457	95.656	-0.169	-0.191
-277.443	-157.743	0.147	0.009
-276.428	800.000	-0.036	0.156
-275.413	-151.495	0.127	-0.009
-274.399	27.919	-0.072	0.060
-273.384	800.000	0.125	0.518
-272.370	2.689	0.187	0.134
-271.355	55.230	0.116	-0.111
-270.340	58.463	0.211	0.206
-269.326	800.000	0.010	0.034
-268.311	-200.000	-0.043	-0.198
-267.297	-158.612	-0.226	-0.013
-266.282	315.989	-0.130	-0.243
-265.267	800.000	-0.008	-0.035
-264.253	-110.171	0.296	-0.061
-263.238	252.840	0.127	-0.215
-262.224	10.779	0.220	0.166
-261.209	-80.519	-0.150	0.050
-260.195	489.528	-0.069	0.157
-259.180	-101.541	0.090	-0.022
-258.165	125.157	-0.045	0.056
-257.151	-126.904	-0.030	-0.004
-256.136	-119.627	0.223	-0.038
-255.122	-96.122	-0.153	0.040
-254.107	-125.438	-0.329	0.050
-253.092	-200.000	-0.036	-0.257
-252.078	11.375	-0.294	-0.223
-251.063	-70.811	0.325	0.121
-250.049	-26.992	0.216	0.125
-249.034	56.305	-0.022	-0.021
-248.019	-159.974	-0.378	0.020
-247.005	-19.660	-0.060	-0.036
-245.990	-200.000	0.035	-0.190
-244.976	-85.595	-0.179	-0.055
-243.961	-200.000	0.038	-0.269
-242.946	-83.168	-0.108	-0.034
-241.932	800.000	-0.120	0.347
-240.917	-39.634	-0.121	0.063
-239.903	-18.951	0.093	-0.057
-238.888	-200.000	0.026	-0.174
-237.873	-200.000	0.001	0.159
-236.859	-65.577	0.140	0.056
-235.844	-193.462	0.500	0.004
-234.830	114.463	-0.058	-0.069
-233.815	23.820	-0.177	-0.144
-232.800	-115.771	-0.323	0.060
-231.786	253.585	-0.188	0.318
-230.771	24.840	-0.269	0.221
-229.757	275.693	-0.166	0.292
-228.742	296.809	-0.073	-0.132
-227.727	-120.759	-0.352	-0.059
-226.713	800.000	0.058	0.177
-225.698	800.000	0.074	0.213
-224.684	92.848	-0.210	-0.235
-223.669	577.169	-0.068	0.164
-222.655	340.706	-0.094	-0.182
-221.640	-8.968	0.254	-0.168
-220.625	193.641	-0.159	0.238
-219.611	-3.835	-0.066	0.045
-218.596	-42.072	-0.063	0.032
-217.582	-0.472	0.460	-0.323
-216.567	32.412	-0.152	-0.130
-215.552	67.597	-0.177	0.179
-214.538	-57.234	-0.254	-0.111
-213.523	-53.114	-0.034	-0.015
-212.509	-110.103	-0.177	-0.037
-211.494	-144.892	0.061	-0.006
-210.479	233.755	0.159	-0.259
-209.465	120.294	0.069	0.084
-208.450	72.421	-0.142	0.146
-207.436	-92.395	0.524	-0.146
-206.421	-200.000	-0.032	-0.168
-205.406	-18.666	-0.242	-0.149
-204.392	-200.000	0.024	-0.259
-203.377	-76.020	-0.068	-0.024
-202.363	-191.766	-0.317	-0.003
-201.348	-200.000	-0.067	-0.520
-200.333	800.000	-0.110	0.309
-199.319	-138.092	-0.263	0.029
-198.304	39.515	0.288	0.255
-197.290	156.560	-0.201	-0.274
-196.275	15.210	-0.228	0.176
-195.260	50.967	0.237	0.222
-194.246	-119.134	-0.220	0.038
-193.231	-174.857	0.298	0.008
-192.217	754.985	0.145	0.388
-191.202	-52.645	0.198	-0.090
-190.187	-5.907	-0.123	-0.083
-189.173	595.736	0.038	0.093
-188.158	271.585	-0.148	0.258
-187.144	800.000	-0.025	0.092
-186.129	522.988	0.064	0.149
-185.114	41.082	-0.046	0.041
-184.100	800.000	0.014	-0.047
-183.085	-111.164	-0.124	0.025
-182.071	-167.026	-0.380	0.015
-181.056	-66.829	0.225	-0.088
-180.042	800.000	0.111	-0.376
-179.027	51.582	-0.230	0.216
-178.012	800.000	0.096	0.370
-176.998	800.000	-0.056	0.166
-175.983	30.386	0.068	0.057
-174.969	-78.462	0.509	-0.172
-173.954	800.000	0.019	0.075
-172.939	4.959	-0.128	-0.093
-171.925	-97.870	0.292	-0.074
-170.910	162.103	-0.011	-0.015
-169.896	86.902	0.034	0.037
-168.881	-153.033	0.101	-0.007
-167.866	41.096	0.084	-0.075
-166.852	-200.000	0.003	0.249
-165.837	455.922	-0.067	-0.146
-164.823	52.698	-0.257	-0.242
-163.808	-45.236	0.202	0.099
-162.793	-200.000	0.057	0.349
-161.779	-200.000	0.033	-0.163
-160.764	44.483	0.207	-0.187
-159.750	771.047	0.084	-0.224
-158.735	-67.814	-0.014	-0.006
-157.720	184.100	0.049	0.071
-156.706	-59.177	-0.266	0.113
-155.691	110.407	-0.074	0.088
-154.677	-128.353	-0.403	0.057
-153.662	-8.201	-0.139	-0.092
-152.647	490.100	0.058	0.130
-151.633	248.721	-0.215	-0.359
-150.618	173.220	-0.146	-0.208
-149.604	800.000	-0.017	0.050
-148.589	391.568	-0.212	0.434
-147.574	-143.474	0.336	0.032
-146.560	-27.889	-0.105	0.060
-145.545	39.450	0.310	-0.274
-144.531	470.271	-0.119	-0.263
-143.516	800.000	0.097	-0.355
-142.502	5.882	0.184	-0.134
-141.487	50.856	-0.213	0.199
-140.472	800.000	0.097	-0.312
-139.458	-12.061	-0.167	0.108
-138.443	269.449	0.123	-0.214
-137.429	123.895	0.308	0.381
-136.414	629.753	0.084	0.209
-135.399	-80.742	-0.287	0.094
-134.385	-75.933	-0.305	-0.106
-133.370	53.579	-0.110	-0.104
-132.356	-46.947	0.303	0.146
-131.341	-9.418	0.297	0.196
-130.326	297.729	0.114	-0.207
-129.312	10.957	0.033	-0.025
-128.297	800.000	-0.094	-0.388
-127.283	-200.000	0.018	0.151
-126.268	44.528	-0.085	-0.077
-125.253	38.830	0.116	-0.102
-124.239	-79.875	0.163	0.054
-123.224	-200.000	-0.062	-0.339
-122.210	-200.000	-0.010	0.135
-121.195	200.413	0.136	0.206
