DTS Sentinel unit serial number:	SN413079Multiplexer serial number:	ORYXHardware model number:	OX4-SRSoftware version number:	ORYX F/W v4.00 Oryx Data Collector v3.7.2.0data status	okinstallation	princeton_trtdifferential loss correction	single-endedforward channel	channel 1reverse channel	N/Adate	2019/09/18time	17:18:35forward acquisition time	60.00reverse acquisition time	0.00gamma	496.2192k internal	0.2292k external	0.2292temperature offset calibration	0.9998default loss term (dB/km)	0.3790temperature slope calibration	1.0000multiplexer offset coefficient	1.0000multiplexer slope coefficient	1.0000fibre end	0.00T internal ref (°C)	39.87T ext. ref 1 (°C)	0.89T ext. ref 2 (°C)	36.28length (m)	temperature (°C)	Stokes	anti-Stokes-747.200	-62.204	-0.159	-0.068
-746.185	-181.388	-0.134	-0.003
-745.171	-67.887	0.132	-0.053
-744.156	-68.876	0.113	-0.045
-743.142	800.000	-0.065	0.243
-742.127	800.000	-0.013	0.044
-741.112	-200.000	-0.016	0.246
-740.098	-86.029	0.147	0.046
-739.083	685.667	0.069	0.185
-738.069	800.000	0.096	0.343
-737.054	-26.029	-0.282	-0.170
-736.039	6.743	0.008	0.006
-735.025	-200.000	0.069	0.557
-734.010	800.000	-0.087	-0.338
-732.996	403.773	0.136	-0.294
-731.981	609.514	-0.167	0.426
-730.966	-13.822	-0.303	0.201
-729.952	800.000	-0.076	-0.236
-728.937	-18.514	-0.137	-0.088
-727.923	-200.000	0.004	-0.019
-726.908	371.231	-0.009	-0.019
-725.894	800.000	-0.012	0.043
-724.879	-21.493	-0.556	-0.347
-723.864	-138.413	-0.206	-0.023
-722.850	-143.481	0.318	0.031
-721.835	102.265	-0.160	0.191
-720.821	120.544	0.102	-0.129
-719.806	278.023	-0.122	-0.223
-718.791	800.000	0.063	-0.265
-717.777	800.000	-0.075	-0.217
-716.762	-13.247	0.523	-0.347
-715.748	-200.000	0.043	0.488
-714.733	-200.000	-0.040	0.227
-713.718	-107.982	-0.416	0.092
-712.704	37.992	0.182	-0.165
-711.689	-42.718	0.031	0.016
-710.675	-200.000	-0.083	0.553
-709.660	-200.000	0.003	-0.056
-708.645	37.397	-0.305	-0.276
-707.631	-137.316	-0.241	-0.028
-706.616	217.717	0.032	-0.053
-705.602	-200.000	0.042	-0.217
-704.587	-200.000	-0.021	-0.324
-703.572	42.438	0.194	-0.181
-702.558	-166.587	-0.367	0.016
-701.543	28.060	-0.130	0.112
-700.529	-19.074	-0.228	-0.145
-699.514	800.000	0.116	0.463
-698.499	-200.000	0.003	-0.237
-697.485	-95.858	0.094	0.026
-696.470	800.000	-0.053	-0.190
-695.456	-200.000	0.001	0.393
-694.441	-12.671	-0.135	0.090
-693.426	115.802	0.092	0.115
-692.412	510.451	-0.096	0.229
-691.397	-56.560	-0.255	0.115
-690.383	121.876	-0.175	-0.223
-689.368	800.000	0.071	0.283
-688.354	100.708	-0.092	0.110
-687.339	-18.107	-0.402	-0.257
-686.324	-88.162	0.258	-0.079
-685.310	21.894	-0.153	0.127
-684.295	-95.184	-0.505	-0.139
-683.281	-157.761	-0.139	0.008
-682.266	-133.600	0.155	0.020
-681.251	216.906	-0.203	-0.331
-680.237	-65.767	-0.330	-0.135
-679.222	800.000	0.069	0.302
-678.208	21.171	-0.113	0.093
-677.193	42.527	0.057	0.053
-676.178	-80.522	-0.220	-0.075
-675.164	-90.353	0.280	0.083
-674.149	-60.784	0.256	-0.111
-673.135	-200.000	0.001	0.046
-672.120	-76.967	0.232	0.083
-671.105	-103.421	0.035	-0.008
-670.091	-170.382	-0.181	-0.006
-669.076	54.027	-0.237	-0.232
-668.062	303.567	-0.085	-0.161
-667.047	119.630	-0.047	-0.059
-666.032	-58.371	0.362	-0.161
-665.018	20.824	0.183	-0.151
-664.003	110.588	-0.308	-0.378
-662.989	-165.412	0.345	0.015
-661.974	54.996	0.137	-0.135
-660.959	-142.297	-0.340	0.034
-659.945	-5.002	-0.098	-0.069
-658.930	-185.815	-0.225	-0.003
-657.916	148.425	0.132	-0.181
-656.901	800.000	-0.017	-0.073
-655.886	-150.882	-0.315	-0.024
-654.872	-200.000	0.011	-0.174
-653.857	760.638	0.068	0.187
-652.843	240.937	-0.052	-0.089
-651.828	-200.000	-0.024	0.170
-650.814	6.819	-0.057	-0.043
-649.799	800.000	0.065	0.205
-648.784	-200.000	-0.001	-0.103
-647.770	-9.111	0.366	-0.250
-646.755	-119.726	-0.386	-0.068
-645.741	2.129	0.037	-0.027
-644.726	777.007	-0.072	-0.200
-643.711	33.875	0.285	0.253
-642.697	-137.996	0.243	-0.028
-641.682	-82.961	-0.155	0.051
-640.668	246.584	0.129	0.222
-639.653	-130.042	0.243	0.034
-638.638	600.049	-0.098	0.248
-637.624	-45.872	-0.171	0.086
-636.609	-111.192	-0.137	0.029
-635.595	-200.000	0.005	-0.364
-634.580	70.494	-0.161	-0.169
-633.565	98.975	0.228	0.269
-632.551	235.028	-0.081	0.137
-631.536	-60.574	0.301	-0.130
-630.522	-200.000	-0.009	0.090
-629.507	-200.000	0.000	-0.102
-628.492	43.172	0.096	-0.090
-627.478	800.000	0.035	-0.100
-626.463	154.129	0.081	0.113
-625.449	169.545	0.209	-0.305
-624.434	-59.370	0.163	0.071
-623.419	-46.723	0.097	0.049
-622.405	-71.367	-0.199	0.076
-621.390	-200.000	0.029	0.154
-620.376	388.545	0.182	0.383
-619.361	-91.998	0.093	0.027
-618.346	800.000	-0.064	-0.187
-617.332	-123.928	-0.272	-0.044
-616.317	800.000	0.075	-0.306
-615.303	-200.000	0.019	-0.101
-614.288	-200.000	-0.034	0.202
-613.273	187.750	0.048	-0.073
-612.259	3.239	-0.257	-0.190
-611.244	-200.000	0.016	0.234
-610.230	93.380	0.116	-0.133
-609.215	8.550	-0.227	0.174
-608.201	275.011	-0.017	0.031
-607.186	800.000	-0.042	0.136
-606.171	-200.000	-0.023	-0.258
-605.157	-51.089	0.431	-0.206
-604.142	258.506	0.086	-0.151
-603.128	-186.413	0.058	-0.001
-602.113	70.556	-0.133	-0.140
-601.098	800.000	-0.044	-0.143
-600.084	693.737	0.031	0.082
-599.069	201.985	-0.116	-0.181
-598.055	84.410	-0.173	0.193
-597.040	644.031	-0.101	0.261
-596.025	44.267	0.093	0.087
-595.011	43.564	0.204	-0.190
-593.996	-200.000	0.045	-0.227
-592.982	757.943	0.062	-0.170
-591.967	621.996	-0.050	0.128
-590.952	184.996	-0.168	0.254
-589.938	-200.000	0.037	-0.221
-588.923	-118.230	-0.124	0.022
-587.909	654.180	-0.101	-0.264
-586.894	-18.582	0.151	0.096
-585.879	-31.238	-0.265	-0.152
-584.865	265.871	-0.187	0.332
-583.850	53.094	-0.090	0.087
-582.836	142.478	0.099	0.133
-581.821	181.158	-0.168	-0.252
-580.806	178.304	0.066	0.098
-579.792	-108.564	-0.078	0.017
-578.777	-200.000	-0.016	-0.128
-577.763	-34.118	-0.236	-0.132
-576.748	-114.891	0.131	0.025
-575.733	-107.881	0.215	-0.048
-574.719	-200.000	-0.066	-0.317
-573.704	25.646	0.126	0.107
-572.690	-59.246	-0.032	-0.014
-571.675	22.734	-0.037	-0.031
-570.661	33.168	0.161	-0.142
-569.646	25.591	0.067	-0.057
-568.631	70.770	0.136	0.144
-567.617	63.139	-0.266	0.271
-566.602	-200.000	-0.004	-0.112
-565.588	428.902	-0.056	0.123
-564.573	800.000	-0.140	-0.395
-563.558	-115.333	0.240	-0.046
-562.544	-200.000	-0.053	-0.312
-561.529	-100.806	-0.183	0.046
-560.515	175.671	-0.065	-0.095
-559.500	-200.000	-0.001	-0.120
-558.485	-14.743	-0.114	0.074
-557.471	52.123	0.078	0.075
-556.456	-200.000	-0.019	0.383
-555.442	85.384	-0.076	-0.085
-554.427	800.000	-0.066	0.195
-553.412	-107.001	-0.419	0.094
-552.398	330.744	-0.039	-0.077
-551.383	119.798	-0.065	0.082
-550.369	288.430	0.119	0.220
-549.354	125.224	0.083	-0.107
-548.339	-200.000	0.026	-0.225
-547.325	775.678	-0.130	-0.361
-546.310	-48.710	-0.077	-0.037
-545.296	102.628	0.022	0.026
-544.281	-100.821	-0.148	-0.037
-543.266	-200.000	-0.001	-0.020
-542.252	-69.060	-0.059	-0.023
-541.237	396.716	0.047	0.099
-540.223	-144.578	-0.256	-0.024
-539.208	800.000	-0.015	0.062
-538.193	800.000	-0.087	0.332
-537.179	-70.734	0.363	0.139
-536.164	-21.072	-0.156	-0.097
-535.150	353.094	-0.049	-0.099
-534.135	-126.102	-0.402	0.061
-533.121	276.343	0.123	-0.221
-532.106	118.701	0.199	-0.249
-531.091	800.000	0.041	-0.148
-530.077	-3.981	-0.214	-0.150
-529.062	-73.735	-0.332	-0.122
-528.048	-53.394	0.290	-0.135
-527.033	375.188	-0.010	0.020
-526.018	-93.189	0.329	0.093
-525.004	569.615	0.056	0.138
-523.989	-52.761	0.219	-0.103
-522.975	-100.719	0.201	-0.050
-521.960	-200.000	0.029	-0.259
-520.945	-200.000	-0.021	0.425
-519.931	17.723	-0.344	0.277
-518.916	6.784	0.376	-0.284
-517.902	174.995	0.030	0.044
-516.887	280.283	0.126	-0.229
-515.872	800.000	0.060	-0.187
-514.858	-27.902	-0.132	-0.078
-513.843	-116.646	0.369	-0.069
-512.829	-48.517	-0.222	-0.108
-511.814	-162.846	-0.143	-0.007
-510.799	-164.988	-0.351	-0.016
-509.785	800.000	-0.084	0.369
-508.770	338.258	0.067	0.133
-507.756	-200.000	0.113	0.567
-506.741	-109.842	-0.135	-0.029
-505.726	73.392	0.105	0.111
-504.712	555.741	0.165	0.404
-503.697	34.085	-0.259	0.229
-502.683	103.378	0.288	0.342
-501.668	-66.988	-0.144	0.058
-500.653	-142.338	0.144	-0.014
-499.639	381.554	0.111	-0.232
-498.624	800.000	0.072	-0.274
-497.610	124.575	0.142	-0.181
-496.595	-100.971	0.297	-0.074
-495.581	-200.000	0.003	-0.148
-494.566	9.015	0.401	-0.307
-493.551	800.000	0.044	0.157
-492.537	-6.007	-0.116	0.081
-491.522	-138.585	-0.133	0.015
-490.508	-29.473	-0.264	0.153
-489.493	-58.630	0.431	0.189
-488.478	438.380	0.087	-0.193
-487.464	-200.000	-0.003	-0.262
-486.449	-140.214	0.092	0.010
-485.435	39.559	0.200	-0.181
-484.420	19.143	0.219	0.178
-483.405	116.947	0.125	0.156
-482.391	-36.455	-0.227	-0.124
-481.376	-26.696	-0.035	-0.021
-480.362	-107.716	0.228	-0.050
-479.347	74.937	0.141	-0.150
-478.332	-67.518	-0.184	0.073
-477.318	-200.000	-0.032	-0.218
-476.303	800.000	0.079	-0.325
-475.289	-99.702	-0.263	0.067
-474.274	-164.860	0.206	0.009
-473.259	-35.283	-0.339	-0.187
-472.245	-55.098	0.160	-0.073
-471.230	800.000	0.041	0.161
-470.216	-52.076	0.238	-0.112
-469.201	-38.554	0.281	-0.150
-468.186	296.268	0.109	-0.203
-467.172	23.896	0.153	0.128
-466.157	-52.509	0.069	0.032
-465.143	157.550	-0.072	-0.101
-464.128	325.282	-0.150	0.290
-463.113	800.000	-0.069	-0.197
-462.099	-200.000	0.029	-0.149
-461.084	-58.983	0.117	-0.051
-460.070	-200.000	-0.001	-0.138
-459.055	-200.000	-0.008	-0.074
-458.040	-82.664	-0.326	-0.107
-457.026	-200.000	-0.008	0.086
-456.011	-86.375	-0.140	-0.044
-454.997	137.547	-0.169	-0.224
-453.982	-200.000	-0.038	-0.268
-452.968	641.200	-0.050	0.130
-451.953	-160.912	-0.301	-0.016
-450.938	-200.000	0.016	-0.100
-449.924	-65.700	-0.260	-0.105
-448.909	239.820	0.013	0.021
-447.895	80.915	-0.017	-0.018
-446.880	54.068	-0.258	0.251
-445.865	-58.137	0.184	0.081
-444.851	800.000	0.118	0.383
-443.836	-200.000	-0.005	-0.178
-442.822	32.633	-0.085	0.074
-441.807	-53.617	0.412	0.190
-440.792	50.032	-0.094	0.090
-439.778	-82.097	-0.314	-0.104
-438.763	68.835	0.168	-0.174
-437.749	37.723	0.101	0.091
-436.734	-20.453	-0.053	0.033
-435.719	-69.489	-0.245	-0.095
-434.705	-77.813	-0.212	0.074
-433.690	-80.194	0.060	0.020
-432.676	32.955	0.139	-0.122
-431.661	-0.104	0.246	0.177
-430.646	-187.087	0.163	0.002
-429.632	-21.785	-0.153	-0.094
-428.617	-200.000	0.001	-0.070
-427.603	-73.880	0.315	-0.116
-426.588	-49.279	0.171	-0.083
-425.573	-200.000	-0.017	0.271
-424.559	-200.000	-0.024	0.322
-423.544	75.580	-0.086	0.092
-422.530	-185.279	-0.402	0.006
-421.515	18.770	0.179	0.145
-420.500	-84.074	-0.226	0.072
-419.486	209.714	0.099	-0.157
-418.471	27.846	-0.362	0.308
-417.457	-64.624	-0.371	-0.152
-416.442	77.231	-0.105	-0.113
-415.428	-16.153	0.291	0.187
-414.413	-78.398	0.060	0.021
-413.398	76.055	-0.093	0.099
-412.384	771.679	-0.062	0.170
-411.369	-74.172	-0.167	0.061
-410.355	26.734	-0.037	-0.031
-409.340	-151.765	-0.122	-0.009
-408.325	342.297	-0.132	0.261
-407.311	-36.641	0.146	-0.079
-406.296	-2.335	-0.051	0.036
-405.282	-31.555	-0.068	0.039
-404.267	-19.018	0.061	0.038
-403.252	7.934	0.231	-0.175
-402.238	-119.901	0.189	0.033
-401.223	-19.280	-0.181	-0.114
-400.209	385.315	0.205	-0.427
-399.194	37.571	0.035	0.031
-398.179	-105.971	-0.535	-0.122
-397.165	30.223	0.220	-0.190
-396.150	-64.588	0.264	-0.108
-395.136	150.395	-0.200	-0.274
-394.121	-162.896	-0.174	-0.009
-393.106	40.225	0.212	0.193
-392.092	-50.531	0.289	-0.138
-391.077	-200.000	0.007	0.057
-390.063	-99.806	0.043	0.011
-389.048	53.625	0.198	0.192
-388.033	-55.758	0.228	0.103
-387.019	-76.769	0.119	0.042
-386.004	-49.576	0.152	-0.073
-384.990	-129.433	0.015	0.002
-383.975	-105.478	-0.143	0.033
-382.960	756.030	-0.092	0.252
-381.946	7.427	-0.239	0.180
-380.931	-163.370	0.117	0.006
-379.917	-140.284	-0.130	-0.014
-378.902	-103.214	-0.087	0.021
-377.888	29.068	-0.039	0.033
-376.873	-129.595	0.116	-0.016
-375.858	602.612	-0.062	-0.156
-374.844	747.881	-0.102	0.276
-373.829	-200.000	0.048	0.278
-372.815	800.000	-0.055	-0.212
-371.800	-200.000	0.017	-0.110
-370.785	-61.263	0.163	-0.069
-369.771	-61.949	0.219	0.092
-368.756	-17.972	-0.118	-0.075
-367.742	-199.004	-0.333	0.002
-366.727	10.218	-0.194	0.149
-365.712	-178.594	0.187	0.004
-364.698	56.209	0.155	-0.152
-363.683	-200.000	0.041	-0.219
-362.669	99.819	-0.076	0.089
-361.654	-69.612	-0.067	0.026
-360.639	-6.091	0.395	0.272
-359.625	-200.000	-0.012	-0.154
-358.610	-200.000	-0.043	0.261
-357.596	800.000	-0.069	0.259
-356.581	-126.543	0.371	0.056
-355.566	-200.000	0.051	0.281
-354.552	-54.033	-0.214	0.098
-353.537	-16.551	0.068	0.043
-352.523	800.000	-0.037	-0.106
-351.508	112.444	-0.041	0.051
-350.493	-200.000	-0.012	0.095
-349.479	154.421	0.062	-0.085
-348.464	87.173	-0.019	0.021
-347.450	126.324	-0.116	-0.148
-346.435	117.550	-0.187	0.232
-345.420	-200.000	-0.011	-0.097
-344.406	41.315	-0.204	0.186
-343.391	127.628	0.148	0.190
-342.377	-200.000	0.017	-0.158
-341.362	23.060	-0.129	-0.107
-340.348	-123.868	-0.242	-0.038
-339.333	124.515	-0.252	0.319
-338.318	-52.323	-0.436	0.204
-337.304	113.504	-0.156	0.190
-336.289	-187.831	0.193	-0.003
-335.275	121.173	-0.106	-0.133
-334.260	-148.325	-0.283	-0.023
-333.245	-24.560	-0.053	0.032
-332.231	42.364	0.293	-0.268
-331.216	-200.000	-0.026	-0.120
-330.202	87.383	0.138	0.154
-329.187	-8.299	0.116	-0.079
-328.172	-0.559	0.124	-0.089
-327.158	22.463	-0.221	-0.182
-326.143	306.499	0.057	0.106
-325.129	22.095	-0.070	-0.058
-324.114	800.000	0.071	-0.286
-323.099	-32.759	-0.132	-0.074
-322.085	-66.438	-0.140	0.056
-321.070	13.984	0.222	0.174
-320.056	731.024	-0.127	-0.342
-319.041	-8.861	0.159	-0.107
-318.026	-116.508	0.147	-0.027
-317.012	-147.098	-0.174	-0.015
-315.997	-65.625	0.229	0.093
-314.983	-200.000	0.041	-0.369
-313.968	89.527	-0.176	0.197
-312.953	-129.324	-0.141	-0.020
-311.939	-100.429	0.276	-0.069
-310.924	-96.382	-0.080	-0.021
-309.910	9.712	-0.027	0.021
-308.895	602.030	0.122	-0.304
-307.880	-113.951	-0.103	-0.020
-306.866	800.000	-0.058	0.226
-305.851	39.508	-0.049	-0.044
-304.837	154.041	0.135	-0.186
-303.822	607.531	-0.065	0.162
-302.807	192.511	-0.089	0.135
-301.793	331.616	0.034	-0.066
-300.778	-2.757	0.117	0.082
-299.764	-84.497	-0.183	0.058
-298.749	-97.135	-0.227	0.060
-297.735	-63.491	-0.069	0.029
-296.720	-14.740	-0.187	0.121
-295.705	259.978	0.094	-0.163
-294.691	-49.549	0.051	0.025
-293.676	24.666	-0.089	0.074
-292.662	-160.593	-0.151	-0.008
-291.647	-142.407	-0.381	0.038
-290.632	56.997	0.269	0.264
-289.618	301.144	-0.075	-0.139
-288.603	629.158	0.149	-0.380
-287.589	344.900	0.072	-0.143
-286.574	800.000	0.074	-0.258
-285.559	90.383	0.258	-0.291
-284.545	800.000	0.099	0.325
-283.530	-33.254	0.206	-0.115
-282.516	121.620	0.089	0.111
-281.501	639.009	-0.140	0.359
-280.486	52.072	0.154	0.148
-279.472	-200.000	0.005	-0.130
-278.457	417.609	-0.130	-0.278
-277.443	-200.000	0.032	-0.304
-276.428	281.350	-0.217	-0.390
-275.413	82.349	-0.158	-0.172
-274.399	-200.000	-0.068	-0.339
-273.384	631.052	-0.062	0.157
-272.370	-140.934	0.207	-0.021
-271.355	190.174	0.051	-0.077
-270.340	126.017	0.187	-0.237
-269.326	800.000	-0.071	-0.287
-268.311	-129.180	0.146	-0.020
-267.297	534.326	0.031	0.074
-266.282	-22.467	0.249	-0.151
-265.267	218.797	-0.034	0.054
-264.253	304.846	0.077	0.144
-263.238	-200.000	-0.035	0.396
-262.224	800.000	-0.035	0.136
-261.209	-200.000	0.008	0.149
-260.195	-167.763	0.235	-0.009
-259.180	-200.000	-0.058	0.349
-258.165	-16.532	-0.161	0.102
-257.151	3.909	0.120	-0.088
-256.136	-88.307	-0.281	0.084
-255.122	800.000	-0.089	0.379
-254.107	198.813	0.254	-0.391
-253.092	-6.936	0.144	-0.099
-252.078	-84.572	0.080	-0.025
-251.063	117.094	-0.168	0.207
-250.049	-104.583	-0.475	0.110
-249.034	21.291	-0.292	-0.238
-248.019	800.000	0.009	0.037
-247.005	464.285	0.127	0.285
-245.990	18.063	0.494	-0.396
-244.976	44.320	0.127	-0.117
-243.961	-200.000	0.107	-0.562
-242.946	111.113	0.060	0.073
-241.932	77.279	-0.182	-0.195
-240.917	800.000	0.068	-0.214
-239.903	19.810	-0.030	-0.025
-238.888	602.576	0.080	0.200
-237.873	-95.848	-0.247	0.066
-236.859	-25.169	0.203	0.121
-235.844	-200.000	0.005	-0.041
-234.830	17.751	0.216	-0.173
-233.815	28.155	0.158	0.134
-232.800	120.791	-0.136	0.169
-231.786	-74.248	0.256	-0.093
-230.771	-35.089	0.157	-0.086
-229.757	-64.726	-0.080	-0.032
-228.742	169.466	-0.115	0.165
-227.727	7.263	0.087	-0.065
-226.713	800.000	-0.056	0.191
-225.698	-200.000	-0.029	0.301
-224.684	800.000	-0.067	0.209
-223.669	800.000	0.114	0.419
-222.655	-200.000	-0.018	0.195
-221.640	-200.000	0.005	-0.174
-220.625	115.491	-0.146	-0.178
-219.611	135.250	-0.067	-0.087
-218.596	6.505	-0.034	0.025
-217.582	287.775	0.083	-0.150
-216.567	170.662	0.133	-0.191
-215.552	141.941	-0.141	0.187
-214.538	800.000	0.041	0.168
-213.523	-129.732	0.338	-0.047
-212.509	800.000	-0.107	0.389
-211.494	-169.058	0.174	-0.006
-210.479	107.369	0.099	0.118
-209.465	47.048	-0.268	0.250
-208.450	100.541	-0.142	0.165
-207.436	665.424	0.129	0.334
-206.421	-24.011	0.119	-0.072
-205.406	108.473	-0.127	-0.152
-204.392	57.788	-0.103	-0.101
-203.377	-3.774	-0.280	0.195
-202.363	-156.789	-0.248	-0.015
-201.348	-200.000	-0.006	0.458
-200.333	-138.228	-0.128	-0.014
-199.319	-33.674	-0.096	0.053
-198.304	-100.002	-0.052	0.013
-197.290	-8.408	0.054	0.037
-196.275	-200.000	-0.006	-0.252
-195.260	71.417	-0.235	0.244
-194.246	26.975	0.216	0.182
-193.231	-27.144	-0.200	0.117
-192.217	-200.000	0.002	-0.638
-191.202	-200.000	-0.111	0.514
-190.187	800.000	-0.073	0.247
-189.173	800.000	0.118	0.382
-188.158	93.067	0.104	0.118
-187.144	392.864	0.017	-0.036
-186.129	-88.740	0.204	-0.061
-185.114	-9.324	0.058	0.039
-184.100	720.252	0.060	-0.161
-183.085	-173.161	-0.332	-0.010
-182.071	-200.000	0.008	0.457
-181.056	-200.000	0.042	-0.230
-180.042	29.961	-0.116	-0.099
-179.027	-49.198	0.241	-0.115
-178.012	-22.781	-0.165	-0.100
-176.998	-77.576	0.123	0.043
-175.983	-117.874	-0.069	-0.012
-174.969	-125.441	0.143	0.022
-173.954	-200.000	0.018	-0.122
-172.939	-200.000	-0.006	-0.088
-171.925	800.000	0.074	0.293
-170.910	12.333	-0.016	0.012
-169.896	134.568	-0.086	-0.112
-168.881	3.042	-0.302	-0.220
-167.866	436.568	-0.092	-0.200
-166.852	-54.640	-0.314	-0.142
-165.837	-200.000	-0.010	-0.084
-164.823	800.000	-0.056	-0.156
-163.808	-96.820	0.317	0.083
-162.793	381.177	0.076	-0.156
-161.779	-15.923	0.277	0.176
-160.764	-98.567	0.119	-0.030
-159.750	800.000	0.104	0.290
-158.735	-200.000	0.004	0.203
-157.720	-73.790	-0.027	-0.010
-156.706	-22.130	-0.254	0.154
-155.691	-168.964	0.166	0.006
-154.677	-100.688	0.124	0.030
-153.662	71.776	-0.076	-0.079
-152.647	-66.695	0.162	0.064
-151.633	5.779	-0.016	0.012
-150.618	-15.748	-0.117	0.075
-149.604	-91.103	0.124	0.035
-148.589	-200.000	-0.037	0.224
-147.574	309.014	0.230	0.430
-146.560	-200.000	-0.000	-0.302
-145.545	-72.809	0.217	0.080
-144.531	24.192	0.332	0.274
-143.516	800.000	0.067	0.205
-142.502	-16.694	-0.350	0.221
-141.487	400.918	0.126	0.264
-140.472	20.687	0.153	0.124
-139.458	800.000	-0.054	0.166
-138.443	113.597	0.082	0.099
-137.429	-200.000	-0.013	0.105
-136.414	-84.815	0.202	-0.063
-135.399	-123.916	-0.342	-0.054
-134.385	255.423	-0.143	0.245
-133.370	87.035	-0.083	-0.092
-132.356	11.797	-0.101	-0.078
-131.341	373.753	0.028	-0.057
-130.326	-8.842	-0.199	-0.133
-129.312	53.876	-0.032	-0.031
-128.297	-135.566	0.165	0.020
-127.283	-200.000	0.009	0.047
-126.268	687.926	0.064	0.166
-125.253	90.062	0.249	0.278
-124.239	-200.000	0.028	-0.123
-123.224	712.030	0.108	0.286
-122.210	-200.000	-0.040	0.241
-121.195	61.495	-0.179	-0.177
