DTS Sentinel unit serial number:	SN413079Multiplexer serial number:	ORYXHardware model number:	OX4-SRSoftware version number:	ORYX F/W v4.00 Oryx Data Collector v3.7.2.0data status	okinstallation	princeton_trtdifferential loss correction	single-endedforward channel	channel 1reverse channel	N/Adate	2019/09/11time	18:56:11forward acquisition time	60.00reverse acquisition time	0.00gamma	496.2192k internal	0.2292k external	0.2292temperature offset calibration	1.0013default loss term (dB/km)	0.3790temperature slope calibration	1.0000multiplexer offset coefficient	1.0000multiplexer slope coefficient	1.0000fibre end	0.00T internal ref (°C)	42.56T ext. ref 1 (°C)	1.26T ext. ref 2 (°C)	34.75length (m)	temperature (°C)	Stokes	anti-Stokes-747.200	-102.197	-0.319	-0.079
-746.185	163.059	0.203	0.292
-745.171	522.891	-0.039	0.095
-744.156	37.373	-0.029	-0.027
-743.142	800.000	0.106	-0.357
-742.127	800.000	0.017	-0.052
-741.112	135.539	-0.177	0.236
-740.098	800.000	0.077	0.272
-739.083	21.908	-0.336	-0.281
-738.069	800.000	0.107	0.333
-737.054	-4.009	0.135	0.096
-736.039	-200.000	-0.020	0.097
-735.025	-200.000	0.004	0.439
-734.010	128.241	0.039	-0.051
-732.996	-29.498	0.126	-0.074
-731.981	548.158	-0.122	-0.298
-730.966	-200.000	0.020	-0.223
-729.952	746.844	-0.019	0.053
-728.937	173.545	-0.156	-0.230
-727.923	-41.209	-0.217	-0.115
-726.908	-95.849	0.104	-0.028
-725.894	43.677	0.030	-0.028
-724.879	566.268	-0.131	0.325
-723.864	-35.287	-0.260	-0.145
-722.850	-23.634	-0.385	-0.236
-721.835	-111.773	0.435	0.090
-720.821	22.812	0.023	0.019
-719.806	111.783	-0.053	-0.065
-718.791	-89.225	-0.211	-0.064
-717.777	128.289	-0.099	0.129
-716.762	800.000	-0.037	-0.111
-715.748	302.739	-0.084	0.159
-714.733	-28.462	-0.130	-0.077
-713.718	-70.058	-0.250	-0.097
-712.704	-167.041	-0.039	0.002
-711.689	800.000	-0.076	0.251
-710.675	138.743	0.135	-0.182
-709.660	198.153	0.183	0.286
-708.645	-142.771	0.225	-0.022
-707.631	-17.976	0.249	-0.160
-706.616	-200.000	-0.019	-0.317
-705.602	222.956	-0.186	-0.306
-704.587	112.130	-0.254	-0.314
-703.572	71.478	-0.216	0.229
-702.558	18.899	0.161	-0.132
-701.543	323.395	0.029	0.056
-700.529	261.820	0.161	0.285
-699.514	-200.000	0.001	-0.139
-698.499	699.209	0.028	-0.075
-697.485	-109.792	-0.217	-0.047
-696.470	-200.000	0.032	-0.232
-695.456	800.000	-0.046	-0.143
-694.441	248.279	-0.196	-0.339
-693.426	-61.228	0.328	0.141
-692.412	-25.524	0.146	0.088
-691.397	-81.289	-0.228	0.077
-690.383	800.000	-0.094	-0.414
-689.368	362.069	-0.066	-0.136
-688.354	255.909	0.020	-0.035
-687.339	113.171	-0.215	0.266
-686.324	152.194	0.180	-0.251
-685.310	451.770	0.068	-0.154
-684.295	35.710	-0.436	0.392
-683.281	45.263	-0.263	0.247
-682.266	800.000	0.036	0.143
-681.251	38.145	0.243	0.221
-680.237	-75.915	-0.291	0.105
-679.222	-126.708	0.077	0.012
-678.208	-200.000	0.027	0.236
-677.193	103.930	-0.122	0.146
-676.178	-160.576	-0.071	0.004
-675.164	200.540	-0.103	-0.161
-674.149	15.465	-0.148	0.118
-673.135	80.873	-0.199	-0.219
-672.120	-130.484	-0.270	-0.037
-671.105	-200.000	0.009	-0.135
-670.091	103.090	-0.097	0.116
-669.076	-104.823	-0.212	0.050
-668.062	-200.000	0.003	0.131
-667.047	800.000	0.035	-0.115
-666.032	-43.497	0.265	-0.136
-665.018	-150.046	0.300	0.024
-664.003	-13.873	0.227	-0.150
-662.989	9.961	0.070	0.054
-661.974	-14.906	-0.183	0.120
-660.959	800.000	-0.053	-0.210
-659.945	-99.220	-0.297	0.077
-658.930	390.116	0.134	0.283
-657.916	298.370	-0.035	-0.066
-656.901	-81.967	0.498	0.166
-655.886	800.000	-0.064	0.249
-654.872	174.169	0.056	0.082
-653.857	-64.995	-0.205	0.084
-652.843	-81.780	-0.209	0.070
-651.828	348.316	0.019	-0.039
-650.814	16.492	0.274	-0.221
-649.799	7.135	-0.233	0.177
-648.784	62.864	0.111	0.113
-647.770	-200.000	-0.024	-0.182
-646.755	800.000	0.068	0.245
-645.741	-200.000	0.023	-0.106
-644.726	143.646	0.111	-0.151
-643.711	-200.000	0.017	0.189
-642.697	617.568	0.070	0.179
-641.682	-42.935	0.456	-0.236
-640.668	-200.000	-0.005	0.099
-639.653	-99.414	0.292	-0.075
-638.638	147.326	-0.254	-0.349
-637.624	-110.608	0.148	-0.031
-636.609	28.601	0.227	0.196
-635.595	-18.140	0.132	0.084
-634.580	-45.462	-0.218	-0.110
-633.565	-116.957	-0.323	-0.060
-632.551	227.864	0.126	0.208
-631.536	-46.323	-0.246	-0.123
-630.522	-138.904	0.111	0.012
-629.507	800.000	0.043	0.155
-628.492	31.667	-0.208	-0.183
-627.478	-200.000	-0.024	-0.335
-626.463	-124.999	-0.175	-0.027
-625.449	-102.160	-0.146	-0.036
-624.434	800.000	0.099	-0.285
-623.419	-200.000	-0.029	0.267
-622.405	-200.000	0.022	0.198
-621.390	246.098	0.165	-0.284
-620.376	-200.000	0.071	-0.354
-619.361	42.807	0.259	-0.240
-618.346	800.000	0.049	-0.139
-617.332	-200.000	0.000	0.474
-616.317	-152.591	-0.205	-0.015
-615.303	-200.000	-0.085	-0.394
-614.288	-200.000	0.051	-0.291
-613.273	36.371	-0.209	-0.188
-612.259	-200.000	-0.011	-0.133
-611.244	-187.543	-0.121	0.002
-610.230	-33.134	0.070	-0.039
-609.215	-124.409	-0.032	0.005
-608.201	-160.376	-0.137	-0.007
-607.186	-200.000	-0.010	-0.327
-606.171	220.523	-0.063	0.102
-605.157	251.324	0.084	-0.145
-604.142	-89.493	-0.142	0.043
-603.128	224.851	0.098	-0.162
-602.113	425.235	-0.083	-0.181
-601.098	800.000	-0.075	-0.240
-600.084	-0.876	0.175	0.126
-599.069	-20.123	0.079	0.049
-598.055	25.951	-0.032	0.027
-597.040	342.449	-0.116	-0.232
-596.025	739.042	0.080	0.217
-595.011	-87.307	-0.309	0.095
-593.996	235.386	0.150	-0.252
-592.982	-113.514	0.238	-0.047
-591.967	-115.332	-0.109	0.021
-590.952	365.115	-0.165	-0.338
-589.938	-9.670	0.017	-0.011
-588.923	187.446	-0.097	-0.148
-587.909	-136.693	0.436	-0.051
-586.894	-104.688	-0.133	-0.031
-585.879	142.288	-0.087	-0.117
-584.865	265.112	0.147	0.260
-583.850	238.958	0.035	0.059
-582.836	800.000	-0.046	-0.193
-581.821	147.816	0.208	-0.286
-580.806	157.741	0.040	0.056
-579.792	171.853	0.100	0.147
-578.777	244.063	0.163	0.279
-577.763	232.865	0.075	-0.125
-576.748	-18.405	0.119	-0.076
-575.733	92.818	-0.223	-0.256
-574.719	-88.321	0.197	-0.060
-573.704	-169.104	-0.289	0.011
-572.690	-105.118	0.130	-0.030
-571.675	-200.000	0.019	0.172
-570.661	-114.334	0.218	-0.043
-569.646	114.195	-0.203	-0.251
-568.631	-135.239	0.258	0.031
-567.617	-200.000	0.009	0.113
-566.602	-200.000	0.016	-0.192
-565.588	-49.862	-0.273	-0.132
-564.573	39.640	0.128	0.116
-563.558	-8.492	0.260	-0.177
-562.544	42.012	0.184	0.169
-561.529	-42.143	0.191	0.099
-560.515	791.452	0.053	-0.149
-559.500	231.772	-0.022	0.037
-558.485	262.545	-0.051	-0.090
-557.471	20.892	-0.238	-0.196
-556.456	800.000	-0.037	-0.139
-555.442	-145.271	0.332	-0.030
-554.427	47.781	0.082	-0.077
-553.412	-95.474	0.210	-0.057
-552.398	-74.835	-0.192	0.070
-551.383	-200.000	-0.054	0.375
-550.369	58.023	-0.139	-0.138
-549.354	5.653	0.126	0.095
-548.339	-200.000	-0.019	0.096
-547.325	-200.000	-0.030	-0.204
-546.310	-174.076	0.244	-0.007
-545.296	50.100	0.190	0.182
-544.281	-61.043	-0.151	0.065
-543.266	687.426	-0.092	0.244
-542.252	55.790	0.297	0.292
-541.237	-200.000	-0.046	0.346
-540.223	72.906	0.171	0.181
-539.208	-56.819	-0.203	0.091
-538.193	4.319	0.133	0.099
-537.179	-21.620	-0.036	-0.022
-536.164	-200.000	0.032	-0.220
-535.150	28.986	0.246	-0.212
-534.135	65.797	0.116	-0.120
-533.121	-200.000	-0.037	-0.193
-532.106	259.346	0.109	-0.190
-531.091	595.522	-0.055	-0.138
-530.077	-113.868	-0.379	0.075
-529.062	-100.211	-0.136	0.034
-528.048	-30.309	-0.158	-0.091
-527.033	-84.689	-0.189	-0.060
-526.018	-101.528	-0.094	-0.023
-525.004	-82.009	-0.154	-0.051
-523.989	582.356	0.114	0.284
-522.975	800.000	0.128	0.390
-521.960	227.220	0.165	0.272
-520.945	43.601	0.105	0.097
-519.931	-72.301	-0.076	0.029
-518.916	21.586	0.025	-0.020
-517.902	379.568	-0.067	0.140
-516.887	-160.738	0.219	-0.012
-515.872	-200.000	-0.049	-0.517
-514.858	-157.685	0.568	0.034
-513.843	-139.958	0.443	0.047
-512.829	-200.000	-0.056	0.289
-511.814	-122.877	-0.194	0.032
-510.799	-18.147	-0.088	-0.056
-509.785	130.424	-0.126	-0.164
-508.770	94.335	-0.058	0.066
-507.756	283.585	-0.034	-0.062
-506.741	-95.661	-0.045	-0.012
-505.726	-110.582	-0.406	-0.085
-504.712	-70.106	0.230	-0.089
-503.697	-200.000	0.068	-0.407
-502.683	-67.778	-0.255	-0.101
-501.668	-67.544	-0.115	0.046
-500.653	-26.122	0.397	-0.237
-499.639	-55.832	0.098	0.044
-498.624	-60.536	0.100	0.043
-497.610	328.271	-0.104	0.202
-496.595	34.021	-0.270	0.239
-495.581	-200.000	0.004	-0.377
-494.566	16.530	-0.189	0.152
-493.551	-200.000	0.027	0.158
-492.537	66.355	0.101	-0.104
-491.522	-5.139	-0.157	-0.110
-490.508	37.455	-0.296	0.266
-489.493	141.631	0.149	0.200
-488.478	-42.686	-0.144	0.074
-487.464	-200.000	0.006	0.169
-486.449	-28.115	0.048	-0.028
-485.435	606.442	0.115	-0.290
-484.420	625.216	-0.029	0.073
-483.405	99.394	0.123	-0.144
-482.391	-55.558	0.322	-0.146
-481.376	-156.583	0.076	0.005
-480.362	272.771	0.282	0.504
-479.347	-53.929	-0.451	0.208
-478.332	501.529	-0.051	-0.119
-477.318	137.496	0.086	-0.113
-476.303	100.912	0.266	0.314
-475.289	237.446	-0.060	0.101
-474.274	-200.000	-0.020	-0.165
-473.259	-200.000	-0.036	0.307
-472.245	-200.000	0.010	-0.066
-471.230	-163.121	0.122	0.006
-470.216	7.103	-0.315	-0.238
-469.201	449.134	0.089	0.199
-468.186	98.101	-0.048	0.056
-467.172	234.920	-0.079	0.132
-466.157	180.294	0.180	-0.267
-465.143	-95.885	-0.260	-0.070
-464.128	317.192	0.138	0.264
-463.113	21.269	0.282	-0.232
-462.099	369.819	0.041	-0.084
-461.084	-64.932	0.200	-0.082
-460.070	190.900	-0.068	-0.104
-459.055	291.920	-0.061	-0.113
-458.040	-137.405	-0.215	-0.025
-457.026	707.279	0.020	-0.054
-456.011	800.000	0.083	-0.263
-454.997	-54.926	-0.297	0.135
-453.982	611.910	-0.089	0.224
-452.968	686.402	-0.153	0.406
-451.953	47.615	0.206	0.194
-450.938	-136.457	0.270	0.032
-449.924	-132.924	0.245	-0.032
-448.909	-55.581	-0.240	0.109
-447.895	-47.550	-0.274	0.135
-446.880	322.813	0.108	-0.209
-445.865	-200.000	0.011	-0.198
-444.851	602.362	0.119	0.298
-443.836	93.049	-0.130	-0.149
-442.822	162.237	-0.112	0.159
-441.807	764.475	-0.129	-0.353
-440.792	-142.483	-0.046	0.005
-439.778	-77.349	-0.045	-0.016
-438.763	25.250	0.178	-0.149
-437.749	415.900	-0.076	-0.163
-436.734	694.714	0.109	-0.290
-435.719	-55.529	0.219	-0.099
-434.705	-26.858	0.138	0.081
-433.690	178.369	0.075	-0.111
-432.676	56.566	-0.071	-0.070
-431.661	-110.464	0.148	-0.031
-430.646	473.899	-0.018	-0.042
-429.632	800.000	-0.072	-0.270
-428.617	522.487	-0.123	-0.293
-427.603	37.677	0.249	-0.223
-426.588	270.109	0.096	-0.171
-425.573	-41.587	-0.270	0.140
-424.559	-108.739	0.203	0.044
-423.544	163.986	-0.105	0.149
-422.530	-46.352	-0.269	-0.133
-421.515	-96.529	0.465	0.124
-420.500	221.161	0.183	0.297
-419.486	-50.814	-0.165	-0.078
-418.471	257.702	0.018	0.031
-417.457	631.452	0.029	-0.073
-416.442	357.304	-0.128	-0.259
-415.428	-200.000	0.008	0.154
-414.413	147.553	-0.102	0.138
-413.398	-200.000	-0.004	0.098
-412.384	123.316	0.282	-0.357
-411.369	-170.422	0.346	-0.012
-410.355	800.000	-0.174	-0.503
-409.340	-66.799	-0.223	-0.089
-408.325	338.416	0.060	-0.118
-407.311	-200.000	0.004	-0.366
-406.296	46.148	-0.318	-0.297
-405.282	-170.955	-0.024	0.001
-404.267	-25.237	0.122	-0.073
-403.252	-200.000	-0.031	-0.162
-402.238	201.707	-0.097	0.151
-401.223	-200.000	0.003	-0.069
-400.209	106.022	-0.120	-0.143
-399.194	-200.000	0.002	0.297
-398.179	-66.110	0.250	0.101
-397.165	-83.187	0.299	0.097
-396.150	-138.722	0.331	0.037
-395.136	-200.000	0.036	0.343
-394.121	-137.461	-0.282	-0.032
-393.106	-65.591	0.103	-0.042
-392.092	174.355	-0.083	-0.122
-391.077	192.499	-0.117	0.179
-390.063	-69.793	0.207	0.080
-389.048	375.195	-0.167	-0.345
-388.033	800.000	0.059	0.180
-387.019	330.428	-0.132	0.256
-386.004	-9.384	0.205	-0.138
-384.990	-104.391	-0.114	-0.027
-383.975	-76.250	0.195	-0.069
-382.960	4.900	0.116	-0.086
-381.946	777.071	0.025	0.070
-380.931	57.371	-0.093	0.091
-379.917	-112.882	-0.117	-0.023
-378.902	-32.023	-0.290	-0.164
-377.888	-200.000	0.012	0.134
-376.873	66.173	-0.193	-0.198
-375.858	282.043	0.070	-0.127
-374.844	-200.000	0.002	0.190
-373.829	-76.063	0.126	0.045
-372.815	104.562	-0.135	0.161
-371.800	365.974	-0.073	0.149
-370.785	-38.634	-0.311	-0.166
-369.771	175.001	-0.104	-0.153
-368.756	236.746	-0.129	0.215
-367.742	-152.542	-0.321	0.023
-366.727	-200.000	0.012	-0.215
-365.712	800.000	0.059	0.175
-364.698	800.000	-0.046	0.194
-363.683	-20.153	-0.322	-0.200
-362.669	284.339	-0.234	-0.425
-361.654	471.578	0.039	-0.089
-360.639	800.000	-0.051	-0.201
-359.625	141.942	0.097	-0.130
-358.610	-38.868	-0.200	0.106
-357.596	72.030	-0.308	-0.323
-356.581	513.643	0.089	0.209
-355.566	94.397	0.131	0.150
-354.552	143.114	0.208	-0.278
-353.537	-47.982	0.293	0.143
-352.523	-57.232	-0.160	0.071
-351.508	516.918	0.060	0.142
-350.493	-200.000	0.003	0.085
-349.479	303.055	0.091	0.169
-348.464	-61.816	-0.123	0.052
-347.450	-200.000	0.013	-0.096
-346.435	-18.426	0.130	0.082
-345.420	800.000	0.042	0.157
-344.406	266.805	-0.068	0.120
-343.391	-12.591	-0.020	-0.013
-342.377	79.747	0.284	0.308
-341.362	-200.000	-0.000	0.266
-340.348	-18.543	0.263	0.166
-339.333	-51.925	0.185	-0.087
-338.318	-200.000	0.045	0.304
-337.304	-40.698	-0.242	-0.126
-336.289	-30.990	0.181	-0.103
-335.275	-200.000	-0.015	0.345
-334.260	288.947	-0.060	0.110
-333.245	-80.609	-0.316	-0.106
-332.231	15.054	-0.059	0.047
-331.216	15.674	0.244	0.193
-330.202	-54.376	-0.193	0.088
-329.187	-146.122	0.177	0.016
-328.172	770.993	0.143	-0.393
-327.158	-76.389	0.175	-0.062
-326.143	-200.000	0.023	0.386
-325.129	88.370	0.070	0.078
-324.114	-39.049	-0.263	0.139
-323.099	-147.346	0.306	-0.026
-322.085	81.106	0.144	0.156
-321.070	623.969	-0.074	0.189
-320.056	-200.000	0.001	0.085
-319.041	265.056	-0.011	-0.020
-318.026	-25.827	-0.319	0.189
-317.012	50.023	-0.174	0.165
-315.997	701.427	0.024	-0.063
-314.983	-200.000	0.036	0.165
-313.968	-13.759	-0.079	0.051
-312.953	-200.000	0.015	0.130
-311.939	39.235	0.011	0.010
-310.924	-34.395	-0.326	0.180
-309.910	262.747	-0.124	-0.216
-308.895	-42.737	0.208	0.106
-307.880	-70.767	0.077	0.029
-306.866	-200.000	0.021	-0.113
-305.851	-200.000	0.034	0.157
-304.837	688.256	0.158	0.417
-303.822	-47.859	-0.342	-0.167
-302.807	488.749	0.150	0.346
-301.793	135.088	-0.088	0.115
-300.778	-50.614	-0.412	-0.195
-299.764	110.996	0.073	-0.089
-298.749	-200.000	-0.004	-0.037
-297.735	29.660	-0.359	0.307
-296.720	-166.174	0.206	0.009
-295.705	418.377	-0.185	-0.399
-294.691	19.936	-0.152	-0.123
-293.676	800.000	0.044	0.156
-292.662	169.967	0.076	-0.110
-291.647	-57.166	0.147	0.065
-290.632	-8.763	0.081	0.055
-289.618	-182.303	0.598	-0.011
-288.603	-35.851	-0.030	-0.016
-287.589	555.431	-0.063	0.153
-286.574	-200.000	-0.472	-0.001
-285.559	58.054	-0.120	-0.118
-284.545	-4.745	0.114	0.079
-283.530	42.226	0.275	0.251
-282.516	-200.000	-0.093	0.419
-281.501	165.077	-0.062	-0.088
-280.486	36.556	0.139	-0.123
-279.472	228.604	0.111	-0.182
-278.457	-132.102	-0.326	-0.043
-277.443	-103.114	0.169	0.040
-276.428	396.309	0.049	-0.103
-275.413	-157.617	0.439	0.026
-274.399	147.381	-0.171	0.231
-273.384	46.044	-0.224	-0.209
-272.370	-200.000	-0.003	0.151
-271.355	138.574	-0.222	0.292
-270.340	-200.000	-0.053	-0.287
-269.326	-27.876	-0.124	0.072
-268.311	117.799	-0.215	-0.266
-267.297	165.510	0.155	-0.221
-266.282	122.914	0.184	-0.231
-265.267	-76.070	0.216	0.077
-264.253	-200.000	0.053	0.444
-263.238	-200.000	-0.006	0.233
-262.224	-148.837	-0.294	0.024
-261.209	-81.777	-0.036	0.012
-260.195	-15.802	-0.225	-0.144
-259.180	-175.789	-0.184	-0.005
-258.165	-37.887	0.494	0.264
-257.151	-101.856	0.060	-0.015
-256.136	800.000	0.036	0.125
-255.122	496.179	0.094	0.217
-254.107	525.646	-0.140	0.331
-253.092	-80.994	-0.336	0.112
-252.078	-87.084	-0.104	0.032
-251.063	16.664	0.133	0.106
-250.049	-140.934	-0.394	-0.041
-249.034	125.842	-0.138	-0.174
-248.019	-95.517	0.149	-0.040
-247.005	302.575	-0.071	0.132
-245.990	-155.910	-0.281	-0.018
-244.976	-151.555	-0.197	0.015
-243.961	-92.273	0.379	-0.107
-242.946	-67.403	0.200	-0.079
-241.932	411.055	-0.111	-0.235
-240.917	-94.233	0.264	-0.073
-239.903	-200.000	0.031	-0.000
-238.888	-121.540	0.396	-0.066
-237.873	659.000	0.024	0.063
-236.859	186.216	0.299	-0.447
-235.844	-94.761	0.282	-0.077
-234.830	-109.487	0.143	-0.030
-233.815	7.042	-0.430	0.322
-232.800	-177.760	-0.218	0.005
-231.786	174.686	0.073	0.106
-230.771	-119.652	-0.106	-0.018
-229.757	-79.103	-0.150	0.051
-228.742	106.303	0.101	-0.120
-227.727	51.845	0.322	0.307
-226.713	-129.478	0.161	-0.022
-225.698	-100.186	0.109	-0.027
-224.684	-200.000	-0.009	0.133
-223.669	-200.000	-0.001	-0.241
-222.655	1.619	-0.321	-0.232
-221.640	-78.684	-0.067	0.023
-220.625	57.102	0.194	-0.190
-219.611	22.658	0.067	-0.055
-218.596	-116.228	0.191	-0.036
-217.582	-51.634	-0.314	-0.147
-216.567	-200.000	0.000	-0.056
-215.552	-200.000	0.012	0.383
-214.538	16.041	-0.182	-0.144
-213.523	-75.514	0.359	0.128
-212.509	136.399	-0.104	-0.136
-211.494	19.974	-0.179	-0.145
-210.479	-38.870	-0.143	0.075
-209.465	363.576	0.137	0.275
-208.450	167.301	-0.363	-0.517
-207.436	688.624	-0.113	0.296
-206.421	-99.947	-0.135	-0.034
-205.406	-60.925	-0.039	0.016
-204.392	23.520	-0.157	0.130
-203.377	800.000	0.088	-0.295
-202.363	-106.707	-0.246	0.055
-201.348	-200.000	-0.026	-0.187
-200.333	424.657	-0.155	0.334
-199.319	-103.633	-0.066	0.015
-198.304	-200.000	-0.030	0.194
-197.290	217.957	0.129	-0.206
-196.275	206.909	0.079	-0.123
-195.260	-95.893	0.215	0.057
-194.246	-20.371	-0.115	-0.071
-193.231	800.000	0.034	0.133
-192.217	-107.147	0.257	-0.057
-191.202	68.134	0.337	0.346
-190.187	-156.793	0.473	0.029
-189.173	437.363	0.142	0.311
-188.158	-200.000	0.039	-0.237
-187.144	-71.450	-0.119	-0.045
-186.129	-200.000	-0.004	0.047
-185.114	403.345	0.115	-0.243
-184.100	23.162	-0.155	-0.128
-183.085	-131.845	-0.305	0.040
-182.071	17.628	-0.235	0.187
-181.056	-129.896	0.049	0.007
-180.042	-142.257	0.305	-0.030
-179.027	-33.348	0.243	0.135
-178.012	-29.568	-0.247	-0.141
-176.998	-200.000	0.032	-0.189
-175.983	-122.837	0.130	-0.021
-174.969	38.349	-0.450	-0.401
-173.954	191.129	-0.423	0.638
-172.939	12.525	-0.203	0.157
-171.925	3.144	-0.192	-0.140
-170.910	800.000	-0.036	0.128
-169.896	-66.788	0.191	0.075
-168.881	-117.773	-0.459	0.083
-167.866	-200.000	-0.024	-0.133
-166.852	58.138	-0.157	0.154
-165.837	-40.756	0.246	0.128
-164.823	-150.322	-0.198	-0.015
-163.808	219.101	-0.143	0.229
-162.793	-116.692	0.128	0.024
-161.779	-200.000	-0.015	0.136
-160.764	-86.026	-0.179	0.055
-159.750	-113.366	-0.368	0.072
-158.735	64.623	0.166	0.168
-157.720	-135.670	0.268	-0.032
-156.706	-116.586	0.122	-0.022
-155.691	-34.111	0.216	0.119
-154.677	-60.549	-0.274	-0.116
-153.662	-200.000	0.004	-0.386
-152.647	-200.000	0.058	0.260
-151.633	319.383	0.103	0.196
-150.618	-200.000	-0.003	0.089
-149.604	424.190	-0.025	-0.055
-148.589	223.490	-0.106	-0.171
-147.574	-200.000	-0.092	0.638
-146.560	-200.000	0.059	0.380
-145.545	-150.133	0.230	-0.018
-144.531	115.365	0.155	0.189
-143.516	135.813	0.206	0.268
-142.502	800.000	-0.104	0.339
-141.487	704.815	0.125	0.330
-140.472	-90.040	-0.354	0.103
-139.458	-102.860	0.287	-0.068
-138.443	-53.428	-0.176	-0.080
-137.429	377.063	0.132	0.269
-136.414	-200.000	-0.024	0.278
-135.399	-87.910	-0.117	-0.035
-134.385	-200.000	0.088	0.391
-133.370	-200.000	0.058	-0.274
-132.356	719.602	0.162	0.431
-131.341	-16.996	-0.240	0.151
-130.326	-200.000	0.068	0.328
-129.312	-116.224	0.315	0.058
-128.297	-94.797	0.471	0.128
-127.283	9.266	0.221	0.167
-126.268	553.670	0.137	0.328
-125.253	358.674	-0.184	0.368
-124.239	800.000	0.051	0.211
-123.224	-66.605	-0.202	-0.080
-122.210	34.177	0.197	-0.172
-121.195	-156.366	0.203	0.013
