DTS Sentinel unit serial number:	SN413079Multiplexer serial number:	ORYXHardware model number:	OX4-SRSoftware version number:	ORYX F/W v4.00 Oryx Data Collector v3.7.2.0data status	okinstallation	princeton_trtdifferential loss correction	single-endedforward channel	channel 1reverse channel	N/Adate	2019/09/15time	13:14:35forward acquisition time	60.00reverse acquisition time	0.00gamma	496.2192k internal	0.2294k external	0.2294temperature offset calibration	0.9979default loss term (dB/km)	0.3790temperature slope calibration	1.0000multiplexer offset coefficient	1.0000multiplexer slope coefficient	1.0000fibre end	0.00T internal ref (°C)	37.06T ext. ref 1 (°C)	4.96T ext. ref 2 (°C)	34.53length (m)	temperature (°C)	Stokes	anti-Stokes-747.200	153.196	0.066	-0.092
-746.185	-112.321	-0.261	0.053
-745.171	-70.222	0.061	0.024
-744.156	-21.183	-0.173	0.108
-743.142	26.918	0.181	0.156
-742.127	-200.000	-0.094	0.662
-741.112	-70.719	-0.068	0.026
-740.098	-200.000	0.009	0.102
-739.083	-129.751	0.435	0.061
-738.069	-200.000	-0.026	0.136
-737.054	185.308	-0.054	0.082
-736.039	800.000	0.102	-0.338
-735.025	128.986	-0.094	0.123
-734.010	16.237	-0.314	-0.253
-732.996	361.801	-0.100	-0.204
-731.981	-48.382	0.057	0.028
-730.966	800.000	0.026	0.112
-729.952	-33.498	-0.397	-0.224
-728.937	22.078	-0.119	0.100
-727.923	-176.424	-0.054	0.001
-726.908	-200.000	-0.057	-0.321
-725.894	130.495	-0.076	-0.099
-724.879	800.000	0.092	-0.291
-723.864	-200.000	0.009	-0.234
-722.850	800.000	0.073	-0.239
-721.835	63.566	-0.055	-0.057
-720.821	354.608	-0.143	-0.290
-719.806	-42.278	0.023	-0.012
-718.791	-107.591	-0.305	-0.068
-717.777	118.235	0.074	0.093
-716.762	11.609	0.189	-0.148
-715.748	-30.972	-0.096	0.055
-714.733	140.439	-0.105	-0.141
-713.718	24.763	-0.233	-0.197
-712.704	-200.000	0.024	-0.248
-711.689	800.000	0.038	0.107
-710.675	408.953	-0.031	0.066
-709.660	-47.389	0.179	0.089
-708.645	-19.217	0.195	-0.124
-707.631	30.215	-0.211	0.184
-706.616	-121.273	0.112	-0.019
-705.602	146.071	-0.136	-0.186
-704.587	-153.433	-0.453	0.032
-703.572	78.807	0.163	-0.178
-702.558	-123.567	0.247	0.040
-701.543	-200.000	0.002	0.114
-700.529	36.552	0.185	-0.167
-699.514	-83.382	-0.073	0.024
-698.499	-46.544	0.358	0.179
-697.485	276.280	0.154	-0.280
-696.470	-105.441	0.215	0.050
-695.456	-110.576	0.331	-0.070
-694.441	-35.295	-0.260	0.144
-693.426	60.232	-0.072	-0.072
-692.412	800.000	-0.036	-0.136
-691.397	-109.026	-0.257	-0.056
-690.383	-200.000	0.008	-0.240
-689.368	195.528	0.031	0.047
-688.354	300.694	-0.274	-0.517
-687.339	-33.132	0.198	-0.112
-686.324	-200.000	0.041	0.243
-685.310	-132.791	-0.147	-0.019
-684.295	-71.404	0.253	-0.097
-683.281	-55.434	0.120	-0.055
-682.266	243.392	0.139	0.237
-681.251	-110.822	-0.082	0.017
-680.237	-59.922	-0.178	-0.077
-679.222	64.993	0.228	-0.235
-678.208	-113.824	-0.127	0.025
-677.193	-200.000	0.053	-0.262
-676.178	469.303	-0.056	0.129
-675.164	-200.000	-0.015	-0.185
-674.149	-83.953	0.201	-0.065
-673.135	28.941	-0.153	-0.132
-672.120	-55.734	0.584	-0.266
-671.105	564.106	0.095	-0.236
-670.091	-65.110	-0.219	0.090
-669.076	24.298	0.239	0.201
-668.062	-200.000	0.005	-0.102
-667.047	325.500	-0.193	0.376
-666.032	-48.168	0.425	0.209
-665.018	135.786	-0.077	-0.103
-664.003	24.284	-0.105	0.088
-662.989	-109.439	-0.197	-0.042
-661.974	-200.000	-0.025	-0.420
-660.959	255.292	0.223	-0.389
-659.945	-35.966	0.208	0.114
-658.930	164.187	0.063	-0.091
-657.916	-200.000	-0.003	0.190
-656.901	428.907	-0.151	-0.332
-655.886	-5.548	-0.135	-0.095
-654.872	53.317	-0.022	-0.022
-653.857	93.042	-0.097	0.112
-652.843	57.038	0.127	-0.126
-651.828	800.000	-0.070	-0.306
-650.814	122.245	0.117	0.149
-649.799	-113.150	0.234	0.047
-648.784	-139.474	0.118	-0.013
-647.770	-81.540	0.231	0.077
-646.755	800.000	-0.041	-0.180
-645.741	278.548	0.156	-0.282
-644.726	51.551	-0.114	-0.110
-643.711	199.508	0.042	0.066
-642.697	-34.003	-0.162	-0.091
-641.682	110.784	-0.103	0.126
-640.668	43.826	-0.181	0.169
-639.653	-200.000	-0.006	0.232
-638.638	453.065	0.107	0.241
-637.624	56.972	-0.227	0.225
-636.609	-7.555	-0.400	-0.275
-635.595	-136.945	0.094	-0.011
-634.580	267.285	0.129	-0.229
-633.565	-200.000	0.014	-0.533
-632.551	-51.812	-0.294	-0.139
-631.536	-46.337	0.279	-0.139
-630.522	-200.000	-0.020	0.512
-629.507	-120.298	0.186	0.032
-628.492	-96.269	-0.035	-0.009
-627.478	-200.000	-0.036	0.309
-626.463	-50.067	-0.049	0.023
-625.449	-9.314	-0.491	-0.334
-624.434	-66.798	-0.136	-0.055
-623.419	-42.338	-0.140	0.073
-622.405	-41.424	-0.070	0.036
-621.390	-152.645	-0.058	0.004
-620.376	-144.502	-0.259	-0.024
-619.361	327.639	0.097	-0.189
-618.346	800.000	0.025	0.095
-617.332	-30.759	0.122	0.070
-616.317	624.097	-0.039	0.100
-615.303	107.560	0.171	0.207
-614.288	75.400	-0.302	-0.324
-613.273	-200.000	0.067	0.322
-612.259	-2.456	0.124	-0.089
-611.244	-169.364	-0.090	-0.003
-610.230	-80.512	0.120	-0.041
-609.215	10.951	-0.146	0.114
-608.201	-20.328	-0.264	-0.165
-607.186	-11.382	-0.188	-0.126
-606.171	29.109	0.142	0.123
-605.157	-200.000	0.088	-0.534
-604.142	346.959	-0.053	-0.106
-603.128	-200.000	-0.023	0.196
-602.113	-200.000	-0.007	-0.129
-601.098	-107.466	-0.468	0.104
-600.084	-73.975	-0.208	-0.077
-599.069	780.886	-0.042	-0.117
-598.055	800.000	-0.098	-0.335
-597.040	-200.000	-0.028	-0.471
-596.025	-200.000	0.035	-0.322
-595.011	271.749	-0.132	-0.237
-593.996	125.746	0.060	-0.077
-592.982	339.652	0.134	0.265
-591.967	92.614	0.140	0.161
-590.952	-200.000	0.034	-0.340
-589.938	634.446	-0.039	0.101
-588.923	800.000	0.054	-0.187
-587.909	800.000	-0.085	-0.376
-586.894	179.572	0.042	0.063
-585.879	-9.681	-0.133	0.090
-584.865	106.834	0.084	0.101
-583.850	-73.095	-0.101	0.038
-582.836	-200.000	-0.029	-0.155
-581.821	-118.501	0.233	0.042
-580.806	19.171	-0.475	-0.388
-579.792	-26.694	-0.284	0.169
-578.777	-200.000	-0.069	0.447
-577.763	16.805	-0.102	0.082
-576.748	800.000	-0.018	-0.081
-575.733	-142.360	0.227	-0.023
-574.719	-101.694	0.284	0.070
-573.704	248.141	-0.188	-0.323
-572.690	-183.868	-0.411	0.007
-571.675	-85.206	0.269	-0.085
-570.661	338.603	-0.043	-0.085
-569.646	-105.619	-0.195	-0.045
-568.631	-108.835	0.199	-0.043
-567.617	-50.507	-0.059	0.028
-566.602	800.000	-0.051	-0.222
-565.588	-200.000	0.000	-0.015
-564.573	-31.778	0.296	0.169
-563.558	800.000	-0.055	-0.184
-562.544	160.577	0.037	-0.053
-561.529	26.034	0.195	-0.165
-560.515	-98.249	0.373	0.097
-559.500	-61.219	-0.064	0.028
-558.485	-162.296	-0.172	-0.009
-557.471	-102.820	0.125	0.030
-556.456	-101.826	0.153	0.037
-555.442	-122.415	0.205	-0.034
-554.427	193.583	0.098	0.150
-553.412	-127.667	-0.089	-0.013
-552.398	-43.534	-0.309	-0.158
-551.383	800.000	-0.056	-0.206
-550.369	60.978	-0.286	-0.288
-549.354	57.836	0.182	-0.181
-548.339	-11.341	0.088	0.059
-547.325	-25.069	0.287	0.172
-546.310	-145.707	0.150	0.014
-545.296	-123.972	-0.188	0.030
-544.281	-82.503	-0.081	0.027
-543.266	-151.171	-0.266	-0.020
-542.252	347.415	0.103	0.206
-541.237	-6.394	0.149	0.103
-540.223	-103.251	0.345	0.083
-539.208	-182.068	0.114	0.002
-538.193	123.911	-0.134	0.171
-537.179	373.438	0.206	0.425
-536.164	-200.000	0.027	0.161
-535.150	800.000	0.014	-0.040
-534.135	38.546	-0.068	-0.061
-533.121	800.000	-0.073	-0.256
-532.106	513.552	0.040	-0.094
-531.091	21.664	-0.052	0.043
-530.077	-200.000	0.021	-0.104
-529.062	800.000	0.078	-0.247
-528.048	-95.742	0.028	0.008
-527.033	-142.868	-0.313	0.031
-526.018	165.325	0.169	-0.242
-525.004	-200.000	-0.045	-0.344
-523.989	-200.000	-0.082	-0.396
-522.975	-48.477	-0.204	-0.099
-521.960	-200.000	-0.056	0.310
-520.945	800.000	0.055	0.230
-519.931	187.133	-0.127	-0.191
-518.916	19.549	-0.078	0.064
-517.902	92.462	0.133	-0.152
-516.887	169.691	0.162	-0.235
-515.872	-85.816	-0.318	0.100
-514.858	125.762	-0.162	0.207
-513.843	-37.267	-0.261	0.142
-512.829	28.533	0.072	0.062
-511.814	71.474	-0.187	-0.197
-510.799	29.561	0.267	0.230
-509.785	324.176	-0.167	0.322
-508.770	82.419	-0.205	0.226
-507.756	34.993	0.203	-0.180
-506.741	19.033	-0.050	0.041
-505.726	-197.442	-0.152	0.001
-504.712	160.596	0.054	-0.076
-503.697	-200.000	-0.028	0.240
-502.683	-200.000	-0.006	-0.105
-501.668	-93.841	0.165	0.046
-500.653	-34.736	0.160	-0.089
-499.639	-114.419	0.371	0.072
-498.624	93.458	0.190	-0.218
-497.610	703.464	-0.150	0.400
-496.595	-110.875	0.032	0.007
-495.581	115.247	-0.163	-0.202
-494.566	-73.470	0.116	0.043
-493.551	34.835	0.390	0.346
-492.537	142.468	-0.092	0.123
-491.522	-106.990	0.119	-0.027
-490.508	238.680	0.152	0.255
-489.493	-10.124	0.306	0.206
-488.478	8.945	-0.037	0.028
-487.464	209.323	-0.010	-0.016
-486.449	800.000	-0.140	-0.402
-485.435	-65.216	-0.046	0.019
-484.420	800.000	0.075	-0.220
-483.405	-160.451	-0.332	-0.018
-482.391	97.123	0.243	-0.282
-481.376	151.349	-0.072	-0.099
-480.362	209.016	0.252	0.400
-479.347	532.734	0.064	0.153
-478.332	83.467	0.110	-0.122
-477.318	232.981	0.107	0.178
-476.303	800.000	-0.058	0.241
-475.289	445.763	0.136	-0.301
-474.274	800.000	-0.037	-0.155
-473.259	4.026	0.096	0.071
-472.245	-36.529	-0.030	-0.016
-471.230	-8.628	0.335	0.228
-470.216	-141.941	-0.238	0.024
-469.201	47.083	-0.138	0.130
-468.186	-190.294	0.299	-0.003
-467.172	114.129	-0.353	-0.434
-466.157	-77.112	0.087	-0.031
-465.143	40.038	0.139	-0.126
-464.128	-71.637	0.089	0.034
-463.113	-168.063	-0.265	0.010
-462.099	-200.000	-0.019	-0.187
-461.084	-109.820	0.215	0.046
-460.070	-50.924	-0.323	0.153
-459.055	-200.000	0.028	0.411
-458.040	-91.286	-0.242	0.070
-457.026	210.856	-0.098	-0.156
-456.011	244.031	0.263	-0.446
-454.997	560.432	-0.123	-0.301
-453.982	-9.955	-0.274	0.184
-452.968	194.608	0.074	-0.114
-451.953	544.632	0.117	0.283
-450.938	-56.751	0.125	0.056
-449.924	246.397	0.190	-0.323
-448.909	-11.432	-0.207	0.138
-447.895	7.226	0.252	0.190
-446.880	-84.201	0.385	0.123
-445.865	99.797	0.047	-0.055
-444.851	-29.597	-0.167	0.096
-443.836	-200.000	0.009	0.346
-442.822	364.763	0.051	-0.104
-441.807	248.828	0.197	0.337
-440.792	-200.000	-0.041	-0.454
-439.778	160.140	-0.196	0.276
-438.763	-41.880	0.377	-0.195
-437.749	-55.922	0.122	0.055
-436.734	-200.000	-0.010	-0.172
-435.719	26.893	0.050	0.042
-434.705	220.536	0.199	-0.323
-433.690	800.000	0.048	-0.153
-432.676	18.948	0.156	-0.126
-431.661	46.040	0.198	-0.185
-430.646	-95.794	-0.179	0.048
-429.632	-114.573	0.099	-0.019
-428.617	333.701	0.129	-0.251
-427.603	-41.487	0.211	-0.109
-426.588	289.175	0.080	-0.147
-425.573	-53.338	0.234	0.108
-424.559	800.000	0.152	0.524
-423.544	-200.000	-0.046	-0.269
-422.530	72.735	-0.147	-0.155
-421.515	-92.991	-0.145	-0.041
-420.500	63.364	0.197	-0.200
-419.486	331.186	-0.141	0.274
-418.471	-200.000	-0.039	-0.270
-417.457	-26.799	-0.180	-0.106
-416.442	-19.973	0.218	0.136
-415.428	2.550	0.185	0.135
-414.413	-153.505	-0.129	-0.009
-413.398	46.972	-0.200	-0.187
-412.384	-59.959	-0.301	0.130
-411.369	800.000	0.002	-0.006
-410.355	-200.000	0.001	-0.262
-409.340	-87.751	0.029	-0.009
-408.325	-200.000	0.009	-0.332
-407.311	-64.143	-0.183	0.075
-406.296	101.276	0.183	-0.215
-405.282	-64.493	0.287	0.118
-404.267	800.000	0.043	0.181
-403.252	7.382	-0.161	-0.121
-402.238	273.111	0.067	0.120
-401.223	167.648	-0.222	0.319
-400.209	-137.005	-0.151	0.017
-399.194	552.440	0.042	0.101
-398.179	-169.666	-0.209	-0.008
-397.165	470.811	-0.070	0.158
-396.150	-200.000	-0.002	0.263
-395.136	-152.901	0.403	0.029
-394.121	-12.110	-0.297	0.196
-393.106	-161.957	-0.069	0.004
-392.092	-35.355	-0.391	0.215
-391.077	-88.279	0.399	0.121
-390.063	-122.261	-0.456	-0.075
-389.048	141.415	-0.078	0.105
-388.033	-200.000	-0.038	-0.204
-387.019	-24.435	-0.255	-0.153
-386.004	800.000	0.056	-0.243
-384.990	-63.811	-0.242	0.100
-383.975	-38.639	-0.101	0.054
-382.960	14.797	-0.080	0.063
-381.946	-22.515	-0.180	-0.110
-380.931	-163.339	-0.153	0.007
-379.917	-160.827	-0.216	0.012
-378.902	-113.762	0.327	-0.064
-377.888	492.201	0.062	0.144
-376.873	209.880	0.063	0.100
-375.858	-19.124	-0.241	-0.151
-374.844	-73.082	-0.150	-0.055
-373.829	83.959	-0.076	0.084
-372.815	-57.960	-0.192	0.084
-371.800	369.430	0.129	0.263
-370.785	-18.541	-0.144	0.090
-369.771	130.864	0.197	-0.254
-368.756	130.118	-0.159	0.205
-367.742	-17.129	0.157	0.100
-366.727	-81.490	-0.160	0.053
-365.712	61.223	-0.069	0.069
-364.698	441.649	-0.091	0.200
-363.683	456.014	0.073	0.163
-362.669	0.165	0.125	0.090
-361.654	93.342	-0.105	-0.119
-360.639	61.743	-0.291	0.292
-359.625	83.593	0.104	-0.114
-358.610	-6.641	0.135	-0.093
-357.596	-172.915	0.307	-0.010
-356.581	238.339	-0.147	0.246
-355.566	-86.151	-0.123	-0.038
-354.552	-200.000	-0.026	-0.293
-353.537	15.300	0.301	-0.238
-352.523	144.512	-0.015	0.020
-351.508	11.536	0.085	-0.066
-350.493	-200.000	-0.016	-0.460
-349.479	-0.509	-0.270	0.193
-348.464	-180.046	-0.197	-0.004
-347.450	-37.418	0.168	0.090
-346.435	-57.834	0.135	0.059
-345.420	-155.815	0.073	-0.005
-344.406	-13.198	-0.266	0.174
-343.391	-158.084	-0.180	0.011
-342.377	-23.280	0.058	-0.035
-341.362	-183.865	-0.310	-0.005
-340.348	648.466	0.113	0.291
-339.333	800.000	-0.074	0.260
-338.318	82.654	0.149	0.163
-337.304	800.000	0.083	0.321
-336.289	96.735	0.119	0.137
-335.275	40.498	-0.242	0.219
-334.260	50.326	-0.113	0.107
-333.245	-17.915	0.229	0.145
-332.231	59.989	0.019	-0.019
-331.216	-21.349	-0.207	0.127
-330.202	98.839	-0.096	-0.112
-329.187	-162.676	0.140	0.007
-328.172	64.873	-0.254	-0.257
-327.158	226.845	0.181	0.296
-326.143	-5.221	0.206	0.142
-325.129	110.308	-0.155	-0.187
-324.114	19.424	-0.101	-0.082
-323.099	-58.657	0.220	0.096
-322.085	-101.114	0.096	0.024
-321.070	-200.000	-0.066	-0.318
-320.056	800.000	-0.080	-0.233
-319.041	800.000	-0.047	-0.163
-318.026	800.000	0.045	-0.132
-317.012	152.956	-0.036	0.049
-315.997	336.986	-0.141	0.275
-314.983	98.883	0.156	-0.181
-313.968	-200.000	0.068	-0.299
-312.953	-69.155	-0.218	-0.084
-311.939	-123.766	0.026	-0.004
-310.924	145.362	-0.032	0.043
-309.910	-200.000	0.093	-0.422
-308.895	1.226	0.174	-0.125
-307.880	-102.659	0.410	0.098
-306.866	173.329	0.217	0.314
-305.851	-200.000	0.021	-0.104
-304.837	147.975	0.096	-0.130
-303.822	329.728	0.113	0.218
-302.807	62.256	-0.226	-0.226
-301.793	-75.522	0.118	0.042
-300.778	-120.269	-0.104	-0.018
-299.764	-34.933	0.154	0.084
-298.749	109.275	-0.135	0.162
-297.735	25.029	0.136	-0.114
-296.720	-21.412	0.172	0.105
-295.705	320.357	-0.175	-0.334
-294.691	-200.000	-0.012	0.239
-293.676	-13.972	0.350	-0.227
-292.662	800.000	-0.078	0.342
-291.647	-57.411	0.345	0.152
-290.632	150.794	-0.178	0.243
-289.618	136.336	-0.161	0.211
-288.603	28.019	0.322	-0.273
-287.589	-52.793	-0.120	0.055
-286.574	65.549	-0.128	-0.130
-285.559	800.000	0.116	0.331
-284.545	-80.584	-0.111	-0.037
-283.530	800.000	0.084	-0.314
-282.516	12.982	-0.038	0.030
-281.501	-200.000	-0.014	0.066
-280.486	189.885	-0.156	-0.235
-279.472	800.000	0.102	-0.418
-278.457	381.762	-0.163	0.336
-277.443	645.471	-0.098	-0.251
-276.428	-166.398	0.280	-0.012
-275.413	-53.144	0.279	-0.129
-274.399	25.723	0.068	-0.057
-273.384	213.909	-0.168	-0.267
-272.370	-28.282	0.197	0.114
-271.355	335.518	-0.020	-0.040
-270.340	-93.128	0.109	0.030
-269.326	-200.000	0.009	-0.186
-268.311	197.001	-0.194	-0.297
-267.297	64.294	0.120	0.121
-266.282	-200.000	-0.011	0.327
-265.267	-91.247	0.337	0.097
-264.253	109.050	0.179	0.215
-263.238	-147.694	0.300	-0.025
-262.224	123.272	-0.104	-0.131
-261.209	50.189	-0.151	-0.143
-260.195	-97.696	-0.250	0.065
-259.180	-82.528	0.328	-0.107
-258.165	40.083	0.399	-0.360
-257.151	-97.721	-0.143	0.037
-256.136	264.607	0.113	0.198
-255.122	176.546	0.063	-0.092
-254.107	-141.314	0.173	-0.018
-253.092	88.733	0.173	-0.193
-252.078	435.898	0.027	0.060
-251.063	133.052	0.321	0.416
-250.049	-48.748	-0.229	0.110
-249.034	-200.000	-0.001	-0.037
-248.019	-70.561	-0.128	0.049
-247.005	-200.000	-0.047	0.222
-245.990	-200.000	-0.000	-0.261
-244.976	-200.000	0.043	0.193
-243.961	12.545	-0.126	0.097
-242.946	-59.249	-0.433	0.187
-241.932	800.000	-0.097	0.331
-240.917	458.199	0.094	0.209
-239.903	536.033	-0.101	-0.240
-238.888	-93.707	-0.072	0.020
-237.873	143.612	0.065	0.087
-236.859	27.110	-0.099	-0.083
-235.844	-17.851	-0.141	-0.088
-234.830	-59.122	-0.241	-0.104
-233.815	323.332	0.053	0.100
-232.800	636.444	-0.076	0.193
-231.786	-194.132	0.118	-0.001
-230.771	-200.000	0.016	-0.104
-229.757	-27.400	-0.283	-0.165
-228.742	-109.628	-0.043	0.009
-227.727	-200.000	-0.027	0.135
-226.713	264.251	-0.057	0.100
-225.698	46.414	0.378	-0.352
-224.684	-200.000	0.012	0.157
-223.669	-66.934	0.147	-0.058
-222.655	416.596	-0.167	0.356
-221.640	14.778	-0.028	-0.022
-220.625	800.000	-0.068	-0.288
-219.611	-200.000	-0.027	0.156
-218.596	19.064	-0.138	-0.111
-217.582	-141.391	0.109	-0.011
-216.567	-200.000	0.019	-0.443
-215.552	-155.207	0.267	0.017
-214.538	9.264	-0.061	0.046
-213.523	800.000	-0.063	-0.188
-212.509	-159.911	-0.261	-0.014
-211.494	-91.813	-0.327	-0.093
-210.479	93.124	0.154	0.174
-209.465	31.360	-0.151	-0.130
-208.450	-133.684	-0.009	-0.001
-207.436	8.737	-0.098	-0.074
-206.421	113.009	-0.161	0.195
-205.406	263.536	-0.116	0.202
-204.392	800.000	-0.045	-0.149
-203.377	-154.264	-0.395	0.027
-202.363	-123.770	0.260	0.041
-201.348	-54.516	0.202	-0.091
-200.333	800.000	-0.063	-0.244
-199.319	44.159	-0.184	0.169
-198.304	765.767	0.012	0.033
-197.290	-200.000	0.089	0.469
-196.275	-200.000	0.007	-0.189
-195.260	-200.000	0.035	0.216
-194.246	84.857	0.267	-0.292
-193.231	17.022	0.274	-0.217
-192.217	470.220	-0.102	0.229
-191.202	-51.989	0.340	0.158
-190.187	369.192	-0.059	0.120
-189.173	35.439	0.177	-0.155
-188.158	-200.000	0.062	0.278
-187.144	2.738	-0.350	0.254
-186.129	-155.807	-0.206	0.013
-185.114	523.901	0.040	-0.095
-184.100	-57.798	0.151	0.066
-183.085	280.129	0.124	0.222
-182.071	348.980	-0.115	0.227
-181.056	113.363	0.316	-0.383
-180.042	-200.000	0.023	0.130
-179.027	190.911	0.112	-0.168
-178.012	-164.055	-0.309	0.014
-176.998	800.000	-0.015	0.054
-175.983	196.738	-0.079	0.120
-174.969	17.814	-0.258	0.206
-173.954	53.831	0.314	0.302
-172.939	-60.042	0.160	0.069
-171.925	-148.090	-0.268	0.022
-170.910	800.000	0.086	0.350
-169.896	-128.794	-0.097	-0.014
-168.881	-200.000	-0.007	0.233
-167.866	800.000	0.105	0.358
-166.852	800.000	0.060	0.222
-165.837	-110.848	0.418	0.086
-164.823	191.483	-0.193	-0.291
-163.808	800.000	0.039	-0.113
-162.793	-100.248	-0.064	-0.016
-161.779	-75.047	0.115	0.041
-160.764	-47.650	-0.124	0.060
-159.750	163.529	0.059	-0.082
-158.735	-200.000	0.031	-0.257
-157.720	800.000	-0.086	-0.248
-156.706	132.221	0.230	-0.296
-155.691	278.856	-0.006	0.011
-154.677	-200.000	-0.052	0.259
-153.662	0.730	-0.147	0.105
-152.647	-34.437	0.186	0.102
-151.633	800.000	0.030	0.109
-150.618	-66.749	0.317	0.126
-149.604	-6.438	-0.056	0.038
-148.589	-200.000	-0.057	-0.364
-147.574	103.568	-0.047	-0.055
-146.560	566.342	-0.138	-0.334
-145.545	294.794	0.116	-0.213
-144.531	1.545	0.224	-0.161
-143.516	-135.302	0.286	-0.034
-142.502	-200.000	0.003	-0.021
-141.487	-6.587	-0.361	-0.246
-140.472	800.000	0.118	0.453
-139.458	-46.710	-0.082	-0.040
-138.443	-100.458	0.188	0.047
-137.429	-5.175	-0.312	-0.214
-136.414	-26.181	0.368	0.216
-135.399	-52.933	-0.241	-0.111
-134.385	-200.000	0.022	-0.138
-133.370	26.615	0.105	-0.087
-132.356	12.400	0.219	0.169
-131.341	-113.953	-0.263	0.051
-130.326	-200.000	-0.038	0.225
-129.312	-95.423	0.286	0.077
-128.297	-101.049	-0.156	0.038
-127.283	1.933	-0.186	-0.134
-126.268	-95.874	-0.338	-0.090
-125.253	-200.000	-0.001	-0.065
-124.239	11.788	0.188	0.144
-123.224	-182.779	-0.308	-0.006
-122.210	-106.371	0.254	-0.057
-121.195	-58.055	0.259	-0.113
-120.180	-117.408	0.325	-0.059
