DTS Sentinel unit serial number:	SN413079Multiplexer serial number:	ORYXHardware model number:	OX4-SRSoftware version number:	ORYX F/W v4.00 Oryx Data Collector v3.7.2.0data status	okinstallation	princeton_trtdifferential loss correction	single-endedforward channel	channel 1reverse channel	N/Adate	2019/09/12time	19:33:34forward acquisition time	15.00reverse acquisition time	0.00gamma	496.2192k internal	0.2322k external	0.2322temperature offset calibration	1.0124default loss term (dB/km)	0.3790temperature slope calibration	1.0000multiplexer offset coefficient	1.0000multiplexer slope coefficient	1.0000fibre end	0.00T internal ref (°C)	32.19T ext. ref 1 (°C)	3.30T ext. ref 2 (°C)	26.71length (m)	temperature (°C)	Stokes	anti-Stokes-747.200	304.969	0.014	0.026
-746.185	361.647	0.090	-0.182
-745.171	338.547	-0.226	-0.445
-744.156	-147.679	-0.352	-0.030
-743.142	-33.565	0.412	0.230
-742.127	60.063	-0.785	-0.784
-741.112	127.882	0.508	-0.653
-740.098	-200.000	0.110	-0.646
-739.083	-123.905	0.189	0.030
-738.069	422.058	-0.088	-0.192
-737.054	-5.018	0.376	-0.262
-736.039	-7.770	0.478	0.326
-735.025	-134.114	-0.520	0.065
-734.010	392.864	0.323	-0.678
-732.996	162.036	-0.067	-0.095
-731.981	565.892	0.144	-0.353
-730.966	-46.953	-0.382	-0.188
-729.952	-200.000	0.093	-0.497
-728.937	-96.008	0.471	-0.127
-727.923	-200.000	0.105	0.630
-726.908	103.544	-0.770	0.912
-725.894	-200.000	0.127	-0.887
-724.879	-151.361	-0.954	-0.072
-723.864	-161.005	-0.529	0.028
-722.850	80.294	-0.396	-0.430
-721.835	-1.266	-0.373	-0.266
-720.821	-19.211	-0.236	-0.148
-719.806	-148.009	-0.169	-0.014
-718.791	9.280	0.494	0.377
-717.777	-74.610	0.373	0.135
-716.762	-200.000	0.070	0.440
-715.748	-127.963	-0.689	-0.100
-714.733	279.603	-0.180	-0.324
-713.718	799.092	-0.199	-0.555
-712.704	-89.402	0.736	-0.219
-711.689	-70.525	0.410	0.157
-710.675	-88.783	0.328	-0.098
-709.660	-59.734	1.052	-0.455
-708.645	159.370	0.354	0.496
-707.631	-200.000	0.154	0.743
-706.616	14.837	0.585	0.462
-705.602	62.290	-0.559	0.563
-704.587	-50.897	0.957	0.453
-703.572	800.000	0.188	0.774
-702.558	764.010	0.068	-0.186
-701.543	630.188	-0.075	-0.191
-700.529	-120.891	0.373	0.063
-699.514	-166.509	0.452	-0.019
-698.499	248.910	-0.244	0.416
-697.485	606.095	-0.262	0.658
-696.470	19.184	0.534	-0.432
-695.456	-200.000	0.034	-0.194
-694.441	124.125	-0.494	-0.626
-693.426	319.524	0.289	-0.553
-692.412	360.938	0.066	-0.133
-691.397	800.000	0.138	0.480
-690.383	-51.521	-0.506	-0.238
-689.368	800.000	-0.270	-1.008
-688.354	-200.000	0.026	0.229
-687.339	-143.910	-0.317	-0.030
-686.324	800.000	0.078	0.237
-685.310	-76.822	0.883	0.311
-684.295	80.673	-0.325	0.353
-683.281	-200.000	0.034	0.491
-682.266	167.920	0.153	-0.219
-681.251	-6.851	-0.196	-0.134
-680.237	-177.923	0.515	-0.012
-679.222	-4.069	0.523	-0.365
-678.208	-102.062	0.510	0.124
-677.193	259.711	-0.307	0.533
-676.178	-200.000	-0.012	-0.425
-675.164	-45.635	0.326	0.163
-674.149	-35.540	0.369	0.202
-673.135	-14.583	-0.485	-0.314
-672.120	688.931	-0.112	-0.296
-671.105	33.554	0.213	-0.187
-670.091	-22.196	0.410	0.250
-669.076	-67.702	0.319	0.126
-668.062	-117.261	0.290	0.053
-667.047	430.519	0.058	-0.126
-666.032	2.090	-0.532	-0.387
-665.018	-0.396	0.448	-0.321
-664.003	386.947	-0.243	-0.506
-662.989	-99.312	-0.578	-0.147
-661.974	800.000	0.048	0.173
-660.959	-200.000	-0.192	-1.000
-659.945	-172.697	0.618	0.020
-658.930	-186.655	0.799	-0.011
-657.916	-102.734	-0.337	0.081
-656.901	142.617	-0.315	-0.422
-655.886	-170.940	0.950	0.033
-654.872	142.449	0.219	0.293
-653.857	-200.000	-0.057	0.724
-652.843	-89.454	-0.821	-0.243
-651.828	148.768	-0.123	0.167
-650.814	-86.831	-0.711	0.219
-649.799	85.344	-0.317	0.350
-648.784	-100.466	-0.597	0.149
-647.770	627.468	-0.293	0.744
-646.755	-143.223	-0.268	-0.026
-645.741	-200.000	0.001	-0.411
-644.726	-138.575	-0.548	-0.061
-643.711	109.670	0.491	-0.592
-642.697	-200.000	0.119	0.984
-641.682	-113.929	-0.537	0.105
-640.668	214.597	-0.419	-0.669
-639.653	284.996	-0.350	-0.635
-638.638	9.475	-0.508	0.387
-637.624	-53.202	-0.639	0.295
-636.609	278.219	0.077	0.138
-635.595	-200.000	-0.133	-0.623
-634.580	187.635	-0.323	-0.484
-633.565	51.461	-0.129	-0.123
-632.551	-166.848	-0.465	0.019
-631.536	800.000	0.099	0.285
-630.522	-200.000	-0.038	0.497
-629.507	-108.880	-0.097	-0.021
-628.492	-78.526	0.611	0.210
-627.478	116.530	0.318	0.392
-626.463	71.693	0.587	-0.613
-625.449	17.472	0.349	0.279
-624.434	-122.636	0.691	-0.113
-623.419	-0.537	0.343	0.244
-622.405	-19.378	-0.303	-0.189
-621.390	-90.696	0.332	-0.096
-620.376	-101.019	0.820	0.202
-619.361	-90.660	-0.964	-0.280
-618.346	-118.403	0.385	0.069
-617.332	290.138	0.286	-0.523
-616.317	800.000	-0.119	0.359
-615.303	432.706	0.498	1.086
-614.288	83.661	0.220	0.242
-613.273	433.946	-0.692	-1.511
-612.259	499.148	0.189	0.438
-611.244	48.655	-0.473	0.446
-610.230	-64.865	0.066	-0.027
-609.215	-47.309	0.231	0.113
-608.201	-114.535	0.297	0.057
-607.186	-19.775	0.667	0.415
-606.171	-200.000	0.077	0.945
-605.157	-114.148	-0.506	0.098
-604.142	-88.014	-0.777	-0.234
-603.128	77.363	0.238	-0.255
-602.113	-200.000	-0.029	-0.235
-601.098	-176.167	0.546	-0.014
-600.084	-35.317	-0.599	-0.328
-599.069	800.000	-0.201	0.656
-598.055	618.081	-0.147	-0.372
-597.040	245.493	0.577	-0.976
-596.025	-200.000	0.156	0.785
-595.011	78.442	-0.628	0.674
-593.996	800.000	-0.086	-0.354
-592.982	-120.818	0.487	-0.082
-591.967	800.000	0.067	0.252
-590.952	-25.550	-0.573	-0.340
-589.938	-60.668	0.552	0.235
-588.923	800.000	-0.393	-1.165
-587.909	-141.825	0.929	-0.093
-586.894	72.984	0.616	0.646
-585.879	-7.096	-0.393	-0.268
-584.865	289.083	0.100	0.182
-583.850	800.000	-0.210	-0.906
-582.836	-99.031	0.704	-0.179
-581.821	577.624	-0.090	-0.220
-580.806	-200.000	-0.018	0.250
-579.792	-29.003	0.779	-0.449
-578.777	-125.319	-0.721	0.111
-577.763	-200.000	0.030	-0.178
-576.748	-62.936	0.455	0.189
-575.733	-200.000	-0.070	-0.389
-574.719	-67.850	-0.547	0.214
-573.704	114.865	-0.316	-0.387
-572.690	-24.305	-0.885	-0.530
-571.675	268.500	-0.202	-0.356
-570.661	800.000	0.112	0.469
-569.646	-80.422	-0.728	-0.244
-568.631	-83.614	0.670	0.215
-567.617	800.000	0.369	1.036
-566.602	800.000	-0.175	0.672
-565.588	246.596	-0.106	0.179
-564.573	54.984	-0.284	-0.275
-563.558	-112.021	1.282	0.259
-562.544	-156.466	0.524	-0.033
-561.529	-54.736	0.667	0.302
-560.515	800.000	0.030	-0.107
-559.500	-44.326	-0.431	0.217
-558.485	127.204	0.367	-0.467
-557.471	461.240	-0.211	0.471
-556.456	-173.236	-0.420	-0.013
-555.442	-58.072	-1.090	0.477
-554.427	71.350	-0.450	0.469
-553.412	-200.000	0.301	-1.321
-552.398	-144.000	0.227	-0.021
-551.383	339.761	0.065	-0.127
-550.369	380.808	0.177	-0.364
-549.354	-134.844	-0.446	-0.054
-548.339	-200.000	-0.054	-0.294
-547.325	-200.000	0.118	-0.524
-546.310	-200.000	0.026	1.517
-545.296	-20.618	-0.160	0.098
-544.281	-200.000	-0.035	0.919
-543.266	36.650	0.731	0.647
-542.252	352.324	0.077	0.153
-541.237	800.000	0.144	-0.416
-540.223	302.630	-0.277	0.514
-539.208	-52.187	0.539	0.251
-538.193	-41.756	-0.327	-0.168
-537.179	171.651	0.198	0.285
-536.164	115.355	0.564	0.691
-535.150	196.374	-0.216	-0.330
-534.135	50.578	0.332	-0.315
-533.121	-105.247	-0.564	-0.129
-532.106	159.755	0.204	0.284
-531.091	-200.000	0.004	0.151
-530.077	-14.354	-0.381	-0.246
-529.062	47.757	0.280	0.262
-528.048	-154.805	0.238	-0.016
-527.033	75.706	-0.655	-0.694
-526.018	800.000	0.054	-0.215
-525.004	216.965	0.686	1.094
-523.989	-123.429	1.179	-0.188
-522.975	-78.112	0.204	0.070
-521.960	704.460	0.111	0.293
-520.945	191.032	-0.842	1.269
-519.931	149.514	0.144	0.195
-518.916	-55.932	0.694	0.310
-517.902	-76.568	0.184	-0.065
-516.887	-106.791	0.356	0.079
-515.872	185.478	-0.367	-0.546
-514.858	663.895	-0.126	-0.326
-513.843	-112.236	-0.506	-0.102
-512.829	-126.220	0.363	0.054
-511.814	-164.253	-0.378	0.017
-510.799	-200.000	-0.010	-0.713
-509.785	-78.740	-0.736	0.251
-508.770	800.000	-0.109	-0.394
-507.756	-200.000	0.042	-0.444
-506.741	800.000	-0.268	0.861
-505.726	24.566	0.967	0.801
-504.712	284.241	0.105	0.188
-503.697	645.938	0.360	0.921
-502.683	-65.543	0.925	0.372
-501.668	213.910	-0.424	0.671
-500.653	189.028	0.158	-0.238
-499.639	101.136	-0.472	0.549
-498.624	-48.789	-0.493	-0.237
-497.610	-41.631	-0.704	0.362
-496.595	14.197	0.379	-0.295
-495.581	332.433	-0.295	-0.569
-494.566	-200.000	-0.015	0.661
-493.551	157.029	-0.337	-0.466
-492.537	-100.679	-0.393	-0.097
-491.522	800.000	-0.067	0.220
-490.508	-200.000	-0.113	-0.987
-489.493	-200.000	-0.010	0.062
-488.478	47.331	-0.372	0.347
-487.464	265.507	0.269	-0.470
-486.449	86.374	0.051	-0.056
-485.435	800.000	0.058	0.171
-484.420	-200.000	-0.006	-0.570
-483.405	-200.000	-0.021	-0.522
-482.391	-36.470	-0.774	0.417
-481.376	0.179	0.372	-0.266
-480.362	-100.792	0.209	-0.051
-479.347	-34.968	-0.237	0.129
-478.332	-200.000	0.006	0.849
-477.318	78.790	0.066	0.070
-476.303	86.858	-0.096	0.106
-475.289	175.680	-0.191	0.277
-474.274	201.457	-0.279	-0.430
-473.259	-200.000	-0.071	1.424
-472.245	-62.266	-0.236	-0.098
-471.230	41.987	-0.157	-0.142
-470.216	208.712	-0.224	0.351
-469.201	474.612	0.085	0.192
-468.186	-200.000	0.008	-0.372
-467.172	-200.000	-0.023	0.491
-466.157	-200.000	0.009	-0.556
-465.143	-163.465	0.205	0.010
-464.128	-74.916	0.367	0.131
-463.113	800.000	0.245	-0.704
-462.099	-50.786	0.293	0.138
-461.084	141.108	0.110	0.146
-460.070	-200.000	-0.064	0.905
-459.055	118.995	0.313	-0.387
-458.040	-130.965	0.477	0.064
-457.026	163.331	-0.095	-0.134
-456.011	800.000	0.038	-0.149
-454.997	-59.167	-0.452	0.195
-453.982	-145.013	0.873	-0.079
-452.968	-200.000	-0.045	-0.339
-451.953	165.877	0.226	-0.319
-450.938	140.077	0.304	0.400
-449.924	-62.715	0.497	0.206
-448.909	-163.224	0.405	0.019
-447.895	-142.554	1.249	0.122
-446.880	-141.276	0.203	-0.021
-445.865	-200.000	0.087	-0.410
-444.851	-200.000	0.097	-0.497
-443.836	800.000	0.123	-0.477
-442.822	-93.390	0.508	0.141
-441.807	-125.762	-0.283	-0.043
-440.792	376.696	-0.240	-0.489
-439.778	406.414	-0.268	-0.564
-438.763	272.346	-0.017	0.030
-437.749	-158.120	0.813	0.048
-436.734	800.000	-0.104	-0.326
-435.719	-200.000	0.102	-0.448
-434.705	-161.018	0.803	-0.042
-433.690	-168.766	0.030	-0.001
-432.676	7.466	0.225	-0.168
-431.661	35.321	-0.407	0.356
-430.646	-125.209	-0.964	-0.147
-429.632	-10.317	-0.343	-0.227
-428.617	93.415	0.391	0.441
-427.603	-200.000	-0.001	0.348
-426.588	189.775	-0.288	0.432
-425.573	-82.670	0.676	-0.218
-424.559	386.040	-0.135	-0.278
-423.544	262.788	-0.130	0.226
-422.530	-121.563	0.859	0.142
-421.515	800.000	-0.127	-0.362
-420.500	800.000	-0.151	0.506
-419.486	-72.466	0.939	-0.346
-418.471	-92.389	-0.211	-0.059
-417.457	-55.334	0.284	-0.127
-416.442	-54.127	0.147	0.066
-415.428	800.000	-0.179	0.650
-414.413	-11.720	-0.726	0.475
-413.398	800.000	0.128	0.453
-412.384	-179.920	0.457	-0.010
-411.369	-200.000	0.027	-0.516
-410.355	-97.655	-1.170	-0.303
-409.340	-100.124	0.476	0.118
-408.325	79.206	-0.018	-0.019
-407.311	-167.453	0.640	0.026
-406.296	39.784	0.465	0.416
-405.282	800.000	0.187	-0.681
-404.267	-154.284	-0.648	0.044
-403.252	21.527	-0.137	0.111
-402.238	-200.000	-0.052	-0.569
-401.223	48.784	-0.093	0.087
-400.209	776.661	-0.116	-0.316
-399.194	-59.849	0.401	0.171
-398.179	-85.849	0.787	0.243
-397.165	-106.607	-0.543	-0.120
-396.150	643.953	0.060	-0.152
-395.136	25.582	0.572	0.475
-394.121	-200.000	-0.167	0.875
-393.106	19.317	-0.206	0.165
-392.092	-200.000	-0.088	-0.406
-391.077	800.000	0.207	-0.808
-390.063	331.243	0.085	0.163
-389.048	-66.926	-0.616	0.242
-388.033	35.701	0.051	-0.044
-387.019	317.367	0.280	-0.528
-386.004	188.767	-0.168	0.251
-384.990	4.200	-0.353	0.257
-383.975	160.352	0.298	0.414
-382.960	243.681	-0.148	-0.248
-381.946	-200.000	0.015	0.239
-380.931	608.982	0.116	0.289
-379.917	-148.766	0.732	0.059
-378.902	136.132	-0.319	0.414
-377.888	322.519	0.026	-0.049
-376.873	262.673	0.323	0.558
-375.858	780.551	0.240	-0.654
-374.844	2.493	-0.586	-0.423
-373.829	257.628	0.112	0.192
-372.815	2.993	-0.787	0.569
-371.800	340.395	0.100	-0.195
-370.785	61.315	-0.427	0.423
-369.771	-63.142	0.354	-0.146
-368.756	-26.517	-0.508	-0.296
-367.742	-60.124	-1.059	-0.450
-366.727	422.336	0.209	0.447
-365.712	-109.281	-0.302	-0.064
-364.698	-45.030	0.647	0.321
-363.683	-200.000	0.071	-0.554
-362.669	-152.821	-1.028	0.073
-361.654	0.903	-0.425	0.303
-360.639	-147.866	0.654	-0.054
-359.625	72.199	0.675	-0.700
-358.610	-200.000	-0.139	-0.673
-357.596	12.398	-0.662	-0.508
-356.581	-200.000	0.168	-0.787
-355.566	-131.686	-0.349	-0.046
-354.552	800.000	0.114	0.372
-353.537	-31.617	-0.286	-0.160
-352.523	284.944	-0.211	-0.378
-351.508	800.000	0.091	0.290
-350.493	-119.955	-0.484	-0.083
-349.479	800.000	-0.163	-0.507
-348.464	59.601	-0.472	-0.463
-347.450	677.438	-0.284	0.734
-346.435	3.574	-0.965	-0.700
-345.420	73.814	-0.205	-0.214
-344.406	48.612	0.566	0.528
-343.391	215.134	0.125	-0.197
-342.377	144.943	0.547	0.727
-341.362	-63.300	0.644	0.264
-340.348	-135.432	-0.754	-0.089
-339.333	-200.000	0.109	0.608
-338.318	628.491	-0.175	0.439
-337.304	-100.351	0.431	-0.106
-336.289	-39.543	-0.490	-0.255
-335.275	73.342	-0.346	0.360
-334.260	-145.898	-0.575	-0.051
-333.245	-200.000	0.080	-1.028
-332.231	-128.125	0.546	-0.078
-331.216	447.940	0.075	0.165
-330.202	-200.000	0.203	0.919
-329.187	72.688	-0.292	-0.303
-328.172	800.000	-0.051	-0.185
-327.158	800.000	-0.124	-0.386
-326.143	800.000	0.313	-0.946
-325.129	559.767	-0.311	-0.748
-324.114	-37.283	-0.656	-0.348
-323.099	-200.000	0.017	-0.354
-322.085	-137.029	0.825	0.094
-321.070	800.000	-0.120	-0.359
-320.056	278.459	-0.237	0.419
-319.041	-61.436	0.501	-0.209
-318.026	-200.000	0.040	0.343
-317.012	-15.439	-0.331	-0.210
-315.997	245.216	0.264	-0.441
-314.983	394.134	0.150	-0.311
-313.968	-13.873	-0.601	0.386
-312.953	-142.488	-0.451	0.044
-311.939	-109.821	0.630	0.131
-310.924	557.486	-0.028	-0.068
-309.910	99.265	-0.362	0.415
-308.895	-164.812	0.106	0.005
-307.880	800.000	-0.208	0.712
-306.866	800.000	0.127	-0.347
-305.851	-132.321	-0.673	-0.086
-304.837	-174.745	0.838	0.024
-303.822	151.512	0.549	0.742
-302.807	800.000	0.190	0.551
-301.793	-200.000	-0.030	0.208
-300.778	621.529	-0.259	-0.647
-299.764	-200.000	0.054	-0.357
-298.749	-64.081	0.824	0.334
-297.735	-200.000	-0.027	0.179
-296.720	-42.048	0.597	0.304
-295.705	111.539	0.596	0.714
-294.691	266.635	-0.233	0.405
-293.676	184.227	-0.420	-0.618
-292.662	149.120	0.708	-0.950
-291.647	-200.000	0.055	-0.468
-290.632	-108.225	-1.230	-0.264
-289.618	183.586	0.204	0.299
-288.603	126.749	0.406	0.511
-287.589	180.548	-0.418	-0.609
-286.574	-136.036	0.343	0.040
-285.559	654.737	-0.223	-0.569
-284.545	-122.828	1.077	-0.172
-283.530	139.141	-0.143	-0.186
-282.516	-172.844	-0.759	-0.023
-281.501	-200.000	0.086	0.598
-280.486	72.060	-0.599	0.618
-279.472	13.603	0.931	-0.717
-278.457	-200.000	-0.126	-0.889
-277.443	235.894	0.332	-0.544
-276.428	-119.155	0.714	0.124
-275.413	-5.089	-0.243	0.166
-274.399	36.304	-0.546	0.478
-273.384	-200.000	-0.046	0.366
-272.370	36.463	-0.442	-0.387
-271.355	-101.395	-0.359	0.087
-270.340	-200.000	-0.054	0.317
-269.326	-200.000	-0.030	0.598
-268.311	-112.947	-0.237	-0.047
-267.297	19.952	0.681	0.544
-266.282	-15.557	-0.524	0.332
-265.267	-42.455	-0.771	0.390
-264.253	-200.000	-0.082	0.696
-263.238	-200.000	0.031	0.475
-262.224	-151.146	0.533	0.040
-261.209	-200.000	0.011	-0.252
-260.195	68.951	0.327	-0.333
-259.180	111.947	0.400	-0.479
-258.165	-159.866	0.377	0.021
-257.151	188.958	-0.807	-1.198
-256.136	325.368	0.405	-0.768
-255.122	323.549	-0.096	0.181
-254.107	-31.623	-0.467	-0.260
-253.092	53.017	-0.599	0.568
-252.078	350.948	0.350	0.687
-251.063	800.000	-0.273	0.905
-250.049	417.892	-0.326	-0.689
-249.034	8.760	-0.833	-0.622
-248.019	74.068	0.819	-0.852
-247.005	54.376	-0.431	-0.411
-245.990	84.483	0.561	0.609
-244.976	-155.086	0.389	0.025
-243.961	-33.746	0.873	0.477
-242.946	-53.687	0.631	-0.286
-241.932	-69.958	0.347	0.131
-240.917	215.060	-0.157	-0.246
-239.903	-200.000	0.013	-0.395
-238.888	800.000	-0.152	-0.604
-237.873	141.578	0.538	-0.706
-236.859	45.703	-0.183	-0.167
-235.844	316.316	-0.382	0.715
-234.830	800.000	0.125	0.433
-233.815	-67.917	0.510	0.197
-232.800	157.581	0.354	0.485
-231.786	-50.302	-0.342	0.160
-230.771	327.266	-0.345	0.655
-229.757	284.984	0.203	-0.362
-228.742	622.108	0.064	0.159
-227.727	101.361	-0.240	-0.277
-226.713	152.441	-0.235	-0.317
-225.698	-18.833	-0.658	-0.405
-224.684	800.000	-0.172	0.515
-223.669	-102.475	-1.025	0.243
-222.655	-200.000	-0.157	0.983
-221.640	-85.271	-0.160	-0.049
-220.625	32.714	0.590	0.506
-219.611	-56.040	-1.094	-0.483
-218.596	-200.000	0.114	0.949
-217.582	-124.835	0.867	-0.133
-216.567	-122.024	-0.540	-0.088
-215.552	66.599	0.413	-0.416
-214.538	282.152	0.506	0.898
-213.523	38.148	-0.343	0.302
-212.509	139.260	0.291	0.379
-211.494	60.257	0.036	-0.035
-210.479	-200.000	-0.001	-0.324
-209.465	-140.945	0.526	0.053
-208.450	-78.006	-0.603	-0.205
-207.436	-100.665	-0.720	-0.176
-206.421	-22.322	0.756	-0.453
-205.406	-200.000	0.071	-0.763
-204.392	56.678	0.629	-0.605
-203.377	143.532	0.576	0.759
-202.363	-43.757	-0.116	-0.058
-201.348	-43.753	1.286	0.641
-200.333	140.938	-0.657	-0.859
-199.319	-200.000	-0.046	0.420
-198.304	800.000	0.157	-0.548
-197.290	-154.043	0.607	-0.041
-196.275	106.458	-0.468	-0.549
-195.260	102.747	0.373	0.431
-194.246	-48.983	-0.381	-0.180
-193.231	-101.192	-0.378	0.091
-192.217	-200.000	0.049	-0.786
-191.202	800.000	-0.244	0.828
-190.187	406.904	-0.203	-0.424
-189.173	487.128	-0.204	0.460
-188.158	-79.415	-0.328	0.110
-187.144	278.715	-0.518	0.914
-186.129	468.011	0.453	-1.004
-185.114	14.595	-0.632	0.488
-184.100	138.817	0.309	0.401
-183.085	-173.676	0.235	0.007
-182.071	-200.000	0.097	-0.843
-181.056	-200.000	-0.137	-0.776
-180.042	45.847	-0.521	-0.477
-179.027	-100.376	-0.281	-0.069
-178.012	-200.000	0.034	-1.152
-176.998	15.986	0.489	-0.381
-175.983	-200.000	-0.115	0.599
-174.969	7.547	-0.755	0.558
-173.954	140.260	-0.430	0.561
-172.939	77.705	0.391	-0.412
-171.925	-33.972	-0.401	0.218
-170.910	-142.600	0.721	-0.070
-169.896	68.049	-0.100	0.102
-168.881	169.506	-0.601	-0.848
-167.866	-200.000	-0.046	-0.251
-166.852	0.968	0.624	-0.442
-165.837	-146.066	0.462	-0.040
-164.823	-133.406	-1.466	-0.182
-163.808	562.410	-0.258	0.617
-162.793	384.105	0.163	-0.332
-161.779	-123.510	-0.560	-0.088
-160.764	-126.114	-0.602	-0.089
-159.750	347.581	0.223	0.433
-158.735	-200.000	0.027	0.416
-157.720	-126.477	0.430	0.063
-156.706	-101.263	-0.515	0.124
-155.691	-200.000	0.090	-1.040
-154.677	-61.349	-0.922	-0.383
-153.662	-145.447	0.410	-0.036
-152.647	0.073	0.699	-0.492
-151.633	133.772	0.207	0.264
-150.618	346.793	0.342	0.665
-149.604	7.204	-0.492	-0.363
-148.589	800.000	0.060	0.163
-147.574	-118.099	-0.688	-0.121
-146.560	800.000	0.205	0.582
-145.545	22.616	0.194	0.157
-144.531	-100.283	-0.493	-0.121
-143.516	-200.000	-0.130	0.870
-142.502	800.000	-0.073	-0.257
-141.487	-117.535	-0.346	-0.062
-140.472	-114.813	0.653	0.123
-139.458	800.000	-0.199	0.791
-138.443	-200.000	0.075	0.517
-137.429	-200.000	-0.112	-0.581
-136.414	-112.293	0.680	-0.134
-135.399	-107.249	-0.244	0.053
-134.385	-149.288	0.275	0.022
-133.370	-42.301	-0.190	0.096
-132.356	214.432	-0.150	-0.235
-131.341	-200.000	0.003	-0.164
-130.326	334.263	0.370	-0.706
-129.312	-125.513	0.797	0.120
-128.297	-74.733	0.298	-0.106
-127.283	-200.000	-0.007	-0.939
-126.268	127.483	0.605	-0.758
-125.253	-200.000	0.023	-0.362
-124.239	-170.421	0.202	-0.007
-123.224	-135.824	0.347	0.040
-122.210	-123.000	-0.527	-0.084
