DTS Sentinel unit serial number:	SN413079Multiplexer serial number:	ORYXHardware model number:	OX4-SRSoftware version number:	ORYX F/W v4.00 Oryx Data Collector v3.7.2.0data status	okinstallation	princeton_trtdifferential loss correction	single-endedforward channel	channel 1reverse channel	N/Adate	2019/09/19time	12:10:35forward acquisition time	60.00reverse acquisition time	0.00gamma	496.2192k internal	0.2336k external	0.2336temperature offset calibration	1.0014default loss term (dB/km)	0.3790temperature slope calibration	1.0000multiplexer offset coefficient	1.0000multiplexer slope coefficient	1.0000fibre end	0.00T internal ref (°C)	26.31T ext. ref 1 (°C)	0.85T ext. ref 2 (°C)	22.87length (m)	temperature (°C)	Stokes	anti-Stokes-747.200	396.465	0.094	-0.198
-746.185	800.000	-0.123	0.354
-745.171	-200.000	-0.013	0.278
-744.156	-4.800	-0.231	0.160
-743.142	-105.861	0.229	-0.052
-742.127	-123.779	-0.337	0.053
-741.112	-124.268	-0.194	-0.030
-740.098	162.338	-0.339	0.477
-739.083	18.429	0.188	-0.151
-738.069	9.641	-0.250	0.190
-737.054	-154.851	0.434	-0.029
-736.039	-48.658	-0.075	-0.036
-735.025	-67.916	0.412	0.161
-734.010	111.381	0.208	-0.252
-732.996	-185.894	-0.099	-0.001
-731.981	-66.428	-0.408	0.163
-730.966	-81.791	0.082	0.027
-729.952	157.987	0.060	0.083
-728.937	800.000	0.016	0.066
-727.923	800.000	-0.039	0.172
-726.908	-141.406	0.114	0.012
-725.894	298.742	0.059	0.108
-724.879	231.209	-0.064	0.105
-723.864	-200.000	0.044	-0.224
-722.850	63.282	-0.298	-0.300
-721.835	-16.478	0.218	0.139
-720.821	558.890	-0.032	-0.078
-719.806	162.454	-0.025	0.036
-718.791	11.706	0.054	-0.042
-717.777	-200.000	-0.005	-0.234
-716.762	120.729	0.196	0.245
-715.748	-110.839	-0.191	0.040
-714.733	-57.693	-0.168	0.074
-713.718	-200.000	0.035	0.330
-712.704	-124.213	-0.189	-0.030
-711.689	-200.000	0.011	-0.150
-710.675	2.559	-0.228	-0.165
-709.660	800.000	-0.061	-0.243
-708.645	-98.178	0.109	0.028
-707.631	-20.349	0.125	-0.077
-706.616	-168.754	-0.408	-0.015
-705.602	-139.591	0.313	0.033
-704.587	-180.343	-0.355	-0.007
-703.572	800.000	0.108	0.414
-702.558	284.217	0.210	0.379
-701.543	-109.228	0.355	0.075
-700.529	-88.560	-0.132	-0.040
-699.514	-200.000	0.001	-0.009
-698.499	661.555	0.112	0.290
-697.485	-200.000	-0.023	-0.104
-696.470	-50.546	-0.434	0.205
-695.456	800.000	-0.048	-0.190
-694.441	-176.676	0.383	0.010
-693.426	340.453	0.030	-0.058
-692.412	-50.111	-0.249	0.118
-691.397	3.077	0.179	-0.130
-690.383	-52.559	0.260	-0.120
-689.368	3.719	0.079	0.058
-688.354	800.000	-0.010	0.037
-687.339	660.420	-0.050	0.129
-686.324	800.000	0.052	0.226
-685.310	414.102	0.134	-0.286
-684.295	-192.536	0.240	0.002
-683.281	-200.000	0.008	0.192
-682.266	-45.903	0.361	0.178
-681.251	199.615	-0.147	-0.226
-680.237	-53.622	0.099	0.045
-679.222	-200.000	-0.042	0.215
-678.208	18.612	0.094	-0.075
-677.193	-15.369	-0.069	0.044
-676.178	800.000	0.008	-0.029
-675.164	-200.000	-0.058	-0.285
-674.149	0.468	-0.077	0.055
-673.135	240.558	0.188	0.315
-672.120	-21.964	0.023	0.014
-671.105	79.975	0.141	-0.152
-670.091	-13.684	-0.170	-0.110
-669.076	800.000	-0.051	-0.175
-668.062	275.578	0.032	0.057
-667.047	-33.341	-0.268	0.148
-666.032	-200.000	-0.060	0.314
-665.018	-136.602	-0.381	0.044
-664.003	-51.891	0.146	-0.068
-662.989	298.187	0.101	-0.186
-661.974	-100.386	-0.178	0.044
-660.959	-129.339	-0.281	0.039
-659.945	-115.677	-0.176	-0.033
-658.930	-22.659	0.305	-0.185
-657.916	-200.000	0.015	-0.201
-656.901	356.452	0.085	0.170
-655.886	-13.948	0.305	0.197
-654.872	770.057	-0.113	-0.309
-653.857	-200.000	-0.031	-0.184
-652.843	504.005	0.071	0.165
-651.828	128.951	0.172	0.220
-650.814	-173.454	0.256	0.008
-649.799	-4.352	-0.204	-0.141
-648.784	-109.356	-0.123	-0.026
-647.770	-61.738	0.139	-0.058
-646.755	-70.871	-0.253	0.096
-645.741	234.668	0.096	-0.158
-644.726	-200.000	-0.029	-0.246
-643.711	800.000	-0.085	-0.241
-642.697	-200.000	-0.009	-0.195
-641.682	770.491	-0.093	-0.254
-640.668	-1.545	-0.201	-0.142
-639.653	-63.525	-0.214	0.088
-638.638	6.725	-0.095	-0.071
-637.624	180.659	0.151	-0.221
-636.609	-200.000	0.058	0.286
-635.595	557.018	-0.091	-0.219
-634.580	800.000	0.063	0.215
-633.565	104.955	0.157	0.185
-632.551	-87.259	-0.205	0.062
-631.536	735.265	-0.097	0.260
-630.522	-200.000	-0.048	0.399
-629.507	-155.264	-0.071	0.005
-628.492	-89.993	-0.177	-0.052
-627.478	-92.832	-0.238	-0.066
-626.463	463.712	0.101	-0.226
-625.449	-200.000	0.002	-0.030
-624.434	-4.536	0.252	0.174
-623.419	145.709	-0.038	0.051
-622.405	800.000	0.048	-0.153
-621.390	-127.177	-0.051	0.007
-620.376	-200.000	0.014	-0.353
-619.361	161.545	-0.095	-0.133
-618.346	121.987	0.082	0.103
-617.332	-163.982	-0.399	-0.019
-616.317	800.000	-0.055	0.171
-615.303	-142.346	-0.296	0.029
-614.288	191.866	0.061	-0.092
-613.273	-200.000	-0.028	-0.207
-612.259	188.361	0.290	-0.433
-611.244	203.003	-0.134	-0.206
-610.230	112.110	-0.099	-0.120
-609.215	3.632	-0.060	-0.044
-608.201	-189.728	-0.326	0.004
-607.186	151.145	-0.088	0.120
-606.171	-200.000	-0.105	-0.477
-605.157	-72.150	0.241	-0.089
-604.142	180.473	0.219	0.321
-603.128	-200.000	-0.006	-0.088
-602.113	-96.980	0.151	-0.040
-601.098	-80.036	0.186	-0.062
-600.084	35.721	-0.142	-0.124
-599.069	800.000	0.054	0.198
-598.055	249.259	-0.082	0.139
-597.040	-200.000	-0.048	0.279
-596.025	61.388	-0.230	-0.228
-595.011	222.213	0.012	0.019
-593.996	221.934	-0.135	0.216
-592.982	101.917	0.173	0.201
-591.967	449.331	0.066	0.146
-590.952	9.739	-0.271	0.205
-589.938	-166.854	0.467	-0.019
-588.923	-148.464	-0.249	-0.020
-587.909	105.620	0.076	-0.089
-586.894	-182.977	-0.266	-0.005
-585.879	-66.267	0.111	0.044
-584.865	42.374	0.044	0.040
-583.850	-200.000	-0.019	0.121
-582.836	800.000	0.097	-0.376
-581.821	456.705	0.080	-0.178
-580.806	70.273	0.293	0.302
-579.792	85.134	-0.089	0.097
-578.777	-72.302	0.170	-0.063
-577.763	615.330	-0.141	0.352
-576.748	-176.364	0.063	0.002
-575.733	-200.000	0.159	-0.000
-574.719	-200.000	-0.004	0.370
-573.704	-56.491	-0.146	0.065
-572.690	183.413	-0.132	-0.195
-571.675	387.409	-0.122	-0.251
-570.661	67.600	0.091	0.093
-569.646	800.000	-0.010	-0.036
-568.631	20.028	-0.149	-0.120
-567.617	71.853	-0.142	0.148
-566.602	800.000	0.137	0.444
-565.588	125.589	0.199	0.251
-564.573	129.106	0.079	-0.101
-563.558	-165.644	0.230	-0.010
-562.544	209.917	0.102	0.159
-561.529	258.131	0.028	0.048
-560.515	-137.050	0.356	0.041
-559.500	800.000	-0.060	0.227
-558.485	155.487	0.209	0.287
-557.471	32.638	-0.127	0.109
-556.456	-74.147	0.159	-0.057
-555.442	363.962	-0.058	-0.117
-554.427	-26.601	-0.120	-0.070
-553.412	800.000	-0.095	0.319
-552.398	258.823	0.230	0.396
-551.383	800.000	0.120	0.334
-550.369	800.000	0.109	-0.302
-549.354	-64.473	-0.471	0.191
-548.339	20.850	0.137	0.111
-547.325	-96.791	0.117	-0.031
-546.310	800.000	0.073	-0.208
-545.296	800.000	0.062	-0.262
-544.281	172.128	0.089	-0.127
-543.266	0.633	-0.288	-0.205
-542.252	119.748	0.140	0.173
-541.237	-200.000	-0.001	-0.318
-540.223	800.000	0.092	0.261
-539.208	800.000	0.024	0.080
-538.193	48.167	-0.122	0.114
-537.179	800.000	-0.136	-0.405
-536.164	-67.995	-0.084	0.033
-535.150	-120.295	0.308	-0.052
-534.135	-84.773	-0.158	0.049
-533.121	-20.481	0.206	-0.126
-532.106	-200.000	-0.049	-0.315
-531.091	42.216	-0.308	-0.278
-530.077	-14.508	-0.270	0.173
-529.062	-200.000	0.004	0.077
-528.048	-200.000	0.048	-0.225
-527.033	-130.789	0.205	0.027
-526.018	12.235	-0.091	-0.070
-525.004	65.467	0.211	0.213
-523.989	37.487	-0.154	-0.136
-522.975	215.496	-0.044	0.069
-521.960	-197.381	0.025	0.000
-520.945	-73.988	0.251	-0.091
-519.931	-106.505	-0.102	0.023
-518.916	-46.340	0.284	-0.139
-517.902	94.895	0.092	-0.105
-516.887	-49.139	-0.240	-0.114
-515.872	-200.000	-0.025	0.133
-514.858	-200.000	-0.019	0.119
-513.843	62.959	0.256	-0.255
-512.829	38.978	-0.387	-0.344
-511.814	6.396	-0.076	0.056
-510.799	-155.668	0.267	-0.017
-509.785	-41.300	-0.131	-0.067
-508.770	-182.599	-0.163	-0.003
-507.756	-2.846	0.151	0.105
-506.741	56.328	0.163	-0.157
-505.726	85.459	0.083	0.090
-504.712	-106.474	-0.369	0.082
-503.697	-107.070	0.107	-0.024
-502.683	148.423	0.151	0.202
-501.668	-39.099	-0.393	0.205
-500.653	144.052	-0.024	0.032
-499.639	17.491	0.171	0.135
-498.624	298.159	-0.094	0.173
-497.610	-135.426	0.089	-0.011
-496.595	-10.827	0.175	0.115
-495.581	-21.531	0.185	0.112
-494.566	325.188	-0.191	0.363
-493.551	614.376	0.041	-0.102
-492.537	-37.986	0.372	0.196
-491.522	800.000	-0.098	0.396
-490.508	-200.000	-0.075	-0.466
-489.493	-200.000	-0.016	0.113
-488.478	199.437	0.159	0.243
-487.464	318.764	-0.075	-0.141
-486.449	-7.903	0.316	-0.212
-485.435	51.931	-0.087	-0.083
-484.420	-200.000	0.002	0.103
-483.405	-81.972	-0.191	-0.062
-482.391	21.196	-0.384	-0.310
-481.376	115.745	-0.065	-0.079
-480.362	189.781	0.104	0.155
-479.347	-58.156	0.080	-0.034
-478.332	31.903	-0.181	-0.155
-477.318	7.916	-0.191	0.142
-476.303	-200.000	-0.005	-0.080
-475.289	-83.442	-0.133	0.042
-474.274	410.071	0.106	-0.223
-473.259	-200.000	0.064	0.282
-472.245	-200.000	0.014	-0.062
-471.230	372.408	0.048	0.097
-470.216	48.842	-0.266	0.248
-469.201	-180.948	-0.222	-0.004
-468.186	-69.603	0.210	0.080
-467.172	-100.596	-0.253	-0.062
-466.157	-200.000	0.036	-0.335
-465.143	180.676	0.048	-0.070
-464.128	-141.209	-0.182	0.018
-463.113	-101.188	0.125	-0.030
-462.099	-36.231	0.225	-0.121
-461.084	-198.402	-0.259	-0.001
-460.070	99.884	-0.096	-0.111
-459.055	519.097	0.058	0.135
-458.040	-153.242	-0.154	-0.011
-457.026	660.074	-0.025	-0.064
-456.011	-200.000	0.046	0.482
-454.997	301.905	-0.107	-0.197
-453.982	-77.807	-0.136	0.047
-452.968	27.034	-0.069	-0.057
-451.953	190.741	-0.203	0.303
-450.938	-200.000	-0.018	-0.115
-449.924	-37.965	0.135	0.071
-448.909	-47.419	0.174	0.084
-447.895	-94.851	-0.144	0.039
-446.880	136.351	0.286	-0.370
-445.865	800.000	-0.082	0.232
-444.851	-200.000	-0.111	0.495
-443.836	-127.638	-0.077	0.011
-442.822	-175.577	-0.143	-0.004
-441.807	-200.000	-0.011	0.391
-440.792	800.000	0.008	-0.025
-439.778	-200.000	0.017	-0.168
-438.763	-200.000	0.009	-0.446
-437.749	447.490	0.067	-0.147
-436.734	-200.000	0.022	-0.205
-435.719	34.531	0.278	0.241
-434.705	-125.649	0.011	0.002
-433.690	-57.665	0.342	-0.149
-432.676	22.451	-0.102	-0.083
-431.661	68.620	0.252	0.256
-430.646	-138.260	0.455	-0.050
-429.632	-200.000	0.025	-0.286
-428.617	762.226	0.098	-0.264
-427.603	-50.705	0.306	-0.143
-426.588	72.687	0.262	0.271
-425.573	360.519	-0.012	0.025
-424.559	-105.848	-0.121	-0.027
-423.544	-88.691	0.437	0.129
-422.530	-19.370	0.118	-0.072
-421.515	183.261	-0.025	-0.037
-420.500	59.915	0.169	-0.165
-419.486	690.230	-0.121	0.313
-418.471	270.869	0.077	0.135
-417.457	-200.000	0.083	-0.378
-416.442	-88.475	0.136	0.040
-415.428	175.498	0.232	-0.333
-414.413	50.538	-0.075	0.070
-413.398	-58.507	0.116	-0.050
-412.384	-95.205	0.301	0.080
-411.369	270.725	-0.062	0.107
-410.355	-117.374	-0.159	0.029
-409.340	-161.609	-0.132	0.007
-408.325	-48.966	0.069	0.033
-407.311	800.000	-0.035	-0.097
-406.296	-120.790	0.178	0.030
-405.282	302.461	0.141	0.258
-404.267	-71.925	-0.141	-0.052
-403.252	-84.645	-0.305	0.095
-402.238	-200.000	0.026	-0.178
-401.223	-117.527	-0.090	-0.016
-400.209	-91.154	0.191	0.054
-399.194	-112.589	-0.400	-0.079
-398.179	800.000	-0.042	0.178
-397.165	14.046	0.097	0.075
-396.150	-109.366	0.264	0.055
-395.136	-94.378	-0.163	0.044
-394.121	-62.553	-0.449	-0.185
-393.106	-118.278	0.303	-0.053
-392.092	800.000	0.056	0.214
-391.077	-24.846	0.242	-0.142
-390.063	-27.082	-0.038	-0.022
-389.048	27.357	-0.057	-0.048
-388.033	-66.934	-0.219	0.086
-387.019	800.000	0.096	-0.327
-386.004	315.888	0.141	0.264
-384.990	-65.470	-0.132	0.052
-383.975	452.175	-0.047	0.104
-382.960	-107.390	-0.291	-0.063
-381.946	-200.000	-0.067	-0.337
-380.931	186.229	0.079	0.116
-379.917	-54.429	0.293	-0.132
-378.902	800.000	-0.074	-0.224
-377.888	800.000	-0.144	-0.396
-376.873	6.471	0.202	0.148
-375.858	-44.065	-0.211	0.105
-374.844	-85.384	0.118	0.037
-373.829	9.060	0.103	0.077
-372.815	-200.000	0.062	-0.306
-371.800	-200.000	-0.007	0.054
-370.785	-6.912	-0.276	0.186
-369.771	240.034	-0.244	-0.403
-368.756	-200.000	-0.075	0.511
-367.742	-124.071	0.206	-0.032
-366.727	-152.655	0.247	0.017
-365.712	-29.204	-0.162	-0.092
-364.698	-47.703	0.182	-0.087
-363.683	-200.000	-0.065	-0.378
-362.669	-97.497	-0.400	-0.103
-361.654	-64.518	0.357	0.144
-360.639	50.967	0.080	-0.075
-359.625	351.554	0.126	-0.247
-358.610	-200.000	-0.006	-0.071
-357.596	318.288	0.124	-0.232
-356.581	-200.000	-0.064	0.305
-355.566	800.000	0.053	0.214
-354.552	-89.368	-0.334	0.097
-353.537	-135.467	0.131	0.015
-352.523	-131.614	-0.506	-0.066
-351.508	-145.954	-0.251	0.022
-350.493	-136.659	0.202	0.023
-349.479	-105.519	0.469	-0.105
-348.464	-71.915	-0.222	-0.082
-347.450	50.013	0.086	-0.080
-346.435	105.529	-0.151	0.177
-345.420	-46.567	-0.308	0.149
-344.406	-117.886	0.316	-0.056
-343.391	662.411	0.157	0.400
-342.377	-51.734	0.373	0.172
-341.362	-54.788	0.055	0.024
-340.348	101.326	0.271	-0.312
-339.333	659.208	0.137	-0.349
-338.318	-200.000	-0.040	-0.368
-337.304	-200.000	-0.006	-0.116
-336.289	186.962	-0.065	0.095
-335.275	494.046	-0.122	0.276
-334.260	-200.000	-0.016	0.144
-333.245	45.587	-0.099	-0.091
-332.231	-122.450	-0.315	0.051
-331.216	-156.008	-0.209	0.013
-330.202	51.351	0.184	-0.172
-329.187	5.369	-0.249	-0.182
-328.172	-38.649	0.249	-0.130
-327.158	-82.810	-0.497	-0.159
-326.143	13.216	0.347	-0.265
-325.129	19.070	-0.149	0.118
-324.114	85.211	0.104	0.113
-323.099	547.750	-0.085	0.201
-322.085	-42.736	-0.278	0.140
-321.070	109.943	0.176	0.208
-320.056	67.072	-0.123	-0.123
-319.041	-200.000	0.004	0.215
-318.026	46.983	0.121	-0.111
-317.012	188.267	0.037	-0.055
-315.997	177.911	-0.069	0.099
-314.983	-161.883	-0.059	-0.003
-313.968	-200.000	0.030	-0.150
-312.953	578.011	0.185	-0.447
-311.939	-116.797	0.366	-0.066
-310.924	778.622	-0.208	-0.562
-309.910	800.000	-0.035	-0.113
-308.895	-142.100	-0.106	0.010
-307.880	796.440	0.085	0.232
-306.866	-200.000	-0.009	0.177
-305.851	-200.000	-0.031	-0.210
-304.837	585.706	0.054	0.130
-303.822	-81.464	-0.393	0.128
-302.807	-200.000	0.066	0.298
-301.793	800.000	-0.119	-0.376
-300.778	130.193	0.261	-0.329
-299.764	78.999	0.091	-0.096
-298.749	-78.050	0.208	-0.071
-297.735	654.426	0.118	-0.298
-296.720	-79.095	-0.361	-0.121
-295.705	2.753	-0.083	0.059
-294.691	41.001	-0.245	0.219
-293.676	-139.496	0.230	0.024
-292.662	-28.913	0.157	-0.089
-291.647	-42.882	-0.092	-0.046
-290.632	-154.830	-0.139	-0.009
-289.618	800.000	0.052	0.169
-288.603	193.223	0.188	-0.281
-287.589	-200.000	-0.089	-0.478
-286.574	-200.000	0.020	-0.332
-285.559	-33.949	-0.259	0.141
-284.545	-26.676	-0.153	0.088
-283.530	-171.934	-0.190	0.006
-282.516	23.838	0.159	0.129
-281.501	246.627	-0.218	-0.362
-280.486	77.576	0.031	0.033
-279.472	-59.549	-0.257	0.109
-278.457	133.244	-0.429	0.546
-277.443	92.137	0.055	0.061
-276.428	160.589	0.096	-0.132
-275.413	-74.509	-0.147	-0.052
-274.399	99.551	0.053	-0.061
-273.384	800.000	-0.103	0.369
-272.370	-136.819	-0.086	-0.010
-271.355	-82.501	0.249	-0.080
-270.340	507.846	0.102	-0.232
-269.326	-96.003	-0.178	-0.047
-268.311	-200.000	0.010	-0.123
-267.297	-140.045	-0.086	0.009
-266.282	524.336	-0.046	0.108
-265.267	83.649	0.169	0.181
-264.253	-82.112	-0.040	-0.013
-263.238	800.000	-0.003	0.011
-262.224	-10.220	0.342	-0.224
-261.209	-20.787	-0.171	-0.103
-260.195	-83.191	0.088	0.028
-259.180	-200.000	0.025	0.327
-258.165	-12.269	-0.216	0.139
-257.151	173.965	0.240	0.341
-256.136	88.386	-0.122	-0.134
-255.122	800.000	0.104	-0.358
-254.107	-132.923	0.236	-0.030
-253.092	-101.140	-0.118	0.029
-252.078	-143.181	-0.315	0.030
-251.063	427.095	0.117	0.249
-250.049	94.137	0.112	-0.125
-249.034	313.154	0.089	-0.164
-248.019	-12.130	0.131	0.084
-247.005	-200.000	-0.008	-0.202
-245.990	-65.046	-0.158	-0.063
-244.976	147.397	0.002	0.002
-243.961	-23.625	0.023	0.014
-242.946	-48.088	-0.057	-0.027
-241.932	800.000	-0.069	0.278
-240.917	-139.864	0.189	-0.020
-239.903	-32.056	0.078	-0.043
-238.888	-1.651	0.147	0.102
-237.873	266.808	-0.239	-0.412
-236.859	61.278	-0.337	-0.330
-235.844	-100.426	0.029	-0.007
-234.830	-200.000	-0.091	0.488
-233.815	-20.325	0.207	0.125
-232.800	182.326	0.160	-0.232
-231.786	-53.833	-0.135	0.061
-230.771	800.000	-0.129	0.540
-229.757	-200.000	0.046	0.237
-228.742	429.480	0.048	0.102
-227.727	-200.000	-0.023	0.336
-226.713	800.000	0.078	0.324
-225.698	318.154	0.114	0.212
-224.684	-46.985	-0.364	0.175
-223.669	83.714	-0.072	-0.077
-222.655	-96.788	0.296	-0.076
-221.640	-186.973	-0.263	0.004
-220.625	81.321	0.166	-0.177
-219.611	54.109	0.043	0.041
-218.596	-82.302	0.328	-0.105
-217.582	143.604	0.097	0.127
-216.567	-150.272	0.326	-0.025
-215.552	-116.914	-0.334	0.060
-214.538	-48.587	-0.481	-0.228
-213.523	-61.762	-0.216	0.089
-212.509	113.561	0.268	0.320
-211.494	-200.000	-0.057	-0.267
-210.479	-75.175	-0.423	-0.149
-209.465	-26.636	0.057	0.033
-208.450	12.844	-0.286	0.217
-207.436	-36.196	0.611	-0.324
-206.421	-200.000	0.005	0.063
-205.406	-26.001	-0.204	0.118
-204.392	136.530	-0.108	0.139
-203.377	-140.371	0.433	0.044
-202.363	-48.482	-0.229	-0.108
-201.348	473.438	0.032	0.070
-200.333	493.629	-0.062	-0.139
-199.319	-34.081	-0.273	-0.148
-198.304	-48.046	0.225	-0.107
-197.290	-91.089	0.522	0.147
-196.275	-87.920	0.165	0.049
-195.260	-141.521	0.046	-0.005
-194.246	-77.879	0.190	-0.064
-193.231	-126.408	-0.273	-0.040
-192.217	800.000	-0.061	0.190
-191.202	10.359	0.310	-0.232
-190.187	286.855	-0.037	0.066
-189.173	349.602	-0.129	0.251
-188.158	-121.837	0.037	-0.006
-187.144	-39.196	-0.149	-0.077
-186.129	-24.345	0.136	0.079
-185.114	-198.860	-0.194	0.001
-184.100	-72.583	-0.087	0.032
-183.085	-82.924	-0.111	-0.035
-182.071	-200.000	-0.027	0.160
-181.056	-146.202	0.124	0.011
-180.042	176.191	-0.140	-0.200
-179.027	-100.485	0.181	-0.044
-178.012	105.187	-0.124	0.143
-176.998	-101.322	-0.121	-0.029
-175.983	800.000	-0.056	-0.171
-174.969	-200.000	0.057	0.351
-173.954	-47.405	0.406	0.194
-172.939	26.049	0.421	-0.345
-171.925	-96.120	0.216	0.056
-170.910	800.000	-0.037	0.110
-169.896	-177.586	0.062	-0.001
-168.881	800.000	-0.054	0.168
-167.866	148.997	-0.157	-0.209
-166.852	-8.079	0.263	0.174
-165.837	615.972	-0.141	0.347
-164.823	-8.678	-0.085	0.056
-163.808	-191.155	0.456	0.005
-162.793	-200.000	-0.023	0.125
-161.779	-21.756	-0.064	0.038
-160.764	226.073	-0.048	-0.076
-159.750	-84.972	-0.292	-0.090
-158.735	436.172	0.100	0.214
-157.720	295.803	-0.099	0.178
-156.706	23.435	0.082	0.066
-155.691	-20.888	0.124	-0.074
-154.677	102.332	-0.189	0.217
-153.662	-56.479	0.277	-0.121
-152.647	-200.000	0.020	0.292
-151.633	-84.634	-0.192	-0.059
-150.618	-94.145	0.245	-0.066
-149.604	391.032	-0.007	0.015
-148.589	800.000	0.055	-0.198
-147.574	-169.041	0.297	0.011
-146.560	213.224	0.072	-0.112
-145.545	50.332	0.125	-0.116
-144.531	-200.000	-0.008	0.224
-143.516	-96.490	0.401	-0.104
-142.502	-85.923	-0.244	0.074
-141.487	-92.759	-0.249	-0.068
-140.472	62.339	-0.059	0.058
-139.458	50.529	-0.116	0.108
-138.443	-42.542	-0.227	0.113
-137.429	586.748	0.099	0.239
-136.414	381.100	0.082	-0.164
-135.399	40.316	0.041	-0.036
-134.385	164.945	0.064	-0.089
-133.370	-55.168	-0.179	0.079
-132.356	-81.853	-0.203	-0.065
-131.341	-200.000	0.010	0.075
-130.326	-133.687	0.221	-0.027
-129.312	659.144	0.154	0.388
-128.297	-129.258	0.222	-0.030
-127.283	-120.877	-0.202	-0.033
-126.268	66.394	-0.049	0.048
-125.253	82.340	-0.048	0.051
-124.239	41.285	0.194	-0.172
-123.224	-6.279	0.273	-0.183
-122.210	800.000	-0.063	-0.215
-121.195	123.876	0.125	-0.154
