DTS Sentinel unit serial number:	SN413079Multiplexer serial number:	ORYXHardware model number:	OX4-SRSoftware version number:	ORYX F/W v4.00 Oryx Data Collector v3.7.2.0data status	okinstallation	princeton_trtdifferential loss correction	single-endedforward channel	channel 1reverse channel	N/Adate	2019/09/15time	21:42:35forward acquisition time	60.00reverse acquisition time	0.00gamma	496.2192k internal	0.2329k external	0.2329temperature offset calibration	0.9965default loss term (dB/km)	0.3790temperature slope calibration	1.0000multiplexer offset coefficient	1.0000multiplexer slope coefficient	1.0000fibre end	0.00T internal ref (°C)	30.37T ext. ref 1 (°C)	8.39T ext. ref 2 (°C)	23.49length (m)	temperature (°C)	Stokes	anti-Stokes-747.200	-200.000	0.011	0.052
-746.185	346.618	-0.066	0.130
-745.171	546.816	-0.006	0.015
-744.156	25.930	-0.233	0.195
-743.142	427.733	-0.206	0.448
-742.127	-77.319	0.146	-0.051
-741.112	-200.000	0.024	-0.112
-740.098	-92.680	-0.366	-0.103
-739.083	800.000	-0.058	0.232
-738.069	-68.003	-0.289	0.114
-737.054	647.541	0.061	-0.157
-736.039	60.874	0.096	0.096
-735.025	114.088	-0.083	-0.102
-734.010	-200.000	-0.018	-0.083
-732.996	282.745	-0.041	-0.074
-731.981	-144.296	-0.323	0.030
-730.966	39.377	0.139	0.125
-729.952	-200.000	0.069	-0.362
-728.937	655.566	0.032	0.081
-727.923	-111.169	-0.139	-0.029
-726.908	148.546	0.228	-0.310
-725.894	27.841	-0.161	-0.137
-724.879	-88.806	-0.184	0.055
-723.864	-122.124	-0.279	-0.046
-722.850	800.000	-0.055	0.236
-721.835	-69.071	-0.094	-0.036
-720.821	-110.253	-0.264	0.055
-719.806	57.716	-0.260	-0.256
-718.791	16.668	0.242	-0.193
-717.777	-200.000	-0.020	0.211
-716.762	-200.000	0.074	0.000
-715.748	-66.857	-0.046	0.018
-714.733	-89.282	0.145	0.043
-713.718	7.737	-0.238	-0.179
-712.704	-200.000	0.007	0.128
-711.689	607.389	-0.135	-0.337
-710.675	47.811	0.307	0.289
-709.660	704.674	0.132	-0.350
-708.645	8.058	0.333	-0.251
-707.631	800.000	0.027	0.086
-706.616	459.898	-0.092	-0.205
-705.602	-200.000	-0.032	-0.212
-704.587	-112.879	-0.153	0.030
-703.572	-44.403	0.185	0.093
-702.558	-87.000	-0.023	0.007
-701.543	-200.000	0.003	-0.429
-700.529	7.428	0.171	0.129
-699.514	-184.162	0.110	0.002
-698.499	-134.953	-0.342	0.042
-697.485	-81.901	-0.358	-0.118
-696.470	54.273	0.166	0.161
-695.456	-121.553	0.138	0.023
-694.441	5.045	-0.244	-0.180
-693.426	456.217	-0.150	-0.335
-692.412	-118.426	0.112	-0.020
-691.397	78.086	0.266	-0.285
-690.383	800.000	0.021	-0.082
-689.368	-126.296	-0.440	0.066
-688.354	-70.339	-0.057	0.022
-687.339	-69.398	0.278	0.107
-686.324	-200.000	0.006	-0.034
-685.310	-46.642	-0.024	-0.012
-684.295	800.000	-0.096	-0.419
-683.281	-44.592	-0.510	-0.256
-682.266	582.643	0.132	0.326
-681.251	-200.000	-0.018	0.203
-680.237	-5.788	-0.081	-0.056
-679.222	-124.297	-0.115	-0.018
-678.208	44.566	0.177	-0.164
-677.193	-35.886	0.113	0.061
-676.178	800.000	-0.048	-0.158
-675.164	726.049	0.127	0.339
-674.149	-166.762	-0.083	0.003
-673.135	-21.630	0.222	-0.136
-672.120	-200.000	0.022	-0.119
-671.105	-200.000	-0.009	-0.043
-670.091	800.000	-0.104	-0.344
-669.076	-200.000	0.046	0.289
-668.062	-200.000	-0.003	-0.193
-667.047	-102.380	0.146	0.035
-666.032	12.786	-0.188	-0.146
-665.018	140.073	0.069	-0.092
-664.003	-200.000	-0.002	0.065
-662.989	-200.000	-0.009	0.193
-661.974	562.381	0.128	-0.310
-660.959	-200.000	-0.002	-0.205
-659.945	-177.595	0.257	0.006
-658.930	-200.000	0.026	0.160
-657.916	-85.725	0.067	0.021
-656.901	204.593	-0.212	0.330
-655.886	-200.000	-0.025	0.124
-654.872	275.883	-0.138	0.245
-653.857	49.434	-0.166	0.156
-652.843	216.383	0.105	0.167
-651.828	80.504	0.086	0.093
-650.814	100.165	-0.114	-0.133
-649.799	551.950	-0.096	0.233
-648.784	-159.385	0.072	0.004
-647.770	800.000	-0.047	-0.161
-646.755	-200.000	-0.027	-0.206
-645.741	-38.795	-0.289	0.153
-644.726	-200.000	-0.012	-0.322
-643.711	-24.124	-0.208	-0.124
-642.697	-142.705	0.104	0.010
-641.682	-115.931	-0.107	-0.020
-640.668	800.000	0.058	-0.178
-639.653	294.901	-0.086	-0.157
-638.638	-200.000	-0.010	-0.085
-637.624	8.383	0.127	-0.095
-636.609	1.077	0.219	-0.158
-635.595	190.335	0.095	0.143
-634.580	-200.000	-0.013	-0.382
-633.565	244.112	-0.128	-0.216
-632.551	800.000	0.017	0.057
-631.536	-200.000	-0.013	0.130
-630.522	-100.318	-0.069	0.017
-629.507	-122.465	0.025	0.004
-628.492	129.235	0.103	-0.132
-627.478	-105.216	0.188	0.043
-626.463	800.000	-0.116	0.348
-625.449	739.435	-0.054	0.145
-624.434	800.000	0.071	-0.226
-623.419	8.721	-0.387	-0.292
-622.405	-75.397	-0.320	-0.114
-621.390	28.099	0.300	0.254
-620.376	18.850	-0.034	-0.027
-619.361	591.886	-0.090	-0.223
-618.346	-24.170	-0.274	0.164
-617.332	800.000	0.073	-0.318
-616.317	737.109	-0.086	-0.231
-615.303	28.863	-0.062	0.053
-614.288	-158.606	-0.094	-0.005
-613.273	218.306	0.122	-0.195
-612.259	121.550	0.117	-0.146
-611.244	5.111	0.248	-0.183
-610.230	-91.858	-0.354	-0.101
-609.215	-111.558	0.330	0.067
-608.201	-15.731	0.200	0.128
-607.186	113.233	-0.054	0.066
-606.171	-135.004	-0.342	0.041
-605.157	14.404	-0.172	-0.135
-604.142	800.000	-0.040	-0.136
-603.128	-41.825	-0.174	0.090
-602.113	-200.000	-0.020	0.158
-601.098	-200.000	-0.011	-0.155
-600.084	88.420	-0.093	0.104
-599.069	108.298	0.122	0.146
-598.055	-50.459	0.122	-0.058
-597.040	130.866	0.074	0.096
-596.025	-200.000	0.006	0.200
-595.011	-32.012	-0.217	-0.122
-593.996	-41.423	-0.094	-0.048
-592.982	-5.798	-0.245	0.168
-591.967	800.000	0.102	0.292
-590.952	-194.859	-0.453	-0.004
-589.938	800.000	-0.103	-0.318
-588.923	-132.570	0.238	-0.031
-587.909	800.000	0.085	-0.321
-586.894	800.000	0.099	-0.322
-585.879	79.321	-0.231	0.248
-584.865	-200.000	0.041	-0.291
-583.850	19.330	0.160	0.129
-582.836	-82.955	-0.349	0.113
-581.821	800.000	-0.098	0.287
-580.806	-200.000	-0.024	0.324
-579.792	44.462	0.177	-0.163
-578.777	350.995	-0.046	-0.091
-577.763	-77.831	0.262	0.091
-576.748	-25.405	-0.127	-0.075
-575.733	-94.247	-0.217	-0.059
-574.719	204.208	-0.205	-0.318
-573.704	-2.010	0.294	-0.206
-572.690	-135.508	0.241	0.029
-571.675	800.000	-0.031	-0.092
-570.661	28.253	0.233	-0.197
-569.646	183.387	0.097	-0.143
-568.631	-78.225	-0.332	-0.114
-567.617	800.000	-0.070	-0.216
-566.602	-50.495	-0.081	0.038
-565.588	-127.829	-0.317	0.046
-564.573	64.905	-0.151	0.153
-563.558	-101.706	0.250	0.061
-562.544	85.126	0.188	0.206
-561.529	270.269	0.158	-0.278
-560.515	-200.000	-0.007	0.207
-559.500	314.247	-0.091	0.171
-558.485	-76.785	0.224	-0.078
-557.471	122.133	0.114	-0.142
-556.456	548.277	0.016	-0.037
-555.442	-52.664	-0.044	0.020
-554.427	-114.766	-0.210	-0.040
-553.412	-95.437	-0.100	0.027
-552.398	142.946	0.094	0.125
-551.383	-200.000	-0.018	-0.274
-550.369	386.765	-0.090	0.186
-549.354	126.951	-0.093	-0.118
-548.339	-200.000	0.035	0.153
-547.325	190.539	-0.084	-0.126
-546.310	-119.109	-0.195	-0.034
-545.296	-30.636	0.013	0.007
-544.281	10.267	0.296	0.225
-543.266	795.118	0.086	0.237
-542.252	24.692	0.355	-0.294
-541.237	113.501	-0.121	0.147
-540.223	-153.543	0.099	0.007
-539.208	-81.017	-0.194	-0.064
-538.193	449.040	-0.061	-0.135
-537.179	108.026	-0.104	-0.124
-536.164	-63.362	0.044	-0.018
-535.150	125.371	0.059	0.075
-534.135	-90.864	-0.069	0.020
-533.121	800.000	-0.081	0.264
-532.106	-160.564	-0.528	-0.028
-531.091	-12.716	0.191	0.125
-530.077	135.485	-0.135	-0.175
-529.062	-74.721	0.077	0.028
-528.048	-17.481	0.222	0.139
-527.033	800.000	-0.137	-0.384
-526.018	112.238	-0.109	0.131
-525.004	16.167	0.189	-0.149
-523.989	63.588	-0.312	0.313
-522.975	800.000	-0.123	-0.442
-521.960	-200.000	0.082	-0.399
-520.945	-164.993	-0.095	0.004
-519.931	-3.838	-0.271	-0.188
-518.916	70.875	-0.016	0.017
-517.902	-23.649	0.217	-0.130
-516.887	7.910	-0.105	0.078
-515.872	188.338	0.118	-0.177
-514.858	17.531	-0.195	-0.154
-513.843	-200.000	0.028	0.344
-512.829	291.049	0.139	0.253
-511.814	-147.314	-0.169	-0.014
-510.799	-200.000	0.002	-0.186
-509.785	-14.193	-0.160	0.103
-508.770	189.749	-0.232	-0.347
-507.756	232.675	0.169	-0.277
-506.741	-95.287	-0.087	0.023
-505.726	134.906	0.086	-0.111
-504.712	-86.184	0.308	-0.095
-503.697	594.037	0.051	0.126
-502.683	-141.540	-0.286	0.029
-501.668	179.751	-0.187	-0.273
-500.653	-200.000	0.030	0.141
-499.639	-54.973	0.115	-0.052
-498.624	26.755	-0.052	0.043
-497.610	40.494	0.054	-0.048
-496.595	31.599	0.060	-0.052
-495.581	99.024	0.128	0.147
-494.566	-78.391	-0.048	0.017
-493.551	-29.323	0.209	-0.119
-492.537	31.427	-0.179	0.153
-491.522	-200.000	0.045	-0.346
-490.508	32.978	-0.260	0.224
-489.493	-200.000	0.029	0.148
-488.478	-200.000	-0.035	0.304
-487.464	19.755	-0.167	0.134
-486.449	-67.646	-0.152	0.060
-485.435	-75.418	-0.350	-0.124
-484.420	-128.399	-0.230	0.033
-483.405	800.000	0.092	0.381
-482.391	-184.442	0.223	0.004
-481.376	779.461	-0.109	0.298
-480.362	-200.000	-0.063	-0.384
-479.347	-200.000	0.038	0.171
-478.332	330.589	-0.102	0.196
-477.318	37.551	-0.145	0.128
-476.303	340.446	-0.038	0.074
-475.289	2.325	-0.339	0.244
-474.274	95.660	-0.115	0.131
-473.259	800.000	0.098	0.379
-472.245	706.289	0.037	0.098
-471.230	-200.000	0.042	0.420
-470.216	256.100	0.078	0.134
-469.201	410.603	0.028	0.059
-468.186	222.006	-0.036	0.057
-467.172	-151.405	-0.313	0.023
-466.157	-116.771	-0.180	0.033
-465.143	257.594	-0.270	0.462
-464.128	-133.004	-0.483	-0.061
-463.113	-200.000	-0.009	-0.327
-462.099	85.079	-0.226	0.247
-461.084	-3.982	-0.074	-0.051
-460.070	2.714	0.083	0.060
-459.055	-200.000	0.033	0.164
-458.040	14.700	0.158	-0.123
-457.026	-17.525	0.071	0.045
-456.011	-64.122	-0.239	-0.097
-454.997	80.289	0.257	-0.275
-453.982	800.000	0.052	-0.203
-452.968	-107.111	-0.183	-0.040
-451.953	-80.636	0.239	-0.079
-450.938	-57.153	-0.145	-0.064
-449.924	759.611	0.039	-0.105
-448.909	60.725	0.167	-0.165
-447.895	800.000	-0.067	-0.186
-446.880	-200.000	-0.002	-0.396
-445.865	119.437	0.035	-0.044
-444.851	600.761	-0.100	-0.248
-443.836	-78.204	-0.215	-0.074
-442.822	-111.716	0.173	-0.035
-441.807	-127.106	0.038	0.006
-440.792	-148.989	-0.304	0.024
-439.778	-12.025	0.191	-0.125
-438.763	-22.452	-0.169	-0.102
-437.749	-200.000	0.050	0.273
-436.734	800.000	-0.091	0.359
-435.719	57.996	-0.060	0.058
-434.705	800.000	-0.032	0.135
-433.690	67.569	0.325	-0.331
-432.676	-200.000	0.003	0.101
-431.661	-200.000	0.003	0.130
-430.646	1.071	0.083	0.059
-429.632	355.512	0.094	-0.186
-428.617	87.644	0.212	-0.233
-427.603	-54.542	-0.326	-0.147
-426.588	-200.000	0.066	0.322
-425.573	658.494	-0.070	0.179
-424.559	-200.000	0.029	-0.194
-423.544	-200.000	0.030	0.197
-422.530	-130.420	0.195	-0.026
-421.515	80.554	-0.243	-0.260
-420.500	-99.470	-0.166	-0.041
-419.486	-200.000	-0.100	0.515
-418.471	800.000	0.053	-0.166
-417.457	115.926	0.133	0.162
-416.442	72.367	0.012	0.012
-415.428	800.000	0.040	-0.162
-414.413	-89.875	0.055	-0.016
-413.398	-108.368	0.193	0.041
-412.384	52.312	-0.123	-0.116
-411.369	80.824	0.099	-0.107
-410.355	-200.000	-0.043	-0.390
-409.340	656.521	-0.058	0.148
-408.325	308.281	0.089	0.165
-407.311	110.077	0.169	0.202
-406.296	-200.000	-0.014	-0.220
-405.282	800.000	-0.052	-0.172
-404.267	-200.000	0.007	0.049
-403.252	2.542	0.245	0.176
-402.238	281.257	-0.043	0.077
-401.223	800.000	-0.044	-0.153
-400.209	800.000	-0.023	0.095
-399.194	8.705	0.061	0.046
-398.179	-200.000	0.092	-0.454
-397.165	800.000	0.037	-0.123
-396.150	122.535	-0.192	-0.238
-395.136	129.837	0.203	0.258
-394.121	380.432	0.050	-0.102
-393.106	-52.176	-0.174	0.080
-392.092	141.233	0.166	0.218
-391.077	-115.192	0.078	-0.015
-390.063	-160.287	0.070	0.004
-389.048	-124.265	0.065	0.010
-388.033	389.365	-0.120	-0.247
-387.019	-87.739	-0.315	0.094
-386.004	-108.378	0.274	-0.059
-384.990	-98.889	0.133	0.033
-383.975	-200.000	0.006	-0.105
-382.960	230.807	-0.116	-0.188
-381.946	-200.000	-0.012	-0.431
-380.931	-200.000	-0.003	0.313
-379.917	127.755	0.087	0.110
-378.902	136.198	0.203	-0.263
-377.888	-15.479	-0.147	-0.093
-376.873	-93.070	0.081	-0.022
-375.858	-200.000	-0.006	-0.254
-374.844	242.056	0.172	-0.285
-373.829	-131.733	0.122	0.016
-372.815	47.511	-0.141	-0.131
-371.800	-173.472	-0.145	0.004
-370.785	-93.144	0.098	-0.027
-369.771	-200.000	-0.002	-0.228
-368.756	800.000	0.040	0.173
-367.742	155.294	-0.063	-0.086
-366.727	-24.909	0.122	-0.072
-365.712	-44.308	-0.219	-0.109
-364.698	-96.328	0.164	0.043
-363.683	-200.000	-0.077	0.337
-362.669	-6.700	0.152	-0.103
-361.654	171.056	0.293	0.417
-360.639	22.290	-0.237	0.192
-359.625	-168.039	-0.240	-0.009
-358.610	21.684	0.146	0.118
-357.596	62.050	-0.065	-0.065
-356.581	84.639	0.259	-0.282
-355.566	373.156	0.076	-0.153
-354.552	186.888	-0.095	0.141
-353.537	176.067	0.088	0.126
-352.523	-85.972	-0.265	-0.081
-351.508	-79.839	0.265	-0.088
-350.493	-141.571	-0.149	-0.015
-349.479	84.916	-0.230	0.250
-348.464	95.230	-0.118	0.134
-347.450	313.185	0.065	-0.121
-346.435	580.407	0.079	-0.191
-345.420	-200.000	0.040	0.000
-344.406	-200.000	-0.014	-0.251
-343.391	-153.389	-0.451	-0.031
-342.377	-200.000	-0.004	0.017
-341.362	-131.334	0.365	0.048
-340.348	-200.000	-0.043	-0.424
-339.333	90.780	-0.230	-0.256
-338.318	665.751	-0.047	-0.121
-337.304	-200.000	0.021	0.217
-336.289	136.041	0.206	0.266
-335.275	471.798	-0.151	-0.336
-334.260	269.902	0.119	0.207
-333.245	251.223	0.137	-0.230
-332.231	-94.610	0.351	-0.095
-331.216	-68.503	0.146	0.056
-330.202	32.623	0.134	0.114
-329.187	-6.998	0.142	-0.095
-328.172	15.559	0.070	-0.055
-327.158	-62.499	0.056	-0.023
-326.143	800.000	0.061	-0.173
-325.129	-200.000	0.031	-0.253
-324.114	-141.670	-0.126	0.013
-323.099	75.759	-0.104	0.109
-322.085	800.000	-0.137	0.458
-321.070	-65.034	-0.249	0.100
-320.056	-97.618	-0.321	0.082
-319.041	-200.000	-0.069	-0.354
-318.026	-154.658	0.402	-0.026
-317.012	160.795	-0.105	0.145
-315.997	-25.400	0.195	0.114
-314.983	-83.060	0.583	0.186
-313.968	800.000	-0.017	-0.059
-312.953	51.301	0.067	-0.063
-311.939	-78.925	-0.291	0.098
-310.924	-26.886	0.209	0.121
-309.910	169.083	-0.039	0.056
-308.895	-124.276	0.424	0.066
-307.880	-3.383	0.041	0.028
-306.866	-200.000	0.007	-0.048
-305.851	-73.460	-0.278	0.101
-304.837	-62.515	-0.177	-0.073
-303.822	377.362	0.045	0.090
-302.807	800.000	-0.055	0.170
-301.793	729.789	0.091	0.241
-300.778	692.588	0.061	-0.158
-299.764	21.765	0.115	-0.093
-298.749	-200.000	-0.026	-0.262
-297.735	236.686	-0.083	0.137
-296.720	800.000	-0.033	0.115
-295.705	-138.692	0.267	-0.029
-294.691	305.594	0.151	0.278
-293.676	-70.563	0.228	0.085
-292.662	133.412	-0.118	-0.151
-291.647	-200.000	-0.022	-0.277
-290.632	-15.179	0.046	-0.029
-289.618	89.776	0.033	-0.037
-288.603	-137.243	-0.052	-0.006
-287.589	84.847	-0.090	0.097
-286.574	-33.539	-0.147	0.080
-285.559	91.015	-0.253	0.280
-284.545	800.000	0.063	0.240
-283.530	800.000	-0.063	0.185
-282.516	-200.000	-0.058	0.294
-281.501	166.777	-0.095	-0.134
-280.486	-182.195	0.275	0.005
-279.472	126.676	0.059	0.074
-278.457	59.269	0.255	-0.248
-277.443	-200.000	-0.042	-0.204
-276.428	800.000	-0.066	-0.237
-275.413	606.446	0.153	-0.378
-274.399	-31.084	-0.198	-0.110
-273.384	800.000	-0.056	0.218
-272.370	566.281	-0.137	0.328
-271.355	185.363	-0.044	-0.064
-270.340	20.444	0.282	-0.225
-269.326	-200.000	0.009	-0.282
-268.311	194.216	-0.029	0.043
-267.297	136.289	-0.070	0.090
-266.282	31.324	0.188	0.159
-265.267	116.103	-0.240	0.291
-264.253	-139.301	0.488	0.052
-263.238	-51.545	0.132	0.061
-262.224	-200.000	0.006	0.212
-261.209	-152.190	0.405	-0.029
-260.195	-168.682	0.405	0.015
-259.180	-88.220	-0.161	0.048
-258.165	-200.000	0.013	0.552
-257.151	-200.000	-0.006	0.194
-256.136	800.000	0.066	0.221
-255.122	-200.000	-0.011	0.146
-254.107	41.894	0.080	-0.071
-253.092	191.273	0.046	0.069
-252.078	93.941	0.114	-0.127
-251.063	800.000	-0.012	-0.049
-250.049	81.486	0.180	0.192
-249.034	729.820	-0.189	0.499
-248.019	-19.462	0.457	-0.279
-247.005	23.549	0.077	0.062
-245.990	36.371	-0.119	-0.104
-244.976	-200.000	-0.021	0.389
-243.961	342.687	0.119	0.231
-242.946	-200.000	0.054	0.275
-241.932	-200.000	-0.019	0.202
-240.917	-200.000	0.025	-0.229
-239.903	104.684	-0.208	-0.242
-238.888	-80.047	0.526	-0.174
-237.873	14.245	-0.272	0.210
-236.859	-0.163	0.213	-0.149
-235.844	-48.120	-0.219	-0.104
-234.830	-200.000	0.012	0.076
-233.815	-51.846	0.313	0.144
-232.800	-66.362	-0.153	0.060
-231.786	-60.261	0.288	0.121
-230.771	-86.206	0.218	-0.066
-229.757	249.814	0.153	0.256
-228.742	33.324	0.398	0.341
-227.727	142.153	0.134	-0.175
-226.713	-200.000	0.171	-0.000
-225.698	-125.988	-0.201	0.030
-224.684	36.462	0.047	-0.041
-223.669	198.653	-0.130	0.196
-222.655	11.057	-0.095	-0.072
-221.640	124.015	0.188	0.233
-220.625	-107.715	0.235	-0.051
-219.611	-190.361	0.183	0.002
-218.596	37.287	0.196	-0.172
-217.582	-101.009	-0.224	0.054
-216.567	-200.000	-0.006	0.338
-215.552	63.381	-0.170	0.168
-214.538	-168.151	-0.208	-0.008
-213.523	129.929	0.169	0.214
-212.509	-200.000	-0.008	-0.063
-211.494	128.378	0.082	-0.103
-210.479	307.036	-0.152	0.280
-209.465	-29.054	-0.101	-0.057
-208.450	163.345	-0.074	-0.103
-207.436	221.507	-0.244	-0.387
-206.421	445.013	-0.073	0.157
-205.406	-49.771	-0.192	-0.090
-204.392	544.608	0.218	-0.513
-203.377	-44.213	-0.106	0.052
-202.363	-90.733	0.272	-0.077
-201.348	92.751	-0.153	0.171
-200.333	485.305	-0.086	0.192
-199.319	181.356	-0.150	0.218
-198.304	5.371	-0.401	-0.292
-197.290	-146.475	0.192	0.017
-196.275	-58.770	-0.226	0.096
-195.260	-200.000	0.058	-0.372
-194.246	-200.000	-0.013	-0.073
-193.231	98.489	-0.216	-0.245
-192.217	-200.000	0.073	-0.376
-191.202	-11.920	0.092	0.059
-190.187	-200.000	0.027	0.218
-189.173	-200.000	0.108	0.474
-188.158	-77.105	-0.220	0.075
-187.144	-200.000	0.043	0.261
-186.129	-200.000	0.046	0.213
-185.114	-15.933	-0.230	-0.144
-184.100	-200.000	0.037	0.230
-183.085	82.219	-0.146	-0.156
-182.071	81.055	-0.266	-0.283
-181.056	-65.118	0.187	0.074
-180.042	106.119	-0.152	-0.178
-179.027	549.777	0.190	0.449
-178.012	156.506	0.186	0.253
-176.998	-167.354	-0.263	0.010
-175.983	-136.685	0.392	0.045
-174.969	-54.189	-0.262	-0.117
-173.954	-200.000	-0.012	-0.069
-172.939	-110.781	0.343	0.070
-171.925	5.344	-0.353	-0.256
-170.910	-63.583	0.340	0.137
-169.896	762.254	0.066	0.176
-168.881	736.053	-0.072	0.191
-167.866	134.524	0.080	0.103
-166.852	377.772	0.164	0.329
-165.837	258.238	0.136	0.231
-164.823	-20.521	-0.273	-0.165
-163.808	115.859	0.262	0.315
-162.793	800.000	-0.103	-0.331
-161.779	800.000	0.049	0.161
-160.764	-151.629	-0.126	-0.009
-159.750	-9.248	0.094	-0.062
-158.735	-79.277	-0.108	-0.036
-157.720	41.617	-0.209	-0.187
-156.706	-132.175	0.368	-0.047
-155.691	-200.000	0.005	0.057
-154.677	-19.124	-0.151	0.092
-153.662	-200.000	-0.013	-0.107
-152.647	-132.007	0.372	-0.048
-151.633	13.831	0.184	-0.140
-150.618	800.000	0.066	0.202
-149.604	-200.000	0.065	0.345
-148.589	120.856	-0.082	0.100
-147.574	-200.000	0.019	-0.213
-146.560	140.298	-0.135	0.175
-145.545	-76.664	-0.164	0.056
-144.531	-146.839	0.131	-0.011
-143.516	-85.813	-0.314	0.096
-142.502	-5.404	0.157	0.106
-141.487	-200.000	-0.015	-0.212
-140.472	-182.914	0.045	0.001
-139.458	10.708	-0.158	0.119
-138.443	-46.392	0.118	0.057
-137.429	73.980	-0.087	0.090
-136.414	399.398	0.055	0.113
-135.399	800.000	0.144	0.409
-134.385	-200.000	-0.049	0.340
-133.370	-200.000	0.004	0.271
-132.356	171.857	-0.159	-0.225
-131.341	-63.803	0.131	-0.053
-130.326	101.123	0.130	0.149
-129.312	-150.721	-0.259	-0.019
-128.297	16.389	-0.227	0.176
-127.283	-49.048	0.303	0.143
-126.268	73.952	0.162	-0.167
-125.253	-200.000	0.067	-0.347
-124.239	-88.047	-0.220	0.065
-123.224	800.000	0.040	-0.159
-122.210	-200.000	-0.051	-0.371
-121.195	800.000	-0.072	-0.247
-120.180	-57.088	0.261	-0.113
