DTS Sentinel unit serial number:	SN413079Multiplexer serial number:	ORYXHardware model number:	OX4-SRSoftware version number:	ORYX F/W v4.00 Oryx Data Collector v3.7.2.0data status	okinstallation	princeton_trtdifferential loss correction	single-endedforward channel	channel 1reverse channel	N/Adate	2019/09/12time	20:34:35forward acquisition time	60.00reverse acquisition time	0.00gamma	496.2192k internal	0.2324k external	0.2324temperature offset calibration	1.0155default loss term (dB/km)	0.3790temperature slope calibration	1.0000multiplexer offset coefficient	1.0000multiplexer slope coefficient	1.0000fibre end	0.00T internal ref (°C)	31.19T ext. ref 1 (°C)	3.64T ext. ref 2 (°C)	25.77length (m)	temperature (°C)	Stokes	anti-Stokes-747.200	-200.000	-0.005	0.087
-746.185	-61.530	-0.574	0.243
-745.171	-126.324	0.319	-0.048
-744.156	-200.000	-0.066	0.336
-743.142	199.329	0.205	0.318
-742.127	-200.000	-0.016	0.098
-741.112	-157.479	0.473	0.029
-740.098	-83.042	-0.227	-0.074
-739.083	-89.768	0.482	0.142
-738.069	-145.138	-0.143	0.013
-737.054	-60.671	0.111	0.048
-736.039	-58.343	-0.382	0.168
-735.025	53.745	0.355	0.344
-734.010	-78.035	0.206	0.072
-732.996	-23.799	-0.510	-0.308
-731.981	-200.000	-0.064	-0.351
-730.966	89.697	0.146	0.165
-729.952	-200.000	0.019	-0.291
-728.937	800.000	0.126	-0.495
-727.923	-100.732	-0.429	-0.107
-726.908	-67.098	-0.103	0.041
-725.894	-200.000	0.031	-0.174
-724.879	-200.000	0.012	-0.112
-723.864	-152.585	-0.149	0.011
-722.850	-137.641	-0.310	-0.035
-721.835	-174.361	0.103	0.003
-720.821	511.245	0.069	0.162
-719.806	-200.000	0.043	-0.286
-718.791	-200.000	0.008	0.063
-717.777	-200.000	-0.001	0.070
-716.762	-87.603	0.162	0.049
-715.748	-92.630	0.163	-0.046
-714.733	-151.205	0.405	0.031
-713.718	-200.000	-0.017	0.121
-712.704	-31.104	0.188	-0.107
-711.689	28.009	-0.128	-0.109
-710.675	223.429	0.091	-0.147
-709.660	-200.000	-0.003	-0.088
-708.645	-168.378	0.238	0.009
-707.631	-55.032	-0.221	0.100
-706.616	-200.000	-0.019	0.277
-705.602	-75.332	0.211	0.076
-704.587	800.000	0.093	-0.293
-703.572	-200.000	0.044	-0.204
-702.558	-200.000	0.014	0.193
-701.543	208.419	0.154	-0.242
-700.529	58.543	-0.208	0.206
-699.514	464.132	-0.043	-0.097
-698.499	-135.551	-0.264	0.032
-697.485	-177.317	-0.192	0.005
-696.470	-200.000	0.066	-0.345
-695.456	800.000	0.082	0.256
-694.441	-118.766	-0.136	0.024
-693.426	-72.922	0.130	-0.048
-692.412	-200.000	0.038	0.280
-691.397	-43.471	-0.283	-0.144
-690.383	-117.034	0.043	-0.008
-689.368	44.461	0.119	0.110
-688.354	-200.000	-0.030	0.134
-687.339	-100.168	0.199	-0.050
-686.324	477.770	0.059	-0.135
-685.310	70.847	0.306	-0.319
-684.295	-52.680	-0.057	-0.027
-683.281	517.167	-0.084	-0.197
-682.266	-35.377	0.125	-0.068
-681.251	741.660	0.103	0.278
-680.237	681.342	-0.131	0.343
-679.222	800.000	0.127	0.421
-678.208	-200.000	-0.032	-0.198
-677.193	212.471	-0.099	-0.158
-676.178	-100.445	0.091	0.023
-675.164	-153.530	-0.170	-0.012
-674.149	-37.253	0.237	0.128
-673.135	-200.000	-0.002	0.038
-672.120	-173.775	0.263	0.008
-671.105	69.159	0.098	0.101
-670.091	-191.697	0.267	-0.003
-669.076	-27.126	0.180	0.105
-668.062	-4.347	-0.163	-0.114
-667.047	59.053	0.258	0.255
-666.032	-12.362	-0.181	-0.119
-665.018	-200.000	-0.022	-0.230
-664.003	-200.000	0.033	0.333
-662.989	-140.893	-0.304	0.032
-661.974	-65.420	-0.456	-0.184
-660.959	61.937	-0.154	-0.154
-659.945	-105.295	0.403	0.093
-658.930	-57.728	-0.167	-0.074
-657.916	800.000	0.015	-0.059
-656.901	362.190	0.163	-0.329
-655.886	-155.218	0.258	0.017
-654.872	757.223	0.023	-0.064
-653.857	239.019	0.090	-0.150
-652.843	-146.824	0.040	0.003
-651.828	365.602	0.183	-0.372
-650.814	-61.071	-0.343	0.146
-649.799	590.239	-0.116	0.289
-648.784	516.250	0.112	0.264
-647.770	307.355	0.077	0.144
-646.755	-195.365	0.096	-0.001
-645.741	-67.695	0.143	-0.056
-644.726	93.680	0.120	0.136
-643.711	5.216	0.075	-0.056
-642.697	-170.408	-0.130	-0.005
-641.682	562.616	0.130	-0.315
-640.668	25.243	-0.258	0.216
-639.653	-189.525	-0.292	-0.003
-638.638	639.822	-0.042	-0.108
-637.624	-180.309	0.495	0.010
-636.609	-200.000	-0.033	-0.221
-635.595	-200.000	-0.017	0.305
-634.580	-125.724	0.117	0.018
-633.565	150.799	-0.031	0.043
-632.551	-0.297	-0.192	0.137
-631.536	-200.000	0.044	-0.332
-630.522	232.450	-0.046	-0.076
-629.507	311.797	0.064	0.121
-628.492	84.949	0.189	0.208
-627.478	-200.000	0.089	0.427
-626.463	-21.492	0.165	-0.101
-625.449	-58.121	0.375	0.164
-624.434	-51.051	-0.222	0.105
-623.419	-80.162	-0.519	-0.175
-622.405	210.317	0.138	0.218
-621.390	800.000	0.023	0.102
-620.376	-126.547	0.168	0.025
-619.361	139.042	0.159	0.210
-618.346	787.071	0.139	0.384
-617.332	-0.979	0.233	-0.165
-616.317	800.000	-0.059	0.183
-615.303	800.000	-0.142	-0.419
-614.288	-200.000	-0.007	-0.281
-613.273	-22.550	0.175	0.107
-612.259	800.000	-0.013	-0.046
-611.244	-22.066	-0.154	0.094
-610.230	-13.296	0.243	-0.159
-609.215	130.291	0.061	-0.078
-608.201	473.715	-0.105	-0.238
-607.186	-141.621	0.082	-0.008
-606.171	-200.000	0.042	0.297
-605.157	-125.936	0.111	0.017
-604.142	-102.159	0.187	0.045
-603.128	-200.000	0.035	-0.315
-602.113	-89.706	-0.079	0.023
-601.098	-105.354	-0.276	-0.063
-600.084	-200.000	-0.007	0.514
-599.069	218.462	0.080	0.129
-598.055	-200.000	0.043	0.373
-597.040	-80.978	-0.370	0.123
-596.025	-153.590	-0.396	-0.027
-595.011	-200.000	-0.011	0.071
-593.996	297.777	0.079	0.146
-592.982	108.368	0.240	-0.287
-591.967	-83.193	0.225	-0.072
-590.952	800.000	-0.083	0.281
-589.938	-180.503	0.073	0.002
-588.923	-124.444	0.211	0.033
-587.909	147.551	0.144	0.194
-586.894	-146.085	0.208	-0.018
-585.879	-13.516	-0.145	-0.094
-584.865	800.000	-0.049	-0.215
-583.850	-166.993	-0.162	-0.007
-582.836	-200.000	0.047	-0.378
-581.821	-25.617	-0.352	-0.208
-580.806	207.702	0.264	0.414
-579.792	-123.132	0.303	0.049
-578.777	800.000	0.022	0.065
-577.763	-200.000	0.000	-0.017
-576.748	-56.732	-0.217	-0.096
-575.733	53.023	-0.202	0.194
-574.719	-67.896	0.219	-0.086
-573.704	19.271	-0.203	-0.163
-572.690	136.917	0.111	-0.145
-571.675	158.428	-0.082	0.115
-570.661	-133.216	-0.158	0.020
-569.646	168.789	0.054	0.077
-568.631	342.129	0.187	-0.367
-567.617	-103.110	-0.172	-0.041
-566.602	-150.399	0.069	-0.005
-565.588	-110.924	-0.167	0.034
-564.573	-65.450	0.100	0.040
-563.558	-200.000	-0.108	-0.525
-562.544	-100.711	-0.257	0.063
-561.529	-83.874	0.023	-0.007
-560.515	800.000	0.010	0.045
-559.500	464.594	-0.124	-0.279
-558.485	-126.455	-0.455	0.068
-557.471	94.058	-0.153	0.174
-556.456	133.252	-0.058	-0.075
-555.442	110.686	-0.210	-0.253
-554.427	-3.978	-0.080	-0.056
-553.412	-55.102	-0.399	-0.180
-552.398	519.320	-0.073	0.170
-551.383	-52.388	0.042	-0.019
-550.369	-69.096	0.179	0.069
-549.354	-200.000	-0.044	0.340
-548.339	-200.000	-0.004	0.326
-547.325	307.334	0.207	-0.387
-546.310	-72.014	0.122	-0.045
-545.296	482.706	-0.168	-0.383
-544.281	800.000	0.097	0.368
-543.266	375.217	-0.016	0.032
-542.252	258.212	-0.084	-0.145
-541.237	-200.000	0.038	-0.184
-540.223	-200.000	0.064	-0.309
-539.208	256.216	0.131	0.226
-538.193	-33.365	-0.206	-0.114
-537.179	-131.554	0.270	-0.036
-536.164	640.197	0.076	-0.193
-535.150	450.380	0.051	-0.114
-534.135	800.000	-0.053	-0.171
-533.121	-33.040	-0.357	0.198
-532.106	115.707	-0.038	-0.046
-531.091	800.000	-0.066	-0.279
-530.077	-173.510	0.098	-0.003
-529.062	-200.000	-0.010	0.174
-528.048	-46.384	0.388	-0.191
-527.033	304.653	-0.115	-0.214
-526.018	-34.810	-0.436	0.238
-525.004	-200.000	0.019	0.186
-523.989	72.785	0.050	-0.052
-522.975	800.000	0.064	0.184
-521.960	153.139	0.042	0.058
-520.945	273.473	0.275	-0.486
-519.931	596.916	-0.072	0.178
-518.916	699.876	-0.137	0.360
-517.902	49.357	0.098	0.092
-516.887	-200.000	-0.067	0.453
-515.872	4.516	-0.140	0.103
-514.858	-200.000	0.003	-0.148
-513.843	-200.000	0.002	0.107
-512.829	800.000	-0.085	-0.296
-511.814	211.922	0.101	0.159
-510.799	788.977	-0.036	-0.098
-509.785	-53.664	0.157	-0.072
-508.770	-112.029	-0.159	0.032
-507.756	-32.576	-0.156	-0.087
-506.741	-85.545	0.147	0.046
-505.726	-90.556	0.201	-0.058
-504.712	56.941	0.142	-0.138
-503.697	-2.660	0.136	-0.095
-502.683	-72.205	0.254	-0.094
-501.668	-93.668	-0.584	0.161
-500.653	-200.000	-0.006	-0.311
-499.639	256.740	-0.027	-0.047
-498.624	180.469	0.099	-0.145
-497.610	-9.574	0.265	0.176
-496.595	-200.000	-0.034	0.205
-495.581	800.000	-0.062	0.175
-494.566	106.373	-0.074	0.088
-493.551	-200.000	-0.004	0.085
-492.537	43.381	0.034	0.031
-491.522	-128.091	-0.095	-0.014
-490.508	40.031	0.244	-0.219
-489.493	-200.000	-0.017	-0.080
-488.478	56.018	-0.038	0.037
-487.464	-200.000	0.009	-0.228
-486.449	340.429	0.174	0.340
-485.435	-13.004	-0.103	-0.067
-484.420	800.000	-0.010	0.031
-483.405	22.110	0.216	-0.176
-482.391	53.430	-0.198	0.189
-481.376	209.313	-0.104	0.163
-480.362	-117.552	-0.268	0.048
-479.347	-83.079	0.135	0.043
-478.332	-149.772	0.617	0.048
-477.318	-31.427	0.224	-0.126
-476.303	-200.000	-0.015	-0.196
-475.289	156.687	-0.036	-0.049
-474.274	74.943	0.036	-0.038
-473.259	35.694	0.154	-0.135
-472.245	34.180	0.148	0.129
-471.230	-37.333	0.210	0.112
-470.216	800.000	-0.091	0.392
-469.201	-147.455	-0.086	0.007
-468.186	-43.648	0.032	-0.016
-467.172	-200.000	-0.001	-0.018
-466.157	79.172	-0.213	0.228
-465.143	15.817	-0.040	0.031
-464.128	-200.000	-0.003	0.032
-463.113	-26.989	0.313	-0.182
-462.099	-200.000	-0.053	-0.430
-461.084	160.757	-0.237	-0.331
-460.070	-200.000	-0.020	-0.163
-459.055	-82.956	0.245	-0.079
-458.040	-65.871	0.233	-0.093
-457.026	-20.481	-0.040	-0.024
-456.011	49.283	-0.050	0.047
-454.997	-162.660	-0.385	0.019
-453.982	-200.000	-0.006	-0.033
-452.968	-175.027	0.186	-0.005
-451.953	-200.000	0.013	0.173
-450.938	800.000	0.053	0.186
-449.924	27.773	0.029	0.024
-448.909	173.341	-0.110	0.158
-447.895	-200.000	0.036	0.380
-446.880	130.629	-0.105	-0.135
-445.865	292.850	0.165	0.299
-444.851	209.928	-0.098	0.153
-443.836	384.194	-0.071	0.146
-442.822	17.251	-0.282	0.223
-441.807	-200.000	-0.014	0.312
-440.792	102.682	0.041	0.048
-439.778	761.349	0.064	-0.174
-438.763	-49.144	-0.056	-0.027
-437.749	-127.103	-0.337	0.049
-436.734	-200.000	0.019	0.231
-435.719	201.667	0.129	-0.199
-434.705	-126.412	0.088	-0.013
-433.690	-197.601	-0.367	0.002
-432.676	122.299	-0.229	-0.286
-431.661	-52.213	0.124	0.057
-430.646	-97.458	0.258	-0.067
-429.632	239.722	0.279	0.464
-428.617	-73.738	-0.187	-0.068
-427.603	20.207	0.268	-0.216
-426.588	-154.191	0.055	0.004
-425.573	273.040	0.085	-0.150
-424.559	184.681	-0.095	-0.141
-423.544	-105.065	0.165	0.038
-422.530	-142.532	-0.332	-0.033
-421.515	-200.000	-0.049	0.241
-420.500	800.000	0.098	-0.356
-419.486	-10.790	-0.143	0.094
-418.471	-40.037	0.222	-0.115
-417.457	380.691	-0.108	0.220
-416.442	-9.067	-0.212	-0.141
-415.428	90.725	-0.084	0.094
-414.413	149.222	-0.099	0.133
-413.398	-185.250	0.277	-0.004
-412.384	-11.786	-0.240	-0.157
-411.369	-156.560	0.192	0.012
-410.355	-81.195	-0.343	0.113
-409.340	-25.300	-0.174	0.103
-408.325	168.575	-0.092	-0.130
-407.311	303.603	0.074	-0.137
-406.296	363.871	0.059	0.118
-405.282	-151.896	-0.273	-0.020
-404.267	-68.465	0.156	-0.060
-403.252	45.130	0.200	-0.183
-402.238	-117.037	-0.107	0.019
-401.223	114.114	0.234	-0.283
-400.209	66.587	-0.114	0.116
-399.194	-8.676	0.093	0.062
-398.179	44.199	-0.147	-0.134
-397.165	7.413	0.209	-0.155
-396.150	800.000	-0.077	0.228
-395.136	-200.000	-0.056	-0.611
-394.121	-51.747	0.312	0.145
-393.106	-200.000	0.015	0.258
-392.092	-200.000	0.018	0.146
-391.077	800.000	-0.068	0.198
-390.063	-65.345	-0.073	-0.029
-389.048	273.930	-0.196	0.346
-388.033	266.159	0.097	-0.169
-387.019	-200.000	-0.007	-0.097
-386.004	-200.000	-0.002	-0.294
-384.990	-200.000	0.019	-0.087
-383.975	800.000	0.084	0.289
-382.960	92.464	-0.066	0.074
-381.946	800.000	0.045	0.132
-380.931	800.000	-0.075	0.327
-379.917	174.115	-0.076	0.109
-378.902	-127.744	0.093	-0.013
-377.888	264.131	-0.089	-0.154
-376.873	-200.000	0.016	-0.306
-375.858	7.107	-0.065	-0.048
-374.844	800.000	0.068	0.230
-373.829	-200.000	0.036	0.183
-372.815	-200.000	-0.052	0.262
-371.800	-63.863	-0.235	-0.096
-370.785	-117.273	0.415	0.075
-369.771	-200.000	-0.030	0.317
-368.756	-194.981	0.113	-0.001
-367.742	320.104	0.078	-0.148
-366.727	95.758	0.316	0.358
-365.712	-64.557	0.012	0.005
-364.698	-43.464	-0.208	-0.104
-363.683	-200.000	-0.001	0.127
-362.669	101.995	0.108	-0.125
-361.654	-100.811	0.179	-0.044
-360.639	42.979	0.152	-0.138
-359.625	218.325	0.100	0.159
-358.610	-98.060	0.282	-0.072
-357.596	-200.000	-0.012	-0.320
-356.581	-200.000	-0.040	0.326
-355.566	-121.056	-0.219	0.037
-354.552	-129.131	-0.152	-0.021
-353.537	-10.291	0.368	0.243
-352.523	24.634	0.321	-0.264
-351.508	-129.497	0.162	0.022
-350.493	-200.000	-0.012	-0.110
-349.479	-34.463	-0.232	-0.126
-348.464	-136.571	-0.204	0.023
-347.450	-200.000	0.015	0.117
-346.435	741.779	-0.095	0.253
-345.420	191.267	0.073	-0.109
-344.406	-200.000	-0.019	-0.195
-343.391	5.817	0.159	-0.117
-342.377	-200.000	-0.113	-0.735
-341.362	-87.577	-0.125	-0.038
-340.348	230.351	0.045	-0.074
-339.333	-200.000	0.039	0.448
-338.318	-200.000	0.010	-0.282
-337.304	-200.000	0.030	-0.299
-336.289	254.161	-0.046	0.078
-335.275	-200.000	0.007	0.074
-334.260	-23.904	0.116	0.069
-333.245	-200.000	-0.010	-0.162
-332.231	10.380	0.165	-0.125
-331.216	-60.381	-0.402	0.170
-330.202	101.083	-0.098	0.114
-329.187	53.634	0.108	-0.103
-328.172	-151.892	0.129	0.009
-327.158	-94.323	-0.306	0.083
-326.143	-80.669	0.146	-0.048
-325.129	-104.226	0.357	0.082
-324.114	193.736	0.113	0.170
-323.099	25.663	-0.083	-0.069
-322.085	-161.251	-0.123	-0.006
-321.070	-43.150	-0.123	0.062
-320.056	63.590	-0.216	0.216
-319.041	436.001	0.158	0.341
-318.026	665.574	-0.047	0.121
-317.012	-33.429	0.199	0.109
-315.997	-123.023	0.329	-0.053
-314.983	-80.725	0.404	-0.133
-313.968	-200.000	-0.027	0.196
-312.953	-16.775	0.201	-0.126
-311.939	-50.638	-0.205	-0.096
-310.924	85.432	0.152	-0.166
-309.910	-5.724	-0.114	0.077
-308.895	40.532	0.196	-0.175
-307.880	-200.000	-0.016	-0.246
-306.866	-112.540	-0.108	-0.021
-305.851	-138.192	-0.127	0.014
-304.837	-9.052	-0.040	0.026
-303.822	-200.000	-0.014	-0.279
-302.807	251.927	-0.034	0.057
-301.793	-200.000	0.021	0.137
-300.778	46.649	-0.093	-0.085
-299.764	-50.129	0.255	0.120
-298.749	-79.978	0.151	0.050
-297.735	14.139	-0.148	-0.114
-296.720	-200.000	0.009	-0.143
-295.705	-17.396	-0.067	-0.042
-294.691	159.718	-0.105	0.145
-293.676	-149.820	-0.273	-0.021
-292.662	550.305	-0.119	-0.284
-291.647	-9.592	0.219	-0.145
-290.632	-19.994	-0.239	0.146
-289.618	-138.101	-0.157	-0.017
-288.603	800.000	-0.076	-0.298
-287.589	-90.932	0.237	-0.068
-286.574	-200.000	0.021	0.191
-285.559	90.791	-0.131	0.146
-284.545	27.741	-0.142	-0.118
-283.530	545.737	0.111	-0.264
-282.516	-200.000	-0.019	0.107
-281.501	560.540	-0.080	0.193
-280.486	87.299	-0.118	-0.130
-279.472	-200.000	0.021	-0.249
-278.457	-186.890	-0.141	0.002
-277.443	397.699	0.024	0.051
-276.428	450.656	0.024	0.052
-275.413	-105.136	0.403	0.091
-274.399	-72.453	0.252	0.092
-273.384	800.000	-0.045	0.133
-272.370	365.476	0.127	-0.253
-271.355	424.969	0.060	0.128
-270.340	4.639	-0.152	-0.111
-269.326	-200.000	0.005	-0.104
-268.311	3.867	0.096	0.070
-267.297	9.271	-0.205	-0.154
-266.282	-177.037	0.180	0.004
-265.267	37.347	0.059	-0.052
-264.253	-79.540	0.465	-0.156
-263.238	-130.287	-0.273	-0.037
-262.224	108.922	-0.138	0.164
-261.209	280.483	-0.164	0.291
-260.195	-66.549	-0.247	0.097
-259.180	-174.051	0.118	0.003
-258.165	59.252	-0.018	0.018
-257.151	-36.359	-0.298	-0.159
-256.136	86.010	0.073	-0.079
-255.122	-125.045	-0.241	-0.037
-254.107	-58.191	0.125	0.054
-253.092	26.978	0.166	0.138
-252.078	175.427	-0.091	0.131
-251.063	800.000	0.099	-0.291
-250.049	190.934	-0.064	0.095
-249.034	800.000	0.031	-0.096
-248.019	-200.000	-0.007	0.080
-247.005	-67.865	-0.142	0.055
-245.990	-123.430	-0.129	-0.020
-244.976	91.631	-0.081	-0.091
-243.961	800.000	0.059	0.245
-242.946	-82.344	0.103	-0.033
-241.932	302.343	0.079	0.145
-240.917	-132.111	-0.147	0.019
-239.903	-35.609	-0.052	-0.028
-238.888	92.426	-0.172	0.192
-237.873	-159.606	0.322	0.018
-236.859	734.039	0.033	0.087
-235.844	-7.009	-0.135	-0.090
-234.830	283.713	0.034	0.060
-233.815	299.349	-0.113	-0.206
-232.800	170.177	0.022	-0.031
-231.786	4.178	0.057	-0.041
-230.771	-25.793	0.056	0.032
-229.757	90.820	-0.122	-0.136
-228.742	165.546	0.193	-0.271
-227.727	206.191	-0.110	0.170
-226.713	-30.133	0.099	0.056
-225.698	-25.672	-0.328	-0.192
-224.684	-73.134	0.173	0.063
-223.669	52.785	0.126	-0.119
-222.655	-200.000	-0.011	0.217
-221.640	221.210	0.078	-0.124
-220.625	-24.824	-0.163	-0.096
-219.611	746.354	0.088	-0.234
-218.596	435.409	0.090	0.194
-217.582	13.729	-0.101	-0.078
-216.567	-10.586	-0.179	0.117
-215.552	-43.479	-0.031	-0.016
-214.538	8.569	-0.062	-0.046
-213.523	-29.103	0.279	-0.158
-212.509	-200.000	-0.007	0.080
-211.494	156.140	0.107	0.146
-210.479	-200.000	-0.024	-0.239
-209.465	-200.000	0.019	-0.112
-208.450	800.000	-0.058	0.214
-207.436	100.616	-0.289	0.332
-206.421	-52.448	-0.274	0.125
-205.406	-99.720	-0.112	0.028
-204.392	156.203	-0.182	-0.248
-203.377	-84.894	0.136	-0.042
-202.363	-24.112	0.241	-0.142
-201.348	-52.119	0.160	0.073
-200.333	39.426	0.029	-0.026
-199.319	-44.014	-0.201	-0.100
-198.304	-82.240	-0.226	-0.073
-197.290	-200.000	-0.014	-0.098
-196.275	144.110	0.206	-0.271
-195.260	-59.054	0.081	0.035
-194.246	-70.981	0.313	0.117
-193.231	598.360	-0.050	-0.122
-192.217	18.880	0.213	-0.169
-191.202	-83.753	-0.335	0.105
-190.187	-7.310	-0.139	0.093
-189.173	-117.984	0.124	0.022
-188.158	-18.035	-0.178	0.110
-187.144	-200.000	-0.052	0.377
-186.129	332.523	0.106	0.202
-185.114	-200.000	0.015	-0.100
-184.100	-56.959	-0.291	-0.127
-183.085	259.466	0.092	0.157
-182.071	-18.942	0.249	-0.153
-181.056	-128.508	0.086	0.012
-180.042	-2.626	0.181	0.125
-179.027	-200.000	-0.036	0.161
-178.012	-70.612	-0.159	-0.059
-176.998	-200.000	0.037	-0.248
-175.983	800.000	-0.059	0.174
-174.969	114.183	0.181	0.218
-173.954	-90.559	-0.166	0.048
-172.939	350.465	-0.115	-0.225
-171.925	800.000	0.031	-0.103
-170.910	-200.000	0.034	0.182
-169.896	-200.000	-0.011	-0.126
-168.881	520.218	0.125	0.290
-167.866	800.000	0.033	-0.139
-166.852	-150.731	-0.498	-0.037
-165.837	234.214	-0.163	-0.265
-164.823	58.350	-0.157	0.152
-163.808	168.775	-0.163	-0.230
-162.793	-67.263	-0.141	-0.055
-161.779	-200.000	-0.007	-0.036
-160.764	-200.000	0.042	-0.240
-159.750	-200.000	-0.029	-0.167
-158.735	-70.743	0.060	0.022
-157.720	73.117	0.062	0.064
-156.706	169.748	-0.097	0.137
-155.691	195.023	0.055	-0.083
-154.677	-85.273	-0.292	0.090
-153.662	154.615	-0.141	-0.192
-152.647	-106.960	0.388	0.085
-151.633	69.360	-0.137	-0.139
-150.618	-200.000	-0.055	-0.486
-149.604	67.450	0.125	-0.126
-148.589	326.141	0.062	0.117
-147.574	-65.467	0.285	-0.113
-146.560	63.149	0.210	0.207
-145.545	800.000	0.025	0.081
-144.531	49.723	-0.241	0.224
-143.516	-200.000	-0.013	-0.231
-142.502	-43.400	0.047	-0.024
-141.487	800.000	-0.068	0.263
-140.472	800.000	0.058	-0.160
-139.458	300.958	-0.053	0.096
-138.443	-84.573	0.170	-0.053
-137.429	165.086	0.258	0.359
-136.414	-79.195	0.280	0.094
-135.399	-125.242	0.170	-0.026
-134.385	596.524	-0.010	-0.024
-133.370	-169.324	0.335	-0.012
-132.356	-115.859	0.190	-0.035
-131.341	-32.575	0.085	0.047
-130.326	-200.000	-0.036	-0.222
-129.312	-100.092	-0.191	0.047
-128.297	-200.000	0.224	0.001
-127.283	140.109	0.145	-0.189
-126.268	32.161	0.468	0.398
-125.253	-200.000	-0.003	0.025
-124.239	-126.630	-0.197	0.029
-123.224	800.000	0.036	0.123
-122.210	-29.112	-0.083	0.047
