DTS Sentinel unit serial number:	SN413079Multiplexer serial number:	ORYXHardware model number:	OX4-SRSoftware version number:	ORYX F/W v4.00 Oryx Data Collector v3.7.2.0data status	okinstallation	princeton_trtdifferential loss correction	single-endedforward channel	channel 1reverse channel	N/Adate	2019/09/16time	10:14:35forward acquisition time	60.00reverse acquisition time	0.00gamma	496.2192k internal	0.2311k external	0.2311temperature offset calibration	0.9962default loss term (dB/km)	0.3790temperature slope calibration	1.0000multiplexer offset coefficient	1.0000multiplexer slope coefficient	1.0000fibre end	0.00T internal ref (°C)	34.33T ext. ref 1 (°C)	12.47T ext. ref 2 (°C)	33.17length (m)	temperature (°C)	Stokes	anti-Stokes-747.200	226.416	0.115	0.190
-746.185	333.011	-0.115	0.226
-745.171	18.322	-0.155	0.125
-744.156	-200.000	0.006	0.029
-743.142	-200.000	-0.030	0.226
-742.127	-187.751	0.332	0.004
-741.112	49.949	-0.313	-0.299
-740.098	-200.000	0.001	-0.185
-739.083	215.663	0.153	0.246
-738.069	-200.000	0.080	0.434
-737.054	-82.337	-0.138	-0.046
-736.039	-200.000	0.065	-0.321
-735.025	12.037	0.185	0.144
-734.010	250.336	-0.156	-0.268
-732.996	800.000	0.079	-0.288
-731.981	-200.000	-0.012	-0.159
-730.966	-181.856	0.231	0.004
-729.952	110.814	0.151	-0.184
-728.937	-200.000	0.031	0.243
-727.923	800.000	0.102	-0.392
-726.908	69.419	-0.083	0.087
-725.894	126.690	0.175	-0.225
-724.879	793.385	0.081	-0.227
-723.864	-200.000	0.007	-0.229
-722.850	-89.456	-0.261	-0.078
-721.835	-19.356	-0.226	-0.142
-720.821	-43.092	-0.190	0.098
-719.806	458.461	-0.116	0.262
-718.791	317.650	0.109	0.209
-717.777	800.000	0.100	-0.364
-716.762	-138.798	-0.102	-0.011
-715.748	351.124	0.145	0.290
-714.733	-57.980	0.177	0.079
-713.718	800.000	-0.048	0.174
-712.704	-1.788	0.176	-0.125
-711.689	-51.229	0.534	-0.253
-710.675	-88.534	0.332	-0.100
-709.660	-152.654	-0.189	-0.014
-708.645	-49.713	0.243	-0.117
-707.631	-160.205	-0.316	0.017
-706.616	800.000	-0.105	0.380
-705.602	-31.138	-0.219	0.125
-704.587	-54.414	-0.280	0.129
-703.572	-89.811	-0.083	0.025
-702.558	-54.847	0.127	-0.058
-701.543	46.437	-0.242	-0.228
-700.529	32.990	0.216	-0.190
-699.514	-79.855	0.211	0.072
-698.499	145.999	-0.007	0.009
-697.485	-191.095	-0.153	0.002
-696.470	-39.894	0.253	0.134
-695.456	-54.720	-0.126	0.058
-694.441	157.773	-0.134	-0.188
-693.426	-200.000	-0.005	-0.129
-692.412	112.169	-0.270	-0.331
-691.397	-121.354	0.238	0.040
-690.383	800.000	0.078	0.241
-689.368	43.436	0.274	0.253
-688.354	-200.000	-0.005	0.329
-687.339	140.063	0.035	0.047
-686.324	-200.000	-0.027	0.142
-685.310	-14.343	0.241	0.157
-684.295	-158.729	-0.387	0.022
-683.281	-46.295	-0.207	-0.103
-682.266	-107.016	0.239	-0.053
-681.251	401.135	-0.072	-0.152
-680.237	800.000	0.063	0.274
-679.222	-84.275	0.068	0.022
-678.208	-102.061	-0.157	-0.038
-677.193	13.795	0.189	-0.149
-676.178	-200.000	-0.037	0.273
-675.164	94.167	0.168	-0.193
-674.149	-200.000	-0.010	0.083
-673.135	-200.000	-0.009	-0.312
-672.120	800.000	-0.049	-0.217
-671.105	-19.528	-0.189	-0.118
-670.091	-127.644	0.117	-0.017
-669.076	-9.391	0.256	-0.173
-668.062	-104.199	0.077	0.018
-667.047	-96.963	0.141	-0.037
-666.032	-200.000	-0.028	0.207
-665.018	-147.104	0.226	0.020
-664.003	-159.715	-0.082	-0.005
-662.989	-200.000	-0.062	0.301
-661.974	-200.000	0.064	-0.290
-660.959	-160.760	-0.049	0.003
-659.945	337.918	0.043	-0.084
-658.930	-127.396	-0.309	0.046
-657.916	66.746	0.147	-0.152
-656.901	-88.240	0.114	-0.034
-655.886	-131.530	0.049	-0.007
-654.872	-31.556	-0.112	0.064
-653.857	-200.000	0.005	0.180
-652.843	111.941	-0.102	-0.124
-651.828	800.000	-0.060	-0.252
-650.814	-0.183	-0.274	-0.197
-649.799	220.150	-0.076	-0.124
-648.784	-200.000	-0.005	-0.031
-647.770	145.418	-0.046	-0.063
-646.755	185.570	0.079	-0.119
-645.741	260.765	-0.077	0.135
-644.726	800.000	0.013	0.044
-643.711	129.218	0.153	-0.197
-642.697	-171.620	0.125	-0.004
-641.682	-83.889	0.420	-0.135
-640.668	800.000	0.033	-0.134
-639.653	96.728	-0.267	0.310
-638.638	393.437	-0.076	0.160
-637.624	-129.053	0.390	-0.055
-636.609	67.028	0.181	-0.186
-635.595	-200.000	-0.032	-0.171
-634.580	800.000	-0.107	-0.340
-633.565	-200.000	0.120	-0.607
-632.551	2.043	-0.347	-0.253
-631.536	800.000	0.054	-0.172
-630.522	57.195	0.111	-0.110
-629.507	-68.963	-0.275	-0.107
-628.492	800.000	0.025	0.089
-627.478	-200.000	-0.033	0.200
-626.463	800.000	0.065	-0.221
-625.449	-200.000	0.006	-0.095
-624.434	129.682	-0.148	-0.191
-623.419	-148.753	-0.364	-0.030
-622.405	-20.603	-0.325	0.202
-621.390	-12.299	-0.172	0.114
-620.376	-37.850	-0.391	0.210
-619.361	-0.154	-0.084	0.060
-618.346	109.640	0.127	-0.154
-617.332	22.500	0.128	0.106
-616.317	800.000	-0.096	0.335
-615.303	-159.989	0.145	-0.008
-614.288	-60.092	0.305	0.132
-613.273	461.991	-0.102	0.229
-612.259	-31.387	0.149	-0.084
-611.244	650.744	0.039	0.100
-610.230	-38.718	-0.086	-0.046
-609.215	-14.982	-0.307	0.199
-608.201	378.330	-0.022	-0.045
-607.186	363.416	-0.098	0.200
-606.171	-85.976	-0.133	0.042
-605.157	411.205	0.098	-0.210
-604.142	-64.533	0.166	0.068
-603.128	-87.829	0.177	0.054
-602.113	-98.119	0.059	0.015
-601.098	675.433	-0.060	0.159
-600.084	-103.723	-0.100	-0.024
-599.069	-61.231	-0.395	-0.168
-598.055	-80.714	-0.181	0.061
-597.040	-200.000	-0.007	-0.157
-596.025	61.488	0.162	0.162
-595.011	-200.000	-0.009	-0.101
-593.996	-36.594	0.313	0.170
-592.982	239.371	0.115	-0.193
-591.967	264.158	-0.115	-0.202
-590.952	-200.000	-0.018	-0.169
-589.938	57.579	0.123	-0.121
-588.923	800.000	-0.061	0.205
-587.909	55.879	-0.230	0.225
-586.894	-169.025	-0.358	-0.013
-585.879	-100.767	0.256	0.064
-584.865	-4.195	-0.399	-0.278
-583.850	47.908	-0.262	-0.247
-582.836	-200.000	0.014	0.063
-581.821	-71.836	-0.420	0.158
-580.806	154.073	0.040	-0.055
-579.792	180.218	-0.307	-0.454
-578.777	31.060	-0.226	-0.195
-577.763	9.081	0.066	-0.050
-576.748	658.464	-0.028	0.071
-575.733	725.164	-0.094	0.253
-574.719	57.105	-0.110	0.108
-573.704	-118.923	-0.369	-0.065
-572.690	-200.000	0.028	-0.187
-571.675	-200.000	-0.000	0.141
-570.661	800.000	0.074	0.263
-569.646	100.022	0.085	0.100
-568.631	27.441	-0.320	-0.271
-567.617	-126.135	-0.287	0.043
-566.602	800.000	-0.101	0.379
-565.588	800.000	-0.073	0.242
-564.573	-200.000	0.008	-0.120
-563.558	53.383	-0.354	0.342
-562.544	-200.000	-0.052	0.440
-561.529	-108.369	-0.363	-0.079
-560.515	-173.096	0.104	-0.003
-559.500	-200.000	0.004	-0.145
-558.485	-200.000	-0.013	-0.064
-557.471	-5.853	-0.291	0.201
-556.456	93.374	-0.369	-0.421
-555.442	-91.657	-0.245	0.070
-554.427	-76.811	-0.147	0.052
-553.412	163.071	-0.041	-0.058
-552.398	297.653	-0.046	-0.085
-551.383	-17.871	-0.236	-0.149
-550.369	-111.497	-0.253	-0.052
-549.354	213.007	-0.023	-0.036
-548.339	174.859	-0.110	-0.160
-547.325	130.144	0.179	0.231
-546.310	57.766	0.117	-0.116
-545.296	-200.000	0.038	-0.249
-544.281	-200.000	0.010	0.315
-543.266	-200.000	0.087	-0.420
-542.252	170.645	0.219	-0.316
-541.237	57.186	-0.204	-0.200
-540.223	79.467	-0.175	0.189
-539.208	-200.000	0.351	0.001
-538.193	-200.000	0.022	-0.433
-537.179	102.287	0.070	-0.083
-536.164	57.960	0.153	-0.150
-535.150	15.018	-0.082	-0.065
-534.135	-200.000	-0.019	-0.122
-533.121	-90.600	-0.153	-0.045
-532.106	800.000	-0.047	0.156
-531.091	-79.441	-0.212	-0.072
-530.077	-200.000	0.067	-0.327
-529.062	77.526	0.100	0.107
-528.048	-93.162	0.135	0.038
-527.033	-200.000	0.006	-0.318
-526.018	70.754	0.179	-0.186
-525.004	-36.910	-0.051	0.028
-523.989	34.695	0.126	0.111
-522.975	130.351	-0.106	-0.136
-521.960	-200.000	-0.032	-0.216
-520.945	-29.687	0.155	-0.089
-519.931	-200.000	-0.042	-0.275
-518.916	-200.000	0.037	-0.307
-517.902	-200.000	-0.035	0.170
-516.887	15.644	0.106	0.084
-515.872	157.337	0.184	-0.256
-514.858	-3.076	-0.108	-0.076
-513.843	284.147	0.059	0.107
-512.829	50.038	0.206	-0.196
-511.814	-200.000	0.037	-0.242
-510.799	-200.000	-0.029	-0.169
-509.785	-117.012	0.140	-0.026
-508.770	549.991	-0.149	-0.359
-507.756	-17.729	-0.145	-0.091
-506.741	-51.545	0.119	0.056
-505.726	60.101	-0.132	0.132
-504.712	551.941	0.032	-0.078
-503.697	147.397	-0.066	0.090
-502.683	-179.444	0.308	0.007
-501.668	-72.277	0.436	0.162
-500.653	-125.451	0.119	-0.018
-499.639	38.139	-0.122	-0.109
-498.624	295.704	-0.180	0.332
-497.610	-28.605	-0.233	0.135
-496.595	-200.000	-0.057	0.464
-495.581	-9.959	0.174	-0.116
-494.566	10.922	0.079	0.061
-493.551	204.499	-0.061	0.095
-492.537	800.000	0.082	-0.312
-491.522	-157.101	-0.110	0.007
-490.508	91.051	0.188	0.212
-489.493	-200.000	0.016	0.143
-488.478	15.252	-0.243	0.192
-487.464	-47.121	-0.210	-0.103
-486.449	27.182	-0.040	-0.034
-485.435	-52.517	-0.094	-0.044
-484.420	-56.624	0.098	-0.044
-483.405	45.467	0.094	-0.087
-482.391	415.914	0.021	0.045
-481.376	-128.838	-0.271	0.038
-480.362	647.419	-0.147	-0.377
-479.347	-17.152	-0.062	-0.039
-478.332	800.000	-0.053	0.198
-477.318	-200.000	0.028	-0.162
-476.303	-18.251	-0.110	0.069
-475.289	-142.320	-0.062	0.006
-474.274	173.844	0.132	-0.192
-473.259	-18.451	-0.166	-0.104
-472.245	-86.665	-0.184	0.057
-471.230	-29.385	-0.056	-0.032
-470.216	800.000	0.072	-0.204
-469.201	-134.706	-0.221	-0.027
-468.186	488.826	0.098	0.225
-467.172	-200.000	0.006	0.093
-466.157	28.645	-0.297	-0.252
-465.143	-32.023	0.063	0.036
-464.128	-126.836	0.073	0.011
-463.113	-152.902	0.345	-0.024
-462.099	-200.000	0.048	0.382
-461.084	-103.998	-0.130	0.030
-460.070	710.569	0.071	-0.189
-459.055	-69.250	0.123	-0.048
-458.040	84.454	0.164	-0.180
-457.026	-200.000	-0.006	0.291
-456.011	264.038	0.060	-0.105
-454.997	-200.000	0.064	-0.364
-453.982	-107.519	-0.456	0.100
-452.968	-48.376	0.360	-0.174
-451.953	-100.712	-0.143	0.035
-450.938	35.253	0.207	0.182
-449.924	512.022	0.059	-0.139
-448.909	-125.914	0.291	0.044
-447.895	262.471	0.119	-0.207
-446.880	252.939	-0.063	-0.109
-445.865	-22.469	0.134	0.081
-444.851	-57.281	0.203	-0.090
-443.836	-200.000	-0.052	0.303
-442.822	-200.000	0.032	-0.222
-441.807	118.195	-0.113	0.140
-440.792	16.818	-0.083	0.066
-439.778	-104.208	-0.208	-0.049
-438.763	800.000	-0.026	0.113
-437.749	-100.949	-0.295	-0.073
-436.734	-25.522	0.206	0.122
-435.719	-200.000	0.008	-0.110
-434.705	16.305	-0.370	-0.293
-433.690	-61.292	-0.114	-0.048
-432.676	54.573	-0.097	-0.093
-431.661	-114.279	0.101	0.020
-430.646	231.551	0.127	0.208
-429.632	-200.000	-0.026	-0.291
-428.617	599.408	-0.187	0.466
-427.603	800.000	-0.082	-0.243
-426.588	174.200	0.201	-0.292
-425.573	-128.139	0.099	-0.014
-424.559	635.582	0.017	0.042
-423.544	-30.838	-0.046	0.026
-422.530	800.000	-0.074	0.264
-421.515	231.551	-0.174	-0.285
-420.500	-133.671	0.112	0.014
-419.486	127.140	0.274	-0.348
-418.471	239.756	-0.129	-0.215
-417.457	304.531	-0.057	-0.105
-416.442	466.745	0.078	0.175
-415.428	-200.000	0.015	0.106
-414.413	-97.696	0.177	-0.046
-413.398	551.687	-0.108	0.261
-412.384	800.000	0.071	-0.200
-411.369	-109.765	-0.036	0.008
-410.355	-81.898	-0.287	0.094
-409.340	335.965	0.036	0.070
-408.325	466.468	-0.094	0.210
-407.311	29.909	-0.142	0.121
-406.296	-138.742	-0.119	-0.013
-405.282	-153.969	0.311	-0.021
-404.267	20.617	0.198	0.160
-403.252	-200.000	-0.014	-0.076
-402.238	-50.744	0.189	-0.089
-401.223	341.696	0.196	0.385
-400.209	37.530	-0.183	-0.163
-399.194	-200.000	-0.004	0.073
-398.179	179.999	0.019	0.027
-397.165	800.000	0.074	-0.318
-396.150	-200.000	0.012	0.249
-395.136	-163.821	0.181	-0.008
-394.121	102.968	0.135	-0.159
-393.106	-162.475	0.251	0.012
-392.092	7.312	-0.105	-0.078
-391.077	37.672	0.178	-0.158
-390.063	11.762	0.069	-0.053
-389.048	-200.000	-0.060	-0.292
-388.033	561.976	0.080	-0.194
-387.019	229.454	-0.089	-0.146
-386.004	800.000	0.061	0.245
-384.990	-200.000	-0.013	0.300
-383.975	-136.387	0.416	0.048
-382.960	252.541	-0.068	0.115
-381.946	770.059	0.059	-0.160
-380.931	-19.170	0.033	-0.020
-379.917	-150.500	-0.047	0.004
-378.902	135.191	0.036	0.046
-377.888	58.920	-0.104	0.102
-376.873	237.523	0.153	0.254
-375.858	800.000	-0.033	0.128
-374.844	501.195	0.096	0.221
-373.829	94.223	0.150	-0.171
-372.815	119.589	-0.107	-0.133
-371.800	116.709	-0.105	-0.128
-370.785	-129.186	0.363	0.051
-369.771	-200.000	0.026	-0.253
-368.756	-90.010	-0.235	0.069
-367.742	-57.501	0.147	0.065
-366.727	800.000	-0.039	-0.113
-365.712	-200.000	-0.024	0.372
-364.698	150.825	-0.086	0.116
-363.683	-11.252	0.250	0.165
-362.669	685.925	0.124	0.324
-361.654	-49.268	-0.123	0.059
-360.639	244.731	-0.233	0.392
-359.625	200.424	0.142	0.218
-358.610	436.470	0.022	0.048
-357.596	73.387	-0.177	-0.185
-356.581	-85.875	0.242	-0.075
-355.566	-158.741	-0.107	0.006
-354.552	14.260	0.145	0.113
-353.537	-30.038	-0.166	0.094
-352.523	232.263	0.166	0.272
-351.508	-200.000	-0.112	0.536
-350.493	-200.000	0.043	-0.207
-349.479	-35.592	0.423	-0.229
-348.464	80.249	0.101	-0.109
-347.450	-200.000	0.006	0.272
-346.435	-69.660	-0.153	-0.059
-345.420	111.054	-0.093	0.112
-344.406	-133.458	0.216	0.027
-343.391	-200.000	0.002	-0.096
-342.377	272.820	0.078	0.137
-341.362	348.057	-0.175	0.344
-340.348	30.095	0.140	0.119
-339.333	-83.392	0.079	0.025
-338.318	-16.825	0.153	0.096
-337.304	-200.000	-0.012	-0.482
-336.289	-68.695	-0.303	-0.117
-335.275	182.922	0.091	0.134
-334.260	800.000	0.016	0.054
-333.245	-52.044	-0.031	0.014
-332.231	36.827	0.053	-0.046
-331.216	41.719	0.086	0.078
-330.202	129.372	0.197	0.251
-329.187	800.000	-0.023	0.071
-328.172	247.143	0.017	0.029
-327.158	-182.043	-0.234	-0.004
-326.143	-48.911	-0.256	0.122
-325.129	-11.785	0.273	0.179
-324.114	-53.855	0.153	0.070
-323.099	800.000	0.014	0.055
-322.085	124.687	-0.079	-0.099
-321.070	-105.810	-0.434	0.098
-320.056	-28.168	-0.070	0.040
-319.041	-180.660	-0.089	0.002
-318.026	-49.116	0.499	-0.238
-317.012	-66.053	-0.145	-0.058
-315.997	294.121	0.096	0.175
-314.983	-115.071	-0.467	0.089
-313.968	139.813	-0.026	-0.034
-312.953	-94.452	0.328	-0.089
-311.939	-64.040	0.163	0.066
-310.924	-75.098	-0.113	0.040
-309.910	53.351	0.119	0.114
-308.895	0.062	-0.122	0.087
-307.880	-122.619	-0.381	0.062
-306.866	-200.000	-0.001	0.016
-305.851	89.495	-0.093	0.103
-304.837	800.000	-0.052	-0.163
-303.822	-189.596	0.139	0.002
-302.807	-200.000	0.022	-0.135
-301.793	-114.712	-0.023	-0.004
-300.778	18.944	-0.059	-0.047
-299.764	46.169	-0.145	-0.134
-298.749	-15.129	-0.077	0.049
-297.735	-200.000	-0.029	0.165
-296.720	-200.000	-0.022	0.252
-295.705	-19.003	-0.038	-0.024
-294.691	14.459	-0.260	-0.202
-293.676	78.822	0.050	-0.053
-292.662	-200.000	0.016	-0.153
-291.647	-200.000	-0.024	0.133
-290.632	-200.000	-0.009	0.154
-289.618	-200.000	0.005	0.147
-288.603	52.807	0.211	0.201
-287.589	609.233	0.081	-0.202
-286.574	-91.369	0.370	0.106
-285.559	26.790	-0.148	-0.124
-284.545	-200.000	0.002	-0.021
-283.530	-90.067	-0.361	0.105
-282.516	-200.000	-0.025	-0.280
-281.501	-51.864	0.054	-0.025
-280.486	-200.000	-0.012	0.144
-279.472	-200.000	0.005	0.269
-278.457	152.961	0.172	0.234
-277.443	33.137	-0.153	-0.132
-276.428	32.074	0.086	-0.074
-275.413	-141.109	-0.118	0.012
-274.399	535.805	-0.059	0.139
-273.384	-117.506	0.225	0.040
-272.370	167.328	0.204	-0.289
-271.355	-200.000	0.009	0.057
-270.340	101.195	-0.101	-0.117
-269.326	503.263	0.036	-0.084
-268.311	23.451	0.330	-0.270
-267.297	319.122	0.074	-0.139
-266.282	-74.403	-0.219	-0.079
-265.267	256.192	0.018	0.031
-264.253	582.108	-0.251	0.613
-263.238	-101.515	0.186	0.045
-262.224	-200.000	0.013	-0.196
-261.209	81.802	0.154	-0.166
-260.195	-91.287	0.177	0.051
-259.180	104.759	0.102	0.119
-258.165	-42.814	0.193	0.098
-257.151	800.000	0.054	0.209
-256.136	-24.355	0.098	-0.058
-255.122	-162.486	0.040	-0.002
-254.107	-19.595	-0.126	-0.077
-253.092	-200.000	0.003	-0.270
-252.078	241.343	-0.217	0.361
-251.063	13.255	-0.092	-0.071
-250.049	49.734	-0.166	0.156
-249.034	-53.963	-0.210	-0.095
-248.019	63.563	0.057	0.057
-247.005	118.068	-0.176	0.216
-245.990	-200.000	0.015	-0.134
-244.976	-78.021	0.266	0.091
-243.961	-200.000	-0.019	-0.147
-242.946	-33.749	0.247	-0.136
-241.932	-200.000	-0.057	-0.274
-240.917	67.436	0.085	0.086
-239.903	296.247	0.063	0.115
-238.888	138.368	0.100	0.130
-237.873	67.723	0.116	-0.118
-236.859	800.000	-0.047	0.205
-235.844	-25.032	-0.128	-0.075
-234.830	8.000	0.205	0.153
-233.815	-75.351	0.117	-0.042
-232.800	-140.212	0.172	-0.018
-231.786	-200.000	-0.040	0.253
-230.771	-200.000	-0.028	-0.368
-229.757	-200.000	0.032	-0.175
-228.742	800.000	-0.052	-0.174
-227.727	-96.593	0.410	-0.108
-226.713	-106.787	-0.333	0.073
-225.698	46.502	-0.180	0.166
-224.684	70.340	0.054	0.055
-223.669	-72.287	0.297	0.110
-222.655	800.000	0.055	0.199
-221.640	103.068	-0.042	0.049
-220.625	800.000	0.041	-0.121
-219.611	-8.073	-0.202	0.136
-218.596	-200.000	-0.025	-0.192
-217.582	-75.372	0.321	0.114
-216.567	-4.343	0.094	0.064
-215.552	359.536	0.062	0.123
-214.538	800.000	0.051	0.188
-213.523	-109.109	-0.187	-0.039
-212.509	-36.156	0.171	-0.092
-211.494	800.000	0.077	-0.330
-210.479	-35.303	0.182	0.098
-209.465	-48.967	0.159	0.076
-208.450	800.000	0.080	0.252
-207.436	241.978	-0.130	0.215
-206.421	-105.128	0.386	-0.088
-205.406	187.642	0.148	-0.220
-204.392	-64.707	-0.399	0.161
-203.377	20.340	0.329	0.264
-202.363	-144.291	-0.273	-0.025
-201.348	-111.188	-0.057	-0.012
-200.333	607.030	0.173	0.429
-199.319	-98.948	0.380	-0.096
-198.304	186.884	-0.097	-0.143
-197.290	68.251	0.347	-0.353
-196.275	-200.000	0.078	-0.359
-195.260	264.144	0.072	-0.124
-194.246	-72.299	0.314	-0.116
-193.231	-200.000	0.008	0.053
-192.217	196.985	-0.253	-0.383
-191.202	-200.000	0.014	0.085
-190.187	90.639	-0.079	-0.088
-189.173	-128.998	-0.385	-0.054
-188.158	-200.000	0.024	-0.265
-187.144	7.875	0.137	0.102
-186.129	-12.025	0.092	-0.060
-185.114	800.000	-0.066	0.181
-184.100	-101.051	0.490	0.119
-183.085	67.510	-0.093	0.094
-182.071	93.618	0.147	0.165
-181.056	-148.051	-0.511	-0.042
-180.042	26.025	-0.100	-0.083
-179.027	31.477	-0.096	-0.082
-178.012	484.406	0.051	-0.115
-176.998	-165.618	0.314	0.014
-175.983	-35.724	-0.325	0.175
-174.969	47.719	0.104	0.096
-173.954	-200.000	-0.006	0.259
-172.939	61.436	-0.244	0.241
-171.925	-34.827	0.225	-0.122
-170.910	95.635	0.095	0.108
-169.896	125.179	0.237	-0.296
-168.881	288.770	0.074	-0.133
-167.866	36.093	0.245	-0.215
-166.852	-10.092	0.117	0.077
-165.837	107.519	-0.100	-0.118
-164.823	150.362	0.051	-0.069
-163.808	-113.271	-0.124	-0.024
-162.793	-200.000	-0.011	0.251
-161.779	800.000	0.022	0.090
-160.764	800.000	-0.008	0.036
-159.750	-200.000	-0.031	0.409
-158.735	67.401	0.247	0.250
-157.720	-52.595	-0.220	0.101
-156.706	-17.278	-0.035	0.022
-155.691	800.000	0.168	0.525
-154.677	483.927	-0.124	0.281
-153.662	-200.000	-0.054	0.406
-152.647	39.046	0.228	-0.202
-151.633	125.932	-0.139	-0.174
-150.618	-93.060	0.242	-0.067
-149.604	51.824	0.269	0.254
-148.589	800.000	0.058	-0.187
-147.574	-34.032	0.226	-0.124
-146.560	-59.558	-0.238	0.101
-145.545	-66.923	-0.077	-0.030
-144.531	-200.000	0.003	-0.076
-143.516	723.889	0.080	-0.211
-142.502	-0.988	0.436	0.306
-141.487	53.420	0.245	-0.233
-140.472	800.000	-0.033	0.139
-139.458	483.827	-0.101	0.227
-138.443	-72.371	0.066	-0.024
-137.429	329.871	-0.134	-0.255
-136.414	764.881	0.082	-0.222
-135.399	-200.000	-0.043	-0.249
-134.385	275.207	-0.078	-0.137
-133.370	-91.620	0.351	0.099
-132.356	-108.576	-0.311	-0.066
-131.341	238.511	-0.095	-0.156
-130.326	-90.013	0.277	0.080
-129.312	-9.859	-0.061	-0.041
-128.297	514.735	0.115	0.267
-127.283	248.253	0.123	0.206
-126.268	-27.345	0.210	-0.121
-125.253	40.325	-0.103	-0.092
-124.239	-126.274	-0.024	0.004
-123.224	226.588	-0.043	0.069
-122.210	633.593	0.047	-0.118
-121.195	-56.996	0.260	-0.114
