DTS Sentinel unit serial number:	SN413079Multiplexer serial number:	ORYXHardware model number:	OX4-SRSoftware version number:	ORYX F/W v4.00 Oryx Data Collector v3.7.2.0data status	okinstallation	princeton_trtdifferential loss correction	single-endedforward channel	channel 1reverse channel	N/Adate	2019/09/14time	00:14:35forward acquisition time	60.00reverse acquisition time	0.00gamma	496.2192k internal	0.2337k external	0.2337temperature offset calibration	1.0077default loss term (dB/km)	0.3790temperature slope calibration	1.0000multiplexer offset coefficient	1.0000multiplexer slope coefficient	1.0000fibre end	0.00T internal ref (°C)	26.50T ext. ref 1 (°C)	3.17T ext. ref 2 (°C)	21.45length (m)	temperature (°C)	Stokes	anti-Stokes-747.200	800.000	-0.081	0.239
-746.185	-22.086	-0.284	0.173
-745.171	-15.524	0.180	0.116
-744.156	-102.279	-0.258	0.062
-743.142	139.300	0.092	0.122
-742.127	124.700	-0.427	0.540
-741.112	-105.111	0.186	-0.043
-740.098	-155.013	-0.274	0.018
-739.083	177.909	0.116	0.170
-738.069	22.570	-0.065	0.054
-737.054	30.392	-0.231	-0.198
-736.039	-96.441	-0.242	-0.064
-735.025	720.095	0.091	0.242
-734.010	-21.040	-0.378	0.232
-732.996	111.226	-0.117	0.142
-731.981	12.764	-0.239	-0.186
-730.966	-9.366	0.083	-0.056
-729.952	-172.574	-0.289	-0.009
-728.937	-27.684	-0.305	-0.178
-727.923	646.981	0.034	-0.086
-726.908	-200.000	-0.039	-0.212
-725.894	-189.484	-0.247	0.003
-724.879	-61.125	-0.412	-0.174
-723.864	578.035	0.016	-0.040
-722.850	86.570	-0.224	0.248
-721.835	800.000	-0.082	-0.325
-720.821	-133.456	0.044	-0.006
-719.806	185.067	-0.034	0.050
-718.791	-88.809	0.220	0.065
-717.777	-98.836	-0.183	0.047
-716.762	520.463	0.056	-0.131
-715.748	629.847	0.094	-0.239
-714.733	-90.338	-0.209	0.061
-713.718	112.277	-0.183	0.221
-712.704	-200.000	0.051	0.326
-711.689	800.000	-0.104	-0.290
-710.675	-83.681	0.121	0.039
-709.660	-70.692	-0.535	0.203
-708.645	-177.650	0.087	-0.002
-707.631	-6.450	-0.166	0.114
-706.616	6.790	-0.230	-0.171
-705.602	-60.867	-0.206	-0.088
-704.587	-12.060	0.148	-0.097
-703.572	37.247	-0.218	0.194
-702.558	10.857	0.235	-0.180
-701.543	479.871	0.094	-0.213
-700.529	-21.837	-0.085	-0.052
-699.514	-90.469	0.108	0.031
-698.499	-39.870	-0.274	-0.143
-697.485	-55.234	0.244	-0.110
-696.470	88.812	-0.071	-0.079
-695.456	800.000	0.120	-0.409
-694.441	326.626	-0.078	0.149
-693.426	-200.000	-0.008	0.200
-692.412	215.737	0.149	0.237
-691.397	-149.001	-0.248	0.020
-690.383	-12.642	-0.300	0.196
-689.368	-10.016	-0.119	0.079
-688.354	66.943	-0.156	0.159
-687.339	-42.933	0.185	0.094
-686.324	-200.000	-0.026	0.178
-685.310	289.677	0.214	-0.389
-684.295	77.027	0.070	0.075
-683.281	-18.165	0.086	0.054
-682.266	-164.147	0.115	0.005
-681.251	-200.000	-0.023	0.119
-680.237	-200.000	0.037	0.449
-679.222	171.190	-0.131	0.188
-678.208	234.842	-0.037	0.061
-677.193	301.918	0.025	0.047
-676.178	30.131	0.301	-0.257
-675.164	-47.140	-0.101	-0.049
-674.149	-169.769	-0.268	-0.010
-673.135	-108.186	-0.370	0.080
-672.120	-200.000	-0.007	0.244
-671.105	193.978	-0.053	0.080
-670.091	79.607	-0.174	0.187
-669.076	51.249	-0.254	-0.241
-668.062	-48.171	-0.194	0.094
-667.047	80.493	-0.125	-0.134
-666.032	-34.602	0.322	-0.176
-665.018	282.469	-0.130	-0.234
-664.003	-85.489	0.262	0.082
-662.989	487.748	-0.153	-0.349
-661.974	-162.112	0.119	-0.006
-660.959	-26.328	-0.221	-0.130
-659.945	-200.000	-0.004	0.134
-658.930	-37.680	-0.174	-0.093
-657.916	-136.809	-0.018	-0.002
-656.901	-85.492	0.185	0.058
-655.886	-81.307	0.090	0.030
-654.872	-177.823	-0.213	-0.005
-653.857	-112.700	0.119	-0.024
-652.843	-3.241	-0.179	0.125
-651.828	800.000	-0.064	0.217
-650.814	750.960	-0.035	0.095
-649.799	443.237	0.101	0.222
-648.784	-76.843	-0.159	0.056
-647.770	-161.414	-0.359	0.019
-646.755	-200.000	-0.007	0.208
-645.741	177.325	0.194	-0.282
-644.726	800.000	-0.055	-0.164
-643.711	223.729	-0.128	0.206
-642.697	-49.077	0.058	0.028
-641.682	-72.073	0.132	-0.049
-640.668	-200.000	-0.014	0.074
-639.653	-200.000	0.008	-0.353
-638.638	-25.801	-0.286	0.169
-637.624	-148.170	-0.087	-0.007
-636.609	-100.611	-0.241	0.059
-635.595	544.809	-0.042	0.099
-634.580	48.752	0.051	0.048
-633.565	-200.000	-0.002	0.126
-632.551	-200.000	-0.019	-0.125
-631.536	800.000	-0.084	-0.303
-630.522	93.001	0.111	-0.125
-629.507	-200.000	0.001	-0.040
-628.492	125.243	-0.273	0.343
-627.478	205.355	0.236	0.367
-626.463	800.000	0.033	0.127
-625.449	-200.000	-0.022	0.210
-624.434	-91.791	0.174	-0.049
-623.419	800.000	0.062	-0.175
-622.405	-200.000	0.038	-0.286
-621.390	-200.000	0.015	0.263
-620.376	-72.487	-0.236	-0.087
-619.361	-200.000	0.034	-0.174
-618.346	145.357	0.148	0.198
-617.332	-71.990	0.096	-0.036
-616.317	-200.000	0.079	0.352
-615.303	55.471	0.262	0.254
-614.288	-200.000	-0.028	0.150
-613.273	-3.791	-0.214	-0.148
-612.259	800.000	0.116	-0.376
-611.244	-200.000	0.061	-0.275
-610.230	102.311	-0.063	0.073
-609.215	-93.787	-0.317	0.087
-608.201	-165.810	0.365	-0.016
-607.186	-200.000	0.042	-0.232
-606.171	182.921	-0.157	-0.231
-605.157	148.394	-0.189	0.255
-604.142	-132.615	0.360	0.046
-603.128	800.000	-0.125	0.364
-602.113	32.001	0.112	0.096
-601.098	553.580	0.028	0.068
-600.084	-76.779	-0.270	0.095
-599.069	-200.000	0.036	-0.159
-598.055	-60.404	-0.343	0.146
-597.040	-72.402	-0.187	0.069
-596.025	-147.899	-0.090	0.007
-595.011	-200.000	0.017	-0.129
-593.996	180.434	0.095	0.139
-592.982	67.819	0.321	-0.327
-591.967	55.533	0.252	0.244
-590.952	61.455	0.091	0.090
-589.938	-154.329	-0.278	-0.019
-588.923	-200.000	0.006	0.036
-587.909	-200.000	-0.019	0.195
-586.894	-40.496	0.099	-0.051
-585.879	-174.604	-0.112	0.003
-584.865	77.471	-0.216	-0.230
-583.850	162.081	-0.049	0.069
-582.836	-144.583	-0.434	-0.040
-581.821	-99.005	0.212	0.054
-580.806	12.248	0.144	-0.111
-579.792	568.753	0.065	-0.157
-578.777	13.534	0.078	-0.060
-577.763	-200.000	0.029	-0.413
-576.748	-76.138	0.277	0.098
-575.733	-200.000	-0.032	0.269
-574.719	41.022	0.071	0.064
-573.704	100.419	-0.210	-0.243
-572.690	785.515	0.156	0.426
-571.675	81.659	0.146	0.157
-570.661	503.156	0.105	0.242
-569.646	-19.593	0.263	-0.162
-568.631	-22.601	-0.267	0.161
-567.617	65.601	-0.053	-0.054
-566.602	-156.277	-0.130	0.008
-565.588	151.511	-0.128	-0.174
-564.573	-200.000	-0.011	0.130
-563.558	-72.513	0.149	-0.055
-562.544	699.885	0.096	0.253
-561.529	-162.377	0.209	-0.010
-560.515	-123.268	-0.288	-0.046
-559.500	-96.228	-0.204	0.054
-558.485	-7.891	-0.250	-0.168
-557.471	800.000	-0.071	-0.210
-556.456	410.608	0.021	0.044
-555.442	-107.018	0.115	0.025
-554.427	-80.447	-0.163	-0.054
-553.412	283.840	0.070	0.125
-552.398	-29.490	0.254	-0.145
-551.383	135.575	-0.069	0.089
-550.369	365.000	-0.031	-0.061
-549.354	-65.175	0.232	0.093
-548.339	407.967	0.085	-0.180
-547.325	4.153	0.050	0.036
-546.310	-36.273	-0.127	-0.068
-545.296	-110.269	0.330	0.068
-544.281	20.342	0.026	-0.021
-543.266	-143.362	-0.198	0.019
-542.252	169.910	0.268	-0.382
-541.237	363.409	-0.021	0.041
-540.223	-32.982	0.197	-0.109
-539.208	-36.958	0.069	-0.037
-538.193	216.350	-0.133	-0.210
-537.179	-108.738	-0.115	-0.025
-536.164	353.642	-0.065	0.129
-535.150	740.498	0.057	0.152
-534.135	-200.000	-0.030	0.267
-533.121	-100.307	0.149	-0.037
-532.106	-103.673	-0.415	0.097
-531.091	167.985	0.072	-0.102
-530.077	-96.922	-0.116	0.030
-529.062	-38.568	-0.116	0.061
-528.048	225.015	-0.184	0.297
-527.033	-109.073	0.375	0.079
-526.018	-112.103	-0.246	-0.049
-525.004	800.000	-0.115	-0.374
-523.989	429.700	0.207	-0.445
-522.975	104.980	0.097	-0.114
-521.960	68.486	-0.156	0.159
-520.945	800.000	0.006	-0.016
-519.931	-200.000	0.028	0.198
-518.916	-15.097	0.250	0.160
-517.902	368.374	-0.131	-0.264
-516.887	-160.135	0.122	-0.007
-515.872	-10.904	0.087	0.057
-514.858	-105.607	0.259	-0.058
-513.843	277.612	-0.285	0.504
-512.829	-50.276	-0.333	-0.157
-511.814	800.000	-0.098	0.276
-510.799	-200.000	0.016	0.123
-509.785	-200.000	0.017	-0.268
-508.770	384.695	-0.132	0.270
-507.756	644.270	0.058	-0.146
-506.741	-200.000	-0.010	0.245
-505.726	81.657	0.074	-0.079
-504.712	61.538	-0.161	-0.159
-503.697	800.000	0.044	-0.151
-502.683	800.000	0.154	-0.450
-501.668	176.828	0.094	0.136
-500.653	-75.126	-0.063	0.022
-499.639	-200.000	0.009	-0.294
-498.624	-200.000	0.042	0.364
-497.610	-185.849	0.112	-0.002
-496.595	800.000	0.076	-0.211
-495.581	28.937	-0.108	0.091
-494.566	-200.000	0.010	-0.087
-493.551	-86.620	0.095	0.029
-492.537	-200.000	-0.010	-0.055
-491.522	78.499	-0.168	0.178
-490.508	-137.554	0.331	-0.037
-489.493	-200.000	-0.068	0.343
-488.478	-200.000	-0.005	-0.328
-487.464	800.000	-0.037	-0.136
-486.449	486.059	-0.071	0.160
-485.435	-127.300	0.249	0.036
-484.420	-82.368	-0.369	-0.119
-483.405	39.914	0.332	0.296
-482.391	-200.000	-0.010	-0.078
-481.376	-94.070	-0.081	-0.022
-480.362	31.424	-0.112	0.096
-479.347	-67.692	-0.186	0.072
-478.332	-151.903	0.187	-0.014
-477.318	-44.343	-0.061	0.030
-476.303	723.056	-0.155	0.409
-475.289	141.442	0.074	-0.097
-474.274	13.749	-0.070	0.054
-473.259	-128.063	0.209	0.030
-472.245	0.130	0.087	0.061
-471.230	-101.956	0.184	-0.044
-470.216	34.226	-0.206	0.178
-469.201	-200.000	0.037	-0.172
-468.186	-200.000	0.014	0.063
-467.172	-16.384	0.269	-0.169
-466.157	62.450	0.153	0.152
-465.143	484.011	-0.067	0.152
-464.128	-187.325	-0.438	-0.006
-463.113	-94.414	0.193	-0.052
-462.099	52.110	-0.186	-0.176
-461.084	-104.398	-0.231	-0.053
-460.070	473.654	-0.055	0.123
-459.055	-200.000	0.022	0.127
-458.040	800.000	0.009	-0.037
-457.026	-124.364	0.134	0.021
-456.011	149.909	0.153	0.206
-454.997	-155.857	0.099	-0.006
-453.982	656.000	0.091	0.232
-452.968	432.416	-0.065	-0.139
-451.953	-200.000	0.003	-0.147
-450.938	105.171	-0.070	0.081
-449.924	-136.176	0.302	-0.035
-448.909	-200.000	0.010	-0.218
-447.895	-124.933	0.266	0.041
-446.880	800.000	0.115	-0.351
-445.865	-88.298	-0.092	0.027
-444.851	800.000	0.041	0.128
-443.836	800.000	-0.060	-0.199
-442.822	-74.049	0.042	-0.015
-441.807	8.784	0.158	-0.118
-440.792	-58.310	-0.374	0.162
-439.778	2.214	-0.176	0.126
-438.763	265.535	0.044	-0.076
-437.749	-13.862	-0.150	-0.096
-436.734	800.000	0.070	0.206
-435.719	-11.827	-0.301	0.196
-434.705	23.088	0.192	0.156
-433.690	-27.213	-0.175	0.101
-432.676	-34.350	0.203	-0.110
-431.661	-30.936	-0.321	-0.180
-430.646	116.269	-0.067	-0.082
-429.632	-200.000	0.037	-0.413
-428.617	-174.388	0.233	0.007
-427.603	289.281	-0.061	-0.109
-426.588	-22.502	0.342	0.205
-425.573	446.306	-0.040	-0.087
-424.559	-104.818	-0.482	0.110
-423.544	7.326	-0.125	-0.093
-422.530	-2.639	-0.396	0.275
-421.515	800.000	0.088	0.268
-420.500	-200.000	-0.003	0.207
-419.486	-100.412	-0.361	-0.089
-418.471	-200.000	0.045	-0.274
-417.457	-200.000	-0.059	-0.412
-416.442	333.097	0.167	0.320
-415.428	800.000	-0.085	-0.271
-414.413	800.000	-0.023	0.095
-413.398	800.000	0.126	0.451
-412.384	131.372	-0.085	0.109
-411.369	-130.512	0.310	0.041
-410.355	-122.156	-0.149	-0.024
-409.340	-88.097	0.182	0.054
-408.325	-14.694	0.489	-0.311
-407.311	163.505	0.094	-0.131
-406.296	-33.190	-0.290	0.159
-405.282	164.570	-0.142	-0.198
-404.267	800.000	-0.141	-0.477
-403.252	-200.000	0.044	0.355
-402.238	71.178	0.352	0.362
-401.223	-82.103	0.149	0.048
-400.209	-50.274	0.150	-0.070
-399.194	-32.988	0.271	0.149
-398.179	275.054	-0.168	-0.296
-397.165	-200.000	0.038	0.232
-396.150	-32.065	-0.204	0.113
-395.136	-40.966	0.232	-0.119
-394.121	56.765	-0.200	-0.193
-393.106	800.000	0.033	-0.117
-392.092	10.339	-0.232	-0.175
-391.077	-200.000	0.050	-0.246
-390.063	209.926	-0.260	-0.404
-389.048	47.724	-0.146	0.135
-388.033	-119.964	-0.135	0.023
-387.019	800.000	0.068	0.271
-386.004	-136.425	0.168	-0.019
-384.990	-200.000	-0.024	-0.148
-383.975	47.505	-0.170	-0.157
-382.960	-90.768	0.392	0.112
-381.946	-4.102	0.299	0.205
-380.931	-78.782	-0.030	-0.010
-379.917	254.297	-0.042	-0.072
-378.902	-200.000	0.042	-0.189
-377.888	-200.000	0.002	0.402
-376.873	9.268	-0.194	0.145
-375.858	-200.000	0.005	0.064
-374.844	-183.795	0.198	0.003
-373.829	744.254	0.038	0.100
-372.815	250.143	0.093	0.156
-371.800	800.000	-0.053	0.164
-370.785	548.851	-0.085	0.202
-369.771	-99.663	-0.438	-0.109
-368.756	800.000	0.094	0.306
-367.742	-42.755	-0.124	-0.062
-366.727	488.702	0.002	-0.004
-365.712	382.198	0.070	-0.141
-364.698	-51.146	-0.206	0.096
-363.683	82.290	-0.184	0.197
-362.669	-0.843	0.247	-0.173
-361.654	800.000	-0.048	-0.151
-360.639	181.406	-0.184	-0.268
-359.625	-200.000	-0.015	-0.090
-358.610	490.351	0.147	-0.332
-357.596	-35.518	-0.266	-0.143
-356.581	79.585	-0.088	0.094
-355.566	164.884	0.154	0.215
-354.552	-63.116	-0.208	0.085
-353.537	-59.236	-0.116	0.049
-352.523	-200.000	-0.019	0.241
-351.508	56.598	0.246	-0.237
-350.493	800.000	-0.102	-0.290
-349.479	-48.669	-0.159	0.076
-348.464	24.451	0.069	0.057
-347.450	-25.174	-0.242	0.142
-346.435	-200.000	0.009	0.250
-345.420	-22.324	0.122	0.073
-344.406	225.370	-0.142	-0.227
-343.391	800.000	-0.043	-0.156
-342.377	-200.000	0.016	-0.219
-341.362	287.680	0.050	0.090
-340.348	-76.534	0.218	0.076
-339.333	70.000	-0.017	0.018
-338.318	178.813	-0.201	-0.290
-337.304	-200.000	-0.044	-0.270
-336.289	800.000	0.042	0.170
-335.275	-81.527	0.194	0.063
-334.260	-27.996	-0.182	0.104
-333.245	-126.753	0.205	-0.030
-332.231	135.979	0.225	-0.290
-331.216	172.074	0.028	-0.040
-330.202	123.913	-0.084	0.104
-329.187	-87.984	-0.166	-0.049
-328.172	-34.034	0.200	-0.108
-327.158	190.515	-0.125	0.185
-326.143	604.797	0.107	0.264
-325.129	-95.969	-0.179	0.047
-324.114	327.530	-0.063	0.119
-323.099	82.187	-0.123	-0.132
-322.085	-101.764	0.131	0.031
-321.070	-24.617	0.310	-0.182
-320.056	177.139	0.214	0.307
-319.041	163.463	-0.068	0.094
-318.026	116.681	0.055	0.067
-317.012	-28.306	-0.156	0.089
-315.997	10.328	0.435	0.327
-314.983	-200.000	-0.024	-0.121
-313.968	-26.702	0.145	-0.084
-312.953	800.000	-0.092	-0.256
-311.939	583.725	-0.107	-0.260
-310.924	100.258	0.124	-0.142
-309.910	55.463	-0.148	-0.141
-308.895	186.026	-0.187	0.275
-307.880	-103.980	-0.031	0.007
-306.866	123.198	-0.149	-0.184
-305.851	12.890	-0.238	0.181
-304.837	121.072	0.227	-0.278
-303.822	-146.578	-0.160	0.014
-302.807	714.956	0.037	0.097
-301.793	800.000	-0.090	-0.300
-300.778	-115.125	-0.222	0.042
-299.764	666.028	-0.045	0.114
-298.749	83.536	0.107	0.115
-297.735	-12.673	0.057	-0.037
-296.720	431.762	-0.068	-0.146
-295.705	-53.816	-0.233	0.105
-294.691	13.046	0.445	0.339
-293.676	376.284	0.067	-0.135
-292.662	-200.000	-0.015	-0.183
-291.647	-41.017	0.203	-0.103
-290.632	-200.000	0.014	-0.320
-289.618	-34.622	-0.232	0.125
-288.603	40.577	0.233	0.207
-287.589	-200.000	-0.038	0.225
-286.574	641.225	0.027	-0.067
-285.559	-71.646	-0.211	-0.078
-284.545	395.755	0.034	-0.070
-283.530	-49.806	-0.256	-0.120
-282.516	-32.545	-0.179	0.099
-281.501	800.000	-0.061	0.245
-280.486	-42.196	0.229	-0.116
-279.472	800.000	0.022	0.085
-278.457	91.060	-0.159	0.176
-277.443	-89.300	-0.188	-0.055
-276.428	800.000	-0.019	-0.062
-275.413	126.935	0.239	-0.298
-274.399	800.000	0.051	-0.190
-273.384	116.161	-0.113	-0.136
-272.370	-35.895	0.049	0.026
-271.355	52.096	-0.091	-0.086
-270.340	-200.000	0.030	-0.489
-269.326	51.886	0.123	-0.115
-268.311	-200.000	-0.016	-0.266
-267.297	-148.762	-0.248	-0.020
-266.282	100.753	-0.161	-0.185
-265.267	-119.626	0.223	-0.038
-264.253	-0.223	-0.139	-0.097
-263.238	-157.201	0.153	0.009
-262.224	800.000	0.013	-0.046
-261.209	210.030	-0.094	0.145
-260.195	-200.000	-0.005	0.058
-259.180	-200.000	0.044	-0.258
-258.165	-59.092	0.271	-0.115
-257.151	-128.571	0.150	-0.021
-256.136	-200.000	-0.030	0.197
-255.122	-146.872	-0.153	0.013
-254.107	4.122	0.163	-0.117
-253.092	-112.909	0.451	0.088
-252.078	-36.512	-0.027	0.015
-251.063	-69.249	-0.243	0.092
-250.049	15.317	-0.127	0.098
-249.034	800.000	0.064	0.249
-248.019	-3.284	0.353	-0.242
-247.005	-144.299	-0.087	-0.008
-245.990	-44.550	-0.219	-0.108
-244.976	-200.000	-0.010	-0.185
-243.961	-125.089	-0.262	0.040
-242.946	-12.401	-0.218	-0.140
-241.932	43.479	0.194	0.174
-240.917	-138.613	0.193	0.021
-239.903	-122.077	-0.088	-0.014
-238.888	245.918	-0.086	0.142
-237.873	-200.000	-0.010	0.263
-236.859	-17.839	0.108	-0.066
-235.844	-200.000	-0.007	-0.202
-234.830	-63.918	0.198	-0.080
-233.815	-126.234	-0.138	0.020
-232.800	84.776	0.112	-0.121
-231.786	-200.000	0.007	-0.113
-230.771	-42.857	-0.451	0.225
-229.757	800.000	-0.065	0.181
-228.742	-70.127	-0.020	-0.008
-227.727	-44.498	-0.178	-0.088
-226.713	-23.336	0.305	-0.180
-225.698	-96.982	0.271	0.070
-224.684	46.351	-0.021	0.020
-223.669	-200.000	-0.013	0.072
-222.655	50.061	-0.198	0.184
-221.640	-154.696	-0.046	-0.003
-220.625	314.226	-0.036	0.066
-219.611	415.144	0.015	0.032
-218.596	715.488	0.066	0.172
-217.582	-200.000	0.033	0.164
-216.567	-66.787	-0.357	-0.139
-215.552	19.126	0.056	0.044
-214.538	70.496	0.166	-0.169
-213.523	134.484	-0.138	-0.177
-212.509	-132.346	-0.229	0.029
-211.494	-200.000	0.000	0.065
-210.479	32.792	0.205	-0.175
-209.465	52.543	-0.099	0.093
-208.450	-152.064	0.032	0.002
-207.436	160.845	0.195	-0.268
-206.421	3.449	0.150	-0.107
-205.406	-200.000	0.003	0.191
-204.392	13.881	-0.349	0.267
-203.377	108.034	0.055	-0.065
-202.363	-200.000	-0.001	-0.138
-201.348	25.227	0.201	0.164
-200.333	-114.039	0.053	-0.010
-199.319	65.951	-0.319	-0.318
-198.304	223.513	0.057	-0.090
-197.290	-58.461	0.213	-0.091
-196.275	-142.873	-0.051	-0.005
-195.260	-122.429	0.293	0.047
-194.246	-138.731	-0.167	0.018
-193.231	-54.226	-0.352	0.157
-192.217	103.024	0.106	0.122
-191.202	142.793	0.172	0.225
-190.187	72.669	0.188	0.192
-189.173	-200.000	0.023	0.319
-188.158	-200.000	0.019	-0.085
-187.144	-116.954	0.104	-0.019
-186.129	305.776	-0.046	-0.084
-185.114	-86.919	0.223	-0.067
-184.100	-121.912	0.117	0.019
-183.085	-174.706	0.161	-0.004
-182.071	800.000	-0.085	0.278
-181.056	-200.000	-0.011	-0.184
-180.042	574.678	-0.038	-0.090
-179.027	474.508	0.116	0.258
-178.012	74.271	0.027	-0.028
-176.998	266.933	0.111	-0.191
-175.983	-134.945	0.110	-0.013
-174.969	-200.000	0.014	-0.159
-173.954	65.443	-0.151	0.150
-172.939	800.000	0.075	0.265
-171.925	112.466	-0.140	-0.167
-170.910	-39.735	-0.045	-0.023
-169.896	161.361	-0.176	0.241
-168.881	400.320	0.045	0.093
-167.866	-200.000	-0.072	-0.563
-166.852	-90.618	-0.225	-0.064
-165.837	-3.498	0.341	-0.233
-164.823	-200.000	0.003	0.337
-163.808	-76.221	0.147	-0.051
-162.793	142.708	-0.250	-0.326
-161.779	-200.000	0.000	-0.176
-160.764	126.665	0.466	0.580
-159.750	256.187	0.138	-0.232
-158.735	212.608	-0.011	-0.017
-157.720	-200.000	0.029	0.163
-156.706	-57.155	0.156	-0.068
-155.691	-106.012	-0.319	0.070
-154.677	32.565	0.197	0.167
-153.662	-200.000	-0.033	-0.195
-152.647	-70.080	0.323	0.121
-151.633	462.088	0.006	0.013
-150.618	-97.496	0.278	0.071
-149.604	-69.694	0.433	-0.162
-148.589	-104.474	0.280	-0.064
-147.574	-200.000	-0.052	0.291
-146.560	-103.234	-0.254	0.059
-145.545	-169.231	0.112	0.004
-144.531	444.838	-0.118	0.253
-143.516	257.464	0.274	0.462
-142.502	281.539	-0.046	0.080
-141.487	-49.325	-0.223	0.104
-140.472	567.405	0.073	-0.173
-139.458	152.818	-0.179	-0.240
-138.443	-200.000	0.020	0.461
-137.429	220.643	0.186	0.292
-136.414	-200.000	0.010	0.222
-135.399	-200.000	-0.217	0.000
-134.385	800.000	-0.048	0.195
-133.370	-200.000	-0.021	0.200
-132.356	444.955	-0.085	-0.184
-131.341	72.317	0.215	0.219
-130.326	64.847	-0.210	-0.207
-129.312	29.259	-0.262	0.218
-128.297	71.194	0.140	0.142
-127.283	180.658	0.144	-0.208
-126.268	-200.000	0.046	0.265
-125.253	-59.445	0.231	-0.097
-124.239	522.782	0.114	0.262
-123.224	209.928	0.099	0.152
-122.210	-4.725	0.213	-0.144
-121.195	-200.000	0.010	-0.066
