DTS Sentinel unit serial number:	SN413079Multiplexer serial number:	ORYXHardware model number:	OX4-SRSoftware version number:	ORYX F/W v4.00 Oryx Data Collector v3.7.2.0data status	okinstallation	princeton_trtdifferential loss correction	single-endedforward channel	channel 1reverse channel	N/Adate	2019/09/14time	23:54:35forward acquisition time	60.00reverse acquisition time	0.00gamma	496.2192k internal	0.2320k external	0.2320temperature offset calibration	0.9990default loss term (dB/km)	0.3790temperature slope calibration	1.0000multiplexer offset coefficient	1.0000multiplexer slope coefficient	1.0000fibre end	0.00T internal ref (°C)	32.25T ext. ref 1 (°C)	4.63T ext. ref 2 (°C)	27.07length (m)	temperature (°C)	Stokes	anti-Stokes-747.200	234.156	0.180	0.299
-746.185	-200.000	0.067	0.329
-745.171	-89.002	-0.225	-0.067
-744.156	-96.125	-0.053	0.014
-743.142	278.665	0.091	0.164
-742.127	-200.000	-0.023	0.293
-741.112	464.059	0.104	0.235
-740.098	-82.131	0.024	0.008
-739.083	-171.063	-0.321	0.011
-738.069	326.125	-0.017	0.033
-737.054	-167.312	-0.090	-0.004
-736.039	-67.577	-0.255	0.101
-735.025	74.368	0.018	-0.019
-734.010	-69.914	-0.191	0.074
-732.996	-22.469	-0.209	0.128
-731.981	-200.000	0.020	-0.309
-730.966	14.466	0.018	-0.014
-729.952	-152.349	-0.448	0.033
-728.937	800.000	0.045	0.169
-727.923	315.898	-0.057	-0.110
-726.908	34.022	-0.163	0.143
-725.894	-39.446	-0.378	-0.200
-724.879	800.000	0.112	-0.316
-723.864	800.000	0.018	-0.053
-722.850	61.107	0.198	-0.199
-721.835	-68.464	-0.333	-0.131
-720.821	46.319	0.186	-0.175
-719.806	-137.670	-0.213	-0.024
-718.791	-142.157	-0.264	0.026
-717.777	-119.318	-0.224	0.039
-716.762	48.102	0.106	-0.100
-715.748	584.876	-0.088	-0.219
-714.733	6.389	-0.150	0.113
-713.718	28.718	-0.287	-0.245
-712.704	-33.458	0.280	-0.156
-711.689	-125.576	0.229	-0.035
-710.675	86.544	0.049	-0.054
-709.660	214.323	-0.063	0.101
-708.645	-200.000	-0.041	-0.205
-707.631	-76.185	0.103	-0.037
-706.616	72.924	0.233	0.245
-705.602	-41.315	0.192	-0.100
-704.587	-200.000	-0.091	-0.405
-703.572	-200.000	0.011	-0.401
-702.558	800.000	-0.007	0.030
-701.543	416.997	0.086	0.185
-700.529	-148.443	0.135	0.011
-699.514	-100.439	0.078	0.020
-698.499	99.854	-0.182	-0.212
-697.485	-185.929	-0.122	-0.002
-696.470	-25.146	0.341	-0.204
-695.456	-118.111	0.326	-0.059
-694.441	4.337	0.205	-0.152
-693.426	800.000	0.073	0.309
-692.412	157.642	-0.140	-0.196
-691.397	800.000	-0.089	-0.278
-690.383	-122.008	0.025	-0.004
-689.368	34.191	0.177	-0.156
-688.354	-57.036	0.210	-0.094
-687.339	-14.497	0.181	-0.117
-686.324	33.734	-0.128	-0.113
-685.310	-101.943	0.356	0.087
-684.295	-65.345	0.231	-0.094
-683.281	-27.471	-0.116	0.068
-682.266	183.830	0.055	0.083
-681.251	294.120	-0.026	-0.049
-680.237	720.312	0.118	-0.316
-679.222	83.709	0.193	-0.212
-678.208	-200.000	-0.047	0.424
-677.193	-40.752	-0.464	0.242
-676.178	780.621	0.045	-0.125
-675.164	23.692	-0.176	0.146
-674.149	374.902	-0.053	-0.109
-673.135	-90.602	-0.096	-0.028
-672.120	800.000	-0.052	0.216
-671.105	-125.901	-0.156	-0.024
-670.091	-200.000	0.003	0.044
-669.076	-35.521	0.093	0.051
-668.062	63.257	-0.037	0.037
-667.047	-158.565	0.284	-0.017
-666.032	81.850	-0.402	-0.438
-665.018	800.000	-0.034	-0.120
-664.003	-55.569	-0.123	0.055
-662.989	-200.000	0.017	-0.073
-661.974	-200.000	-0.020	-0.168
-660.959	-73.686	0.426	-0.156
-659.945	40.477	-0.161	-0.146
-658.930	-200.000	-0.037	-0.203
-657.916	371.954	0.106	-0.216
-656.901	-159.363	-0.259	-0.015
-655.886	800.000	0.017	0.058
-654.872	128.637	0.095	0.122
-653.857	-93.912	-0.233	-0.065
-652.843	-111.011	-0.088	0.018
-651.828	-200.000	-0.008	-0.155
-650.814	800.000	-0.095	-0.379
-649.799	22.987	-0.212	0.176
-648.784	-87.261	-0.260	0.079
-647.770	32.723	-0.033	-0.029
-646.755	189.433	-0.097	0.147
-645.741	618.521	0.105	0.265
-644.726	136.462	-0.056	-0.074
-643.711	375.379	0.130	-0.268
-642.697	-51.589	-0.328	0.154
-641.682	33.885	-0.115	-0.101
-640.668	-35.299	-0.356	-0.195
-639.653	74.304	-0.107	0.113
-638.638	585.969	0.076	-0.189
-637.624	7.267	-0.369	-0.278
-636.609	433.551	-0.083	-0.181
-635.595	34.844	0.119	0.105
-634.580	-87.769	0.174	-0.053
-633.565	279.839	-0.168	0.302
-632.551	-200.000	-0.012	-0.121
-631.536	-200.000	-0.001	-0.100
-630.522	-145.421	-0.160	0.015
-629.507	-32.171	0.129	-0.073
-628.492	-48.675	-0.139	-0.067
-627.478	-132.676	-0.252	-0.032
-626.463	385.653	0.130	-0.271
-625.449	108.388	0.018	0.022
-624.434	800.000	-0.067	0.215
-623.419	28.722	-0.121	0.103
-622.405	26.648	-0.171	0.144
-621.390	800.000	-0.115	0.388
-620.376	-125.394	0.384	0.059
-619.361	126.129	0.172	-0.219
-618.346	41.883	0.141	0.129
-617.332	-46.494	-0.085	-0.042
-616.317	-79.152	0.447	0.153
-615.303	-200.000	-0.016	-0.082
-614.288	362.702	-0.104	-0.209
-613.273	-83.403	-0.228	0.074
-612.259	3.833	0.058	0.043
-611.244	6.479	0.045	-0.034
-610.230	93.901	0.166	-0.190
-609.215	-200.000	-0.019	0.128
-608.201	-113.359	-0.241	0.048
-607.186	-152.529	-0.455	-0.033
-606.171	30.763	-0.151	-0.130
-605.157	-79.167	0.150	0.051
-604.142	-28.631	-0.148	0.085
-603.128	71.093	-0.175	-0.183
-602.113	800.000	-0.068	0.238
-601.098	-54.265	-0.181	-0.083
-600.084	-18.360	0.269	0.169
-599.069	-5.256	-0.067	-0.046
-598.055	-94.492	0.159	-0.044
-597.040	48.680	-0.103	-0.097
-596.025	113.902	-0.147	0.180
-595.011	-200.000	-0.001	-0.046
-593.996	64.693	-0.312	0.317
-592.982	-200.000	-0.005	0.314
-591.967	15.002	-0.263	-0.207
-590.952	3.428	-0.164	-0.120
-589.938	800.000	-0.026	0.101
-588.923	-181.839	0.176	-0.003
-587.909	-200.000	-0.048	-0.224
-586.894	-200.000	0.068	0.562
-585.879	102.932	-0.097	-0.115
-584.865	42.770	0.064	-0.059
-583.850	-70.902	-0.096	-0.036
-582.836	800.000	-0.047	0.158
-581.821	342.524	0.049	0.097
-580.806	-48.687	0.068	-0.033
-579.792	7.319	-0.057	-0.043
-578.777	7.910	0.214	0.161
-577.763	-1.978	0.136	-0.096
-576.748	800.000	0.048	0.142
-575.733	-103.383	0.178	-0.042
-574.719	726.943	-0.057	-0.153
-573.704	168.840	-0.108	0.155
-572.690	-94.955	-0.091	-0.025
-571.675	50.258	0.138	-0.131
-570.661	686.431	0.165	-0.433
-569.646	13.160	-0.145	0.113
-568.631	380.919	-0.082	-0.169
-567.617	-200.000	-0.008	0.183
-566.602	-200.000	0.024	-0.140
-565.588	33.218	-0.033	0.028
-564.573	322.569	-0.249	0.476
-563.558	15.289	-0.255	0.201
-562.544	800.000	0.076	-0.300
-561.529	179.176	0.112	0.165
-560.515	421.506	0.037	0.080
-559.500	-200.000	-0.020	-0.214
-558.485	-30.867	-0.294	-0.167
-557.471	52.219	-0.124	-0.119
-556.456	39.189	-0.127	-0.114
-555.442	800.000	0.140	-0.441
-554.427	50.283	0.284	-0.269
-553.412	-63.931	-0.092	-0.038
-552.398	-200.000	0.057	-0.338
-551.383	230.656	0.062	-0.103
-550.369	568.046	-0.023	0.057
-549.354	184.967	-0.136	-0.202
-548.339	12.652	0.194	-0.150
-547.325	-122.856	-0.153	-0.025
-546.310	-141.247	-0.313	0.032
-545.296	-200.000	0.053	0.393
-544.281	504.977	-0.099	0.230
-543.266	81.768	-0.152	-0.165
-542.252	-83.176	-0.089	-0.029
-541.237	-108.325	-0.363	0.079
-540.223	-200.000	0.038	0.256
-539.208	-9.712	-0.090	0.060
-538.193	-200.000	-0.064	-0.301
-537.179	800.000	-0.028	-0.089
-536.164	567.395	0.049	0.119
-535.150	-129.858	-0.212	-0.029
-534.135	-23.163	0.178	-0.108
-533.121	1.256	0.071	-0.051
-532.106	-35.104	0.206	-0.113
-531.091	-110.480	0.135	-0.028
-530.077	122.934	-0.185	0.233
-529.062	-127.709	0.250	0.036
-528.048	-44.885	0.239	-0.119
-527.033	315.594	-0.090	-0.170
-526.018	-200.000	0.109	-0.500
-525.004	-75.368	0.322	-0.115
-523.989	34.106	0.204	0.178
-522.975	-200.000	-0.032	0.318
-521.960	-83.807	-0.105	-0.034
-520.945	21.009	0.120	-0.098
-519.931	-172.913	0.366	-0.011
-518.916	-63.297	0.329	0.136
-517.902	39.282	-0.143	-0.128
-516.887	800.000	0.061	0.213
-515.872	-60.450	0.096	0.041
-514.858	565.929	-0.091	0.222
-513.843	306.101	-0.110	0.204
-512.829	207.842	-0.180	0.282
-511.814	150.834	0.246	0.335
-510.799	93.572	-0.179	0.203
-509.785	619.774	0.054	-0.136
-508.770	-200.000	0.002	0.055
-507.756	8.975	0.089	-0.068
-506.741	-25.045	0.289	-0.172
-505.726	-27.909	0.078	-0.045
-504.712	-200.000	0.022	-0.159
-503.697	88.922	0.246	-0.274
-502.683	-200.000	-0.037	-0.263
-501.668	-145.640	-0.084	-0.008
-500.653	-56.331	-0.346	0.154
-499.639	322.193	0.239	0.456
-498.624	221.136	-0.157	-0.253
-497.610	393.476	-0.101	-0.210
-496.595	296.312	-0.070	-0.128
-495.581	-52.171	0.115	-0.053
-494.566	-200.000	0.008	0.110
-493.551	-126.372	-0.198	0.030
-492.537	-200.000	0.041	0.220
-491.522	-200.000	-0.020	-0.265
-490.508	-11.226	0.173	-0.114
-489.493	561.331	0.161	-0.390
-488.478	-200.000	0.018	0.321
-487.464	-53.087	0.091	-0.042
-486.449	-153.038	-0.391	0.028
-485.435	0.943	0.127	0.091
-484.420	210.640	0.141	0.221
-483.405	-200.000	-0.020	-0.130
-482.391	-12.519	0.318	-0.208
-481.376	-103.563	-0.116	0.027
-480.362	800.000	0.102	0.301
-479.347	-200.000	0.076	-0.423
-478.332	-64.298	0.340	0.138
-477.318	43.618	0.120	0.110
-476.303	-197.990	-0.156	-0.001
-475.289	-21.860	0.323	-0.196
-474.274	-182.834	-0.225	-0.004
-473.259	-200.000	0.010	0.279
-472.245	135.187	-0.189	0.246
-471.230	-146.113	0.279	-0.025
-470.216	-200.000	0.023	0.102
-469.201	-200.000	0.029	0.243
-468.186	-47.646	-0.223	0.108
-467.172	-74.377	0.170	0.061
-466.157	-69.155	0.117	-0.045
-465.143	800.000	0.053	0.194
-464.128	800.000	0.018	-0.071
-463.113	-10.204	0.112	0.074
-462.099	179.671	-0.046	-0.067
-461.084	800.000	-0.054	0.233
-460.070	-200.000	-0.047	-0.350
-459.055	-200.000	-0.037	0.172
-458.040	-200.000	-0.041	-0.351
-457.026	-167.977	-0.155	-0.006
-456.011	800.000	-0.029	0.104
-454.997	31.073	0.153	0.131
-453.982	176.623	-0.148	-0.216
-452.968	-179.400	-0.197	0.004
-451.953	755.352	-0.040	-0.107
-450.938	497.762	-0.097	-0.224
-449.924	-22.029	-0.315	0.191
-448.909	-32.624	-0.063	-0.035
-447.895	138.406	0.169	-0.221
-446.880	-136.449	0.202	-0.023
-445.865	800.000	0.054	0.200
-444.851	-38.704	-0.156	0.082
-443.836	192.549	0.099	0.149
-442.822	-128.355	-0.251	-0.036
-441.807	79.156	-0.042	-0.045
-440.792	359.216	-0.099	-0.199
-439.778	-133.795	0.152	-0.019
-438.763	31.160	-0.333	-0.285
-437.749	800.000	0.047	-0.161
-436.734	-2.768	0.120	-0.084
-435.719	-106.210	0.187	0.042
-434.705	10.623	0.264	0.201
-433.690	-200.000	-0.005	0.227
-432.676	-74.521	-0.319	-0.115
-431.661	800.000	0.045	-0.147
-430.646	101.353	-0.098	0.114
-429.632	-103.273	-0.086	-0.020
-428.617	295.607	-0.047	-0.087
-427.603	187.100	0.136	0.203
-426.588	64.909	0.077	-0.078
-425.573	-200.000	-0.024	0.124
-424.559	-200.000	-0.018	0.237
-423.544	-4.886	-0.066	-0.045
-422.530	-12.909	0.096	0.062
-421.515	-134.231	-0.147	0.018
-420.500	-8.266	-0.270	0.181
-419.486	124.416	-0.187	0.235
-418.471	186.627	-0.154	0.229
-417.457	-154.625	0.320	-0.021
-416.442	92.696	0.361	-0.407
-415.428	37.398	0.085	-0.075
-414.413	-134.209	0.012	-0.001
-413.398	-172.631	-0.131	0.004
-412.384	-113.890	0.281	0.055
-411.369	800.000	-0.089	0.272
-410.355	800.000	-0.060	0.167
-409.340	-45.531	-0.113	-0.056
-408.325	-29.177	0.341	0.195
-407.311	-200.000	-0.004	-0.205
-406.296	-6.430	-0.108	-0.074
-405.282	-200.000	0.010	-0.134
-404.267	-130.762	0.192	-0.026
-403.252	-97.081	0.017	0.004
-402.238	-182.924	-0.268	0.005
-401.223	45.814	-0.076	-0.071
-400.209	134.051	-0.163	-0.210
-399.194	-200.000	-0.004	-0.208
-398.179	-28.840	-0.245	-0.141
-397.165	-152.916	-0.159	0.011
-396.150	40.684	0.191	-0.172
-395.136	-31.503	0.083	-0.046
-394.121	-200.000	-0.030	-0.244
-393.106	35.522	0.099	-0.086
-392.092	-70.118	0.173	-0.066
-391.077	93.652	0.304	0.344
-390.063	6.295	0.286	0.212
-389.048	-29.875	0.134	0.076
-388.033	800.000	0.101	0.306
-387.019	-37.817	0.291	-0.154
-386.004	-67.275	0.019	-0.008
-384.990	-200.000	0.009	0.306
-383.975	375.837	0.017	-0.035
-382.960	800.000	-0.089	-0.252
-381.946	109.907	0.156	-0.186
-380.931	-118.052	0.148	-0.026
-379.917	-200.000	0.059	-0.306
-378.902	-123.023	-0.191	-0.031
-377.888	119.973	-0.078	0.097
-376.873	77.285	-0.094	-0.100
-375.858	-200.000	0.033	-0.231
-374.844	-59.479	0.145	0.062
-373.829	30.698	-0.243	-0.208
-372.815	-82.836	-0.158	-0.051
-371.800	-4.563	0.244	0.168
-370.785	-200.000	-0.002	-0.336
-369.771	-8.328	0.208	0.139
-368.756	-87.620	0.143	0.043
-367.742	-165.615	0.346	-0.015
-366.727	-1.121	-0.105	-0.074
-365.712	565.339	-0.048	-0.116
-364.698	-52.592	0.242	0.111
-363.683	205.701	0.145	0.225
-362.669	166.655	0.167	-0.237
-361.654	-126.017	-0.345	-0.052
-360.639	244.616	0.146	0.244
-359.625	644.687	0.061	-0.155
-358.610	-200.000	0.008	-0.262
-357.596	407.145	0.024	-0.051
-356.581	21.290	0.333	0.269
-355.566	176.794	0.072	0.104
-354.552	365.510	0.102	-0.204
-353.537	75.387	-0.092	0.097
-352.523	92.022	0.202	-0.227
-351.508	-123.530	0.141	-0.022
-350.493	-6.631	0.332	-0.225
-349.479	-200.000	-0.082	0.465
-348.464	-200.000	0.151	0.000
-347.450	116.183	-0.152	0.185
-346.435	80.438	-0.200	-0.214
-345.420	777.747	0.074	-0.200
-344.406	-200.000	0.034	0.642
-343.391	-85.958	-0.172	-0.053
-342.377	-135.695	0.349	-0.041
-341.362	275.032	-0.065	0.114
-340.348	15.253	-0.212	0.166
-339.333	-108.787	-0.078	-0.017
-338.318	543.426	0.096	0.227
-337.304	63.431	-0.079	-0.079
-336.289	-59.028	0.240	-0.103
-335.275	65.337	0.120	-0.120
-334.260	161.294	0.105	-0.146
-333.245	-189.568	0.106	0.001
-332.231	-200.000	0.012	0.181
-331.216	560.598	-0.066	0.160
-330.202	-0.434	0.203	0.144
-329.187	-200.000	0.037	0.237
-328.172	-200.000	-0.006	-0.120
-327.158	-90.154	0.212	-0.061
-326.143	-15.651	-0.286	-0.181
-325.129	117.012	-0.197	-0.240
-324.114	-105.738	-0.135	0.030
-323.099	-200.000	-0.063	0.340
-322.085	-37.625	0.258	-0.137
-321.070	-0.712	-0.334	0.235
-320.056	55.944	-0.063	-0.060
-319.041	800.000	0.092	0.313
-318.026	-6.563	-0.150	-0.101
-317.012	-156.926	0.244	0.015
-315.997	85.474	0.117	-0.127
-314.983	-127.910	0.275	0.039
-313.968	-105.796	-0.186	-0.042
-312.953	-200.000	0.053	-0.432
-311.939	441.097	-0.064	-0.139
-310.924	-166.527	0.026	0.001
-309.910	752.255	-0.081	0.219
-308.895	-60.384	0.112	-0.047
-307.880	25.594	-0.130	0.108
-306.866	-36.599	0.064	0.034
-305.851	-200.000	-0.018	0.135
-304.837	-74.778	0.249	-0.089
-303.822	-183.904	0.237	0.004
-302.807	153.848	0.182	-0.247
-301.793	21.745	-0.172	-0.139
-300.778	82.897	0.235	0.254
-299.764	-10.107	-0.398	0.263
-298.749	-134.907	-0.353	-0.042
-297.735	-89.810	-0.271	0.079
-296.720	-122.787	0.418	0.067
-295.705	302.969	0.117	0.215
-294.691	-200.000	0.038	-0.252
-293.676	-55.058	0.056	0.025
-292.662	327.895	-0.149	-0.284
-291.647	-88.024	0.161	-0.048
-290.632	-109.306	-0.185	-0.039
-289.618	-200.000	0.053	-0.234
-288.603	735.338	-0.158	-0.421
-287.589	-200.000	0.017	-0.133
-286.574	-62.116	0.191	0.079
-285.559	118.770	-0.119	0.146
-284.545	441.087	0.161	0.350
-283.530	37.179	-0.199	-0.175
-282.516	-43.145	0.168	-0.084
-281.501	230.927	0.066	-0.108
-280.486	-200.000	-0.023	-0.185
-279.472	-160.580	-0.061	0.003
-278.457	-182.244	0.166	-0.003
-277.443	-49.592	-0.176	-0.083
-276.428	-108.821	-0.135	-0.029
-275.413	538.327	0.244	0.576
-274.399	-4.106	-0.216	0.148
-273.384	-200.000	-0.010	-0.200
-272.370	-167.742	-0.165	-0.006
-271.355	85.662	-0.118	-0.128
-270.340	-121.983	-0.052	0.008
-269.326	163.666	0.078	-0.109
-268.311	68.364	-0.265	0.270
-267.297	-68.341	-0.167	-0.064
-266.282	-6.250	-0.069	-0.046
-265.267	32.202	0.150	0.128
-264.253	800.000	-0.024	-0.093
-263.238	-21.413	-0.241	0.146
-262.224	-112.554	-0.235	-0.047
-261.209	-58.259	0.441	0.191
-260.195	342.670	0.080	-0.155
-259.180	-200.000	-0.358	0.000
-258.165	128.098	-0.082	-0.103
-257.151	800.000	-0.091	-0.384
-256.136	-200.000	-0.055	0.515
-255.122	-109.169	0.154	-0.033
-254.107	121.526	0.120	-0.148
-253.092	-116.633	-0.132	-0.024
-252.078	114.567	-0.108	0.130
-251.063	219.983	-0.031	-0.049
-250.049	-57.869	0.077	-0.033
-249.034	-200.000	0.009	0.179
-248.019	-68.755	-0.336	-0.129
-247.005	-200.000	0.005	-0.137
-245.990	-91.954	-0.070	0.020
-244.976	-200.000	-0.014	-0.549
-243.961	365.398	0.035	0.069
-242.946	227.998	0.111	-0.179
-241.932	-138.459	-0.247	0.027
-240.917	-200.000	0.018	0.100
-239.903	-200.000	0.039	0.521
-238.888	-107.906	0.229	0.049
-237.873	-200.000	0.074	-0.333
-236.859	-106.828	0.269	0.059
-235.844	-114.492	0.096	0.018
-234.830	124.916	0.158	-0.197
-233.815	-167.282	-0.185	-0.007
-232.800	-20.679	-0.268	0.163
-231.786	108.550	0.274	-0.325
-230.771	-112.829	0.388	-0.076
-229.757	800.000	-0.022	-0.061
-228.742	32.722	0.142	0.122
-227.727	2.691	-0.206	0.148
-226.713	800.000	-0.098	0.406
-225.698	800.000	-0.015	-0.059
-224.684	-110.648	0.167	-0.034
-223.669	-119.136	-0.099	-0.017
-222.655	13.903	-0.188	-0.145
-221.640	49.554	-0.188	-0.175
-220.625	26.241	0.202	0.167
-219.611	800.000	-0.046	0.173
-218.596	-200.000	-0.067	-0.342
-217.582	-137.273	0.297	0.033
-216.567	297.980	0.074	-0.135
-215.552	519.651	0.166	0.386
-214.538	0.353	0.199	0.141
-213.523	243.187	-0.055	0.091
-212.509	12.442	0.042	0.032
-211.494	800.000	0.114	0.369
-210.479	94.663	-0.169	0.191
-209.465	-26.993	-0.119	-0.069
-208.450	-131.511	-0.365	0.048
-207.436	351.814	-0.032	-0.064
-206.421	-145.152	-0.173	0.016
-205.406	233.895	0.124	-0.202
-204.392	-146.622	-0.127	0.011
-203.377	52.950	0.036	-0.034
-202.363	-56.316	-0.195	0.086
-201.348	-105.847	-0.131	-0.029
-200.333	-92.750	0.247	-0.068
-199.319	-137.447	-0.249	-0.028
-198.304	-167.132	-0.268	0.011
-197.290	-35.839	-0.351	0.188
-196.275	-19.315	0.209	0.129
-195.260	65.699	0.183	-0.183
-194.246	-113.473	0.347	-0.067
-193.231	116.043	0.084	-0.102
-192.217	-200.000	-0.001	-0.136
-191.202	-170.057	-0.277	-0.010
-190.187	-71.164	-0.248	0.092
-189.173	43.431	0.264	0.239
-188.158	43.150	-0.175	0.158
-187.144	-200.000	0.009	-0.124
-186.129	800.000	0.085	-0.313
-185.114	-200.000	-0.006	0.113
-184.100	-200.000	-0.062	-0.293
-183.085	-47.530	-0.027	-0.013
-182.071	800.000	-0.065	0.218
-181.056	1.467	0.158	-0.113
-180.042	-50.450	-0.302	-0.141
-179.027	-114.121	-0.105	-0.020
-178.012	-22.451	-0.219	-0.131
-176.998	-90.515	-0.048	0.014
-175.983	43.806	0.373	0.338
-174.969	-195.016	-0.329	-0.002
-173.954	71.411	-0.143	0.147
-172.939	28.083	0.105	-0.087
-171.925	30.070	0.056	0.047
-170.910	800.000	0.071	0.221
-169.896	-109.695	-0.206	-0.043
-168.881	-154.005	-0.062	0.004
-167.866	-145.364	0.061	0.005
-166.852	-200.000	-0.024	0.323
-165.837	-115.169	0.355	-0.066
-164.823	160.334	-0.099	-0.136
-163.808	-200.000	0.011	-0.170
-162.793	-200.000	-0.050	0.247
-161.779	-11.908	-0.120	0.078
-160.764	394.567	-0.015	0.031
-159.750	-200.000	0.001	0.161
-158.735	21.625	0.089	-0.072
-157.720	57.756	0.054	0.052
-156.706	-8.548	0.213	0.141
-155.691	6.433	0.345	0.253
-154.677	-200.000	0.009	0.111
-153.662	-68.234	0.167	-0.064
-152.647	-71.357	-0.167	-0.062
-151.633	86.328	0.113	-0.123
-150.618	-142.776	0.306	0.029
-149.604	-56.284	-0.155	-0.068
-148.589	-116.703	-0.335	-0.061
-147.574	529.780	0.042	0.099
-146.560	-200.000	0.009	0.195
-145.545	-146.674	-0.330	-0.028
-144.531	330.555	-0.075	-0.143
-143.516	-133.812	0.168	-0.021
-142.502	-66.636	0.121	0.047
-141.487	-200.000	-0.007	-0.125
-140.472	21.571	0.179	0.144
-139.458	-54.857	-0.150	-0.067
-138.443	-71.196	-0.280	-0.104
-137.429	-97.677	-0.232	0.059
-136.414	-200.000	-0.042	-0.319
-135.399	-92.287	-0.231	0.064
-134.385	494.789	-0.029	0.066
-133.370	-51.072	-0.303	-0.140
-132.356	-200.000	0.007	-0.192
-131.341	-41.028	0.203	-0.103
-130.326	126.494	-0.158	-0.197
-129.312	-35.129	0.307	0.165
-128.297	-65.854	0.234	0.093
-127.283	-153.619	0.258	-0.018
-126.268	-12.497	0.161	0.104
-125.253	162.529	-0.113	-0.157
-124.239	-193.905	-0.194	-0.002
-123.224	800.000	0.013	0.047
-122.210	72.917	0.119	0.123
