DTS Sentinel unit serial number:	SN413079Multiplexer serial number:	ORYXHardware model number:	OX4-SRSoftware version number:	ORYX F/W v4.00 Oryx Data Collector v3.7.2.0data status	okinstallation	princeton_trtdifferential loss correction	single-endedforward channel	channel 1reverse channel	N/Adate	2019/09/18time	08:50:35forward acquisition time	60.00reverse acquisition time	0.00gamma	496.2192k internal	0.2336k external	0.2336temperature offset calibration	0.9975default loss term (dB/km)	0.3790temperature slope calibration	1.0000multiplexer offset coefficient	1.0000multiplexer slope coefficient	1.0000fibre end	0.00T internal ref (°C)	24.80T ext. ref 1 (°C)	0.23T ext. ref 2 (°C)	20.73length (m)	temperature (°C)	Stokes	anti-Stokes-747.200	430.642	0.012	0.027
-746.185	22.813	-0.085	0.070
-745.171	92.520	-0.064	0.072
-744.156	-200.000	-0.002	0.315
-743.142	800.000	-0.171	0.643
-742.127	-78.163	-0.303	-0.104
-741.112	-0.297	-0.151	0.108
-740.098	268.189	-0.052	0.091
-739.083	110.668	0.154	-0.186
-738.069	-165.892	-0.336	0.014
-737.054	-200.000	0.013	0.158
-736.039	-85.237	-0.355	-0.111
-735.025	-2.859	0.323	0.227
-734.010	800.000	0.034	-0.120
-732.996	107.708	0.090	-0.108
-731.981	-200.000	-0.016	-0.411
-730.966	-75.940	0.032	0.011
-729.952	365.299	-0.186	-0.377
-728.937	770.741	-0.114	0.311
-727.923	-151.188	0.260	0.020
-726.908	800.000	-0.024	-0.069
-725.894	501.659	-0.087	0.202
-724.879	-81.677	-0.101	-0.033
-723.864	239.888	-0.122	0.203
-722.850	354.839	0.139	0.277
-721.835	-3.482	-0.417	-0.291
-720.821	116.743	0.086	-0.106
-719.806	58.207	0.021	-0.021
-718.791	-49.359	-0.221	0.106
-717.777	800.000	0.046	0.127
-716.762	526.489	-0.045	-0.107
-715.748	-47.918	-0.257	0.125
-714.733	286.257	0.206	0.374
-713.718	157.206	-0.293	-0.406
-712.704	-200.000	-0.028	-0.252
-711.689	-19.030	-0.275	-0.171
-710.675	-200.000	-0.024	-0.174
-709.660	742.414	-0.097	-0.261
-708.645	800.000	-0.047	0.142
-707.631	800.000	-0.078	-0.245
-706.616	17.314	0.085	0.068
-705.602	-200.000	0.022	-0.161
-704.587	-108.962	0.197	0.042
-703.572	78.869	-0.196	-0.210
-702.558	-179.269	0.077	0.002
-701.543	-200.000	-0.033	0.273
-700.529	-200.000	0.008	-0.122
-699.514	-121.163	-0.081	-0.014
-698.499	15.769	-0.067	0.053
-697.485	84.211	0.094	0.103
-696.470	-109.259	-0.121	0.026
-695.456	800.000	-0.037	0.115
-694.441	-200.000	-0.019	-0.353
-693.426	25.098	0.140	-0.116
-692.412	-77.536	-0.308	-0.107
-691.397	-85.903	0.196	0.061
-690.383	486.010	0.043	0.097
-689.368	-200.000	-0.014	-0.165
-688.354	-148.700	0.576	0.047
-687.339	5.252	-0.437	-0.323
-686.324	-177.659	-0.265	-0.006
-685.310	-0.914	-0.542	0.384
-684.295	184.093	-0.088	0.131
-683.281	-11.811	-0.160	-0.105
-682.266	69.246	0.249	0.256
-681.251	275.330	-0.110	0.196
-680.237	-200.000	0.020	0.328
-679.222	-53.944	-0.102	-0.047
-678.208	-200.000	0.001	-0.175
-677.193	246.922	-0.079	-0.133
-676.178	729.040	0.088	-0.235
-675.164	130.239	-0.069	-0.088
-674.149	-37.836	-0.078	-0.042
-673.135	140.832	-0.011	0.014
-672.120	800.000	-0.024	0.070
-671.105	89.892	-0.234	-0.261
-670.091	-200.000	0.000	-0.166
-669.076	-47.549	-0.099	0.048
-668.062	5.443	0.245	0.181
-667.047	-193.918	-0.258	0.002
-666.032	125.022	0.057	-0.072
-665.018	305.986	0.111	-0.207
-664.003	-127.400	-0.107	-0.016
-662.989	32.597	-0.176	-0.153
-661.974	112.206	0.132	0.160
-660.959	-117.348	-0.454	0.082
-659.945	665.774	0.075	-0.193
-658.930	-81.573	0.241	0.079
-657.916	161.589	0.098	-0.137
-656.901	97.477	-0.227	-0.261
-655.886	-178.107	0.410	-0.010
-654.872	49.193	-0.102	-0.096
-653.857	540.693	0.196	0.468
-652.843	347.803	-0.121	-0.238
-651.828	39.228	0.300	-0.269
-650.814	800.000	-0.093	-0.332
-649.799	499.284	0.054	-0.126
-648.784	29.763	-0.318	0.271
-647.770	-4.057	0.115	-0.080
-646.755	-134.072	-0.117	-0.014
-645.741	-200.000	0.059	0.464
-644.726	-199.790	0.073	-0.000
-643.711	800.000	-0.028	-0.106
-642.697	-130.096	-0.393	-0.054
-641.682	-11.693	-0.119	-0.078
-640.668	-111.357	0.240	0.049
-639.653	18.978	-0.131	-0.105
-638.638	154.494	-0.116	0.160
-637.624	-105.864	0.125	0.028
-636.609	-200.000	0.051	0.375
-635.595	-187.390	-0.238	0.003
-634.580	-200.000	0.012	-0.255
-633.565	48.290	0.208	0.195
-632.551	-76.060	-0.254	0.090
-631.536	-198.140	0.116	0.001
-630.522	-200.000	0.021	-0.118
-629.507	6.327	-0.171	-0.127
-628.492	106.655	0.052	-0.062
-627.478	516.201	0.038	-0.089
-626.463	-74.285	0.225	0.081
-625.449	75.930	0.208	0.220
-624.434	-6.382	-0.243	-0.166
-623.419	220.455	-0.129	0.207
-622.405	-200.000	0.014	-0.222
-621.390	184.828	-0.079	0.117
-620.376	800.000	0.026	0.077
-619.361	-7.358	0.183	-0.124
-618.346	480.781	-0.224	-0.508
-617.332	204.717	0.024	0.038
-616.317	-90.115	-0.169	0.049
-615.303	-38.575	0.067	-0.035
-614.288	62.815	0.121	0.121
-613.273	-44.143	0.184	0.092
-612.259	-200.000	-0.038	0.346
-611.244	-15.923	-0.116	0.074
-610.230	15.905	-0.226	0.178
-609.215	609.828	-0.099	-0.247
-608.201	-135.321	0.228	0.027
-607.186	-93.253	-0.236	0.066
-606.171	800.000	0.088	-0.265
-605.157	-32.063	-0.196	0.109
-604.142	-200.000	-0.028	-0.175
-603.128	170.986	0.040	-0.058
-602.113	3.489	-0.073	0.053
-601.098	-57.864	0.152	-0.066
-600.084	-200.000	0.028	-0.123
-599.069	76.291	-0.150	0.159
-598.055	212.839	-0.108	-0.170
-597.040	592.764	-0.047	-0.117
-596.025	-138.763	0.159	-0.017
-595.011	-200.000	0.060	-0.326
-593.996	-87.736	0.019	-0.006
-592.982	-145.225	0.118	0.011
-591.967	71.007	-0.062	-0.064
-590.952	-103.985	0.277	0.064
-589.938	4.546	-0.105	-0.077
-588.923	800.000	0.048	-0.175
-587.909	199.140	-0.069	0.106
-586.894	146.815	0.126	0.169
-585.879	-12.737	-0.125	-0.081
-584.865	34.634	0.160	0.140
-583.850	229.517	0.075	-0.123
-582.836	132.007	0.172	0.221
-581.821	-28.389	-0.130	-0.075
-580.806	109.440	0.059	0.071
-579.792	87.414	0.051	0.056
-578.777	-200.000	0.005	-0.160
-577.763	-31.198	-0.247	0.139
-576.748	24.559	-0.229	0.189
-575.733	97.128	-0.103	-0.118
-574.719	-30.877	-0.301	-0.170
-573.704	16.760	0.055	-0.044
-572.690	11.512	-0.152	-0.116
-571.675	800.000	0.031	0.092
-570.661	206.514	-0.092	0.143
-569.646	264.843	0.060	-0.103
-568.631	-59.058	-0.534	0.230
-567.617	800.000	0.026	-0.088
-566.602	117.002	-0.340	0.417
-565.588	-200.000	-0.026	0.163
-564.573	133.199	0.172	0.222
-563.558	-200.000	-0.036	-0.258
-562.544	-21.205	0.261	0.159
-561.529	800.000	0.071	-0.203
-560.515	-31.084	0.244	0.137
-559.500	18.061	0.209	0.166
-558.485	225.463	0.119	0.192
-557.471	-79.864	-0.215	-0.072
-556.456	-85.285	-0.364	-0.113
-555.442	-200.000	0.023	-0.322
-554.427	5.039	-0.064	0.047
-553.412	800.000	0.060	0.169
-552.398	-200.000	-0.047	-0.367
-551.383	-105.080	0.176	-0.040
-550.369	-73.770	0.069	-0.025
-549.354	129.750	0.174	0.221
-548.339	-34.281	-0.160	-0.088
-547.325	-70.908	0.258	-0.097
-546.310	143.680	0.090	-0.119
-545.296	-200.000	-0.054	0.388
-544.281	800.000	0.045	0.142
-543.266	421.188	0.090	-0.193
-542.252	-99.162	0.179	0.045
-541.237	-200.000	-0.020	-0.099
-540.223	181.555	-0.085	0.124
-539.208	-1.678	0.158	0.111
-538.193	-72.580	0.182	-0.067
-537.179	-200.000	-0.027	-0.152
-536.164	-35.558	-0.123	-0.067
-535.150	-18.665	-0.243	-0.151
-534.135	19.014	0.149	-0.119
-533.121	-200.000	-0.013	-0.354
-532.106	12.931	0.167	0.128
-531.091	-3.019	-0.237	0.165
-530.077	23.421	0.090	-0.073
-529.062	-112.253	-0.497	0.099
-528.048	316.352	0.185	-0.347
-527.033	-121.132	-0.184	0.031
-526.018	-174.077	0.104	-0.003
-525.004	-107.492	0.342	-0.075
-523.989	-38.142	-0.073	0.039
-522.975	-200.000	0.053	0.372
-521.960	753.883	0.100	-0.268
-520.945	-38.567	0.157	0.083
-519.931	-141.115	-0.157	0.016
-518.916	800.000	-0.081	-0.295
-517.902	387.782	0.125	-0.257
-516.887	452.025	-0.115	-0.253
-515.872	381.397	0.135	0.275
-514.858	-200.000	0.007	-0.252
-513.843	-200.000	0.007	-0.151
-512.829	220.781	0.225	-0.360
-511.814	131.429	0.027	-0.034
-510.799	-200.000	0.043	0.296
-509.785	333.100	-0.082	-0.158
-508.770	-200.000	-0.045	0.325
-507.756	78.565	0.079	-0.084
-506.741	-133.535	0.297	0.037
-505.726	64.741	-0.157	-0.158
-504.712	800.000	0.063	-0.231
-503.697	-200.000	0.006	-0.078
-502.683	-200.000	-0.018	0.200
-501.668	112.959	-0.298	-0.359
-500.653	146.045	0.264	0.352
-499.639	-200.000	-0.013	0.194
-498.624	-200.000	0.063	-0.328
-497.610	570.891	0.050	0.120
-496.595	15.893	-0.340	0.267
-495.581	193.275	0.115	-0.172
-494.566	-45.136	0.384	0.190
-493.551	51.695	0.326	0.309
-492.537	-200.000	-0.215	-0.001
-491.522	-80.612	0.280	0.093
-490.508	-68.982	-0.118	-0.045
-489.493	170.198	0.247	0.352
-488.478	62.239	0.235	-0.233
-487.464	40.966	-0.167	-0.150
-486.449	-200.000	-0.047	-0.320
-485.435	61.184	0.189	0.187
-484.420	-53.698	0.245	-0.111
-483.405	-99.636	-0.079	0.020
-482.391	-127.693	0.070	0.010
-481.376	71.991	0.034	-0.035
-480.362	-200.000	0.002	0.092
-479.347	-72.653	0.126	-0.046
-478.332	-51.925	-0.144	-0.066
-477.318	-102.987	-0.284	-0.067
-476.303	126.199	0.140	0.176
-475.289	-140.515	-0.111	-0.012
-474.274	-26.322	0.161	-0.094
-473.259	78.862	-0.146	0.155
-472.245	-200.000	-0.002	-0.105
-471.230	25.226	0.256	0.211
-470.216	193.139	-0.280	-0.421
-469.201	-18.612	-0.190	0.118
-468.186	-137.795	-0.449	-0.050
-467.172	-66.134	-0.272	0.108
-466.157	-200.000	0.075	0.351
-465.143	307.146	-0.072	0.133
-464.128	-16.973	-0.282	0.177
-463.113	-127.710	-0.141	-0.020
-462.099	-200.000	0.023	-0.143
-461.084	-23.545	0.360	-0.214
-460.070	-140.703	0.140	0.014
-459.055	-200.000	0.030	-0.215
-458.040	-50.049	-0.210	-0.099
-457.026	164.373	0.149	0.208
-456.011	-200.000	0.017	-0.235
-454.997	-140.703	0.146	0.015
-453.982	352.638	-0.042	-0.083
-452.968	153.616	-0.170	0.232
-451.953	387.434	0.116	0.237
-450.938	-24.356	-0.226	-0.134
-449.924	446.760	-0.044	-0.096
-448.909	-1.421	0.424	-0.297
-447.895	526.017	0.211	-0.492
-446.880	415.112	-0.117	-0.247
-445.865	-200.000	-0.006	0.025
-444.851	21.375	0.243	0.196
-443.836	800.000	-0.073	0.309
-442.822	-113.893	-0.445	-0.086
-441.807	-78.206	0.106	-0.036
-440.792	32.833	0.017	0.014
-439.778	-122.779	-0.237	0.038
-438.763	-200.000	-0.009	-0.363
-437.749	-184.507	-0.290	-0.005
-436.734	-166.575	-0.329	-0.014
-435.719	-22.505	0.141	-0.085
-434.705	-127.537	0.202	0.029
-433.690	62.522	0.108	0.107
-432.676	130.929	-0.261	0.332
-431.661	316.274	0.149	0.279
-430.646	-109.566	-0.347	0.073
-429.632	800.000	0.054	0.165
-428.617	800.000	-0.054	-0.229
-427.603	-74.063	0.329	-0.118
-426.588	180.802	0.114	0.166
-425.573	-31.082	-0.224	0.126
-424.559	44.243	0.104	0.095
-423.544	-200.000	0.002	-0.135
-422.530	-112.901	0.122	0.024
-421.515	800.000	0.060	-0.236
-420.500	800.000	0.113	-0.335
-419.486	-114.934	0.270	-0.051
-418.471	414.131	-0.115	-0.243
-417.457	800.000	-0.032	0.117
-416.442	281.577	0.132	-0.235
-415.428	-200.000	0.011	0.062
-414.413	230.626	-0.212	-0.345
-413.398	208.771	0.015	0.024
-412.384	-200.000	-0.024	-0.288
-411.369	71.593	0.138	-0.142
-410.355	5.189	0.284	-0.208
-409.340	130.099	0.190	0.241
-408.325	63.714	-0.192	0.192
-407.311	32.270	0.128	-0.109
-406.296	305.628	0.030	0.055
-405.282	323.997	0.063	0.120
-404.267	-200.000	0.034	0.297
-403.252	131.836	-0.090	0.115
-402.238	-200.000	0.037	-0.407
-401.223	415.935	0.090	0.191
-400.209	-200.000	0.013	-0.078
-399.194	-178.853	-0.142	0.003
-398.179	785.574	-0.060	-0.164
-397.165	-200.000	0.008	-0.080
-396.150	-151.827	0.209	-0.015
-395.136	-117.163	0.142	0.026
-394.121	-24.843	-0.054	0.032
-393.106	449.294	0.078	0.171
-392.092	-14.052	0.329	0.210
-391.077	757.828	0.064	-0.172
-390.063	57.029	0.203	-0.196
-389.048	-133.710	0.140	0.017
-388.033	107.716	-0.172	-0.203
-387.019	635.385	-0.108	0.272
-386.004	473.742	0.089	0.199
-384.990	-200.000	0.026	-0.162
-383.975	336.291	0.045	0.086
-382.960	-200.000	0.043	0.197
-381.946	-200.000	0.033	-0.255
-380.931	171.095	-0.188	-0.267
-379.917	83.409	0.215	-0.232
-378.902	-190.526	0.437	-0.005
-377.888	13.985	-0.129	0.100
-376.873	-131.073	-0.371	0.049
-375.858	-1.241	0.134	0.094
-374.844	66.553	0.334	-0.336
-373.829	-77.031	-0.208	-0.072
-372.815	-200.000	0.022	-0.149
-371.800	112.001	-0.301	-0.359
-370.785	-86.460	-0.247	0.075
-369.771	551.653	-0.072	0.171
-368.756	-10.634	0.177	0.116
-367.742	-142.133	0.166	0.016
-366.727	-34.165	0.092	0.050
-365.712	800.000	0.084	-0.311
-364.698	-200.000	-0.072	-0.000
-363.683	800.000	-0.077	-0.215
-362.669	624.773	0.029	0.073
-361.654	-78.494	-0.081	-0.027
-360.639	-151.375	-0.382	-0.028
-359.625	138.628	0.079	-0.103
-358.610	136.031	-0.129	0.166
-357.596	424.393	-0.097	0.207
-356.581	-14.385	-0.323	-0.206
-355.566	111.124	0.095	-0.114
-354.552	162.549	-0.028	-0.039
-353.537	800.000	0.048	-0.152
-352.523	-63.217	-0.093	-0.038
-351.508	-91.486	-0.293	0.083
-350.493	-87.165	0.196	0.059
-349.479	-200.000	0.012	0.094
-348.464	-150.189	-0.082	0.006
-347.450	-96.430	-0.229	-0.060
-346.435	84.742	-0.092	-0.100
-345.420	-90.804	-0.269	-0.077
-344.406	800.000	0.020	0.074
-343.391	-32.546	0.240	-0.132
-342.377	-131.864	0.142	0.018
-341.362	-40.825	-0.066	-0.034
-340.348	-152.375	-0.218	-0.016
-339.333	-113.527	-0.215	0.042
-338.318	-10.344	0.236	0.154
-337.304	-200.000	0.014	0.176
-336.289	-161.666	-0.172	0.009
-335.275	42.856	-0.097	-0.088
-334.260	-10.454	0.101	0.066
-333.245	98.586	0.105	-0.120
-332.231	-1.775	0.060	0.042
-331.216	309.271	0.062	-0.114
-330.202	-152.192	-0.142	0.010
-329.187	102.618	-0.111	-0.129
-328.172	18.230	-0.081	0.064
-327.158	800.000	0.050	-0.139
-326.143	128.447	-0.064	0.081
-325.129	133.317	-0.140	-0.179
-324.114	-175.900	-0.703	0.018
-323.099	206.665	-0.073	0.112
-322.085	-200.000	-0.042	-0.244
-321.070	-48.476	-0.156	-0.074
-320.056	800.000	0.061	-0.230
-319.041	-22.007	0.212	0.127
-318.026	81.289	-0.060	0.065
-317.012	-35.888	-0.173	-0.093
-315.997	338.422	0.063	0.122
-314.983	138.273	0.176	0.227
-313.968	-48.612	0.240	-0.114
-312.953	305.841	0.148	0.273
-311.939	625.727	0.076	0.190
-310.924	-169.281	0.231	0.008
-309.910	11.183	0.190	0.143
-308.895	-94.450	-0.014	-0.004
-307.880	-79.686	-0.143	0.048
-306.866	-34.553	0.193	-0.104
-305.851	-157.063	-0.352	0.021
-304.837	294.966	-0.092	0.166
-303.822	-84.715	0.036	0.011
-302.807	-14.441	0.176	0.112
-301.793	10.200	-0.034	0.026
-300.778	-136.210	0.293	-0.034
-299.764	325.587	-0.048	-0.090
-298.749	17.209	-0.290	0.227
-297.735	349.614	-0.049	0.096
-296.720	800.000	-0.064	-0.212
-295.705	450.168	0.031	0.067
-294.691	408.302	0.074	0.154
-293.676	175.808	-0.068	-0.097
-292.662	-111.715	-0.211	0.042
-291.647	-118.163	-0.187	0.033
-290.632	-200.000	-0.021	-0.314
-289.618	-112.263	0.208	0.041
-288.603	800.000	-0.039	0.127
-287.589	-200.000	0.016	-0.104
-286.574	-31.539	0.263	0.146
-285.559	74.147	-0.281	-0.291
-284.545	-169.094	-0.277	-0.010
-283.530	-200.000	0.050	-0.234
-282.516	-130.999	0.125	0.016
-281.501	71.411	-0.127	0.130
-280.486	337.886	-0.064	-0.124
-279.472	-85.062	0.126	0.039
-278.457	-53.991	0.376	0.169
-277.443	-110.889	0.197	-0.040
-276.428	-110.615	0.173	0.035
-275.413	800.000	0.063	-0.252
-274.399	4.773	-0.150	0.109
-273.384	-60.847	0.043	0.018
-272.370	122.100	-0.135	-0.166
-271.355	-25.930	0.185	0.107
-270.340	82.528	-0.234	-0.251
-269.326	222.367	0.083	-0.132
-268.311	213.194	0.132	-0.205
-267.297	-200.000	0.030	-0.135
-266.282	-47.121	0.238	-0.115
-265.267	-105.629	0.313	-0.070
-264.253	156.584	-0.058	-0.080
-263.238	-79.815	0.156	-0.052
-262.224	-107.243	-0.266	-0.058
-261.209	-20.182	0.065	-0.040
-260.195	176.384	0.080	-0.115
-259.180	800.000	-0.008	-0.033
-258.165	-110.699	0.374	-0.076
-257.151	-200.000	0.025	0.185
-256.136	129.601	-0.142	0.178
-255.122	800.000	-0.078	0.221
-254.107	-89.360	0.134	0.039
-253.092	177.791	0.358	0.515
-252.078	-200.000	-0.039	0.309
-251.063	-30.741	-0.109	-0.061
-250.049	-200.000	-0.003	-0.076
-249.034	800.000	-0.081	-0.232
-248.019	-115.688	0.312	0.058
-247.005	-107.782	-0.516	0.111
-245.990	-200.000	0.030	-0.375
-244.976	800.000	0.147	-0.558
-243.961	-200.000	-0.016	0.199
-242.946	277.434	-0.137	-0.240
-241.932	-200.000	-0.002	0.167
-240.917	-134.464	0.098	0.012
-239.903	-8.916	-0.284	0.187
-238.888	12.868	-0.086	0.065
-237.873	365.072	-0.028	0.055
-236.859	15.007	0.058	0.045
-235.844	411.471	0.012	0.026
-234.830	168.693	0.063	-0.089
-233.815	2.119	-0.054	-0.038
-232.800	58.974	0.258	0.249
-231.786	157.342	0.111	0.151
-230.771	-40.697	-0.278	0.142
-229.757	-200.000	-0.036	0.384
-228.742	-200.000	0.016	-0.267
-227.727	-115.212	0.314	0.058
-226.713	96.448	-0.211	0.238
-225.698	-25.040	0.314	-0.183
-224.684	603.502	0.027	-0.067
-223.669	11.582	0.376	0.284
-222.655	375.259	-0.160	-0.321
-221.640	322.403	-0.181	0.338
-220.625	49.116	0.215	-0.199
-219.611	-68.596	-0.190	0.072
-218.596	7.888	0.206	0.152
-217.582	-200.000	0.029	0.141
-216.567	1.810	-0.387	0.274
-215.552	-158.646	-0.159	-0.009
-214.538	472.125	0.057	0.127
-213.523	327.849	0.130	0.246
-212.509	16.017	0.064	-0.049
-211.494	-83.815	-0.418	0.131
-210.479	-200.000	-0.006	0.238
-209.465	-52.725	0.310	0.141
-208.450	-93.357	0.147	0.040
-207.436	-147.742	-0.469	-0.039
-206.421	353.477	0.084	-0.163
-205.406	357.667	0.120	0.235
-204.392	-90.957	-0.129	0.036
-203.377	-200.000	-0.042	0.193
-202.363	-129.062	-0.479	0.066
-201.348	-137.335	-0.251	0.028
-200.333	395.425	-0.194	0.397
-199.319	-200.000	-0.041	0.208
-198.304	-118.051	-0.288	0.051
-197.290	-200.000	0.007	-0.117
-196.275	641.954	-0.125	0.314
-195.260	104.726	0.160	0.186
-194.246	-200.000	-0.007	0.493
-193.231	114.783	0.105	0.126
-192.217	11.091	0.287	0.215
-191.202	-21.912	-0.260	-0.155
-190.187	-200.000	0.014	-0.093
-189.173	800.000	-0.068	-0.291
-188.158	92.643	0.216	-0.240
-187.144	-27.737	-0.159	0.091
-186.129	-200.000	-0.023	0.202
-185.114	44.873	-0.144	-0.131
-184.100	557.212	-0.104	-0.246
-183.085	800.000	-0.089	-0.259
-182.071	800.000	0.122	-0.390
-181.056	-164.973	0.093	-0.004
-180.042	-68.521	0.053	0.020
-179.027	-1.204	0.084	0.058
-178.012	425.213	-0.086	0.181
-176.998	800.000	0.054	0.148
-175.983	-152.571	0.291	0.020
-174.969	800.000	0.055	0.199
-173.954	-60.806	0.220	0.091
-172.939	-167.748	0.209	0.008
-171.925	-200.000	0.249	-0.001
-170.910	-112.388	-0.371	0.073
-169.896	-100.172	0.466	-0.114
-168.881	-95.393	0.158	-0.042
-167.866	800.000	0.033	0.114
-166.852	253.363	0.254	0.426
-165.837	604.446	0.056	0.136
-164.823	800.000	0.046	0.165
-163.808	-155.698	-0.145	-0.009
-162.793	592.143	-0.176	-0.428
-161.779	800.000	0.110	0.338
-160.764	-55.115	0.099	0.044
-159.750	478.327	-0.028	-0.061
-158.735	-40.173	-0.070	-0.036
-157.720	-28.595	0.177	-0.100
-156.706	-137.890	-0.454	-0.050
-155.691	257.988	0.188	-0.317
-154.677	8.100	-0.245	-0.181
-153.662	252.733	-0.297	0.497
-152.647	800.000	0.059	-0.175
-151.633	25.426	0.129	0.106
-150.618	-200.000	0.023	0.569
-149.604	120.604	0.314	0.382
-148.589	800.000	0.074	-0.218
-147.574	-74.611	0.157	0.055
-146.560	8.185	-0.061	0.045
-145.545	-90.787	0.233	-0.066
-144.531	-200.000	0.031	-0.139
-143.516	633.703	-0.134	-0.334
-142.502	206.508	0.034	0.051
-141.487	308.909	-0.120	-0.221
-140.472	-200.000	-0.064	0.340
-139.458	-89.083	-0.055	-0.016
-138.443	-103.342	-0.127	0.029
-137.429	-176.895	-0.332	-0.008
-136.414	800.000	-0.071	0.202
-135.399	-109.498	0.418	0.087
-134.385	-79.140	0.394	-0.131
-133.370	78.698	-0.032	-0.033
-132.356	-200.000	0.009	0.134
-131.341	-37.488	-0.080	-0.042
-130.326	-15.867	0.183	0.114
-129.312	284.838	0.165	-0.292
-128.297	67.782	-0.141	-0.142
-127.283	20.104	0.091	-0.072
-126.268	146.319	0.134	-0.176
-125.253	-150.326	0.115	-0.009
-124.239	125.595	0.011	0.013
-123.224	-97.842	0.205	0.052
-122.210	182.720	0.191	0.276
-121.195	694.979	0.126	-0.325
-120.180	800.000	0.039	-0.163
