DTS Sentinel unit serial number:	SN413079Multiplexer serial number:	ORYXHardware model number:	OX4-SRSoftware version number:	ORYX F/W v4.00 Oryx Data Collector v3.7.2.0data status	okinstallation	princeton_trtdifferential loss correction	single-endedforward channel	channel 1reverse channel	N/Adate	2019/09/19time	05:26:35forward acquisition time	60.00reverse acquisition time	0.00gamma	496.2192k internal	0.2343k external	0.2343temperature offset calibration	1.0019default loss term (dB/km)	0.3790temperature slope calibration	1.0000multiplexer offset coefficient	1.0000multiplexer slope coefficient	1.0000fibre end	0.00T internal ref (°C)	19.39T ext. ref 1 (°C)	0.60T ext. ref 2 (°C)	13.09length (m)	temperature (°C)	Stokes	anti-Stokes-747.200	39.199	-0.354	0.317
-746.185	-200.000	0.004	0.183
-745.171	75.304	0.031	-0.033
-744.156	513.321	0.078	-0.182
-743.142	-83.187	0.281	0.091
-742.127	70.605	-0.226	0.234
-741.112	-81.314	-0.088	0.029
-740.098	-12.173	-0.391	0.256
-739.083	800.000	-0.019	0.079
-738.069	-61.987	-0.430	0.180
-737.054	-9.672	0.059	0.039
-736.039	-200.000	-0.419	0.001
-735.025	170.186	-0.151	0.216
-734.010	-200.000	0.001	0.068
-732.996	41.767	-0.222	0.201
-731.981	800.000	-0.154	0.436
-730.966	800.000	-0.049	-0.176
-729.952	50.078	-0.100	0.095
-728.937	-98.183	-0.202	-0.052
-727.923	-122.193	-0.201	-0.033
-726.908	517.538	-0.047	0.110
-725.894	280.373	-0.129	-0.230
-724.879	4.690	0.149	-0.110
-723.864	410.873	-0.008	-0.016
-722.850	-0.284	-0.128	0.091
-721.835	44.440	-0.040	-0.037
-720.821	800.000	0.112	-0.361
-719.806	-56.320	-0.339	-0.151
-718.791	506.273	0.020	0.046
-717.777	17.074	0.128	0.102
-716.762	-200.000	-0.306	0.000
-715.748	800.000	-0.023	-0.079
-714.733	354.913	0.119	-0.237
-713.718	14.407	0.117	0.091
-712.704	545.895	-0.058	-0.139
-711.689	-43.909	-0.129	0.065
-710.675	-132.614	0.290	-0.037
-709.660	-133.345	0.363	-0.046
-708.645	359.911	0.053	0.107
-707.631	356.401	-0.070	-0.140
-706.616	-60.492	-0.240	-0.102
-705.602	12.348	-0.097	0.075
-704.587	122.055	-0.025	-0.031
-703.572	800.000	-0.068	0.245
-702.558	1.066	-0.463	-0.332
-701.543	167.160	-0.168	-0.238
-700.529	-200.000	0.062	0.343
-699.514	-78.638	-0.244	0.083
-698.499	377.155	-0.090	-0.185
-697.485	-41.247	-0.263	-0.135
-696.470	-90.912	-0.212	0.061
-695.456	-81.568	0.153	0.050
-694.441	-72.918	0.302	0.111
-693.426	-131.445	-0.285	-0.038
-692.412	-200.000	0.017	-0.170
-691.397	-200.000	0.013	0.242
-690.383	-34.339	-0.070	-0.038
-689.368	-200.000	0.009	0.052
-688.354	-200.000	-0.091	-0.418
-687.339	17.511	0.096	-0.076
-686.324	-82.417	0.380	0.123
-685.310	-200.000	0.034	-0.373
-684.295	-200.000	-0.016	-0.272
-683.281	292.631	0.138	-0.252
-682.266	-200.000	0.011	-0.247
-681.251	-76.905	0.081	0.028
-680.237	-200.000	-0.005	-0.152
-679.222	-74.134	0.159	0.058
-678.208	72.325	-0.357	-0.372
-677.193	-73.459	0.457	-0.167
-676.178	-27.037	-0.177	-0.103
-675.164	29.594	-0.172	-0.147
-674.149	390.850	-0.143	-0.295
-673.135	138.492	0.070	-0.092
-672.120	-145.852	0.379	0.034
-671.105	800.000	0.064	-0.276
-670.091	49.184	0.166	0.156
-669.076	-200.000	0.001	0.124
-668.062	-200.000	0.063	-0.646
-667.047	-12.110	-0.161	-0.105
-666.032	-18.946	-0.112	-0.070
-665.018	-58.499	0.139	0.060
-664.003	38.952	0.033	0.029
-662.989	-200.000	-0.008	-0.272
-661.974	-4.956	-0.051	-0.035
-660.959	145.884	0.022	0.029
-659.945	8.695	-0.274	-0.206
-658.930	316.049	-0.086	0.162
-657.916	-200.000	-0.005	-0.115
-656.901	77.661	0.161	-0.172
-655.886	145.442	0.224	-0.300
-654.872	-200.000	-0.018	-0.085
-653.857	-86.765	-0.246	-0.075
-652.843	-200.000	-0.021	0.109
-651.828	23.572	-0.261	0.214
-650.814	-90.817	0.193	0.056
-649.799	179.766	-0.045	-0.066
-648.784	-200.000	-0.351	-0.000
-647.770	-5.173	-0.245	-0.168
-646.755	44.379	0.185	-0.169
-645.741	-81.292	0.239	-0.079
-644.726	-2.144	-0.201	0.141
-643.711	458.520	0.112	0.249
-642.697	-19.563	-0.212	-0.131
-641.682	-9.407	0.262	-0.175
-640.668	-22.042	-0.350	-0.212
-639.653	-200.000	-0.060	0.283
-638.638	-200.000	-0.003	-0.187
-637.624	-31.295	0.235	0.132
-636.609	544.486	0.180	0.429
-635.595	540.031	0.127	0.302
-634.580	-97.575	-0.117	0.030
-633.565	-200.000	-0.012	0.356
-632.551	-191.138	-0.134	-0.001
-631.536	-70.061	0.154	-0.058
-630.522	-200.000	0.002	0.478
-629.507	-26.712	-0.076	-0.044
-628.492	-178.508	-0.066	-0.002
-627.478	-58.006	0.154	0.067
-626.463	-200.000	0.022	0.170
-625.449	93.997	-0.111	-0.126
-624.434	-71.432	0.242	-0.090
-623.419	7.558	-0.188	-0.140
-622.405	-1.584	0.109	0.077
-621.390	-104.841	-0.132	-0.030
-620.376	-200.000	-0.020	0.147
-619.361	800.000	0.126	-0.445
-618.346	47.129	-0.165	-0.153
-617.332	452.563	0.057	-0.125
-616.317	800.000	0.076	-0.291
-615.303	-88.690	-0.206	-0.061
-614.288	489.621	0.038	-0.087
-613.273	-200.000	-0.006	-0.316
-612.259	-114.205	-0.127	0.024
-611.244	264.948	0.115	0.200
-610.230	-129.848	-0.074	0.010
-609.215	77.611	0.146	-0.155
-608.201	9.233	0.180	-0.136
-607.186	-64.099	-0.349	-0.142
-606.171	-113.483	0.050	-0.010
-605.157	-200.000	-0.009	0.073
-604.142	-84.208	-0.197	-0.062
-603.128	100.763	0.201	-0.233
-602.113	-200.000	0.023	0.163
-601.098	-6.892	0.088	-0.059
-600.084	136.532	0.279	0.362
-599.069	336.798	0.033	-0.065
-598.055	60.671	0.041	-0.040
-597.040	-118.243	-0.218	0.039
-596.025	56.579	-0.106	0.102
-595.011	-200.000	0.006	0.051
-593.996	8.631	-0.110	-0.083
-592.982	-39.211	-0.056	-0.029
-591.967	772.470	-0.192	-0.521
-590.952	-200.000	0.014	-0.331
-589.938	-60.181	-0.265	-0.113
-588.923	791.262	-0.125	-0.341
-587.909	109.158	-0.258	-0.308
-586.894	-49.260	-0.191	-0.091
-585.879	-154.247	0.046	0.003
-584.865	-200.000	0.003	-0.016
-583.850	-17.881	-0.103	-0.064
-582.836	-200.000	-0.002	0.050
-581.821	-113.675	-0.166	0.032
-580.806	-77.937	-0.255	-0.088
-579.792	207.730	0.045	-0.071
-578.777	-127.979	0.170	-0.024
-577.763	-15.826	0.225	0.143
-576.748	365.414	-0.104	0.209
-575.733	92.907	-0.114	-0.128
-574.719	33.934	-0.238	0.206
-573.704	414.990	0.145	-0.307
-572.690	14.719	-0.323	-0.251
-571.675	-200.000	0.038	0.285
-570.661	630.255	0.082	0.207
-569.646	-195.719	-0.221	0.002
-568.631	23.472	0.087	-0.071
-567.617	800.000	-0.174	-0.554
-566.602	67.201	0.124	-0.126
-565.588	-200.000	0.004	-0.030
-564.573	227.814	-0.102	-0.164
-563.558	69.271	0.126	-0.128
-562.544	-140.301	0.262	-0.027
-561.529	-115.293	-0.382	-0.072
-560.515	-76.477	-0.112	0.039
-559.500	-25.049	-0.171	-0.101
-558.485	-29.117	-0.187	0.107
-557.471	-200.000	-0.028	0.275
-556.456	-8.183	0.157	-0.105
-555.442	395.513	-0.035	-0.072
-554.427	44.762	0.073	-0.067
-553.412	49.684	-0.139	-0.130
-552.398	-200.000	0.016	-0.265
-551.383	175.984	0.141	-0.204
-550.369	130.932	-0.134	-0.171
-549.354	-200.000	0.067	0.301
-548.339	-6.301	0.090	-0.061
-547.325	438.368	-0.036	0.078
-546.310	800.000	0.049	-0.145
-545.296	12.161	0.096	-0.074
-544.281	-112.014	-0.414	-0.083
-543.266	-118.943	-0.068	-0.012
-542.252	-146.321	0.160	0.014
-541.237	-200.000	-0.039	0.298
-540.223	-131.662	0.352	-0.046
-539.208	-15.649	0.216	-0.137
-538.193	-76.083	-0.143	-0.050
-537.179	28.768	0.100	-0.084
-536.164	186.725	0.177	-0.262
-535.150	209.686	-0.199	0.309
-534.135	-124.181	0.172	0.027
-533.121	-98.164	0.131	0.033
-532.106	91.480	-0.082	0.092
-531.091	134.703	0.177	0.228
-530.077	238.170	0.108	0.179
-529.062	-17.876	-0.230	0.143
-528.048	-99.629	-0.038	-0.010
-527.033	-134.883	-0.335	0.040
-526.018	-105.848	-0.245	0.055
-525.004	-10.453	0.180	0.119
-523.989	353.228	0.128	-0.252
-522.975	-93.174	0.198	-0.055
-521.960	-81.827	-0.279	-0.091
-520.945	13.537	-0.138	-0.106
-519.931	295.919	0.122	0.221
-518.916	800.000	0.119	0.335
-517.902	-75.557	-0.238	0.084
-516.887	-200.000	-0.103	-0.452
-515.872	-24.658	0.049	0.029
-514.858	-48.788	-0.143	0.068
-513.843	216.930	-0.061	0.097
-512.829	46.876	-0.092	0.085
-511.814	800.000	-0.044	-0.161
-510.799	93.383	0.141	-0.158
-509.785	-59.575	-0.484	0.206
-508.770	25.468	-0.190	-0.157
-507.756	-4.850	-0.086	0.059
-506.741	-136.430	-0.262	0.030
-505.726	541.335	-0.025	0.059
-504.712	-116.090	0.237	0.044
-503.697	-200.000	0.011	0.134
-502.683	75.251	-0.160	0.167
-501.668	-170.855	0.181	-0.006
-500.653	-94.340	-0.217	0.059
-499.639	297.164	0.097	-0.176
-498.624	221.113	-0.065	-0.104
-497.610	33.832	0.069	0.060
-496.595	108.512	0.023	0.027
-495.581	-0.847	-0.210	0.148
-494.566	102.869	0.115	0.133
-493.551	580.483	-0.085	0.206
-492.537	217.656	-0.136	0.215
-491.522	-200.000	0.073	0.478
-490.508	-89.250	-0.241	0.070
-489.493	57.845	0.056	-0.054
-488.478	-85.810	0.175	0.054
-487.464	800.000	-0.083	-0.243
-486.449	800.000	0.045	-0.165
-485.435	-200.000	-0.024	-0.159
-484.420	-120.265	0.329	-0.056
-483.405	47.493	0.073	-0.067
-482.391	-200.000	-0.007	-0.227
-481.376	-200.000	-0.070	0.422
-480.362	30.546	0.145	-0.123
-479.347	-200.000	0.020	-0.175
-478.332	423.290	-0.194	0.414
-477.318	-200.000	-0.047	-0.254
-476.303	762.752	-0.099	-0.267
-475.289	217.596	0.029	0.046
-474.274	800.000	0.097	0.298
-473.259	-104.128	0.148	-0.034
-472.245	-103.233	0.371	0.087
-471.230	-200.000	0.067	0.300
-470.216	92.015	0.039	-0.044
-469.201	152.836	-0.091	0.123
-468.186	-34.484	-0.178	-0.097
-467.172	95.546	-0.017	0.020
-466.157	-86.476	-0.344	-0.105
-465.143	166.312	-0.004	-0.006
-464.128	-91.225	0.344	0.098
-463.113	-71.056	0.060	0.022
-462.099	-170.722	0.562	-0.019
-461.084	-111.654	-0.477	0.096
-460.070	-200.000	0.050	-0.292
-459.055	-200.000	-0.001	0.131
-458.040	-74.600	0.186	0.066
-457.026	182.708	-0.122	-0.178
-456.011	250.638	0.130	-0.218
-454.997	-137.186	-0.285	-0.032
-453.982	-103.254	0.007	0.002
-452.968	-166.720	0.081	-0.003
-451.953	800.000	-0.095	0.266
-450.938	-91.196	-0.280	0.079
-449.924	150.605	-0.042	0.057
-448.909	121.704	-0.293	-0.361
-447.895	-200.000	-0.002	-0.062
-446.880	-139.889	0.313	0.033
-445.865	-90.098	-0.087	0.025
-444.851	-200.000	-0.016	-0.251
-443.836	286.841	0.058	-0.105
-442.822	570.279	0.013	0.031
-441.807	-200.000	-0.046	-0.329
-440.792	459.521	0.076	-0.168
-439.778	-101.185	0.211	0.051
-438.763	334.528	0.166	0.317
-437.749	421.556	0.014	0.030
-436.734	800.000	0.052	-0.161
-435.719	97.928	-0.053	0.061
-434.705	130.895	0.176	-0.224
-433.690	144.433	0.031	0.041
-432.676	-106.007	0.202	0.045
-431.661	-190.184	0.118	0.001
-430.646	430.977	0.173	0.370
-429.632	450.593	0.086	0.189
-428.617	-116.152	-0.265	0.049
-427.603	19.475	0.280	0.223
-426.588	111.907	0.037	0.044
-425.573	783.955	-0.079	0.213
-424.559	328.765	0.104	0.197
-423.544	800.000	-0.025	0.081
-422.530	76.211	0.135	-0.141
-421.515	30.406	-0.108	0.092
-420.500	-20.316	-0.065	0.039
-419.486	-200.000	-0.059	-0.345
-418.471	-139.944	0.178	0.019
-417.457	219.431	0.145	0.230
-416.442	-34.117	0.205	-0.112
-415.428	589.371	-0.134	-0.327
-414.413	-109.337	-0.087	0.018
-413.398	-200.000	-0.019	-0.255
-412.384	800.000	-0.126	0.388
-411.369	-45.797	0.320	-0.156
-410.355	0.429	0.184	-0.130
-409.340	800.000	-0.027	-0.077
-408.325	800.000	0.082	0.323
-407.311	113.797	-0.143	-0.171
-406.296	-33.759	-0.170	0.093
-405.282	55.132	0.276	-0.264
-404.267	-1.105	-0.343	0.239
-403.252	-200.000	-0.050	-0.255
-402.238	380.348	0.104	0.211
-401.223	800.000	-0.033	-0.090
-400.209	-35.292	0.111	-0.060
-399.194	-189.226	0.219	-0.003
-398.179	195.163	0.181	-0.271
-397.165	-67.281	-0.258	0.100
-396.150	800.000	-0.035	0.131
-395.136	-22.380	-0.169	-0.101
-394.121	-200.000	-0.061	0.276
-393.106	-145.484	-0.305	0.027
-392.092	-49.289	-0.105	0.050
-391.077	252.664	0.136	-0.228
-390.063	-115.444	-0.078	-0.014
-389.048	259.342	-0.182	-0.310
-388.033	384.725	-0.087	-0.177
-387.019	55.707	-0.139	0.133
-386.004	318.208	0.178	-0.334
-384.990	694.666	0.103	0.267
-383.975	126.193	-0.190	0.238
-382.960	-55.755	0.209	-0.092
-381.946	-28.772	0.221	0.126
-380.931	-73.990	-0.391	0.140
-379.917	547.073	0.173	-0.408
-378.902	-135.147	0.072	0.009
-377.888	610.317	0.067	-0.166
-376.873	-34.253	-0.261	0.141
-375.858	20.407	0.232	0.185
-374.844	-35.012	-0.282	0.152
-373.829	615.794	0.019	-0.047
-372.815	642.470	-0.076	-0.190
-371.800	-67.057	0.377	0.147
-370.785	-133.161	-0.358	-0.045
-369.771	-92.054	0.294	-0.082
-368.756	17.995	0.128	-0.100
-367.742	-200.000	-0.004	0.065
-366.727	-110.338	-0.248	-0.051
-365.712	-103.266	-0.239	0.056
-364.698	-200.000	-0.004	0.151
-363.683	214.918	-0.085	0.133
-362.669	-200.000	0.013	0.166
-361.654	-89.939	0.235	0.068
-360.639	22.043	0.327	-0.263
-359.625	2.024	-0.074	0.053
-358.610	-97.763	-0.271	-0.069
-357.596	8.859	0.226	-0.168
-356.581	8.206	0.390	-0.289
-355.566	625.473	0.064	-0.158
-354.552	0.238	-0.183	-0.129
-353.537	-11.660	-0.026	0.017
-352.523	-200.000	0.018	0.257
-351.508	-127.845	-0.161	0.023
-350.493	-132.522	0.212	-0.027
-349.479	-142.747	-0.132	0.013
-348.464	238.712	-0.166	0.273
-347.450	-64.944	-0.115	-0.046
-346.435	295.731	-0.062	0.112
-345.420	698.095	0.151	0.392
-344.406	324.003	0.230	0.433
-343.391	-89.763	-0.492	-0.142
-342.377	705.048	0.066	0.171
-341.362	-97.940	0.169	0.043
-340.348	-8.773	0.246	0.163
-339.333	-34.184	-0.325	-0.176
-338.318	327.616	-0.083	-0.156
-337.304	-46.739	0.131	-0.063
-336.289	-200.000	0.024	0.196
-335.275	-28.599	-0.222	-0.126
-334.260	-196.713	0.378	0.002
-333.245	-59.367	-0.399	0.169
-332.231	-75.357	0.212	-0.074
-331.216	-41.135	-0.300	0.153
-330.202	-104.099	-0.195	-0.045
-329.187	30.917	0.094	-0.079
-328.172	-89.903	0.383	-0.110
-327.158	-200.000	-0.004	-0.330
-326.143	800.000	0.160	-0.540
-325.129	-32.212	-0.327	-0.180
-324.114	315.679	-0.024	0.046
-323.099	-112.888	0.206	-0.040
-322.085	39.141	-0.059	0.052
-321.070	72.398	0.117	0.120
-320.056	378.179	-0.033	-0.067
-319.041	-44.001	-0.185	-0.091
-318.026	800.000	0.053	0.190
-317.012	-78.821	-0.112	0.037
-315.997	158.809	-0.097	0.133
-314.983	72.506	0.154	-0.158
-313.968	-78.271	0.042	0.014
-312.953	-154.308	-0.258	-0.017
-311.939	-123.708	-0.145	-0.023
-310.924	800.000	0.122	0.347
-309.910	-200.000	0.026	-0.519
-308.895	-37.154	0.360	-0.190
-307.880	-200.000	0.061	0.313
-306.866	-200.000	0.017	0.109
-305.851	-25.438	-0.179	-0.104
-304.837	-109.191	0.223	0.047
-303.822	-116.479	-0.046	-0.008
-302.807	800.000	-0.052	-0.167
-301.793	451.940	-0.094	0.204
-300.778	-107.040	-0.132	0.029
-299.764	79.058	-0.137	0.144
-298.749	228.862	0.126	0.202
-297.735	28.534	-0.187	-0.156
-296.720	57.099	0.312	0.300
-295.705	277.178	0.065	0.113
-294.691	-200.000	-0.021	-0.132
-293.676	-72.107	-0.076	-0.028
-292.662	-18.880	-0.263	0.161
-291.647	-116.440	0.174	0.032
-290.632	62.499	-0.095	-0.093
-289.618	-71.487	0.076	0.028
-288.603	30.472	-0.190	0.160
-287.589	325.547	0.090	-0.169
-286.574	-200.000	0.001	-0.056
-285.559	117.460	0.087	-0.105
-284.545	-129.398	0.063	-0.009
-283.530	800.000	0.042	0.132
-282.516	-25.111	0.202	-0.118
-281.501	-11.842	0.322	0.208
-280.486	-21.007	0.113	-0.068
-279.472	-200.000	0.019	0.202
-278.457	23.195	0.053	-0.043
-277.443	-200.000	-0.001	0.031
-276.428	-140.656	-0.375	0.038
-275.413	-200.000	0.008	-0.060
-274.399	-44.778	0.154	-0.076
-273.384	31.375	0.112	0.094
-272.370	-101.212	0.119	-0.029
-271.355	-200.000	-0.028	0.151
-270.340	800.000	0.085	-0.303
-269.326	-5.107	0.256	0.173
-268.311	-6.945	-0.249	-0.166
-267.297	45.222	0.152	0.138
-266.282	-62.723	0.216	-0.088
-265.267	32.283	-0.031	-0.026
-264.253	-48.188	0.309	-0.147
-263.238	-17.606	-0.303	0.187
-262.224	53.160	-0.226	0.213
-261.209	363.864	0.157	-0.310
-260.195	-134.285	0.278	0.034
-259.180	-133.535	0.176	0.022
-258.165	800.000	0.096	0.265
-257.151	237.158	0.407	0.663
-256.136	-20.136	0.080	0.048
-255.122	-200.000	-0.013	0.143
-254.107	-200.000	-0.051	0.233
-253.092	11.895	-0.215	-0.163
-252.078	-69.954	0.112	-0.042
-251.063	527.087	0.116	-0.269
-250.049	-2.984	-0.135	0.093
-249.034	800.000	-0.117	-0.352
-248.019	794.574	-0.082	0.223
-247.005	-10.069	-0.183	-0.119
-245.990	-200.000	0.028	0.125
-244.976	-200.000	-0.135	0.000
-243.961	-200.000	-0.046	0.209
-242.946	-159.382	0.114	-0.006
-241.932	370.200	-0.114	0.228
-240.917	-152.945	-0.073	-0.005
-239.903	120.255	-0.090	0.110
-238.888	-156.629	0.285	0.017
-237.873	-200.000	0.021	-0.119
-236.859	-126.052	0.087	0.013
-235.844	-39.122	-0.105	0.054
-234.830	-5.183	0.276	-0.186
-233.815	-200.000	0.025	-0.157
-232.800	363.240	-0.174	-0.343
-231.786	-106.985	0.086	0.019
-230.771	0.174	0.152	-0.106
-229.757	173.443	-0.113	-0.160
-228.742	487.315	0.081	-0.181
-227.727	-200.000	-0.046	-0.473
-226.713	-200.000	-0.177	0.000
-225.698	121.095	0.319	0.389
-224.684	-122.256	0.190	-0.030
-223.669	501.354	-0.116	-0.263
-222.655	-150.299	-0.266	0.020
-221.640	-14.836	-0.124	0.078
-220.625	-81.126	0.226	0.073
-219.611	-200.000	0.067	0.412
-218.596	-14.142	-0.105	-0.067
-217.582	178.618	-0.254	-0.364
-216.567	192.585	-0.080	-0.118
-215.552	66.784	-0.182	-0.181
-214.538	800.000	0.121	-0.424
-213.523	-35.369	0.204	-0.109
-212.509	124.693	0.174	0.215
-211.494	-152.642	0.262	-0.018
-210.479	-200.000	0.027	0.154
-209.465	-200.000	0.001	-0.134
-208.450	77.235	-0.260	0.271
-207.436	148.615	-0.144	0.190
-206.421	800.000	-0.071	0.220
-205.406	140.218	0.123	-0.159
-204.392	-200.000	0.015	0.120
-203.377	-187.134	0.259	-0.003
-202.363	-12.235	-0.082	-0.053
-201.348	230.886	-0.204	0.328
-200.333	-19.484	0.244	0.148
-199.319	-20.362	-0.193	0.117
-198.304	800.000	0.034	-0.103
-197.290	60.282	-0.151	0.146
-196.275	-174.853	-0.136	-0.004
-195.260	159.893	-0.161	0.220
-194.246	-23.437	-0.196	0.115
-193.231	800.000	-0.051	0.182
-192.217	-118.777	0.178	0.031
-191.202	-200.000	0.005	-0.168
-190.187	277.955	0.156	0.271
-189.173	0.455	0.218	0.153
-188.158	193.151	0.292	0.432
-187.144	-28.966	0.175	-0.099
-186.129	-31.384	-0.484	0.267
-185.114	-84.342	0.406	-0.126
-184.100	339.769	-0.091	-0.173
-183.085	126.304	0.268	-0.332
-182.071	800.000	-0.032	-0.098
-181.056	523.456	0.148	-0.341
-180.042	800.000	-0.122	-0.401
-179.027	-28.497	0.107	0.061
-178.012	628.094	0.089	0.220
-176.998	-42.446	-0.344	-0.172
-175.983	-200.000	-0.010	0.048
-174.969	-61.854	0.068	-0.028
-173.954	31.288	0.091	0.076
-172.939	-18.098	-0.056	-0.034
-171.925	15.953	0.038	0.030
-170.910	8.979	-0.171	-0.126
-169.896	-62.757	-0.232	-0.094
-168.881	-140.312	0.442	0.045
-167.866	-42.118	-0.150	-0.075
-166.852	800.000	0.097	0.303
-165.837	154.978	0.180	0.242
-164.823	61.793	-0.248	0.241
-163.808	-130.006	0.014	-0.002
-162.793	244.333	0.077	0.127
-161.779	-162.853	0.433	-0.021
-160.764	524.122	0.067	-0.155
-159.750	403.651	-0.154	-0.316
-158.735	-40.540	-0.055	0.028
-157.720	348.086	0.072	0.139
-156.706	119.400	0.045	-0.054
-155.691	-132.572	-0.343	-0.043
-154.677	800.000	0.111	0.359
-153.662	31.126	0.202	0.169
-152.647	536.261	-0.044	0.102
-151.633	32.734	0.188	0.159
-150.618	29.623	-0.035	0.029
-149.604	-17.850	0.156	0.096
-148.589	525.899	0.017	-0.040
-147.574	-3.729	0.234	-0.159
-146.560	800.000	0.075	0.292
-145.545	421.866	0.049	0.103
-144.531	132.310	0.118	-0.148
-143.516	-200.000	0.033	0.274
-142.502	-2.619	-0.125	0.085
-141.487	136.418	-0.143	-0.183
-140.472	-165.304	-0.106	0.005
-139.458	-200.000	-0.054	0.485
-138.443	-200.000	0.016	-0.396
-137.429	-200.000	-0.013	-0.093
-136.414	-41.475	0.131	0.066
-135.399	800.000	0.146	0.454
-134.385	-122.790	-0.207	0.033
-133.370	84.598	0.114	0.121
-132.356	243.841	0.222	-0.364
-131.341	-13.521	-0.291	0.185
-130.326	60.413	0.125	-0.121
-129.312	11.794	-0.032	0.024
-128.297	0.186	-0.214	0.149
-127.283	-0.732	0.172	0.119
-126.268	-200.000	0.048	0.208
-125.253	363.275	0.216	-0.424
-124.239	404.990	0.123	-0.254
-123.224	-80.503	0.251	0.082
-122.210	140.824	0.055	-0.071
-121.195	296.269	0.053	0.095
-120.180	47.943	0.142	0.129
