DTS Sentinel unit serial number:	SN413079Multiplexer serial number:	ORYXHardware model number:	OX4-SRSoftware version number:	ORYX F/W v4.00 Oryx Data Collector v3.7.2.0data status	okinstallation	princeton_trtdifferential loss correction	single-endedforward channel	channel 1reverse channel	N/Adate	2019/09/19time	06:54:35forward acquisition time	60.00reverse acquisition time	0.00gamma	496.2192k internal	0.2343k external	0.2343temperature offset calibration	1.0015default loss term (dB/km)	0.3790temperature slope calibration	1.0000multiplexer offset coefficient	1.0000multiplexer slope coefficient	1.0000fibre end	0.00T internal ref (°C)	19.00T ext. ref 1 (°C)	0.56T ext. ref 2 (°C)	12.72length (m)	temperature (°C)	Stokes	anti-Stokes-747.200	-200.000	-0.097	0.438
-746.185	-178.942	-0.479	-0.011
-745.171	-200.000	0.026	0.389
-744.156	31.370	-0.279	0.240
-743.142	19.907	-0.197	0.159
-742.127	19.006	-0.264	0.212
-741.112	-110.075	-0.143	0.030
-740.098	-200.000	-0.001	0.060
-739.083	-83.709	0.272	-0.087
-738.069	12.844	-0.434	0.336
-737.054	-29.283	0.207	0.119
-736.039	53.625	-0.261	-0.251
-735.025	-162.323	-0.064	0.003
-734.010	-182.021	-0.203	0.004
-732.996	-46.239	-0.103	0.051
-731.981	251.373	-0.170	-0.290
-730.966	11.456	-0.207	0.159
-729.952	66.527	-0.152	-0.154
-728.937	-116.749	-0.369	-0.068
-727.923	-90.453	-0.359	0.104
-726.908	-200.000	-0.043	-0.223
-725.894	-136.678	-0.251	-0.029
-724.879	-200.000	0.002	-0.443
-723.864	20.137	-0.237	0.191
-722.850	-73.771	-0.314	0.114
-721.835	-44.419	0.100	0.050
-720.821	-54.042	0.209	0.095
-719.806	220.102	-0.154	-0.247
-718.791	437.767	-0.085	-0.185
-717.777	-90.414	-0.295	0.086
-716.762	-85.154	0.152	0.048
-715.748	19.637	0.181	-0.146
-714.733	53.346	0.098	0.094
-713.718	711.127	-0.130	0.345
-712.704	-87.134	-0.279	0.085
-711.689	800.000	0.080	0.334
-710.675	-57.942	-0.284	-0.124
-709.660	-81.231	0.321	-0.106
-708.645	-200.000	-0.003	-0.021
-707.631	-106.979	0.453	0.100
-706.616	162.384	0.078	0.110
-705.602	-200.000	-0.017	0.164
-704.587	-6.770	-0.106	0.072
-703.572	-200.000	-0.125	-0.652
-702.558	-200.000	-0.007	-0.291
-701.543	-200.000	-0.006	-0.046
-700.529	343.728	0.073	-0.142
-699.514	17.601	-0.149	0.119
-698.499	0.135	0.117	-0.083
-697.485	66.329	0.187	-0.190
-696.470	-109.449	0.133	-0.028
-695.456	-200.000	-0.003	0.249
-694.441	281.480	-0.051	0.091
-693.426	-200.000	0.037	-0.223
-692.412	-135.374	0.062	-0.007
-691.397	234.046	0.038	-0.062
-690.383	30.394	-0.180	-0.154
-689.368	-62.415	-0.202	0.084
-688.354	40.246	0.139	-0.125
-687.339	-32.904	-0.172	0.096
-686.324	-200.000	0.018	0.143
-685.310	-33.641	0.142	-0.078
-684.295	-55.389	0.232	-0.104
-683.281	-105.636	-0.137	0.031
-682.266	800.000	-0.099	-0.381
-681.251	-86.970	-0.205	0.062
-680.237	800.000	0.048	-0.206
-679.222	40.541	-0.140	0.126
-678.208	470.285	0.025	0.057
-677.193	-119.377	-0.104	0.018
-676.178	-200.000	-0.007	-0.063
-675.164	-26.233	0.072	-0.042
-674.149	-28.672	-0.167	-0.096
-673.135	-63.804	-0.228	0.093
-672.120	-127.857	0.241	0.035
-671.105	-200.000	0.011	-0.124
-670.091	46.120	-0.035	-0.032
-669.076	171.614	-0.170	-0.244
-668.062	-74.790	-0.350	0.125
-667.047	800.000	-0.107	-0.356
-666.032	164.693	-0.155	0.218
-665.018	800.000	-0.128	-0.477
-664.003	800.000	0.042	-0.145
-662.989	282.196	0.108	0.193
-661.974	-74.029	-0.232	-0.084
-660.959	-200.000	0.002	-0.232
-659.945	151.266	-0.085	-0.116
-658.930	92.243	-0.129	-0.145
-657.916	-14.170	0.173	0.111
-656.901	145.394	0.073	-0.098
-655.886	800.000	-0.101	0.281
-654.872	-63.057	-0.289	-0.119
-653.857	800.000	0.024	-0.088
-652.843	-40.457	0.282	-0.146
-651.828	-200.000	-0.111	0.492
-650.814	791.592	-0.016	-0.044
-649.799	800.000	0.026	-0.093
-648.784	-123.202	-0.263	-0.042
-647.770	-200.000	0.019	0.346
-646.755	-76.017	0.251	0.088
-645.741	-200.000	-0.039	-0.206
-644.726	-92.978	0.116	-0.032
-643.711	-102.456	0.169	-0.040
-642.697	631.287	0.055	-0.138
-641.682	-80.744	-0.217	-0.072
-640.668	454.757	0.065	0.144
-639.653	102.506	-0.180	-0.210
-638.638	-200.000	0.035	-0.179
-637.624	87.834	0.268	-0.296
-636.609	9.950	0.232	0.176
-635.595	27.407	-0.081	0.068
-634.580	-142.263	-0.284	0.028
-633.565	-137.060	-0.161	0.018
-632.551	70.876	-0.328	-0.339
-631.536	800.000	0.056	-0.233
-630.522	184.586	-0.094	0.139
-629.507	-3.394	-0.142	0.099
-628.492	-200.000	0.019	-0.283
-627.478	-200.000	0.070	-0.608
-626.463	-117.559	-0.196	0.035
-625.449	59.541	0.175	0.172
-624.434	-0.390	-0.333	-0.236
-623.419	43.949	0.184	0.168
-622.405	17.669	0.190	-0.151
-621.390	51.109	0.150	0.142
-620.376	-13.183	-0.123	-0.080
-619.361	-200.000	-0.002	0.067
-618.346	-200.000	-0.017	0.262
-617.332	148.058	0.037	0.050
-616.317	119.379	-0.032	0.039
-615.303	800.000	-0.012	0.032
-614.288	-200.000	0.006	-0.144
-613.273	-124.832	0.024	0.004
-612.259	-200.000	-0.003	0.163
-611.244	-71.098	0.115	0.043
-610.230	27.237	-0.133	-0.111
-609.215	21.661	-0.163	-0.132
-608.201	244.931	0.234	0.392
-607.186	-83.429	-0.168	-0.054
-606.171	78.632	-0.169	0.180
-605.157	124.206	-0.009	-0.011
-604.142	325.003	0.104	0.198
-603.128	335.513	0.067	0.129
-602.113	-155.146	-0.315	-0.020
-601.098	-137.856	0.296	0.033
-600.084	800.000	-0.070	0.290
-599.069	110.675	-0.270	0.323
-598.055	-89.265	-0.298	0.088
-597.040	-197.510	0.424	-0.003
-596.025	800.000	0.087	0.308
-595.011	-200.000	-0.014	-0.115
-593.996	-200.000	0.015	-0.269
-592.982	-69.849	-0.031	0.012
-591.967	-200.000	-0.030	-0.219
-590.952	-70.815	0.133	-0.050
-589.938	-200.000	0.061	-0.302
-588.923	0.123	-0.087	-0.062
-587.909	-102.365	-0.207	0.049
-586.894	-72.681	0.101	-0.037
-585.879	800.000	-0.013	0.049
-584.865	32.149	0.286	-0.245
-583.850	-43.334	0.232	0.117
-582.836	586.088	0.070	0.172
-581.821	203.067	-0.134	-0.207
-580.806	-200.000	-0.229	0.000
-579.792	41.070	-0.312	-0.280
-578.777	290.918	0.174	-0.315
-577.763	-172.217	0.032	0.001
-576.748	-28.368	-0.204	0.117
-575.733	-131.823	0.061	-0.008
-574.719	54.253	-0.111	0.106
-573.704	235.585	0.109	-0.179
-572.690	-22.227	0.322	0.194
-571.675	-52.626	0.311	-0.143
-570.661	-81.887	-0.065	-0.021
-569.646	800.000	-0.139	-0.419
-568.631	800.000	-0.047	0.159
-567.617	800.000	0.074	0.218
-566.602	-137.351	0.043	0.005
-565.588	-104.098	0.312	-0.072
-564.573	-200.000	0.003	0.279
-563.558	117.874	0.161	0.198
-562.544	113.950	-0.330	0.399
-561.529	-200.000	-0.021	0.323
-560.515	85.240	-0.056	0.061
-559.500	7.602	-0.080	-0.060
-558.485	598.423	0.087	0.214
-557.471	-200.000	0.034	-0.186
-556.456	-200.000	0.051	-0.260
-555.442	-91.769	0.135	0.038
-554.427	276.990	0.020	-0.036
-553.412	-58.332	0.155	-0.067
-552.398	800.000	0.030	-0.125
-551.383	10.660	-0.061	0.047
-550.369	800.000	-0.069	-0.272
-549.354	-98.193	-0.202	-0.052
-548.339	-56.050	-0.193	-0.086
-547.325	209.161	0.153	0.238
-546.310	49.066	-0.091	0.085
-545.296	-200.000	-0.080	-0.437
-544.281	471.129	-0.034	0.076
-543.266	-138.820	-0.284	0.031
-542.252	-200.000	0.014	-0.108
-541.237	45.927	-0.188	0.172
-540.223	23.123	0.219	-0.178
-539.208	-81.911	0.142	0.046
-538.193	800.000	-0.024	0.089
-537.179	141.958	-0.105	0.139
-536.164	-29.076	-0.021	0.012
-535.150	-19.017	0.244	-0.151
-534.135	-64.759	-0.156	-0.063
-533.121	-61.097	-0.151	-0.063
-532.106	78.520	0.089	0.094
-531.091	29.336	-0.136	0.115
-530.077	408.683	0.028	0.058
-529.062	-200.000	-0.019	-0.375
-528.048	-55.227	-0.356	0.159
-527.033	-148.005	0.115	0.009
-526.018	507.093	0.074	0.170
-525.004	-30.687	-0.128	0.072
-523.989	-200.000	-0.036	-0.251
-522.975	4.835	-0.059	-0.043
-521.960	-200.000	-0.025	-0.213
-520.945	92.541	-0.240	0.269
-519.931	427.876	-0.112	0.240
-518.916	-18.596	-0.312	0.193
-517.902	-200.000	-0.013	-0.286
-516.887	800.000	-0.024	-0.078
-515.872	-102.346	-0.201	0.048
-514.858	800.000	-0.087	-0.340
-513.843	-34.625	-0.009	0.005
-512.829	170.895	0.071	-0.101
-511.814	212.988	0.135	-0.211
-510.799	-112.468	0.231	0.046
-509.785	800.000	-0.033	-0.115
-508.770	-99.022	-0.133	0.034
-507.756	800.000	-0.073	-0.231
-506.741	-123.049	0.106	0.017
-505.726	140.125	-0.284	-0.372
-504.712	-95.803	0.324	-0.086
-503.697	328.100	-0.195	-0.371
-502.683	-118.786	0.321	-0.056
-501.668	182.134	0.047	0.069
-500.653	344.835	-0.091	0.177
-499.639	-200.000	-0.024	0.132
-498.624	-200.000	0.010	-0.064
-497.610	-46.795	-0.010	-0.005
-496.595	-200.000	0.001	0.125
-495.581	-21.463	-0.268	0.162
-494.566	-95.970	-0.138	-0.036
-493.551	-160.370	-0.233	-0.012
-492.537	261.650	-0.115	0.197
-491.522	17.025	-0.107	-0.084
-490.508	472.279	-0.156	-0.349
-489.493	559.559	0.035	0.084
-488.478	52.186	0.181	0.171
-487.464	81.594	-0.201	0.216
-486.449	-59.034	0.057	-0.025
-485.435	679.017	0.016	0.041
-484.420	20.183	0.154	-0.123
-483.405	-141.136	0.068	0.007
-482.391	-200.000	0.015	-0.532
-481.376	-46.194	-0.054	-0.026
-480.362	29.486	0.089	-0.075
-479.347	117.116	0.144	0.175
-478.332	-76.681	0.121	-0.042
-477.318	-63.465	-0.357	-0.145
-476.303	294.425	-0.118	-0.214
-475.289	-142.691	-0.146	0.014
-474.274	17.467	0.052	0.041
-473.259	30.997	-0.259	0.220
-472.245	-13.185	0.113	0.073
-471.230	-200.000	0.028	-0.147
-470.216	-200.000	0.017	0.159
-469.201	-122.232	-0.204	-0.033
-468.186	19.813	-0.154	0.123
-467.172	-109.191	-0.381	-0.080
-466.157	-84.203	-0.256	-0.080
-465.143	-3.970	-0.045	-0.031
-464.128	609.680	-0.156	0.385
-463.113	109.005	-0.106	0.126
-462.099	800.000	0.046	-0.154
-461.084	32.683	0.208	-0.178
-460.070	-200.000	0.001	0.008
-459.055	-200.000	-0.040	-0.254
-458.040	-200.000	0.001	-0.377
-457.026	-10.942	-0.244	0.159
-456.011	-66.599	0.181	-0.071
-454.997	137.520	-0.087	0.113
-453.982	-63.538	-0.239	0.097
-452.968	800.000	-0.040	-0.170
-451.953	187.722	-0.150	0.222
-450.938	2.478	0.285	-0.204
-449.924	-77.801	-0.363	0.124
-448.909	-129.958	-0.250	0.034
-447.895	322.419	0.082	0.155
-446.880	90.011	0.265	-0.293
-445.865	-26.796	0.212	0.122
-444.851	-200.000	0.092	0.404
-443.836	-200.000	0.013	-0.168
-442.822	-38.329	0.269	0.141
-441.807	-30.440	-0.057	-0.032
-440.792	-200.000	0.055	0.336
-439.778	-188.348	0.429	-0.005
-438.763	-103.327	-0.233	-0.054
-437.749	-200.000	-0.007	-0.380
-436.734	87.353	0.090	0.099
-435.719	497.742	0.138	0.315
-434.705	119.228	-0.075	-0.091
-433.690	-20.783	0.058	0.035
-432.676	272.558	0.142	0.248
-431.661	-200.000	-0.047	0.351
-430.646	-127.664	0.058	0.008
-429.632	20.816	0.124	-0.100
-428.617	377.618	0.109	0.220
-427.603	800.000	-0.066	0.203
-426.588	41.150	0.283	-0.253
-425.573	-200.000	-0.030	0.156
-424.559	800.000	0.067	0.261
-423.544	559.946	-0.146	0.349
-422.530	-47.175	-0.086	-0.042
-421.515	-96.587	0.040	-0.010
-420.500	-200.000	0.155	0.000
-419.486	473.436	-0.080	0.179
-418.471	-31.801	0.182	0.101
-417.457	-9.031	0.261	0.173
-416.442	-56.886	-0.080	0.035
-415.428	800.000	-0.020	-0.066
-414.413	-200.000	-0.042	0.181
-413.398	-35.810	0.160	0.086
-412.384	-129.940	0.181	0.025
-411.369	144.220	-0.096	0.127
-410.355	215.007	-0.096	-0.150
-409.340	-171.692	-0.374	-0.012
-408.325	60.482	0.097	-0.095
-407.311	-39.439	-0.085	0.044
-406.296	-53.118	-0.095	-0.043
-405.282	146.379	0.062	0.083
-404.267	-200.000	0.026	-0.160
-403.252	344.986	-0.137	0.266
-402.238	77.281	-0.066	-0.069
-401.223	-194.611	0.132	0.001
-400.209	249.907	-0.081	0.136
-399.194	58.647	0.257	-0.249
-398.179	-60.779	0.075	0.031
-397.165	-200.000	0.040	-0.233
-396.150	-152.271	-0.334	-0.024
-395.136	-200.000	-0.041	0.342
-394.121	-49.844	0.166	-0.078
-393.106	-39.384	-0.123	-0.064
-392.092	279.647	-0.040	0.071
-391.077	651.370	-0.124	-0.314
-390.063	193.698	0.155	-0.232
-389.048	-39.149	-0.205	0.106
-388.033	-94.569	0.065	-0.017
-387.019	248.979	0.040	0.067
-386.004	77.598	-0.070	0.073
-384.990	-11.418	-0.211	-0.137
-383.975	-115.704	0.323	-0.060
-382.960	-200.000	0.030	-0.261
-381.946	308.141	0.109	-0.201
-380.931	183.918	-0.225	-0.329
-379.917	-200.000	0.020	0.118
-378.902	465.168	-0.118	-0.260
-377.888	254.717	0.075	0.126
-376.873	-200.000	0.012	0.072
-375.858	91.220	-0.202	0.224
-374.844	800.000	0.042	0.144
-373.829	1.191	0.138	-0.097
-372.815	31.979	-0.018	-0.015
-371.800	-200.000	-0.038	-0.283
-370.785	-200.000	0.001	0.088
-369.771	20.793	-0.132	0.106
-368.756	800.000	-0.049	-0.180
-367.742	195.285	0.102	0.152
-366.727	-163.899	0.096	0.004
-365.712	573.075	-0.100	0.241
-364.698	-70.532	-0.129	0.048
-363.683	179.037	-0.092	0.133
-362.669	800.000	0.117	-0.340
-361.654	56.207	0.175	0.167
-360.639	229.372	-0.082	0.133
-359.625	-47.090	0.060	0.029
-358.610	-200.000	-0.004	0.480
-357.596	212.508	-0.184	-0.286
-356.581	351.817	0.069	0.135
-355.566	622.110	0.167	-0.415
-354.552	62.978	0.125	-0.123
-353.537	-155.580	0.294	-0.019
-352.523	145.466	-0.170	0.225
-351.508	-115.868	-0.094	-0.017
-350.493	265.547	-0.078	-0.133
-349.479	-28.404	-0.255	-0.145
-348.464	800.000	0.088	0.346
-347.450	800.000	0.107	0.305
-346.435	-86.675	0.039	0.012
-345.420	-124.796	0.248	-0.038
-344.406	-97.572	0.487	0.125
-343.391	-114.694	-0.307	0.058
-342.377	114.692	-0.046	0.055
-341.362	146.265	-0.114	-0.151
-340.348	90.402	-0.239	0.263
-339.333	183.933	0.049	0.072
-338.318	-83.799	0.464	-0.146
-337.304	800.000	0.120	-0.420
-336.289	-161.599	-0.224	-0.011
-335.275	-167.442	-0.341	-0.013
-334.260	48.551	-0.318	-0.293
-333.245	162.981	-0.043	-0.060
-332.231	-122.369	0.158	0.025
-331.216	257.491	-0.065	0.110
-330.202	-46.617	-0.087	-0.042
-329.187	-78.346	0.077	0.026
-328.172	-141.078	0.253	0.026
-327.158	-109.436	0.048	-0.010
-326.143	-200.000	-0.018	0.081
-325.129	93.640	0.114	0.127
-324.114	-58.055	0.247	0.106
-323.099	-10.568	-0.237	-0.154
-322.085	-113.586	0.378	-0.073
-321.070	-21.030	-0.297	0.179
-320.056	-53.764	0.501	0.225
-319.041	-129.818	-0.406	0.055
-318.026	800.000	-0.078	-0.287
-317.012	579.570	-0.134	-0.324
-315.997	457.416	-0.154	-0.337
-314.983	-200.000	0.033	-0.172
-313.968	162.867	0.104	0.144
-312.953	-145.164	-0.409	0.037
-311.939	320.999	0.077	-0.144
-310.924	-112.257	-0.046	-0.009
-309.910	10.127	0.174	-0.130
-308.895	82.129	-0.166	0.177
-307.880	40.809	0.310	0.275
-306.866	228.572	0.088	-0.141
-305.851	595.894	0.035	-0.085
-304.837	-200.000	0.012	-0.067
-303.822	-44.243	-0.149	-0.073
-302.807	-91.286	-0.146	-0.041
-301.793	-89.680	-0.147	0.042
-300.778	-92.091	0.273	0.076
-299.764	-12.271	0.089	0.058
-298.749	7.282	-0.083	-0.061
-297.735	13.528	0.245	-0.187
-296.720	-200.000	0.001	-0.119
-295.705	-102.608	-0.075	0.018
-294.691	53.135	0.114	0.107
-293.676	-60.306	0.222	-0.093
-292.662	-90.480	-0.221	-0.063
-291.647	125.079	-0.214	-0.265
-290.632	176.119	-0.065	-0.092
-289.618	-100.134	0.275	0.067
-288.603	-14.872	-0.006	-0.004
-287.589	208.731	-0.085	-0.130
-286.574	-29.772	0.204	-0.114
-285.559	-122.958	0.203	-0.032
-284.545	-113.203	-0.218	0.042
-283.530	-133.289	0.309	-0.038
-282.516	72.895	-0.282	-0.290
-281.501	172.632	0.121	0.171
-280.486	250.826	-0.084	0.141
-279.472	784.118	-0.149	0.403
-278.457	-40.630	0.330	0.168
-277.443	319.377	-0.152	-0.283
-276.428	156.445	0.125	0.170
-275.413	96.659	0.011	-0.012
-274.399	207.385	0.299	-0.459
-273.384	89.726	0.173	0.189
-272.370	-200.000	0.009	0.330
-271.355	168.956	0.126	0.177
-270.340	-104.227	0.347	0.079
-269.326	-56.916	-0.151	0.066
-268.311	-200.000	0.002	0.233
-267.297	-152.443	-0.305	-0.022
-266.282	-200.000	0.016	0.108
-265.267	800.000	-0.096	-0.305
-264.253	-101.781	0.355	-0.084
-263.238	-99.635	0.148	-0.037
-262.224	-49.250	-0.115	0.054
-261.209	-73.851	-0.157	-0.056
-260.195	-24.131	0.377	0.221
-259.180	-200.000	-0.046	-0.261
-258.165	94.150	0.205	0.228
-257.151	246.530	-0.024	-0.040
-256.136	-15.009	-0.177	-0.111
-255.122	-78.931	-0.092	-0.031
-254.107	-33.159	-0.262	0.142
-253.092	-107.999	0.301	0.064
-252.078	-142.043	0.134	0.013
-251.063	800.000	0.026	0.072
-250.049	37.354	-0.049	0.043
-249.034	-200.000	-0.038	-0.377
-248.019	-91.687	-0.294	-0.082
-247.005	-95.494	-0.351	0.093
-245.990	800.000	-0.050	-0.187
-244.976	-113.225	-0.117	0.023
-243.961	-35.622	-0.071	-0.038
-242.946	627.155	-0.064	-0.159
-241.932	209.670	-0.075	0.116
-240.917	-63.475	-0.171	0.069
-239.903	-119.478	0.055	-0.009
-238.888	404.710	0.031	0.064
-237.873	800.000	0.185	0.512
-236.859	-106.019	-0.229	-0.051
-235.844	15.286	-0.343	-0.264
-234.830	-46.694	-0.189	-0.091
-233.815	120.543	-0.115	-0.140
-232.800	800.000	-0.157	0.488
-231.786	800.000	-0.054	0.190
-230.771	-200.000	0.021	-0.137
-229.757	800.000	0.041	-0.115
-228.742	197.675	-0.106	0.159
-227.727	145.938	0.079	0.104
-226.713	206.351	-0.136	-0.208
-225.698	12.415	0.142	-0.107
-224.684	-57.383	0.026	0.011
-223.669	-101.575	0.213	0.051
-222.655	271.860	-0.168	0.291
-221.640	254.911	0.107	-0.180
-220.625	-176.608	-0.465	0.012
-219.611	-125.176	-0.055	0.008
-218.596	226.049	-0.152	0.243
-217.582	-22.078	-0.223	-0.133
-216.567	800.000	-0.105	-0.362
-215.552	-82.743	0.122	-0.039
-214.538	-70.770	-0.046	-0.017
-213.523	-65.668	0.172	0.067
-212.509	-52.227	0.211	-0.096
-211.494	338.306	0.248	-0.474
-210.479	-200.000	-0.090	-0.439
-209.465	800.000	-0.054	0.216
-208.450	21.280	-0.088	-0.070
-207.436	-102.616	0.122	-0.028
-206.421	-57.103	0.326	-0.141
-205.406	95.865	0.145	-0.162
-204.392	59.939	0.121	0.118
-203.377	-200.000	0.036	0.343
-202.363	193.509	0.138	-0.204
-201.348	-106.084	0.100	-0.022
-200.333	-143.097	0.256	-0.024
-199.319	-53.332	-0.115	0.052
-198.304	-200.000	-0.051	0.223
-197.290	216.801	0.158	-0.246
-196.275	202.462	0.138	-0.209
-195.260	-91.943	-0.047	-0.013
-194.246	550.163	-0.018	0.043
-193.231	-127.227	-0.184	0.026
-192.217	598.948	0.064	-0.155
-191.202	800.000	0.057	-0.180
-190.187	800.000	0.094	0.262
-189.173	-58.933	0.131	0.055
-188.158	118.888	-0.058	-0.071
-187.144	-26.814	0.161	0.092
-186.129	12.955	0.214	0.162
-185.114	800.000	0.066	0.234
-184.100	406.180	0.098	-0.202
-183.085	-200.000	-0.011	0.405
-182.071	631.559	-0.016	0.039
-181.056	52.860	-0.140	0.132
-180.042	-200.000	0.011	-0.146
-179.027	-47.727	0.288	-0.137
-178.012	600.535	0.113	0.275
-176.998	-92.801	0.220	0.060
-175.983	-155.694	0.135	0.008
-174.969	81.846	0.156	0.166
-173.954	187.160	-0.044	-0.064
-172.939	-23.275	0.146	0.086
-171.925	-94.897	0.179	0.047
-170.910	800.000	-0.059	0.193
-169.896	233.903	0.151	0.244
-168.881	-20.718	-0.228	0.137
-167.866	18.015	-0.018	0.014
-166.852	415.092	-0.014	-0.029
-165.837	-200.000	-0.014	0.303
-164.823	-87.024	-0.176	0.053
-163.808	-148.889	0.139	-0.011
-162.793	-196.959	0.342	-0.002
-161.779	138.314	0.142	0.182
-160.764	800.000	-0.016	-0.060
-159.750	800.000	0.024	-0.078
-158.735	-82.176	0.441	-0.141
-157.720	-2.004	-0.151	0.104
-156.706	63.813	-0.032	-0.031
-155.691	51.698	0.124	0.115
-154.677	376.721	0.131	-0.263
-153.662	380.654	-0.074	0.148
-152.647	800.000	0.089	0.292
-151.633	131.301	-0.106	0.133
-150.618	-39.424	-0.052	-0.027
-149.604	-107.491	0.161	0.034
-148.589	222.881	0.168	-0.265
-147.574	-132.130	-0.077	-0.010
-146.560	28.284	0.093	0.077
-145.545	-200.000	-0.024	0.316
-144.531	74.189	0.164	-0.169
-143.516	180.319	-0.136	0.195
-142.502	-123.730	-0.161	-0.025
-141.487	-46.789	-0.218	-0.104
-140.472	-136.580	0.189	0.021
-139.458	-108.806	0.131	-0.027
-138.443	-101.904	0.377	-0.089
-137.429	-200.000	-0.129	0.000
-136.414	-200.000	0.009	0.194
-135.399	-64.095	0.097	-0.039
-134.385	-200.000	-0.019	-0.436
-133.370	800.000	0.056	0.216
-132.356	199.796	0.173	0.260
-131.341	-26.001	-0.267	0.154
-130.326	459.469	0.028	0.060
-129.312	800.000	0.024	-0.081
-128.297	800.000	0.056	-0.219
-127.283	142.494	0.063	0.082
-126.268	-114.507	-0.215	0.040
-125.253	93.327	0.017	0.019
-124.239	-80.734	0.074	0.024
-123.224	800.000	0.121	0.455
-122.210	-105.064	-0.170	-0.038
-121.195	-44.043	0.160	-0.079
