DTS Sentinel unit serial number:	SN413079Multiplexer serial number:	ORYXHardware model number:	OX4-SRSoftware version number:	ORYX F/W v4.00 Oryx Data Collector v3.7.2.0data status	okinstallation	princeton_trtdifferential loss correction	single-endedforward channel	channel 1reverse channel	N/Adate	2019/09/18time	07:38:35forward acquisition time	60.00reverse acquisition time	0.00gamma	496.2192k internal	0.2340k external	0.2340temperature offset calibration	0.9977default loss term (dB/km)	0.3790temperature slope calibration	1.0000multiplexer offset coefficient	1.0000multiplexer slope coefficient	1.0000fibre end	0.00T internal ref (°C)	23.25T ext. ref 1 (°C)	0.19T ext. ref 2 (°C)	17.79length (m)	temperature (°C)	Stokes	anti-Stokes-747.200	141.900	-0.026	0.035
-746.185	-200.000	0.048	0.236
-745.171	-122.841	-0.390	0.063
-744.156	62.216	0.096	0.096
-743.142	-120.951	-0.126	0.021
-742.127	-26.674	-0.286	0.168
-741.112	-7.611	0.188	-0.128
-740.098	181.930	0.174	0.257
-739.083	520.819	-0.053	0.124
-738.069	-109.276	-0.269	0.057
-737.054	-31.307	-0.138	-0.078
-736.039	800.000	-0.005	-0.024
-735.025	-200.000	0.020	0.241
-734.010	85.127	0.098	-0.107
-732.996	-91.662	-0.548	-0.156
-731.981	-24.040	-0.028	-0.017
-730.966	145.945	0.181	0.243
-729.952	-200.000	0.003	-0.106
-728.937	48.758	0.077	0.072
-727.923	13.684	-0.093	0.073
-726.908	404.690	-0.116	-0.244
-725.894	800.000	-0.079	-0.316
-724.879	-102.676	-0.070	-0.017
-723.864	-127.337	0.272	-0.040
-722.850	48.949	-0.201	0.189
-721.835	286.938	-0.072	0.130
-720.821	65.562	0.289	-0.293
-719.806	163.729	-0.141	-0.199
-718.791	-22.907	0.130	0.079
-717.777	104.899	0.039	-0.046
-716.762	20.037	-0.267	-0.216
-715.748	-200.000	0.002	0.016
-714.733	800.000	0.041	-0.148
-713.718	3.959	-0.184	0.135
-712.704	-200.000	0.063	0.279
-711.689	29.286	-0.340	-0.289
-710.675	12.794	-0.212	0.164
-709.660	-50.912	-0.248	0.116
-708.645	-85.196	-0.340	0.106
-707.631	-69.962	-0.325	-0.124
-706.616	-78.967	-0.167	-0.057
-705.602	39.608	-0.016	0.014
-704.587	164.746	-0.073	-0.103
-703.572	-74.901	-0.307	0.110
-702.558	-79.924	0.270	-0.091
-701.543	-200.000	-0.005	-0.262
-700.529	151.400	-0.126	0.172
-699.514	-83.365	-0.453	0.146
-698.499	281.780	0.062	0.111
-697.485	-143.274	-0.220	0.021
-696.470	48.599	0.259	-0.243
-695.456	-19.385	0.127	-0.079
-694.441	611.128	-0.085	0.213
-693.426	-91.137	0.385	-0.110
-692.412	25.031	-0.432	-0.359
-691.397	-169.256	0.151	-0.006
-690.383	-200.000	0.007	-0.228
-689.368	139.118	-0.123	0.162
-688.354	-200.000	0.127	0.001
-687.339	800.000	-0.054	-0.208
-686.324	-16.764	-0.134	0.085
-685.310	117.596	-0.293	0.361
-684.295	-9.510	-0.337	0.225
-683.281	113.153	-0.258	-0.313
-682.266	773.517	-0.037	-0.101
-681.251	800.000	-0.024	-0.096
-680.237	800.000	-0.050	-0.196
-679.222	11.159	0.413	-0.316
-678.208	-200.000	-0.035	-0.244
-677.193	800.000	0.043	-0.145
-676.178	297.243	-0.124	0.227
-675.164	-200.000	-0.032	-0.159
-674.149	346.619	0.114	-0.224
-673.135	-25.598	-0.086	0.051
-672.120	-1.993	-0.072	-0.051
-671.105	-147.086	0.244	-0.021
-670.091	-11.496	0.256	-0.168
-669.076	46.726	0.110	-0.102
-668.062	-13.310	0.192	-0.125
-667.047	-145.422	-0.126	0.011
-666.032	-200.000	-0.034	-0.392
-665.018	246.192	0.102	-0.172
-664.003	76.574	-0.165	0.175
-662.989	-33.313	-0.250	-0.139
-661.974	-137.614	0.118	0.013
-660.959	-104.721	0.215	-0.050
-659.945	9.799	-0.136	-0.103
-658.930	27.441	-0.130	-0.110
-657.916	-163.162	0.283	0.014
-656.901	-144.965	-0.094	-0.009
-655.886	162.120	-0.066	0.092
-654.872	-68.776	-0.094	0.036
-653.857	-200.000	-0.030	-0.198
-652.843	-151.768	0.046	0.003
-651.828	-48.550	-0.156	0.075
-650.814	-8.416	-0.208	-0.140
-649.799	-200.000	0.005	-0.186
-648.784	-200.000	0.006	-0.245
-647.770	236.360	-0.107	0.177
-646.755	-127.656	-0.197	-0.028
-645.741	-74.202	-0.474	0.171
-644.726	-112.326	-0.162	0.032
-643.711	125.966	-0.111	0.140
-642.697	335.837	-0.045	-0.087
-641.682	437.503	-0.152	0.332
-640.668	800.000	-0.074	-0.283
-639.653	-25.530	-0.230	-0.136
-638.638	-200.000	0.024	-0.140
-637.624	800.000	0.045	-0.184
-636.609	-41.770	-0.226	0.116
-635.595	-183.282	0.235	0.004
-634.580	-105.775	-0.149	-0.034
-633.565	263.621	0.018	0.032
-632.551	-200.000	0.011	-0.163
-631.536	-100.944	0.168	0.041
-630.522	-157.965	0.226	-0.013
-629.507	109.141	-0.065	0.077
-628.492	-41.744	-0.243	-0.124
-627.478	-34.811	-0.076	-0.042
-626.463	102.514	-0.088	0.103
-625.449	238.903	-0.082	0.137
-624.434	-113.440	-0.439	0.086
-623.419	-132.511	-0.168	-0.022
-622.405	271.529	0.143	0.251
-621.390	232.746	-0.070	0.115
-620.376	45.272	0.031	-0.029
-619.361	83.860	0.297	0.324
-618.346	9.755	-0.327	0.247
-617.332	-200.000	-0.028	-0.136
-616.317	27.419	-0.185	-0.155
-615.303	-200.000	0.015	0.169
-614.288	-146.730	-0.299	0.026
-613.273	-161.068	0.093	0.005
-612.259	800.000	0.051	-0.206
-611.244	-161.800	-0.231	0.012
-610.230	90.119	0.254	-0.283
-609.215	-64.457	-0.250	-0.101
-608.201	-200.000	0.021	-0.095
-607.186	3.721	-0.173	-0.126
-606.171	-136.116	0.210	-0.025
-605.157	-200.000	-0.002	-0.116
-604.142	-105.936	0.137	0.031
-603.128	249.762	0.021	0.036
-602.113	-91.876	0.151	-0.043
-601.098	136.848	-0.118	-0.154
-600.084	-168.681	0.281	0.011
-599.069	243.168	-0.042	-0.070
-598.055	714.311	-0.095	-0.252
-597.040	134.271	-0.081	-0.105
-596.025	-52.400	-0.349	-0.161
-595.011	-108.609	0.031	0.007
-593.996	-200.000	-0.020	0.244
-592.982	-200.000	0.027	0.157
-591.967	-25.411	0.039	0.023
-590.952	45.085	0.193	-0.178
-589.938	-34.134	0.302	0.165
-588.923	2.357	-0.072	-0.052
-587.909	-200.000	-0.026	0.257
-586.894	-62.942	-0.206	-0.085
-585.879	-163.265	-0.294	0.014
-584.865	-37.455	-0.325	0.173
-583.850	800.000	-0.087	0.275
-582.836	142.797	-0.140	0.186
-581.821	13.812	-0.372	-0.288
-580.806	-129.384	0.141	0.020
-579.792	-21.663	0.110	-0.067
-578.777	-9.527	0.167	0.111
-577.763	-200.000	-0.008	-0.223
-576.748	88.525	0.061	0.068
-575.733	422.950	-0.034	-0.073
-574.719	5.002	0.275	-0.202
-573.704	-84.560	0.164	0.052
-572.690	86.578	-0.181	-0.199
-571.675	23.079	-0.147	-0.120
-570.661	126.511	-0.234	0.295
-569.646	800.000	0.047	-0.160
-568.631	800.000	-0.081	0.302
-567.617	-18.267	-0.279	-0.174
-566.602	-64.305	0.259	0.105
-565.588	-103.704	-0.238	-0.055
-564.573	83.232	-0.237	-0.257
-563.558	742.334	0.042	-0.112
-562.544	27.118	0.184	0.154
-561.529	-36.596	-0.181	-0.097
-560.515	79.239	0.110	-0.118
-559.500	-200.000	0.035	-0.380
-558.485	800.000	-0.165	-0.504
-557.471	-21.700	-0.169	0.102
-556.456	603.730	0.100	-0.248
-555.442	800.000	-0.024	-0.086
-554.427	-136.153	0.393	-0.046
-553.412	23.080	-0.168	0.137
-552.398	137.836	-0.162	-0.211
-551.383	800.000	-0.051	-0.179
-550.369	-41.381	0.284	0.146
-549.354	-191.136	0.122	-0.001
-548.339	-78.887	-0.246	-0.083
-547.325	288.254	-0.176	-0.316
-546.310	78.114	-0.138	-0.146
-545.296	-29.488	-0.175	0.100
-544.281	-34.783	0.217	0.118
-543.266	-9.704	0.142	-0.094
-542.252	-200.000	0.001	-0.035
-541.237	800.000	0.058	-0.172
-540.223	800.000	0.090	-0.270
-539.208	-159.657	0.112	-0.006
-538.193	-43.323	-0.124	0.062
-537.179	98.955	-0.128	-0.147
-536.164	-124.674	-0.123	-0.019
-535.150	-17.830	-0.143	-0.089
-534.135	133.851	0.108	0.138
-533.121	15.560	-0.069	-0.054
-532.106	-200.000	-0.002	-0.091
-531.091	-61.571	-0.084	0.035
-530.077	-182.370	-0.229	-0.004
-529.062	-65.162	0.289	0.116
-528.048	300.564	-0.177	0.324
-527.033	-200.000	0.047	0.302
-526.018	-83.125	0.083	0.027
-525.004	-82.613	-0.159	0.051
-523.989	108.763	-0.135	-0.160
-522.975	-66.310	0.222	0.088
-521.960	-34.576	-0.273	-0.149
-520.945	58.006	-0.045	0.044
-519.931	-107.417	-0.330	0.072
-518.916	128.884	0.137	-0.174
-517.902	800.000	0.065	0.266
-516.887	-89.814	0.266	0.077
-515.872	-84.174	0.247	0.078
-514.858	-200.000	-0.037	0.234
-513.843	-121.871	-0.210	-0.034
-512.829	-200.000	0.030	0.266
-511.814	-200.000	0.010	0.057
-510.799	-200.000	0.016	0.100
-509.785	-48.335	0.109	-0.052
-508.770	-81.580	-0.187	0.061
-507.756	268.448	-0.086	0.150
-506.741	-171.112	0.232	-0.008
-505.726	-57.853	-0.128	-0.056
-504.712	-200.000	-0.011	-0.244
-503.697	172.037	0.093	0.133
-502.683	800.000	-0.045	0.147
-501.668	-74.407	-0.045	-0.016
-500.653	419.791	0.019	-0.040
-499.639	67.455	-0.022	-0.022
-498.624	-115.617	0.169	-0.032
-497.610	704.562	-0.024	-0.064
-496.595	-155.611	-0.197	-0.013
-495.581	-142.139	0.218	-0.021
-494.566	8.070	0.202	0.150
-493.551	-32.453	0.145	0.080
-492.537	-29.685	-0.177	-0.101
-491.522	-26.806	0.286	0.166
-490.508	-88.251	-0.425	0.126
-489.493	800.000	-0.053	0.146
-488.478	66.271	0.225	0.227
-487.464	-200.000	0.030	-0.331
-486.449	82.485	-0.130	0.140
-485.435	-200.000	-0.035	0.249
-484.420	17.241	0.603	-0.475
-483.405	-200.000	-0.020	0.087
-482.391	54.541	0.081	-0.078
-481.376	-200.000	0.000	-0.140
-480.362	77.690	-0.091	-0.096
-479.347	-126.995	-0.259	-0.038
-478.332	19.649	-0.143	-0.114
-477.318	-87.730	0.223	-0.067
-476.303	-200.000	0.002	0.348
-475.289	175.624	0.082	-0.118
-474.274	-22.613	0.167	0.100
-473.259	-145.133	0.207	0.019
-472.245	110.805	0.078	-0.093
-471.230	359.564	-0.058	-0.115
-470.216	-76.531	0.158	-0.055
-469.201	56.655	-0.283	-0.273
-468.186	53.264	0.125	-0.119
-467.172	623.482	-0.105	-0.261
-466.157	190.160	0.081	-0.121
-465.143	-76.866	0.372	-0.129
-464.128	-158.850	0.364	-0.021
-463.113	800.000	-0.035	0.120
-462.099	-200.000	0.048	0.279
-461.084	13.748	-0.158	-0.122
-460.070	-170.152	0.243	-0.009
-459.055	800.000	-0.015	-0.065
-458.040	229.331	-0.165	-0.266
-457.026	147.515	-0.118	0.158
-456.011	547.030	-0.048	-0.114
-454.997	-200.000	-0.087	-0.504
-453.982	-21.229	-0.162	-0.098
-452.968	-47.210	-0.188	0.091
-451.953	-158.797	-0.198	0.011
-450.938	-200.000	-0.011	-0.359
-449.924	-88.232	0.120	-0.036
-448.909	746.266	-0.118	-0.315
-447.895	-6.620	-0.170	-0.115
-446.880	110.012	0.113	0.134
-445.865	-11.809	0.036	0.023
-444.851	-166.521	-0.268	0.011
-443.836	20.672	0.152	0.122
-442.822	40.719	-0.124	0.110
-441.807	56.648	0.173	0.167
-440.792	38.778	-0.162	-0.143
-439.778	293.452	-0.206	-0.373
-438.763	-74.890	0.260	0.092
-437.749	374.888	0.080	0.162
-436.734	800.000	0.102	0.343
-435.719	21.747	-0.031	0.025
-434.705	-200.000	-0.017	0.292
-433.690	220.693	-0.220	0.349
-432.676	-200.000	-0.007	-0.239
-431.661	-28.909	0.273	0.156
-430.646	-153.421	0.338	0.023
-429.632	-86.793	0.279	0.084
-428.617	153.679	-0.264	-0.358
-427.603	53.764	0.254	-0.242
-426.588	703.195	0.076	-0.198
-425.573	-90.269	-0.377	0.108
-424.559	242.498	0.072	-0.119
-423.544	-50.546	-0.253	0.118
-422.530	-77.551	-0.179	-0.062
-421.515	-200.000	-0.044	0.204
-420.500	-200.000	0.028	-0.294
-419.486	-200.000	-0.000	-0.002
-418.471	-51.226	0.223	0.104
-417.457	127.125	0.180	0.226
-416.442	-144.592	0.333	0.030
-415.428	-200.000	-0.020	0.154
-414.413	-33.006	-0.234	0.128
-413.398	87.613	0.062	-0.068
-412.384	800.000	-0.090	0.322
-411.369	-126.016	-0.329	0.049
-410.355	-92.121	0.582	0.163
-409.340	-96.991	0.166	-0.043
-408.325	-200.000	0.003	0.145
-407.311	319.520	0.019	0.036
-406.296	-57.896	-0.181	-0.078
-405.282	610.683	-0.050	0.124
-404.267	52.712	-0.046	-0.044
-403.252	306.055	0.145	-0.268
-402.238	452.836	0.166	-0.362
-401.223	83.126	0.202	-0.217
-400.209	-51.802	0.266	-0.122
-399.194	-170.281	-0.339	-0.012
-398.179	197.170	0.300	0.453
-397.165	212.108	0.051	-0.079
-396.150	15.637	0.223	-0.173
-395.136	-19.927	0.217	0.133
-394.121	-91.267	-0.141	-0.040
-393.106	-67.747	-0.180	-0.070
-392.092	-200.000	0.023	0.125
-391.077	-200.000	0.015	0.100
-390.063	-200.000	-0.041	0.349
-389.048	127.274	0.116	0.146
-388.033	71.194	-0.196	0.201
-387.019	-37.393	-0.113	0.060
-386.004	-79.752	-0.419	0.139
-384.990	133.501	0.064	-0.082
-383.975	800.000	0.042	-0.150
-382.960	-104.455	0.130	-0.030
-381.946	-76.514	0.126	-0.044
-380.931	-71.142	-0.568	-0.211
-379.917	21.242	-0.101	0.081
-378.902	152.781	-0.208	-0.281
-377.888	28.959	0.110	-0.092
-376.873	-200.000	0.009	-0.074
-375.858	-108.609	-0.591	0.126
-374.844	-53.991	0.077	0.035
-373.829	-92.918	-0.131	-0.036
-372.815	-148.695	-0.138	-0.011
-371.800	14.927	0.285	0.220
-370.785	-30.832	0.332	0.186
-369.771	-200.000	-0.018	0.230
-368.756	-63.548	0.079	0.032
-367.742	-78.569	-0.061	0.021
-366.727	-200.000	0.049	0.220
-365.712	-155.971	-0.238	-0.015
-364.698	57.594	0.245	-0.236
-363.683	44.693	-0.066	-0.060
-362.669	277.042	-0.097	0.170
-361.654	457.400	-0.085	-0.188
-360.639	173.749	-0.111	0.158
-359.625	-116.242	-0.090	0.016
-358.610	621.674	0.044	-0.109
-357.596	81.834	0.315	0.337
-356.581	-200.000	0.003	-0.438
-355.566	702.849	-0.006	0.015
-354.552	-16.769	-0.259	0.161
-353.537	93.833	-0.109	-0.121
-352.523	271.081	-0.118	-0.205
-351.508	-150.008	-0.080	-0.006
-350.493	8.664	0.200	-0.149
-349.479	-200.000	0.025	0.154
-348.464	721.476	-0.074	-0.195
-347.450	-200.000	0.064	-0.384
-346.435	-56.130	0.333	0.146
-345.420	-143.264	0.250	-0.024
-344.406	557.146	-0.073	-0.173
-343.391	624.040	-0.066	0.165
-342.377	-26.664	0.126	0.073
-341.362	627.912	-0.067	0.168
-340.348	68.058	-0.266	0.269
-339.333	30.246	0.249	-0.210
-338.318	800.000	0.007	-0.030
-337.304	-65.065	0.412	-0.164
-336.289	-112.086	0.225	-0.045
-335.275	-7.513	-0.122	-0.081
-334.260	51.906	-0.089	-0.083
-333.245	-175.759	-0.097	-0.003
-332.231	-47.900	-0.201	0.096
-331.216	344.772	0.100	0.193
-330.202	14.708	0.096	0.074
-329.187	800.000	-0.099	0.273
-328.172	490.350	0.080	-0.180
-327.158	-79.788	-0.049	0.016
-326.143	112.981	-0.152	-0.181
-325.129	29.444	-0.246	-0.207
-324.114	-50.242	0.262	0.122
-323.099	800.000	-0.135	-0.403
-322.085	-200.000	-0.010	-0.051
-321.070	-77.522	0.300	-0.103
-320.056	-30.193	-0.220	0.124
-319.041	-200.000	-0.012	-0.240
-318.026	201.230	0.187	-0.284
-317.012	-200.000	-0.022	0.275
-315.997	800.000	-0.089	0.243
-314.983	11.444	0.098	0.074
-313.968	-200.000	0.052	0.364
-312.953	800.000	0.058	-0.220
-311.939	-157.557	-0.117	-0.007
-310.924	-149.163	0.196	-0.016
-309.910	-105.363	0.224	-0.050
-308.895	204.666	0.192	-0.294
-307.880	-163.034	0.382	-0.018
-306.866	63.210	0.182	0.180
-305.851	800.000	-0.066	0.224
-304.837	118.030	0.093	-0.113
-303.822	-200.000	0.010	-0.388
-302.807	-73.300	0.210	0.076
-301.793	-108.384	-0.212	0.045
-300.778	315.640	-0.098	-0.182
-299.764	-9.751	0.172	-0.113
-298.749	-126.614	-0.056	0.008
-297.735	-71.001	-0.134	-0.050
-296.720	-136.743	0.229	-0.026
-295.705	674.064	0.114	-0.291
-294.691	218.527	-0.044	-0.070
-293.676	7.240	-0.244	0.179
-292.662	-153.844	0.281	-0.019
-291.647	-200.000	-0.011	0.448
-290.632	800.000	0.044	0.177
-289.618	5.148	0.084	-0.061
-288.603	-200.000	-0.014	-0.173
-287.589	648.836	-0.122	0.308
-286.574	388.621	0.046	-0.094
-285.559	-183.726	-0.120	0.002
-284.545	-144.747	-0.216	-0.020
-283.530	279.094	0.144	0.253
-282.516	-27.274	-0.136	0.078
-281.501	281.763	0.045	0.079
-280.486	65.395	0.285	-0.283
-279.472	-200.000	0.011	-0.290
-278.457	-200.000	0.005	0.301
-277.443	-67.986	-0.242	0.093
-276.428	51.363	0.081	-0.075
-275.413	-200.000	-0.066	0.428
-274.399	-94.866	0.109	0.029
-273.384	21.782	0.213	-0.171
-272.370	-200.000	-0.012	0.239
-271.355	103.340	-0.214	0.247
-270.340	-200.000	0.012	0.139
-269.326	152.428	0.029	-0.039
-268.311	89.620	0.218	-0.239
-267.297	355.559	0.090	-0.176
-266.282	-60.813	0.308	-0.128
-265.267	-200.000	0.004	-0.294
-264.253	-12.783	-0.110	0.070
-263.238	100.193	0.122	0.140
-262.224	-71.176	-0.257	0.095
-261.209	143.491	-0.187	-0.245
-260.195	-99.690	0.112	0.028
-259.180	289.430	0.072	0.128
-258.165	229.162	0.052	0.083
-257.151	-52.946	-0.242	-0.109
-256.136	37.480	-0.097	0.085
-255.122	-200.000	0.014	-0.089
-254.107	554.837	0.154	0.365
-253.092	-16.414	0.420	0.262
-252.078	642.566	0.044	0.111
-251.063	-63.364	0.236	0.095
-250.049	800.000	0.136	-0.403
-249.034	-72.444	0.335	0.122
-248.019	12.463	0.182	-0.138
-247.005	-135.779	-0.243	0.028
-245.990	-200.000	-0.025	-0.151
-244.976	-53.573	-0.196	-0.088
-243.961	299.964	-0.184	0.334
-242.946	-40.680	0.175	-0.089
-241.932	-200.000	-0.026	0.175
-240.917	-6.469	0.118	0.079
-239.903	61.917	-0.167	-0.163
-238.888	-168.889	0.369	0.014
-237.873	-116.224	-0.183	-0.033
-236.859	-104.342	-0.397	0.090
-235.844	800.000	0.088	-0.280
-234.830	800.000	-0.088	0.335
-233.815	1.893	0.261	0.185
-232.800	-66.124	0.111	-0.043
-231.786	124.132	0.218	0.269
-230.771	83.393	0.243	0.260
-229.757	-151.053	-0.177	-0.013
-228.742	37.966	0.116	-0.102
-227.727	680.854	-0.129	0.331
-226.713	-84.691	0.200	0.062
-225.698	-127.076	0.223	0.032
-224.684	800.000	-0.077	-0.258
-223.669	-108.662	-0.214	-0.045
-222.655	-200.000	-0.018	0.200
-221.640	-200.000	-0.005	-0.089
-220.625	293.292	0.080	-0.143
-219.611	193.483	0.087	-0.130
-218.596	337.615	0.139	-0.265
-217.582	70.970	0.090	-0.091
-216.567	36.275	0.223	-0.193
-215.552	-171.045	0.264	-0.009
-214.538	140.527	-0.161	0.208
-213.523	271.403	-0.163	-0.283
-212.509	-43.619	-0.374	-0.185
-211.494	-156.117	-0.363	-0.022
-210.479	69.268	0.063	0.064
-209.465	117.019	-0.079	-0.095
-208.450	147.822	-0.149	-0.197
-207.436	445.674	0.092	0.199
-206.421	-200.000	-0.020	-0.235
-205.406	-18.949	0.281	0.172
-204.392	-92.108	0.270	-0.075
-203.377	-67.429	-0.277	0.107
-202.363	-200.000	-0.001	-0.035
-201.348	541.001	0.086	0.202
-200.333	-57.538	-0.031	0.013
-199.319	413.875	0.119	-0.249
-198.304	-200.000	0.029	-0.281
-197.290	-49.316	0.335	-0.157
-196.275	-200.000	0.002	0.129
-195.260	-200.000	-0.010	0.082
-194.246	0.952	0.260	0.183
-193.231	53.213	-0.049	-0.046
-192.217	689.812	0.084	0.215
-191.202	-142.737	-0.582	0.056
-190.187	95.145	-0.202	0.226
-189.173	214.831	0.072	0.112
-188.158	-143.631	-0.136	-0.013
-187.144	-133.325	0.468	-0.058
-186.129	-45.486	0.162	-0.079
-185.114	275.784	-0.128	-0.224
-184.100	800.000	0.026	-0.092
-183.085	800.000	0.054	-0.215
-182.071	-127.040	0.126	0.018
-181.056	-200.000	0.012	0.486
-180.042	-21.152	-0.176	0.106
-179.027	125.083	0.114	-0.141
-178.012	-200.000	0.035	0.219
-176.998	-200.000	-0.015	0.344
-175.983	-200.000	-0.002	0.564
-174.969	84.058	-0.202	0.216
-173.954	159.141	-0.161	0.219
-172.939	-200.000	0.055	0.497
-171.925	-17.530	0.125	0.077
-170.910	-145.531	-0.316	-0.028
-169.896	800.000	0.058	-0.178
-168.881	143.138	0.237	-0.309
-167.866	800.000	-0.031	-0.124
-166.852	-162.827	0.123	0.006
-165.837	28.265	0.164	0.136
-164.823	326.683	-0.106	0.198
-163.808	-200.000	-0.036	0.249
-162.793	286.535	-0.091	0.161
-161.779	270.973	0.068	-0.117
-160.764	-96.329	-0.263	-0.068
-159.750	-69.164	-0.289	-0.109
-158.735	-57.354	-0.345	-0.148
-157.720	-200.000	-0.016	0.159
-156.706	-200.000	-0.014	0.297
-155.691	-99.178	0.100	0.025
-154.677	54.672	0.324	-0.306
-153.662	431.637	-0.155	0.329
-152.647	3.793	0.079	0.056
-151.633	-75.659	0.180	-0.063
-150.618	355.808	0.035	0.068
-149.604	37.384	-0.104	0.090
-148.589	319.294	-0.088	0.164
-147.574	108.869	-0.127	0.149
-146.560	798.198	0.087	-0.234
-145.545	93.924	0.310	-0.344
-144.531	-200.000	0.013	-0.150
-143.516	79.860	0.094	-0.099
-142.502	-17.208	0.451	-0.279
-141.487	57.085	0.319	-0.305
-140.472	27.102	0.046	-0.038
-139.458	232.919	0.116	0.186
-138.443	30.420	-0.136	0.114
-137.429	-55.531	0.107	-0.047
-136.414	-33.059	-0.255	0.139
-135.399	-200.000	0.054	0.279
-134.385	124.548	0.059	-0.073
-133.370	129.353	-0.154	0.193
-132.356	457.762	0.071	-0.155
-131.341	-140.968	-0.159	0.016
-130.326	-162.144	-0.201	-0.010
-129.312	23.650	-0.246	0.199
-128.297	-67.650	0.212	-0.081
-127.283	23.512	-0.245	0.197
-126.268	78.781	0.196	0.205
-125.253	339.508	-0.180	0.343
-124.239	-104.912	-0.281	-0.063
-123.224	-32.930	-0.078	0.042
-122.210	37.818	0.260	0.226
-121.195	60.968	-0.185	-0.180
