DTS Sentinel unit serial number:	SN413079Multiplexer serial number:	ORYXHardware model number:	OX4-SRSoftware version number:	ORYX F/W v4.00 Oryx Data Collector v3.7.2.0data status	okinstallation	princeton_trtdifferential loss correction	single-endedforward channel	channel 1reverse channel	N/Adate	2019/09/16time	09:46:35forward acquisition time	60.00reverse acquisition time	0.00gamma	496.2192k internal	0.2319k external	0.2319temperature offset calibration	0.9968default loss term (dB/km)	0.3790temperature slope calibration	1.0000multiplexer offset coefficient	1.0000multiplexer slope coefficient	1.0000fibre end	0.00T internal ref (°C)	32.69T ext. ref 1 (°C)	12.30T ext. ref 2 (°C)	30.66length (m)	temperature (°C)	Stokes	anti-Stokes-747.200	-97.542	0.332	0.087
-746.185	-66.393	-0.331	0.133
-745.171	-200.000	0.044	-0.332
-744.156	-37.362	0.257	0.139
-743.142	-13.569	0.359	0.235
-742.127	-138.871	-0.213	0.024
-741.112	36.065	0.325	0.290
-740.098	-143.425	-0.295	0.029
-739.083	219.566	0.271	0.439
-738.069	264.190	-0.108	0.190
-737.054	153.157	0.165	-0.228
-736.039	105.940	0.074	0.088
-735.025	-60.327	-0.186	0.080
-734.010	800.000	-0.070	-0.284
-732.996	46.929	-0.202	-0.190
-731.981	-159.807	0.063	-0.004
-730.966	209.839	-0.167	0.264
-729.952	-81.176	0.140	-0.047
-728.937	44.559	-0.284	0.263
-727.923	362.521	0.152	-0.309
-726.908	-17.728	-0.182	-0.115
-725.894	-129.421	-0.325	-0.046
-724.879	-200.000	0.008	0.043
-723.864	-85.098	-0.172	0.054
-722.850	-28.245	-0.040	-0.024
-721.835	-132.996	-0.142	-0.018
-720.821	-200.000	-0.045	0.228
-719.806	-200.000	0.020	-0.296
-718.791	-200.000	0.029	0.313
-717.777	166.232	-0.095	0.136
-716.762	-32.402	-0.054	0.031
-715.748	-200.000	-0.029	-0.453
-714.733	-55.374	-0.279	0.126
-713.718	-200.000	-0.062	-0.428
-712.704	-24.635	0.174	-0.104
-711.689	228.742	-0.115	-0.190
-710.675	-118.898	-0.041	0.007
-709.660	-155.204	-0.163	-0.011
-708.645	80.791	-0.202	0.220
-707.631	92.936	0.289	-0.329
-706.616	-78.551	-0.352	-0.122
-705.602	-67.009	-0.092	-0.037
-704.587	-200.000	0.027	0.153
-703.572	-103.225	-0.390	0.093
-702.558	180.105	0.076	-0.113
-701.543	800.000	-0.072	-0.217
-700.529	238.896	0.228	0.383
-699.514	268.619	0.136	-0.240
-698.499	247.404	0.017	0.029
-697.485	457.934	0.066	-0.149
-696.470	-200.000	0.022	-0.119
-695.456	-200.000	0.021	-0.166
-694.441	179.785	0.103	-0.152
-693.426	-63.447	-0.125	-0.052
-692.412	-68.504	0.047	-0.018
-691.397	431.064	0.158	-0.346
-690.383	9.097	0.259	0.197
-689.368	72.943	0.170	0.180
-688.354	311.316	0.038	-0.072
-687.339	-82.408	0.298	-0.098
-686.324	52.584	-0.280	-0.270
-685.310	800.000	0.062	-0.222
-684.295	-64.265	-0.175	-0.072
-683.281	58.565	0.133	0.132
-682.266	800.000	0.047	0.182
-681.251	-200.000	0.047	0.319
-680.237	800.000	-0.041	0.125
-679.222	26.890	0.212	-0.179
-678.208	-126.307	-0.064	0.010
-677.193	-200.000	-0.014	-0.136
-676.178	-200.000	0.027	0.207
-675.164	-108.395	0.266	-0.058
-674.149	-200.000	-0.032	-0.475
-673.135	331.100	-0.236	0.459
-672.120	-88.901	-0.186	0.056
-671.105	-107.446	0.098	0.022
-670.091	-50.997	0.199	0.094
-669.076	-48.810	-0.113	-0.055
-668.062	-103.060	-0.175	0.042
-667.047	-169.219	0.431	0.016
-666.032	477.844	-0.037	-0.085
-665.018	-200.000	0.015	-0.306
-664.003	-66.749	0.266	-0.106
-662.989	-73.563	0.180	-0.066
-661.974	-134.277	0.371	-0.046
-660.959	-101.628	-0.159	-0.039
-659.945	-103.757	0.337	0.080
-658.930	800.000	0.101	0.406
-657.916	68.944	-0.165	0.171
-656.901	62.100	-0.239	-0.240
-655.886	143.037	-0.035	0.047
-654.872	-200.000	-0.024	0.140
-653.857	-85.728	0.174	0.055
-652.843	-129.208	0.235	0.033
-651.828	164.371	0.138	-0.196
-650.814	-107.080	0.157	-0.035
-649.799	445.355	-0.105	0.232
-648.784	800.000	-0.070	-0.292
-647.770	-200.000	-0.038	-0.196
-646.755	57.690	0.084	0.083
-645.741	536.917	0.054	-0.129
-644.726	-151.952	0.267	0.020
-643.711	-111.419	0.052	0.011
-642.697	-97.283	-0.498	-0.131
-641.682	121.319	0.290	-0.364
-640.668	-76.740	-0.061	-0.022
-639.653	-26.648	-0.177	-0.105
-638.638	-200.000	-0.036	0.183
-637.624	800.000	0.003	-0.011
-636.609	138.266	0.046	0.061
-635.595	-29.578	0.058	-0.033
-634.580	451.619	0.219	0.488
-633.565	-32.331	-0.069	0.039
-632.551	800.000	0.115	-0.341
-631.536	48.229	-0.161	-0.152
-630.522	-147.436	-0.384	-0.033
-629.507	-110.573	0.118	-0.025
-628.492	-172.490	-0.127	0.004
-627.478	704.316	-0.076	-0.202
-626.463	351.288	-0.055	-0.110
-625.449	-76.725	-0.161	0.057
-624.434	-114.550	0.463	0.089
-623.419	268.907	-0.023	-0.041
-622.405	-200.000	-0.016	-0.197
-621.390	82.138	-0.202	0.221
-620.376	28.128	0.164	0.140
-619.361	800.000	0.091	-0.368
-618.346	-90.603	-0.248	-0.072
-617.332	800.000	-0.148	-0.461
-616.317	318.019	-0.034	-0.064
-615.303	-200.000	-0.046	0.276
-614.288	-43.053	0.243	0.124
-613.273	-200.000	0.008	-0.135
-612.259	128.767	0.169	-0.217
-611.244	13.129	-0.229	-0.178
-610.230	800.000	0.079	-0.306
-609.215	547.561	0.187	-0.451
-608.201	-100.858	-0.076	-0.019
-607.186	-109.974	-0.202	0.043
-606.171	238.716	-0.128	-0.214
-605.157	-103.175	-0.224	0.053
-604.142	800.000	-0.061	0.201
-603.128	65.280	0.252	-0.257
-602.113	800.000	0.025	0.076
-601.098	-200.000	-0.038	-0.296
-600.084	-36.057	-0.140	-0.076
-599.069	-144.363	-0.214	0.020
-598.055	672.222	-0.013	0.035
-597.040	-200.000	0.000	0.095
-596.025	342.721	-0.099	-0.194
-595.011	179.747	0.018	-0.027
-593.996	-129.651	-0.185	-0.026
-592.982	373.722	-0.035	-0.071
-591.967	34.462	0.348	-0.306
-590.952	165.508	-0.107	0.152
-589.938	-168.320	-0.147	0.006
-588.923	281.406	0.054	0.098
-587.909	47.611	0.187	-0.175
-586.894	-200.000	0.033	0.214
-585.879	-67.006	0.077	0.030
-584.865	52.426	0.122	-0.117
-583.850	-102.639	-0.244	0.059
-582.836	220.203	0.032	0.051
-581.821	109.665	-0.304	0.366
-580.806	125.970	0.186	0.236
-579.792	230.114	0.216	0.355
-578.777	228.796	-0.122	0.201
-577.763	-200.000	-0.025	0.196
-576.748	-81.178	-0.288	-0.096
-575.733	195.152	-0.047	-0.071
-574.719	670.923	0.110	-0.286
-573.704	-200.000	-0.041	-0.256
-572.690	103.924	0.383	-0.453
-571.675	-185.978	-0.246	-0.004
-570.661	217.666	-0.103	-0.164
-569.646	69.419	-0.130	-0.134
-568.631	-124.279	0.178	-0.028
-567.617	174.439	-0.100	-0.145
-566.602	-33.799	0.079	-0.044
-565.588	800.000	0.058	0.226
-564.573	-57.409	-0.118	0.052
-563.558	-200.000	-0.022	0.333
-562.544	159.763	0.106	-0.149
-561.529	800.000	-0.109	0.390
-560.515	-200.000	-0.012	-0.269
-559.500	-200.000	-0.012	-0.238
-558.485	28.265	-0.198	-0.168
-557.471	4.890	0.115	0.085
-556.456	-146.937	-0.196	-0.017
-555.442	140.647	0.209	-0.277
-554.427	-61.391	-0.388	0.164
-553.412	31.142	-0.111	-0.096
-552.398	-134.115	0.138	-0.017
-551.383	-84.094	-0.091	-0.029
-550.369	534.934	0.069	0.165
-549.354	44.559	-0.213	-0.197
-548.339	709.310	0.080	-0.213
-547.325	119.349	-0.167	-0.208
-546.310	-181.638	0.216	-0.004
-545.296	-43.850	0.312	0.158
-544.281	46.229	-0.187	0.174
-543.266	-115.315	0.259	-0.049
-542.252	174.422	-0.041	-0.059
-541.237	262.885	-0.072	0.126
-540.223	-155.838	-0.137	-0.009
-539.208	40.360	0.124	-0.112
-538.193	-137.402	-0.211	0.024
-537.179	34.127	-0.113	0.099
-536.164	-13.541	-0.203	0.132
-535.150	311.807	-0.102	-0.191
-534.135	-200.000	0.061	-0.417
-533.121	-167.460	-0.239	-0.010
-532.106	-200.000	-0.032	0.188
-531.091	22.373	0.096	-0.078
-530.077	-17.352	0.057	0.036
-529.062	-133.438	-0.341	0.043
-528.048	-200.000	0.002	0.112
-527.033	-200.000	0.050	0.256
-526.018	387.157	-0.128	0.266
-525.004	800.000	-0.065	0.199
-523.989	800.000	0.045	-0.167
-522.975	-80.942	-0.078	0.026
-521.960	46.997	0.147	0.137
-520.945	-200.000	-0.002	-0.047
-519.931	-200.000	0.011	0.176
-518.916	34.572	0.162	0.142
-517.902	-200.000	-0.040	-0.231
-516.887	328.210	0.072	-0.140
-515.872	685.887	0.076	-0.199
-514.858	18.933	0.190	-0.152
-513.843	36.765	0.252	0.223
-512.829	-44.210	-0.083	0.042
-511.814	800.000	0.081	-0.305
-510.799	97.564	0.055	0.063
-509.785	800.000	0.055	0.211
-508.770	-200.000	-0.006	0.099
-507.756	-127.635	0.228	-0.033
-506.741	229.144	0.137	-0.223
-505.726	-200.000	0.063	0.333
-504.712	800.000	-0.056	0.220
-503.697	800.000	0.034	-0.131
-502.683	170.364	0.110	0.158
-501.668	794.195	-0.044	-0.122
-500.653	18.532	-0.116	0.093
-499.639	-100.316	0.213	0.053
-498.624	136.489	-0.202	0.264
-497.610	143.772	0.043	0.057
-496.595	-200.000	0.002	-0.078
-495.581	-200.000	0.053	-0.298
-494.566	-54.907	0.263	0.119
-493.551	459.500	-0.053	-0.118
-492.537	-117.089	-0.095	-0.017
-491.522	-4.108	0.147	0.102
-490.508	-65.185	-0.063	-0.025
-489.493	800.000	-0.047	-0.160
-488.478	-19.362	-0.240	-0.149
-487.464	187.434	-0.048	0.072
-486.449	338.573	0.088	0.172
-485.435	-200.000	0.034	0.155
-484.420	224.916	0.049	-0.079
-483.405	-12.769	-0.051	-0.034
-482.391	-118.451	0.109	0.019
-481.376	-22.071	-0.235	-0.143
-480.362	-26.252	0.391	-0.230
-479.347	-85.627	-0.182	0.057
-478.332	-88.748	-0.186	0.055
-477.318	-200.000	0.058	0.427
-476.303	-73.786	-0.105	-0.038
-475.289	-98.716	0.121	-0.031
-474.274	-63.581	-0.620	-0.255
-473.259	-53.026	0.324	0.149
-472.245	184.095	0.248	-0.367
-471.230	131.020	0.223	-0.286
-470.216	57.788	-0.142	-0.139
-469.201	65.772	-0.314	-0.318
-468.186	99.742	-0.111	-0.129
-467.172	-4.409	0.432	0.299
-466.157	418.947	-0.058	0.125
-465.143	-131.829	-0.366	-0.048
-464.128	-92.649	-0.048	-0.014
-463.113	-200.000	0.029	0.183
-462.099	-10.076	0.149	-0.099
-461.084	-200.000	0.011	-0.129
-460.070	-102.812	0.147	-0.035
-459.055	800.000	0.060	0.176
-458.040	-38.423	0.294	-0.156
-457.026	-200.000	0.005	0.139
-456.011	360.374	0.077	-0.154
-454.997	74.699	0.045	-0.047
-453.982	164.359	-0.028	-0.040
-452.968	-116.785	0.164	-0.030
-451.953	-200.000	-0.074	0.398
-450.938	75.876	-0.258	0.273
-449.924	-200.000	-0.003	-0.083
-448.909	72.183	-0.147	0.153
-447.895	245.997	-0.160	-0.269
-446.880	-49.504	0.063	-0.030
-445.865	8.761	0.059	0.045
-444.851	-200.000	0.052	0.243
-443.836	-116.658	-0.246	-0.045
-442.822	-92.360	-0.137	-0.038
-441.807	2.045	0.289	-0.208
-440.792	-123.675	0.402	-0.064
-439.778	-200.000	0.029	-0.132
-438.763	-200.000	0.007	-0.033
-437.749	-200.000	-0.007	-0.235
-436.734	800.000	0.054	-0.153
-435.719	-96.421	0.021	-0.005
-434.705	38.705	-0.216	0.193
-433.690	235.927	0.226	0.373
-432.676	-200.000	0.024	-0.165
-431.661	498.152	0.116	0.268
-430.646	0.134	-0.173	-0.123
-429.632	493.505	-0.141	-0.324
-428.617	-30.554	0.104	0.059
-427.603	-14.102	0.195	0.126
-426.588	-200.000	0.008	-0.164
-425.573	-200.000	-0.032	0.210
-424.559	787.122	-0.011	-0.031
-423.544	319.099	0.157	0.297
-422.530	234.403	0.061	0.101
-421.515	-141.028	-0.160	-0.016
-420.500	-24.832	0.169	0.100
-419.486	-15.209	0.195	0.125
-418.471	-200.000	-0.014	0.190
-417.457	33.903	0.107	-0.093
-416.442	694.514	-0.010	-0.027
-415.428	-20.459	-0.285	0.175
-414.413	22.507	-0.179	0.146
-413.398	-71.283	0.067	0.025
-412.384	-70.409	-0.155	-0.059
-411.369	389.020	0.094	-0.195
-410.355	-32.770	0.024	-0.014
-409.340	-29.328	0.278	-0.159
-408.325	800.000	0.033	0.125
-407.311	479.597	-0.132	0.298
-406.296	21.482	-0.140	0.114
-405.282	-167.821	-0.273	0.011
-404.267	-84.892	-0.144	-0.045
-403.252	-190.881	0.362	-0.004
-402.238	565.809	0.144	0.348
-401.223	-200.000	0.074	-0.447
-400.209	-88.599	0.106	-0.032
-399.194	89.051	0.230	0.256
-398.179	19.778	0.169	-0.136
-397.165	64.930	0.091	0.092
-396.150	-94.558	-0.386	-0.105
-395.136	193.141	-0.081	-0.123
-394.121	-190.751	-0.116	-0.001
-393.106	53.881	-0.228	-0.218
-392.092	-78.994	0.398	-0.135
-391.077	408.804	0.083	-0.175
-390.063	-200.000	0.026	0.118
-389.048	90.809	-0.037	0.042
-388.033	-101.951	0.263	0.063
-387.019	-200.000	-0.031	0.214
-386.004	-145.097	0.257	-0.023
-384.990	22.159	-0.092	0.075
-383.975	-200.000	0.021	0.315
-382.960	40.252	0.198	0.178
-381.946	147.964	-0.115	-0.155
-380.931	-151.131	-0.172	-0.013
-379.917	115.144	-0.119	-0.145
-378.902	800.000	-0.072	0.265
-377.888	-200.000	0.031	0.165
-376.873	-200.000	-0.020	-0.098
-375.858	-164.674	-0.282	0.013
-374.844	6.110	-0.168	0.125
-373.829	-99.881	0.224	-0.056
-372.815	93.982	0.117	0.132
-371.800	-200.000	0.014	-0.247
-370.785	800.000	0.058	-0.173
-369.771	-39.901	-0.274	0.142
-368.756	-112.944	0.128	-0.025
-367.742	88.814	-0.226	0.250
-366.727	800.000	-0.045	0.175
-365.712	-200.000	-0.075	-0.462
-364.698	-182.988	-0.164	-0.003
-363.683	137.893	-0.150	0.196
-362.669	68.181	0.280	-0.286
-361.654	-70.232	0.169	-0.064
-360.639	84.825	0.202	-0.220
-359.625	-200.000	0.040	0.393
-358.610	549.878	-0.072	-0.173
-357.596	-54.141	-0.098	-0.045
-356.581	45.902	0.217	0.200
-355.566	250.866	0.088	0.149
-354.552	5.890	0.114	0.084
-353.537	-200.000	-0.004	0.103
-352.523	800.000	0.069	-0.198
-351.508	45.285	0.271	-0.249
-350.493	-106.386	-0.178	0.040
-349.479	-25.315	-0.079	-0.046
-348.464	-19.175	-0.048	0.030
-347.450	-22.224	0.115	-0.070
-346.435	-200.000	0.048	0.326
-345.420	-118.883	-0.222	-0.039
-344.406	93.058	-0.074	-0.084
-343.391	46.719	-0.129	0.119
-342.377	341.267	0.200	-0.389
-341.362	86.474	0.105	0.115
-340.348	-31.595	-0.124	0.069
-339.333	800.000	0.022	-0.087
-338.318	-200.000	-0.006	-0.050
-337.304	-93.713	-0.343	-0.094
-336.289	233.563	0.056	0.091
-335.275	651.720	0.057	-0.147
-334.260	43.336	-0.276	-0.251
-333.245	-200.000	-0.046	-0.239
-332.231	588.689	0.041	0.100
-331.216	232.290	0.049	-0.080
-330.202	-104.018	0.058	-0.013
-329.187	620.975	-0.036	0.091
-328.172	-17.498	-0.254	0.159
-327.158	-200.000	-0.036	0.212
-326.143	480.504	0.056	0.126
-325.129	-200.000	-0.005	0.151
-324.114	-31.811	0.139	-0.078
-323.099	-30.221	-0.145	-0.082
-322.085	-99.948	-0.126	-0.031
-321.070	-200.000	0.012	-0.062
-320.056	241.443	-0.098	0.163
-319.041	541.921	0.109	-0.259
-318.026	2.429	-0.287	0.207
-317.012	-200.000	-0.017	-0.105
-315.997	-109.526	0.407	0.086
-314.983	800.000	-0.063	0.269
-313.968	800.000	0.036	0.123
-312.953	800.000	0.019	-0.054
-311.939	-85.856	0.214	-0.066
-310.924	-42.120	-0.116	0.059
-309.910	-80.883	0.188	-0.062
-308.895	18.916	-0.237	-0.189
-307.880	-200.000	-0.005	0.212
-306.866	-48.631	-0.072	0.034
-305.851	-132.433	-0.039	0.005
-304.837	556.243	-0.184	-0.442
-303.822	149.075	-0.172	0.232
-302.807	-145.419	-0.148	-0.013
-301.793	-40.520	0.159	-0.082
-300.778	-84.973	-0.110	-0.034
-299.764	49.880	0.047	-0.044
-298.749	-129.257	0.220	0.031
-297.735	-54.151	-0.196	0.088
-296.720	558.730	-0.040	-0.097
-295.705	-200.000	-0.023	0.141
-294.691	-119.166	0.293	-0.051
-293.676	36.049	0.103	-0.090
-292.662	800.000	0.022	0.080
-291.647	31.332	-0.248	-0.212
-290.632	-165.714	0.117	0.005
-289.618	-200.000	-0.093	0.000
-288.603	50.306	-0.060	-0.056
-287.589	-64.659	-0.107	0.043
-286.574	276.655	-0.037	-0.066
-285.559	-200.000	-0.018	0.086
-284.545	307.691	-0.122	0.226
-283.530	-108.163	-0.406	0.087
-282.516	-190.582	0.503	-0.005
-281.501	16.993	0.220	-0.173
-280.486	800.000	0.073	0.267
-279.472	377.126	-0.078	-0.158
-278.457	-42.282	0.111	0.056
-277.443	-55.218	-0.109	-0.049
-276.428	-200.000	0.048	-0.375
-275.413	-21.687	-0.256	0.155
-274.399	168.342	-0.156	0.221
-273.384	-54.754	-0.275	0.123
-272.370	178.707	0.114	0.165
-271.355	42.704	-0.143	-0.129
-270.340	9.299	0.294	0.221
-269.326	288.069	0.118	-0.213
-268.311	800.000	0.013	0.045
-267.297	-52.599	-0.116	0.053
-266.282	195.633	-0.155	-0.234
-265.267	139.703	-0.204	-0.267
-264.253	-59.165	0.318	0.136
-263.238	-200.000	-0.050	-0.223
-262.224	177.406	0.129	0.187
-261.209	-14.592	-0.155	0.099
-260.195	-200.000	-0.030	-0.178
-259.180	652.576	0.032	-0.082
-258.165	-66.216	-0.170	-0.067
-257.151	650.908	-0.112	0.285
-256.136	-57.936	0.123	0.053
-255.122	-104.408	-0.097	0.022
-254.107	-73.557	0.325	-0.118
-253.092	800.000	-0.126	0.445
-252.078	-50.193	-0.106	0.050
-251.063	-115.990	-0.159	0.029
-250.049	566.316	-0.073	0.176
-249.034	362.293	0.060	-0.120
-248.019	-200.000	-0.021	-0.190
-247.005	554.122	0.267	-0.637
-245.990	-147.650	-0.307	-0.026
-244.976	63.207	0.077	-0.077
-243.961	793.502	0.020	0.054
-242.946	60.943	-0.192	0.189
-241.932	-17.876	-0.189	-0.118
-240.917	-149.417	-0.447	-0.035
-239.903	7.000	-0.149	0.110
-238.888	99.826	-0.052	-0.060
-237.873	250.309	-0.141	0.238
-236.859	800.000	0.087	0.318
-235.844	-200.000	-0.019	0.265
-234.830	-146.978	0.494	-0.042
-233.815	-62.184	0.364	-0.150
-232.800	-67.328	0.219	-0.085
-231.786	-55.453	0.344	0.153
-230.771	-200.000	0.001	0.174
-229.757	-94.255	0.108	0.029
-228.742	-37.686	-0.084	-0.044
-227.727	-130.399	0.233	0.031
-226.713	711.522	0.078	0.205
-225.698	-44.345	0.174	-0.087
-224.684	-200.000	0.053	-0.244
-223.669	12.108	0.107	-0.082
-222.655	21.911	0.181	-0.146
-221.640	367.728	-0.077	0.154
-220.625	85.796	0.094	-0.102
-219.611	657.758	0.080	0.205
-218.596	-132.661	-0.199	0.025
-217.582	391.588	-0.128	-0.264
-216.567	-130.335	0.092	-0.012
-215.552	-200.000	0.063	-0.277
-214.538	116.250	-0.089	0.108
-213.523	42.703	-0.091	0.082
-212.509	-8.334	0.209	0.139
-211.494	-185.616	-0.077	0.001
-210.479	-200.000	-0.016	-0.070
-209.465	-111.264	0.241	0.049
-208.450	-142.164	0.098	-0.010
-207.436	77.890	-0.169	0.179
-206.421	-147.089	0.227	-0.019
-205.406	-58.454	0.417	0.180
-204.392	-200.000	0.021	0.247
-203.377	-128.958	-0.191	-0.027
-202.363	-145.035	0.310	0.028
-201.348	-28.344	-0.191	-0.109
-200.333	75.938	0.275	-0.288
-199.319	-2.342	-0.236	0.164
-198.304	-200.000	0.008	-0.198
-197.290	621.409	-0.167	0.417
-196.275	-200.000	-0.009	0.226
-195.260	167.231	-0.061	0.086
-194.246	-200.000	-0.032	0.288
-193.231	397.082	-0.195	0.404
-192.217	211.928	0.076	-0.119
-191.202	-200.000	0.001	0.048
-190.187	-57.982	-0.178	0.077
-189.173	-104.354	0.337	0.077
-188.158	-200.000	0.062	0.315
-187.144	-71.022	0.273	0.102
-186.129	214.658	-0.202	0.316
-185.114	222.718	-0.105	-0.168
-184.100	800.000	0.028	-0.103
-183.085	205.661	0.141	0.217
-182.071	-19.105	0.108	-0.066
-181.056	-200.000	-0.007	-0.060
-180.042	-112.882	0.156	-0.031
-179.027	-96.074	-0.239	-0.063
-178.012	-164.522	0.061	-0.003
-176.998	106.314	0.091	0.106
-175.983	800.000	-0.058	0.221
-174.969	-67.114	0.376	0.147
-173.954	392.313	-0.124	0.254
-172.939	347.455	-0.073	-0.142
-171.925	-133.296	0.191	0.024
-170.910	-16.145	0.150	-0.094
-169.896	800.000	-0.051	-0.177
-168.881	-200.000	-0.012	-0.134
-167.866	31.637	-0.052	0.044
-166.852	30.189	0.042	0.036
-165.837	-200.000	-0.022	-0.148
-164.823	12.093	-0.387	0.294
-163.808	23.300	0.131	-0.106
-162.793	-40.036	-0.268	0.138
-161.779	800.000	0.034	0.103
-160.764	-200.000	-0.008	-0.051
-159.750	-112.055	-0.117	0.023
-158.735	119.175	-0.129	-0.158
-157.720	-62.466	0.123	0.051
-156.706	-86.968	0.225	-0.068
-155.691	-52.609	0.075	0.034
-154.677	7.329	-0.224	0.166
-153.662	66.239	0.114	-0.115
-152.647	800.000	0.036	-0.117
-151.633	384.522	0.034	-0.070
-150.618	-101.126	0.361	0.087
-149.604	800.000	-0.025	0.085
-148.589	51.244	0.208	0.195
-147.574	48.990	0.285	0.265
-146.560	-59.714	0.189	0.080
-145.545	-52.577	0.286	-0.131
-144.531	12.783	0.055	-0.042
-143.516	599.922	0.107	0.263
-142.502	-200.000	-0.015	0.076
-141.487	-134.848	-0.090	0.011
-140.472	69.898	0.153	-0.156
-139.458	184.444	-0.065	0.095
-138.443	-21.592	0.352	0.212
-137.429	308.972	0.035	-0.065
-136.414	265.767	0.066	0.114
-135.399	92.007	-0.182	0.203
-134.385	-69.839	0.162	0.061
-133.370	-166.767	-0.300	0.012
-132.356	155.672	-0.208	0.283
-131.341	-43.957	0.251	-0.125
-130.326	-122.317	0.151	0.024
-129.312	2.427	-0.209	-0.149
-128.297	-200.000	-0.017	0.190
-127.283	800.000	0.036	-0.134
-126.268	-65.588	0.190	0.075
-125.253	800.000	0.020	0.072
-124.239	800.000	-0.030	-0.116
-123.224	-36.128	0.128	0.068
-122.210	-91.637	0.398	-0.112
