DTS Sentinel unit serial number:	SN413079Multiplexer serial number:	ORYXHardware model number:	OX4-SRSoftware version number:	ORYX F/W v4.00 Oryx Data Collector v3.7.2.0data status	okinstallation	princeton_trtdifferential loss correction	single-endedforward channel	channel 1reverse channel	N/Adate	2019/09/12time	18:59:34forward acquisition time	15.00reverse acquisition time	0.00gamma	496.2192k internal	0.2320k external	0.2320temperature offset calibration	1.0111default loss term (dB/km)	0.3790temperature slope calibration	1.0000multiplexer offset coefficient	1.0000multiplexer slope coefficient	1.0000fibre end	0.00T internal ref (°C)	32.81T ext. ref 1 (°C)	3.03T ext. ref 2 (°C)	27.34length (m)	temperature (°C)	Stokes	anti-Stokes-747.200	-158.736	0.780	-0.045
-746.185	651.075	-0.439	1.136
-745.171	62.416	-0.295	-0.298
-744.156	-36.087	0.312	-0.170
-743.142	-5.363	0.609	0.423
-742.127	-200.000	-0.092	-0.515
-741.112	-26.937	0.697	-0.411
-740.098	-45.104	-0.235	0.118
-739.083	10.917	-0.127	0.098
-738.069	-17.011	-0.087	0.056
-737.054	-200.000	-0.057	-0.857
-736.039	-85.470	0.389	-0.122
-735.025	-141.072	0.569	-0.059
-734.010	-54.287	0.304	-0.139
-732.996	54.382	-0.391	-0.381
-731.981	372.278	0.301	-0.619
-730.966	-50.347	0.503	0.240
-729.952	-40.699	-0.583	0.305
-728.937	-200.000	0.007	0.376
-727.923	-45.805	0.479	-0.239
-726.908	800.000	-0.267	-0.778
-725.894	-90.860	0.720	0.210
-724.879	94.061	0.408	0.468
-723.864	-200.000	-0.091	0.448
-722.850	800.000	0.109	0.340
-721.835	94.178	0.380	0.435
-720.821	-48.074	0.691	-0.337
-719.806	202.938	0.262	0.409
-718.791	-25.933	-0.195	0.116
-717.777	-65.076	0.593	-0.242
-716.762	-90.698	-0.950	-0.277
-715.748	77.149	-0.202	-0.217
-714.733	-1.945	0.465	-0.330
-713.718	-200.000	0.095	0.464
-712.704	121.619	-0.176	-0.222
-711.689	-133.214	0.673	-0.086
-710.675	-200.000	0.015	-0.476
-709.660	800.000	0.043	0.124
-708.645	-162.475	0.261	-0.013
-707.631	223.505	-0.273	-0.444
-706.616	800.000	-0.241	-0.777
-705.602	46.998	0.612	-0.575
-704.587	-170.301	-0.303	0.011
-703.572	-200.000	-0.021	0.822
-702.558	-21.473	0.166	-0.102
-701.543	597.110	0.188	-0.470
-700.529	-49.575	-0.613	-0.295
-699.514	260.719	0.401	-0.700
-698.499	-72.121	-0.671	0.252
-697.485	-112.400	-0.617	-0.125
-696.470	-200.000	-0.055	-0.569
-695.456	-200.000	-0.011	-0.483
-694.441	800.000	-0.075	-0.287
-693.426	-67.447	-0.351	-0.139
-692.412	23.505	-0.046	0.039
-691.397	196.652	-0.163	-0.251
-690.383	-200.000	0.021	-0.455
-689.368	183.062	0.512	-0.762
-688.354	-13.893	-0.099	-0.065
-687.339	264.727	-0.239	-0.420
-686.324	762.967	0.200	-0.547
-685.310	138.891	-0.439	-0.582
-684.295	156.884	-0.649	0.905
-683.281	-144.587	0.926	0.086
-682.266	-152.375	0.860	0.062
-681.251	-200.000	-0.126	-0.663
-680.237	-200.000	0.087	0.643
-679.222	-200.000	0.049	-0.244
-678.208	-200.000	-0.084	0.434
-677.193	30.653	0.352	-0.303
-676.178	595.628	-0.314	0.783
-675.164	800.000	0.338	1.056
-674.149	212.282	-0.406	-0.645
-673.135	-180.253	0.159	0.003
-672.120	-200.000	0.114	0.687
-671.105	-200.000	-0.071	-0.416
-670.091	-109.991	0.536	-0.113
-669.076	69.493	0.347	-0.360
-668.062	-68.339	-0.101	-0.039
-667.047	-29.134	0.729	0.422
-666.032	37.790	-0.503	0.450
-665.018	245.847	0.321	0.546
-664.003	-146.840	-0.634	-0.055
-662.989	-40.111	-0.465	0.244
-661.974	17.907	0.314	0.252
-660.959	125.405	-0.187	-0.238
-659.945	-97.676	-0.122	-0.032
-658.930	-49.963	0.877	0.419
-657.916	-174.047	0.243	0.007
-656.901	-105.617	0.283	-0.065
-655.886	82.949	-0.252	-0.276
-654.872	-74.042	-0.314	-0.115
-653.857	239.241	-0.372	-0.624
-652.843	-200.000	-0.022	-0.662
-651.828	-122.541	-0.475	-0.078
-650.814	800.000	0.185	0.526
-649.799	613.844	0.179	0.452
-648.784	115.163	-0.346	0.425
-647.770	194.863	-0.482	0.736
-646.755	258.982	-0.168	-0.293
-645.741	1.108	0.238	-0.172
-644.726	-200.000	0.091	-0.994
-643.711	-125.253	0.736	-0.113
-642.697	721.750	-0.052	0.139
-641.682	800.000	0.109	-0.329
-640.668	-29.395	0.407	-0.235
-639.653	-200.000	0.004	0.244
-638.638	800.000	0.176	0.763
-637.624	-200.000	0.070	0.453
-636.609	170.957	0.139	-0.200
-635.595	800.000	-0.252	-0.758
-634.580	800.000	-0.047	0.164
-633.565	6.597	-0.337	0.252
-632.551	-200.000	0.088	0.423
-631.536	-154.469	-0.814	-0.055
-630.522	-34.874	-0.798	-0.438
-629.507	-100.946	-0.922	0.228
-628.492	-51.152	-0.378	-0.178
-627.478	165.977	0.483	0.689
-626.463	3.451	-0.544	-0.399
-625.449	117.205	-0.208	0.257
-624.434	-57.272	0.769	0.340
-623.419	162.975	-0.220	0.311
-622.405	52.213	-0.352	0.337
-621.390	236.647	-0.237	0.396
-620.376	445.369	-0.259	0.573
-619.361	563.560	0.062	0.151
-618.346	-46.992	0.459	0.226
-617.332	-20.016	0.320	-0.199
-616.317	-163.789	-0.493	0.023
-615.303	-82.905	-0.304	-0.099
-614.288	95.704	-0.321	-0.369
-613.273	79.625	0.485	-0.524
-612.259	-175.307	0.716	-0.020
-611.244	-112.673	-0.920	0.184
-610.230	800.000	-0.028	-0.106
-609.215	336.949	-0.181	0.353
-608.201	-118.404	0.070	-0.012
-607.186	64.749	0.511	-0.518
-606.171	278.407	0.148	0.265
-605.157	200.664	-0.150	-0.231
-604.142	14.027	0.346	0.271
-603.128	47.685	0.400	-0.376
-602.113	89.845	0.366	0.411
-601.098	-92.421	-0.129	0.037
-600.084	172.637	-0.371	-0.538
-599.069	168.280	-0.086	-0.123
-598.055	389.542	-0.290	-0.604
-597.040	189.197	0.477	0.719
-596.025	-200.000	-0.157	-0.777
-595.011	800.000	-0.237	0.739
-593.996	15.096	-0.290	-0.229
-592.982	-118.608	0.348	0.062
-591.967	-130.709	-0.712	0.096
-590.952	155.668	0.530	0.734
-589.938	-58.701	-0.597	-0.260
-588.923	-118.242	-0.912	0.163
-587.909	-101.909	0.831	0.202
-586.894	-119.841	-0.087	0.015
-585.879	-200.000	-0.013	0.317
-584.865	-19.350	-0.904	-0.563
-583.850	53.595	-0.787	-0.759
-582.836	-200.000	0.002	-0.310
-581.821	47.441	-0.450	0.421
-580.806	-11.066	-0.695	-0.461
-579.792	284.889	-0.467	-0.844
-578.777	800.000	0.120	0.391
-577.763	82.917	-0.390	0.427
-576.748	-157.396	0.397	-0.024
-575.733	-200.000	0.088	0.395
-574.719	113.432	-0.277	-0.338
-573.704	-53.062	0.463	-0.214
-572.690	83.060	0.047	0.051
-571.675	31.422	-0.142	0.123
-570.661	115.477	-0.138	0.169
-569.646	-11.139	0.281	-0.186
-568.631	494.333	-0.259	-0.598
-567.617	-31.411	0.675	0.381
-566.602	-52.980	-0.127	0.059
-565.588	144.490	-0.412	0.553
-564.573	-45.588	0.531	0.264
-563.558	-17.089	0.085	-0.054
-562.544	-3.220	0.369	0.259
-561.529	-51.296	0.978	-0.460
-560.515	-100.717	-0.600	0.148
-559.500	95.217	-0.271	-0.310
-558.485	153.611	-0.303	0.416
-557.471	23.327	-0.060	-0.049
-556.456	-40.675	0.372	0.193
-555.442	25.184	0.330	0.275
-554.427	-52.556	-0.459	0.213
-553.412	35.508	0.406	0.358
-552.398	82.609	-0.461	-0.502
-551.383	186.008	-0.181	-0.271
-550.369	225.845	0.332	0.540
-549.354	-127.515	-0.708	0.103
-548.339	800.000	0.116	-0.505
-547.325	-200.000	-0.040	-0.264
-546.310	31.374	0.144	-0.124
-545.296	-81.046	0.565	0.187
-544.281	-200.000	0.052	0.252
-543.266	31.099	0.457	-0.393
-542.252	7.637	-0.370	0.278
-541.237	-200.000	-0.035	-0.200
-540.223	-84.052	-0.468	0.149
-539.208	-9.558	0.639	0.427
-538.193	-87.834	-0.691	0.209
-537.179	-94.082	0.195	-0.054
-536.164	124.263	0.341	-0.430
-535.150	-200.000	-0.056	-0.584
-534.135	-155.747	-0.286	-0.018
-533.121	-144.641	0.873	-0.081
-532.106	-10.123	0.554	-0.369
-531.091	-200.000	-0.065	-0.713
-530.077	-96.892	0.566	-0.149
-529.062	-191.842	-0.536	0.005
-528.048	-78.908	0.868	-0.296
-527.033	-108.161	-0.167	-0.036
-526.018	196.658	0.111	0.170
-525.004	48.537	0.652	0.613
-523.989	142.465	0.469	-0.624
-522.975	-200.000	0.002	0.144
-521.960	-35.747	0.378	0.206
-520.945	265.328	0.105	0.183
-519.931	-96.782	0.435	-0.115
-518.916	-200.000	0.139	-1.028
-517.902	-200.000	0.043	0.219
-516.887	-200.000	0.071	-0.368
-515.872	14.759	0.323	-0.253
-514.858	-63.422	0.400	0.165
-513.843	-5.315	-0.123	-0.085
-512.829	229.744	-0.096	-0.157
-511.814	800.000	-0.085	0.246
-510.799	-71.053	0.208	-0.079
-509.785	-200.000	0.009	-0.357
-508.770	26.388	0.451	-0.378
-507.756	159.842	0.450	0.627
-506.741	-80.059	0.076	0.026
-505.726	92.323	-0.256	-0.290
-504.712	-4.948	-0.247	-0.171
-503.697	251.295	-0.216	0.368
-502.683	-77.295	0.356	0.124
-501.668	-109.292	-0.831	0.176
-500.653	43.730	0.301	-0.276
-499.639	-125.305	0.571	-0.087
-498.624	-200.000	0.163	0.944
-497.610	51.013	0.229	-0.218
-496.595	691.409	0.105	0.276
-495.581	-200.000	-0.064	0.392
-494.566	-13.451	-0.400	-0.260
-493.551	-146.406	0.491	-0.043
-492.537	156.684	-0.502	0.694
-491.522	10.665	-0.249	0.190
-490.508	-127.603	-0.527	-0.077
-489.493	113.198	-0.605	-0.735
-488.478	-80.968	-0.196	-0.065
-487.464	-12.891	0.323	-0.210
-486.449	40.607	-0.231	0.208
-485.435	90.929	0.890	0.999
-484.420	-17.997	-0.210	0.131
-483.405	-200.000	-0.005	-0.424
-482.391	38.043	0.720	0.641
-481.376	-89.470	0.207	-0.061
-480.362	-120.106	0.522	-0.089
-479.347	-172.823	-0.865	0.027
-478.332	-200.000	0.011	-0.479
-477.318	-200.000	-0.086	0.539
-476.303	-200.000	-0.053	-0.324
-475.289	121.925	0.113	-0.141
-474.274	275.265	-0.235	0.417
-473.259	70.950	-0.417	-0.432
-472.245	-49.030	0.114	-0.054
-471.230	-27.027	0.413	-0.241
-470.216	66.373	0.110	-0.112
-469.201	-200.000	-0.144	-0.716
-468.186	197.811	0.142	-0.217
-467.172	-135.441	-0.070	-0.008
-466.157	179.794	-0.058	-0.085
-465.143	169.438	-0.369	-0.527
-464.128	-175.216	0.227	0.006
-463.113	-200.000	-0.098	-0.577
-462.099	-15.768	-0.413	0.263
-461.084	-200.000	-0.170	0.774
-460.070	-143.548	-0.881	0.084
-459.055	151.043	0.122	-0.166
-458.040	-56.695	-0.273	0.121
-457.026	49.948	0.160	0.151
-456.011	800.000	-0.081	-0.238
-454.997	-115.900	-0.552	0.103
-453.982	-200.000	0.037	1.351
-452.968	-31.289	0.435	0.245
-451.953	-200.000	0.151	-0.801
-450.938	-200.000	0.105	0.801
-449.924	547.047	0.223	-0.532
-448.909	35.947	0.516	-0.454
-447.895	-36.106	-0.865	-0.467
-446.880	-139.461	-0.296	-0.032
-445.865	800.000	-0.014	0.052
-444.851	-145.638	0.542	-0.048
-443.836	480.199	0.098	0.222
-442.822	22.345	0.625	-0.510
-441.807	-200.000	-0.063	-0.321
-440.792	-134.092	-0.570	-0.070
-439.778	264.492	-0.137	-0.237
-438.763	155.865	-0.112	0.154
-437.749	-1.500	0.363	0.256
-436.734	407.481	-0.293	-0.619
-435.719	800.000	-0.172	-0.557
-434.705	384.052	-0.144	0.297
-433.690	645.199	-0.325	0.830
-432.676	8.757	0.590	0.444
-431.661	109.111	0.148	-0.176
-430.646	116.722	0.306	0.375
-429.632	800.000	0.156	-0.514
-428.617	313.513	0.198	-0.371
-427.603	184.541	-0.264	0.391
-426.588	-114.403	-0.673	0.129
-425.573	-54.865	0.369	-0.166
-424.559	-30.156	-0.467	0.265
-423.544	-100.886	0.566	0.139
-422.530	232.989	-0.026	-0.043
-421.515	675.203	-0.213	0.553
-420.500	144.866	-0.199	0.265
-419.486	-19.316	-0.806	0.499
-418.471	163.687	-0.419	0.589
-417.457	-52.472	-0.520	0.240
-416.442	-200.000	0.070	-0.610
-415.428	-200.000	-0.099	-1.000
-414.413	-200.000	0.077	0.505
-413.398	-200.000	-0.066	-0.782
-412.384	7.990	-0.566	-0.423
-411.369	-200.000	-0.053	-0.594
-410.355	15.676	0.373	0.293
-409.340	-108.624	-0.300	0.064
-408.325	-200.000	-0.118	0.801
-407.311	-200.000	0.088	0.816
-406.296	800.000	0.062	-0.200
-405.282	-86.612	-0.484	-0.148
-404.267	63.815	-0.513	-0.514
-403.252	-21.393	0.740	-0.451
-402.238	246.250	0.326	-0.548
-401.223	233.214	-0.510	-0.836
-400.209	23.233	0.310	0.254
-399.194	-200.000	-0.052	0.275
-398.179	-45.367	0.150	-0.074
-397.165	-175.850	0.361	-0.010
-396.150	800.000	-0.125	0.348
-395.136	-200.000	0.012	0.606
-394.121	-186.947	-0.617	0.009
-393.106	166.593	0.235	-0.333
-392.092	-23.649	-0.599	0.358
-391.077	441.847	0.024	-0.051
-390.063	-200.000	0.006	-0.554
-389.048	487.111	0.260	0.591
-388.033	49.357	0.510	-0.478
-387.019	-109.431	-0.596	-0.126
-386.004	471.770	-0.072	-0.162
-384.990	-137.718	-0.735	0.082
-383.975	800.000	-0.140	0.405
-382.960	56.479	-0.243	0.236
-381.946	800.000	0.207	0.692
-380.931	36.163	-0.715	0.628
-379.917	800.000	-0.117	-0.394
-378.902	289.662	-0.228	0.413
-377.888	489.954	0.457	1.042
-376.873	-197.877	-1.008	-0.006
-375.858	147.616	-0.180	0.241
-374.844	-200.000	0.029	0.308
-373.829	-200.000	-0.037	0.954
-372.815	-200.000	-0.031	0.675
-371.800	8.515	0.539	-0.404
-370.785	800.000	0.177	-0.766
-369.771	-135.657	-0.704	0.083
-368.756	-13.748	-0.347	-0.223
-367.742	-160.440	1.134	-0.061
-366.727	-172.683	1.106	0.035
-365.712	337.600	0.191	-0.369
-364.698	507.457	0.416	-0.961
-363.683	100.841	-0.758	0.878
-362.669	800.000	-0.078	-0.237
-361.654	-200.000	-0.201	-0.953
-360.639	65.494	-0.578	0.583
-359.625	-165.965	0.657	0.028
-358.610	800.000	-0.043	-0.134
-357.596	737.199	-0.090	0.241
-356.581	-200.000	0.028	-0.399
-355.566	214.086	0.133	0.210
-354.552	-39.962	-0.687	0.357
-353.537	-200.000	0.097	0.440
-352.523	-86.205	-0.449	0.138
-351.508	-96.010	-0.251	-0.067
-350.493	-97.110	-0.763	0.199
-349.479	800.000	-0.086	-0.321
-348.464	-200.000	0.252	-1.121
-347.450	-29.780	0.196	-0.111
-346.435	105.783	0.240	-0.283
-345.420	-6.574	-1.014	-0.687
-344.406	-19.566	0.356	-0.220
-343.391	18.788	0.862	-0.687
-342.377	-105.655	0.570	-0.129
-341.362	410.402	0.230	0.484
-340.348	378.989	0.194	-0.396
-339.333	-179.740	0.667	0.014
-338.318	-144.638	-0.662	0.061
-337.304	-96.335	-0.382	0.101
-336.289	-51.360	-0.501	0.233
-335.275	377.825	0.309	0.628
-334.260	21.710	0.513	0.415
-333.245	398.077	0.150	0.312
-332.231	800.000	0.117	0.367
-331.216	285.980	0.209	-0.376
-330.202	237.335	0.105	0.174
-329.187	33.778	0.460	-0.398
-328.172	235.123	-0.303	0.498
-327.158	-200.000	-0.053	0.513
-326.143	-200.000	0.017	-0.137
-325.129	80.375	-0.525	-0.563
-324.114	112.967	-0.326	0.393
-323.099	510.219	-0.306	0.707
-322.085	-200.000	0.011	-0.296
-321.070	95.995	-0.237	-0.270
-320.056	800.000	0.190	-0.731
-319.041	62.874	-0.276	-0.275
-318.026	-39.348	-0.659	-0.344
-317.012	2.450	0.456	-0.328
-315.997	310.387	-0.463	0.862
-314.983	596.002	0.178	-0.439
-313.968	-200.000	0.052	0.866
-312.953	-2.122	0.543	0.379
-311.939	-200.000	-0.053	0.276
-310.924	181.098	-1.156	-1.689
-309.910	-161.492	1.146	0.059
-308.895	-84.941	0.658	0.205
-307.880	126.145	0.172	-0.217
-306.866	93.714	-0.626	0.705
-305.851	-0.757	0.808	-0.569
-304.837	543.776	-0.110	0.260
-303.822	59.518	0.449	0.440
-302.807	-62.264	0.295	0.122
-301.793	-200.000	-0.038	0.300
-300.778	-79.332	0.421	0.142
-299.764	791.733	-0.105	0.288
-298.749	-51.317	-0.359	-0.167
-297.735	-55.560	-0.451	-0.201
-296.720	242.165	0.102	-0.170
-295.705	73.648	0.124	-0.129
-294.691	-41.445	-0.348	-0.178
-293.676	-134.072	-0.218	0.027
-292.662	-95.816	0.586	0.156
-291.647	-151.525	0.865	-0.064
-290.632	800.000	-0.330	-1.312
-289.618	800.000	0.283	-1.031
-288.603	142.691	-0.747	-0.986
-287.589	-200.000	0.013	0.419
-286.574	-200.000	-0.034	-0.459
-285.559	67.434	-0.314	-0.319
-284.545	108.858	-0.370	0.440
-283.530	4.922	0.320	-0.233
-282.516	-20.919	-0.886	0.539
-281.501	466.749	-0.231	0.514
-280.486	-8.273	1.279	0.855
-279.472	-128.958	-0.576	-0.080
-278.457	62.285	-0.098	-0.097
-277.443	-118.884	0.713	-0.124
-276.428	427.536	0.093	0.199
-275.413	213.788	0.221	-0.347
-274.399	699.847	-0.203	-0.531
-273.384	-145.751	0.321	-0.028
-272.370	-136.196	0.384	-0.045
-271.355	-200.000	-0.045	-0.655
-270.340	12.814	-0.602	-0.461
-269.326	31.867	-0.495	-0.423
-268.311	-200.000	0.179	-1.019
-267.297	-74.230	0.563	-0.202
-266.282	800.000	-0.147	0.459
-265.267	-99.656	-0.598	-0.149
-264.253	-66.952	0.223	0.087
-263.238	-200.000	-0.076	0.464
-262.224	386.053	0.556	1.139
-261.209	683.608	0.316	0.817
-260.195	-27.180	-0.519	-0.300
-259.180	236.942	0.149	-0.244
-258.165	-48.880	-0.644	0.306
-257.151	-200.000	0.073	0.434
-256.136	322.895	-0.248	0.468
-255.122	7.112	-0.384	0.284
-254.107	197.525	0.255	0.386
-253.092	-200.000	0.103	-0.926
-252.078	-66.984	-0.473	0.185
-251.063	-105.820	0.371	0.083
-250.049	-39.934	-0.405	0.210
-249.034	253.624	0.340	-0.575
-248.019	14.153	-0.814	-0.629
-247.005	-29.174	0.348	-0.198
-245.990	20.930	0.544	-0.437
-244.976	-80.847	-0.363	0.119
-243.961	410.250	0.042	-0.088
-242.946	-90.495	0.980	0.281
-241.932	143.716	0.452	0.597
-240.917	-200.000	-0.196	-0.982
-239.903	389.873	0.174	-0.358
-238.888	31.022	-0.305	0.259
-237.873	-61.271	0.971	0.405
-236.859	-150.045	-0.439	-0.034
-235.844	82.948	-0.110	0.118
-234.830	63.274	-0.022	0.022
-233.815	662.998	0.146	0.373
-232.800	177.926	-0.097	0.141
-231.786	-61.478	0.164	-0.068
-230.771	-75.075	-0.469	0.166
-229.757	272.660	0.113	-0.198
-228.742	-200.000	0.010	0.248
-227.727	-66.845	-0.220	0.086
-226.713	-78.798	-0.436	0.147
-225.698	-192.714	-0.810	-0.007
-224.684	-200.000	0.117	0.552
-223.669	157.051	0.327	0.447
-222.655	-132.539	-0.335	-0.043
-221.640	284.261	0.443	-0.790
-220.625	-93.163	0.791	-0.218
-219.611	293.723	0.532	-0.963
-218.596	-49.290	-0.626	0.296
-217.582	-56.370	0.194	-0.086
-216.567	-200.000	0.149	0.902
-215.552	-45.474	-0.368	0.181
-214.538	1.811	-0.592	0.423
-213.523	-90.449	0.808	-0.232
-212.509	162.765	0.568	-0.790
-211.494	-59.617	0.468	-0.199
-210.479	-200.000	-0.015	0.907
-209.465	338.341	0.364	0.702
-208.450	-44.468	0.657	0.325
-207.436	800.000	0.073	-0.235
-206.421	174.846	-0.372	-0.532
-205.406	800.000	0.097	-0.318
-204.392	480.359	0.220	0.493
-203.377	-73.219	-0.283	-0.103
-202.363	245.607	-0.414	0.690
-201.348	-19.696	-0.254	-0.156
-200.333	149.884	0.293	0.394
-199.319	349.703	-0.343	0.671
-198.304	26.709	-0.813	-0.674
-197.290	-94.495	0.334	0.090
-196.275	800.000	0.135	-0.370
-195.260	-154.770	-0.378	-0.025
-194.246	-125.540	-0.271	-0.041
-193.231	376.659	0.224	-0.452
-192.217	-200.000	-0.028	-0.492
-191.202	110.433	0.340	0.404
-190.187	-105.714	-0.949	-0.213
-189.173	-200.000	0.012	-0.514
-188.158	-170.347	0.583	-0.020
-187.144	425.964	-0.073	-0.155
-186.129	-19.897	0.855	0.522
-185.114	800.000	-0.050	0.165
-184.100	-200.000	0.025	-0.460
-183.085	185.184	0.236	0.346
-182.071	-113.310	0.611	0.119
-181.056	-106.178	-0.457	0.101
-180.042	-200.000	0.086	1.474
-179.027	-79.660	-0.169	-0.056
-178.012	-123.831	-1.096	0.171
-176.998	-131.962	1.020	-0.132
-175.983	800.000	-0.117	-0.360
-174.969	-16.816	0.221	-0.138
-173.954	-10.225	0.214	0.141
-172.939	800.000	0.048	-0.165
-171.925	-55.884	-0.751	0.331
-170.910	163.032	0.381	-0.529
-169.896	115.932	0.159	0.193
-168.881	-57.896	-0.720	-0.311
-167.866	-48.769	0.966	0.459
-166.852	-105.355	-0.557	-0.125
-165.837	20.040	0.674	-0.537
-164.823	-118.522	-0.353	-0.062
-163.808	800.000	0.349	1.007
-162.793	800.000	0.113	-0.332
-161.779	179.468	0.525	-0.760
-160.764	120.314	-0.109	0.133
-159.750	-175.167	0.556	0.015
-158.735	-70.475	0.355	-0.133
-157.720	16.433	-0.111	0.086
-156.706	-200.000	-0.058	-0.401
-155.691	103.061	0.545	0.631
-154.677	-109.881	0.221	-0.046
-153.662	-200.000	-0.076	-0.501
-152.647	135.055	0.499	0.640
-151.633	-96.147	0.741	-0.194
-150.618	191.792	-0.397	0.591
-149.604	-76.867	0.569	0.197
-148.589	-64.693	-0.089	0.036
-147.574	98.573	0.290	0.331
-146.560	691.576	-0.226	0.585
-145.545	-200.000	-0.029	-0.403
-144.531	800.000	0.215	0.692
-143.516	-15.030	-0.261	-0.165
-142.502	-12.307	0.968	-0.625
-141.487	644.874	-0.228	-0.574
-140.472	-149.524	-0.548	0.043
-139.458	800.000	0.225	-0.800
-138.443	-200.000	-0.134	-0.796
-137.429	-200.000	-0.027	0.130
-136.414	-200.000	0.143	0.819
-135.399	392.019	-0.420	0.861
-134.385	-200.000	-0.019	-0.280
-133.370	800.000	-0.128	0.475
-132.356	-18.986	0.334	0.205
-131.341	22.862	0.622	0.503
-130.326	0.513	-0.744	-0.525
-129.312	0.607	0.622	0.439
-128.297	-200.000	-0.035	0.652
-127.283	-49.492	0.537	0.253
-126.268	793.046	0.143	0.387
-125.253	-9.433	-0.603	-0.397
-124.239	9.909	0.621	-0.465
-123.224	-200.000	0.043	-0.241
-122.210	-45.798	-0.876	-0.427
-121.195	-200.000	0.004	-1.283
