DTS Sentinel unit serial number:	SN413079Multiplexer serial number:	ORYXHardware model number:	OX4-SRSoftware version number:	ORYX F/W v4.00 Oryx Data Collector v3.7.2.0data status	okinstallation	princeton_trtdifferential loss correction	single-endedforward channel	channel 1reverse channel	N/Adate	2019/09/19time	04:10:35forward acquisition time	60.00reverse acquisition time	0.00gamma	496.2192k internal	0.2343k external	0.2343temperature offset calibration	1.0014default loss term (dB/km)	0.3790temperature slope calibration	1.0000multiplexer offset coefficient	1.0000multiplexer slope coefficient	1.0000fibre end	0.00T internal ref (°C)	20.37T ext. ref 1 (°C)	0.63T ext. ref 2 (°C)	13.80length (m)	temperature (°C)	Stokes	anti-Stokes-747.200	-200.000	0.046	0.315
-746.185	-83.347	0.062	0.020
-745.171	-64.143	-0.049	-0.020
-744.156	170.664	0.150	0.214
-743.142	-20.302	-0.080	-0.049
-742.127	342.750	-0.027	0.052
-741.112	471.301	0.055	0.124
-740.098	-72.995	-0.261	0.096
-739.083	-200.000	-0.001	0.079
-738.069	-200.000	-0.043	0.657
-737.054	107.769	-0.139	0.165
-736.039	27.363	0.100	0.084
-735.025	468.592	0.139	0.313
-734.010	-200.000	-0.019	0.117
-732.996	-24.145	0.202	-0.121
-731.981	-200.000	0.031	-0.153
-730.966	560.999	-0.109	-0.264
-729.952	-200.000	0.009	-0.258
-728.937	283.921	0.207	-0.373
-727.923	-75.731	-0.206	0.073
-726.908	-49.244	-0.155	0.074
-725.894	-120.658	-0.244	-0.041
-724.879	71.786	-0.124	-0.129
-723.864	-19.983	-0.207	0.128
-722.850	-21.509	-0.316	-0.193
-721.835	-102.068	0.291	-0.070
-720.821	-55.564	-0.366	0.164
-719.806	-68.085	-0.266	0.104
-718.791	-52.630	-0.177	0.082
-717.777	442.843	-0.130	-0.285
-716.762	70.525	-0.124	-0.128
-715.748	-118.867	-0.332	0.058
-714.733	101.828	0.072	0.084
-713.718	167.187	-0.093	0.132
-712.704	-4.543	-0.114	-0.079
-711.689	-123.074	-0.356	0.057
-710.675	58.336	0.122	-0.120
-709.660	-200.000	-0.011	0.071
-708.645	-92.990	-0.112	-0.031
-707.631	-142.836	-0.110	-0.011
-706.616	256.185	-0.075	0.129
-705.602	-25.058	-0.328	-0.195
-704.587	-110.423	-0.194	-0.040
-703.572	-2.757	-0.211	0.148
-702.558	19.471	-0.165	0.133
-701.543	-132.969	0.425	-0.054
-700.529	-200.000	-0.014	0.237
-699.514	-133.046	0.293	0.037
-698.499	-200.000	-0.027	0.135
-697.485	-18.310	-0.196	0.122
-696.470	-163.913	-0.266	0.012
-695.456	207.422	-0.082	-0.128
-694.441	-15.564	-0.055	0.035
-693.426	30.247	-0.076	-0.065
-692.412	314.047	0.026	0.049
-691.397	-20.935	-0.311	-0.190
-690.383	800.000	0.077	-0.253
-689.368	75.576	0.048	0.051
-688.354	-39.852	-0.265	0.138
-687.339	97.522	-0.189	-0.216
-686.324	81.013	0.167	-0.180
-685.310	-142.296	-0.556	-0.055
-684.295	-50.397	-0.131	0.062
-683.281	123.277	0.142	0.178
-682.266	-132.206	-0.125	-0.016
-681.251	-200.000	-0.002	-0.022
-680.237	361.224	-0.079	-0.158
-679.222	-113.130	0.144	-0.028
-678.208	130.273	-0.164	0.210
-677.193	67.282	0.276	-0.282
-676.178	-43.272	0.298	-0.150
-675.164	41.476	-0.133	-0.120
-674.149	80.995	0.113	0.122
-673.135	-138.074	-0.220	-0.024
-672.120	-36.937	-0.248	-0.133
-671.105	-93.715	0.164	-0.045
-670.091	208.433	-0.257	-0.401
-669.076	546.400	0.093	-0.221
-668.062	-200.000	-0.054	0.320
-667.047	-103.505	-0.220	0.052
-666.032	-71.058	0.240	0.090
-665.018	-119.429	-0.057	0.010
-664.003	56.215	0.062	-0.061
-662.989	192.323	-0.177	-0.266
-661.974	18.514	0.084	0.067
-660.959	216.548	-0.104	-0.165
-659.945	-78.051	-0.141	0.049
-658.930	800.000	-0.043	-0.177
-657.916	-121.864	-0.372	-0.061
-656.901	-26.936	-0.232	0.135
-655.886	8.539	0.099	0.075
-654.872	483.426	-0.143	-0.325
-653.857	100.209	0.263	0.304
-652.843	-1.111	0.261	-0.184
-651.828	-200.000	0.019	0.303
-650.814	0.489	0.111	0.079
-649.799	-106.525	-0.129	-0.029
-648.784	88.806	-0.143	0.159
-647.770	5.714	0.162	-0.119
-646.755	-106.186	-0.243	-0.054
-645.741	-67.800	-0.236	0.092
-644.726	-91.999	0.392	-0.111
-643.711	78.358	0.082	-0.088
-642.697	-93.223	-0.203	-0.056
-641.682	-143.733	-0.407	-0.038
-640.668	-200.000	-0.018	-0.108
-639.653	-200.000	0.052	-0.309
-638.638	14.228	-0.222	-0.172
-637.624	-200.000	-0.012	0.346
-636.609	800.000	-0.097	-0.377
-635.595	-200.000	0.055	0.323
-634.580	331.531	0.108	0.208
-633.565	145.239	0.013	0.017
-632.551	-61.868	-0.257	0.107
-631.536	-114.920	0.297	0.056
-630.522	513.784	0.105	0.245
-629.507	344.637	0.041	-0.081
-628.492	-200.000	-0.010	-0.062
-627.478	-200.000	-0.025	-0.127
-626.463	-200.000	-0.039	-0.257
-625.449	55.102	0.314	-0.302
-624.434	370.616	-0.064	0.129
-623.419	153.937	0.102	-0.139
-622.405	-200.000	-0.046	0.286
-621.390	25.224	-0.181	0.150
-620.376	-42.078	-0.120	-0.061
-619.361	-200.000	-0.065	-0.476
-618.346	16.489	-0.168	0.132
-617.332	-136.144	0.247	0.029
-616.317	-200.000	-0.001	-0.010
-615.303	109.039	-0.155	0.185
-614.288	-200.000	-0.004	0.121
-613.273	-85.633	-0.280	0.087
-612.259	56.511	0.143	-0.139
-611.244	162.376	-0.123	-0.172
-610.230	-58.242	-0.244	-0.106
-609.215	-155.014	0.158	-0.010
-608.201	177.720	0.173	-0.251
-607.186	96.543	0.255	-0.291
-606.171	-94.265	-0.265	-0.072
-605.157	-73.217	0.241	-0.088
-604.142	800.000	0.054	0.167
-603.128	-44.385	-0.326	-0.163
-602.113	305.342	-0.167	0.309
-601.098	-199.277	-0.098	-0.001
-600.084	-200.000	0.005	0.126
-599.069	589.276	-0.187	-0.460
-598.055	-143.011	-0.156	-0.015
-597.040	-85.683	0.079	-0.025
-596.025	-159.519	-0.439	0.024
-595.011	800.000	0.058	-0.197
-593.996	641.049	-0.094	0.240
-592.982	-200.000	0.025	-0.215
-591.967	43.442	0.214	0.195
-590.952	-78.365	-0.237	0.081
-589.938	190.877	0.176	0.263
-588.923	201.519	-0.189	0.290
-587.909	110.540	0.203	0.243
-586.894	-4.034	-0.366	-0.252
-585.879	800.000	-0.032	0.136
-584.865	38.822	0.108	-0.096
-583.850	33.000	0.024	0.020
-582.836	-14.346	0.285	0.183
-581.821	-160.252	-0.306	-0.016
-580.806	-147.970	-0.107	0.009
-579.792	-133.508	0.131	-0.016
-578.777	251.439	-0.182	-0.308
-577.763	800.000	-0.073	-0.270
-576.748	-99.404	-0.130	-0.033
-575.733	-119.610	0.102	-0.018
-574.719	-200.000	-0.003	-0.147
-573.704	-25.033	0.099	-0.058
-572.690	-60.753	-0.222	0.093
-571.675	-9.323	0.177	-0.118
-570.661	177.580	-0.087	0.126
-569.646	-87.961	-0.134	-0.040
-568.631	33.466	0.132	0.114
-567.617	-175.425	0.159	-0.004
-566.602	-34.083	0.302	-0.165
-565.588	-151.635	-0.198	0.015
-564.573	562.690	-0.064	-0.154
-563.558	529.865	-0.125	-0.294
-562.544	125.444	0.044	0.055
-561.529	-168.669	-0.413	0.016
-560.515	163.809	-0.024	0.034
-559.500	663.261	0.058	0.148
-558.485	640.922	0.079	-0.201
-557.471	800.000	0.012	0.035
-556.456	131.525	-0.151	-0.194
-555.442	-195.820	0.144	0.001
-554.427	-101.599	0.292	0.071
-553.412	800.000	-0.081	0.266
-552.398	308.505	0.080	0.149
-551.383	595.308	0.086	-0.210
-550.369	-116.711	-0.109	0.020
-549.354	-200.000	-0.005	0.156
-548.339	-200.000	0.004	-0.052
-547.325	401.496	0.139	-0.289
-546.310	-81.736	-0.174	-0.057
-545.296	-200.000	0.025	-0.267
-544.281	-200.000	0.012	-0.156
-543.266	55.979	-0.277	0.267
-542.252	-28.773	-0.392	0.224
-541.237	-200.000	0.031	0.163
-540.223	-96.673	0.085	-0.022
-539.208	-23.665	0.297	-0.177
-538.193	9.509	0.301	-0.226
-537.179	54.021	-0.135	-0.129
-536.164	43.714	0.213	0.194
-535.150	30.251	-0.153	-0.130
-534.135	-148.627	-0.137	-0.011
-533.121	800.000	-0.032	-0.096
-532.106	355.527	-0.119	-0.235
-531.091	800.000	0.094	-0.329
-530.077	-158.069	0.161	0.009
-529.062	-200.000	-0.023	0.221
-528.048	-47.397	-0.134	-0.065
-527.033	-200.000	0.022	0.114
-526.018	525.029	-0.117	-0.274
-525.004	-137.408	-0.230	-0.026
-523.989	60.188	0.080	-0.078
-522.975	-61.049	-0.056	-0.023
-521.960	-200.000	-0.005	0.091
-520.945	-200.000	0.012	-0.089
-519.931	729.291	-0.030	-0.079
-518.916	-119.221	0.231	0.040
-517.902	44.073	-0.116	-0.105
-516.887	621.917	-0.088	-0.219
-515.872	22.363	0.151	0.123
-514.858	49.616	0.080	0.074
-513.843	271.017	-0.104	0.181
-512.829	-31.366	0.194	-0.108
-511.814	-200.000	0.048	0.281
-510.799	800.000	0.060	0.171
-509.785	48.822	0.290	-0.270
-508.770	569.593	-0.027	-0.066
-507.756	-200.000	0.015	-0.133
-506.741	328.508	-0.242	-0.462
-505.726	-5.604	0.039	0.027
-504.712	206.333	-0.122	-0.189
-503.697	-114.886	-0.506	0.096
-502.683	800.000	-0.077	-0.297
-501.668	0.598	-0.358	-0.254
-500.653	-33.226	-0.075	0.041
-499.639	53.152	-0.163	0.155
-498.624	-200.000	-0.028	0.177
-497.610	-118.484	-0.272	0.048
-496.595	734.873	-0.088	0.234
-495.581	800.000	0.081	-0.299
-494.566	317.220	0.142	0.267
-493.551	-33.572	-0.267	0.146
-492.537	800.000	0.074	-0.251
-491.522	0.127	0.107	-0.075
-490.508	55.070	-0.209	0.200
-489.493	-62.450	0.271	-0.112
-488.478	207.509	-0.082	-0.126
-487.464	-83.834	-0.310	0.098
-486.449	32.492	0.099	0.085
-485.435	-200.000	-0.005	0.276
-484.420	800.000	0.018	-0.072
-483.405	3.100	-0.159	-0.115
-482.391	327.077	0.133	-0.254
-481.376	102.303	-0.171	0.198
-480.362	-32.085	-0.238	0.132
-479.347	94.598	-0.149	0.167
-478.332	800.000	0.106	0.362
-477.318	-93.574	-0.292	0.080
-476.303	-200.000	0.051	0.352
-475.289	722.604	-0.121	0.320
-474.274	-200.000	-0.038	0.311
-473.259	11.612	-0.157	0.119
-472.245	-200.000	0.003	-0.145
-471.230	-154.858	0.248	0.016
-470.216	681.135	-0.033	-0.085
-469.201	-112.009	0.468	-0.093
-468.186	-200.000	-0.006	-0.246
-467.172	-70.093	0.107	-0.040
-466.157	-200.000	0.064	-0.299
-465.143	-200.000	-0.002	0.233
-464.128	-200.000	-0.030	0.168
-463.113	-164.879	0.269	0.012
-462.099	447.011	-0.032	-0.070
-461.084	193.984	0.058	0.087
-460.070	-19.470	0.110	0.068
-459.055	203.128	-0.105	0.161
-458.040	-200.000	-0.032	0.555
-457.026	90.960	0.238	0.264
-456.011	-48.086	-0.159	0.076
-454.997	230.031	0.058	0.094
-453.982	-200.000	0.024	0.303
-452.968	414.187	0.118	0.250
-451.953	-99.157	-0.185	-0.046
-450.938	113.038	0.101	-0.121
-449.924	-200.000	-0.020	-0.306
-448.909	78.441	-0.128	0.136
-447.895	-156.700	0.175	-0.011
-446.880	445.282	-0.111	0.241
-445.865	-113.459	0.119	0.023
-444.851	-30.862	-0.394	-0.220
-443.836	-200.000	0.013	0.065
-442.822	510.006	0.124	0.287
-441.807	218.186	-0.100	-0.158
-440.792	465.108	-0.062	-0.138
-439.778	-197.101	-0.162	0.001
-438.763	-49.723	0.141	-0.067
-437.749	-200.000	-0.066	0.361
-436.734	-96.696	-0.075	0.020
-435.719	484.164	-0.125	-0.282
-434.705	-200.000	-0.034	-0.283
-433.690	518.619	-0.066	0.152
-432.676	-141.962	-0.041	-0.004
-431.661	-200.000	0.175	0.000
-430.646	-200.000	-0.035	0.286
-429.632	-148.669	-0.131	-0.011
-428.617	9.396	-0.297	-0.222
-427.603	800.000	0.059	-0.198
-426.588	800.000	-0.019	-0.058
-425.573	-5.633	0.114	-0.077
-424.559	207.868	0.090	-0.139
-423.544	-120.875	0.383	-0.064
-422.530	407.309	-0.261	-0.546
-421.515	-95.302	0.067	-0.018
-420.500	800.000	0.089	0.272
-419.486	-200.000	-0.019	0.202
-418.471	300.534	-0.149	0.272
-417.457	-71.477	0.097	0.036
-416.442	224.319	0.064	0.102
-415.428	800.000	-0.110	-0.311
-414.413	-17.816	0.110	-0.068
-413.398	223.444	0.345	-0.551
-412.384	-75.533	0.090	-0.032
-411.369	-200.000	0.007	-0.346
-410.355	381.820	0.239	0.485
-409.340	-115.722	-0.406	0.075
-408.325	51.891	0.047	0.044
-407.311	40.017	-0.070	0.062
-406.296	104.000	-0.192	0.223
-405.282	-62.477	0.146	0.060
-404.267	800.000	-0.064	0.185
-403.252	231.133	-0.023	0.037
-402.238	-54.929	0.225	0.100
-401.223	236.170	0.178	-0.291
-400.209	-131.371	-0.237	0.031
-399.194	66.555	-0.092	0.093
-398.179	-157.051	-0.149	-0.009
-397.165	772.577	0.078	0.210
-396.150	102.097	-0.290	0.334
-395.136	305.435	-0.271	0.497
-394.121	587.395	0.052	0.125
-393.106	-145.930	0.152	0.013
-392.092	-147.037	0.401	0.034
-391.077	-144.123	-0.204	-0.019
-390.063	-200.000	-0.009	0.157
-389.048	268.420	0.122	-0.212
-388.033	-88.786	0.181	0.053
-387.019	58.547	-0.232	-0.225
-386.004	97.932	-0.247	-0.281
-384.990	646.435	-0.053	-0.133
-383.975	800.000	0.042	-0.119
-382.960	-200.000	-0.004	0.041
-381.946	-200.000	-0.012	-0.249
-380.931	-19.056	-0.167	-0.103
-379.917	-63.759	0.159	0.064
-378.902	-200.000	-0.012	-0.239
-377.888	577.151	-0.056	0.135
-376.873	-73.219	-0.162	-0.058
-375.858	177.905	-0.097	0.140
-374.844	-90.896	0.426	0.121
-373.829	79.235	0.095	-0.101
-372.815	-115.726	-0.022	0.004
-371.800	16.372	0.204	-0.159
-370.785	-121.511	0.315	0.052
-369.771	-116.982	-0.104	-0.019
-368.756	-200.000	-0.038	-0.175
-367.742	96.236	0.318	0.359
-366.727	-37.516	-0.166	-0.088
-365.712	180.741	-0.163	0.236
-364.698	-200.000	-0.040	0.234
-363.683	-78.848	-0.233	-0.078
-362.669	224.294	-0.097	0.154
-361.654	15.914	-0.157	-0.122
-360.639	242.941	0.182	-0.301
-359.625	-59.439	0.297	-0.126
-358.610	-200.000	0.023	-0.249
-357.596	97.347	-0.088	-0.100
-356.581	-191.362	-0.088	0.001
-355.566	-89.330	0.593	0.172
-354.552	-130.989	0.136	-0.018
-353.537	174.485	0.235	-0.336
-352.523	-122.348	0.315	-0.051
-351.508	-156.962	0.136	0.008
-350.493	800.000	-0.022	-0.086
-349.479	254.726	-0.101	-0.170
-348.464	-58.992	-0.184	-0.078
-347.450	-20.139	0.150	-0.091
-346.435	-200.000	-0.007	-0.044
-345.420	159.529	0.082	-0.112
-344.406	160.828	-0.130	-0.178
-343.391	-200.000	0.026	0.344
-342.377	203.082	0.140	0.214
-341.362	-77.422	0.051	-0.017
-340.348	16.979	0.166	-0.130
-339.333	-122.023	0.185	0.030
-338.318	-168.448	0.157	-0.006
-337.304	-200.000	-0.042	-0.297
-336.289	-62.288	0.104	0.043
-335.275	-95.450	0.175	-0.046
-334.260	-41.554	-0.152	0.077
-333.245	800.000	0.049	-0.183
-332.231	-50.906	0.056	0.026
-331.216	-86.301	-0.053	0.016
-330.202	-200.000	-0.026	-0.127
-329.187	800.000	-0.074	0.233
-328.172	86.480	0.246	0.267
-327.158	-10.133	0.161	-0.106
-326.143	167.015	-0.042	0.059
-325.129	-137.303	0.197	-0.022
-324.114	800.000	-0.043	0.118
-323.099	-165.059	-0.225	-0.010
-322.085	224.812	-0.025	0.040
-321.070	117.269	-0.028	0.034
-320.056	800.000	0.037	0.144
-319.041	-126.630	-0.183	-0.027
-318.026	92.873	-0.207	0.230
-317.012	800.000	0.067	-0.221
-315.997	276.128	-0.095	-0.166
-314.983	-16.856	0.143	-0.089
-313.968	90.172	0.178	0.195
-312.953	40.975	-0.138	0.123
-311.939	458.517	-0.233	0.510
-310.924	-200.000	0.002	-0.027
-309.910	220.506	-0.120	0.190
-308.895	-200.000	0.009	0.372
-307.880	-151.015	0.268	-0.020
-306.866	90.188	-0.132	-0.145
-305.851	82.112	-0.183	-0.196
-304.837	-22.670	-0.213	0.127
-303.822	-112.148	0.385	0.076
-302.807	426.344	0.107	-0.227
-301.793	-8.527	0.098	-0.065
-300.778	-148.939	0.135	-0.011
-299.764	101.825	-0.057	0.065
-298.749	800.000	0.055	-0.173
-297.735	63.922	-0.238	0.235
-296.720	-20.024	0.098	-0.060
-295.705	-200.000	-0.006	0.244
-294.691	-200.000	-0.059	0.382
-293.676	800.000	-0.078	0.214
-292.662	-200.000	0.018	0.335
-291.647	800.000	0.073	0.308
-290.632	-90.710	0.349	0.099
-289.618	120.554	0.208	0.254
-288.603	-200.000	0.015	-0.101
-287.589	161.668	0.069	-0.094
-286.574	705.599	0.063	0.163
-285.559	-10.768	0.260	-0.169
-284.545	-71.775	0.160	0.059
-283.530	-61.910	-0.118	-0.049
-282.516	-116.437	0.352	-0.064
-281.501	-200.000	0.026	-0.125
-280.486	-108.220	0.152	0.032
-279.472	-140.272	-0.189	0.019
-278.457	265.360	-0.063	0.108
-277.443	-143.174	0.135	-0.013
-276.428	-62.429	-0.373	0.153
-275.413	-24.603	0.318	-0.186
-274.399	-70.069	-0.144	0.054
-273.384	89.527	-0.074	-0.081
-272.370	-110.983	0.271	-0.055
-271.355	-174.481	0.374	-0.011
-270.340	674.341	-0.038	0.098
-269.326	-54.241	-0.187	-0.083
-268.311	-200.000	-0.010	-0.108
-267.297	-200.000	0.033	-0.163
-266.282	-200.000	0.032	-0.253
-265.267	-200.000	0.017	0.089
-264.253	7.136	-0.414	0.303
-263.238	64.914	0.209	-0.208
-262.224	-144.848	-0.143	0.013
-261.209	77.933	0.112	0.117
-260.195	-92.697	0.244	0.067
-259.180	-200.000	0.045	0.256
-258.165	-60.852	-0.315	0.131
-257.151	800.000	0.020	0.069
-256.136	-166.293	-0.292	-0.012
-255.122	57.216	0.115	0.110
-254.107	-62.892	0.364	-0.148
-253.092	-8.229	-0.139	-0.092
-252.078	-88.121	0.150	0.044
-251.063	126.422	0.044	0.055
-250.049	361.661	-0.034	-0.067
-249.034	-19.702	-0.215	0.131
-248.019	294.414	-0.176	-0.316
-247.005	-200.000	0.048	-0.406
-245.990	0.434	0.174	0.122
-244.976	-51.462	0.106	-0.049
-243.961	246.982	0.145	0.241
-242.946	-6.068	0.335	0.225
-241.932	-10.306	0.091	0.059
-240.917	7.733	0.071	0.052
-239.903	608.972	0.103	0.252
-238.888	-155.472	-0.166	0.011
-237.873	-200.000	0.008	-0.490
-236.859	-200.000	-0.016	-0.220
-235.844	238.220	0.238	0.388
-234.830	307.788	-0.200	-0.366
-233.815	34.851	0.059	0.050
-232.800	-200.000	-0.004	0.031
-231.786	88.220	0.354	0.385
-230.771	66.208	0.342	-0.341
-229.757	61.357	-0.233	0.227
-228.742	-56.673	0.362	-0.157
-227.727	-131.265	-0.076	0.010
-226.713	88.631	-0.155	-0.169
-225.698	44.190	0.260	-0.234
-224.684	109.513	0.106	-0.125
-223.669	74.387	0.044	-0.045
-222.655	-180.206	-0.173	-0.004
-221.640	-71.191	-0.177	0.065
-220.625	5.822	0.286	-0.207
-219.611	-147.479	-0.103	-0.009
-218.596	131.991	-0.195	0.246
-217.582	154.188	-0.124	-0.167
-216.567	-13.725	-0.134	0.085
-215.552	800.000	-0.061	-0.260
-214.538	-200.000	0.023	0.246
-213.523	-102.956	-0.191	-0.045
-212.509	-200.000	-0.001	0.226
-211.494	-75.970	-0.083	-0.029
-210.479	-90.451	0.372	-0.106
-209.465	362.185	0.083	-0.164
-208.450	-200.000	-0.042	0.194
-207.436	-107.482	-0.158	0.034
-206.421	-200.000	0.037	-0.169
-205.406	14.818	0.101	-0.078
-204.392	800.000	0.048	-0.187
-203.377	0.748	-0.110	0.077
-202.363	324.440	0.085	0.159
-201.348	-200.000	0.030	-0.193
-200.333	-46.697	-0.236	0.113
-199.319	-43.065	-0.067	-0.033
-198.304	-200.000	0.039	-0.195
-197.290	216.846	-0.117	-0.183
-196.275	-200.000	-0.044	-0.295
-195.260	-122.249	-0.041	-0.007
-194.246	800.000	-0.107	0.306
-193.231	-80.325	-0.190	-0.062
-192.217	-11.300	0.203	0.131
-191.202	-11.622	0.129	0.083
-190.187	141.857	-0.105	-0.136
-189.173	800.000	-0.107	0.300
-188.158	-173.480	0.407	-0.012
-187.144	17.895	-0.187	0.146
-186.129	-200.000	0.024	0.212
-185.114	18.422	0.103	-0.081
-184.100	-40.999	0.119	-0.060
-183.085	59.973	0.147	-0.142
-182.071	-200.000	0.014	0.157
-181.056	-6.584	0.177	0.118
-180.042	228.131	-0.202	0.322
-179.027	132.429	0.182	-0.230
-178.012	800.000	0.090	-0.263
-176.998	65.236	0.043	-0.042
-175.983	-108.456	-0.085	-0.018
-174.969	-17.162	-0.145	0.090
-173.954	-200.000	0.000	-0.037
-172.939	-110.284	0.193	-0.039
-171.925	143.044	-0.049	0.063
-170.910	432.432	-0.103	0.219
-169.896	-200.000	0.004	0.062
-168.881	-143.183	-0.377	0.036
-167.866	800.000	0.070	-0.255
-166.852	800.000	0.068	0.251
-165.837	-59.164	0.108	-0.046
-164.823	33.239	0.095	0.081
-163.808	800.000	0.066	0.226
-162.793	16.803	0.047	0.036
-161.779	-120.523	-0.117	-0.019
-160.764	227.746	0.064	0.102
-159.750	-200.000	0.032	-0.156
-158.735	379.926	0.293	-0.587
-157.720	84.047	-0.099	0.105
-156.706	-200.000	-0.006	-0.087
-155.691	-43.008	-0.296	0.147
-154.677	-112.545	-0.143	-0.028
-153.662	-167.220	-0.378	0.015
-152.647	-110.913	0.162	-0.033
-151.633	11.245	0.090	-0.068
-150.618	528.413	0.121	0.278
-149.604	800.000	-0.055	0.233
-148.589	-33.456	0.050	-0.027
-147.574	-190.928	0.144	0.001
-146.560	430.292	-0.071	-0.150
-145.545	211.035	0.274	-0.422
-144.531	800.000	-0.125	-0.347
-143.516	522.105	-0.082	-0.188
-142.502	302.055	0.104	-0.188
-141.487	-200.000	0.021	-0.210
-140.472	13.466	-0.278	0.211
-139.458	0.721	-0.060	0.042
-138.443	436.481	0.069	0.146
-137.429	800.000	-0.035	0.095
-136.414	30.986	-0.376	0.315
-135.399	-200.000	-0.076	0.368
-134.385	800.000	-0.154	-0.482
-133.370	-23.156	-0.205	0.121
-132.356	263.329	0.179	0.305
-131.341	-77.770	0.223	0.075
-130.326	139.601	-0.287	0.369
-129.312	-65.465	0.332	-0.130
-128.297	147.833	0.134	0.177
-127.283	-65.531	-0.195	0.076
-126.268	61.184	-0.037	-0.036
-125.253	-161.068	0.142	-0.007
-124.239	-155.067	0.087	-0.006
-123.224	112.078	0.153	-0.181
-122.210	15.857	0.093	-0.072
