DTS Sentinel unit serial number:	SN413079Multiplexer serial number:	ORYXHardware model number:	OX4-SRSoftware version number:	ORYX F/W v4.00 Oryx Data Collector v3.7.2.0data status	okinstallation	princeton_trtdifferential loss correction	single-endedforward channel	channel 1reverse channel	N/Adate	2019/09/16time	11:42:35forward acquisition time	60.00reverse acquisition time	0.00gamma	496.2192k internal	0.2296k external	0.2296temperature offset calibration	0.9967default loss term (dB/km)	0.3790temperature slope calibration	1.0000multiplexer offset coefficient	1.0000multiplexer slope coefficient	1.0000fibre end	0.00T internal ref (°C)	38.02T ext. ref 1 (°C)	13.02T ext. ref 2 (°C)	35.22length (m)	temperature (°C)	Stokes	anti-Stokes-747.200	-200.000	0.026	0.212
-746.185	112.640	0.131	0.162
-745.171	288.058	-0.244	-0.452
-744.156	34.652	0.134	0.120
-743.142	-92.336	-0.230	-0.066
-742.127	-53.048	0.203	-0.095
-741.112	-41.873	0.129	-0.068
-740.098	4.689	0.206	-0.154
-739.083	-200.000	-0.031	0.187
-738.069	-2.509	-0.243	0.174
-737.054	-109.208	-0.313	-0.068
-736.039	-138.046	-0.238	-0.027
-735.025	-127.477	0.055	0.008
-734.010	4.577	-0.152	0.114
-732.996	-11.891	-0.258	-0.173
-731.981	-88.456	-0.236	0.072
-730.966	594.768	0.163	-0.411
-729.952	800.000	0.013	0.043
-728.937	800.000	-0.055	-0.245
-727.923	-87.463	-0.235	0.073
-726.908	12.512	0.047	0.037
-725.894	-31.937	0.195	-0.111
-724.879	-40.385	-0.051	-0.027
-723.864	800.000	-0.050	-0.141
-722.850	-148.488	0.485	0.041
-721.835	-41.259	0.139	-0.073
-720.821	652.961	0.083	-0.218
-719.806	291.545	-0.166	-0.308
-718.791	-38.963	-0.040	-0.021
-717.777	-5.534	-0.163	-0.114
-716.762	5.364	-0.286	-0.216
-715.748	-105.526	0.394	-0.091
-714.733	22.639	0.130	-0.108
-713.718	546.174	0.093	0.227
-712.704	25.990	0.275	-0.234
-711.689	-94.687	-0.307	-0.085
-710.675	-22.523	0.255	-0.157
-709.660	-140.828	-0.262	-0.028
-708.645	71.025	0.034	-0.036
-707.631	-200.000	0.017	-0.352
-706.616	-200.000	-0.052	-0.262
-705.602	381.921	-0.094	0.197
-704.587	-200.000	-0.034	0.191
-703.572	287.748	-0.067	0.123
-702.558	281.058	-0.130	0.238
-701.543	-200.000	-0.025	-0.359
-700.529	71.718	-0.016	0.017
-699.514	-129.917	0.320	0.045
-698.499	76.422	0.013	-0.015
-697.485	-172.125	-0.094	0.003
-696.470	-187.420	-0.316	-0.004
-695.456	-109.990	-0.038	-0.008
-694.441	-39.921	-0.158	-0.084
-693.426	417.601	0.101	-0.219
-692.412	-15.659	0.108	-0.070
-691.397	-123.036	0.132	0.022
-690.383	45.885	-0.045	0.043
-689.368	89.359	0.069	-0.078
-688.354	-84.711	-0.084	-0.027
-687.339	402.238	-0.058	0.124
-686.324	-200.000	-0.002	0.102
-685.310	358.965	-0.045	-0.092
-684.295	-135.548	0.075	-0.009
-683.281	-200.000	0.026	-0.131
-682.266	-130.040	-0.128	0.018
-681.251	-178.838	0.168	-0.004
-680.237	-7.086	-0.216	-0.149
-679.222	-200.000	-0.030	-0.165
-678.208	-200.000	0.012	-0.254
-677.193	-7.861	0.100	0.069
-676.178	-200.000	0.037	-0.172
-675.164	-2.788	-0.489	0.349
-674.149	-113.507	0.254	-0.051
-673.135	-26.532	0.058	0.034
-672.120	12.868	0.215	0.169
-671.105	-200.000	-0.060	-0.270
-670.091	-200.000	0.014	0.123
-669.076	647.525	0.034	-0.089
-668.062	275.899	-0.172	0.312
-667.047	12.648	0.156	0.123
-666.032	800.000	0.145	-0.571
-665.018	-5.553	-0.295	-0.206
-664.003	800.000	0.074	-0.249
-662.989	-21.993	0.195	0.121
-661.974	40.865	-0.149	0.137
-660.959	63.150	-0.085	0.087
-659.945	800.000	-0.058	0.189
-658.930	324.080	-0.136	0.265
-657.916	21.786	-0.217	0.180
-656.901	-58.034	-0.070	0.031
-655.886	-200.000	0.002	-0.219
-654.872	-109.314	0.279	-0.060
-653.857	27.475	-0.093	0.080
-652.843	-63.975	-0.095	0.040
-651.828	8.120	0.114	-0.087
-650.814	-101.208	-0.207	-0.051
-649.799	800.000	-0.058	0.183
-648.784	-200.000	0.008	-0.111
-647.770	69.572	0.148	-0.155
-646.755	467.628	0.081	0.185
-645.741	39.591	0.130	-0.119
-644.726	-127.253	-0.182	-0.027
-643.711	-200.000	0.053	0.387
-642.697	-200.000	-0.047	0.287
-641.682	384.485	0.010	-0.021
-640.668	113.119	-0.135	-0.167
-639.653	-200.000	-0.043	0.201
-638.638	-74.235	-0.158	-0.058
-637.624	21.949	-0.161	0.133
-636.609	428.215	-0.034	-0.075
-635.595	125.554	0.085	-0.109
-634.580	214.600	-0.201	0.323
-633.565	222.004	-0.103	0.169
-632.551	-200.000	0.034	-0.281
-631.536	-69.518	-0.146	0.057
-630.522	99.513	-0.129	0.152
-629.507	-44.723	-0.243	0.123
-628.492	-75.507	0.086	-0.031
-627.478	-60.288	0.377	0.163
-626.463	800.000	0.046	0.191
-625.449	-49.705	-0.123	-0.060
-624.434	-76.436	0.146	0.052
-623.419	482.891	-0.194	0.449
-622.405	250.501	-0.192	0.332
-621.390	-140.155	0.236	-0.025
-620.376	681.634	0.038	0.100
-619.361	-120.745	-0.274	-0.047
-618.346	22.039	0.065	-0.054
-617.332	-33.781	-0.214	0.120
-616.317	590.717	-0.120	0.300
-615.303	-120.284	0.139	-0.024
-614.288	-200.000	0.022	-0.154
-613.273	89.397	0.144	-0.163
-612.259	50.617	0.156	-0.150
-611.244	138.102	-0.066	-0.089
-610.230	766.151	0.064	-0.177
-609.215	-200.000	-0.023	-0.173
-608.201	-200.000	0.001	-0.072
-607.186	120.361	0.121	-0.153
-606.171	235.682	0.055	-0.093
-605.157	56.516	-0.079	-0.079
-604.142	-13.387	-0.232	0.153
-603.128	-200.000	-0.010	0.178
-602.113	276.197	0.155	0.280
-601.098	-112.730	-0.202	-0.041
-600.084	-106.971	-0.318	-0.071
-599.069	-200.000	-0.001	0.171
-598.055	-61.236	0.071	0.030
-597.040	1.090	0.347	-0.253
-596.025	-84.450	0.120	0.039
-595.011	1.632	0.179	-0.131
-593.996	45.095	0.349	-0.326
-592.982	34.726	0.029	0.026
-591.967	-121.508	-0.063	0.011
-590.952	-84.309	-0.197	-0.063
-589.938	800.000	-0.057	-0.225
-588.923	-25.731	0.026	0.015
-587.909	-1.985	-0.168	0.120
-586.894	-136.974	0.223	-0.026
-585.879	288.851	0.075	-0.139
-584.865	-178.553	0.089	-0.002
-583.850	-13.000	0.345	0.228
-582.836	-53.380	-0.373	0.174
-581.821	-129.143	-0.146	-0.021
-580.806	800.000	-0.009	0.032
-579.792	-200.000	0.026	0.144
-578.777	-200.000	-0.048	0.504
-577.763	29.759	0.110	0.095
-576.748	800.000	-0.056	-0.177
-575.733	-163.214	0.176	0.009
-574.719	243.268	0.174	-0.297
-573.704	-2.375	0.143	0.102
-572.690	800.000	-0.088	0.268
-571.675	-21.907	0.038	-0.024
-570.661	17.908	-0.113	-0.092
-569.646	-129.166	0.203	0.029
-568.631	358.031	-0.032	-0.065
-567.617	-200.000	0.058	-0.304
-566.602	-66.203	0.386	0.156
-565.588	-112.546	-0.316	-0.064
-564.573	512.631	-0.089	0.209
-563.558	56.150	0.190	-0.187
-562.544	-62.101	-0.187	0.079
-561.529	-200.000	0.023	0.176
-560.515	-88.761	-0.180	-0.054
-559.500	489.033	0.094	0.219
-558.485	699.733	0.059	-0.158
-557.471	-54.574	0.105	-0.048
-556.456	-175.950	-0.275	0.007
-555.442	-55.269	-0.254	-0.116
-554.427	-86.373	0.234	0.073
-553.412	525.587	-0.105	-0.250
-552.398	800.000	0.094	-0.264
-551.383	-1.118	0.288	-0.207
-550.369	137.217	0.257	-0.341
-549.354	248.548	-0.019	0.033
-548.339	280.897	-0.143	0.260
-547.325	40.826	-0.353	-0.323
-546.310	-41.454	0.334	-0.174
-545.296	26.841	0.245	0.208
-544.281	140.551	0.138	0.185
-543.266	-103.280	0.076	-0.018
-542.252	59.959	-0.175	-0.175
-541.237	-5.020	-0.124	0.086
-540.223	-46.058	-0.191	-0.095
-539.208	-57.218	0.267	0.119
-538.193	-58.365	-0.261	-0.115
-537.179	-156.744	0.265	0.017
-536.164	-200.000	-0.113	0.553
-535.150	-200.000	-0.037	-0.273
-534.135	109.353	-0.061	0.074
-533.121	274.216	-0.066	-0.118
-532.106	-200.000	-0.017	-0.085
-531.091	-200.000	-0.021	-0.130
-530.077	299.045	-0.088	-0.163
-529.062	-175.008	-0.130	0.004
-528.048	473.749	0.142	-0.325
-527.033	-200.000	-0.020	0.124
-526.018	53.613	0.160	-0.155
-525.004	-0.131	-0.035	-0.026
-523.989	254.004	0.063	-0.110
-522.975	-117.238	0.252	-0.046
-521.960	800.000	-0.043	0.137
-520.945	-200.000	0.002	0.054
-519.931	800.000	0.090	-0.352
-518.916	-18.672	-0.244	-0.154
-517.902	-200.000	-0.004	-0.077
-516.887	73.906	-0.264	0.280
-515.872	116.880	0.076	0.095
-514.858	682.284	0.113	0.298
-513.843	-35.749	-0.219	-0.120
-512.829	800.000	0.015	0.064
-511.814	-135.182	-0.202	-0.025
-510.799	-200.000	0.023	-0.311
-509.785	29.472	-0.356	-0.306
-508.770	68.328	-0.140	-0.145
-507.756	-193.128	-0.150	-0.001
-506.741	48.091	0.133	-0.126
-505.726	-200.000	0.010	0.151
-504.712	-200.000	0.007	-0.146
-503.697	24.481	0.263	-0.220
-502.683	-33.912	-0.107	-0.060
-501.668	460.319	0.124	-0.281
-500.653	110.731	-0.097	-0.118
-499.639	10.813	0.066	0.051
-498.624	278.973	0.168	0.304
-497.610	76.214	-0.234	0.250
-496.595	-57.132	-0.202	-0.090
-495.581	-124.831	-0.047	0.007
-494.566	312.076	0.165	-0.313
-493.551	800.000	0.075	-0.254
-492.537	-143.386	0.250	-0.024
-491.522	176.143	-0.205	-0.301
-490.508	53.603	0.045	-0.044
-489.493	-54.444	0.069	-0.032
-488.478	800.000	0.032	0.117
-487.464	-200.000	-0.023	-0.200
-486.449	40.358	0.122	0.111
-485.435	141.958	0.159	0.214
-484.420	-18.178	0.395	-0.250
-483.405	-66.907	0.207	0.083
-482.391	-135.090	0.226	-0.028
-481.376	117.937	0.041	0.051
-480.362	-57.528	-0.284	-0.126
-479.347	-89.364	-0.548	-0.163
-478.332	-200.000	0.027	-0.438
-477.318	-197.054	0.179	0.001
-476.303	-72.709	-0.347	0.129
-475.289	63.223	0.070	-0.071
-474.274	79.885	0.029	0.031
-473.259	10.484	0.251	0.193
-472.245	-12.207	0.214	0.142
-471.230	800.000	-0.106	0.328
-470.216	-166.399	-0.193	-0.008
-469.201	-49.628	-0.173	-0.083
-468.186	-83.302	-0.139	0.045
-467.172	517.236	0.046	-0.109
-466.157	800.000	-0.026	0.104
-465.143	174.619	0.201	-0.294
-464.128	-141.255	0.134	0.014
-463.113	-26.299	0.252	0.150
-462.099	-200.000	0.001	0.024
-461.084	47.773	-0.105	-0.100
-460.070	-183.339	0.196	-0.003
-459.055	-200.000	-0.001	0.072
-458.040	800.000	-0.095	0.389
-457.026	-85.817	0.350	-0.110
-456.011	308.689	0.083	-0.156
-454.997	32.215	-0.073	0.064
-453.982	111.511	-0.110	0.134
-452.968	39.794	0.299	0.271
-451.953	-150.955	0.323	0.025
-450.938	364.663	-0.141	-0.287
-449.924	256.577	-0.089	0.155
-448.909	25.039	-0.033	-0.028
-447.895	45.708	-0.120	-0.112
-446.880	-44.667	-0.400	-0.202
-445.865	237.484	-0.202	-0.338
-444.851	-12.199	0.234	-0.154
-443.836	-200.000	0.019	-0.162
-442.822	700.923	-0.040	0.106
-441.807	-200.000	0.055	-0.245
-440.792	800.000	0.016	0.055
-439.778	48.742	0.137	-0.130
-438.763	12.067	-0.343	0.267
-437.749	442.738	-0.125	0.277
-436.734	-46.725	0.312	-0.154
-435.719	-200.000	0.043	-0.351
-434.705	-89.038	0.334	-0.100
-433.690	-200.000	-0.058	-0.263
-432.676	681.585	0.049	-0.129
-431.661	41.141	0.092	0.084
-430.646	46.944	0.230	0.215
-429.632	-200.000	-0.046	-0.308
-428.617	-200.000	-0.061	-0.352
-427.603	187.301	-0.105	0.159
-426.588	-73.520	-0.363	-0.134
-425.573	16.870	0.128	-0.102
-424.559	-200.000	-0.003	0.026
-423.544	164.797	0.143	-0.203
-422.530	-47.118	-0.211	-0.104
-421.515	-200.000	-0.009	0.247
-420.500	-200.000	-0.003	0.075
-419.486	-200.000	-0.004	0.083
-418.471	-94.458	-0.147	0.040
-417.457	-27.252	-0.215	-0.126
-416.442	50.731	0.118	-0.113
-415.428	-200.000	0.006	-0.070
-414.413	-79.873	-0.130	0.044
-413.398	-13.562	-0.170	-0.111
-412.384	-200.000	-0.035	-0.433
-411.369	195.561	-0.144	0.221
-410.355	3.986	0.297	-0.219
-409.340	80.120	-0.292	0.317
-408.325	800.000	-0.070	0.229
-407.311	-2.195	-0.235	0.167
-406.296	36.738	-0.222	-0.198
-405.282	-37.708	0.137	0.074
-404.267	-12.927	-0.159	-0.104
-403.252	-200.000	0.021	-0.224
-402.238	-200.000	-0.014	0.169
-401.223	-28.026	-0.016	0.010
-400.209	-68.932	-0.089	0.035
-399.194	139.118	0.181	-0.240
-398.179	689.443	0.174	-0.458
-397.165	45.661	0.081	0.076
-396.150	4.470	-0.141	-0.105
-395.136	72.926	-0.053	0.055
-394.121	343.564	-0.034	0.067
-393.106	238.809	0.102	-0.171
-392.092	-91.738	0.191	-0.055
-391.077	-200.000	0.006	0.163
-390.063	163.370	-0.052	-0.074
-389.048	656.640	-0.099	0.257
-388.033	105.851	0.144	-0.172
-387.019	20.396	0.083	0.067
-386.004	-29.649	0.076	0.044
-384.990	800.000	-0.110	-0.467
-383.975	-200.000	-0.013	-0.236
-382.960	397.410	0.114	-0.241
-381.946	800.000	0.102	-0.374
-380.931	-200.000	-0.032	0.145
-379.917	6.797	0.228	-0.171
-378.902	-86.819	-0.182	-0.056
-377.888	-36.272	0.213	-0.116
-376.873	357.305	0.132	-0.265
-375.858	-200.000	-0.096	0.490
-374.844	-47.204	-0.045	0.022
-373.829	21.756	0.091	0.075
-372.815	338.357	0.153	-0.301
-371.800	-75.787	0.266	0.095
-370.785	-11.576	-0.250	0.166
-369.771	314.837	0.059	0.112
-368.756	-111.926	-0.391	0.080
-367.742	593.487	0.074	0.184
-366.727	203.081	0.169	0.262
-365.712	-90.110	-0.437	0.128
-364.698	235.412	-0.062	-0.103
-363.683	33.623	0.217	-0.190
-362.669	246.664	0.098	0.167
-361.654	23.884	0.052	-0.043
-360.639	-79.587	0.292	0.099
-359.625	-143.948	-0.459	0.043
-358.610	-101.373	0.067	0.016
-357.596	800.000	0.046	-0.173
-356.581	-200.000	0.002	-0.141
-355.566	800.000	0.047	-0.133
-354.552	75.395	-0.169	0.180
-353.537	-200.000	-0.035	0.405
-352.523	-31.839	0.236	0.133
-351.508	-78.040	-0.272	-0.094
-350.493	20.978	0.308	-0.251
-349.479	800.000	-0.153	0.439
-348.464	-36.136	-0.268	-0.146
-347.450	-105.280	0.197	-0.045
-346.435	-142.488	-0.216	0.021
-345.420	31.226	-0.176	0.152
-344.406	-200.000	-0.050	0.305
-343.391	299.471	0.217	0.402
-342.377	14.435	0.109	-0.086
-341.362	-102.354	-0.313	-0.075
-340.348	800.000	-0.011	0.040
-339.333	-200.000	-0.020	0.128
-338.318	-160.487	-0.156	0.008
-337.304	57.504	-0.243	0.239
-336.289	-68.422	0.425	0.166
-335.275	-117.905	-0.037	-0.007
-334.260	-200.000	0.033	-0.155
-333.245	290.893	-0.129	-0.236
-332.231	68.698	0.152	0.156
-331.216	352.917	0.044	0.088
-330.202	-51.012	-0.173	0.082
-329.187	-200.000	0.037	-0.230
-328.172	-74.212	-0.130	-0.047
-327.158	0.779	-0.061	0.044
-326.143	-15.116	-0.212	0.136
-325.129	-155.925	0.292	0.019
-324.114	-26.925	0.115	-0.067
-323.099	-200.000	0.044	0.294
-322.085	-116.916	-0.446	0.082
-321.070	33.991	-0.134	-0.117
-320.056	-200.000	-0.014	0.118
-319.041	-19.197	0.340	0.212
-318.026	-200.000	0.015	-0.141
-317.012	-200.000	-0.008	-0.362
-315.997	800.000	0.042	0.118
-314.983	-122.392	-0.111	0.018
-313.968	-73.182	0.308	-0.113
-312.953	-173.873	0.245	-0.007
-311.939	97.826	0.142	0.164
-310.924	-200.000	-0.001	0.151
-309.910	509.861	0.122	0.285
-308.895	-44.894	-0.061	0.030
-307.880	242.329	0.098	0.166
-306.866	-114.889	-0.265	-0.051
-305.851	-83.653	-0.314	0.101
-304.837	-65.487	0.330	0.133
-303.822	800.000	0.091	0.346
-302.807	800.000	0.071	-0.242
-301.793	-71.815	-0.363	-0.136
-300.778	-200.000	0.042	-0.207
-299.764	-14.740	0.120	-0.077
-298.749	154.318	0.170	0.234
-297.735	-60.177	0.113	0.049
-296.720	-200.000	-0.041	0.388
-295.705	209.029	-0.164	0.258
-294.691	131.180	0.182	-0.234
-293.676	142.428	-0.142	-0.189
-292.662	-183.303	0.160	0.003
-291.647	-200.000	-0.036	0.163
-290.632	-200.000	0.030	0.454
-289.618	428.187	0.144	0.313
-288.603	32.560	-0.048	0.041
-287.589	800.000	0.022	0.089
-286.574	800.000	0.033	-0.110
-285.559	-38.991	0.161	-0.085
-284.545	-88.983	-0.153	-0.046
-283.530	187.303	-0.228	0.342
-282.516	-93.694	-0.232	0.064
-281.501	-87.971	-0.167	-0.050
-280.486	800.000	0.051	0.184
-279.472	-57.675	-0.238	-0.104
-278.457	-200.000	0.008	-0.338
-277.443	-69.937	-0.257	0.098
-276.428	170.217	0.239	-0.343
-275.413	-200.000	-0.013	-0.078
-274.399	-200.000	0.001	-0.038
-273.384	-38.795	-0.395	0.209
-272.370	-47.169	-0.228	0.112
-271.355	32.459	-0.105	-0.091
-270.340	87.847	-0.037	-0.041
-269.326	287.441	-0.150	0.272
-268.311	200.470	-0.079	-0.123
-267.297	-38.303	-0.077	-0.041
-266.282	-131.920	-0.143	-0.019
-265.267	-200.000	0.047	0.247
-264.253	800.000	0.111	0.361
-263.238	263.745	-0.141	0.247
-262.224	800.000	0.076	0.218
-261.209	-134.533	-0.199	-0.024
-260.195	-200.000	0.055	0.291
-259.180	-175.497	-0.361	-0.010
-258.165	95.291	0.081	0.093
-257.151	55.027	0.207	-0.200
-256.136	96.665	0.211	-0.242
-255.122	-200.000	0.045	-0.199
-254.107	800.000	-0.087	0.247
-253.092	-147.946	-0.139	-0.012
-252.078	-16.823	0.192	-0.121
-251.063	-200.000	-0.054	-0.507
-250.049	62.041	-0.281	-0.281
-249.034	215.339	-0.190	0.302
-248.019	17.861	0.092	0.073
-247.005	-71.467	-0.013	0.005
-245.990	188.341	-0.184	0.275
-244.976	-20.634	-0.289	-0.178
-243.961	99.699	-0.113	-0.131
-242.946	54.993	0.036	-0.035
-241.932	643.048	-0.042	0.106
-240.917	15.030	-0.053	-0.041
-239.903	-44.746	0.092	0.046
-238.888	51.125	-0.039	0.038
-237.873	-44.443	-0.134	0.067
-236.859	-200.000	0.037	-0.179
-235.844	-75.542	0.125	0.044
-234.830	-200.000	0.010	0.095
-233.815	108.503	0.037	-0.045
-232.800	123.076	0.093	0.117
-231.786	-200.000	0.006	0.091
-230.771	725.749	0.052	-0.138
-229.757	69.773	-0.131	0.135
-228.742	120.066	0.110	0.137
-227.727	111.827	-0.100	0.121
-226.713	-100.015	0.204	0.051
-225.698	31.972	-0.065	0.056
-224.684	-62.445	-0.234	0.097
-223.669	-49.244	0.016	-0.007
-222.655	47.238	0.293	0.273
-221.640	393.714	0.062	0.129
-220.625	-200.000	0.055	-0.314
-219.611	-200.000	-0.005	-0.094
-218.596	-70.553	-0.382	-0.145
-217.582	-200.000	-0.041	-0.209
-216.567	-105.433	0.406	-0.092
-215.552	152.421	0.094	-0.128
-214.538	800.000	0.124	0.365
-213.523	-91.404	-0.324	0.093
-212.509	-79.616	0.282	-0.095
-211.494	-114.057	0.132	0.026
-210.479	-44.900	-0.255	0.127
-209.465	-200.000	-0.010	0.282
-208.450	-200.000	0.038	0.197
-207.436	66.443	0.038	-0.038
-206.421	310.638	-0.047	-0.087
-205.406	-200.000	0.002	-0.135
-204.392	-200.000	0.002	0.145
-203.377	85.316	0.179	-0.196
-202.363	231.501	0.073	-0.120
-201.348	2.892	-0.223	0.162
-200.333	-200.000	0.019	0.091
-199.319	800.000	-0.042	0.137
-198.304	412.529	-0.049	-0.104
-197.290	-11.458	0.195	0.128
-196.275	-30.841	-0.023	0.013
-195.260	-19.638	0.193	0.119
-194.246	-200.000	0.004	-0.130
-193.231	-143.556	0.201	-0.019
-192.217	103.626	0.115	0.135
-191.202	-17.969	0.063	0.040
-190.187	-100.246	-0.122	0.030
-189.173	9.591	-0.170	-0.129
-188.158	-72.658	0.339	-0.125
-187.144	299.282	-0.102	-0.188
-186.129	-200.000	-0.033	-0.233
-185.114	502.684	0.075	0.173
-184.100	-200.000	0.045	-0.228
-183.085	-200.000	0.036	-0.205
-182.071	431.423	0.234	-0.506
-181.056	-86.385	0.050	0.015
-180.042	-200.000	-0.034	-0.193
-179.027	800.000	-0.039	0.147
-178.012	-53.031	0.155	-0.071
-176.998	-200.000	-0.025	0.277
-175.983	-200.000	-0.063	0.322
-174.969	-150.321	-0.100	0.008
-173.954	-93.538	0.165	-0.045
-172.939	-200.000	0.051	0.310
-171.925	27.993	0.183	0.154
-170.910	161.280	-0.131	0.183
-169.896	72.776	0.121	-0.126
-168.881	-200.000	-0.023	-0.253
-167.866	83.486	-0.012	-0.013
-166.852	-42.158	0.113	-0.057
-165.837	319.086	0.016	0.030
-164.823	-76.011	-0.349	0.123
-163.808	46.488	0.267	-0.248
-162.793	-49.319	0.318	0.151
-161.779	270.266	-0.074	0.130
-160.764	-200.000	0.009	-0.228
-159.750	69.612	0.039	0.040
-158.735	194.483	-0.059	-0.089
-157.720	-67.462	0.287	0.113
-156.706	26.250	0.104	-0.086
-155.691	-146.050	0.136	0.012
-154.677	-86.129	0.341	-0.105
-153.662	-174.859	0.131	0.004
-152.647	-64.265	-0.273	0.111
-151.633	-6.166	-0.297	0.203
-150.618	159.694	-0.083	0.116
-149.604	-200.000	0.054	0.250
-148.589	-185.051	0.172	-0.003
-147.574	-139.059	0.200	-0.022
-146.560	254.423	0.252	-0.431
-145.545	-18.316	-0.185	-0.115
-144.531	-149.019	-0.257	-0.021
-143.516	-134.257	-0.312	-0.038
-142.502	-27.739	-0.050	-0.029
-141.487	59.958	0.184	0.182
-140.472	-48.032	0.085	0.041
-139.458	-102.865	0.216	0.051
-138.443	-31.507	0.165	-0.093
-137.429	-200.000	-0.029	0.164
-136.414	800.000	0.077	0.238
-135.399	-90.557	-0.305	0.088
-134.385	-200.000	0.068	0.405
-133.370	127.962	0.089	0.113
-132.356	-104.983	-0.163	0.037
-131.341	66.343	-0.244	-0.247
-130.326	-87.963	-0.062	-0.019
-129.312	208.288	0.071	-0.111
-128.297	-70.626	-0.168	0.063
-127.283	-200.000	-0.035	0.267
-126.268	484.175	0.091	-0.206
-125.253	328.137	-0.065	0.124
-124.239	286.628	0.273	-0.491
-123.224	496.499	0.047	-0.108
-122.210	-118.960	-0.280	-0.049
-121.195	318.510	0.275	0.519
