DTS Sentinel unit serial number:	SN413079Multiplexer serial number:	ORYXHardware model number:	OX4-SRSoftware version number:	ORYX F/W v4.00 Oryx Data Collector v3.7.2.0data status	okinstallation	princeton_trtdifferential loss correction	single-endedforward channel	channel 1reverse channel	N/Adate	2019/09/19time	10:54:35forward acquisition time	60.00reverse acquisition time	0.00gamma	496.2192k internal	0.2338k external	0.2338temperature offset calibration	1.0011default loss term (dB/km)	0.3790temperature slope calibration	1.0000multiplexer offset coefficient	1.0000multiplexer slope coefficient	1.0000fibre end	0.00T internal ref (°C)	24.77T ext. ref 1 (°C)	0.75T ext. ref 2 (°C)	20.20length (m)	temperature (°C)	Stokes	anti-Stokes-747.200	68.656	-0.044	0.046
-746.185	12.919	0.159	0.123
-745.171	-200.000	-0.006	-0.193
-744.156	-200.000	-0.011	0.351
-743.142	-200.000	-0.017	0.132
-742.127	800.000	0.060	0.191
-741.112	-34.243	-0.079	0.044
-740.098	-47.163	-0.168	0.082
-739.083	-138.247	0.143	0.016
-738.069	-136.278	0.251	-0.029
-737.054	21.902	0.050	0.041
-736.039	296.410	0.142	0.262
-735.025	24.819	0.167	0.138
-734.010	800.000	-0.039	-0.148
-732.996	-74.164	-0.227	-0.082
-731.981	-86.744	-0.097	0.030
-730.966	92.253	0.072	0.081
-729.952	-39.925	-0.166	0.087
-728.937	-7.298	-0.179	-0.122
-727.923	-200.000	0.038	0.238
-726.908	292.268	0.096	-0.176
-725.894	294.751	0.123	-0.226
-724.879	-77.982	-0.186	-0.064
-723.864	353.105	0.120	-0.239
-722.850	61.488	-0.184	-0.183
-721.835	261.240	0.082	-0.142
-720.821	-62.125	0.372	-0.155
-719.806	82.230	0.145	-0.157
-718.791	78.047	-0.099	0.105
-717.777	543.385	-0.163	0.391
-716.762	175.348	-0.117	-0.169
-715.748	-3.200	0.138	0.096
-714.733	-101.798	-0.127	-0.031
-713.718	-80.971	-0.152	-0.050
-712.704	800.000	0.078	-0.219
-711.689	800.000	-0.119	-0.368
-710.675	490.808	-0.079	0.181
-709.660	-200.000	-0.013	0.102
-708.645	85.812	-0.068	-0.075
-707.631	200.540	0.097	0.149
-706.616	203.499	0.114	-0.177
-705.602	-200.000	-0.076	0.457
-704.587	-78.501	0.062	0.021
-703.572	277.398	-0.093	-0.166
-702.558	88.351	0.161	0.179
-701.543	75.369	-0.096	-0.101
-700.529	-77.018	0.085	0.030
-699.514	-83.262	-0.154	0.050
-698.499	-3.356	0.147	0.103
-697.485	291.197	0.071	-0.129
-696.470	800.000	0.057	-0.168
-695.456	-60.441	-0.359	-0.153
-694.441	800.000	0.109	-0.336
-693.426	19.661	-0.153	-0.124
-692.412	-143.312	-0.369	-0.035
-691.397	57.293	0.187	0.182
-690.383	-114.548	-0.146	0.028
-689.368	800.000	-0.043	0.132
-688.354	-12.245	-0.178	-0.117
-687.339	-117.574	0.079	0.014
-686.324	-126.530	0.247	-0.037
-685.310	91.374	-0.089	0.100
-684.295	-99.012	0.334	0.085
-683.281	-200.000	0.006	0.264
-682.266	-24.599	-0.207	-0.123
-681.251	-200.000	0.006	0.134
-680.237	394.077	-0.134	0.280
-679.222	800.000	-0.051	-0.214
-678.208	129.509	0.229	-0.293
-677.193	4.986	-0.094	0.069
-676.178	-163.122	-0.401	0.019
-675.164	-69.840	0.282	0.108
-674.149	-62.827	0.175	0.073
-673.135	104.194	0.103	0.121
-672.120	356.343	0.074	-0.147
-671.105	1.687	-0.137	0.099
-670.091	-55.993	0.245	0.110
-669.076	-26.800	0.250	-0.146
-668.062	74.564	0.305	0.320
-667.047	507.947	0.044	0.102
-666.032	-20.752	-0.331	0.203
-665.018	-197.567	0.162	-0.001
-664.003	-200.000	0.098	0.460
-662.989	21.012	-0.208	-0.169
-661.974	-17.924	0.052	0.033
-660.959	800.000	0.097	-0.299
-659.945	-200.000	0.005	0.153
-658.930	-174.985	0.232	-0.006
-657.916	-102.131	-0.141	-0.034
-656.901	166.396	0.093	0.131
-655.886	-200.000	-0.049	-0.216
-654.872	-200.000	0.027	-0.304
-653.857	-137.083	-0.211	0.024
-652.843	-48.430	-0.163	-0.078
-651.828	54.126	0.143	-0.137
-650.814	-200.000	0.009	0.146
-649.799	-11.432	-0.291	-0.191
-648.784	101.542	-0.040	-0.047
-647.770	-137.634	-0.493	0.055
-646.755	-93.922	0.342	0.094
-645.741	-107.337	0.303	-0.067
-644.726	-23.175	-0.097	-0.059
-643.711	418.503	-0.156	-0.334
-642.697	353.299	0.004	0.007
-641.682	241.390	-0.202	-0.337
-640.668	79.672	-0.052	-0.056
-639.653	280.176	-0.125	-0.223
-638.638	4.492	-0.248	-0.182
-637.624	800.000	-0.026	0.078
-636.609	502.914	-0.059	-0.136
-635.595	-117.309	0.305	-0.055
-634.580	94.793	0.179	0.204
-633.565	50.516	-0.087	0.082
-632.551	456.443	0.093	0.207
-631.536	-9.918	-0.146	-0.097
-630.522	-200.000	0.041	-0.228
-629.507	-140.983	-0.253	0.026
-628.492	-90.946	0.059	-0.017
-627.478	-19.285	0.258	0.160
-626.463	-193.552	0.282	0.002
-625.449	550.222	0.087	0.208
-624.434	-27.981	-0.301	0.174
-623.419	60.718	0.151	0.150
-622.405	-121.540	-0.213	0.035
-621.390	16.609	-0.222	-0.175
-620.376	96.536	0.212	0.243
-619.361	-200.000	-0.013	-0.086
-618.346	278.299	0.032	-0.057
-617.332	-200.000	-0.014	-0.373
-616.317	89.278	0.218	-0.242
-615.303	800.000	-0.088	-0.253
-614.288	30.030	0.162	-0.138
-613.273	-14.816	0.253	-0.162
-612.259	-64.231	-0.323	-0.131
-611.244	-3.066	-0.114	-0.079
-610.230	-140.779	-0.334	-0.034
-609.215	67.049	0.167	-0.170
-608.201	353.395	0.046	-0.091
-607.186	-111.568	-0.197	-0.040
-606.171	26.753	0.166	-0.139
-605.157	249.045	0.251	-0.425
-604.142	800.000	0.056	-0.174
-603.128	800.000	0.054	-0.227
-602.113	162.099	-0.258	-0.361
-601.098	-35.556	-0.158	-0.085
-600.084	-200.000	0.004	0.146
-599.069	125.982	-0.086	-0.108
-598.055	-200.000	0.074	-0.375
-597.040	-200.000	0.029	-0.159
-596.025	-51.926	-0.104	-0.048
-595.011	-166.152	-0.452	-0.019
-593.996	224.116	-0.194	0.312
-592.982	-149.065	-0.409	-0.033
-591.967	800.000	-0.121	-0.401
-590.952	195.579	0.193	-0.292
-589.938	-200.000	0.005	0.186
-588.923	40.130	-0.195	0.175
-587.909	-59.290	0.078	-0.034
-586.894	357.902	-0.130	0.259
-585.879	-200.000	-0.022	0.187
-584.865	-200.000	0.058	0.449
-583.850	-72.483	-0.090	-0.033
-582.836	115.798	-0.281	0.343
-581.821	738.727	-0.061	0.164
-580.806	-200.000	0.047	-0.335
-579.792	301.050	-0.101	0.185
-578.777	-200.000	0.016	-0.209
-577.763	-200.000	-0.006	-0.099
-576.748	800.000	0.030	-0.123
-575.733	-155.589	-0.086	0.006
-574.719	-74.136	0.306	0.110
-573.704	585.942	0.066	0.162
-572.690	201.884	0.085	0.130
-571.675	-118.579	-0.238	-0.042
-570.661	42.439	0.196	-0.178
-569.646	-80.050	-0.249	0.083
-568.631	-171.931	0.070	0.002
-567.617	-200.000	0.008	0.067
-566.602	328.056	-0.111	0.213
-565.588	-91.017	0.191	0.055
-564.573	-93.296	-0.391	-0.108
-563.558	180.746	0.038	0.056
-562.544	173.180	-0.014	0.019
-561.529	-200.000	-0.053	0.285
-560.515	-152.606	0.282	0.020
-559.500	-200.000	-0.059	-0.479
-558.485	-200.000	0.026	0.207
-557.471	800.000	0.034	0.137
-556.456	-86.487	-0.110	-0.034
-555.442	584.968	0.137	-0.335
-554.427	-200.000	-0.046	-0.341
-553.412	317.619	-0.077	0.145
-552.398	62.990	0.119	0.119
-551.383	736.050	0.040	-0.107
-550.369	-133.252	-0.259	-0.032
-549.354	107.888	0.184	0.218
-548.339	-8.361	-0.172	-0.115
-547.325	-82.503	0.129	-0.042
-546.310	309.848	0.050	-0.093
-545.296	-151.541	-0.088	-0.006
-544.281	-14.446	-0.279	0.179
-543.266	134.011	0.102	-0.131
-542.252	-160.951	0.338	0.018
-541.237	-127.552	-0.262	0.038
-540.223	-76.096	0.218	0.077
-539.208	204.331	-0.099	-0.153
-538.193	248.685	-0.096	0.163
-537.179	800.000	0.060	0.188
-536.164	141.330	-0.129	-0.169
-535.150	-200.000	-0.038	0.197
-534.135	-138.748	0.219	0.024
-533.121	10.698	0.129	-0.098
-532.106	-200.000	0.009	-0.108
-531.091	-200.000	-0.026	-0.256
-530.077	200.260	-0.116	-0.178
-529.062	-200.000	-0.077	-0.421
-528.048	-10.917	-0.296	-0.195
-527.033	504.020	0.015	-0.035
-526.018	800.000	0.036	0.158
-525.004	-83.403	0.120	0.038
-523.989	-78.609	-0.347	0.118
-522.975	396.976	-0.077	-0.159
-521.960	-200.000	-0.035	-0.406
-520.945	-200.000	-0.024	-0.296
-519.931	-200.000	-0.008	0.109
-518.916	-200.000	-0.031	0.193
-517.902	-200.000	0.177	0.000
-516.887	-92.850	0.291	-0.081
-515.872	-58.833	0.335	-0.144
-514.858	800.000	-0.085	0.265
-513.843	-122.815	0.066	0.011
-512.829	608.969	0.053	-0.132
-511.814	4.642	0.134	-0.098
-510.799	-200.000	0.011	-0.205
-509.785	800.000	0.126	0.379
-508.770	800.000	0.028	-0.078
-507.756	240.792	0.211	0.351
-506.741	800.000	-0.036	0.108
-505.726	731.424	0.106	0.282
-504.712	48.642	0.024	-0.023
-503.697	2.852	-0.050	0.036
-502.683	151.059	-0.198	-0.268
-501.668	223.397	0.080	0.128
-500.653	89.813	-0.107	0.119
-499.639	20.931	0.057	0.046
-498.624	-200.000	-0.054	-0.000
-497.610	401.760	0.178	-0.371
-496.595	-200.000	0.009	-0.041
-495.581	118.585	0.064	-0.078
-494.566	-121.840	0.219	-0.036
-493.551	101.203	-0.254	-0.293
-492.537	-100.923	0.312	0.076
-491.522	330.645	-0.057	-0.109
-490.508	-200.000	-0.036	0.196
-489.493	-39.086	-0.106	0.055
-488.478	-200.000	0.029	0.128
-487.464	-31.501	0.070	-0.039
-486.449	139.095	-0.150	0.196
-485.435	23.301	-0.212	0.173
-484.420	64.175	-0.143	-0.143
-483.405	-200.000	-0.022	-0.162
-482.391	-200.000	0.001	0.056
-481.376	6.233	0.394	0.291
-480.362	17.220	0.266	0.209
-479.347	-200.000	0.001	0.070
-478.332	-121.559	-0.367	-0.061
-477.318	263.506	-0.229	-0.395
-476.303	54.575	-0.071	-0.068
-475.289	800.000	-0.056	-0.224
-474.274	-200.000	-0.038	0.182
-473.259	-146.715	-0.332	-0.028
-472.245	259.180	0.273	0.467
-471.230	-171.809	0.200	-0.007
-470.216	800.000	0.049	-0.186
-469.201	42.751	-0.133	0.121
-468.186	558.701	-0.058	0.140
-467.172	264.045	-0.062	0.107
-466.157	-167.352	-0.235	0.009
-465.143	-16.197	0.205	-0.129
-464.128	22.334	0.109	-0.089
-463.113	-24.875	-0.251	0.148
-462.099	385.027	0.127	-0.259
-461.084	-200.000	0.001	-0.234
-460.070	205.854	-0.123	-0.189
-459.055	312.387	0.120	0.224
-458.040	451.343	-0.133	0.290
-457.026	-147.781	0.156	0.013
-456.011	34.635	-0.227	0.196
-454.997	-159.550	0.206	0.011
-453.982	-200.000	-0.019	0.107
-452.968	12.348	-0.126	0.096
-451.953	-38.318	-0.162	-0.085
-450.938	89.969	0.159	0.176
-449.924	-200.000	-0.070	0.319
-448.909	-200.000	-0.026	-0.274
-447.895	173.113	0.047	-0.068
-446.880	800.000	0.057	0.175
-445.865	-200.000	-0.036	-0.293
-444.851	113.363	0.061	-0.074
-443.836	97.162	0.158	-0.180
-442.822	-108.105	0.381	-0.082
-441.807	34.031	0.068	-0.058
-440.792	43.144	0.107	-0.097
-439.778	583.108	0.129	-0.314
-438.763	-200.000	-0.044	-0.312
-437.749	516.903	-0.091	0.211
-436.734	-200.000	-0.033	0.504
-435.719	12.077	-0.155	-0.118
-434.705	-16.075	-0.114	-0.072
-433.690	-163.951	0.268	0.012
-432.676	-165.419	-0.126	-0.005
-431.661	767.194	0.056	-0.151
-430.646	-32.152	0.086	0.048
-429.632	547.115	0.035	0.083
-428.617	-131.435	-0.371	0.049
-427.603	800.000	-0.070	0.210
-426.588	91.633	-0.018	0.020
-425.573	-142.211	-0.039	-0.004
-424.559	800.000	0.048	0.171
-423.544	300.343	0.028	0.051
-422.530	-200.000	0.045	-0.245
-421.515	-20.663	-0.091	-0.055
-420.500	-85.721	0.119	-0.037
-419.486	-101.296	-0.042	-0.010
-418.471	-200.000	0.008	-0.260
-417.457	174.522	-0.028	0.039
-416.442	195.591	0.240	0.361
-415.428	77.504	0.204	0.215
-414.413	457.175	-0.020	0.045
-413.398	-200.000	0.046	-0.279
-412.384	800.000	0.025	-0.088
-411.369	151.887	0.213	0.287
-410.355	-153.009	-0.218	0.015
-409.340	-200.000	0.032	-0.375
-408.325	681.493	0.065	0.168
-407.311	-139.015	0.276	-0.030
-406.296	19.209	-0.177	0.140
-405.282	800.000	-0.015	0.057
-404.267	-90.681	0.314	-0.090
-403.252	-200.000	-0.017	0.252
-402.238	-92.846	-0.255	0.071
-401.223	85.460	0.237	-0.257
-400.209	-147.496	0.220	-0.018
-399.194	800.000	0.058	-0.171
-398.179	800.000	-0.041	0.114
-397.165	-162.591	0.376	0.018
-396.150	90.076	0.184	0.204
-395.136	81.153	0.193	0.206
-394.121	67.249	-0.102	-0.102
-393.106	107.639	-0.159	-0.187
-392.092	2.561	-0.117	-0.084
-391.077	-98.378	0.277	0.070
-390.063	75.664	-0.213	0.222
-389.048	85.036	-0.108	-0.117
-388.033	98.252	-0.050	0.057
-387.019	295.107	0.194	0.351
-386.004	-200.000	0.017	0.458
-384.990	-200.000	0.072	-0.342
-383.975	-200.000	-0.003	-0.166
-382.960	-124.454	0.276	-0.042
-381.946	46.528	-0.191	-0.175
-380.931	-92.857	-0.333	0.092
-379.917	-127.919	-0.069	-0.010
-378.902	631.084	0.093	0.232
-377.888	41.134	0.160	-0.143
-376.873	-93.613	0.069	0.019
-375.858	-11.522	0.141	0.092
-374.844	-200.000	-0.009	-0.086
-373.829	779.845	-0.044	-0.120
-372.815	-138.553	-0.147	0.016
-371.800	415.753	0.168	-0.354
-370.785	-130.211	0.182	0.025
-369.771	-200.000	-0.007	0.136
-368.756	-200.000	-0.023	0.190
-367.742	800.000	-0.065	0.189
-366.727	-141.733	0.498	-0.049
-365.712	-34.577	0.121	-0.065
-364.698	82.870	-0.227	0.244
-363.683	10.791	-0.264	0.200
-362.669	-144.763	-0.359	0.033
-361.654	800.000	0.080	-0.253
-360.639	41.157	0.213	0.191
-359.625	-47.846	-0.226	-0.108
-358.610	-151.749	0.170	0.012
-357.596	-46.561	-0.222	-0.108
-356.581	-70.004	-0.234	0.088
-355.566	-113.993	-0.091	-0.017
-354.552	-56.636	0.165	0.072
-353.537	-120.382	-0.249	-0.042
-352.523	-108.496	0.239	0.051
-351.508	-146.315	0.308	0.027
-350.493	-74.578	-0.312	-0.111
-349.479	149.881	-0.162	0.217
-348.464	461.623	0.047	0.104
-347.450	-82.992	0.141	-0.045
-346.435	223.307	-0.107	0.170
-345.420	-34.752	-0.190	0.103
-344.406	-144.752	0.161	0.015
-343.391	-200.000	0.041	-0.402
-342.377	580.006	-0.074	0.178
-341.362	-79.283	-0.219	-0.073
-340.348	-67.461	0.442	-0.171
-339.333	-36.645	0.260	-0.138
-338.318	183.588	-0.100	-0.146
-337.304	-128.212	-0.078	0.011
-336.289	-101.228	0.300	-0.072
-335.275	104.455	0.070	-0.082
-334.260	154.028	-0.061	-0.083
-333.245	84.903	-0.175	0.190
-332.231	44.539	0.113	0.103
-331.216	-83.586	0.075	0.024
-330.202	-200.000	0.010	0.239
-329.187	-19.861	-0.212	0.129
-328.172	55.569	-0.121	0.116
-327.158	150.866	-0.079	-0.106
-326.143	51.211	-0.151	-0.142
-325.129	800.000	-0.092	-0.348
-324.114	-73.598	-0.124	-0.045
-323.099	444.142	0.186	0.403
-322.085	516.660	-0.058	-0.134
-321.070	177.400	0.070	-0.101
-320.056	-92.868	0.280	0.077
-319.041	800.000	0.045	-0.155
-318.026	800.000	0.059	-0.253
-317.012	800.000	-0.022	0.094
-315.997	251.202	0.072	0.121
-314.983	-94.299	0.188	-0.051
-313.968	-5.814	0.260	-0.175
-312.953	751.940	0.058	0.155
-311.939	107.696	-0.073	-0.086
-310.924	-138.364	0.275	0.030
-309.910	-84.222	-0.349	-0.109
-308.895	182.196	-0.134	0.194
-307.880	-77.798	-0.139	-0.047
-306.866	-113.171	0.197	0.038
-305.851	800.000	0.017	-0.047
-304.837	78.212	-0.271	0.285
-303.822	520.215	-0.138	-0.320
-302.807	-200.000	-0.042	0.241
-301.793	191.935	0.333	0.494
-300.778	143.308	0.144	0.189
-299.764	93.741	0.162	-0.181
-298.749	-140.999	0.338	-0.034
-297.735	368.959	-0.085	0.170
-296.720	800.000	0.021	0.075
-295.705	-200.000	-0.099	0.432
-294.691	800.000	-0.059	0.161
-293.676	-62.610	0.137	-0.056
-292.662	20.459	0.161	-0.128
-291.647	283.366	-0.281	-0.497
-290.632	800.000	0.069	-0.285
-289.618	-200.000	0.065	-0.328
-288.603	-129.796	0.127	0.017
-287.589	-173.251	-0.327	0.010
-286.574	-200.000	0.006	-0.067
-285.559	-200.000	-0.006	0.430
-284.545	800.000	-0.062	-0.194
-283.530	-82.068	-0.269	0.087
-282.516	574.088	-0.099	-0.238
-281.501	-14.961	-0.205	0.129
-280.486	-81.144	-0.316	0.103
-279.472	549.282	0.068	-0.160
-278.457	318.863	-0.195	0.364
-277.443	-21.308	0.069	-0.042
-276.428	334.561	-0.015	0.029
-275.413	138.635	0.113	0.146
-274.399	800.000	-0.111	-0.323
-273.384	-13.230	-0.142	0.091
-272.370	277.612	-0.090	0.158
-271.355	104.619	0.176	0.205
-270.340	-118.454	-0.088	0.015
-269.326	141.932	0.183	-0.239
-268.311	-159.481	-0.152	0.008
-267.297	234.651	-0.174	-0.282
-266.282	187.331	0.065	0.096
-265.267	800.000	-0.064	0.231
-264.253	-200.000	-0.092	0.402
-263.238	11.063	-0.116	0.087
-262.224	244.799	0.161	-0.267
-261.209	-121.378	-0.205	-0.034
-260.195	16.204	0.182	-0.141
-259.180	-119.064	0.431	0.074
-258.165	800.000	0.100	0.320
-257.151	-24.173	-0.042	0.025
-256.136	-200.000	-0.048	0.235
-255.122	46.330	0.174	0.159
-254.107	239.607	-0.119	-0.195
-253.092	415.858	-0.144	-0.301
-252.078	-200.000	-0.006	0.354
-251.063	-37.493	-0.028	0.015
-250.049	-28.288	-0.196	0.111
-249.034	800.000	-0.048	0.137
-248.019	800.000	0.090	0.306
-247.005	-200.000	0.066	0.292
-245.990	-200.000	0.057	-0.301
-244.976	368.221	0.079	-0.157
-243.961	-200.000	0.028	-0.131
-242.946	-92.364	0.014	0.004
-241.932	91.111	-0.258	-0.285
-240.917	800.000	0.089	-0.244
-239.903	-200.000	0.055	0.246
-238.888	-177.429	-0.174	0.004
-237.873	-99.723	-0.323	-0.080
-236.859	-57.971	0.107	-0.046
-235.844	-55.586	-0.085	0.037
-234.830	-137.428	0.362	0.040
-233.815	678.068	-0.124	0.318
-232.800	800.000	0.102	0.324
-231.786	-68.012	-0.292	0.112
-230.771	-105.334	-0.418	-0.094
-229.757	-54.511	-0.064	-0.028
-228.742	-200.000	-0.190	-0.000
-227.727	800.000	-0.064	0.179
-226.713	63.060	-0.053	-0.052
-225.698	111.143	-0.071	-0.084
-224.684	-172.746	0.052	-0.002
-223.669	150.004	0.281	0.374
-222.655	98.717	-0.082	0.093
-221.640	218.236	0.057	-0.089
-220.625	-200.000	0.030	-0.186
-219.611	-200.000	-0.007	-0.078
-218.596	-200.000	-0.007	0.083
-217.582	-129.054	-0.093	-0.013
-216.567	-200.000	-0.031	-0.152
-215.552	-200.000	-0.018	0.412
-214.538	-137.585	0.161	0.018
-213.523	-163.151	0.417	-0.020
-212.509	-156.666	-0.460	0.028
-211.494	-75.596	-0.105	-0.037
-210.479	54.131	-0.043	0.041
-209.465	800.000	-0.031	0.098
-208.450	-5.246	-0.107	-0.072
-207.436	-65.426	0.281	0.111
-206.421	22.735	0.340	0.273
-205.406	-113.385	-0.224	-0.043
-204.392	-200.000	-0.007	-0.135
-203.377	-112.837	-0.415	-0.081
-202.363	-64.871	-0.199	-0.079
-201.348	-120.331	0.312	0.052
-200.333	79.895	0.167	0.177
-199.319	-138.057	0.095	0.010
-198.304	324.782	-0.049	-0.092
-197.290	-30.704	-0.296	0.164
-196.275	-142.558	-0.243	-0.023
-195.260	118.132	-0.123	0.149
-194.246	-21.026	-0.394	-0.237
-193.231	-110.409	0.389	0.079
-192.217	-20.679	-0.141	0.085
-191.202	644.977	-0.058	-0.146
-190.187	98.501	-0.130	-0.147
-189.173	-200.000	0.018	0.134
-188.158	498.670	-0.056	-0.126
-187.144	-101.373	0.403	-0.097
-186.129	-152.954	-0.252	-0.017
-185.114	-200.000	-0.037	0.189
-184.100	-37.588	0.283	0.148
-183.085	-2.003	0.407	0.281
-182.071	-84.764	0.223	0.069
-181.056	257.576	0.024	0.041
-180.042	300.897	-0.094	0.170
-179.027	397.727	0.087	-0.178
-178.012	-163.948	0.350	-0.016
-176.998	11.725	0.116	-0.087
-175.983	204.808	0.093	0.141
-174.969	-200.000	0.017	-0.099
-173.954	-65.889	0.093	-0.036
-172.939	-95.965	0.169	0.044
-171.925	-200.000	0.077	0.354
-170.910	-200.000	-0.074	-0.413
-169.896	-17.345	0.093	0.058
-168.881	1.803	0.052	0.037
-167.866	-86.744	0.284	-0.085
-166.852	-195.460	0.385	-0.003
-165.837	421.833	-0.095	0.200
-164.823	-21.746	0.109	0.065
-163.808	-200.000	-0.015	0.076
-162.793	-28.509	0.105	-0.059
-161.779	-200.000	-0.066	-0.302
-160.764	-6.386	0.322	-0.215
-159.750	-113.947	-0.158	-0.030
-158.735	496.850	-0.143	0.323
-157.720	-68.271	-0.042	-0.016
-156.706	-200.000	0.044	-0.206
-155.691	51.444	-0.106	0.099
-154.677	-138.534	0.211	-0.023
-153.662	-136.749	-0.090	-0.010
-152.647	-56.150	0.353	0.154
-151.633	-141.194	-0.370	-0.037
-150.618	-6.094	-0.242	0.162
-149.604	-200.000	-0.016	0.411
-148.589	153.401	0.105	0.141
-147.574	800.000	-0.060	-0.216
-146.560	-8.998	-0.269	-0.177
-145.545	312.269	-0.117	0.215
-144.531	53.306	0.127	-0.119
-143.516	283.205	0.241	-0.424
-142.502	-83.496	0.065	0.021
-141.487	-83.293	0.143	0.045
-140.472	-82.245	0.276	-0.088
-139.458	-200.000	-0.026	0.140
-138.443	142.274	-0.276	-0.359
-137.429	-200.000	0.034	-0.228
-136.414	455.485	0.118	0.256
-135.399	478.213	-0.025	-0.055
-134.385	66.406	0.128	-0.127
-133.370	284.281	-0.189	-0.332
-132.356	-95.446	0.278	-0.073
-131.341	-91.079	0.098	0.028
-130.326	8.171	0.192	0.141
-129.312	-93.350	0.250	-0.068
-128.297	23.459	0.208	-0.168
-127.283	215.402	-0.112	-0.175
-126.268	-124.813	-0.306	0.046
-125.253	117.167	0.020	0.024
-124.239	394.200	0.056	0.114
-123.224	-200.000	-0.005	0.084
-122.210	-200.000	-0.019	0.181
