DTS Sentinel unit serial number:	SN413079Multiplexer serial number:	ORYXHardware model number:	OX4-SRSoftware version number:	ORYX F/W v4.00 Oryx Data Collector v3.7.2.0data status	okinstallation	princeton_trtdifferential loss correction	single-endedforward channel	channel 1reverse channel	N/Adate	2019/09/13time	18:42:35forward acquisition time	60.00reverse acquisition time	0.00gamma	496.2192k internal	0.2319k external	0.2319temperature offset calibration	1.0129default loss term (dB/km)	0.3790temperature slope calibration	1.0000multiplexer offset coefficient	1.0000multiplexer slope coefficient	1.0000fibre end	0.00T internal ref (°C)	32.77T ext. ref 1 (°C)	4.14T ext. ref 2 (°C)	25.93length (m)	temperature (°C)	Stokes	anti-Stokes-747.200	800.000	-0.086	-0.254
-746.185	690.440	0.089	-0.235
-745.171	800.000	-0.044	0.167
-744.156	-12.040	0.177	0.117
-743.142	-33.829	-0.066	-0.037
-742.127	206.162	0.288	0.453
-741.112	-21.206	0.076	0.047
-740.098	-164.672	0.267	-0.012
-739.083	16.403	0.085	-0.068
-738.069	-173.499	-0.147	-0.004
-737.054	59.762	-0.124	-0.124
-736.039	-183.036	-0.502	0.009
-735.025	203.807	0.120	0.188
-734.010	98.482	-0.093	-0.109
-732.996	-92.267	-0.211	-0.060
-731.981	-97.862	-0.118	0.031
-730.966	-200.000	0.045	-0.242
-729.952	-193.151	-0.228	0.002
-728.937	174.886	-0.243	-0.356
-727.923	63.347	0.134	-0.136
-726.908	10.966	-0.142	0.109
-725.894	-143.283	0.220	0.021
-724.879	147.687	0.141	0.192
-723.864	104.261	0.124	-0.147
-722.850	-28.974	-0.093	-0.054
-721.835	800.000	0.085	-0.295
-720.821	-200.000	-0.062	0.314
-719.806	223.330	0.180	0.294
-718.791	-67.506	-0.163	0.065
-717.777	-200.000	0.016	-0.192
-716.762	-68.319	0.411	0.161
-715.748	-27.892	0.062	0.036
-714.733	-97.520	-0.098	0.026
-713.718	800.000	-0.021	0.083
-712.704	800.000	-0.066	-0.262
-711.689	69.284	-0.165	-0.172
-710.675	-200.000	-0.065	0.299
-709.660	-200.000	-0.030	0.158
-708.645	99.752	-0.199	0.233
-707.631	-200.000	-0.017	-0.198
-706.616	-200.000	0.007	0.209
-705.602	800.000	0.025	0.070
-704.587	329.164	-0.143	0.278
-703.572	-140.863	0.226	-0.024
-702.558	7.780	-0.097	-0.074
-701.543	-12.374	0.245	-0.161
-700.529	130.155	-0.170	0.220
-699.514	-145.633	-0.307	0.028
-698.499	226.130	0.147	0.241
-697.485	800.000	-0.041	0.160
-696.470	-61.882	0.142	-0.060
-695.456	800.000	-0.056	-0.241
-694.441	-90.752	0.115	0.034
-693.426	127.669	0.122	-0.156
-692.412	77.172	0.124	-0.133
-691.397	800.000	-0.082	-0.259
-690.383	-69.712	-0.269	0.104
-689.368	-167.882	0.130	0.005
-688.354	76.850	-0.220	0.236
-687.339	-79.427	-0.257	0.088
-686.324	-200.000	-0.003	0.060
-685.310	-70.454	0.542	-0.207
-684.295	-200.000	-0.052	-0.255
-683.281	-200.000	-0.000	-0.064
-682.266	-200.000	0.021	-0.187
-681.251	-200.000	0.037	-0.458
-680.237	74.130	0.161	0.171
-679.222	-172.285	-0.160	0.005
-678.208	-200.000	0.079	-0.493
-677.193	59.212	-0.185	-0.184
-676.178	-148.865	-0.166	0.014
-675.164	-148.774	-0.137	-0.011
-674.149	-13.178	0.087	-0.057
-673.135	30.324	0.142	0.122
-672.120	-152.412	0.143	-0.010
-671.105	-6.221	-0.321	0.221
-670.091	201.248	0.120	-0.187
-669.076	-200.000	-0.026	-0.306
-668.062	-68.644	-0.356	-0.139
-667.047	277.681	-0.058	-0.104
-666.032	15.674	0.264	0.209
-665.018	-200.000	0.066	-0.441
-664.003	-200.000	-0.076	-0.347
-662.989	-171.281	0.091	0.003
-661.974	-59.934	0.104	-0.045
-660.959	800.000	-0.091	-0.343
-659.945	-200.000	0.005	-0.205
-658.930	137.019	0.280	-0.369
-657.916	-140.870	0.414	0.043
-656.901	-96.991	0.138	0.036
-655.886	-189.436	-0.294	0.003
-654.872	122.333	0.106	-0.133
-653.857	53.932	-0.098	-0.095
-652.843	-74.349	-0.247	-0.090
-651.828	800.000	0.002	-0.005
-650.814	-200.000	-0.050	0.318
-649.799	-155.594	0.344	0.022
-648.784	-183.976	-0.262	0.004
-647.770	-200.000	0.013	-0.094
-646.755	-85.974	-0.059	-0.018
-645.741	69.041	-0.063	0.065
-644.726	655.178	-0.058	-0.149
-643.711	-51.281	0.127	0.060
-642.697	-174.934	0.191	-0.005
-641.682	-200.000	-0.022	0.117
-640.668	239.141	-0.126	0.211
-639.653	197.304	-0.105	-0.161
-638.638	-200.000	-0.039	-0.241
-637.624	-200.000	-0.021	-0.327
-636.609	800.000	0.061	-0.196
-635.595	115.675	-0.145	0.179
-634.580	605.746	0.084	-0.212
-633.565	32.829	0.139	0.121
-632.551	-150.246	0.236	0.018
-631.536	216.906	0.192	-0.308
-630.522	106.964	0.189	-0.226
-629.507	124.689	0.087	0.111
-628.492	-150.506	-0.335	0.026
-627.478	-108.733	-0.210	-0.045
-626.463	-200.000	-0.041	-0.254
-625.449	-200.000	0.014	0.212
-624.434	19.052	-0.173	0.139
-623.419	16.953	-0.088	0.070
-622.405	-91.739	-0.119	0.034
-621.390	-21.265	0.304	0.187
-620.376	365.648	0.036	-0.072
-619.361	-200.000	-0.021	-0.171
-618.346	142.137	-0.093	0.124
-617.332	-122.103	-0.358	0.059
-616.317	800.000	-0.051	0.201
-615.303	-152.102	0.163	0.012
-614.288	-200.000	0.011	-0.090
-613.273	800.000	-0.084	-0.360
-612.259	-200.000	0.048	-0.270
-611.244	72.855	-0.126	0.132
-610.230	-180.211	0.251	0.005
-609.215	237.491	0.089	0.148
-608.201	116.148	0.124	0.153
-607.186	146.736	-0.045	-0.061
-606.171	800.000	0.039	-0.167
-605.157	238.492	0.119	-0.198
-604.142	443.596	0.094	0.207
-603.128	800.000	0.045	-0.177
-602.113	800.000	0.007	0.025
-601.098	-44.775	-0.127	-0.064
-600.084	265.091	0.173	0.304
-599.069	15.447	-0.215	-0.170
-598.055	-8.112	0.184	-0.125
-597.040	119.066	-0.123	0.152
-596.025	8.279	-0.300	0.227
-595.011	-200.000	-0.015	-0.095
-593.996	27.665	0.219	0.185
-592.982	329.001	-0.090	-0.174
-591.967	10.624	0.287	-0.220
-590.952	710.406	0.057	0.152
-589.938	122.557	-0.093	0.116
-588.923	-166.967	0.474	0.020
-587.909	-200.000	0.050	-0.222
-586.894	-53.688	0.227	0.104
-585.879	149.823	0.057	-0.077
-584.865	79.591	0.048	0.052
-583.850	-200.000	0.007	0.068
-582.836	420.688	-0.016	-0.034
-581.821	333.171	-0.169	-0.328
-580.806	274.633	-0.072	0.129
-579.792	-42.453	-0.225	-0.115
-578.777	-134.790	-0.182	-0.022
-577.763	356.489	0.082	0.165
-576.748	-109.798	0.231	0.049
-575.733	-177.224	0.293	-0.007
-574.719	48.998	-0.284	-0.268
-573.704	-178.204	0.253	-0.006
-572.690	-28.642	0.252	-0.146
-571.675	-99.212	-0.033	-0.008
-570.661	-140.721	-0.092	0.010
-569.646	-200.000	-0.037	0.174
-568.631	-76.056	-0.194	-0.069
-567.617	-200.000	-0.054	0.389
-566.602	30.926	-0.113	-0.097
-565.588	490.225	-0.165	-0.380
-564.573	-80.493	-0.413	-0.138
-563.558	15.045	0.057	-0.045
-562.544	563.706	0.161	0.391
-561.529	-200.000	-0.015	0.071
-560.515	-200.000	0.031	0.337
-559.500	-200.000	-0.039	0.198
-558.485	514.084	-0.056	-0.131
-557.471	-38.985	-0.401	-0.212
-556.456	800.000	0.061	0.178
-555.442	61.314	-0.043	0.043
-554.427	203.548	0.087	0.135
-553.412	308.169	0.109	0.204
-552.398	-200.000	0.019	0.155
-551.383	-200.000	0.015	0.389
-550.369	-76.793	-0.232	-0.082
-549.354	-92.027	0.038	-0.011
-548.339	-10.830	0.153	0.102
-547.325	800.000	-0.023	-0.102
-546.310	-53.616	-0.364	0.167
-545.296	-200.000	-0.026	0.330
-544.281	172.464	0.160	0.232
-543.266	436.788	0.114	0.250
-542.252	800.000	0.024	-0.083
-541.237	163.712	0.215	-0.304
-540.223	-200.000	-0.031	0.188
-539.208	48.465	-0.093	0.087
-538.193	-133.475	0.086	0.011
-537.179	-61.017	0.244	0.104
-536.164	-54.890	-0.082	0.037
-535.150	-200.000	0.003	0.497
-534.135	800.000	-0.066	-0.194
-533.121	31.415	0.349	0.301
-532.106	-105.681	-0.458	-0.104
-531.091	-74.138	0.278	0.101
-530.077	320.854	-0.075	0.143
-529.062	800.000	-0.021	-0.080
-528.048	-75.340	0.158	0.057
-527.033	54.586	0.031	0.030
-526.018	54.805	-0.092	0.089
-525.004	471.837	-0.095	0.213
-523.989	-14.228	-0.164	0.106
-522.975	-200.000	0.014	-0.182
-521.960	55.990	-0.204	0.198
-520.945	-86.270	-0.214	-0.066
-519.931	800.000	0.046	0.146
-518.916	108.808	-0.106	0.127
-517.902	-75.220	-0.160	-0.057
-516.887	99.353	-0.123	-0.142
-515.872	-81.290	-0.201	0.066
-514.858	198.579	0.109	0.167
-513.843	-33.830	0.338	0.187
-512.829	-42.225	-0.133	-0.068
-511.814	800.000	-0.175	-0.510
-510.799	-200.000	-0.064	-0.326
-509.785	-104.551	-0.040	0.009
-508.770	136.726	-0.059	0.077
-507.756	-68.442	0.214	-0.083
-506.741	-141.880	0.165	-0.017
-505.726	75.396	-0.178	0.188
-504.712	-133.158	-0.081	0.010
-503.697	37.340	-0.114	0.101
-502.683	-35.367	-0.129	-0.070
-501.668	-32.207	0.197	0.110
-500.653	800.000	-0.025	-0.086
-499.639	197.265	-0.125	-0.191
-498.624	75.081	0.078	-0.083
-497.610	-194.109	0.078	0.001
-496.595	-200.000	-0.037	0.216
-495.581	-60.779	0.229	-0.097
-494.566	137.791	-0.138	-0.182
-493.551	800.000	-0.029	-0.094
-492.537	-2.570	-0.386	0.271
-491.522	683.247	-0.070	-0.182
-490.508	-87.553	-0.119	0.036
-489.493	-200.000	0.009	0.113
-488.478	-200.000	0.010	0.048
-487.464	-200.000	0.032	-0.470
-486.449	-200.000	0.003	-0.063
-485.435	344.370	-0.057	-0.113
-484.420	-200.000	-0.012	-0.200
-483.405	-69.046	0.305	0.118
-482.391	251.529	-0.119	-0.202
-481.376	-142.276	-0.397	-0.039
-480.362	265.693	0.042	0.073
-479.347	-41.827	-0.276	-0.142
-478.332	-25.389	0.164	-0.097
-477.318	-126.945	-0.311	0.046
-476.303	70.241	-0.152	-0.157
-475.289	-136.289	-0.033	0.004
-474.274	-70.967	0.228	0.086
-473.259	800.000	-0.122	-0.381
-472.245	800.000	-0.038	-0.154
-471.230	-58.233	-0.236	0.103
-470.216	518.395	0.051	-0.120
-469.201	-65.911	0.328	0.131
-468.186	-29.730	-0.228	0.130
-467.172	412.458	0.026	-0.055
-466.157	232.626	0.165	-0.271
-465.143	-59.279	0.181	-0.078
-464.128	3.096	-0.175	-0.127
-463.113	-200.000	0.015	-0.098
-462.099	-51.837	-0.260	-0.121
-461.084	93.764	0.082	0.092
-460.070	-82.139	-0.155	0.051
-459.055	85.682	0.021	-0.023
-458.040	-59.101	0.153	0.066
-457.026	92.520	0.220	0.249
-456.011	282.568	-0.085	-0.153
-454.997	94.594	-0.135	0.153
-453.982	-113.116	0.008	0.002
-452.968	-1.363	-0.061	-0.043
-451.953	-200.000	0.032	0.189
-450.938	-200.000	-0.004	0.098
-449.924	800.000	-0.093	-0.349
-448.909	-200.000	0.027	-0.200
-447.895	45.854	-0.307	-0.284
-446.880	75.488	0.152	-0.160
-445.865	264.386	-0.148	0.258
-444.851	-61.719	-0.190	-0.080
-443.836	-155.433	0.105	0.007
-442.822	242.823	0.048	0.080
-441.807	421.194	0.234	-0.503
-440.792	-109.835	-0.218	0.046
-439.778	37.473	0.149	-0.132
-438.763	800.000	-0.062	-0.195
-437.749	-19.972	-0.205	-0.126
-436.734	-131.526	-0.119	0.016
-435.719	-10.184	-0.231	-0.153
-434.705	282.827	0.115	0.206
-433.690	-86.397	0.144	-0.044
-432.676	139.320	0.223	-0.293
-431.661	524.342	0.020	-0.048
-430.646	512.940	0.160	0.373
-429.632	464.143	0.129	0.287
-428.617	-35.010	-0.189	0.103
-427.603	70.023	0.069	-0.072
-426.588	-80.713	0.221	0.073
-425.573	-200.000	0.010	-0.068
-424.559	-174.557	0.184	0.005
-423.544	392.004	0.088	-0.182
-422.530	-200.000	-0.030	0.218
-421.515	800.000	-0.056	-0.208
-420.500	33.689	0.036	-0.032
-419.486	139.725	0.114	0.150
-418.471	-45.421	0.098	0.049
-417.457	-200.000	0.034	-0.263
-416.442	2.978	-0.078	0.057
-415.428	-69.719	-0.224	0.086
-414.413	-102.062	-0.157	-0.038
-413.398	-114.032	0.338	0.065
-412.384	91.619	0.034	0.039
-411.369	-69.114	-0.125	-0.048
-410.355	-200.000	-0.006	0.331
-409.340	-200.000	-0.052	0.286
-408.325	182.348	0.148	0.218
-407.311	292.730	-0.011	0.021
-406.296	-94.601	-0.247	0.067
-405.282	-66.377	0.023	0.009
-404.267	204.010	0.104	-0.161
-403.252	-121.449	0.082	0.014
-402.238	-109.006	-0.184	-0.039
-401.223	671.276	0.136	0.352
-400.209	-200.000	-0.077	0.481
-399.194	800.000	-0.066	0.279
-398.179	-103.228	0.216	0.051
-397.165	-148.934	0.234	0.019
-396.150	141.011	0.055	-0.073
-395.136	104.473	-0.155	-0.182
-394.121	21.207	-0.431	-0.349
-393.106	-164.346	0.417	-0.019
-392.092	41.097	-0.111	-0.100
-391.077	-200.000	-0.002	-0.187
-390.063	-200.000	0.051	-0.297
-389.048	-65.460	0.191	-0.076
-388.033	-19.890	0.029	0.018
-387.019	-41.544	0.147	-0.075
-386.004	-28.355	-0.191	-0.110
-384.990	357.678	-0.124	0.247
-383.975	6.424	0.128	0.095
-382.960	154.120	0.071	-0.097
-381.946	72.653	0.010	-0.011
-380.931	-200.000	0.035	-0.340
-379.917	440.776	0.098	0.214
-378.902	148.537	0.110	0.148
-377.888	-68.821	-0.298	-0.115
-376.873	765.279	-0.135	0.367
-375.858	64.386	0.178	0.179
-374.844	-193.047	-0.204	-0.002
-373.829	-200.000	-0.020	0.311
-372.815	-200.000	0.010	-0.217
-371.800	-200.000	0.043	0.406
-370.785	-2.926	-0.199	0.139
-369.771	-173.890	-0.241	-0.007
-368.756	73.019	0.262	-0.273
-367.742	-200.000	0.025	-0.339
-366.727	-37.385	-0.216	0.115
-365.712	-75.012	0.229	0.082
-364.698	38.630	0.243	0.216
-363.683	-49.195	0.205	0.098
-362.669	80.320	-0.105	0.113
-361.654	152.564	0.140	0.191
-360.639	144.231	-0.026	-0.034
-359.625	-106.633	-0.119	-0.026
-358.610	195.598	0.112	-0.169
-357.596	-61.850	0.414	-0.172
-356.581	103.474	-0.099	0.115
-355.566	800.000	-0.095	-0.321
-354.552	-14.260	0.171	-0.110
-353.537	28.451	0.105	0.089
-352.523	-200.000	0.028	0.182
-351.508	-159.365	-0.302	0.017
-350.493	-14.259	0.177	0.114
-349.479	521.401	-0.083	-0.194
-348.464	-147.802	0.160	0.013
-347.450	47.206	-0.208	0.193
-346.435	-148.508	0.180	0.015
-345.420	6.683	-0.118	-0.087
-344.406	-130.382	-0.100	0.013
-343.391	-200.000	0.013	-0.206
-342.377	123.903	-0.223	0.279
-341.362	-200.000	0.020	0.288
-340.348	-170.080	0.295	-0.010
-339.333	-110.452	0.338	-0.070
-338.318	-108.418	-0.144	0.031
-337.304	201.439	-0.053	-0.081
-336.289	-92.399	-0.255	0.072
-335.275	-52.853	-0.003	-0.001
-334.260	800.000	0.029	-0.113
-333.245	338.709	-0.187	0.362
-332.231	800.000	0.061	0.176
-331.216	800.000	0.076	0.230
-330.202	-74.981	0.280	0.100
-329.187	-55.590	-0.186	-0.083
-328.172	-23.028	0.155	-0.093
-327.158	578.932	0.123	0.299
-326.143	7.631	0.181	-0.135
-325.129	-200.000	0.020	-0.122
-324.114	14.521	0.291	-0.226
-323.099	264.702	0.102	0.176
-322.085	112.189	-0.169	-0.203
-321.070	-200.000	-0.066	0.299
-320.056	800.000	-0.059	0.166
-319.041	-200.000	0.007	0.064
-318.026	-47.452	0.198	-0.096
-317.012	689.576	-0.077	-0.201
-315.997	-4.927	-0.361	0.247
-314.983	48.368	0.272	0.253
-313.968	-105.360	-0.017	-0.004
-312.953	110.989	-0.162	0.195
-311.939	800.000	0.084	-0.277
-310.924	402.311	0.113	-0.236
-309.910	30.712	0.257	-0.219
-308.895	-32.633	0.081	-0.045
-307.880	-200.000	-0.005	0.078
-306.866	-14.747	0.028	-0.018
-305.851	113.188	-0.053	-0.063
-304.837	-113.544	-0.276	-0.054
-303.822	800.000	0.090	-0.343
-302.807	-64.895	0.274	0.110
-301.793	-113.288	0.116	-0.023
-300.778	210.345	0.085	0.133
-299.764	-200.000	0.016	0.241
-298.749	64.814	0.195	0.195
-297.735	154.824	-0.120	-0.165
-296.720	18.771	-0.110	-0.087
-295.705	-200.000	-0.015	-0.221
-294.691	-17.950	-0.092	-0.058
-293.676	-37.401	-0.213	0.113
-292.662	-133.505	-0.390	0.049
-291.647	800.000	-0.058	0.246
-290.632	-200.000	0.014	-0.092
-289.618	-200.000	0.009	-0.050
-288.603	-200.000	0.015	-0.109
-287.589	-200.000	-0.043	0.447
-286.574	110.430	0.334	-0.399
-285.559	800.000	0.060	-0.165
-284.545	-5.845	0.253	-0.172
-283.530	114.918	-0.228	-0.277
-282.516	164.149	-0.057	-0.080
-281.501	491.807	-0.099	-0.226
-280.486	-20.428	-0.186	0.113
-279.472	391.784	0.024	0.050
-278.457	5.422	0.325	-0.238
-277.443	332.545	0.141	0.271
-276.428	-200.000	0.028	-0.233
-275.413	-200.000	0.125	0.001
-274.399	-200.000	-0.043	-0.204
-273.384	800.000	0.074	-0.210
-272.370	278.841	-0.173	-0.307
-271.355	75.831	0.088	-0.092
-270.340	327.026	0.106	-0.202
-269.326	-22.486	0.119	-0.072
-268.311	183.760	0.060	-0.088
-267.297	-13.730	-0.211	-0.136
-266.282	98.908	-0.028	-0.032
-265.267	-43.493	-0.225	0.113
-264.253	44.353	-0.075	0.069
-263.238	216.262	-0.147	-0.233
-262.224	35.699	0.235	-0.205
-261.209	-84.872	0.117	-0.037
-260.195	-12.719	-0.211	-0.136
-259.180	-200.000	-0.001	-0.129
-258.165	-51.177	-0.197	0.092
-257.151	-87.949	0.054	-0.016
-256.136	-37.697	0.191	-0.101
-255.122	-54.191	-0.077	-0.035
-254.107	-166.739	0.216	-0.009
-253.092	800.000	0.117	0.387
-252.078	-6.125	0.049	-0.034
-251.063	-80.306	-0.468	0.155
-250.049	85.343	-0.055	0.060
-249.034	800.000	0.102	0.296
-248.019	-23.700	0.080	0.047
-247.005	-59.076	0.068	-0.029
-245.990	-153.107	-0.110	-0.008
-244.976	215.637	-0.193	0.305
-243.961	116.809	0.126	-0.154
-242.946	82.559	0.093	0.100
-241.932	-35.229	0.150	0.081
-240.917	51.150	-0.092	0.087
-239.903	507.491	-0.055	-0.126
-238.888	232.530	0.151	-0.246
-237.873	-92.631	0.223	0.062
-236.859	-105.663	-0.122	0.027
-235.844	60.760	-0.208	-0.204
-234.830	3.759	0.148	-0.107
-233.815	-200.000	0.003	0.183
-232.800	163.443	-0.119	-0.166
-231.786	470.185	0.069	0.154
-230.771	53.672	-0.184	0.175
-229.757	393.596	0.152	0.314
-228.742	783.760	-0.142	0.386
-227.727	175.590	-0.033	-0.048
-226.713	-153.448	-0.118	0.008
-225.698	-48.211	0.163	0.078
-224.684	417.656	-0.079	-0.167
-223.669	68.207	-0.031	0.031
-222.655	88.653	-0.264	0.291
-221.640	-200.000	0.034	0.176
-220.625	-65.808	-0.229	-0.091
-219.611	-77.410	-0.104	0.036
-218.596	393.208	0.120	0.248
-217.582	800.000	0.020	-0.086
-216.567	-98.960	-0.168	0.042
-215.552	800.000	-0.035	0.135
-214.538	67.135	0.096	-0.097
-213.523	800.000	0.013	0.050
-212.509	-155.624	0.536	0.034
-211.494	-101.354	0.112	-0.027
-210.479	-200.000	0.045	0.269
-209.465	-16.765	0.157	-0.098
-208.450	-87.060	-0.153	-0.046
-207.436	-72.503	-0.122	0.045
-206.421	-73.222	0.111	0.040
-205.406	-200.000	-0.019	-0.139
-204.392	-57.795	-0.020	-0.009
-203.377	-44.984	0.233	-0.115
-202.363	279.310	-0.161	0.285
-201.348	388.770	0.154	0.316
-200.333	304.359	0.114	0.210
-199.319	-200.000	-0.020	-0.216
-198.304	286.513	0.054	0.097
-197.290	43.952	-0.327	0.297
-196.275	-200.000	-0.007	0.152
-195.260	-37.778	0.192	-0.101
-194.246	-200.000	-0.023	0.105
-193.231	121.250	0.039	0.048
-192.217	57.221	-0.077	0.074
-191.202	-173.557	0.103	-0.003
-190.187	-200.000	-0.007	-0.264
-189.173	-200.000	0.016	-0.117
-188.158	800.000	0.039	-0.143
-187.144	-35.304	0.140	-0.075
-186.129	460.692	-0.121	0.266
-185.114	-81.553	0.149	0.049
-184.100	634.924	0.009	0.022
-183.085	119.241	0.149	0.182
-182.071	-97.993	0.278	0.071
-181.056	-68.856	0.020	0.008
-180.042	-18.509	0.146	0.090
-179.027	-200.000	0.028	-0.185
-178.012	-26.721	-0.361	-0.209
-176.998	-72.779	0.080	-0.029
-175.983	-200.000	-0.016	-0.192
-174.969	137.160	-0.123	-0.159
-173.954	306.229	-0.193	-0.355
-172.939	-83.661	0.337	-0.106
-171.925	175.083	0.256	-0.367
-170.910	34.672	-0.402	-0.348
-169.896	113.230	-0.102	-0.122
-168.881	-94.621	-0.431	-0.116
-167.866	130.666	0.097	0.123
-166.852	800.000	-0.027	-0.118
-165.837	-34.023	0.295	0.160
-164.823	-94.078	-0.204	0.055
-163.808	643.570	-0.046	-0.117
-162.793	-14.387	-0.269	0.171
-161.779	-32.418	0.134	-0.074
-160.764	28.690	0.135	-0.113
-159.750	574.922	0.117	-0.282
-158.735	-12.564	0.134	0.086
-157.720	-127.406	-0.206	-0.030
-156.706	-187.718	0.323	0.004
-155.691	-156.244	-0.173	-0.011
-154.677	-200.000	0.006	-0.227
-153.662	800.000	-0.079	0.326
-152.647	267.797	-0.085	0.147
-151.633	-129.848	-0.311	0.042
-150.618	110.336	-0.008	0.010
-149.604	-73.614	0.103	0.037
-148.589	-89.545	0.154	-0.045
-147.574	733.959	-0.053	0.141
-146.560	118.282	-0.045	0.055
-145.545	800.000	-0.064	-0.269
-144.531	800.000	0.041	0.145
-143.516	800.000	-0.043	0.162
-142.502	116.208	-0.095	0.115
-141.487	-53.439	0.089	0.040
-140.472	-188.414	0.260	-0.003
-139.458	452.789	0.101	0.221
-138.443	-63.832	-0.149	0.060
-137.429	146.210	-0.093	0.123
-136.414	462.866	0.190	0.418
-135.399	-153.307	-0.156	-0.011
-134.385	-148.159	0.207	-0.017
-133.370	-200.000	0.023	0.152
-132.356	-129.006	-0.140	-0.019
-131.341	-68.459	0.160	-0.061
-130.326	3.707	-0.120	0.087
-129.312	-68.478	-0.173	-0.066
-128.297	-88.081	-0.289	-0.086
-127.283	52.259	0.387	-0.364
-126.268	-119.438	0.136	-0.023
-125.253	-200.000	-0.030	0.227
-124.239	205.873	-0.167	-0.256
-123.224	-48.635	0.237	0.112
-122.210	-50.367	0.065	-0.030
-121.195	121.025	-0.022	0.027
