DTS Sentinel unit serial number:	SN413079Multiplexer serial number:	ORYXHardware model number:	OX4-SRSoftware version number:	ORYX F/W v4.00 Oryx Data Collector v3.7.2.0data status	okinstallation	princeton_trtdifferential loss correction	single-endedforward channel	channel 1reverse channel	N/Adate	2019/09/12time	18:36:34forward acquisition time	15.00reverse acquisition time	0.00gamma	496.2192k internal	0.2318k external	0.2318temperature offset calibration	1.0111default loss term (dB/km)	0.3790temperature slope calibration	1.0000multiplexer offset coefficient	1.0000multiplexer slope coefficient	1.0000fibre end	0.00T internal ref (°C)	33.12T ext. ref 1 (°C)	2.99T ext. ref 2 (°C)	27.72length (m)	temperature (°C)	Stokes	anti-Stokes-747.200	800.000	-0.154	-0.638
-746.185	-7.125	-0.393	-0.270
-745.171	354.151	-0.126	0.254
-744.156	54.304	-0.908	-0.885
-743.142	-31.790	0.602	-0.342
-742.127	-101.183	0.566	0.140
-741.112	800.000	0.221	0.682
-740.098	-134.025	-0.552	-0.069
-739.083	186.051	0.242	-0.364
-738.069	-163.016	-0.574	0.028
-737.054	-133.730	1.526	-0.193
-736.039	101.007	-0.265	0.312
-735.025	800.000	-0.113	-0.410
-734.010	-200.000	-0.018	-0.856
-732.996	179.317	-0.239	-0.353
-731.981	169.972	-0.528	0.764
-730.966	-101.049	-0.298	-0.074
-729.952	-29.580	-0.365	-0.211
-728.937	-46.783	-0.696	0.344
-727.923	-149.555	0.816	0.065
-726.908	107.501	-0.513	0.617
-725.894	-54.897	0.971	-0.443
-724.879	-78.447	0.206	-0.071
-723.864	447.998	-0.158	-0.353
-722.850	273.436	-0.479	-0.857
-721.835	329.266	-0.180	-0.351
-720.821	213.389	-0.372	-0.595
-719.806	-200.000	-0.053	-0.396
-718.791	-65.648	0.547	-0.222
-717.777	292.668	0.219	0.404
-716.762	61.857	0.114	0.115
-715.748	43.974	0.326	0.302
-714.733	22.567	-0.115	-0.095
-713.718	75.036	0.515	0.549
-712.704	-200.000	-0.080	0.794
-711.689	32.899	0.488	0.427
-710.675	800.000	-0.127	-0.413
-709.660	186.047	0.274	0.412
-708.645	714.108	-0.230	0.617
-707.631	13.907	0.319	-0.251
-706.616	-200.000	-0.065	0.407
-705.602	87.584	0.159	-0.178
-704.587	143.202	-0.438	-0.589
-703.572	-131.322	0.033	-0.004
-702.558	-45.921	-0.324	-0.161
-701.543	309.888	0.199	0.377
-700.529	404.677	0.323	-0.688
-699.514	800.000	-0.037	-0.137
-698.499	188.422	-0.295	0.445
-697.485	-157.487	0.637	0.039
-696.470	-200.000	-0.048	-0.321
-695.456	-78.994	-0.045	0.015
-694.441	-59.231	-0.732	-0.318
-693.426	-81.976	0.126	0.042
-692.412	-77.767	-0.525	-0.183
-691.397	17.410	-0.076	-0.061
-690.383	306.339	-0.068	-0.127
-689.368	-177.696	0.314	-0.008
-688.354	-200.000	-0.006	-0.592
-687.339	-21.879	0.758	0.465
-686.324	89.974	0.148	0.167
-685.310	261.142	-0.334	0.583
-684.295	442.636	-0.147	0.325
-683.281	323.779	-0.112	0.217
-682.266	111.288	-0.352	-0.428
-681.251	800.000	0.174	0.708
-680.237	-140.645	-0.471	-0.049
-679.222	198.748	0.264	0.409
-678.208	-11.885	-0.886	0.587
-677.193	-200.000	-0.045	-0.952
-676.178	-200.000	-0.082	-0.773
-675.164	800.000	0.367	-1.338
-674.149	75.338	-0.359	-0.382
-673.135	12.931	-0.238	-0.186
-672.120	-176.375	-0.581	0.015
-671.105	-200.000	0.049	-0.486
-670.091	278.585	-0.432	-0.778
-669.076	9.357	-0.548	-0.418
-668.062	-200.000	-0.071	-0.999
-667.047	800.000	0.282	-0.805
-666.032	167.052	-0.614	0.880
-665.018	53.499	0.270	0.261
-664.003	40.635	0.140	-0.127
-662.989	300.107	0.147	0.273
-661.974	69.423	-0.593	-0.616
-660.959	-107.074	0.720	-0.160
-659.945	257.819	0.179	-0.311
-658.930	-42.827	0.546	0.280
-657.916	-36.167	-0.365	0.199
-656.901	-200.000	0.094	0.585
-655.886	-163.264	0.729	0.035
-654.872	-200.000	0.055	-0.352
-653.857	-200.000	-0.105	-0.851
-652.843	40.073	0.086	0.078
-651.828	-184.640	-0.327	0.005
-650.814	-103.216	-0.345	0.082
-649.799	-39.475	-0.160	0.084
-648.784	383.512	-0.258	-0.535
-647.770	38.700	-0.399	0.359
-646.755	-36.575	-0.723	-0.392
-645.741	-200.000	-0.037	0.971
-644.726	-26.191	-0.294	0.174
-643.711	-76.030	0.592	-0.211
-642.697	460.056	0.287	-0.644
-641.682	278.125	0.069	-0.124
-640.668	39.760	-0.346	0.313
-639.653	0.758	0.573	0.413
-638.638	-91.250	0.988	0.285
-637.624	629.190	-0.176	0.450
-636.609	114.659	0.255	-0.314
-635.595	54.744	-0.388	-0.377
-634.580	-160.716	-0.717	-0.038
-633.565	800.000	0.234	0.689
-632.551	-173.839	0.280	-0.008
-631.536	-119.519	0.141	-0.025
-630.522	-87.625	0.489	-0.149
-629.507	2.672	0.351	-0.256
-628.492	-28.444	-0.336	-0.195
-627.478	7.753	0.042	0.031
-626.463	-44.072	-0.306	-0.155
-625.449	-80.804	0.301	-0.101
-624.434	-200.000	0.175	-0.795
-623.419	-200.000	-0.041	-0.259
-622.405	-200.000	-0.034	0.335
-621.390	143.525	0.906	1.216
-620.376	-200.000	-0.043	0.721
-619.361	-200.000	0.036	-0.755
-618.346	1.605	0.288	-0.209
-617.332	270.040	0.104	-0.184
-616.317	512.017	0.142	-0.334
-615.303	-20.981	0.326	0.201
-614.288	-200.000	-0.007	0.388
-613.273	-84.732	0.554	0.176
-612.259	224.681	-0.510	-0.830
-611.244	-200.000	-0.135	-0.805
-610.230	-175.164	0.320	-0.009
-609.215	145.193	-0.281	-0.379
-608.201	624.445	0.169	-0.428
-607.186	-80.137	-0.902	0.304
-606.171	105.076	-0.213	0.253
-605.157	-172.896	0.633	-0.020
-604.142	637.774	0.221	-0.567
-603.128	-121.117	-0.837	-0.141
-602.113	85.206	0.422	0.465
-601.098	800.000	0.153	-0.602
-600.084	74.873	-0.446	-0.473
-599.069	473.915	-0.051	-0.115
-598.055	800.000	0.413	-1.440
-597.040	-60.001	0.282	-0.121
-596.025	800.000	0.052	0.208
-595.011	176.949	0.448	-0.656
-593.996	218.198	-0.259	-0.415
-592.982	333.646	0.160	-0.311
-591.967	480.763	-0.256	0.584
-590.952	800.000	-0.022	0.069
-589.938	64.476	0.354	-0.359
-588.923	-200.000	-0.107	-0.546
-587.909	115.694	-0.173	-0.213
-586.894	45.489	0.166	-0.154
-585.879	-8.289	0.118	-0.080
-584.865	436.378	-0.342	-0.748
-583.850	63.261	-0.110	0.111
-582.836	-60.227	0.219	0.094
-581.821	-57.071	-0.429	0.190
-580.806	-92.584	0.251	0.071
-579.792	-162.796	-0.713	-0.035
-578.777	19.265	-0.193	-0.155
-577.763	800.000	0.070	-0.304
-576.748	-64.810	-0.313	0.127
-575.733	-152.421	0.682	0.049
-574.719	800.000	-0.078	-0.230
-573.704	-200.000	-0.030	0.379
-572.690	-1.252	1.035	0.735
-571.675	-165.458	0.787	0.035
-570.661	6.300	0.590	0.440
-569.646	247.749	0.149	0.252
-568.631	168.648	0.306	0.439
-567.617	184.818	-0.618	-0.921
-566.602	-107.978	0.403	-0.088
-565.588	800.000	-0.306	0.923
-564.573	-71.754	0.584	0.219
-563.558	-44.116	0.632	0.319
-562.544	-37.693	-0.499	-0.267
-561.529	-33.577	0.299	0.166
-560.515	-31.663	0.392	0.221
-559.500	800.000	-0.138	0.510
-558.485	38.424	-0.363	-0.325
-557.471	67.148	0.381	-0.390
-556.456	-54.347	0.465	0.212
-555.442	148.124	0.190	0.257
-554.427	-17.130	-0.423	0.268
-553.412	-96.066	-0.826	0.221
-552.398	111.759	-0.323	0.391
-551.383	-30.533	0.442	-0.252
-550.369	172.029	0.172	0.248
-549.354	-105.284	-1.003	0.230
-548.339	1.879	-0.345	0.250
-547.325	800.000	-0.116	-0.482
-546.310	274.045	-0.622	-1.105
-545.296	-122.202	0.175	-0.029
-544.281	-97.975	-0.326	0.084
-543.266	-101.874	-0.679	0.165
-542.252	-200.000	-0.056	0.814
-541.237	581.429	0.293	0.722
-540.223	405.876	-0.133	0.281
-539.208	-41.502	-0.614	-0.317
-538.193	-200.000	-0.006	0.122
-537.179	761.951	0.133	-0.363
-536.164	800.000	0.247	0.738
-535.150	-37.022	-0.353	-0.190
-534.135	-100.969	0.278	0.069
-533.121	-200.000	-0.060	0.407
-532.106	800.000	-0.211	0.596
-531.091	54.056	-0.555	0.536
-530.077	800.000	-0.041	-0.175
-529.062	800.000	0.120	-0.480
-528.048	171.657	-0.168	-0.243
-527.033	241.515	-0.339	0.568
-526.018	15.456	0.233	0.184
-525.004	25.449	0.198	0.165
-523.989	-180.571	0.284	0.006
-522.975	375.651	-0.125	-0.256
-521.960	623.440	0.257	0.650
-520.945	206.537	-0.295	0.461
-519.931	-31.163	0.771	-0.436
-518.916	-200.000	0.018	-0.456
-517.902	-92.914	-0.869	-0.243
-516.887	360.274	-0.619	1.244
-515.872	501.272	0.089	-0.206
-514.858	32.795	-0.626	0.543
-513.843	-1.275	-1.036	0.734
-512.829	-180.185	0.327	-0.007
-511.814	-40.876	0.860	0.446
-510.799	299.738	0.259	-0.478
-509.785	76.775	0.418	0.444
-508.770	-32.045	-0.716	0.402
-507.756	-37.140	-0.435	0.234
-506.741	97.415	0.419	0.482
-505.726	-200.000	0.010	0.933
-504.712	-107.118	0.350	0.077
-503.697	120.376	-0.474	0.590
-502.683	553.711	0.157	-0.378
-501.668	419.482	-0.390	-0.836
-500.653	-64.318	1.024	-0.418
-499.639	197.495	-0.310	-0.475
-498.624	-114.470	-0.755	-0.145
-497.610	800.000	-0.130	-0.378
-496.595	23.530	-0.314	-0.259
-495.581	246.085	0.048	-0.081
-494.566	-166.773	0.300	0.012
-493.551	-38.859	-0.324	0.171
-492.537	290.671	0.198	0.361
-491.522	-200.000	0.006	-0.175
-490.508	-200.000	-0.036	0.503
-489.493	-159.725	-0.529	-0.029
-488.478	9.942	-0.319	-0.243
-487.464	-107.466	0.248	0.055
-486.449	71.127	0.966	-1.003
-485.435	83.440	0.120	0.131
-484.420	-164.306	-0.529	0.024
-483.405	-115.585	0.953	0.179
-482.391	78.867	-0.441	-0.473
-481.376	-10.598	0.311	0.206
-480.362	210.005	-0.067	0.106
-479.347	-74.077	-0.438	-0.159
-478.332	-84.486	0.510	0.161
-477.318	164.799	-0.037	0.052
-476.303	-141.349	0.425	0.043
-475.289	728.447	-0.288	0.769
-474.274	-36.941	0.643	0.345
-473.259	-172.500	0.497	-0.016
-472.245	-80.816	-0.764	-0.254
-471.230	-56.083	0.428	-0.191
-470.216	-72.538	-0.123	-0.046
-469.201	-200.000	0.033	0.363
-468.186	26.178	-0.494	0.413
-467.172	510.477	0.082	-0.192
-466.157	250.329	0.313	0.532
-465.143	504.712	0.112	-0.260
-464.128	141.728	-0.066	-0.087
-463.113	7.087	-0.837	-0.625
-462.099	57.275	0.369	-0.360
-461.084	-143.777	0.667	-0.063
-460.070	-135.314	0.562	0.067
-459.055	540.014	0.189	-0.450
-458.040	-160.415	-0.618	-0.033
-457.026	800.000	0.155	0.461
-456.011	-181.640	-0.720	-0.014
-454.997	-70.605	-0.381	-0.144
-453.982	-127.294	-0.280	0.041
-452.968	22.441	-0.185	0.152
-451.953	-200.000	0.023	0.544
-450.938	302.226	-0.414	0.766
-449.924	-114.439	-0.219	0.042
-448.909	78.114	0.303	0.324
-447.895	-28.002	-0.224	0.130
-446.880	800.000	-0.159	0.613
-445.865	14.134	0.688	-0.536
-444.851	346.319	-0.288	-0.567
-443.836	76.734	-0.506	0.537
-442.822	330.560	-0.237	-0.457
-441.807	-200.000	0.012	0.086
-440.792	-121.509	-0.629	-0.105
-439.778	-132.187	0.374	0.049
-438.763	-34.844	0.646	0.353
-437.749	-115.216	-0.472	0.089
-436.734	65.014	-0.183	-0.185
-435.719	-86.690	-0.589	-0.180
-434.705	25.615	0.226	-0.188
-433.690	643.984	0.079	-0.202
-432.676	-178.970	0.572	0.013
-431.661	-200.000	0.010	-0.468
-430.646	-136.972	-0.919	-0.105
-429.632	569.950	-0.143	-0.348
-428.617	-57.556	-0.447	0.196
-427.603	-122.409	-0.479	-0.078
-426.588	-51.526	-1.025	-0.479
-425.573	-200.000	0.180	-1.192
-424.559	82.611	0.418	-0.454
-423.544	-98.506	0.702	0.179
-422.530	10.705	-0.759	0.579
-421.515	183.591	-0.372	-0.549
-420.500	437.007	-0.254	0.554
-419.486	-159.303	-0.663	0.037
-418.471	-172.188	1.022	-0.033
-417.457	-190.556	-0.289	-0.003
-416.442	800.000	-0.389	-1.251
-415.428	160.231	-0.334	0.466
-414.413	800.000	-0.152	-0.527
-413.398	89.603	-0.356	0.397
-412.384	-200.000	-0.022	0.474
-411.369	-2.986	-0.284	0.198
-410.355	-49.222	0.092	-0.044
-409.340	286.121	-0.006	-0.011
-408.325	575.441	0.110	-0.269
-407.311	313.141	0.145	-0.272
-406.296	-60.531	0.383	0.162
-405.282	-161.729	0.438	0.022
-404.267	-81.916	-0.820	-0.268
-403.252	-114.110	-0.409	0.079
-402.238	143.116	-0.421	-0.559
-401.223	-166.154	-0.632	-0.027
-400.209	23.472	-0.522	-0.428
-399.194	-132.520	-0.257	0.033
-398.179	84.785	0.150	0.165
-397.165	796.142	-0.274	0.754
-396.150	-49.623	-0.501	-0.238
-395.136	-70.808	-0.450	0.169
-394.121	-200.000	0.091	0.444
-393.106	-178.646	0.321	-0.007
-392.092	-77.100	0.307	0.107
-391.077	-200.000	-0.013	-0.610
-390.063	226.725	0.413	0.669
-389.048	497.431	0.212	-0.486
-388.033	-200.000	0.086	0.387
-387.019	-200.000	-0.005	0.444
-386.004	800.000	0.149	0.426
-384.990	-98.404	0.197	0.050
-383.975	287.511	-0.141	-0.255
-382.960	173.102	-0.324	-0.466
-381.946	101.783	-0.428	0.498
-380.931	-194.072	0.300	0.002
-379.917	660.643	0.129	-0.332
-378.902	-200.000	0.024	0.352
-377.888	-108.404	1.082	0.233
-376.873	-90.379	0.482	-0.140
-375.858	-200.000	-0.105	0.495
-374.844	21.959	0.559	-0.455
-373.829	-8.794	-0.504	-0.337
-372.815	-48.568	0.244	0.117
-371.800	-72.795	-0.494	-0.181
-370.785	-32.300	0.804	0.448
-369.771	-200.000	0.123	0.920
-368.756	-73.300	0.744	0.271
-367.742	119.216	-0.282	0.348
-366.727	800.000	0.200	0.624
-365.712	-29.218	0.320	-0.183
-364.698	-200.000	-0.003	0.292
-363.683	251.005	-0.152	-0.258
-362.669	-200.000	0.003	0.102
-361.654	-200.000	-0.008	-0.519
-360.639	-8.425	0.311	-0.209
-359.625	-14.186	0.670	-0.430
-358.610	-116.270	-0.275	-0.051
-357.596	63.387	-0.358	-0.358
-356.581	109.533	-0.344	-0.411
-355.566	-24.431	-1.060	-0.630
-354.552	-75.552	-0.422	0.150
-353.537	-200.000	0.013	0.821
-352.523	-10.034	-0.272	0.180
-351.508	-200.000	0.020	0.129
-350.493	-200.000	0.034	-0.577
-349.479	20.817	0.541	-0.437
-348.464	-142.628	-0.004	-0.000
-347.450	800.000	0.132	0.405
-346.435	127.871	-0.683	-0.865
-345.420	-12.410	0.469	-0.305
-344.406	28.502	-0.377	0.318
-343.391	-22.092	-0.319	0.193
-342.377	30.873	-0.570	0.486
-341.362	-15.102	0.037	0.024
-340.348	-138.166	-0.447	-0.049
-339.333	245.065	0.096	-0.161
-338.318	73.154	0.266	0.277
-337.304	-50.019	0.255	0.120
-336.289	-200.000	-0.092	0.559
-335.275	-115.315	-0.295	0.056
-334.260	219.344	-0.066	-0.105
-333.245	18.859	-0.510	0.407
-332.231	-3.085	0.583	-0.405
-331.216	99.626	-0.760	-0.876
-330.202	-52.839	0.497	0.228
-329.187	-53.603	0.601	-0.274
-328.172	374.582	-0.187	0.379
-327.158	-34.119	-0.731	0.400
-326.143	175.861	0.059	-0.085
-325.129	-17.620	0.239	-0.150
-324.114	441.673	0.074	-0.161
-323.099	522.263	0.045	-0.106
-322.085	-104.128	0.205	0.048
-321.070	-111.578	-0.471	0.095
-320.056	-200.000	-0.076	0.712
-319.041	-82.239	-0.598	-0.194
-318.026	26.942	-0.152	0.127
-317.012	-124.408	1.220	0.189
-315.997	-140.078	0.466	0.049
-314.983	-29.664	0.328	0.186
-313.968	170.632	-0.287	0.409
-312.953	-152.505	-0.534	0.038
-311.939	-200.000	-0.098	0.615
-310.924	568.244	0.274	0.663
-309.910	-200.000	-0.094	0.722
-308.895	-20.468	0.515	0.315
-307.880	-200.000	0.103	0.639
-306.866	583.269	0.412	-1.006
-305.851	-37.984	0.498	0.263
-304.837	-33.015	0.322	-0.178
-303.822	-200.000	-0.031	-0.570
-302.807	-192.515	0.453	0.004
-301.793	-200.000	-0.009	0.115
-300.778	33.786	-0.272	0.235
-299.764	363.781	-0.458	-0.916
-298.749	-136.276	0.422	0.049
-297.735	56.083	-0.420	-0.405
-296.720	-28.777	-0.232	-0.133
-295.705	17.711	-0.232	-0.183
-294.691	-74.863	-0.676	-0.241
-293.676	-53.689	-0.400	0.182
-292.662	-106.883	-0.303	-0.067
-291.647	-143.921	0.384	0.036
-290.632	146.295	-0.248	-0.331
-289.618	118.684	-0.397	-0.487
-288.603	668.189	-0.120	0.310
-287.589	-200.000	-0.056	0.417
-286.574	40.158	-0.125	-0.112
-285.559	772.903	-0.259	0.701
-284.545	-148.620	0.236	-0.019
-283.530	-88.906	0.320	-0.094
-282.516	557.963	-0.150	0.359
-281.501	800.000	0.236	-0.660
-280.486	-79.370	-0.219	0.074
-279.472	-200.000	0.113	0.722
-278.457	271.732	-0.320	-0.560
-277.443	156.059	-0.088	0.120
-276.428	-111.630	-0.599	0.121
-275.413	286.372	-0.316	-0.568
-274.399	650.276	-0.237	-0.603
-273.384	-84.888	0.478	-0.149
-272.370	-94.472	-0.365	0.099
-271.355	0.607	0.547	0.389
-270.340	116.693	0.489	0.596
-269.326	-159.129	-0.386	-0.022
-268.311	-41.449	-0.136	0.069
-267.297	56.387	-0.458	-0.442
-266.282	-179.832	0.688	0.015
-265.267	-193.518	0.298	-0.003
-264.253	566.632	-0.229	0.552
-263.238	-31.296	-0.860	0.481
-262.224	285.332	-0.411	0.735
-261.209	-108.943	0.778	-0.165
-260.195	-6.301	0.334	0.227
-259.180	-200.000	0.438	0.001
-258.165	-61.904	-0.637	-0.265
-257.151	-181.586	0.348	0.007
-256.136	-98.095	0.552	-0.141
-255.122	800.000	0.145	0.517
-254.107	-133.951	0.690	-0.085
-253.092	143.771	0.079	-0.104
-252.078	30.568	-0.269	0.229
-251.063	800.000	0.171	0.486
-250.049	800.000	0.078	-0.217
-249.034	380.924	0.242	0.492
-248.019	-200.000	-0.084	-1.042
-247.005	-181.652	0.523	-0.010
-245.990	508.735	-0.281	0.647
-244.976	-123.112	-0.179	-0.029
-243.961	-128.732	-0.202	0.028
-242.946	-200.000	-0.206	-1.206
-241.932	-85.199	-0.732	0.227
-240.917	74.492	-0.345	0.360
-239.903	307.205	0.199	-0.368
-238.888	260.168	-0.197	0.339
-237.873	151.738	0.375	-0.507
-236.859	-127.374	-0.074	0.011
-235.844	263.683	-0.247	-0.426
-234.830	-179.424	-0.945	-0.021
-233.815	306.204	0.322	-0.595
-232.800	-200.000	-0.077	0.951
-231.786	76.778	0.174	-0.183
-230.771	-55.698	0.240	0.106
-229.757	-37.751	0.546	0.288
-228.742	-200.000	-0.002	-0.107
-227.727	-49.389	-0.763	0.361
-226.713	-200.000	-0.078	0.534
-225.698	-168.948	0.693	0.026
-224.684	568.909	0.271	0.652
-223.669	2.068	-0.239	0.171
-222.655	-200.000	-0.090	-0.700
-221.640	800.000	-0.168	-0.557
-220.625	800.000	0.278	0.835
-219.611	800.000	-0.136	0.388
-218.596	-200.000	0.004	-0.455
-217.582	-200.000	-0.114	-0.955
-216.567	204.432	-0.386	-0.593
-215.552	-66.162	0.508	-0.201
-214.538	54.352	-0.531	0.507
-213.523	-141.728	-0.232	-0.023
-212.509	-59.715	1.227	-0.521
-211.494	10.683	-0.564	0.426
-210.479	800.000	0.242	0.797
-209.465	-43.490	-0.382	0.191
-208.450	-11.865	0.369	-0.240
-207.436	-200.000	0.084	-0.895
-206.421	-110.451	0.572	-0.118
-205.406	-170.334	-0.607	-0.021
-204.392	212.768	0.238	-0.373
-203.377	348.168	0.072	0.140
-202.363	103.529	-0.220	-0.256
-201.348	400.644	0.265	-0.550
-200.333	-89.550	0.650	0.189
-199.319	66.639	0.748	0.754
-198.304	147.913	0.489	0.653
-197.290	-147.193	-0.211	-0.018
-196.275	-125.280	0.287	-0.044
-195.260	60.551	-0.565	-0.555
-194.246	-99.748	0.372	0.092
-193.231	-51.628	-0.366	-0.169
-192.217	-200.000	-0.002	-0.132
-191.202	-76.552	-0.212	0.074
-190.187	310.516	0.079	-0.147
-189.173	419.595	-0.153	-0.325
-188.158	90.212	-0.160	-0.177
-187.144	-200.000	-0.085	0.448
-186.129	85.602	0.210	-0.228
-185.114	-61.976	1.113	0.461
-184.100	146.807	-0.330	-0.440
-183.085	378.942	-0.041	-0.082
-182.071	800.000	0.139	-0.465
-181.056	626.375	0.209	-0.523
-180.042	-200.000	-0.065	0.448
-179.027	800.000	0.095	-0.350
-178.012	572.102	-0.400	-0.964
-176.998	-200.000	0.020	-0.627
-175.983	-128.094	-0.619	-0.088
-174.969	-82.079	0.985	-0.318
-173.954	-110.152	0.610	0.126
-172.939	-172.791	1.165	0.036
-171.925	414.965	-0.139	-0.293
-170.910	-200.000	0.116	0.735
-169.896	-99.545	0.745	-0.185
-168.881	151.105	-0.413	0.556
-167.866	-114.870	0.379	0.071
-166.852	51.573	0.273	0.257
-165.837	92.239	0.155	-0.173
-164.823	482.775	0.176	-0.395
-163.808	45.691	0.262	-0.240
-162.793	207.923	-0.576	-0.890
-161.779	-10.635	0.197	-0.129
-160.764	-200.000	-0.050	-0.748
-159.750	21.773	0.279	-0.225
-158.735	-71.366	0.349	0.129
-157.720	-84.023	-0.190	0.060
-156.706	15.725	1.035	0.805
-155.691	-135.932	0.533	-0.062
-154.677	-84.980	-0.484	0.150
-153.662	-51.041	0.803	-0.373
-152.647	-95.957	-0.072	-0.019
-151.633	54.882	0.147	0.141
-150.618	14.269	0.413	-0.319
-149.604	800.000	-0.108	0.415
-148.589	-14.818	0.165	-0.105
-147.574	-0.731	-0.237	0.166
-146.560	800.000	0.131	0.541
-145.545	-100.798	-0.522	-0.127
-144.531	-139.512	0.895	0.095
-143.516	-108.887	-0.335	0.071
-142.502	126.964	0.037	0.047
-141.487	-6.710	-0.327	-0.220
-140.472	-186.724	0.182	0.003
-139.458	-161.929	-0.439	-0.022
-138.443	9.000	-0.104	0.078
-137.429	90.198	-0.327	0.361
-136.414	57.330	-0.350	-0.338
-135.399	-45.520	0.442	0.216
-134.385	-200.000	0.004	0.223
-133.370	5.182	-0.636	-0.463
-132.356	106.332	0.297	-0.348
-131.341	-57.879	0.515	-0.223
-130.326	-125.344	0.839	0.126
-129.312	-42.733	-0.375	-0.188
-128.297	-2.077	-0.107	-0.074
-127.283	540.029	-0.188	0.441
-126.268	422.890	-0.311	0.660
-125.253	-121.392	0.664	-0.109
-124.239	189.890	0.288	0.426
-123.224	608.218	-0.326	0.803
-122.210	135.964	0.273	0.352
-121.195	-33.047	0.440	0.241
