DTS Sentinel unit serial number:	SN413079Multiplexer serial number:	ORYXHardware model number:	OX4-SRSoftware version number:	ORYX F/W v4.00 Oryx Data Collector v3.7.2.0data status	okinstallation	princeton_trtdifferential loss correction	single-endedforward channel	channel 1reverse channel	N/Adate	2019/09/15time	07:02:35forward acquisition time	60.00reverse acquisition time	0.00gamma	496.2192k internal	0.2324k external	0.2324temperature offset calibration	0.9995default loss term (dB/km)	0.3790temperature slope calibration	1.0000multiplexer offset coefficient	1.0000multiplexer slope coefficient	1.0000fibre end	0.00T internal ref (°C)	30.50T ext. ref 1 (°C)	4.86T ext. ref 2 (°C)	25.59length (m)	temperature (°C)	Stokes	anti-Stokes-747.200	447.540	0.073	0.161
-746.185	-82.245	0.174	0.057
-745.171	-5.781	-0.056	0.039
-744.156	-80.081	-0.207	-0.070
-743.142	-24.614	-0.139	0.083
-742.127	-44.378	0.149	-0.075
-741.112	-200.000	0.000	-0.101
-740.098	201.775	-0.217	0.338
-739.083	-53.803	-0.312	-0.144
-738.069	-22.513	-0.186	0.114
-737.054	-20.489	0.310	0.192
-736.039	38.552	-0.033	0.030
-735.025	-200.000	0.035	0.360
-734.010	-117.516	0.051	-0.009
-732.996	49.880	0.104	-0.099
-731.981	274.408	0.139	-0.248
-730.966	7.247	-0.313	-0.236
-729.952	136.315	-0.187	0.246
-728.937	164.061	0.132	0.187
-727.923	57.151	0.092	0.091
-726.908	-41.434	-0.203	-0.106
-725.894	685.312	0.124	-0.326
-724.879	-1.144	-0.276	0.197
-723.864	37.279	0.109	0.097
-722.850	31.382	-0.225	0.195
-721.835	-4.682	-0.132	0.092
-720.821	-80.522	-0.244	-0.082
-719.806	42.008	-0.153	0.140
-718.791	-81.046	-0.213	-0.071
-717.777	317.956	-0.037	0.070
-716.762	-21.371	-0.192	0.118
-715.748	-195.084	-0.109	-0.001
-714.733	-200.000	-0.028	0.231
-713.718	-0.558	-0.227	-0.162
-712.704	47.014	-0.136	0.127
-711.689	284.240	0.126	-0.228
-710.675	72.085	0.299	-0.314
-709.660	-200.000	0.003	0.022
-708.645	-19.482	0.321	0.201
-707.631	-49.221	0.293	0.141
-706.616	-66.448	-0.202	-0.081
-705.602	-29.738	-0.148	-0.085
-704.587	434.651	0.117	-0.256
-703.572	165.073	0.194	0.276
-702.558	66.742	0.383	0.393
-701.543	-67.515	0.214	0.085
-700.529	5.324	-0.415	0.309
-699.514	800.000	-0.080	0.232
-698.499	-149.332	0.166	0.013
-697.485	-107.955	0.213	-0.047
-696.470	121.881	0.130	0.164
-695.456	-85.387	-0.256	0.080
-694.441	179.336	0.103	0.152
-693.426	216.454	-0.174	-0.280
-692.412	-74.403	-0.164	-0.060
-691.397	1.941	-0.176	-0.128
-690.383	5.754	0.362	0.269
-689.368	187.259	-0.091	-0.136
-688.354	20.765	0.113	-0.092
-687.339	-153.433	-0.218	0.015
-686.324	9.264	-0.110	0.084
-685.310	35.709	0.133	-0.117
-684.295	54.792	0.154	0.149
-683.281	11.948	-0.289	0.224
-682.266	55.939	-0.303	-0.296
-681.251	-200.000	0.030	-0.215
-680.237	131.300	-0.234	-0.303
-679.222	192.586	0.006	0.009
-678.208	-27.090	0.227	-0.133
-677.193	65.255	-0.166	-0.169
-676.178	657.531	0.008	-0.021
-675.164	-200.000	-0.047	-0.363
-674.149	-200.000	0.034	-0.197
-673.135	-194.309	0.244	0.002
-672.120	-84.450	0.215	-0.068
-671.105	169.579	0.096	-0.139
-670.091	39.444	0.014	-0.012
-669.076	-116.598	-0.142	-0.026
-668.062	776.622	0.049	-0.135
-667.047	33.200	0.120	0.105
-666.032	160.145	0.063	0.089
-665.018	65.098	0.133	0.136
-664.003	53.185	-0.106	0.102
-662.989	800.000	0.020	-0.075
-661.974	-200.000	-0.012	-0.216
-660.959	63.006	0.086	-0.086
-659.945	581.977	-0.076	0.188
-658.930	-150.562	-0.426	-0.033
-657.916	800.000	0.035	0.142
-656.901	-200.000	-0.038	-0.207
-655.886	145.156	0.198	-0.267
-654.872	326.552	0.098	-0.188
-653.857	-117.937	-0.310	0.056
-652.843	800.000	0.055	-0.225
-651.828	24.524	0.256	-0.213
-650.814	-200.000	-0.010	0.096
-649.799	-200.000	-0.015	0.079
-648.784	-158.904	0.487	-0.028
-647.770	-131.918	-0.227	0.030
-646.755	800.000	-0.054	0.162
-645.741	-2.253	-0.110	-0.077
-644.726	-146.218	-0.154	0.014
-643.711	-150.898	0.366	-0.028
-642.697	-50.662	-0.081	0.038
-641.682	-200.000	-0.004	0.128
-640.668	174.722	-0.159	-0.232
-639.653	92.708	0.125	0.142
-638.638	27.971	0.067	-0.057
-637.624	-200.000	-0.006	0.066
-636.609	62.390	-0.164	-0.165
-635.595	800.000	-0.040	0.118
-634.580	-200.000	-0.023	0.185
-633.565	16.600	-0.107	0.085
-632.551	-59.200	0.077	-0.033
-631.536	65.936	-0.120	-0.122
-630.522	-116.448	-0.225	-0.042
-629.507	-90.274	-0.194	0.057
-628.492	42.621	-0.097	-0.089
-627.478	297.013	0.104	0.192
-626.463	630.569	-0.120	0.304
-625.449	-200.000	0.056	0.784
-624.434	656.519	0.117	0.302
-623.419	-31.395	-0.200	-0.113
-622.405	-22.841	0.061	0.037
-621.390	-85.551	0.026	0.008
-620.376	308.957	0.075	-0.140
-619.361	87.702	0.175	0.195
-618.346	-23.291	0.411	-0.248
-617.332	-139.786	-0.399	-0.043
-616.317	-200.000	0.013	-0.281
-615.303	-200.000	0.012	-0.132
-614.288	-81.400	-0.340	0.113
-613.273	-111.872	-0.106	-0.021
-612.259	-108.610	-0.174	0.037
-611.244	-196.600	0.071	-0.000
-610.230	-1.461	-0.110	0.078
-609.215	-40.235	0.272	0.142
-608.201	-80.459	-0.255	-0.085
-607.186	-200.000	-0.023	-0.226
-606.171	-127.121	-0.104	-0.015
-605.157	-106.331	0.279	-0.063
-604.142	-200.000	-0.006	-0.053
-603.128	297.217	-0.212	-0.390
-602.113	-139.069	-0.353	0.038
-601.098	-200.000	0.007	-0.119
-600.084	-200.000	0.001	0.207
-599.069	30.800	-0.264	0.227
-598.055	-26.906	0.013	0.008
-597.040	-200.000	-0.023	-0.308
-596.025	-57.131	-0.507	-0.224
-595.011	206.677	-0.053	-0.083
-593.996	-35.888	0.182	0.099
-592.982	-52.862	-0.229	-0.106
-591.967	800.000	0.135	0.374
-590.952	-200.000	0.007	-0.058
-589.938	-57.629	-0.131	-0.058
-588.923	81.528	-0.249	-0.270
-587.909	-32.917	0.239	-0.133
-586.894	-200.000	0.012	0.123
-585.879	-57.941	0.264	0.115
-584.865	800.000	-0.077	-0.229
-583.850	-80.833	-0.176	0.058
-582.836	800.000	0.109	-0.383
-581.821	800.000	0.004	0.013
-580.806	-44.671	0.113	-0.057
-579.792	-200.000	-0.031	0.260
-578.777	-89.829	0.149	0.044
-577.763	-166.406	-0.168	-0.007
-576.748	436.722	0.063	0.137
-575.733	-168.671	-0.159	-0.006
-574.719	800.000	-0.058	0.164
-573.704	19.999	-0.243	-0.196
-572.690	-200.000	-0.015	-0.241
-571.675	-26.250	-0.351	-0.207
-570.661	-200.000	-0.002	0.061
-569.646	-46.466	0.048	-0.024
-568.631	-200.000	0.025	0.191
-567.617	-95.340	-0.173	0.047
-566.602	367.685	0.126	-0.254
-565.588	266.003	-0.122	0.214
-564.573	119.662	-0.046	-0.057
-563.558	77.142	-0.153	0.162
-562.544	-68.581	-0.416	-0.162
-561.529	-155.965	-0.268	-0.017
-560.515	-200.000	0.059	-0.261
-559.500	-200.000	0.030	-0.154
-558.485	671.805	0.115	-0.300
-557.471	5.941	0.081	-0.060
-556.456	-200.000	0.012	0.130
-555.442	20.533	0.243	-0.197
-554.427	457.498	0.068	0.151
-553.412	-55.537	-0.068	0.031
-552.398	-200.000	0.081	-0.455
-551.383	-89.188	0.378	-0.112
-550.369	605.823	-0.146	0.365
-549.354	167.381	0.280	-0.399
-548.339	-86.670	0.397	0.122
-547.325	410.640	0.137	0.292
-546.310	284.179	-0.217	-0.390
-545.296	-200.000	-0.038	-0.230
-544.281	800.000	0.039	0.121
-543.266	-200.000	-0.027	0.207
-542.252	-95.602	0.074	0.020
-541.237	370.514	0.069	-0.141
-540.223	-123.462	0.196	0.031
-539.208	226.089	-0.044	-0.072
-538.193	-200.000	0.047	-0.246
-537.179	-126.167	-0.129	0.019
-536.164	286.345	-0.092	0.167
-535.150	355.546	-0.087	-0.174
-534.135	243.583	0.188	0.315
-533.121	175.182	0.251	0.363
-532.106	-163.734	0.159	-0.007
-531.091	-134.612	-0.153	0.019
-530.077	-34.265	-0.438	-0.241
-529.062	48.776	-0.138	-0.130
-528.048	226.863	-0.100	0.162
-527.033	-65.518	-0.239	-0.096
-526.018	-101.740	-0.053	0.013
-525.004	449.633	0.094	0.207
-523.989	207.656	0.164	0.256
-522.975	-48.571	0.405	0.195
-521.960	800.000	-0.186	0.626
-520.945	-200.000	-0.002	0.323
-519.931	-200.000	0.007	-0.080
-518.916	183.060	0.184	0.272
-517.902	-200.000	-0.021	0.207
-516.887	266.274	-0.133	-0.232
-515.872	-200.000	-0.006	-0.174
-514.858	-140.221	-0.087	0.009
-513.843	-188.749	-0.160	-0.002
-512.829	356.697	0.164	0.327
-511.814	33.599	-0.092	-0.080
-510.799	800.000	-0.042	0.134
-509.785	209.078	0.261	0.409
-508.770	800.000	-0.119	-0.384
-507.756	114.705	0.206	-0.251
-506.741	-200.000	0.019	0.123
-505.726	3.963	-0.073	0.053
-504.712	-123.953	0.067	-0.010
-503.697	-51.041	0.095	0.045
-502.683	434.262	-0.218	0.474
-501.668	800.000	-0.047	0.194
-500.653	-42.437	-0.072	-0.037
-499.639	21.789	-0.094	0.077
-498.624	66.731	-0.274	0.279
-497.610	-200.000	0.010	-0.192
-496.595	-200.000	0.025	-0.194
-495.581	-21.408	0.052	0.031
-494.566	26.624	0.118	-0.099
-493.551	-97.643	-0.201	0.052
-492.537	-69.914	-0.101	-0.038
-491.522	94.646	-0.180	-0.205
-490.508	149.813	-0.150	0.204
-489.493	-16.882	-0.175	-0.110
-488.478	201.113	-0.136	-0.209
-487.464	800.000	-0.089	-0.287
-486.449	-172.818	0.179	-0.006
-485.435	-38.386	0.086	0.046
-484.420	-3.469	-0.169	-0.118
-483.405	235.611	-0.085	-0.140
-482.391	-91.495	0.291	-0.083
-481.376	336.832	0.163	0.317
-480.362	800.000	-0.040	-0.112
-479.347	-4.335	0.244	0.169
-478.332	-200.000	0.018	0.176
-477.318	256.383	-0.116	-0.199
-476.303	800.000	-0.046	-0.158
-475.289	800.000	-0.073	0.285
-474.274	-77.368	-0.201	0.070
-473.259	-200.000	-0.010	0.247
-472.245	-53.679	0.164	0.075
-471.230	-92.913	-0.151	0.042
-470.216	10.871	-0.311	-0.237
-469.201	-200.000	0.046	-0.290
-468.186	35.974	0.021	-0.018
-467.172	199.991	-0.138	-0.212
-466.157	-73.179	-0.263	-0.096
-465.143	-121.054	-0.238	0.040
-464.128	14.017	0.139	0.108
-463.113	-200.000	0.020	0.214
-462.099	549.727	0.064	0.153
-461.084	800.000	0.097	0.282
-460.070	-79.462	-0.321	0.108
-459.055	258.150	0.196	0.336
-458.040	-50.690	-0.285	-0.134
-457.026	-50.679	0.264	-0.124
-456.011	310.459	-0.107	-0.200
-454.997	-96.510	0.163	0.043
-453.982	18.441	0.086	0.068
-452.968	-200.000	0.034	0.159
-451.953	-103.971	0.337	0.078
-450.938	-56.620	-0.242	0.107
-449.924	-143.852	0.253	-0.024
-448.909	33.543	-0.012	0.011
-447.895	-173.022	0.201	-0.006
-446.880	-76.403	-0.378	-0.133
-445.865	95.844	0.225	-0.256
-444.851	800.000	0.044	-0.193
-443.836	-29.744	0.203	-0.116
-442.822	-170.988	-0.266	0.009
-441.807	122.598	-0.118	-0.148
-440.792	792.020	0.126	0.346
-439.778	267.830	0.062	0.109
-438.763	162.221	-0.068	0.094
-437.749	-188.204	0.066	-0.001
-436.734	800.000	-0.061	-0.249
-435.719	264.240	0.115	0.199
-434.705	800.000	0.026	-0.109
-433.690	-87.576	-0.220	-0.066
-432.676	184.474	0.033	-0.049
-431.661	-93.148	-0.215	0.060
-430.646	201.697	0.200	0.308
-429.632	-57.683	-0.061	-0.027
-428.617	-160.170	-0.156	0.008
-427.603	98.253	-0.118	0.136
-426.588	-200.000	-0.007	0.039
-425.573	-124.687	-0.590	0.091
-424.559	373.982	0.070	0.141
-423.544	-122.944	-0.173	-0.028
-422.530	-200.000	-0.003	-0.145
-421.515	-118.569	0.172	-0.030
-420.500	240.345	-0.120	0.199
-419.486	-12.538	0.078	0.051
-418.471	134.785	0.159	0.206
-417.457	51.921	-0.177	0.168
-416.442	275.288	0.169	-0.298
-415.428	-171.835	-0.202	0.007
-414.413	-200.000	0.026	-0.170
-413.398	97.739	0.235	-0.269
-412.384	697.322	0.119	0.311
-411.369	35.729	0.253	-0.221
-410.355	646.864	0.009	0.024
-409.340	-90.786	0.257	-0.074
-408.325	377.816	0.034	0.070
-407.311	25.731	-0.097	-0.080
-406.296	533.573	-0.047	-0.112
-405.282	-91.921	0.270	0.076
-404.267	178.456	0.153	-0.223
-403.252	158.187	0.271	0.374
-402.238	-171.024	0.536	-0.018
-401.223	26.592	0.129	0.108
-400.209	401.091	-0.034	-0.071
-399.194	26.507	-0.240	0.200
-398.179	185.183	-0.177	-0.261
-397.165	143.241	0.111	-0.147
-396.150	-126.381	-0.030	0.004
-395.136	800.000	-0.065	0.194
-394.121	16.525	-0.169	0.133
-393.106	-133.059	-0.152	0.019
-392.092	-71.883	-0.030	0.011
-391.077	800.000	0.078	-0.251
-390.063	-200.000	0.005	0.043
-389.048	-176.221	0.174	-0.005
-388.033	-164.666	-0.349	0.016
-387.019	179.753	-0.164	-0.239
-386.004	-200.000	0.018	0.369
-384.990	800.000	-0.029	0.089
-383.975	-200.000	-0.030	0.478
-382.960	-134.524	0.007	0.001
-381.946	-19.858	-0.245	-0.151
-380.931	111.607	-0.074	0.089
-379.917	-200.000	0.019	0.232
-378.902	-91.870	-0.178	-0.050
-377.888	671.585	0.063	-0.163
-376.873	108.714	0.187	0.223
-375.858	-86.878	-0.246	0.075
-374.844	159.121	-0.242	-0.335
-373.829	800.000	0.124	0.353
-372.815	-200.000	0.002	0.160
-371.800	-200.000	0.001	-0.127
-370.785	156.322	-0.119	-0.164
-369.771	26.193	-0.101	0.084
-368.756	-200.000	0.018	-0.156
-367.742	-26.206	0.381	-0.223
-366.727	-121.845	-0.113	-0.019
-365.712	93.867	-0.049	-0.056
-364.698	-86.937	0.218	0.066
-363.683	-79.230	0.144	0.049
-362.669	23.902	0.109	0.089
-361.654	180.693	-0.246	-0.360
-360.639	800.000	-0.068	0.188
-359.625	7.817	0.046	0.034
-358.610	756.542	0.033	0.090
-357.596	-44.119	0.280	0.140
-356.581	-200.000	-0.005	-0.156
-355.566	-88.097	-0.307	-0.092
-354.552	-26.699	-0.014	-0.008
-353.537	605.248	-0.045	-0.111
-352.523	-55.639	0.158	0.070
-351.508	-149.810	0.298	-0.023
-350.493	-200.000	0.059	0.534
-349.479	-114.913	-0.174	-0.033
-348.464	10.755	0.109	0.083
-347.450	-140.094	-0.213	-0.022
-346.435	178.519	-0.086	0.124
-345.420	28.730	0.340	0.286
-344.406	537.440	-0.052	-0.123
-343.391	91.691	-0.075	0.083
-342.377	10.718	0.184	0.139
-341.362	-78.328	0.230	0.078
-340.348	-74.107	-0.180	-0.065
-339.333	89.451	0.172	-0.191
-338.318	525.293	-0.062	0.146
-337.304	708.332	0.123	0.323
-336.289	800.000	-0.080	-0.230
-335.275	-200.000	0.021	-0.337
-334.260	33.479	-0.176	0.151
-333.245	-15.870	-0.329	-0.208
-332.231	-200.000	-0.109	-0.546
-331.216	-57.925	0.160	-0.070
-330.202	-90.927	0.289	-0.083
-329.187	-14.230	0.248	0.159
-328.172	-200.000	0.015	0.176
-327.158	-184.989	0.435	0.007
-326.143	-132.877	0.191	0.024
-325.129	-36.565	0.020	-0.011
-324.114	-58.634	0.212	0.091
-323.099	43.984	0.153	-0.139
-322.085	225.166	-0.056	-0.090
-321.070	59.135	-0.149	0.146
-320.056	800.000	-0.027	-0.110
-319.041	484.257	0.038	-0.087
-318.026	-42.579	0.158	-0.080
-317.012	-95.694	0.201	-0.053
-315.997	108.939	0.102	0.121
-314.983	-72.325	0.154	0.057
-313.968	170.490	-0.161	-0.229
-312.953	-20.908	-0.281	0.171
-311.939	-6.925	0.400	0.270
-310.924	65.765	0.149	0.150
-309.910	-113.394	0.331	0.065
-308.895	325.305	0.070	0.133
-307.880	-114.681	-0.404	0.077
-306.866	123.360	0.054	-0.067
-305.851	-27.759	0.051	-0.029
-304.837	21.470	0.050	-0.040
-303.822	156.494	-0.277	-0.379
-302.807	103.818	0.099	-0.115
-301.793	-98.842	-0.180	-0.045
-300.778	99.833	0.100	0.115
-299.764	-132.629	-0.089	0.011
-298.749	661.261	-0.114	-0.292
-297.735	109.559	0.062	-0.074
-296.720	-16.356	0.351	-0.221
-295.705	-42.169	0.247	0.125
-294.691	800.000	-0.126	0.513
-293.676	93.064	-0.052	-0.058
-292.662	-89.565	0.048	0.014
-291.647	-109.040	0.390	0.082
-290.632	48.406	0.173	0.161
-289.618	-77.339	0.328	0.113
-288.603	-180.358	0.188	-0.004
-287.589	7.709	-0.258	-0.192
-286.574	-200.000	-0.012	0.214
-285.559	800.000	-0.039	-0.131
-284.545	165.199	0.079	-0.111
-283.530	-64.593	-0.207	-0.083
-282.516	219.029	-0.042	-0.067
-281.501	-200.000	-0.020	0.557
-280.486	394.976	0.066	0.136
-279.472	589.219	0.130	0.317
-278.457	240.886	0.140	-0.232
-277.443	74.212	-0.321	0.334
-276.428	135.289	-0.055	0.071
-275.413	19.043	-0.046	-0.037
-274.399	-71.772	0.203	0.075
-273.384	64.898	-0.406	-0.406
-272.370	-144.750	0.201	-0.018
-271.355	-123.444	0.468	-0.074
-270.340	6.009	0.273	0.200
-269.326	324.364	0.110	-0.209
-268.311	-200.000	-0.007	0.271
-267.297	91.323	-0.119	0.132
-266.282	528.784	-0.096	0.224
-265.267	120.588	-0.050	-0.061
-264.253	-0.026	-0.369	-0.260
-263.238	800.000	0.058	-0.182
-262.224	65.009	0.226	0.226
-261.209	-200.000	0.012	0.121
-260.195	-200.000	0.015	0.125
-259.180	-26.286	-0.185	0.107
-258.165	-76.642	0.086	-0.030
-257.151	-200.000	0.019	-0.152
-256.136	-70.632	-0.186	-0.070
-255.122	-200.000	0.036	-0.183
-254.107	-106.450	0.066	-0.015
-253.092	181.324	0.112	0.163
-252.078	-200.000	0.010	0.149
-251.063	-200.000	0.031	0.141
-250.049	253.872	0.141	-0.239
-249.034	-200.000	0.005	-0.168
-248.019	-4.720	-0.109	0.074
-247.005	457.937	-0.156	0.343
-245.990	-180.581	0.188	0.004
-244.976	56.481	0.111	0.107
-243.961	42.132	0.088	-0.079
-242.946	-115.173	-0.279	-0.052
-241.932	-200.000	0.049	-0.265
-240.917	-200.000	0.070	-0.503
-239.903	800.000	-0.075	-0.289
-238.888	800.000	0.127	0.353
-237.873	-200.000	0.005	0.034
-236.859	-125.924	0.139	0.021
-235.844	-200.000	-0.016	0.132
-234.830	-200.000	-0.014	0.337
-233.815	55.725	-0.042	-0.040
-232.800	800.000	-0.065	-0.191
-231.786	-200.000	-0.032	-0.309
-230.771	85.583	0.139	-0.151
-229.757	-111.580	0.368	-0.074
-228.742	-200.000	-0.045	-0.222
-227.727	-87.031	-0.373	0.112
-226.713	393.526	-0.091	0.188
-225.698	114.766	0.157	-0.189
-224.684	36.796	-0.124	-0.108
-223.669	-93.764	-0.462	0.126
-222.655	-104.827	-0.057	0.013
-221.640	-141.994	-0.336	-0.033
-220.625	-200.000	0.085	0.582
-219.611	204.704	0.093	0.142
-218.596	-61.085	0.185	-0.077
-217.582	110.340	0.112	-0.133
-216.567	-95.499	0.127	0.034
-215.552	-135.237	-0.386	-0.046
-214.538	800.000	-0.061	-0.231
-213.523	-19.021	-0.109	-0.067
-212.509	-21.380	-0.232	-0.140
-211.494	-133.652	0.347	-0.043
-210.479	214.568	0.204	0.319
-209.465	-37.443	0.181	-0.096
-208.450	-92.919	0.361	0.100
-207.436	81.696	0.160	-0.171
-206.421	-200.000	0.040	-0.217
-205.406	-89.810	-0.198	-0.057
-204.392	279.007	0.162	-0.286
-203.377	201.973	-0.157	-0.239
-202.363	-19.441	-0.355	-0.218
-201.348	102.518	-0.139	-0.160
-200.333	-138.293	-0.417	-0.046
-199.319	48.900	-0.209	0.193
-198.304	12.617	0.150	0.114
-197.290	-134.894	-0.172	0.021
-196.275	-200.000	-0.004	-0.072
-195.260	-73.604	0.067	0.024
-194.246	26.947	0.205	0.170
-193.231	800.000	-0.045	-0.155
-192.217	-200.000	-0.062	0.356
-191.202	17.140	0.088	0.069
-190.187	-152.203	0.003	-0.000
-189.173	-200.000	-0.024	-0.232
-188.158	800.000	-0.113	-0.367
-187.144	-115.634	-0.067	-0.012
-186.129	-142.206	0.301	0.029
-185.114	-84.921	0.183	0.057
-184.100	-177.363	0.289	0.007
-183.085	24.457	0.096	-0.078
-182.071	-200.000	0.025	0.158
-181.056	354.057	-0.120	-0.235
-180.042	92.135	0.157	-0.174
-179.027	745.578	-0.112	0.297
-178.012	-119.088	0.191	-0.033
-176.998	122.912	-0.314	-0.388
-175.983	5.698	-0.208	-0.152
-174.969	-82.985	-0.313	0.100
-173.954	111.687	0.079	-0.094
-172.939	-200.000	-0.284	0.001
-171.925	83.275	-0.014	-0.015
-170.910	9.483	-0.306	0.229
-169.896	-162.874	0.264	0.013
-168.881	-131.277	0.361	-0.047
-167.866	155.594	0.080	-0.108
-166.852	800.000	-0.063	-0.180
-165.837	-117.247	0.332	0.059
-164.823	-76.505	0.298	0.103
-163.808	-24.806	0.329	-0.193
-162.793	-200.000	0.009	-0.108
-161.779	-200.000	0.063	-0.305
-160.764	106.338	-0.237	-0.277
-159.750	25.418	0.233	-0.191
-158.735	-200.000	0.029	-0.165
-157.720	212.332	-0.200	-0.310
-156.706	-184.777	-0.077	-0.001
-155.691	-24.880	0.110	-0.064
-154.677	177.756	0.126	-0.181
-153.662	61.547	-0.159	0.156
-152.647	-142.339	-0.021	0.002
-151.633	800.000	0.044	0.183
-150.618	-121.737	0.306	-0.050
-149.604	-147.889	0.348	0.029
-148.589	-72.775	0.375	0.136
-147.574	-200.000	-0.002	0.063
-146.560	-30.673	0.256	-0.143
-145.545	-22.877	-0.264	0.157
-144.531	88.776	0.086	0.094
-143.516	270.121	0.115	0.200
-142.502	617.091	-0.151	0.375
-141.487	45.463	-0.203	0.185
-140.472	84.948	-0.251	0.271
-139.458	327.597	0.169	0.320
-138.443	-200.000	-0.010	0.192
-137.429	419.509	0.024	-0.051
-136.414	126.224	0.127	0.158
-135.399	194.575	-0.014	0.021
-134.385	270.902	0.136	-0.235
-133.370	800.000	-0.032	0.089
-132.356	800.000	-0.073	0.200
-131.341	63.165	0.117	0.116
-130.326	-105.672	-0.165	0.037
-129.312	-133.166	-0.184	0.023
-128.297	-99.501	0.178	-0.044
-127.283	-69.199	-0.064	0.024
-126.268	-50.537	-0.244	0.113
-125.253	66.202	0.149	-0.149
-124.239	-8.470	0.226	0.150
-123.224	-153.907	0.206	0.014
-122.210	320.518	0.052	0.098
-121.195	106.529	-0.161	0.188
-120.180	-45.621	0.080	0.039
