DTS Sentinel unit serial number:	SN413079Multiplexer serial number:	ORYXHardware model number:	OX4-SRSoftware version number:	ORYX F/W v4.00 Oryx Data Collector v3.7.2.0data status	okinstallation	princeton_trtdifferential loss correction	single-endedforward channel	channel 1reverse channel	N/Adate	2019/09/16time	17:18:35forward acquisition time	60.00reverse acquisition time	0.00gamma	496.2192k internal	0.2297k external	0.2297temperature offset calibration	0.9963default loss term (dB/km)	0.3790temperature slope calibration	1.0000multiplexer offset coefficient	1.0000multiplexer slope coefficient	1.0000fibre end	0.00T internal ref (°C)	38.81T ext. ref 1 (°C)	15.40T ext. ref 2 (°C)	32.86length (m)	temperature (°C)	Stokes	anti-Stokes-747.200	9.169	0.106	-0.082
-746.185	-163.899	-0.266	-0.013
-745.171	-128.226	-0.184	-0.027
-744.156	236.377	0.085	0.144
-743.142	107.667	-0.093	-0.113
-742.127	-34.315	-0.217	-0.122
-741.112	-104.734	0.155	0.036
-740.098	-38.291	-0.422	0.229
-739.083	20.761	0.075	-0.062
-738.069	800.000	-0.097	0.387
-737.054	-73.621	-0.393	0.146
-736.039	-200.000	0.006	-0.050
-735.025	51.510	0.092	-0.090
-734.010	-112.084	0.421	-0.086
-732.996	-200.000	0.001	-0.236
-731.981	-50.067	-0.167	0.081
-730.966	336.713	0.081	0.161
-729.952	797.165	-0.054	-0.153
-728.937	137.501	-0.053	-0.071
-727.923	800.000	0.036	-0.138
-726.908	58.606	-0.307	-0.308
-725.894	-54.012	-0.391	-0.182
-724.879	12.722	-0.134	0.105
-723.864	-81.411	-0.243	-0.082
-722.850	800.000	-0.056	0.168
-721.835	-2.930	-0.094	0.067
-720.821	-200.000	-0.007	0.310
-719.806	321.949	-0.153	-0.297
-718.791	-165.038	0.190	-0.009
-717.777	136.649	0.103	0.137
-716.762	800.000	-0.127	-0.425
-715.748	-53.575	0.310	0.145
-714.733	141.913	0.110	0.149
-713.718	-141.522	-0.112	0.012
-712.704	237.417	-0.125	-0.211
-711.689	-7.738	0.295	-0.203
-710.675	-31.634	0.197	-0.113
-709.660	-200.000	-0.031	0.287
-708.645	311.731	0.047	0.090
-707.631	-200.000	0.041	-0.278
-706.616	133.682	0.217	0.286
-705.602	-44.914	-0.295	0.150
-704.587	-25.009	0.222	-0.134
-703.572	-200.000	-0.007	0.419
-702.558	-83.143	-0.198	0.065
-701.543	498.792	0.198	-0.465
-700.529	2.542	-0.077	-0.057
-699.514	800.000	-0.019	0.074
-698.499	-43.501	-0.344	-0.177
-697.485	383.461	0.109	-0.228
-696.470	139.151	-0.092	-0.123
-695.456	6.204	0.215	-0.163
-694.441	800.000	0.101	-0.288
-693.426	-200.000	0.077	-0.442
-692.412	800.000	-0.097	-0.333
-691.397	-200.000	-0.005	0.110
-690.383	275.724	-0.198	-0.358
-689.368	9.851	0.037	0.029
-688.354	-15.323	-0.406	0.265
-687.339	305.315	0.125	-0.236
-686.324	466.403	-0.122	0.279
-685.310	72.696	-0.189	0.201
-684.295	-49.895	0.060	-0.029
-683.281	-19.023	-0.250	-0.158
-682.266	550.762	0.048	-0.117
-681.251	-66.861	-0.133	0.054
-680.237	126.800	0.071	0.092
-679.222	-27.502	-0.375	-0.222
-678.208	120.140	-0.198	-0.251
-677.193	193.597	-0.037	0.057
-676.178	21.903	0.164	-0.136
-675.164	-200.000	0.057	-0.299
-674.149	-72.889	0.157	0.059
-673.135	-38.647	0.081	-0.044
-672.120	-46.915	-0.104	-0.052
-671.105	673.511	-0.065	-0.173
-670.091	-102.465	-0.183	-0.045
-669.076	-200.000	0.006	0.156
-668.062	-200.000	0.008	0.051
-667.047	-78.985	-0.320	-0.111
-666.032	-200.000	-0.012	-0.151
-665.018	30.856	-0.126	0.110
-664.003	215.460	-0.147	-0.238
-662.989	-82.563	0.303	-0.100
-661.974	368.097	0.108	-0.222
-660.959	100.429	0.091	0.108
-659.945	-143.027	0.179	0.018
-658.930	226.744	-0.074	0.123
-657.916	24.530	-0.234	0.197
-656.901	180.081	-0.050	-0.074
-655.886	800.000	-0.063	0.220
-654.872	-12.116	0.099	-0.066
-653.857	-200.000	0.087	-0.418
-652.843	-161.781	-0.117	0.006
-651.828	-46.832	0.214	-0.107
-650.814	-50.682	0.253	-0.121
-649.799	-169.397	0.492	0.018
-648.784	-142.616	-0.108	0.011
-647.770	-16.829	0.270	0.173
-646.755	378.950	-0.077	0.160
-645.741	-41.214	-0.343	-0.180
-644.726	-159.704	0.205	0.012
-643.711	16.263	-0.038	0.031
-642.697	559.711	-0.133	0.326
-641.682	-200.000	-0.041	0.218
-640.668	-200.000	-0.093	0.553
-639.653	-200.000	-0.046	-0.389
-638.638	-200.000	0.090	0.426
-637.624	-90.296	-0.053	-0.016
-636.609	382.749	-0.095	-0.198
-635.595	6.477	-0.130	0.099
-634.580	478.558	-0.033	0.076
-633.565	25.342	0.348	0.294
-632.551	-182.760	0.304	0.006
-631.536	2.957	-0.208	-0.154
-630.522	-140.448	0.230	-0.024
-629.507	-92.145	-0.159	0.046
-628.492	36.398	0.162	0.145
-627.478	-91.034	0.183	-0.053
-626.463	548.428	-0.091	-0.220
-625.449	245.495	-0.008	0.014
-624.434	-200.000	-0.006	-0.045
-623.419	800.000	0.121	-0.496
-622.405	317.587	0.106	-0.204
-621.390	-88.226	0.224	0.068
-620.376	-200.000	0.001	-0.061
-619.361	-90.903	0.266	0.078
-618.346	-104.313	0.187	0.044
-617.332	-109.477	-0.348	0.075
-616.317	-200.000	0.017	-0.156
-615.303	-100.873	0.324	-0.081
-614.288	800.000	0.037	-0.153
-613.273	-165.954	-0.175	-0.008
-612.259	26.505	-0.259	-0.220
-611.244	-195.781	-0.167	-0.001
-610.230	-2.239	0.097	-0.069
-609.215	-148.834	-0.069	-0.006
-608.201	388.190	-0.123	0.259
-607.186	7.181	-0.030	-0.022
-606.171	24.667	-0.020	-0.017
-605.157	97.181	0.115	0.134
-604.142	12.370	-0.405	-0.317
-603.128	-200.000	-0.016	0.175
-602.113	-9.179	0.112	-0.076
-601.098	-46.646	-0.092	0.046
-600.084	223.482	-0.138	0.227
-599.069	1.454	-0.108	-0.079
-598.055	-25.783	-0.094	-0.056
-597.040	-120.969	-0.218	-0.037
-596.025	-70.713	-0.332	0.127
-595.011	-100.698	-0.156	0.039
-593.996	-92.576	0.284	-0.081
-592.982	-15.627	0.128	-0.083
-591.967	-200.000	-0.043	-0.215
-590.952	800.000	-0.052	0.193
-589.938	-113.359	0.163	0.032
-588.923	10.314	-0.062	-0.048
-587.909	-56.255	-0.152	0.069
-586.894	-200.000	-0.019	-0.283
-585.879	416.967	-0.020	-0.043
-584.865	-161.896	0.257	-0.013
-583.850	800.000	-0.051	-0.146
-582.836	-146.160	-0.204	0.018
-581.821	39.380	0.432	-0.393
-580.806	6.911	-0.103	0.078
-579.792	150.212	-0.038	-0.052
-578.777	51.718	0.109	-0.105
-577.763	-116.967	0.191	0.035
-576.748	585.038	0.145	0.361
-575.733	800.000	0.057	0.207
-574.719	800.000	-0.036	-0.105
-573.704	49.282	-0.130	0.124
-572.690	5.251	-0.109	0.082
-571.675	800.000	-0.075	0.278
-570.661	-11.815	0.087	-0.058
-569.646	488.508	-0.065	0.150
-568.631	-200.000	0.019	-0.195
-567.617	-61.682	-0.218	0.093
-566.602	-198.804	-0.402	-0.002
-565.588	325.182	-0.048	-0.092
-564.573	107.312	-0.100	0.120
-563.558	-185.836	-0.023	-0.000
-562.544	97.867	-0.380	0.443
-561.529	-200.000	0.015	0.207
-560.515	103.211	-0.092	0.110
-559.500	610.092	0.068	0.172
-558.485	-117.831	0.092	0.017
-557.471	429.955	-0.005	-0.011
-556.456	-200.000	-0.043	0.418
-555.442	-86.012	-0.195	0.061
-554.427	-169.027	0.262	0.010
-553.412	718.565	0.088	-0.236
-552.398	119.049	-0.143	-0.180
-551.383	509.671	-0.076	0.179
-550.369	800.000	-0.031	0.098
-549.354	-76.100	-0.341	0.122
-548.339	-63.831	0.331	-0.137
-547.325	-200.000	-0.003	0.216
-546.310	125.095	-0.224	0.286
-545.296	-11.855	-0.212	0.141
-544.281	37.467	-0.071	0.064
-543.266	264.879	0.144	-0.255
-542.252	71.684	0.052	-0.055
-541.237	-126.652	0.111	-0.017
-540.223	29.312	-0.195	-0.168
-539.208	-82.617	-0.206	0.068
-538.193	313.775	0.127	-0.242
-537.179	669.656	0.130	-0.342
-536.164	-200.000	0.012	0.111
-535.150	-200.000	0.000	0.479
-534.135	-58.908	0.183	0.080
-533.121	-56.264	0.109	0.049
-532.106	-200.000	-0.007	0.187
-531.091	-200.000	0.004	0.219
-530.077	-200.000	0.008	0.039
-529.062	-146.437	0.213	0.019
-528.048	-200.000	-0.030	-0.244
-527.033	-49.430	0.242	-0.117
-526.018	-62.044	-0.178	-0.075
-525.004	-200.000	0.003	-0.088
-523.989	-83.643	-0.172	0.056
-522.975	-200.000	-0.004	0.572
-521.960	-102.615	0.225	-0.054
-520.945	-63.740	-0.335	0.139
-519.931	-200.000	-0.024	0.137
-518.916	39.946	0.306	-0.278
-517.902	800.000	0.028	0.100
-516.887	-55.497	0.139	-0.063
-515.872	37.797	-0.040	-0.036
-514.858	310.942	0.111	-0.210
-513.843	668.151	0.031	-0.081
-512.829	22.254	-0.336	0.278
-511.814	350.423	-0.145	-0.291
-510.799	41.480	0.120	-0.110
-509.785	190.182	0.127	0.193
-508.770	-200.000	0.295	0.000
-507.756	373.451	-0.031	-0.065
-506.741	218.077	-0.169	-0.272
-505.726	-200.000	-0.014	-0.077
-504.712	78.767	-0.090	0.097
-503.697	800.000	-0.037	0.123
-502.683	227.309	0.139	-0.228
-501.668	800.000	0.078	-0.249
-500.653	120.884	0.148	-0.186
-499.639	192.012	-0.251	0.382
-498.624	-134.886	0.173	0.021
-497.610	69.155	0.279	-0.290
-496.595	-10.212	0.047	-0.032
-495.581	194.502	0.182	-0.280
-494.566	-200.000	-0.107	-0.516
-493.551	800.000	0.136	-0.567
-492.537	614.949	0.062	-0.156
-491.522	-55.525	0.302	0.137
-490.508	800.000	0.043	0.127
-489.493	-200.000	0.050	-0.377
-488.478	-200.000	-0.041	-0.625
-487.464	-200.000	-0.008	-0.320
-486.449	687.898	0.083	-0.221
-485.435	-31.216	-0.291	-0.166
-484.420	40.279	-0.234	-0.213
-483.405	19.027	0.295	-0.239
-482.391	219.197	0.062	-0.100
-481.376	-200.000	-0.045	0.220
-480.362	132.242	-0.050	0.066
-479.347	800.000	0.055	-0.178
-478.332	48.933	-0.220	-0.209
-477.318	46.605	-0.136	0.128
-476.303	-61.748	0.265	0.112
-475.289	-81.054	-0.083	0.028
-474.274	-24.938	-0.029	-0.017
-473.259	51.912	-0.223	0.214
-472.245	-20.031	0.090	0.056
-471.230	-150.523	-0.094	-0.007
-470.216	-200.000	0.040	-0.382
-469.201	38.586	-0.122	-0.110
-468.186	-122.625	0.406	0.067
-467.172	198.201	0.093	-0.144
-466.157	-200.000	0.041	-0.206
-465.143	800.000	-0.081	0.234
-464.128	-57.867	-0.260	-0.115
-463.113	-200.000	0.010	0.110
-462.099	-200.000	-0.018	-0.121
-461.084	50.751	0.276	0.264
-460.070	800.000	-0.058	0.220
-459.055	29.998	-0.252	0.217
-458.040	800.000	0.045	-0.170
-457.026	55.536	-0.123	-0.120
-456.011	-76.278	0.042	0.015
-454.997	151.870	-0.152	0.209
-453.982	-25.949	0.119	-0.071
-452.968	124.334	0.054	-0.068
-451.953	83.485	-0.152	0.167
-450.938	-103.041	-0.253	-0.061
-449.924	-100.493	-0.196	-0.049
-448.909	-102.881	-0.101	0.024
-447.895	-117.476	-0.361	0.066
-446.880	-52.792	0.234	-0.109
-445.865	-104.915	0.268	0.062
-444.851	-200.000	0.043	0.329
-443.836	-200.000	0.032	-0.185
-442.822	-43.420	-0.141	0.072
-441.807	-67.932	-0.707	0.279
-440.792	-122.735	-0.097	-0.016
-439.778	-56.432	0.445	0.199
-438.763	-44.112	0.075	-0.038
-437.749	-200.000	0.019	0.178
-436.734	110.749	0.168	0.204
-435.719	179.845	0.027	-0.040
-434.705	81.943	-0.230	-0.252
-433.690	-42.136	0.255	-0.132
-432.676	27.516	-0.039	-0.033
-431.661	-33.559	0.140	-0.078
-430.646	83.650	0.079	-0.087
-429.632	760.949	-0.053	0.145
-428.617	800.000	0.077	0.284
-427.603	-138.549	0.235	0.026
-426.588	158.823	-0.102	0.143
-425.573	461.437	0.035	0.078
-424.559	255.193	-0.089	0.154
-423.544	-0.697	-0.057	0.041
-422.530	54.754	0.265	0.257
-421.515	-18.539	-0.190	-0.120
-420.500	84.359	-0.076	-0.084
-419.486	-200.000	-0.059	-0.315
-418.471	-9.762	-0.147	-0.098
-417.457	-12.475	-0.175	0.115
-416.442	-25.254	-0.032	-0.019
-415.428	-19.442	0.152	0.095
-414.413	-200.000	-0.251	-0.000
-413.398	-56.673	0.131	0.059
-412.384	-189.909	0.263	-0.003
-411.369	800.000	0.028	-0.094
-410.355	-200.000	0.002	-0.082
-409.340	3.086	0.342	0.251
-408.325	25.234	0.127	0.106
-407.311	-40.484	-0.153	0.080
-406.296	110.680	-0.104	0.126
-405.282	52.195	-0.033	-0.031
-404.267	-119.291	0.140	-0.025
-403.252	53.320	-0.053	0.051
-402.238	638.003	-0.034	0.088
-401.223	76.523	-0.198	-0.212
-400.209	-136.051	0.226	-0.027
-399.194	-71.099	-0.135	-0.051
-398.179	330.481	0.029	0.055
-397.165	130.339	0.134	0.174
-396.150	-200.000	-0.013	-0.074
-395.136	-79.489	-0.187	0.064
-394.121	-109.481	0.180	-0.038
-393.106	12.534	-0.282	0.219
-392.092	41.675	0.054	0.049
-391.077	-200.000	0.003	-0.143
-390.063	-75.437	0.048	-0.017
-389.048	626.841	-0.100	-0.254
-388.033	157.225	0.196	0.273
-387.019	-200.000	0.001	0.177
-386.004	359.905	-0.033	-0.066
-384.990	-76.940	0.221	0.078
-383.975	-159.974	-0.202	0.011
-382.960	-32.231	-0.223	0.126
-381.946	-200.000	0.032	0.141
-380.931	-200.000	0.004	-0.121
-379.917	-200.000	0.023	0.236
-378.902	-200.000	-0.021	-0.122
-377.888	-137.258	0.361	-0.041
-376.873	-200.000	0.027	-0.293
-375.858	68.564	-0.106	0.110
-374.844	226.310	-0.062	0.101
-373.829	122.027	-0.076	-0.095
-372.815	133.260	0.018	0.023
-371.800	-105.838	-0.444	0.101
-370.785	-34.503	0.335	0.185
-369.771	-52.775	0.213	0.099
-368.756	-114.761	-0.078	-0.015
-367.742	-6.959	0.195	0.133
-366.727	-30.910	-0.292	-0.166
-365.712	-200.000	0.058	0.288
-364.698	475.522	0.093	0.212
-363.683	-75.472	-0.312	-0.112
-362.669	-200.000	-0.021	-0.243
-361.654	-192.949	0.527	-0.005
-360.639	-102.031	-0.147	0.036
-359.625	4.626	-0.144	-0.106
-358.610	232.444	-0.063	0.104
-357.596	-128.940	0.160	-0.023
-356.581	-200.000	0.002	-0.308
-355.566	-93.128	-0.235	0.066
-354.552	-98.400	0.233	-0.060
-353.537	44.105	0.191	0.176
-352.523	-200.000	0.030	0.147
-351.508	-117.212	0.161	-0.029
-350.493	-200.000	0.011	-0.393
-349.479	-24.277	-0.180	0.108
-348.464	22.248	0.130	-0.106
-347.450	-200.000	0.286	0.000
-346.435	209.426	0.123	0.194
-345.420	-88.915	-0.111	0.033
-344.406	-200.000	0.014	0.000
-343.391	340.939	0.120	-0.235
-342.377	497.845	-0.016	0.037
-341.362	135.911	-0.160	-0.209
-340.348	-14.211	-0.211	0.137
-339.333	283.408	0.097	-0.174
-338.318	-166.992	-0.255	0.010
-337.304	-76.961	-0.200	0.070
-336.289	211.859	-0.141	0.223
-335.275	161.606	-0.144	-0.203
-334.260	-1.023	-0.037	0.026
-333.245	-67.034	0.238	-0.094
-332.231	-10.438	-0.081	-0.054
-331.216	-137.329	-0.414	-0.047
-330.202	-20.313	0.122	-0.076
-329.187	316.996	-0.131	-0.249
-328.172	-9.255	-0.102	0.068
-327.158	800.000	-0.037	0.129
-326.143	88.715	-0.336	0.375
-325.129	-183.051	0.076	-0.001
-324.114	1.245	-0.079	-0.057
-323.099	407.544	-0.055	0.117
-322.085	39.688	0.165	-0.149
-321.070	11.323	0.041	0.032
-320.056	103.227	-0.203	0.240
-319.041	-18.581	0.225	-0.141
-318.026	800.000	-0.026	-0.112
-317.012	-67.619	-0.177	-0.069
-315.997	-200.000	-0.032	0.227
-314.983	510.034	-0.075	0.175
-313.968	-118.408	0.104	-0.019
-312.953	28.917	0.203	-0.173
-311.939	-200.000	0.007	-0.487
-310.924	-47.641	0.177	0.086
-309.910	57.125	-0.156	-0.153
-308.895	-200.000	0.001	-0.114
-307.880	652.197	0.148	-0.380
-306.866	224.970	-0.085	-0.137
-305.851	156.226	0.114	-0.158
-304.837	-15.280	0.212	0.136
-303.822	88.569	0.325	0.362
-302.807	41.046	-0.214	0.194
-301.793	425.291	0.084	0.181
-300.778	-51.064	-0.155	0.073
-299.764	171.691	0.169	-0.244
-298.749	-84.271	-0.308	0.098
-297.735	43.660	-0.048	0.044
-296.720	-84.752	-0.457	0.144
-295.705	6.416	0.237	-0.177
-294.691	-200.000	0.056	-0.247
-293.676	-13.974	0.116	0.075
-292.662	36.010	0.040	0.036
-291.647	-136.041	-0.201	0.024
-290.632	64.996	-0.103	0.104
-289.618	-200.000	-0.085	0.000
-288.603	-200.000	-0.005	0.346
-287.589	11.134	-0.154	-0.118
-286.574	-200.000	0.039	0.197
-285.559	-200.000	0.001	0.027
-284.545	-10.312	0.119	0.079
-283.530	-129.761	-0.398	-0.055
-282.516	75.251	-0.189	-0.200
-281.501	471.622	-0.150	0.338
-280.486	23.424	-0.035	0.029
-279.472	-105.997	-0.118	0.027
-278.457	264.497	0.133	0.232
-277.443	142.383	0.070	-0.093
-276.428	72.221	-0.075	0.078
-275.413	-200.000	0.033	-0.227
-274.399	-200.000	-0.005	0.030
-273.384	679.665	-0.069	0.181
-272.370	-200.000	-0.001	0.051
-271.355	121.492	0.137	-0.171
-270.340	-200.000	0.052	-0.426
-269.326	-200.000	0.024	0.187
-268.311	64.771	-0.137	-0.138
-267.297	-67.187	-0.158	-0.062
-266.282	607.392	-0.100	0.250
-265.267	800.000	0.055	0.204
-264.253	60.264	0.085	0.085
-263.238	-20.883	-0.179	0.110
-262.224	-62.184	-0.281	-0.117
-261.209	-200.000	0.006	0.099
-260.195	-171.294	0.244	-0.008
-259.180	96.085	-0.074	-0.085
-258.165	-200.000	0.027	0.188
-257.151	129.073	-0.151	0.193
-256.136	329.976	0.124	0.239
-255.122	97.876	-0.043	-0.050
-254.107	191.902	-0.045	0.068
-253.092	-72.580	0.153	-0.056
-252.078	-103.957	0.360	0.084
-251.063	384.081	0.058	-0.121
-250.049	-200.000	-0.043	-0.224
-249.034	21.248	0.024	-0.019
-248.019	-27.087	-0.224	-0.131
-247.005	168.227	0.038	-0.054
-245.990	-28.183	-0.153	-0.089
-244.976	161.649	0.242	0.340
-243.961	800.000	-0.023	-0.091
-242.946	47.420	0.294	-0.275
-241.932	-200.000	0.088	-0.436
-240.917	179.528	0.148	0.217
-239.903	-200.000	0.031	-0.162
-238.888	800.000	0.080	0.238
-237.873	-128.879	0.043	-0.006
-236.859	-21.885	0.160	0.097
-235.844	800.000	0.049	-0.197
-234.830	-128.640	-0.146	0.021
-233.815	-200.000	-0.021	-0.147
-232.800	-130.375	0.257	-0.035
-231.786	173.634	0.057	0.082
-230.771	800.000	-0.026	-0.107
-229.757	787.410	-0.077	0.212
-228.742	674.924	-0.181	0.469
-227.727	482.936	0.208	-0.474
-226.713	131.692	-0.152	-0.196
-225.698	-200.000	-0.005	-0.303
-224.684	-24.089	-0.159	-0.095
-223.669	-200.000	0.002	0.158
-222.655	366.325	0.140	0.283
-221.640	-158.851	0.150	0.009
-220.625	85.683	0.152	0.167
-219.611	-154.093	0.219	-0.015
-218.596	631.313	-0.065	0.164
-217.582	-200.000	-0.030	-0.181
-216.567	-49.633	0.211	0.100
-215.552	-129.694	0.310	0.043
-214.538	-86.112	0.178	-0.055
-213.523	42.339	-0.151	-0.137
-212.509	-65.707	-0.272	0.109
-211.494	-42.138	-0.040	0.020
-210.479	-157.340	-0.302	0.018
-209.465	-68.172	0.318	-0.124
-208.450	-200.000	-0.058	0.265
-207.436	22.626	-0.197	0.161
-206.421	-79.490	-0.190	-0.064
-205.406	800.000	-0.096	0.299
-204.392	412.959	0.061	-0.130
-203.377	34.729	0.253	0.221
-202.363	781.986	0.030	0.082
-201.348	-200.000	0.008	-0.146
-200.333	31.698	0.280	-0.240
-199.319	-200.000	-0.041	-0.191
-198.304	137.478	-0.069	-0.090
-197.290	-61.926	0.220	-0.092
-196.275	-81.523	-0.239	0.078
-195.260	41.476	-0.077	-0.069
-194.246	-200.000	-0.064	-0.338
-193.231	-64.937	-0.334	-0.135
-192.217	-56.745	-0.061	0.027
-191.202	731.271	-0.070	-0.188
-190.187	16.350	0.116	-0.091
-189.173	800.000	0.060	-0.191
-188.158	-200.000	-0.014	0.097
-187.144	-27.634	-0.167	0.097
-186.129	-200.000	0.050	0.347
-185.114	-200.000	-0.036	0.309
-184.100	-200.000	-0.014	-0.098
-183.085	-103.733	0.194	0.045
-182.071	-41.648	-0.126	-0.065
-181.056	592.022	-0.083	0.204
-180.042	545.748	-0.067	-0.160
-179.027	-76.312	0.093	0.033
-178.012	-200.000	0.043	-0.333
-176.998	61.250	0.331	-0.328
-175.983	-200.000	0.042	-0.258
-174.969	78.725	-0.091	-0.097
-173.954	-158.711	0.239	-0.014
-172.939	-165.752	-0.171	0.007
-171.925	-7.517	0.288	-0.195
-170.910	-71.054	0.245	0.092
-169.896	-124.583	0.183	0.028
-168.881	178.896	0.241	-0.351
-167.866	290.007	-0.115	0.209
-166.852	239.282	-0.190	0.316
-165.837	-13.039	-0.177	0.115
-164.823	-130.735	-0.179	-0.024
-163.808	-122.465	0.014	-0.002
-162.793	-200.000	0.064	0.326
-161.779	56.427	-0.074	-0.072
-160.764	800.000	-0.020	-0.063
-159.750	647.731	0.078	-0.199
-158.735	-26.962	0.024	-0.014
-157.720	-111.423	0.073	0.015
-156.706	-200.000	0.001	-0.018
-155.691	251.105	0.180	0.306
-154.677	-54.557	0.235	-0.106
-153.662	161.264	-0.159	0.222
-152.647	800.000	-0.035	-0.133
-151.633	-149.077	0.294	0.024
-150.618	-162.825	0.446	-0.022
-149.604	216.924	0.064	0.102
-148.589	212.391	0.082	-0.129
-147.574	153.187	0.093	-0.127
-146.560	-86.951	-0.051	0.016
-145.545	-62.701	0.226	0.093
-144.531	-14.602	0.264	-0.170
-143.516	-91.203	-0.126	0.036
-142.502	800.000	-0.043	-0.183
-141.487	-177.284	0.185	0.005
-140.472	151.144	0.158	0.215
-139.458	-115.286	0.194	-0.037
-138.443	800.000	-0.061	-0.206
-137.429	-15.266	-0.163	-0.104
-136.414	800.000	-0.154	-0.430
-135.399	507.029	0.116	0.268
-134.385	800.000	-0.044	-0.150
-133.370	188.872	-0.045	0.066
-132.356	800.000	0.023	0.076
-131.341	20.997	0.122	-0.098
-130.326	-34.661	0.049	0.027
-129.312	140.008	0.246	0.323
-128.297	-29.120	-0.268	-0.153
-127.283	-46.339	0.109	-0.053
-126.268	800.000	-0.069	-0.263
-125.253	250.547	-0.109	0.185
-124.239	144.522	-0.207	0.276
-123.224	-8.597	0.404	0.270
-122.210	110.948	-0.279	0.335
-121.195	-52.096	0.129	0.060
