DTS Sentinel unit serial number:	SN413079Multiplexer serial number:	ORYXHardware model number:	OX4-SRSoftware version number:	ORYX F/W v4.00 Oryx Data Collector v3.7.2.0data status	okinstallation	princeton_trtdifferential loss correction	single-endedforward channel	channel 1reverse channel	N/Adate	2019/09/12time	19:37:34forward acquisition time	15.00reverse acquisition time	0.00gamma	496.2192k internal	0.2323k external	0.2323temperature offset calibration	1.0137default loss term (dB/km)	0.3790temperature slope calibration	1.0000multiplexer offset coefficient	1.0000multiplexer slope coefficient	1.0000fibre end	0.00T internal ref (°C)	32.12T ext. ref 1 (°C)	3.42T ext. ref 2 (°C)	26.67length (m)	temperature (°C)	Stokes	anti-Stokes-747.200	426.738	-0.194	-0.423
-746.185	-200.000	-0.018	-0.449
-745.171	45.175	-0.366	-0.340
-744.156	166.574	0.457	0.654
-743.142	-200.000	-0.046	-0.230
-742.127	-83.503	-0.630	-0.204
-741.112	-94.919	0.638	-0.174
-740.098	-164.778	-1.441	0.065
-739.083	-200.000	-0.053	0.549
-738.069	-73.466	0.748	0.276
-737.054	104.284	0.578	0.687
-736.039	-30.793	-0.644	-0.368
-735.025	-36.747	0.221	-0.120
-734.010	51.445	-0.757	-0.726
-732.996	-200.000	0.045	-0.364
-731.981	-200.000	-0.109	-0.850
-730.966	250.094	0.567	-0.971
-729.952	-200.000	0.010	-0.172
-728.937	100.311	-0.097	-0.113
-727.923	65.000	-0.139	0.142
-726.908	63.882	-0.627	0.636
-725.894	-131.365	-0.228	-0.030
-724.879	36.602	-0.296	0.264
-723.864	86.371	-0.346	-0.385
-722.850	90.671	0.500	-0.565
-721.835	325.582	0.320	-0.619
-720.821	-28.679	-0.715	-0.415
-719.806	-200.000	-0.030	0.615
-718.791	-114.448	-0.663	0.129
-717.777	51.208	-0.560	0.536
-716.762	-200.000	-0.103	-0.606
-715.748	-200.000	-0.034	-0.758
-714.733	-93.793	-0.658	-0.183
-713.718	-93.702	-0.180	0.050
-712.704	194.230	0.335	0.512
-711.689	-200.000	0.076	-0.465
-710.675	-112.904	-0.580	0.116
-709.660	800.000	0.245	-1.071
-708.645	-129.840	0.307	0.043
-707.631	146.035	-0.223	-0.301
-706.616	249.635	-0.350	0.599
-705.602	800.000	0.161	0.619
-704.587	203.367	0.141	0.221
-703.572	721.977	0.118	-0.318
-702.558	26.493	0.575	0.485
-701.543	757.673	0.304	0.831
-700.529	72.317	-0.206	0.216
-699.514	800.000	-0.087	-0.261
-698.499	-88.631	0.178	-0.053
-697.485	-162.912	0.384	0.019
-696.470	327.805	-0.162	-0.313
-695.456	-91.099	-0.721	0.209
-694.441	467.560	0.140	0.315
-693.426	567.616	0.037	-0.091
-692.412	554.049	0.171	0.414
-691.397	147.410	-0.202	0.275
-690.383	366.769	-0.186	0.377
-689.368	76.846	0.161	-0.173
-688.354	-200.000	0.100	-1.142
-687.339	-200.000	0.032	-0.591
-686.324	377.822	0.260	-0.536
-685.310	239.734	0.296	0.496
-684.295	-31.932	-0.260	0.147
-683.281	200.705	0.237	-0.367
-682.266	-7.930	0.650	-0.442
-681.251	-125.377	0.492	-0.076
-680.237	17.990	0.170	0.137
-679.222	24.361	0.710	0.591
-678.208	403.249	0.122	-0.258
-677.193	96.213	0.106	-0.122
-676.178	-76.645	0.246	-0.087
-675.164	638.325	0.256	-0.654
-674.149	-200.000	0.012	-0.058
-673.135	-133.962	-0.325	0.041
-672.120	-81.166	-0.137	0.046
-671.105	-123.253	0.075	0.012
-670.091	-62.824	0.915	0.381
-669.076	21.123	0.528	-0.431
-668.062	-200.000	-0.162	-0.872
-667.047	-85.232	-0.315	-0.099
-666.032	-200.000	-0.011	-0.186
-665.018	-163.963	0.885	0.041
-664.003	-160.058	0.127	0.007
-662.989	-200.000	0.006	0.123
-661.974	63.664	0.285	-0.288
-660.959	-200.000	0.007	-0.913
-659.945	-10.403	-0.896	-0.598
-658.930	800.000	0.123	0.451
-657.916	108.861	-0.384	0.462
-656.901	-200.000	-0.019	-0.396
-655.886	-200.000	-0.163	-0.727
-654.872	48.355	-0.420	-0.396
-653.857	800.000	0.196	-0.698
-652.843	141.419	-0.572	-0.762
-651.828	317.601	0.040	-0.077
-650.814	-99.400	-0.310	0.079
-649.799	-200.000	-0.047	-0.299
-648.784	-14.496	0.240	-0.156
-647.770	215.713	0.458	0.732
-646.755	-140.167	-1.122	0.119
-645.741	433.691	-0.342	0.746
-644.726	-34.834	-0.250	-0.138
-643.711	-124.254	1.065	0.168
-642.697	-188.155	-0.058	-0.001
-641.682	-102.683	-0.820	-0.197
-640.668	-200.000	-0.020	0.332
-639.653	30.173	-0.387	0.332
-638.638	-131.292	-0.495	-0.066
-637.624	277.696	-0.164	-0.293
-636.609	-68.337	-0.547	-0.214
-635.595	-28.915	-1.123	0.649
-634.580	-126.359	-0.574	0.086
-633.565	324.126	-0.198	-0.380
-632.551	-115.561	-0.841	0.159
-631.536	-42.721	-0.262	0.134
-630.522	78.201	0.107	-0.114
-629.507	-200.000	-0.116	0.908
-628.492	742.142	0.286	-0.774
-627.478	-200.000	0.069	0.325
-626.463	-200.000	-0.052	-0.232
-625.449	-94.853	0.207	-0.056
-624.434	59.809	-0.417	-0.414
-623.419	57.583	0.172	0.169
-622.405	-200.000	-0.075	0.689
-621.390	800.000	0.244	-0.886
-620.376	-49.993	-0.312	-0.149
-619.361	-200.000	0.139	1.142
-618.346	77.063	-0.350	0.374
-617.332	-179.636	0.253	0.006
-616.317	-24.900	-0.888	0.530
-615.303	230.542	0.101	-0.166
-614.288	800.000	-0.100	-0.360
-613.273	-44.596	-0.544	-0.273
-612.259	800.000	-0.150	-0.433
-611.244	11.286	0.178	0.137
-610.230	121.763	-0.355	0.445
-609.215	225.930	-0.386	-0.628
-608.201	-86.649	1.392	0.428
-607.186	223.607	0.262	0.424
-606.171	68.418	-0.269	0.277
-605.157	-79.702	0.193	0.065
-604.142	-200.000	-0.011	-0.615
-603.128	577.322	0.184	-0.451
-602.113	-54.278	-1.118	0.510
-601.098	142.660	0.206	-0.275
-600.084	27.082	0.264	-0.223
-599.069	-200.000	0.062	-0.370
-598.055	-200.000	-0.003	-0.034
-597.040	133.120	-0.533	-0.691
-596.025	800.000	-0.076	-0.325
-595.011	-26.600	-0.837	0.492
-593.996	159.482	0.071	0.099
-592.982	71.054	0.324	-0.338
-591.967	8.316	-0.628	0.474
-590.952	489.237	0.385	-0.884
-589.938	-200.000	0.036	0.338
-588.923	-200.000	0.066	0.664
-587.909	-119.072	0.761	-0.134
-586.894	-18.690	0.749	-0.469
-585.879	468.400	-0.223	-0.503
-584.865	-71.909	-0.811	-0.303
-583.850	800.000	-0.136	0.463
-582.836	-105.953	0.553	0.125
-581.821	127.903	-0.183	-0.234
-580.806	-200.000	0.011	0.122
-579.792	59.068	0.433	-0.428
-578.777	1.326	-0.843	-0.608
-577.763	431.819	-0.510	1.109
-576.748	94.986	0.908	-1.037
-575.733	-0.222	0.260	-0.186
-574.719	800.000	0.322	0.962
-573.704	-39.324	-0.616	0.325
-572.690	-122.109	0.283	-0.047
-571.675	-0.526	0.380	-0.270
-570.661	162.859	0.261	-0.367
-569.646	207.304	-0.471	-0.737
-568.631	114.803	-0.355	0.434
-567.617	29.312	-0.455	-0.387
-566.602	-200.000	0.027	0.201
-565.588	142.987	0.451	-0.602
-564.573	800.000	-0.257	-1.038
-563.558	85.401	0.318	-0.350
-562.544	156.340	0.209	-0.289
-561.529	-45.524	0.651	-0.323
-560.515	-200.000	-0.102	-1.061
-559.500	-15.620	-0.795	-0.508
-558.485	-121.579	-0.527	0.088
-557.471	-46.449	0.582	0.286
-556.456	-200.000	0.003	0.245
-555.442	-64.012	-0.851	0.349
-554.427	-17.023	0.225	0.142
-553.412	148.311	-0.343	0.464
-552.398	23.620	0.530	-0.437
-551.383	230.516	-0.557	0.913
-550.369	800.000	0.063	-0.230
-549.354	107.025	-0.455	0.542
-548.339	369.511	-0.199	0.405
-547.325	17.995	0.229	-0.183
-546.310	117.060	-0.721	-0.888
-545.296	736.526	0.369	0.991
-544.281	-9.482	-0.144	0.096
-543.266	158.225	0.323	-0.449
-542.252	-96.032	0.463	0.123
-541.237	-200.000	-0.029	0.386
-540.223	-200.000	-0.039	-0.195
-539.208	219.910	0.525	0.842
-538.193	-140.158	-0.444	-0.047
-537.179	-69.778	-0.571	-0.218
-536.164	91.190	0.260	-0.293
-535.150	53.626	0.116	-0.112
-534.135	767.576	0.011	0.030
-533.121	-200.000	-0.047	-0.468
-532.106	618.769	-0.122	0.308
-531.091	68.244	-0.338	0.347
-530.077	-142.904	0.733	-0.071
-529.062	390.556	0.215	0.447
-528.048	-64.344	-0.230	0.094
-527.033	213.021	0.038	-0.061
-526.018	56.976	0.438	0.427
-525.004	-22.021	-0.245	0.149
-523.989	-19.755	-0.368	0.228
-522.975	800.000	0.115	-0.433
-521.960	145.149	-0.464	0.622
-520.945	18.609	0.367	0.294
-519.931	-0.530	-0.354	0.251
-518.916	486.773	-0.332	0.758
-517.902	-200.000	-0.006	-0.237
-516.887	8.977	0.663	0.501
-515.872	-96.148	0.476	0.127
-514.858	-111.099	0.820	0.168
-513.843	236.558	-0.197	-0.327
-512.829	800.000	-0.099	0.420
-511.814	164.614	-0.498	-0.702
-510.799	105.702	0.632	0.748
-509.785	-200.000	-0.038	0.469
-508.770	149.451	0.392	0.531
-507.756	58.719	-0.163	0.161
-506.741	157.679	0.589	0.816
-505.726	-200.000	0.066	-0.588
-504.712	-190.485	-0.746	0.008
-503.697	-200.000	0.031	-0.501
-502.683	333.822	0.111	-0.214
-501.668	670.438	0.121	0.314
-500.653	116.580	0.093	-0.114
-499.639	230.413	0.158	0.259
-498.624	366.358	-0.360	0.727
-497.610	-135.064	-0.691	-0.083
-496.595	-200.000	-0.024	0.414
-495.581	354.654	0.186	-0.370
-494.566	-200.000	-0.040	-0.189
-493.551	-150.894	0.783	-0.059
-492.537	-69.044	-0.319	0.123
-491.522	-200.000	-0.008	0.259
-490.508	-146.083	-1.089	0.096
-489.493	217.794	0.388	0.618
-488.478	69.134	0.377	0.388
-487.464	165.389	-0.475	-0.672
-486.449	48.791	-0.199	0.187
-485.435	-100.564	-0.887	-0.219
-484.420	800.000	0.053	0.188
-483.405	-98.947	-0.280	-0.071
-482.391	-112.190	-0.569	0.114
-481.376	103.178	-0.348	0.408
-480.362	-64.914	0.648	-0.262
-479.347	105.323	-0.209	-0.247
-478.332	255.821	-0.231	0.396
-477.318	466.941	-0.182	-0.408
-476.303	692.112	-0.205	0.538
-475.289	-154.861	-0.178	0.012
-474.274	-200.000	0.005	-1.395
-473.259	800.000	0.236	0.935
-472.245	693.159	0.078	0.206
-471.230	-142.947	0.853	-0.083
-470.216	-39.197	0.132	0.069
-469.201	3.206	0.451	0.328
-468.186	22.716	-0.173	0.142
-467.172	-102.201	0.532	-0.128
-466.157	50.729	0.962	0.910
-465.143	51.857	0.548	0.521
-464.128	-200.000	-0.027	0.612
-463.113	-102.389	0.165	-0.039
-462.099	217.756	0.095	0.151
-461.084	-80.437	0.528	0.176
-460.070	19.934	0.793	0.638
-459.055	-67.001	0.853	0.336
-458.040	34.600	0.657	-0.573
-457.026	120.045	-0.203	0.251
-456.011	271.198	-0.148	0.260
-454.997	95.314	0.637	0.724
-453.982	-20.507	0.390	-0.240
-452.968	97.324	0.500	0.573
-451.953	-200.000	-0.033	-0.235
-450.938	25.937	-0.639	-0.532
-449.924	11.514	-0.362	-0.277
-448.909	-19.340	-0.767	0.475
-447.895	509.917	-0.154	-0.357
-446.880	-128.629	-0.424	0.060
-445.865	-200.000	-0.038	0.308
-444.851	-200.000	-0.177	-0.822
-443.836	209.546	-0.224	0.351
-442.822	12.836	0.400	0.308
-441.807	-10.993	-0.834	0.550
-440.792	-52.267	0.391	-0.181
-439.778	-139.929	0.442	-0.047
-438.763	-25.006	-0.623	0.369
-437.749	-200.000	-0.167	-0.763
-436.734	-200.000	0.008	-0.470
-435.719	53.137	0.853	-0.815
-434.705	-200.000	0.079	-0.422
-433.690	-111.773	0.241	0.049
-432.676	-111.732	-0.426	0.086
-431.661	-200.000	-0.038	-0.181
-430.646	195.781	-0.584	-0.886
-429.632	3.357	-0.492	0.358
-428.617	-34.275	-0.489	0.268
-427.603	284.343	-0.197	-0.354
-426.588	105.830	-0.086	-0.101
-425.573	626.818	0.178	0.449
-424.559	-200.000	0.001	0.516
-423.544	-200.000	-0.009	-0.302
-422.530	-123.624	-0.839	0.133
-421.515	-37.347	0.694	-0.370
-420.500	-200.000	0.100	-0.749
-419.486	119.192	-0.416	0.513
-418.471	-200.000	-0.060	-0.654
-417.457	-200.000	-0.006	0.679
-416.442	-105.094	-0.429	0.098
-415.428	-200.000	-0.142	1.096
-414.413	75.426	1.033	1.087
-413.398	800.000	0.150	0.636
-412.384	127.250	-0.402	-0.508
-411.369	548.537	-0.145	0.345
-410.355	800.000	-0.131	0.481
-409.340	-15.648	0.245	-0.156
-408.325	-200.000	-0.037	-0.253
-407.311	-99.607	0.579	-0.145
-406.296	-11.426	0.216	0.142
-405.282	29.620	0.684	-0.580
-404.267	680.119	0.085	0.220
-403.252	112.482	-0.203	0.245
-402.238	-82.425	-0.407	0.132
-401.223	293.003	0.285	-0.518
-400.209	-200.000	0.065	-1.309
-399.194	128.100	0.563	-0.713
-398.179	72.627	0.410	-0.426
-397.165	-116.213	-0.409	0.076
-396.150	133.207	-0.319	-0.410
-395.136	-107.933	-0.728	-0.158
-394.121	-66.477	0.553	0.219
-393.106	650.928	0.111	-0.284
-392.092	108.250	0.085	0.101
-391.077	-200.000	-0.125	0.635
-390.063	30.556	0.541	-0.461
-389.048	-200.000	-0.007	-0.395
-388.033	253.885	0.562	-0.957
-387.019	72.496	0.220	-0.229
-386.004	409.803	-0.154	0.325
-384.990	47.070	-0.334	-0.309
-383.975	22.088	-0.450	0.366
-382.960	800.000	-0.008	-0.024
-381.946	52.350	-0.451	-0.428
-380.931	-166.191	0.407	-0.017
-379.917	-143.325	-0.550	-0.053
-378.902	-56.688	0.713	-0.314
-377.888	-66.864	-0.181	-0.071
-376.873	388.305	0.505	-1.041
-375.858	-120.329	0.002	0.000
-374.844	-124.926	0.270	0.041
-373.829	-64.032	0.410	0.167
-372.815	574.171	-0.224	0.545
-371.800	581.437	0.144	-0.352
-370.785	5.330	-0.382	0.280
-369.771	-41.831	-0.271	0.138
-368.756	-52.005	-0.095	-0.044
-367.742	-139.871	0.269	-0.028
-366.727	661.692	0.196	-0.502
-365.712	50.906	0.182	0.172
-364.698	36.401	0.567	-0.497
-363.683	-200.000	0.111	0.551
-362.669	156.287	-0.248	0.341
-361.654	-4.183	0.888	-0.612
-360.639	218.233	-0.614	0.975
-359.625	4.360	0.229	0.167
-358.610	-200.000	0.072	-0.353
-357.596	-6.065	0.515	-0.350
-356.581	175.664	-0.733	-1.057
-355.566	-200.000	0.003	-0.842
-354.552	-9.848	0.870	0.576
-353.537	-200.000	0.060	-1.186
-352.523	753.051	0.187	0.503
-351.508	104.671	-0.395	0.463
-350.493	-47.194	-0.166	0.081
-349.479	-62.935	-0.151	-0.062
-348.464	-29.990	-0.808	-0.457
-347.450	-200.000	0.037	0.671
-346.435	451.944	-0.080	0.176
-345.420	-161.267	0.371	0.019
-344.406	422.412	-0.138	0.294
-343.391	158.237	-0.421	0.581
-342.377	122.461	0.612	0.760
-341.362	103.287	0.238	0.277
-340.348	800.000	-0.037	0.153
-339.333	87.679	-0.213	-0.235
-338.318	-98.291	0.681	-0.174
-337.304	-200.000	0.047	0.525
-336.289	-125.565	-0.303	0.046
-335.275	87.484	-0.557	-0.613
-334.260	-200.000	0.011	-0.299
-333.245	98.027	0.485	0.555
-332.231	-200.000	-0.108	-0.472
-331.216	-200.000	0.034	-0.462
-330.202	410.160	-0.296	-0.625
-329.187	348.695	-0.274	0.537
-328.172	386.286	0.163	-0.334
-327.158	800.000	-0.188	-0.786
-326.143	800.000	0.144	0.560
-325.129	-51.263	0.563	-0.262
-324.114	-82.055	0.270	-0.088
-323.099	144.023	0.138	-0.183
-322.085	34.578	-0.673	0.584
-321.070	-200.000	0.065	-0.777
-320.056	109.988	-0.159	0.189
-319.041	148.717	-0.148	-0.199
-318.026	27.719	-0.304	0.254
-317.012	70.984	0.406	0.418
-315.997	-60.099	0.550	-0.233
-314.983	225.233	0.386	0.621
-313.968	-147.210	-1.076	-0.091
-312.953	48.707	-0.169	-0.157
-311.939	-91.348	0.779	-0.221
-310.924	353.646	-0.316	0.623
-309.910	-200.000	0.102	0.497
-308.895	30.324	0.343	0.290
-307.880	25.075	0.256	-0.211
-306.866	800.000	0.234	-0.760
-305.851	-38.276	-0.515	0.271
-304.837	225.196	-0.128	0.206
-303.822	-200.000	0.019	-0.788
-302.807	55.647	0.428	-0.412
-301.793	800.000	-0.211	-0.727
-300.778	-120.383	-0.662	-0.112
-299.764	-81.779	-1.127	-0.366
-298.749	-135.172	-0.885	-0.106
-297.735	-130.373	0.741	-0.100
-296.720	-109.000	0.675	-0.143
-295.705	77.218	-0.545	-0.575
-294.691	206.413	-0.138	-0.213
-293.676	800.000	0.091	0.345
-292.662	10.229	0.189	0.143
-291.647	-200.000	0.175	-1.142
-290.632	565.488	0.249	0.598
-289.618	-31.245	0.386	-0.216
-288.603	800.000	0.046	0.143
-287.589	-130.332	-0.670	0.090
-286.574	-97.891	0.834	0.214
-285.559	466.380	-0.266	0.591
-284.545	109.302	0.502	0.597
-283.530	800.000	0.075	-0.299
-282.516	36.418	0.622	0.544
-281.501	800.000	-0.084	-0.281
-280.486	-75.275	-0.119	-0.042
-279.472	800.000	-0.117	-0.428
-278.457	-124.669	0.137	-0.021
-277.443	-200.000	0.077	0.602
-276.428	411.974	-0.250	0.526
-275.413	-116.531	-0.622	-0.114
-274.399	-30.477	0.814	-0.458
-273.384	-91.282	0.415	-0.118
-272.370	640.935	-0.028	0.070
-271.355	-123.073	0.846	0.135
-270.340	-100.081	-0.700	-0.173
-269.326	-200.000	-0.031	-0.456
-268.311	-92.272	-0.788	-0.220
-267.297	213.257	-0.469	-0.734
-266.282	-45.048	0.244	-0.120
-265.267	155.418	0.239	-0.326
-264.253	-63.036	0.713	-0.292
-263.238	-115.006	1.232	-0.232
-262.224	184.297	-0.452	0.663
-261.209	156.002	0.349	0.477
-260.195	-179.549	0.276	-0.006
-259.180	11.442	-0.816	-0.620
-258.165	-200.000	-0.087	0.462
-257.151	45.266	0.122	-0.112
-256.136	-200.000	0.020	0.884
-255.122	-200.000	-0.161	-0.799
-254.107	-14.779	-0.179	-0.114
-253.092	-4.489	0.339	-0.232
-252.078	-59.352	-0.143	-0.061
-251.063	-8.736	0.613	-0.407
-250.049	5.793	-0.551	-0.404
-249.034	445.003	0.052	-0.114
-248.019	-200.000	0.099	0.644
-247.005	535.524	0.069	-0.162
-245.990	-107.358	0.404	0.088
-244.976	-1.148	-0.466	0.326
-243.961	-200.000	-0.089	-0.539
-242.946	-126.055	0.064	-0.010
-241.932	90.250	-0.262	0.290
-240.917	242.441	-0.450	0.746
-239.903	-33.650	-0.177	-0.097
-238.888	208.144	0.289	-0.447
-237.873	501.006	-0.067	0.153
-236.859	-71.300	1.105	0.410
-235.844	800.000	0.481	1.333
-234.830	-58.374	0.486	0.209
-233.815	-35.296	-0.175	0.094
-232.800	78.404	-0.409	0.432
-231.786	-200.000	0.051	0.641
-230.771	-170.344	0.956	0.033
-229.757	-90.881	-0.478	0.136
-228.742	-7.382	0.760	-0.510
-227.727	122.339	0.287	-0.355
-226.713	-200.000	0.163	-0.721
-225.698	348.688	-0.073	-0.143
-224.684	-88.489	0.364	-0.107
-223.669	800.000	-0.362	-1.207
-222.655	-37.893	0.628	0.330
-221.640	-200.000	0.004	0.745
-220.625	97.462	0.379	0.431
-219.611	-141.731	-0.615	0.061
-218.596	-66.745	0.602	-0.236
-217.582	45.077	-0.637	-0.581
-216.567	-200.000	-0.011	-0.895
-215.552	-57.464	-0.180	-0.078
-214.538	-57.462	-0.769	0.334
-213.523	-164.451	0.496	0.022
-212.509	800.000	0.024	0.077
-211.494	800.000	-0.060	-0.254
-210.479	-138.569	0.463	-0.050
-209.465	405.527	-0.185	-0.387
-208.450	-144.022	-0.370	-0.034
-207.436	9.023	0.171	-0.128
-206.421	-157.116	0.129	-0.008
-205.406	93.978	0.244	0.273
-204.392	-200.000	-0.007	-0.109
-203.377	-72.101	0.610	-0.224
-202.363	-200.000	0.020	-0.616
-201.348	-12.869	0.458	-0.295
-200.333	-197.499	-0.357	-0.002
-199.319	-71.681	0.417	-0.154
-198.304	-96.013	-0.620	-0.163
-197.290	42.809	-0.797	0.718
-196.275	-63.418	0.390	0.159
-195.260	33.108	-0.480	0.411
-194.246	472.949	0.044	-0.097
-193.231	-43.223	0.487	0.244
-192.217	199.559	0.275	0.417
-191.202	171.825	-0.095	-0.135
-190.187	236.354	0.130	-0.213
-189.173	128.828	-0.300	0.378
-188.158	-59.234	-0.493	0.210
-187.144	3.923	0.851	0.614
-186.129	648.350	-0.202	-0.510
-185.114	-165.016	-0.633	-0.028
-184.100	-7.725	-0.268	-0.179
-183.085	-94.288	-0.401	-0.108
-182.071	-200.000	-0.011	-0.480
-181.056	295.248	-0.078	-0.141
-180.042	800.000	-0.401	-1.094
-179.027	-15.063	-0.385	-0.243
-178.012	-65.902	0.325	-0.128
-176.998	17.581	-0.368	0.289
-175.983	119.992	0.346	0.424
-174.969	-67.265	0.573	0.223
-173.954	-200.000	0.040	-0.484
-172.939	137.829	-0.366	0.474
-171.925	44.591	0.376	0.341
-170.910	-2.269	0.760	-0.527
-169.896	21.699	-0.702	0.564
-168.881	262.888	0.236	0.405
-167.866	-200.000	-0.071	0.531
-166.852	25.093	0.069	-0.056
-165.837	-200.000	-0.120	-0.652
-164.823	-200.000	-0.135	0.768
-163.808	-105.930	-1.133	0.252
-162.793	800.000	0.118	-0.374
-161.779	774.821	0.167	0.449
-160.764	132.689	-0.681	-0.867
-159.750	-13.537	0.356	-0.228
-158.735	-200.000	0.038	0.493
-157.720	-108.681	-0.499	0.106
-156.706	-112.555	-0.090	0.018
-155.691	-15.319	0.501	0.316
-154.677	-5.993	-0.121	-0.082
-153.662	102.695	0.291	-0.336
-152.647	800.000	-0.187	0.566
-151.633	-115.141	0.471	0.088
-150.618	-138.723	-0.576	-0.062
-149.604	128.542	-0.261	-0.328
-148.589	-52.068	-0.834	-0.382
-147.574	-200.000	0.088	-0.630
-146.560	-200.000	-0.174	0.936
-145.545	-200.000	-0.005	-0.100
-144.531	-127.153	0.768	0.111
-143.516	-70.055	0.150	0.056
-142.502	628.458	0.259	0.645
-141.487	-121.773	-0.463	-0.075
-140.472	-167.376	0.213	0.008
-139.458	69.114	-0.148	-0.150
-138.443	-63.320	0.630	-0.256
-137.429	-116.615	-0.674	0.122
-136.414	-20.460	-0.499	0.303
-135.399	498.820	-0.144	0.326
-134.385	-200.000	0.071	-0.766
-133.370	212.600	-0.365	-0.568
-132.356	-61.410	0.096	-0.040
-131.341	72.919	-1.039	-1.070
-130.326	-200.000	0.105	-0.934
-129.312	-12.045	0.586	0.378
-128.297	511.707	0.186	-0.428
-127.283	-200.000	-0.001	0.716
-126.268	-9.820	-0.696	0.457
-125.253	344.851	0.271	0.524
-124.239	-166.634	0.168	0.007
-123.224	-185.863	0.452	0.007
-122.210	-200.000	0.025	-0.167
-121.195	-200.000	0.008	0.331
