DTS Sentinel unit serial number:	SN413079Multiplexer serial number:	ORYXHardware model number:	OX4-SRSoftware version number:	ORYX F/W v4.00 Oryx Data Collector v3.7.2.0data status	okinstallation	princeton_trtdifferential loss correction	single-endedforward channel	channel 1reverse channel	N/Adate	2019/09/10time	16:04:11forward acquisition time	60.00reverse acquisition time	0.00gamma	496.2192k internal	0.2299k external	0.2299temperature offset calibration	0.9913default loss term (dB/km)	0.3790temperature slope calibration	1.0000multiplexer offset coefficient	1.0000multiplexer slope coefficient	1.0000fibre end	0.00T internal ref (°C)	38.25T ext. ref 1 (°C)	-0.27T ext. ref 2 (°C)	32.60length (m)	temperature (°C)	Stokes	anti-Stokes-747.200	345.827	-0.049	0.097
-746.185	40.851	0.091	0.084
-745.171	800.000	-0.048	0.170
-744.156	325.314	-0.196	0.382
-743.142	-160.817	0.073	-0.004
-742.127	-200.000	0.001	0.034
-741.112	-200.000	0.060	-0.546
-740.098	800.000	0.019	-0.052
-739.083	-108.734	-0.271	0.059
-738.069	685.799	0.147	0.392
-737.054	-200.000	0.007	0.221
-736.039	-97.847	-0.245	0.065
-735.025	-57.121	0.105	-0.047
-734.010	-34.065	-0.156	0.088
-732.996	-200.000	-0.279	-0.000
-731.981	351.490	-0.122	0.247
-730.966	214.222	-0.062	0.100
-729.952	800.000	-0.036	-0.114
-728.937	-200.000	0.033	0.326
-727.923	-200.000	-0.022	0.191
-726.908	-200.000	-0.010	-0.163
-725.894	47.607	-0.365	0.348
-724.879	-157.455	0.067	0.004
-723.864	-200.000	0.019	-0.195
-722.850	-129.868	-0.429	-0.060
-721.835	800.000	-0.087	-0.292
-720.821	-16.726	-0.241	0.156
-719.806	-15.980	-0.183	-0.119
-718.791	205.655	0.179	0.283
-717.777	90.377	0.342	-0.390
-716.762	-200.000	-0.003	-0.019
-715.748	800.000	0.071	0.301
-714.733	-53.423	-0.109	0.051
-713.718	32.879	0.255	-0.225
-712.704	652.713	0.094	0.246
-711.689	-200.000	-0.013	-0.063
-710.675	133.513	0.119	0.157
-709.660	748.115	-0.067	0.184
-708.645	-113.527	0.121	-0.024
-707.631	156.665	-0.164	-0.230
-706.616	-30.623	-0.280	-0.162
-705.602	-200.000	0.026	0.216
-704.587	-97.427	0.167	0.044
-703.572	132.755	0.197	0.259
-702.558	384.876	-0.131	-0.276
-701.543	-137.483	-0.103	-0.012
-700.529	-179.591	0.338	0.008
-699.514	-200.000	-0.013	0.520
-698.499	35.940	-0.108	0.097
-697.485	-99.710	0.212	-0.054
-696.470	800.000	-0.103	0.299
-695.456	-200.000	-0.015	-0.088
-694.441	800.000	-0.020	0.086
-693.426	-84.403	0.280	0.090
-692.412	344.092	0.066	-0.132
-691.397	-98.391	-0.031	0.008
-690.383	-120.944	-0.389	-0.067
-689.368	-36.076	-0.080	-0.044
-688.354	16.369	-0.189	0.152
-687.339	27.777	0.210	0.180
-686.324	94.644	0.155	-0.180
-685.310	142.577	-0.227	-0.307
-684.295	-56.375	-0.183	-0.083
-683.281	-94.970	0.448	-0.123
-682.266	29.347	0.248	0.215
-681.251	52.607	-0.191	-0.185
-680.237	-92.978	0.264	0.075
-679.222	27.824	0.152	-0.130
-678.208	-65.210	0.141	-0.058
-677.193	-168.179	-0.145	-0.006
-676.178	-12.603	0.083	-0.055
-675.164	800.000	0.115	-0.387
-674.149	19.654	-0.188	-0.154
-673.135	-174.047	-0.108	-0.003
-672.120	-200.000	-0.033	-0.149
-671.105	83.543	0.082	0.091
-670.091	20.412	-0.101	0.083
-669.076	56.767	0.185	-0.183
-668.062	-200.000	-0.010	0.161
-667.047	26.373	-0.028	0.024
-666.032	-7.879	-0.429	0.295
-665.018	-167.387	0.304	-0.012
-664.003	474.548	0.080	-0.183
-662.989	-200.000	-0.001	-0.105
-661.974	-115.203	0.242	0.047
-660.959	640.669	-0.010	-0.027
-659.945	-127.699	0.263	0.039
-658.930	-13.867	-0.184	0.121
-657.916	-66.174	0.130	0.053
-656.901	36.488	-0.247	-0.221
-655.886	118.672	-0.109	-0.137
-654.872	-1.289	-0.234	0.168
-653.857	338.898	0.046	0.091
-652.843	19.165	-0.099	-0.081
-651.828	27.547	0.167	0.143
-650.814	-20.472	0.110	0.069
-649.799	-148.838	0.391	0.032
-648.784	397.235	-0.078	-0.165
-647.770	241.650	-0.040	-0.068
-646.755	-13.715	0.108	0.071
-645.741	161.002	0.182	-0.259
-644.726	-84.215	-0.245	-0.079
-643.711	-153.206	-0.706	0.050
-642.697	29.600	-0.312	0.270
-641.682	-122.312	-0.122	-0.020
-640.668	15.349	-0.091	0.073
-639.653	-200.000	-0.065	-0.317
-638.638	-200.000	0.015	-0.330
-637.624	800.000	0.019	0.055
-636.609	-39.226	-0.236	0.126
-635.595	-38.045	-0.202	0.109
-634.580	-154.780	0.083	-0.006
-633.565	-104.546	0.384	-0.090
-632.551	49.540	0.194	0.186
-631.536	331.000	0.029	-0.056
-630.522	11.107	-0.188	0.146
-629.507	134.070	-0.079	0.104
-628.492	33.519	0.097	0.086
-627.478	201.698	0.060	0.095
-626.463	-200.000	-0.004	-0.190
-625.449	-43.997	0.109	-0.056
-624.434	-200.000	-0.008	-0.124
-623.419	-120.496	0.175	-0.030
-622.405	800.000	-0.065	0.231
-621.390	137.183	0.245	-0.325
-620.376	-200.000	-0.023	-0.131
-619.361	51.447	-0.057	-0.055
-618.346	-167.192	0.165	-0.007
-617.332	-98.253	-0.476	0.124
-616.317	800.000	-0.095	0.379
-615.303	241.099	0.103	0.174
-614.288	-140.262	0.221	0.023
-613.273	409.707	-0.086	-0.185
-612.259	800.000	0.025	-0.076
-611.244	-46.533	0.249	-0.124
-610.230	126.577	0.289	-0.372
-609.215	184.687	-0.082	-0.124
-608.201	47.891	0.143	0.135
-607.186	-200.000	-0.004	-0.167
-606.171	-128.235	0.102	-0.015
-605.157	-7.155	-0.067	-0.046
-604.142	-200.000	-0.032	-0.374
-603.128	153.184	0.174	-0.242
-602.113	-46.575	-0.270	0.134
-601.098	43.900	-0.434	0.403
-600.084	-135.249	-0.279	-0.034
-599.069	-86.995	-0.126	0.039
-598.055	34.943	-0.104	-0.092
-597.040	-124.997	0.123	0.019
-596.025	1.766	-0.115	0.084
-595.011	-164.242	-0.320	0.015
-593.996	-200.000	-0.067	-0.364
-592.982	-200.000	-0.031	-0.399
-591.967	15.966	0.222	-0.178
-590.952	-69.437	0.110	-0.043
-589.938	293.953	0.150	0.278
-588.923	-55.494	0.235	0.107
-587.909	-200.000	-0.026	0.384
-586.894	-96.090	-0.340	-0.092
-585.879	-114.278	0.186	-0.036
-584.865	119.803	-0.179	0.226
-583.850	21.169	0.038	0.031
-582.836	-126.825	-0.202	0.030
-581.821	86.729	0.355	0.397
-580.806	-61.219	0.311	0.133
-579.792	-102.164	-0.295	0.072
-578.777	102.978	0.023	-0.027
-577.763	-68.798	-0.442	0.173
-576.748	-19.194	-0.266	-0.168
-575.733	102.163	0.171	0.203
-574.719	52.930	-0.065	0.063
-573.704	363.692	0.201	-0.410
-572.690	-6.010	-0.192	0.133
-571.675	-58.303	0.432	-0.190
-570.661	104.201	-0.197	0.235
-569.646	199.948	0.052	0.082
-568.631	800.000	-0.044	0.125
-567.617	700.265	-0.105	-0.279
-566.602	-50.633	0.079	0.038
-565.588	-200.000	0.003	-0.330
-564.573	-76.755	0.216	0.077
-563.558	-115.201	0.082	0.016
-562.544	-135.459	0.283	-0.034
-561.529	-200.000	0.056	-0.305
-560.515	1.941	0.148	-0.108
-559.500	24.959	0.010	0.008
-558.485	-37.500	-0.199	-0.108
-557.471	73.163	-0.183	0.194
-556.456	-200.000	0.015	0.183
-555.442	377.263	0.156	-0.323
-554.427	409.281	-0.078	-0.168
-553.412	-122.747	0.183	-0.030
-552.398	42.181	0.083	-0.077
-551.383	483.979	0.167	-0.386
-550.369	743.982	0.181	0.493
-549.354	800.000	-0.062	-0.273
-548.339	-200.000	-0.013	-0.147
-547.325	-130.688	0.196	0.027
-546.310	-51.559	-0.268	0.127
-545.296	-200.000	-0.000	0.096
-544.281	38.809	-0.256	0.232
-543.266	-200.000	0.028	0.300
-542.252	731.599	-0.009	-0.023
-541.237	-167.164	0.176	-0.007
-540.223	-22.711	-0.177	-0.108
-539.208	88.978	0.151	0.170
-538.193	-27.220	-0.121	-0.071
-537.179	-200.000	0.026	-0.125
-536.164	24.165	0.062	0.052
-535.150	-160.704	-0.250	-0.013
-534.135	-71.311	-0.241	-0.092
-533.121	-133.949	-0.085	0.011
-532.106	-200.000	-0.020	-0.253
-531.091	800.000	-0.047	0.143
-530.077	174.500	-0.060	-0.088
-529.062	-200.000	-0.005	-0.085
-528.048	224.946	-0.066	-0.107
-527.033	-122.500	0.201	0.033
-526.018	-89.332	0.142	-0.042
-525.004	519.877	0.031	0.073
-523.989	-85.418	-0.269	-0.085
-522.975	-131.016	0.088	-0.012
-521.960	218.870	-0.189	0.305
-520.945	94.122	-0.159	-0.183
-519.931	-200.000	-0.009	-0.132
-518.916	2.854	0.282	-0.207
-517.902	600.355	-0.076	-0.192
-516.887	374.079	0.115	-0.236
-515.872	-46.485	0.156	-0.077
-514.858	-46.697	0.075	-0.037
-513.843	-200.000	0.004	-0.276
-512.829	-200.000	-0.108	-0.662
-511.814	295.497	0.025	-0.047
-510.799	-64.096	-0.103	-0.043
-509.785	146.781	-0.038	0.051
-508.770	800.000	-0.046	-0.158
-507.756	-162.370	0.141	0.007
-506.741	634.702	0.141	0.361
-505.726	-200.000	-0.050	0.364
-504.712	47.767	0.216	0.204
-503.697	-200.000	0.068	0.468
-502.683	35.021	-0.250	-0.222
-501.668	-135.555	-0.561	0.067
-500.653	-133.367	0.144	0.018
-499.639	-200.000	0.013	0.156
-498.624	-53.632	0.177	-0.082
-497.610	577.702	0.013	0.033
-496.595	-118.904	-0.080	0.014
-495.581	-83.835	0.244	0.078
-494.566	800.000	-0.051	0.180
-493.551	-97.356	0.278	0.073
-492.537	-104.887	-0.084	0.019
-491.522	-60.597	-0.172	-0.074
-490.508	-132.321	0.191	-0.025
-489.493	-200.000	-0.017	0.331
-488.478	666.286	-0.097	-0.254
-487.464	519.868	-0.125	-0.296
-486.449	179.394	-0.104	-0.154
-485.435	123.537	-0.145	0.184
-484.420	800.000	0.063	-0.194
-483.405	-29.474	-0.074	-0.043
-482.391	-18.028	0.109	0.069
-481.376	647.463	-0.101	0.260
-480.362	-153.850	-0.296	-0.020
-479.347	-136.485	-0.410	0.048
-478.332	800.000	-0.033	-0.134
-477.318	-200.000	-0.031	0.333
-476.303	-42.288	0.114	-0.059
-475.289	-137.462	-0.233	-0.027
-474.274	101.179	0.134	0.157
-473.259	292.516	0.113	-0.207
-472.245	99.965	-0.062	-0.072
-471.230	-200.000	-0.036	0.273
-470.216	-33.193	0.030	-0.017
-469.201	305.318	0.060	0.112
-468.186	-53.224	0.161	-0.075
-467.172	-40.460	-0.107	-0.056
-466.157	81.399	-0.252	0.275
-465.143	225.320	-0.067	0.109
-464.128	-200.000	-0.028	0.146
-463.113	101.388	0.072	-0.085
-462.099	-200.000	-0.014	-0.165
-461.084	800.000	-0.072	0.222
-460.070	-27.324	-0.184	0.108
-459.055	-3.420	-0.061	0.043
-458.040	-200.000	-0.049	-0.273
-457.026	109.628	0.293	0.354
-456.011	-6.864	0.353	0.242
-454.997	178.563	0.094	-0.139
-453.982	450.324	0.066	-0.148
-452.968	30.410	0.163	-0.140
-451.953	-200.000	0.007	0.091
-450.938	299.549	0.202	0.375
-449.924	27.326	0.054	0.046
-448.909	39.028	-0.308	-0.278
-447.895	59.815	-0.085	-0.085
-446.880	-61.623	0.258	-0.109
-445.865	389.155	0.067	-0.141
-444.851	504.474	-0.053	-0.124
-443.836	144.963	0.079	-0.107
-442.822	-11.446	0.152	-0.101
-441.807	412.540	-0.096	0.205
-440.792	-11.656	-0.210	-0.139
-439.778	-147.115	-0.168	0.014
-438.763	52.166	-0.227	0.218
-437.749	-101.340	0.114	-0.028
-436.734	327.738	0.084	0.163
-435.719	800.000	-0.047	-0.190
-434.705	-200.000	-0.011	0.318
-433.690	800.000	0.079	0.293
-432.676	-91.441	0.153	0.044
-431.661	25.201	-0.187	-0.157
-430.646	800.000	0.091	-0.310
-429.632	-27.246	0.233	-0.137
-428.617	-68.700	0.186	-0.072
-427.603	-53.563	0.203	0.093
-426.588	107.162	-0.024	-0.028
-425.573	-200.000	0.044	-0.196
-424.559	800.000	0.046	-0.146
-423.544	5.524	-0.145	-0.108
-422.530	37.684	0.199	-0.178
-421.515	-16.482	0.379	0.242
-420.500	106.838	-0.063	0.075
-419.486	-29.716	0.069	-0.039
-418.471	447.154	-0.048	-0.106
-417.457	33.661	0.106	0.093
-416.442	-72.097	-0.033	0.012
-415.428	800.000	-0.008	0.026
-414.413	41.225	-0.422	-0.384
-413.398	370.017	0.041	0.084
-412.384	-40.223	0.148	-0.077
-411.369	173.960	0.237	0.344
-410.355	456.186	-0.047	-0.104
-409.340	79.857	0.195	0.211
-408.325	154.430	0.287	-0.396
-407.311	-200.000	0.002	-0.278
-406.296	-130.458	0.102	-0.014
-405.282	-2.648	0.265	-0.187
-404.267	-60.949	0.140	0.060
-403.252	-117.851	-0.095	0.017
-402.238	800.000	-0.071	-0.205
-401.223	102.124	0.147	0.173
-400.209	-34.382	-0.066	0.036
-399.194	800.000	-0.064	-0.192
-398.179	19.459	0.168	-0.136
-397.165	-175.298	-0.229	-0.006
-396.150	-138.357	0.169	0.019
-395.136	-50.998	-0.345	0.163
-394.121	103.560	-0.344	-0.407
-393.106	-200.000	-0.090	0.404
-392.092	-159.770	0.237	0.013
-391.077	-7.282	0.064	-0.043
-390.063	-98.577	-0.251	-0.065
-389.048	800.000	0.044	-0.162
-388.033	215.293	0.102	0.163
-387.019	-200.000	0.038	-0.594
-386.004	226.750	0.026	-0.043
-384.990	-96.862	0.058	0.015
-383.975	800.000	-0.085	0.368
-382.960	-200.000	-0.002	0.116
-381.946	-105.774	0.051	0.012
-380.931	-200.000	-0.000	-0.202
-379.917	-200.000	0.024	0.169
-378.902	-200.000	0.081	0.444
-377.888	-97.132	-0.062	-0.016
-376.873	636.394	0.065	0.165
-375.858	141.998	0.210	0.281
-374.844	800.000	0.035	-0.142
-373.829	800.000	0.041	-0.167
-372.815	800.000	-0.028	0.086
-371.800	-150.114	-0.179	-0.014
-370.785	24.636	-0.148	-0.123
-369.771	473.044	-0.047	-0.106
-368.756	-14.345	-0.213	0.138
-367.742	503.432	-0.089	-0.207
-366.727	157.609	-0.094	0.130
-365.712	-152.320	0.099	-0.007
-364.698	64.752	0.200	-0.203
-363.683	35.331	-0.127	-0.112
-362.669	-200.000	-0.033	0.208
-361.654	-148.795	0.476	-0.039
-360.639	-200.000	0.043	-0.255
-359.625	-200.000	-0.014	0.087
-358.610	-103.497	0.210	0.050
-357.596	-21.717	0.365	0.224
-356.581	-1.052	-0.220	-0.156
-355.566	-200.000	0.005	0.496
-354.552	-158.925	-0.221	0.013
-353.537	183.486	-0.086	-0.127
-352.523	70.332	0.226	-0.234
-351.508	166.156	-0.179	-0.255
-350.493	-52.247	-0.116	0.054
-349.479	-34.591	-0.107	-0.059
-348.464	-96.515	-0.386	0.102
-347.450	-200.000	0.076	-0.461
-346.435	95.670	0.181	-0.207
-345.420	-200.000	0.013	-0.157
-344.406	-142.017	0.220	0.022
-343.391	182.092	-0.163	-0.241
-342.377	-77.090	-0.183	-0.064
-341.362	92.273	-0.097	0.110
-340.348	800.000	0.022	0.072
-339.333	-5.297	0.230	0.159
-338.318	746.977	0.161	0.436
-337.304	460.746	-0.098	0.220
-336.289	-93.279	-0.285	-0.079
-335.275	-200.000	0.031	-0.154
-334.260	12.526	-0.117	0.091
-333.245	-121.646	-0.204	-0.034
-332.231	-200.000	-0.082	0.383
-331.216	-200.000	-0.035	-0.280
-330.202	-200.000	-0.053	0.336
-329.187	-141.926	-0.067	0.007
-328.172	-31.911	0.157	-0.088
-327.158	-74.069	0.100	0.036
-326.143	800.000	0.045	0.141
-325.129	800.000	0.035	0.145
-324.114	-163.387	-0.188	-0.009
-323.099	-46.067	0.076	-0.038
-322.085	-200.000	0.017	0.320
-321.070	-78.798	0.328	-0.112
-320.056	538.255	0.200	-0.477
-319.041	800.000	0.041	0.148
-318.026	-73.870	-0.194	0.071
-317.012	102.366	0.219	-0.257
-315.997	623.731	0.037	-0.093
-314.983	-12.229	0.131	0.086
-313.968	800.000	0.064	-0.233
-312.953	-47.721	-0.250	-0.122
-311.939	356.582	0.141	-0.283
-310.924	800.000	-0.039	0.165
-309.910	-116.919	0.098	-0.018
-308.895	-116.744	-0.227	-0.042
-307.880	-200.000	0.032	0.211
-306.866	5.791	0.063	0.047
-305.851	182.839	0.141	-0.208
-304.837	800.000	-0.065	0.236
-303.822	210.415	-0.210	-0.331
-302.807	-143.643	-0.163	-0.015
-301.793	296.009	-0.078	0.143
-300.778	16.165	-0.101	0.080
-299.764	-200.000	0.008	-0.180
-298.749	-64.890	-0.170	0.069
-297.735	56.922	-0.194	0.190
-296.720	-96.040	0.410	-0.109
-295.705	-148.987	0.095	-0.008
-294.691	-24.275	-0.114	-0.068
-293.676	800.000	-0.048	-0.207
-292.662	800.000	0.080	-0.306
-291.647	-118.616	-0.197	-0.035
-290.632	-100.570	0.095	-0.024
-289.618	347.440	0.081	0.160
-288.603	-116.257	-0.283	-0.053
-287.589	-51.650	-0.108	0.051
-286.574	-200.000	0.043	0.298
-285.559	283.696	-0.106	0.191
-284.545	420.247	-0.050	0.108
-283.530	-130.157	-0.334	0.046
-282.516	498.658	-0.135	-0.313
-281.501	-200.000	-0.002	-0.118
-280.486	222.456	-0.169	-0.273
-279.472	37.716	0.184	-0.164
-278.457	-120.514	0.434	0.074
-277.443	-16.392	0.070	-0.045
-276.428	132.471	0.034	0.044
-275.413	-185.059	-0.252	-0.004
-274.399	590.983	-0.092	-0.227
-273.384	31.172	0.197	0.169
-272.370	-83.394	-0.155	0.050
-271.355	-133.856	-0.227	-0.028
-270.340	-200.000	0.010	0.281
-269.326	126.366	-0.177	-0.225
-268.311	39.268	0.090	0.081
-267.297	2.892	-0.153	0.112
-266.282	-100.967	0.342	-0.084
-265.267	-128.201	-0.105	0.015
-264.253	-200.000	-0.027	-0.189
-263.238	575.227	0.074	0.180
-262.224	58.324	-0.136	-0.134
-261.209	350.583	0.156	-0.308
-260.195	-128.101	-0.173	0.025
-259.180	66.781	-0.041	0.042
-258.165	33.565	-0.255	0.222
-257.151	-134.906	-0.157	0.019
-256.136	-200.000	0.025	0.361
-255.122	38.877	0.288	0.257
-254.107	1.485	0.259	0.186
-253.092	-200.000	-0.023	-0.109
-252.078	285.009	-0.220	0.397
-251.063	257.618	-0.138	0.237
-250.049	656.240	-0.129	0.330
-249.034	-69.538	-0.155	-0.059
-248.019	-200.000	-0.316	0.001
-247.005	800.000	0.122	-0.358
-245.990	-182.096	0.335	0.006
-244.976	800.000	-0.027	0.112
-243.961	-129.010	-0.089	-0.013
-242.946	142.065	0.232	0.308
-241.932	-55.250	-0.293	0.132
-240.917	22.456	-0.035	0.029
-239.903	153.088	0.044	-0.060
-238.888	-76.554	0.321	-0.113
-237.873	213.872	-0.148	-0.235
-236.859	800.000	0.004	-0.018
-235.844	152.651	-0.029	0.040
-234.830	220.745	-0.209	0.336
-233.815	-116.573	0.339	-0.062
-232.800	800.000	0.027	0.084
-231.786	-124.994	0.303	0.047
-230.771	364.306	0.171	0.343
-229.757	800.000	0.055	-0.163
-228.742	-200.000	-0.073	0.405
-227.727	800.000	-0.035	0.151
-226.713	437.700	0.057	-0.125
-225.698	89.670	0.098	0.109
-224.684	-97.067	-0.332	-0.087
-223.669	-19.881	-0.117	0.072
-222.655	385.894	0.095	-0.195
-221.640	-76.653	0.201	0.071
-220.625	-200.000	0.023	0.141
-219.611	373.367	-0.141	-0.286
-218.596	800.000	-0.095	0.315
-217.582	-138.560	0.201	-0.022
-216.567	-29.122	-0.260	-0.149
-215.552	1.155	0.235	0.169
-214.538	-39.305	0.193	-0.101
-213.523	800.000	-0.017	-0.073
-212.509	56.423	-0.125	0.121
-211.494	-200.000	-0.031	0.312
-210.479	14.628	-0.049	-0.038
-209.465	-57.304	0.062	-0.027
-208.450	-180.279	-0.182	-0.004
-207.436	-153.982	0.259	0.018
-206.421	128.494	-0.231	0.294
-205.406	-64.490	0.303	-0.123
-204.392	601.509	0.097	0.241
-203.377	-8.867	0.102	0.069
-202.363	164.187	-0.249	0.351
-201.348	800.000	0.117	0.354
-200.333	-103.789	0.239	-0.056
-199.319	87.645	0.072	0.079
-198.304	-32.394	0.076	-0.042
-197.290	-70.991	0.282	-0.106
-196.275	-81.245	0.071	0.023
-195.260	800.000	0.044	0.136
-194.246	-43.515	-0.144	-0.073
-193.231	-16.340	0.444	-0.281
-192.217	-200.000	0.027	0.155
-191.202	800.000	-0.092	-0.363
-190.187	800.000	0.058	0.161
-189.173	-110.692	-0.217	0.045
-188.158	-174.325	-0.060	-0.002
-187.144	700.073	0.049	0.128
-186.129	12.419	0.215	-0.165
-185.114	190.630	0.341	-0.512
-184.100	2.115	-0.274	0.197
-183.085	136.829	-0.036	0.047
-182.071	-200.000	-0.040	-0.310
-181.056	200.834	0.132	0.203
-180.042	70.374	0.176	-0.181
-179.027	242.687	0.056	0.094
-178.012	-165.470	-0.196	-0.009
-176.998	-16.617	0.218	-0.138
-175.983	-3.894	0.185	0.128
-174.969	-101.524	0.137	-0.033
-173.954	-146.961	-0.175	0.015
-172.939	-63.451	-0.252	-0.103
-171.925	85.763	0.266	0.292
-170.910	-122.578	-0.059	0.010
-169.896	-89.828	-0.134	-0.039
-168.881	-200.000	-0.047	0.217
-167.866	800.000	-0.017	-0.074
-166.852	574.268	-0.034	0.082
-165.837	454.110	-0.071	0.157
-164.823	190.214	0.124	-0.186
-163.808	42.984	-0.367	0.334
-162.793	140.081	-0.106	-0.139
-161.779	-189.336	0.257	0.003
-160.764	-122.872	-0.105	-0.017
-159.750	-31.136	0.129	-0.072
-158.735	59.978	-0.055	-0.054
-157.720	-158.523	0.207	0.012
-156.706	-22.999	0.225	0.135
-155.691	-29.298	-0.315	0.180
-154.677	-38.467	0.146	0.077
-153.662	-200.000	-0.031	-0.271
-152.647	-7.119	-0.253	0.171
-151.633	104.813	-0.243	-0.286
-150.618	-29.920	-0.094	0.054
-149.604	800.000	-0.049	0.189
-148.589	117.474	-0.143	0.176
-147.574	-37.816	0.396	-0.210
-146.560	-90.519	-0.147	-0.042
-145.545	-135.252	-0.049	-0.006
-144.531	800.000	0.050	0.153
-143.516	-53.738	-0.130	0.059
-142.502	205.106	0.069	0.107
-141.487	186.316	-0.296	0.439
-140.472	-37.331	0.174	-0.093
-139.458	-62.325	-0.536	0.222
-138.443	-200.000	0.004	-0.066
-137.429	21.256	0.105	-0.085
-136.414	252.439	0.174	0.296
-135.399	240.157	0.153	-0.255
-134.385	-10.039	0.111	0.074
-133.370	800.000	0.035	-0.150
-132.356	-200.000	0.016	-0.274
-131.341	-104.096	-0.219	0.051
-130.326	260.057	0.114	-0.196
-129.312	111.652	0.196	-0.235
-128.297	271.682	-0.251	0.440
-127.283	86.146	0.036	-0.040
-126.268	800.000	0.075	0.288
-125.253	-164.092	0.159	0.007
-124.239	-121.514	0.165	-0.027
-123.224	186.012	0.271	-0.402
-122.210	-84.352	0.318	-0.100
-121.195	-77.292	0.182	-0.063
