DTS Sentinel unit serial number:	SN413079Multiplexer serial number:	ORYXHardware model number:	OX4-SRSoftware version number:	ORYX F/W v4.00 Oryx Data Collector v3.7.2.0data status	okinstallation	princeton_trtdifferential loss correction	single-endedforward channel	channel 1reverse channel	N/Adate	2019/09/12time	19:03:34forward acquisition time	15.00reverse acquisition time	0.00gamma	496.2192k internal	0.2319k external	0.2319temperature offset calibration	1.0118default loss term (dB/km)	0.3790temperature slope calibration	1.0000multiplexer offset coefficient	1.0000multiplexer slope coefficient	1.0000fibre end	0.00T internal ref (°C)	32.69T ext. ref 1 (°C)	3.04T ext. ref 2 (°C)	27.25length (m)	temperature (°C)	Stokes	anti-Stokes-747.200	-118.739	-0.510	0.091
-746.185	-128.039	-0.920	0.134
-745.171	52.825	0.433	0.419
-744.156	188.003	-0.229	-0.346
-743.142	-200.000	0.057	-0.806
-742.127	72.909	-0.185	0.196
-741.112	-18.639	-0.362	-0.228
-740.098	-14.838	-0.396	0.257
-739.083	-200.000	0.042	-0.475
-738.069	-200.000	-0.044	0.874
-737.054	-94.863	0.751	0.206
-736.039	6.994	0.375	0.283
-735.025	348.439	-0.075	-0.150
-734.010	175.480	-0.468	-0.687
-732.996	-96.501	-1.278	0.341
-731.981	-137.626	-0.430	0.049
-730.966	-200.000	0.002	-0.100
-729.952	532.341	0.152	-0.364
-728.937	33.675	-0.432	-0.380
-727.923	-59.226	-1.344	-0.585
-726.908	631.173	0.120	-0.308
-725.894	25.878	-0.368	-0.310
-724.879	-160.622	0.497	0.027
-723.864	-200.000	-0.019	-0.593
-722.850	44.280	-0.755	-0.700
-721.835	800.000	-0.140	-0.572
-720.821	361.605	0.286	-0.580
-719.806	339.755	-0.200	-0.395
-718.791	-64.659	0.585	0.240
-717.777	-7.025	-0.326	0.224
-716.762	204.831	-0.235	-0.369
-715.748	-22.870	-0.124	-0.076
-714.733	-188.541	0.023	0.000
-713.718	800.000	0.151	0.523
-712.704	98.217	0.156	0.182
-711.689	371.417	0.049	0.101
-710.675	398.555	-0.258	-0.545
-709.660	-163.874	-0.645	-0.030
-708.645	776.003	-0.500	-1.378
-707.631	-38.377	0.599	-0.320
-706.616	-200.000	0.051	-0.351
-705.602	-200.000	-0.007	0.464
-704.587	-42.219	0.742	-0.383
-703.572	-200.000	-0.096	0.441
-702.558	-66.076	-0.447	0.180
-701.543	714.048	0.104	-0.279
-700.529	-200.000	0.075	-0.609
-699.514	800.000	-0.106	0.468
-698.499	-200.000	0.009	0.349
-697.485	18.911	-0.389	0.315
-696.470	-200.000	-0.086	-0.406
-695.456	-66.272	-0.196	0.079
-694.441	12.289	-0.737	-0.573
-693.426	-18.558	-0.486	-0.306
-692.412	-107.060	0.231	0.052
-691.397	-56.563	0.711	0.318
-690.383	-47.236	0.411	-0.202
-689.368	75.218	0.391	-0.416
-688.354	800.000	0.154	-0.472
-687.339	53.525	-0.324	0.313
-686.324	181.704	-0.574	0.852
-685.310	-157.360	0.750	0.046
-684.295	-39.012	-0.535	0.284
-683.281	-62.566	-0.844	0.353
-682.266	-110.705	-0.222	0.046
-681.251	-66.987	-1.067	0.425
-680.237	-79.057	-0.722	0.248
-679.222	426.866	-0.136	-0.296
-678.208	-200.000	0.004	0.463
-677.193	-143.504	-0.136	0.013
-676.178	328.463	0.282	-0.546
-675.164	-200.000	-0.194	-0.965
-674.149	-94.407	-0.715	-0.197
-673.135	68.240	0.421	-0.434
-672.120	-200.000	-0.031	0.517
-671.105	-126.204	0.280	-0.042
-670.091	-200.000	0.046	1.051
-669.076	-26.680	0.600	-0.354
-668.062	696.566	-0.239	-0.632
-667.047	466.681	0.348	-0.785
-666.032	289.997	0.093	0.170
-665.018	-200.000	0.103	-0.597
-664.003	-200.000	-0.045	0.419
-662.989	800.000	-0.383	-1.453
-661.974	-200.000	-0.083	0.586
-660.959	-76.184	-0.431	-0.153
-659.945	184.804	0.257	-0.384
-658.930	-10.271	0.237	0.158
-657.916	41.599	0.352	-0.321
-656.901	-165.111	-0.631	-0.028
-655.886	164.536	-0.229	0.326
-654.872	-153.185	0.346	-0.024
-653.857	300.132	-0.055	0.102
-652.843	-54.663	-0.438	-0.200
-651.828	568.136	0.312	0.763
-650.814	-33.448	-0.470	0.262
-649.799	-200.000	0.070	-0.600
-648.784	59.650	-0.099	-0.098
-647.770	-178.470	0.266	-0.006
-646.755	-46.271	0.361	-0.179
-645.741	317.238	0.319	0.608
-644.726	-151.314	-0.114	-0.009
-643.711	-125.005	-0.168	0.026
-642.697	-200.000	-0.024	0.388
-641.682	24.353	0.380	-0.317
-640.668	-88.141	-0.422	0.127
-639.653	278.144	-0.689	-1.236
-638.638	9.185	-0.783	-0.596
-637.624	195.435	0.643	0.985
-636.609	-127.003	-0.937	0.139
-635.595	800.000	-0.032	0.091
-634.580	-73.188	-0.412	-0.152
-633.565	47.617	0.187	0.175
-632.551	-200.000	-0.013	-0.496
-631.536	-57.242	1.073	-0.476
-630.522	-24.358	-0.086	0.052
-629.507	-90.789	-0.526	0.153
-628.492	800.000	-0.253	1.026
-627.478	800.000	-0.044	0.189
-626.463	465.842	0.011	0.025
-625.449	-200.000	-0.095	-0.785
-624.434	531.204	0.155	0.369
-623.419	800.000	0.077	-0.287
-622.405	101.313	0.298	0.349
-621.390	-100.789	-0.060	0.015
-620.376	68.376	0.770	0.794
-619.361	256.257	0.238	0.412
-618.346	800.000	-0.152	-0.512
-617.332	61.220	0.526	-0.526
-616.317	-200.000	0.013	0.677
-615.303	800.000	0.293	0.821
-614.288	107.143	-0.845	-1.011
-613.273	-121.923	0.068	-0.011
-612.259	232.086	0.298	-0.493
-611.244	689.195	0.333	-0.877
-610.230	-3.354	-0.370	0.259
-609.215	-56.664	-0.120	0.053
-608.201	-200.000	-0.016	-0.227
-607.186	-200.000	-0.006	0.507
-606.171	10.381	-0.288	0.220
-605.157	-200.000	-0.002	-0.024
-604.142	57.207	0.356	0.349
-603.128	268.005	0.365	-0.643
-602.113	-200.000	-0.760	0.004
-601.098	-200.000	0.053	-0.726
-600.084	-12.279	0.832	0.547
-599.069	-41.994	0.529	0.273
-598.055	-34.260	-0.587	0.324
-597.040	-200.000	0.079	0.670
-596.025	97.879	-0.258	-0.299
-595.011	36.035	-0.271	0.240
-593.996	-147.475	-0.408	0.035
-592.982	-8.065	0.761	-0.515
-591.967	-200.000	-0.047	-0.308
-590.952	-23.693	-0.907	0.547
-589.938	252.506	-0.432	-0.741
-588.923	144.737	0.357	0.480
-587.909	-200.000	0.008	0.152
-586.894	-11.680	0.375	-0.247
-585.879	-200.000	0.022	-0.472
-584.865	261.035	-0.122	-0.213
-583.850	-86.609	-0.161	0.049
-582.836	-31.526	0.282	0.159
-581.821	-136.825	-0.195	0.023
-580.806	-200.000	-0.031	0.708
-579.792	-3.526	0.680	-0.476
-578.777	-49.649	-0.505	0.241
-577.763	-200.000	-0.000	0.188
-576.748	-200.000	0.001	0.916
-575.733	51.101	-0.500	-0.476
-574.719	800.000	0.036	0.135
-573.704	-200.000	0.022	0.313
-572.690	-32.251	0.995	0.559
-571.675	-30.392	-0.617	0.352
-570.661	800.000	-0.032	0.097
-569.646	615.488	0.475	1.195
-568.631	-28.613	-0.522	-0.302
-567.617	34.884	0.352	-0.309
-566.602	299.845	-0.094	-0.173
-565.588	29.036	0.397	-0.338
-564.573	-184.611	0.565	0.009
-563.558	-41.616	0.798	-0.412
-562.544	800.000	0.085	0.325
-561.529	-62.297	0.426	0.178
-560.515	800.000	0.183	-0.597
-559.500	262.360	-0.060	0.104
-558.485	324.359	-0.203	0.389
-557.471	-90.517	0.472	-0.137
-556.456	-28.865	-0.611	-0.353
-555.442	-200.000	-0.052	0.467
-554.427	-142.669	0.600	-0.059
-553.412	-33.118	0.505	0.281
-552.398	-161.153	-0.460	-0.024
-551.383	40.838	-0.484	-0.439
-550.369	-55.739	0.705	0.316
-549.354	129.225	0.257	0.329
-548.339	-200.000	0.026	0.239
-547.325	43.162	0.345	0.316
-546.310	-200.000	-0.038	-1.242
-545.296	51.218	-0.182	-0.173
-544.281	-77.014	-0.163	0.057
-543.266	45.237	-0.660	-0.611
-542.252	198.260	-0.296	-0.454
-541.237	-95.459	-0.271	0.073
-540.223	146.428	0.402	-0.542
-539.208	-10.329	0.281	-0.187
-538.193	-28.157	-1.073	0.622
-537.179	-34.888	-0.273	-0.149
-536.164	-166.913	0.310	0.013
-535.150	194.178	-1.004	-1.526
-534.135	-200.000	-0.020	-0.399
-533.121	26.362	0.750	0.629
-532.106	192.199	-0.434	-0.657
-531.091	89.097	0.305	0.341
-530.077	-18.591	-1.089	0.681
-529.062	199.365	-0.310	-0.477
-528.048	-189.581	-0.866	-0.010
-527.033	-38.832	0.664	-0.351
-526.018	504.745	-0.251	0.582
-525.004	-161.611	-0.409	-0.021
-523.989	123.118	0.443	0.557
-522.975	122.055	0.413	0.517
-521.960	-200.000	-0.008	0.302
-520.945	-151.441	0.185	0.014
-519.931	-62.601	0.836	0.348
-518.916	-69.194	0.573	0.221
-517.902	-81.434	-0.677	-0.224
-516.887	260.719	-0.203	0.352
-515.872	15.461	0.470	-0.370
-514.858	108.140	-0.434	0.519
-513.843	-75.521	-0.316	0.113
-512.829	27.080	0.268	0.226
-511.814	-28.166	0.551	0.319
-510.799	59.871	0.477	0.472
-509.785	407.166	-0.076	0.160
-508.770	-142.239	-0.436	-0.043
-507.756	-43.398	0.213	-0.108
-506.741	239.382	-0.339	0.565
-505.726	-34.868	0.310	0.170
-504.712	-53.205	-0.433	-0.199
-503.697	-26.167	-0.504	-0.297
-502.683	-200.000	0.005	0.245
-501.668	187.652	-0.516	0.772
-500.653	-200.000	0.202	0.960
-499.639	9.574	-0.837	-0.635
-498.624	800.000	0.072	0.203
-497.610	238.810	0.570	0.949
-496.595	-122.324	0.050	-0.008
-495.581	-119.041	-0.542	0.095
-494.566	783.010	-0.161	0.443
-493.551	131.511	-0.512	-0.660
-492.537	-200.000	-0.044	0.195
-491.522	-123.793	-0.212	-0.033
-490.508	800.000	0.247	-0.740
-489.493	-127.294	-0.570	-0.083
-488.478	-165.152	-1.097	-0.049
-487.464	-147.296	0.772	-0.066
-486.449	-40.570	0.520	-0.270
-485.435	-26.996	-0.305	-0.178
-484.420	-6.593	0.618	-0.421
-483.405	91.023	-0.315	0.354
-482.391	-37.023	-0.072	0.039
-481.376	-100.254	0.161	-0.040
-480.362	-200.000	-0.037	-0.525
-479.347	36.531	-0.444	-0.393
-478.332	-35.404	-0.361	-0.196
-477.318	-200.000	-0.024	0.366
-476.303	125.297	-0.474	-0.599
-475.289	18.997	-0.275	0.221
-474.274	-200.000	0.079	0.902
-473.259	-186.285	-0.779	0.011
-472.245	-104.194	0.494	-0.115
-471.230	-28.072	-0.813	0.471
-470.216	-200.000	0.060	0.506
-469.201	-138.131	0.655	0.073
-468.186	-60.785	0.503	-0.213
-467.172	800.000	-0.042	0.137
-466.157	130.551	-0.135	0.173
-465.143	-200.000	0.127	0.684
-464.128	-120.856	0.331	-0.056
-463.113	-200.000	0.028	0.745
-462.099	-4.883	-0.326	-0.225
-461.084	-116.791	-0.712	0.131
-460.070	-92.241	0.369	0.104
-459.055	-169.332	-0.166	0.006
-458.040	-41.902	-0.494	-0.253
-457.026	-85.683	0.234	0.073
-456.011	48.190	-0.376	-0.352
-454.997	52.780	-0.463	0.442
-453.982	54.059	-0.492	0.473
-452.968	136.397	-0.321	-0.419
-451.953	48.813	-0.162	-0.152
-450.938	-15.480	0.415	0.265
-449.924	249.302	0.194	0.329
-448.909	51.878	0.230	-0.219
-447.895	-74.322	-0.888	0.321
-446.880	-88.394	-0.378	0.113
-445.865	344.494	-0.276	0.541
-444.851	-200.000	0.063	0.309
-443.836	-139.180	-0.255	-0.028
-442.822	25.060	0.755	-0.627
-441.807	-19.847	0.474	0.293
-440.792	-200.000	-0.030	-0.985
-439.778	800.000	0.129	0.389
-438.763	-43.071	-0.322	0.163
-437.749	-200.000	-0.098	0.598
-436.734	-44.066	0.547	0.275
-435.719	-10.135	-0.990	-0.657
-434.705	800.000	0.131	-0.438
-433.690	-200.000	-0.001	0.106
-432.676	-117.185	0.660	0.120
-431.661	-70.338	0.424	-0.161
-430.646	249.553	-0.260	-0.441
-429.632	-181.020	0.379	0.008
-428.617	181.865	-0.288	0.424
-427.603	-25.026	0.288	-0.171
-426.588	-200.000	-0.003	-0.347
-425.573	165.709	0.549	0.776
-424.559	101.780	0.546	-0.636
-423.544	28.621	0.295	-0.250
-422.530	68.489	0.467	-0.478
-421.515	-200.000	-0.097	-0.702
-420.500	226.989	-0.274	-0.445
-419.486	800.000	-0.157	-0.470
-418.471	45.580	0.079	0.073
-417.457	699.037	-0.060	-0.157
-416.442	-88.061	0.308	-0.092
-415.428	-86.780	0.442	0.135
-414.413	121.084	-0.232	-0.288
-413.398	65.289	-0.647	0.653
-412.384	-92.538	0.427	0.120
-411.369	-73.451	-0.611	0.223
-410.355	-82.971	0.331	-0.106
-409.340	800.000	0.113	-0.390
-408.325	800.000	-0.270	-0.749
-407.311	-113.905	0.547	-0.106
-406.296	230.395	-0.224	0.365
-405.282	-20.299	-0.277	-0.170
-404.267	87.535	-0.198	0.218
-403.252	178.852	0.308	-0.449
-402.238	17.073	-0.538	-0.426
-401.223	-145.875	-0.137	-0.012
-400.209	-183.389	-0.455	-0.008
-399.194	83.602	0.185	-0.201
-398.179	307.826	0.124	-0.230
-397.165	21.580	0.176	0.143
-396.150	136.079	-0.374	0.486
-395.136	8.577	0.181	0.136
-394.121	800.000	-0.150	0.607
-393.106	-200.000	-0.015	-0.570
-392.092	17.177	-0.253	-0.200
-391.077	-130.080	-0.693	0.094
-390.063	124.699	-0.512	0.642
-389.048	-200.000	0.051	-0.514
-388.033	-60.608	0.935	-0.396
-387.019	27.712	0.128	-0.107
-386.004	-123.295	0.733	0.117
-384.990	303.554	-0.180	0.332
-383.975	558.563	0.217	0.522
-382.960	-123.508	0.435	0.069
-381.946	-200.000	-0.077	0.572
-380.931	-200.000	-0.014	0.437
-379.917	49.075	0.517	-0.485
-378.902	141.042	0.743	-0.980
-377.888	148.280	-0.343	0.461
-376.873	-11.246	-0.928	-0.610
-375.858	-21.518	-0.786	-0.478
-374.844	-179.468	0.587	-0.013
-373.829	84.395	0.167	0.182
-372.815	-141.875	-0.360	0.036
-371.800	800.000	-0.019	0.084
-370.785	-91.089	-0.529	-0.151
-369.771	-25.544	-0.577	0.340
-368.756	-80.350	0.392	0.130
-367.742	125.091	-0.275	0.346
-366.727	-200.000	0.054	0.883
-365.712	-22.055	0.827	-0.501
-364.698	11.127	0.772	0.588
-363.683	-89.153	-0.769	-0.226
-362.669	-123.582	1.212	-0.192
-361.654	-93.389	0.200	-0.055
-360.639	153.250	-0.347	-0.473
-359.625	800.000	-0.259	0.905
-358.610	-105.925	-0.613	0.138
-357.596	387.639	0.232	0.477
-356.581	390.021	-0.165	-0.340
-355.566	46.792	0.248	0.230
-354.552	-200.000	0.047	0.800
-353.537	-109.447	-0.870	0.183
-352.523	305.640	0.221	-0.409
-351.508	800.000	0.085	-0.253
-350.493	143.290	0.501	0.664
-349.479	-200.000	-0.099	0.704
-348.464	514.859	0.198	0.460
-347.450	40.660	0.392	-0.352
-346.435	-46.487	0.249	0.122
-345.420	122.869	-0.088	0.109
-344.406	800.000	-0.152	0.456
-343.391	60.683	0.261	0.258
-342.377	198.286	-0.303	-0.462
-341.362	93.136	0.752	-0.846
-340.348	-200.000	-0.016	-0.311
-339.333	-48.946	0.178	0.085
-338.318	239.079	0.351	-0.581
-337.304	-200.000	0.026	0.310
-336.289	-85.695	0.521	0.161
-335.275	212.636	0.383	-0.602
-334.260	743.071	0.212	0.567
-333.245	-35.147	0.608	0.330
-332.231	-200.000	0.022	0.239
-331.216	-183.798	-0.296	0.005
-330.202	-46.697	-0.402	0.196
-329.187	-118.848	-0.315	0.055
-328.172	-200.000	-0.026	0.206
-327.158	-157.802	0.697	-0.041
-326.143	5.185	-0.371	-0.272
-325.129	-200.000	0.026	-0.552
-324.114	-200.000	0.102	0.586
-323.099	337.473	0.336	0.650
-322.085	-21.954	-0.256	-0.155
-321.070	-200.000	-0.136	1.092
-320.056	-200.000	0.086	0.438
-319.041	800.000	-0.155	0.431
-318.026	26.038	-0.621	-0.516
-317.012	-89.411	0.598	0.175
-315.997	-138.324	0.522	0.057
-314.983	800.000	-0.075	0.314
-313.968	443.635	0.444	0.967
-312.953	39.637	0.560	0.499
-311.939	546.782	0.194	0.463
-310.924	479.758	-0.334	-0.753
-309.910	84.456	-0.268	-0.292
-308.895	-123.320	-0.335	-0.053
-307.880	-107.498	-0.521	0.113
-306.866	197.119	0.310	-0.470
-305.851	565.407	0.078	-0.189
-304.837	257.946	0.556	0.952
-303.822	132.962	0.520	0.667
-302.807	800.000	0.072	0.213
-301.793	-200.000	0.063	-0.862
-300.778	2.044	-0.414	-0.297
-299.764	193.868	-0.239	-0.359
-298.749	-69.033	0.777	0.298
-297.735	-200.000	-0.035	-0.322
-296.720	-111.290	-0.679	-0.138
-295.705	-4.896	0.257	0.176
-294.691	108.716	0.327	-0.388
-293.676	-25.513	-0.676	0.397
-292.662	-66.124	-0.891	-0.353
-291.647	-200.000	-0.034	0.153
-290.632	117.637	-0.068	-0.084
-289.618	-200.000	0.022	0.614
-288.603	-72.158	-0.558	-0.206
-287.589	-200.000	0.088	0.549
-286.574	-68.304	-0.419	-0.162
-285.559	-128.874	-0.372	0.052
-284.545	-43.848	0.425	0.213
-283.530	-123.776	-1.130	0.177
-282.516	-116.436	-0.506	-0.093
-281.501	-11.251	0.300	0.196
-280.486	-200.000	0.156	-0.711
-279.472	-17.402	-0.709	-0.443
-278.457	263.307	-0.157	-0.271
-277.443	800.000	0.477	-1.418
-276.428	800.000	0.233	-0.652
-275.413	-12.664	-0.304	-0.197
-274.399	-162.725	0.758	0.037
-273.384	-109.738	-0.320	-0.067
-272.370	36.050	0.111	0.097
-271.355	47.361	0.053	-0.049
-270.340	-200.000	-0.029	-0.357
-269.326	-8.386	0.449	-0.300
-268.311	287.766	0.297	-0.533
-267.297	-114.763	-0.951	0.180
-266.282	-200.000	-0.202	0.948
-265.267	122.961	0.076	0.095
-264.253	-200.000	-0.004	-0.121
-263.238	71.003	-0.476	0.490
-262.224	464.398	-0.145	-0.321
-261.209	280.539	-0.210	0.372
-260.195	42.859	0.432	-0.391
-259.180	156.017	-0.260	-0.356
-258.165	-200.000	0.134	0.870
-257.151	-200.000	0.000	1.118
-256.136	-56.562	0.269	0.118
-255.122	-200.000	0.064	-0.336
-254.107	-34.125	-0.284	0.155
-253.092	-67.049	-0.219	0.086
-252.078	6.561	0.634	-0.467
-251.063	-200.000	-0.008	-0.320
-250.049	170.710	0.249	0.354
-249.034	114.309	-0.219	-0.264
-248.019	98.258	-0.219	-0.251
-247.005	235.218	0.736	-1.205
-245.990	368.369	-0.293	-0.587
-244.976	250.581	-0.358	-0.603
-243.961	-88.201	-0.126	0.037
-242.946	800.000	0.077	-0.221
-241.932	-50.542	0.786	-0.367
-240.917	541.724	0.195	-0.461
-239.903	28.743	0.771	-0.648
-238.888	-156.610	1.034	-0.064
-237.873	800.000	0.207	0.570
-236.859	-200.000	0.025	0.493
-235.844	302.846	0.507	-0.931
-234.830	-95.804	-0.376	0.100
-233.815	-4.684	-0.401	0.275
-232.800	302.130	-0.261	0.479
-231.786	-200.000	0.035	0.317
-230.771	-26.837	0.627	-0.363
-229.757	-130.400	-0.568	0.076
-228.742	7.419	0.129	-0.095
-227.727	137.822	-0.418	-0.543
-226.713	800.000	0.208	-0.713
-225.698	-7.154	-0.811	0.545
-224.684	800.000	-0.279	0.959
-223.669	-66.970	-0.432	-0.169
-222.655	-200.000	0.003	-0.221
-221.640	800.000	-0.054	0.155
-220.625	152.286	-0.364	-0.493
-219.611	15.755	-0.330	0.257
-218.596	-63.061	0.333	-0.136
-217.582	-147.297	-0.378	0.032
-216.567	220.030	0.110	0.174
-215.552	-74.585	0.335	-0.119
-214.538	-181.302	0.915	-0.018
-213.523	149.667	-0.204	-0.274
-212.509	-156.434	0.321	0.020
-211.494	16.371	-0.384	0.300
-210.479	43.825	0.253	0.230
-209.465	31.795	-0.595	0.508
-208.450	197.871	-0.413	0.625
-207.436	39.332	-0.141	0.125
-206.421	800.000	-0.077	-0.222
-205.406	-3.369	-0.515	0.355
-204.392	-34.576	0.600	-0.325
-203.377	324.411	0.377	-0.713
-202.363	-200.000	-0.014	-0.316
-201.348	-143.021	-0.022	-0.002
-200.333	488.647	0.438	-0.990
-199.319	800.000	0.193	-0.661
-198.304	-86.222	-0.275	-0.084
-197.290	252.411	-0.340	-0.575
-196.275	14.209	0.452	0.349
-195.260	-13.117	-0.281	0.181
-194.246	129.013	0.133	-0.168
-193.231	175.210	-0.407	-0.584
-192.217	-103.629	1.016	-0.236
-191.202	800.000	0.131	0.436
-190.187	800.000	0.289	0.930
-189.173	-200.000	-0.074	0.346
-188.158	-118.529	-0.622	-0.109
-187.144	122.910	0.351	0.435
-186.129	83.362	0.723	-0.780
-185.114	92.366	0.238	0.266
-184.100	352.743	0.219	-0.429
-183.085	171.762	-0.220	-0.312
-182.071	130.835	-0.209	-0.266
-181.056	95.531	0.329	-0.371
-180.042	63.377	-0.452	-0.449
-179.027	-81.212	-0.371	-0.121
-178.012	7.461	0.688	0.509
-176.998	96.320	0.295	-0.333
-175.983	347.517	-0.093	0.181
-174.969	38.760	-0.670	-0.592
-173.954	96.403	-0.443	-0.501
-172.939	-200.000	-0.025	-0.206
-171.925	-200.000	0.121	-0.890
-170.910	-200.000	-0.034	0.169
-169.896	-48.629	-0.583	0.277
-168.881	-4.474	-0.339	0.232
-167.866	690.909	-0.205	0.532
-166.852	-200.000	-0.015	-0.179
-165.837	-100.543	0.634	0.155
-164.823	-200.000	-0.122	-0.552
-163.808	-121.269	-0.992	0.164
-162.793	419.108	0.294	-0.621
-161.779	800.000	0.206	-0.645
-160.764	496.501	0.223	0.507
-159.750	79.872	-0.041	-0.044
-158.735	-28.756	0.738	-0.420
-157.720	149.553	0.368	0.493
-156.706	-200.000	0.002	0.863
-155.691	98.901	0.716	0.817
-154.677	-200.000	0.005	0.262
-153.662	148.885	-0.419	-0.560
-152.647	49.339	0.699	-0.650
-151.633	65.224	0.415	-0.414
-150.618	-200.000	-0.089	-0.410
-149.604	800.000	0.221	-0.724
-148.589	-164.895	-0.400	-0.018
-147.574	31.477	0.313	0.266
-146.560	-200.000	-0.024	0.323
-145.545	309.805	-0.117	-0.217
-144.531	136.516	0.321	0.413
-143.516	166.145	0.140	-0.196
-142.502	10.133	0.261	-0.196
-141.487	-200.000	0.005	0.190
-140.472	51.212	0.484	-0.454
-139.458	-26.951	-0.317	-0.183
-138.443	-38.226	-0.763	-0.399
-137.429	651.675	0.274	0.692
-136.414	747.043	-0.119	-0.316
-135.399	162.023	-0.218	-0.302
-134.385	10.545	-0.414	0.312
-133.370	-111.254	1.214	-0.245
-132.356	24.333	-0.846	-0.691
-131.341	-200.000	-0.014	-0.624
-130.326	-88.475	0.484	-0.142
-129.312	-200.000	0.055	-0.541
-128.297	-200.000	-0.116	0.630
-127.283	-154.255	-1.116	-0.074
-126.268	-28.228	-0.281	-0.161
-125.253	437.622	0.331	-0.712
-124.239	465.404	0.186	-0.411
-123.224	753.122	0.112	-0.299
-122.210	116.952	-0.215	-0.260
-121.195	-113.184	0.654	-0.127
