DTS Sentinel unit serial number:	SN413079Multiplexer serial number:	ORYXHardware model number:	OX4-SRSoftware version number:	ORYX F/W v4.00 Oryx Data Collector v3.7.2.0data status	okinstallation	princeton_trtdifferential loss correction	single-endedforward channel	channel 1reverse channel	N/Adate	2019/09/19time	10:38:35forward acquisition time	60.00reverse acquisition time	0.00gamma	496.2192k internal	0.2338k external	0.2338temperature offset calibration	1.0008default loss term (dB/km)	0.3790temperature slope calibration	1.0000multiplexer offset coefficient	1.0000multiplexer slope coefficient	1.0000fibre end	0.00T internal ref (°C)	24.52T ext. ref 1 (°C)	0.73T ext. ref 2 (°C)	20.01length (m)	temperature (°C)	Stokes	anti-Stokes-747.200	-54.833	-0.141	-0.064
-746.185	-39.784	-0.104	-0.054
-745.171	118.249	-0.071	-0.088
-744.156	-39.190	-0.183	0.096
-743.142	114.214	0.181	0.221
-742.127	-53.130	-0.483	0.223
-741.112	221.973	0.250	-0.403
-740.098	-66.560	-0.276	0.110
-739.083	283.986	0.166	-0.300
-738.069	-200.000	-0.046	-0.308
-737.054	116.685	-0.100	0.123
-736.039	14.247	-0.070	0.055
-735.025	8.295	-0.037	0.028
-734.010	800.000	0.087	0.285
-732.996	79.888	-0.278	-0.300
-731.981	-155.660	-0.392	-0.025
-730.966	800.000	0.101	-0.314
-729.952	-200.000	-0.056	-0.417
-728.937	128.225	-0.071	0.091
-727.923	-12.835	0.121	-0.079
-726.908	800.000	-0.110	-0.459
-725.894	800.000	0.076	0.270
-724.879	-200.000	0.023	-0.181
-723.864	800.000	-0.038	-0.153
-722.850	-200.000	-0.006	0.040
-721.835	24.258	-0.089	-0.073
-720.821	800.000	-0.088	0.251
-719.806	478.897	0.057	0.129
-718.791	720.145	0.100	-0.265
-717.777	-83.239	0.270	-0.087
-716.762	71.335	-0.161	-0.167
-715.748	27.756	-0.188	0.159
-714.733	-36.026	-0.168	-0.091
-713.718	-200.000	0.022	0.181
-712.704	-125.977	-0.020	0.003
-711.689	-200.000	-0.004	0.036
-710.675	374.636	0.098	0.199
-709.660	693.248	-0.100	-0.262
-708.645	-9.006	0.208	-0.140
-707.631	113.586	0.068	0.083
-706.616	800.000	-0.037	-0.161
-705.602	-47.717	0.275	-0.134
-704.587	484.243	0.096	0.219
-703.572	-60.770	0.339	0.144
-702.558	578.192	-0.086	0.212
-701.543	163.072	0.153	0.215
-700.529	433.399	-0.017	-0.037
-699.514	63.686	0.046	0.046
-698.499	-200.000	0.035	-0.190
-697.485	-200.000	-0.043	0.442
-696.470	328.416	-0.095	0.182
-695.456	124.251	0.092	0.116
-694.441	-111.475	-0.284	0.058
-693.426	800.000	-0.055	0.167
-692.412	149.360	-0.140	-0.189
-691.397	100.807	0.255	-0.297
-690.383	-178.279	-0.171	-0.004
-689.368	408.881	-0.118	-0.250
-688.354	-105.146	0.336	-0.077
-687.339	800.000	0.039	-0.153
-686.324	-170.673	-0.338	0.012
-685.310	-101.112	-0.200	-0.049
-684.295	49.824	0.200	0.189
-683.281	665.988	0.024	0.061
-682.266	800.000	0.054	-0.149
-681.251	161.468	0.036	0.050
-680.237	239.941	-0.079	-0.131
-679.222	800.000	-0.065	-0.222
-678.208	12.169	0.142	-0.109
-677.193	-200.000	0.034	0.285
-676.178	103.144	-0.324	0.380
-675.164	-122.686	-0.455	0.074
-674.149	145.934	-0.207	-0.278
-673.135	800.000	0.073	0.302
-672.120	-44.120	0.263	0.132
-671.105	-200.000	-0.001	-0.133
-670.091	194.964	-0.050	-0.075
-669.076	-133.330	-0.109	0.014
-668.062	-75.077	0.178	-0.064
-667.047	298.688	0.034	0.063
-666.032	286.959	-0.098	-0.176
-665.018	-114.849	-0.225	0.043
-664.003	800.000	-0.106	0.312
-662.989	222.189	0.083	-0.134
-661.974	-75.873	0.355	0.126
-660.959	225.016	0.215	0.348
-659.945	-200.000	-0.031	0.367
-658.930	-200.000	0.043	0.418
-657.916	29.804	-0.242	0.206
-656.901	-74.008	-0.206	-0.075
-655.886	141.607	0.202	0.268
-654.872	251.446	-0.119	-0.202
-653.857	1.348	-0.334	-0.240
-652.843	7.213	0.010	-0.008
-651.828	-200.000	-0.091	0.404
-650.814	-33.905	-0.179	0.099
-649.799	535.384	-0.059	-0.140
-648.784	-97.133	0.164	-0.043
-647.770	-200.000	0.013	-0.249
-646.755	98.410	-0.168	-0.194
-645.741	-116.398	-0.339	-0.063
-644.726	800.000	-0.007	-0.022
-643.711	174.360	0.194	-0.281
-642.697	-46.472	-0.375	0.184
-641.682	32.128	0.258	-0.222
-640.668	-35.615	-0.194	0.105
-639.653	167.159	0.303	0.429
-638.638	-200.000	0.008	0.304
-637.624	8.351	-0.131	0.098
-636.609	-200.000	0.067	-0.357
-635.595	-200.000	-0.004	-0.319
-634.580	109.233	0.051	0.061
-633.565	-133.626	0.181	0.023
-632.551	800.000	0.054	-0.185
-631.536	76.854	-0.178	-0.189
-630.522	-3.402	0.108	-0.075
-629.507	80.310	0.024	-0.026
-628.492	-130.145	0.091	-0.012
-627.478	-200.000	-0.066	0.358
-626.463	47.748	0.057	0.053
-625.449	44.832	-0.199	-0.183
-624.434	216.188	0.091	-0.144
-623.419	-105.668	-0.052	0.012
-622.405	-177.332	0.188	0.005
-621.390	-27.293	-0.140	0.082
-620.376	3.657	-0.188	-0.137
-619.361	117.428	0.083	0.102
-618.346	-46.931	-0.208	0.102
-617.332	-128.573	-0.235	0.033
-616.317	239.034	-0.158	0.262
-615.303	529.818	-0.100	0.236
-614.288	368.499	-0.131	0.264
-613.273	-200.000	0.008	0.184
-612.259	-200.000	-0.028	0.234
-611.244	-200.000	0.002	0.326
-610.230	-200.000	-0.018	0.201
-609.215	-200.000	-0.005	-0.035
-608.201	207.791	-0.051	-0.079
-607.186	-66.954	-0.082	-0.032
-606.171	32.890	-0.217	-0.187
-605.157	-7.893	0.187	-0.126
-604.142	-132.357	-0.262	0.034
-603.128	-200.000	-0.002	-0.194
-602.113	-200.000	0.017	-0.140
-601.098	-139.543	0.204	-0.022
-600.084	46.504	-0.270	0.250
-599.069	-164.049	-0.080	0.004
-598.055	386.079	0.103	-0.212
-597.040	178.903	-0.037	-0.053
-596.025	-200.000	-0.051	-0.249
-595.011	-186.674	-0.033	-0.000
-593.996	-111.772	0.310	0.063
-592.982	191.229	0.148	-0.223
-591.967	-12.587	-0.157	0.102
-590.952	172.565	-0.067	-0.097
-589.938	95.023	0.214	0.243
-588.923	77.484	-0.063	0.067
-587.909	800.000	0.101	-0.312
-586.894	308.696	-0.132	-0.246
-585.879	-200.000	-0.024	-0.131
-584.865	-200.000	-0.017	-0.220
-583.850	-200.000	-0.031	-0.220
-582.836	34.059	0.278	-0.241
-581.821	-79.540	-0.266	-0.089
-580.806	-122.008	0.129	0.021
-579.792	-163.084	-0.164	0.008
-578.777	800.000	-0.007	-0.022
-577.763	-108.712	-0.408	-0.087
-576.748	212.153	0.253	0.398
-575.733	606.257	-0.056	-0.139
-574.719	502.196	0.042	-0.096
-573.704	74.011	-0.129	0.135
-572.690	800.000	0.082	0.233
-571.675	-86.720	0.148	0.045
-570.661	-38.885	0.247	-0.130
-569.646	-119.636	0.060	0.010
-568.631	60.743	-0.170	0.168
-567.617	179.665	-0.147	-0.215
-566.602	-200.000	-0.045	-0.199
-565.588	-87.552	-0.065	0.019
-564.573	119.582	-0.248	0.306
-563.558	-139.815	0.168	-0.018
-562.544	-81.798	0.325	-0.106
-561.529	217.771	-0.198	0.314
-560.515	-105.473	-0.264	0.060
-559.500	-147.247	0.166	-0.014
-558.485	800.000	-0.068	0.282
-557.471	-200.000	0.009	-0.215
-556.456	293.088	0.084	0.153
-555.442	550.546	-0.058	-0.139
-554.427	-46.177	0.266	0.130
-553.412	340.408	0.004	0.008
-552.398	40.030	0.059	-0.053
-551.383	-107.822	0.113	-0.025
-550.369	745.987	-0.045	0.121
-549.354	62.181	-0.206	0.205
-548.339	-97.301	0.114	-0.030
-547.325	149.507	-0.261	0.352
-546.310	120.778	0.056	0.069
-545.296	800.000	0.083	-0.241
-544.281	800.000	-0.090	0.277
-543.266	800.000	0.078	-0.324
-542.252	-135.170	0.111	-0.013
-541.237	-183.949	0.211	-0.004
-540.223	-200.000	-0.025	-0.437
-539.208	174.925	0.136	-0.196
-538.193	239.799	0.110	-0.183
-537.179	800.000	0.061	0.185
-536.164	-136.897	0.147	-0.017
-535.150	-187.196	-0.123	0.002
-534.135	66.482	0.001	-0.001
-533.121	-179.237	0.270	0.006
-532.106	174.048	0.042	-0.061
-531.091	491.404	0.088	-0.201
-530.077	-200.000	-0.018	0.242
-529.062	235.476	-0.148	-0.244
-528.048	256.490	-0.141	0.241
-527.033	91.966	0.082	-0.092
-526.018	-200.000	0.049	-0.345
-525.004	-52.805	-0.404	0.185
-523.989	-81.515	-0.324	-0.106
-522.975	-103.852	0.266	0.062
-521.960	-200.000	0.010	0.188
-520.945	-19.363	0.310	0.191
-519.931	-179.851	0.507	0.011
-518.916	-161.719	-0.292	-0.015
-517.902	84.987	-0.180	-0.196
-516.887	800.000	-0.168	-0.472
-515.872	47.108	0.351	-0.325
-514.858	-115.320	-0.133	0.025
-513.843	-117.044	-0.117	-0.021
-512.829	-38.863	0.084	0.044
-511.814	102.847	-0.157	0.183
-510.799	-22.687	-0.276	-0.166
-509.785	271.767	0.089	-0.156
-508.770	-200.000	0.003	-0.301
-507.756	140.668	-0.255	0.335
-506.741	-200.000	-0.036	0.167
-505.726	0.692	-0.115	0.082
-504.712	-23.071	0.075	-0.045
-503.697	-200.000	-0.017	0.114
-502.683	-200.000	-0.043	0.545
-501.668	28.125	-0.095	0.080
-500.653	112.536	0.184	0.221
-499.639	800.000	-0.033	0.134
-498.624	301.966	-0.038	0.070
-497.610	201.594	-0.079	0.122
-496.595	-63.594	0.522	0.213
-495.581	-63.935	0.107	-0.044
-494.566	-200.000	-0.004	-0.153
-493.551	385.618	-0.073	-0.149
-492.537	52.944	0.160	-0.152
-491.522	214.063	0.062	-0.098
-490.508	-200.000	0.002	0.062
-489.493	800.000	-0.015	0.043
-488.478	-200.000	-0.052	0.333
-487.464	-200.000	-0.013	0.083
-486.449	-85.837	-0.097	-0.030
-485.435	215.139	0.105	0.165
-484.420	-200.000	0.009	-0.149
-483.405	-49.371	0.207	0.098
-482.391	141.418	0.042	0.056
-481.376	-17.157	-0.050	0.032
-480.362	-75.613	0.180	-0.064
-479.347	-200.000	-0.030	-0.196
-478.332	-200.000	-0.012	-0.227
-477.318	-144.536	0.071	0.007
-476.303	-102.788	0.167	0.040
-475.289	800.000	0.144	0.613
-474.274	180.609	0.117	-0.171
-473.259	4.237	-0.249	-0.181
-472.245	-12.574	-0.028	0.018
-471.230	52.847	0.222	-0.210
-470.216	15.444	0.226	-0.176
-469.201	-42.953	-0.165	-0.083
-468.186	-23.732	0.136	-0.081
-467.172	241.487	0.033	-0.055
-466.157	525.293	0.138	-0.322
-465.143	800.000	-0.081	0.235
-464.128	-200.000	0.051	0.291
-463.113	371.515	0.186	-0.375
-462.099	271.497	0.024	0.042
-461.084	510.066	-0.104	0.240
-460.070	-200.000	-0.090	0.402
-459.055	174.356	-0.061	-0.087
-458.040	8.366	0.171	-0.127
-457.026	16.695	-0.047	-0.037
-456.011	210.598	-0.077	0.120
-454.997	-98.603	0.144	-0.036
-453.982	-200.000	0.026	-0.369
-452.968	581.201	-0.030	0.074
-451.953	-53.886	-0.260	0.118
-450.938	-200.000	-0.045	0.210
-449.924	197.078	0.231	-0.349
-448.909	-93.698	-0.061	0.017
-447.895	-84.771	0.380	0.119
-446.880	111.013	-0.194	-0.232
-445.865	260.402	0.117	-0.200
-444.851	97.613	-0.212	-0.242
-443.836	204.645	-0.096	0.147
-442.822	360.931	-0.030	-0.060
-441.807	-106.850	0.245	0.054
-440.792	-17.883	0.307	0.191
-439.778	52.338	0.033	0.032
-438.763	-200.000	0.000	0.106
-437.749	87.623	-0.086	0.094
-436.734	19.054	-0.014	0.011
-435.719	-200.000	-0.067	0.342
-434.705	-200.000	-0.000	0.136
-433.690	-139.805	0.348	0.037
-432.676	441.420	-0.112	-0.243
-431.661	-129.884	0.142	0.019
-430.646	-200.000	-0.030	0.145
-429.632	-132.979	-0.077	0.010
-428.617	-107.726	-0.074	-0.016
-427.603	44.439	0.168	-0.153
-426.588	-125.557	-0.090	0.013
-425.573	1.941	0.127	-0.091
-424.559	-17.895	-0.201	0.125
-423.544	153.630	0.062	-0.084
-422.530	511.902	-0.040	0.091
-421.515	-42.308	0.079	-0.040
-420.500	-97.229	-0.203	0.052
-419.486	690.882	0.206	0.535
-418.471	800.000	0.027	0.083
-417.457	-143.375	0.250	-0.024
-416.442	199.191	-0.172	-0.262
-415.428	-49.641	0.134	-0.063
-414.413	140.120	-0.126	-0.165
-413.398	175.299	-0.214	-0.307
-412.384	467.755	0.073	-0.161
-411.369	279.984	0.081	0.143
-410.355	-106.232	-0.120	0.027
-409.340	196.349	0.127	-0.192
-408.325	-79.889	0.236	0.079
-407.311	800.000	0.089	-0.287
-406.296	-41.425	-0.271	-0.138
-405.282	74.926	-0.056	-0.059
-404.267	-14.973	-0.217	-0.138
-403.252	466.229	0.082	0.182
-402.238	-200.000	0.038	-0.387
-401.223	460.394	-0.075	0.164
-400.209	-31.770	0.119	0.066
-399.194	159.814	-0.173	0.239
-398.179	-70.469	0.035	-0.013
-397.165	158.233	-0.158	0.216
-396.150	-19.907	0.180	-0.110
-395.136	-0.691	-0.167	0.117
-394.121	-200.000	0.043	-0.311
-393.106	-67.934	0.151	0.059
-392.092	-200.000	0.009	-0.105
-391.077	-112.453	0.275	0.054
-390.063	5.728	0.263	-0.193
-389.048	19.948	0.068	0.055
-388.033	1.117	0.029	0.021
-387.019	-23.120	-0.151	0.090
-386.004	-200.000	-0.003	-0.159
-384.990	245.939	0.121	-0.202
-383.975	-200.000	0.049	0.224
-382.960	-200.000	0.016	-0.126
-381.946	-98.067	-0.226	-0.057
-380.931	-83.788	-0.374	0.118
-379.917	129.280	0.215	-0.272
-378.902	800.000	-0.092	-0.290
-377.888	122.129	0.039	-0.048
-376.873	-200.000	-0.010	0.128
-375.858	-49.518	0.286	0.135
-374.844	64.872	0.051	-0.051
-373.829	87.599	0.004	0.005
-372.815	800.000	0.030	-0.122
-371.800	-127.017	0.146	0.021
-370.785	-94.925	-0.206	-0.055
-369.771	34.336	0.210	0.181
-368.756	53.375	0.268	-0.254
-367.742	88.693	-0.153	0.168
-366.727	226.286	-0.140	-0.225
-365.712	-65.544	0.226	-0.090
-364.698	-165.900	-0.225	0.010
-363.683	-189.984	0.132	0.001
-362.669	625.672	-0.148	-0.370
-361.654	135.841	0.089	0.115
-360.639	2.991	0.118	-0.085
-359.625	-48.065	0.193	0.092
-358.610	-99.064	-0.544	0.136
-357.596	32.023	0.037	-0.031
-356.581	-128.987	0.249	-0.035
-355.566	800.000	0.035	0.108
-354.552	464.769	0.034	-0.075
-353.537	-87.757	0.110	-0.033
-352.523	-25.122	0.234	0.137
-351.508	-200.000	-0.012	-0.290
-350.493	-125.527	-0.486	-0.073
-349.479	-44.413	0.058	0.028
-348.464	233.989	0.241	0.392
-347.450	55.623	-0.086	0.082
-346.435	-162.539	-0.127	-0.006
-345.420	-24.792	0.144	-0.084
-344.406	-119.802	-0.065	-0.011
-343.391	800.000	-0.019	-0.070
-342.377	-19.056	-0.165	0.102
-341.362	-162.229	-0.105	0.005
-340.348	-60.388	0.230	-0.097
-339.333	-200.000	0.037	0.252
-338.318	93.295	-0.096	0.107
-337.304	-152.791	-0.098	-0.007
-336.289	-200.000	-0.060	0.301
-335.275	-155.559	-0.278	-0.018
-334.260	-80.059	0.202	-0.067
-333.245	232.952	-0.341	0.554
-332.231	-77.546	0.374	0.128
-331.216	-60.576	-0.068	0.028
-330.202	688.714	-0.093	0.240
-329.187	68.885	0.001	-0.001
-328.172	2.853	-0.208	-0.149
-327.158	1.180	-0.145	-0.102
-326.143	-124.131	-0.100	-0.015
-325.129	-87.429	-0.297	-0.089
-324.114	160.172	-0.117	-0.160
-323.099	402.766	0.150	-0.312
-322.085	-200.000	-0.023	-0.235
-321.070	22.196	-0.259	-0.209
-320.056	107.000	0.140	0.164
-319.041	-100.871	-0.098	-0.024
-318.026	134.434	0.190	-0.243
-317.012	-164.973	-0.294	-0.013
-315.997	-200.000	-0.060	-0.298
-314.983	144.434	-0.080	0.106
-313.968	170.726	-0.083	-0.117
-312.953	696.400	0.042	0.109
-311.939	-200.000	0.003	0.067
-310.924	-200.000	-0.014	0.283
-309.910	-200.000	0.060	0.310
-308.895	-56.270	0.078	-0.034
-307.880	-200.000	-0.011	0.236
-306.866	110.828	-0.068	-0.080
-305.851	-113.751	0.356	0.068
-304.837	-200.000	-0.001	0.128
-303.822	800.000	-0.112	0.353
-302.807	4.830	-0.239	0.173
-301.793	103.866	-0.063	0.073
-300.778	-41.314	-0.113	-0.057
-299.764	-80.723	0.266	-0.087
-298.749	307.645	-0.071	-0.130
-297.735	-45.433	0.185	0.090
-296.720	87.843	-0.095	-0.104
-295.705	-194.701	0.253	0.002
-294.691	193.229	-0.078	0.117
-293.676	-105.844	-0.327	-0.073
-292.662	800.000	-0.119	0.507
-291.647	-200.000	-0.013	0.137
-290.632	-187.455	0.314	0.004
-289.618	744.277	0.137	0.363
-288.603	-49.082	-0.394	0.186
-287.589	800.000	-0.052	-0.224
-286.574	-50.300	0.555	-0.259
-285.559	-62.592	0.250	0.102
-284.545	-86.717	0.147	0.044
-283.530	-124.463	0.061	-0.009
-282.516	553.284	-0.124	-0.294
-281.501	-200.000	-0.039	-0.261
-280.486	-50.180	0.097	0.045
-279.472	-128.789	0.151	0.021
-278.457	-30.138	-0.334	0.187
-277.443	-186.384	0.365	-0.005
-276.428	-101.263	0.188	-0.045
-275.413	800.000	-0.062	0.223
-274.399	-101.965	0.211	-0.050
-273.384	2.718	-0.211	0.150
-272.370	454.559	0.136	0.297
-271.355	-138.174	-0.197	-0.021
-270.340	-200.000	0.077	-0.361
-269.326	-200.000	-0.030	-0.291
-268.311	-200.000	-0.006	-0.186
-267.297	9.833	-0.076	0.057
-266.282	135.655	0.142	-0.182
-265.267	-37.351	0.237	0.125
-264.253	-133.725	-0.364	-0.045
-263.238	-10.980	-0.111	-0.072
-262.224	800.000	0.061	-0.211
-261.209	-97.601	0.301	-0.077
-260.195	-200.000	0.024	-0.201
-259.180	31.756	-0.109	0.093
-258.165	43.034	-0.270	-0.242
-257.151	-129.549	0.130	0.018
-256.136	800.000	0.090	0.359
-255.122	-116.019	-0.143	0.026
-254.107	147.258	-0.194	0.257
-253.092	-49.628	-0.131	-0.061
-252.078	-200.000	-0.010	0.152
-251.063	64.375	-0.310	0.308
-250.049	-156.993	0.351	-0.021
-249.034	29.803	-0.414	-0.347
-248.019	557.118	-0.088	0.208
-247.005	361.295	-0.028	-0.056
-245.990	-200.000	0.046	-0.314
-244.976	-200.000	-0.005	0.031
-243.961	695.270	0.111	0.286
-242.946	-200.000	-0.047	-0.299
-241.932	25.096	0.048	-0.039
-240.917	294.640	0.060	-0.107
-239.903	-145.879	-0.129	0.011
-238.888	800.000	0.084	-0.331
-237.873	-79.963	0.109	-0.036
-236.859	-31.468	-0.187	0.104
-235.844	-12.359	-0.214	0.137
-234.830	58.935	0.177	0.171
-233.815	-48.084	-0.050	-0.024
-232.800	26.432	-0.183	-0.150
-231.786	151.211	0.140	0.187
-230.771	-60.359	-0.181	-0.076
-229.757	-118.789	-0.280	0.049
-228.742	37.887	0.100	0.088
-227.727	-150.393	-0.198	0.015
-226.713	-116.855	-0.199	0.036
-225.698	-45.105	0.202	0.099
-224.684	-85.835	-0.069	-0.021
-223.669	-69.571	0.381	0.144
-222.655	-86.403	-0.149	0.045
-221.640	296.199	-0.055	0.098
-220.625	800.000	0.125	0.381
-219.611	-84.266	0.127	-0.040
-218.596	-200.000	-0.036	0.206
-217.582	-26.164	0.093	-0.054
-216.567	219.286	0.191	0.300
-215.552	-77.740	0.173	0.059
-214.538	59.934	-0.224	0.217
-213.523	-84.069	0.220	0.069
-212.509	362.211	-0.104	0.205
-211.494	775.002	-0.066	-0.176
-210.479	-64.651	0.187	-0.074
-209.465	80.897	-0.181	0.192
-208.450	-157.377	-0.265	-0.016
-207.436	-111.339	0.271	0.054
-206.421	222.811	0.289	0.458
-205.406	-200.000	-0.040	0.305
-204.392	13.754	-0.107	-0.082
-203.377	322.085	-0.094	-0.177
-202.363	49.565	-0.165	-0.153
-201.348	-179.787	-0.224	0.005
-200.333	-59.957	0.318	0.133
-199.319	285.787	-0.049	0.087
-198.304	-139.478	-0.264	-0.028
-197.290	800.000	0.044	-0.170
-196.275	234.712	-0.024	-0.038
-195.260	35.614	-0.125	0.108
-194.246	-43.765	-0.353	-0.174
-193.231	-123.911	0.220	0.034
-192.217	42.310	-0.110	-0.098
-191.202	-40.916	0.193	-0.098
-190.187	-200.000	0.016	0.109
-189.173	210.469	-0.172	-0.265
-188.158	376.490	-0.119	0.239
-187.144	-102.278	0.209	-0.049
-186.129	-200.000	-0.035	0.195
-185.114	-200.000	-0.005	0.145
-184.100	-171.146	-0.075	-0.002
-183.085	767.619	0.069	-0.185
-182.071	42.981	-0.193	-0.173
-181.056	800.000	-0.027	-0.106
-180.042	-140.774	0.230	-0.023
-179.027	14.485	0.145	0.111
-178.012	189.250	0.171	-0.251
-176.998	134.821	-0.102	0.130
-175.983	-165.378	0.327	-0.014
-174.969	102.940	-0.169	0.194
-173.954	-45.399	-0.138	-0.067
-172.939	266.081	0.030	0.051
-171.925	800.000	-0.083	-0.280
-170.910	800.000	0.055	-0.162
-169.896	-80.248	-0.182	0.060
-168.881	-74.656	0.323	-0.114
-167.866	-31.519	0.036	0.020
-166.852	-21.495	-0.242	0.145
-165.837	-87.991	-0.122	0.036
-164.823	233.003	0.105	-0.170
-163.808	-13.726	0.298	-0.189
-162.793	-119.271	0.084	0.014
-161.779	-81.094	0.138	-0.045
-160.764	-200.000	-0.047	-0.000
-159.750	76.139	0.253	-0.262
-158.735	800.000	0.067	-0.241
-157.720	-78.466	-0.218	0.073
-156.706	800.000	-0.069	0.200
-155.691	-144.934	-0.170	-0.015
-154.677	384.107	-0.033	-0.066
-153.662	-172.386	0.134	0.004
-152.647	-110.029	-0.380	-0.078
-151.633	-200.000	-0.013	0.163
-150.618	-16.954	-0.122	0.076
-149.604	19.407	-0.053	0.042
-148.589	-200.000	-0.494	-0.001
-147.574	371.980	-0.073	0.145
-146.560	135.248	0.198	-0.252
-145.545	-200.000	0.031	-0.167
-144.531	783.281	0.078	-0.210
-143.516	-200.000	-0.026	-0.388
-142.502	234.906	-0.021	0.034
-141.487	0.981	0.213	-0.150
-140.472	-53.856	0.085	0.038
-139.458	-76.317	0.140	0.048
-138.443	-12.831	0.229	0.146
-137.429	371.749	-0.135	-0.268
-136.414	-26.108	0.220	-0.127
-135.399	-200.000	0.032	0.336
-134.385	2.995	-0.273	-0.194
-133.370	800.000	-0.109	-0.362
-132.356	-170.228	0.322	0.011
-131.341	54.592	-0.115	0.109
-130.326	-0.507	-0.125	-0.087
-129.312	12.793	0.175	0.132
-128.297	-173.756	0.152	0.004
-127.283	108.840	-0.135	0.159
-126.268	350.405	-0.095	0.184
-125.253	800.000	0.119	0.439
-124.239	138.665	-0.243	0.312
-123.224	296.448	0.132	0.236
-122.210	235.962	-0.039	0.064
