DTS Sentinel unit serial number:	SN413079Multiplexer serial number:	ORYXHardware model number:	OX4-SRSoftware version number:	ORYX F/W v4.00 Oryx Data Collector v3.7.2.0data status	okinstallation	princeton_trtdifferential loss correction	single-endedforward channel	channel 1reverse channel	N/Adate	2019/09/15time	14:18:35forward acquisition time	60.00reverse acquisition time	0.00gamma	496.2192k internal	0.2292k external	0.2292temperature offset calibration	0.9963default loss term (dB/km)	0.3790temperature slope calibration	1.0000multiplexer offset coefficient	1.0000multiplexer slope coefficient	1.0000fibre end	0.00T internal ref (°C)	39.02T ext. ref 1 (°C)	4.95T ext. ref 2 (°C)	35.98length (m)	temperature (°C)	Stokes	anti-Stokes-747.200	56.866	-0.149	0.149
-746.185	156.618	-0.042	0.060
-745.171	-200.000	-0.313	0.001
-744.156	417.237	0.132	-0.288
-743.142	800.000	0.116	0.366
-742.127	-12.415	0.107	-0.072
-741.112	-200.000	-0.032	0.169
-740.098	476.294	0.284	0.656
-739.083	-81.775	0.348	0.117
-738.069	295.619	0.040	-0.075
-737.054	66.040	-0.040	0.042
-736.039	555.084	-0.109	-0.267
-735.025	800.000	0.005	-0.015
-734.010	128.700	-0.195	-0.255
-732.996	-48.774	-0.182	0.089
-731.981	-44.372	0.183	0.094
-730.966	71.956	-0.158	0.168
-729.952	-200.000	-0.007	-0.047
-728.937	-200.000	-0.050	-0.271
-727.923	-45.721	-0.251	-0.127
-726.908	38.708	0.072	-0.066
-725.894	144.653	-0.165	-0.225
-724.879	-180.464	-0.111	0.002
-723.864	-35.795	-0.323	0.179
-722.850	-56.167	-0.239	0.109
-721.835	-51.606	0.291	0.139
-720.821	800.000	-0.032	-0.142
-719.806	-111.334	-0.177	0.037
-718.791	-200.000	0.000	-0.176
-717.777	133.002	-0.233	0.308
-716.762	94.253	-0.099	-0.114
-715.748	561.316	-0.232	-0.573
-714.733	-200.000	-0.012	-0.174
-713.718	800.000	0.132	0.431
-712.704	-131.038	-0.223	0.030
-711.689	-158.637	-0.121	0.007
-710.675	262.889	0.143	0.255
-709.660	800.000	-0.011	0.032
-708.645	-59.277	0.058	-0.026
-707.631	-68.704	-0.129	-0.051
-706.616	-64.804	-0.168	0.069
-705.602	-40.137	-0.139	0.074
-704.587	800.000	0.028	0.105
-703.572	-31.241	-0.121	-0.070
-702.558	-185.856	0.314	-0.005
-701.543	-200.000	0.018	-0.340
-700.529	-200.000	0.005	-0.211
-699.514	-131.751	0.075	0.010
-698.499	800.000	-0.102	-0.444
-697.485	-55.779	0.344	-0.157
-696.470	246.501	0.091	0.157
-695.456	247.444	0.198	0.342
-694.441	5.964	-0.092	-0.070
-693.426	-79.992	0.104	0.036
-692.412	399.254	0.167	0.358
-691.397	345.199	-0.095	0.190
-690.383	96.879	0.139	0.162
-689.368	72.341	0.117	0.124
-688.354	735.310	0.111	-0.303
-687.339	-7.513	-0.344	-0.238
-686.324	-33.119	0.138	-0.078
-685.310	-200.000	-0.009	0.130
-684.295	-39.406	-0.276	0.148
-683.281	800.000	0.124	0.405
-682.266	-140.899	0.239	0.025
-681.251	51.622	0.377	-0.366
-680.237	-81.196	0.310	0.105
-679.222	-200.000	-0.017	0.175
-678.208	800.000	-0.055	0.237
-677.193	-111.831	0.138	0.028
-676.178	-200.000	0.044	-0.198
-675.164	-8.395	0.196	-0.134
-674.149	-153.380	-0.268	-0.019
-673.135	-200.000	-0.003	0.079
-672.120	-112.709	-0.197	0.040
-671.105	-200.000	-0.029	-0.285
-670.091	298.307	0.117	0.220
-669.076	-9.375	-0.088	0.060
-668.062	689.506	-0.067	0.178
-667.047	800.000	0.043	0.160
-666.032	800.000	0.120	0.453
-665.018	-200.000	-0.037	-0.237
-664.003	369.168	0.043	0.088
-662.989	93.234	-0.152	0.176
-661.974	-23.820	0.249	0.152
-660.959	-78.960	-0.398	-0.138
-659.945	800.000	-0.057	-0.208
-658.930	800.000	0.027	-0.089
-657.916	800.000	-0.085	0.291
-656.901	-163.770	-0.272	0.013
-655.886	-114.798	-0.233	-0.045
-654.872	-123.645	-0.074	-0.012
-653.857	216.624	0.077	-0.125
-652.843	134.395	-0.186	-0.246
-651.828	-154.665	-0.501	0.034
-650.814	-67.077	-0.218	0.088
-649.799	-18.844	-0.121	-0.077
-648.784	-200.000	-0.025	-0.162
-647.770	160.193	-0.125	-0.177
-646.755	104.877	-0.117	-0.141
-645.741	-106.714	0.149	-0.034
-644.726	-156.453	0.107	0.007
-643.711	735.160	0.103	-0.281
-642.697	-167.921	0.086	-0.003
-641.682	166.069	0.277	0.400
-640.668	-150.739	0.085	-0.007
-639.653	-71.262	-0.369	-0.141
-638.638	-23.259	-0.315	0.193
-637.624	481.057	-0.052	0.120
-636.609	-121.233	-0.149	-0.025
-635.595	-26.328	-0.384	-0.230
-634.580	-125.295	-0.199	-0.031
-633.565	-163.997	0.018	0.001
-632.551	-200.000	-0.046	-0.242
-631.536	-105.183	0.104	0.024
-630.522	-47.264	-0.236	-0.117
-629.507	-45.534	-0.316	0.159
-628.492	-182.303	0.393	-0.007
-627.478	-200.000	-0.016	-0.083
-626.463	800.000	0.083	0.254
-625.449	800.000	-0.053	-0.203
-624.434	407.879	0.141	-0.305
-623.419	532.488	0.096	-0.233
-622.405	75.316	-0.160	-0.172
-621.390	139.909	0.070	0.094
-620.376	11.712	-0.197	-0.154
-619.361	-35.815	-0.153	0.084
-618.346	-136.933	-0.220	0.026
-617.332	-200.000	-0.040	-0.187
-616.317	105.819	0.164	0.198
-615.303	800.000	-0.038	-0.144
-614.288	45.925	-0.235	0.221
-613.273	-132.764	-0.141	-0.018
-612.259	1.672	0.186	-0.136
-611.244	212.223	0.056	0.090
-610.230	206.017	-0.174	-0.275
-609.215	-200.000	-0.032	-0.209
-608.201	-135.507	-0.576	-0.070
-607.186	24.005	0.072	0.061
-606.171	28.740	0.105	0.090
-605.157	102.732	0.074	-0.088
-604.142	-31.106	0.084	-0.048
-603.128	-54.235	0.257	-0.119
-602.113	507.377	0.121	-0.285
-601.098	140.462	-0.163	0.219
-600.084	-114.288	0.080	-0.016
-599.069	800.000	-0.022	-0.081
-598.055	-50.571	-0.098	-0.047
-597.040	-35.152	0.265	-0.147
-596.025	83.202	0.074	-0.082
-595.011	-45.102	-0.304	0.154
-593.996	14.052	-0.068	-0.054
-592.982	-200.000	-0.030	-0.424
-591.967	336.058	0.160	0.316
-590.952	70.071	-0.104	0.110
-589.938	485.426	0.100	-0.231
-588.923	488.904	0.184	-0.428
-587.909	73.401	-0.040	-0.042
-586.894	-153.053	-0.252	-0.018
-585.879	-200.000	-0.001	-0.087
-584.865	800.000	0.065	-0.225
-583.850	-200.000	0.056	-0.284
-582.836	-81.987	0.108	-0.036
-581.821	-10.693	-0.166	-0.112
-580.806	-32.836	0.081	0.046
-579.792	-161.544	0.165	-0.009
-578.777	-15.260	0.326	0.212
-577.763	-39.680	-0.509	-0.271
-576.748	-86.352	-0.173	-0.054
-575.733	118.000	-0.068	0.085
-574.719	-120.392	-0.278	-0.048
-573.704	-32.754	-0.198	-0.112
-572.690	-112.949	0.085	0.017
-571.675	701.411	0.067	-0.180
-570.661	85.723	-0.174	-0.194
-569.646	-106.981	0.385	-0.086
-568.631	327.839	-0.060	-0.117
-567.617	-200.000	-0.011	-0.162
-566.602	800.000	0.059	0.210
-565.588	12.107	0.134	0.105
-564.573	-200.000	0.019	0.158
-563.558	115.917	-0.079	-0.098
-562.544	337.775	-0.052	0.103
-561.529	211.524	-0.149	-0.238
-560.515	-23.084	0.228	0.139
-559.500	-42.630	0.309	-0.160
-558.485	-154.578	0.136	-0.009
-557.471	20.136	0.017	-0.014
-556.456	800.000	0.089	-0.262
-555.442	800.000	0.014	0.041
-554.427	-25.245	-0.376	0.226
-553.412	324.087	0.113	-0.220
-552.398	-34.281	-0.312	-0.174
-551.383	-66.418	-0.113	0.046
-550.369	60.966	0.079	0.079
-549.354	-3.754	0.209	0.147
-548.339	227.284	0.087	-0.144
-547.325	800.000	-0.087	0.247
-546.310	800.000	-0.025	-0.096
-545.296	16.605	-0.228	0.183
-544.281	-35.129	0.324	0.180
-543.266	253.737	0.027	0.046
-542.252	31.146	-0.210	0.183
-541.237	-144.559	0.235	-0.022
-540.223	-200.000	0.001	0.034
-539.208	487.732	-0.176	0.407
-538.193	215.767	-0.088	0.142
-537.179	103.385	0.159	-0.189
-536.164	-86.792	0.319	0.099
-535.150	-143.736	0.202	0.019
-534.135	215.269	-0.026	0.041
-533.121	743.015	-0.033	-0.091
-532.106	-15.708	0.037	0.024
-531.091	-20.643	0.332	-0.207
-530.077	253.738	-0.032	-0.056
-529.062	-81.136	-0.142	0.048
-528.048	176.537	0.069	0.102
-527.033	357.371	-0.054	0.110
-526.018	3.414	0.118	-0.087
-525.004	-200.000	-0.065	-0.373
-523.989	507.334	0.134	-0.316
-522.975	-129.952	0.031	0.004
-521.960	73.971	0.208	0.221
-520.945	77.460	-0.261	-0.282
-519.931	13.279	0.207	-0.163
-518.916	-54.520	-0.276	-0.127
-517.902	-200.000	0.025	0.126
-516.887	132.413	0.099	0.130
-515.872	-200.000	-0.014	-0.109
-514.858	-200.000	-0.052	0.407
-513.843	-14.829	0.237	0.154
-512.829	-200.000	-0.016	0.266
-511.814	8.382	0.327	-0.249
-510.799	-200.000	0.024	0.127
-509.785	-76.578	-0.174	0.062
-508.770	-70.564	0.378	0.145
-507.756	800.000	0.075	0.309
-506.741	173.684	-0.058	0.084
-505.726	225.459	0.206	0.339
-504.712	800.000	0.002	0.006
-503.697	-2.486	0.176	-0.125
-502.683	-164.704	-0.303	-0.014
-501.668	-200.000	-0.021	-0.150
-500.653	-106.639	0.299	0.067
-499.639	-200.000	-0.051	0.332
-498.624	145.012	0.140	0.189
-497.610	-200.000	-0.028	-0.179
-496.595	-200.000	0.018	-0.284
-495.581	-161.564	0.630	0.033
-494.566	13.852	0.075	0.059
-493.551	-200.000	-0.021	-0.229
-492.537	36.434	-0.056	0.050
-491.522	-163.217	-0.180	0.009
-490.508	-108.437	-0.033	0.007
-489.493	-31.923	-0.098	0.056
-488.478	36.976	0.097	-0.087
-487.464	-55.527	0.141	-0.064
-486.449	-128.566	-0.150	0.022
-485.435	-87.097	0.171	-0.053
-484.420	-200.000	0.024	0.272
-483.405	-136.122	-0.336	0.040
-482.391	-80.106	0.230	0.078
-481.376	787.793	0.095	-0.263
-480.362	242.780	0.108	0.184
-479.347	-113.868	0.170	0.033
-478.332	-200.000	-0.003	0.157
-477.318	-200.000	0.038	-0.226
-476.303	-114.167	-0.161	0.031
-475.289	-200.000	-0.008	-0.119
-474.274	-28.331	0.203	0.119
-473.259	-120.316	0.251	-0.043
-472.245	236.784	-0.198	0.333
-471.230	-132.381	0.300	-0.039
-470.216	407.120	-0.053	0.114
-469.201	800.000	-0.019	0.079
-468.186	83.199	-0.215	-0.237
-467.172	69.107	-0.300	-0.312
-466.157	800.000	-0.016	-0.050
-465.143	800.000	-0.066	0.185
-464.128	-129.623	0.367	-0.051
-463.113	144.242	-0.196	-0.265
-462.099	166.944	-0.060	0.086
-461.084	-102.686	0.105	0.025
-460.070	124.937	0.121	0.155
-459.055	-76.710	-0.236	-0.084
-458.040	-57.462	0.263	-0.117
-457.026	93.283	0.193	0.221
-456.011	12.841	0.162	-0.126
-454.997	-200.000	-0.008	-0.084
-453.982	-4.928	0.097	0.068
-452.968	-65.312	-0.049	0.020
-451.953	-61.475	0.097	0.041
-450.938	628.500	-0.041	-0.106
-449.924	800.000	-0.071	-0.238
-448.909	-200.000	-0.011	0.091
-447.895	-163.469	-0.166	0.008
-446.880	-200.000	-0.066	-0.438
-445.865	-200.000	-0.004	-0.108
-444.851	-200.000	-0.021	-0.227
-443.836	76.256	0.063	-0.067
-442.822	800.000	-0.052	0.179
-441.807	-159.811	-0.173	0.010
-440.792	397.281	-0.015	0.033
-439.778	293.356	-0.097	-0.179
-438.763	-200.000	-0.054	0.376
-437.749	-200.000	-0.060	0.267
-436.734	545.994	0.029	0.070
-435.719	-200.000	-0.012	-0.181
-434.705	-200.000	0.051	0.247
-433.690	-58.855	0.214	-0.094
-432.676	800.000	-0.051	0.218
-431.661	-35.602	0.566	0.310
-430.646	800.000	-0.031	-0.108
-429.632	66.860	0.180	0.185
-428.617	-117.344	-0.176	0.032
-427.603	800.000	0.093	-0.262
-426.588	-127.747	-0.265	-0.039
-425.573	-86.339	-0.045	-0.014
-424.559	-200.000	-0.081	-0.549
-423.544	29.484	-0.197	-0.170
-422.530	144.060	-0.124	0.167
-421.515	-200.000	0.019	0.255
-420.500	47.481	-0.040	0.038
-419.486	-200.000	0.041	0.192
-418.471	-19.739	0.403	-0.252
-417.457	256.570	0.048	-0.084
-416.442	-142.116	0.588	-0.059
-415.428	-176.019	-0.290	-0.008
-414.413	-11.230	0.232	0.155
-413.398	-104.054	-0.126	0.030
-412.384	692.312	0.101	-0.267
-411.369	-45.052	-0.208	0.104
-410.355	-8.821	0.132	-0.089
-409.340	800.000	0.012	-0.049
-408.325	-200.000	0.027	0.223
-407.311	604.815	0.081	-0.204
-406.296	800.000	-0.028	-0.101
-405.282	-200.000	-0.079	0.447
-404.267	-200.000	0.003	0.036
-403.252	-133.005	0.186	0.024
-402.238	-72.297	-0.171	-0.064
-401.223	42.242	-0.108	0.099
-400.209	-89.298	-0.113	0.034
-399.194	-63.004	-0.299	-0.125
-398.179	54.318	0.055	-0.054
-397.165	-61.522	0.174	0.074
-396.150	246.156	-0.092	0.156
-395.136	50.240	0.186	-0.178
-394.121	-109.567	0.295	-0.063
-393.106	48.936	0.162	-0.154
-392.092	-172.550	-0.006	-0.000
-391.077	-36.123	-0.249	0.136
-390.063	22.957	-0.044	0.036
-389.048	-84.613	0.307	0.098
-388.033	800.000	-0.031	0.121
-387.019	-75.189	-0.374	-0.135
-386.004	133.519	-0.215	0.280
-384.990	-200.000	0.021	0.103
-383.975	21.861	0.227	0.187
-382.960	-5.966	-0.079	-0.055
-381.946	204.425	-0.058	0.090
-380.931	-28.881	-0.032	-0.019
-379.917	800.000	-0.054	0.230
-378.902	218.953	-0.192	-0.310
-377.888	-46.389	-0.222	0.110
-376.873	427.863	-0.209	0.455
-375.858	210.069	0.079	0.124
-374.844	57.904	0.023	-0.022
-373.829	-200.000	-0.008	-0.084
-372.815	-47.016	-0.244	0.120
-371.800	-180.065	-0.230	-0.005
-370.785	-200.000	-0.000	0.291
-369.771	-130.145	-0.340	-0.047
-368.756	-68.130	-0.175	0.069
-367.742	-142.679	0.190	-0.019
-366.727	35.301	-0.080	0.071
-365.712	57.950	0.067	0.067
-364.698	800.000	-0.047	0.141
-363.683	-31.505	-0.062	0.035
-362.669	800.000	0.077	0.223
-361.654	-146.121	-0.321	-0.029
-360.639	-61.430	-0.193	-0.082
-359.625	-0.627	0.079	-0.056
-358.610	-200.000	0.040	0.386
-357.596	-20.348	0.283	-0.175
-356.581	-200.000	0.037	0.197
-355.566	-176.950	-0.332	0.008
-354.552	7.477	0.301	-0.227
-353.537	60.061	0.151	0.150
-352.523	800.000	0.061	-0.220
-351.508	737.508	-0.086	0.232
-350.493	159.463	-0.019	-0.027
-349.479	163.607	-0.105	-0.149
-348.464	-200.000	-0.006	-0.192
-347.450	-165.359	-0.350	-0.015
-346.435	-200.000	-0.054	0.327
-345.420	-200.000	-0.014	-0.074
-344.406	169.132	0.146	0.210
-343.391	-90.505	0.177	0.052
-342.377	-200.000	-0.068	0.304
-341.362	-114.440	0.172	-0.033
-340.348	-200.000	-0.080	-0.415
-339.333	-1.436	0.087	0.062
-338.318	-2.897	-0.130	-0.092
-337.304	346.435	-0.075	0.148
-336.289	-152.899	0.182	-0.013
-335.275	144.893	0.132	0.178
-334.260	-37.450	-0.109	-0.059
-333.245	101.993	-0.360	-0.424
-332.231	68.727	0.289	0.298
-331.216	10.345	-0.153	0.117
-330.202	-52.418	-0.088	0.041
-329.187	116.157	0.080	0.099
-328.172	315.104	0.046	0.087
-327.158	11.044	-0.178	-0.137
-326.143	-114.720	0.147	0.028
-325.129	40.593	0.178	0.161
-324.114	189.572	0.084	-0.127
-323.099	-142.875	-0.058	-0.006
-322.085	146.162	-0.187	-0.253
-321.070	43.828	-0.260	0.240
-320.056	-200.000	-0.022	-0.182
-319.041	31.019	-0.226	0.195
-318.026	-89.618	0.317	-0.094
-317.012	475.873	0.119	0.271
-315.997	-37.511	0.047	-0.025
-314.983	-3.754	-0.140	0.098
-313.968	-200.000	0.000	0.189
-312.953	451.681	-0.076	0.169
-311.939	800.000	-0.011	0.034
-310.924	-49.791	0.197	0.094
-309.910	-46.211	0.151	-0.075
-308.895	59.220	0.119	-0.118
-307.880	73.549	0.055	-0.058
-306.866	290.485	-0.140	-0.256
-305.851	629.008	-0.078	-0.198
-304.837	84.241	-0.249	-0.274
-303.822	98.900	-0.144	-0.167
-302.807	26.817	0.332	-0.280
-301.793	-33.898	0.083	-0.046
-300.778	23.826	0.113	-0.094
-299.764	172.098	-0.134	0.194
-298.749	-105.760	-0.176	0.040
-297.735	127.068	-0.124	0.158
-296.720	-121.330	-0.232	0.039
-295.705	800.000	-0.056	0.190
-294.691	665.838	0.104	0.271
-293.676	-164.217	0.298	0.014
-292.662	-200.000	0.020	0.195
-291.647	275.927	-0.172	-0.306
-290.632	-137.233	0.295	-0.034
-289.618	-40.724	0.432	-0.225
-288.603	366.438	0.104	0.211
-287.589	-127.241	0.196	0.029
-286.574	-137.515	0.219	-0.025
-285.559	-41.803	-0.041	0.021
-284.545	-76.051	0.485	-0.172
-283.530	-81.590	0.207	-0.068
-282.516	-79.802	-0.228	-0.077
-281.501	172.134	-0.041	-0.059
-280.486	-200.000	0.055	0.276
-279.472	-165.963	-0.160	-0.007
-278.457	-18.837	0.146	0.092
-277.443	-26.839	-0.256	-0.150
-276.428	-200.000	-0.010	0.215
-275.413	122.055	0.185	-0.232
-274.399	163.274	0.093	-0.131
-273.384	787.823	-0.053	0.147
-272.370	-83.433	0.223	0.072
-271.355	800.000	-0.033	0.140
-270.340	-138.609	-0.371	-0.041
-269.326	84.773	-0.153	-0.168
-268.311	-38.276	0.423	0.225
-267.297	0.688	0.226	0.163
-266.282	-28.950	-0.048	0.028
-265.267	60.825	0.076	-0.076
-264.253	16.761	-0.162	-0.129
-263.238	112.406	0.086	-0.105
-262.224	800.000	0.022	0.080
-261.209	-40.305	-0.177	-0.092
-260.195	344.512	0.127	-0.250
-259.180	-51.504	-0.338	-0.158
-258.165	50.600	-0.079	-0.075
-257.151	-126.059	-0.143	-0.022
-256.136	-90.404	0.206	0.060
-255.122	65.463	0.115	0.117
-254.107	-2.458	-0.277	-0.195
-253.092	53.663	0.214	-0.206
-252.078	-23.065	0.135	0.082
-251.063	-125.383	0.123	0.019
-250.049	0.038	0.153	0.109
-249.034	15.248	0.052	-0.041
-248.019	-18.171	0.145	-0.091
-247.005	-110.317	-0.201	-0.042
-245.990	-200.000	-0.036	0.190
-244.976	358.842	0.089	0.179
-243.961	-26.354	-0.114	-0.067
-242.946	-200.000	0.002	0.252
-241.932	141.160	-0.049	0.065
-240.917	-200.000	0.019	-0.121
-239.903	-44.463	-0.268	-0.135
-238.888	-56.630	0.091	-0.040
-237.873	-86.139	0.257	0.080
-236.859	-83.289	-0.277	-0.089
-235.844	-200.000	-0.021	-0.355
-234.830	-40.501	-0.353	0.184
-233.815	-39.053	-0.213	-0.112
-232.800	-25.295	-0.195	0.116
-231.786	523.851	-0.072	0.170
-230.771	356.897	-0.083	0.165
-229.757	-200.000	-0.057	-0.343
-228.742	-9.805	-0.318	-0.213
-227.727	-78.956	0.092	-0.032
-226.713	59.384	-0.181	0.179
-225.698	38.749	0.162	-0.145
-224.684	283.959	0.149	-0.269
-223.669	-91.825	0.031	0.009
-222.655	371.917	-0.016	0.033
-221.640	8.128	-0.213	0.160
-220.625	800.000	-0.059	-0.216
-219.611	219.858	0.048	0.078
-218.596	-200.000	-0.053	0.380
-217.582	67.995	-0.330	-0.339
-216.567	16.912	-0.199	-0.158
-215.552	-41.214	-0.221	0.114
-214.538	113.554	0.026	-0.032
-213.523	394.318	0.025	-0.053
-212.509	-200.000	0.048	-0.257
-211.494	-44.036	-0.144	0.073
-210.479	-85.439	-0.256	0.080
-209.465	157.788	-0.099	0.137
-208.450	-90.724	0.249	-0.072
-207.436	-200.000	0.060	0.305
-206.421	800.000	0.056	-0.177
-205.406	94.850	0.091	-0.103
-204.392	-35.627	-0.275	0.150
-203.377	800.000	0.092	0.303
-202.363	-63.819	0.233	-0.096
-201.348	150.439	0.292	0.397
-200.333	-8.377	0.246	0.166
-199.319	143.339	-0.064	-0.085
-198.304	-126.951	0.231	-0.034
-197.290	196.201	0.094	-0.143
-196.275	-200.000	-0.002	0.078
-195.260	-99.000	-0.121	-0.031
-194.246	670.959	0.097	0.253
-193.231	-75.482	-0.234	-0.084
-192.217	19.873	0.180	0.146
-191.202	-11.849	0.300	0.197
-190.187	17.150	0.087	-0.069
-189.173	800.000	-0.023	0.077
-188.158	-151.451	-0.236	-0.018
-187.144	-85.561	-0.111	0.035
-186.129	-200.000	-0.022	0.332
-185.114	-160.627	-0.452	-0.024
-184.100	800.000	0.056	0.192
-183.085	-92.973	-0.052	-0.015
-182.071	800.000	0.044	0.127
-181.056	28.940	0.066	-0.056
-180.042	415.478	0.124	0.266
-179.027	61.496	-0.061	0.060
-178.012	173.773	-0.270	-0.390
-176.998	36.929	-0.304	0.269
-175.983	-32.933	0.285	-0.158
-174.969	-86.882	0.179	0.055
-173.954	46.493	0.159	0.148
-172.939	-94.577	0.129	0.035
-171.925	-39.685	0.231	-0.121
-170.910	-125.367	-0.162	-0.025
-169.896	143.352	0.256	0.342
-168.881	234.688	-0.133	0.220
-167.866	-79.461	-0.192	0.065
-166.852	503.119	0.198	-0.458
-165.837	212.134	0.221	-0.349
-164.823	-148.775	0.306	-0.025
-163.808	-200.000	-0.002	-0.222
-162.793	-140.337	-0.224	0.023
-161.779	58.648	-0.091	-0.090
-160.764	424.018	-0.129	0.278
-159.750	-78.692	-0.176	-0.060
-158.735	-200.000	-0.001	-0.110
-157.720	-139.487	0.105	0.011
-156.706	-200.000	0.020	-0.093
-155.691	63.111	-0.093	-0.093
-154.677	-47.691	-0.297	-0.144
-153.662	800.000	0.115	0.491
-152.647	-53.064	0.194	0.089
-151.633	-26.390	-0.198	0.116
-150.618	45.195	-0.171	0.158
-149.604	22.567	0.108	-0.088
-148.589	318.196	0.133	0.251
-147.574	-162.152	-0.125	-0.006
-146.560	61.682	-0.251	0.250
-145.545	80.140	0.081	-0.087
-144.531	145.828	0.162	0.218
-143.516	-200.000	-0.012	-0.133
-142.502	101.781	-0.184	-0.214
-141.487	80.775	0.224	0.241
-140.472	-200.000	-0.012	0.063
-139.458	800.000	0.123	-0.521
-138.443	59.631	0.093	0.092
-137.429	257.939	-0.085	0.146
-136.414	-108.444	0.232	-0.050
-135.399	-9.561	-0.373	0.249
-134.385	-72.496	-0.344	-0.127
-133.370	77.177	-0.291	-0.310
-132.356	-84.635	0.165	0.052
-131.341	-41.121	0.226	0.117
-130.326	461.178	-0.085	-0.189
-129.312	800.000	-0.104	-0.346
-128.297	-120.219	0.286	0.049
-127.283	-200.000	0.036	0.334
-126.268	-126.339	-0.083	0.012
-125.253	721.266	-0.026	-0.070
-124.239	79.404	-0.150	0.161
-123.224	117.787	-0.112	0.137
-122.210	246.399	-0.171	-0.288
-121.195	307.849	-0.185	0.344
