DTS Sentinel unit serial number:	SN413079Multiplexer serial number:	ORYXHardware model number:	OX4-SRSoftware version number:	ORYX F/W v4.00 Oryx Data Collector v3.7.2.0data status	okinstallation	princeton_trtdifferential loss correction	single-endedforward channel	channel 1reverse channel	N/Adate	2019/09/17time	09:34:35forward acquisition time	60.00reverse acquisition time	0.00gamma	496.2192k internal	0.2324k external	0.2324temperature offset calibration	0.9957default loss term (dB/km)	0.3790temperature slope calibration	1.0000multiplexer offset coefficient	1.0000multiplexer slope coefficient	1.0000fibre end	0.00T internal ref (°C)	29.08T ext. ref 1 (°C)	0.15T ext. ref 2 (°C)	25.41length (m)	temperature (°C)	Stokes	anti-Stokes-747.200	186.880	0.175	0.264
-746.185	673.941	-0.083	0.216
-745.171	-200.000	0.023	0.330
-744.156	271.903	-0.150	0.267
-743.142	202.609	-0.144	0.224
-742.127	44.455	-0.228	0.212
-741.112	-115.881	0.036	0.007
-740.098	493.031	0.108	-0.249
-739.083	-200.000	0.028	0.197
-738.069	-181.636	-0.537	0.010
-737.054	-200.000	0.009	0.341
-736.039	157.319	-0.113	0.158
-735.025	31.484	-0.073	-0.063
-734.010	-104.516	-0.269	0.063
-732.996	178.085	-0.117	-0.172
-731.981	37.495	-0.255	-0.228
-730.966	90.774	-0.115	-0.130
-729.952	124.625	-0.059	-0.076
-728.937	-200.000	-0.019	-0.126
-727.923	-76.333	-0.134	0.048
-726.908	-200.000	-0.060	0.343
-725.894	-58.156	-0.270	-0.119
-724.879	800.000	0.045	0.154
-723.864	25.758	-0.299	-0.251
-722.850	-200.000	-0.015	-0.163
-721.835	288.198	-0.120	0.218
-720.821	-8.664	0.044	0.030
-719.806	51.392	-0.212	-0.203
-718.791	-36.056	0.150	-0.082
-717.777	-161.212	-0.132	0.007
-716.762	-200.000	-0.007	0.470
-715.748	36.807	-0.180	0.160
-714.733	-200.000	-0.016	-0.080
-713.718	65.460	-0.210	-0.215
-712.704	-112.358	-0.143	-0.029
-711.689	329.982	0.149	0.289
-710.675	116.808	-0.178	-0.220
-709.660	800.000	0.015	0.058
-708.645	397.583	-0.127	-0.268
-707.631	-200.000	0.057	-0.266
-706.616	-25.983	-0.274	0.163
-705.602	-106.344	-0.108	0.024
-704.587	59.009	-0.122	-0.121
-703.572	449.242	0.084	0.188
-702.558	418.121	-0.171	0.369
-701.543	315.138	-0.118	-0.224
-700.529	-52.886	0.356	0.165
-699.514	174.701	-0.043	-0.063
-698.499	429.188	0.085	0.186
-697.485	755.640	0.077	0.209
-696.470	26.813	0.135	0.114
-695.456	-86.188	-0.046	-0.014
-694.441	800.000	0.048	-0.145
-693.426	240.731	-0.159	0.268
-692.412	-98.849	0.068	-0.017
-691.397	-75.675	0.349	0.125
-690.383	-108.820	-0.050	0.011
-689.368	-200.000	0.015	-0.283
-688.354	-78.842	0.245	0.084
-687.339	-7.182	-0.207	0.141
-686.324	278.270	-0.290	-0.520
-685.310	-163.310	-0.146	-0.007
-684.295	-126.156	-0.072	-0.011
-683.281	-56.974	-0.147	-0.065
-682.266	307.172	-0.154	0.289
-681.251	611.741	0.052	0.130
-680.237	-189.960	-0.240	0.003
-679.222	219.322	-0.052	-0.084
-678.208	-60.452	0.264	0.113
-677.193	46.609	0.103	-0.096
-676.178	110.767	-0.203	0.246
-675.164	-11.759	-0.246	-0.162
-674.149	-12.864	-0.202	0.133
-673.135	426.963	-0.050	-0.108
-672.120	-57.103	0.182	-0.081
-671.105	-145.050	-0.307	-0.028
-670.091	134.666	-0.087	-0.114
-669.076	-136.284	-0.281	-0.033
-668.062	-200.000	0.002	0.085
-667.047	-35.760	-0.281	-0.153
-666.032	-193.387	-0.073	0.001
-665.018	800.000	0.017	0.058
-664.003	-200.000	0.057	-0.282
-662.989	-200.000	-0.015	-0.364
-661.974	-70.805	0.388	0.147
-660.959	26.366	0.096	-0.081
-659.945	-10.189	-0.027	0.018
-658.930	130.955	-0.105	0.135
-657.916	282.927	-0.071	-0.128
-656.901	115.770	0.119	-0.146
-655.886	-53.023	-0.326	0.151
-654.872	28.908	-0.088	-0.075
-653.857	-200.000	-0.016	0.110
-652.843	42.462	0.213	0.195
-651.828	-25.774	-0.179	0.106
-650.814	196.173	0.105	-0.160
-649.799	-108.136	-0.452	0.099
-648.784	-123.688	0.071	-0.011
-647.770	-200.000	0.007	0.045
-646.755	800.000	-0.028	0.105
-645.741	-126.453	-0.360	-0.054
-644.726	-99.029	0.362	-0.092
-643.711	-32.465	0.162	0.091
-642.697	260.145	0.020	-0.035
-641.682	-200.000	0.037	-0.238
-640.668	-200.000	0.050	0.330
-639.653	-200.000	0.011	-0.076
-638.638	-200.000	0.039	-0.268
-637.624	-200.000	0.024	-0.577
-636.609	-200.000	0.021	0.136
-635.595	-163.966	0.226	0.011
-634.580	43.707	0.156	-0.144
-633.565	179.865	-0.100	-0.148
-632.551	-200.000	-0.046	0.222
-631.536	800.000	-0.119	-0.397
-630.522	-74.078	-0.201	0.073
-629.507	-200.000	-0.012	0.264
-628.492	-150.253	0.028	-0.002
-627.478	800.000	-0.015	0.044
-626.463	227.750	0.169	-0.277
-625.449	-20.979	0.068	0.042
-624.434	633.414	-0.090	-0.229
-623.419	22.488	-0.077	-0.064
-622.405	-200.000	-0.054	-0.244
-621.390	175.836	-0.175	0.255
-620.376	-200.000	-0.017	0.186
-619.361	-73.608	-0.393	0.144
-618.346	-105.845	0.069	0.016
-617.332	265.172	0.127	0.223
-616.317	-128.972	-0.340	-0.048
-615.303	-11.829	-0.307	-0.202
-614.288	-200.000	0.005	0.176
-613.273	8.266	-0.241	0.182
-612.259	-62.168	-0.257	-0.108
-611.244	234.351	0.104	-0.173
-610.230	683.757	0.092	-0.241
-609.215	-113.010	0.277	-0.055
-608.201	754.643	-0.147	-0.400
-607.186	106.071	-0.199	0.237
-606.171	231.070	0.204	0.336
-605.157	102.743	0.164	-0.193
-604.142	-200.000	0.011	0.118
-603.128	58.887	0.341	-0.337
-602.113	-63.926	-0.415	0.170
-601.098	-22.282	-0.162	0.099
-600.084	-107.822	0.145	0.032
-599.069	-200.000	-0.012	0.158
-598.055	443.656	-0.053	-0.117
-597.040	500.542	-0.029	-0.068
-596.025	-200.000	-0.027	-0.154
-595.011	-185.002	0.464	0.007
-593.996	-27.846	0.156	-0.091
-592.982	251.761	-0.106	0.181
-591.967	-88.084	0.349	0.105
-590.952	-130.147	0.228	-0.031
-589.938	-200.000	-0.005	-0.146
-588.923	-200.000	-0.018	0.310
-587.909	-80.792	-0.081	-0.027
-586.894	-110.814	0.184	0.038
-585.879	426.933	0.148	0.320
-584.865	-15.464	0.276	0.177
-583.850	21.727	0.107	0.088
-582.836	231.257	0.124	0.204
-581.821	-9.790	-0.138	-0.092
-580.806	449.894	0.114	0.253
-579.792	-88.160	-0.191	-0.057
-578.777	12.182	0.110	-0.085
-577.763	-148.275	-0.220	-0.018
-576.748	-104.057	-0.364	-0.085
-575.733	72.831	-0.286	-0.300
-574.719	-199.773	0.254	-0.001
-573.704	437.372	-0.105	-0.230
-572.690	7.078	-0.114	0.086
-571.675	-200.000	-0.023	0.258
-570.661	-166.710	-0.273	0.011
-569.646	-200.000	-0.034	0.152
-568.631	-109.596	0.185	-0.039
-567.617	-200.000	-0.000	0.231
-566.602	-63.474	0.113	0.047
-565.588	653.295	-0.054	-0.140
-564.573	-119.960	-0.321	0.055
-563.558	-166.931	0.421	0.017
-562.544	-116.524	0.182	-0.034
-561.529	-200.000	-0.001	-0.080
-560.515	800.000	0.085	-0.309
-559.500	83.854	-0.308	-0.337
-558.485	800.000	0.077	-0.261
-557.471	-67.078	0.046	0.018
-556.456	351.351	0.148	-0.294
-555.442	800.000	0.034	-0.130
-554.427	30.367	-0.255	0.219
-553.412	-72.816	-0.107	-0.040
-552.398	-54.514	0.185	-0.084
-551.383	305.875	-0.008	0.014
-550.369	800.000	-0.114	0.407
-549.354	78.699	-0.112	-0.120
-548.339	-200.000	0.057	0.388
-547.325	358.642	0.139	0.278
-546.310	40.430	-0.228	0.205
-545.296	800.000	-0.047	-0.139
-544.281	-200.000	0.019	0.250
-543.266	800.000	-0.045	0.130
-542.252	-46.656	0.185	-0.091
-541.237	197.628	0.148	-0.226
-540.223	-80.268	0.049	-0.016
-539.208	-119.403	0.282	0.049
-538.193	-74.279	0.207	0.075
-537.179	800.000	-0.011	0.034
-536.164	-200.000	0.006	-0.162
-535.150	268.465	-0.162	0.283
-534.135	800.000	-0.010	0.037
-533.121	520.179	0.019	0.044
-532.106	230.216	0.077	0.126
-531.091	245.137	-0.141	-0.237
-530.077	800.000	0.024	-0.098
-529.062	0.849	0.148	0.106
-528.048	800.000	0.051	-0.152
-527.033	158.263	-0.227	0.315
-526.018	224.234	-0.105	-0.170
-525.004	79.217	-0.106	-0.114
-523.989	635.797	0.057	-0.146
-522.975	-83.159	0.151	0.049
-521.960	141.698	0.124	-0.165
-520.945	-80.923	-0.198	-0.066
-519.931	77.059	-0.187	0.199
-518.916	-66.997	0.221	-0.087
-517.902	99.891	-0.131	-0.151
-516.887	21.527	0.046	0.037
-515.872	-159.403	0.318	-0.018
-514.858	574.229	-0.013	0.033
-513.843	-70.395	-0.176	0.067
-512.829	182.626	0.125	0.184
-511.814	-109.435	0.226	0.048
-510.799	-200.000	0.038	0.263
-509.785	-200.000	-0.013	-0.253
-508.770	14.669	0.063	0.049
-507.756	-2.293	-0.103	-0.072
-506.741	-119.832	-0.178	0.031
-505.726	-101.003	0.210	0.052
-504.712	-200.000	0.015	-0.272
-503.697	-94.368	0.402	0.110
-502.683	-200.000	-0.007	-0.221
-501.668	0.226	0.252	-0.180
-500.653	85.345	0.232	0.255
-499.639	-38.501	-0.258	-0.136
-498.624	-32.081	-0.290	-0.162
-497.610	-22.647	-0.133	-0.080
-496.595	82.438	0.181	0.197
-495.581	-200.000	-0.003	-0.024
-494.566	382.824	-0.105	-0.217
-493.551	-68.446	0.289	-0.112
-492.537	800.000	0.047	0.168
-491.522	-4.396	-0.056	0.039
-490.508	-200.000	0.008	-0.183
-489.493	551.290	-0.139	-0.333
-488.478	-133.229	0.237	0.030
-487.464	800.000	0.036	0.154
-486.449	800.000	-0.020	0.084
-485.435	11.736	-0.116	-0.089
-484.420	698.694	0.096	0.253
-483.405	139.494	0.182	0.240
-482.391	210.370	0.062	-0.098
-481.376	-200.000	-0.034	-0.157
-480.362	476.840	0.117	-0.264
-479.347	69.825	0.172	0.177
-478.332	96.913	0.166	0.190
-477.318	-63.638	0.286	0.117
-476.303	547.570	0.067	-0.161
-475.289	55.321	-0.185	-0.179
-474.274	-36.547	-0.233	0.125
-473.259	29.695	-0.147	0.125
-472.245	-200.000	0.027	0.125
-471.230	0.929	-0.087	-0.062
-470.216	400.393	-0.051	-0.107
-469.201	-15.303	-0.252	0.161
-468.186	75.894	-0.149	0.157
-467.172	55.473	-0.162	0.156
-466.157	169.930	-0.074	0.106
-465.143	800.000	0.047	-0.141
-464.128	-139.430	-0.131	-0.014
-463.113	2.115	-0.089	0.064
-462.099	400.217	-0.050	0.106
-461.084	750.777	-0.067	0.182
-460.070	794.381	-0.147	-0.405
-459.055	35.389	0.115	-0.100
-458.040	263.573	-0.097	0.169
-457.026	113.883	-0.063	0.077
-456.011	95.716	-0.096	-0.109
-454.997	-35.475	0.238	0.129
-453.982	-3.839	0.145	0.100
-452.968	159.540	-0.069	-0.095
-451.953	179.320	0.104	-0.152
-450.938	-136.700	0.140	0.016
-449.924	-141.698	0.406	-0.041
-448.909	717.334	0.041	-0.108
-447.895	-23.519	-0.344	0.206
-446.880	-93.447	-0.147	-0.041
-445.865	20.264	0.233	-0.188
-444.851	305.065	-0.175	-0.324
-443.836	74.859	0.082	0.086
-442.822	-41.627	0.199	-0.102
-441.807	-71.067	-0.140	-0.052
-440.792	138.869	-0.354	-0.465
-439.778	678.652	0.071	-0.183
-438.763	-200.000	-0.023	0.254
-437.749	-32.630	0.080	0.044
-436.734	-145.541	0.247	-0.022
-435.719	278.770	-0.110	0.196
-434.705	-120.407	0.334	0.057
-433.690	99.684	0.141	0.163
-432.676	463.052	-0.101	0.226
-431.661	-123.407	-0.138	-0.022
-430.646	159.173	-0.124	0.172
-429.632	50.611	0.106	0.100
-428.617	22.255	0.147	-0.120
-427.603	58.586	0.107	-0.105
-426.588	428.874	-0.061	0.130
-425.573	34.989	-0.198	0.173
-424.559	-200.000	0.005	0.055
-423.544	-85.039	0.168	0.052
-422.530	-20.885	-0.107	-0.065
-421.515	18.548	-0.228	-0.181
-420.500	-200.000	0.018	-0.369
-419.486	-159.881	-0.303	0.017
-418.471	178.574	0.093	-0.135
-417.457	284.841	0.174	-0.313
-416.442	-9.059	0.141	0.094
-415.428	143.097	0.018	0.024
-414.413	-200.000	-0.032	0.197
-413.398	800.000	-0.062	0.252
-412.384	735.083	-0.077	0.204
-411.369	-15.849	0.275	0.174
-410.355	-200.000	0.015	-0.229
-409.340	-200.000	-0.014	-0.329
-408.325	-103.343	0.074	0.017
-407.311	419.421	0.143	-0.304
-406.296	101.061	0.174	-0.202
-405.282	-14.310	-0.331	0.213
-404.267	-30.078	-0.035	-0.020
-403.252	247.950	0.173	0.291
-402.238	-200.000	-0.047	-0.368
-401.223	42.678	0.334	0.303
-400.209	424.868	0.116	0.249
-399.194	800.000	-0.058	-0.227
-398.179	387.044	0.076	-0.157
-397.165	-93.128	-0.370	-0.103
-396.150	244.075	0.152	0.254
-395.136	44.152	0.110	-0.101
-394.121	463.024	0.097	0.215
-393.106	51.527	0.050	0.047
-392.092	-142.846	0.460	-0.045
-391.077	-1.562	0.060	-0.042
-390.063	120.305	-0.214	-0.264
-389.048	-200.000	-0.021	-0.119
-388.033	-42.173	-0.091	0.046
-387.019	112.074	0.149	-0.179
-386.004	411.966	0.036	-0.077
-384.990	41.034	-0.081	0.072
-383.975	66.521	-0.235	-0.238
-382.960	-200.000	0.036	-0.163
-381.946	-15.420	0.227	0.145
-380.931	-16.727	0.325	0.205
-379.917	120.561	0.037	-0.045
-378.902	23.914	0.021	0.017
-377.888	-200.000	0.026	0.334
-376.873	-200.000	-0.016	0.244
-375.858	-131.556	0.254	0.033
-374.844	-174.569	-0.096	-0.003
-373.829	-142.345	0.341	0.033
-372.815	11.427	0.248	-0.189
-371.800	-110.771	0.149	0.030
-370.785	-104.944	-0.427	0.097
-369.771	126.202	-0.128	-0.161
-368.756	-38.444	-0.098	0.052
-367.742	-94.040	0.155	-0.042
-366.727	-107.821	0.175	-0.038
-365.712	-73.291	-0.209	0.076
-364.698	573.172	-0.065	-0.158
-363.683	-27.006	-0.296	-0.172
-362.669	51.574	-0.068	-0.064
-361.654	-165.992	-0.382	0.016
-360.639	382.637	0.104	0.212
-359.625	436.072	-0.060	-0.130
-358.610	198.316	-0.092	0.140
-357.596	-92.635	-0.070	-0.019
-356.581	-46.669	-0.171	-0.083
-355.566	-152.842	-0.218	0.015
-354.552	55.618	-0.096	0.092
-353.537	-62.467	0.366	-0.151
-352.523	-200.000	0.007	-0.307
-351.508	56.651	-0.216	0.209
-350.493	800.000	-0.086	-0.257
-349.479	159.093	0.014	-0.019
-348.464	-116.678	0.077	0.014
-347.450	513.874	-0.035	0.080
-346.435	126.054	-0.195	0.245
-345.420	18.727	-0.272	0.216
-344.406	-136.842	-0.077	0.009
-343.391	35.862	-0.019	-0.016
-342.377	-164.346	0.106	0.005
-341.362	210.531	0.147	-0.229
-340.348	-128.416	-0.097	-0.014
-339.333	-131.324	-0.346	-0.046
-338.318	31.024	-0.426	-0.363
-337.304	103.697	0.058	-0.068
-336.289	-63.572	-0.290	0.118
-335.275	24.820	-0.201	0.166
-334.260	100.238	0.182	0.210
-333.245	109.280	-0.095	-0.113
-332.231	-107.742	-0.179	0.039
-331.216	-102.783	0.444	-0.105
-330.202	-86.751	-0.288	0.087
-329.187	-153.209	0.181	-0.013
-328.172	800.000	0.058	0.238
-327.158	-148.121	0.163	0.013
-326.143	-117.159	0.100	-0.018
-325.129	800.000	0.081	-0.226
-324.114	-83.658	-0.174	0.055
-323.099	19.277	-0.169	0.135
-322.085	156.994	-0.022	-0.031
-321.070	125.177	-0.182	0.228
-320.056	154.083	-0.062	-0.084
-319.041	-61.925	-0.278	0.115
-318.026	-200.000	-0.002	-0.283
-317.012	-200.000	-0.033	-0.157
-315.997	-92.475	0.148	0.041
-314.983	754.391	-0.066	0.178
-313.968	144.631	-0.272	0.361
-312.953	-102.871	-0.299	-0.071
-311.939	-200.000	-0.034	-0.430
-310.924	-71.718	0.547	0.203
-309.910	800.000	0.025	-0.094
-308.895	-98.412	-0.064	-0.016
-307.880	59.985	0.093	-0.091
-306.866	-200.000	-0.064	-0.330
-305.851	38.622	-0.175	0.155
-304.837	796.708	-0.174	0.475
-303.822	29.437	0.290	0.245
-302.807	504.765	0.074	0.170
-301.793	-123.214	0.200	-0.032
-300.778	800.000	0.075	-0.262
-299.764	78.197	0.171	-0.181
-298.749	296.549	0.063	-0.114
-297.735	1.363	0.126	0.090
-296.720	331.981	0.062	0.118
-295.705	-71.448	0.379	-0.141
-294.691	-129.424	-0.255	-0.035
-293.676	-133.818	0.169	-0.021
-292.662	317.337	-0.042	0.078
-291.647	205.659	-0.211	-0.326
-290.632	434.796	0.110	0.237
-289.618	-200.000	-0.038	0.296
-288.603	80.539	0.218	-0.233
-287.589	-200.000	0.020	-0.447
-286.574	-200.000	0.019	-0.270
-285.559	-190.303	-0.019	-0.000
-284.545	233.878	-0.123	0.201
-283.530	26.670	-0.261	0.217
-282.516	250.041	0.025	-0.042
-281.501	-172.522	-0.220	-0.007
-280.486	800.000	-0.049	0.142
-279.472	106.031	0.092	0.108
-278.457	-9.924	0.121	-0.080
-277.443	425.577	0.169	0.360
-276.428	65.136	0.078	0.078
-275.413	-200.000	0.021	-0.188
-274.399	-200.000	0.033	0.154
-273.384	-200.000	0.005	0.257
-272.370	-200.000	0.013	0.065
-271.355	800.000	-0.048	-0.189
-270.340	127.294	0.130	-0.163
-269.326	-200.000	0.046	-0.511
-268.311	-200.000	-0.029	0.179
-267.297	63.497	-0.103	-0.103
-266.282	-85.024	0.185	-0.058
-265.267	-181.779	0.559	0.011
-264.253	-91.598	-0.241	-0.068
-263.238	179.983	0.151	-0.219
-262.224	-79.076	-0.335	0.113
-261.209	-127.822	0.207	-0.030
-260.195	294.227	-0.061	-0.110
-259.180	800.000	0.104	0.397
-258.165	-0.410	-0.087	-0.061
-257.151	800.000	-0.038	-0.129
-256.136	296.012	0.173	-0.315
-255.122	-57.463	0.217	-0.095
-254.107	15.687	0.084	-0.065
-253.092	-33.841	0.209	-0.114
-252.078	-200.000	-0.011	0.208
-251.063	76.635	-0.119	0.125
-250.049	115.968	0.238	-0.288
-249.034	-84.469	-0.054	0.017
-248.019	-200.000	-0.032	0.211
-247.005	-9.404	-0.242	-0.160
-245.990	-109.538	-0.221	0.046
-244.976	75.361	-0.100	-0.105
-243.961	800.000	0.020	-0.073
-242.946	48.065	0.269	0.249
-241.932	-12.065	0.335	0.217
-240.917	716.807	-0.171	-0.450
-239.903	68.532	-0.227	-0.231
-238.888	800.000	0.078	0.266
-237.873	800.000	0.087	-0.323
-236.859	83.314	0.198	-0.213
-235.844	147.391	0.169	0.225
-234.830	-3.303	0.113	-0.078
-233.815	-65.007	-0.260	0.104
-232.800	163.486	0.187	0.260
-231.786	-101.906	-0.119	-0.028
-230.771	800.000	-0.015	-0.059
-229.757	6.750	-0.260	0.192
-228.742	230.302	-0.111	0.179
-227.727	114.828	-0.162	-0.195
-226.713	45.007	-0.075	-0.069
-225.698	-112.254	0.182	0.036
-224.684	-200.000	-0.065	0.292
-223.669	197.272	0.158	-0.239
-222.655	589.620	-0.053	0.129
-221.640	-63.855	-0.176	0.071
-220.625	118.244	-0.102	-0.125
-219.611	533.836	-0.068	0.160
-218.596	754.933	-0.184	0.492
-217.582	-0.924	0.204	-0.143
-216.567	27.027	-0.256	-0.213
-215.552	620.588	-0.133	0.332
-214.538	-61.161	-0.228	0.095
-213.523	777.911	0.058	0.157
-212.509	-63.989	-0.128	-0.052
-211.494	800.000	-0.083	0.274
-210.479	86.242	0.062	0.067
-209.465	-94.391	0.173	-0.047
-208.450	-157.559	0.333	0.020
-207.436	-34.711	0.330	0.178
-206.421	-85.184	0.119	-0.037
-205.406	677.887	-0.102	-0.263
-204.392	-75.551	-0.197	0.069
-203.377	121.142	-0.242	-0.298
-202.363	-121.253	-0.223	0.037
-201.348	-94.064	-0.387	-0.105
-200.333	-200.000	0.005	0.159
-199.319	800.000	-0.009	0.026
-198.304	591.891	-0.058	0.141
-197.290	-168.314	0.185	0.007
-196.275	-200.000	-0.058	0.441
-195.260	-200.000	-0.000	-0.030
-194.246	257.399	0.091	0.154
-193.231	800.000	-0.044	0.187
-192.217	-200.000	-0.020	-0.166
-191.202	800.000	-0.085	-0.294
-190.187	800.000	0.005	-0.022
-189.173	753.784	-0.063	-0.168
-188.158	-200.000	0.038	-0.575
-187.144	664.822	0.063	0.162
-186.129	-163.930	0.408	-0.019
-185.114	-100.860	-0.031	-0.008
-184.100	-200.000	-0.060	0.330
-183.085	-188.320	-0.266	0.003
-182.071	17.087	-0.152	-0.119
-181.056	-200.000	0.005	-0.190
-180.042	800.000	-0.071	-0.290
-179.027	-200.000	0.064	0.290
-178.012	-45.868	0.163	0.080
-176.998	-58.494	0.148	0.063
-175.983	493.173	0.078	0.176
-174.969	-200.000	0.009	-0.045
-173.954	800.000	0.039	-0.151
-172.939	-200.000	-0.092	0.413
-171.925	112.978	-0.141	0.168
-170.910	17.546	0.039	-0.031
-169.896	800.000	0.024	-0.081
-168.881	-120.491	-0.113	0.019
-167.866	109.804	-0.163	0.193
-166.852	-200.000	0.019	-0.172
-165.837	253.768	0.020	-0.034
-164.823	800.000	0.077	0.238
-163.808	642.457	0.038	-0.095
-162.793	189.703	-0.217	0.322
-161.779	169.014	-0.087	0.122
-160.764	86.261	-0.239	-0.260
-159.750	800.000	0.079	-0.231
-158.735	800.000	-0.028	0.085
-157.720	800.000	0.062	0.250
-156.706	462.019	0.028	-0.062
-155.691	-74.913	0.345	0.122
-154.677	179.583	-0.192	0.277
-153.662	203.061	0.007	0.010
-152.647	230.815	0.097	-0.157
-151.633	-37.399	-0.157	-0.083
-150.618	-194.316	0.229	0.002
-149.604	-49.623	-0.111	-0.052
-148.589	351.961	-0.150	-0.293
-147.574	800.000	-0.119	-0.434
-146.560	-133.157	0.074	0.009
-145.545	-12.708	-0.130	-0.084
-144.531	-200.000	-0.036	-0.293
-143.516	-48.839	0.041	-0.019
-142.502	-155.961	-0.196	-0.012
-141.487	2.017	0.248	0.177
-140.472	-200.000	-0.049	0.470
-139.458	-163.565	-0.285	-0.013
-138.443	800.000	-0.072	0.290
-137.429	-177.941	-0.325	0.008
-136.414	-62.263	-0.150	-0.062
-135.399	106.983	-0.152	0.178
-134.385	226.483	-0.138	-0.221
-133.370	800.000	-0.079	0.283
-132.356	800.000	-0.059	0.200
-131.341	-121.640	-0.403	0.066
-130.326	113.846	0.164	0.197
-129.312	-28.486	-0.424	0.241
-128.297	-110.055	0.192	-0.039
-127.283	83.628	-0.104	-0.111
-126.268	-200.000	0.014	0.242
-125.253	-62.917	-0.256	0.105
-124.239	800.000	-0.048	-0.161
-123.224	-200.000	-0.082	0.392
-122.210	3.787	0.219	-0.157
-121.195	171.502	0.009	0.013
