DTS Sentinel unit serial number:	SN413079Multiplexer serial number:	ORYXHardware model number:	OX4-SRSoftware version number:	ORYX F/W v4.00 Oryx Data Collector v3.7.2.0data status	okinstallation	princeton_trtdifferential loss correction	single-endedforward channel	channel 1reverse channel	N/Adate	2019/09/18time	18:22:35forward acquisition time	60.00reverse acquisition time	0.00gamma	496.2192k internal	0.2294k external	0.2294temperature offset calibration	1.0019default loss term (dB/km)	0.3790temperature slope calibration	1.0000multiplexer offset coefficient	1.0000multiplexer slope coefficient	1.0000fibre end	0.00T internal ref (°C)	38.64T ext. ref 1 (°C)	0.92T ext. ref 2 (°C)	31.59length (m)	temperature (°C)	Stokes	anti-Stokes-747.200	-167.048	0.367	-0.015
-746.185	-200.000	0.009	0.193
-745.171	-89.127	0.252	0.076
-744.156	-200.000	0.029	-0.135
-743.142	272.170	0.142	0.256
-742.127	800.000	0.073	0.220
-741.112	-103.579	0.225	0.054
-740.098	-32.538	-0.208	0.119
-739.083	83.971	-0.275	-0.307
-738.069	229.401	-0.109	0.182
-737.054	-200.000	0.002	0.208
-736.039	800.000	0.045	0.139
-735.025	800.000	-0.054	0.175
-734.010	800.000	-0.026	-0.077
-732.996	-18.474	0.078	-0.050
-731.981	-156.624	0.190	0.012
-730.966	47.059	0.054	-0.052
-729.952	581.399	0.158	-0.395
-728.937	285.681	0.194	-0.358
-727.923	21.596	-0.133	0.110
-726.908	246.721	-0.053	-0.091
-725.894	-10.874	-0.141	-0.095
-724.879	182.197	0.150	-0.226
-723.864	-144.043	-0.155	-0.015
-722.850	-200.000	-0.011	0.176
-721.835	-71.847	0.240	0.091
-720.821	-75.922	-0.074	-0.027
-719.806	-200.000	0.028	0.269
-718.791	171.304	-0.172	-0.252
-717.777	-83.743	0.180	0.059
-716.762	-36.502	0.154	0.085
-715.748	293.409	0.010	0.019
-714.733	169.222	-0.160	0.233
-713.718	66.081	0.418	-0.433
-712.704	-123.569	-0.281	-0.046
-711.689	242.477	-0.154	-0.264
-710.675	63.077	-0.031	0.032
-709.660	800.000	-0.035	0.125
-708.645	-100.726	0.201	-0.051
-707.631	342.228	0.040	-0.079
-706.616	500.188	-0.131	-0.308
-705.602	196.454	-0.026	-0.040
-704.587	-37.564	-0.241	0.131
-703.572	295.379	0.039	0.073
-702.558	800.000	-0.031	0.127
-701.543	-56.896	0.036	0.016
-700.529	-19.634	-0.180	0.114
-699.514	800.000	0.083	-0.284
-698.499	-129.781	-0.159	-0.022
-697.485	377.525	0.064	-0.134
-696.470	-200.000	0.018	0.314
-695.456	-67.237	-0.302	0.121
-694.441	22.932	0.019	-0.016
-693.426	-171.601	0.145	-0.005
-692.412	-156.234	-0.229	-0.015
-691.397	120.036	0.075	0.095
-690.383	758.199	0.098	-0.270
-689.368	291.577	-0.051	0.094
-688.354	-200.000	-0.034	0.373
-687.339	9.840	-0.020	-0.015
-686.324	84.859	-0.136	-0.152
-685.310	-200.000	0.002	-0.112
-684.295	84.145	0.041	0.046
-683.281	160.950	0.218	0.310
-682.266	-200.000	-0.012	0.077
-681.251	287.840	-0.161	0.296
-680.237	-38.704	0.509	0.274
-679.222	570.940	-0.055	0.136
-678.208	800.000	-0.116	-0.500
-677.193	-121.547	-0.431	0.073
-676.178	-49.249	0.171	0.083
-675.164	70.082	0.236	0.249
-674.149	-200.000	0.014	0.098
-673.135	-57.766	-0.234	0.105
-672.120	79.545	-0.074	0.081
-671.105	89.374	-0.019	-0.022
-670.091	-200.000	0.082	0.374
-669.076	269.264	-0.031	0.055
-668.062	-97.453	0.155	-0.041
-667.047	800.000	0.033	-0.099
-666.032	479.703	-0.098	-0.227
-665.018	274.354	-0.115	0.208
-664.003	-30.857	0.122	-0.070
-662.989	-89.947	-0.209	0.062
-661.974	66.005	-0.122	-0.126
-660.959	-200.000	0.008	-0.228
-659.945	-22.192	-0.218	0.135
-658.930	-114.491	0.356	-0.070
-657.916	-120.072	-0.190	0.033
-656.901	124.759	-0.180	0.231
-655.886	-186.125	0.091	-0.001
-654.872	277.229	0.093	0.169
-653.857	-200.000	-0.090	-0.531
-652.843	800.000	-0.018	-0.054
-651.828	280.879	0.126	0.229
-650.814	198.582	0.153	0.239
-649.799	-170.158	-0.325	0.012
-648.784	7.249	0.243	-0.185
-647.770	-6.954	-0.146	-0.101
-646.755	-111.603	0.101	0.021
-645.741	53.721	-0.287	-0.281
-644.726	684.155	-0.117	-0.312
-643.711	-35.043	-0.061	0.034
-642.697	-119.362	-0.416	-0.074
-641.682	800.000	-0.105	0.379
-640.668	167.496	0.089	0.129
-639.653	377.281	0.141	-0.293
-638.638	-200.000	-0.044	-0.354
-637.624	800.000	0.072	-0.270
-636.609	-96.425	-0.115	0.031
-635.595	338.223	0.167	0.330
-634.580	800.000	-0.007	-0.023
-633.565	-106.737	0.202	-0.046
-632.551	-93.249	-0.209	-0.059
-631.536	255.694	0.115	-0.200
-630.522	-75.513	0.173	0.063
-629.507	247.998	-0.110	0.189
-628.492	-130.289	0.191	0.026
-627.478	-4.788	0.100	-0.070
-626.463	800.000	0.024	-0.096
-625.449	-15.495	0.170	-0.110
-624.434	-162.526	0.375	0.019
-623.419	367.325	-0.139	-0.287
-622.405	10.596	0.231	-0.179
-621.390	-144.326	0.168	-0.016
-620.376	27.737	0.471	0.404
-619.361	800.000	0.066	0.217
-618.346	256.788	-0.143	-0.250
-617.332	323.479	0.101	-0.196
-616.317	-97.563	-0.196	0.052
-615.303	3.278	-0.314	-0.232
-614.288	-94.492	-0.183	0.051
-613.273	-200.000	0.014	0.134
-612.259	800.000	-0.019	0.067
-611.244	512.006	0.064	-0.152
-610.230	-18.319	-0.138	-0.088
-609.215	-129.657	-0.351	-0.049
-608.201	-200.000	-0.018	0.146
-607.186	-200.000	0.010	0.240
-606.171	93.443	-0.190	0.219
-605.157	45.416	-0.063	-0.059
-604.142	117.031	-0.183	0.229
-603.128	165.583	0.104	-0.150
-602.113	-68.893	0.074	0.029
-601.098	-75.454	-0.256	-0.093
-600.084	800.000	-0.119	-0.409
-599.069	-71.226	-0.066	0.025
-598.055	12.462	-0.096	0.075
-597.040	-200.000	0.001	-0.121
-596.025	-64.860	-0.269	-0.110
-595.011	-128.444	0.351	-0.051
-593.996	-200.000	-0.009	0.176
-592.982	99.447	-0.325	-0.383
-591.967	184.319	-0.092	0.138
-590.952	-132.985	0.065	0.008
-589.938	-200.000	0.013	0.084
-588.923	787.081	0.094	0.262
-587.909	-200.000	0.014	-0.105
-586.894	382.583	0.061	-0.128
-585.879	233.598	0.074	0.123
-584.865	777.216	0.027	0.074
-583.850	-200.000	0.010	0.089
-582.836	3.683	-0.196	0.145
-581.821	-200.000	0.012	-0.064
-580.806	117.699	0.085	-0.107
-579.792	305.288	0.057	-0.107
-578.777	432.418	-0.087	-0.193
-577.763	800.000	0.032	-0.104
-576.748	-140.890	-0.130	-0.014
-575.733	-200.000	0.008	-0.075
-574.719	-103.471	0.280	0.067
-573.704	96.234	0.122	0.142
-572.690	772.894	0.058	0.160
-571.675	-33.082	-0.281	0.158
-570.661	378.572	-0.116	0.242
-569.646	-200.000	0.008	-0.491
-568.631	-88.926	-0.338	-0.102
-567.617	-23.265	0.237	-0.145
-566.602	-158.114	0.518	0.031
-565.588	41.011	0.130	0.120
-564.573	800.000	-0.085	0.253
-563.558	-200.000	0.081	0.390
-562.544	-100.097	0.208	-0.053
-561.529	29.615	-0.080	-0.069
-560.515	358.734	0.102	0.206
-559.500	18.446	-0.309	0.251
-558.485	4.619	-0.293	-0.218
-557.471	-200.000	-0.043	0.303
-556.456	493.893	0.049	-0.115
-555.442	800.000	0.075	-0.211
-554.427	110.635	-0.127	-0.155
-553.412	62.413	-0.211	0.214
-552.398	-200.000	-0.013	0.108
-551.383	58.843	0.187	-0.187
-550.369	-41.078	-0.031	-0.017
-549.354	189.993	0.120	0.183
-548.339	800.000	-0.122	0.407
-547.325	132.256	-0.190	-0.248
-546.310	-130.413	0.431	-0.059
-545.296	-53.503	0.238	-0.110
-544.281	-200.000	0.003	-0.078
-543.266	-123.237	0.303	0.049
-542.252	-32.654	0.307	0.173
-541.237	-60.771	0.488	-0.210
-540.223	580.320	0.049	0.121
-539.208	-200.000	0.021	0.156
-538.193	-97.468	-0.052	0.014
-537.179	800.000	0.053	-0.191
-536.164	65.936	-0.225	0.232
-535.150	-49.127	0.260	-0.126
-534.135	24.322	0.142	-0.119
-533.121	114.999	0.161	-0.199
-532.106	-44.303	0.172	-0.087
-531.091	-146.494	0.218	-0.019
-530.077	20.429	-0.130	0.107
-529.062	-74.376	-0.382	0.140
-528.048	-104.295	0.245	-0.058
-527.033	-115.663	-0.119	0.023
-526.018	170.227	-0.247	-0.358
-525.004	539.195	0.039	-0.093
-523.989	14.906	-0.047	-0.038
-522.975	-23.327	-0.102	-0.062
-521.960	-200.000	-0.038	-0.223
-520.945	-200.000	0.060	-0.361
-519.931	-200.000	0.052	-0.253
-518.916	800.000	-0.079	-0.237
-517.902	258.112	-0.082	0.143
-516.887	-200.000	-0.012	-0.139
-515.872	8.986	-0.254	-0.194
-514.858	800.000	0.031	0.128
-513.843	153.223	0.139	-0.192
-512.829	-108.413	0.233	0.051
-511.814	85.023	0.069	0.077
-510.799	31.536	0.303	0.264
-509.785	429.019	-0.083	-0.181
-508.770	-70.830	-0.036	-0.014
-507.756	-42.297	-0.345	-0.178
-506.741	800.000	0.142	0.459
-505.726	800.000	0.081	0.240
-504.712	-4.260	-0.111	-0.078
-503.697	-108.059	-0.042	0.009
-502.683	-70.413	-0.189	-0.073
-501.668	-31.228	-0.260	-0.149
-500.653	514.796	0.083	-0.196
-499.639	-11.732	0.249	-0.166
-498.624	-73.222	0.065	0.024
-497.610	73.640	0.140	0.149
-496.595	179.737	0.120	0.179
-495.581	-200.000	0.010	0.212
-494.566	182.207	0.043	-0.064
-493.551	250.447	0.106	-0.182
-492.537	223.062	-0.072	-0.117
-491.522	-200.000	0.019	-0.227
-490.508	-200.000	-0.026	-0.373
-489.493	244.316	-0.079	-0.134
-488.478	-26.164	-0.162	-0.097
-487.464	-200.000	-0.007	-0.193
-486.449	800.000	0.052	0.172
-485.435	274.115	0.196	0.352
-484.420	800.000	-0.163	0.517
-483.405	-27.268	-0.214	0.126
-482.391	336.001	0.089	0.176
-481.376	-82.893	0.147	0.048
-480.362	-11.898	-0.310	-0.206
-479.347	-200.000	0.075	-0.441
-478.332	-200.000	-0.024	-0.242
-477.318	-136.740	0.097	0.011
-476.303	308.487	-0.090	-0.169
-475.289	40.520	0.102	-0.093
-474.274	628.161	-0.071	0.182
-473.259	79.420	-0.016	-0.017
-472.245	-200.000	0.022	0.191
-471.230	-200.000	0.013	0.215
-470.216	-121.311	0.039	0.007
-469.201	-27.381	0.341	-0.201
-468.186	-34.072	0.309	-0.172
-467.172	800.000	-0.100	0.318
-466.157	-90.219	0.086	-0.025
-465.143	-104.261	0.133	-0.031
-464.128	-53.790	0.236	-0.109
-463.113	800.000	-0.091	-0.263
-462.099	-157.878	0.260	-0.016
-461.084	-26.329	-0.255	0.151
-460.070	404.232	0.080	0.171
-459.055	-200.000	-0.019	0.108
-458.040	-106.946	0.196	-0.044
-457.026	144.464	-0.070	-0.094
-456.011	226.448	-0.108	-0.178
-454.997	-114.596	0.281	0.054
-453.982	135.267	0.133	0.175
-452.968	-200.000	-0.006	0.045
-451.953	-200.000	-0.053	-0.269
-450.938	-56.606	0.318	-0.142
-449.924	-51.126	-0.089	0.042
-448.909	-200.000	-0.006	-0.247
-447.895	39.842	-0.182	0.165
-446.880	800.000	0.067	0.261
-445.865	14.125	0.078	-0.061
-444.851	-200.000	0.018	0.092
-443.836	800.000	0.109	0.353
-442.822	546.024	0.076	0.184
-441.807	-200.000	0.009	-0.151
-440.792	-200.000	-0.004	0.210
-439.778	22.858	-0.096	0.080
-438.763	800.000	-0.050	0.188
-437.749	329.563	0.020	0.038
-436.734	-99.798	0.068	0.017
-435.719	-80.071	-0.131	-0.044
-434.705	-2.191	-0.176	-0.125
-433.690	169.981	0.188	0.271
-432.676	300.168	0.031	-0.058
-431.661	-200.000	-0.024	0.285
-430.646	101.536	-0.064	0.076
-429.632	158.368	0.077	-0.108
-428.617	800.000	-0.116	-0.509
-427.603	-174.409	0.312	0.009
-426.588	-160.546	-0.228	0.012
-425.573	2.777	0.152	-0.112
-424.559	-157.411	-0.156	0.009
-423.544	-77.343	-0.094	-0.033
-422.530	33.242	0.062	-0.055
-421.515	84.391	0.229	-0.253
-420.500	285.920	-0.074	0.135
-419.486	800.000	0.030	-0.125
-418.471	-200.000	-0.050	-0.242
-417.457	766.160	0.231	0.633
-416.442	-200.000	-0.025	-0.158
-415.428	-33.828	0.219	-0.122
-414.413	-200.000	0.008	-0.100
-413.398	1.331	0.061	0.044
-412.384	800.000	-0.069	0.264
-411.369	113.776	0.196	0.240
-410.355	-200.000	0.023	-0.169
-409.340	-200.000	-0.005	-0.159
-408.325	-180.750	-0.319	-0.007
-407.311	74.543	-0.038	0.040
-406.296	759.601	-0.063	0.172
-405.282	800.000	-0.052	-0.147
-404.267	-156.386	0.150	0.009
-403.252	-147.520	-0.260	-0.022
-402.238	456.059	0.078	-0.174
-401.223	800.000	-0.069	-0.288
-400.209	-179.934	0.157	0.003
-399.194	-200.000	-0.038	0.203
-398.179	201.991	-0.063	0.098
-397.165	153.224	0.062	0.085
-396.150	137.051	-0.134	0.177
-395.136	-115.736	0.229	0.043
-394.121	-22.544	-0.175	-0.107
-393.106	-160.586	-0.199	-0.011
-392.092	-85.596	-0.132	-0.041
-391.077	800.000	-0.084	-0.255
-390.063	-200.000	-0.034	-0.268
-389.048	-172.096	-0.069	0.002
-388.033	262.543	0.058	0.101
-387.019	-118.909	0.233	-0.041
-386.004	-16.717	0.091	-0.058
-384.990	329.570	-0.061	0.118
-383.975	27.379	-0.067	0.057
-382.960	4.286	0.124	-0.091
-381.946	92.270	-0.070	0.079
-380.931	-103.612	-0.332	0.079
-379.917	4.773	0.068	-0.051
-378.902	71.864	-0.189	-0.198
-377.888	132.701	-0.062	0.080
-376.873	123.829	0.081	0.103
-375.858	800.000	0.102	0.308
-374.844	-92.744	0.041	-0.011
-373.829	340.943	-0.104	-0.206
-372.815	61.605	0.108	0.108
-371.800	-200.000	-0.008	-0.122
-370.785	800.000	0.057	-0.161
-369.771	-200.000	0.022	-0.134
-368.756	-97.667	-0.241	0.063
-367.742	259.750	0.099	0.172
-366.727	-27.487	0.213	-0.125
-365.712	-25.762	0.250	-0.149
-364.698	800.000	0.017	0.060
-363.683	-122.085	-0.110	0.018
-362.669	-99.098	-0.271	-0.069
-361.654	-200.000	-0.102	0.530
-360.639	300.718	-0.086	0.160
-359.625	-85.126	0.106	-0.033
-358.610	11.635	0.132	-0.102
-357.596	-96.885	0.244	-0.064
-356.581	800.000	0.049	0.191
-355.566	-125.600	0.195	0.030
-354.552	26.798	0.093	-0.079
-353.537	-125.621	0.267	-0.041
-352.523	-200.000	-0.036	-0.335
-351.508	-15.818	-0.153	0.098
-350.493	260.480	0.053	-0.093
-349.479	-39.240	0.145	0.077
-348.464	96.446	0.236	0.272
-347.450	-60.998	0.283	0.121
-346.435	-200.000	0.019	0.086
-345.420	52.577	0.171	0.165
-344.406	144.065	0.122	0.164
-343.391	3.741	0.170	-0.125
-342.377	97.747	-0.083	-0.096
-341.362	-11.215	-0.181	0.120
-340.348	151.442	0.066	-0.090
-339.333	-186.662	-0.218	0.003
-338.318	800.000	-0.074	0.318
-337.304	37.774	0.136	0.122
-336.289	-200.000	0.021	-0.176
-335.275	-200.000	-0.003	0.110
-334.260	39.302	0.133	0.120
-333.245	298.256	0.179	0.331
-332.231	-68.638	0.162	0.063
-331.216	233.938	0.165	-0.273
-330.202	105.790	-0.304	-0.362
-329.187	446.176	-0.088	-0.194
-328.172	295.127	0.152	-0.280
-327.158	-92.680	0.034	0.010
-326.143	589.381	0.097	-0.240
-325.129	1.659	-0.121	-0.087
-324.114	228.095	0.062	-0.102
-323.099	-200.000	-0.015	-0.229
-322.085	-200.000	0.011	0.392
-321.070	-147.212	-0.116	0.010
-320.056	-200.000	0.036	-0.281
-319.041	542.900	-0.023	-0.055
-318.026	599.125	-0.070	0.175
-317.012	309.776	-0.014	0.026
-315.997	-200.000	0.006	0.126
-314.983	-66.437	0.319	-0.127
-313.968	-200.000	0.008	0.116
-312.953	669.728	0.107	-0.279
-311.939	102.070	-0.063	0.074
-310.924	250.418	0.027	-0.046
-309.910	161.873	0.010	-0.014
-308.895	-200.000	0.004	-0.058
-307.880	800.000	0.024	-0.091
-306.866	288.928	0.190	-0.347
-305.851	161.900	-0.084	-0.118
-304.837	91.977	0.218	0.247
-303.822	-26.276	-0.213	-0.126
-302.807	67.798	-0.214	0.219
-301.793	447.928	-0.121	-0.269
-300.778	-111.738	0.121	-0.025
-299.764	800.000	0.087	0.254
-298.749	-13.695	-0.139	0.091
-297.735	-71.782	0.115	0.043
-296.720	800.000	-0.153	0.498
-295.705	-69.057	-0.147	0.057
-294.691	800.000	-0.065	0.237
-293.676	30.879	-0.158	-0.136
-292.662	800.000	-0.054	-0.170
-291.647	438.728	-0.037	0.082
-290.632	-200.000	0.043	0.286
-289.618	148.739	0.114	-0.155
-288.603	-101.072	0.271	0.067
-287.589	800.000	-0.157	-0.453
-286.574	800.000	-0.094	0.301
-285.559	128.623	0.170	0.218
-284.545	800.000	-0.046	0.164
-283.530	7.527	-0.088	-0.066
-282.516	-28.515	0.101	-0.058
-281.501	96.882	0.174	0.200
-280.486	-134.804	-0.341	-0.042
-279.472	5.809	-0.112	-0.083
-278.457	-119.179	-0.112	0.020
-277.443	-114.529	-0.416	0.080
-276.428	290.256	0.108	-0.197
-275.413	-46.160	-0.323	-0.160
-274.399	-15.753	-0.144	0.092
-273.384	-200.000	0.005	-0.064
-272.370	-200.000	-0.017	0.113
-271.355	800.000	0.034	-0.118
-270.340	-200.000	-0.005	0.024
-269.326	67.096	0.072	-0.073
-268.311	138.729	0.083	-0.109
-267.297	-102.779	0.206	-0.049
-266.282	44.483	0.143	-0.132
-265.267	92.929	-0.279	0.316
-264.253	405.094	-0.154	-0.325
-263.238	-48.548	-0.235	-0.113
-262.224	707.909	0.104	-0.276
-261.209	179.123	0.170	0.250
-260.195	800.000	0.090	0.264
-259.180	20.598	-0.178	0.145
-258.165	-200.000	0.005	-0.173
-257.151	-38.334	-0.274	0.146
-256.136	-33.226	-0.234	0.130
-255.122	800.000	0.083	-0.243
-254.107	-161.156	-0.117	-0.006
-253.092	-200.000	-0.032	0.157
-252.078	800.000	-0.119	-0.342
-251.063	30.281	0.130	-0.112
-250.049	-86.097	0.217	0.067
-249.034	0.558	0.136	-0.098
-248.019	21.508	0.324	-0.265
-247.005	142.945	-0.099	-0.132
-245.990	-103.791	-0.035	0.008
-244.976	503.216	-0.132	-0.306
-243.961	86.437	0.066	-0.073
-242.946	206.595	0.209	-0.326
-241.932	-35.231	-0.190	0.104
-240.917	-200.000	-0.001	-0.033
-239.903	-18.195	-0.170	0.107
-238.888	400.181	-0.097	0.205
-237.873	-35.981	0.178	-0.097
-236.859	-115.437	-0.087	-0.016
-235.844	-153.090	-0.204	0.014
-234.830	-200.000	0.014	-0.093
-233.815	-33.861	0.224	0.124
-232.800	-200.000	0.057	0.466
-231.786	1.117	-0.111	0.080
-230.771	39.371	-0.130	-0.116
-229.757	405.823	0.173	0.366
-228.742	17.728	-0.265	0.211
-227.727	520.128	-0.098	-0.231
-226.713	-137.780	-0.312	0.035
-225.698	190.021	-0.199	0.299
-224.684	190.814	-0.118	0.178
-223.669	307.880	-0.130	0.243
-222.655	103.147	-0.097	-0.114
-221.640	522.952	0.072	0.170
-220.625	178.478	-0.180	0.264
-219.611	4.683	-0.253	0.186
-218.596	-41.206	0.010	-0.005
-217.582	-46.533	0.090	0.044
-216.567	800.000	-0.029	-0.097
-215.552	414.015	-0.177	0.378
-214.538	-47.227	0.136	0.066
-213.523	77.109	-0.168	0.179
-212.509	-200.000	0.009	0.226
-211.494	148.176	-0.251	0.339
-210.479	83.782	-0.186	-0.204
-209.465	-200.000	-0.030	-0.317
-208.450	2.777	-0.127	0.092
-207.436	-200.000	0.018	0.211
-206.421	-9.912	-0.194	-0.129
-205.406	-75.978	0.169	-0.060
-204.392	-200.000	0.011	-0.115
-203.377	-30.855	-0.282	0.160
-202.363	-160.664	0.558	-0.030
-201.348	-143.774	-0.139	0.013
-200.333	-200.000	0.067	0.402
-199.319	-200.000	-0.036	0.321
-198.304	162.488	0.122	0.171
-197.290	153.660	0.149	0.205
-196.275	-41.406	-0.100	0.051
-195.260	-56.357	-0.180	0.080
-194.246	-130.088	0.110	-0.015
-193.231	121.929	0.068	0.086
-192.217	-200.000	0.012	0.132
-191.202	-5.029	0.067	0.046
-190.187	-196.116	0.107	0.001
-189.173	766.858	-0.127	0.346
-188.158	-200.000	-0.032	0.232
-187.144	-72.854	-0.040	-0.015
-186.129	-161.514	-0.315	0.016
-185.114	0.090	-0.104	-0.074
-184.100	-200.000	-0.347	0.001
-183.085	645.090	0.178	-0.454
-182.071	-67.451	-0.331	-0.130
-181.056	-200.000	-0.034	0.192
-180.042	296.174	0.050	-0.093
-179.027	67.766	-0.150	0.154
-178.012	-72.125	0.296	0.110
-176.998	800.000	0.025	-0.106
-175.983	-4.143	-0.137	-0.095
-174.969	-31.718	0.129	0.073
-173.954	-192.030	-0.216	0.002
-172.939	-61.598	0.109	-0.046
-171.925	49.127	-0.124	-0.117
-170.910	800.000	0.098	-0.390
-169.896	-111.300	-0.088	-0.018
-168.881	2.325	0.047	-0.034
-167.866	-200.000	-0.003	-0.207
-166.852	-52.397	0.365	-0.169
-165.837	-144.943	0.047	0.004
-164.823	-200.000	0.014	-0.263
-163.808	401.920	0.157	0.330
-162.793	147.016	-0.123	0.166
-161.779	-35.876	-0.182	0.098
-160.764	-200.000	0.001	0.225
-159.750	-94.633	-0.085	0.023
-158.735	-200.000	-0.014	-0.508
-157.720	-100.123	-0.171	0.042
-156.706	109.182	-0.073	-0.087
-155.691	-133.410	0.613	0.077
-154.677	-200.000	0.033	-0.257
-153.662	-115.566	-0.292	0.055
-152.647	257.747	-0.120	0.206
-151.633	-10.352	0.194	0.128
-150.618	-68.874	-0.096	0.037
-149.604	520.011	-0.145	0.339
-148.589	12.523	-0.181	0.139
-147.574	-200.000	-0.023	0.256
-146.560	-200.000	0.003	0.466
-145.545	800.000	0.033	-0.117
-144.531	-15.109	-0.428	-0.274
-143.516	-84.859	-0.201	0.063
-142.502	-7.561	0.231	0.156
-141.487	83.042	-0.112	-0.122
-140.472	-200.000	-0.005	0.377
-139.458	-200.000	-0.017	-0.084
-138.443	800.000	0.070	-0.205
-137.429	64.245	-0.233	-0.234
-136.414	-79.997	-0.142	0.048
-135.399	800.000	-0.132	0.464
-134.385	800.000	-0.020	0.065
-133.370	313.123	-0.108	0.203
-132.356	84.125	0.114	-0.125
-131.341	-200.000	0.113	-0.605
-130.326	168.007	-0.163	-0.231
-129.312	178.576	-0.080	0.117
-128.297	17.943	-0.214	-0.170
-127.283	13.961	0.149	0.116
-126.268	16.908	0.177	0.140
-125.253	-106.825	0.319	0.071
-124.239	-34.162	-0.105	-0.057
-123.224	-85.035	0.260	-0.081
-122.210	98.518	0.071	-0.082
-121.195	-102.653	-0.211	0.050
-120.180	574.777	-0.076	-0.186
