DTS Sentinel unit serial number:	SN413079Multiplexer serial number:	ORYXHardware model number:	OX4-SRSoftware version number:	ORYX F/W v4.00 Oryx Data Collector v3.7.2.0data status	okinstallation	princeton_trtdifferential loss correction	single-endedforward channel	channel 1reverse channel	N/Adate	2019/09/11time	10:12:11forward acquisition time	60.00reverse acquisition time	0.00gamma	496.2192k internal	0.2300k external	0.2300temperature offset calibration	0.9953default loss term (dB/km)	0.3790temperature slope calibration	1.0000multiplexer offset coefficient	1.0000multiplexer slope coefficient	1.0000fibre end	0.00T internal ref (°C)	35.80T ext. ref 1 (°C)	0.14T ext. ref 2 (°C)	33.61length (m)	temperature (°C)	Stokes	anti-Stokes-747.200	472.732	0.109	-0.251
-746.185	-25.439	-0.039	0.024
-745.171	21.479	0.070	-0.058
-744.156	350.764	-0.084	-0.169
-743.142	-113.304	0.308	-0.062
-742.127	254.926	0.132	0.230
-741.112	-74.521	-0.208	0.076
-740.098	800.000	0.042	0.155
-739.083	-41.898	0.131	0.068
-738.069	-200.000	-0.006	-0.042
-737.054	-122.599	0.507	0.084
-736.039	-70.360	-0.345	0.133
-735.025	188.581	0.187	0.285
-734.010	-200.000	-0.016	0.180
-732.996	-200.000	0.061	-0.295
-731.981	-32.335	-0.093	0.053
-730.966	-200.000	0.027	-0.133
-729.952	123.559	-0.169	0.216
-728.937	195.180	-0.135	-0.208
-727.923	147.085	0.085	-0.116
-726.908	50.508	-0.243	-0.234
-725.894	-188.406	0.112	0.001
-724.879	-200.000	0.004	0.024
-723.864	-90.894	0.287	0.084
-722.850	135.888	0.198	-0.263
-721.835	348.462	0.194	-0.389
-720.821	-54.036	0.172	-0.080
-719.806	-200.000	0.014	-0.135
-718.791	-121.512	0.067	0.011
-717.777	425.092	-0.070	-0.153
-716.762	-60.053	0.196	-0.085
-715.748	800.000	0.051	-0.145
-714.733	-200.000	-0.012	0.074
-713.718	-200.000	-0.040	-0.317
-712.704	800.000	0.020	-0.075
-711.689	-200.000	-0.071	0.424
-710.675	78.143	-0.060	-0.065
-709.660	713.343	-0.104	0.281
-708.645	-53.064	0.215	-0.101
-707.631	800.000	-0.077	-0.286
-706.616	-80.659	-0.074	0.025
-705.602	-19.035	0.097	0.061
-704.587	-133.393	0.111	-0.014
-703.572	800.000	0.051	-0.176
-702.558	-57.030	0.212	-0.095
-701.543	472.477	0.058	0.133
-700.529	-56.337	0.183	-0.083
-699.514	-67.565	0.247	0.098
-698.499	-136.030	-0.224	-0.027
-697.485	-103.023	0.132	-0.032
-696.470	-200.000	-0.009	0.074
-695.456	-200.000	0.073	-0.525
-694.441	129.271	0.092	0.120
-693.426	-27.954	-0.023	0.013
-692.412	520.821	-0.036	0.085
-691.397	-200.000	0.009	-0.267
-690.383	-136.279	-0.150	-0.018
-689.368	79.540	0.097	0.106
-688.354	-138.568	-0.053	-0.006
-687.339	617.853	0.053	-0.136
-686.324	800.000	0.093	0.299
-685.310	-69.422	-0.173	0.067
-684.295	-81.532	-0.232	-0.078
-683.281	-121.814	0.328	-0.055
-682.266	-200.000	0.020	0.155
-681.251	69.511	-0.263	-0.276
-680.237	-59.304	-0.168	-0.074
-679.222	-89.615	-0.201	-0.060
-678.208	-94.686	0.483	0.134
-677.193	-200.000	0.017	0.122
-676.178	224.327	-0.077	0.126
-675.164	-176.206	-0.054	0.001
-674.149	-200.000	0.031	0.143
-673.135	133.249	-0.089	-0.116
-672.120	512.262	-0.093	-0.221
-671.105	-64.793	0.159	-0.066
-670.091	-11.839	-0.198	-0.132
-669.076	-86.226	0.201	-0.063
-668.062	-80.514	0.398	-0.135
-667.047	-105.862	-0.141	-0.032
-666.032	800.000	-0.112	-0.372
-665.018	341.453	-0.024	-0.048
-664.003	-40.036	-0.185	0.098
-662.989	588.971	-0.090	0.225
-661.974	247.717	-0.072	-0.123
-660.959	-116.770	0.263	-0.049
-659.945	-8.022	-0.099	0.068
-658.930	-200.000	0.003	-0.150
-657.916	-112.485	0.100	0.020
-656.901	800.000	0.044	0.165
-655.886	232.080	0.163	-0.272
-654.872	-56.353	0.143	-0.065
-653.857	663.524	0.122	-0.319
-652.843	127.636	0.165	-0.213
-651.828	-100.944	0.203	-0.051
-650.814	800.000	-0.101	0.323
-649.799	-200.000	-0.063	-0.515
-648.784	-74.876	-0.128	-0.047
-647.770	-95.326	-0.263	0.072
-646.755	144.397	-0.073	-0.099
-645.741	169.101	0.211	-0.307
-644.726	551.146	-0.078	0.189
-643.711	274.334	-0.068	0.123
-642.697	800.000	0.011	0.045
-641.682	-82.519	-0.172	-0.057
-640.668	196.087	0.119	-0.185
-639.653	-132.743	0.324	-0.042
-638.638	211.564	-0.107	0.170
-637.624	-63.036	-0.131	-0.055
-636.609	800.000	0.052	-0.152
-635.595	-31.114	-0.183	0.105
-634.580	-40.102	-0.198	-0.105
-633.565	800.000	-0.113	0.418
-632.551	-110.083	0.140	-0.030
-631.536	557.182	-0.110	0.269
-630.522	424.229	-0.032	-0.070
-629.507	106.398	-0.145	-0.175
-628.492	14.442	-0.385	-0.305
-627.478	-64.271	0.057	0.023
-626.463	-129.171	-0.176	0.025
-625.449	85.105	-0.033	0.037
-624.434	800.000	0.082	-0.275
-623.419	-154.872	0.268	0.018
-622.405	800.000	-0.040	0.129
-621.390	-172.893	0.118	0.004
-620.376	-200.000	-0.044	0.294
-619.361	-89.300	0.013	-0.004
-618.346	-200.000	-0.011	-0.267
-617.332	800.000	0.146	0.437
-616.317	-100.606	-0.328	-0.082
-615.303	-126.461	-0.160	0.024
-614.288	-39.547	-0.050	-0.026
-613.273	-106.491	-0.171	0.039
-612.259	-111.093	0.276	0.057
-611.244	36.779	-0.152	-0.136
-610.230	-200.000	0.024	-0.490
-609.215	-195.274	0.136	-0.001
-608.201	-7.011	0.241	0.166
-607.186	525.434	0.074	-0.177
-606.171	-200.000	0.009	-0.168
-605.157	145.297	-0.311	-0.423
-604.142	800.000	0.042	-0.153
-603.128	-200.000	0.026	0.294
-602.113	-200.000	-0.002	-0.094
-601.098	-175.950	0.077	-0.002
-600.084	-54.234	-0.131	0.060
-599.069	-69.173	-0.190	-0.074
-598.055	191.817	-0.081	0.124
-597.040	78.320	-0.181	0.196
-596.025	-122.342	0.185	-0.031
-595.011	-200.000	0.004	0.166
-593.996	-181.899	0.172	-0.003
-592.982	-99.542	-0.213	-0.054
-591.967	800.000	-0.028	-0.098
-590.952	-73.082	-0.268	0.100
-589.938	634.924	-0.066	0.171
-588.923	-70.574	-0.428	-0.164
-587.909	-40.969	-0.208	0.109
-586.894	661.693	-0.086	-0.224
-585.879	-23.544	0.114	-0.069
-584.865	-102.522	-0.106	0.026
-583.850	431.539	0.064	-0.141
-582.836	-132.816	-0.235	0.030
-581.821	351.220	-0.154	0.309
-580.806	-70.594	0.113	-0.043
-579.792	-185.574	0.276	0.004
-578.777	-200.000	0.018	-0.109
-577.763	248.035	0.079	-0.135
-576.748	-121.459	-0.374	0.063
-575.733	-92.409	-0.208	-0.059
-574.719	-69.594	-0.426	0.165
-573.704	-26.858	0.048	-0.028
-572.690	226.947	-0.112	0.185
-571.675	-200.000	0.025	-0.378
-570.661	-131.873	-0.076	0.010
-569.646	118.583	0.126	0.157
-568.631	-91.383	-0.303	-0.088
-567.617	-200.000	-0.008	0.370
-566.602	82.389	-0.169	0.186
-565.588	-58.243	0.193	-0.085
-564.573	117.020	0.191	0.237
-563.558	-1.678	0.156	-0.111
-562.544	-25.655	-0.009	-0.005
-561.529	-78.160	-0.299	0.104
-560.515	800.000	0.093	0.326
-559.500	-41.468	-0.081	-0.042
-558.485	149.071	0.132	-0.181
-557.471	-139.024	0.294	0.032
-556.456	-104.858	-0.218	0.051
-555.442	23.603	0.102	-0.085
-554.427	272.442	0.091	-0.163
-553.412	-76.071	-0.251	-0.090
-552.398	59.133	-0.156	0.155
-551.383	-97.215	-0.314	-0.083
-550.369	48.366	-0.022	-0.021
-549.354	48.238	0.148	0.140
-548.339	492.478	-0.069	-0.161
-547.325	72.844	-0.049	-0.051
-546.310	401.437	-0.050	0.107
-545.296	-31.724	0.257	0.146
-544.281	-62.014	0.282	-0.119
-543.266	172.775	0.094	-0.137
-542.252	-10.377	0.218	0.146
-541.237	-5.779	-0.053	0.037
-540.223	-192.245	-0.401	-0.004
-539.208	121.437	-0.191	-0.241
-538.193	-200.000	0.048	-0.235
-537.179	-140.689	-0.202	0.021
-536.164	-144.260	-0.058	-0.005
-535.150	-200.000	0.010	-0.061
-534.135	-200.000	-0.010	-0.110
-533.121	-134.103	0.137	0.017
-532.106	-58.165	0.300	-0.132
-531.091	-200.000	0.319	0.001
-530.077	-200.000	-0.038	-0.383
-529.062	-51.998	0.328	-0.154
-528.048	-200.000	-0.018	0.144
-527.033	-200.000	-0.026	-0.366
-526.018	-200.000	0.039	-0.194
-525.004	60.011	0.120	0.120
-523.989	-103.966	0.266	-0.063
-522.975	372.827	-0.010	-0.022
-521.960	88.817	0.100	0.112
-520.945	-65.054	-0.176	-0.072
-519.931	114.867	0.198	-0.244
-518.916	-200.000	0.017	0.094
-517.902	93.230	-0.099	0.113
-516.887	-10.021	0.192	-0.129
-515.872	521.509	0.103	0.245
-514.858	195.392	0.143	0.220
-513.843	238.099	0.049	-0.082
-512.829	-78.183	0.265	-0.092
-511.814	6.473	0.101	-0.076
-510.799	800.000	0.047	-0.182
-509.785	686.064	-0.065	-0.170
-508.770	-188.509	-0.169	-0.002
-507.756	800.000	-0.122	0.393
-506.741	26.468	0.147	-0.124
-505.726	-200.000	-0.034	-0.238
-504.712	-47.799	0.293	0.143
-503.697	800.000	0.077	-0.239
-502.683	0.371	0.257	-0.185
-501.668	410.838	-0.029	0.063
-500.653	122.737	0.210	0.266
-499.639	11.430	0.127	-0.098
-498.624	-40.856	0.236	-0.123
-497.610	-200.000	-0.047	-0.253
-496.595	84.334	-0.170	0.188
-495.581	225.723	-0.148	0.243
-494.566	-117.820	-0.102	-0.018
-493.551	-122.078	-0.029	-0.005
-492.537	-40.205	-0.114	0.060
-491.522	-200.000	0.005	-0.083
-490.508	-200.000	0.020	0.120
-489.493	-133.210	-0.381	-0.049
-488.478	800.000	-0.014	-0.056
-487.464	218.014	0.058	-0.094
-486.449	114.913	0.237	0.292
-485.435	37.101	-0.103	0.092
-484.420	277.331	-0.165	-0.297
-483.405	-100.482	0.279	0.070
-482.391	-200.000	0.045	-0.249
-481.376	-149.128	0.044	-0.004
-480.362	-200.000	0.002	-0.467
-479.347	-116.582	-0.454	0.084
-478.332	-60.914	0.165	-0.070
-477.318	140.015	0.108	-0.144
-476.303	-77.310	-0.202	0.071
-475.289	-200.000	0.048	-0.227
-474.274	-81.075	-0.198	-0.066
-473.259	-200.000	-0.034	0.209
-472.245	-97.112	0.372	0.098
-471.230	22.243	0.394	0.325
-470.216	299.026	-0.102	0.189
-469.201	-129.046	0.106	0.015
-468.186	92.839	-0.058	-0.066
-467.172	-53.811	0.118	-0.054
-466.157	-200.000	0.014	-0.194
-465.143	-129.410	0.164	0.023
-464.128	-36.653	-0.223	-0.121
-463.113	128.446	-0.081	0.104
-462.099	-32.256	-0.166	0.093
-461.084	-78.756	0.208	-0.072
-460.070	-71.875	-0.154	-0.058
-459.055	-200.000	0.015	0.122
-458.040	39.349	0.199	0.179
-457.026	-187.823	-0.326	-0.004
-456.011	-200.000	-0.016	0.077
-454.997	121.925	-0.191	-0.241
-453.982	792.050	0.113	-0.313
-452.968	-200.000	0.006	0.345
-451.953	-4.656	0.375	0.261
-450.938	-200.000	0.026	0.136
-449.924	-54.076	-0.207	-0.095
-448.909	145.400	0.138	-0.186
-447.895	319.635	-0.211	0.403
-446.880	-46.872	0.127	0.062
-445.865	800.000	-0.020	-0.084
-444.851	-107.706	-0.130	-0.029
-443.836	61.241	-0.162	-0.162
-442.822	24.154	0.065	-0.054
-441.807	800.000	-0.052	-0.194
-440.792	-164.762	0.118	0.005
-439.778	-162.600	0.112	-0.006
-438.763	799.897	-0.118	-0.327
-437.749	184.177	-0.173	-0.258
-436.734	-200.000	0.076	-0.366
-435.719	-96.933	0.258	0.068
-434.705	12.800	0.203	0.158
-433.690	-200.000	0.004	-0.122
-432.676	-78.242	0.313	0.108
-431.661	-49.488	0.123	0.059
-430.646	212.931	0.060	0.095
-429.632	800.000	-0.032	-0.103
-428.617	-127.027	-0.039	0.006
-427.603	43.676	-0.418	0.385
-426.588	-200.000	0.023	0.202
-425.573	-105.644	-0.230	-0.052
-424.559	466.506	0.073	0.165
-423.544	800.000	-0.052	0.223
-422.530	-200.000	-0.027	-0.123
-421.515	465.352	0.068	0.153
-420.500	-200.000	0.023	0.154
-419.486	74.312	-0.104	-0.110
-418.471	114.727	0.088	-0.108
-417.457	-97.577	-0.091	0.024
-416.442	-105.529	-0.247	-0.057
-415.428	-104.484	0.529	-0.123
-414.413	302.712	-0.139	-0.259
-413.398	-101.330	-0.096	0.024
-412.384	-105.111	0.302	-0.070
-411.369	127.189	0.147	0.188
-410.355	-75.847	0.030	0.011
-409.340	800.000	-0.031	0.137
-408.325	800.000	0.042	-0.122
-407.311	-133.033	0.185	-0.024
-406.296	8.522	0.191	0.145
-405.282	199.959	-0.107	0.165
-404.267	-43.467	-0.268	0.136
-403.252	608.505	-0.053	0.134
-402.238	-140.228	0.419	-0.044
-401.223	119.469	-0.168	0.209
-400.209	271.541	-0.193	0.342
-399.194	193.944	-0.050	0.075
-398.179	45.063	0.306	-0.283
-397.165	326.017	-0.135	-0.259
-396.150	-200.000	0.112	-0.000
-395.136	-119.133	-0.049	0.009
-394.121	-155.532	0.091	-0.006
-393.106	81.104	0.094	0.102
-392.092	-29.568	-0.118	0.068
-391.077	-200.000	0.027	0.205
-390.063	20.515	-0.231	-0.188
-389.048	800.000	0.111	-0.394
-388.033	-200.000	0.009	0.094
-387.019	-200.000	0.010	0.069
-386.004	19.776	-0.107	0.087
-384.990	-164.232	0.124	0.006
-383.975	63.460	0.295	0.298
-382.960	-87.317	0.118	0.036
-381.946	-75.869	-0.065	-0.023
-380.931	-200.000	0.026	0.151
-379.917	800.000	0.026	0.099
-378.902	-27.060	0.187	-0.110
-377.888	-62.872	0.162	-0.067
-376.873	800.000	-0.118	0.364
-375.858	-200.000	0.024	-0.334
-374.844	374.031	-0.035	-0.072
-373.829	184.047	-0.157	-0.234
-372.815	-124.180	0.039	0.006
-371.800	95.479	0.168	0.193
-370.785	79.343	-0.082	0.088
-369.771	-48.475	0.258	-0.125
-368.756	250.012	0.019	-0.032
-367.742	-91.492	0.092	-0.026
-366.727	-90.635	-0.147	0.043
-365.712	-200.000	0.060	-0.358
-364.698	-75.518	0.051	-0.018
-363.683	-56.590	-0.214	0.095
-362.669	183.252	0.093	0.138
-361.654	-119.783	0.222	-0.038
-360.639	-29.358	-0.159	0.091
-359.625	800.000	0.078	-0.225
-358.610	522.683	-0.115	0.272
-357.596	-154.091	-0.044	0.003
-356.581	224.195	-0.081	-0.132
-355.566	-166.195	-0.178	0.008
-354.552	56.996	-0.280	-0.274
-353.537	800.000	0.030	0.133
-352.523	-129.490	-0.160	-0.022
-351.508	-18.156	0.236	0.148
-350.493	-143.897	-0.230	0.022
-349.479	147.964	-0.135	0.183
-348.464	-200.000	-0.008	-0.103
-347.450	313.460	0.043	0.081
-346.435	-122.418	-0.044	-0.007
-345.420	-13.016	0.110	0.072
-344.406	-119.148	-0.229	0.040
-343.391	-193.395	0.067	-0.001
-342.377	-200.000	0.037	0.265
-341.362	59.156	-0.036	0.035
-340.348	-200.000	0.148	-0.001
-339.333	-135.209	0.146	-0.018
-338.318	-23.877	-0.289	-0.174
-337.304	672.693	-0.016	-0.042
-336.289	-200.000	-0.001	-0.280
-335.275	20.345	0.112	-0.091
-334.260	-135.534	0.048	0.006
-333.245	-65.689	-0.121	-0.049
-332.231	-100.399	-0.065	-0.016
-331.216	205.809	-0.084	0.131
-330.202	-200.000	-0.025	-0.171
-329.187	33.826	0.104	0.091
-328.172	-94.450	-0.204	-0.056
-327.158	800.000	-0.044	0.154
-326.143	-135.627	0.064	0.008
-325.129	-117.311	0.058	0.011
-324.114	-200.000	-0.033	0.265
-323.099	-83.388	-0.246	-0.079
-322.085	119.694	-0.033	0.041
-321.070	-200.000	-0.026	0.195
-320.056	-13.299	0.181	0.118
-319.041	170.976	-0.237	0.340
-318.026	191.992	0.048	-0.072
-317.012	-137.205	0.104	-0.012
-315.997	-102.903	0.132	0.032
-314.983	-10.261	-0.116	0.077
-313.968	60.282	0.221	0.219
-312.953	-104.742	0.338	0.078
-311.939	109.887	0.053	-0.063
-310.924	-178.931	0.307	-0.007
-309.910	800.000	-0.094	-0.293
-308.895	531.595	-0.044	0.104
-307.880	-74.257	-0.150	-0.054
-306.866	10.448	-0.197	0.150
-305.851	-69.941	-0.139	0.053
-304.837	-200.000	-0.005	0.230
-303.822	-76.065	0.177	0.063
-302.807	41.831	-0.197	-0.179
-301.793	800.000	-0.091	-0.279
-300.778	88.799	0.064	-0.072
-299.764	236.409	-0.053	-0.087
-298.749	73.416	0.139	0.145
-297.735	-200.000	0.047	0.378
-296.720	285.077	0.071	0.128
-295.705	800.000	0.049	0.171
-294.691	517.466	0.109	0.255
-293.676	-69.664	0.216	-0.083
-292.662	-79.523	-0.106	-0.036
-291.647	-118.831	-0.228	0.040
-290.632	-200.000	0.004	0.049
-289.618	-83.106	0.471	-0.152
-288.603	-11.324	0.276	-0.182
-287.589	800.000	0.044	-0.158
-286.574	-70.731	0.263	-0.099
-285.559	-200.000	-0.020	0.214
-284.545	-200.000	-0.025	-0.227
-283.530	-200.000	-0.005	-0.286
-282.516	-200.000	0.049	-0.233
-281.501	-155.989	-0.120	-0.008
-280.486	-161.534	0.239	0.012
-279.472	800.000	0.121	-0.500
-278.457	-200.000	0.009	0.198
-277.443	276.689	0.162	-0.288
-276.428	-114.744	0.171	0.033
-275.413	157.210	0.148	0.205
-274.399	260.572	-0.101	0.175
-273.384	258.003	0.039	-0.067
-272.370	106.267	0.091	-0.108
-271.355	-166.945	-0.276	-0.011
-270.340	93.999	0.148	0.168
-269.326	-5.788	-0.426	-0.292
-268.311	-200.000	0.037	-0.169
-267.297	-200.000	0.010	-0.062
-266.282	349.629	0.113	0.223
-265.267	-200.000	-0.011	0.111
-264.253	-126.108	-0.043	-0.007
-263.238	-200.000	0.004	0.179
-262.224	-128.989	0.112	-0.016
-261.209	-46.237	-0.175	-0.086
-260.195	432.807	-0.136	0.296
-259.180	106.749	-0.081	0.096
-258.165	161.322	0.042	0.059
-257.151	-14.853	-0.208	-0.134
-256.136	-120.708	-0.133	0.023
-255.122	800.000	0.020	0.068
-254.107	278.436	0.193	-0.345
-253.092	59.374	-0.169	0.166
-252.078	790.029	-0.083	0.228
-251.063	-166.012	0.082	0.004
-250.049	-200.000	0.004	0.022
-249.034	149.877	-0.086	0.116
-248.019	-74.842	-0.220	-0.079
-247.005	509.594	-0.146	-0.339
-245.990	261.368	-0.192	-0.332
-244.976	-138.806	-0.098	-0.011
-243.961	18.639	0.064	-0.051
-242.946	-200.000	-0.044	-0.255
-241.932	800.000	-0.031	-0.111
-240.917	-139.360	-0.054	-0.006
-239.903	246.183	-0.168	-0.284
-238.888	-109.305	0.205	0.043
-237.873	696.919	0.021	0.056
-236.859	800.000	0.041	0.120
-235.844	221.781	0.050	-0.080
-234.830	-81.942	-0.193	0.063
-233.815	114.768	0.061	-0.074
-232.800	-200.000	0.048	0.417
-231.786	96.072	0.019	-0.021
-230.771	-126.007	-0.059	0.009
-229.757	-200.000	0.400	0.001
-228.742	800.000	0.016	0.068
-227.727	-200.000	-0.070	0.385
-226.713	-157.900	0.074	0.004
-225.698	382.260	-0.056	0.115
-224.684	167.591	-0.107	-0.152
-223.669	-91.219	-0.321	-0.092
-222.655	17.115	0.213	0.169
-221.640	-200.000	-0.026	-0.146
-220.625	-200.000	-0.002	0.053
-219.611	800.000	-0.009	-0.030
-218.596	-43.965	0.255	0.128
-217.582	-52.788	-0.203	0.093
-216.567	123.199	0.168	0.211
-215.552	-25.159	0.134	-0.079
-214.538	103.074	0.274	0.321
-213.523	106.189	0.176	0.208
-212.509	-55.465	-0.258	-0.116
-211.494	800.000	0.053	-0.231
-210.479	-27.481	0.114	-0.066
-209.465	-56.952	0.402	0.177
-208.450	768.823	-0.055	0.148
-207.436	-100.182	-0.532	0.132
-206.421	-200.000	0.043	-0.284
-205.406	170.968	0.211	-0.302
-204.392	195.725	0.118	0.179
-203.377	800.000	-0.082	-0.343
-202.363	-74.972	0.370	0.132
-201.348	800.000	-0.108	-0.330
-200.333	-97.595	0.234	0.061
-199.319	800.000	-0.059	0.215
-198.304	-200.000	-0.035	0.234
-197.290	-200.000	-0.045	-0.277
-196.275	-23.888	-0.144	0.086
-195.260	-42.962	-0.102	-0.051
-194.246	365.195	0.030	0.060
-193.231	-106.156	-0.077	0.017
-192.217	-63.318	-0.380	0.156
-191.202	-7.231	0.117	0.079
-190.187	24.916	0.298	0.247
-189.173	-118.627	-0.253	-0.045
-188.158	542.163	-0.043	0.102
-187.144	-76.154	0.244	0.086
-186.129	-142.624	0.174	-0.017
-185.114	-200.000	-0.035	-0.271
-184.100	-26.887	-0.139	0.081
-183.085	-11.702	-0.194	0.127
-182.071	-160.929	-0.064	0.003
-181.056	-200.000	0.029	0.347
-180.042	-91.562	0.310	-0.088
-179.027	-88.797	-0.165	-0.049
-178.012	16.630	-0.157	0.124
-176.998	178.821	-0.125	0.182
-175.983	347.478	0.143	0.281
-174.969	-60.137	-0.030	0.013
-173.954	-11.356	-0.246	0.161
-172.939	-200.000	-0.005	-0.035
-171.925	800.000	0.071	-0.222
-170.910	82.104	0.229	0.247
-169.896	-200.000	-0.322	-0.001
-168.881	46.652	0.219	0.202
-167.866	38.026	0.081	-0.072
-166.852	-136.268	-0.201	-0.023
-165.837	-200.000	-0.005	0.302
-164.823	-148.306	-0.325	-0.027
-163.808	78.754	0.123	0.132
-162.793	-13.346	0.204	-0.132
-161.779	-71.828	-0.214	0.080
-160.764	-132.096	0.210	-0.027
-159.750	-196.780	0.307	0.002
-158.735	564.471	-0.064	-0.156
-157.720	-27.895	-0.242	0.140
-156.706	101.393	0.160	-0.186
-155.691	393.239	-0.064	0.133
-154.677	-140.810	-0.026	-0.003
-153.662	659.825	0.082	-0.210
-152.647	-200.000	0.000	-0.002
-151.633	-200.000	-0.012	-0.339
-150.618	349.608	0.151	0.297
-149.604	-122.565	-0.107	0.017
-148.589	173.429	0.065	0.094
-147.574	-142.467	-0.272	0.027
-146.560	39.501	0.243	-0.217
-145.545	-5.875	0.125	-0.085
-144.531	608.389	0.048	-0.119
-143.516	-60.074	0.077	-0.033
-142.502	-198.937	0.326	-0.002
-141.487	-43.104	0.266	-0.134
-140.472	-95.919	0.124	-0.033
-139.458	195.424	-0.236	-0.358
-138.443	800.000	-0.061	-0.262
-137.429	-200.000	0.011	0.244
-136.414	52.488	0.299	-0.285
-135.399	96.190	0.044	0.050
-134.385	-200.000	0.017	-0.180
-133.370	-200.000	-0.024	-0.220
-132.356	516.685	-0.187	-0.434
-131.341	65.721	0.205	0.207
-130.326	-126.503	-0.260	-0.038
-129.312	-200.000	0.039	0.184
-128.297	800.000	-0.060	0.249
-127.283	-37.972	0.142	-0.075
-126.268	-137.044	0.271	0.031
-125.253	-144.420	-0.083	0.008
-124.239	21.226	-0.231	-0.187
-123.224	679.615	-0.058	0.151
