DTS Sentinel unit serial number:	SN413079Multiplexer serial number:	ORYXHardware model number:	OX4-SRSoftware version number:	ORYX F/W v4.00 Oryx Data Collector v3.7.2.0data status	okinstallation	princeton_trtdifferential loss correction	single-endedforward channel	channel 1reverse channel	N/Adate	2019/09/12time	22:38:35forward acquisition time	60.00reverse acquisition time	0.00gamma	496.2192k internal	0.2327k external	0.2327temperature offset calibration	1.0146default loss term (dB/km)	0.3790temperature slope calibration	1.0000multiplexer offset coefficient	1.0000multiplexer slope coefficient	1.0000fibre end	0.00T internal ref (°C)	29.59T ext. ref 1 (°C)	3.72T ext. ref 2 (°C)	24.15length (m)	temperature (°C)	Stokes	anti-Stokes-747.200	172.562	-0.130	0.188
-746.185	800.000	-0.092	0.300
-745.171	66.731	0.205	0.211
-744.156	459.066	0.148	0.332
-743.142	-200.000	-0.010	-0.231
-742.127	385.783	0.067	0.140
-741.112	800.000	-0.091	-0.269
-740.098	113.279	-0.398	0.487
-739.083	-200.000	-0.019	0.096
-738.069	-200.000	-0.066	0.301
-737.054	10.392	0.198	-0.152
-736.039	169.351	0.062	-0.089
-735.025	36.704	-0.043	-0.039
-734.010	-88.147	-0.430	-0.130
-732.996	-105.645	-0.092	-0.021
-731.981	-73.759	-0.162	-0.059
-730.966	-114.892	0.087	-0.017
-729.952	-73.715	-0.645	-0.236
-728.937	800.000	-0.032	-0.100
-727.923	27.189	-0.145	0.122
-726.908	-127.527	0.144	-0.021
-725.894	662.140	0.052	-0.134
-724.879	286.717	0.097	-0.176
-723.864	800.000	-0.090	-0.384
-722.850	-125.065	0.335	0.052
-721.835	-200.000	-0.017	0.196
-720.821	-138.739	-0.220	0.024
-719.806	-87.605	0.011	-0.003
-718.791	50.141	-0.292	-0.277
-717.777	800.000	0.083	-0.343
-716.762	152.848	0.241	0.332
-715.748	-110.567	-0.116	0.024
-714.733	239.350	0.086	0.144
-713.718	800.000	-0.050	-0.201
-712.704	56.954	-0.108	0.106
-711.689	53.928	-0.189	-0.183
-710.675	163.838	-0.073	-0.103
-709.660	-113.523	0.309	-0.061
-708.645	153.526	-0.131	0.180
-707.631	-200.000	-0.006	0.177
-706.616	111.840	0.216	-0.263
-705.602	-100.272	-0.165	-0.041
-704.587	155.031	-0.023	-0.032
-703.572	685.000	-0.138	-0.364
-702.558	-126.373	-0.236	-0.035
-701.543	17.731	-0.185	-0.148
-700.529	-97.336	0.096	-0.025
-699.514	-106.302	-0.162	-0.037
-698.499	492.815	-0.080	0.185
-697.485	-200.000	0.028	-0.232
-696.470	112.806	-0.247	0.301
-695.456	-200.000	0.023	0.142
-694.441	-137.652	0.260	0.029
-693.426	-158.602	-0.260	0.015
-692.412	-200.000	-0.003	-0.205
-691.397	101.554	-0.116	-0.136
-690.383	80.658	-0.096	-0.105
-689.368	248.145	0.189	-0.322
-688.354	213.187	-0.122	0.193
-687.339	-200.000	-0.013	-0.262
-686.324	103.321	-0.155	-0.183
-685.310	-40.569	0.097	0.050
-684.295	307.229	-0.116	-0.217
-683.281	54.411	0.173	-0.168
-682.266	-132.234	0.218	0.028
-681.251	-51.930	0.091	0.042
-680.237	-200.000	-0.012	-0.149
-679.222	-54.030	-0.330	-0.151
-678.208	702.113	0.018	-0.047
-677.193	616.839	0.054	-0.135
-676.178	-193.043	-0.128	-0.001
-675.164	110.195	0.061	0.073
-674.149	111.899	-0.130	0.158
-673.135	31.677	0.223	0.193
-672.120	734.955	0.023	0.063
-671.105	74.447	-0.230	0.243
-670.091	58.501	-0.291	-0.288
-669.076	-200.000	-0.012	-0.113
-668.062	89.493	0.082	-0.091
-667.047	548.571	-0.034	0.081
-666.032	24.552	-0.157	-0.131
-665.018	-200.000	-0.014	-0.078
-664.003	188.619	0.158	0.237
-662.989	242.975	-0.037	0.062
-661.974	-200.000	0.030	-0.163
-660.959	-61.816	0.202	-0.085
-659.945	243.379	-0.024	-0.041
-658.930	82.229	0.275	-0.300
-657.916	129.033	-0.210	-0.269
-656.901	13.183	-0.091	0.071
-655.886	121.783	0.090	-0.113
-654.872	800.000	-0.128	-0.443
-653.857	-114.417	0.221	-0.043
-652.843	51.026	0.079	-0.075
-651.828	-200.000	0.037	0.261
-650.814	-107.690	-0.169	-0.037
-649.799	32.708	0.169	-0.147
-648.784	133.394	-0.170	0.221
-647.770	761.705	-0.062	-0.170
-646.755	178.251	0.131	0.191
-645.741	73.512	0.135	0.142
-644.726	-26.049	-0.168	-0.099
-643.711	1.138	-0.222	0.160
-642.697	115.794	-0.105	-0.129
-641.682	-110.052	-0.246	0.052
-640.668	-175.598	-0.047	0.001
-639.653	-200.000	0.009	-0.068
-638.638	104.969	-0.239	-0.283
-637.624	-128.268	0.177	-0.025
-636.609	-18.293	0.160	-0.101
-635.595	-14.311	-0.070	0.045
-634.580	-75.897	0.101	0.036
-633.565	800.000	-0.046	-0.138
-632.551	-200.000	-0.010	-0.130
-631.536	-119.055	0.034	0.006
-630.522	-200.000	0.015	-0.181
-629.507	800.000	-0.043	0.187
-628.492	85.038	0.113	-0.125
-627.478	-200.000	-0.043	-0.275
-626.463	-121.840	-0.158	-0.026
-625.449	-94.696	-0.074	-0.020
-624.434	-85.790	-0.157	-0.049
-623.419	-200.000	0.004	0.188
-622.405	-10.991	-0.140	0.093
-621.390	39.418	-0.079	-0.071
-620.376	800.000	-0.062	-0.252
-619.361	-129.180	-0.299	-0.042
-618.346	800.000	0.011	0.034
-617.332	378.333	-0.118	0.241
-616.317	633.944	-0.100	-0.253
-615.303	170.152	0.110	-0.158
-614.288	-36.624	0.069	0.037
-613.273	132.420	-0.190	-0.246
-612.259	-200.000	0.005	-0.480
-611.244	174.912	-0.147	-0.214
-610.230	2.608	-0.372	-0.270
-609.215	667.494	-0.031	-0.081
-608.201	-19.908	0.217	-0.134
-607.186	-200.000	0.032	0.208
-606.171	8.502	0.140	0.106
-605.157	800.000	0.106	0.328
-604.142	771.090	0.027	-0.073
-603.128	622.614	-0.064	0.160
-602.113	-18.746	-0.237	-0.148
-601.098	37.553	0.114	0.102
-600.084	-110.796	0.063	-0.013
-599.069	179.219	0.128	-0.187
-598.055	76.626	-0.317	-0.337
-597.040	-200.000	-0.013	0.228
-596.025	-48.081	0.121	0.059
-595.011	800.000	0.037	-0.161
-593.996	462.647	-0.063	-0.142
-592.982	-70.684	0.195	0.074
-591.967	8.457	0.164	-0.124
-590.952	447.027	-0.079	0.175
-589.938	-92.338	-0.448	0.126
-588.923	437.590	0.098	0.214
-587.909	128.102	0.102	-0.130
-586.894	-82.125	0.110	0.036
-585.879	-200.000	0.028	0.141
-584.865	-82.949	-0.528	0.171
-583.850	-200.000	0.068	0.409
-582.836	301.633	-0.150	-0.278
-581.821	-125.130	0.124	-0.019
-580.806	296.767	-0.071	-0.131
-579.792	-102.217	-0.449	0.108
-578.777	548.186	-0.117	0.282
-577.763	-33.314	-0.366	0.203
-576.748	-70.630	-0.163	-0.062
-575.733	-67.496	0.232	-0.091
-574.719	669.796	0.060	0.154
-573.704	-169.996	0.288	-0.010
-572.690	-105.144	0.181	0.041
-571.675	-200.000	0.011	0.119
-570.661	-70.768	0.234	-0.088
-569.646	140.597	-0.181	-0.239
-568.631	800.000	0.036	0.116
-567.617	526.118	-0.079	0.186
-566.602	27.147	-0.135	0.113
-565.588	-113.256	-0.229	-0.045
-564.573	363.182	-0.060	0.120
-563.558	-200.000	-0.008	0.166
-562.544	800.000	-0.110	-0.307
-561.529	-20.788	-0.235	-0.144
-560.515	-145.778	0.171	-0.015
-559.500	-63.921	-0.178	-0.073
-558.485	-164.114	0.031	-0.001
-557.471	131.629	0.074	-0.096
-556.456	-66.662	0.156	-0.062
-555.442	-200.000	-0.026	0.250
-554.427	163.708	-0.134	0.188
-553.412	-200.000	-0.003	0.218
-552.398	55.140	-0.129	0.125
-551.383	-40.048	0.062	-0.032
-550.369	-200.000	-0.046	0.313
-549.354	245.509	0.092	0.155
-548.339	-200.000	-0.014	0.326
-547.325	800.000	0.097	-0.283
-546.310	-99.908	0.313	0.078
-545.296	272.798	-0.056	-0.098
-544.281	800.000	0.036	0.119
-543.266	277.512	-0.089	-0.159
-542.252	-38.874	0.343	0.181
-541.237	-35.438	-0.158	0.086
-540.223	-89.918	-0.559	0.163
-539.208	-92.030	0.229	-0.065
-538.193	224.973	-0.093	0.150
-537.179	-20.537	0.254	-0.156
-536.164	-200.000	0.008	-0.053
-535.150	-123.893	-0.435	0.069
-534.135	-131.316	-0.164	0.022
-533.121	-72.179	0.026	-0.010
-532.106	-91.130	-0.115	0.033
-531.091	800.000	-0.053	-0.170
-530.077	14.749	0.156	-0.122
-529.062	250.673	-0.067	0.114
-528.048	705.664	0.045	0.120
-527.033	800.000	-0.053	-0.209
-526.018	-155.901	-0.158	-0.010
-525.004	-119.651	0.214	0.037
-523.989	-200.000	-0.011	0.295
-522.975	-105.114	-0.296	0.068
-521.960	25.206	-0.276	0.229
-520.945	-146.586	0.404	0.035
-519.931	800.000	-0.066	-0.271
-518.916	29.966	0.276	-0.235
-517.902	-200.000	0.018	-0.149
-516.887	-27.741	0.407	-0.236
-515.872	451.367	-0.116	-0.256
-514.858	228.687	-0.045	0.073
-513.843	32.871	-0.292	0.253
-512.829	39.972	-0.235	-0.211
-511.814	-136.929	0.265	-0.030
-510.799	185.813	0.137	0.203
-509.785	-11.438	-0.154	0.101
-508.770	800.000	0.026	-0.105
-507.756	42.950	0.055	0.050
-506.741	-70.812	0.361	-0.136
-505.726	184.535	-0.052	0.078
-504.712	-140.638	-0.037	0.004
-503.697	-98.366	0.179	-0.046
-502.683	800.000	0.064	-0.259
-501.668	-118.580	-0.286	-0.051
-500.653	800.000	0.023	0.082
-499.639	-104.290	-0.065	-0.015
-498.624	378.443	-0.132	-0.270
-497.610	800.000	0.034	-0.123
-496.595	-27.234	0.071	-0.041
-495.581	-200.000	-0.013	-0.094
-494.566	6.587	0.132	-0.098
-493.551	-81.258	0.249	-0.082
-492.537	461.186	0.285	-0.635
-491.522	-106.828	0.078	-0.017
-490.508	756.248	0.054	0.147
-489.493	-42.345	0.173	-0.088
-488.478	778.069	-0.044	-0.120
-487.464	-4.336	0.129	0.089
-486.449	190.483	-0.177	-0.266
-485.435	-200.000	-0.032	-0.375
-484.420	-7.263	-0.055	0.037
-483.405	536.173	0.085	-0.202
-482.391	-56.667	0.071	0.031
-481.376	-104.007	-0.190	-0.044
-480.362	-137.943	0.115	-0.013
-479.347	133.718	-0.214	-0.276
-478.332	-109.849	-0.336	-0.070
-477.318	403.581	-0.166	-0.349
-476.303	37.584	0.110	-0.098
-475.289	192.671	-0.144	0.217
-474.274	-200.000	-0.030	0.368
-473.259	263.179	0.259	0.449
-472.245	-50.323	0.039	-0.018
-471.230	-200.000	-0.001	-0.263
-470.216	88.863	0.074	-0.082
-469.201	-63.899	-0.078	-0.032
-468.186	-98.089	-0.203	0.052
-467.172	-13.790	0.246	-0.159
-466.157	-200.000	0.026	0.156
-465.143	-113.481	0.564	-0.110
-464.128	800.000	0.047	0.148
-463.113	237.742	-0.167	0.276
-462.099	-120.309	0.082	0.014
-461.084	-200.000	-0.028	0.128
-460.070	-200.000	-0.007	0.176
-459.055	378.398	-0.091	0.186
-458.040	339.140	0.116	0.225
-457.026	-70.402	0.285	-0.108
-456.011	-95.065	-0.054	-0.015
-454.997	391.472	0.121	-0.250
-453.982	-200.000	0.005	0.325
-452.968	-169.764	0.158	0.006
-451.953	7.890	0.099	0.074
-450.938	577.351	0.133	-0.323
-449.924	-79.812	-0.233	-0.078
-448.909	-91.665	0.066	0.019
-447.895	-200.000	0.013	-0.093
-446.880	428.124	-0.033	0.071
-445.865	-186.689	-0.101	0.001
-444.851	-174.800	0.324	0.009
-443.836	-15.774	-0.096	0.061
-442.822	-111.970	-0.079	0.016
-441.807	-175.913	0.076	0.002
-440.792	-95.802	-0.283	0.075
-439.778	-146.333	-0.280	-0.024
-438.763	-36.677	-0.039	-0.021
-437.749	427.422	0.057	-0.122
-436.734	255.649	0.090	-0.154
-435.719	-26.222	-0.368	0.215
-434.705	330.604	-0.098	0.187
-433.690	44.954	0.117	0.107
-432.676	-200.000	0.004	-0.088
-431.661	0.512	-0.188	0.134
-430.646	-200.000	0.013	-0.087
-429.632	-131.664	-0.186	0.024
-428.617	-200.000	0.013	0.279
-427.603	275.156	-0.126	-0.222
-426.588	800.000	0.047	-0.183
-425.573	-59.463	-0.273	0.117
-424.559	800.000	-0.055	0.224
-423.544	-200.000	0.002	0.243
-422.530	189.576	-0.158	-0.236
-421.515	-78.335	0.073	0.025
-420.500	-131.081	-0.164	-0.022
-419.486	230.561	-0.014	-0.023
-418.471	-94.652	0.428	-0.116
-417.457	-80.494	-0.274	0.091
-416.442	-121.064	0.330	-0.055
-415.428	-200.000	-0.037	0.277
-414.413	-163.889	0.191	-0.009
-413.398	-200.000	-0.002	-0.174
-412.384	-200.000	0.046	-0.371
-411.369	540.906	0.068	-0.161
-410.355	-200.000	0.033	-0.216
-409.340	85.351	0.078	-0.086
-408.325	-0.133	-0.268	0.190
-407.311	-107.383	-0.144	0.031
-406.296	-39.091	0.291	0.152
-405.282	-125.702	0.238	-0.036
-404.267	15.227	-0.103	0.080
-403.252	800.000	-0.077	0.266
-402.238	-200.000	0.029	0.134
-401.223	-59.484	-0.229	0.098
-400.209	185.129	0.066	-0.097
-399.194	63.145	0.143	-0.142
-398.179	-200.000	-0.034	0.286
-397.165	-125.472	0.406	-0.062
-396.150	-179.580	-0.091	0.002
-395.136	-200.000	0.005	-0.028
-394.121	-62.340	-0.088	0.037
-393.106	-125.187	0.347	-0.053
-392.092	-16.899	0.259	-0.163
-391.077	-122.082	-0.384	-0.063
-390.063	192.390	0.301	0.452
-389.048	800.000	0.115	0.407
-388.033	-59.127	0.123	0.053
-387.019	0.422	0.126	0.089
-386.004	-14.677	-0.268	0.171
-384.990	-126.465	0.278	-0.041
-383.975	163.620	0.041	0.057
-382.960	-200.000	0.041	0.540
-381.946	-75.717	0.172	0.061
-380.931	-200.000	0.037	0.214
-379.917	-137.505	0.144	0.016
-378.902	70.483	-0.214	-0.220
-377.888	-65.128	-0.131	-0.053
-376.873	83.323	-0.245	-0.265
-375.858	-200.000	-0.013	0.071
-374.844	177.379	0.058	-0.084
-373.829	298.705	-0.024	-0.044
-372.815	-200.000	-0.087	0.529
-371.800	-15.354	-0.343	0.218
-370.785	-117.758	0.375	0.067
-369.771	-200.000	-0.047	0.222
-368.756	90.909	0.138	-0.153
-367.742	-200.000	-0.025	-0.117
-366.727	800.000	0.116	0.368
-365.712	38.479	-0.143	-0.127
-364.698	-200.000	-0.078	-0.607
-363.683	154.103	-0.046	0.063
-362.669	-109.755	-0.187	-0.039
-361.654	-200.000	0.033	-0.249
-360.639	227.559	0.042	-0.068
-359.625	282.432	-0.079	-0.140
-358.610	16.269	0.109	0.085
-357.596	86.759	-0.207	-0.227
-356.581	-30.494	-0.098	-0.055
-355.566	115.524	-0.264	0.321
-354.552	77.450	0.092	0.097
-353.537	-129.285	-0.132	-0.018
-352.523	-200.000	-0.006	0.040
-351.508	-18.028	-0.104	-0.065
-350.493	-200.000	0.041	0.209
-349.479	800.000	-0.092	-0.333
-348.464	223.358	-0.223	-0.357
-347.450	800.000	-0.084	0.248
-346.435	-101.857	0.237	0.057
-345.420	-101.075	-0.114	0.028
-344.406	99.687	0.397	0.456
-343.391	-85.074	-0.399	0.124
-342.377	142.802	0.079	0.104
-341.362	200.446	0.061	-0.094
-340.348	135.591	-0.123	-0.158
-339.333	-13.556	0.151	-0.097
-338.318	-95.484	0.116	0.031
-337.304	-200.000	0.039	-0.198
-336.289	72.899	0.121	-0.126
-335.275	-59.708	0.353	0.150
-334.260	800.000	-0.070	0.199
-333.245	-72.383	0.512	0.188
-332.231	-5.924	0.122	-0.083
-331.216	-135.714	0.634	0.075
-330.202	108.570	0.108	0.129
-329.187	-67.496	0.253	0.098
-328.172	-82.765	0.421	0.135
-327.158	800.000	0.052	0.190
-326.143	-10.534	0.183	-0.120
-325.129	731.199	0.067	-0.178
-324.114	157.122	0.181	0.249
-323.099	-11.415	-0.338	-0.221
-322.085	358.286	-0.062	0.124
-321.070	408.572	-0.086	-0.180
-320.056	198.806	0.112	-0.171
-319.041	-110.786	0.135	-0.028
-318.026	-200.000	-0.036	0.183
-317.012	60.338	-0.356	-0.350
-315.997	66.661	0.136	0.137
-314.983	800.000	-0.146	0.439
-313.968	-83.667	0.224	-0.071
-312.953	-123.266	-0.290	-0.046
-311.939	33.003	-0.044	0.038
-310.924	-200.000	0.023	-0.414
-309.910	218.899	0.135	-0.214
-308.895	-94.973	0.172	0.046
-307.880	-115.442	0.145	0.027
-306.866	-200.000	-0.007	0.225
-305.851	39.028	0.142	0.126
-304.837	18.284	0.286	0.226
-303.822	73.083	-0.012	-0.013
-302.807	-6.359	0.422	-0.285
-301.793	55.170	-0.073	0.070
-300.778	25.801	-0.191	-0.158
-299.764	-59.604	0.059	0.025
-298.749	124.532	-0.104	-0.130
-297.735	-200.000	-0.018	-0.103
-296.720	-111.889	0.136	-0.027
-295.705	58.956	0.047	-0.046
-294.691	-200.000	0.035	-0.306
-293.676	-73.985	-0.316	0.114
-292.662	800.000	0.028	-0.100
-291.647	-94.081	-0.296	-0.081
-290.632	-163.769	-0.276	0.013
-289.618	99.385	0.182	0.208
-288.603	-99.042	0.171	-0.043
-287.589	244.835	-0.131	0.218
-286.574	800.000	-0.104	0.301
-285.559	-73.926	0.338	-0.121
-284.545	-200.000	-0.043	0.221
-283.530	-200.000	0.015	0.258
-282.516	-58.905	0.532	0.228
-281.501	-95.658	0.260	-0.069
-280.486	-52.688	-0.056	0.025
-279.472	-133.404	0.130	-0.016
-278.457	800.000	-0.072	-0.231
-277.443	-200.000	0.029	0.201
-276.428	40.594	-0.174	0.155
-275.413	-199.358	-0.040	-0.000
-274.399	-176.568	-0.223	0.006
-273.384	-151.059	-0.170	-0.013
-272.370	-8.835	0.200	0.133
-271.355	800.000	-0.044	-0.167
-270.340	-16.926	-0.287	0.180
-269.326	-100.302	0.198	-0.049
-268.311	-107.960	-0.291	0.063
-267.297	463.415	0.089	0.197
-266.282	194.417	-0.177	-0.266
-265.267	-200.000	-0.017	-0.281
-264.253	-87.599	-0.437	0.131
-263.238	-200.000	0.045	0.295
-262.224	-67.949	-0.216	0.083
-261.209	15.736	-0.234	-0.182
-260.195	657.859	-0.063	-0.160
-259.180	40.737	0.137	-0.122
-258.165	50.957	-0.255	-0.239
-257.151	-39.418	-0.221	0.115
-256.136	-61.811	0.165	0.068
-255.122	800.000	0.019	-0.064
-254.107	800.000	0.068	0.261
-253.092	-77.165	-0.178	0.061
-252.078	-200.000	-0.096	-0.469
-251.063	-113.611	0.191	0.037
-250.049	-116.859	0.066	0.012
-249.034	-194.339	0.249	-0.002
-248.019	479.684	0.064	-0.144
-247.005	134.136	-0.217	-0.279
-245.990	-200.000	-0.069	0.337
-244.976	-200.000	-0.001	-0.051
-243.961	800.000	0.075	0.270
-242.946	322.406	-0.097	-0.183
-241.932	-64.892	0.419	0.168
-240.917	-200.000	0.016	0.091
-239.903	-200.000	0.037	0.183
-238.888	-5.361	-0.116	0.079
-237.873	207.869	-0.277	0.428
-236.859	-200.000	-0.067	-0.301
-235.844	160.333	0.204	-0.281
-234.830	-200.000	-0.013	-0.094
-233.815	-26.840	0.105	-0.060
-232.800	73.533	-0.089	-0.092
-231.786	-94.193	-0.098	0.026
-230.771	98.546	0.176	0.200
-229.757	670.855	0.134	0.342
-228.742	-200.000	0.030	0.241
-227.727	-117.607	-0.100	0.018
-226.713	-145.351	-0.237	0.021
-225.698	87.996	0.151	-0.166
-224.684	64.463	0.067	0.067
-223.669	31.992	0.118	-0.101
-222.655	279.925	0.192	-0.340
-221.640	52.278	0.196	-0.185
-220.625	-20.382	-0.193	0.118
-219.611	-135.720	0.079	0.009
-218.596	-161.810	0.052	0.003
-217.582	58.104	-0.106	-0.103
-216.567	-151.973	-0.162	0.012
-215.552	157.358	0.179	-0.244
-214.538	-143.613	-0.195	-0.018
-213.523	-114.397	0.180	-0.034
-212.509	-200.000	-0.026	-0.257
-211.494	-57.790	-0.272	0.118
-210.479	800.000	0.103	0.354
-209.465	-200.000	0.068	-0.444
-208.450	800.000	-0.056	0.154
-207.436	367.626	-0.155	-0.310
-206.421	-200.000	-0.027	0.146
-205.406	54.607	0.054	-0.051
-204.392	-93.697	0.273	0.074
-203.377	41.566	-0.141	-0.126
-202.363	-39.836	0.140	0.072
-201.348	44.011	-0.135	0.122
-200.333	-159.824	-0.199	0.011
-199.319	-13.291	0.216	0.139
-198.304	800.000	-0.060	0.229
-197.290	143.081	0.125	0.164
-196.275	-96.452	0.250	0.065
-195.260	-135.286	-0.177	0.021
-194.246	800.000	0.056	0.230
-193.231	73.721	0.170	0.176
-192.217	140.646	-0.115	-0.149
-191.202	71.317	0.222	-0.227
-190.187	69.082	-0.117	0.119
-189.173	81.205	0.123	-0.131
-188.158	-111.631	-0.074	-0.015
-187.144	-62.435	0.256	-0.105
-186.129	-152.288	-0.216	0.015
-185.114	-132.949	0.263	0.033
-184.100	-200.000	0.025	0.180
-183.085	-13.212	-0.285	0.183
-182.071	-136.524	0.025	-0.003
-181.056	95.861	0.135	0.152
-180.042	-126.510	0.270	-0.040
-179.027	-11.927	0.168	-0.109
-178.012	-109.374	-0.069	0.014
-176.998	117.448	-0.225	-0.273
-175.983	-77.644	-0.241	0.082
-174.969	-200.000	-0.006	0.048
-173.954	-95.835	0.105	-0.028
-172.939	800.000	-0.051	-0.201
-171.925	-28.984	-0.543	0.308
-170.910	-3.369	-0.153	-0.105
-169.896	-200.000	0.020	-0.436
-168.881	-15.727	-0.144	0.090
-167.866	800.000	0.035	-0.100
-166.852	-122.208	0.216	0.035
-165.837	-200.000	0.017	-0.141
-164.823	-89.956	-0.078	-0.022
-163.808	-137.305	0.096	0.011
-162.793	116.453	0.045	-0.054
-161.779	220.003	0.135	-0.213
-160.764	-156.484	0.113	-0.007
-159.750	72.520	0.123	0.127
-158.735	61.619	0.096	-0.094
-157.720	-7.193	0.049	0.033
-156.706	-119.040	-0.286	0.049
-155.691	-158.287	-0.141	-0.008
-154.677	91.928	-0.144	-0.160
-153.662	-32.073	0.118	-0.065
-152.647	211.086	0.140	-0.217
-151.633	58.728	-0.059	0.057
-150.618	-54.656	0.107	0.048
-149.604	-68.774	-0.066	0.025
-148.589	96.687	-0.168	0.190
-147.574	409.296	-0.126	0.262
-146.560	-200.000	0.060	-0.294
-145.545	183.556	-0.225	0.328
-144.531	50.287	-0.196	0.182
-143.516	-52.688	0.270	0.123
-142.502	800.000	0.024	-0.104
-141.487	726.540	0.090	-0.237
-140.472	215.684	-0.090	0.141
-139.458	-200.000	-0.004	0.110
-138.443	-93.426	0.241	0.066
-137.429	51.871	0.071	-0.067
-136.414	-200.000	-0.006	0.072
-135.399	-129.558	0.446	-0.061
-134.385	39.432	0.087	-0.077
-133.370	-200.000	-0.018	-0.209
-132.356	-66.318	0.249	0.098
-131.341	54.834	-0.118	0.112
-130.326	349.305	0.123	-0.238
-129.312	-132.239	-0.356	0.045
-128.297	-100.980	0.173	-0.042
-127.283	-120.264	0.309	0.052
-126.268	156.545	0.137	0.187
-125.253	-200.000	0.023	-0.207
-124.239	-145.950	0.149	-0.013
-123.224	-200.000	0.002	0.053
-122.210	40.309	-0.206	-0.183
