DTS Sentinel unit serial number:	SN413079Multiplexer serial number:	ORYXHardware model number:	OX4-SRSoftware version number:	ORYX F/W v4.00 Oryx Data Collector v3.7.2.0data status	okinstallation	princeton_trtdifferential loss correction	single-endedforward channel	channel 1reverse channel	N/Adate	2019/09/11time	23:32:11forward acquisition time	60.00reverse acquisition time	0.00gamma	496.2192k internal	0.2318k external	0.2318temperature offset calibration	1.0064default loss term (dB/km)	0.3790temperature slope calibration	1.0000multiplexer offset coefficient	1.0000multiplexer slope coefficient	1.0000fibre end	0.00T internal ref (°C)	34.19T ext. ref 1 (°C)	1.86T ext. ref 2 (°C)	28.50length (m)	temperature (°C)	Stokes	anti-Stokes-747.200	-200.000	0.007	-0.063
-746.185	44.186	-0.268	0.249
-745.171	274.378	0.070	-0.126
-744.156	800.000	-0.067	0.282
-743.142	558.700	-0.085	0.208
-742.127	-125.786	0.291	0.045
-741.112	-28.412	0.053	-0.031
-740.098	-73.895	-0.187	0.069
-739.083	516.409	-0.153	0.363
-738.069	-119.901	-0.264	-0.046
-737.054	657.768	0.067	-0.176
-736.039	342.501	-0.066	-0.131
-735.025	8.894	0.307	0.234
-734.010	-200.000	0.066	-0.331
-732.996	-91.861	0.089	-0.026
-731.981	163.209	-0.204	-0.290
-730.966	-18.778	-0.183	0.116
-729.952	-200.000	0.088	-0.626
-728.937	800.000	-0.010	-0.034
-727.923	39.965	0.094	-0.085
-726.908	46.679	-0.110	-0.104
-725.894	-83.395	-0.163	-0.053
-724.879	800.000	-0.042	0.139
-723.864	-63.597	-0.098	0.041
-722.850	126.951	0.193	-0.248
-721.835	-200.000	-0.037	0.374
-720.821	-7.742	-0.143	-0.098
-719.806	2.526	0.224	-0.164
-718.791	272.945	-0.098	-0.175
-717.777	781.843	-0.084	-0.232
-716.762	147.805	-0.102	0.139
-715.748	-56.616	0.120	0.054
-714.733	-158.881	-0.116	0.007
-713.718	523.221	-0.078	0.186
-712.704	-200.000	0.029	0.243
-711.689	-43.644	0.206	0.105
-710.675	193.241	-0.215	-0.329
-709.660	92.482	-0.232	-0.264
-708.645	-15.708	0.121	-0.078
-707.631	-114.458	0.155	0.030
-706.616	-115.191	0.375	0.072
-705.602	800.000	0.054	-0.199
-704.587	-200.000	0.005	-0.239
-703.572	57.567	-0.072	0.071
-702.558	34.750	-0.176	0.156
-701.543	182.215	-0.097	-0.145
-700.529	-17.210	0.092	-0.059
-699.514	800.000	0.053	0.172
-698.499	-200.000	0.001	-0.064
-697.485	197.479	0.075	-0.115
-696.470	-200.000	-0.017	-0.409
-695.456	9.820	0.129	0.099
-694.441	-141.557	0.438	0.045
-693.426	-84.282	0.468	-0.150
-692.412	-30.576	0.137	-0.078
-691.397	441.388	-0.100	-0.220
-690.383	-5.027	-0.332	-0.231
-689.368	518.081	0.117	0.276
-688.354	54.442	0.256	-0.249
-687.339	-200.000	-0.041	-0.278
-686.324	-200.000	0.013	0.186
-685.310	-17.395	-0.167	0.106
-684.295	-92.942	0.405	-0.114
-683.281	-40.982	0.342	-0.178
-682.266	-147.714	-0.154	-0.013
-681.251	-26.353	-0.311	-0.184
-680.237	5.493	-0.237	-0.177
-679.222	-128.813	0.201	0.029
-678.208	173.056	0.048	-0.069
-677.193	146.890	-0.116	-0.157
-676.178	4.414	-0.104	0.077
-675.164	-112.126	0.168	0.034
-674.149	276.948	-0.128	0.230
-673.135	-95.739	-0.289	0.078
-672.120	-48.969	0.299	0.144
-671.105	-200.000	0.009	-0.174
-670.091	-172.315	-0.069	-0.002
-669.076	135.891	0.150	-0.197
-668.062	-131.094	0.382	0.051
-667.047	-200.000	-0.264	-0.001
-666.032	56.134	0.115	0.112
-665.018	131.186	0.066	-0.086
-664.003	103.220	0.135	-0.160
-662.989	-200.000	-0.070	-0.324
-661.974	263.942	-0.173	0.304
-660.959	-200.000	0.028	0.243
-659.945	46.783	0.233	-0.219
-658.930	-73.384	0.140	0.052
-657.916	-200.000	-0.025	-0.289
-656.901	800.000	-0.087	-0.367
-655.886	532.942	0.207	-0.494
-654.872	705.100	0.173	-0.460
-653.857	-131.936	0.116	0.015
-652.843	-74.952	-0.214	0.077
-651.828	-45.387	0.135	0.067
-650.814	-21.377	0.123	-0.076
-649.799	-200.000	-0.040	-0.329
-648.784	-75.182	0.217	0.078
-647.770	-200.000	0.010	-0.101
-646.755	99.732	0.118	0.138
-645.741	-109.551	-0.634	0.135
-644.726	-54.408	-0.248	0.114
-643.711	800.000	0.047	-0.171
-642.697	18.090	-0.134	-0.108
-641.682	-200.000	-0.007	0.210
-640.668	228.693	0.193	-0.317
-639.653	800.000	-0.043	-0.188
-638.638	281.710	0.107	-0.194
-637.624	-200.000	-0.080	-0.581
-636.609	-9.043	0.321	0.216
-635.595	-131.093	-0.196	0.026
-634.580	-63.064	-0.255	-0.106
-633.565	242.011	0.078	-0.132
-632.551	-71.822	-0.210	0.079
-631.536	800.000	0.056	-0.235
-630.522	800.000	0.073	0.230
-629.507	-18.018	0.045	0.029
-628.492	9.088	-0.262	0.199
-627.478	-119.837	-0.319	-0.055
-626.463	-72.979	-0.168	-0.062
-625.449	57.807	0.151	0.149
-624.434	32.897	0.182	0.159
-623.419	591.522	-0.138	-0.343
-622.405	520.896	0.059	-0.139
-621.390	-200.000	0.036	-0.294
-620.376	43.268	-0.137	0.126
-619.361	188.265	0.173	0.261
-618.346	-3.507	-0.120	0.084
-617.332	439.112	-0.080	0.177
-616.317	-200.000	0.007	0.188
-615.303	-156.400	-0.325	-0.020
-614.288	-58.983	-0.170	0.074
-613.273	-80.597	0.486	0.163
-612.259	800.000	0.048	0.175
-611.244	-65.782	0.161	0.065
-610.230	48.848	0.290	-0.274
-609.215	499.595	-0.120	-0.278
-608.201	-200.000	-0.026	-0.428
-607.186	-47.666	-0.398	-0.195
-606.171	6.262	0.105	0.079
-605.157	-127.555	-0.120	0.018
-604.142	-93.759	0.163	0.045
-603.128	-200.000	0.026	-0.220
-602.113	-30.823	-0.392	0.223
-601.098	-200.000	0.017	-0.118
-600.084	157.498	-0.297	0.414
-599.069	-130.435	-0.290	0.039
-598.055	383.173	-0.135	-0.280
-597.040	-92.328	0.166	0.047
-596.025	-54.504	-0.316	-0.144
-595.011	-65.987	-0.105	-0.042
-593.996	-53.720	-0.241	-0.111
-592.982	13.218	-0.095	0.074
-591.967	-151.734	0.290	-0.021
-590.952	86.003	-0.182	0.202
-589.938	-200.000	-0.010	0.218
-588.923	62.706	0.208	-0.209
-587.909	800.000	-0.064	0.193
-586.894	-90.220	0.105	-0.031
-585.879	-94.123	0.278	0.077
-584.865	152.323	0.264	0.362
-583.850	-159.056	0.264	0.015
-582.836	800.000	0.054	-0.198
-581.821	-62.332	-0.325	-0.136
-580.806	56.082	-0.064	0.062
-579.792	509.324	-0.039	-0.092
-578.777	-200.000	0.109	-0.545
-577.763	-132.465	0.130	0.017
-576.748	-72.447	-0.085	0.031
-575.733	-200.000	0.003	-0.083
-574.719	-101.948	-0.350	-0.085
-573.704	-32.251	0.131	-0.074
-572.690	-200.000	0.013	-0.062
-571.675	800.000	-0.022	-0.068
-570.661	173.826	-0.068	0.099
-569.646	-41.098	-0.063	0.033
-568.631	-91.652	-0.255	0.073
-567.617	-200.000	-0.028	0.172
-566.602	-94.955	0.273	-0.074
-565.588	-51.915	-0.102	-0.048
-564.573	139.092	0.178	-0.235
-563.558	-30.800	0.361	0.205
-562.544	29.118	-0.151	-0.129
-561.529	800.000	0.080	-0.258
-560.515	158.120	0.102	0.142
-559.500	-71.046	-0.159	-0.060
-558.485	653.176	-0.098	0.254
-557.471	-150.242	-0.165	0.013
-556.456	565.464	0.167	-0.406
-555.442	-86.535	-0.019	0.006
-554.427	-23.695	0.202	-0.122
-553.412	-65.154	-0.183	-0.074
-552.398	-58.331	-0.110	-0.048
-551.383	-102.182	0.065	0.016
-550.369	-45.830	-0.174	0.087
-549.354	-42.816	0.056	0.029
-548.339	83.007	-0.113	-0.124
-547.325	70.507	-0.144	-0.150
-546.310	800.000	0.085	-0.327
-545.296	-200.000	0.021	0.267
-544.281	800.000	-0.022	-0.078
-543.266	-63.558	-0.246	-0.101
-542.252	593.251	0.130	-0.322
-541.237	-115.877	0.164	-0.031
-540.223	-126.553	-0.225	0.034
-539.208	85.555	0.174	0.192
-538.193	-200.000	-0.025	-0.570
-537.179	128.295	-0.188	-0.240
-536.164	-200.000	-0.004	0.134
-535.150	-25.293	0.343	0.204
-534.135	362.771	-0.138	0.278
-533.121	-200.000	-0.004	-0.175
-532.106	18.609	0.150	0.120
-531.091	49.572	-0.104	-0.099
-530.077	-200.000	0.007	-0.121
-529.062	800.000	0.085	-0.257
-528.048	-200.000	0.065	0.317
-527.033	8.291	0.090	-0.068
-526.018	800.000	0.135	0.430
-525.004	315.458	0.170	-0.322
-523.989	800.000	-0.050	0.204
-522.975	-86.454	0.366	-0.113
-521.960	210.992	-0.021	-0.034
-520.945	-200.000	-0.060	0.299
-519.931	-114.925	0.246	0.047
-518.916	-61.610	-0.332	-0.140
-517.902	379.337	0.151	-0.310
-516.887	-94.822	0.349	-0.095
-515.872	454.108	-0.168	0.374
-514.858	31.499	-0.133	-0.115
-513.843	-179.582	0.265	-0.006
-512.829	-200.000	0.022	0.394
-511.814	-14.441	-0.146	0.094
-510.799	206.652	0.097	0.152
-509.785	-119.322	0.305	-0.053
-508.770	235.812	-0.075	0.124
-507.756	-101.799	-0.278	-0.067
-506.741	-149.205	0.207	-0.017
-505.726	429.728	-0.080	0.173
-504.712	17.068	0.199	0.158
-503.697	-71.255	-0.231	0.087
-502.683	-71.798	0.122	-0.046
-501.668	800.000	-0.052	0.205
-500.653	-200.000	0.012	0.054
-499.639	258.047	0.120	-0.207
-498.624	-54.829	0.297	-0.134
-497.610	-123.220	0.360	-0.058
-496.595	-200.000	-0.036	-0.459
-495.581	-26.964	-0.083	0.049
-494.566	36.385	0.187	0.165
-493.551	283.770	0.089	0.160
-492.537	-200.000	0.016	0.102
-491.522	800.000	-0.016	0.068
-490.508	-146.946	-0.223	0.019
-489.493	21.779	0.115	0.094
-488.478	-62.300	-0.390	-0.163
-487.464	-0.966	-0.026	-0.019
-486.449	610.293	0.135	-0.339
-485.435	-47.271	0.368	0.180
-484.420	124.258	0.216	-0.272
-483.405	-151.734	0.230	0.017
-482.391	-80.163	0.160	0.054
-481.376	132.199	0.146	0.189
-480.362	-26.794	0.145	-0.085
-479.347	571.900	0.024	0.059
-478.332	16.399	0.267	-0.211
-477.318	-137.511	-0.047	-0.005
-476.303	-152.672	-0.160	-0.011
-475.289	-67.798	-0.101	-0.039
-474.274	8.068	-0.294	-0.221
-473.259	-99.021	0.175	-0.044
-472.245	-200.000	-0.023	-0.159
-471.230	-200.000	0.026	0.399
-470.216	-196.241	-0.070	0.000
-469.201	-132.841	-0.135	0.017
-468.186	800.000	-0.106	0.339
-467.172	-22.928	-0.213	-0.129
-466.157	-65.169	0.032	0.013
-465.143	-200.000	0.001	-0.033
-464.128	-55.599	0.129	0.058
-463.113	-27.672	0.175	0.102
-462.099	-83.375	-0.012	-0.004
-461.084	179.055	0.144	-0.210
-460.070	-98.322	-0.266	0.068
-459.055	217.780	0.132	-0.211
-458.040	-93.478	-0.273	-0.076
-457.026	-64.806	0.073	0.029
-456.011	-58.822	0.122	-0.053
-454.997	800.000	0.046	0.151
-453.982	215.445	-0.267	-0.424
-452.968	-200.000	0.025	-0.124
-451.953	-63.631	0.492	0.202
-450.938	-141.444	0.346	-0.035
-449.924	-200.000	-0.063	0.324
-448.909	-36.756	0.126	-0.068
-447.895	-2.686	-0.106	0.074
-446.880	-78.886	0.188	-0.064
-445.865	4.846	-0.345	0.254
-444.851	173.139	-0.094	-0.135
-443.836	219.916	-0.174	-0.279
-442.822	63.818	-0.227	0.228
-441.807	-90.473	-0.127	0.037
-440.792	-44.686	0.318	0.159
-439.778	48.238	-0.155	0.145
-438.763	-39.435	0.190	-0.100
-437.749	-126.567	-0.242	0.036
-436.734	-153.105	0.146	0.010
-435.719	56.805	-0.122	-0.119
-434.705	102.059	0.029	0.034
-433.690	-200.000	0.034	0.221
-432.676	195.981	0.101	0.153
-431.661	800.000	-0.080	-0.261
-430.646	-93.932	-0.143	0.039
-429.632	584.793	0.076	0.188
-428.617	174.321	-0.096	-0.138
-427.603	16.996	-0.064	0.050
-426.588	93.150	-0.103	0.117
-425.573	466.605	0.187	0.419
-424.559	373.624	-0.042	-0.085
-423.544	-200.000	0.016	0.171
-422.530	-200.000	-0.020	-0.215
-421.515	169.313	-0.111	-0.158
-420.500	-200.000	0.009	-0.123
-419.486	-70.235	-0.285	-0.108
-418.471	7.797	-0.048	0.036
-417.457	-139.622	-0.331	-0.035
-416.442	73.306	0.145	-0.152
-415.428	-200.000	-0.002	-0.036
-414.413	800.000	0.056	-0.173
-413.398	115.484	0.053	0.064
-412.384	800.000	-0.005	-0.018
-411.369	-157.434	0.303	-0.018
-410.355	566.078	0.214	0.519
-409.340	259.310	0.224	0.386
-408.325	159.346	-0.056	-0.078
-407.311	-54.653	0.014	-0.006
-406.296	-112.151	0.474	0.095
-405.282	-17.002	-0.156	0.099
-404.267	-200.000	0.339	0.001
-403.252	800.000	0.046	-0.149
-402.238	800.000	0.049	0.214
-401.223	451.443	-0.059	-0.130
-400.209	412.081	-0.105	0.223
-399.194	61.184	-0.074	0.073
-398.179	29.778	-0.036	-0.031
-397.165	-140.918	0.368	-0.038
-396.150	250.371	-0.022	-0.037
-395.136	12.379	-0.172	0.132
-394.121	-5.670	-0.091	0.062
-393.106	-200.000	0.012	-0.299
-392.092	-106.419	-0.427	-0.095
-391.077	-33.329	0.083	0.046
-390.063	79.013	-0.276	-0.295
-389.048	-137.383	-0.119	-0.013
-388.033	-60.995	0.195	0.082
-387.019	-200.000	-0.004	0.139
-386.004	-43.083	-0.274	0.138
-384.990	51.005	-0.024	-0.022
-383.975	-181.844	-0.226	-0.004
-382.960	-200.000	-0.012	0.322
-381.946	26.458	0.118	0.099
-380.931	152.953	-0.314	-0.429
-379.917	-41.234	0.165	-0.085
-378.902	-30.017	0.369	-0.210
-377.888	20.523	0.091	-0.074
-376.873	258.452	-0.168	0.289
-375.858	639.796	0.057	0.145
-374.844	2.825	-0.263	-0.191
-373.829	23.316	-0.158	-0.130
-372.815	156.778	-0.097	-0.134
-371.800	-150.637	0.435	-0.033
-370.785	-111.967	-0.011	-0.002
-369.771	27.733	-0.149	-0.125
-368.756	-200.000	0.044	0.406
-367.742	242.677	-0.089	0.148
-366.727	31.176	0.180	-0.154
-365.712	-119.424	0.107	-0.019
-364.698	-93.476	-0.200	-0.055
-363.683	-26.122	0.154	-0.091
-362.669	-200.000	0.071	-0.316
-361.654	173.381	-0.087	0.125
-360.639	-200.000	-0.029	0.205
-359.625	-24.731	0.029	-0.017
-358.610	800.000	-0.077	-0.264
-357.596	-133.441	-0.133	-0.017
-356.581	-11.081	0.177	0.116
-355.566	52.030	-0.036	0.034
-354.552	-8.296	0.115	0.077
-353.537	-47.996	-0.199	0.096
-352.523	72.114	0.137	0.142
-351.508	-159.960	0.221	0.012
-350.493	115.743	-0.098	-0.119
-349.479	639.581	0.062	0.156
-348.464	94.386	-0.111	0.126
-347.450	-140.659	0.076	0.008
-346.435	489.870	0.074	-0.169
-345.420	-200.000	-0.009	-0.352
-344.406	-92.755	0.047	-0.013
-343.391	-48.571	0.113	0.054
-342.377	158.785	-0.166	0.229
-341.362	-41.658	-0.080	-0.041
-340.348	-102.474	0.486	0.116
-339.333	-69.308	-0.110	0.042
-338.318	-200.000	0.004	-0.132
-337.304	55.079	0.244	0.235
-336.289	800.000	0.006	-0.022
-335.275	12.984	0.149	0.114
-334.260	102.277	-0.092	0.107
-333.245	-200.000	-0.011	-0.210
-332.231	-65.905	-0.257	0.102
-331.216	-108.469	0.178	0.038
-330.202	216.529	0.105	0.166
-329.187	19.203	-0.078	-0.062
-328.172	1.328	0.423	-0.303
-327.158	4.545	0.336	0.245
-326.143	-200.000	-0.328	-0.000
-325.129	-200.000	0.041	0.319
-324.114	134.028	-0.188	-0.242
-323.099	93.970	-0.232	-0.262
-322.085	109.619	-0.198	-0.236
-321.070	-25.468	-0.098	0.058
-320.056	-76.533	0.161	0.056
-319.041	68.602	0.087	0.088
-318.026	-138.015	0.247	0.027
-317.012	7.048	-0.046	-0.034
-315.997	800.000	0.066	0.201
-314.983	-95.051	-0.045	-0.012
-313.968	800.000	-0.036	-0.106
-312.953	800.000	0.049	-0.187
-311.939	28.255	-0.146	-0.122
-310.924	-141.390	-0.160	0.016
-309.910	-72.308	0.169	0.062
-308.895	-106.575	0.163	0.036
-307.880	124.368	0.056	-0.070
-306.866	-200.000	-0.035	-0.263
-305.851	-120.007	0.239	0.041
-304.837	-200.000	-0.025	-0.113
-303.822	-5.616	0.139	0.095
-302.807	1.572	0.192	0.138
-301.793	-149.352	0.186	0.015
-300.778	205.415	-0.041	0.064
-299.764	-200.000	0.010	-0.160
-298.749	-134.370	0.073	-0.009
-297.735	-127.042	-0.308	0.045
-296.720	-145.615	-0.102	0.009
-295.705	-67.281	0.198	-0.077
-294.691	103.438	-0.140	0.163
-293.676	-25.198	-0.420	0.247
-292.662	-98.782	-0.334	0.085
-291.647	-200.000	0.036	-0.157
-290.632	-200.000	0.004	-0.019
-289.618	78.787	-0.101	-0.108
-288.603	-3.992	0.095	-0.065
-287.589	800.000	-0.035	-0.144
-286.574	-28.994	-0.032	-0.018
-285.559	-97.358	0.114	-0.029
-284.545	-51.062	-0.221	0.103
-283.530	-200.000	0.016	-0.331
-282.516	553.362	0.016	0.038
-281.501	-200.000	0.033	-0.244
-280.486	800.000	-0.225	-0.644
-279.472	800.000	0.035	-0.112
-278.457	-200.000	0.040	0.249
-277.443	358.559	-0.138	-0.275
-276.428	-144.273	0.293	0.027
-275.413	203.860	0.034	0.052
-274.399	-55.819	-0.178	-0.079
-273.384	-169.242	0.330	-0.012
-272.370	-200.000	0.033	-0.239
-271.355	171.943	-0.173	-0.247
-270.340	87.209	-0.253	0.278
-269.326	319.297	0.030	-0.057
-268.311	394.586	0.225	0.466
-267.297	-136.304	0.245	0.028
-266.282	-123.472	-0.344	0.054
-265.267	-41.463	0.345	-0.176
-264.253	-22.004	0.182	-0.110
-263.238	21.799	0.164	0.133
-262.224	-103.630	0.096	-0.022
-261.209	34.981	-0.242	0.211
-260.195	108.102	-0.124	-0.147
-259.180	-85.997	0.248	0.076
-258.165	800.000	0.024	-0.086
-257.151	-90.574	-0.212	0.061
-256.136	242.252	-0.121	0.201
-255.122	223.799	0.074	0.119
-254.107	-116.662	-0.155	0.028
-253.092	-126.848	-0.267	0.039
-252.078	-61.188	-0.089	0.037
-251.063	-200.000	-0.008	0.075
-250.049	131.735	-0.108	0.138
-249.034	-34.793	0.185	0.101
-248.019	-77.999	0.290	0.099
-247.005	-27.240	-0.178	0.103
-245.990	461.190	-0.101	0.223
-244.976	126.335	-0.092	-0.115
-243.961	43.005	-0.216	-0.196
-242.946	-21.537	0.251	0.152
-241.932	-200.000	-0.001	-0.011
-240.917	-29.558	0.117	-0.066
-239.903	-79.489	0.204	-0.068
-238.888	20.446	0.100	-0.080
-237.873	-200.000	-0.021	-0.375
-236.859	-200.000	-0.020	-0.156
-235.844	-62.523	0.021	-0.009
-234.830	-47.063	0.301	0.146
-233.815	-200.000	-0.058	0.265
-232.800	-200.000	0.015	-0.077
-231.786	-84.588	-0.148	0.046
-230.771	-200.000	-0.036	0.166
-229.757	25.389	-0.165	0.136
-228.742	-98.098	0.207	0.053
-227.727	800.000	-0.072	-0.252
-226.713	-200.000	0.032	0.224
-225.698	53.321	-0.160	-0.152
-224.684	-200.000	-0.003	-0.036
-223.669	-200.000	-0.039	0.224
-222.655	-120.019	-0.052	0.009
-221.640	-200.000	0.038	0.199
-220.625	-106.655	0.213	0.047
-219.611	127.322	-0.167	-0.210
-218.596	-6.007	0.048	-0.032
-217.582	-49.436	-0.308	-0.146
-216.567	213.150	-0.137	-0.215
-215.552	-81.644	0.371	0.121
-214.538	800.000	-0.044	-0.145
-213.523	-146.801	-0.295	-0.025
-212.509	-168.555	0.087	0.003
-211.494	-26.374	-0.131	-0.076
-210.479	-81.194	-0.135	-0.044
-209.465	242.257	-0.037	0.062
-208.450	-200.000	-0.003	-0.203
-207.436	-91.212	-0.066	0.019
-206.421	800.000	0.054	-0.228
-205.406	-200.000	-0.056	0.308
-204.392	95.732	0.167	0.189
-203.377	-187.938	0.116	-0.001
-202.363	71.122	-0.133	-0.137
-201.348	-62.856	0.373	0.153
-200.333	-114.560	0.142	-0.027
-199.319	125.640	0.062	-0.078
-198.304	129.024	0.132	0.167
-197.290	449.781	-0.069	0.152
-196.275	761.628	-0.039	0.104
-195.260	800.000	0.108	0.296
-194.246	-134.374	-0.220	-0.027
-193.231	279.245	-0.021	-0.038
-192.217	-200.000	0.003	0.019
-191.202	85.550	0.179	-0.195
-190.187	-56.336	-0.485	0.213
-189.173	359.117	-0.069	0.137
-188.158	800.000	0.102	0.440
-187.144	-99.561	-0.168	-0.042
-186.129	88.172	-0.155	-0.171
-185.114	380.194	-0.096	0.195
-184.100	800.000	0.030	0.100
-183.085	-59.215	-0.030	0.013
-182.071	773.399	-0.036	-0.098
-181.056	39.219	-0.094	-0.083
-180.042	-52.287	-0.178	-0.081
-179.027	53.202	0.197	-0.187
-178.012	109.589	0.155	-0.184
-176.998	-200.000	0.058	0.260
-175.983	-200.000	-0.013	0.139
-174.969	151.941	-0.106	-0.143
-173.954	-5.507	-0.171	0.116
-172.939	105.026	-0.301	0.351
-171.925	402.781	-0.065	0.135
-170.910	-139.994	0.129	0.014
-169.896	800.000	0.070	0.206
-168.881	185.265	0.074	-0.109
-167.866	-27.657	0.402	0.231
-166.852	79.103	0.194	0.206
-165.837	-65.608	-0.099	0.039
-164.823	-200.000	0.020	0.314
-163.808	133.336	-0.089	-0.114
-162.793	192.167	0.040	0.060
-161.779	-13.819	-0.091	0.059
-160.764	491.642	-0.066	-0.150
-159.750	228.990	0.066	0.107
-158.735	592.652	0.047	-0.114
-157.720	-44.851	-0.288	-0.142
-156.706	14.563	0.068	-0.052
-155.691	77.461	0.319	0.335
-154.677	80.650	-0.146	-0.155
-153.662	150.765	-0.180	0.242
-152.647	-143.141	-0.128	-0.012
-151.633	52.115	-0.045	-0.043
-150.618	53.440	-0.247	0.234
-149.604	476.828	-0.158	-0.352
-148.589	19.439	-0.151	-0.120
-147.574	-116.615	-0.054	-0.010
-146.560	-185.959	0.152	-0.002
-145.545	225.927	0.065	0.104
-144.531	-20.038	-0.205	0.125
-143.516	-125.556	0.307	-0.046
-142.502	-106.119	0.465	0.103
-141.487	-200.000	-0.098	0.436
-140.472	14.757	0.361	0.279
-139.458	165.694	0.216	-0.302
-138.443	130.599	0.210	-0.266
-137.429	-62.523	-0.052	0.021
-136.414	76.009	0.249	0.260
-135.399	-81.743	-0.184	0.060
-134.385	225.233	0.153	0.245
-133.370	-200.000	-0.018	0.223
-132.356	-200.000	0.235	0.001
-131.341	-20.875	0.296	-0.179
-130.326	-96.585	0.261	0.068
-129.312	28.026	-0.286	-0.239
-128.297	22.349	-0.172	0.139
-127.283	-200.000	0.074	0.338
-126.268	233.721	0.190	0.310
-125.253	-52.589	-0.277	0.126
-124.239	-200.000	0.020	0.428
-123.224	98.992	-0.143	0.163
-122.210	-77.676	0.340	0.116
-121.195	-97.916	-0.282	0.072
