DTS Sentinel unit serial number:	SN413079Multiplexer serial number:	ORYXHardware model number:	OX4-SRSoftware version number:	ORYX F/W v4.00 Oryx Data Collector v3.7.2.0data status	okinstallation	princeton_trtdifferential loss correction	single-endedforward channel	channel 1reverse channel	N/Adate	2019/09/12time	06:16:11forward acquisition time	60.00reverse acquisition time	0.00gamma	496.2192k internal	0.2320k external	0.2320temperature offset calibration	1.0048default loss term (dB/km)	0.3790temperature slope calibration	1.0000multiplexer offset coefficient	1.0000multiplexer slope coefficient	1.0000fibre end	0.00T internal ref (°C)	32.12T ext. ref 1 (°C)	1.57T ext. ref 2 (°C)	27.43length (m)	temperature (°C)	Stokes	anti-Stokes-747.200	800.000	0.054	-0.190
-746.185	-118.391	-0.319	-0.057
-745.171	-200.000	-0.001	-0.150
-744.156	-18.401	-0.189	0.119
-743.142	-78.815	-0.272	-0.094
-742.127	95.750	0.067	0.077
-741.112	73.276	0.144	-0.152
-740.098	-200.000	0.025	0.310
-739.083	20.361	0.152	-0.124
-738.069	44.762	-0.187	0.174
-737.054	-58.863	0.427	-0.187
-736.039	-58.202	-0.429	0.189
-735.025	-7.185	0.589	0.404
-734.010	-46.342	-0.308	-0.153
-732.996	413.736	0.140	-0.301
-731.981	-200.000	0.008	0.129
-730.966	-200.000	0.024	0.165
-729.952	342.411	0.104	0.206
-728.937	285.691	0.106	-0.193
-727.923	212.947	-0.209	-0.334
-726.908	-119.857	-0.259	0.045
-725.894	501.380	0.146	-0.341
-724.879	88.403	-0.157	-0.176
-723.864	-200.000	-0.015	-0.117
-722.850	140.269	0.174	0.232
-721.835	-38.699	-0.152	0.081
-720.821	33.064	-0.152	-0.133
-719.806	-131.864	-0.106	-0.014
-718.791	-28.123	0.223	-0.130
-717.777	-47.310	-0.419	0.206
-716.762	141.292	-0.225	-0.301
-715.748	800.000	-0.037	-0.147
-714.733	33.297	0.050	-0.043
-713.718	-45.997	0.217	0.108
-712.704	-143.908	-0.288	0.027
-711.689	-200.000	-0.056	-0.259
-710.675	70.770	-0.111	-0.116
-709.660	122.719	0.065	-0.082
-708.645	800.000	0.063	0.268
-707.631	-200.000	-0.027	0.193
-706.616	517.547	-0.066	-0.156
-705.602	-23.894	-0.357	0.216
-704.587	629.174	0.151	0.385
-703.572	-3.441	-0.212	-0.149
-702.558	-167.645	-0.176	0.007
-701.543	24.036	0.195	-0.162
-700.529	800.000	-0.009	-0.036
-699.514	-55.074	-0.244	-0.111
-698.499	-76.697	0.155	0.055
-697.485	-61.166	0.075	-0.032
-696.470	29.500	0.224	-0.193
-695.456	800.000	0.055	-0.226
-694.441	-17.526	0.073	-0.046
-693.426	-200.000	-0.013	0.153
-692.412	-200.000	0.017	-0.255
-691.397	-200.000	-0.008	-0.252
-690.383	-91.336	0.257	0.074
-689.368	800.000	-0.107	-0.347
-688.354	375.799	0.152	0.312
-687.339	172.057	-0.093	0.135
-686.324	-56.436	-0.172	-0.077
-685.310	166.381	-0.083	-0.118
-684.295	800.000	-0.027	0.110
-683.281	-200.000	-0.010	-0.232
-682.266	65.545	-0.327	-0.334
-681.251	-200.000	0.074	0.377
-680.237	-200.000	-0.010	0.097
-679.222	471.373	-0.087	0.197
-678.208	211.966	-0.118	0.188
-677.193	252.277	-0.219	-0.377
-676.178	-200.000	-0.035	-0.241
-675.164	491.917	0.078	-0.179
-674.149	392.536	-0.154	0.324
-673.135	82.223	-0.279	0.305
-672.120	323.495	-0.094	0.180
-671.105	-200.000	0.003	-0.312
-670.091	-200.000	-0.020	0.159
-669.076	-13.140	-0.124	-0.081
-668.062	-200.000	-0.016	-0.101
-667.047	86.805	-0.153	-0.171
-666.032	-146.232	0.212	-0.019
-665.018	-59.415	-0.268	-0.116
-664.003	-10.311	-0.156	-0.105
-662.989	800.000	-0.060	0.257
-661.974	131.951	0.198	0.256
-660.959	169.275	-0.170	0.245
-659.945	-200.000	0.016	0.284
-658.930	-200.000	0.028	0.179
-657.916	-200.000	-0.064	0.307
-656.901	77.929	0.298	0.320
-655.886	-121.636	0.384	0.064
-654.872	-33.569	-0.195	-0.109
-653.857	-200.000	0.034	0.184
-652.843	-200.000	0.002	-0.267
-651.828	-200.000	-0.002	0.050
-650.814	-117.962	-0.128	0.023
-649.799	644.292	0.039	0.101
-648.784	13.950	-0.085	0.067
-647.770	-118.837	-0.125	0.022
-646.755	-183.724	0.208	0.004
-645.741	-200.000	0.025	0.122
-644.726	50.122	0.157	0.149
-643.711	800.000	0.062	0.182
-642.697	-87.565	-0.323	-0.098
-641.682	-200.000	-0.029	-0.324
-640.668	800.000	-0.073	0.244
-639.653	-200.000	0.002	0.160
-638.638	1.416	-0.135	0.098
-637.624	227.787	0.078	0.128
-636.609	-29.253	0.113	0.065
-635.595	643.782	-0.021	0.054
-634.580	-178.288	0.107	0.003
-633.565	-200.000	-0.000	0.052
-632.551	-67.607	0.155	0.061
-631.536	-200.000	0.036	-0.317
-630.522	104.968	0.249	-0.295
-629.507	438.113	-0.148	-0.324
-628.492	83.964	-0.333	-0.367
-627.478	-63.068	0.216	-0.090
-626.463	-77.425	0.248	-0.087
-625.449	-150.720	-0.538	-0.041
-624.434	-200.000	0.040	-0.393
-623.419	116.475	-0.151	0.186
-622.405	-10.305	0.204	-0.136
-621.390	168.129	0.156	0.223
-620.376	-200.000	0.024	0.439
-619.361	800.000	-0.090	-0.263
-618.346	800.000	-0.168	-0.693
-617.332	800.000	-0.041	-0.125
-616.317	149.690	0.208	0.283
-615.303	-200.000	0.000	0.265
-614.288	-165.229	0.113	-0.005
-613.273	-57.587	0.264	0.117
-612.259	78.076	-0.121	-0.130
-611.244	-70.886	-0.180	-0.068
-610.230	-128.503	-0.071	0.010
-609.215	800.000	-0.016	-0.053
-608.201	-52.945	0.272	0.126
-607.186	800.000	0.070	0.247
-606.171	-79.875	0.173	-0.058
-605.157	44.339	-0.107	-0.098
-604.142	-200.000	-0.033	-0.161
-603.128	-200.000	0.036	-0.209
-602.113	33.735	0.168	-0.147
-601.098	140.560	0.153	0.203
-600.084	-83.627	0.279	0.090
-599.069	-200.000	0.040	-0.353
-598.055	-77.781	-0.449	-0.156
-597.040	150.333	0.056	-0.077
-596.025	-61.498	0.098	-0.041
-595.011	-186.674	0.329	-0.005
-593.996	800.000	-0.070	0.252
-592.982	-164.184	0.364	0.017
-591.967	-79.900	-0.186	0.063
-590.952	-85.909	-0.059	0.019
-589.938	-200.000	-0.032	-0.233
-588.923	-1.365	0.244	-0.173
-587.909	-200.000	0.011	-0.174
-586.894	-4.267	0.118	-0.082
-585.879	421.908	-0.016	0.034
-584.865	-200.000	0.002	-0.328
-583.850	23.437	-0.235	-0.195
-582.836	319.660	-0.178	0.340
-581.821	699.914	-0.079	0.209
-580.806	270.019	0.215	-0.380
-579.792	-7.790	0.281	0.191
-578.777	206.828	0.125	0.195
-577.763	-21.743	-0.126	-0.077
-576.748	29.706	0.241	0.206
-575.733	24.396	0.213	0.177
-574.719	800.000	0.072	0.233
-573.704	98.857	-0.174	0.202
-572.690	224.832	0.086	0.139
-571.675	-31.810	-0.329	-0.185
-570.661	-169.360	-0.123	0.005
-569.646	-73.022	-0.160	-0.059
-568.631	-82.766	-0.203	-0.066
-567.617	146.352	0.273	0.369
-566.602	800.000	-0.083	0.256
-565.588	-200.000	-0.011	0.403
-564.573	210.948	-0.116	-0.183
-563.558	-87.803	-0.164	-0.050
-562.544	566.306	-0.187	-0.457
-561.529	-13.192	-0.148	0.096
-560.515	-46.840	0.330	-0.162
-559.500	-32.726	0.213	-0.119
-558.485	139.516	0.079	0.105
-557.471	800.000	-0.025	0.109
-556.456	141.092	0.306	-0.407
-555.442	-71.969	-0.147	-0.055
-554.427	31.631	0.127	0.110
-553.412	543.492	-0.105	-0.252
-552.398	-105.288	-0.264	-0.060
-551.383	11.117	-0.178	-0.136
-550.369	-200.000	-0.013	-0.516
-549.354	-39.326	0.234	-0.123
-548.339	-39.619	0.215	-0.113
-547.325	-1.717	-0.143	-0.101
-546.310	-200.000	-0.013	0.079
-545.296	90.850	-0.222	-0.250
-544.281	-90.739	-0.196	0.057
-543.266	34.175	0.287	0.251
-542.252	-64.804	0.307	-0.125
-541.237	-142.038	-0.248	0.025
-540.223	-200.000	-0.046	-0.379
-539.208	79.029	-0.391	-0.421
-538.193	-97.294	-0.155	-0.041
-537.179	-127.095	-0.133	0.020
-536.164	-200.000	-0.049	-0.410
-535.150	800.000	0.025	0.074
-534.135	-109.826	-0.156	-0.033
-533.121	-114.141	-0.072	0.014
-532.106	-92.944	-0.087	0.024
-531.091	230.035	-0.143	0.234
-530.077	142.430	-0.202	0.269
-529.062	-113.326	0.112	-0.022
-528.048	46.621	-0.114	0.106
-527.033	-200.000	-0.005	-0.055
-526.018	38.475	-0.221	0.197
-525.004	9.708	-0.043	0.033
-523.989	-154.638	-0.128	-0.009
-522.975	-200.000	0.010	0.057
-521.960	-200.000	0.030	0.170
-520.945	-32.644	0.149	0.083
-519.931	212.494	0.117	-0.185
-518.916	-200.000	0.029	-0.278
-517.902	358.648	-0.097	-0.194
-516.887	176.901	-0.044	-0.064
-515.872	61.820	-0.266	-0.265
-514.858	145.277	-0.226	-0.303
-513.843	32.478	-0.205	0.177
-512.829	307.359	0.102	0.190
-511.814	47.086	0.136	0.127
-510.799	800.000	-0.010	0.036
-509.785	684.472	-0.121	0.317
-508.770	-25.789	-0.126	-0.074
-507.756	-43.444	0.326	-0.165
-506.741	-138.614	0.223	-0.024
-505.726	800.000	0.077	-0.325
-504.712	-19.460	0.097	-0.060
-503.697	-30.847	-0.167	0.094
-502.683	268.921	0.098	0.173
-501.668	-48.276	-0.089	0.043
-500.653	163.354	0.147	-0.207
-499.639	25.267	0.094	0.078
-498.624	-35.586	-0.315	-0.171
-497.610	-115.424	-0.075	-0.014
-496.595	390.178	0.182	0.378
-495.581	-77.012	-0.149	-0.052
-494.566	800.000	-0.039	-0.155
-493.551	-200.000	0.006	-0.097
-492.537	800.000	0.054	-0.179
-491.522	185.528	0.163	-0.242
-490.508	-151.571	-0.329	0.024
-489.493	-41.229	0.256	0.132
-488.478	-132.429	-0.483	-0.062
-487.464	-127.780	0.421	0.061
-486.449	521.566	-0.061	-0.142
-485.435	-104.667	0.052	-0.012
-484.420	-200.000	-0.040	0.204
-483.405	156.268	-0.207	0.286
-482.391	-72.253	-0.142	0.053
-481.376	-56.057	-0.247	0.110
-480.362	-200.000	0.003	0.036
-479.347	83.878	-0.249	0.272
-478.332	-137.602	0.266	-0.030
-477.318	-200.000	-0.074	-0.500
-476.303	283.835	-0.126	0.226
-475.289	321.252	0.068	-0.130
-474.274	-200.000	-0.019	0.345
-473.259	526.601	-0.157	-0.370
-472.245	126.133	-0.163	-0.207
-471.230	-38.503	0.222	0.117
-470.216	232.129	0.106	0.174
-469.201	-117.628	0.191	-0.035
-468.186	211.378	-0.115	-0.180
-467.172	-4.819	0.141	0.097
-466.157	-18.333	0.028	0.018
-465.143	-180.370	-0.132	0.003
-464.128	-65.815	0.079	0.032
-463.113	331.715	0.210	0.405
-462.099	-150.447	0.176	0.014
-461.084	-91.379	-0.374	-0.107
-460.070	444.713	0.161	-0.353
-459.055	160.306	-0.100	-0.139
-458.040	-200.000	-0.043	-0.258
-457.026	800.000	0.095	-0.333
-456.011	133.201	0.211	0.273
-454.997	-200.000	0.069	0.346
-453.982	102.715	0.054	0.064
-452.968	-200.000	-0.074	-0.389
-451.953	-200.000	-0.058	0.285
-450.938	118.273	0.056	0.069
-449.924	96.609	0.169	-0.194
-448.909	800.000	-0.093	-0.307
-447.895	-200.000	0.042	0.240
-446.880	13.096	-0.027	0.021
-445.865	-52.122	0.019	-0.009
-444.851	-4.528	0.126	0.087
-443.836	800.000	-0.024	-0.099
-442.822	-200.000	-0.044	0.304
-441.807	648.877	-0.084	-0.215
-440.792	-39.185	0.019	0.010
-439.778	-200.000	-0.002	-0.138
-438.763	-200.000	-0.036	0.247
-437.749	800.000	-0.081	-0.255
-436.734	297.576	0.090	-0.165
-435.719	206.731	0.133	0.207
-434.705	-39.615	0.130	-0.068
-433.690	-106.942	0.142	-0.031
-432.676	-31.679	0.098	-0.055
-431.661	800.000	0.106	-0.384
-430.646	113.092	-0.324	-0.393
-429.632	213.400	-0.138	0.218
-428.617	-52.091	0.108	-0.050
-427.603	-85.195	0.330	-0.103
-426.588	7.305	0.202	-0.151
-425.573	-10.215	-0.161	0.107
-424.559	800.000	-0.110	0.390
-423.544	-105.220	-0.309	0.070
-422.530	-200.000	0.008	0.255
-421.515	-4.451	0.120	-0.083
-420.500	-53.448	-0.393	-0.180
-419.486	-200.000	-0.021	-0.346
-418.471	-200.000	0.011	0.201
-417.457	-24.869	0.079	-0.047
-416.442	350.245	-0.052	0.102
-415.428	-200.000	-0.075	0.355
-414.413	75.888	0.040	0.042
-413.398	521.796	0.153	0.358
-412.384	-12.632	-0.148	-0.096
-411.369	-91.042	-0.216	0.062
-410.355	-12.269	-0.025	0.016
-409.340	75.046	-0.281	0.296
-408.325	221.171	-0.119	0.191
-407.311	144.797	-0.157	-0.209
-406.296	-136.341	-0.313	-0.036
-405.282	382.165	-0.145	-0.298
-404.267	800.000	0.053	0.208
-403.252	-200.000	-0.003	-0.019
-402.238	-200.000	0.040	0.248
-401.223	-82.233	0.081	0.026
-400.209	-102.865	0.278	-0.066
-399.194	43.134	0.244	-0.222
-398.179	18.425	0.264	0.210
-397.165	299.944	0.088	-0.162
-396.150	-180.842	0.069	-0.001
-395.136	-49.327	-0.311	0.148
-394.121	-31.466	-0.192	0.108
-393.106	-200.000	-0.016	0.175
-392.092	-74.427	0.063	-0.023
-391.077	398.066	0.138	0.288
-390.063	-200.000	0.015	0.076
-389.048	-124.123	0.408	0.064
-388.033	111.366	0.203	-0.243
-387.019	-200.000	-0.059	-0.319
-386.004	624.458	-0.103	0.258
-384.990	800.000	0.080	0.271
-383.975	-74.659	0.374	0.134
-382.960	800.000	-0.117	-0.384
-381.946	-42.999	0.313	0.159
-380.931	-110.736	0.260	-0.053
-379.917	-120.978	-0.285	-0.048
-378.902	389.594	-0.044	-0.091
-377.888	-63.551	-0.239	-0.098
-376.873	-200.000	-0.004	-0.063
-375.858	-81.995	0.165	-0.054
-374.844	-2.488	-0.105	0.073
-373.829	-117.583	-0.306	0.055
-372.815	-34.483	0.132	-0.072
-371.800	94.039	0.125	0.141
-370.785	-122.868	-0.082	0.013
-369.771	-37.616	-0.245	-0.130
-368.756	26.140	-0.179	-0.149
-367.742	-69.350	-0.047	-0.018
-366.727	57.557	0.151	0.147
-365.712	-95.122	0.089	-0.024
-364.698	-155.177	0.183	0.012
-363.683	-71.836	-0.230	0.085
-362.669	-36.630	-0.203	-0.109
-361.654	52.306	-0.056	0.053
-360.639	103.683	0.068	0.079
-359.625	15.281	0.139	-0.108
-358.610	210.091	-0.177	0.277
-357.596	800.000	0.145	0.548
-356.581	83.043	0.244	0.264
-355.566	-176.297	0.334	-0.009
-354.552	223.420	0.143	0.229
-353.537	-77.245	0.265	0.092
-352.523	800.000	-0.039	-0.147
-351.508	800.000	-0.047	-0.146
-350.493	610.126	0.019	0.047
-349.479	800.000	-0.029	0.111
-348.464	-61.112	0.334	-0.140
-347.450	-52.638	0.119	-0.055
-346.435	308.004	0.088	0.164
-345.420	387.200	-0.110	-0.226
-344.406	26.413	-0.162	0.135
-343.391	49.389	-0.084	-0.079
-342.377	-94.333	-0.169	0.046
-341.362	-84.211	0.114	0.036
-340.348	-113.405	0.434	0.085
-339.333	-92.034	0.065	-0.018
-338.318	668.256	-0.053	-0.136
-337.304	-47.794	0.288	-0.139
-336.289	-37.943	-0.187	-0.099
-335.275	-200.000	-0.029	0.186
-334.260	593.577	-0.113	-0.277
-333.245	-200.000	-0.042	0.327
-332.231	-200.000	0.035	0.236
-331.216	91.381	-0.179	0.201
-330.202	534.042	-0.087	-0.204
-329.187	-118.180	-0.158	-0.028
-328.172	31.735	-0.250	-0.214
-327.158	-109.415	0.091	0.019
-326.143	-151.570	0.260	0.019
-325.129	-200.000	-0.031	-0.387
-324.114	214.096	0.136	0.213
-323.099	-82.658	0.044	0.014
-322.085	800.000	0.110	-0.428
-321.070	5.861	0.212	0.156
-320.056	-111.860	-0.375	-0.075
-319.041	800.000	-0.128	-0.446
-318.026	-99.784	-0.254	0.063
-317.012	18.885	0.086	0.069
-315.997	800.000	-0.073	-0.281
-314.983	-6.836	0.226	-0.153
-313.968	-44.318	0.170	-0.084
-312.953	155.899	0.173	-0.237
-311.939	70.690	-0.204	-0.210
-310.924	-77.554	-0.350	-0.121
-309.910	-55.961	0.210	-0.093
-308.895	-80.611	-0.163	0.054
-307.880	-143.221	0.196	0.019
-306.866	531.002	0.127	-0.298
-305.851	-75.762	-0.338	-0.119
-304.837	800.000	-0.026	0.098
-303.822	200.494	-0.109	0.167
-302.807	-198.430	-0.246	-0.001
-301.793	-130.716	0.233	0.031
-300.778	308.213	0.133	-0.246
-299.764	-200.000	0.005	-0.047
-298.749	-53.084	0.084	-0.038
-297.735	800.000	-0.122	0.346
-296.720	800.000	-0.039	0.113
-295.705	575.589	0.121	0.294
-294.691	80.833	0.238	0.255
-293.676	-141.583	-0.197	0.020
-292.662	800.000	-0.080	0.336
-291.647	-46.822	0.361	-0.175
-290.632	144.214	-0.119	-0.158
-289.618	402.454	-0.220	-0.458
-288.603	178.853	0.232	0.337
-287.589	-185.042	0.199	-0.003
-286.574	86.247	-0.055	0.061
-285.559	-200.000	-0.062	0.407
-284.545	-92.489	0.130	0.036
-283.530	477.898	-0.109	-0.246
-282.516	161.283	-0.144	-0.200
-281.501	79.026	-0.231	-0.246
-280.486	-96.482	0.292	0.077
-279.472	-108.128	0.294	-0.063
-278.457	-124.974	-0.397	0.061
-277.443	-91.841	0.258	-0.073
-276.428	-84.006	-0.279	0.088
-275.413	-148.064	-0.065	-0.005
-274.399	-1.684	-0.078	-0.055
-273.384	106.002	0.109	-0.128
-272.370	-58.973	0.259	0.111
-271.355	-14.439	-0.123	0.079
-270.340	6.764	-0.010	0.007
-269.326	-144.956	0.308	0.028
-268.311	-77.303	0.103	-0.036
-267.297	163.494	0.149	0.209
-266.282	-77.735	-0.319	-0.110
-265.267	83.974	-0.301	0.327
-264.253	-61.701	-0.126	0.052
-263.238	-200.000	0.008	0.145
-262.224	800.000	0.028	0.081
-261.209	-200.000	-0.022	-0.285
-260.195	-162.368	-0.095	0.005
-259.180	121.279	-0.294	0.363
-258.165	97.634	0.125	0.142
-257.151	-86.934	-0.142	0.043
-256.136	-108.425	0.199	0.043
-255.122	-28.419	-0.024	0.014
-254.107	-6.613	0.182	0.123
-253.092	800.000	0.112	0.315
-252.078	800.000	-0.026	-0.075
-251.063	30.675	-0.121	0.103
-250.049	283.584	-0.201	-0.358
-249.034	271.928	0.068	-0.120
-248.019	95.964	-0.158	0.179
-247.005	-153.316	-0.333	0.023
-245.990	800.000	-0.099	0.290
-244.976	239.351	-0.068	0.112
-243.961	79.456	0.177	-0.188
-242.946	-89.004	0.088	-0.026
-241.932	-13.465	-0.374	0.241
-240.917	-200.000	-0.047	0.212
-239.903	6.132	0.264	0.194
-238.888	113.836	0.146	0.176
-237.873	292.504	-0.232	-0.419
-236.859	12.372	-0.122	-0.093
-235.844	296.356	0.069	0.125
-234.830	-124.056	-0.160	-0.025
-233.815	-200.000	-0.031	0.173
-232.800	151.529	-0.166	-0.224
-231.786	-200.000	-0.018	-0.197
-230.771	79.235	0.322	-0.342
-229.757	-125.545	0.152	0.023
-228.742	-84.241	-0.122	-0.038
-227.727	-134.812	-0.329	-0.040
-226.713	761.779	0.149	0.402
-225.698	-95.239	0.110	-0.029
-224.684	800.000	-0.036	0.121
-223.669	81.708	-0.290	0.310
-222.655	-200.000	0.012	0.212
-221.640	597.251	-0.057	0.141
-220.625	-36.759	-0.050	-0.027
-219.611	57.313	0.361	0.349
-218.596	800.000	-0.089	0.268
-217.582	128.729	-0.341	0.431
-216.567	58.298	0.066	0.064
-215.552	-152.720	0.307	0.022
-214.538	-200.000	0.007	-0.255
-213.523	800.000	-0.061	0.171
-212.509	83.286	0.034	-0.037
-211.494	-58.542	-0.389	-0.167
-210.479	9.858	0.194	-0.146
-209.465	2.619	-0.080	-0.057
-208.450	-106.764	-0.198	-0.044
-207.436	400.445	-0.044	-0.091
-206.421	-200.000	-0.038	0.221
-205.406	648.693	-0.134	-0.339
-204.392	-115.215	0.029	0.006
-203.377	-101.890	0.262	0.063
-202.363	-40.055	-0.040	-0.021
-201.348	-200.000	0.022	0.123
-200.333	526.134	0.160	0.372
-199.319	61.346	-0.222	-0.219
-198.304	-119.731	-0.204	0.035
-197.290	800.000	-0.036	0.110
-196.275	-11.079	0.182	0.119
-195.260	73.266	-0.055	-0.057
-194.246	-73.828	-0.161	0.058
-193.231	223.150	0.079	-0.126
-192.217	-10.510	0.073	0.048
-191.202	119.090	-0.112	-0.137
-190.187	94.806	-0.035	0.040
-189.173	-200.000	-0.059	0.271
-188.158	-41.415	-0.115	-0.059
-187.144	-200.000	0.023	-0.154
-186.129	-15.852	-0.307	-0.194
-185.114	-114.019	-0.268	0.051
-184.100	-200.000	0.011	-0.205
-183.085	229.110	-0.082	-0.133
-182.071	800.000	0.042	0.116
-181.056	530.422	0.154	-0.359
-180.042	10.734	0.111	-0.084
-179.027	-104.513	0.099	0.023
-178.012	-32.762	0.043	0.024
-176.998	-152.123	0.260	0.019
-175.983	171.420	0.107	-0.151
-174.969	-74.612	0.405	0.144
-173.954	-200.000	-0.026	0.236
-172.939	-200.000	-0.033	-0.280
-171.925	-11.404	0.061	0.040
-170.910	800.000	0.141	-0.434
-169.896	-47.533	0.208	-0.100
-168.881	148.213	-0.031	-0.041
-167.866	155.867	0.182	0.248
-166.852	500.333	-0.135	0.307
-165.837	28.170	0.278	0.232
-164.823	263.302	-0.058	0.100
-163.808	-70.719	-0.228	0.085
-162.793	687.627	0.117	0.301
-161.779	-200.000	0.033	-0.142
-160.764	-200.000	0.086	-0.381
-159.750	-192.616	0.066	0.001
-158.735	461.507	0.149	0.328
-157.720	0.155	0.419	0.296
-156.706	541.447	0.075	0.176
-155.691	153.493	0.100	-0.135
-154.677	-200.000	-0.020	-0.121
-153.662	800.000	-0.036	0.102
-152.647	190.836	-0.201	0.298
-151.633	-123.699	0.244	-0.038
-150.618	237.312	0.035	0.057
-149.604	258.445	-0.176	0.300
-148.589	-166.856	0.371	-0.015
-147.574	5.885	0.223	-0.163
-146.560	-52.550	0.134	-0.061
-145.545	-15.100	0.125	-0.079
-144.531	-77.712	-0.254	-0.087
-143.516	-43.061	-0.181	0.091
-142.502	-81.222	0.203	-0.066
-141.487	86.769	0.025	0.027
-140.472	-182.859	0.087	-0.002
-139.458	-16.422	-0.315	-0.197
-138.443	-126.479	-0.061	-0.009
-137.429	-64.902	-0.268	0.107
-136.414	386.127	-0.096	0.195
-135.399	800.000	-0.089	0.288
-134.385	-89.970	-0.215	-0.062
-133.370	-68.006	-0.136	0.052
-132.356	-179.825	-0.115	-0.002
-131.341	-110.383	-0.393	0.081
-130.326	180.790	-0.133	0.193
-129.312	-200.000	0.024	0.503
-128.297	-27.881	0.358	0.205
-127.283	284.961	0.157	-0.279
-126.268	-200.000	0.008	0.310
-125.253	800.000	0.069	-0.246
-124.239	-92.426	0.188	0.052
-123.224	-36.529	0.146	0.078
-122.210	314.963	0.113	-0.211
-121.195	321.509	0.104	-0.195
