DTS Sentinel unit serial number:	SN413079Multiplexer serial number:	ORYXHardware model number:	OX4-SRSoftware version number:	ORYX F/W v4.00 Oryx Data Collector v3.7.2.0data status	okinstallation	princeton_trtdifferential loss correction	single-endedforward channel	channel 1reverse channel	N/Adate	2019/09/13time	21:26:36forward acquisition time	60.00reverse acquisition time	0.00gamma	496.2192k internal	0.2331k external	0.2331temperature offset calibration	1.0081default loss term (dB/km)	0.3790temperature slope calibration	1.0000multiplexer offset coefficient	1.0000multiplexer slope coefficient	1.0000fibre end	0.00T internal ref (°C)	28.31T ext. ref 1 (°C)	3.12T ext. ref 2 (°C)	22.99length (m)	temperature (°C)	Stokes	anti-Stokes-747.200	137.472	-0.187	0.246
-746.185	257.728	-0.159	0.275
-745.171	-17.065	0.127	0.081
-744.156	20.197	-0.038	0.031
-743.142	-48.514	0.230	-0.111
-742.127	-19.749	-0.275	-0.171
-741.112	-81.262	-0.339	0.113
-740.098	-200.000	-0.360	0.000
-739.083	359.936	-0.139	0.279
-738.069	753.505	-0.181	0.493
-737.054	-60.658	0.246	0.105
-736.039	-148.363	-0.084	0.007
-735.025	383.587	0.078	0.162
-734.010	-33.190	0.258	-0.144
-732.996	-84.882	-0.094	0.030
-731.981	-70.574	-0.217	0.083
-730.966	-62.073	-0.249	0.104
-729.952	-86.593	0.133	0.041
-728.937	-67.231	-0.200	-0.079
-727.923	79.027	-0.062	-0.067
-726.908	-153.576	-0.158	-0.011
-725.894	800.000	0.010	-0.036
-724.879	7.320	-0.046	-0.035
-723.864	-87.916	-0.093	-0.028
-722.850	247.069	0.168	0.285
-721.835	93.858	0.186	-0.212
-720.821	-111.149	0.175	0.036
-719.806	-71.995	-0.195	-0.073
-718.791	207.848	-0.165	-0.259
-717.777	-36.271	-0.296	0.160
-716.762	-70.576	-0.053	0.020
-715.748	184.197	0.218	-0.325
-714.733	187.113	-0.206	-0.309
-713.718	-33.769	0.333	0.185
-712.704	201.639	-0.317	-0.490
-711.689	68.151	0.090	0.092
-710.675	-23.664	-0.182	0.110
-709.660	294.032	0.167	0.307
-708.645	38.264	-0.201	0.180
-707.631	800.000	0.069	0.291
-706.616	-67.543	0.130	0.051
-705.602	-115.215	0.224	0.043
-704.587	-200.000	0.017	0.302
-703.572	-68.271	-0.078	-0.030
-702.558	-68.032	-0.111	0.043
-701.543	-200.000	0.011	-0.129
-700.529	34.574	-0.111	0.097
-699.514	-200.000	-0.010	-0.319
-698.499	-200.000	-0.002	0.027
-697.485	-86.489	-0.248	-0.076
-696.470	-200.000	-0.024	0.470
-695.456	-23.907	0.238	-0.143
-694.441	685.740	0.144	0.379
-693.426	-200.000	-0.082	0.369
-692.412	-78.949	0.216	-0.074
-691.397	15.460	-0.151	-0.119
-690.383	4.625	0.240	-0.177
-689.368	800.000	-0.095	0.271
-688.354	-104.364	-0.180	-0.042
-687.339	-4.413	-0.308	0.214
-686.324	0.485	-0.299	0.214
-685.310	-153.509	-0.302	0.021
-684.295	494.013	0.101	0.233
-683.281	-143.380	0.156	-0.015
-682.266	-126.394	0.114	-0.017
-681.251	-78.304	-0.123	-0.042
-680.237	80.016	-0.177	0.191
-679.222	117.919	-0.042	-0.052
-678.208	-58.960	-0.167	0.072
-677.193	80.142	-0.301	0.325
-676.178	560.469	-0.099	-0.241
-675.164	-98.824	-0.300	0.077
-674.149	26.102	0.057	-0.047
-673.135	-200.000	-0.033	-0.148
-672.120	452.479	-0.144	0.319
-671.105	-121.826	0.209	0.035
-670.091	162.894	-0.028	-0.040
-669.076	-124.437	-0.148	-0.023
-668.062	197.315	0.084	0.129
-667.047	448.742	0.062	-0.137
-666.032	330.552	0.191	-0.369
-665.018	-143.520	-0.047	-0.004
-664.003	-99.574	-0.157	0.040
-662.989	120.280	-0.238	0.296
-661.974	-81.419	-0.087	-0.029
-660.959	112.150	0.115	0.139
-659.945	424.274	-0.057	-0.123
-658.930	-200.000	-0.049	-0.488
-657.916	-200.000	-0.003	-0.150
-656.901	-200.000	0.001	0.010
-655.886	-116.553	-0.096	0.018
-654.872	-200.000	-0.054	-0.268
-653.857	627.406	0.093	0.235
-652.843	-36.476	-0.202	-0.109
-651.828	-200.000	-0.053	0.264
-650.814	-161.723	0.199	0.010
-649.799	-108.155	0.066	-0.014
-648.784	-17.463	0.276	0.174
-647.770	-200.000	0.001	-0.162
-646.755	144.891	0.292	-0.391
-645.741	339.044	0.075	0.146
-644.726	770.777	-0.009	0.025
-643.711	-111.374	0.028	-0.006
-642.697	800.000	-0.071	-0.302
-641.682	-20.661	-0.072	0.044
-640.668	-92.119	-0.166	0.047
-639.653	6.450	-0.011	0.008
-638.638	-94.280	0.206	0.057
-637.624	677.601	0.063	-0.164
-636.609	19.256	-0.115	0.092
-635.595	-200.000	-0.023	0.209
-634.580	21.731	-0.226	-0.185
-633.565	108.090	-0.138	0.165
-632.551	4.805	-0.192	-0.141
-631.536	-4.113	0.087	0.060
-630.522	800.000	0.064	-0.277
-629.507	-184.240	0.323	-0.005
-628.492	-127.932	-0.348	-0.050
-627.478	-200.000	-0.002	0.051
-626.463	800.000	-0.097	0.290
-625.449	-200.000	-0.000	-0.128
-624.434	329.646	0.094	-0.180
-623.419	-42.135	0.218	-0.112
-622.405	111.011	-0.132	-0.159
-621.390	444.592	0.178	-0.392
-620.376	-101.629	0.181	0.044
-619.361	-50.499	0.237	0.112
-618.346	-200.000	0.012	0.185
-617.332	36.096	-0.088	-0.078
-616.317	-11.690	-0.213	0.140
-615.303	-41.358	-0.125	0.065
-614.288	-8.823	0.338	0.227
-613.273	15.161	0.135	0.106
-612.259	-83.650	-0.103	-0.033
-611.244	-200.000	-0.017	0.116
-610.230	-143.474	0.225	0.021
-609.215	283.000	0.131	0.235
-608.201	53.394	0.095	-0.091
-607.186	47.943	-0.349	-0.327
-606.171	277.106	0.201	-0.358
-605.157	177.569	-0.096	-0.140
-604.142	-150.828	-0.269	-0.020
-603.128	-155.334	-0.132	0.009
-602.113	-87.657	-0.230	0.069
-601.098	-189.698	0.065	0.001
-600.084	-133.660	-0.326	0.041
-599.069	-200.000	0.020	0.099
-598.055	340.477	0.091	0.177
-597.040	-0.839	0.241	-0.171
-596.025	-71.829	-0.414	-0.154
-595.011	41.141	0.017	0.015
-593.996	-52.082	0.163	0.076
-592.982	-200.000	-0.011	0.180
-591.967	-123.569	-0.385	0.061
-590.952	800.000	0.103	-0.318
-589.938	800.000	-0.142	0.416
-588.923	7.714	-0.102	0.077
-587.909	-73.087	0.424	-0.155
-586.894	327.391	0.050	-0.096
-585.879	-200.000	-0.009	-0.283
-584.865	118.356	0.187	-0.230
-583.850	-32.288	-0.122	-0.068
-582.836	-49.725	0.211	-0.100
-581.821	-38.815	0.061	-0.032
-580.806	387.275	-0.121	0.250
-579.792	-53.624	-0.146	-0.067
-578.777	377.203	0.150	-0.306
-577.763	-200.000	-0.005	0.139
-576.748	-44.700	0.071	-0.035
-575.733	-43.279	-0.298	-0.151
-574.719	800.000	-0.049	-0.147
-573.704	-200.000	0.003	-0.062
-572.690	-200.000	0.018	-0.240
-571.675	83.366	0.215	-0.235
-570.661	208.613	0.146	0.229
-569.646	192.208	0.112	0.169
-568.631	193.474	0.052	-0.079
-567.617	800.000	-0.089	0.274
-566.602	-68.845	0.156	-0.060
-565.588	-70.851	-0.295	-0.111
-564.573	-44.150	-0.087	-0.044
-563.558	267.323	-0.053	0.093
-562.544	-75.213	0.430	0.153
-561.529	-120.986	-0.498	-0.084
-560.515	143.920	0.207	0.276
-559.500	-81.158	-0.047	-0.016
-558.485	54.664	-0.376	0.362
-557.471	12.911	0.120	-0.093
-556.456	8.960	0.278	-0.210
-555.442	-45.068	0.193	0.096
-554.427	78.625	0.223	-0.238
-553.412	75.272	-0.221	0.233
-552.398	800.000	-0.124	-0.420
-551.383	800.000	0.057	-0.161
-550.369	-65.598	0.103	-0.041
-549.354	-45.678	-0.093	0.046
-548.339	-13.430	-0.144	-0.093
-547.325	-76.964	-0.217	-0.076
-546.310	800.000	0.021	0.083
-545.296	-58.046	-0.260	-0.113
-544.281	189.798	-0.296	0.443
-543.266	-200.000	-0.006	0.033
-542.252	2.986	-0.248	-0.180
-541.237	22.237	-0.113	-0.092
-540.223	-200.000	0.042	0.305
-539.208	5.976	-0.119	0.088
-538.193	-200.000	-0.000	0.021
-537.179	-200.000	0.004	-0.186
-536.164	-200.000	0.008	-0.087
-535.150	-40.862	0.257	-0.133
-534.135	354.850	-0.131	0.259
-533.121	800.000	0.065	-0.181
-532.106	-16.289	-0.140	-0.089
-531.091	-200.000	0.004	0.146
-530.077	139.980	-0.224	0.295
-529.062	-54.762	0.025	0.011
-528.048	25.566	-0.077	-0.064
-527.033	625.968	0.073	0.184
-526.018	77.551	-0.169	-0.179
-525.004	-11.107	0.268	0.176
-523.989	478.090	0.107	0.242
-522.975	-128.388	-0.239	-0.034
-521.960	-200.000	-0.008	-0.468
-520.945	224.037	0.113	0.183
-519.931	-6.185	0.503	-0.342
-518.916	63.758	0.038	0.038
-517.902	179.753	-0.041	-0.061
-516.887	102.081	0.240	-0.279
-515.872	29.054	0.141	0.119
-514.858	313.744	-0.178	-0.335
-513.843	-200.000	-0.167	0.001
-512.829	8.688	-0.070	-0.052
-511.814	-200.000	0.022	-0.159
-510.799	800.000	0.049	0.136
-509.785	139.524	-0.024	-0.031
-508.770	-28.427	-0.271	0.156
-507.756	800.000	-0.061	0.225
-506.741	-141.098	-0.311	0.032
-505.726	-20.985	0.061	-0.037
-504.712	48.317	-0.061	-0.057
-503.697	145.179	-0.136	0.181
-502.683	275.622	0.074	-0.132
-501.668	-112.412	0.129	0.026
-500.653	-98.027	0.198	0.051
-499.639	800.000	0.115	-0.381
-498.624	800.000	0.122	0.378
-497.610	289.025	-0.076	-0.137
-496.595	-200.000	-0.044	0.256
-495.581	649.166	-0.083	-0.212
-494.566	18.270	0.088	0.070
-493.551	113.204	0.174	-0.211
-492.537	93.800	0.097	0.110
-491.522	59.275	-0.298	0.292
-490.508	163.696	0.075	0.105
-489.493	88.892	-0.187	-0.207
-488.478	15.196	-0.115	0.090
-487.464	-169.105	0.196	-0.007
-486.449	-62.824	0.057	0.024
-485.435	-200.000	-0.008	-0.206
-484.420	-7.938	-0.076	0.051
-483.405	-9.652	-0.135	-0.090
-482.391	784.540	0.153	-0.417
-481.376	22.237	0.275	0.223
-480.362	180.138	-0.153	-0.223
-479.347	-200.000	0.008	0.141
-478.332	149.855	-0.106	-0.143
-477.318	217.167	0.079	-0.125
-476.303	-8.990	-0.225	-0.150
-475.289	206.548	0.146	-0.227
-474.274	327.147	-0.110	-0.211
-473.259	800.000	-0.074	0.208
-472.245	49.603	0.121	-0.114
-471.230	-200.000	-0.043	-0.213
-470.216	800.000	-0.027	0.110
-469.201	43.255	0.126	-0.114
-468.186	-200.000	0.027	0.132
-467.172	-200.000	-0.021	0.136
-466.157	324.583	-0.027	0.052
-465.143	-165.867	-0.194	-0.008
-464.128	61.794	-0.131	-0.130
-463.113	-200.000	-0.011	0.100
-462.099	229.611	-0.070	-0.114
-461.084	-38.431	-0.236	0.125
-460.070	16.164	-0.025	-0.020
-459.055	-110.213	-0.135	-0.028
-458.040	-154.320	0.070	0.005
-457.026	-200.000	-0.007	0.211
-456.011	-66.097	0.191	-0.076
-454.997	-195.987	-0.338	-0.002
-453.982	-154.143	0.085	0.006
-452.968	676.817	0.033	-0.085
-451.953	159.313	-0.117	-0.161
-450.938	-200.000	0.026	-0.132
-449.924	240.443	0.082	-0.136
-448.909	534.298	-0.019	0.046
-447.895	141.712	0.216	-0.285
-446.880	147.066	-0.142	0.190
-445.865	-91.284	0.198	0.057
-444.851	127.112	-0.188	0.237
-443.836	-33.343	-0.157	0.086
-442.822	-118.745	-0.115	-0.020
-441.807	159.363	0.252	-0.349
-440.792	-200.000	-0.061	0.379
-439.778	411.209	0.076	0.160
-438.763	-45.288	0.364	-0.180
-437.749	-37.073	-0.097	0.052
-436.734	-131.080	0.096	0.013
-435.719	127.776	-0.125	0.158
-434.705	-200.000	0.005	-0.133
-433.690	84.386	-0.195	0.212
-432.676	-27.750	-0.181	0.104
-431.661	108.254	-0.106	-0.125
-430.646	-200.000	-0.063	0.589
-429.632	-115.635	-0.141	0.026
-428.617	-133.577	-0.107	-0.013
-427.603	536.335	-0.068	-0.159
-426.588	-11.062	-0.143	0.094
-425.573	-200.000	-0.023	0.183
-424.559	576.888	0.120	0.291
-423.544	-200.000	0.072	0.469
-422.530	210.417	0.205	-0.320
-421.515	55.643	0.273	0.263
-420.500	-87.273	0.192	-0.058
-419.486	-45.919	0.089	-0.044
-418.471	-118.274	0.162	-0.029
-417.457	657.486	0.192	-0.490
-416.442	788.226	0.080	0.219
-415.428	121.289	0.055	0.069
-414.413	194.999	0.139	-0.209
-413.398	-13.996	0.061	0.039
-412.384	244.301	0.052	0.087
-411.369	-200.000	-0.019	-0.193
-410.355	-200.000	-0.108	-0.584
-409.340	-120.551	0.165	0.028
-408.325	-200.000	0.023	-0.101
-407.311	3.816	-0.140	-0.101
-406.296	-200.000	-0.004	-0.174
-405.282	-23.604	0.281	0.168
-404.267	43.008	0.038	0.034
-403.252	684.058	-0.043	-0.112
-402.238	4.823	-0.027	-0.020
-401.223	-129.347	0.308	-0.042
-400.209	-12.122	-0.106	-0.069
-399.194	780.455	0.041	-0.113
-398.179	320.932	0.024	-0.046
-397.165	39.502	-0.181	0.161
-396.150	35.098	0.123	0.107
-395.136	-79.407	0.155	0.052
-394.121	166.415	0.217	-0.305
-393.106	-60.929	-0.073	-0.031
-392.092	-2.871	-0.056	-0.039
-391.077	93.854	0.106	-0.119
-390.063	-16.993	-0.144	0.091
-389.048	-116.655	0.045	0.008
-388.033	-115.227	0.190	-0.036
-387.019	253.043	-0.190	-0.322
-386.004	-103.264	0.184	0.043
-384.990	800.000	0.032	-0.103
-383.975	216.761	-0.178	-0.280
-382.960	318.710	-0.071	0.133
-381.946	-0.749	-0.101	0.071
-380.931	-58.512	0.297	0.128
-379.917	411.115	-0.157	0.331
-378.902	-146.743	-0.377	0.032
-377.888	446.590	-0.093	0.202
-376.873	-147.726	0.425	-0.035
-375.858	-93.888	0.375	-0.102
-374.844	38.900	-0.372	0.330
-373.829	214.756	-0.363	0.571
-372.815	-34.205	0.150	-0.082
-371.800	555.952	0.060	-0.144
-370.785	-66.663	0.258	-0.102
-369.771	314.455	0.059	-0.110
-368.756	592.085	-0.087	0.214
-367.742	-70.272	0.308	0.116
-366.727	-56.802	0.371	-0.163
-365.712	-200.000	-0.097	-0.444
-364.698	9.695	-0.098	-0.074
-363.683	22.547	-0.261	-0.212
-362.669	-125.989	-0.217	0.032
-361.654	-102.816	-0.269	0.064
-360.639	-159.143	-0.190	0.011
-359.625	767.511	0.029	-0.078
-358.610	-10.775	-0.232	0.152
-357.596	-119.566	-0.182	0.031
-356.581	-87.755	0.210	-0.063
-355.566	-67.598	0.144	-0.056
-354.552	-43.340	0.028	-0.014
-353.537	-175.380	0.169	0.005
-352.523	-200.000	-0.013	-0.074
-351.508	185.684	-0.161	-0.238
-350.493	-57.704	-0.095	0.041
-349.479	-63.887	-0.200	0.081
-348.464	-200.000	-0.015	-0.210
-347.450	553.106	-0.143	0.341
-346.435	-200.000	0.046	-0.437
-345.420	4.885	0.137	-0.100
-344.406	163.899	0.184	0.257
-343.391	9.324	-0.221	0.166
-342.377	435.940	0.040	-0.086
-341.362	-150.858	0.407	-0.031
-340.348	-164.655	-0.084	-0.004
-339.333	-75.465	0.113	0.040
-338.318	-34.709	-0.021	-0.011
-337.304	-27.578	0.057	0.033
-336.289	-95.413	0.083	-0.022
-335.275	-112.098	-0.240	-0.048
-334.260	97.802	-0.125	-0.143
-333.245	800.000	0.102	-0.309
-332.231	-49.237	0.544	0.257
-331.216	-167.901	-0.259	0.010
-330.202	-200.000	0.003	-0.336
-329.187	800.000	-0.102	0.393
-328.172	-200.000	0.006	0.150
-327.158	485.137	0.175	-0.396
-326.143	-25.623	0.099	0.058
-325.129	-61.921	-0.037	-0.015
-324.114	-40.440	-0.086	0.044
-323.099	581.627	0.074	-0.179
-322.085	-200.000	-0.050	0.266
-321.070	27.346	0.248	0.206
-320.056	-73.371	-0.174	-0.063
-319.041	77.855	0.227	0.240
-318.026	242.074	-0.068	-0.113
-317.012	77.463	-0.050	0.052
-315.997	-200.000	0.039	-0.474
-314.983	180.218	0.048	0.070
-313.968	-37.496	-0.177	-0.093
-312.953	-10.721	0.051	0.034
-311.939	-59.409	0.315	0.134
-310.924	-200.000	0.058	-0.308
-309.910	-200.000	-0.021	0.160
-308.895	-200.000	0.000	-0.230
-307.880	-94.625	-0.152	0.041
-306.866	124.199	0.052	0.065
-305.851	103.959	-0.188	0.218
-304.837	800.000	0.027	-0.075
-303.822	-23.497	-0.094	0.056
-302.807	384.901	-0.086	0.175
-301.793	-200.000	-0.057	-0.377
-300.778	-148.391	0.214	0.017
-299.764	-200.000	-0.002	0.036
-298.749	144.420	-0.143	-0.189
-297.735	113.340	-0.183	-0.219
-296.720	526.113	0.043	-0.100
-295.705	-153.806	-0.166	0.011
-294.691	-54.571	0.225	0.101
-293.676	309.600	0.230	-0.426
-292.662	-200.000	0.010	-0.057
-291.647	-51.461	0.154	0.071
-290.632	-107.210	-0.183	-0.040
-289.618	-72.095	0.035	0.013
-288.603	170.406	0.067	-0.095
-287.589	33.411	-0.411	-0.352
-286.574	-72.245	0.274	0.100
-285.559	-200.000	-0.019	0.260
-284.545	11.530	0.073	0.055
-283.530	-47.524	-0.241	-0.116
-282.516	-183.988	-0.170	0.003
-281.501	800.000	-0.027	0.090
-280.486	800.000	-0.121	0.332
-279.472	138.274	0.114	0.148
-278.457	24.373	-0.130	0.106
-277.443	-200.000	-0.013	-0.209
-276.428	239.653	-0.102	0.168
-275.413	148.279	-0.042	-0.056
-274.399	-179.035	-0.347	0.008
-273.384	408.785	0.022	0.046
-272.370	800.000	-0.034	-0.096
-271.355	-90.987	0.093	0.027
-270.340	-49.037	-0.305	-0.144
-269.326	269.239	-0.106	-0.184
-268.311	-89.075	0.456	-0.133
-267.297	-78.076	0.263	0.089
-266.282	121.145	-0.264	0.324
-265.267	14.494	0.166	0.128
-264.253	-200.000	-0.021	0.224
-263.238	-176.342	-0.171	0.004
-262.224	-122.393	0.116	-0.019
-261.209	-49.493	0.244	-0.115
-260.195	120.253	0.075	-0.092
-259.180	-200.000	0.042	0.211
-258.165	63.306	0.012	-0.012
-257.151	-174.226	-0.178	-0.005
-256.136	-60.042	-0.248	0.105
-255.122	168.999	0.052	-0.073
-254.107	800.000	0.018	-0.064
-253.092	210.812	0.107	-0.165
-252.078	50.300	0.081	-0.076
-251.063	64.677	0.064	-0.063
-250.049	288.376	-0.123	-0.220
-249.034	800.000	-0.026	-0.099
-248.019	103.455	-0.176	0.204
-247.005	0.583	0.087	-0.061
-245.990	-58.560	0.239	0.102
-244.976	-104.098	0.133	-0.031
-243.961	-6.148	-0.076	-0.051
-242.946	-70.781	-0.328	0.122
-241.932	171.806	0.076	0.108
-240.917	-200.000	-0.037	0.194
-239.903	49.884	-0.105	-0.098
-238.888	-40.454	0.351	0.180
-237.873	9.102	0.231	0.172
-236.859	800.000	-0.052	0.146
-235.844	197.084	0.160	0.241
-234.830	115.589	-0.126	-0.152
-233.815	-200.000	0.000	-0.231
-232.800	52.407	-0.143	-0.135
-231.786	148.347	-0.027	0.036
-230.771	1.852	-0.187	-0.133
-229.757	-115.227	-0.194	-0.036
-228.742	3.815	-0.113	-0.082
-227.727	188.201	-0.111	-0.163
-226.713	800.000	0.023	0.080
-225.698	800.000	0.061	-0.178
-224.684	-69.926	0.263	-0.099
-223.669	-146.202	0.358	-0.031
-222.655	-69.412	0.108	-0.041
-221.640	118.412	-0.064	0.077
-220.625	71.999	0.294	0.302
-219.611	279.846	-0.048	0.085
-218.596	-34.398	0.118	-0.064
-217.582	339.919	-0.109	0.209
-216.567	-200.000	0.013	0.152
-215.552	282.789	-0.034	0.060
-214.538	754.233	0.026	0.070
-213.523	10.893	-0.277	0.209
-212.509	136.825	0.067	0.087
-211.494	90.136	0.112	0.124
-210.479	90.214	0.148	-0.163
-209.465	-109.217	0.365	0.076
-208.450	217.124	0.108	0.169
-207.436	-27.935	-0.095	0.054
-206.421	800.000	-0.134	0.569
-205.406	82.807	-0.127	0.136
-204.392	104.942	0.176	0.205
-203.377	247.328	0.100	0.167
-202.363	199.807	-0.115	0.174
-201.348	-67.270	0.175	0.068
-200.333	13.643	-0.101	0.077
-199.319	800.000	0.086	0.260
-198.304	-78.976	0.211	0.071
-197.290	764.561	-0.120	-0.322
-196.275	-71.353	0.079	0.029
-195.260	-126.071	-0.245	-0.036
-194.246	-200.000	-0.009	0.100
-193.231	148.436	-0.121	0.161
-192.217	198.474	0.233	0.351
-191.202	-200.000	-0.010	0.068
-190.187	272.391	-0.176	-0.305
-189.173	98.521	0.148	0.168
-188.158	-129.075	-0.117	0.016
-187.144	-15.454	-0.224	-0.141
-186.129	-35.570	-0.087	0.047
-185.114	-89.564	0.058	0.017
-184.100	120.980	0.121	-0.148
-183.085	-75.319	-0.227	-0.080
-182.071	-200.000	0.036	0.337
-181.056	-22.990	-0.089	-0.053
-180.042	226.566	-0.208	0.332
-179.027	-200.000	0.024	0.138
-178.012	-151.142	0.206	0.015
-176.998	800.000	0.024	0.077
-175.983	65.874	-0.188	-0.188
-174.969	8.473	-0.217	-0.161
-173.954	522.146	0.090	-0.209
-172.939	-46.062	-0.070	-0.034
-171.925	114.006	-0.095	-0.113
-170.910	-169.395	0.399	0.014
-169.896	-62.013	0.043	0.018
-168.881	800.000	-0.044	0.125
-167.866	-200.000	0.007	0.072
-166.852	513.355	0.151	-0.347
-165.837	139.326	-0.070	-0.090
-164.823	-200.000	0.040	0.207
-163.808	250.662	-0.115	0.193
-162.793	-57.948	-0.406	0.174
-161.779	-200.000	-0.005	0.095
-160.764	78.833	-0.313	0.329
-159.750	101.981	0.197	0.226
-158.735	132.796	-0.082	0.104
-157.720	-37.689	0.246	0.129
-156.706	319.697	0.256	-0.477
-155.691	244.216	-0.138	0.229
-154.677	-48.992	-0.267	-0.126
-153.662	46.210	0.106	0.097
-152.647	800.000	0.027	0.095
-151.633	74.886	0.341	0.353
-150.618	-200.000	0.013	-0.085
-149.604	569.520	0.034	0.080
-148.589	-149.640	0.325	-0.025
-147.574	24.651	0.309	-0.251
-146.560	7.496	-0.272	0.200
-145.545	-73.988	-0.215	0.077
-144.531	121.768	0.206	-0.252
-143.516	-19.321	-0.253	-0.154
-142.502	53.054	0.304	-0.286
-141.487	800.000	0.201	-0.635
-140.472	554.100	0.087	-0.207
-139.458	-51.929	-0.044	0.020
-138.443	800.000	-0.067	-0.204
-137.429	-200.000	0.016	0.232
-136.414	448.472	0.160	-0.347
-135.399	-128.158	0.376	0.053
-134.385	-200.000	-0.072	0.415
-133.370	-169.129	-0.165	0.006
-132.356	66.902	-0.171	0.171
-131.341	193.807	0.048	0.072
-130.326	800.000	0.087	0.237
-129.312	248.533	-0.087	-0.145
-128.297	479.739	-0.079	-0.176
-127.283	-200.000	0.009	0.098
-126.268	743.114	0.072	0.191
-125.253	-75.260	-0.231	-0.081
-124.239	126.989	-0.123	0.153
-123.224	301.934	-0.073	-0.133
-122.210	-83.127	0.085	0.027
-121.195	119.447	0.109	0.133
-120.180	-25.870	-0.266	-0.154
