DTS Sentinel unit serial number:	SN413079Multiplexer serial number:	ORYXHardware model number:	OX4-SRSoftware version number:	ORYX F/W v4.00 Oryx Data Collector v3.7.2.0data status	okinstallation	princeton_trtdifferential loss correction	single-endedforward channel	channel 1reverse channel	N/Adate	2019/09/19time	14:02:35forward acquisition time	60.00reverse acquisition time	0.00gamma	496.2192k internal	0.2323k external	0.2323temperature offset calibration	1.0019default loss term (dB/km)	0.3790temperature slope calibration	1.0000multiplexer offset coefficient	1.0000multiplexer slope coefficient	1.0000fibre end	0.00T internal ref (°C)	31.19T ext. ref 1 (°C)	1.02T ext. ref 2 (°C)	28.48length (m)	temperature (°C)	Stokes	anti-Stokes-747.200	349.630	-0.086	-0.172
-746.185	96.213	-0.132	0.153
-745.171	800.000	-0.104	0.367
-744.156	43.957	-0.114	0.105
-743.142	-66.867	-0.242	-0.097
-742.127	158.085	-0.058	0.082
-741.112	12.479	0.088	0.069
-740.098	-200.000	0.002	-0.131
-739.083	-80.097	0.269	0.091
-738.069	102.763	0.226	0.268
-737.054	800.000	0.076	0.252
-736.039	-46.133	-0.108	-0.054
-735.025	-0.450	0.150	0.108
-734.010	800.000	0.079	-0.221
-732.996	720.463	-0.108	0.290
-731.981	43.315	-0.181	0.167
-730.966	590.126	-0.039	-0.097
-729.952	800.000	-0.050	0.198
-728.937	59.696	-0.054	0.054
-727.923	-200.000	-0.012	0.085
-726.908	-82.201	-0.247	-0.081
-725.894	501.718	-0.077	-0.179
-724.879	-112.815	-0.417	0.083
-723.864	14.652	-0.270	0.213
-722.850	-200.000	0.004	0.081
-721.835	-2.214	-0.181	-0.128
-720.821	-200.000	-0.090	0.402
-719.806	-49.921	-0.061	0.029
-718.791	-141.758	0.044	-0.004
-717.777	-53.862	0.072	0.033
-716.762	800.000	0.053	-0.187
-715.748	-3.632	-0.092	-0.065
-714.733	73.992	-0.226	-0.239
-713.718	44.996	0.126	0.117
-712.704	-200.000	-0.013	-0.124
-711.689	50.098	-0.079	-0.075
-710.675	-200.000	-0.028	-0.261
-709.660	-200.000	0.006	-0.256
-708.645	-188.714	-0.156	-0.002
-707.631	-104.832	0.327	0.076
-706.616	-200.000	0.026	0.273
-705.602	31.008	-0.187	0.162
-704.587	-11.494	-0.261	0.173
-703.572	5.925	0.200	-0.149
-702.558	800.000	0.018	0.057
-701.543	-200.000	-0.025	0.151
-700.529	62.799	-0.150	0.151
-699.514	-112.753	-0.097	-0.019
-698.499	17.143	-0.092	0.074
-697.485	-200.000	-0.025	0.419
-696.470	653.046	-0.050	-0.130
-695.456	597.449	0.103	0.258
-694.441	296.259	-0.110	-0.203
-693.426	373.170	-0.065	-0.133
-692.412	-200.000	0.002	0.182
-691.397	57.552	-0.112	-0.111
-690.383	41.174	-0.179	-0.163
-689.368	-10.651	-0.148	0.098
-688.354	175.825	0.096	0.140
-687.339	-200.000	-0.031	-0.340
-686.324	258.499	-0.068	-0.118
-685.310	85.803	-0.207	-0.230
-684.295	800.000	0.058	-0.251
-683.281	365.631	-0.092	-0.187
-682.266	237.682	0.243	0.406
-681.251	-143.384	0.122	-0.012
-680.237	-200.000	-0.365	0.001
-679.222	-47.872	-0.160	0.078
-678.208	-43.422	0.164	0.083
-677.193	-16.577	-0.022	0.014
-676.178	20.986	0.395	-0.322
-675.164	30.858	-0.203	-0.175
-674.149	78.039	0.112	-0.120
-673.135	10.234	0.078	-0.060
-672.120	-200.000	-0.031	0.301
-671.105	366.416	-0.026	-0.053
-670.091	298.976	-0.191	0.354
-669.076	34.151	-0.048	0.042
-668.062	-115.002	-0.181	0.035
-667.047	-200.000	-0.034	-0.202
-666.032	-45.521	-0.353	0.176
-665.018	800.000	-0.085	0.245
-664.003	-200.000	-0.018	-0.087
-662.989	20.558	0.140	-0.114
-661.974	176.789	-0.217	0.317
-660.959	-19.983	0.258	0.160
-659.945	-118.166	-0.142	-0.026
-658.930	-99.422	0.229	-0.058
-657.916	-86.335	0.189	-0.058
-656.901	-200.000	0.011	-0.218
-655.886	-129.258	-0.249	-0.035
-654.872	-200.000	0.010	-0.069
-653.857	212.575	-0.110	0.175
-652.843	30.527	0.400	0.344
-651.828	-154.177	0.225	-0.015
-650.814	-159.197	-0.345	0.020
-649.799	9.540	-0.101	-0.077
-648.784	-200.000	0.010	-0.199
-647.770	335.967	0.171	-0.334
-646.755	-4.740	0.076	0.053
-645.741	-45.208	-0.402	-0.201
-644.726	-200.000	0.042	-0.220
-643.711	166.647	0.140	0.199
-642.697	-98.272	0.281	-0.073
-641.682	800.000	-0.122	0.434
-640.668	-200.000	-0.042	-0.213
-639.653	27.371	0.332	-0.281
-638.638	-16.431	-0.338	-0.215
-637.624	-18.067	-0.176	-0.111
-636.609	72.731	-0.086	0.091
-635.595	14.900	0.098	-0.077
-634.580	-119.171	0.262	0.046
-633.565	230.778	0.126	-0.208
-632.551	-200.000	-0.038	-0.286
-631.536	-79.845	0.213	0.072
-630.522	144.891	0.079	-0.106
-629.507	-66.128	-0.070	0.028
-628.492	800.000	-0.012	-0.051
-627.478	800.000	-0.057	-0.190
-626.463	-95.622	0.204	0.055
-625.449	-99.311	0.234	-0.059
-624.434	278.380	0.170	-0.305
-623.419	-169.759	0.123	-0.004
-622.405	-200.000	-0.024	0.140
-621.390	64.570	0.109	-0.111
-620.376	101.129	-0.207	-0.241
-619.361	-52.079	-0.081	-0.038
-618.346	-37.813	0.476	0.255
-617.332	18.480	-0.226	0.181
-616.317	-39.512	-0.230	-0.121
-615.303	-29.022	0.132	-0.076
-614.288	-40.741	-0.250	-0.130
-613.273	16.217	-0.258	0.204
-612.259	-200.000	0.013	0.341
-611.244	-109.449	-0.572	0.122
-610.230	800.000	-0.023	0.084
-609.215	-121.465	-0.165	-0.028
-608.201	800.000	0.052	0.157
-607.186	-119.976	0.119	0.021
-606.171	-113.355	-0.049	0.010
-605.157	800.000	0.138	-0.553
-604.142	179.090	-0.098	-0.144
-603.128	-113.767	-0.091	0.018
-602.113	367.641	-0.130	0.265
-601.098	800.000	-0.080	0.249
-600.084	61.004	-0.347	0.346
-599.069	6.826	-0.207	-0.155
-598.055	-156.074	-0.127	-0.008
-597.040	-88.872	-0.297	-0.089
-596.025	-162.120	0.316	-0.016
-595.011	-8.924	0.308	-0.207
-593.996	705.210	-0.059	-0.157
-592.982	463.231	-0.033	-0.074
-591.967	-156.983	-0.282	-0.017
-590.952	193.453	0.113	-0.171
-589.938	111.929	-0.236	-0.286
-588.923	-158.456	-0.263	0.015
-587.909	149.494	0.126	-0.172
-586.894	252.913	0.092	0.157
-585.879	-61.749	-0.281	-0.118
-584.865	45.293	-0.250	0.232
-583.850	31.821	0.237	0.205
-582.836	-58.522	-0.019	-0.008
-581.821	239.298	-0.174	0.290
-580.806	-41.607	0.069	0.036
-579.792	-200.000	-0.029	0.126
-578.777	76.687	0.203	-0.216
-577.763	-200.000	-0.018	-0.168
-576.748	-63.611	0.322	0.133
-575.733	114.279	0.113	0.138
-574.719	-73.161	-0.180	0.066
-573.704	-200.000	0.066	0.313
-572.690	-200.000	-0.048	0.307
-571.675	-200.000	0.002	-0.042
-570.661	-70.764	-0.246	0.093
-569.646	174.589	0.316	-0.459
-568.631	-139.876	-0.287	-0.030
-567.617	9.705	0.257	0.195
-566.602	-200.000	0.024	-0.183
-565.588	800.000	0.072	0.280
-564.573	798.897	-0.033	0.091
-563.558	-200.000	-0.004	-0.057
-562.544	800.000	-0.020	-0.058
-561.529	800.000	-0.021	-0.072
-560.515	-125.711	0.128	0.019
-559.500	-200.000	0.071	-0.384
-558.485	-42.322	0.174	0.089
-557.471	416.720	-0.085	-0.181
-556.456	114.841	0.053	-0.064
-555.442	800.000	0.086	0.247
-554.427	420.203	-0.104	-0.223
-553.412	423.961	0.045	-0.098
-552.398	332.874	0.081	0.157
-551.383	482.568	0.089	-0.203
-550.369	-164.381	-0.272	-0.012
-549.354	564.663	0.054	0.130
-548.339	-68.834	-0.129	0.050
-547.325	55.296	0.090	-0.087
-546.310	-78.710	0.218	0.075
-545.296	241.054	0.145	0.243
-544.281	800.000	0.075	-0.252
-543.266	800.000	-0.078	-0.238
-542.252	645.043	0.157	-0.401
-541.237	-103.593	-0.089	-0.021
-540.223	-44.762	-0.189	0.095
-539.208	-70.545	-0.128	-0.048
-538.193	-63.996	-0.238	0.097
-537.179	-94.574	0.274	0.075
-536.164	-200.000	0.056	-0.395
-535.150	-23.004	0.200	0.120
-534.135	45.279	0.133	-0.123
-533.121	174.554	-0.073	0.105
-532.106	56.444	-0.403	-0.392
-531.091	28.087	-0.109	0.093
-530.077	-30.044	0.243	0.139
-529.062	-130.196	-0.122	0.017
-528.048	-42.238	-0.260	-0.133
-527.033	41.161	-0.119	-0.108
-526.018	198.540	0.153	-0.234
-525.004	-185.329	0.331	-0.005
-523.989	-151.664	-0.068	-0.005
-522.975	-39.361	-0.305	0.160
-521.960	-58.908	0.092	-0.040
-520.945	-52.248	-0.061	0.028
-519.931	-135.009	-0.262	-0.032
-518.916	-200.000	0.002	0.028
-517.902	-200.000	0.040	0.231
-516.887	220.515	0.052	-0.084
-515.872	-129.410	-0.121	-0.017
-514.858	-122.123	0.323	0.053
-513.843	800.000	0.117	-0.408
-512.829	201.230	-0.105	-0.161
-511.814	-157.479	-0.210	-0.013
-510.799	-200.000	-0.049	0.315
-509.785	-49.091	-0.075	-0.036
-508.770	185.956	0.114	-0.170
-507.756	-200.000	-0.004	0.191
-506.741	-200.000	-0.027	-0.309
-505.726	-200.000	-0.046	-0.320
-504.712	7.904	-0.159	-0.119
-503.697	-50.820	0.209	0.098
-502.683	-86.407	0.174	0.053
-501.668	52.171	0.097	0.092
-500.653	-200.000	0.067	-0.341
-499.639	140.362	-0.108	-0.142
-498.624	-114.143	0.106	0.020
-497.610	-200.000	0.016	0.205
-496.595	-122.522	0.388	0.063
-495.581	-64.140	-0.113	0.046
-494.566	-82.220	0.072	0.023
-493.551	-6.007	-0.421	-0.288
-492.537	-135.493	0.119	0.014
-491.522	-200.000	0.032	0.279
-490.508	432.391	-0.096	0.208
-489.493	-138.308	0.405	0.045
-488.478	-15.427	-0.299	0.191
-487.464	-147.960	0.198	0.016
-486.449	-54.158	-0.157	0.071
-485.435	-24.831	0.100	-0.060
-484.420	-54.618	0.245	0.111
-483.405	365.026	0.050	-0.101
-482.391	-200.000	0.014	0.070
-481.376	-42.249	0.138	-0.070
-480.362	151.059	0.173	0.235
-479.347	800.000	-0.061	0.168
-478.332	-28.040	-0.246	0.142
-477.318	-55.846	-0.208	0.093
-476.303	597.456	-0.156	0.386
-475.289	-136.957	0.148	0.017
-474.274	240.109	0.057	-0.095
-473.259	-198.521	0.236	-0.001
-472.245	-9.255	-0.293	0.196
-471.230	130.198	-0.270	0.345
-470.216	-52.815	0.143	-0.066
-469.201	7.383	-0.079	-0.059
-468.186	-54.798	0.055	-0.025
-467.172	-95.658	0.218	0.058
-466.157	-42.829	-0.185	-0.094
-465.143	246.677	0.115	0.194
-464.128	-163.963	-0.087	-0.004
-463.113	-81.506	-0.139	-0.046
-462.099	70.371	0.170	0.175
-461.084	-126.350	-0.354	0.053
-460.070	115.985	0.094	-0.115
-459.055	-16.755	-0.160	-0.101
-458.040	88.939	-0.053	-0.058
-457.026	-200.000	0.018	0.187
-456.011	134.735	-0.165	-0.214
-454.997	510.271	0.120	-0.279
-453.982	-186.243	-0.178	-0.003
-452.968	800.000	0.104	0.383
-451.953	45.472	-0.152	0.140
-450.938	-99.413	-0.424	-0.107
-449.924	110.745	0.096	-0.115
-448.909	-75.033	0.191	0.068
-447.895	192.581	-0.287	0.432
-446.880	99.443	-0.317	0.366
-445.865	233.596	0.153	0.252
-444.851	51.592	0.146	0.138
-443.836	532.318	0.093	0.220
-442.822	-200.000	-0.004	-0.537
-441.807	578.126	-0.015	-0.037
-440.792	-180.207	-0.347	0.007
-439.778	155.595	-0.289	0.398
-438.763	-57.633	-0.099	0.043
-437.749	800.000	-0.050	0.146
-436.734	800.000	0.085	0.294
-435.719	68.981	0.097	-0.100
-434.705	-200.000	0.031	-0.317
-433.690	-99.004	0.309	0.078
-432.676	65.965	-0.082	-0.083
-431.661	-153.302	0.123	0.009
-430.646	256.200	-0.077	-0.132
-429.632	-178.014	-0.259	-0.006
-428.617	288.123	0.094	-0.170
-427.603	10.834	0.184	-0.140
-426.588	567.369	0.043	0.105
-425.573	15.180	-0.243	-0.190
-424.559	-156.570	0.343	-0.021
-423.544	-200.000	0.006	-0.180
-422.530	49.999	-0.247	-0.233
-421.515	-200.000	0.007	-0.262
-420.500	274.099	-0.023	-0.041
-419.486	-184.340	0.160	0.003
-418.471	160.738	0.106	-0.148
-417.457	587.970	-0.025	-0.061
-416.442	-47.590	-0.091	0.044
-415.428	91.655	-0.037	0.041
-414.413	-200.000	-0.049	-0.220
-413.398	-200.000	-0.025	-0.233
-412.384	-13.818	0.410	0.264
-411.369	-160.421	-0.255	0.014
-410.355	49.236	-0.161	-0.151
-409.340	290.434	0.116	-0.211
-408.325	60.872	-0.110	-0.109
-407.311	800.000	0.112	-0.344
-406.296	-41.230	-0.152	-0.078
-405.282	11.328	-0.224	-0.171
-404.267	108.415	-0.065	-0.077
-403.252	-22.972	0.026	-0.016
-402.238	482.934	0.100	-0.227
-401.223	-200.000	-0.012	-0.159
-400.209	-98.440	0.169	-0.043
-399.194	-200.000	0.011	-0.057
-398.179	-57.924	0.373	-0.162
-397.165	418.204	0.196	-0.417
-396.150	-39.888	-0.061	0.032
-395.136	470.478	0.068	-0.153
-394.121	272.690	-0.045	-0.079
-393.106	-70.311	-0.053	0.020
-392.092	51.997	0.166	-0.157
-391.077	436.886	-0.213	0.462
-390.063	-66.584	0.111	-0.044
-389.048	-129.821	0.192	0.026
-388.033	187.794	0.131	0.194
-387.019	-10.140	0.184	0.122
-386.004	-20.434	-0.242	0.148
-384.990	49.564	-0.098	0.092
-383.975	-200.000	0.001	0.202
-382.960	-180.776	-0.196	0.004
-381.946	-200.000	-0.007	-0.112
-380.931	800.000	-0.077	0.246
-379.917	664.801	-0.066	0.170
-378.902	-200.000	0.031	0.241
-377.888	-121.331	-0.283	-0.047
-376.873	-200.000	-0.061	0.271
-375.858	94.780	0.030	-0.034
-374.844	69.958	-0.191	-0.196
-373.829	-200.000	0.000	0.240
-372.815	-27.195	0.104	-0.060
-371.800	-7.649	0.125	-0.084
-370.785	-200.000	-0.010	-0.074
-369.771	-200.000	0.033	0.182
-368.756	-69.165	-0.292	-0.112
-367.742	86.693	0.142	-0.156
-366.727	-174.236	-0.238	-0.007
-365.712	-69.909	0.259	0.098
-364.698	7.098	0.090	0.067
-363.683	496.074	-0.082	-0.187
-362.669	800.000	0.031	0.098
-361.654	105.791	-0.102	0.120
-360.639	226.190	-0.055	0.088
-359.625	782.753	-0.079	-0.215
-358.610	200.414	0.078	-0.119
-357.596	-200.000	-0.010	0.106
-356.581	357.039	0.067	-0.132
-355.566	296.310	-0.262	0.478
-354.552	342.708	-0.160	-0.312
-353.537	64.117	0.177	0.177
-352.523	-42.131	0.032	-0.016
-351.508	800.000	-0.028	0.111
-350.493	800.000	0.047	0.185
-349.479	800.000	0.088	-0.355
-348.464	326.832	0.257	0.490
-347.450	-200.000	-0.020	-0.118
-346.435	-96.106	0.012	0.003
-345.420	244.854	0.109	0.183
-344.406	69.385	-0.138	-0.141
-343.391	-200.000	0.016	0.117
-342.377	-200.000	-0.008	0.136
-341.362	-21.673	-0.129	0.078
-340.348	205.368	-0.085	0.132
-339.333	-200.000	0.002	0.149
-338.318	39.206	-0.122	-0.108
-337.304	113.788	0.218	0.263
-336.289	452.679	0.107	0.235
-335.275	373.281	0.159	0.322
-334.260	-64.116	-0.030	0.012
-333.245	-164.187	0.324	0.015
-332.231	-3.856	-0.134	-0.093
-331.216	263.760	-0.146	0.252
-330.202	-200.000	0.033	0.305
-329.187	-60.581	-0.211	-0.089
-328.172	-166.980	0.313	0.013
-327.158	-63.001	-0.159	-0.065
-326.143	-186.781	-0.217	-0.003
-325.129	51.833	0.265	-0.250
-324.114	258.172	-0.056	-0.095
-323.099	-200.000	0.001	0.110
-322.085	-126.026	0.197	-0.029
-321.070	78.044	-0.151	0.160
-320.056	-77.581	-0.129	0.044
-319.041	16.842	0.193	0.152
-318.026	-37.786	0.263	-0.139
-317.012	31.918	0.244	0.209
-315.997	5.771	-0.214	0.157
-314.983	131.991	-0.066	0.084
-313.968	160.145	0.144	-0.200
-312.953	56.204	0.147	-0.142
-311.939	-94.015	-0.350	0.095
-310.924	-144.407	0.039	-0.004
-309.910	-59.525	0.176	0.075
-308.895	9.798	0.221	-0.166
-307.880	-17.070	-0.059	0.037
-306.866	-2.789	-0.207	-0.144
-305.851	800.000	-0.044	-0.121
-304.837	800.000	-0.088	0.319
-303.822	87.786	0.047	-0.051
-302.807	-114.672	-0.052	-0.010
-301.793	88.510	-0.130	0.143
-300.778	800.000	0.061	-0.221
-299.764	66.591	-0.103	-0.104
-298.749	-51.195	0.212	0.099
-297.735	-75.739	-0.236	0.083
-296.720	-200.000	-0.048	-0.237
-295.705	800.000	-0.044	-0.140
-294.691	-200.000	0.039	-0.384
-293.676	800.000	-0.137	-0.462
-292.662	-45.037	-0.182	-0.090
-291.647	123.924	0.247	-0.308
-290.632	-200.000	0.020	-0.255
-289.618	-128.503	-0.454	-0.064
-288.603	-90.778	0.080	-0.023
-287.589	800.000	-0.066	-0.279
-286.574	87.387	-0.193	-0.212
-285.559	-91.001	0.138	0.039
-284.545	734.504	0.157	0.416
-283.530	-27.963	0.427	0.245
-282.516	-22.102	-0.156	-0.094
-281.501	77.821	0.003	-0.004
-280.486	800.000	-0.013	-0.049
-279.472	-7.004	-0.075	0.051
-278.457	39.481	0.316	0.281
-277.443	-141.921	-0.446	-0.044
-276.428	-84.186	-0.336	0.105
-275.413	-132.614	-0.285	0.036
-274.399	-127.799	0.133	0.019
-273.384	-200.000	0.035	0.231
-272.370	596.187	-0.073	0.179
-271.355	800.000	0.088	0.273
-270.340	461.584	0.113	-0.250
-269.326	-200.000	-0.020	-0.264
-268.311	592.177	0.199	0.487
-267.297	84.300	-0.029	-0.032
-266.282	22.141	-0.182	0.148
-265.267	622.489	0.057	0.141
-264.253	-200.000	-0.060	0.309
-263.238	800.000	0.029	-0.084
-262.224	543.330	0.050	-0.118
-261.209	800.000	-0.121	0.416
-260.195	42.585	-0.122	-0.110
-259.180	800.000	0.102	0.325
-258.165	91.450	0.139	-0.155
-257.151	0.603	0.111	0.079
-256.136	61.666	0.047	0.046
-255.122	280.768	0.115	-0.204
-254.107	325.409	0.057	-0.109
-253.092	344.641	0.012	-0.024
-252.078	143.976	0.361	0.476
-251.063	-105.349	0.221	-0.050
-250.049	-67.032	0.179	0.070
-249.034	-144.675	-0.249	0.023
-248.019	-200.000	-0.045	-0.222
-247.005	-119.850	-0.144	-0.025
-245.990	-167.537	-0.293	-0.012
-244.976	-176.494	0.376	0.010
-243.961	-32.217	-0.048	0.027
-242.946	130.859	-0.236	0.300
-241.932	131.881	0.135	0.172
-240.917	-57.620	-0.073	-0.032
-239.903	800.000	-0.100	-0.368
-238.888	142.855	-0.059	0.078
-237.873	-114.314	0.143	-0.027
-236.859	418.736	0.082	0.174
-235.844	24.842	-0.129	0.106
-234.830	-89.339	0.530	-0.155
-233.815	286.749	-0.096	0.171
-232.800	-100.587	-0.133	-0.032
-231.786	-200.000	0.040	-0.270
-230.771	90.871	0.167	0.185
-229.757	-200.000	-0.025	0.153
-228.742	-9.724	-0.414	-0.273
-227.727	82.461	-0.061	0.066
-226.713	-77.996	0.233	0.079
-225.698	207.673	0.095	0.146
-224.684	29.188	0.170	-0.143
-223.669	-35.136	-0.068	-0.036
-222.655	-89.984	0.098	0.028
-221.640	10.179	-0.225	0.169
-220.625	370.507	-0.130	-0.262
-219.611	-200.000	0.006	-0.231
-218.596	-44.083	-0.059	0.030
-217.582	-35.965	-0.197	-0.105
-216.567	-200.000	-0.023	-0.182
-215.552	-102.711	0.144	-0.034
-214.538	-29.635	0.217	0.123
-213.523	191.695	0.129	-0.192
-212.509	30.608	-0.112	-0.095
-211.494	59.736	0.163	-0.159
-210.479	-197.366	-0.247	-0.002
-209.465	-50.847	-0.284	0.132
-208.450	800.000	-0.015	-0.064
-207.436	-173.857	-0.310	0.009
-206.421	52.994	0.186	-0.176
-205.406	587.750	0.091	-0.223
-204.392	-200.000	-0.046	-0.316
-203.377	9.963	0.158	-0.119
-202.363	-59.794	0.144	0.061
-201.348	-110.660	0.388	0.079
-200.333	-89.708	-0.215	-0.062
-199.319	444.031	0.063	0.136
-198.304	200.215	-0.139	-0.211
-197.290	-27.584	0.344	-0.197
-196.275	-170.894	-0.146	-0.005
-195.260	511.841	0.171	0.394
-194.246	800.000	0.069	0.259
-193.231	-200.000	0.003	0.385
-192.217	44.748	-0.194	-0.176
-191.202	-125.391	0.242	0.036
-190.187	-200.000	-0.023	0.162
-189.173	632.169	-0.097	-0.242
-188.158	-200.000	-0.004	-0.045
-187.144	-66.233	-0.195	-0.077
-186.129	629.411	-0.053	0.133
-185.114	115.516	-0.139	-0.167
-184.100	92.153	0.301	0.335
-183.085	800.000	0.044	0.163
-182.071	800.000	0.032	0.115
-181.056	290.228	-0.015	0.027
-180.042	-200.000	0.003	-0.127
-179.027	-43.456	-0.237	-0.118
-178.012	25.733	0.136	0.112
-176.998	510.741	-0.150	0.344
-175.983	30.161	0.328	-0.277
-174.969	-191.670	-0.318	-0.003
-173.954	512.677	0.051	0.117
-172.939	-42.747	0.057	-0.028
-171.925	150.029	0.058	0.078
-170.910	-200.000	-0.004	0.028
-169.896	-200.000	0.018	-0.081
-168.881	-200.000	-0.007	0.364
-167.866	-73.461	0.349	0.126
-166.852	-96.875	0.198	0.051
-165.837	800.000	0.078	-0.311
-164.823	-108.075	0.302	-0.065
-163.808	25.376	-0.109	0.090
-162.793	-200.000	0.013	0.098
-161.779	-178.445	0.261	-0.006
-160.764	2.020	0.195	-0.139
-159.750	-182.817	-0.053	-0.001
-158.735	-105.693	0.182	-0.041
-157.720	15.085	-0.027	0.021
-156.706	800.000	-0.046	0.184
-155.691	63.210	-0.048	-0.048
-154.677	15.474	0.037	-0.029
-153.662	45.500	0.074	0.067
-152.647	-200.000	-0.010	0.355
-151.633	-125.848	0.101	0.015
-150.618	286.755	0.110	0.196
-149.604	-200.000	-0.023	0.544
-148.589	1.060	-0.178	0.126
-147.574	-44.704	-0.251	0.124
-146.560	-153.932	0.181	0.012
-145.545	-78.116	0.237	0.080
-144.531	106.686	0.237	0.277
-143.516	-41.566	0.270	-0.137
-142.502	-156.544	-0.252	-0.015
-141.487	-145.619	0.410	-0.036
-140.472	-65.020	-0.154	-0.061
-139.458	-200.000	-0.031	0.151
-138.443	-200.000	0.038	0.227
-137.429	24.820	-0.203	0.165
-136.414	13.693	0.174	0.133
-135.399	800.000	-0.106	-0.375
-134.385	-115.531	-0.152	-0.028
-133.370	-109.801	0.353	0.073
-132.356	176.502	-0.253	-0.362
-131.341	-200.000	-0.050	-0.304
-130.326	135.577	0.154	-0.198
-129.312	85.668	-0.118	-0.128
-128.297	269.900	-0.097	-0.167
-127.283	164.074	0.172	-0.239
-126.268	330.558	0.076	-0.144
-125.253	-98.694	0.144	0.036
-124.239	-98.804	-0.376	-0.094
-123.224	37.007	-0.060	-0.052
-122.210	351.205	0.113	-0.220
-121.195	-200.000	0.004	0.024
