DTS Sentinel unit serial number:	SN413079Multiplexer serial number:	ORYXHardware model number:	OX4-SRSoftware version number:	ORYX F/W v4.00 Oryx Data Collector v3.7.2.0data status	okinstallation	princeton_trtdifferential loss correction	single-endedforward channel	channel 1reverse channel	N/Adate	2019/09/16time	08:06:35forward acquisition time	60.00reverse acquisition time	0.00gamma	496.2192k internal	0.2327k external	0.2327temperature offset calibration	0.9979default loss term (dB/km)	0.3790temperature slope calibration	1.0000multiplexer offset coefficient	1.0000multiplexer slope coefficient	1.0000fibre end	0.00T internal ref (°C)	28.62T ext. ref 1 (°C)	11.79T ext. ref 2 (°C)	24.79length (m)	temperature (°C)	Stokes	anti-Stokes-747.200	-136.401	0.178	0.021
-746.185	47.825	-0.156	0.147
-745.171	800.000	-0.049	0.149
-744.156	-136.484	-0.162	-0.019
-743.142	800.000	0.013	-0.044
-742.127	77.280	-0.284	0.305
-741.112	-160.130	-0.592	-0.032
-740.098	280.380	-0.093	-0.167
-739.083	173.319	0.095	-0.138
-738.069	129.897	0.132	0.170
-737.054	-115.381	-0.087	-0.017
-736.039	-50.466	-0.195	-0.093
-735.025	225.889	-0.038	0.062
-734.010	37.581	-0.081	-0.072
-732.996	15.915	-0.276	0.219
-731.981	-126.215	-0.038	0.006
-730.966	326.881	-0.153	-0.296
-729.952	64.835	0.219	-0.222
-728.937	800.000	-0.050	-0.172
-727.923	62.237	-0.098	-0.099
-726.908	221.659	-0.072	0.116
-725.894	119.110	0.206	0.256
-724.879	198.863	0.041	-0.064
-723.864	-60.825	-0.024	0.010
-722.850	130.990	-0.071	-0.092
-721.835	-34.093	-0.103	0.057
-720.821	-118.210	0.175	0.031
-719.806	800.000	0.056	0.214
-718.791	-22.296	-0.156	-0.095
-717.777	506.687	0.073	-0.169
-716.762	-200.000	0.003	-0.041
-715.748	-41.908	-0.276	-0.142
-714.733	-200.000	-0.044	-0.371
-713.718	-70.130	-0.130	-0.050
-712.704	2.948	-0.068	-0.049
-711.689	3.654	-0.190	0.140
-710.675	-43.432	-0.244	-0.124
-709.660	137.924	-0.128	-0.169
-708.645	347.961	-0.079	0.156
-707.631	-59.086	-0.524	0.228
-706.616	-34.576	-0.200	-0.110
-705.602	238.014	0.070	-0.116
-704.587	-53.216	0.174	0.080
-703.572	-137.174	-0.165	-0.019
-702.558	800.000	-0.060	-0.170
-701.543	-200.000	0.152	0.713
-700.529	-37.489	0.127	0.068
-699.514	-87.865	0.230	-0.070
-698.499	290.945	-0.119	-0.217
-697.485	-91.912	0.313	-0.089
-696.470	-62.744	-0.045	-0.019
-695.456	-20.132	0.257	-0.159
-694.441	800.000	0.058	0.163
-693.426	513.810	-0.080	0.189
-692.412	-7.550	-0.220	-0.150
-691.397	-160.930	-0.285	0.015
-690.383	800.000	0.151	-0.455
-689.368	-130.478	-0.191	0.026
-688.354	-79.739	0.241	0.082
-687.339	-159.904	-0.470	-0.026
-686.324	211.539	-0.212	-0.335
-685.310	-6.479	-0.279	-0.191
-684.295	-88.238	0.183	-0.055
-683.281	44.500	-0.097	-0.089
-682.266	-200.000	-0.079	0.382
-681.251	-200.000	0.009	-0.217
-680.237	-140.592	0.326	-0.034
-679.222	-17.772	-0.210	0.133
-678.208	58.630	0.068	0.067
-677.193	-73.056	0.309	-0.114
-676.178	49.585	-0.251	0.238
-675.164	-200.000	-0.046	-0.268
-674.149	-200.000	0.030	-0.275
-673.135	-200.000	0.014	-0.097
-672.120	800.000	-0.064	0.247
-671.105	36.064	-0.135	0.119
-670.091	-135.357	0.223	-0.027
-669.076	75.493	-0.123	-0.130
-668.062	-142.944	-0.421	-0.041
-667.047	-46.919	-0.082	0.040
-666.032	-200.000	0.022	-0.097
-665.018	-167.204	-0.224	-0.009
-664.003	-200.000	0.107	0.607
-662.989	235.045	0.123	0.204
-661.974	800.000	-0.082	-0.270
-660.959	77.655	0.081	0.087
-659.945	28.987	-0.128	-0.109
-658.930	610.480	-0.086	-0.215
-657.916	-102.802	0.366	-0.088
-656.901	-200.000	-0.021	-0.150
-655.886	800.000	-0.032	-0.105
-654.872	800.000	-0.019	-0.059
-653.857	-34.952	-0.115	-0.063
-652.843	800.000	0.073	-0.209
-651.828	-200.000	-0.063	-0.298
-650.814	59.591	-0.035	0.035
-649.799	-85.218	0.156	-0.049
-648.784	7.664	-0.257	-0.193
-647.770	-200.000	0.007	0.249
-646.755	18.441	0.191	0.153
-645.741	-200.000	-0.020	0.338
-644.726	-200.000	0.005	0.226
-643.711	100.120	-0.138	0.161
-642.697	164.285	0.154	-0.218
-641.682	800.000	0.089	-0.382
-640.668	-200.000	0.073	0.485
-639.653	382.814	-0.073	-0.152
-638.638	-200.000	-0.046	0.239
-637.624	-27.836	0.098	0.057
-636.609	358.873	0.114	-0.229
-635.595	89.085	0.049	-0.054
-634.580	-174.500	0.111	-0.003
-633.565	-84.195	0.109	-0.035
-632.551	-200.000	0.024	-0.210
-631.536	-105.336	-0.190	0.043
-630.522	132.456	0.045	-0.058
-629.507	287.327	-0.075	0.135
-628.492	52.981	0.111	0.107
-627.478	-109.532	-0.137	0.029
-626.463	535.556	0.174	-0.415
-625.449	22.621	-0.206	-0.169
-624.434	-200.000	-0.022	-0.221
-623.419	36.388	-0.179	-0.158
-622.405	-40.034	0.069	-0.036
-621.390	-125.676	0.600	0.091
-620.376	69.037	-0.013	0.014
-619.361	800.000	-0.149	-0.446
-618.346	113.020	-0.138	-0.168
-617.332	-200.000	-0.003	-0.200
-616.317	-179.107	-0.201	-0.005
-615.303	28.533	0.049	-0.042
-614.288	-132.889	0.167	-0.021
-613.273	-107.538	0.099	0.022
-612.259	-200.000	-0.018	-0.088
-611.244	800.000	0.083	-0.256
-610.230	552.226	0.014	-0.034
-609.215	-32.235	-0.265	0.149
-608.201	-101.926	0.187	0.045
-607.186	270.607	0.195	-0.344
-606.171	-159.036	-0.135	0.008
-605.157	-67.276	-0.249	0.098
-604.142	-165.972	-0.209	-0.009
-603.128	-14.428	-0.137	-0.088
-602.113	-147.196	-0.382	0.033
-601.098	362.702	-0.088	0.178
-600.084	-119.011	-0.170	-0.030
-599.069	-200.000	0.013	0.450
-598.055	-18.263	0.115	-0.072
-597.040	-200.000	-0.015	-0.262
-596.025	214.573	-0.043	0.068
-595.011	444.824	-0.063	-0.139
-593.996	-154.585	-0.210	-0.014
-592.982	-200.000	-0.025	-0.249
-591.967	205.778	0.261	0.407
-590.952	497.595	-0.071	0.164
-589.938	-192.398	-0.133	-0.001
-588.923	-11.278	-0.164	-0.108
-587.909	37.770	-0.037	-0.033
-586.894	-46.388	0.190	0.094
-585.879	19.852	-0.143	-0.115
-584.865	800.000	0.109	-0.311
-583.850	269.263	-0.070	-0.122
-582.836	800.000	0.058	-0.163
-581.821	-51.336	0.250	0.117
-580.806	154.042	0.154	-0.212
-579.792	515.525	0.134	-0.313
-578.777	149.904	-0.040	-0.055
-577.763	105.077	-0.081	0.095
-576.748	-4.696	-0.164	-0.114
-575.733	-113.082	-0.155	0.031
-574.719	-200.000	0.054	0.303
-573.704	-200.000	-0.004	-0.252
-572.690	24.691	-0.098	-0.081
-571.675	359.816	0.079	-0.158
-570.661	-200.000	0.022	-0.145
-569.646	-200.000	0.056	-0.274
-568.631	63.035	-0.229	0.230
-567.617	217.253	0.055	0.088
-566.602	322.624	-0.086	0.163
-565.588	37.259	-0.073	-0.065
-564.573	-5.634	-0.184	-0.126
-563.558	-72.559	-0.156	-0.058
-562.544	-29.836	-0.127	0.073
-561.529	-99.738	0.243	-0.061
-560.515	-200.000	-0.016	-0.160
-559.500	-60.151	-0.118	-0.050
-558.485	-11.718	0.209	-0.137
-557.471	-26.026	-0.127	0.075
-556.456	-17.182	0.017	-0.011
-555.442	408.210	-0.126	0.266
-554.427	-94.450	0.118	0.032
-553.412	-125.237	0.341	-0.052
-552.398	-68.575	0.075	0.029
-551.383	181.184	0.071	0.104
-550.369	-200.000	0.017	0.074
-549.354	-200.000	0.066	0.362
-548.339	113.810	0.101	-0.123
-547.325	325.975	-0.042	-0.081
-546.310	521.325	0.115	0.270
-545.296	55.222	-0.256	-0.248
-544.281	-17.092	0.272	-0.172
-543.266	434.619	0.031	-0.067
-542.252	-127.944	0.102	0.015
-541.237	-68.383	0.277	0.108
-540.223	-200.000	-0.013	0.162
-539.208	228.579	0.041	0.067
-538.193	776.203	0.095	0.261
-537.179	-104.345	0.075	0.017
-536.164	400.106	-0.121	0.253
-535.150	-64.722	0.247	-0.100
-534.135	720.547	0.189	0.502
-533.121	-97.872	0.208	-0.054
-532.106	-54.718	0.243	-0.110
-531.091	-200.000	-0.005	-0.096
-530.077	800.000	0.032	0.117
-529.062	-88.298	0.131	-0.039
-528.048	-182.439	0.112	0.002
-527.033	-200.000	-0.037	-0.203
-526.018	264.082	-0.048	-0.084
-525.004	-200.000	-0.026	0.205
-523.989	800.000	0.039	-0.121
-522.975	123.715	-0.145	0.182
-521.960	-68.702	-0.096	0.037
-520.945	-19.365	-0.242	0.150
-519.931	113.056	-0.142	0.172
-518.916	-100.038	-0.114	0.028
-517.902	197.946	0.119	-0.182
-516.887	-200.000	-0.031	-0.192
-515.872	800.000	-0.045	0.172
-514.858	6.404	-0.202	0.150
-513.843	-93.841	-0.329	-0.091
-512.829	419.740	0.148	0.317
-511.814	92.384	0.217	0.244
-510.799	-200.000	0.004	-0.086
-509.785	222.545	-0.155	-0.249
-508.770	800.000	-0.080	-0.337
-507.756	532.452	0.150	-0.355
-506.741	1.740	-0.058	0.042
-505.726	308.533	0.146	0.271
-504.712	-13.631	0.167	-0.108
-503.697	-29.392	0.157	0.090
-502.683	-43.987	0.243	-0.122
-501.668	800.000	-0.110	-0.354
-500.653	313.104	0.155	-0.291
-499.639	24.869	0.012	-0.010
-498.624	800.000	0.187	0.518
-497.610	6.217	-0.550	-0.408
-496.595	-71.199	0.222	-0.083
-495.581	-200.000	0.045	-0.394
-494.566	800.000	-0.070	-0.246
-493.551	485.571	-0.134	-0.304
-492.537	13.973	0.094	-0.073
-491.522	-99.181	-0.214	-0.054
-490.508	-200.000	0.076	-0.580
-489.493	121.801	-0.110	0.138
-488.478	-7.065	0.015	0.010
-487.464	-41.998	-0.207	0.106
-486.449	285.454	0.078	0.141
-485.435	7.105	-0.218	0.162
-484.420	84.338	0.252	0.276
-483.405	-51.114	0.526	0.246
-482.391	-23.956	-0.080	-0.048
-481.376	-102.538	0.046	0.011
-480.362	150.909	-0.116	-0.157
-479.347	-40.222	-0.122	-0.063
-478.332	67.798	-0.308	-0.314
-477.318	681.786	0.126	-0.327
-476.303	54.568	-0.246	0.236
-475.289	-7.362	-0.300	0.202
-474.274	-194.607	-0.140	-0.001
-473.259	87.177	0.173	-0.191
-472.245	80.303	0.291	0.312
-471.230	37.516	0.227	0.201
-470.216	-9.704	0.066	0.044
-469.201	93.303	-0.244	0.276
-468.186	153.596	-0.196	0.268
-467.172	-200.000	0.020	-0.447
-466.157	-26.804	0.362	-0.211
-465.143	125.720	0.071	-0.089
-464.128	-200.000	-0.049	-0.283
-463.113	-60.089	0.202	-0.086
-462.099	-200.000	-0.001	0.159
-461.084	800.000	0.075	0.262
-460.070	-100.777	0.340	-0.083
-459.055	156.320	-0.116	-0.159
-458.040	-114.357	0.248	-0.048
-457.026	-83.672	0.292	0.093
-456.011	-5.019	-0.206	0.141
-454.997	42.089	0.151	0.137
-453.982	800.000	-0.144	0.582
-452.968	120.279	0.036	0.044
-451.953	-200.000	-0.057	-0.397
-450.938	-28.611	0.216	-0.124
-449.924	-91.398	-0.172	-0.049
-448.909	-200.000	0.056	0.266
-447.895	236.835	-0.143	-0.236
-446.880	-200.000	-0.044	0.350
-445.865	-158.956	-0.259	0.015
-444.851	-200.000	0.061	0.301
-443.836	-64.124	-0.044	-0.018
-442.822	-200.000	0.001	-0.202
-441.807	-90.416	-0.283	-0.082
-440.792	-30.865	-0.294	0.166
-439.778	313.973	-0.036	0.067
-438.763	-200.000	-0.005	0.299
-437.749	171.066	0.239	0.341
-436.734	741.029	-0.127	-0.341
-435.719	-200.000	-0.058	-0.442
-434.705	171.786	-0.126	-0.180
-433.690	15.407	-0.226	-0.176
-432.676	-200.000	0.012	0.068
-431.661	123.602	-0.206	0.257
-430.646	-6.951	-0.147	-0.099
-429.632	-196.079	0.201	-0.001
-428.617	214.890	0.124	-0.196
-427.603	-153.937	0.189	-0.013
-426.588	243.236	0.119	0.198
-425.573	17.196	0.241	-0.190
-424.559	269.985	-0.080	0.139
-423.544	800.000	-0.089	-0.255
-422.530	800.000	-0.083	-0.299
-421.515	154.162	-0.180	-0.246
-420.500	13.187	0.239	0.185
-419.486	206.536	0.298	-0.462
-418.471	-7.871	-0.183	-0.123
-417.457	32.781	0.032	0.027
-416.442	-139.588	-0.440	0.047
-415.428	-8.316	-0.228	0.153
-414.413	-151.449	0.266	-0.020
-413.398	-43.715	0.328	0.164
-412.384	800.000	-0.057	-0.189
-411.369	-147.621	-0.274	-0.023
-410.355	-79.364	-0.181	-0.061
-409.340	36.212	-0.111	0.098
-408.325	-61.685	-0.232	-0.097
-407.311	20.612	-0.041	-0.033
-406.296	-200.000	0.044	-0.269
-405.282	-125.382	0.193	-0.029
-404.267	-31.204	0.441	-0.248
-403.252	-200.000	-0.029	0.127
-402.238	15.152	0.335	-0.262
-401.223	-60.832	0.337	-0.142
-400.209	-200.000	0.026	0.214
-399.194	-200.000	0.033	0.204
-398.179	800.000	0.094	0.269
-397.165	270.761	-0.152	-0.266
-396.150	0.052	-0.075	-0.053
-395.136	389.810	-0.041	-0.084
-394.121	51.859	-0.174	-0.164
-393.106	-200.000	-0.013	-0.079
-392.092	673.614	0.089	-0.229
-391.077	-28.501	-0.277	-0.159
-390.063	-200.000	0.112	0.518
-389.048	-200.000	0.073	0.525
-388.033	769.544	0.075	0.204
-387.019	-200.000	0.005	0.163
-386.004	113.078	-0.130	0.157
-384.990	168.855	-0.048	0.068
-383.975	476.384	-0.197	0.442
-382.960	356.919	-0.049	0.097
-381.946	-153.282	-0.193	-0.013
-380.931	-9.829	-0.078	0.051
-379.917	-200.000	-0.015	0.100
-378.902	800.000	0.025	-0.108
-377.888	144.499	-0.189	-0.251
-376.873	29.765	0.099	0.084
-375.858	273.344	0.143	0.252
-374.844	-39.329	0.127	0.066
-373.829	800.000	-0.096	-0.377
-372.815	-45.135	0.264	0.131
-371.800	-200.000	0.007	0.044
-370.785	143.070	-0.156	-0.206
-369.771	16.340	0.069	0.054
-368.756	800.000	-0.041	0.179
-367.742	-113.255	-0.126	0.025
-366.727	-87.968	-0.052	-0.016
-365.712	153.344	0.122	-0.166
-364.698	-106.586	0.290	0.064
-363.683	-200.000	-0.041	0.241
-362.669	272.571	-0.022	0.038
-361.654	-131.479	0.515	-0.067
-360.639	-72.555	0.122	0.045
-359.625	-22.626	-0.242	0.145
-358.610	65.011	-0.169	-0.170
-357.596	72.921	-0.050	-0.052
-356.581	73.156	0.156	0.162
-355.566	800.000	0.067	0.277
-354.552	-15.868	0.114	0.072
-353.537	654.739	0.145	0.369
-352.523	18.647	-0.164	-0.130
-351.508	601.392	-0.052	-0.128
-350.493	359.128	0.096	0.191
-349.479	-200.000	-0.011	0.140
-348.464	-61.013	0.145	-0.061
-347.450	-144.870	0.209	0.019
-346.435	48.378	0.478	-0.444
-345.420	21.591	-0.190	-0.154
-344.406	-59.754	0.278	-0.118
-343.391	-200.000	0.001	0.105
-342.377	274.458	0.171	-0.301
-341.362	743.304	-0.050	-0.132
-340.348	43.627	-0.010	-0.009
-339.333	-27.315	0.249	0.144
-338.318	-15.365	0.135	-0.086
-337.304	-113.296	-0.227	-0.044
-336.289	96.606	-0.203	0.230
-335.275	74.564	-0.071	-0.074
-334.260	233.275	-0.152	-0.248
-333.245	20.250	-0.154	0.123
-332.231	23.723	-0.095	-0.078
-331.216	723.600	-0.060	-0.160
-330.202	149.208	0.116	0.156
-329.187	-200.000	-0.016	-0.099
-328.172	43.797	0.153	0.139
-327.158	27.680	-0.088	0.074
-326.143	14.374	0.114	-0.088
-325.129	-200.000	-0.042	-0.210
-324.114	-200.000	0.010	0.115
-323.099	-137.757	0.217	0.024
-322.085	629.835	-0.100	0.250
-321.070	-42.836	0.270	0.136
-320.056	50.025	-0.151	-0.142
-319.041	-84.929	0.273	-0.085
-318.026	800.000	-0.059	-0.162
-317.012	-102.271	0.156	-0.037
-315.997	-140.934	0.195	0.020
-314.983	-25.216	-0.132	0.078
-313.968	-18.380	-0.349	-0.216
-312.953	158.806	0.128	0.176
-311.939	61.234	-0.327	0.322
-310.924	-93.440	0.317	0.087
-309.910	635.573	0.130	0.328
-308.895	129.691	0.099	0.125
-307.880	-135.426	0.233	-0.028
-306.866	-30.649	0.201	-0.113
-305.851	257.632	0.065	0.111
-304.837	-162.649	-0.196	-0.010
-303.822	-105.595	-0.029	-0.007
-302.807	-55.068	-0.322	0.144
-301.793	5.976	-0.104	0.076
-300.778	15.044	-0.098	0.076
-299.764	-90.492	-0.091	0.026
-298.749	742.744	0.083	-0.222
-297.735	-36.068	-0.211	0.113
-296.720	-200.000	-0.015	-0.076
-295.705	-200.000	-0.012	-0.163
-294.691	-143.102	0.362	0.035
-293.676	-200.000	-0.107	0.511
-292.662	156.434	0.124	0.170
-291.647	392.891	0.027	0.056
-290.632	-6.267	-0.107	-0.072
-289.618	-200.000	0.037	-0.571
-288.603	9.496	-0.109	0.081
-287.589	800.000	0.063	-0.242
-286.574	-108.580	0.076	0.016
-285.559	762.383	-0.064	0.171
-284.545	-88.471	-0.213	0.063
-283.530	-136.001	0.101	-0.012
-282.516	203.641	-0.279	0.428
-281.501	556.192	0.110	-0.261
-280.486	-133.857	0.318	0.039
-279.472	240.395	0.042	0.069
-278.457	-175.978	-0.146	0.004
-277.443	40.512	-0.197	0.175
-276.428	198.494	0.159	-0.242
-275.413	702.946	-0.144	0.376
-274.399	-106.164	-0.143	0.032
-273.384	201.107	-0.050	0.076
-272.370	-53.324	-0.114	0.052
-271.355	-200.000	-0.007	0.031
-270.340	-154.118	-0.020	-0.001
-269.326	-200.000	0.027	0.273
-268.311	30.128	-0.175	0.148
-267.297	191.910	0.200	-0.298
-266.282	297.465	-0.061	0.111
-265.267	-46.421	0.161	-0.078
-264.253	171.035	-0.216	-0.306
-263.238	754.788	0.044	0.117
-262.224	-6.558	0.037	0.025
-261.209	49.122	0.185	0.172
-260.195	60.438	-0.097	-0.095
-259.180	-83.301	-0.324	0.103
-258.165	-200.000	-0.025	-0.398
-257.151	186.025	-0.067	0.099
-256.136	187.203	-0.136	0.201
-255.122	152.326	0.140	0.189
-254.107	-200.000	0.023	0.101
-253.092	-200.000	-0.017	0.224
-252.078	27.955	-0.170	-0.142
-251.063	-200.000	0.065	0.330
-250.049	-134.038	0.112	0.014
-249.034	-146.950	-0.134	-0.011
-248.019	-41.585	0.117	0.060
-247.005	250.174	0.150	0.251
-245.990	209.404	0.101	0.156
-244.976	-163.243	-0.387	0.018
-243.961	50.066	0.214	-0.200
-242.946	186.461	-0.285	-0.419
-241.932	-145.439	-0.113	0.010
-240.917	-200.000	-0.036	-0.288
-239.903	-191.014	-0.171	0.002
-238.888	746.786	-0.076	-0.203
-237.873	497.016	0.080	-0.183
-236.859	-78.429	-0.206	-0.070
-235.844	-200.000	-0.061	-0.274
-234.830	105.711	0.217	-0.253
-233.815	66.705	-0.245	0.247
-232.800	-200.000	0.041	-0.389
-231.786	-106.648	0.160	-0.035
-230.771	255.101	-0.023	0.038
-229.757	231.128	-0.051	0.083
-228.742	-186.856	-0.276	0.004
-227.727	289.852	-0.317	0.568
-226.713	-47.618	0.245	0.117
-225.698	-169.620	-0.158	-0.006
-224.684	-60.784	-0.256	-0.107
-223.669	-79.456	-0.145	0.048
-222.655	-180.557	0.114	0.002
-221.640	800.000	-0.066	0.212
-220.625	-200.000	-0.028	0.319
-219.611	-85.411	0.156	0.048
-218.596	186.007	-0.069	0.102
-217.582	-166.410	0.384	-0.016
-216.567	-7.276	-0.307	0.205
-215.552	4.285	0.219	-0.158
-214.538	222.957	-0.131	-0.209
-213.523	5.635	0.149	-0.108
-212.509	-200.000	0.024	0.270
-211.494	800.000	0.069	-0.223
-210.479	-157.756	0.262	-0.015
-209.465	-27.623	-0.175	0.101
-208.450	800.000	-0.075	-0.298
-207.436	-118.458	0.306	0.053
-206.421	800.000	0.037	-0.151
-205.406	-200.000	-0.043	0.250
-204.392	-200.000	0.011	0.062
-203.377	124.663	-0.089	-0.111
-202.363	-137.952	-0.047	0.005
-201.348	-105.765	-0.381	0.085
-200.333	-200.000	0.099	0.519
-199.319	70.448	-0.107	-0.109
-198.304	768.672	0.099	-0.265
-197.290	-51.301	0.166	-0.077
-196.275	-52.480	0.184	0.084
-195.260	204.969	0.101	0.155
-194.246	79.177	0.268	0.283
-193.231	-62.164	0.147	0.060
-192.217	19.999	0.339	-0.269
-191.202	154.122	0.090	0.121
-190.187	-26.672	-0.082	-0.047
-189.173	285.682	0.190	0.337
-188.158	285.536	0.074	-0.132
-187.144	-90.431	0.154	0.044
-186.129	-135.516	0.256	0.030
-185.114	-80.180	-0.330	-0.109
-184.100	65.329	0.178	0.177
-183.085	800.000	0.044	-0.139
-182.071	274.678	-0.051	0.089
-181.056	10.359	0.178	0.134
-180.042	261.644	-0.154	0.263
-179.027	-200.000	-0.051	-0.366
-178.012	800.000	0.064	-0.235
-176.998	-83.399	0.207	-0.066
-175.983	-98.489	-0.212	0.053
-174.969	-200.000	-0.002	-0.312
-173.954	17.271	-0.368	0.288
-172.939	-200.000	0.019	0.100
-171.925	-200.000	-0.035	0.186
-170.910	-165.250	0.198	0.009
-169.896	-200.000	0.034	-0.251
-168.881	-127.751	-0.096	-0.014
-167.866	455.764	-0.032	-0.069
-166.852	800.000	0.030	-0.105
-165.837	-200.000	-0.128	0.713
-164.823	-200.000	0.029	-0.271
-163.808	128.815	-0.055	-0.069
-162.793	-17.594	-0.272	0.168
-161.779	-87.516	0.155	-0.046
-160.764	506.271	-0.120	-0.274
-159.750	-85.818	-0.423	0.129
-158.735	-200.000	0.022	-0.147
-157.720	139.398	-0.223	0.289
-156.706	800.000	-0.061	0.222
-155.691	800.000	-0.104	-0.409
-154.677	62.296	-0.078	0.077
-153.662	771.488	-0.056	0.151
-152.647	-57.882	-0.121	-0.052
-151.633	256.512	-0.126	-0.214
-150.618	-200.000	0.038	-0.345
-149.604	-200.000	-0.036	0.181
-148.589	-200.000	0.027	0.199
-147.574	557.145	0.027	0.063
-146.560	61.270	-0.282	-0.276
-145.545	-200.000	-0.031	-0.269
-144.531	-162.611	0.157	-0.008
-143.516	-200.000	-0.014	0.221
-142.502	229.753	-0.133	0.215
-141.487	15.999	-0.129	-0.100
-140.472	-142.558	0.246	0.024
-139.458	-51.025	0.434	-0.201
-138.443	800.000	0.064	0.214
-137.429	-200.000	0.010	0.187
-136.414	-23.893	0.099	-0.058
-135.399	348.135	0.088	0.171
-134.385	-84.244	0.245	-0.077
-133.370	-200.000	-0.015	-0.404
-132.356	-18.676	0.021	0.013
-131.341	-0.390	-0.050	-0.035
-130.326	-200.000	-0.003	-0.233
-129.312	474.103	-0.042	0.093
-128.297	-146.671	-0.150	0.013
-127.283	44.120	0.110	-0.099
-126.268	-61.328	0.166	0.069
-125.253	-36.509	0.192	-0.102
-124.239	-151.823	0.346	-0.025
-123.224	233.362	0.150	-0.243
-122.210	382.522	-0.070	0.142
