DTS Sentinel unit serial number:	SN413079Multiplexer serial number:	ORYXHardware model number:	OX4-SRSoftware version number:	ORYX F/W v4.00 Oryx Data Collector v3.7.2.0data status	okinstallation	princeton_trtdifferential loss correction	single-endedforward channel	channel 1reverse channel	N/Adate	2019/09/17time	13:34:36forward acquisition time	60.00reverse acquisition time	0.00gamma	496.2192k internal	0.2306k external	0.2306temperature offset calibration	0.9969default loss term (dB/km)	0.3790temperature slope calibration	1.0000multiplexer offset coefficient	1.0000multiplexer slope coefficient	1.0000fibre end	0.00T internal ref (°C)	34.69T ext. ref 1 (°C)	0.42T ext. ref 2 (°C)	31.77length (m)	temperature (°C)	Stokes	anti-Stokes-747.200	-200.000	0.024	0.173
-746.185	-200.000	0.051	-0.468
-745.171	166.491	0.223	-0.322
-744.156	163.998	0.095	0.136
-743.142	-97.170	0.150	-0.040
-742.127	-2.025	-0.102	-0.073
-741.112	8.831	0.183	-0.140
-740.098	-116.990	-0.290	-0.054
-739.083	-11.680	0.086	0.057
-738.069	-82.807	-0.172	0.057
-737.054	80.644	0.186	-0.204
-736.039	173.175	-0.140	0.206
-735.025	-47.651	0.215	-0.106
-734.010	300.833	-0.079	0.148
-732.996	-28.665	-0.297	-0.174
-731.981	254.479	0.034	0.059
-730.966	800.000	-0.067	-0.237
-729.952	-77.553	-0.219	-0.077
-728.937	-200.000	-0.013	-0.465
-727.923	268.102	0.114	-0.203
-726.908	-79.787	0.044	0.015
-725.894	-43.470	0.127	0.065
-724.879	236.504	0.160	0.269
-723.864	192.161	-0.222	-0.340
-722.850	800.000	0.054	-0.186
-721.835	-43.336	-0.256	0.131
-720.821	10.209	0.060	0.046
-719.806	-200.000	0.004	-0.041
-718.791	-136.440	-0.285	-0.034
-717.777	430.952	-0.219	-0.481
-716.762	496.017	-0.129	-0.300
-715.748	800.000	-0.045	-0.180
-714.733	-200.000	-0.037	0.213
-713.718	614.021	-0.071	0.180
-712.704	-109.882	0.101	-0.021
-711.689	800.000	-0.057	0.200
-710.675	-73.625	0.125	0.046
-709.660	127.864	-0.084	-0.109
-708.645	83.077	0.090	-0.100
-707.631	-139.968	-0.254	0.027
-706.616	800.000	-0.062	-0.246
-705.602	-74.042	0.202	-0.074
-704.587	275.920	0.043	-0.078
-703.572	204.968	0.076	0.119
-702.558	-124.744	0.300	0.047
-701.543	266.866	0.157	0.279
-700.529	-12.356	0.130	0.086
-699.514	-200.000	-0.062	-0.535
-698.499	-38.155	-0.174	-0.093
-697.485	390.655	0.116	-0.243
-696.470	-145.342	-0.269	-0.025
-695.456	152.895	-0.135	-0.188
-694.441	800.000	0.059	-0.222
-693.426	186.819	0.021	-0.031
-692.412	20.207	0.201	-0.165
-691.397	-104.020	0.326	0.077
-690.383	800.000	0.052	0.222
-689.368	-200.000	0.035	-0.190
-688.354	-129.571	-0.145	0.020
-687.339	-200.000	0.043	-0.219
-686.324	-68.073	-0.378	0.149
-685.310	-111.788	-0.480	0.099
-684.295	18.302	-0.139	0.112
-683.281	299.338	-0.129	0.242
-682.266	404.783	0.094	0.201
-681.251	115.375	0.012	0.015
-680.237	280.457	0.175	-0.318
-679.222	-92.130	0.369	0.106
-678.208	800.000	0.070	-0.245
-677.193	22.392	-0.182	0.151
-676.178	-113.602	0.368	0.073
-675.164	97.578	-0.213	0.248
-674.149	-200.000	-0.013	0.427
-673.135	-114.554	-0.267	0.052
-672.120	175.476	-0.204	-0.299
-671.105	-200.000	0.004	-0.336
-670.091	549.206	0.198	-0.481
-669.076	-112.014	-0.206	-0.042
-668.062	-200.000	0.004	-0.173
-667.047	-200.000	-0.034	-0.238
-666.032	-200.000	0.023	-0.212
-665.018	736.717	0.117	-0.317
-664.003	633.128	0.024	-0.062
-662.989	-200.000	0.005	-0.142
-661.974	-110.547	-0.240	0.050
-660.959	308.619	0.073	0.139
-659.945	-86.193	0.284	-0.089
-658.930	120.390	0.155	0.195
-657.916	-73.226	0.036	0.014
-656.901	-70.738	-0.318	0.122
-655.886	-200.000	0.021	-0.198
-654.872	470.331	-0.053	-0.120
-653.857	219.256	0.124	-0.201
-652.843	314.136	0.156	0.298
-651.828	13.695	0.465	0.366
-650.814	425.619	0.072	0.156
-649.799	800.000	-0.088	-0.268
-648.784	-63.634	0.064	-0.026
-647.770	-200.000	-0.054	-0.260
-646.755	-61.877	0.235	0.100
-645.741	800.000	0.026	-0.104
-644.726	111.243	-0.163	-0.199
-643.711	-87.043	0.178	-0.055
-642.697	-135.466	-0.250	0.030
-641.682	3.544	0.323	0.239
-640.668	-40.197	-0.047	0.025
-639.653	775.358	0.031	-0.086
-638.638	110.755	0.088	0.108
-637.624	-97.655	0.036	0.009
-636.609	800.000	-0.060	-0.173
-635.595	168.672	-0.113	-0.163
-634.580	162.287	-0.149	0.212
-633.565	58.603	-0.196	0.195
-632.551	-50.016	0.071	0.034
-631.536	206.854	0.122	0.192
-630.522	729.553	0.099	-0.267
-629.507	-200.000	0.001	0.170
-628.492	200.716	0.112	-0.175
-627.478	-118.429	0.181	-0.032
-626.463	-200.000	0.039	0.228
-625.449	800.000	-0.030	0.111
-624.434	25.633	-0.117	0.098
-623.419	-200.000	-0.045	0.255
-622.405	-27.001	0.102	-0.060
-621.390	-200.000	0.014	-0.098
-620.376	121.404	0.083	-0.105
-619.361	-200.000	-0.044	-0.227
-618.346	79.955	0.060	-0.065
-617.332	-200.000	-0.004	0.061
-616.317	-13.610	-0.164	0.108
-615.303	181.549	0.028	-0.042
-614.288	29.633	-0.179	0.154
-613.273	99.796	-0.013	-0.016
-612.259	84.533	-0.041	-0.045
-611.244	114.879	-0.282	-0.348
-610.230	-160.884	0.257	-0.014
-609.215	-200.000	0.085	-0.454
-608.201	-200.000	-0.054	0.440
-607.186	800.000	-0.057	0.236
-606.171	-200.000	0.010	-0.267
-605.157	115.916	0.061	0.075
-604.142	-27.000	-0.126	-0.075
-603.128	-200.000	0.002	0.132
-602.113	800.000	0.016	-0.053
-601.098	47.128	-0.077	0.072
-600.084	-190.928	0.314	-0.003
-599.069	800.000	-0.029	-0.084
-598.055	-73.197	-0.362	0.134
-597.040	-131.293	-0.257	0.034
-596.025	800.000	-0.015	0.051
-595.011	11.683	0.199	0.154
-593.996	348.872	0.057	0.113
-592.982	134.332	0.098	0.128
-591.967	185.764	-0.191	-0.287
-590.952	-108.253	0.116	-0.025
-589.938	-200.000	-0.060	-0.458
-588.923	-21.007	-0.134	-0.083
-587.909	-20.126	0.224	-0.139
-586.894	107.671	-0.115	0.138
-585.879	680.060	-0.039	0.103
-584.865	-200.000	-0.143	0.000
-583.850	800.000	-0.054	0.177
-582.836	418.317	-0.119	-0.257
-581.821	-173.455	0.420	-0.013
-580.806	274.019	0.080	0.143
-579.792	86.700	0.165	-0.184
-578.777	39.825	0.193	0.175
-577.763	-123.065	-0.372	-0.060
-576.748	-112.977	-0.149	0.030
-575.733	108.560	-0.089	0.108
-574.719	800.000	-0.070	-0.278
-573.704	-17.032	-0.167	0.107
-572.690	430.596	-0.033	0.072
-571.675	29.373	0.220	-0.189
-570.661	-48.752	0.185	0.090
-569.646	-105.115	-0.192	-0.044
-568.631	-54.395	0.228	-0.105
-567.617	-43.442	-0.285	-0.146
-566.602	416.675	0.144	0.310
-565.588	-69.170	-0.219	-0.085
-564.573	800.000	-0.007	-0.029
-563.558	-145.543	0.202	-0.018
-562.544	33.304	-0.151	-0.132
-561.529	77.212	0.140	-0.150
-560.515	31.185	0.137	-0.118
-559.500	284.679	-0.249	0.453
-558.485	39.192	0.151	0.137
-557.471	-18.834	-0.118	0.074
-556.456	-200.000	0.019	0.153
-555.442	-200.000	0.016	0.229
-554.427	88.960	-0.205	-0.231
-553.412	-72.151	0.228	0.085
-552.398	-157.533	-0.054	0.003
-551.383	628.197	0.079	0.202
-550.369	208.713	-0.074	0.116
-549.354	-44.867	-0.161	-0.081
-548.339	-66.864	0.432	0.172
-547.325	800.000	0.035	0.107
-546.310	800.000	-0.081	-0.347
-545.296	-43.309	0.327	-0.167
-544.281	-200.000	0.014	-0.203
-543.266	-33.827	0.255	-0.142
-542.252	36.710	0.231	-0.206
-541.237	340.709	0.029	0.056
-540.223	17.855	0.192	0.154
-539.208	-106.867	-0.280	0.063
-538.193	-66.590	-0.185	-0.074
-537.179	-70.367	-0.082	0.031
-536.164	800.000	0.047	0.189
-535.150	-134.977	0.122	-0.015
-534.135	365.596	0.108	0.220
-533.121	84.742	0.204	0.226
-532.106	215.465	-0.168	0.269
-531.091	275.683	0.140	-0.250
-530.077	-200.000	-0.013	-0.074
-529.062	-40.876	-0.332	0.173
-528.048	800.000	-0.032	0.101
-527.033	-106.105	-0.080	0.018
-526.018	-113.784	-0.243	0.048
-525.004	-167.407	-0.082	-0.003
-523.989	95.796	0.137	-0.157
-522.975	257.985	-0.123	0.213
-521.960	-200.000	0.031	0.523
-520.945	-64.486	0.149	-0.061
-519.931	-200.000	0.009	-0.294
-518.916	56.593	-0.285	0.279
-517.902	173.932	-0.051	0.074
-516.887	-79.560	0.067	0.023
-515.872	152.556	-0.111	0.152
-514.858	233.262	0.019	-0.032
-513.843	657.453	-0.117	-0.303
-512.829	79.824	-0.144	-0.156
-511.814	800.000	-0.094	0.261
-510.799	-200.000	-0.023	-0.127
-509.785	41.467	0.120	-0.109
-508.770	-96.258	-0.231	-0.062
-507.756	-200.000	-0.018	-0.134
-506.741	800.000	-0.040	0.174
-505.726	800.000	-0.213	-0.752
-504.712	229.587	-0.151	-0.249
-503.697	56.329	0.089	0.087
-502.683	223.333	0.223	0.363
-501.668	-200.000	0.012	-0.384
-500.653	6.923	-0.104	-0.078
-499.639	142.589	-0.166	-0.222
-498.624	-140.938	-0.322	0.033
-497.610	800.000	0.050	0.198
-496.595	-200.000	-0.007	-0.049
-495.581	-176.480	0.352	-0.009
-494.566	800.000	-0.013	-0.036
-493.551	-114.166	-0.131	0.026
-492.537	28.542	-0.119	-0.101
-491.522	800.000	0.022	0.061
-490.508	800.000	0.068	-0.278
-489.493	14.265	-0.232	0.182
-488.478	-48.665	0.121	-0.059
-487.464	-127.969	0.227	-0.033
-486.449	-200.000	-0.079	-0.456
-485.435	-153.496	0.191	-0.013
-484.420	221.214	-0.182	0.294
-483.405	-74.606	-0.199	0.072
-482.391	316.813	0.195	0.370
-481.376	800.000	0.018	-0.068
-480.362	105.032	0.105	0.124
-479.347	307.414	0.108	0.203
-478.332	-117.195	0.223	-0.041
-477.318	-200.000	-0.021	0.118
-476.303	294.181	0.229	-0.421
-475.289	800.000	-0.029	0.108
-474.274	-200.000	-0.044	0.383
-473.259	171.920	-0.085	-0.123
-472.245	-90.376	0.394	-0.115
-471.230	-200.000	-0.032	0.451
-470.216	-64.648	0.268	0.109
-469.201	-105.096	-0.260	-0.060
-468.186	5.085	-0.292	0.216
-467.172	-175.944	-0.323	0.009
-466.157	-31.160	-0.228	-0.130
-465.143	-57.197	0.112	0.050
-464.128	-11.595	0.294	-0.194
-463.113	188.253	-0.169	0.254
-462.099	-129.954	-0.092	0.013
-461.084	-59.033	-0.231	-0.100
-460.070	800.000	-0.101	-0.330
-459.055	-131.812	0.106	-0.014
-458.040	-151.696	0.226	0.017
-457.026	-82.159	-0.203	-0.067
-456.011	-163.168	0.228	-0.011
-454.997	-53.872	-0.270	-0.124
-453.982	204.112	-0.301	-0.470
-452.968	-39.313	0.320	-0.169
-451.953	-157.161	-0.125	0.008
-450.938	14.400	0.218	-0.171
-449.924	595.461	-0.041	0.103
-448.909	-23.616	-0.343	0.207
-447.895	-122.201	-0.312	-0.051
-446.880	-200.000	0.028	0.164
-445.865	-113.018	0.138	-0.027
-444.851	-9.722	0.069	-0.046
-443.836	214.259	0.134	-0.213
-442.822	800.000	-0.096	-0.269
-441.807	-53.918	-0.324	0.148
-440.792	800.000	0.061	0.189
-439.778	316.712	0.300	0.570
-438.763	-88.810	-0.071	0.021
-437.749	-200.000	0.034	0.239
-436.734	-152.651	0.416	-0.030
-435.719	110.130	0.157	0.189
-434.705	-33.756	-0.217	-0.120
-433.690	315.421	-0.068	0.129
-432.676	-107.351	0.157	0.035
-431.661	-64.084	0.188	0.077
-430.646	55.486	-0.050	0.049
-429.632	800.000	0.089	0.302
-428.617	800.000	-0.057	-0.199
-427.603	800.000	-0.121	-0.389
-426.588	472.679	-0.026	-0.060
-425.573	-200.000	-0.001	0.184
-424.559	31.106	0.034	-0.029
-423.544	-200.000	-0.009	-0.044
-422.530	-200.000	0.055	0.285
-421.515	-47.421	-0.292	-0.142
-420.500	353.810	0.064	-0.128
-419.486	-59.377	0.060	0.026
-418.471	-61.830	-0.246	0.104
-417.457	-200.000	0.022	0.291
-416.442	-200.000	0.022	0.140
-415.428	611.666	-0.050	0.125
-414.413	-200.000	0.000	0.031
-413.398	-200.000	0.012	-0.109
-412.384	-191.788	-0.208	-0.002
-411.369	68.292	-0.226	-0.232
-410.355	104.742	0.133	-0.157
-409.340	45.237	-0.083	-0.077
-408.325	-46.040	0.071	-0.035
-407.311	17.865	0.165	0.132
-406.296	-8.681	-0.054	0.036
-405.282	-63.930	0.359	0.147
-404.267	-200.000	0.020	0.126
-403.252	800.000	0.094	0.274
-402.238	-200.000	0.005	-0.062
-401.223	-102.357	-0.140	-0.034
-400.209	-107.629	-0.425	-0.093
-399.194	-23.924	0.143	0.086
-398.179	12.119	-0.115	-0.089
-397.165	62.589	-0.281	0.281
-396.150	-155.679	0.086	0.006
-395.136	-55.134	-0.121	0.054
-394.121	30.155	-0.130	0.112
-393.106	-200.000	-0.216	0.000
-392.092	29.425	0.119	0.102
-391.077	-13.954	0.177	0.115
-390.063	-126.366	-0.103	0.015
-389.048	-134.172	0.209	0.026
-388.033	159.640	0.126	0.176
-387.019	-57.692	0.305	0.134
-386.004	-101.731	0.212	-0.051
-384.990	5.546	-0.174	-0.129
-383.975	-200.000	0.050	0.351
-382.960	179.642	-0.054	0.079
-381.946	-96.922	-0.140	0.037
-380.931	58.897	-0.132	-0.131
-379.917	-30.870	0.114	0.065
-378.902	-158.423	0.247	0.014
-377.888	494.612	0.079	0.182
-376.873	88.000	-0.164	0.182
-375.858	-103.063	0.279	-0.066
-374.844	225.641	-0.093	0.150
-373.829	46.484	0.039	0.036
-372.815	-98.283	-0.106	-0.027
-371.800	49.525	0.092	-0.087
-370.785	42.797	0.102	-0.093
-369.771	800.000	0.050	-0.217
-368.756	-200.000	0.040	0.186
-367.742	800.000	-0.022	0.085
-366.727	128.895	0.285	-0.365
-365.712	800.000	-0.108	0.475
-364.698	-34.902	0.080	-0.044
-363.683	-146.445	0.166	-0.015
-362.669	63.994	0.122	0.123
-361.654	-56.177	-0.280	-0.125
-360.639	321.232	0.092	-0.176
-359.625	-200.000	0.066	-0.352
-358.610	-119.685	0.182	0.032
-357.596	-200.000	-0.022	-0.140
-356.581	-200.000	0.025	0.385
-355.566	8.713	0.125	-0.094
-354.552	-122.332	0.366	0.060
-353.537	-36.820	0.427	-0.230
-352.523	800.000	-0.162	-0.482
-351.508	209.130	0.098	0.153
-350.493	-28.013	-0.133	-0.077
-349.479	-46.128	0.298	-0.147
-348.464	-200.000	-0.027	0.216
-347.450	686.153	0.090	0.234
-346.435	-129.121	0.170	0.024
-345.420	318.380	-0.206	0.391
-344.406	-200.000	0.002	0.131
-343.391	-88.423	-0.222	-0.066
-342.377	-200.000	-0.004	0.408
-341.362	-78.757	-0.296	-0.101
-340.348	-10.353	-0.252	-0.167
-339.333	43.013	0.066	0.060
-338.318	-97.507	-0.246	0.064
-337.304	-51.450	-0.120	-0.056
-336.289	-110.320	-0.082	0.017
-335.275	-107.035	-0.201	0.044
-334.260	471.651	0.019	-0.044
-333.245	-200.000	0.018	-0.124
-332.231	-200.000	-0.004	-0.028
-331.216	-170.687	0.124	-0.004
-330.202	800.000	0.097	-0.308
-329.187	-147.798	0.170	-0.014
-328.172	-49.368	-0.323	0.154
-327.158	-200.000	-0.028	0.165
-326.143	-131.672	-0.106	0.014
-325.129	53.022	-0.307	0.294
-324.114	624.244	0.084	-0.212
-323.099	147.930	0.124	-0.167
-322.085	11.412	0.114	0.087
-321.070	-133.571	0.317	-0.040
-320.056	-200.000	-0.033	-0.190
-319.041	-118.469	-0.258	0.046
-318.026	-200.000	-0.037	0.348
-317.012	-134.973	0.241	-0.029
-315.997	-38.148	0.049	0.026
-314.983	83.604	0.067	-0.074
-313.968	-200.000	-0.099	0.448
-312.953	-200.000	-0.042	0.284
-311.939	9.891	0.151	-0.115
-310.924	-200.000	-0.038	0.179
-309.910	171.725	-0.170	-0.245
-308.895	-144.945	-0.170	-0.016
-307.880	135.424	-0.107	-0.139
-306.866	-84.434	0.043	-0.014
-305.851	573.225	-0.221	-0.538
-304.837	26.459	-0.153	0.128
-303.822	496.189	0.059	0.135
-302.807	116.984	0.243	0.299
-301.793	537.414	-0.072	-0.172
-300.778	30.679	-0.239	-0.205
-299.764	-200.000	0.009	0.293
-298.749	-99.388	-0.055	-0.014
-297.735	-38.571	-0.198	0.105
-296.720	-48.181	0.103	0.050
-295.705	368.780	-0.161	-0.325
-294.691	29.233	0.042	-0.036
-293.676	369.935	0.135	0.274
-292.662	25.162	0.220	-0.182
-291.647	29.484	0.206	-0.175
-290.632	31.463	-0.330	-0.283
-289.618	254.698	-0.160	0.274
-288.603	-100.959	-0.222	0.054
-287.589	-31.610	0.322	-0.181
-286.574	77.245	-0.166	0.176
-285.559	479.948	-0.108	-0.245
-284.545	40.027	-0.030	-0.027
-283.530	-36.726	0.171	-0.092
-282.516	-37.276	-0.111	0.059
-281.501	-161.184	0.218	-0.011
-280.486	-84.452	0.346	0.109
-279.472	-90.714	0.199	-0.057
-278.457	-64.474	-0.140	0.057
-277.443	66.728	-0.060	0.061
-276.428	-119.067	-0.069	0.012
-275.413	-87.009	0.071	-0.022
-274.399	-200.000	-0.013	0.134
-273.384	-174.962	0.189	0.005
-272.370	280.528	0.172	-0.307
-271.355	-119.051	-0.120	0.021
-270.340	77.526	0.046	0.049
-269.326	11.910	-0.225	0.173
-268.311	89.366	0.264	-0.294
-267.297	100.509	0.155	0.180
-266.282	-86.371	-0.160	0.049
-265.267	-200.000	-0.172	0.001
-264.253	-172.732	0.200	0.006
-263.238	-81.732	0.287	0.094
-262.224	-200.000	-0.028	-0.182
-261.209	215.872	-0.116	0.184
-260.195	5.551	-0.124	0.091
-259.180	317.100	-0.030	0.057
-258.165	-82.794	0.144	0.046
-257.151	51.444	-0.110	-0.104
-256.136	-200.000	0.035	0.437
-255.122	41.292	-0.084	0.076
-254.107	66.358	-0.221	0.224
-253.092	153.977	-0.092	0.126
-252.078	218.708	-0.158	-0.253
-251.063	-113.955	-0.299	0.058
-250.049	-150.387	-0.290	-0.022
-249.034	224.537	0.055	-0.088
-248.019	-200.000	-0.005	-0.077
-247.005	322.102	0.131	-0.249
-245.990	800.000	0.117	-0.352
-244.976	147.243	-0.284	-0.382
-243.961	-81.277	0.238	0.078
-242.946	800.000	0.050	0.139
-241.932	-69.134	0.150	-0.057
-240.917	-165.562	0.563	0.024
-239.903	193.255	-0.139	-0.210
-238.888	-93.650	0.087	0.024
-237.873	54.453	0.192	-0.185
-236.859	49.710	0.181	0.170
-235.844	-96.483	-0.182	-0.048
-234.830	-15.861	0.086	-0.055
-233.815	-200.000	-0.001	0.137
-232.800	-200.000	-0.021	0.167
-231.786	3.128	-0.146	-0.106
-230.771	-1.695	0.036	-0.025
-229.757	24.355	-0.303	-0.249
-228.742	800.000	-0.102	-0.282
-227.727	-200.000	0.010	0.068
-226.713	141.963	-0.114	0.151
-225.698	-140.678	0.135	-0.014
-224.684	800.000	-0.049	-0.182
-223.669	-38.444	0.297	-0.156
-222.655	-195.591	-0.053	0.000
-221.640	800.000	-0.058	-0.225
-220.625	-111.896	-0.337	-0.068
-219.611	-200.000	0.034	-0.164
-218.596	-109.237	0.241	0.051
-217.582	90.365	0.094	-0.105
-216.567	-65.886	-0.315	-0.125
-215.552	352.108	-0.102	0.202
-214.538	448.449	-0.112	0.245
-213.523	277.857	-0.102	0.180
-212.509	392.701	-0.131	-0.272
-211.494	-108.694	-0.058	-0.012
-210.479	800.000	0.053	-0.157
-209.465	30.145	-0.152	-0.129
-208.450	263.524	-0.089	-0.154
-207.436	-200.000	0.028	0.293
-206.421	-21.092	0.237	-0.144
-205.406	-166.424	0.088	-0.004
-204.392	84.703	-0.245	0.267
-203.377	-70.040	-0.081	-0.031
-202.363	65.846	0.161	0.163
-201.348	72.946	-0.087	0.091
-200.333	6.821	-0.154	0.114
-199.319	-39.772	0.123	-0.064
-198.304	-159.648	0.295	-0.016
-197.290	-172.268	0.218	-0.007
-196.275	245.605	0.150	0.251
-195.260	-92.536	0.153	0.043
-194.246	800.000	-0.034	0.095
-193.231	800.000	0.053	-0.200
-192.217	216.376	-0.131	0.207
-191.202	-200.000	-0.043	0.240
-190.187	280.899	-0.091	-0.162
-189.173	124.464	0.203	0.255
-188.158	-98.456	0.281	-0.072
-187.144	15.433	0.228	0.178
-186.129	547.337	0.032	0.077
-185.114	800.000	-0.150	-0.465
-184.100	-6.470	-0.045	-0.030
-183.085	-200.000	-0.014	0.139
-182.071	800.000	-0.075	-0.214
-181.056	-57.724	0.156	-0.068
-180.042	-54.986	-0.176	-0.079
-179.027	800.000	0.011	0.034
-178.012	-200.000	-0.029	0.307
-176.998	-43.228	-0.200	0.101
-175.983	628.548	0.146	-0.367
-174.969	-34.649	-0.133	-0.072
-173.954	-200.000	0.027	-0.179
-172.939	-102.468	0.322	-0.077
-171.925	-156.186	0.307	-0.019
-170.910	-74.570	-0.165	0.059
-169.896	-200.000	0.051	-0.317
-168.881	-43.056	0.156	-0.078
-167.866	-100.199	0.199	-0.049
-166.852	61.581	0.239	-0.237
-165.837	-200.000	-0.028	-0.266
-164.823	-200.000	-0.016	-0.134
-163.808	192.524	0.214	-0.321
-162.793	166.623	0.126	0.178
-161.779	-200.000	-0.060	0.278
-160.764	9.240	-0.277	0.209
-159.750	87.861	0.050	-0.055
-158.735	-200.000	0.087	-0.387
-157.720	-200.000	-0.038	0.246
-156.706	-52.662	-0.081	-0.037
-155.691	26.007	0.166	-0.138
-154.677	-168.652	0.142	0.005
-153.662	-124.284	-0.161	0.025
-152.647	138.584	-0.189	0.247
-151.633	744.094	-0.177	-0.473
-150.618	108.130	0.123	-0.146
-149.604	-162.197	0.103	0.005
-148.589	194.002	0.091	0.137
-147.574	800.000	-0.102	0.344
-146.560	97.826	0.208	0.238
-145.545	800.000	0.119	0.371
-144.531	-200.000	-0.022	0.174
-143.516	-73.666	-0.071	0.026
-142.502	472.244	0.066	0.148
-141.487	-73.223	-0.050	0.018
-140.472	53.623	0.079	-0.075
-139.458	157.144	0.086	0.118
-138.443	119.223	0.195	0.239
-137.429	-58.441	0.314	-0.135
-136.414	-119.899	0.247	-0.042
-135.399	200.490	0.127	-0.193
-134.385	-88.180	-0.037	-0.011
-133.370	87.600	0.137	0.151
-132.356	-78.726	-0.278	0.094
-131.341	-72.875	0.166	-0.061
-130.326	-48.349	0.063	0.030
-129.312	-30.237	-0.394	-0.222
-128.297	5.321	0.134	-0.098
-127.283	110.986	-0.219	0.262
-126.268	-97.082	0.375	-0.097
-125.253	800.000	-0.103	0.310
-124.239	91.867	0.155	-0.173
-123.224	-22.830	0.329	-0.197
-122.210	-200.000	0.033	0.145
-121.195	-139.706	0.174	-0.018
