DTS Sentinel unit serial number:	SN413079Multiplexer serial number:	ORYXHardware model number:	OX4-SRSoftware version number:	ORYX F/W v4.00 Oryx Data Collector v3.7.2.0data status	okinstallation	princeton_trtdifferential loss correction	single-endedforward channel	channel 1reverse channel	N/Adate	2019/09/16time	06:06:35forward acquisition time	60.00reverse acquisition time	0.00gamma	496.2192k internal	0.2331k external	0.2331temperature offset calibration	0.9981default loss term (dB/km)	0.3790temperature slope calibration	1.0000multiplexer offset coefficient	1.0000multiplexer slope coefficient	1.0000fibre end	0.00T internal ref (°C)	27.44T ext. ref 1 (°C)	11.27T ext. ref 2 (°C)	21.89length (m)	temperature (°C)	Stokes	anti-Stokes-747.200	-60.186	-0.124	-0.053
-746.185	-10.154	0.179	0.120
-745.171	17.334	0.177	0.141
-744.156	-200.000	-0.052	0.503
-743.142	-60.011	0.367	0.158
-742.127	-0.748	-0.125	-0.089
-741.112	-168.243	-0.240	0.009
-740.098	-200.000	0.252	-0.001
-739.083	-180.365	0.327	-0.007
-738.069	800.000	-0.100	0.280
-737.054	-154.900	-0.264	-0.018
-736.039	330.824	-0.311	-0.602
-735.025	800.000	0.084	0.302
-734.010	800.000	-0.152	-0.499
-732.996	49.388	0.320	-0.303
-731.981	-5.730	-0.152	0.105
-730.966	-139.710	0.143	-0.015
-729.952	-39.146	-0.079	0.042
-728.937	-200.000	-0.005	-0.157
-727.923	-200.000	-0.026	0.327
-726.908	-100.853	-0.157	-0.039
-725.894	-99.179	-0.161	0.041
-724.879	149.652	-0.254	-0.346
-723.864	-200.000	-0.029	0.191
-722.850	252.880	-0.243	0.417
-721.835	573.973	0.027	0.065
-720.821	800.000	0.038	-0.132
-719.806	-135.305	-0.494	-0.059
-718.791	-86.983	-0.218	0.067
-717.777	-189.838	-0.165	0.002
-716.762	-135.953	-0.200	-0.024
-715.748	24.027	-0.289	-0.239
-714.733	-200.000	-0.027	0.200
-713.718	800.000	0.065	-0.185
-712.704	-116.401	-0.378	0.070
-711.689	62.270	0.050	-0.050
-710.675	74.988	0.178	-0.189
-709.660	-200.000	-0.044	0.287
-708.645	106.180	0.101	0.120
-707.631	161.947	-0.133	0.187
-706.616	-90.315	0.232	0.068
-705.602	2.103	-0.186	0.135
-704.587	-200.000	0.010	-0.207
-703.572	-142.292	-0.276	0.027
-702.558	159.659	0.029	-0.041
-701.543	-45.274	-0.099	0.049
-700.529	-200.000	-0.011	-0.146
-699.514	62.592	-0.102	0.102
-698.499	492.933	0.024	0.054
-697.485	-38.769	-0.511	-0.271
-696.470	22.810	-0.190	0.157
-695.456	248.939	-0.112	-0.191
-694.441	-200.000	-0.007	-0.189
-693.426	14.232	0.197	-0.154
-692.412	221.977	0.090	0.145
-691.397	29.845	0.134	-0.114
-690.383	800.000	0.022	-0.071
-689.368	137.528	0.266	-0.350
-688.354	-200.000	-0.011	0.062
-687.339	-83.157	-0.373	0.121
-686.324	407.420	0.067	-0.143
-685.310	800.000	-0.132	-0.396
-684.295	-200.000	0.011	0.242
-683.281	-99.203	-0.093	-0.024
-682.266	-154.486	-0.146	-0.010
-681.251	-54.057	-0.210	-0.096
-680.237	186.678	0.186	-0.278
-679.222	-82.645	0.263	-0.085
-678.208	81.634	0.154	0.167
-677.193	383.856	-0.137	-0.283
-676.178	-200.000	-0.010	-0.544
-675.164	173.986	-0.140	-0.203
-674.149	-149.926	-0.087	0.007
-673.135	-88.109	-0.332	0.100
-672.120	54.489	0.093	0.090
-671.105	-126.593	-0.596	-0.089
-670.091	800.000	-0.033	-0.112
-669.076	-200.000	-0.028	-0.193
-668.062	730.680	-0.190	-0.508
-667.047	645.240	-0.136	0.348
-666.032	-115.305	0.072	0.014
-665.018	-94.080	0.016	-0.005
-664.003	316.385	0.025	-0.047
-662.989	611.424	-0.108	-0.272
-661.974	-200.000	-0.009	0.105
-660.959	128.779	0.116	0.148
-659.945	-68.413	-0.146	0.057
-658.930	-152.883	-0.248	0.018
-657.916	-200.000	0.039	-0.179
-656.901	-126.700	-0.187	0.028
-655.886	67.761	-0.403	-0.413
-654.872	148.612	-0.097	0.132
-653.857	-33.416	-0.133	0.074
-652.843	-65.981	-0.145	0.058
-651.828	85.570	-0.248	0.273
-650.814	26.541	-0.118	-0.099
-649.799	229.947	-0.052	0.086
-648.784	800.000	-0.136	-0.438
-647.770	-105.054	0.183	0.042
-646.755	800.000	-0.006	-0.019
-645.741	-76.418	0.312	-0.110
-644.726	-200.000	0.011	0.268
-643.711	63.442	-0.168	-0.169
-642.697	42.844	-0.312	-0.285
-641.682	259.255	0.022	0.039
-640.668	190.216	0.153	-0.231
-639.653	98.861	0.145	0.168
-638.638	-36.976	0.345	0.185
-637.624	800.000	0.029	0.114
-636.609	-200.000	-0.039	0.303
-635.595	-145.489	0.097	0.009
-634.580	201.290	-0.183	0.282
-633.565	403.913	0.094	-0.197
-632.551	800.000	-0.094	0.266
-631.536	-39.023	-0.113	-0.060
-630.522	-148.149	0.341	-0.028
-629.507	800.000	-0.070	-0.289
-628.492	537.977	0.041	0.097
-627.478	-23.205	-0.423	-0.255
-626.463	800.000	-0.124	-0.400
-625.449	192.967	-0.152	-0.229
-624.434	-200.000	0.029	0.253
-623.419	747.273	-0.038	0.101
-622.405	-200.000	0.009	0.085
-621.390	103.641	0.054	0.063
-620.376	25.695	0.086	0.071
-619.361	-200.000	0.043	-0.386
-618.346	-200.000	-0.006	0.090
-617.332	62.626	0.187	0.187
-616.317	275.287	-0.148	0.263
-615.303	90.614	0.238	-0.267
-614.288	457.176	0.150	-0.333
-613.273	94.935	-0.165	0.188
-612.259	516.827	-0.048	0.113
-611.244	21.603	-0.375	-0.305
-610.230	-113.657	-0.081	0.016
-609.215	318.722	-0.144	-0.274
-608.201	129.409	-0.073	-0.093
-607.186	-200.000	-0.009	-0.302
-606.171	-109.138	0.183	-0.039
-605.157	-70.432	-0.335	-0.127
-604.142	800.000	0.048	-0.211
-603.128	800.000	0.037	-0.135
-602.113	-200.000	0.029	0.227
-601.098	-43.536	0.217	0.110
-600.084	-121.533	0.333	-0.055
-599.069	-200.000	0.002	0.498
-598.055	87.441	-0.058	0.064
-597.040	-200.000	-0.055	0.392
-596.025	71.914	-0.173	-0.180
-595.011	-6.947	-0.408	-0.277
-593.996	-200.000	0.025	0.346
-592.982	631.589	-0.007	-0.018
-591.967	347.733	-0.057	0.111
-590.952	-184.526	-0.163	0.003
-589.938	-29.358	-0.204	0.117
-588.923	-200.000	-0.037	-0.518
-587.909	-200.000	0.028	0.146
-586.894	-74.372	0.291	0.105
-585.879	-165.479	0.113	-0.005
-584.865	-102.276	-0.160	0.038
-583.850	-31.726	0.172	0.097
-582.836	-158.167	-0.104	0.006
-581.821	-200.000	0.014	0.086
-580.806	283.423	0.052	-0.094
-579.792	800.000	-0.119	-0.341
-578.777	-200.000	-0.010	-0.129
-577.763	37.538	0.114	0.101
-576.748	-200.000	0.005	0.245
-575.733	-142.186	-0.151	0.015
-574.719	-93.885	-0.508	-0.140
-573.704	-59.292	-0.143	0.062
-572.690	-83.575	0.240	-0.077
-571.675	136.144	-0.054	0.071
-570.661	-105.672	-0.213	-0.048
-569.646	-12.783	-0.182	-0.119
-568.631	-200.000	-0.028	-0.178
-567.617	137.409	0.025	-0.033
-566.602	-200.000	0.030	-0.156
-565.588	-200.000	-0.001	-0.125
-564.573	275.492	-0.110	-0.196
-563.558	-48.444	-0.060	-0.029
-562.544	580.842	-0.141	0.345
-561.529	-62.018	-0.063	-0.026
-560.515	-91.850	0.365	-0.104
-559.500	75.873	0.150	-0.158
-558.485	-164.997	0.146	0.007
-557.471	47.468	-0.137	-0.128
-556.456	-200.000	0.084	0.374
-555.442	-200.000	0.026	-0.187
-554.427	-4.843	0.208	-0.143
-553.412	359.561	0.169	-0.337
-552.398	-163.475	0.413	0.020
-551.383	800.000	-0.029	0.103
-550.369	635.862	-0.134	0.341
-549.354	-200.000	-0.021	0.206
-548.339	800.000	-0.088	0.254
-547.325	800.000	0.003	0.009
-546.310	800.000	0.025	-0.078
-545.296	53.593	0.103	-0.099
-544.281	-111.265	0.057	0.012
-543.266	-40.462	-0.110	0.057
-542.252	-134.318	0.193	-0.024
-541.237	-200.000	-0.004	0.250
-540.223	71.243	-0.152	-0.157
-539.208	800.000	-0.057	-0.195
-538.193	-200.000	0.020	-0.205
-537.179	472.423	0.046	-0.103
-536.164	800.000	0.050	0.186
-535.150	42.420	0.201	-0.183
-534.135	-200.000	0.007	0.159
-533.121	103.464	-0.079	-0.092
-532.106	-61.712	-0.161	0.067
-531.091	47.040	-0.053	-0.049
-530.077	430.804	-0.059	0.127
-529.062	-112.723	-0.184	-0.037
-528.048	-96.848	-0.297	0.078
-527.033	-115.130	-0.285	0.054
-526.018	-60.954	0.164	-0.069
-525.004	-81.762	-0.334	0.109
-523.989	-114.785	0.254	0.048
-522.975	-200.000	0.027	0.258
-521.960	-44.478	0.191	-0.095
-520.945	-200.000	0.012	-0.109
-519.931	800.000	0.047	-0.184
-518.916	221.157	-0.185	-0.297
-517.902	79.631	0.192	-0.206
-516.887	-8.236	-0.185	0.124
-515.872	-48.264	0.158	-0.076
-514.858	-90.482	0.179	0.052
-513.843	-154.524	0.018	-0.001
-512.829	-176.807	0.137	-0.003
-511.814	604.306	0.183	-0.453
-510.799	-153.390	0.010	0.001
-509.785	800.000	-0.062	0.243
-508.770	299.197	0.079	-0.145
-507.756	-29.845	0.256	0.146
-506.741	800.000	-0.068	-0.196
-505.726	-65.098	0.069	0.028
-504.712	-107.512	0.464	-0.101
-503.697	259.994	0.184	-0.317
-502.683	-60.099	-0.120	0.051
-501.668	-13.887	0.165	0.106
-500.653	-112.229	0.280	-0.056
-499.639	-172.462	-0.118	-0.004
-498.624	-124.624	-0.055	-0.009
-497.610	-151.626	-0.129	-0.010
-496.595	-4.887	0.221	0.152
-495.581	-185.099	0.192	-0.003
-494.566	355.218	-0.111	0.220
-493.551	127.838	0.069	0.087
-492.537	133.756	-0.169	0.218
-491.522	444.554	0.130	-0.283
-490.508	-126.903	-0.119	0.017
-489.493	-200.000	0.010	-0.244
-488.478	760.244	0.087	-0.236
-487.464	421.331	0.117	-0.251
-486.449	-106.224	-0.331	0.074
-485.435	96.714	0.194	-0.222
-484.420	460.765	-0.054	-0.121
-483.405	-53.997	0.256	0.116
-482.391	-200.000	0.022	0.262
-481.376	-72.599	-0.510	0.188
-480.362	-39.863	-0.157	-0.082
-479.347	-52.397	0.259	-0.120
-478.332	353.902	-0.063	-0.124
-477.318	800.000	0.017	0.073
-476.303	615.867	0.085	0.213
-475.289	-36.763	-0.270	-0.144
-474.274	-43.047	-0.156	0.079
-473.259	183.892	-0.158	-0.233
-472.245	349.408	0.128	0.251
-471.230	-154.740	0.207	-0.014
-470.216	-143.200	0.227	-0.022
-469.201	-147.291	-0.205	0.017
-468.186	800.000	-0.021	-0.082
-467.172	-45.805	0.079	0.039
-466.157	-154.179	0.417	-0.028
-465.143	223.709	0.067	-0.108
-464.128	-66.320	0.195	-0.077
-463.113	15.924	0.137	-0.107
-462.099	105.029	0.036	0.042
-461.084	387.548	0.144	-0.296
-460.070	-200.000	0.013	0.192
-459.055	-19.264	0.136	0.084
-458.040	800.000	0.058	-0.171
-457.026	-101.978	-0.179	0.043
-456.011	-200.000	0.000	0.187
-454.997	-200.000	-0.036	0.224
-453.982	800.000	-0.049	0.214
-452.968	211.889	0.055	-0.086
-451.953	36.551	0.222	0.195
-450.938	-200.000	-0.022	-0.151
-449.924	-200.000	-0.008	-0.238
-448.909	800.000	0.026	-0.074
-447.895	-200.000	-0.024	-0.122
-446.880	-132.284	0.147	0.019
-445.865	-50.312	-0.299	-0.141
-444.851	-88.211	0.190	-0.057
-443.836	139.594	0.162	-0.213
-442.822	-61.426	0.440	0.184
-441.807	-71.893	-0.219	-0.081
-440.792	-27.430	-0.126	-0.073
-439.778	-200.000	-0.033	-0.468
-438.763	26.858	-0.200	0.166
-437.749	-146.372	0.254	0.022
-436.734	706.382	0.047	0.122
-435.719	-105.877	0.208	-0.047
-434.705	112.287	-0.320	-0.385
-433.690	-1.562	-0.047	-0.033
-432.676	145.040	-0.147	0.195
-431.661	279.646	-0.073	0.130
-430.646	-200.000	0.014	-0.073
-429.632	800.000	0.042	-0.137
-428.617	308.432	0.226	0.419
-427.603	66.308	0.203	0.205
-426.588	68.853	-0.068	-0.070
-425.573	-143.366	-0.210	0.020
-424.559	-93.825	-0.233	-0.064
-423.544	-200.000	0.038	-0.553
-422.530	218.087	-0.072	0.113
-421.515	-76.644	-0.066	-0.023
-420.500	-200.000	-0.044	0.450
-419.486	-200.000	-0.345	-0.002
-418.471	40.947	-0.223	0.200
-417.457	61.847	0.191	-0.189
-416.442	-79.481	-0.077	0.026
-415.428	-35.558	0.240	0.129
-414.413	-10.554	0.092	0.061
-413.398	-200.000	-0.018	0.109
-412.384	298.202	-0.179	0.327
-411.369	-28.780	0.165	0.095
-410.355	102.563	-0.288	-0.335
-409.340	146.243	-0.074	-0.098
-408.325	-6.012	0.266	-0.181
-407.311	-200.000	-0.007	0.189
-406.296	740.128	0.150	0.399
-405.282	73.561	0.100	-0.104
-404.267	-70.229	-0.201	0.076
-403.252	-70.780	-0.325	0.122
-402.238	-200.000	-0.009	0.056
-401.223	-89.679	0.082	-0.024
-400.209	-91.142	0.164	0.047
-399.194	89.859	0.082	-0.091
-398.179	-200.000	-0.019	0.119
-397.165	-103.748	-0.126	-0.029
-396.150	11.432	-0.167	-0.127
-395.136	76.250	0.302	0.317
-394.121	-70.821	0.151	0.056
-393.106	-65.748	-0.133	-0.053
-392.092	507.981	0.047	0.108
-391.077	-200.000	0.005	-0.080
-390.063	800.000	-0.020	-0.080
-389.048	-73.393	0.200	-0.073
-388.033	-88.631	0.201	-0.059
-387.019	-49.886	-0.358	-0.169
-386.004	-78.702	0.187	0.064
-384.990	-200.000	-0.031	0.348
-383.975	393.960	-0.082	-0.170
-382.960	60.736	-0.147	0.145
-381.946	406.684	0.207	0.433
-380.931	28.028	0.112	0.093
-379.917	0.785	0.242	0.172
-378.902	800.000	0.042	0.148
-377.888	-152.334	-0.166	-0.012
-376.873	245.904	0.247	-0.413
-375.858	606.477	0.149	0.368
-374.844	-200.000	0.034	0.174
-373.829	-200.000	-0.001	-0.138
-372.815	175.057	-0.213	-0.306
-371.800	358.601	0.094	-0.186
-370.785	-118.449	0.094	-0.017
-369.771	-200.000	-0.096	0.423
-368.756	512.257	-0.059	-0.137
-367.742	800.000	-0.052	0.166
-366.727	-200.000	-0.030	0.155
-365.712	-149.945	0.449	-0.035
-364.698	-200.000	0.044	0.281
-363.683	-94.668	-0.241	0.065
-362.669	348.939	0.093	-0.183
-361.654	-48.363	-0.107	0.051
-360.639	259.296	0.142	0.243
-359.625	-133.771	0.190	-0.023
-358.610	-8.918	0.111	-0.074
-357.596	22.510	-0.173	0.140
-356.581	-88.248	0.165	-0.049
-355.566	800.000	-0.059	-0.221
-354.552	-107.986	-0.156	0.034
-353.537	-68.000	-0.260	-0.100
-352.523	36.527	-0.192	0.168
-351.508	-72.344	0.236	0.087
-350.493	-19.635	0.181	0.111
-349.479	86.563	-0.203	0.222
-348.464	-58.308	-0.239	0.103
-347.450	-200.000	0.022	-0.139
-346.435	424.849	0.094	-0.200
-345.420	-172.168	-0.097	0.003
-344.406	-147.696	0.290	0.024
-343.391	45.738	0.167	0.153
-342.377	800.000	0.091	-0.286
-341.362	286.755	-0.123	-0.221
-340.348	800.000	0.077	-0.283
-339.333	-14.606	0.080	-0.051
-338.318	-200.000	0.001	0.105
-337.304	-40.105	-0.141	-0.073
-336.289	-168.940	-0.151	0.006
-335.275	122.060	-0.030	0.037
-334.260	-109.646	0.069	0.014
-333.245	-105.343	0.049	0.011
-332.231	70.126	0.148	0.151
-331.216	-57.651	0.138	-0.060
-330.202	234.184	-0.170	-0.277
-329.187	-47.152	-0.118	-0.057
-328.172	-108.876	-0.357	0.076
-327.158	-200.000	-0.001	0.023
-326.143	-57.288	-0.074	0.032
-325.129	534.710	0.098	0.230
-324.114	800.000	0.019	-0.062
-323.099	155.084	0.110	-0.150
-322.085	-200.000	0.020	-0.182
-321.070	-154.945	0.225	0.015
-320.056	800.000	-0.042	-0.133
-319.041	-59.902	-0.149	0.063
-318.026	-142.622	-0.257	0.025
-317.012	-113.202	-0.447	0.087
-315.997	95.655	0.124	-0.140
-314.983	70.883	-0.055	0.056
-313.968	-200.000	0.015	-0.145
-312.953	6.326	0.312	-0.229
-311.939	382.897	-0.215	0.437
-310.924	-127.770	-0.311	0.044
-309.910	-123.900	-0.527	0.082
-308.895	800.000	-0.086	-0.287
-307.880	-171.234	-0.159	0.005
-306.866	426.346	-0.093	0.199
-305.851	23.557	0.156	0.127
-304.837	-170.844	0.266	0.009
-303.822	-200.000	0.315	0.000
-302.807	800.000	0.075	-0.303
-301.793	129.672	0.089	-0.113
-300.778	-200.000	-0.014	-0.248
-299.764	-26.027	0.250	-0.145
-298.749	-113.539	-0.217	0.042
-297.735	110.574	0.101	-0.120
-296.720	-104.073	0.192	-0.044
-295.705	-200.000	0.028	-0.196
-294.691	54.269	-0.165	-0.157
-293.676	621.705	0.105	0.261
-292.662	20.824	-0.239	-0.191
-291.647	-151.521	-0.204	0.015
-290.632	-200.000	-0.029	-0.421
-289.618	643.976	0.044	0.111
-288.603	-40.966	0.122	0.062
-287.589	95.860	0.218	0.246
-286.574	-200.000	-0.013	-0.129
-285.559	31.575	0.201	0.171
-284.545	800.000	-0.090	-0.321
-283.530	669.060	0.036	0.092
-282.516	73.387	-0.273	-0.283
-281.501	-78.539	0.340	-0.115
-280.486	52.254	-0.028	0.026
-279.472	-200.000	-0.038	0.234
-278.457	-142.397	-0.231	-0.022
-277.443	-200.000	-0.003	-0.104
-276.428	-200.000	-0.032	0.230
-275.413	-200.000	-0.004	0.308
-274.399	-87.928	0.040	-0.012
-273.384	-200.000	-0.002	-0.034
-272.370	24.817	0.283	0.232
-271.355	333.939	-0.104	0.199
-270.340	-107.072	-0.406	0.089
-269.326	800.000	-0.035	0.141
-268.311	159.452	-0.178	-0.245
-267.297	800.000	-0.093	-0.268
-266.282	-200.000	-0.003	-0.215
-265.267	-200.000	0.059	0.299
-264.253	-66.914	-0.093	-0.036
-263.238	-200.000	0.000	-0.081
-262.224	-200.000	0.011	0.238
-261.209	-51.959	-0.355	0.163
-260.195	646.510	0.099	0.251
-259.180	-149.734	0.150	0.012
-258.165	-58.580	-0.370	0.159
-257.151	19.617	0.138	0.110
-256.136	-97.650	0.018	0.005
-255.122	314.383	-0.110	-0.204
-254.107	63.765	0.139	0.138
-253.092	130.008	-0.159	0.201
-252.078	112.175	-0.086	-0.103
-251.063	-200.000	-0.037	-0.214
-250.049	-200.000	-0.027	0.183
-249.034	144.340	-0.246	0.324
-248.019	161.397	0.199	0.275
-247.005	-200.000	-0.025	0.283
-245.990	-126.545	0.100	0.015
-244.976	347.022	-0.071	-0.138
-243.961	58.584	0.218	0.212
-242.946	210.314	0.102	-0.158
-241.932	-87.427	-0.059	-0.018
-240.917	-200.000	0.053	-0.343
-239.903	43.675	-0.206	0.186
-238.888	-200.000	0.009	0.126
-237.873	800.000	0.005	0.019
-236.859	159.264	-0.132	-0.181
-235.844	-126.429	0.118	0.017
-234.830	319.827	-0.165	-0.310
-233.815	446.345	-0.052	0.114
-232.800	-117.907	-0.173	-0.031
-231.786	-101.154	0.269	0.065
-230.771	800.000	-0.102	-0.289
-229.757	189.866	0.044	-0.065
-228.742	111.062	0.218	0.258
-227.727	62.329	0.093	0.091
-226.713	-71.568	-0.323	-0.119
-225.698	-200.000	-0.047	0.219
-224.684	-2.416	0.116	-0.080
-223.669	800.000	-0.087	0.334
-222.655	-200.000	-0.014	0.291
-221.640	107.997	-0.044	-0.052
-220.625	-200.000	0.011	-0.344
-219.611	117.935	-0.076	-0.093
-218.596	10.922	-0.051	0.038
-217.582	-200.000	-0.035	-0.158
-216.567	-6.932	-0.223	-0.150
-215.552	34.705	0.305	0.263
-214.538	800.000	0.063	-0.186
-213.523	-144.654	-0.294	0.027
-212.509	-200.000	0.017	0.297
-211.494	-141.901	-0.230	0.023
-210.479	214.844	0.091	0.142
-209.465	-200.000	-0.065	0.291
-208.450	70.977	0.113	-0.115
-207.436	-147.484	0.217	0.018
-206.421	-120.376	0.308	0.052
-205.406	-120.473	-0.241	-0.040
-204.392	-38.033	0.134	0.070
-203.377	200.291	0.163	0.247
-202.363	-200.000	-0.009	0.100
-201.348	-50.039	0.224	0.105
-200.333	9.140	0.142	-0.105
-199.319	-7.365	-0.085	-0.057
-198.304	-200.000	0.026	0.251
-197.290	-200.000	0.040	0.394
-196.275	-87.720	-0.154	0.046
-195.260	165.296	-0.192	0.267
-194.246	174.827	-0.255	-0.363
-193.231	-32.521	0.342	0.188
-192.217	800.000	-0.055	-0.172
-191.202	-98.900	0.342	0.086
-190.187	800.000	-0.042	-0.121
-189.173	800.000	-0.060	0.178
-188.158	104.100	0.043	0.049
-187.144	161.215	-0.136	0.187
-186.129	-200.000	0.014	0.405
-185.114	-200.000	-0.005	0.214
-184.100	-200.000	0.006	-0.075
-183.085	305.490	-0.013	0.025
-182.071	-47.735	-0.254	0.121
-181.056	-191.616	0.139	-0.001
-180.042	-70.230	-0.055	0.021
-179.027	224.250	-0.164	-0.261
-178.012	-87.886	0.127	-0.038
-176.998	-200.000	-0.041	-0.201
-175.983	1.994	-0.300	-0.213
-174.969	704.268	0.069	-0.179
-173.954	67.490	0.033	-0.033
-172.939	-147.756	0.117	-0.010
-171.925	-200.000	0.044	-0.302
-170.910	-8.298	0.104	0.069
-169.896	-200.000	0.056	0.249
-168.881	213.171	-0.225	0.350
-167.866	800.000	0.056	-0.224
-166.852	57.425	-0.131	-0.126
-165.837	800.000	-0.035	0.113
-164.823	16.067	-0.174	0.135
-163.808	800.000	0.069	0.221
-162.793	-30.983	0.144	-0.080
-161.779	-131.931	-0.266	0.034
-160.764	-200.000	-0.003	-0.085
-159.750	-200.000	-0.001	0.087
-158.735	-135.240	-0.177	0.021
-157.720	336.553	0.048	0.091
-156.706	800.000	-0.101	-0.368
-155.691	-175.132	0.307	-0.008
-154.677	-200.000	-0.070	-0.331
-153.662	15.609	0.059	-0.046
-152.647	800.000	0.151	-0.447
-151.633	-153.658	0.299	0.020
-150.618	-200.000	0.040	0.218
-149.604	-200.000	-0.005	-0.041
-148.589	-74.993	0.024	0.008
-147.574	414.966	0.039	-0.082
-146.560	-200.000	-0.023	-0.186
-145.545	210.514	-0.210	-0.325
-144.531	800.000	-0.037	-0.153
-143.516	-200.000	0.026	0.226
-142.502	-50.148	-0.150	0.070
-141.487	-200.000	-0.032	0.403
-140.472	-68.167	0.089	-0.034
-139.458	-39.902	0.256	-0.131
-138.443	-87.402	-0.304	0.091
-137.429	-71.630	0.187	-0.069
-136.414	223.686	-0.139	-0.220
-135.399	224.620	-0.208	-0.330
-134.385	-150.460	-0.159	0.012
-133.370	-200.000	-0.030	0.146
-132.356	-96.138	0.136	-0.036
-131.341	137.051	-0.129	0.166
-130.326	490.361	0.091	0.205
-129.312	-168.923	-0.168	0.006
-128.297	-86.026	0.136	0.041
-127.283	17.086	0.155	0.121
-126.268	-64.588	-0.280	0.112
-125.253	-37.488	-0.333	0.175
-124.239	109.663	-0.108	-0.128
-123.224	112.243	0.169	-0.201
