DTS Sentinel unit serial number:	SN413079Multiplexer serial number:	ORYXHardware model number:	OX4-SRSoftware version number:	ORYX F/W v4.00 Oryx Data Collector v3.7.2.0data status	okinstallation	princeton_trtdifferential loss correction	single-endedforward channel	channel 1reverse channel	N/Adate	2019/09/12time	18:40:34forward acquisition time	15.00reverse acquisition time	0.00gamma	496.2192k internal	0.2318k external	0.2318temperature offset calibration	1.0109default loss term (dB/km)	0.3790temperature slope calibration	1.0000multiplexer offset coefficient	1.0000multiplexer slope coefficient	1.0000fibre end	0.00T internal ref (°C)	33.06T ext. ref 1 (°C)	2.96T ext. ref 2 (°C)	27.61length (m)	temperature (°C)	Stokes	anti-Stokes-747.200	155.561	0.096	-0.134
-746.185	-29.817	0.401	0.232
-745.171	-200.000	-0.066	-1.019
-744.156	-0.703	0.209	0.150
-743.142	800.000	0.133	-0.419
-742.127	78.330	0.879	0.950
-741.112	-74.701	-0.204	0.074
-740.098	-200.000	0.057	0.436
-739.083	-35.721	-0.498	-0.273
-738.069	-200.000	-0.207	-0.000
-737.054	-68.451	1.094	-0.429
-736.039	-100.474	-0.406	0.102
-735.025	73.071	-0.407	-0.431
-734.010	-20.295	0.979	-0.610
-732.996	49.114	0.348	0.331
-731.981	800.000	-0.148	-0.517
-730.966	800.000	0.127	0.454
-729.952	-122.952	-0.148	-0.024
-728.937	-63.699	0.249	0.103
-727.923	542.423	0.320	-0.771
-726.908	800.000	-0.173	-0.600
-725.894	126.424	0.256	-0.328
-724.879	-106.626	0.546	0.123
-723.864	139.426	-0.502	-0.669
-722.850	-29.913	-0.817	0.471
-721.835	92.777	0.628	0.717
-720.821	800.000	0.159	0.535
-719.806	-36.090	0.430	0.235
-718.791	800.000	0.182	0.590
-717.777	800.000	-0.129	0.384
-716.762	73.412	0.445	0.471
-715.748	-200.000	0.005	-0.572
-714.733	800.000	0.052	0.213
-713.718	634.736	-0.480	-1.232
-712.704	-125.513	0.569	0.087
-711.689	-47.578	0.397	-0.195
-710.675	-133.823	0.757	-0.095
-709.660	800.000	0.233	-0.922
-708.645	-95.885	0.697	-0.188
-707.631	-99.371	0.739	0.188
-706.616	800.000	0.153	0.498
-705.602	-49.120	-0.166	0.080
-704.587	143.749	-0.116	0.156
-703.572	526.254	-0.147	0.349
-702.558	13.968	-0.598	-0.470
-701.543	-105.955	0.437	-0.099
-700.529	800.000	0.274	1.179
-699.514	-150.171	-0.169	0.013
-698.499	-200.000	-0.061	0.274
-697.485	-25.481	1.106	0.660
-696.470	-200.000	-0.055	1.102
-695.456	-55.740	0.114	-0.051
-694.441	-200.000	0.054	0.585
-693.426	-16.877	-0.745	-0.476
-692.412	37.898	-0.445	0.400
-691.397	729.626	-0.239	-0.645
-690.383	-32.110	0.556	-0.314
-689.368	99.681	-0.123	0.143
-688.354	20.424	-0.170	-0.138
-687.339	214.342	-0.111	-0.178
-686.324	800.000	-0.242	1.069
-685.310	-58.364	-0.354	-0.155
-684.295	240.602	-0.371	-0.626
-683.281	106.458	-0.336	0.402
-682.266	51.346	-0.652	0.625
-681.251	12.723	-0.744	0.580
-680.237	310.042	-0.058	-0.110
-679.222	-102.491	0.322	-0.078
-678.208	262.971	0.186	-0.326
-677.193	125.359	-0.221	0.281
-676.178	-112.222	-0.403	-0.082
-675.164	-200.000	-0.043	-0.306
-674.149	-145.251	1.051	0.096
-673.135	800.000	0.272	-0.849
-672.120	351.261	-0.165	-0.331
-671.105	22.337	0.179	-0.148
-670.091	-135.306	-0.813	-0.098
-669.076	-104.709	0.381	-0.089
-668.062	287.782	0.186	0.339
-667.047	-200.000	0.045	0.347
-666.032	-27.384	-0.590	-0.347
-665.018	-200.000	0.142	0.670
-664.003	-97.768	0.871	-0.227
-662.989	-30.668	0.183	-0.105
-661.974	-81.695	0.223	-0.074
-660.959	800.000	0.159	-0.615
-659.945	74.477	-0.179	-0.190
-658.930	-200.000	-0.049	0.289
-657.916	209.272	-0.277	-0.438
-656.901	800.000	-0.070	-0.259
-655.886	-200.000	0.071	-0.541
-654.872	292.063	-0.062	0.114
-653.857	247.876	-0.388	-0.661
-652.843	-122.982	0.743	-0.121
-651.828	-132.134	0.413	0.054
-650.814	-167.711	-0.885	-0.035
-649.799	800.000	-0.081	-0.298
-648.784	-200.000	0.001	0.150
-647.770	104.277	0.120	-0.142
-646.755	-200.000	0.002	-0.573
-645.741	800.000	0.017	-0.065
-644.726	77.981	0.474	-0.509
-643.711	-142.751	-0.510	0.050
-642.697	-28.919	-0.041	0.024
-641.682	-200.000	-0.053	-0.503
-640.668	-142.880	-0.564	-0.055
-639.653	-103.147	-0.460	-0.110
-638.638	-96.816	0.030	0.008
-637.624	88.491	-0.142	0.159
-636.609	-21.085	-0.551	-0.340
-635.595	155.029	-0.117	0.162
-634.580	-81.732	0.538	-0.178
-633.565	348.644	-0.290	-0.576
-632.551	800.000	0.099	-0.343
-631.536	-158.610	-0.386	0.022
-630.522	203.763	0.236	0.367
-629.507	-200.000	-0.036	-0.359
-628.492	-82.606	-0.976	-0.319
-627.478	-131.447	-0.679	-0.090
-626.463	-49.193	-0.559	-0.269
-625.449	-200.000	0.049	-0.309
-624.434	9.864	0.355	-0.271
-623.419	-51.893	-0.460	-0.216
-622.405	81.718	-0.220	0.240
-621.390	157.507	0.567	0.791
-620.376	347.184	-0.283	-0.562
-619.361	-200.000	0.036	-0.301
-618.346	14.755	-0.427	0.336
-617.332	-66.535	-0.496	0.198
-616.317	-2.919	-0.635	0.447
-615.303	81.076	-0.297	0.323
-614.288	-200.000	0.091	0.615
-613.273	83.407	0.528	-0.579
-612.259	435.987	-0.498	-1.090
-611.244	70.857	0.296	0.309
-610.230	71.792	-0.502	-0.525
-609.215	715.967	0.207	0.553
-608.201	56.972	0.444	-0.436
-607.186	-119.072	0.483	0.085
-606.171	-47.734	-0.156	-0.076
-605.157	244.819	0.116	0.196
-604.142	800.000	0.069	0.207
-603.128	-46.950	0.217	0.107
-602.113	800.000	-0.278	-0.826
-601.098	-2.112	-0.178	-0.126
-600.084	800.000	-0.211	0.682
-599.069	-200.000	0.088	0.426
-598.055	-157.604	0.977	-0.059
-597.040	-51.612	0.231	0.108
-596.025	-63.758	0.355	-0.146
-595.011	800.000	-0.310	-1.111
-593.996	-16.220	0.326	0.209
-592.982	-99.063	-0.605	0.154
-591.967	-78.922	0.835	-0.286
-590.952	79.787	-0.534	-0.577
-589.938	26.169	-0.635	-0.533
-588.923	217.478	0.348	0.558
-587.909	155.153	-0.131	-0.181
-586.894	800.000	0.076	0.329
-585.879	800.000	-0.252	-0.959
-584.865	-200.000	-0.190	-0.862
-583.850	-89.627	0.502	0.148
-582.836	0.718	0.142	0.102
-581.821	33.282	0.120	-0.105
-580.806	-93.188	-0.432	0.121
-579.792	115.782	-0.361	0.444
-578.777	54.829	-0.333	0.323
-577.763	532.667	0.121	0.288
-576.748	-128.682	0.638	-0.091
-575.733	243.279	0.514	0.866
-574.719	-0.853	-0.414	0.295
-573.704	-200.000	0.005	-1.097
-572.690	-200.000	0.028	0.381
-571.675	-69.970	0.199	0.076
-570.661	-200.000	-0.010	0.734
-569.646	486.116	0.226	0.518
-568.631	-103.899	0.119	0.028
-567.617	69.876	-0.417	-0.432
-566.602	-44.393	-0.405	0.204
-565.588	54.343	-0.274	-0.265
-564.573	95.984	0.221	-0.254
-563.558	41.713	0.480	0.437
-562.544	-51.877	0.173	0.081
-561.529	-81.813	0.128	0.042
-560.515	34.834	0.308	-0.270
-559.500	51.194	0.688	-0.656
-558.485	-74.519	-0.208	0.075
-557.471	800.000	0.088	-0.280
-556.456	-200.000	-0.022	-0.314
-555.442	-132.658	0.535	-0.069
-554.427	73.148	-0.292	0.306
-553.412	-19.951	0.259	-0.161
-552.398	-148.097	-0.709	-0.059
-551.383	182.129	-0.231	0.342
-550.369	146.272	0.361	0.487
-549.354	-89.051	-0.367	-0.109
-548.339	-195.397	1.155	-0.009
-547.325	800.000	0.137	-0.454
-546.310	-148.804	-0.598	-0.049
-545.296	-124.230	0.140	0.022
-544.281	394.668	-0.277	0.580
-543.266	-1.430	0.432	-0.306
-542.252	-175.510	0.193	0.005
-541.237	361.051	0.436	0.877
-540.223	-199.154	-0.149	0.001
-539.208	611.108	0.429	-1.078
-538.193	43.634	-0.367	-0.337
-537.179	800.000	0.127	0.520
-536.164	800.000	-0.221	-0.679
-535.150	-13.884	0.286	-0.185
-534.135	107.622	-0.227	0.271
-533.121	-62.012	0.367	0.154
-532.106	-200.000	-0.001	0.183
-531.091	-77.710	-0.763	-0.265
-530.077	-200.000	0.007	0.624
-529.062	800.000	-0.069	0.293
-528.048	212.680	0.377	0.597
-527.033	109.163	0.541	0.649
-526.018	800.000	0.053	-0.165
-525.004	-6.196	-0.447	0.306
-523.989	98.192	-0.355	-0.410
-522.975	-20.775	0.267	-0.164
-521.960	293.504	0.274	0.503
-520.945	99.647	-0.434	-0.504
-519.931	157.670	-0.577	0.802
-518.916	586.742	0.237	-0.585
-517.902	-69.125	1.188	-0.459
-516.887	-16.594	0.260	0.165
-515.872	318.420	0.211	-0.401
-514.858	-45.747	0.122	-0.061
-513.843	190.513	0.117	0.176
-512.829	14.302	-0.302	-0.237
-511.814	-117.971	0.465	0.084
-510.799	-159.748	0.391	0.022
-509.785	16.741	-0.624	-0.495
-508.770	-122.248	-0.543	-0.089
-507.756	433.429	-0.117	0.256
-506.741	-141.716	-0.685	0.069
-505.726	-1.690	0.108	-0.076
-504.712	-94.698	-0.585	0.159
-503.697	-200.000	0.026	-0.625
-502.683	747.955	-0.214	0.578
-501.668	-43.890	-0.586	0.296
-500.653	25.505	0.519	-0.433
-499.639	-200.000	0.030	-0.476
-498.624	-45.942	0.026	0.013
-497.610	-55.142	0.202	0.091
-496.595	258.967	-0.190	-0.329
-495.581	-200.000	-0.116	0.744
-494.566	800.000	-0.190	-0.572
-493.551	800.000	-0.221	0.778
-492.537	-160.004	-0.488	0.027
-491.522	20.008	-0.439	0.355
-490.508	-138.996	-0.819	0.089
-489.493	-106.434	0.615	-0.138
-488.478	-51.674	0.462	0.216
-487.464	225.208	-0.430	0.697
-486.449	800.000	-0.251	0.754
-485.435	241.331	0.118	0.198
-484.420	59.756	0.037	0.037
-483.405	-176.321	-0.687	0.018
-482.391	800.000	-0.231	0.799
-481.376	-137.975	0.650	0.073
-480.362	420.617	0.047	-0.102
-479.347	-200.000	-0.072	-0.370
-478.332	121.128	-0.275	-0.343
-477.318	-39.936	-1.004	-0.525
-476.303	-116.053	-0.254	0.047
-475.289	-97.242	-0.167	0.044
-474.274	-52.162	0.457	-0.212
-473.259	475.667	0.134	0.303
-472.245	209.174	0.429	-0.672
-471.230	152.587	0.173	-0.237
-470.216	-200.000	-0.021	-0.476
-469.201	800.000	-0.089	0.367
-468.186	-148.041	-0.293	0.024
-467.172	320.427	-0.316	-0.601
-466.157	-90.755	-0.845	0.244
-465.143	-90.780	-0.174	-0.050
-464.128	-72.326	0.962	-0.357
-463.113	-200.000	-0.003	-0.199
-462.099	130.932	0.227	0.292
-461.084	-14.789	0.526	-0.338
-460.070	100.140	0.789	-0.916
-459.055	-200.000	-0.015	-0.274
-458.040	-77.924	0.842	0.291
-457.026	-65.990	-0.461	0.184
-456.011	-98.005	0.728	0.188
-454.997	800.000	0.106	0.436
-453.982	-200.000	-0.019	-0.930
-452.968	-197.081	-0.577	0.004
-451.953	-73.789	-0.096	-0.035
-450.938	452.311	0.087	0.193
-449.924	-7.117	0.070	0.047
-448.909	-49.434	-0.280	0.133
-447.895	-200.000	0.089	0.797
-446.880	-140.229	0.492	0.052
-445.865	-170.649	0.203	-0.007
-444.851	-200.000	0.086	0.859
-443.836	-128.232	-0.442	0.063
-442.822	-163.018	0.604	0.029
-441.807	-200.000	-0.144	-0.795
-440.792	0.961	-0.116	-0.083
-439.778	-59.837	-0.498	-0.213
-438.763	-200.000	-0.004	-0.504
-437.749	-36.458	-0.302	-0.163
-436.734	590.929	0.191	0.472
-435.719	97.390	-0.824	0.946
-434.705	187.812	0.088	-0.131
-433.690	-17.126	-0.352	-0.222
-432.676	-11.713	0.302	-0.198
-431.661	-27.192	-0.407	-0.237
-430.646	-74.169	-0.946	0.342
-429.632	800.000	0.117	0.442
-428.617	-122.435	0.462	0.075
-427.603	-150.353	0.157	-0.012
-426.588	366.142	0.303	0.610
-425.573	429.788	-0.211	0.456
-424.559	296.006	0.275	-0.503
-423.544	-9.417	0.268	-0.179
-422.530	-14.647	-0.219	-0.140
-421.515	195.289	-0.231	0.351
-420.500	40.500	0.898	0.808
-419.486	465.370	0.464	1.038
-418.471	39.316	-0.484	-0.433
-417.457	-108.234	-0.271	0.059
-416.442	-25.826	0.493	0.290
-415.428	352.719	-0.332	-0.658
-414.413	296.726	0.231	-0.423
-413.398	800.000	0.196	0.544
-412.384	-104.499	-0.491	0.113
-411.369	18.452	-0.114	-0.091
-410.355	600.077	0.101	-0.251
-409.340	-149.143	0.242	-0.019
-408.325	-139.178	0.254	0.027
-407.311	37.337	-0.667	-0.590
-406.296	77.137	-0.450	-0.478
-405.282	-200.000	0.137	0.776
-404.267	800.000	0.157	-0.478
-403.252	144.224	0.204	-0.272
-402.238	-61.829	-0.422	-0.176
-401.223	-167.187	0.360	0.015
-400.209	2.800	-0.513	-0.372
-399.194	-75.069	-0.645	-0.230
-398.179	-78.186	0.275	0.094
-397.165	114.848	-0.292	-0.356
-396.150	-40.947	-0.627	-0.324
-395.136	-25.182	-0.113	0.067
-394.121	257.134	0.205	0.351
-393.106	-170.961	0.267	0.009
-392.092	-152.598	0.750	-0.053
-391.077	800.000	-0.193	-0.819
-390.063	-2.097	0.628	-0.441
-389.048	110.932	0.071	0.085
-388.033	458.161	-0.164	-0.364
-387.019	-171.445	0.195	-0.006
-386.004	290.910	-0.332	-0.602
-384.990	22.804	-0.248	-0.203
-383.975	-31.312	0.167	-0.094
-382.960	45.620	0.189	-0.174
-381.946	307.008	0.360	-0.669
-380.931	-200.000	0.003	0.265
-379.917	-110.186	0.051	0.011
-378.902	-35.252	-0.107	0.058
-377.888	165.812	0.423	0.597
-376.873	75.460	0.191	0.201
-375.858	-98.771	0.954	-0.242
-374.844	90.690	0.525	0.586
-373.829	-61.573	1.202	-0.503
-372.815	109.247	-0.311	0.371
-371.800	-37.995	-0.993	-0.526
-370.785	-129.067	-0.337	0.047
-369.771	-200.000	-0.102	-0.534
-368.756	-91.586	-0.504	0.143
-367.742	-51.631	0.257	0.120
-366.727	-162.969	0.688	0.033
-365.712	93.660	0.328	0.371
-364.698	193.639	0.491	0.740
-363.683	-102.341	0.389	0.093
-362.669	-133.815	-0.588	0.073
-361.654	-95.979	0.791	-0.210
-360.639	275.427	0.300	-0.531
-359.625	45.111	-0.189	-0.174
-358.610	800.000	0.252	-0.696
-357.596	40.691	-0.748	0.672
-356.581	61.299	0.309	-0.306
-355.566	53.043	0.369	-0.352
-354.552	-141.013	0.531	0.054
-353.537	800.000	0.388	1.108
-352.523	-29.906	0.432	-0.245
-351.508	196.486	0.187	-0.284
-350.493	98.513	0.263	0.302
-349.479	84.933	0.023	0.025
-348.464	559.705	0.213	0.513
-347.450	800.000	-0.108	-0.307
-346.435	-31.900	0.264	-0.148
-345.420	-34.724	-0.058	-0.032
-344.406	-200.000	-0.092	0.424
-343.391	164.197	-0.215	-0.302
-342.377	-75.523	0.486	0.172
-341.362	-88.815	0.249	-0.074
-340.348	-16.266	-0.352	-0.223
-339.333	313.423	0.216	0.404
-338.318	395.792	0.272	-0.566
-337.304	-200.000	-0.109	-0.496
-336.289	-105.078	-1.111	0.253
-335.275	35.887	0.573	-0.502
-334.260	-129.344	1.134	-0.157
-333.245	154.709	-0.597	-0.816
-332.231	-160.770	0.217	0.011
-331.216	-200.000	0.043	-0.529
-330.202	-126.389	0.155	-0.023
-329.187	51.397	-0.802	-0.759
-328.172	22.913	0.710	-0.580
-327.158	681.339	-0.195	-0.506
-326.143	800.000	0.185	-0.794
-325.129	-153.945	0.566	0.038
-324.114	-65.600	-0.270	0.108
-323.099	170.493	0.269	-0.383
-322.085	800.000	0.077	-0.269
-321.070	-77.183	0.755	0.262
-320.056	385.002	0.034	-0.070
-319.041	-200.000	-0.039	0.417
-318.026	-73.611	-0.581	-0.211
-317.012	-200.000	0.075	-0.346
-315.997	-200.000	-0.066	-0.521
-314.983	-51.371	0.792	0.369
-313.968	-200.000	0.011	0.795
-312.953	95.639	0.239	0.271
-311.939	800.000	0.257	0.899
-310.924	-167.983	-1.098	-0.043
-309.910	-57.287	0.600	0.262
-308.895	109.284	-0.452	0.538
-307.880	40.380	-0.614	0.550
-306.866	-55.386	0.378	-0.169
-305.851	685.799	0.079	0.204
-304.837	-57.557	-0.062	0.027
-303.822	421.565	0.269	0.574
-302.807	160.598	0.112	-0.156
-301.793	-200.000	-0.041	-0.313
-300.778	-49.730	-0.336	0.159
-299.764	800.000	-0.295	1.111
-298.749	5.260	-0.699	0.512
-297.735	-64.066	-0.610	-0.248
-296.720	-96.196	0.643	0.170
-295.705	-62.502	-0.156	0.065
-294.691	-200.000	0.138	-0.721
-293.676	-77.747	0.913	-0.314
-292.662	800.000	-0.135	0.479
-291.647	18.531	0.501	0.398
-290.632	-135.960	0.493	0.058
-289.618	-116.281	0.156	0.029
-288.603	-161.372	0.771	0.040
-287.589	-200.000	-0.046	0.397
-286.574	155.712	-0.362	-0.496
-285.559	92.459	-0.489	-0.548
-284.545	90.835	-0.253	0.282
-283.530	-200.000	-0.121	0.542
-282.516	-122.026	-0.597	0.098
-281.501	-131.310	-0.525	0.069
-280.486	-200.000	-0.034	0.616
-279.472	-118.241	0.316	0.056
-278.457	-63.025	0.209	-0.086
-277.443	-73.320	-0.504	0.183
-276.428	-66.925	0.248	-0.097
-275.413	800.000	0.063	0.221
-274.399	-23.347	-0.096	-0.058
-273.384	313.075	0.295	0.550
-272.370	258.723	0.279	0.477
-271.355	-49.596	0.102	0.048
-270.340	-200.000	-0.013	-0.091
-269.326	-12.326	-0.999	0.649
-268.311	32.249	0.395	0.338
-267.297	-106.980	-0.393	0.086
-266.282	800.000	-0.190	0.572
-265.267	-19.162	-0.458	-0.283
-264.253	-21.244	0.501	-0.304
-263.238	800.000	0.171	-0.706
-262.224	-196.063	-0.886	0.006
-261.209	-26.553	-0.280	0.163
-260.195	1.836	0.395	0.283
-259.180	800.000	-0.143	-0.553
-258.165	800.000	0.133	-0.417
-257.151	320.237	-0.233	0.439
-256.136	219.098	-0.306	-0.486
-255.122	28.929	-0.344	-0.289
-254.107	-150.950	0.336	-0.025
-253.092	233.958	0.172	0.281
-252.078	-200.000	-0.105	0.987
-251.063	800.000	-0.097	0.381
-250.049	689.735	0.164	-0.426
-249.034	179.775	-0.422	0.614
-248.019	-200.000	-0.165	1.050
-247.005	-79.334	0.304	-0.102
-245.990	637.211	-0.143	0.361
-244.976	-114.646	-0.963	-0.183
-243.961	-124.773	-0.722	0.111
-242.946	-21.223	0.562	0.341
-241.932	-200.000	0.062	0.890
-240.917	-118.443	0.463	0.082
-239.903	-68.769	-0.094	0.036
-238.888	-124.442	0.303	-0.047
-237.873	-40.710	-0.878	-0.451
-236.859	-9.392	-0.021	0.014
-235.844	-25.234	-0.662	-0.389
-234.830	-29.070	0.268	-0.152
-233.815	211.726	0.078	-0.121
-232.800	171.768	-0.222	0.317
-231.786	-123.169	0.648	-0.103
-230.771	-200.000	-0.086	-0.391
-229.757	695.645	-0.099	-0.258
-228.742	-200.000	0.042	-0.471
-227.727	-200.000	-0.036	-0.316
-226.713	-200.000	0.188	-0.948
-225.698	-200.000	0.100	-0.644
-224.684	-200.000	0.112	0.563
-223.669	36.699	-0.320	-0.280
-222.655	364.253	0.391	-0.781
-221.640	-94.002	1.161	-0.316
-220.625	263.017	0.187	-0.321
-219.611	497.043	-0.222	-0.506
-218.596	-182.604	0.570	0.010
-217.582	800.000	-0.061	-0.262
-216.567	-64.487	-0.186	-0.075
-215.552	272.447	-0.149	-0.260
-214.538	12.487	-0.788	0.602
-213.523	-200.000	-0.042	-0.422
-212.509	-200.000	-0.048	-0.472
-211.494	-141.417	0.983	0.099
-210.479	-131.490	-0.486	0.063
-209.465	119.183	0.429	-0.526
-208.450	-6.583	-0.363	-0.245
-207.436	-0.298	-0.236	0.166
-206.421	-170.175	0.836	-0.029
-205.406	-156.420	-0.543	-0.034
-204.392	-61.322	-0.508	-0.212
-203.377	-59.838	0.342	0.145
-202.363	800.000	-0.150	-0.642
-201.348	-32.283	-0.685	0.379
-200.333	-200.000	0.020	0.569
-199.319	-154.508	0.578	-0.038
-198.304	-200.000	0.009	-0.585
-197.290	582.924	0.373	0.907
-196.275	295.569	0.117	0.212
-195.260	800.000	0.081	-0.232
-194.246	800.000	0.273	0.998
-193.231	328.336	-0.129	0.246
-192.217	-41.022	-1.043	0.534
-191.202	68.934	0.095	0.096
-190.187	62.780	0.340	0.337
-189.173	-200.000	0.106	0.473
-188.158	-200.000	-0.109	0.727
-187.144	800.000	0.259	0.829
-186.129	-200.000	-0.197	1.010
-185.114	124.008	-0.336	-0.417
-184.100	-164.828	0.791	0.035
-183.085	28.060	-0.069	-0.058
-182.071	87.975	0.447	0.491
-181.056	223.788	-0.234	0.374
-180.042	123.456	-0.415	0.514
-179.027	753.783	-0.244	0.653
-178.012	800.000	-0.023	-0.073
-176.998	309.775	-0.248	-0.460
-175.983	-89.343	-0.542	0.158
-174.969	108.944	-0.342	-0.405
-173.954	179.300	0.256	-0.371
-172.939	42.333	1.086	-0.977
-171.925	75.653	0.353	-0.369
-170.910	-10.308	0.641	0.421
-169.896	361.950	0.082	-0.163
-168.881	-40.725	-0.214	-0.109
-167.866	-89.174	-0.893	0.261
-166.852	-49.883	-0.372	-0.175
-165.837	97.714	-0.162	0.184
-164.823	-21.439	-0.749	0.452
-163.808	405.058	0.095	0.198
-162.793	-200.000	-0.050	0.389
-161.779	-124.939	0.359	0.055
-160.764	-70.715	-0.435	0.163
-159.750	-90.901	0.481	0.137
-158.735	-60.393	-0.502	0.211
-157.720	-200.000	0.012	0.166
-156.706	800.000	-0.150	0.539
-155.691	800.000	-0.210	0.639
-154.677	-0.471	0.181	0.127
-153.662	800.000	-0.164	-0.489
-152.647	-24.426	0.437	-0.258
-151.633	-76.994	0.413	-0.142
-150.618	-50.209	0.642	0.300
-149.604	-30.308	0.394	0.221
-148.589	-102.303	-0.502	-0.119
-147.574	-13.508	0.447	0.287
-146.560	-200.000	-0.005	-0.053
-145.545	-99.721	0.823	0.204
-144.531	-99.497	-0.523	-0.130
-143.516	-200.000	-0.010	0.881
-142.502	-94.752	0.744	0.200
-141.487	800.000	-0.113	0.396
-140.472	6.052	-0.141	0.104
-139.458	1.513	-0.098	-0.069
-138.443	322.211	-0.144	0.272
-137.429	800.000	-0.307	-0.937
-136.414	298.079	-0.402	0.730
-135.399	-200.000	0.008	-0.331
-134.385	-200.000	0.008	0.104
-133.370	170.314	0.707	-0.999
-132.356	19.135	-0.314	0.249
-131.341	215.602	0.212	0.332
-130.326	-116.583	-0.614	-0.112
-129.312	74.106	-0.572	-0.593
-128.297	-200.000	0.075	0.471
-127.283	-22.847	0.150	-0.089
-126.268	2.362	0.263	0.188
-125.253	490.772	-0.171	0.387
-124.239	800.000	0.080	0.281
-123.224	-176.526	-0.383	0.010
-122.210	-83.491	0.416	0.132
-121.195	-13.014	-0.268	0.172
-120.180	-62.158	0.522	-0.215
