DTS Sentinel unit serial number:	SN413079Multiplexer serial number:	ORYXHardware model number:	OX4-SRSoftware version number:	ORYX F/W v4.00 Oryx Data Collector v3.7.2.0data status	okinstallation	princeton_trtdifferential loss correction	single-endedforward channel	channel 1reverse channel	N/Adate	2019/09/13time	22:38:35forward acquisition time	60.00reverse acquisition time	0.00gamma	496.2192k internal	0.2333k external	0.2333temperature offset calibration	1.0083default loss term (dB/km)	0.3790temperature slope calibration	1.0000multiplexer offset coefficient	1.0000multiplexer slope coefficient	1.0000fibre end	0.00T internal ref (°C)	27.67T ext. ref 1 (°C)	3.23T ext. ref 2 (°C)	21.83length (m)	temperature (°C)	Stokes	anti-Stokes-747.200	-200.000	0.003	0.077
-746.185	-57.305	0.194	0.086
-745.171	-200.000	0.022	-0.138
-744.156	98.237	-0.119	0.137
-743.142	50.146	-0.113	0.107
-742.127	-63.300	-0.259	0.107
-741.112	1.379	-0.120	0.087
-740.098	216.926	-0.041	-0.065
-739.083	-200.000	-0.019	0.190
-738.069	800.000	-0.087	0.249
-737.054	189.287	-0.082	-0.124
-736.039	-49.448	-0.135	0.065
-735.025	211.297	-0.280	0.444
-734.010	-200.000	0.019	-0.098
-732.996	-100.929	-0.026	-0.006
-731.981	251.843	0.155	-0.265
-730.966	80.727	-0.200	-0.216
-729.952	219.316	0.127	0.205
-728.937	-101.640	-0.208	0.051
-727.923	79.316	-0.119	-0.128
-726.908	-56.802	-0.276	-0.123
-725.894	445.765	-0.075	-0.166
-724.879	-80.678	-0.378	-0.126
-723.864	-55.197	-0.100	-0.045
-722.850	113.235	0.165	0.202
-721.835	115.936	0.101	0.125
-720.821	30.531	0.059	-0.050
-719.806	65.025	0.288	-0.292
-718.791	-200.000	0.023	-0.376
-717.777	800.000	-0.101	-0.369
-716.762	-200.000	-0.017	-0.205
-715.748	800.000	-0.037	-0.128
-714.733	256.422	0.050	0.086
-713.718	-200.000	-0.036	0.204
-712.704	241.659	0.135	0.226
-711.689	-200.000	-0.001	-0.010
-710.675	-132.893	0.264	0.034
-709.660	-200.000	-0.035	0.173
-708.645	-19.430	-0.180	-0.112
-707.631	409.173	0.010	-0.022
-706.616	-200.000	-0.045	0.345
-705.602	-200.000	-0.002	-0.111
-704.587	-50.318	-0.329	-0.156
-703.572	-200.000	0.080	0.372
-702.558	-141.752	-0.372	0.037
-701.543	76.838	0.027	-0.028
-700.529	-129.919	0.319	0.044
-699.514	-70.216	-0.150	-0.057
-698.499	-200.000	-0.041	0.188
-697.485	-11.969	-0.102	-0.067
-696.470	-129.189	-0.140	0.020
-695.456	-57.278	0.184	0.081
-694.441	-200.000	-0.023	0.144
-693.426	-200.000	0.019	-0.262
-692.412	432.471	-0.064	0.139
-691.397	800.000	-0.027	-0.100
-690.383	182.739	-0.059	0.087
-689.368	288.198	0.231	-0.420
-688.354	211.507	-0.267	0.421
-687.339	23.741	0.416	-0.344
-686.324	398.728	0.086	-0.180
-685.310	23.216	0.025	-0.020
-684.295	-60.806	0.142	-0.060
-683.281	357.424	0.212	-0.425
-682.266	-200.000	-0.028	-0.263
-681.251	-200.000	-0.019	-0.159
-680.237	240.793	0.109	-0.182
-679.222	-200.000	-0.028	-0.167
-678.208	415.432	0.015	0.033
-677.193	800.000	-0.030	-0.099
-676.178	96.392	0.204	0.234
-675.164	-196.010	-0.271	-0.002
-674.149	-10.360	-0.193	-0.128
-673.135	-200.000	-0.017	0.116
-672.120	417.567	-0.068	-0.145
-671.105	-71.425	-0.188	0.070
-670.091	-118.848	0.161	0.028
-669.076	-1.018	-0.173	-0.123
-668.062	800.000	0.048	0.201
-667.047	397.320	-0.083	0.174
-666.032	800.000	0.041	0.141
-665.018	-118.263	-0.266	0.047
-664.003	-155.454	-0.103	0.007
-662.989	54.184	-0.167	-0.161
-661.974	-82.785	-0.320	-0.104
-660.959	-200.000	0.037	0.239
-659.945	800.000	-0.063	0.194
-658.930	263.316	0.240	-0.419
-657.916	114.712	0.088	0.107
-656.901	50.283	-0.168	-0.159
-655.886	117.494	-0.262	-0.324
-654.872	-4.548	-0.248	0.171
-653.857	800.000	-0.032	0.119
-652.843	-179.079	0.138	-0.003
-651.828	800.000	0.080	0.350
-650.814	800.000	0.056	0.159
-649.799	-200.000	0.063	-0.401
-648.784	800.000	-0.072	-0.304
-647.770	-59.986	0.126	-0.054
-646.755	42.678	0.219	-0.199
-645.741	-200.000	0.014	0.086
-644.726	800.000	-0.009	-0.031
-643.711	90.006	0.140	-0.157
-642.697	587.959	0.006	0.014
-641.682	-200.000	-0.010	-0.052
-640.668	-200.000	0.013	0.081
-639.653	48.587	-0.231	0.217
-638.638	-200.000	-0.070	-0.349
-637.624	375.523	0.021	-0.043
-636.609	68.418	-0.062	-0.064
-635.595	-0.147	-0.347	-0.247
-634.580	-200.000	0.012	-0.130
-633.565	245.622	-0.119	-0.201
-632.551	37.525	-0.016	-0.014
-631.536	-84.548	0.153	-0.048
-630.522	-145.012	0.368	-0.034
-629.507	-200.000	0.028	0.125
-628.492	-200.000	0.005	0.341
-627.478	-45.389	-0.144	-0.072
-626.463	800.000	-0.132	0.383
-625.449	800.000	-0.036	-0.134
-624.434	33.254	-0.132	0.114
-623.419	-42.049	0.080	-0.041
-622.405	800.000	-0.045	0.164
-621.390	800.000	-0.060	0.184
-620.376	303.995	-0.119	-0.222
-619.361	-115.616	-0.045	-0.008
-618.346	-200.000	0.029	0.265
-617.332	800.000	0.096	-0.380
-616.317	2.049	0.194	-0.140
-615.303	-83.131	-0.330	-0.106
-614.288	198.256	0.033	-0.051
-613.273	16.864	0.159	-0.126
-612.259	-200.000	-0.009	0.142
-611.244	-52.586	-0.135	-0.062
-610.230	38.117	-0.109	0.097
-609.215	-72.528	0.082	-0.030
-608.201	-54.698	-0.174	-0.079
-607.186	-200.000	-0.041	0.204
-606.171	-126.519	-0.183	-0.027
-605.157	-116.262	0.131	-0.024
-604.142	176.485	0.129	-0.187
-603.128	264.055	0.024	0.041
-602.113	-200.000	0.012	-0.173
-601.098	-89.800	-0.145	-0.042
-600.084	-124.503	0.273	-0.042
-599.069	-200.000	-0.017	-0.138
-598.055	-200.000	0.044	0.364
-597.040	123.839	0.131	0.164
-596.025	316.256	-0.140	0.264
-595.011	-27.313	0.280	0.163
-593.996	20.777	-0.025	0.020
-592.982	800.000	0.048	0.143
-591.967	-86.506	0.316	-0.097
-590.952	-200.000	-0.020	0.104
-589.938	-131.612	0.250	-0.033
-588.923	-144.245	-0.369	-0.034
-587.909	-200.000	-0.030	-0.225
-586.894	-82.127	-0.156	0.051
-585.879	-25.916	-0.154	-0.091
-584.865	-99.148	-0.142	-0.036
-583.850	-13.201	-0.299	-0.194
-582.836	-57.636	0.339	0.148
-581.821	190.167	0.195	0.293
-580.806	69.008	0.119	-0.122
-579.792	582.546	0.049	-0.120
-578.777	342.842	-0.068	0.132
-577.763	178.052	-0.057	0.082
-576.748	-19.573	0.132	0.082
-575.733	-145.081	0.113	-0.010
-574.719	197.392	-0.153	-0.234
-573.704	132.484	0.032	0.041
-572.690	-1.690	-0.171	-0.120
-571.675	1.956	0.085	0.061
-570.661	80.905	-0.252	0.272
-569.646	-52.001	0.293	-0.136
-568.631	800.000	-0.051	-0.181
-567.617	-128.892	0.147	0.021
-566.602	67.702	-0.242	-0.247
-565.588	279.913	0.050	0.089
-564.573	-200.000	-0.064	0.477
-563.558	-154.230	-0.441	-0.030
-562.544	172.094	-0.076	0.110
-561.529	119.668	-0.105	0.130
-560.515	-30.856	-0.182	0.103
-559.500	800.000	0.048	-0.167
-558.485	342.230	-0.096	-0.187
-557.471	13.076	0.205	-0.159
-556.456	-21.476	0.275	-0.167
-555.442	-93.512	-0.065	0.018
-554.427	670.494	-0.090	0.234
-553.412	123.518	-0.106	0.132
-552.398	-91.074	0.054	0.015
-551.383	-79.290	-0.111	-0.038
-550.369	-200.000	-0.007	-0.281
-549.354	-152.687	0.140	-0.010
-548.339	800.000	0.110	-0.374
-547.325	-200.000	0.023	0.152
-546.310	383.566	0.110	-0.227
-545.296	-58.056	-0.157	-0.068
-544.281	-200.000	-0.007	-0.275
-543.266	-32.689	0.350	0.194
-542.252	800.000	-0.033	-0.098
-541.237	429.152	-0.094	0.203
-540.223	-200.000	-0.043	0.283
-539.208	120.333	-0.118	-0.147
-538.193	-124.678	0.230	-0.035
-537.179	-136.989	-0.175	-0.020
-536.164	31.320	-0.045	-0.039
-535.150	116.883	0.151	-0.185
-534.135	-48.772	-0.081	0.039
-533.121	800.000	-0.133	-0.562
-532.106	-200.000	0.005	-0.258
-531.091	-55.283	-0.081	0.036
-530.077	-24.244	-0.113	-0.067
-529.062	-200.000	-0.080	0.358
-528.048	-47.774	0.065	-0.032
-527.033	-64.657	-0.094	0.038
-526.018	-105.522	-0.406	0.092
-525.004	278.008	0.079	0.140
-523.989	-69.324	0.267	0.102
-522.975	-0.504	-0.142	0.100
-521.960	-200.000	0.060	-0.318
-520.945	0.455	0.211	-0.150
-519.931	-200.000	-0.035	-0.175
-518.916	160.569	0.136	-0.189
-517.902	56.736	-0.032	0.031
-516.887	-154.279	-0.299	0.020
-515.872	155.922	0.042	0.058
-514.858	344.670	0.133	-0.260
-513.843	-200.000	-0.045	0.291
-512.829	-200.000	-0.088	-0.388
-511.814	800.000	-0.112	-0.355
-510.799	-96.315	-0.299	-0.079
-509.785	-200.000	0.041	-0.445
-508.770	188.816	-0.123	0.183
-507.756	-200.000	-0.069	-0.311
-506.741	35.021	0.052	0.046
-505.726	-146.680	-0.241	-0.021
-504.712	800.000	0.086	-0.260
-503.697	-114.584	0.125	-0.024
-502.683	279.265	0.074	0.132
-501.668	172.771	-0.162	0.233
-500.653	-72.143	0.279	-0.103
-499.639	-148.328	-0.266	-0.022
-498.624	-46.631	0.383	-0.187
-497.610	642.052	-0.076	0.194
-496.595	-109.978	-0.107	0.022
-495.581	-200.000	0.002	0.126
-494.566	-89.213	0.381	-0.112
-493.551	-44.819	-0.114	0.057
-492.537	25.313	0.140	0.115
-491.522	391.368	-0.062	0.127
-490.508	-200.000	0.047	-0.286
-489.493	-152.285	-0.463	0.033
-488.478	-130.305	0.257	0.035
-487.464	-104.573	0.364	-0.084
-486.449	-92.376	-0.148	0.041
-485.435	-200.000	-0.012	0.309
-484.420	34.021	-0.011	-0.010
-483.405	-200.000	-0.023	-0.165
-482.391	14.034	-0.212	-0.165
-481.376	-14.441	-0.190	0.121
-480.362	-200.000	-0.017	0.107
-479.347	-200.000	-0.025	-0.256
-478.332	288.376	-0.085	-0.154
-477.318	-78.408	-0.126	0.043
-476.303	141.537	-0.075	-0.099
-475.289	366.010	0.031	0.063
-474.274	384.786	0.086	-0.177
-473.259	800.000	-0.045	-0.141
-472.245	529.325	0.240	0.564
-471.230	-16.695	-0.085	0.054
-470.216	-133.566	0.180	-0.022
-469.201	-44.400	-0.149	-0.074
-468.186	8.660	0.057	0.043
-467.172	-200.000	0.008	0.330
-466.157	783.149	-0.093	0.252
-465.143	-13.183	0.083	0.054
-464.128	-140.683	-0.164	-0.017
-463.113	-86.188	0.150	0.046
-462.099	111.405	-0.229	-0.275
-461.084	68.829	-0.299	0.306
-460.070	-155.285	0.268	-0.017
-459.055	800.000	-0.059	0.169
-458.040	-200.000	-0.042	0.458
-457.026	126.475	-0.144	0.182
-456.011	-90.457	-0.221	0.064
-454.997	-85.879	-0.111	-0.034
-453.982	765.315	0.124	-0.336
-452.968	-61.258	0.252	0.106
-451.953	-102.105	0.241	-0.058
-450.938	345.209	-0.047	0.091
-449.924	800.000	0.121	0.398
-448.909	800.000	-0.041	0.120
-447.895	-74.643	0.037	0.013
-446.880	328.456	0.076	0.146
-445.865	-110.822	-0.403	0.083
-444.851	276.907	0.224	-0.395
-443.836	-154.813	-0.196	-0.013
-442.822	-101.791	-0.265	0.064
-441.807	341.539	-0.038	-0.074
-440.792	369.164	-0.037	-0.075
-439.778	-62.321	0.074	0.031
-438.763	-106.767	-0.203	0.045
-437.749	-200.000	0.036	0.197
-436.734	-78.652	0.249	0.085
-435.719	-200.000	0.059	-0.260
-434.705	-200.000	0.025	0.230
-433.690	82.076	-0.083	-0.090
-432.676	-30.473	-0.413	-0.233
-431.661	66.523	-0.302	0.305
-430.646	726.957	0.048	0.127
-429.632	280.383	-0.096	-0.170
-428.617	-31.861	0.146	-0.081
-427.603	800.000	0.048	-0.146
-426.588	-107.745	0.263	0.057
-425.573	220.049	-0.141	-0.225
-424.559	-69.108	-0.166	0.063
-423.544	-200.000	0.002	-0.045
-422.530	119.646	0.129	-0.158
-421.515	-183.915	-0.274	-0.005
-420.500	-136.664	-0.106	-0.012
-419.486	91.692	0.191	-0.213
-418.471	245.831	0.199	0.333
-417.457	-39.315	-0.488	0.254
-416.442	800.000	-0.015	0.047
-415.428	9.508	0.085	0.064
-414.413	-31.764	0.204	0.114
-413.398	-72.059	-0.259	0.096
-412.384	-48.660	-0.099	-0.047
-411.369	-29.485	0.195	0.111
-410.355	-73.823	0.049	-0.018
-409.340	-200.000	0.014	0.135
-408.325	266.260	0.136	0.235
-407.311	29.479	0.106	-0.089
-406.296	800.000	0.080	0.258
-405.282	-83.062	0.330	-0.105
-404.267	-200.000	0.010	0.070
-403.252	-87.018	0.311	0.094
-402.238	-102.450	-0.051	-0.012
-401.223	117.056	-0.218	0.266
-400.209	34.995	-0.079	0.068
-399.194	193.901	0.116	0.174
-398.179	-200.000	-0.039	0.613
-397.165	-200.000	0.004	0.231
-396.150	165.021	0.077	0.108
-395.136	9.571	0.135	-0.102
-394.121	-17.313	0.153	-0.096
-393.106	-39.531	0.061	0.032
-392.092	10.066	0.123	-0.093
-391.077	-200.000	0.028	0.159
-390.063	800.000	0.080	0.244
-389.048	719.771	-0.084	0.221
-388.033	426.858	0.239	0.511
-387.019	-200.000	0.026	0.397
-386.004	-130.458	0.057	-0.008
-384.990	800.000	-0.049	-0.187
-383.975	383.794	-0.208	-0.424
-382.960	-101.639	0.193	-0.046
-381.946	109.127	-0.080	-0.095
-380.931	26.620	0.101	-0.084
-379.917	-200.000	0.074	0.323
-378.902	-154.283	-0.046	-0.003
-377.888	800.000	-0.005	-0.015
-376.873	53.811	-0.096	-0.092
-375.858	23.317	0.318	-0.259
-374.844	11.678	-0.031	0.023
-373.829	-200.000	-0.007	0.053
-372.815	330.030	0.046	-0.087
-371.800	63.262	-0.145	0.144
-370.785	46.633	-0.364	-0.335
-369.771	439.914	0.026	-0.056
-368.756	38.418	0.331	-0.292
-367.742	45.869	-0.382	0.350
-366.727	62.621	0.237	-0.235
-365.712	-81.982	0.172	-0.056
-364.698	-200.000	-0.009	-0.143
-363.683	-140.324	0.101	0.010
-362.669	-105.045	-0.240	-0.055
-361.654	215.757	-0.095	-0.150
-360.639	-200.000	-0.043	-0.415
-359.625	-25.015	-0.063	-0.037
-358.610	191.370	-0.178	-0.266
-357.596	75.375	0.028	-0.029
-356.581	598.367	0.051	0.126
-355.566	-77.195	-0.081	-0.028
-354.552	742.554	0.126	0.337
-353.537	-200.000	0.001	0.241
-352.523	-192.708	-0.034	0.000
-351.508	-5.086	-0.168	0.115
-350.493	-0.084	-0.159	0.112
-349.479	-34.348	-0.303	0.164
-348.464	211.495	0.208	0.325
-347.450	12.710	0.118	0.090
-346.435	-24.828	-0.303	-0.178
-345.420	-119.169	-0.389	-0.067
-344.406	-78.070	0.102	-0.035
-343.391	-1.270	-0.157	-0.110
-342.377	-12.145	0.302	0.196
-341.362	-48.339	0.383	0.183
-340.348	12.459	-0.103	0.079
-339.333	-165.201	0.099	0.004
-338.318	438.949	-0.081	0.175
-337.304	-49.597	0.157	0.074
-336.289	69.407	0.070	-0.071
-335.275	61.777	-0.161	-0.159
-334.260	403.823	0.199	0.415
-333.245	150.820	-0.080	0.108
-332.231	143.280	0.120	-0.159
-331.216	-148.023	-0.314	-0.026
-330.202	152.523	0.200	0.270
-329.187	-200.000	0.000	0.165
-328.172	-36.848	-0.419	0.223
-327.158	6.817	0.202	0.148
-326.143	170.366	-0.152	0.215
-325.129	-107.629	0.295	0.064
-324.114	156.168	0.128	-0.174
-323.099	65.903	0.268	-0.269
-322.085	400.770	-0.083	0.173
-321.070	-36.139	0.374	0.200
-320.056	102.557	-0.054	-0.063
-319.041	-200.000	-0.044	0.304
-318.026	-83.915	0.129	-0.041
-317.012	-27.380	-0.273	-0.157
-315.997	-200.000	0.023	-0.116
-314.983	-54.037	0.325	-0.146
-313.968	800.000	0.015	-0.047
-312.953	800.000	-0.027	-0.103
-311.939	-200.000	0.018	-0.089
-310.924	362.273	0.119	0.235
-309.910	-200.000	-0.006	0.234
-308.895	217.854	0.044	0.070
-307.880	54.658	-0.407	0.388
-306.866	800.000	0.063	-0.182
-305.851	106.858	-0.098	-0.116
-304.837	-12.486	0.264	-0.171
-303.822	214.932	-0.211	0.330
-302.807	-200.000	-0.008	0.124
-301.793	-99.740	0.231	0.057
-300.778	12.403	-0.314	-0.239
-299.764	-174.037	0.179	-0.005
-298.749	800.000	-0.101	0.346
-297.735	800.000	-0.066	-0.277
-296.720	280.261	0.149	-0.264
-295.705	132.816	-0.305	0.388
-294.691	-60.767	-0.080	0.033
-293.676	167.861	-0.060	0.084
-292.662	800.000	0.122	-0.392
-291.647	30.752	-0.222	-0.187
-290.632	-103.405	0.075	0.017
-289.618	329.099	0.136	-0.258
-288.603	155.371	-0.185	-0.252
-287.589	-200.000	0.010	0.142
-286.574	140.058	0.036	-0.046
-285.559	-166.537	0.170	0.007
-284.545	30.676	0.056	-0.048
-283.530	-2.172	0.076	0.053
-282.516	225.185	-0.189	-0.302
-281.501	291.054	0.055	0.098
-280.486	-200.000	0.012	-0.111
-279.472	-130.685	0.127	-0.017
-278.457	-38.365	-0.123	0.065
-277.443	-84.820	0.160	-0.050
-276.428	72.017	0.127	-0.130
-275.413	-102.543	-0.211	0.050
-274.399	11.011	0.131	-0.099
-273.384	-2.124	0.166	-0.115
-272.370	127.415	0.084	0.105
-271.355	141.426	0.101	-0.131
-270.340	62.191	0.121	0.119
-269.326	-200.000	-0.006	0.117
-268.311	-102.166	0.059	-0.014
-267.297	-42.216	-0.209	0.105
-266.282	-158.392	0.249	0.014
-265.267	165.560	0.114	0.159
-264.253	303.103	-0.060	0.109
-263.238	800.000	-0.070	-0.278
-262.224	800.000	0.030	0.110
-261.209	147.925	0.153	0.203
-260.195	43.401	-0.173	-0.156
-259.180	-140.347	0.271	0.028
-258.165	-70.435	0.411	0.154
-257.151	-32.226	0.128	0.070
-256.136	88.240	0.146	0.160
-255.122	-41.447	-0.042	0.021
-254.107	339.032	0.074	0.141
-253.092	122.879	-0.031	0.038
-252.078	-200.000	-0.031	-0.230
-251.063	800.000	-0.056	-0.198
-250.049	-200.000	-0.007	0.233
-249.034	-4.306	0.265	-0.181
-248.019	454.807	0.062	-0.135
-247.005	78.581	-0.105	0.111
-245.990	106.846	0.054	-0.064
-244.976	-65.228	-0.332	0.132
-243.961	-44.944	-0.187	0.092
-242.946	201.249	-0.147	0.223
-241.932	-46.796	0.092	-0.044
-240.917	-111.418	-0.279	-0.056
-239.903	-11.587	-0.214	0.139
-238.888	800.000	0.054	-0.175
-237.873	-97.796	-0.053	0.013
-236.859	-121.354	-0.141	0.023
-235.844	-200.000	-0.001	0.188
-234.830	-200.000	-0.078	-0.388
-233.815	-200.000	0.034	-0.168
-232.800	-200.000	-0.039	0.260
-231.786	-14.066	0.427	-0.272
-230.771	-74.871	-0.215	-0.076
-229.757	166.780	-0.099	0.139
-228.742	800.000	0.031	-0.091
-227.727	800.000	0.057	0.199
-226.713	293.480	0.216	0.388
-225.698	800.000	0.083	-0.265
-224.684	206.496	-0.065	-0.100
-223.669	-200.000	0.002	0.012
-222.655	-138.196	0.394	-0.043
-221.640	-113.858	0.303	-0.058
-220.625	122.811	-0.026	0.032
-219.611	800.000	0.027	-0.088
-218.596	-8.954	-0.246	-0.163
-217.582	212.433	-0.057	-0.089
-216.567	72.936	-0.268	0.276
-215.552	-48.991	-0.284	0.134
-214.538	800.000	0.051	-0.205
-213.523	123.189	0.178	-0.220
-212.509	22.699	0.251	0.203
-211.494	320.162	-0.052	-0.097
-210.479	-22.709	0.390	0.232
-209.465	641.118	-0.106	-0.266
-208.450	-125.100	0.214	0.032
-207.436	-131.568	0.310	0.040
-206.421	-42.625	0.212	-0.106
-205.406	-68.574	0.349	0.133
-204.392	-134.594	0.257	-0.031
-203.377	-200.000	0.000	0.321
-202.363	466.825	0.121	0.267
-201.348	-200.000	-0.005	-0.058
-200.333	20.961	-0.063	0.050
-199.319	-79.368	0.376	0.125
-198.304	59.659	-0.272	-0.264
-197.290	12.861	-0.209	0.159
-196.275	-200.000	0.096	0.417
-195.260	-51.090	0.100	-0.046
-194.246	309.316	0.105	-0.193
-193.231	783.121	-0.079	-0.212
-192.217	-156.153	-0.316	-0.020
-191.202	-200.000	-0.031	-0.261
-190.187	26.173	-0.272	0.224
-189.173	9.734	-0.079	-0.059
-188.158	-84.037	-0.145	0.045
-187.144	21.874	-0.202	-0.162
-186.129	-22.825	-0.174	0.104
-185.114	20.729	-0.084	0.067
-184.100	30.203	-0.307	-0.258
-183.085	-200.000	-0.025	0.299
-182.071	800.000	-0.026	-0.101
-181.056	373.694	-0.186	-0.372
-180.042	-30.887	0.153	-0.085
-179.027	800.000	-0.008	-0.028
-178.012	119.511	0.026	0.032
-176.998	-200.000	-0.017	0.199
-175.983	27.048	0.152	-0.126
-174.969	254.504	0.026	0.043
-173.954	-12.444	-0.105	0.067
-172.939	-36.347	-0.206	-0.109
-171.925	-21.866	0.361	-0.216
-170.910	-34.873	0.315	-0.169
-169.896	317.948	0.030	-0.056
-168.881	6.969	0.198	0.145
-167.866	-165.477	0.076	-0.003
-166.852	-49.538	-0.235	0.110
-165.837	262.487	0.082	0.140
-164.823	-134.614	0.336	0.040
-163.808	-200.000	0.015	0.120
-162.793	-97.303	0.119	-0.030
-161.779	119.929	-0.278	-0.339
-160.764	-94.961	0.164	0.044
-159.750	-29.581	-0.347	-0.195
-158.735	800.000	-0.025	-0.102
-157.720	389.594	-0.122	-0.249
-156.706	46.854	0.219	-0.200
-155.691	-200.000	-0.166	0.000
-154.677	-172.767	-0.238	0.007
-153.662	-200.000	0.044	-0.402
-152.647	1.984	-0.181	-0.128
-151.633	-200.000	0.023	-0.118
-150.618	177.232	0.128	0.184
-149.604	-200.000	0.023	-0.099
-148.589	-121.321	0.074	-0.012
-147.574	35.146	-0.094	-0.081
-146.560	-174.511	-0.417	-0.012
-145.545	-65.538	-0.153	-0.060
-144.531	-200.000	0.021	-0.300
-143.516	-200.000	0.010	-0.049
-142.502	-58.768	-0.061	0.026
-141.487	-8.980	0.214	-0.141
-140.472	-107.025	-0.197	0.043
-139.458	-82.555	0.223	0.071
-138.443	-25.802	-0.129	-0.075
-137.429	189.930	0.034	0.051
-136.414	-138.830	0.309	0.033
-135.399	46.189	0.157	-0.142
-134.385	-36.912	-0.125	0.066
-133.370	-200.000	0.006	0.129
-132.356	-17.464	0.190	0.117
-131.341	-200.000	0.024	0.350
-130.326	-68.494	-0.109	0.041
-129.312	-19.556	0.140	0.085
-128.297	429.001	0.136	0.288
-127.283	-56.919	-0.295	-0.128
-126.268	83.511	-0.126	-0.135
-125.253	-5.054	-0.059	0.040
-124.239	800.000	-0.069	0.244
-123.224	-200.000	-0.001	0.144
-122.210	-68.149	-0.125	-0.048
