DTS Sentinel unit serial number:	SN413079Multiplexer serial number:	ORYXHardware model number:	OX4-SRSoftware version number:	ORYX F/W v4.00 Oryx Data Collector v3.7.2.0data status	okinstallation	princeton_trtdifferential loss correction	single-endedforward channel	channel 1reverse channel	N/Adate	2019/09/16time	09:30:35forward acquisition time	60.00reverse acquisition time	0.00gamma	496.2192k internal	0.2321k external	0.2321temperature offset calibration	0.9968default loss term (dB/km)	0.3790temperature slope calibration	1.0000multiplexer offset coefficient	1.0000multiplexer slope coefficient	1.0000fibre end	0.00T internal ref (°C)	31.86T ext. ref 1 (°C)	12.22T ext. ref 2 (°C)	29.58length (m)	temperature (°C)	Stokes	anti-Stokes-747.200	-200.000	0.009	0.075
-746.185	-163.376	-0.290	0.014
-745.171	800.000	-0.088	0.364
-744.156	-200.000	0.034	0.292
-743.142	-156.111	0.347	-0.022
-742.127	92.763	-0.172	0.196
-741.112	-53.184	-0.320	0.148
-740.098	-168.508	0.349	-0.013
-739.083	800.000	-0.109	0.368
-738.069	83.571	-0.023	-0.026
-737.054	-28.496	0.156	0.091
-736.039	-18.603	-0.372	-0.235
-735.025	-53.850	0.267	0.123
-734.010	141.379	0.073	0.098
-732.996	14.828	-0.108	-0.086
-731.981	29.252	-0.442	-0.380
-730.966	-200.000	0.051	-0.316
-729.952	-64.332	-0.157	-0.065
-728.937	516.550	-0.034	-0.080
-727.923	-29.641	-0.143	-0.082
-726.908	-55.154	-0.083	0.038
-725.894	-200.000	-0.048	-0.469
-724.879	-140.409	-0.299	-0.031
-723.864	375.341	-0.081	-0.167
-722.850	-57.284	-0.088	0.039
-721.835	309.001	-0.172	-0.324
-720.821	182.080	0.075	0.112
-719.806	23.594	0.101	-0.084
-718.791	800.000	-0.109	-0.323
-717.777	292.363	-0.167	0.308
-716.762	35.559	-0.055	0.049
-715.748	-97.208	0.268	-0.071
-714.733	5.877	0.223	-0.167
-713.718	445.548	0.077	0.171
-712.704	800.000	-0.054	0.212
-711.689	14.221	-0.088	0.069
-710.675	313.888	-0.014	0.027
-709.660	-80.393	0.163	-0.055
-708.645	-200.000	0.012	0.079
-707.631	800.000	0.014	0.055
-706.616	444.414	0.066	-0.146
-705.602	22.172	-0.032	0.026
-704.587	-73.281	0.194	0.072
-703.572	141.390	0.119	0.158
-702.558	-200.000	-0.006	-0.188
-701.543	131.619	-0.159	0.207
-700.529	-179.059	0.099	0.002
-699.514	275.970	-0.130	0.234
-698.499	110.399	0.076	-0.092
-697.485	800.000	-0.122	-0.427
-696.470	-200.000	0.036	-0.330
-695.456	800.000	-0.036	-0.129
-694.441	-8.751	-0.076	0.052
-693.426	-141.426	0.067	-0.007
-692.412	108.047	0.211	-0.254
-691.397	-145.989	-0.308	0.028
-690.383	-200.000	-0.004	-0.130
-689.368	270.300	-0.124	-0.220
-688.354	110.849	0.229	0.277
-687.339	-200.000	0.033	0.300
-686.324	-200.000	-0.004	0.313
-685.310	800.000	-0.092	0.274
-684.295	54.241	0.092	0.089
-683.281	-68.161	0.045	0.018
-682.266	-101.350	0.267	0.066
-681.251	-118.712	-0.081	0.014
-680.237	37.123	-0.101	0.090
-679.222	-8.047	0.081	0.055
-678.208	-119.859	0.100	-0.017
-677.193	-87.485	-0.234	-0.071
-676.178	-200.000	-0.024	0.186
-675.164	-0.118	0.091	-0.065
-674.149	-158.675	0.331	-0.019
-673.135	277.240	0.185	0.332
-672.120	-192.065	0.153	-0.001
-671.105	302.758	0.050	0.093
-670.091	-170.266	0.464	0.016
-669.076	-200.000	0.027	0.160
-668.062	800.000	-0.063	-0.249
-667.047	29.429	0.134	0.114
-666.032	-90.216	-0.224	-0.066
-665.018	1.978	-0.289	-0.210
-664.003	589.365	0.059	-0.145
-662.989	-15.160	0.316	-0.204
-661.974	-34.669	-0.134	0.074
-660.959	-147.485	-0.110	-0.009
-659.945	-77.336	0.273	0.096
-658.930	-23.390	0.092	0.056
-657.916	596.084	-0.166	-0.415
-656.901	485.627	0.115	0.263
-655.886	256.192	-0.052	-0.090
-654.872	-200.000	-0.011	0.050
-653.857	537.476	-0.159	-0.380
-652.843	16.583	0.163	-0.130
-651.828	800.000	-0.109	-0.452
-650.814	800.000	-0.023	0.064
-649.799	-0.480	0.116	0.083
-648.784	-126.763	-0.451	-0.067
-647.770	-200.000	-0.002	-0.107
-646.755	58.517	0.208	-0.205
-645.741	-114.786	-0.316	0.061
-644.726	18.204	0.090	0.072
-643.711	82.465	-0.146	-0.159
-642.697	681.169	-0.153	-0.401
-641.682	-132.838	-0.219	0.028
-640.668	-143.130	-0.308	0.030
-639.653	-70.474	-0.176	-0.067
-638.638	-200.000	-0.044	-0.278
-637.624	800.000	-0.006	-0.022
-636.609	-76.879	-0.446	0.157
-635.595	368.363	0.033	-0.066
-634.580	-200.000	-0.031	-0.181
-633.565	104.462	-0.027	0.033
-632.551	74.695	0.145	-0.154
-631.536	39.240	0.129	-0.116
-630.522	-68.690	0.143	-0.056
-629.507	-200.000	-0.030	0.219
-628.492	800.000	-0.115	-0.354
-627.478	506.634	0.060	0.141
-626.463	-86.374	-0.156	-0.048
-625.449	116.569	-0.079	-0.098
-624.434	-95.558	0.148	-0.040
-623.419	-200.000	0.043	-0.234
-622.405	-200.000	-0.049	-0.228
-621.390	-200.000	-0.032	0.250
-620.376	-124.215	-0.480	-0.076
-619.361	-162.425	-0.137	0.007
-618.346	-87.629	-0.160	0.048
-617.332	-70.589	-0.015	-0.006
-616.317	100.232	0.064	0.075
-615.303	475.917	0.011	-0.024
-614.288	186.570	0.109	-0.163
-613.273	-162.627	0.186	-0.009
-612.259	-200.000	0.036	0.347
-611.244	-200.000	-0.016	-0.070
-610.230	-67.365	0.144	0.057
-609.215	-91.568	0.379	0.109
-608.201	7.524	-0.185	-0.139
-607.186	-200.000	0.007	0.103
-606.171	-200.000	-0.038	0.223
-605.157	-44.126	-0.309	0.156
-604.142	800.000	-0.033	-0.110
-603.128	-58.785	-0.427	-0.186
-602.113	-83.599	-0.174	0.056
-601.098	-30.077	0.222	0.127
-600.084	-95.859	0.106	0.028
-599.069	-76.374	0.478	-0.169
-598.055	-101.512	0.137	0.033
-597.040	-74.781	-0.083	-0.030
-596.025	473.373	0.228	0.516
-595.011	-200.000	0.006	0.113
-593.996	494.439	0.065	-0.149
-592.982	-67.364	0.161	-0.063
-591.967	800.000	-0.155	-0.490
-590.952	-105.180	-0.394	0.090
-589.938	30.831	0.181	0.156
-588.923	-28.303	-0.050	-0.029
-587.909	-22.216	0.117	-0.071
-586.894	-154.252	-0.156	0.011
-585.879	463.563	-0.088	-0.198
-584.865	119.360	-0.193	0.239
-583.850	-65.910	-0.143	-0.058
-582.836	322.476	-0.059	0.113
-581.821	110.651	-0.146	-0.176
-580.806	-134.595	-0.235	0.029
-579.792	94.776	-0.199	-0.228
-578.777	-200.000	0.038	-0.379
-577.763	-114.229	-0.096	-0.019
-576.748	42.036	0.168	-0.153
-575.733	14.340	0.130	-0.102
-574.719	64.042	-0.271	0.274
-573.704	-115.129	-0.318	0.060
-572.690	-200.000	-0.044	0.341
-571.675	75.485	-0.195	0.206
-570.661	51.786	-0.019	0.018
-569.646	567.917	0.040	0.098
-568.631	-28.046	0.149	-0.086
-567.617	-27.724	-0.151	0.088
-566.602	-123.946	0.157	-0.025
-565.588	156.277	-0.008	-0.011
-564.573	-200.000	0.012	0.189
-563.558	-28.100	0.203	-0.118
-562.544	-37.156	-0.108	-0.058
-561.529	-200.000	-0.062	-0.285
-560.515	-200.000	-0.047	-0.224
-559.500	58.962	-0.046	-0.045
-558.485	-200.000	0.015	-0.103
-557.471	-200.000	-0.030	0.196
-556.456	800.000	0.020	0.072
-555.442	-86.289	-0.136	0.042
-554.427	800.000	0.026	-0.084
-553.412	-102.164	0.021	-0.005
-552.398	800.000	-0.113	0.326
-551.383	156.550	0.118	0.164
-550.369	-200.000	-0.022	-0.359
-549.354	-113.245	-0.349	-0.069
-548.339	-15.231	-0.095	0.061
-547.325	79.869	-0.245	-0.264
-546.310	87.753	0.280	0.311
-545.296	-200.000	-0.036	0.326
-544.281	-63.497	-0.288	-0.119
-543.266	-200.000	-0.029	-0.375
-542.252	-121.522	-0.434	0.072
-541.237	44.188	0.147	-0.135
-540.223	-132.727	0.219	-0.028
-539.208	2.047	-0.119	-0.086
-538.193	13.974	-0.073	-0.057
-537.179	-200.000	-0.008	0.045
-536.164	336.578	-0.060	0.118
-535.150	64.532	0.212	0.214
-534.135	-200.000	0.026	0.411
-533.121	-54.430	-0.237	0.108
-532.106	-147.794	-0.209	-0.018
-531.091	762.583	0.044	-0.121
-530.077	684.179	-0.044	-0.116
-529.062	-34.290	-0.363	0.200
-528.048	-6.990	0.126	0.086
-527.033	800.000	0.054	-0.203
-526.018	300.356	0.132	-0.244
-525.004	313.056	-0.204	-0.384
-523.989	2.750	-0.170	-0.123
-522.975	16.088	-0.041	0.033
-521.960	-106.257	0.219	-0.049
-520.945	477.660	-0.089	0.202
-519.931	-200.000	-0.005	0.028
-518.916	-158.643	-0.096	0.006
-517.902	68.334	0.145	0.149
-516.887	-200.000	0.002	0.018
-515.872	-141.940	-0.291	-0.029
-514.858	800.000	0.118	-0.448
-513.843	387.757	0.178	-0.368
-512.829	-67.785	0.152	0.060
-511.814	-126.607	-0.369	0.055
-510.799	-200.000	-0.049	-0.392
-509.785	-114.019	0.340	-0.066
-508.770	800.000	-0.069	0.209
-507.756	-200.000	0.002	0.320
-506.741	-146.434	0.071	-0.006
-505.726	-200.000	0.017	0.472
-504.712	-200.000	-0.037	0.237
-503.697	-200.000	-0.023	0.200
-502.683	-146.846	-0.246	-0.021
-501.668	-200.000	0.047	0.234
-500.653	-117.474	0.226	-0.041
-499.639	195.611	-0.083	-0.126
-498.624	-196.969	0.292	-0.002
-497.610	-54.398	-0.134	-0.061
-496.595	249.094	-0.164	0.278
-495.581	-19.688	-0.346	0.214
-494.566	-22.717	0.054	0.033
-493.551	-63.182	-0.122	0.051
-492.537	-108.947	0.159	-0.034
-491.522	712.816	0.110	0.291
-490.508	9.465	0.213	-0.161
-489.493	-46.874	-0.228	-0.112
-488.478	282.534	-0.086	0.154
-487.464	122.156	0.077	0.096
-486.449	159.897	0.060	0.084
-485.435	-9.314	0.183	0.122
-484.420	31.347	0.173	-0.148
-483.405	800.000	0.126	0.478
-482.391	358.695	-0.194	0.388
-481.376	-71.102	0.173	0.065
-480.362	-97.343	-0.152	-0.039
-479.347	-126.043	-0.170	0.026
-478.332	-200.000	0.026	0.185
-477.318	-100.219	0.446	-0.111
-476.303	-200.000	0.021	0.315
-475.289	-46.085	-0.327	0.161
-474.274	-72.238	-0.131	0.048
-473.259	800.000	0.050	0.164
-472.245	109.787	0.120	-0.144
-471.230	-63.116	-0.348	0.144
-470.216	-47.328	-0.209	-0.102
-469.201	-200.000	-0.121	0.768
-468.186	-200.000	-0.021	-0.099
-467.172	-200.000	-0.013	-0.168
-466.157	11.815	0.017	0.013
-465.143	-25.731	0.392	0.231
-464.128	-70.660	0.272	0.103
-463.113	-106.232	-0.312	0.070
-462.099	-108.123	0.274	0.059
-461.084	155.671	0.177	0.244
-460.070	800.000	0.109	0.389
-459.055	283.704	0.234	-0.420
-458.040	-98.336	0.414	0.106
-457.026	-200.000	-0.012	0.081
-456.011	27.615	-0.114	0.096
-454.997	766.515	0.087	-0.236
-453.982	-20.453	0.107	-0.066
-452.968	-200.000	0.003	-0.198
-451.953	-162.004	0.371	-0.019
-450.938	129.876	-0.197	-0.252
-449.924	800.000	-0.091	-0.359
-448.909	37.906	0.174	0.155
-447.895	81.923	0.229	-0.247
-446.880	-200.000	-0.061	-0.404
-445.865	82.428	-0.055	0.060
-444.851	109.778	-0.247	-0.296
-443.836	-32.074	0.061	0.034
-442.822	-127.659	-0.144	0.021
-441.807	-126.653	-0.607	0.090
-440.792	-125.668	-0.095	-0.014
-439.778	-22.143	-0.206	-0.125
-438.763	195.213	0.133	0.202
-437.749	-58.609	0.317	0.137
-436.734	-133.009	-0.184	0.023
-435.719	-120.503	-0.288	0.049
-434.705	99.742	-0.068	-0.078
-433.690	-200.000	-0.004	0.069
-432.676	800.000	0.044	-0.160
-431.661	264.110	-0.125	-0.217
-430.646	228.752	0.190	-0.309
-429.632	482.029	-0.070	0.158
-428.617	-12.273	-0.104	-0.068
-427.603	-200.000	0.025	-0.324
-426.588	-200.000	-0.070	-0.445
-425.573	-110.270	-0.314	0.065
-424.559	-200.000	0.042	-0.243
-423.544	800.000	0.154	-0.567
-422.530	-200.000	0.048	-0.277
-421.515	-200.000	0.071	0.334
-420.500	-166.064	0.287	0.012
-419.486	-200.000	-0.016	-0.314
-418.471	217.741	-0.087	0.139
-417.457	-93.689	0.199	0.055
-416.442	147.193	-0.345	-0.463
-415.428	-200.000	-0.011	-0.095
-414.413	451.883	0.215	0.474
-413.398	282.054	-0.130	-0.232
-412.384	-200.000	-0.030	-0.172
-411.369	-19.482	-0.202	0.125
-410.355	-200.000	0.046	-0.304
-409.340	-69.653	-0.324	0.124
-408.325	-44.803	0.246	0.122
-407.311	238.750	0.071	-0.118
-406.296	-200.000	0.010	-0.054
-405.282	-133.177	0.083	-0.011
-404.267	357.599	-0.144	0.286
-403.252	-77.562	-0.248	0.086
-402.238	800.000	0.066	0.250
-401.223	-200.000	-0.004	-0.036
-400.209	-35.142	-0.170	0.093
-399.194	-41.240	0.241	0.124
-398.179	-200.000	-0.024	-0.190
-397.165	-140.967	-0.159	-0.016
-396.150	81.552	0.053	-0.057
-395.136	-64.413	0.151	-0.061
-394.121	-200.000	0.031	0.188
-393.106	138.821	-0.032	-0.041
-392.092	-200.000	0.104	0.482
-391.077	165.633	-0.191	-0.269
-390.063	-200.000	-0.018	-0.580
-389.048	-72.086	-0.202	-0.075
-388.033	-26.873	-0.195	-0.114
-387.019	-4.435	0.147	0.101
-386.004	-33.168	0.366	-0.202
-384.990	-85.736	-0.176	-0.054
-383.975	-200.000	0.024	-0.152
-382.960	800.000	-0.057	-0.219
-381.946	447.660	0.024	-0.052
-380.931	-200.000	0.000	-0.086
-379.917	263.481	-0.092	0.159
-378.902	-19.953	-0.437	0.269
-377.888	255.165	-0.064	0.110
-376.873	477.494	-0.078	-0.177
-375.858	229.603	0.027	0.044
-374.844	-70.190	0.226	0.085
-373.829	-200.000	0.006	0.124
-372.815	43.781	-0.198	-0.180
-371.800	-36.883	-0.227	-0.121
-370.785	-78.479	-0.283	-0.096
-369.771	81.143	0.308	0.331
-368.756	0.147	-0.316	-0.224
-367.742	-105.222	0.203	-0.046
-366.727	-8.845	-0.310	0.207
-365.712	-177.515	0.268	-0.007
-364.698	-69.450	0.680	0.260
-363.683	-88.055	-0.099	0.030
-362.669	488.880	0.073	0.166
-361.654	-200.000	-0.046	0.232
-360.639	207.330	0.234	0.363
-359.625	-200.000	-0.046	0.305
-358.610	-68.797	0.326	0.125
-357.596	-159.616	-0.275	0.015
-356.581	-86.111	0.054	0.017
-355.566	-30.949	0.069	-0.039
-354.552	446.065	0.071	0.155
-353.537	-135.101	0.293	-0.035
-352.523	551.536	-0.046	-0.110
-351.508	-200.000	-0.000	-0.052
-350.493	-116.036	-0.300	-0.056
-349.479	-63.271	-0.125	-0.051
-348.464	-155.667	0.117	0.007
-347.450	195.632	0.088	-0.133
-346.435	800.000	-0.128	0.360
-345.420	-119.740	0.176	-0.030
-344.406	679.786	-0.031	-0.080
-343.391	800.000	-0.083	0.308
-342.377	736.539	0.039	0.104
-341.362	206.059	-0.083	0.129
-340.348	160.131	0.071	-0.098
-339.333	38.175	-0.233	0.207
-338.318	656.142	0.026	0.067
-337.304	130.159	0.182	-0.232
-336.289	-107.980	-0.069	-0.015
-335.275	-89.431	0.394	0.115
-334.260	94.505	-0.201	-0.227
-333.245	180.254	0.225	-0.328
-332.231	166.507	0.079	0.111
-331.216	-200.000	0.036	0.179
-330.202	794.921	-0.096	-0.264
-329.187	-85.367	0.223	0.069
-328.172	381.872	0.027	0.056
-327.158	-69.829	-0.103	-0.039
-326.143	-17.739	-0.172	-0.108
-325.129	52.873	0.040	0.038
-324.114	621.218	0.087	-0.217
-323.099	-139.164	-0.079	-0.008
-322.085	22.000	0.143	-0.116
-321.070	-150.578	-0.166	-0.013
-320.056	-29.864	0.349	0.198
-319.041	-200.000	0.031	0.163
-318.026	-151.443	0.222	0.016
-317.012	398.342	-0.145	0.302
-315.997	258.436	0.077	0.131
-314.983	-106.384	0.107	0.024
-313.968	-200.000	-0.011	-0.198
-312.953	26.284	0.117	-0.097
-311.939	-141.810	-0.063	0.006
-310.924	-200.000	-0.015	-0.245
-309.910	48.686	-0.228	0.212
-308.895	-15.492	-0.262	-0.166
-307.880	-16.523	0.067	0.042
-306.866	545.435	0.087	-0.207
-305.851	67.473	0.193	-0.196
-304.837	241.448	0.151	-0.250
-303.822	-106.012	0.213	0.048
-302.807	44.262	0.098	-0.089
-301.793	67.009	0.191	-0.194
-300.778	21.636	-0.203	-0.164
-299.764	68.086	0.174	-0.177
-298.749	-200.000	0.022	-0.208
-297.735	-200.000	0.001	-0.059
-296.720	201.843	0.116	-0.177
-295.705	800.000	0.049	0.181
-294.691	-200.000	-0.007	0.071
-293.676	408.012	-0.018	-0.038
-292.662	800.000	-0.026	-0.088
-291.647	800.000	0.118	-0.423
-290.632	800.000	0.029	-0.114
-289.618	26.864	0.245	0.204
-288.603	-200.000	-0.004	-0.249
-287.589	198.640	0.041	0.063
-286.574	-200.000	-0.061	-0.571
-285.559	-200.000	0.005	0.252
-284.545	800.000	-0.124	-0.437
-283.530	-138.382	-0.272	-0.030
-282.516	800.000	-0.050	-0.206
-281.501	144.070	0.252	0.333
-280.486	-31.423	-0.069	-0.038
-279.472	800.000	0.081	0.349
-278.457	-95.775	0.388	-0.103
-277.443	800.000	0.027	-0.082
-276.428	-200.000	-0.032	0.238
-275.413	-200.000	0.004	-0.154
-274.399	39.462	0.220	0.196
-273.384	126.101	-0.103	-0.130
-272.370	62.927	0.201	0.199
-271.355	20.369	0.372	0.299
-270.340	-65.900	0.111	-0.044
-269.326	13.413	-0.237	0.182
-268.311	-86.180	-0.321	0.098
-267.297	29.754	-0.277	0.234
-266.282	120.236	-0.161	-0.199
-265.267	-11.642	0.152	-0.099
-264.253	-200.000	0.004	-0.361
-263.238	-69.123	-0.101	0.039
-262.224	478.399	-0.040	-0.090
-261.209	-200.000	-0.068	0.328
-260.195	-21.612	-0.092	0.056
-259.180	-200.000	0.002	-0.292
-258.165	-48.061	0.108	0.052
-257.151	-200.000	-0.012	-0.291
-256.136	800.000	0.047	-0.141
-255.122	202.387	0.046	0.071
-254.107	-118.449	-0.098	-0.017
-253.092	-68.438	0.237	0.091
-252.078	-200.000	-0.029	0.361
-251.063	-59.365	0.089	-0.038
-250.049	-96.169	0.417	0.110
-249.034	3.783	-0.205	0.148
-248.019	-200.000	-0.029	-0.340
-247.005	236.022	-0.037	-0.061
-245.990	-25.565	0.163	-0.096
-244.976	329.167	0.077	0.147
-243.961	295.308	0.099	-0.179
-242.946	-200.000	0.014	-0.364
-241.932	752.925	-0.079	-0.210
-240.917	-200.000	0.006	-0.287
-239.903	5.914	-0.169	-0.124
-238.888	-1.338	0.207	-0.145
-237.873	-200.000	-0.000	0.056
-236.859	-100.319	0.118	-0.029
-235.844	-102.612	0.189	-0.045
-234.830	430.468	-0.138	-0.295
-233.815	-200.000	-0.005	-0.253
-232.800	70.141	0.279	0.285
-231.786	298.331	0.029	0.054
-230.771	-17.029	-0.387	0.242
-229.757	28.128	0.056	0.047
-228.742	800.000	0.128	0.353
-227.727	-16.644	0.103	-0.065
-226.713	-200.000	-0.006	0.270
-225.698	-200.000	-0.036	0.306
-224.684	-48.072	0.113	-0.054
-223.669	800.000	0.027	-0.088
-222.655	58.790	0.111	0.108
-221.640	-128.541	0.272	-0.038
-220.625	-69.623	0.288	-0.109
-219.611	-117.302	-0.315	-0.057
-218.596	-58.226	0.226	0.098
-217.582	-4.625	0.125	-0.085
-216.567	-60.216	-0.218	0.092
-215.552	44.275	0.234	0.213
-214.538	4.875	0.270	0.197
-213.523	85.074	0.242	-0.263
-212.509	-200.000	-0.008	-0.088
-211.494	187.073	-0.111	0.164
-210.479	-54.264	0.274	0.123
-209.465	-200.000	0.032	0.350
-208.450	-78.699	-0.157	0.053
-207.436	438.741	0.243	0.525
-206.421	800.000	-0.090	0.317
-205.406	69.948	-0.263	0.268
-204.392	-12.182	0.041	-0.027
-203.377	-200.000	-0.037	0.327
-202.363	630.424	0.055	-0.138
-201.348	280.078	0.207	-0.367
-200.333	-200.000	0.013	0.124
-199.319	-41.778	-0.214	0.109
-198.304	800.000	0.104	0.440
-197.290	114.559	0.071	0.085
-196.275	-56.939	-0.264	0.115
-195.260	-120.531	0.119	-0.020
-194.246	460.491	0.218	0.480
-193.231	334.860	0.036	0.069
-192.217	800.000	0.043	0.171
-191.202	98.274	0.016	-0.018
-190.187	-105.156	0.153	-0.035
-189.173	209.353	-0.108	-0.168
-188.158	470.697	-0.120	0.266
-187.144	-76.501	-0.197	0.068
-186.129	-90.033	0.368	0.106
-185.114	40.637	-0.266	0.237
-184.100	19.270	0.216	0.171
-183.085	32.262	-0.040	-0.034
-182.071	64.783	-0.110	0.109
-181.056	693.302	-0.085	-0.220
-180.042	-200.000	-0.051	-0.405
-179.027	135.380	-0.064	-0.082
-178.012	-123.016	-0.143	0.023
-176.998	800.000	0.087	0.254
-175.983	-200.000	0.020	-0.109
-174.969	-200.000	0.026	-0.186
-173.954	-27.744	-0.078	-0.045
-172.939	-161.509	0.099	0.005
-171.925	723.268	0.124	0.327
-170.910	-200.000	-0.004	0.332
-169.896	112.110	-0.091	0.109
-168.881	40.892	0.094	0.084
-167.866	-127.085	0.242	-0.035
-166.852	-200.000	0.008	-0.109
-165.837	22.513	0.255	-0.206
-164.823	-91.474	0.144	0.041
-163.808	-38.459	0.188	0.098
-162.793	800.000	0.015	-0.065
-161.779	9.515	-0.068	-0.051
-160.764	-21.977	-0.212	-0.127
-159.750	-200.000	-0.002	-0.122
-158.735	-99.790	-0.356	0.088
-157.720	800.000	0.076	-0.293
-156.706	-181.762	0.345	0.007
-155.691	-26.065	0.203	0.118
-154.677	800.000	0.058	-0.189
-153.662	-200.000	0.042	-0.301
-152.647	-200.000	0.005	0.033
-151.633	-102.884	-0.208	-0.049
-150.618	74.646	0.034	-0.035
-149.604	4.091	0.079	-0.057
-148.589	116.070	-0.103	-0.125
-147.574	-166.883	-0.169	0.007
-146.560	-200.000	-0.014	-0.241
-145.545	3.316	-0.118	0.085
-144.531	-200.000	0.001	0.390
-143.516	243.142	0.125	-0.206
-142.502	-77.304	0.212	-0.073
-141.487	-72.256	0.055	-0.020
-140.472	-174.646	0.376	0.011
-139.458	22.022	0.149	0.120
-138.443	-98.551	-0.259	0.065
-137.429	660.021	0.111	0.282
-136.414	-200.000	-0.022	0.386
-135.399	315.789	0.097	0.181
-134.385	48.505	-0.216	-0.200
-133.370	-83.567	-0.062	0.020
-132.356	107.876	-0.184	0.216
-131.341	-116.351	-0.184	0.034
-130.326	-97.898	0.077	0.020
-129.312	50.502	0.154	-0.144
-128.297	162.194	-0.030	-0.041
-127.283	133.510	0.298	0.380
-126.268	-5.538	0.159	0.107
-125.253	483.180	-0.009	0.021
-124.239	325.597	0.053	-0.100
-123.224	-9.133	-0.184	0.122
-122.210	800.000	0.063	0.174
