DTS Sentinel unit serial number:	SN413079Multiplexer serial number:	ORYXHardware model number:	OX4-SRSoftware version number:	ORYX F/W v4.00 Oryx Data Collector v3.7.2.0data status	okinstallation	princeton_trtdifferential loss correction	single-endedforward channel	channel 1reverse channel	N/Adate	2019/09/12time	17:00:11forward acquisition time	60.00reverse acquisition time	0.00gamma	496.2192k internal	0.2311k external	0.2311temperature offset calibration	1.0096default loss term (dB/km)	0.3790temperature slope calibration	1.0000multiplexer offset coefficient	1.0000multiplexer slope coefficient	1.0000fibre end	0.00T internal ref (°C)	35.77T ext. ref 1 (°C)	2.76T ext. ref 2 (°C)	28.89length (m)	temperature (°C)	Stokes	anti-Stokes-747.200	730.329	0.012	-0.033
-746.185	4.755	0.194	0.145
-745.171	800.000	0.014	0.057
-744.156	800.000	-0.035	0.106
-743.142	800.000	-0.050	-0.213
-742.127	-148.872	-0.346	0.028
-741.112	-200.000	-0.002	-0.113
-740.098	-200.000	-0.033	0.214
-739.083	9.147	-0.235	0.180
-738.069	-200.000	-0.033	0.399
-737.054	-133.343	-0.039	0.005
-736.039	-200.000	-0.014	-0.135
-735.025	-127.286	0.233	-0.034
-734.010	-130.791	0.008	-0.001
-732.996	-117.483	-0.464	-0.085
-731.981	-200.000	-0.013	0.311
-730.966	38.720	-0.018	0.017
-729.952	-160.654	-0.352	0.019
-728.937	-200.000	0.006	-0.047
-727.923	-28.631	-0.293	0.171
-726.908	130.694	0.253	-0.330
-725.894	315.616	0.073	-0.140
-724.879	-76.600	0.225	0.080
-723.864	800.000	0.125	0.405
-722.850	92.503	0.204	0.233
-721.835	-200.000	0.001	-0.068
-720.821	698.751	0.106	0.284
-719.806	-125.236	-0.270	0.042
-718.791	-200.000	-0.063	0.334
-717.777	-42.382	-0.329	-0.170
-716.762	-44.561	-0.330	-0.167
-715.748	168.175	-0.210	-0.303
-714.733	366.475	-0.151	0.309
-713.718	343.635	0.129	0.257
-712.704	-98.716	0.241	-0.062
-711.689	-20.439	-0.233	0.145
-710.675	-200.000	-0.031	0.177
-709.660	111.105	0.076	-0.093
-708.645	120.447	0.101	0.127
-707.631	3.779	-0.161	0.119
-706.616	-200.000	0.066	0.315
-705.602	800.000	0.031	-0.116
-704.587	-200.000	0.016	0.194
-703.572	-116.519	-0.017	-0.003
-702.558	-200.000	0.020	0.174
-701.543	206.448	-0.037	-0.058
-700.529	-153.586	0.103	-0.007
-699.514	-65.402	-0.252	-0.103
-698.499	425.346	-0.121	-0.263
-697.485	-20.287	-0.221	-0.138
-696.470	182.611	0.031	-0.046
-695.456	-77.287	-0.079	0.028
-694.441	52.173	0.049	0.047
-693.426	-192.393	0.261	-0.002
-692.412	-77.806	-0.327	0.115
-691.397	58.397	-0.164	0.163
-690.383	-166.333	0.204	0.009
-689.368	409.642	-0.152	-0.326
-688.354	-199.104	-0.040	-0.000
-687.339	-68.562	0.039	-0.015
-686.324	173.439	-0.193	-0.282
-685.310	231.974	0.207	-0.344
-684.295	83.752	-0.126	0.140
-683.281	-92.529	-0.423	0.120
-682.266	-200.000	-0.046	-0.223
-681.251	94.524	-0.073	0.084
-680.237	183.208	0.157	0.235
-679.222	-200.000	0.007	-0.155
-678.208	-84.172	-0.331	-0.106
-677.193	-200.000	0.021	-0.120
-676.178	-40.430	-0.359	0.189
-675.164	798.435	-0.047	0.132
-674.149	-200.000	0.013	-0.091
-673.135	-28.947	-0.275	0.160
-672.120	800.000	-0.095	0.277
-671.105	275.369	0.151	0.270
-670.091	-13.372	0.172	-0.113
-669.076	422.900	0.131	-0.284
-668.062	138.380	0.134	-0.178
-667.047	171.081	-0.120	0.175
-666.032	-97.540	-0.361	-0.095
-665.018	29.796	0.156	-0.134
-664.003	-183.158	-0.153	-0.003
-662.989	602.874	0.076	-0.192
-661.974	93.427	0.077	-0.089
-660.959	2.409	-0.035	0.026
-659.945	-63.161	-0.127	-0.053
-658.930	345.727	-0.041	0.082
-657.916	29.008	0.084	0.072
-656.901	78.337	-0.332	-0.358
-655.886	577.639	0.095	-0.235
-654.872	-75.098	-0.306	0.111
-653.857	-96.054	-0.261	-0.070
-652.843	-44.107	-0.060	0.030
-651.828	78.599	-0.108	-0.117
-650.814	269.787	0.156	0.278
-649.799	465.899	0.058	0.131
-648.784	-200.000	-0.005	-0.275
-647.770	-92.829	0.056	0.016
-646.755	800.000	0.101	-0.417
-645.741	-57.147	-0.189	-0.084
-644.726	-200.000	0.012	0.075
-643.711	-97.867	-0.108	-0.028
-642.697	30.168	0.110	-0.095
-641.682	-55.083	0.213	-0.097
-640.668	217.915	-0.079	-0.127
-639.653	195.117	-0.213	-0.328
-638.638	-200.000	0.006	0.207
-637.624	-65.576	0.291	0.118
-636.609	-31.338	-0.106	0.060
-635.595	67.859	0.269	0.278
-634.580	127.494	-0.023	0.030
-633.565	64.503	0.022	-0.022
-632.551	0.166	0.152	0.110
-631.536	-200.000	0.053	-0.384
-630.522	-153.589	0.480	-0.033
-629.507	-45.045	-0.149	-0.075
-628.492	126.411	-0.190	-0.242
-627.478	156.587	0.082	-0.114
-626.463	-33.866	-0.134	-0.075
-625.449	-98.113	-0.147	-0.038
-624.434	-56.138	0.329	0.148
-623.419	217.017	-0.119	-0.191
-622.405	800.000	-0.102	-0.340
-621.390	-37.011	-0.098	-0.053
-620.376	-200.000	-0.071	-0.329
-619.361	510.156	0.070	-0.164
-618.346	70.498	-0.152	-0.158
-617.332	-200.000	-0.011	0.210
-616.317	155.266	0.281	0.391
-615.303	371.324	-0.051	0.105
-614.288	-10.870	0.148	-0.099
-613.273	357.802	0.077	0.156
-612.259	-200.000	-0.008	0.109
-611.244	800.000	-0.056	0.218
-610.230	-90.387	0.237	0.069
-609.215	-29.429	-0.260	0.150
-608.201	64.743	0.139	0.142
-607.186	83.153	0.256	0.281
-606.171	13.549	-0.050	-0.039
-605.157	264.906	-0.129	-0.226
-604.142	-200.000	0.003	-0.073
-603.128	-200.000	0.011	-0.240
-602.113	-66.672	-0.107	0.043
-601.098	-136.730	-0.165	-0.019
-600.084	-35.752	-0.226	-0.124
-599.069	-161.525	0.062	0.003
-598.055	-18.832	-0.088	-0.056
-597.040	50.868	0.163	0.156
-596.025	321.429	0.047	-0.091
-595.011	313.762	0.284	-0.539
-593.996	-56.541	-0.193	-0.086
-592.982	-27.876	-0.187	-0.109
-591.967	65.641	0.135	-0.138
-590.952	67.360	0.149	-0.154
-589.938	69.637	0.223	0.232
-588.923	-114.751	0.165	-0.032
-587.909	458.954	0.175	-0.392
-586.894	39.406	0.253	0.228
-585.879	800.000	-0.136	-0.386
-584.865	-114.170	-0.398	-0.077
-583.850	-124.034	0.193	-0.031
-582.836	-59.292	-0.097	0.042
-581.821	800.000	0.104	0.421
-580.806	-200.000	-0.004	0.109
-579.792	1.605	0.160	-0.116
-578.777	-200.000	-0.132	0.000
-577.763	682.467	0.069	-0.182
-576.748	-115.607	0.177	-0.034
-575.733	349.401	0.165	-0.328
-574.719	229.839	-0.085	-0.139
-573.704	67.961	-0.082	-0.085
-572.690	230.600	-0.111	0.182
-571.675	498.389	-0.038	-0.089
-570.661	-200.000	-0.058	-0.503
-569.646	37.520	-0.128	-0.115
-568.631	-22.869	0.438	0.266
-567.617	-44.900	-0.137	0.069
-566.602	-200.000	0.031	-0.263
-565.588	800.000	-0.051	-0.166
-564.573	800.000	-0.009	0.029
-563.558	-200.000	-0.004	0.061
-562.544	-145.597	0.366	-0.033
-561.529	228.735	0.209	0.344
-560.515	-200.000	-0.032	-0.173
-559.500	212.718	0.089	-0.141
-558.485	-15.638	0.062	-0.040
-557.471	-167.974	-0.097	-0.004
-556.456	18.918	-0.058	0.047
-555.442	-200.000	-0.038	0.199
-554.427	297.757	-0.110	-0.203
-553.412	800.000	-0.032	0.117
-552.398	-104.204	0.313	-0.073
-551.383	120.787	-0.122	-0.153
-550.369	800.000	-0.029	-0.100
-549.354	-41.442	0.219	0.114
-548.339	-21.808	-0.131	0.080
-547.325	-28.561	0.213	0.124
-546.310	-23.305	-0.078	0.047
-545.296	97.542	0.247	0.286
-544.281	-84.965	-0.206	0.065
-543.266	647.663	0.100	0.258
-542.252	-200.000	0.025	-0.122
-541.237	800.000	0.031	-0.111
-540.223	-62.037	-0.229	0.096
-539.208	331.188	-0.071	0.138
-538.193	-106.464	-0.265	0.060
-537.179	14.456	-0.301	0.236
-536.164	568.080	-0.047	0.115
-535.150	-29.438	0.214	0.123
-534.135	-52.104	-0.044	0.020
-533.121	-27.671	0.199	0.116
-532.106	-190.421	-0.183	0.002
-531.091	-200.000	0.020	0.188
-530.077	207.713	-0.063	-0.100
-529.062	0.994	-0.061	0.044
-528.048	-200.000	0.039	-0.232
-527.033	-119.471	-0.183	-0.032
-526.018	-200.000	0.005	-0.048
-525.004	-200.000	-0.010	-0.063
-523.989	475.287	-0.066	-0.150
-522.975	22.719	0.102	0.084
-521.960	74.971	-0.248	0.263
-520.945	77.213	-0.084	-0.090
-519.931	-61.633	-0.127	-0.054
-518.916	174.185	-0.128	-0.186
-517.902	800.000	0.066	0.262
-516.887	-133.061	-0.315	-0.040
-515.872	-112.768	0.186	-0.037
-514.858	-125.590	-0.276	-0.042
-513.843	156.021	0.072	0.100
-512.829	-26.794	0.164	0.096
-511.814	-96.744	0.458	-0.121
-510.799	156.642	-0.259	-0.359
-509.785	-124.623	-0.356	0.056
-508.770	-200.000	0.007	-0.162
-507.756	-105.839	0.172	0.039
-506.741	800.000	0.040	-0.178
-505.726	800.000	0.061	-0.209
-504.712	-88.675	0.085	-0.025
-503.697	78.155	-0.055	0.059
-502.683	11.380	0.124	0.096
-501.668	-200.000	-0.003	-0.069
-500.653	193.341	-0.078	0.119
-499.639	-26.376	-0.259	0.153
-498.624	800.000	0.027	0.113
-497.610	800.000	0.024	0.068
-496.595	-24.481	-0.289	0.173
-495.581	-73.643	0.234	0.086
-494.566	-125.163	-0.336	0.052
-493.551	-94.592	0.475	0.130
-492.537	252.495	0.081	0.139
-491.522	154.977	-0.048	-0.067
-490.508	11.935	0.171	0.132
-489.493	359.893	0.027	-0.055
-488.478	-165.193	-0.256	-0.011
-487.464	-128.513	-0.272	0.039
-486.449	-200.000	-0.012	0.218
-485.435	-27.920	-0.049	-0.028
-484.420	-76.216	-0.110	-0.039
-483.405	-159.863	-0.252	0.014
-482.391	-200.000	-0.035	-0.319
-481.376	-8.893	0.052	-0.035
-480.362	3.657	0.232	0.170
-479.347	158.972	-0.126	-0.176
-478.332	-200.000	-0.003	-0.022
-477.318	-9.673	-0.091	0.061
-476.303	-100.439	-0.400	0.100
-475.289	11.618	-0.136	-0.104
-474.274	781.259	0.150	0.413
-473.259	800.000	-0.071	0.208
-472.245	800.000	0.057	0.175
-471.230	-60.217	-0.123	-0.053
-470.216	-40.563	0.269	-0.140
-469.201	-200.000	0.026	0.269
-468.186	-200.000	-0.002	0.013
-467.172	1.818	-0.199	0.144
-466.157	155.363	-0.140	-0.194
-465.143	127.664	-0.212	0.271
-464.128	16.541	-0.213	0.169
-463.113	391.922	0.210	-0.438
-462.099	-173.708	0.266	-0.008
-461.084	-57.030	-0.368	0.163
-460.070	-94.939	-0.087	0.024
-459.055	800.000	-0.122	0.354
-458.040	146.129	-0.139	0.187
-457.026	-200.000	0.022	-0.225
-456.011	410.374	-0.128	-0.272
-454.997	-102.024	0.344	-0.083
-453.982	-37.389	-0.316	-0.169
-452.968	244.248	-0.104	0.176
-451.953	-200.000	-0.010	0.125
-450.938	-157.945	-0.384	-0.023
-449.924	-163.897	0.118	0.006
-448.909	750.850	0.065	-0.176
-447.895	-198.393	-0.096	-0.001
-446.880	-61.103	-0.443	-0.188
-445.865	178.769	0.081	-0.118
-444.851	36.746	0.098	-0.087
-443.836	-200.000	0.063	-0.285
-442.822	-200.000	-0.012	-0.262
-441.807	-53.503	0.106	-0.048
-440.792	779.949	0.126	0.346
-439.778	26.912	-0.367	-0.309
-438.763	-200.000	0.007	-0.052
-437.749	-200.000	-0.002	-0.248
-436.734	-200.000	-0.026	-0.420
-435.719	264.544	-0.178	-0.310
-434.705	7.801	0.131	-0.098
-433.690	800.000	-0.053	0.182
-432.676	284.332	-0.170	-0.308
-431.661	-200.000	-0.023	-0.142
-430.646	-15.832	0.246	-0.157
-429.632	800.000	0.067	-0.190
-428.617	-1.720	-0.066	-0.047
-427.603	-89.689	0.443	-0.130
-426.588	-200.000	0.016	0.082
-425.573	-60.060	-0.270	0.116
-424.559	-99.777	0.085	0.021
-423.544	-23.135	0.167	0.101
-422.530	45.676	0.172	-0.159
-421.515	800.000	0.054	0.205
-420.500	338.057	0.110	0.214
-419.486	-13.387	0.103	-0.067
-418.471	-100.293	0.461	0.115
-417.457	-200.000	-0.043	0.207
-416.442	-4.550	0.134	0.092
-415.428	479.563	-0.022	-0.050
-414.413	311.694	-0.097	-0.183
-413.398	430.320	-0.192	-0.416
-412.384	-62.274	0.244	0.102
-411.369	784.906	0.014	-0.038
-410.355	412.446	-0.070	-0.149
-409.340	800.000	-0.068	0.287
-408.325	-47.199	-0.400	0.195
-407.311	204.572	0.095	-0.147
-406.296	81.655	-0.117	0.127
-405.282	590.714	0.106	-0.263
-404.267	-200.000	-0.013	-0.143
-403.252	28.928	-0.167	0.142
-402.238	-51.885	-0.173	0.080
-401.223	-91.222	0.205	-0.059
-400.209	-11.098	-0.090	-0.059
-399.194	-28.394	-0.236	-0.136
-398.179	294.157	-0.124	-0.226
-397.165	117.530	-0.073	-0.090
-396.150	-134.451	0.166	0.020
-395.136	-200.000	-0.015	0.273
-394.121	120.307	-0.213	0.265
-393.106	-200.000	0.018	0.327
-392.092	-200.000	-0.059	0.355
-391.077	-200.000	-0.027	-0.150
-390.063	25.068	0.289	-0.240
-389.048	-200.000	0.001	-0.302
-388.033	33.691	0.305	-0.265
-387.019	-62.078	-0.105	-0.044
-386.004	84.801	-0.146	0.161
-384.990	-91.423	-0.324	0.093
-383.975	124.297	0.104	0.131
-382.960	-161.286	0.259	-0.013
-381.946	-153.188	0.219	-0.015
-380.931	-112.471	-0.145	-0.029
-379.917	-36.813	-0.201	0.108
-378.902	269.486	-0.148	0.260
-377.888	-84.731	-0.195	-0.061
-376.873	91.182	0.147	0.165
-375.858	100.343	-0.003	0.003
-374.844	-18.659	-0.291	-0.182
-373.829	-200.000	0.009	0.123
-372.815	800.000	0.030	-0.082
-371.800	394.882	-0.074	-0.155
-370.785	106.109	0.060	0.071
-369.771	-23.613	0.312	-0.187
-368.756	284.915	0.190	0.342
-367.742	-136.924	0.034	-0.004
-366.727	800.000	0.023	0.073
-365.712	49.433	-0.259	0.244
-364.698	-200.000	-0.006	0.258
-363.683	-102.218	-0.190	0.046
-362.669	-10.479	0.389	-0.257
-361.654	-200.000	-0.016	-0.101
-360.639	-55.882	0.164	-0.073
-359.625	708.147	-0.119	0.315
-358.610	-200.000	-0.010	0.226
-357.596	214.864	-0.099	-0.157
-356.581	800.000	0.100	0.332
-355.566	-175.314	0.073	-0.002
-354.552	-200.000	-0.006	-0.159
-353.537	-108.689	0.233	-0.050
-352.523	491.985	-0.172	0.394
-351.508	-26.601	0.345	0.202
-350.493	800.000	-0.140	-0.408
-349.479	775.517	-0.079	-0.217
-348.464	440.934	-0.026	-0.056
-347.450	36.678	-0.182	-0.161
-346.435	-56.736	0.257	0.114
-345.420	-158.932	0.140	0.008
-344.406	-200.000	0.029	-0.146
-343.391	-82.509	0.335	-0.108
-342.377	-72.053	-0.117	0.043
-341.362	73.502	-0.014	0.014
-340.348	-106.024	0.108	0.024
-339.333	-120.160	-0.099	0.017
-338.318	-2.495	0.202	-0.141
-337.304	32.539	-0.013	-0.011
-336.289	-100.523	0.072	0.018
-335.275	-200.000	-0.036	-0.317
-334.260	-9.341	-0.057	-0.038
-333.245	241.931	-0.072	-0.120
-332.231	-200.000	-0.043	0.259
-331.216	13.386	0.113	0.088
-330.202	800.000	0.048	-0.138
-329.187	-200.000	0.012	0.297
-328.172	425.168	-0.163	-0.351
-327.158	-27.718	0.110	0.064
-326.143	-200.000	0.037	-0.176
-325.129	99.154	0.135	-0.155
-324.114	-118.145	0.096	-0.017
-323.099	-200.000	-0.002	0.451
-322.085	14.997	0.175	0.137
-321.070	10.002	-0.064	0.048
-320.056	-59.796	0.021	-0.009
-319.041	330.384	-0.046	0.088
-318.026	668.994	-0.101	0.261
-317.012	800.000	-0.122	0.383
-315.997	-129.984	-0.198	-0.027
-314.983	-118.060	-0.319	0.057
-313.968	-127.587	-0.220	0.032
-312.953	295.457	0.009	-0.017
-311.939	207.149	0.248	0.386
-310.924	-90.831	0.285	0.082
-309.910	-22.580	-0.189	0.114
-308.895	-123.897	-0.395	0.062
-307.880	469.244	0.118	0.265
-306.866	-200.000	-0.017	0.127
-305.851	48.776	-0.046	0.043
-304.837	-8.131	0.133	-0.090
-303.822	-4.398	0.191	-0.132
-302.807	54.571	-0.061	0.059
-301.793	30.579	-0.097	0.083
-300.778	-33.200	0.365	-0.202
-299.764	293.494	-0.024	0.044
-298.749	-89.667	-0.100	-0.029
-297.735	29.429	-0.097	0.083
-296.720	357.490	-0.044	0.087
-295.705	-200.000	-0.021	0.279
-294.691	75.329	-0.211	0.222
-293.676	800.000	0.025	-0.095
-292.662	127.032	0.179	0.226
-291.647	-41.697	0.176	0.090
-290.632	85.839	-0.100	0.110
-289.618	-106.209	0.212	0.047
-288.603	-2.414	-0.088	0.061
-287.589	-8.983	-0.108	0.072
-286.574	-37.911	0.238	-0.126
-285.559	-200.000	0.032	0.181
-284.545	-47.690	-0.173	0.084
-283.530	-109.584	-0.339	-0.071
-282.516	800.000	0.059	-0.189
-281.501	88.675	-0.108	0.120
-280.486	-10.475	-0.056	-0.037
-279.472	800.000	0.019	-0.060
-278.457	296.785	0.109	0.199
-277.443	-141.731	0.334	0.033
-276.428	-200.000	0.022	0.106
-275.413	178.505	-0.051	-0.074
-274.399	-200.000	-0.004	-0.043
-273.384	-144.450	0.183	0.017
-272.370	84.588	0.124	-0.135
-271.355	-200.000	-0.034	-0.226
-270.340	64.472	-0.116	-0.116
-269.326	152.900	0.184	0.251
-268.311	-102.567	0.214	-0.051
-267.297	145.528	-0.221	-0.295
-266.282	295.909	0.108	-0.197
-265.267	9.043	-0.104	-0.078
-264.253	-130.380	0.248	0.033
-263.238	-91.082	0.203	0.058
-262.224	-200.000	0.045	-0.228
-261.209	676.311	-0.096	0.249
-260.195	267.801	0.179	0.312
-259.180	141.149	0.171	-0.225
-258.165	-158.763	0.170	-0.010
-257.151	84.447	0.150	0.163
-256.136	-51.012	-0.253	-0.118
-255.122	-200.000	0.004	-0.174
-254.107	-90.049	-0.281	-0.082
-253.092	29.121	0.112	0.095
-252.078	-93.638	0.358	0.099
-251.063	361.185	-0.234	0.467
-250.049	-200.000	0.037	-0.179
-249.034	-200.000	-0.003	0.093
-248.019	-166.913	-0.459	-0.019
-247.005	-17.940	-0.053	-0.033
-245.990	-129.459	0.277	-0.038
-244.976	-200.000	-0.018	0.080
-243.961	-71.578	0.193	-0.072
-242.946	89.146	-0.195	0.216
-241.932	-24.226	-0.142	0.084
-240.917	800.000	0.030	-0.105
-239.903	800.000	0.084	0.287
-238.888	115.160	0.218	-0.265
-237.873	800.000	0.082	0.315
-236.859	6.622	0.242	0.179
-235.844	3.288	0.067	-0.048
-234.830	-200.000	-0.001	-0.240
-233.815	-164.641	-0.321	-0.014
-232.800	-197.984	0.494	-0.003
-231.786	-74.636	0.238	0.085
-230.771	-109.882	-0.346	0.072
-229.757	62.727	-0.342	0.340
-228.742	-98.959	-0.148	0.037
-227.727	-200.000	-0.034	-0.182
-226.713	-66.860	0.177	0.069
-225.698	-77.593	0.078	0.027
-224.684	-63.086	-0.039	0.016
-223.669	280.707	-0.065	-0.116
-222.655	-137.919	0.140	-0.016
-221.640	-200.000	0.051	0.447
-220.625	-200.000	-0.014	0.179
-219.611	583.694	-0.142	-0.347
-218.596	-62.393	0.268	0.111
-217.582	800.000	-0.145	-0.443
-216.567	498.176	-0.127	-0.290
-215.552	-77.675	-0.089	0.030
-214.538	-68.303	-0.019	-0.008
-213.523	-200.000	-0.007	0.231
-212.509	594.003	0.066	0.161
-211.494	-54.401	0.149	0.067
-210.479	30.161	-0.124	-0.105
-209.465	140.612	-0.052	0.068
-208.450	-163.968	-0.398	0.018
-207.436	800.000	0.060	-0.202
-206.421	-173.175	-0.357	0.011
-205.406	-147.612	-0.191	-0.016
-204.392	196.813	0.090	-0.137
-203.377	-148.722	-0.095	0.008
-202.363	178.805	-0.138	0.200
-201.348	-200.000	-0.012	0.380
-200.333	-200.000	0.039	-0.398
-199.319	-119.783	0.263	-0.045
-198.304	115.474	-0.118	0.143
-197.290	-72.033	0.235	0.087
-196.275	-22.071	-0.213	0.129
-195.260	340.571	-0.096	-0.185
-194.246	142.642	-0.036	-0.047
-193.231	-171.546	-0.074	-0.002
-192.217	-80.538	-0.111	-0.037
-191.202	353.114	0.086	-0.170
-190.187	-16.181	0.189	-0.120
-189.173	-57.457	-0.199	-0.087
-188.158	149.136	0.015	-0.020
-187.144	250.227	0.035	0.059
-186.129	419.644	-0.071	-0.151
-185.114	329.226	0.034	-0.066
-184.100	-185.840	-0.027	-0.000
-183.085	479.528	0.081	-0.181
-182.071	177.532	-0.215	0.311
-181.056	-4.031	-0.219	0.151
-180.042	-200.000	0.026	-0.156
-179.027	119.080	-0.095	0.117
-178.012	-118.249	0.157	0.028
-176.998	-200.000	0.064	-0.302
-175.983	-39.773	0.187	-0.097
-174.969	-11.929	-0.184	0.120
-173.954	-44.729	-0.388	-0.192
-172.939	302.003	0.151	0.276
-171.925	-200.000	0.023	-0.115
-170.910	-200.000	0.021	-0.147
-169.896	-107.102	0.446	0.098
-168.881	542.537	-0.013	0.031
-167.866	-127.520	0.253	-0.036
-166.852	163.016	0.204	0.284
-165.837	-19.346	-0.294	0.181
-164.823	38.052	0.253	0.223
-163.808	-200.000	-0.039	0.459
-162.793	147.448	0.076	-0.101
-161.779	800.000	0.030	-0.112
-160.764	800.000	0.011	0.038
-159.750	53.925	0.140	-0.134
-158.735	297.065	0.152	-0.277
-157.720	-200.000	0.001	0.059
-156.706	64.306	0.172	0.172
-155.691	-200.000	0.033	0.151
-154.677	29.164	-0.128	-0.108
-153.662	-31.474	-0.264	-0.147
-152.647	516.987	0.104	0.241
-151.633	-200.000	0.009	-0.446
-150.618	800.000	0.122	-0.343
-149.604	-103.555	0.357	0.083
-148.589	31.715	0.156	0.133
-147.574	-88.789	0.272	-0.080
-146.560	87.296	0.023	0.025
-145.545	-169.285	-0.362	0.013
-144.531	179.227	0.110	-0.160
-143.516	-38.676	0.015	-0.008
-142.502	-200.000	0.033	0.146
-141.487	-115.062	-0.045	0.008
-140.472	-70.786	0.179	0.067
-139.458	-93.539	0.381	0.104
-138.443	-200.000	-0.160	-0.001
-137.429	-200.000	0.024	-0.204
-136.414	-200.000	0.012	-0.196
-135.399	177.878	-0.173	0.250
-134.385	-200.000	0.039	-0.244
-133.370	-47.247	0.204	-0.099
-132.356	771.493	0.058	0.156
-131.341	593.979	0.043	0.106
-130.326	530.524	0.065	-0.152
-129.312	118.068	0.142	-0.173
-128.297	61.466	0.176	0.173
-127.283	649.992	-0.072	-0.182
-126.268	-200.000	0.002	-0.056
-125.253	-200.000	-0.011	0.067
-124.239	132.400	0.116	0.148
-123.224	-25.003	0.170	-0.100
-122.210	-10.893	-0.157	0.103
