DTS Sentinel unit serial number:	SN413079Multiplexer serial number:	ORYXHardware model number:	OX4-SRSoftware version number:	ORYX F/W v4.00 Oryx Data Collector v3.7.2.0data status	okinstallation	princeton_trtdifferential loss correction	single-endedforward channel	channel 1reverse channel	N/Adate	2019/09/18time	19:42:35forward acquisition time	60.00reverse acquisition time	0.00gamma	496.2192k internal	0.2327k external	0.2327temperature offset calibration	1.0028default loss term (dB/km)	0.3790temperature slope calibration	1.0000multiplexer offset coefficient	1.0000multiplexer slope coefficient	1.0000fibre end	0.00T internal ref (°C)	31.77T ext. ref 1 (°C)	0.98T ext. ref 2 (°C)	22.18length (m)	temperature (°C)	Stokes	anti-Stokes-747.200	263.814	0.112	0.197
-746.185	305.630	0.198	0.371
-745.171	733.845	0.085	0.230
-744.156	177.533	-0.180	0.265
-743.142	413.637	-0.077	0.165
-742.127	62.720	-0.358	0.361
-741.112	197.618	-0.115	-0.176
-740.098	-47.586	0.170	-0.083
-739.083	800.000	-0.019	-0.057
-738.069	111.523	-0.140	0.171
-737.054	20.911	0.126	-0.103
-736.039	-95.340	-0.251	0.068
-735.025	-160.864	0.399	-0.021
-734.010	-21.890	-0.174	-0.107
-732.996	-200.000	-0.124	-0.638
-731.981	355.666	-0.090	-0.181
-730.966	287.932	-0.098	0.178
-729.952	-74.991	0.056	-0.020
-728.937	-100.888	-0.456	0.113
-727.923	-200.000	0.024	0.207
-726.908	-114.709	0.093	0.018
-725.894	-71.106	0.322	-0.122
-724.879	262.340	-0.141	0.247
-723.864	141.704	0.081	-0.108
-722.850	251.591	-0.162	-0.278
-721.835	-49.751	-0.283	-0.135
-720.821	-143.005	-0.398	-0.039
-719.806	-200.000	0.034	-0.185
-718.791	-34.304	-0.235	0.130
-717.777	290.670	-0.103	0.189
-716.762	-16.056	-0.095	-0.061
-715.748	166.163	-0.075	0.107
-714.733	-39.023	0.156	-0.082
-713.718	11.184	-0.091	-0.070
-712.704	113.671	0.231	0.282
-711.689	698.722	0.117	0.311
-710.675	-147.446	-0.136	0.012
-709.660	-200.000	0.049	-0.357
-708.645	-123.341	0.272	0.044
-707.631	-65.381	-0.302	-0.122
-706.616	84.079	0.010	-0.011
-705.602	148.674	-0.081	-0.110
-704.587	-200.000	-0.052	-0.384
-703.572	-148.964	-0.485	0.039
-702.558	-200.000	0.002	-0.096
-701.543	134.359	-0.229	0.299
-700.529	519.536	-0.144	0.340
-699.514	244.099	-0.170	-0.287
-698.499	448.892	-0.057	-0.126
-697.485	-200.000	0.004	0.206
-696.470	-101.856	0.272	-0.066
-695.456	800.000	-0.077	0.253
-694.441	-27.609	0.195	0.114
-693.426	245.350	-0.098	-0.165
-692.412	-10.652	0.073	0.049
-691.397	270.145	0.081	-0.143
-690.383	23.942	0.157	-0.130
-689.368	124.955	-0.138	0.175
-688.354	800.000	0.064	-0.191
-687.339	-85.610	0.269	0.084
-686.324	642.319	0.090	-0.232
-685.310	-200.000	-0.002	-0.019
-684.295	-27.725	-0.029	0.017
-683.281	-49.165	-0.219	0.105
-682.266	344.789	-0.110	0.217
-681.251	6.953	0.090	-0.067
-680.237	800.000	0.093	-0.269
-679.222	-200.000	0.017	0.195
-678.208	54.648	-0.143	-0.138
-677.193	186.480	0.113	-0.170
-676.178	-200.000	-0.006	0.201
-675.164	-128.168	0.035	0.005
-674.149	-87.031	0.387	0.119
-673.135	270.044	0.078	0.138
-672.120	243.027	0.078	0.132
-671.105	-200.000	0.019	0.193
-670.091	800.000	0.058	-0.197
-669.076	-143.864	-0.138	0.013
-668.062	214.565	0.103	-0.164
-667.047	-132.470	0.323	-0.042
-666.032	-123.806	-0.138	0.022
-665.018	17.187	0.010	0.008
-664.003	116.613	0.067	-0.082
-662.989	-45.027	0.113	0.057
-661.974	21.867	0.179	0.147
-660.959	-12.419	-0.173	0.113
-659.945	-55.348	0.031	-0.014
-658.930	19.039	-0.183	0.147
-657.916	800.000	0.130	-0.400
-656.901	-28.475	-0.375	-0.217
-655.886	110.014	0.072	-0.087
-654.872	63.153	-0.133	0.134
-653.857	-158.636	-0.275	0.016
-652.843	-59.382	-0.021	0.009
-651.828	545.578	-0.144	0.345
-650.814	-146.426	-0.147	0.013
-649.799	-103.447	0.096	0.023
-648.784	-143.633	-0.060	0.006
-647.770	394.694	-0.092	-0.193
-646.755	-128.935	-0.335	0.047
-645.741	122.382	-0.052	-0.065
-644.726	-90.992	-0.219	0.063
-643.711	-200.000	0.006	0.056
-642.697	39.164	-0.089	-0.080
-641.682	-111.979	-0.169	0.034
-640.668	185.222	0.119	0.177
-639.653	-80.732	0.305	0.102
-638.638	-163.629	-0.369	0.018
-637.624	60.885	-0.301	-0.300
-636.609	-83.302	0.165	-0.053
-635.595	-11.519	0.287	0.190
-634.580	-157.061	0.238	-0.015
-633.565	-200.000	0.037	0.339
-632.551	800.000	0.018	-0.067
-631.536	41.459	-0.317	-0.288
-630.522	-108.611	-0.060	0.013
-629.507	-126.060	-0.292	0.044
-628.492	-33.294	-0.084	0.047
-627.478	643.886	0.056	-0.144
-626.463	800.000	-0.085	-0.316
-625.449	-140.926	-0.327	-0.034
-624.434	-86.872	-0.139	0.042
-623.419	233.033	0.185	0.305
-622.405	404.157	0.087	-0.184
-621.390	-36.376	-0.367	0.198
-620.376	97.567	-0.098	-0.114
-619.361	-200.000	-0.038	0.176
-618.346	-95.417	-0.394	-0.106
-617.332	-73.482	-0.069	0.025
-616.317	-109.411	0.188	-0.040
-615.303	-38.515	0.225	0.119
-614.288	271.354	-0.094	-0.166
-613.273	-152.002	0.382	-0.028
-612.259	565.220	0.077	0.188
-611.244	772.723	-0.020	-0.055
-610.230	307.646	-0.218	-0.408
-609.215	-6.202	0.159	-0.109
-608.201	301.749	0.112	-0.208
-607.186	26.352	-0.182	-0.152
-606.171	-121.212	-0.246	-0.041
-605.157	800.000	0.052	0.182
-604.142	23.591	-0.074	-0.061
-603.128	538.637	-0.152	-0.361
-602.113	-142.658	-0.272	-0.027
-601.098	-32.330	-0.281	0.158
-600.084	47.919	0.174	-0.163
-599.069	800.000	-0.089	-0.361
-598.055	148.502	-0.122	-0.166
-597.040	97.987	0.233	-0.269
-596.025	800.000	-0.064	-0.247
-595.011	88.803	0.177	0.197
-593.996	-200.000	-0.000	-0.332
-592.982	-175.333	-0.335	0.009
-591.967	-122.885	-0.181	0.029
-590.952	-2.816	0.200	-0.140
-589.938	-114.345	-0.280	-0.054
-588.923	800.000	-0.112	-0.472
-587.909	60.244	0.104	-0.103
-586.894	596.507	-0.068	-0.169
-585.879	-46.823	-0.138	0.067
-584.865	-101.959	0.194	-0.047
-583.850	800.000	-0.140	-0.404
-582.836	-67.189	0.200	-0.079
-581.821	-200.000	-0.014	-0.414
-580.806	-200.000	-0.013	-0.088
-579.792	-136.326	0.158	-0.018
-578.777	52.892	0.128	0.123
-577.763	-200.000	-0.016	-0.174
-576.748	81.416	0.174	0.188
-575.733	-200.000	-0.006	0.276
-574.719	-200.000	-0.066	-0.326
-573.704	10.429	0.228	0.174
-572.690	516.063	-0.152	0.356
-571.675	-200.000	-0.018	-0.173
-570.661	60.468	0.108	-0.107
-569.646	-200.000	-0.060	-0.454
-568.631	-200.000	0.006	0.335
-567.617	159.866	-0.085	0.118
-566.602	-28.683	-0.186	0.107
-565.588	-36.177	0.158	-0.085
-564.573	194.290	0.112	0.171
-563.558	-200.000	0.006	0.156
-562.544	40.707	-0.191	-0.172
-561.529	-122.312	-0.129	-0.021
-560.515	-103.144	-0.045	-0.011
-559.500	-200.000	-0.036	-0.245
-558.485	-92.134	0.017	-0.005
-557.471	-140.989	-0.239	-0.025
-556.456	-146.186	0.042	0.004
-555.442	-148.131	-0.219	-0.018
-554.427	146.717	-0.123	0.166
-553.412	800.000	0.105	-0.376
-552.398	-68.146	0.262	-0.102
-551.383	-200.000	-0.034	-0.272
-550.369	-142.573	-0.224	-0.022
-549.354	708.245	-0.039	-0.104
-548.339	-200.000	0.049	-0.296
-547.325	-160.618	0.196	-0.010
-546.310	-19.417	-0.185	0.115
-545.296	-200.000	0.043	0.226
-544.281	557.509	0.038	-0.093
-543.266	-92.437	0.097	0.027
-542.252	549.554	0.067	-0.162
-541.237	80.543	-0.163	-0.176
-540.223	-77.380	-0.122	-0.042
-539.208	184.429	-0.078	-0.115
-538.193	-148.176	0.298	0.025
-537.179	71.838	0.259	-0.270
-536.164	502.161	-0.118	-0.272
-535.150	-18.401	-0.147	-0.092
-534.135	-19.656	-0.196	0.122
-533.121	-200.000	0.033	0.260
-532.106	-200.000	0.051	-0.361
-531.091	800.000	0.055	-0.171
-530.077	-83.605	0.116	-0.037
-529.062	-43.107	-0.142	0.072
-528.048	82.252	-0.122	0.132
-527.033	-29.139	0.391	0.224
-526.018	-63.686	-0.180	-0.074
-525.004	-200.000	0.092	0.446
-523.989	-200.000	-0.015	-0.094
-522.975	14.182	0.482	-0.375
-521.960	-79.410	-0.206	0.070
-520.945	-200.000	0.032	0.183
-519.931	-200.000	-0.008	0.084
-518.916	800.000	-0.016	-0.062
-517.902	195.348	-0.037	-0.056
-516.887	-32.039	0.047	-0.026
-515.872	-85.610	-0.273	0.085
-514.858	800.000	-0.046	0.169
-513.843	-52.401	0.056	0.026
-512.829	800.000	0.129	0.516
-511.814	-120.140	0.162	0.028
-510.799	-200.000	-0.041	-0.230
-509.785	160.190	0.054	0.075
-508.770	-200.000	-0.031	0.428
-507.756	105.539	0.106	-0.125
-506.741	-135.549	-0.325	0.039
-505.726	-200.000	0.020	0.404
-504.712	-135.334	0.105	-0.013
-503.697	507.428	-0.056	0.129
-502.683	67.676	0.141	0.144
-501.668	-200.000	0.001	0.045
-500.653	404.291	0.100	-0.210
-499.639	-68.343	0.139	0.054
-498.624	-22.181	0.294	0.178
-497.610	-200.000	-0.060	-0.392
-496.595	-200.000	-0.073	-0.324
-495.581	1.731	-0.338	0.244
-494.566	32.015	-0.171	0.147
-493.551	-200.000	0.031	-0.303
-492.537	-200.000	0.006	0.069
-491.522	27.551	0.102	0.086
-490.508	-200.000	0.055	-0.268
-489.493	307.739	-0.063	-0.118
-488.478	113.938	0.074	-0.089
-487.464	-56.621	0.365	-0.162
-486.449	800.000	-0.065	-0.239
-485.435	800.000	0.007	0.030
-484.420	-200.000	0.081	0.369
-483.405	-23.327	-0.140	0.084
-482.391	-58.595	0.135	-0.058
-481.376	-32.922	0.172	-0.096
-480.362	800.000	0.133	0.478
-479.347	-82.575	0.264	-0.085
-478.332	515.883	-0.177	0.412
-477.318	-200.000	0.005	-0.120
-476.303	429.184	-0.083	0.178
-475.289	-91.362	-0.260	0.074
-474.274	113.484	0.194	-0.235
-473.259	293.530	0.055	0.100
-472.245	-41.193	-0.277	0.143
-471.230	800.000	0.066	-0.214
-470.216	-28.017	-0.109	0.063
-469.201	800.000	-0.045	0.155
-468.186	-12.018	0.382	-0.250
-467.172	1.619	-0.122	0.088
-466.157	3.880	-0.277	0.202
-465.143	-180.176	-0.141	-0.003
-464.128	-200.000	-0.005	-0.352
-463.113	-200.000	0.020	0.225
-462.099	-44.324	-0.253	0.126
-461.084	-1.077	-0.341	-0.241
-460.070	274.284	0.167	-0.295
-459.055	800.000	0.014	-0.058
-458.040	113.225	0.126	0.152
-457.026	-6.634	0.531	-0.361
-456.011	-200.000	-0.047	0.249
-454.997	-56.179	0.508	-0.226
-453.982	-200.000	-0.031	-0.179
-452.968	97.151	0.101	0.116
-451.953	-200.000	0.003	-0.167
-450.938	-200.000	0.025	-0.250
-449.924	-87.519	-0.233	0.070
-448.909	38.900	0.117	0.104
-447.895	-12.522	-0.273	0.177
-446.880	-101.117	0.270	-0.066
-445.865	-54.075	-0.353	0.160
-444.851	113.272	0.164	0.198
-443.836	800.000	0.107	0.455
-442.822	556.858	-0.132	0.317
-441.807	-7.867	0.217	-0.146
-440.792	800.000	0.069	0.251
-439.778	800.000	-0.084	0.295
-438.763	240.230	0.162	-0.269
-437.749	-200.000	-0.009	0.207
-436.734	168.186	-0.190	0.270
-435.719	426.008	0.060	0.129
-434.705	800.000	0.113	0.331
-433.690	-174.085	-0.077	-0.002
-432.676	27.057	-0.431	-0.360
-431.661	800.000	0.005	-0.019
-430.646	188.028	0.058	0.086
-429.632	-72.554	0.189	-0.069
-428.617	96.518	0.151	-0.172
-427.603	-157.568	0.306	0.018
-426.588	-115.834	0.381	-0.071
-425.573	-50.365	0.201	-0.095
-424.559	-5.064	0.266	-0.182
-423.544	159.619	-0.139	0.193
-422.530	-136.327	0.269	-0.031
-421.515	-200.000	-0.026	-0.201
-420.500	220.337	0.112	0.179
-419.486	-96.062	0.488	-0.129
-418.471	477.605	-0.084	0.190
-417.457	68.958	-0.140	-0.143
-416.442	-44.327	-0.174	0.087
-415.428	26.124	-0.206	-0.171
-414.413	618.523	-0.174	0.435
-413.398	-129.923	0.240	0.033
-412.384	-14.061	-0.294	0.189
-411.369	-80.356	-0.194	-0.065
-410.355	-46.469	0.357	-0.174
-409.340	-101.368	0.307	-0.075
-408.325	136.980	0.190	0.248
-407.311	29.723	-0.194	0.165
-406.296	-74.255	0.298	-0.107
-405.282	295.473	0.111	-0.203
-404.267	-200.000	0.007	0.051
-403.252	574.319	-0.057	-0.138
-402.238	-172.399	-0.042	-0.001
-401.223	-200.000	0.002	-0.126
-400.209	-200.000	0.015	-0.066
-399.194	-26.522	0.102	-0.060
-398.179	-23.149	0.225	0.134
-397.165	-200.000	0.062	-0.277
-396.150	162.973	-0.136	-0.189
-395.136	161.299	-0.157	0.218
-394.121	-200.000	0.016	-0.088
-393.106	-200.000	-0.024	-0.140
-392.092	7.418	-0.015	0.011
-391.077	-98.814	0.278	-0.070
-390.063	-62.035	0.131	-0.054
-389.048	565.807	-0.073	0.175
-388.033	-102.916	0.337	0.079
-387.019	-151.711	-0.088	-0.006
-386.004	155.264	0.100	0.137
-384.990	222.025	-0.149	-0.238
-383.975	-76.439	0.352	-0.123
-382.960	-200.000	0.042	-0.222
-381.946	165.578	0.049	0.069
-380.931	193.616	-0.084	-0.126
-379.917	-200.000	-0.038	0.192
-378.902	-28.219	-0.102	-0.059
-377.888	80.037	0.091	0.097
-376.873	10.719	-0.426	-0.323
-375.858	-73.464	0.241	0.088
-374.844	-9.658	0.173	-0.114
-373.829	109.370	-0.233	-0.277
-372.815	68.385	0.197	0.201
-371.800	-200.000	0.020	0.333
-370.785	-77.109	-0.169	0.059
-369.771	-102.493	-0.297	-0.071
-368.756	-152.753	0.312	-0.022
-367.742	243.421	0.114	-0.189
-366.727	-72.886	-0.031	-0.011
-365.712	-120.655	-0.342	0.058
-364.698	-200.000	0.041	0.331
-363.683	-18.996	-0.079	0.049
-362.669	-200.000	-0.005	0.107
-361.654	-148.070	0.418	-0.034
-360.639	-65.180	0.386	-0.154
-359.625	-68.574	0.126	0.048
-358.610	-136.466	-0.318	-0.037
-357.596	800.000	0.045	-0.130
-356.581	-84.670	0.289	0.090
-355.566	-26.240	-0.211	-0.123
-354.552	-55.775	0.214	0.095
-353.537	-200.000	0.081	0.478
-352.523	800.000	0.181	0.531
-351.508	-200.000	0.016	-0.186
-350.493	449.312	0.103	0.226
-349.479	26.124	-0.218	-0.181
-348.464	-200.000	0.025	-0.284
-347.450	-115.643	0.466	-0.087
-346.435	175.132	0.079	0.114
-345.420	-200.000	0.023	-0.135
-344.406	-141.882	-0.159	-0.016
-343.391	-31.930	-0.170	-0.095
-342.377	30.096	-0.091	-0.077
-341.362	57.318	0.048	-0.047
-340.348	130.093	-0.076	-0.097
-339.333	-200.000	-0.019	-0.297
-338.318	119.112	-0.322	-0.395
-337.304	400.345	0.073	0.151
-336.289	83.936	0.142	0.153
-335.275	-63.279	-0.133	-0.054
-334.260	-99.378	0.014	0.003
-333.245	-25.399	0.191	-0.112
-332.231	-200.000	0.049	0.338
-331.216	450.147	0.091	0.199
-330.202	23.899	0.213	-0.174
-329.187	-200.000	0.002	0.301
-328.172	27.890	-0.172	0.144
-327.158	-200.000	0.023	-0.253
-326.143	-38.852	0.047	0.024
-325.129	-33.831	0.137	-0.075
-324.114	81.440	0.084	-0.090
-323.099	800.000	-0.063	-0.222
-322.085	654.199	-0.150	0.381
-321.070	732.104	0.070	0.185
-320.056	81.455	-0.253	0.271
-319.041	-200.000	0.026	-0.197
-318.026	34.921	0.242	0.210
-317.012	800.000	0.063	0.254
-315.997	52.506	-0.077	-0.073
-314.983	-56.028	-0.449	-0.199
-313.968	262.056	0.070	0.121
-312.953	168.706	-0.096	-0.135
-311.939	-200.000	-0.050	0.330
-310.924	-83.396	-0.032	-0.010
-309.910	144.107	-0.117	-0.154
-308.895	-176.577	-0.461	0.012
-307.880	257.427	-0.065	-0.110
-306.866	201.229	0.168	-0.256
-305.851	38.078	0.026	-0.023
-304.837	50.888	-0.110	0.103
-303.822	64.794	-0.049	0.049
-302.807	800.000	-0.085	0.234
-301.793	559.929	-0.056	0.134
-300.778	800.000	0.075	0.223
-299.764	-200.000	-0.016	0.167
-298.749	327.813	0.115	0.218
-297.735	-36.326	-0.088	-0.047
-296.720	10.229	0.443	-0.334
-295.705	-55.114	0.140	0.062
-294.691	-0.610	-0.234	0.164
-293.676	-185.879	0.254	-0.004
-292.662	-50.159	0.202	-0.095
-291.647	-65.088	-0.172	0.069
-290.632	195.985	0.181	-0.273
-289.618	-89.618	0.085	-0.025
-288.603	-151.694	-0.116	-0.008
-287.589	-19.907	0.242	-0.148
-286.574	-11.847	-0.342	-0.222
-285.559	-81.965	0.159	-0.052
-284.545	-200.000	0.002	0.308
-283.530	-81.356	0.056	0.018
-282.516	13.586	-0.146	0.113
-281.501	68.518	0.246	0.250
-280.486	-3.546	-0.333	-0.229
-279.472	-200.000	-0.053	0.240
-278.457	-200.000	-0.034	0.172
-277.443	-80.567	-0.217	0.072
-276.428	-200.000	0.007	0.041
-275.413	-125.525	0.414	0.062
-274.399	-200.000	0.054	-0.600
-273.384	-42.938	-0.136	-0.068
-272.370	20.123	-0.038	0.031
-271.355	-200.000	0.028	0.138
-270.340	800.000	-0.062	0.194
-269.326	357.727	0.187	-0.370
-268.311	9.707	0.161	-0.121
-267.297	-200.000	-0.026	0.260
-266.282	422.045	-0.084	-0.179
-265.267	84.795	-0.121	-0.131
-264.253	258.031	-0.110	0.188
-263.238	88.322	0.041	0.046
-262.224	252.189	-0.140	-0.235
-261.209	74.351	-0.095	-0.099
-260.195	-200.000	0.024	0.510
-259.180	-149.602	-0.201	0.016
-258.165	-28.918	0.064	0.036
-257.151	58.825	0.274	-0.267
-256.136	-18.017	-0.331	-0.205
-255.122	-200.000	-0.011	0.408
-254.107	252.099	-0.090	0.151
-253.092	-18.530	-0.268	-0.166
-252.078	800.000	-0.115	0.347
-251.063	-105.642	0.227	-0.051
-250.049	289.337	0.172	-0.309
-249.034	133.220	0.081	0.104
-248.019	-93.972	0.176	-0.048
-247.005	-102.498	-0.325	0.077
-245.990	-53.155	-0.050	0.023
-244.976	120.398	0.161	-0.198
-243.961	-142.809	-0.066	0.006
-242.946	-39.533	0.034	-0.017
-241.932	223.144	0.198	-0.316
-240.917	237.564	0.069	0.113
-239.903	-161.334	0.252	0.013
-238.888	-111.895	-0.303	0.060
-237.873	-96.224	-0.360	-0.094
-236.859	303.194	-0.082	-0.150
-235.844	-53.309	-0.186	-0.084
-234.830	-69.529	0.237	-0.090
-233.815	191.881	-0.168	0.250
-232.800	160.651	0.039	0.054
-231.786	-100.009	-0.127	0.031
-230.771	-132.295	0.127	-0.016
-229.757	-163.053	-0.162	0.008
-228.742	-59.383	-0.142	-0.060
-227.727	47.538	0.100	-0.093
-226.713	-56.922	0.220	-0.096
-225.698	-33.406	-0.208	-0.114
-224.684	107.881	0.217	0.255
-223.669	-10.721	0.316	0.206
-222.655	13.992	0.041	-0.032
-221.640	-14.016	0.188	-0.120
-220.625	81.415	-0.178	-0.190
-219.611	174.052	0.042	-0.060
-218.596	429.253	-0.119	0.253
-217.582	701.586	0.017	-0.043
-216.567	20.842	0.195	0.156
-215.552	-100.785	0.049	0.012
-214.538	9.677	0.265	0.198
-213.523	195.864	-0.072	-0.108
-212.509	484.604	0.119	0.268
-211.494	-21.237	0.180	-0.109
-210.479	-45.977	0.141	0.069
-209.465	-122.422	-0.089	0.014
-208.450	171.966	-0.113	0.161
-207.436	10.929	-0.071	-0.054
-206.421	-82.857	-0.210	0.067
-205.406	-115.471	-0.256	-0.048
-204.392	-200.000	-0.015	0.269
-203.377	548.727	0.114	0.270
-202.363	-200.000	-0.009	-0.184
-201.348	298.283	-0.045	0.081
-200.333	488.019	-0.089	-0.202
-199.319	-52.613	0.184	0.084
-198.304	-107.077	-0.381	-0.083
-197.290	-85.250	-0.543	0.167
-196.275	-8.963	0.167	-0.110
-195.260	-106.929	-0.145	0.032
-194.246	800.000	-0.016	-0.066
-193.231	800.000	0.021	0.074
-192.217	316.461	0.178	-0.332
-191.202	447.637	-0.101	0.220
-190.187	82.643	-0.028	-0.030
-189.173	424.745	0.042	-0.089
-188.158	81.719	0.187	0.200
-187.144	-200.000	-0.004	0.326
-186.129	76.584	0.015	0.015
-185.114	334.665	-0.130	0.248
-184.100	-145.873	0.361	0.032
-183.085	800.000	0.027	-0.097
-182.071	36.901	0.063	-0.055
-181.056	-58.520	0.271	0.116
-180.042	102.511	-0.111	0.129
-179.027	-78.592	0.036	-0.012
-178.012	107.232	-0.256	-0.300
-176.998	800.000	-0.063	0.254
-175.983	800.000	-0.068	0.260
-174.969	-200.000	-0.007	-0.210
-173.954	67.814	-0.074	0.075
-172.939	800.000	0.064	-0.209
-171.925	19.515	-0.049	0.039
-170.910	335.064	-0.258	0.492
-169.896	315.014	0.070	0.130
-168.881	172.860	-0.120	0.170
-167.866	-31.735	-0.282	-0.156
-166.852	153.654	-0.101	-0.137
-165.837	-200.000	-0.022	0.153
-164.823	-52.373	-0.288	-0.131
-163.808	-135.962	0.250	0.029
-162.793	213.539	-0.075	0.116
-161.779	-200.000	-0.020	-0.158
-160.764	-200.000	-0.025	0.241
-159.750	661.230	0.053	-0.136
-158.735	476.621	0.060	0.133
-157.720	661.482	0.061	0.156
-156.706	477.263	0.023	-0.050
-155.691	800.000	-0.152	0.640
-154.677	-185.466	0.247	0.004
-153.662	69.558	-0.061	0.062
-152.647	360.134	-0.031	0.061
-151.633	-174.115	-0.130	-0.004
-150.618	-200.000	-0.012	-0.180
-149.604	-129.644	0.097	0.013
-148.589	-83.078	0.040	-0.013
-147.574	165.580	-0.060	-0.084
-146.560	-151.306	-0.174	0.013
-145.545	-200.000	-0.057	0.256
-144.531	232.435	0.025	0.040
-143.516	800.000	0.080	0.293
-142.502	43.252	-0.053	-0.048
-141.487	345.078	-0.094	0.181
-140.472	30.587	-0.150	0.126
-139.458	800.000	0.055	0.152
-138.443	239.994	0.196	-0.322
-137.429	621.361	-0.100	0.248
-136.414	-200.000	-0.031	0.167
-135.399	-48.092	-0.423	0.201
-134.385	51.668	0.089	0.083
-133.370	-72.466	-0.270	0.098
-132.356	212.133	0.190	-0.294
-131.341	213.554	-0.131	-0.204
-130.326	105.914	-0.280	0.326
-129.312	-10.454	0.259	-0.169
-128.297	102.524	0.174	-0.200
-127.283	800.000	0.091	-0.390
-126.268	-200.000	-0.011	-0.253
-125.253	-139.727	-0.262	-0.027
-124.239	588.523	0.122	0.297
-123.224	340.512	-0.101	0.194
-122.210	-63.786	0.261	-0.105
