DTS Sentinel unit serial number:	SN413079Multiplexer serial number:	ORYXHardware model number:	OX4-SRSoftware version number:	ORYX F/W v4.00 Oryx Data Collector v3.7.2.0data status	okinstallation	princeton_trtdifferential loss correction	single-endedforward channel	channel 1reverse channel	N/Adate	2019/09/18time	14:06:35forward acquisition time	60.00reverse acquisition time	0.00gamma	496.2192k internal	0.2312k external	0.2312temperature offset calibration	0.9991default loss term (dB/km)	0.3790temperature slope calibration	1.0000multiplexer offset coefficient	1.0000multiplexer slope coefficient	1.0000fibre end	0.00T internal ref (°C)	34.42T ext. ref 1 (°C)	0.66T ext. ref 2 (°C)	28.76length (m)	temperature (°C)	Stokes	anti-Stokes-747.200	57.143	0.256	-0.253
-746.185	-200.000	0.068	0.530
-745.171	-6.761	-0.227	0.157
-744.156	-126.079	0.243	0.037
-743.142	800.000	-0.093	0.283
-742.127	147.775	-0.119	0.163
-741.112	703.380	-0.193	-0.517
-740.098	-200.000	0.024	-0.207
-739.083	148.832	-0.149	0.205
-738.069	103.461	-0.034	-0.040
-737.054	-108.347	-0.244	0.054
-736.039	108.857	-0.150	-0.182
-735.025	82.102	-0.183	0.202
-734.010	182.647	-0.205	-0.307
-732.996	-200.000	0.048	-0.232
-731.981	-22.377	0.250	-0.153
-730.966	800.000	0.099	-0.311
-729.952	95.890	-0.149	-0.172
-728.937	118.433	-0.013	0.017
-727.923	800.000	-0.029	-0.100
-726.908	-200.000	0.018	0.099
-725.894	69.395	-0.220	-0.229
-724.879	108.019	-0.186	-0.225
-723.864	-116.251	-0.073	-0.014
-722.850	92.862	-0.174	-0.200
-721.835	-125.516	0.062	0.010
-720.821	68.421	0.190	0.198
-719.806	-64.580	-0.138	0.057
-718.791	-175.845	0.057	0.002
-717.777	-172.785	-0.295	-0.009
-716.762	346.358	0.077	0.153
-715.748	-36.228	-0.027	-0.015
-714.733	134.592	0.109	-0.143
-713.718	800.000	-0.086	0.334
-712.704	367.502	-0.062	-0.127
-711.689	355.463	-0.125	-0.253
-710.675	124.111	-0.158	-0.201
-709.660	-102.784	-0.168	0.041
-708.645	657.448	-0.080	-0.209
-707.631	-79.792	-0.070	-0.024
-706.616	800.000	-0.051	-0.165
-705.602	-111.746	0.119	-0.024
-704.587	800.000	-0.051	-0.177
-703.572	-115.939	-0.126	0.024
-702.558	361.989	0.116	-0.235
-701.543	-200.000	-0.001	-0.031
-700.529	-119.781	-0.447	-0.078
-699.514	-77.693	-0.081	-0.028
-698.499	-200.000	0.034	-0.295
-697.485	17.749	-0.180	-0.145
-696.470	-200.000	0.029	0.164
-695.456	-200.000	0.021	0.158
-694.441	-162.042	0.191	-0.010
-693.426	-200.000	-0.072	0.366
-692.412	-200.000	0.013	-0.180
-691.397	-200.000	-0.017	0.123
-690.383	22.692	-0.256	0.213
-689.368	29.167	-0.157	0.135
-688.354	-48.390	-0.117	-0.057
-687.339	800.000	-0.117	0.343
-686.324	595.431	0.069	0.173
-685.310	-200.000	-0.012	-0.109
-684.295	-59.462	-0.304	-0.132
-683.281	212.794	0.083	-0.133
-682.266	93.876	-0.079	-0.090
-681.251	185.604	-0.122	0.184
-680.237	317.148	-0.147	0.281
-679.222	155.045	0.136	0.189
-678.208	183.705	-0.258	0.386
-677.193	369.264	0.193	0.395
-676.178	800.000	-0.129	0.424
-675.164	5.255	0.060	0.045
-674.149	-200.000	-0.051	0.299
-673.135	-104.340	-0.366	0.086
-672.120	-200.000	0.033	0.190
-671.105	-200.000	-0.004	-0.086
-670.091	-97.740	0.460	0.120
-669.076	169.927	-0.046	-0.066
-668.062	95.870	-0.065	-0.075
-667.047	80.230	-0.130	-0.141
-666.032	-56.891	-0.056	0.025
-665.018	-83.414	0.188	0.061
-664.003	-200.000	-0.101	0.502
-662.989	-134.187	0.111	0.014
-661.974	-71.996	0.354	-0.133
-660.959	3.072	-0.140	-0.103
-659.945	800.000	-0.029	0.104
-658.930	-119.866	-0.055	-0.010
-657.916	800.000	-0.092	0.333
-656.901	-6.281	-0.151	-0.104
-655.886	-42.364	-0.208	-0.107
-654.872	-105.409	0.057	0.013
-653.857	38.372	-0.063	0.057
-652.843	444.882	0.031	-0.069
-651.828	48.061	0.232	0.220
-650.814	17.122	-0.215	-0.173
-649.799	399.167	0.076	-0.160
-648.784	-89.374	0.100	-0.030
-647.770	-200.000	0.084	0.377
-646.755	-55.508	-0.128	0.058
-645.741	800.000	0.029	0.126
-644.726	-200.000	-0.040	0.230
-643.711	-136.706	-0.289	0.034
-642.697	82.159	0.136	0.149
-641.682	303.818	-0.129	0.242
-640.668	332.631	0.054	0.106
-639.653	800.000	-0.014	-0.051
-638.638	800.000	0.077	-0.240
-637.624	188.700	-0.088	0.132
-636.609	-31.217	0.118	-0.067
-635.595	-80.567	0.116	-0.039
-634.580	250.941	0.041	0.071
-633.565	179.315	-0.082	0.122
-632.551	164.848	0.137	0.195
-631.536	11.742	-0.252	-0.195
-630.522	54.110	-0.025	-0.024
-629.507	-28.382	-0.138	0.081
-628.492	144.264	-0.174	-0.234
-627.478	-10.142	-0.167	-0.112
-626.463	-200.000	-0.002	0.056
-625.449	-97.591	-0.222	-0.058
-624.434	202.517	0.125	0.195
-623.419	478.863	0.150	-0.343
-622.405	-53.427	0.162	0.075
-621.390	166.455	0.032	-0.046
-620.376	-200.000	-0.001	-0.051
-619.361	-50.401	0.079	0.038
-618.346	-200.000	-0.000	-0.006
-617.332	227.433	-0.193	0.317
-616.317	333.454	0.117	0.228
-615.303	140.957	0.063	0.084
-614.288	-133.081	-0.204	0.026
-613.273	50.670	0.210	0.201
-612.259	253.286	0.059	-0.102
-611.244	-200.000	-0.009	-0.190
-610.230	800.000	-0.085	-0.360
-609.215	-56.154	-0.112	0.051
-608.201	113.910	0.103	-0.126
-607.186	-200.000	-0.049	-0.293
-606.171	-37.213	-0.180	-0.097
-605.157	732.251	-0.058	-0.157
-604.142	56.696	-0.256	-0.251
-603.128	633.135	0.064	-0.164
-602.113	-51.099	-0.119	-0.056
-601.098	80.134	0.142	-0.154
-600.084	420.353	-0.126	0.273
-599.069	33.728	-0.275	0.241
-598.055	-84.497	-0.267	-0.085
-597.040	129.787	-0.195	-0.251
-596.025	-118.130	0.512	-0.092
-595.011	-19.075	0.156	0.098
-593.996	-44.936	-0.188	-0.094
-592.982	565.427	-0.098	0.241
-591.967	-98.501	0.148	0.038
-590.952	134.175	0.201	0.263
-589.938	488.947	0.050	-0.116
-588.923	84.468	-0.184	0.203
-587.909	-86.320	0.099	0.031
-586.894	-111.532	-0.273	0.056
-585.879	-10.358	-0.188	-0.126
-584.865	-125.713	-0.427	-0.065
-583.850	39.179	-0.163	0.147
-582.836	-136.676	-0.188	0.022
-581.821	800.000	-0.092	-0.383
-580.806	150.122	-0.066	0.090
-579.792	-129.928	0.257	-0.035
-578.777	-98.906	-0.226	0.058
-577.763	671.623	0.030	0.078
-576.748	41.216	-0.102	0.093
-575.733	346.837	-0.163	0.323
-574.719	-200.000	0.022	-0.234
-573.704	-87.585	-0.093	-0.028
-572.690	-106.596	0.283	-0.063
-571.675	216.683	-0.136	0.218
-570.661	-94.163	0.265	0.073
-569.646	-200.000	0.060	-0.371
-568.631	223.662	-0.136	-0.221
-567.617	139.193	0.014	0.018
-566.602	-11.242	0.086	-0.057
-565.588	-99.656	-0.470	0.119
-564.573	-160.430	-0.190	0.010
-563.558	264.028	-0.166	-0.292
-562.544	82.902	-0.178	-0.194
-561.529	122.888	-0.060	-0.076
-560.515	800.000	0.039	0.131
-559.500	-200.000	-0.015	-0.194
-558.485	-150.896	-0.159	0.012
-557.471	-44.404	-0.195	-0.098
-556.456	371.677	0.137	-0.281
-555.442	3.944	0.236	-0.174
-554.427	-76.717	-0.156	0.055
-553.412	69.982	0.089	-0.092
-552.398	-35.545	0.232	-0.127
-551.383	105.541	0.010	-0.012
-550.369	800.000	-0.060	-0.230
-549.354	-200.000	-0.012	0.211
-548.339	-200.000	-0.004	-0.122
-547.325	379.789	-0.115	0.238
-546.310	201.063	-0.078	0.121
-545.296	14.184	0.081	-0.064
-544.281	-171.322	0.254	-0.009
-543.266	-200.000	0.009	-0.143
-542.252	-86.393	-0.171	-0.053
-541.237	293.381	-0.055	0.102
-540.223	-14.943	-0.082	0.053
-539.208	764.613	0.053	0.145
-538.193	-137.685	0.249	-0.028
-537.179	-200.000	0.048	0.277
-536.164	-49.400	0.316	-0.152
-535.150	194.213	-0.166	0.253
-534.135	443.229	-0.070	0.155
-533.121	716.813	0.036	0.097
-532.106	141.045	0.081	-0.108
-531.091	326.538	0.122	0.235
-530.077	-87.127	0.104	0.032
-529.062	800.000	-0.129	0.522
-528.048	18.669	0.200	0.161
-527.033	-44.038	0.182	-0.092
-526.018	-96.744	0.280	-0.074
-525.004	-112.358	-0.102	-0.020
-523.989	-181.094	-0.069	0.001
-522.975	273.412	0.148	0.263
-521.960	512.515	-0.098	0.229
-520.945	-65.593	0.128	0.052
-519.931	-91.373	0.302	0.087
-518.916	26.911	0.197	0.166
-517.902	-67.104	0.092	0.036
-516.887	83.854	-0.083	-0.091
-515.872	-54.787	0.172	0.078
-514.858	222.159	-0.139	0.225
-513.843	323.327	0.115	-0.221
-512.829	-81.922	0.166	-0.055
-511.814	-158.918	0.486	0.028
-510.799	-70.694	-0.140	0.053
-509.785	430.787	0.101	-0.219
-508.770	45.434	0.305	0.283
-507.756	-118.876	0.256	0.045
-506.741	-200.000	-0.031	0.288
-505.726	-200.000	-0.013	0.061
-504.712	-74.932	0.160	0.058
-503.697	458.738	0.075	0.167
-502.683	166.429	0.022	-0.032
-501.668	-200.000	-0.034	-0.223
-500.653	-110.816	0.207	-0.043
-499.639	-99.031	-0.242	0.062
-498.624	-29.870	-0.213	-0.122
-497.610	-3.469	-0.111	-0.077
-496.595	-169.538	-0.305	0.011
-495.581	-133.415	-0.262	-0.033
-494.566	-120.613	0.308	-0.052
-493.551	68.674	-0.124	0.128
-492.537	800.000	-0.121	-0.452
-491.522	71.320	0.124	-0.129
-490.508	-200.000	-0.003	-0.232
-489.493	71.832	0.030	0.031
-488.478	42.294	0.158	-0.144
-487.464	-134.309	0.147	0.018
-486.449	-43.027	-0.119	-0.061
-485.435	-200.000	0.038	-0.220
-484.420	-200.000	0.024	-0.188
-483.405	-120.802	0.293	-0.050
-482.391	307.726	-0.097	0.181
-481.376	-200.000	0.028	0.177
-480.362	114.902	-0.109	0.134
-479.347	6.751	0.297	0.222
-478.332	-143.186	-0.312	-0.030
-477.318	152.462	-0.194	0.266
-476.303	800.000	-0.031	0.091
-475.289	-109.297	-0.118	0.025
-474.274	-200.000	0.004	-0.037
-473.259	800.000	-0.065	-0.191
-472.245	800.000	-0.070	0.205
-471.230	3.046	-0.214	0.156
-470.216	140.352	0.138	-0.183
-469.201	-200.000	0.045	0.203
-468.186	-53.960	-0.299	-0.137
-467.172	-200.000	0.015	0.105
-466.157	-156.403	0.312	-0.020
-465.143	154.794	-0.102	-0.141
-464.128	-200.000	-0.022	0.107
-463.113	-172.473	-0.082	-0.003
-462.099	800.000	-0.091	0.299
-461.084	110.005	0.101	-0.121
-460.070	422.565	0.070	-0.151
-459.055	800.000	0.062	0.266
-458.040	-2.738	0.107	0.075
-457.026	800.000	0.057	-0.177
-456.011	128.493	0.034	0.044
-454.997	800.000	-0.051	-0.180
-453.982	-200.000	0.007	0.363
-452.968	18.391	0.240	0.192
-451.953	-200.000	0.005	-0.046
-450.938	-200.000	0.068	-0.426
-449.924	222.060	0.136	0.220
-448.909	-145.781	-0.174	-0.016
-447.895	800.000	0.042	-0.126
-446.880	-163.929	0.185	0.009
-445.865	-200.000	0.032	0.357
-444.851	66.299	-0.209	-0.213
-443.836	56.482	0.045	-0.044
-442.822	-200.000	-0.033	0.305
-441.807	-93.514	-0.122	0.034
-440.792	-200.000	-0.012	-0.258
-439.778	36.205	-0.151	0.133
-438.763	800.000	-0.082	0.239
-437.749	-200.000	0.003	0.470
-436.734	221.380	-0.032	0.051
-435.719	-32.085	0.246	-0.138
-434.705	283.812	0.010	-0.018
-433.690	-128.595	-0.562	-0.080
-432.676	696.688	0.097	0.254
-431.661	-13.901	-0.384	0.249
-430.646	119.001	0.019	0.023
-429.632	622.192	0.073	-0.185
-428.617	526.251	-0.027	0.064
-427.603	-76.974	0.090	0.031
-426.588	67.442	0.254	0.260
-425.573	164.053	-0.112	-0.158
-424.559	-200.000	-0.017	-0.181
-423.544	308.374	0.066	0.123
-422.530	-157.957	0.114	0.007
-421.515	491.724	0.073	0.168
-420.500	-29.652	0.229	0.131
-419.486	67.801	-0.119	-0.122
-418.471	-78.652	0.396	-0.136
-417.457	612.622	-0.086	0.216
-416.442	-133.824	0.171	0.021
-415.428	-20.397	-0.253	-0.156
-414.413	156.728	-0.098	0.136
-413.398	68.845	0.065	-0.067
-412.384	-200.000	0.024	-0.200
-411.369	167.843	0.110	-0.157
-410.355	350.097	0.103	0.203
-409.340	205.700	0.054	0.084
-408.325	800.000	-0.048	0.185
-407.311	-200.000	-0.009	0.249
-406.296	-200.000	0.002	-0.020
-405.282	-117.682	-0.142	-0.026
-404.267	17.453	0.210	0.167
-403.252	-89.977	-0.279	-0.081
-402.238	14.597	-0.161	-0.126
-401.223	340.614	-0.100	0.196
-400.209	-200.000	-0.002	0.177
-399.194	586.713	0.043	-0.106
-398.179	-200.000	0.017	0.100
-397.165	-128.824	-0.212	-0.030
-396.150	-78.033	-0.461	0.159
-395.136	800.000	0.114	0.334
-394.121	2.862	0.225	0.163
-393.106	-140.182	-0.379	-0.040
-392.092	800.000	0.061	-0.257
-391.077	-184.439	0.338	0.006
-390.063	1.760	-0.395	0.285
-389.048	-62.351	0.291	-0.121
-388.033	-200.000	-0.026	0.154
-387.019	156.267	0.096	0.132
-386.004	-44.898	-0.066	-0.033
-384.990	-133.627	0.192	0.024
-383.975	-49.801	0.398	0.189
-382.960	57.876	0.044	0.043
-381.946	-200.000	-0.048	0.383
-380.931	22.566	0.052	0.042
-379.917	-72.095	0.171	-0.063
-378.902	-151.615	-0.320	0.024
-377.888	-178.411	0.323	-0.008
-376.873	251.872	-0.204	-0.348
-375.858	308.766	-0.123	0.230
-374.844	-200.000	0.029	0.218
-373.829	800.000	-0.044	0.185
-372.815	-122.825	-0.382	-0.062
-371.800	-200.000	0.018	0.127
-370.785	125.369	0.119	-0.150
-369.771	146.545	-0.234	0.314
-368.756	-107.614	-0.144	0.032
-367.742	-200.000	-0.005	-0.341
-366.727	-62.615	-0.311	0.129
-365.712	87.459	-0.141	-0.156
-364.698	99.562	0.472	-0.546
-363.683	-200.000	-0.002	-0.197
-362.669	137.785	-0.176	-0.230
-361.654	130.019	-0.219	-0.280
-360.639	-6.615	0.156	-0.106
-359.625	-184.598	-0.116	-0.002
-358.610	68.639	-0.348	-0.357
-357.596	94.296	0.058	0.066
-356.581	405.397	0.029	0.062
-355.566	-37.518	-0.281	0.150
-354.552	151.786	-0.097	0.133
-353.537	23.163	0.160	0.131
-352.523	-1.378	-0.157	0.111
-351.508	-63.599	0.272	0.112
-350.493	40.658	-0.125	-0.113
-349.479	15.209	-0.073	0.058
-348.464	-200.000	0.007	-0.176
-347.450	-7.926	0.218	-0.147
-346.435	-200.000	-0.017	-0.181
-345.420	145.756	-0.133	-0.178
-344.406	-200.000	0.033	0.246
-343.391	230.377	0.094	-0.154
-342.377	-200.000	0.005	0.178
-341.362	1.100	-0.014	0.010
-340.348	-41.879	-0.111	0.057
-339.333	-115.060	-0.048	0.009
-338.318	-101.009	-0.036	0.009
-337.304	66.771	-0.098	0.100
-336.289	474.526	-0.091	-0.206
-335.275	14.333	-0.106	-0.083
-334.260	-200.000	-0.008	-0.211
-333.245	800.000	-0.051	0.199
-332.231	-111.395	0.174	-0.035
-331.216	-2.768	-0.214	-0.150
-330.202	-36.866	0.132	-0.071
-329.187	42.753	0.392	-0.357
-328.172	267.322	-0.275	-0.480
-327.158	800.000	0.134	0.432
-326.143	743.995	0.103	0.276
-325.129	56.443	0.146	0.141
-324.114	668.961	-0.087	0.225
-323.099	313.686	-0.172	-0.324
-322.085	-117.901	-0.005	-0.001
-321.070	-46.797	0.308	0.150
-320.056	169.315	-0.201	-0.286
-319.041	-200.000	0.052	-0.231
-318.026	26.829	0.237	-0.198
-317.012	52.292	-0.098	-0.093
-315.997	135.900	-0.035	-0.045
-314.983	49.458	-0.166	0.156
-313.968	-82.158	0.215	0.070
-312.953	317.873	-0.371	-0.701
-311.939	-90.323	-0.223	0.065
-310.924	-58.963	-0.087	-0.038
-309.910	-200.000	0.033	-0.304
-308.895	-200.000	-0.009	-0.059
-307.880	-25.054	0.338	-0.200
-306.866	-200.000	-0.010	-0.336
-305.851	800.000	-0.128	-0.456
-304.837	-86.409	-0.045	0.014
-303.822	-9.426	0.273	-0.182
-302.807	-200.000	-0.003	0.186
-301.793	-200.000	0.151	-0.000
-300.778	57.682	0.105	-0.103
-299.764	-77.581	0.444	0.154
-298.749	800.000	0.066	0.231
-297.735	-104.493	-0.242	-0.056
-296.720	70.442	0.137	-0.141
-295.705	214.354	0.105	-0.166
-294.691	42.451	-0.177	0.160
-293.676	-200.000	-0.029	0.235
-292.662	800.000	0.012	0.039
-291.647	98.439	-0.199	-0.228
-290.632	-200.000	0.026	-0.212
-289.618	351.694	0.129	0.254
-288.603	59.401	0.155	-0.152
-287.589	127.966	0.196	0.248
-286.574	109.011	-0.145	0.173
-285.559	-200.000	-0.003	0.312
-284.545	-200.000	-0.075	0.465
-283.530	22.905	-0.022	0.018
-282.516	800.000	-0.040	-0.134
-281.501	-60.631	0.144	0.061
-280.486	-200.000	0.037	0.236
-279.472	732.590	-0.034	0.092
-278.457	74.950	0.061	-0.064
-277.443	-77.521	-0.143	-0.049
-276.428	130.073	0.032	0.041
-275.413	-80.320	0.244	-0.081
-274.399	-45.669	0.082	-0.041
-273.384	93.586	-0.219	-0.246
-272.370	-137.004	0.163	0.019
-271.355	-89.065	0.244	-0.072
-270.340	800.000	0.050	-0.175
-269.326	116.346	-0.183	0.223
-268.311	442.936	-0.066	0.144
-267.297	594.394	0.069	-0.169
-266.282	173.074	-0.104	-0.150
-265.267	-97.640	0.333	0.086
-264.253	-200.000	-0.038	-0.211
-263.238	800.000	0.025	0.099
-262.224	-59.061	0.085	0.037
-261.209	-102.284	-0.102	-0.024
-260.195	800.000	0.076	-0.258
-259.180	-25.592	0.199	0.117
-258.165	-88.228	-0.396	-0.118
-257.151	-124.050	0.126	0.020
-256.136	-29.359	0.136	-0.078
-255.122	-55.977	-0.298	-0.132
-254.107	-81.899	0.454	0.148
-253.092	37.109	0.228	-0.201
-252.078	-200.000	-0.029	0.170
-251.063	-86.396	-0.191	0.059
-250.049	800.000	0.024	-0.095
-249.034	-60.741	0.112	-0.047
-248.019	-200.000	-0.035	-0.338
-247.005	-200.000	-0.049	-0.425
-245.990	317.168	0.094	-0.176
-244.976	800.000	0.039	-0.119
-243.961	229.170	-0.097	0.157
-242.946	144.172	-0.181	-0.240
-241.932	139.164	0.294	-0.385
-240.917	-143.439	0.341	0.032
-239.903	114.600	-0.116	-0.141
-238.888	77.567	0.117	-0.124
-237.873	-114.224	-0.237	0.045
-236.859	107.031	0.076	-0.090
-235.844	-200.000	-0.060	-0.288
-234.830	6.529	0.207	0.153
-233.815	-25.358	-0.054	-0.032
-232.800	-159.631	0.154	0.008
-231.786	800.000	0.053	-0.198
-230.771	-58.298	0.425	0.184
-229.757	512.038	-0.103	-0.238
-228.742	153.173	-0.088	-0.120
-227.727	-88.033	-0.254	0.076
-226.713	-141.212	-0.270	0.027
-225.698	61.734	0.045	0.044
-224.684	-69.194	-0.295	0.113
-223.669	-200.000	-0.000	0.142
-222.655	-200.000	-0.045	0.199
-221.640	-44.844	-0.156	-0.077
-220.625	310.231	0.042	0.079
-219.611	-1.769	0.107	-0.075
-218.596	226.218	0.052	-0.085
-217.582	12.268	-0.086	0.066
-216.567	37.712	-0.201	-0.177
-215.552	-200.000	0.090	0.486
-214.538	-200.000	0.055	0.265
-213.523	-200.000	0.009	-0.577
-212.509	431.784	-0.101	-0.218
-211.494	599.817	-0.163	-0.403
-210.479	-200.000	0.220	-0.001
-209.465	29.860	-0.181	0.153
-208.450	-47.177	0.232	0.113
-207.436	226.567	0.182	0.294
-206.421	-200.000	-0.055	0.353
-205.406	800.000	0.155	0.457
-204.392	123.361	-0.073	-0.091
-203.377	316.350	-0.089	-0.167
-202.363	-14.208	-0.171	-0.109
-201.348	-200.000	0.069	0.307
-200.333	-170.192	0.094	0.003
-199.319	-65.854	-0.037	0.015
-198.304	161.971	0.101	0.140
-197.290	12.971	-0.085	0.066
-196.275	153.932	0.271	0.368
-195.260	800.000	-0.122	-0.338
-194.246	137.962	0.105	0.137
-193.231	-157.766	0.228	-0.013
-192.217	-30.712	0.074	0.042
-191.202	-90.593	-0.219	0.063
-190.187	319.921	0.056	-0.106
-189.173	343.866	-0.060	-0.116
-188.158	-55.595	0.159	-0.071
-187.144	-80.074	0.051	-0.017
-186.129	-41.273	0.065	-0.033
-185.114	-129.308	0.031	-0.004
-184.100	-200.000	-0.003	-0.192
-183.085	-200.000	-0.068	0.467
-182.071	262.232	0.072	-0.124
-181.056	-160.462	-0.208	0.011
-180.042	-46.938	-0.019	-0.009
-179.027	-15.402	0.275	0.175
-178.012	284.972	-0.018	-0.033
-176.998	14.851	0.167	0.130
-175.983	-200.000	-0.021	-0.165
-174.969	-200.000	0.007	-0.190
-173.954	129.833	0.108	-0.137
-172.939	-25.114	0.104	-0.061
-171.925	213.038	0.046	0.072
-170.910	-197.392	0.183	-0.001
-169.896	-60.482	0.020	-0.008
-168.881	24.953	0.116	-0.096
-167.866	259.222	-0.222	0.379
-166.852	-114.744	-0.205	-0.039
-165.837	30.935	-0.114	-0.096
-164.823	-90.296	-0.291	-0.084
-163.808	78.785	-0.234	-0.249
-162.793	496.443	0.111	-0.253
-161.779	193.291	0.151	-0.227
-160.764	261.409	-0.058	0.099
-159.750	75.472	0.109	-0.114
-158.735	-200.000	-0.064	0.000
-157.720	-79.732	-0.144	0.048
-156.706	-68.441	-0.281	0.108
-155.691	351.790	0.117	0.230
-154.677	-8.791	-0.083	0.055
-153.662	-117.985	0.319	0.057
-152.647	-81.449	0.117	-0.038
-151.633	13.283	-0.245	0.188
-150.618	-19.986	-0.177	0.108
-149.604	800.000	0.046	0.154
-148.589	-119.952	0.549	-0.093
-147.574	-136.644	-0.119	0.014
-146.560	-111.123	-0.303	-0.062
-145.545	800.000	-0.110	0.444
-144.531	-93.919	0.170	-0.046
-143.516	330.535	-0.140	-0.268
-142.502	68.230	0.139	0.141
-141.487	-142.316	-0.157	0.015
-140.472	-122.653	0.372	-0.060
-139.458	800.000	0.056	-0.241
-138.443	9.175	0.050	0.037
-137.429	800.000	-0.090	-0.276
-136.414	572.439	-0.017	-0.041
-135.399	-10.746	-0.148	0.097
-134.385	-200.000	0.043	0.302
-133.370	562.410	0.185	0.443
-132.356	181.767	0.097	0.141
-131.341	-200.000	0.050	-0.294
-130.326	189.158	0.070	0.104
-129.312	-200.000	0.032	0.259
-128.297	59.887	-0.083	0.081
-127.283	-57.538	0.285	0.124
-126.268	-47.512	0.340	-0.164
-125.253	184.056	-0.079	0.115
-124.239	800.000	0.114	-0.389
-123.224	60.019	0.224	-0.220
-122.210	1.517	0.177	0.126
-121.195	536.012	-0.093	0.219
