DTS Sentinel unit serial number:	SN413079Multiplexer serial number:	ORYXHardware model number:	OX4-SRSoftware version number:	ORYX F/W v4.00 Oryx Data Collector v3.7.2.0data status	okinstallation	princeton_trtdifferential loss correction	single-endedforward channel	channel 1reverse channel	N/Adate	2019/09/12time	19:44:34forward acquisition time	15.00reverse acquisition time	0.00gamma	496.2192k internal	0.2322k external	0.2322temperature offset calibration	1.0146default loss term (dB/km)	0.3790temperature slope calibration	1.0000multiplexer offset coefficient	1.0000multiplexer slope coefficient	1.0000fibre end	0.00T internal ref (°C)	32.00T ext. ref 1 (°C)	3.43T ext. ref 2 (°C)	26.61length (m)	temperature (°C)	Stokes	anti-Stokes-747.200	315.018	0.391	0.745
-746.185	800.000	0.151	0.651
-745.171	-28.858	-0.604	0.351
-744.156	800.000	-0.156	0.556
-743.142	800.000	0.255	-0.724
-742.127	-200.000	-0.126	-0.993
-741.112	476.252	0.278	-0.635
-740.098	-84.786	-0.550	0.175
-739.083	-150.239	0.462	0.036
-738.069	800.000	-0.185	0.586
-737.054	-98.567	-0.874	-0.225
-736.039	-144.752	0.342	0.032
-735.025	39.000	0.500	0.451
-734.010	247.256	-0.423	-0.721
-732.996	-96.084	-0.961	0.258
-731.981	-200.000	0.026	0.221
-730.966	-120.261	-0.733	-0.126
-729.952	107.921	-0.359	0.432
-728.937	800.000	0.089	-0.326
-727.923	-200.000	-0.077	0.380
-726.908	229.336	-0.256	0.422
-725.894	-200.000	0.043	0.199
-724.879	684.085	-0.124	-0.327
-723.864	395.277	-0.144	0.303
-722.850	-96.183	-0.209	-0.056
-721.835	-46.317	-0.491	-0.244
-720.821	-88.614	0.160	0.048
-719.806	53.436	0.273	0.265
-718.791	-89.032	-0.759	-0.227
-717.777	32.280	0.441	0.384
-716.762	-200.000	-0.050	-0.998
-715.748	-133.671	0.945	-0.119
-714.733	-94.827	0.371	0.101
-713.718	29.140	-0.246	-0.210
-712.704	12.487	0.377	-0.294
-711.689	-75.906	-0.288	0.103
-710.675	-200.000	-0.003	0.102
-709.660	-193.227	0.502	0.004
-708.645	-200.000	0.072	0.470
-707.631	-87.420	-0.903	-0.276
-706.616	367.510	0.271	-0.552
-705.602	70.701	0.423	0.442
-704.587	800.000	0.067	-0.297
-703.572	240.203	0.047	-0.079
-702.558	-142.941	0.250	-0.024
-701.543	-200.000	0.038	-1.068
-700.529	800.000	-0.192	-0.544
-699.514	-99.685	-0.263	-0.067
-698.499	29.003	-0.266	-0.227
-697.485	14.141	-0.441	-0.347
-696.470	-200.000	0.051	-0.592
-695.456	-200.000	0.113	-0.580
-694.441	-90.548	0.442	-0.129
-693.426	-200.000	0.063	-0.740
-692.412	-200.000	-0.087	-0.445
-691.397	18.700	-1.174	0.947
-690.383	-200.000	0.206	1.025
-689.368	-200.000	-0.071	1.236
-688.354	752.078	0.237	0.646
-687.339	-200.000	0.100	-0.797
-686.324	13.654	-0.837	-0.655
-685.310	30.161	0.084	0.072
-684.295	-200.000	-0.008	0.060
-683.281	178.159	-0.366	0.538
-682.266	-63.739	-0.615	-0.254
-681.251	43.546	-0.199	-0.184
-680.237	-112.822	0.494	0.099
-679.222	248.441	-0.167	-0.285
-678.208	180.085	0.111	0.164
-677.193	-191.861	-0.679	0.007
-676.178	800.000	-0.264	0.899
-675.164	800.000	-0.167	-0.580
-674.149	800.000	-0.235	-0.759
-673.135	800.000	-0.116	0.328
-672.120	800.000	-0.051	0.147
-671.105	229.041	0.501	0.823
-670.091	-60.136	-0.174	0.075
-669.076	-146.933	-0.487	-0.042
-668.062	16.342	-0.361	0.287
-667.047	347.300	0.272	-0.540
-666.032	57.765	-0.154	0.152
-665.018	-82.687	0.094	-0.031
-664.003	800.000	0.242	-0.801
-662.989	165.935	0.241	-0.343
-661.974	-200.000	-0.066	0.720
-660.959	-200.000	-0.079	0.627
-659.945	-200.000	-0.257	-1.134
-658.930	37.800	0.389	-0.348
-657.916	206.113	0.249	0.390
-656.901	35.485	-0.488	0.432
-655.886	-72.001	0.403	-0.151
-654.872	82.335	-0.393	0.429
-653.857	-200.000	-0.007	0.486
-652.843	292.367	-0.304	0.558
-651.828	-73.923	-1.326	-0.485
-650.814	413.015	-0.290	-0.620
-649.799	-89.997	0.680	-0.200
-648.784	138.919	0.602	-0.796
-647.770	114.763	0.652	-0.800
-646.755	162.509	0.272	0.384
-645.741	17.910	-0.416	-0.334
-644.726	-140.671	1.205	-0.126
-643.711	132.553	0.390	0.506
-642.697	-200.000	0.012	-0.442
-641.682	26.248	0.189	0.159
-640.668	228.645	-0.257	0.422
-639.653	-135.232	-0.720	-0.087
-638.638	-200.000	0.047	1.099
-637.624	-88.579	0.955	0.286
-636.609	-178.525	-0.456	0.011
-635.595	242.756	-0.606	-1.021
-634.580	98.524	0.666	-0.773
-633.565	245.544	-0.402	-0.680
-632.551	-44.581	0.062	0.031
-631.536	289.117	0.314	0.572
-630.522	-200.000	-0.080	0.669
-629.507	-76.154	0.855	-0.303
-628.492	-200.000	0.028	0.131
-627.478	-37.553	-0.083	0.044
-626.463	351.511	0.328	0.653
-625.449	-33.449	-0.700	-0.389
-624.434	429.345	-0.229	-0.497
-623.419	-1.284	-0.704	-0.500
-622.405	-200.000	0.137	0.740
-621.390	-13.851	-0.209	0.136
-620.376	299.651	-0.084	0.156
-619.361	16.808	-0.793	-0.631
-618.346	333.832	0.203	-0.396
-617.332	-200.000	0.208	-1.037
-616.317	-131.960	-0.315	0.041
-615.303	274.557	-0.428	0.762
-614.288	55.810	0.309	0.301
-613.273	613.552	-0.308	-0.774
-612.259	-200.000	-0.023	-0.339
-611.244	212.922	-0.577	0.915
-610.230	-103.126	0.717	0.170
-609.215	624.593	-0.203	-0.514
-608.201	-188.180	0.219	-0.003
-607.186	-124.766	0.708	0.110
-606.171	-127.194	-0.897	0.132
-605.157	438.698	0.104	-0.228
-604.142	-200.000	0.024	-0.419
-603.128	-99.187	-0.847	0.215
-602.113	21.028	0.210	-0.171
-601.098	153.338	0.383	0.526
-600.084	-65.372	0.727	-0.294
-599.069	52.400	-0.214	-0.206
-598.055	233.268	-0.328	0.541
-597.040	171.414	-0.674	-0.971
-596.025	354.407	0.416	-0.830
-595.011	-200.000	0.007	-0.314
-593.996	800.000	0.228	0.704
-592.982	-144.606	-0.263	0.024
-591.967	-200.000	0.010	-0.622
-590.952	42.225	-0.644	-0.587
-589.938	-79.383	-0.340	-0.116
-588.923	-200.000	-0.075	-0.438
-587.909	67.712	0.581	0.596
-586.894	-123.455	-0.242	0.039
-585.879	-200.000	-0.040	0.493
-584.865	53.322	0.435	0.418
-583.850	38.068	-0.679	-0.606
-582.836	-200.000	0.213	-1.095
-581.821	650.951	-0.552	-1.418
-580.806	18.435	-0.496	-0.398
-579.792	175.195	0.254	0.369
-578.777	-200.000	0.042	0.365
-577.763	-105.318	0.889	0.203
-576.748	-200.000	0.148	0.655
-575.733	-140.285	0.112	-0.012
-574.719	-200.000	-0.034	-0.937
-573.704	699.075	-0.100	0.264
-572.690	-18.233	-1.155	-0.725
-571.675	-78.731	-0.279	0.096
-570.661	71.099	0.230	0.239
-569.646	-32.616	0.452	0.252
-568.631	194.474	-0.290	-0.441
-567.617	581.673	0.015	-0.038
-566.602	-153.802	-0.559	-0.038
-565.588	-16.703	-0.173	0.110
-564.573	-200.000	0.077	0.498
-563.558	-149.304	0.582	-0.047
-562.544	184.074	-0.210	-0.312
-561.529	512.142	-0.268	0.627
-560.515	80.658	0.217	-0.235
-559.500	-124.334	-0.434	0.068
-558.485	7.579	0.460	-0.345
-557.471	-103.152	0.248	-0.059
-556.456	19.907	-0.401	-0.324
-555.442	154.452	-0.389	-0.535
-554.427	-98.027	-0.232	-0.060
-553.412	-200.000	0.081	0.450
-552.398	800.000	-0.079	-0.228
-551.383	-200.000	-0.060	0.985
-550.369	-91.671	-0.620	-0.177
-549.354	-37.783	0.820	0.437
-548.339	-200.000	0.002	0.894
-547.325	293.832	0.516	-0.945
-546.310	86.909	0.818	-0.906
-545.296	266.111	0.198	0.347
-544.281	-178.998	0.406	-0.009
-543.266	-12.637	-0.206	0.135
-542.252	761.018	-0.038	0.104
-541.237	-200.000	0.044	0.660
-540.223	26.104	-0.313	-0.262
-539.208	164.142	-0.112	0.158
-538.193	-145.612	0.507	0.045
-537.179	800.000	-0.107	0.341
-536.164	689.535	-0.129	-0.339
-535.150	-200.000	0.198	0.985
-534.135	5.215	-0.430	-0.318
-533.121	347.567	0.308	-0.607
-532.106	766.526	-0.215	-0.585
-531.091	50.148	-0.234	-0.221
-530.077	-125.192	-0.476	0.073
-529.062	-149.834	0.628	-0.049
-528.048	319.406	0.157	-0.298
-527.033	437.016	0.352	0.769
-526.018	-11.260	-1.346	-0.888
-525.004	336.561	0.554	1.077
-523.989	217.808	0.098	0.156
-522.975	111.187	-0.382	0.461
-521.960	-112.886	0.276	-0.055
-520.945	-43.701	0.374	-0.189
-519.931	-200.000	0.135	0.994
-518.916	-200.000	0.026	0.278
-517.902	-114.484	0.480	-0.092
-516.887	-91.412	-0.277	0.079
-515.872	55.490	-0.702	0.681
-514.858	-133.295	-0.432	-0.055
-513.843	136.656	0.602	0.787
-512.829	22.859	-0.721	-0.592
-511.814	524.178	0.335	-0.789
-510.799	27.579	-0.269	0.227
-509.785	-172.221	-0.358	-0.012
-508.770	-20.951	0.022	0.014
-507.756	-131.530	0.240	0.032
-506.741	-26.647	0.219	-0.128
-505.726	-71.669	-0.401	-0.150
-504.712	-200.000	0.041	0.764
-503.697	-175.311	0.337	-0.009
-502.683	-200.000	-0.196	-1.031
-501.668	800.000	0.205	-0.739
-500.653	203.895	0.189	0.293
-499.639	61.498	0.544	0.542
-498.624	-73.835	-0.644	0.234
-497.610	-160.262	0.232	0.013
-496.595	-140.563	-0.216	-0.022
-495.581	-200.000	0.076	0.451
-494.566	-134.652	-0.452	-0.055
-493.551	29.083	0.655	0.556
-492.537	-185.149	0.617	-0.010
-491.522	-138.544	-0.514	-0.056
-490.508	-77.541	0.441	0.153
-489.493	58.054	0.189	-0.185
-488.478	-31.279	-0.215	0.121
-487.464	-159.211	-0.242	0.014
-486.449	318.890	0.438	-0.830
-485.435	-110.953	-0.590	-0.121
-484.420	-101.573	0.114	-0.028
-483.405	166.178	0.351	-0.497
-482.391	-200.000	-0.108	0.706
-481.376	76.463	-0.362	-0.384
-480.362	-89.021	0.564	-0.167
-479.347	-157.594	0.438	0.026
-478.332	-134.709	-0.611	-0.074
-477.318	-200.000	-0.111	-0.573
-476.303	-54.785	-0.490	0.221
-475.289	-200.000	-0.160	1.585
-474.274	800.000	-0.067	0.268
-473.259	-82.684	-0.364	0.118
-472.245	-23.832	-0.655	0.392
-471.230	48.611	-0.466	-0.436
-470.216	543.002	0.219	-0.523
-469.201	-87.481	0.354	0.107
-468.186	17.336	0.094	-0.075
-467.172	-139.128	0.876	-0.095
-466.157	-3.120	-0.587	-0.409
-465.143	225.136	-0.074	-0.120
-464.128	349.305	0.278	0.547
-463.113	800.000	-0.155	-0.537
-462.099	-93.702	-0.884	-0.244
-461.084	54.215	0.201	0.193
-460.070	-200.000	0.062	-1.010
-459.055	387.175	-0.336	0.693
-458.040	601.914	-0.151	0.374
-457.026	-54.978	0.625	0.281
-456.011	-108.839	-0.247	0.053
-454.997	-3.157	-0.219	-0.153
-453.982	-200.000	-0.079	-0.506
-452.968	13.714	0.082	0.063
-451.953	-200.000	0.214	1.132
-450.938	83.072	-0.303	0.329
-449.924	-200.000	0.104	-0.833
-448.909	389.955	0.320	0.662
-447.895	-148.324	-0.252	0.021
-446.880	94.785	-0.431	-0.490
-445.865	117.028	0.851	-1.044
-444.851	-31.708	-0.342	-0.191
-443.836	-118.972	-0.543	0.095
-442.822	-200.000	0.047	0.551
-441.807	-70.982	0.391	0.147
-440.792	55.619	-0.347	-0.335
-439.778	-200.000	0.032	-1.055
-438.763	-200.000	-0.140	1.009
-437.749	800.000	-0.127	-0.465
-436.734	87.715	0.458	-0.506
-435.719	-200.000	-0.033	0.239
-434.705	534.855	0.204	-0.484
-433.690	72.468	-0.477	0.496
-432.676	-136.668	-0.981	-0.113
-431.661	139.921	-0.367	0.482
-430.646	-200.000	0.158	0.717
-429.632	-0.140	0.478	0.339
-428.617	206.848	-0.147	0.228
-427.603	-7.188	0.641	0.434
-426.588	119.168	0.298	0.368
-425.573	-45.264	0.304	0.151
-424.559	639.729	-0.161	-0.408
-423.544	244.215	-0.590	0.989
-422.530	-114.576	0.536	0.102
-421.515	-200.000	-0.123	0.963
-420.500	-99.201	-0.098	0.025
-419.486	432.998	0.267	0.577
-418.471	800.000	0.067	-0.262
-417.457	-200.000	0.099	0.650
-416.442	-161.561	-0.201	-0.010
-415.428	-83.021	0.223	-0.072
-414.413	-22.663	0.389	0.235
-413.398	684.114	-0.251	-0.653
-412.384	149.083	0.782	1.054
-411.369	31.420	-0.287	0.246
-410.355	-55.550	-0.933	-0.417
-409.340	-200.000	-0.002	-0.274
-408.325	28.901	0.419	-0.354
-407.311	265.573	0.044	0.076
-406.296	-200.000	0.182	-0.916
-405.282	-69.620	-0.275	0.105
-404.267	433.605	0.170	0.368
-403.252	-118.548	0.314	0.055
-402.238	59.028	-0.382	0.375
-401.223	101.200	0.468	-0.543
-400.209	263.226	-0.244	0.422
-399.194	-4.362	0.556	-0.383
-398.179	15.509	-0.915	0.716
-397.165	-14.759	-0.715	0.457
-396.150	366.547	0.385	0.775
-395.136	-200.000	-0.171	-1.015
-394.121	-83.053	0.426	-0.137
-393.106	-94.890	0.632	-0.171
-392.092	-200.000	0.042	0.256
-391.077	47.984	0.677	-0.630
-390.063	-128.554	0.437	0.062
-389.048	800.000	-0.028	-0.113
-388.033	85.531	-0.323	0.353
-387.019	800.000	0.282	0.808
-386.004	-2.602	-0.179	0.125
-384.990	-76.453	0.279	-0.098
-383.975	-200.000	0.062	0.281
-382.960	-96.048	0.389	-0.103
-381.946	29.568	-0.945	0.801
-380.931	-200.000	0.054	0.574
-379.917	-112.482	0.167	-0.033
-378.902	-82.103	-0.493	-0.160
-377.888	202.358	-0.159	-0.244
-376.873	-108.306	1.007	0.217
-375.858	-87.055	0.015	-0.005
-374.844	-32.849	-0.550	0.304
-373.829	800.000	-0.095	-0.287
-372.815	306.481	-0.280	-0.518
-371.800	-181.926	-0.572	-0.011
-370.785	49.521	0.704	-0.660
-369.771	800.000	0.218	-0.694
-368.756	307.382	-0.243	-0.451
-367.742	800.000	-0.157	-0.563
-366.727	-200.000	0.126	0.866
-365.712	-86.320	-0.182	0.056
-364.698	-111.794	0.124	-0.025
-363.683	-85.722	0.987	0.305
-362.669	-200.000	0.032	0.293
-361.654	-95.991	-0.349	-0.093
-360.639	-83.492	0.555	-0.177
-359.625	146.677	-0.183	0.245
-358.610	-124.337	-0.620	-0.096
-357.596	800.000	0.213	0.621
-356.581	-200.000	0.017	-0.547
-355.566	-75.206	0.511	-0.182
-354.552	-100.410	-0.309	0.076
-353.537	-11.840	-0.567	0.370
-352.523	-200.000	0.019	-0.589
-351.508	-200.000	-0.083	0.467
-350.493	-200.000	-0.046	0.217
-349.479	-200.000	-0.091	1.375
-348.464	-200.000	-0.033	1.010
-347.450	495.883	0.517	-1.181
-346.435	49.486	0.203	-0.190
-345.420	407.159	-0.207	-0.436
-344.406	164.918	-0.132	-0.185
-343.391	800.000	-0.323	-1.073
-342.377	446.691	-0.156	-0.341
-341.362	103.676	0.094	-0.110
-340.348	232.324	0.238	0.388
-339.333	151.461	-0.537	0.727
-338.318	-153.804	0.871	-0.059
-337.304	184.403	-0.272	0.401
-336.289	800.000	-0.264	-0.794
-335.275	-116.575	1.003	-0.184
-334.260	126.342	0.111	-0.140
-333.245	-26.213	-0.627	0.366
-332.231	-200.000	0.029	0.618
-331.216	64.435	0.343	0.344
-330.202	109.440	-0.142	0.169
-329.187	59.121	0.355	0.347
-328.172	-21.751	-0.785	-0.475
-327.158	4.322	-0.201	-0.147
-326.143	-37.917	-0.097	-0.051
-325.129	-130.685	-0.837	-0.112
-324.114	9.609	-0.382	-0.287
-323.099	-109.565	0.391	0.082
-322.085	123.148	-0.594	-0.740
-321.070	16.073	-0.357	0.279
-320.056	-200.000	-0.114	-0.573
-319.041	160.442	-0.313	-0.434
-318.026	-17.619	-0.076	0.048
-317.012	348.879	-0.251	0.492
-315.997	-98.284	0.816	0.208
-314.983	-108.063	0.489	0.105
-313.968	8.662	-0.973	0.728
-312.953	-200.000	-0.008	-0.198
-311.939	-173.607	-1.044	-0.031
-310.924	399.362	-0.167	0.348
-309.910	800.000	-0.149	-0.477
-308.895	323.841	0.464	0.879
-307.880	43.954	0.136	-0.124
-306.866	-180.939	0.033	-0.001
-305.851	-29.989	-0.714	0.403
-304.837	-168.852	-0.329	0.012
-303.822	-108.024	0.240	-0.052
-302.807	-61.822	-0.531	0.221
-301.793	119.585	-0.431	0.529
-300.778	800.000	-0.089	0.256
-299.764	-200.000	-0.023	-0.110
-298.749	110.410	-0.223	-0.266
-297.735	-154.657	-0.430	-0.028
-296.720	-200.000	0.049	0.229
-295.705	800.000	-0.071	0.258
-294.691	-200.000	0.019	0.467
-293.676	-200.000	-0.020	0.303
-292.662	330.919	0.075	-0.144
-291.647	-200.000	-0.040	-0.409
-290.632	-59.729	0.674	-0.287
-289.618	-7.736	-0.573	-0.384
-288.603	800.000	0.021	-0.063
-287.589	-200.000	0.106	0.601
-286.574	-60.169	-0.283	0.120
-285.559	-140.253	0.579	0.060
-284.545	-31.196	-0.707	0.395
-283.530	241.373	0.312	0.516
-282.516	-2.714	0.142	-0.099
-281.501	131.426	-0.808	-1.030
-280.486	-183.776	0.690	0.012
-279.472	18.499	-0.492	0.390
-278.457	31.831	0.590	-0.504
-277.443	-93.514	-0.099	-0.027
-276.428	404.211	-0.444	-0.928
-275.413	-200.000	0.033	0.328
-274.399	-200.000	0.260	1.224
-273.384	-200.000	-0.003	-0.568
-272.370	147.731	-0.102	0.136
-271.355	140.145	-0.503	-0.658
-270.340	800.000	0.042	-0.144
-269.326	162.140	-0.167	-0.232
-268.311	115.918	-0.097	0.118
-267.297	253.562	-0.126	0.214
-266.282	-49.348	-0.328	-0.155
-265.267	-5.777	0.659	-0.447
-264.253	-75.065	0.422	-0.150
-263.238	800.000	-0.185	0.515
-262.224	-6.214	0.649	0.440
-261.209	-139.919	-0.868	-0.091
-260.195	-64.646	-0.320	-0.129
-259.180	372.395	-0.269	0.542
-258.165	-51.274	0.798	-0.370
-257.151	95.692	0.328	-0.371
-256.136	51.403	-0.849	-0.799
-255.122	77.708	-0.042	0.044
-254.107	-184.802	0.715	0.011
-253.092	-200.000	0.073	0.789
-252.078	8.537	0.322	-0.240
-251.063	-23.623	-0.231	0.137
-250.049	-40.357	0.364	-0.188
-249.034	-200.000	0.013	0.872
-248.019	46.825	0.637	0.587
-247.005	12.350	-0.527	-0.402
-245.990	-31.603	0.548	0.305
-244.976	-25.885	0.531	-0.310
-243.961	800.000	-0.050	0.153
-242.946	64.760	0.189	0.189
-241.932	306.916	-0.248	-0.458
-240.917	230.037	-0.322	0.521
-239.903	118.190	-0.468	0.572
-238.888	-29.974	0.640	-0.361
-237.873	800.000	-0.109	-0.328
-236.859	-112.981	0.842	0.165
-235.844	359.589	0.294	0.582
-234.830	-200.000	0.045	-0.785
-233.815	261.875	-0.111	0.191
-232.800	280.917	0.217	-0.384
-231.786	-73.606	0.284	0.102
-230.771	-65.862	-0.405	-0.160
-229.757	-148.734	0.521	0.042
-228.742	178.528	0.154	-0.223
-227.727	-200.000	-0.649	-0.000
-226.713	158.792	-0.348	0.479
-225.698	73.600	0.456	0.473
-224.684	-200.000	-0.065	-0.306
-223.669	800.000	-0.248	-0.785
-222.655	68.093	-0.298	-0.302
-221.640	-200.000	-0.008	-0.202
-220.625	-200.000	-0.079	0.427
-219.611	85.401	0.834	0.907
-218.596	-40.587	0.306	-0.157
-217.582	-1.750	0.561	-0.391
-216.567	70.144	-0.550	0.562
-215.552	800.000	-0.306	0.948
-214.538	-103.875	1.066	-0.246
-213.523	-200.000	0.024	0.152
-212.509	-99.933	0.888	0.219
-211.494	-117.179	-0.117	0.021
-210.479	-200.000	-0.072	-0.774
-209.465	-42.753	-0.397	0.200
-208.450	104.012	0.250	-0.291
-207.436	423.010	0.144	0.306
-206.421	249.742	0.137	-0.229
-205.406	-200.000	-0.019	-0.656
-204.392	-13.747	-0.345	-0.221
-203.377	139.133	0.605	-0.787
-202.363	800.000	0.113	-0.311
-201.348	-200.000	-0.129	0.639
-200.333	-24.478	-0.211	0.124
-199.319	254.044	0.673	-1.138
-198.304	-14.754	-0.539	0.342
-197.290	800.000	0.242	0.882
-196.275	-70.720	0.289	-0.108
-195.260	3.280	0.247	-0.178
-194.246	800.000	0.375	-1.069
-193.231	532.674	0.285	0.667
-192.217	-200.000	0.001	0.038
-191.202	31.821	0.631	0.537
-190.187	-46.023	0.311	-0.151
-189.173	-134.249	-0.447	0.054
-188.158	39.769	-0.131	-0.116
-187.144	-99.817	-0.258	-0.064
-186.129	-54.214	-0.844	-0.379
-185.114	8.741	-0.327	-0.243
-184.100	294.674	0.294	0.532
-183.085	800.000	-0.074	-0.204
-182.071	-25.269	-0.571	-0.334
-181.056	315.662	0.494	-0.921
-180.042	-159.661	0.282	0.015
-179.027	-33.166	0.951	0.521
-178.012	100.932	-0.356	-0.409
-176.998	-200.000	0.056	-0.321
-175.983	800.000	-0.160	-0.679
-174.969	70.772	-0.401	-0.410
-173.954	-27.178	-0.696	-0.401
-172.939	-58.825	-0.466	0.199
-171.925	800.000	0.199	0.645
-170.910	247.348	-0.453	-0.755
-169.896	-143.905	-0.612	0.057
-168.881	-112.310	0.206	-0.041
-167.866	-92.634	-0.465	0.129
-166.852	-21.532	0.461	-0.277
-165.837	75.423	-0.397	-0.414
-164.823	800.000	0.204	0.664
-163.808	22.575	0.447	-0.361
-162.793	-2.624	0.546	0.377
-161.779	37.982	0.240	0.211
-160.764	127.125	-0.048	-0.061
-159.750	214.943	-0.532	-0.832
-158.735	-111.049	0.701	-0.142
-157.720	536.012	0.309	0.725
-156.706	369.883	-0.444	0.887
-155.691	-200.000	0.095	0.594
-154.677	800.000	-0.097	0.369
-153.662	259.377	0.393	-0.669
-152.647	-133.131	0.866	-0.108
-151.633	-55.590	0.474	-0.209
-150.618	-113.238	0.268	0.052
-149.604	-92.378	-0.263	0.073
-148.589	-167.311	0.551	-0.022
-147.574	462.000	0.204	0.448
-146.560	586.347	-0.249	-0.604
-145.545	800.000	-0.097	0.374
-144.531	-97.874	-0.128	-0.033
-143.516	10.306	-0.500	0.376
-142.502	257.142	-0.342	-0.580
-141.487	800.000	-0.080	-0.333
-140.472	81.926	0.352	-0.377
-139.458	800.000	0.250	0.690
-138.443	-44.747	0.278	0.137
-137.429	-111.570	-1.124	-0.225
-136.414	-112.948	0.230	0.045
-135.399	-100.156	-0.678	0.166
-134.385	-133.410	-0.190	0.024
-133.370	10.883	0.928	0.699
-132.356	-57.373	0.127	-0.055
-131.341	-200.000	0.001	-0.063
-130.326	-200.000	-0.029	-0.769
-129.312	46.166	0.201	-0.184
-128.297	-200.000	-0.039	0.296
-127.283	693.758	-0.178	-0.461
-126.268	481.480	-0.246	0.550
-125.253	-142.640	0.496	-0.048
-124.239	-113.070	0.470	0.091
-123.224	-59.156	-0.659	0.280
-122.210	181.369	0.434	0.629
