DTS Sentinel unit serial number:	SN413079Multiplexer serial number:	ORYXHardware model number:	OX4-SRSoftware version number:	ORYX F/W v4.00 Oryx Data Collector v3.7.2.0data status	okinstallation	princeton_trtdifferential loss correction	single-endedforward channel	channel 1reverse channel	N/Adate	2019/09/19time	05:10:35forward acquisition time	60.00reverse acquisition time	0.00gamma	496.2192k internal	0.2342k external	0.2342temperature offset calibration	1.0023default loss term (dB/km)	0.3790temperature slope calibration	1.0000multiplexer offset coefficient	1.0000multiplexer slope coefficient	1.0000fibre end	0.00T internal ref (°C)	19.56T ext. ref 1 (°C)	0.60T ext. ref 2 (°C)	12.76length (m)	temperature (°C)	Stokes	anti-Stokes-747.200	800.000	0.110	0.378
-746.185	336.962	-0.079	-0.154
-745.171	78.388	0.262	-0.280
-744.156	-65.338	0.036	0.015
-743.142	-114.888	0.134	0.026
-742.127	-200.000	0.007	-0.058
-741.112	-200.000	-0.056	-0.284
-740.098	1.342	-0.144	-0.104
-739.083	-5.170	-0.038	0.026
-738.069	-34.459	0.071	0.039
-737.054	11.664	-0.187	0.143
-736.039	-102.849	-0.327	0.078
-735.025	-90.960	0.433	0.125
-734.010	56.079	-0.348	-0.338
-732.996	18.796	-0.211	-0.169
-731.981	164.833	-0.227	-0.321
-730.966	-2.024	-0.314	0.221
-729.952	43.673	-0.368	-0.337
-728.937	9.759	0.097	0.074
-727.923	288.043	0.077	0.139
-726.908	800.000	0.039	0.121
-725.894	78.444	-0.270	-0.289
-724.879	-90.835	-0.169	-0.049
-723.864	129.195	0.241	-0.307
-722.850	-114.200	0.130	0.025
-721.835	800.000	-0.041	0.134
-720.821	-88.947	0.043	-0.013
-719.806	121.708	-0.179	-0.223
-718.791	19.588	-0.062	-0.050
-717.777	552.510	-0.092	-0.221
-716.762	120.734	0.206	0.256
-715.748	800.000	0.049	-0.185
-714.733	-148.269	-0.062	0.005
-713.718	596.921	0.052	-0.130
-712.704	51.677	0.103	0.098
-711.689	23.618	-0.189	0.156
-710.675	-200.000	0.041	-0.335
-709.660	-99.511	-0.375	-0.094
-708.645	63.605	-0.108	-0.108
-707.631	800.000	0.036	-0.100
-706.616	-200.000	0.052	0.309
-705.602	-111.921	-0.237	0.048
-704.587	345.687	-0.100	0.196
-703.572	800.000	-0.080	0.254
-702.558	383.500	0.133	0.273
-701.543	390.165	0.081	-0.167
-700.529	800.000	0.014	-0.049
-699.514	-59.732	0.144	0.062
-698.499	-166.758	0.229	0.009
-697.485	-104.994	0.120	0.027
-696.470	85.101	-0.051	0.056
-695.456	-200.000	0.002	0.114
-694.441	-125.831	-0.121	0.018
-693.426	136.013	-0.031	0.040
-692.412	68.159	0.050	-0.052
-691.397	219.405	-0.217	-0.348
-690.383	-13.841	-0.363	-0.235
-689.368	-106.291	0.394	-0.088
-688.354	-124.643	-0.419	0.065
-687.339	-129.296	-0.272	0.038
-686.324	-42.629	-0.354	-0.180
-685.310	-200.000	0.035	-0.309
-684.295	33.117	0.260	0.225
-683.281	800.000	-0.116	-0.334
-682.266	-101.473	0.383	0.093
-681.251	800.000	0.122	-0.347
-680.237	-193.718	0.343	0.003
-679.222	596.007	-0.111	-0.275
-678.208	-77.697	0.185	-0.064
-677.193	-200.000	-0.013	-0.189
-676.178	800.000	-0.018	0.056
-675.164	26.729	-0.177	-0.148
-674.149	204.804	0.075	-0.117
-673.135	-200.000	-0.006	-0.082
-672.120	-54.186	-0.324	-0.147
-671.105	-133.014	0.227	0.029
-670.091	-114.581	-0.119	-0.023
-669.076	-88.915	-0.418	-0.124
-668.062	-153.270	-0.438	-0.031
-667.047	48.361	-0.180	-0.168
-666.032	-200.000	0.084	-0.370
-665.018	14.339	-0.252	-0.196
-664.003	-54.208	-0.175	-0.080
-662.989	483.098	0.006	-0.014
-661.974	-42.689	-0.175	0.089
-660.959	-119.893	-0.067	-0.012
-659.945	798.427	-0.087	-0.238
-658.930	-100.298	-0.109	-0.027
-657.916	-200.000	0.002	0.139
-656.901	800.000	0.026	0.083
-655.886	-111.887	0.083	0.017
-654.872	-84.110	-0.169	0.053
-653.857	-27.569	0.432	-0.250
-652.843	-20.536	-0.206	-0.126
-651.828	-200.000	-0.009	-0.048
-650.814	-134.702	0.106	0.013
-649.799	224.758	-0.272	0.439
-648.784	-200.000	-0.012	-0.269
-647.770	142.850	0.072	0.095
-646.755	23.149	-0.093	0.076
-645.741	-105.903	-0.120	-0.027
-644.726	12.783	0.125	0.096
-643.711	-52.186	0.114	0.053
-642.697	-71.186	0.071	-0.027
-641.682	5.377	-0.284	-0.209
-640.668	-200.000	-0.005	0.101
-639.653	-137.420	-0.066	-0.007
-638.638	-93.057	0.157	-0.044
-637.624	-200.000	-0.025	-0.113
-636.609	190.322	0.110	0.165
-635.595	-200.000	0.016	0.211
-634.580	-200.000	0.035	-0.258
-633.565	-26.034	-0.329	-0.193
-632.551	645.385	0.111	0.283
-631.536	-11.542	0.182	-0.119
-630.522	-100.486	-0.177	-0.044
-629.507	491.784	0.131	-0.298
-628.492	297.325	-0.105	-0.192
-627.478	-200.000	0.033	-0.165
-626.463	-200.000	0.018	-0.257
-625.449	84.814	-0.357	0.390
-624.434	392.142	0.099	-0.205
-623.419	-133.050	0.199	-0.025
-622.405	99.511	0.061	-0.071
-621.390	-12.832	-0.206	-0.134
-620.376	6.898	-0.383	-0.284
-619.361	-200.000	-0.060	-0.341
-618.346	241.295	0.114	0.189
-617.332	-200.000	0.005	0.212
-616.317	-21.192	0.182	-0.111
-615.303	-200.000	-0.013	0.174
-614.288	74.028	-0.260	-0.272
-613.273	-91.419	0.282	0.080
-612.259	23.123	-0.237	-0.194
-611.244	68.012	-0.276	0.281
-610.230	800.000	-0.080	-0.251
-609.215	800.000	0.076	-0.215
-608.201	-23.338	-0.147	0.088
-607.186	69.845	-0.180	-0.185
-606.171	18.826	0.250	0.199
-605.157	245.141	0.069	0.115
-604.142	314.808	0.075	0.141
-603.128	800.000	-0.062	-0.233
-602.113	-59.096	0.283	0.122
-601.098	800.000	-0.162	-0.518
-600.084	-200.000	0.007	0.293
-599.069	800.000	-0.045	-0.169
-598.055	315.199	0.126	-0.237
-597.040	-200.000	0.033	0.194
-596.025	340.740	-0.045	-0.087
-595.011	800.000	0.121	-0.339
-593.996	-200.000	-0.032	0.230
-592.982	-200.000	0.113	0.001
-591.967	-150.047	0.267	0.021
-590.952	-70.412	0.358	-0.135
-589.938	-109.723	0.127	-0.027
-588.923	234.549	-0.024	-0.039
-587.909	-35.147	-0.220	0.120
-586.894	752.149	-0.069	0.186
-585.879	136.363	0.245	-0.318
-584.865	-62.350	-0.110	0.046
-583.850	120.526	0.079	0.097
-582.836	-164.422	-0.214	-0.010
-581.821	-24.453	-0.112	0.066
-580.806	755.294	0.113	-0.303
-579.792	748.064	-0.113	-0.304
-578.777	-174.719	0.276	-0.008
-577.763	-200.000	-0.001	-0.405
-576.748	82.901	-0.107	-0.116
-575.733	14.887	-0.123	-0.096
-574.719	-161.767	-0.286	0.014
-573.704	-200.000	0.037	-0.241
-572.690	-63.322	-0.245	0.100
-571.675	102.081	0.303	0.352
-570.661	77.020	0.171	0.180
-569.646	-200.000	-0.049	-0.315
-568.631	-130.960	-0.411	-0.055
-567.617	-85.243	0.263	0.082
-566.602	298.229	-0.072	-0.132
-565.588	-27.997	-0.065	-0.038
-564.573	227.492	0.053	-0.086
-563.558	-96.364	-0.092	-0.024
-562.544	134.195	-0.039	-0.050
-561.529	-125.619	-0.065	0.010
-560.515	177.713	0.091	-0.131
-559.500	7.185	-0.195	-0.144
-558.485	-31.293	-0.074	-0.041
-557.471	227.762	-0.064	-0.104
-556.456	-76.254	-0.121	-0.042
-555.442	90.469	0.063	-0.071
-554.427	800.000	0.072	-0.236
-553.412	-35.571	0.167	0.090
-552.398	50.024	-0.227	0.213
-551.383	32.281	-0.188	-0.162
-550.369	800.000	-0.010	-0.028
-549.354	73.334	-0.081	0.084
-548.339	246.364	0.113	0.190
-547.325	37.934	-0.217	0.192
-546.310	-21.437	0.210	0.127
-545.296	-74.329	-0.157	-0.056
-544.281	384.627	0.036	0.074
-543.266	153.771	0.134	0.183
-542.252	163.858	0.124	-0.174
-541.237	-29.680	-0.276	0.156
-540.223	166.868	0.151	0.213
-539.208	249.096	-0.129	-0.217
-538.193	-200.000	-0.016	-0.268
-537.179	800.000	-0.115	-0.348
-536.164	210.877	0.152	0.237
-535.150	300.075	0.025	0.046
-534.135	800.000	0.049	0.173
-533.121	-71.796	-0.225	0.083
-532.106	-22.111	0.179	0.108
-531.091	22.528	-0.152	-0.124
-530.077	29.929	0.149	-0.126
-529.062	91.661	0.181	-0.202
-528.048	-181.479	-0.318	0.006
-527.033	89.729	0.165	0.182
-526.018	-154.255	0.360	-0.024
-525.004	-200.000	-0.080	0.380
-523.989	45.806	0.192	0.176
-522.975	15.379	0.261	0.203
-521.960	-58.770	0.027	0.012
-520.945	39.136	0.126	-0.112
-519.931	800.000	-0.080	-0.277
-518.916	91.972	-0.149	0.166
-517.902	800.000	0.043	0.141
-516.887	123.355	-0.263	0.328
-515.872	-131.083	-0.266	0.035
-514.858	229.105	-0.149	0.242
-513.843	-82.990	-0.219	-0.070
-512.829	-112.817	0.467	-0.092
-511.814	48.426	-0.101	0.094
-510.799	83.396	-0.047	-0.051
-509.785	19.920	0.156	0.125
-508.770	531.059	-0.051	-0.119
-507.756	-63.414	0.180	-0.073
-506.741	-200.000	0.006	0.221
-505.726	-200.000	0.019	0.154
-504.712	-96.738	-0.190	0.050
-503.697	-114.026	-0.067	-0.013
-502.683	-200.000	-0.058	-0.312
-501.668	-118.086	-0.295	-0.052
-500.653	34.117	-0.084	0.072
-499.639	-200.000	-0.020	-0.156
-498.624	760.551	-0.020	-0.055
-497.610	-200.000	-0.055	0.339
-496.595	-17.236	0.443	-0.277
-495.581	-55.850	-0.187	-0.083
-494.566	-181.477	0.387	0.007
-493.551	-200.000	0.011	0.195
-492.537	-46.991	-0.334	-0.162
-491.522	210.189	-0.145	-0.226
-490.508	-28.652	-0.117	-0.067
-489.493	257.905	0.087	0.148
-488.478	620.806	-0.103	0.256
-487.464	-200.000	0.004	-0.398
-486.449	800.000	-0.053	0.181
-485.435	91.944	0.128	0.143
-484.420	800.000	0.007	-0.031
-483.405	66.201	0.090	-0.090
-482.391	-110.206	0.322	-0.067
-481.376	-200.000	-0.032	0.176
-480.362	-30.088	0.139	-0.079
-479.347	-200.000	-0.020	0.105
-478.332	268.209	0.111	-0.193
-477.318	-167.754	0.180	0.007
-476.303	-64.025	0.072	0.029
-475.289	-169.395	0.100	-0.004
-474.274	-200.000	-0.046	0.361
-473.259	17.880	0.237	-0.187
-472.245	-200.000	-0.016	0.114
-471.230	800.000	-0.044	0.148
-470.216	-127.012	-0.194	0.028
-469.201	-131.266	0.300	0.039
-468.186	-93.271	-0.353	0.097
-467.172	-94.196	-0.044	-0.012
-466.157	-200.000	0.029	-0.232
-465.143	-92.846	0.263	-0.073
-464.128	800.000	0.068	-0.193
-463.113	92.669	-0.208	-0.232
-462.099	86.059	-0.115	0.125
-461.084	800.000	-0.103	-0.408
-460.070	800.000	0.038	0.161
-459.055	234.491	-0.122	-0.199
-458.040	-87.670	0.214	-0.064
-457.026	9.369	0.057	0.043
-456.011	-79.151	0.128	-0.043
-454.997	-200.000	-0.026	0.380
-453.982	-31.626	-0.242	0.134
-452.968	-74.721	-0.044	0.016
-451.953	39.749	-0.257	0.228
-450.938	-66.315	0.191	0.075
-449.924	-200.000	0.033	0.294
-448.909	-148.405	-0.109	-0.009
-447.895	-74.710	0.174	0.062
-446.880	-191.134	-0.255	0.003
-445.865	800.000	-0.082	-0.354
-444.851	249.832	-0.093	-0.156
-443.836	800.000	-0.053	0.168
-442.822	-200.000	0.055	0.448
-441.807	-37.852	-0.362	-0.191
-440.792	176.917	-0.179	0.258
-439.778	9.096	0.411	0.307
-438.763	-22.478	0.217	0.130
-437.749	800.000	-0.058	-0.205
-436.734	244.818	0.127	-0.212
-435.719	-54.568	-0.206	0.092
-434.705	162.596	-0.181	0.251
-433.690	222.414	-0.064	-0.102
-432.676	0.798	0.244	0.173
-431.661	-76.833	0.229	-0.079
-430.646	93.783	-0.248	0.278
-429.632	124.666	0.058	-0.072
-428.617	-85.125	-0.058	0.018
-427.603	-200.000	-0.065	0.369
-426.588	-112.483	-0.352	0.070
-425.573	87.952	0.059	0.064
-424.559	-30.435	-0.163	0.091
-423.544	800.000	-0.067	0.273
-422.530	-200.000	0.014	0.126
-421.515	-200.000	-0.020	-0.231
-420.500	237.474	-0.032	-0.052
-419.486	-40.699	0.296	-0.152
-418.471	10.792	-0.046	0.035
-417.457	76.924	-0.121	0.128
-416.442	8.388	-0.092	0.068
-415.428	-27.287	0.087	-0.050
-414.413	256.270	-0.052	-0.089
-413.398	-200.000	-0.065	0.428
-412.384	-200.000	-0.050	0.372
-411.369	800.000	0.085	0.277
-410.355	-12.665	0.220	-0.142
-409.340	421.646	-0.164	-0.348
-408.325	-140.747	0.152	0.016
-407.311	-30.933	-0.106	-0.059
-406.296	-125.665	0.288	0.043
-405.282	-20.900	0.139	0.084
-404.267	77.926	0.072	0.076
-403.252	800.000	-0.096	-0.317
-402.238	-41.368	-0.127	-0.065
-401.223	44.882	0.098	-0.089
-400.209	232.525	0.096	-0.156
-399.194	-89.080	-0.064	-0.019
-398.179	-200.000	0.004	-0.095
-397.165	423.704	0.052	0.111
-396.150	800.000	-0.023	-0.079
-395.136	32.370	-0.260	0.222
-394.121	-200.000	-0.005	0.350
-393.106	194.751	-0.121	-0.181
-392.092	144.775	-0.148	0.196
-391.077	-200.000	-0.050	0.310
-390.063	46.728	0.090	0.082
-389.048	-65.538	-0.243	-0.096
-388.033	-54.751	-0.287	-0.128
-387.019	-122.571	-0.084	-0.013
-386.004	6.266	0.110	0.081
-384.990	171.722	-0.016	-0.023
-383.975	-18.436	0.038	0.023
-382.960	-120.617	0.260	-0.043
-381.946	-64.744	0.237	-0.095
-380.931	800.000	-0.055	-0.196
-379.917	-200.000	-0.134	0.000
-378.902	-200.000	-0.026	-0.209
-377.888	-89.276	0.299	-0.087
-376.873	8.154	0.241	-0.179
-375.858	463.006	0.151	0.333
-374.844	-200.000	0.038	-0.180
-373.829	12.969	0.126	0.096
-372.815	-150.019	-0.161	0.012
-371.800	800.000	0.071	0.210
-370.785	57.593	0.205	-0.198
-369.771	800.000	0.008	-0.025
-368.756	104.852	-0.148	-0.172
-367.742	597.686	0.079	-0.194
-366.727	414.082	0.137	-0.289
-365.712	152.781	-0.125	0.169
-364.698	36.143	0.059	0.051
-363.683	-135.275	-0.203	0.024
-362.669	-115.430	-0.262	-0.049
-361.654	800.000	0.036	0.114
-360.639	169.743	0.079	-0.112
-359.625	305.204	0.060	-0.110
-358.610	-123.825	-0.274	-0.043
-357.596	-183.977	-0.192	-0.003
-356.581	-51.182	0.052	0.024
-355.566	-200.000	-0.034	0.197
-354.552	771.352	0.025	0.068
-353.537	-140.635	-0.084	0.009
-352.523	-46.145	-0.056	0.027
-351.508	185.172	0.123	0.180
-350.493	-24.050	0.299	0.176
-349.479	-37.875	-0.210	0.110
-348.464	-67.443	-0.127	-0.049
-347.450	-200.000	0.015	-0.076
-346.435	293.463	-0.158	0.284
-345.420	-200.000	-0.007	-0.155
-344.406	170.989	-0.203	-0.287
-343.391	800.000	-0.050	-0.216
-342.377	76.367	0.017	0.018
-341.362	-99.513	0.087	-0.021
-340.348	-154.941	0.097	-0.006
-339.333	21.787	0.138	-0.111
-338.318	-174.685	-0.018	0.001
-337.304	800.000	-0.030	-0.128
-336.289	230.331	-0.215	0.347
-335.275	-200.000	-0.021	0.090
-334.260	-20.585	0.067	0.041
-333.245	173.483	-0.172	0.244
-332.231	57.806	-0.038	0.037
-331.216	-200.000	0.033	0.396
-330.202	-74.318	0.092	0.033
-329.187	-89.235	-0.187	0.054
-328.172	800.000	-0.061	-0.218
-327.158	-200.000	-0.033	-0.357
-326.143	-200.000	-0.032	-0.148
-325.129	58.742	-0.125	0.121
-324.114	-155.279	0.170	-0.011
-323.099	47.461	0.213	0.195
-322.085	162.216	-0.238	-0.329
-321.070	-200.000	-0.007	-0.112
-320.056	800.000	-0.106	0.393
-319.041	-58.337	0.054	0.023
-318.026	45.393	-0.331	0.301
-317.012	87.934	-0.160	0.175
-315.997	-58.308	-0.414	0.177
-314.983	-200.000	-0.018	-0.208
-313.968	-11.783	0.130	0.084
-312.953	-119.207	0.255	0.044
-311.939	86.333	-0.162	0.176
-310.924	114.535	0.179	0.215
-309.910	800.000	-0.053	-0.228
-308.895	-46.051	-0.129	-0.063
-307.880	393.866	0.091	-0.187
-306.866	-112.012	0.211	0.042
-305.851	192.585	-0.180	0.268
-304.837	24.695	0.207	0.168
-303.822	204.597	0.017	-0.026
-302.807	19.791	-0.159	-0.126
-301.793	-174.306	0.195	0.006
-300.778	-200.000	-0.001	0.085
-299.764	-200.000	-0.159	-0.000
-298.749	-43.289	-0.348	-0.173
-297.735	-83.649	-0.134	-0.042
-296.720	-78.924	0.150	0.050
-295.705	800.000	-0.050	0.148
-294.691	-7.451	0.165	-0.110
-293.676	111.427	-0.180	0.213
-292.662	-200.000	0.016	-0.140
-291.647	-67.367	-0.313	0.121
-290.632	-55.204	0.125	0.056
-289.618	-108.707	-0.174	0.037
-288.603	260.449	-0.105	0.178
-287.589	-123.353	0.353	-0.055
-286.574	-93.406	-0.138	0.038
-285.559	80.516	0.117	0.124
-284.545	-89.594	-0.300	0.087
-283.530	-200.000	-0.007	0.337
-282.516	-93.549	-0.323	-0.088
-281.501	-36.706	0.159	-0.084
-280.486	-88.093	0.205	-0.060
-279.472	418.013	-0.126	-0.264
-278.457	203.044	0.128	-0.195
-277.443	-0.437	-0.242	-0.169
-276.428	202.313	0.078	-0.119
-275.413	-53.235	0.136	0.061
-274.399	9.138	-0.170	-0.126
-273.384	-200.000	0.021	0.287
-272.370	-21.203	0.123	0.074
-271.355	581.801	-0.034	-0.083
-270.340	800.000	0.104	-0.302
-269.326	-83.188	0.337	-0.107
-268.311	525.509	0.136	0.314
-267.297	140.689	0.097	0.125
-266.282	-200.000	0.015	0.085
-265.267	357.037	0.052	-0.102
-264.253	-200.000	-0.012	-0.059
-263.238	-200.000	0.006	-0.159
-262.224	-200.000	-0.014	-0.192
-261.209	-5.720	-0.126	0.085
-260.195	29.946	0.161	0.135
-259.180	285.376	0.075	0.133
-258.165	-117.204	0.226	-0.040
-257.151	110.712	-0.213	-0.252
-256.136	345.983	0.206	-0.397
-255.122	-79.424	0.378	-0.125
-254.107	-162.476	-0.408	-0.020
-253.092	-119.242	0.484	0.083
-252.078	83.197	-0.079	-0.084
-251.063	-93.289	0.189	0.051
-250.049	158.513	-0.078	-0.106
-249.034	-154.424	-0.107	-0.007
-248.019	-72.948	0.287	-0.103
-247.005	-68.170	0.208	0.080
-245.990	31.687	0.123	0.104
-244.976	-70.446	-0.098	0.036
-243.961	-117.842	0.108	-0.019
-242.946	-2.868	0.134	-0.092
-241.932	283.606	-0.212	-0.374
-240.917	-27.899	-0.112	0.064
-239.903	144.280	0.047	-0.062
-238.888	-200.000	0.073	-0.411
-237.873	-112.039	-0.178	0.035
-236.859	120.541	0.017	0.021
-235.844	-144.578	0.301	0.027
-234.830	299.926	-0.221	-0.401
-233.815	87.653	-0.113	0.122
-232.800	800.000	0.067	-0.281
-231.786	-200.000	0.011	-0.147
-230.771	521.133	0.151	0.347
-229.757	127.342	-0.078	-0.097
-228.742	475.132	0.195	0.431
-227.727	269.895	0.139	0.239
-226.713	-200.000	-0.014	-0.366
-225.698	-166.733	0.284	0.012
-224.684	-79.622	-0.153	-0.051
-223.669	275.884	-0.210	-0.365
-222.655	800.000	0.075	0.320
-221.640	249.518	-0.116	0.192
-220.625	66.417	-0.213	-0.212
-219.611	800.000	-0.058	-0.242
-218.596	-200.000	0.042	0.243
-217.582	-76.182	0.260	0.090
-216.567	58.828	0.294	0.284
-215.552	-181.852	-0.075	-0.001
-214.538	-200.000	-0.010	-0.054
-213.523	133.325	-0.168	0.212
-212.509	-157.734	-0.164	0.010
-211.494	70.819	-0.220	0.224
-210.479	-200.000	0.043	-0.207
-209.465	-71.512	-0.225	-0.082
-208.450	-173.796	0.365	0.011
-207.436	-200.000	-0.017	-0.227
-206.421	800.000	-0.024	0.085
-205.406	-97.058	-0.124	-0.032
-204.392	800.000	0.033	-0.138
-203.377	43.524	0.079	-0.071
-202.363	-91.506	0.280	0.078
-201.348	-173.184	0.304	-0.009
-200.333	130.886	-0.214	-0.269
-199.319	35.660	0.217	0.187
-198.304	247.328	0.085	-0.142
-197.290	486.970	0.045	-0.100
-196.275	800.000	0.021	0.080
-195.260	-106.461	0.121	0.026
-194.246	-200.000	-0.056	0.398
-193.231	-67.551	-0.090	0.034
-192.217	-18.368	-0.052	-0.032
-191.202	443.996	0.066	0.142
-190.187	-115.964	0.107	0.020
-189.173	-118.472	-0.142	-0.025
-188.158	-200.000	-0.001	0.221
-187.144	-157.956	-0.161	0.009
-186.129	339.457	0.032	0.061
-185.114	609.773	-0.110	-0.269
-184.100	78.152	0.183	0.192
-183.085	-200.000	-0.028	-0.210
-182.071	-35.199	-0.205	-0.110
-181.056	-58.129	0.256	0.109
-180.042	-200.000	-0.013	-0.157
-179.027	524.761	0.178	-0.411
-178.012	-118.212	0.331	0.058
-176.998	-200.000	-0.030	0.217
-175.983	168.748	0.139	-0.194
-174.969	129.539	-0.067	0.084
-173.954	-157.771	0.430	0.025
-172.939	14.971	0.209	0.160
-171.925	256.035	0.125	-0.211
-170.910	-51.081	0.111	-0.051
-169.896	148.399	-0.107	-0.142
-168.881	375.957	-0.223	-0.446
-167.866	-148.221	-0.359	-0.029
-166.852	214.603	0.059	0.092
-165.837	-122.698	-0.285	0.045
-164.823	475.616	0.154	0.342
-163.808	-124.099	0.298	0.046
-162.793	-200.000	-0.009	-0.150
-161.779	396.524	0.099	0.203
-160.764	-77.626	0.225	-0.076
-159.750	11.687	0.066	-0.049
-158.735	-200.000	0.044	0.193
-157.720	800.000	0.142	0.447
-156.706	-110.634	-0.302	-0.061
-155.691	-200.000	-0.017	0.332
-154.677	29.781	0.226	0.189
-153.662	-132.869	-0.288	0.036
-152.647	-200.000	0.017	-0.248
-151.633	-71.003	0.163	0.060
-150.618	456.845	0.008	-0.018
-149.604	277.925	-0.144	0.251
-148.589	34.559	0.175	-0.150
-147.574	45.606	0.095	-0.086
-146.560	800.000	0.135	0.452
-145.545	800.000	-0.059	-0.237
-144.531	-75.003	0.360	-0.126
-143.516	217.549	-0.102	-0.159
-142.502	119.255	0.159	0.192
-141.487	155.477	0.108	0.145
-140.472	60.927	0.161	-0.156
-139.458	-38.316	-0.386	-0.200
-138.443	15.201	-0.020	-0.016
-137.429	41.031	0.071	0.063
-136.414	-58.816	-0.268	0.113
-135.399	205.471	-0.084	0.127
-134.385	717.889	0.056	0.146
-133.370	-200.000	0.007	0.032
-132.356	48.140	-0.173	0.159
-131.341	-99.917	-0.251	0.061
-130.326	116.552	-0.036	0.043
-129.312	44.859	-0.061	-0.055
-128.297	15.272	-0.103	-0.079
-127.283	-53.103	-0.077	-0.035
-126.268	-4.267	0.076	-0.052
-125.253	-200.000	-0.024	0.440
-124.239	-76.324	0.181	-0.062
-123.224	201.677	0.013	-0.020
-122.210	58.775	-0.120	0.115
-121.195	137.652	-0.096	-0.123
