DTS Sentinel unit serial number:	SN413079Multiplexer serial number:	ORYXHardware model number:	OX4-SRSoftware version number:	ORYX F/W v4.00 Oryx Data Collector v3.7.2.0data status	okinstallation	princeton_trtdifferential loss correction	single-endedforward channel	channel 1reverse channel	N/Adate	2019/09/15time	06:02:35forward acquisition time	60.00reverse acquisition time	0.00gamma	496.2192k internal	0.2325k external	0.2325temperature offset calibration	0.9995default loss term (dB/km)	0.3790temperature slope calibration	1.0000multiplexer offset coefficient	1.0000multiplexer slope coefficient	1.0000fibre end	0.00T internal ref (°C)	30.62T ext. ref 1 (°C)	4.84T ext. ref 2 (°C)	25.18length (m)	temperature (°C)	Stokes	anti-Stokes-747.200	112.923	0.233	0.285
-746.185	-188.074	-0.101	-0.001
-745.171	178.542	0.222	0.328
-744.156	331.611	-0.017	0.033
-743.142	-73.237	-0.068	0.025
-742.127	33.052	-0.042	-0.037
-741.112	-51.360	0.194	0.091
-740.098	-89.212	-0.285	0.085
-739.083	-46.682	0.259	-0.128
-738.069	163.718	0.082	0.116
-737.054	-200.000	-0.016	-0.127
-736.039	-144.116	-0.435	0.041
-735.025	-6.174	0.401	-0.276
-734.010	484.594	-0.080	0.185
-732.996	800.000	0.038	-0.133
-731.981	800.000	0.071	-0.242
-730.966	-169.246	0.200	-0.007
-729.952	-69.929	-0.324	-0.125
-728.937	-138.796	0.118	-0.013
-727.923	337.605	-0.263	0.517
-726.908	682.510	-0.078	0.205
-725.894	800.000	-0.051	0.204
-724.879	99.628	-0.046	0.054
-723.864	800.000	-0.043	-0.165
-722.850	335.794	-0.078	-0.153
-721.835	800.000	0.067	0.277
-720.821	569.416	-0.107	-0.262
-719.806	145.285	-0.186	-0.251
-718.791	-91.792	-0.150	-0.043
-717.777	56.312	-0.093	-0.091
-716.762	3.579	0.063	0.047
-715.748	-142.386	-0.111	0.011
-714.733	43.464	0.080	-0.074
-713.718	621.591	0.087	-0.222
-712.704	-119.548	-0.173	-0.030
-711.689	-53.873	0.148	0.068
-710.675	-200.000	0.009	-0.145
-709.660	-200.000	0.018	-0.140
-708.645	320.629	-0.090	0.172
-707.631	-200.000	0.080	0.575
-706.616	596.997	-0.062	0.156
-705.602	-92.509	-0.295	0.083
-704.587	800.000	-0.054	0.219
-703.572	402.904	0.114	0.242
-702.558	689.089	0.045	-0.118
-701.543	800.000	-0.047	-0.144
-700.529	-49.355	0.143	-0.069
-699.514	800.000	0.049	-0.159
-698.499	149.475	-0.175	-0.239
-697.485	66.792	-0.229	-0.235
-696.470	-28.197	-0.138	-0.081
-695.456	139.930	0.103	-0.136
-694.441	-66.553	-0.239	0.096
-693.426	-195.011	0.292	0.002
-692.412	-200.000	0.021	0.138
-691.397	-72.118	-0.565	-0.211
-690.383	-49.750	-0.451	-0.216
-689.368	-200.000	0.050	-0.328
-688.354	-79.868	-0.344	-0.116
-687.339	12.002	-0.104	-0.081
-686.324	-180.181	0.131	0.003
-685.310	-25.176	-0.084	0.050
-684.295	-200.000	0.009	-0.155
-683.281	-75.585	0.429	-0.154
-682.266	11.712	-0.224	-0.173
-681.251	800.000	0.138	-0.393
-680.237	-166.817	0.216	-0.009
-679.222	165.083	-0.045	-0.064
-678.208	57.058	0.024	0.024
-677.193	433.147	0.030	0.066
-676.178	-200.000	0.000	-0.122
-675.164	-200.000	-0.016	-0.129
-674.149	213.451	-0.159	0.253
-673.135	333.230	0.083	0.161
-672.120	-15.847	-0.055	0.035
-671.105	-55.239	-0.140	0.064
-670.091	-169.700	0.145	0.005
-669.076	38.141	-0.081	-0.072
-668.062	-44.242	-0.199	0.101
-667.047	-200.000	-0.002	-0.143
-666.032	-127.910	-0.133	0.019
-665.018	-84.013	-0.088	0.028
-664.003	102.306	0.093	-0.110
-662.989	302.898	-0.147	-0.275
-661.974	-200.000	-0.073	-0.345
-660.959	533.323	0.030	-0.070
-659.945	-76.086	-0.159	0.057
-658.930	-68.339	-0.205	0.080
-657.916	5.011	-0.380	-0.282
-656.901	-134.070	0.639	-0.079
-655.886	6.386	0.113	-0.085
-654.872	-200.000	-0.056	-0.543
-653.857	343.035	0.035	-0.068
-652.843	-45.427	-0.052	-0.026
-651.828	-76.457	0.195	0.069
-650.814	615.821	0.102	-0.256
-649.799	-48.072	-0.083	-0.040
-648.784	-97.049	0.144	-0.038
-647.770	-90.848	-0.127	-0.037
-646.755	800.000	0.051	0.184
-645.741	800.000	-0.049	0.142
-644.726	542.940	0.086	-0.206
-643.711	-166.289	-0.254	0.011
-642.697	-19.024	0.227	0.142
-641.682	46.717	0.117	-0.109
-640.668	-200.000	-0.019	0.155
-639.653	-200.000	0.007	0.121
-638.638	-80.270	-0.050	-0.017
-637.624	-97.161	0.161	-0.042
-636.609	-167.596	-0.174	-0.007
-635.595	-41.925	0.143	0.073
-634.580	96.741	0.244	0.281
-633.565	487.146	0.117	-0.269
-632.551	-163.490	-0.074	-0.004
-631.536	800.000	0.120	-0.392
-630.522	-65.391	0.196	-0.079
-629.507	800.000	-0.064	0.182
-628.492	-161.543	0.103	-0.005
-627.478	565.460	-0.029	0.071
-626.463	-200.000	-0.010	-0.235
-625.449	800.000	-0.063	0.235
-624.434	-174.844	-0.567	0.016
-623.419	-29.769	-0.195	0.112
-622.405	-97.622	-0.473	-0.123
-621.390	-97.224	0.301	-0.079
-620.376	321.638	-0.117	0.223
-619.361	-146.434	-0.189	0.017
-618.346	-169.927	-0.082	-0.003
-617.332	-187.356	-0.457	0.006
-616.317	197.659	0.163	-0.250
-615.303	-200.000	-0.029	-0.127
-614.288	-98.387	-0.415	-0.107
-613.273	57.679	0.157	-0.154
-612.259	558.200	0.106	-0.257
-611.244	40.875	-0.259	0.235
-610.230	-36.725	-0.145	0.078
-609.215	-200.000	-0.006	-0.279
-608.201	800.000	-0.089	0.256
-607.186	185.543	-0.223	-0.333
-606.171	-200.000	0.004	0.068
-605.157	220.250	0.116	0.186
-604.142	-121.600	-0.382	-0.064
-603.128	-25.225	-0.054	0.032
-602.113	326.796	0.125	-0.240
-601.098	-157.355	0.168	0.010
-600.084	-127.276	-0.160	0.023
-599.069	-177.266	0.187	-0.005
-598.055	-79.649	-0.331	0.112
-597.040	-88.108	0.171	-0.051
-596.025	-137.799	0.177	-0.020
-595.011	104.008	0.309	-0.364
-593.996	-200.000	-0.013	0.101
-592.982	-200.000	0.015	0.080
-591.967	-200.000	0.005	0.289
-590.952	-82.318	0.189	0.062
-589.938	-200.000	0.029	-0.233
-588.923	-73.320	0.093	-0.034
-587.909	540.324	-0.057	-0.136
-586.894	800.000	-0.066	0.269
-585.879	-200.000	-0.018	0.129
-584.865	-9.160	-0.088	-0.059
-583.850	-127.818	0.085	0.012
-582.836	-178.399	-0.201	0.005
-581.821	-56.679	0.185	0.082
-580.806	-200.000	-0.016	-0.247
-579.792	-32.457	-0.193	0.108
-578.777	187.113	0.138	0.207
-577.763	90.218	-0.048	0.054
-576.748	-114.649	0.217	-0.042
-575.733	-200.000	-0.016	0.073
-574.719	74.305	0.052	-0.055
-573.704	756.181	-0.122	-0.332
-572.690	339.179	-0.073	0.142
-571.675	28.105	0.156	0.132
-570.661	-106.257	0.083	0.019
-569.646	-94.330	-0.087	-0.024
-568.631	-200.000	0.011	0.155
-567.617	753.676	-0.062	0.167
-566.602	-14.025	-0.065	-0.042
-565.588	756.138	-0.058	0.156
-564.573	30.862	-0.157	-0.135
-563.558	497.956	0.037	-0.086
-562.544	800.000	0.052	-0.183
-561.529	-200.000	0.007	0.113
-560.515	229.045	0.010	-0.017
-559.500	-18.118	-0.531	-0.333
-558.485	-75.471	-0.099	-0.035
-557.471	-5.206	0.362	0.250
-556.456	-186.420	-0.199	-0.003
-555.442	-138.006	0.292	-0.033
-554.427	-67.029	0.055	0.022
-553.412	-2.366	-0.272	0.191
-552.398	-91.644	-0.198	-0.057
-551.383	-200.000	-0.014	-0.340
-550.369	134.166	-0.166	-0.216
-549.354	452.845	-0.068	0.151
-548.339	6.308	-0.132	0.098
-547.325	-200.000	-0.060	0.481
-546.310	778.196	0.118	-0.324
-545.296	-8.602	-0.218	0.146
-544.281	-13.238	-0.101	-0.066
-543.266	-44.019	0.215	0.108
-542.252	-100.893	0.290	-0.071
-541.237	166.921	-0.068	-0.097
-540.223	490.517	-0.053	0.122
-539.208	-200.000	-0.041	-0.239
-538.193	568.255	-0.096	-0.234
-537.179	-63.676	-0.191	0.078
-536.164	-200.000	-0.021	0.175
-535.150	57.289	-0.196	0.192
-534.135	-133.032	0.276	-0.035
-533.121	800.000	-0.048	0.149
-532.106	41.453	-0.063	-0.057
-531.091	-110.469	0.163	-0.034
-530.077	-125.301	0.256	-0.039
-529.062	69.964	-0.106	-0.109
-528.048	656.500	0.048	-0.123
-527.033	800.000	-0.027	0.106
-526.018	70.809	-0.070	-0.073
-525.004	210.851	-0.252	-0.396
-523.989	130.443	-0.049	-0.063
-522.975	-120.639	0.172	-0.029
-521.960	-102.837	0.135	0.032
-520.945	771.832	0.030	0.081
-519.931	277.640	0.106	-0.189
-518.916	800.000	0.011	-0.035
-517.902	-61.771	0.287	0.120
-516.887	73.950	0.119	-0.125
-515.872	-31.842	0.464	-0.260
-514.858	144.525	0.162	0.217
-513.843	203.645	0.120	0.186
-512.829	112.104	-0.110	-0.133
-511.814	-52.702	0.183	0.085
-510.799	3.199	-0.256	-0.186
-509.785	706.568	-0.055	0.145
-508.770	52.273	-0.085	0.081
-507.756	522.793	0.151	0.355
-506.741	-144.208	0.190	-0.018
-505.726	-106.910	-0.128	0.028
-504.712	-102.590	0.191	0.046
-503.697	-200.000	0.015	-0.175
-502.683	79.371	0.055	-0.059
-501.668	800.000	0.023	-0.085
-500.653	36.374	-0.127	0.112
-499.639	-200.000	-0.025	0.213
-498.624	578.631	-0.065	-0.160
-497.610	91.964	0.065	0.073
-496.595	58.113	-0.125	0.122
-495.581	-172.044	-0.199	-0.006
-494.566	-107.643	-0.346	-0.075
-493.551	205.983	0.213	0.331
-492.537	86.226	-0.322	0.354
-491.522	800.000	0.084	-0.358
-490.508	-22.294	0.263	-0.160
-489.493	97.623	-0.233	-0.268
-488.478	237.339	0.076	0.126
-487.464	671.894	0.112	-0.290
-486.449	372.884	-0.057	0.116
-485.435	-125.229	0.124	-0.019
-484.420	138.733	-0.199	-0.261
-483.405	-200.000	0.021	0.215
-482.391	800.000	-0.107	-0.347
-481.376	-200.000	0.000	-0.093
-480.362	-66.401	-0.182	0.072
-479.347	228.142	-0.164	0.266
-478.332	-97.786	0.214	-0.055
-477.318	-200.000	0.036	0.240
-476.303	-200.000	-0.015	0.134
-475.289	800.000	0.060	0.200
-474.274	373.449	-0.190	0.386
-473.259	262.682	-0.082	0.141
-472.245	49.181	0.106	0.100
-471.230	53.376	-0.118	-0.113
-470.216	-200.000	0.058	0.294
-469.201	800.000	0.064	-0.192
-468.186	-200.000	-0.015	0.078
-467.172	-92.024	0.083	-0.023
-466.157	-89.961	-0.175	0.051
-465.143	225.826	-0.114	0.185
-464.128	-46.370	-0.085	-0.042
-463.113	1.867	-0.201	-0.145
-462.099	1.596	0.156	-0.112
-461.084	140.749	-0.159	-0.210
-460.070	-166.906	0.108	-0.004
-459.055	-200.000	-0.001	-0.100
-458.040	-89.335	-0.040	0.012
-457.026	-9.947	-0.041	0.027
-456.011	607.482	-0.153	0.381
-454.997	239.866	0.144	-0.239
-453.982	-117.141	-0.154	0.028
-452.968	-130.082	0.223	-0.030
-451.953	123.944	0.313	0.392
-450.938	105.622	-0.062	0.074
-449.924	395.886	-0.088	-0.182
-448.909	103.509	-0.090	-0.106
-447.895	-128.560	0.259	0.037
-446.880	51.054	-0.145	-0.137
-445.865	90.624	0.115	-0.128
-444.851	-93.644	0.046	-0.013
-443.836	122.335	0.088	0.109
-442.822	393.205	-0.146	0.303
-441.807	-148.517	-0.122	-0.010
-440.792	-166.625	-0.005	-0.000
-439.778	-45.054	0.582	0.289
-438.763	203.244	-0.146	-0.226
-437.749	312.213	-0.219	-0.410
-436.734	76.986	0.064	-0.068
-435.719	167.293	0.110	0.156
-434.705	-162.509	0.442	0.022
-433.690	-141.917	0.213	-0.021
-432.676	-3.592	-0.122	-0.084
-431.661	182.027	0.161	0.237
-430.646	262.816	-0.062	0.107
-429.632	377.618	-0.140	-0.286
-428.617	800.000	-0.134	0.551
-427.603	431.667	-0.119	0.258
-426.588	-200.000	0.008	0.051
-425.573	-43.064	0.293	0.148
-424.559	-200.000	-0.047	-0.244
-423.544	800.000	0.056	-0.179
-422.530	-200.000	-0.011	0.112
-421.515	800.000	0.041	-0.164
-420.500	-54.142	-0.304	0.138
-419.486	-104.581	0.223	0.051
-418.471	251.821	-0.060	-0.102
-417.457	-200.000	0.051	-0.266
-416.442	-158.354	-0.165	-0.010
-415.428	73.964	0.199	-0.208
-414.413	-42.208	-0.221	-0.113
-413.398	-119.978	-0.133	-0.023
-412.384	13.063	0.152	-0.118
-411.369	-144.373	0.226	-0.021
-410.355	-200.000	-0.064	0.452
-409.340	-200.000	-0.001	-0.029
-408.325	-93.074	-0.541	0.150
-407.311	205.556	0.220	-0.341
-406.296	-86.047	-0.471	-0.145
-405.282	-200.000	0.022	-0.334
-404.267	90.406	-0.073	-0.081
-403.252	-103.032	-0.360	-0.085
-402.238	14.502	0.252	0.196
-401.223	-169.595	0.196	-0.007
-400.209	-200.000	-0.008	0.367
-399.194	9.904	-0.298	-0.225
-398.179	795.485	0.082	-0.224
-397.165	-130.132	0.015	0.002
-396.150	284.506	-0.249	-0.445
-395.136	-200.000	-0.013	0.057
-394.121	-147.486	-0.313	0.026
-393.106	-200.000	0.024	0.142
-392.092	-200.000	-0.035	0.159
-391.077	441.231	-0.081	0.176
-390.063	-10.019	0.219	-0.145
-389.048	-200.000	-0.006	0.152
-388.033	-22.761	-0.342	-0.206
-387.019	800.000	-0.058	0.159
-386.004	-31.275	-0.081	-0.046
-384.990	-113.893	-0.360	0.070
-383.975	800.000	0.006	0.019
-382.960	800.000	-0.051	-0.179
-381.946	122.195	0.165	0.205
-380.931	800.000	0.081	-0.291
-379.917	137.085	0.186	0.242
-378.902	117.824	-0.084	-0.103
-377.888	70.156	-0.095	0.098
-376.873	-52.086	-0.340	-0.157
-375.858	-167.422	0.267	0.011
-374.844	800.000	-0.089	0.286
-373.829	-6.705	0.275	0.186
-372.815	122.223	0.280	0.347
-371.800	-200.000	0.305	-0.000
-370.785	96.695	0.061	-0.070
-369.771	47.124	-0.054	-0.050
-368.756	-129.425	0.287	0.040
-367.742	-7.208	0.416	-0.281
-366.727	334.774	-0.047	-0.091
-365.712	-200.000	0.012	-0.202
-364.698	86.128	-0.080	-0.088
-363.683	0.901	0.113	0.081
-362.669	277.542	-0.115	-0.203
-361.654	339.317	-0.088	0.170
-360.639	-44.751	-0.233	0.116
-359.625	-99.898	0.257	0.064
-358.610	243.579	0.158	0.263
-357.596	-200.000	-0.007	0.142
-356.581	-49.388	0.163	-0.077
-355.566	-58.717	-0.348	-0.150
-354.552	280.370	0.157	0.278
-353.537	132.667	-0.134	0.172
-352.523	255.207	-0.188	0.320
-351.508	358.373	-0.119	-0.236
-350.493	-200.000	-0.036	0.168
-349.479	36.062	0.099	-0.087
-348.464	668.192	0.129	-0.332
-347.450	-136.707	0.209	-0.024
-346.435	303.481	0.157	-0.289
-345.420	-43.988	0.154	0.077
-344.406	369.714	-0.136	0.273
-343.391	-84.186	0.183	0.058
-342.377	-200.000	-0.010	0.166
-341.362	400.363	0.140	-0.292
-340.348	-72.691	-0.305	-0.112
-339.333	194.754	0.192	-0.289
-338.318	-111.345	0.094	0.019
-337.304	-80.401	-0.472	-0.157
-336.289	11.245	-0.315	-0.239
-335.275	118.100	-0.193	0.237
-334.260	-200.000	0.009	0.075
-333.245	213.382	0.220	0.345
-332.231	-200.000	-0.023	-0.101
-331.216	185.962	-0.083	-0.122
-330.202	-53.438	0.106	0.048
-329.187	54.025	0.183	0.175
-328.172	510.917	0.116	0.268
-327.158	-135.124	0.351	0.042
-326.143	-79.003	0.310	-0.105
-325.129	-200.000	0.028	-0.231
-324.114	-200.000	-0.058	0.351
-323.099	20.966	-0.184	0.148
-322.085	52.311	-0.091	0.086
-321.070	-200.000	-0.031	-0.161
-320.056	800.000	-0.044	0.135
-319.041	-138.905	0.345	-0.037
-318.026	200.538	-0.111	0.170
-317.012	42.623	0.090	-0.081
-315.997	-66.447	0.265	-0.104
-314.983	-53.323	-0.090	-0.041
-313.968	-200.000	-0.017	-0.182
-312.953	-8.065	0.313	0.209
-311.939	461.207	0.042	0.094
-310.924	-180.150	-0.200	-0.004
-309.910	-154.460	0.085	0.006
-308.895	-55.380	-0.447	0.199
-307.880	395.407	0.148	-0.306
-306.866	12.734	-0.110	-0.085
-305.851	-111.529	-0.071	0.014
-304.837	-200.000	0.042	-0.499
-303.822	-89.494	0.168	-0.049
-302.807	-135.876	0.320	0.037
-301.793	800.000	-0.045	0.193
-300.778	-58.365	0.038	0.016
-299.764	311.406	-0.082	-0.152
-298.749	103.291	0.085	0.098
-297.735	-155.572	-0.137	0.009
-296.720	222.178	0.055	-0.088
-295.705	-142.574	-0.033	-0.003
-294.691	116.277	-0.144	0.175
-293.676	-200.000	-0.005	0.142
-292.662	-122.267	0.324	0.052
-291.647	42.444	-0.176	-0.159
-290.632	-35.612	0.260	-0.140
-289.618	-200.000	0.023	-0.285
-288.603	61.514	-0.128	-0.126
-287.589	628.580	-0.060	-0.150
-286.574	69.123	0.145	-0.147
-285.559	-200.000	-0.009	-0.311
-284.545	-130.349	-0.292	-0.039
-283.530	-200.000	0.002	0.040
-282.516	17.773	0.166	-0.131
-281.501	-23.073	-0.052	0.031
-280.486	33.392	-0.164	-0.141
-279.472	-200.000	0.004	0.206
-278.457	156.143	0.099	0.136
-277.443	306.726	-0.110	-0.202
-276.428	-49.814	-0.154	0.072
-275.413	-161.363	0.275	0.014
-274.399	104.489	0.165	0.193
-273.384	15.667	-0.122	0.095
-272.370	-200.000	-0.014	0.274
-271.355	499.100	-0.063	-0.144
-270.340	27.908	0.144	-0.120
-269.326	-40.103	-0.182	0.094
-268.311	-39.723	-0.347	0.180
-267.297	-149.656	0.179	0.014
-266.282	-76.343	0.249	0.087
-265.267	-81.188	-0.171	0.056
-264.253	59.872	0.050	-0.049
-263.238	800.000	0.032	-0.099
-262.224	349.242	0.075	0.147
-261.209	-130.821	0.330	-0.044
-260.195	-119.883	0.448	0.076
-259.180	739.511	-0.017	-0.044
-258.165	-126.484	-0.527	-0.078
-257.151	800.000	-0.072	0.275
-256.136	-200.000	0.014	-0.208
-255.122	-200.000	0.076	-0.437
-254.107	4.577	0.202	-0.146
-253.092	800.000	0.079	-0.234
-252.078	-200.000	0.014	-0.299
-251.063	-115.015	0.408	-0.077
-250.049	487.172	0.067	-0.150
-249.034	-16.364	0.359	-0.226
-248.019	378.139	-0.062	0.125
-247.005	-108.223	0.155	0.033
-245.990	800.000	-0.086	-0.257
-244.976	800.000	0.070	-0.247
-243.961	214.974	0.109	-0.171
-242.946	481.028	-0.126	-0.283
-241.932	-62.545	-0.330	0.136
-240.917	-88.072	0.476	-0.141
-239.903	347.916	-0.080	0.156
-238.888	37.446	-0.240	0.211
-237.873	664.484	-0.109	0.279
-236.859	-200.000	0.004	-0.117
-235.844	800.000	-0.055	-0.162
-234.830	-200.000	0.007	-0.138
-233.815	-55.082	0.182	-0.081
-232.800	-200.000	-0.030	-0.188
-231.786	45.458	-0.206	0.188
-230.771	-13.900	0.238	0.152
-229.757	-102.531	-0.176	-0.042
-228.742	-142.173	0.295	0.029
-227.727	-200.000	-0.006	0.368
-226.713	-200.000	0.030	-0.209
-225.698	800.000	-0.067	0.255
-224.684	755.512	0.073	0.195
-223.669	162.645	-0.149	-0.207
-222.655	800.000	-0.114	-0.322
-221.640	800.000	-0.035	-0.150
-220.625	25.445	-0.116	0.096
-219.611	251.145	-0.177	0.298
-218.596	370.541	0.120	-0.241
-217.582	-96.004	0.153	0.040
-216.567	248.544	0.074	-0.124
-215.552	-31.031	0.296	0.165
-214.538	-91.248	0.203	0.058
-213.523	45.398	0.056	0.051
-212.509	-146.202	-0.018	-0.002
-211.494	-96.641	-0.048	0.013
-210.479	-124.928	-0.090	-0.014
-209.465	74.298	-0.254	0.264
-208.450	800.000	0.093	0.352
-207.436	38.608	-0.254	-0.224
-206.421	800.000	0.055	0.200
-205.406	-14.536	-0.104	0.066
-204.392	134.266	0.130	-0.166
-203.377	-200.000	0.016	0.240
-202.363	-85.948	0.264	-0.081
-201.348	-131.818	0.228	-0.029
-200.333	180.665	-0.173	0.251
-199.319	84.702	0.376	0.406
-198.304	32.751	-0.097	0.082
-197.290	-18.853	-0.098	-0.060
-196.275	460.015	-0.056	0.122
-195.260	20.268	-0.059	-0.047
-194.246	-79.922	0.333	0.111
-193.231	-130.573	-0.191	-0.025
-192.217	-2.821	-0.069	-0.048
-191.202	-135.852	-0.297	-0.035
-190.187	-82.964	0.259	-0.082
-189.173	-200.000	-0.000	0.112
-188.158	-75.862	-0.114	-0.040
-187.144	-200.000	0.028	-0.404
-186.129	-69.153	-0.264	0.100
-185.114	800.000	-0.110	0.319
-184.100	-132.866	-0.151	-0.019
-183.085	241.751	0.136	0.225
-182.071	-200.000	0.010	0.182
-181.056	-115.939	0.210	-0.039
-180.042	800.000	-0.055	0.165
-179.027	800.000	-0.089	-0.245
-178.012	-79.286	-0.254	-0.085
-176.998	-200.000	0.004	0.028
-175.983	800.000	0.082	-0.310
-174.969	800.000	-0.042	0.145
-173.954	-200.000	0.007	-0.111
-172.939	-26.625	0.061	0.035
-171.925	218.916	0.124	0.196
-170.910	-26.458	0.157	0.091
-169.896	-200.000	0.030	-0.245
-168.881	124.351	-0.242	-0.300
-167.866	-89.506	-0.157	-0.046
-166.852	-200.000	0.017	0.115
-165.837	-32.937	-0.079	0.043
-164.823	630.786	-0.090	0.224
-163.808	-96.475	-0.122	0.032
-162.793	36.563	-0.204	0.178
-161.779	0.675	-0.183	0.129
-160.764	-177.353	-0.199	0.005
-159.750	-20.644	-0.169	-0.102
-158.735	-155.780	0.237	0.015
-157.720	-5.491	0.320	0.216
-156.706	-200.000	0.017	0.144
-155.691	29.945	0.266	0.224
-154.677	101.180	-0.182	-0.208
-153.662	148.694	0.126	-0.168
-152.647	-42.096	0.130	-0.066
-151.633	-117.166	0.210	0.038
-150.618	245.386	-0.136	0.226
-149.604	-64.082	0.079	-0.032
-148.589	-79.542	0.499	-0.166
-147.574	-91.524	0.211	0.059
-146.560	686.414	0.078	0.202
-145.545	-46.088	-0.136	0.066
-144.531	-106.002	-0.377	-0.084
-143.516	-65.841	0.366	0.144
-142.502	-38.125	-0.192	-0.100
-141.487	-53.193	0.160	-0.073
-140.472	-86.061	0.083	-0.025
-139.458	800.000	0.119	0.398
-138.443	1.932	-0.128	0.091
-137.429	180.724	0.191	-0.276
-136.414	-200.000	0.008	-0.166
-135.399	256.800	0.280	-0.473
-134.385	133.577	0.152	0.194
-133.370	256.325	-0.183	0.310
-132.356	66.712	-0.139	0.139
-131.341	86.834	0.133	-0.144
-130.326	60.769	0.058	0.056
-129.312	-119.903	-0.202	0.034
-128.297	23.303	-0.142	0.115
-127.283	76.858	-0.190	0.198
-126.268	-73.960	0.083	0.030
-125.253	-34.812	0.191	-0.103
-124.239	326.571	0.221	0.417
-123.224	-71.653	-0.155	0.057
-122.210	26.031	0.110	-0.091
