DTS Sentinel unit serial number:	SN413079Multiplexer serial number:	ORYXHardware model number:	OX4-SRSoftware version number:	ORYX F/W v4.00 Oryx Data Collector v3.7.2.0data status	okinstallation	princeton_trtdifferential loss correction	single-endedforward channel	channel 1reverse channel	N/Adate	2019/09/17time	02:18:35forward acquisition time	60.00reverse acquisition time	0.00gamma	496.2192k internal	0.2324k external	0.2324temperature offset calibration	0.9953default loss term (dB/km)	0.3790temperature slope calibration	1.0000multiplexer offset coefficient	1.0000multiplexer slope coefficient	1.0000fibre end	0.00T internal ref (°C)	29.77T ext. ref 1 (°C)	0.13T ext. ref 2 (°C)	24.69length (m)	temperature (°C)	Stokes	anti-Stokes-747.200	-149.748	0.151	-0.012
-746.185	209.329	0.032	0.051
-745.171	800.000	-0.152	-0.477
-744.156	117.357	0.311	0.386
-743.142	-87.002	0.412	0.127
-742.127	800.000	-0.051	0.188
-741.112	-128.181	0.127	-0.018
-740.098	53.235	0.393	0.380
-739.083	184.450	0.107	0.160
-738.069	-200.000	0.077	0.440
-737.054	-200.000	-0.097	0.613
-736.039	-84.673	0.299	0.095
-735.025	125.022	0.050	-0.063
-734.010	-142.361	-0.372	-0.037
-732.996	31.716	0.022	-0.019
-731.981	7.321	-0.133	-0.101
-730.966	-142.415	0.316	0.031
-729.952	-104.841	0.019	-0.004
-728.937	327.037	-0.107	-0.206
-727.923	-200.000	0.010	0.049
-726.908	131.376	-0.147	0.190
-725.894	373.901	-0.031	-0.064
-724.879	800.000	0.051	-0.202
-723.864	5.873	0.034	-0.026
-722.850	92.885	-0.159	-0.182
-721.835	-28.194	-0.092	0.053
-720.821	-200.000	-0.018	-0.125
-719.806	205.836	-0.237	-0.372
-718.791	172.486	-0.233	-0.337
-717.777	-125.166	-0.182	0.028
-716.762	800.000	-0.086	-0.241
-715.748	-155.498	-0.151	-0.010
-714.733	-106.236	-0.041	-0.009
-713.718	73.480	0.111	-0.117
-712.704	-200.000	0.027	0.156
-711.689	-102.869	-0.279	0.067
-710.675	-64.655	0.218	0.089
-709.660	-59.406	0.130	0.056
-708.645	800.000	-0.039	-0.165
-707.631	-136.394	0.191	0.022
-706.616	-200.000	0.028	-0.254
-705.602	44.865	-0.141	0.131
-704.587	-131.040	-0.033	-0.004
-703.572	-140.925	-0.082	0.008
-702.558	90.946	-0.059	-0.066
-701.543	58.658	-0.092	-0.091
-700.529	129.699	-0.173	-0.223
-699.514	800.000	-0.047	-0.168
-698.499	800.000	0.045	-0.127
-697.485	-146.966	-0.213	-0.018
-696.470	-200.000	0.018	-0.198
-695.456	800.000	-0.122	-0.476
-694.441	179.205	-0.256	-0.378
-693.426	188.632	-0.101	-0.152
-692.412	-200.000	-0.007	-0.303
-691.397	0.112	0.039	-0.028
-690.383	332.549	0.187	-0.365
-689.368	-3.477	0.102	0.072
-688.354	-200.000	-0.046	0.341
-687.339	-200.000	-0.063	-0.491
-686.324	70.005	-0.176	-0.183
-685.310	-47.604	-0.206	0.101
-684.295	-200.000	0.022	0.139
-683.281	412.508	-0.130	-0.278
-682.266	-43.030	-0.127	-0.065
-681.251	722.067	-0.071	0.191
-680.237	41.793	0.057	0.052
-679.222	412.696	0.084	-0.179
-678.208	304.109	-0.160	-0.299
-677.193	437.601	0.194	-0.427
-676.178	-155.329	-0.202	-0.013
-675.164	20.344	-0.104	-0.084
-674.149	-45.962	0.373	-0.185
-673.135	-200.000	-0.033	0.303
-672.120	-68.605	-0.160	-0.062
-671.105	-125.177	-0.344	0.053
-670.091	-91.034	0.268	-0.078
-669.076	800.000	-0.020	0.074
-668.062	-69.927	-0.393	-0.151
-667.047	432.171	0.099	-0.215
-666.032	126.566	0.066	0.084
-665.018	-68.691	0.069	-0.027
-664.003	491.227	0.179	0.412
-662.989	-121.972	-0.259	0.043
-661.974	524.198	-0.096	-0.228
-660.959	51.401	0.222	-0.213
-659.945	-94.299	-0.139	-0.038
-658.930	-30.795	-0.269	0.153
-657.916	173.103	-0.122	-0.176
-656.901	-120.312	0.165	-0.028
-655.886	132.759	0.041	-0.053
-654.872	196.213	0.231	-0.354
-653.857	87.100	-0.224	-0.249
-652.843	-43.369	-0.212	0.108
-651.828	-96.251	0.114	0.030
-650.814	-200.000	-0.007	0.457
-649.799	-200.000	0.043	0.249
-648.784	800.000	0.062	0.239
-647.770	-200.000	-0.007	-0.046
-646.755	-200.000	-0.055	-0.246
-645.741	-200.000	-0.007	-0.499
-644.726	-4.020	0.290	-0.202
-643.711	260.945	0.153	-0.267
-642.697	-200.000	-0.006	0.179
-641.682	-200.000	0.012	0.171
-640.668	168.492	0.124	-0.178
-639.653	97.206	-0.267	-0.308
-638.638	124.220	0.125	-0.158
-637.624	800.000	0.034	-0.108
-636.609	110.281	0.101	0.122
-635.595	-31.170	-0.095	-0.054
-634.580	130.338	0.075	0.097
-633.565	-73.098	-0.136	-0.050
-632.551	264.193	-0.126	0.220
-631.536	-31.219	-0.124	0.070
-630.522	40.919	-0.135	-0.122
-629.507	194.693	-0.082	0.124
-628.492	22.009	-0.220	-0.180
-627.478	800.000	-0.095	0.324
-626.463	-42.840	-0.139	-0.071
-625.449	-200.000	-0.058	-0.306
-624.434	-129.762	0.223	0.031
-623.419	14.150	-0.223	0.175
-622.405	-64.690	0.092	0.037
-621.390	6.232	-0.167	0.124
-620.376	-82.852	0.172	0.056
-619.361	546.170	-0.081	-0.194
-618.346	-200.000	-0.247	-0.001
-617.332	-151.932	-0.119	-0.009
-616.317	129.707	0.183	0.234
-615.303	-117.318	-0.117	0.021
-614.288	-200.000	-0.039	-0.342
-613.273	-13.725	0.125	-0.081
-612.259	-18.391	0.195	0.122
-611.244	800.000	-0.052	-0.165
-610.230	258.638	-0.009	0.015
-609.215	800.000	0.085	0.245
-608.201	180.351	0.197	-0.290
-607.186	800.000	0.075	0.215
-606.171	145.522	-0.151	0.203
-605.157	-132.955	-0.315	-0.040
-604.142	10.132	0.088	0.067
-603.128	-192.647	0.197	0.002
-602.113	-68.829	0.089	-0.034
-601.098	800.000	0.050	-0.202
-600.084	89.645	0.261	0.293
-599.069	29.484	-0.153	-0.131
-598.055	75.260	0.154	-0.163
-597.040	-44.651	-0.418	-0.210
-596.025	-111.195	-0.243	-0.050
-595.011	138.907	0.152	0.200
-593.996	-200.000	0.028	-0.250
-592.982	782.678	-0.063	-0.173
-591.967	-53.892	0.270	-0.124
-590.952	-200.000	-0.032	0.148
-589.938	494.787	0.129	-0.297
-588.923	800.000	-0.089	-0.347
-587.909	-200.000	0.002	0.143
-586.894	49.526	0.158	-0.149
-585.879	-116.215	0.178	0.033
-584.865	21.550	-0.136	0.111
-583.850	222.263	-0.111	0.180
-582.836	66.580	-0.222	0.227
-581.821	67.223	0.133	-0.136
-580.806	-200.000	0.006	0.173
-579.792	800.000	0.034	-0.135
-578.777	237.782	0.005	0.009
-577.763	143.528	0.066	-0.088
-576.748	-76.546	0.172	-0.061
-575.733	-200.000	-0.000	-0.056
-574.719	-188.757	-0.094	-0.001
-573.704	115.988	-0.345	-0.423
-572.690	-200.000	0.013	-0.199
-571.675	-113.017	0.226	-0.045
-570.661	-36.398	0.207	0.112
-569.646	-200.000	-0.004	-0.312
-568.631	800.000	0.076	-0.295
-567.617	-112.604	-0.509	0.102
-566.602	11.067	0.275	-0.211
-565.588	-105.187	0.106	-0.024
-564.573	-200.000	-0.040	-0.281
-563.558	-200.000	-0.043	0.249
-562.544	800.000	-0.090	-0.275
-561.529	-81.907	0.126	0.041
-560.515	-200.000	0.000	-0.209
-559.500	560.340	0.014	0.034
-558.485	496.373	-0.033	0.076
-557.471	-200.000	-0.032	-0.193
-556.456	800.000	0.061	-0.234
-555.442	-38.998	-0.117	0.062
-554.427	800.000	-0.050	0.209
-553.412	-200.000	-0.043	-0.266
-552.398	-32.242	0.285	-0.159
-551.383	112.408	-0.133	-0.161
-550.369	-13.792	-0.086	0.056
-549.354	800.000	0.141	-0.426
-548.339	255.714	0.065	0.111
-547.325	-165.163	0.191	0.008
-546.310	-146.637	-0.303	0.026
-545.296	-200.000	0.025	-0.190
-544.281	-142.298	0.076	-0.008
-543.266	-6.141	-0.053	0.036
-542.252	-104.447	0.164	0.038
-541.237	-1.010	0.004	-0.003
-540.223	-116.253	-0.314	0.058
-539.208	-79.844	0.144	0.049
-538.193	28.834	-0.034	-0.029
-537.179	-200.000	-0.026	0.150
-536.164	-111.576	0.129	-0.026
-535.150	-200.000	-0.011	-0.164
-534.135	-164.597	0.146	-0.007
-533.121	800.000	0.098	0.284
-532.106	-5.227	-0.116	-0.080
-531.091	339.969	0.147	-0.287
-530.077	-161.405	-0.094	-0.005
-529.062	-138.108	0.314	-0.035
-528.048	-92.085	0.078	0.022
-527.033	-100.621	-0.169	-0.042
-526.018	800.000	0.066	0.217
-525.004	-88.410	-0.292	-0.087
-523.989	44.322	0.178	0.164
-522.975	800.000	0.062	-0.266
-521.960	-43.709	-0.213	0.107
-520.945	800.000	-0.072	0.283
-519.931	-148.627	0.191	-0.016
-518.916	81.993	0.079	-0.085
-517.902	583.784	0.079	-0.193
-516.887	-90.603	-0.231	-0.067
-515.872	-79.862	0.134	-0.045
-514.858	-13.185	-0.160	0.104
-513.843	586.804	0.084	0.207
-512.829	-200.000	-0.107	0.579
-511.814	-77.667	0.159	-0.055
-510.799	-22.760	-0.257	-0.155
-509.785	-47.651	0.519	0.252
-508.770	274.707	0.074	0.130
-507.756	83.508	-0.160	0.174
-506.741	5.337	-0.279	0.206
-505.726	-163.615	0.152	0.007
-504.712	-200.000	0.006	-0.268
-503.697	-58.857	-0.403	-0.174
-502.683	-153.665	-0.108	-0.007
-501.668	448.593	0.092	0.202
-500.653	10.170	-0.094	-0.072
-499.639	-200.000	-0.008	0.229
-498.624	82.159	-0.135	-0.147
-497.610	377.223	0.068	0.140
-496.595	271.854	-0.265	0.467
-495.581	-139.131	0.114	0.012
-494.566	523.522	0.052	0.122
-493.551	-187.047	-0.532	0.007
-492.537	-200.000	0.009	-0.157
-491.522	-90.889	-0.295	0.085
-490.508	148.924	-0.176	0.238
-489.493	583.784	-0.077	-0.189
-488.478	-200.000	-0.013	-0.136
-487.464	-200.000	0.019	0.244
-486.449	-200.000	-0.008	0.335
-485.435	144.467	-0.067	-0.090
-484.420	175.307	-0.196	0.284
-483.405	-75.632	-0.057	-0.020
-482.391	-87.357	0.285	0.086
-481.376	2.835	-0.114	-0.083
-480.362	-88.691	-0.244	0.073
-479.347	183.262	0.089	-0.132
-478.332	-116.558	-0.378	-0.070
-477.318	-200.000	-0.038	-0.167
-476.303	-200.000	-0.001	-0.098
-475.289	-157.485	0.293	0.018
-474.274	32.556	-0.041	-0.035
-473.259	69.909	0.093	-0.096
-472.245	136.268	-0.213	0.277
-471.230	-55.647	0.258	-0.115
-470.216	127.977	0.255	-0.324
-469.201	-110.910	-0.307	-0.063
-468.186	-148.610	-0.053	-0.004
-467.172	18.606	0.291	0.232
-466.157	-101.676	0.368	-0.089
-465.143	-76.672	-0.181	-0.063
-464.128	114.926	-0.207	0.253
-463.113	621.614	0.020	0.051
-462.099	701.650	-0.104	0.272
-461.084	-81.798	-0.254	-0.083
-460.070	294.345	0.226	-0.412
-459.055	-199.756	0.285	-0.001
-458.040	281.839	-0.280	0.500
-457.026	-79.042	0.140	0.048
-456.011	262.673	0.116	-0.202
-454.997	3.526	0.090	0.066
-453.982	-35.253	0.264	-0.144
-452.968	-122.366	0.268	0.044
-451.953	-46.923	0.174	0.085
-450.938	-10.644	-0.269	-0.177
-449.924	-19.440	0.157	0.097
-448.909	800.000	0.073	-0.213
-447.895	366.850	0.110	-0.221
-446.880	497.968	-0.051	0.118
-445.865	-164.582	-0.181	-0.008
-444.851	-200.000	0.017	0.196
-443.836	29.046	-0.162	-0.137
-442.822	800.000	0.045	-0.184
-441.807	337.614	0.086	-0.167
-440.792	-179.841	0.383	0.008
-439.778	65.872	-0.085	0.086
-438.763	-139.322	0.512	-0.055
-437.749	296.288	0.068	0.124
-436.734	-200.000	0.002	0.051
-435.719	-90.165	-0.437	0.127
-434.705	800.000	0.063	0.187
-433.690	-200.000	0.036	0.177
-432.676	465.115	-0.104	-0.231
-431.661	-136.087	0.254	-0.030
-430.646	63.459	0.163	0.163
-429.632	-149.250	-0.228	-0.018
-428.617	800.000	0.053	-0.198
-427.603	-200.000	-0.059	0.286
-426.588	800.000	0.043	-0.139
-425.573	-30.726	0.068	-0.038
-424.559	-200.000	-0.042	0.195
-423.544	517.670	-0.067	0.156
-422.530	-163.028	0.124	0.006
-421.515	800.000	0.093	0.326
-420.500	-80.775	-0.156	-0.052
-419.486	108.513	-0.138	0.164
-418.471	91.275	-0.052	-0.058
-417.457	-200.000	-0.019	-0.108
-416.442	-66.413	0.235	0.093
-415.428	-200.000	-0.035	-0.346
-414.413	-79.884	-0.090	-0.030
-413.398	355.627	-0.150	0.298
-412.384	-33.115	-0.134	-0.074
-411.369	-200.000	0.003	0.075
-410.355	-57.168	-0.047	-0.021
-409.340	-5.037	0.158	-0.108
-408.325	1.648	-0.181	0.130
-407.311	-28.416	-0.272	-0.156
-406.296	206.371	0.048	-0.075
-405.282	173.346	-0.189	0.271
-404.267	101.192	0.114	-0.133
-403.252	-8.476	0.147	-0.098
-402.238	-52.354	0.205	-0.095
-401.223	-154.765	0.414	-0.027
-400.209	612.974	-0.076	0.189
-399.194	-51.192	0.167	-0.078
-398.179	64.120	-0.226	0.226
-397.165	800.000	0.150	-0.431
-396.150	159.759	0.047	-0.065
-395.136	-110.924	0.080	-0.016
-394.121	29.108	-0.220	0.186
-393.106	166.670	-0.129	-0.182
-392.092	800.000	-0.054	0.166
-391.077	-8.070	0.218	-0.146
-390.063	363.101	-0.106	0.212
-389.048	-200.000	-0.019	-0.133
-388.033	-127.271	0.114	-0.017
-387.019	-80.538	0.070	-0.023
-386.004	-98.684	-0.226	0.057
-384.990	-94.252	0.427	-0.116
-383.975	-45.911	-0.309	0.152
-382.960	417.318	0.167	0.354
-381.946	-71.441	-0.254	-0.095
-380.931	-121.779	0.197	0.032
-379.917	-132.290	0.406	-0.052
-378.902	622.738	0.069	-0.172
-377.888	320.085	-0.036	0.068
-376.873	-183.890	-0.521	0.009
-375.858	-22.213	-0.271	0.163
-374.844	100.280	0.254	-0.294
-373.829	629.496	-0.040	-0.101
-372.815	688.583	-0.075	-0.196
-371.800	-56.655	0.255	-0.112
-370.785	-79.724	-0.377	-0.127
-369.771	-94.388	0.243	0.066
-368.756	88.270	0.213	0.235
-367.742	-200.000	0.031	0.157
-366.727	-150.086	-0.179	-0.014
-365.712	35.393	0.077	-0.067
-364.698	331.217	0.088	-0.169
-363.683	21.985	-0.056	-0.046
-362.669	800.000	-0.128	0.475
-361.654	-165.392	-0.110	0.005
-360.639	-200.000	-0.037	0.347
-359.625	800.000	-0.107	0.398
-358.610	-101.021	-0.278	0.068
-357.596	-200.000	0.004	0.059
-356.581	800.000	0.141	0.388
-355.566	106.675	0.072	0.085
-354.552	-63.942	-0.021	0.009
-353.537	-49.628	-0.129	-0.061
-352.523	667.594	-0.051	-0.130
-351.508	29.719	-0.038	0.032
-350.493	21.947	-0.169	0.137
-349.479	146.548	0.174	0.232
-348.464	494.599	0.171	0.389
-347.450	-117.012	-0.166	0.030
-346.435	-200.000	0.058	-0.320
-345.420	3.415	-0.109	0.079
-344.406	9.199	0.097	-0.073
-343.391	-200.000	-0.035	0.342
-342.377	371.132	-0.011	-0.023
-341.362	153.260	0.083	0.113
-340.348	800.000	0.082	-0.309
-339.333	297.501	0.044	0.081
-338.318	800.000	0.018	0.060
-337.304	138.987	-0.080	-0.105
-336.289	-200.000	0.014	-0.283
-335.275	87.284	-0.027	0.030
-334.260	-99.325	-0.182	-0.046
-333.245	348.509	-0.177	-0.347
-332.231	-200.000	0.021	-0.257
-331.216	671.339	0.015	-0.037
-330.202	216.108	-0.095	0.150
-329.187	-200.000	-0.006	-0.135
-328.172	-32.227	-0.237	-0.131
-327.158	392.337	0.145	-0.300
-326.143	91.324	0.116	0.130
-325.129	51.480	0.417	0.393
-324.114	-78.647	0.266	0.090
-323.099	-200.000	-0.006	-0.196
-322.085	-183.857	0.204	-0.003
-321.070	800.000	-0.069	-0.196
-320.056	-97.746	0.213	0.055
-319.041	-117.952	0.317	-0.056
-318.026	276.516	0.152	0.267
-317.012	800.000	0.088	0.361
-315.997	800.000	0.022	-0.064
-314.983	800.000	-0.111	-0.361
-313.968	-173.078	0.286	0.009
-312.953	69.115	-0.088	0.090
-311.939	230.354	0.136	-0.221
-310.924	-114.108	-0.297	0.057
-309.910	12.698	0.120	-0.092
-308.895	-116.359	0.004	-0.001
-307.880	37.470	0.336	-0.296
-306.866	40.867	0.087	-0.078
-305.851	-200.000	-0.074	0.421
-304.837	19.906	0.284	-0.227
-303.822	-31.770	-0.119	-0.066
-302.807	42.776	0.159	-0.144
-301.793	800.000	-0.059	0.224
-300.778	800.000	0.066	0.188
-299.764	-28.508	0.112	0.064
-298.749	800.000	-0.024	-0.103
-297.735	-106.019	0.287	0.064
-296.720	137.816	0.238	0.310
-295.705	-200.000	0.021	-0.094
-294.691	-200.000	-0.086	0.527
-293.676	18.312	0.127	-0.101
-292.662	9.479	-0.106	-0.079
-291.647	-1.191	0.145	-0.102
-290.632	-27.332	-0.090	-0.052
-289.618	17.222	-0.252	-0.198
-288.603	-89.622	0.254	0.074
-287.589	-126.759	0.243	0.036
-286.574	800.000	0.100	0.342
-285.559	481.532	0.028	0.062
-284.545	-98.863	0.226	0.057
-283.530	-104.713	-0.161	-0.037
-282.516	215.249	0.142	-0.223
-281.501	-200.000	0.023	0.170
-280.486	305.450	-0.094	-0.173
-279.472	800.000	-0.123	0.407
-278.457	-200.000	-0.038	0.187
-277.443	-74.454	0.242	-0.086
-276.428	-71.365	0.145	-0.054
-275.413	-96.853	-0.177	-0.046
-274.399	10.402	0.270	-0.204
-273.384	547.111	-0.046	-0.108
-272.370	-49.186	0.148	-0.070
-271.355	125.630	0.024	-0.030
-270.340	800.000	-0.043	0.186
-269.326	32.855	-0.202	0.173
-268.311	567.714	-0.059	-0.142
-267.297	-200.000	0.053	-0.502
-266.282	-51.179	-0.107	0.050
-265.267	35.800	-0.139	-0.121
-264.253	-200.000	0.004	-0.063
-263.238	-132.500	-0.187	0.024
-262.224	167.589	-0.045	0.064
-261.209	2.837	-0.177	-0.127
-260.195	-200.000	0.072	0.414
-259.180	-142.102	-0.181	-0.018
-258.165	-66.689	-0.351	-0.138
-257.151	683.835	0.146	-0.377
-256.136	109.404	-0.226	-0.268
-255.122	-14.354	0.049	-0.031
-254.107	82.534	-0.102	-0.109
-253.092	-200.000	-0.036	0.244
-252.078	800.000	0.070	-0.215
-251.063	-87.716	-0.149	-0.044
-250.049	-2.762	0.029	0.020
-249.034	-146.241	0.107	0.009
-248.019	61.215	-0.206	0.203
-247.005	-94.651	-0.308	-0.083
-245.990	-96.701	-0.442	-0.115
-244.976	83.612	0.141	-0.152
-243.961	140.316	0.079	-0.103
-242.946	-35.663	-0.249	0.134
-241.932	-200.000	-0.004	0.348
-240.917	-41.463	0.212	-0.108
-239.903	436.829	0.105	0.227
-238.888	-117.082	0.282	0.051
-237.873	-200.000	0.028	-0.171
-236.859	-98.121	-0.066	0.017
-235.844	268.682	0.019	0.033
-234.830	-200.000	0.299	-0.001
-233.815	800.000	-0.059	-0.238
-232.800	373.159	0.100	-0.202
-231.786	-200.000	0.006	0.244
-230.771	-144.065	0.405	-0.038
-229.757	295.809	-0.278	0.505
-228.742	-118.292	0.096	-0.017
-227.727	800.000	0.011	-0.036
-226.713	-20.055	0.160	-0.098
-225.698	-200.000	-0.029	0.222
-224.684	45.812	-0.105	0.096
-223.669	-63.440	-0.322	-0.131
-222.655	63.460	-0.123	-0.122
-221.640	65.175	0.038	-0.038
-220.625	542.837	0.026	-0.061
-219.611	104.773	-0.266	0.310
-218.596	68.403	-0.279	0.283
-217.582	246.672	0.135	0.225
-216.567	-167.919	-0.405	0.016
-215.552	597.552	-0.035	-0.086
-214.538	147.712	-0.032	-0.043
-213.523	800.000	-0.015	-0.061
-212.509	484.592	0.121	0.272
-211.494	53.555	-0.066	0.063
-210.479	-74.094	-0.222	0.080
-209.465	-200.000	-0.050	0.377
-208.450	-200.000	-0.039	0.327
-207.436	719.587	-0.010	0.025
-206.421	140.389	0.173	0.225
-205.406	800.000	0.092	0.282
-204.392	-165.007	-0.533	-0.023
-203.377	214.217	0.028	0.043
-202.363	-17.325	-0.276	-0.172
-201.348	-40.755	0.129	-0.066
-200.333	161.902	-0.135	0.186
-199.319	-173.074	0.280	0.009
-198.304	-76.824	0.272	0.094
-197.290	739.240	-0.117	0.309
-196.275	-200.000	-0.045	0.373
-195.260	-21.350	0.335	-0.202
-194.246	92.287	-0.139	0.155
-193.231	307.619	-0.209	-0.385
-192.217	-152.188	-0.067	-0.005
-191.202	-73.931	0.336	-0.121
-190.187	-99.786	0.137	0.034
-189.173	239.756	-0.022	-0.036
-188.158	800.000	0.057	0.166
-187.144	622.756	-0.183	-0.454
-186.129	800.000	0.093	0.325
-185.114	418.372	-0.054	-0.114
-184.100	496.183	-0.132	0.301
-183.085	-95.504	0.247	-0.065
-182.071	-181.444	0.131	-0.003
-181.056	-113.738	0.099	-0.019
-180.042	-93.567	0.074	0.020
-179.027	68.092	0.125	-0.126
-178.012	-200.000	-0.043	0.225
-176.998	-200.000	-0.074	0.513
-175.983	17.751	0.217	-0.171
-174.969	-84.845	-0.331	-0.103
-173.954	151.595	0.205	0.276
-172.939	149.265	-0.133	-0.178
-171.925	-200.000	0.029	-0.177
-170.910	272.575	-0.048	0.084
-169.896	-33.719	-0.195	-0.106
-168.881	51.327	-0.138	-0.129
-167.866	-64.158	-0.232	-0.094
-166.852	116.680	0.187	0.226
-165.837	6.850	-0.253	-0.186
-164.823	-200.000	0.048	-0.397
-163.808	-134.934	-0.120	-0.014
-162.793	-200.000	-0.050	-0.655
-161.779	-24.021	-0.135	-0.080
-160.764	168.189	0.159	-0.224
-159.750	149.472	-0.181	-0.242
-158.735	92.378	-0.079	0.088
-157.720	-30.263	-0.047	0.026
-156.706	800.000	-0.081	-0.316
-155.691	283.927	0.211	0.375
-154.677	-35.939	0.165	0.088
-153.662	86.321	-0.022	-0.023
-152.647	88.301	0.158	0.173
-151.633	800.000	-0.093	-0.294
-150.618	-70.524	0.182	-0.068
-149.604	-163.970	-0.297	0.014
-148.589	-200.000	-0.008	-0.165
-147.574	-111.551	-0.398	-0.080
-146.560	-32.559	-0.080	-0.044
-145.545	-109.726	0.248	-0.051
-144.531	195.556	0.058	0.087
-143.516	800.000	0.013	0.039
-142.502	161.050	0.242	-0.333
-141.487	4.270	-0.138	-0.099
-140.472	280.680	-0.185	-0.326
-139.458	-200.000	-0.026	-0.234
-138.443	173.258	-0.182	-0.259
-137.429	-200.000	-0.000	0.101
-136.414	-200.000	-0.038	-0.199
-135.399	-200.000	0.006	-0.179
-134.385	-183.978	-0.092	0.002
-133.370	-70.968	-0.189	0.070
-132.356	100.187	0.054	-0.062
-131.341	-200.000	-0.015	-0.180
-130.326	-200.000	-0.010	-0.170
-129.312	800.000	0.088	-0.297
-128.297	-200.000	0.021	-0.266
-127.283	800.000	-0.038	-0.116
-126.268	-6.989	0.101	0.068
-125.253	103.183	0.089	0.103
-124.239	-45.321	-0.153	0.075
-123.224	800.000	-0.087	0.274
