DTS Sentinel unit serial number:	SN413079Multiplexer serial number:	ORYXHardware model number:	OX4-SRSoftware version number:	ORYX F/W v4.00 Oryx Data Collector v3.7.2.0data status	okinstallation	princeton_trtdifferential loss correction	single-endedforward channel	channel 1reverse channel	N/Adate	2019/09/16time	05:26:35forward acquisition time	60.00reverse acquisition time	0.00gamma	496.2192k internal	0.2332k external	0.2332temperature offset calibration	0.9982default loss term (dB/km)	0.3790temperature slope calibration	1.0000multiplexer offset coefficient	1.0000multiplexer slope coefficient	1.0000fibre end	0.00T internal ref (°C)	27.28T ext. ref 1 (°C)	11.10T ext. ref 2 (°C)	22.11length (m)	temperature (°C)	Stokes	anti-Stokes-747.200	26.095	0.121	0.102
-746.185	726.561	-0.106	0.285
-745.171	-122.304	0.167	-0.027
-744.156	-48.046	-0.207	0.101
-743.142	68.646	0.200	-0.207
-742.127	-90.631	0.168	0.049
-741.112	-120.121	-0.184	0.032
-740.098	-6.181	-0.311	0.214
-739.083	-156.981	0.110	0.007
-738.069	77.134	-0.397	0.424
-737.054	-90.530	0.252	0.073
-736.039	-94.918	-0.523	-0.143
-735.025	-108.645	0.256	-0.055
-734.010	-136.500	-0.308	-0.036
-732.996	15.317	-0.118	-0.093
-731.981	-145.576	0.274	-0.025
-730.966	-44.925	-0.168	-0.084
-729.952	461.748	-0.076	-0.171
-728.937	119.127	0.020	0.025
-727.923	4.918	-0.013	-0.009
-726.908	198.255	-0.180	-0.277
-725.894	-200.000	-0.015	0.171
-724.879	64.746	0.254	-0.258
-723.864	45.909	0.327	0.304
-722.850	-130.239	-0.237	-0.032
-721.835	345.948	0.141	-0.279
-720.821	-56.606	0.094	0.042
-719.806	199.640	-0.161	0.249
-718.791	661.177	-0.104	-0.270
-717.777	800.000	-0.128	-0.460
-716.762	-200.000	0.009	0.097
-715.748	-200.000	0.108	-0.528
-714.733	-29.705	-0.275	-0.158
-713.718	220.892	0.124	-0.201
-712.704	800.000	-0.087	-0.252
-711.689	-51.622	0.275	-0.129
-710.675	-13.791	-0.221	-0.144
-709.660	166.533	-0.062	-0.088
-708.645	-50.403	0.128	0.061
-707.631	519.671	-0.084	-0.199
-706.616	22.736	0.205	-0.169
-705.602	313.170	-0.085	0.161
-704.587	-200.000	0.012	-0.301
-703.572	-171.674	-0.209	0.007
-702.558	89.987	-0.132	-0.148
-701.543	134.503	0.104	-0.136
-700.529	-50.765	-0.354	-0.167
-699.514	570.687	0.099	-0.241
-698.499	100.269	0.088	-0.102
-697.485	800.000	-0.150	0.576
-696.470	-35.668	0.202	0.110
-695.456	-48.143	0.043	-0.021
-694.441	-133.467	0.418	-0.053
-693.426	504.132	-0.060	0.140
-692.412	-32.777	-0.110	-0.061
-691.397	134.415	-0.014	0.018
-690.383	167.722	-0.160	0.229
-689.368	-120.864	-0.364	0.062
-688.354	-200.000	-0.005	0.163
-687.339	-140.532	0.277	0.029
-686.324	247.207	0.193	0.327
-685.310	-200.000	0.010	-0.191
-684.295	350.905	-0.180	-0.358
-683.281	-200.000	-0.066	-0.425
-682.266	-134.822	-0.175	0.021
-681.251	800.000	-0.083	0.238
-680.237	-79.984	0.268	-0.090
-679.222	-39.347	-0.187	0.098
-678.208	-57.435	0.055	-0.024
-677.193	-200.000	0.041	0.248
-676.178	129.867	-0.073	-0.093
-675.164	-36.400	-0.195	-0.105
-674.149	-59.758	0.101	-0.044
-673.135	-81.139	-0.523	0.174
-672.120	177.118	0.172	0.252
-671.105	-200.000	-0.005	0.062
-670.091	18.756	0.156	0.126
-669.076	-200.000	0.017	0.144
-668.062	-146.007	0.282	0.025
-667.047	251.036	0.056	-0.096
-666.032	-172.947	-0.341	0.011
-665.018	-128.568	-0.476	-0.068
-664.003	-103.701	0.332	-0.078
-662.989	-200.000	-0.009	0.063
-661.974	-38.594	0.199	0.105
-660.959	65.653	-0.228	0.232
-659.945	800.000	-0.082	-0.232
-658.930	-97.488	-0.199	0.052
-657.916	71.275	-0.194	-0.202
-656.901	-200.000	-0.005	0.216
-655.886	353.340	-0.149	-0.296
-654.872	-70.807	-0.170	-0.064
-653.857	-16.216	0.209	-0.133
-652.843	-127.807	-0.334	-0.048
-651.828	-29.444	-0.055	-0.031
-650.814	-48.778	0.144	-0.069
-649.799	101.450	0.137	0.159
-648.784	-200.000	-0.002	-0.131
-647.770	-48.975	0.161	0.077
-646.755	-74.392	0.119	0.043
-645.741	-6.573	0.104	-0.071
-644.726	-200.000	-0.008	-0.163
-643.711	252.284	-0.014	-0.025
-642.697	-32.357	0.051	0.028
-641.682	-163.001	0.332	-0.016
-640.668	-200.000	-0.064	-0.362
-639.653	-157.198	0.150	0.009
-638.638	-15.612	0.242	-0.155
-637.624	-200.000	0.034	-0.231
-636.609	49.634	0.069	0.065
-635.595	-28.543	0.065	0.038
-634.580	-22.657	0.223	0.135
-633.565	16.226	-0.105	-0.083
-632.551	-200.000	0.020	0.232
-631.536	106.029	-0.094	-0.111
-630.522	-138.980	-0.160	-0.017
-629.507	-148.695	-0.176	0.014
-628.492	281.539	0.095	0.170
-627.478	-200.000	-0.026	0.528
-626.463	-200.000	-0.074	0.326
-625.449	20.890	-0.069	-0.056
-624.434	-47.299	0.184	-0.090
-623.419	-15.947	-0.228	0.145
-622.405	0.924	-0.046	0.033
-621.390	202.705	0.152	0.235
-620.376	385.719	-0.203	0.419
-619.361	31.052	-0.172	0.148
-618.346	-200.000	-0.035	-0.334
-617.332	119.385	0.036	0.044
-616.317	251.003	0.111	-0.189
-615.303	123.085	0.175	0.220
-614.288	238.716	-0.188	-0.313
-613.273	-124.430	0.210	-0.033
-612.259	-200.000	0.004	0.028
-611.244	-53.205	-0.192	-0.088
-610.230	-12.197	-0.195	-0.128
-609.215	109.241	0.164	-0.196
-608.201	91.832	-0.238	-0.268
-607.186	-15.295	-0.118	0.075
-606.171	800.000	0.081	-0.333
-605.157	-200.000	0.024	0.127
-604.142	30.365	0.104	0.089
-603.128	-90.360	-0.380	-0.110
-602.113	216.639	-0.158	-0.251
-601.098	-75.338	-0.153	-0.055
-600.084	-200.000	0.001	0.036
-599.069	8.196	-0.200	0.150
-598.055	-200.000	0.018	-0.162
-597.040	176.373	-0.073	0.106
-596.025	479.020	0.075	-0.170
-595.011	800.000	-0.032	0.120
-593.996	-200.000	0.031	-0.225
-592.982	39.035	-0.159	-0.142
-591.967	-37.770	0.247	-0.131
-590.952	-161.084	-0.248	-0.013
-589.938	-86.994	0.106	-0.032
-588.923	126.675	0.156	0.197
-587.909	800.000	0.093	0.285
-586.894	-164.525	0.371	-0.017
-585.879	707.339	-0.049	0.129
-584.865	-10.027	0.275	0.183
-583.850	-200.000	-0.027	-0.424
-582.836	-124.293	-0.207	0.032
-581.821	800.000	0.028	0.097
-580.806	115.786	0.021	-0.026
-579.792	687.124	-0.097	0.254
-578.777	-71.725	0.108	0.040
-577.763	-127.632	0.132	0.019
-576.748	-8.750	-0.257	0.173
-575.733	3.585	0.055	-0.040
-574.719	480.668	-0.089	0.202
-573.704	15.755	-0.239	0.188
-572.690	-98.717	0.352	0.090
-571.675	137.667	-0.119	0.156
-570.661	664.736	-0.096	-0.249
-569.646	-200.000	0.015	-0.131
-568.631	800.000	-0.083	0.293
-567.617	-161.337	0.317	-0.016
-566.602	534.161	-0.046	-0.110
-565.588	800.000	-0.034	-0.144
-564.573	40.072	-0.284	0.255
-563.558	128.893	0.155	-0.198
-562.544	-101.750	0.303	0.073
-561.529	800.000	0.014	-0.041
-560.515	-200.000	-0.005	-0.253
-559.500	2.150	-0.141	-0.102
-558.485	800.000	0.114	-0.432
-557.471	16.209	0.104	-0.082
-556.456	-113.608	0.254	0.049
-555.442	20.766	0.207	0.168
-554.427	800.000	0.050	-0.174
-553.412	148.393	-0.245	0.330
-552.398	133.450	0.089	-0.115
-551.383	-200.000	0.062	-0.287
-550.369	-78.287	0.118	-0.040
-549.354	180.175	-0.188	0.275
-548.339	-200.000	-0.014	0.237
-547.325	-113.993	0.114	-0.022
-546.310	-200.000	0.002	0.155
-545.296	-200.000	-0.049	-0.283
-544.281	-26.003	-0.162	-0.095
-543.266	800.000	-0.064	-0.239
-542.252	-56.908	0.238	-0.105
-541.237	-133.221	-0.268	-0.034
-540.223	-200.000	0.130	-0.000
-539.208	800.000	-0.030	-0.087
-538.193	-56.381	-0.278	-0.123
-537.179	644.077	-0.110	-0.281
-536.164	46.909	-0.118	-0.109
-535.150	211.575	-0.214	0.336
-534.135	-200.000	-0.001	0.062
-533.121	800.000	-0.058	0.221
-532.106	41.327	0.176	0.159
-531.091	467.603	0.081	-0.182
-530.077	229.103	0.147	0.239
-529.062	-16.645	0.153	0.097
-528.048	-57.515	-0.298	0.130
-527.033	-12.036	0.267	-0.174
-526.018	229.976	0.140	0.227
-525.004	204.728	-0.122	-0.188
-523.989	597.631	-0.108	0.266
-522.975	800.000	0.150	-0.438
-521.960	-200.000	-0.040	-0.245
-520.945	-34.826	-0.198	-0.108
-519.931	-104.378	0.316	-0.073
-518.916	-71.898	-0.320	0.119
-517.902	74.045	0.180	-0.189
-516.887	727.807	-0.041	0.108
-515.872	677.550	-0.121	0.313
-514.858	-97.139	-0.241	0.063
-513.843	109.259	-0.033	0.039
-512.829	-146.648	-0.375	-0.032
-511.814	36.139	-0.195	-0.171
-510.799	92.994	0.234	-0.264
-509.785	-85.701	-0.193	-0.060
-508.770	-121.960	0.281	-0.046
-507.756	-166.063	0.369	0.016
-506.741	-200.000	-0.040	-0.376
-505.726	286.014	0.141	-0.253
-504.712	-200.000	0.040	-0.188
-503.697	186.835	-0.057	-0.085
-502.683	-135.005	0.292	-0.035
-501.668	172.011	0.180	-0.258
-500.653	-91.160	-0.074	-0.021
-499.639	-200.000	0.021	0.597
-498.624	30.872	-0.581	0.496
-497.610	-49.329	-0.121	-0.058
-496.595	-200.000	0.006	-0.100
-495.581	49.973	-0.070	-0.066
-494.566	673.748	0.104	-0.268
-493.551	34.560	-0.184	0.160
-492.537	-20.849	-0.244	-0.149
-491.522	-18.398	-0.094	-0.059
-490.508	-200.000	-0.018	0.355
-489.493	-92.231	-0.161	0.045
-488.478	-200.000	-0.006	-0.479
-487.464	-70.127	0.134	0.051
-486.449	-153.072	-0.454	-0.032
-485.435	-17.702	-0.115	0.072
-484.420	-200.000	-0.005	-0.292
-483.405	-200.000	-0.027	0.216
-482.391	63.700	-0.028	-0.028
-481.376	775.724	-0.038	0.104
-480.362	-149.277	-0.059	-0.005
-479.347	143.965	-0.135	0.179
-478.332	800.000	0.088	-0.354
-477.318	-200.000	0.021	-0.221
-476.303	-109.533	-0.165	0.035
-475.289	-100.621	0.115	-0.028
-474.274	800.000	-0.073	0.206
-473.259	35.962	0.089	-0.078
-472.245	-166.966	-0.217	0.009
-471.230	241.078	0.128	0.213
-470.216	-200.000	-0.070	0.331
-469.201	800.000	-0.014	0.051
-468.186	246.271	-0.074	-0.124
-467.172	-149.376	-0.215	-0.017
-466.157	525.687	0.030	-0.071
-465.143	-89.083	-0.336	0.099
-464.128	130.716	-0.079	-0.101
-463.113	16.739	0.276	0.217
-462.099	67.670	-0.162	0.165
-461.084	-2.246	-0.232	0.162
-460.070	-200.000	0.040	0.177
-459.055	-86.792	0.091	-0.028
-458.040	-200.000	-0.093	-0.427
-457.026	-102.689	0.212	-0.050
-456.011	-53.258	-0.395	0.180
-454.997	86.979	0.125	-0.138
-453.982	-200.000	0.052	-0.377
-452.968	797.372	0.034	-0.094
-451.953	0.485	-0.029	0.021
-450.938	134.374	0.101	0.130
-449.924	-133.120	0.365	0.046
-448.909	41.102	0.046	0.041
-447.895	-200.000	-0.005	0.328
-446.880	51.507	-0.163	-0.154
-445.865	-55.397	0.489	0.218
-444.851	93.457	-0.054	0.061
-443.836	-22.168	0.101	-0.061
-442.822	-35.324	0.091	-0.049
-441.807	800.000	-0.070	-0.207
-440.792	13.507	0.183	-0.141
-439.778	-72.911	0.243	-0.089
-438.763	-91.486	-0.067	0.019
-437.749	-200.000	-0.006	0.129
-436.734	-200.000	0.005	0.148
-435.719	800.000	0.104	0.404
-434.705	82.125	-0.177	0.191
-433.690	96.642	0.087	-0.099
-432.676	-69.650	-0.349	-0.133
-431.661	-106.560	-0.432	0.096
-430.646	-38.207	-0.130	-0.069
-429.632	-107.295	-0.236	0.052
-428.617	-200.000	0.019	0.266
-427.603	-60.022	0.111	-0.047
-426.588	387.654	-0.037	-0.076
-425.573	238.915	0.090	-0.149
-424.559	-53.576	-0.179	-0.081
-423.544	126.978	-0.176	0.221
-422.530	790.895	-0.093	0.253
-421.515	671.656	0.102	-0.263
-420.500	-200.000	-0.056	-0.395
-419.486	30.756	0.024	0.020
-418.471	-71.565	0.218	-0.081
-417.457	-200.000	0.012	-0.122
-416.442	401.250	0.183	0.382
-415.428	419.633	0.102	-0.218
-414.413	800.000	-0.006	-0.019
-413.398	578.073	0.139	0.339
-412.384	94.473	-0.127	0.143
-411.369	314.164	0.021	0.040
-410.355	18.388	0.219	0.173
-409.340	217.920	0.133	-0.210
-408.325	-48.681	0.210	0.100
-407.311	59.928	0.240	-0.235
-406.296	-127.516	-0.306	0.044
-405.282	27.780	0.086	0.072
-404.267	81.528	0.164	-0.176
-403.252	128.027	0.042	0.053
-402.238	-101.149	0.074	-0.018
-401.223	-52.003	-0.338	-0.156
-400.209	24.109	0.180	-0.148
-399.194	-200.000	-0.093	0.525
-398.179	718.176	0.145	-0.383
-397.165	-124.314	0.336	-0.052
-396.150	-200.000	-0.004	-0.294
-395.136	5.806	-0.314	0.230
-394.121	-200.000	0.051	-0.265
-393.106	-113.382	-0.143	-0.028
-392.092	375.966	0.088	-0.177
-391.077	-7.930	-0.115	-0.077
-390.063	32.661	-0.196	-0.168
-389.048	-79.473	0.198	0.066
-388.033	-200.000	0.024	-0.135
-387.019	-1.830	0.105	0.073
-386.004	650.870	-0.092	-0.233
-384.990	-172.842	-0.070	0.002
-383.975	-126.805	-0.213	-0.031
-382.960	800.000	0.043	0.124
-381.946	-73.262	0.225	-0.082
-380.931	-19.424	0.241	0.148
-379.917	-34.796	0.272	0.148
-378.902	-90.786	-0.108	0.031
-377.888	-144.504	-0.230	0.021
-376.873	259.336	-0.089	-0.152
-375.858	-200.000	0.011	-0.128
-374.844	800.000	0.035	0.125
-373.829	529.168	0.027	-0.063
-372.815	121.017	0.072	0.089
-371.800	-46.248	-0.338	-0.165
-370.785	-45.193	-0.285	0.140
-369.771	381.598	-0.089	-0.182
-368.756	-200.000	-0.232	-0.001
-367.742	-200.000	0.011	0.138
-366.727	194.136	-0.223	0.334
-365.712	12.077	0.114	0.087
-364.698	-102.559	0.086	0.020
-363.683	2.342	0.061	0.044
-362.669	800.000	-0.018	0.052
-361.654	-200.000	0.049	0.286
-360.639	-115.115	-0.181	0.034
-359.625	-200.000	0.012	0.559
-358.610	-75.049	0.106	-0.037
-357.596	119.484	-0.075	-0.092
-356.581	100.372	-0.173	0.199
-355.566	231.104	-0.179	0.290
-354.552	-54.645	-0.149	-0.067
-353.537	-82.796	0.237	0.076
-352.523	-200.000	-0.059	-0.560
-351.508	173.925	0.087	-0.124
-350.493	-38.656	0.175	0.092
-349.479	-200.000	0.030	-0.174
-348.464	682.257	0.115	0.296
-347.450	-200.000	-0.009	0.051
-346.435	-200.000	0.027	0.126
-345.420	800.000	-0.057	0.176
-344.406	800.000	0.027	-0.084
-343.391	-97.609	0.381	-0.098
-342.377	800.000	-0.052	0.164
-341.362	-93.906	0.285	0.078
-340.348	-200.000	-0.023	0.194
-339.333	138.506	-0.105	0.137
-338.318	-89.878	-0.152	0.044
-337.304	-81.909	0.336	0.109
-336.289	-67.879	-0.190	-0.074
-335.275	149.129	-0.133	-0.178
-334.260	60.803	-0.089	-0.087
-333.245	-67.846	-0.261	-0.101
-332.231	54.402	-0.306	0.292
-331.216	392.608	0.242	-0.498
-330.202	-83.477	0.121	0.038
-329.187	800.000	0.028	0.111
-328.172	109.362	-0.278	-0.330
-327.158	81.681	0.197	-0.211
-326.143	73.060	0.108	0.111
-325.129	-31.484	0.331	-0.184
-324.114	-128.634	-0.306	0.043
-323.099	747.078	-0.171	-0.457
-322.085	800.000	-0.057	-0.174
-321.070	51.689	-0.218	0.205
-320.056	-124.832	-0.155	-0.024
-319.041	-200.000	-0.009	-0.248
-318.026	-200.000	0.044	0.252
-317.012	-47.999	-0.120	-0.058
-315.997	-200.000	0.006	0.035
-314.983	-183.181	0.319	-0.006
-313.968	-92.539	0.121	0.034
-312.953	800.000	0.053	0.157
-311.939	13.473	0.150	0.115
-310.924	-135.508	-0.462	-0.054
-309.910	406.130	-0.078	0.162
-308.895	-200.000	-0.011	-0.096
-307.880	800.000	0.108	0.301
-306.866	-200.000	-0.034	0.185
-305.851	-31.436	0.287	-0.159
-304.837	-74.143	0.101	0.036
-303.822	800.000	0.033	0.099
-302.807	-200.000	0.009	0.224
-301.793	800.000	-0.083	0.269
-300.778	-117.154	0.310	0.056
-299.764	-69.578	0.150	-0.057
-298.749	-59.117	0.113	-0.048
-297.735	-105.917	-0.386	-0.086
-296.720	-98.441	-0.260	-0.066
-295.705	547.998	-0.065	-0.155
-294.691	321.022	0.022	0.041
-293.676	62.126	0.169	0.167
-292.662	-40.923	-0.133	0.068
-291.647	-71.823	0.123	-0.045
-290.632	800.000	0.068	-0.248
-289.618	-22.763	-0.124	0.074
-288.603	437.377	0.174	-0.375
-287.589	215.472	0.188	0.295
-286.574	-37.253	0.130	0.069
-285.559	94.468	0.358	0.402
-284.545	-200.000	0.035	0.241
-283.530	-200.000	-0.016	0.410
-282.516	684.963	-0.110	0.283
-281.501	-58.241	0.177	0.076
-280.486	174.956	0.213	0.304
-279.472	-129.172	0.106	-0.015
-278.457	-98.073	0.152	0.039
-277.443	69.093	-0.079	0.080
-276.428	-46.145	0.148	0.072
-275.413	-124.238	0.368	-0.057
-274.399	-12.759	-0.238	0.153
-273.384	800.000	0.047	-0.141
-272.370	11.819	-0.247	-0.188
-271.355	-200.000	0.039	0.167
-270.340	291.750	-0.219	-0.393
-269.326	-200.000	-0.011	0.123
-268.311	-200.000	-0.054	-0.266
-267.297	-145.989	-0.374	-0.033
-266.282	-98.870	-0.045	-0.011
-265.267	-27.073	0.206	0.119
-264.253	-200.000	-0.015	0.072
-263.238	-116.472	-0.218	0.040
-262.224	276.487	0.177	0.311
-261.209	189.807	-0.129	0.191
-260.195	-23.405	-0.166	0.098
-259.180	-200.000	0.053	0.277
-258.165	233.654	-0.092	0.150
-257.151	222.543	0.048	0.076
-256.136	352.221	-0.187	-0.365
-255.122	-85.839	0.294	0.090
-254.107	300.165	-0.139	0.252
-253.092	-84.970	0.199	0.062
-252.078	55.931	-0.185	-0.178
-251.063	191.212	-0.050	0.075
-250.049	-200.000	-0.029	-0.286
-249.034	-45.867	0.143	-0.070
-248.019	-162.855	0.214	0.010
-247.005	558.308	-0.075	0.178
-245.990	-66.540	-0.229	0.090
-244.976	399.817	-0.130	0.270
-243.961	-82.544	-0.242	-0.078
-242.946	-200.000	-0.003	-0.256
-241.932	-150.369	0.245	0.019
-240.917	-33.613	-0.148	0.081
-239.903	-110.818	-0.031	0.006
-238.888	178.214	-0.143	-0.206
-237.873	-21.513	0.281	-0.169
-236.859	44.699	0.097	0.088
-235.844	-200.000	-0.022	-0.448
-234.830	-36.104	-0.224	0.119
-233.815	14.203	-0.264	-0.203
-232.800	-200.000	0.041	-0.183
-231.786	800.000	-0.065	-0.178
-230.771	17.723	0.192	-0.150
-229.757	-200.000	-0.022	0.223
-228.742	28.413	-0.109	-0.091
-227.727	800.000	-0.162	-0.459
-226.713	-93.804	0.349	0.095
-225.698	20.588	-0.054	0.043
-224.684	219.637	0.142	0.224
-223.669	800.000	0.071	0.223
-222.655	-200.000	0.043	-0.213
-221.640	-77.277	0.054	-0.019
-220.625	548.895	0.105	-0.247
-219.611	-200.000	0.054	-0.335
-218.596	-174.329	-0.096	-0.003
-217.582	124.700	-0.391	0.485
-216.567	-200.000	0.007	0.295
-215.552	155.044	-0.194	0.263
-214.538	19.520	0.181	0.143
-213.523	-45.274	-0.296	-0.145
-212.509	237.049	-0.119	0.194
-211.494	800.000	0.095	-0.289
-210.479	55.381	-0.197	-0.188
-209.465	-22.601	0.095	-0.056
-208.450	277.191	0.209	-0.367
-207.436	66.413	0.189	-0.189
-206.421	-200.000	-0.022	0.102
-205.406	479.978	0.026	0.059
-204.392	-54.899	-0.442	-0.196
-203.377	30.884	-0.114	0.096
-202.363	-69.217	0.242	-0.091
-201.348	-177.837	0.285	0.007
-200.333	156.265	0.275	-0.374
-199.319	-200.000	-0.018	0.127
-198.304	173.528	-0.157	0.224
-197.290	4.850	-0.186	0.135
-196.275	800.000	-0.038	0.159
-195.260	187.360	0.143	-0.210
-194.246	121.526	0.129	0.159
-193.231	800.000	0.099	0.377
-192.217	-58.428	0.212	0.091
-191.202	-98.102	0.130	0.033
-190.187	-89.003	0.243	-0.071
-189.173	10.352	-0.153	-0.115
-188.158	223.225	0.119	-0.189
-187.144	36.525	-0.028	-0.024
-186.129	-52.187	0.387	-0.177
-185.114	155.136	0.176	0.238
-184.100	-200.000	0.003	-0.200
-183.085	-70.067	-0.166	-0.062
-182.071	-200.000	-0.038	-0.280
-181.056	55.744	0.172	-0.164
-180.042	-42.268	0.182	0.092
-179.027	-200.000	-0.001	0.060
-178.012	-200.000	-0.001	0.201
-176.998	800.000	0.130	0.357
-175.983	-91.417	0.264	0.074
-174.969	-43.984	0.096	-0.047
-173.954	800.000	0.059	0.250
-172.939	-49.309	0.265	0.124
-171.925	-45.308	-0.242	0.118
-170.910	-5.324	-0.240	-0.162
-169.896	488.060	-0.093	0.208
-168.881	-101.258	-0.087	-0.021
-167.866	-200.000	0.320	-0.001
-166.852	151.951	-0.123	0.165
-165.837	-74.752	0.236	-0.083
-164.823	-49.929	-0.296	-0.138
-163.808	-200.000	0.013	0.062
-162.793	-78.139	-0.184	0.062
-161.779	-21.778	-0.141	0.085
-160.764	26.958	0.362	-0.298
-159.750	58.287	0.117	-0.112
-158.735	60.758	-0.173	-0.169
-157.720	235.543	-0.059	0.095
-156.706	800.000	0.046	-0.137
-155.691	-200.000	-0.089	-0.552
-154.677	-54.032	0.148	0.066
-153.662	-101.292	-0.196	-0.047
-152.647	227.700	-0.079	-0.127
-151.633	63.943	0.206	-0.203
-150.618	-200.000	-0.036	-0.187
-149.604	-35.682	-0.261	0.139
-148.589	-41.982	0.348	0.175
-147.574	-163.433	0.110	0.005
-146.560	118.966	-0.184	-0.224
-145.545	-155.247	-0.344	-0.022
-144.531	-66.226	0.188	-0.074
-143.516	8.648	-0.180	0.133
-142.502	-72.003	-0.350	0.128
-141.487	-42.734	-0.159	-0.079
-140.472	-15.537	0.142	0.089
-139.458	-200.000	-0.005	0.030
-138.443	56.840	-0.064	-0.061
-137.429	33.071	0.176	0.150
-136.414	-86.275	-0.198	-0.060
-135.399	800.000	-0.081	0.278
-134.385	613.727	0.077	0.188
-133.370	-147.559	0.080	0.007
-132.356	248.903	0.046	-0.077
-131.341	-28.285	-0.342	-0.194
-130.326	-200.000	0.012	0.143
-129.312	503.465	0.103	-0.235
-128.297	204.812	0.056	-0.085
-127.283	-61.658	0.555	0.228
-126.268	173.376	-0.044	-0.062
-125.253	-175.882	0.286	-0.007
-124.239	23.421	0.222	0.179
-123.224	-200.000	0.004	0.019
-122.210	41.996	0.111	-0.099
-121.195	800.000	-0.058	-0.234
