DTS Sentinel unit serial number:	SN413079Multiplexer serial number:	ORYXHardware model number:	OX4-SRSoftware version number:	ORYX F/W v4.00 Oryx Data Collector v3.7.2.0data status	okinstallation	princeton_trtdifferential loss correction	single-endedforward channel	channel 1reverse channel	N/Adate	2019/09/14time	09:42:35forward acquisition time	60.00reverse acquisition time	0.00gamma	496.2192k internal	0.2318k external	0.2318temperature offset calibration	1.0066default loss term (dB/km)	0.3790temperature slope calibration	1.0000multiplexer offset coefficient	1.0000multiplexer slope coefficient	1.0000fibre end	0.00T internal ref (°C)	32.06T ext. ref 1 (°C)	3.91T ext. ref 2 (°C)	30.33length (m)	temperature (°C)	Stokes	anti-Stokes-747.200	-29.477	0.244	0.141
-746.185	-200.000	-0.034	0.210
-745.171	800.000	0.026	0.074
-744.156	-154.341	-0.033	0.002
-743.142	-200.000	0.025	0.176
-742.127	-17.224	0.083	-0.053
-741.112	42.067	0.355	0.326
-740.098	-200.000	-0.038	0.521
-739.083	154.146	0.216	0.300
-738.069	-59.416	-0.228	0.099
-737.054	800.000	-0.009	0.038
-736.039	161.073	-0.077	-0.108
-735.025	-45.646	0.161	-0.081
-734.010	-200.000	0.000	-0.229
-732.996	192.088	-0.120	0.183
-731.981	2.529	0.348	-0.255
-730.966	595.943	0.135	-0.337
-729.952	-93.833	-0.242	-0.067
-728.937	254.922	-0.067	-0.116
-727.923	-55.746	0.028	-0.013
-726.908	476.471	-0.086	0.197
-725.894	800.000	0.069	-0.283
-724.879	448.056	0.074	-0.164
-723.864	-105.257	0.180	0.042
-722.850	28.129	-0.078	0.067
-721.835	613.986	0.146	-0.370
-720.821	-200.000	-0.011	0.118
-719.806	-193.492	0.220	-0.002
-718.791	800.000	0.094	-0.308
-717.777	-123.296	-0.209	-0.034
-716.762	-200.000	-0.024	0.159
-715.748	24.350	0.083	0.069
-714.733	198.018	-0.096	0.149
-713.718	800.000	-0.104	0.361
-712.704	-65.339	0.111	0.045
-711.689	-200.000	-0.008	0.153
-710.675	103.413	0.328	0.389
-709.660	72.776	-0.019	0.020
-708.645	728.436	0.069	-0.186
-707.631	-200.000	-0.005	0.072
-706.616	-33.740	0.191	-0.106
-705.602	-200.000	-0.039	-0.281
-704.587	-80.838	0.099	-0.033
-703.572	408.674	-0.087	-0.186
-702.558	136.528	-0.124	0.164
-701.543	-74.643	0.121	0.044
-700.529	17.007	-0.218	-0.174
-699.514	-200.000	-0.020	-0.164
-698.499	-107.755	0.248	-0.055
-697.485	-200.000	0.004	-0.315
-696.470	323.120	0.100	0.193
-695.456	-200.000	-0.018	-0.172
-694.441	-37.328	0.349	-0.189
-693.426	-174.911	0.136	-0.004
-692.412	-49.796	-0.098	-0.047
-691.397	264.298	-0.142	0.249
-690.383	-200.000	0.025	0.372
-689.368	-200.000	-0.011	0.283
-688.354	-4.857	-0.044	0.031
-687.339	67.464	0.014	-0.014
-686.324	-132.816	0.242	-0.031
-685.310	-200.000	0.024	-0.191
-684.295	-21.464	-0.071	-0.043
-683.281	-200.000	-0.014	0.280
-682.266	-63.199	0.187	-0.078
-681.251	348.110	0.112	-0.223
-680.237	-105.889	0.215	0.049
-679.222	9.208	-0.109	0.083
-678.208	203.117	-0.176	-0.274
-677.193	123.474	0.085	-0.107
-676.178	-200.000	-0.020	0.229
-675.164	461.794	0.077	0.172
-674.149	155.658	0.134	-0.186
-673.135	-110.100	-0.248	-0.052
-672.120	-200.000	-0.010	0.193
-671.105	-200.000	0.009	-0.066
-670.091	217.916	-0.132	-0.213
-669.076	-47.594	0.157	-0.077
-668.062	-118.411	-0.322	-0.058
-667.047	-200.000	-0.022	-0.151
-666.032	331.599	-0.196	-0.382
-665.018	164.640	-0.156	-0.222
-664.003	-1.737	0.234	-0.166
-662.989	-176.276	0.034	-0.001
-661.974	-200.000	-0.041	-0.380
-660.959	800.000	0.117	-0.425
-659.945	-200.000	0.000	0.099
-658.930	260.131	0.160	0.279
-657.916	483.860	-0.067	-0.155
-656.901	-39.586	-0.140	0.074
-655.886	262.679	0.181	0.317
-654.872	-58.804	-0.259	-0.113
-653.857	-138.842	-0.067	-0.007
-652.843	243.629	0.171	-0.289
-651.828	123.980	0.093	-0.118
-650.814	-115.507	-0.235	0.045
-649.799	78.496	0.177	-0.190
-648.784	176.863	0.247	-0.363
-647.770	58.834	-0.143	-0.141
-646.755	34.694	0.224	-0.198
-645.741	-200.000	-0.049	-0.362
-644.726	800.000	0.078	-0.223
-643.711	-184.784	0.204	0.003
-642.697	-200.000	0.003	-0.023
-641.682	-76.685	0.451	0.159
-640.668	35.179	0.166	0.146
-639.653	206.777	-0.161	-0.253
-638.638	275.822	0.096	0.172
-637.624	-88.984	0.087	0.026
-636.609	166.483	0.021	-0.030
-635.595	-112.445	-0.189	0.038
-634.580	800.000	0.074	-0.290
-633.565	380.035	0.024	-0.050
-632.551	211.241	0.069	0.110
-631.536	345.365	-0.181	-0.359
-630.522	312.568	-0.139	0.263
-629.507	-107.923	-0.379	-0.083
-628.492	-126.131	-0.124	-0.019
-627.478	42.991	-0.231	0.212
-626.463	-200.000	0.004	0.149
-625.449	48.048	0.111	0.104
-624.434	217.188	0.079	-0.126
-623.419	-83.222	-0.375	-0.121
-622.405	-200.000	0.001	-0.084
-621.390	64.610	0.155	-0.157
-620.376	108.034	-0.149	0.179
-619.361	-133.930	0.146	-0.018
-618.346	400.739	-0.087	0.183
-617.332	-200.000	-0.007	0.147
-616.317	-40.644	0.243	-0.127
-615.303	407.644	0.080	-0.171
-614.288	-74.428	-0.119	-0.043
-613.273	-178.918	0.169	-0.004
-612.259	800.000	-0.074	0.249
-611.244	-21.312	-0.235	0.144
-610.230	-154.868	-0.342	-0.023
-609.215	-113.345	-0.155	-0.031
-608.201	800.000	0.128	-0.390
-607.186	276.057	-0.088	0.157
-606.171	-200.000	-0.004	0.032
-605.157	428.811	-0.189	-0.411
-604.142	-132.273	0.076	-0.010
-603.128	220.678	0.139	0.224
-602.113	483.180	0.083	0.191
-601.098	-200.000	-0.012	0.252
-600.084	-109.996	-0.062	0.013
-599.069	674.224	-0.161	-0.420
-598.055	-78.127	0.188	0.065
-597.040	-200.000	0.041	-0.360
-596.025	-13.569	-0.067	-0.044
-595.011	-200.000	-0.003	0.023
-593.996	-109.288	0.151	0.032
-592.982	-17.005	0.281	-0.179
-591.967	24.258	0.118	0.098
-590.952	677.084	-0.110	0.288
-589.938	-75.396	-0.122	0.044
-588.923	336.363	0.001	-0.001
-587.909	-88.648	-0.099	-0.030
-586.894	-200.000	-0.018	-0.256
-585.879	-61.545	-0.260	-0.110
-584.865	800.000	0.042	0.138
-583.850	800.000	-0.081	-0.264
-582.836	152.581	-0.266	0.366
-581.821	-75.776	-0.140	0.050
-580.806	-200.000	-0.034	-0.334
-579.792	523.334	0.035	0.084
-578.777	26.326	0.083	-0.070
-577.763	-41.289	-0.122	0.063
-576.748	800.000	-0.047	-0.191
-575.733	-107.323	-0.160	0.035
-574.719	-116.188	0.270	0.050
-573.704	100.287	-0.081	0.095
-572.690	127.186	0.225	0.287
-571.675	-103.438	0.209	-0.050
-570.661	47.962	-0.101	0.095
-569.646	-200.000	0.002	0.024
-568.631	-103.584	0.280	0.066
-567.617	111.326	-0.139	0.168
-566.602	132.887	0.140	-0.182
-565.588	-200.000	-0.000	-0.239
-564.573	126.388	0.082	0.105
-563.558	-171.795	-0.180	0.006
-562.544	-83.953	-0.242	-0.077
-561.529	25.068	0.052	-0.043
-560.515	-19.399	0.153	-0.096
-559.500	367.447	-0.061	-0.124
-558.485	695.153	-0.035	-0.093
-557.471	-134.340	0.225	0.028
-556.456	-91.532	-0.097	0.028
-555.442	23.064	0.271	0.223
-554.427	-38.996	0.232	-0.123
-553.412	-200.000	0.274	-0.001
-552.398	-60.824	-0.314	0.134
-551.383	14.052	-0.163	0.128
-550.369	415.699	-0.005	0.012
-549.354	449.152	0.175	0.388
-548.339	800.000	0.040	0.159
-547.325	-94.035	-0.150	-0.041
-546.310	57.498	0.266	-0.261
-545.296	-54.794	-0.145	0.066
-544.281	161.538	0.049	0.069
-543.266	54.944	0.260	0.252
-542.252	587.183	-0.155	-0.384
-541.237	16.203	-0.117	-0.093
-540.223	-82.026	-0.155	-0.051
-539.208	334.030	0.110	0.213
-538.193	-49.274	-0.211	0.101
-537.179	-111.321	-0.193	0.039
-536.164	49.334	-0.329	0.310
-535.150	-10.163	0.158	0.105
-534.135	-200.000	-0.065	0.415
-533.121	115.206	0.236	0.289
-532.106	44.477	0.173	-0.159
-531.091	-115.678	-0.207	0.039
-530.077	-61.456	-0.137	0.058
-529.062	542.443	-0.019	-0.046
-528.048	623.304	-0.083	0.211
-527.033	-200.000	0.024	-0.220
-526.018	-55.433	0.174	-0.078
-525.004	-25.435	-0.199	0.118
-523.989	800.000	0.041	0.147
-522.975	-1.189	-0.224	0.159
-521.960	800.000	0.041	-0.154
-520.945	-180.310	-0.148	-0.003
-519.931	82.992	-0.157	-0.171
-518.916	-102.889	0.118	0.028
-517.902	800.000	-0.026	0.112
-516.887	-200.000	0.012	0.085
-515.872	56.210	-0.061	-0.059
-514.858	200.466	-0.061	-0.094
-513.843	231.849	0.149	0.246
-512.829	352.908	-0.082	0.164
-511.814	800.000	-0.024	0.090
-510.799	-16.409	-0.061	0.039
-509.785	-190.304	0.230	0.003
-508.770	317.404	0.216	-0.409
-507.756	33.821	-0.102	-0.089
-506.741	-200.000	0.030	0.187
-505.726	86.525	-0.318	0.351
-504.712	-89.910	-0.397	-0.116
-503.697	52.241	0.157	0.150
-502.683	-71.253	0.085	-0.032
-501.668	-91.669	-0.377	0.108
-500.653	-200.000	-0.008	0.111
-499.639	419.505	0.132	-0.283
-498.624	800.000	-0.107	0.327
-497.610	-115.523	0.153	-0.029
-496.595	138.029	-0.273	-0.358
-495.581	-200.000	-0.018	-0.168
-494.566	-105.982	-0.232	-0.052
-493.551	138.090	-0.236	-0.310
-492.537	44.786	-0.217	-0.200
-491.522	40.914	-0.105	-0.095
-490.508	-75.252	-0.363	0.130
-489.493	-200.000	0.040	0.210
-488.478	82.176	0.101	0.110
-487.464	418.283	0.123	-0.263
-486.449	-3.829	0.188	-0.131
-485.435	-200.000	0.069	0.400
-484.420	147.829	-0.072	-0.097
-483.405	-35.673	-0.205	-0.111
-482.391	-79.548	0.097	-0.033
-481.376	-200.000	0.021	0.172
-480.362	-20.019	0.067	-0.041
-479.347	-154.328	0.271	-0.018
-478.332	789.365	0.025	-0.069
-477.318	-43.670	0.169	-0.085
-476.303	-99.031	0.264	-0.067
-475.289	-130.016	0.156	-0.021
-474.274	117.999	-0.219	-0.271
-473.259	-179.549	-0.218	0.005
-472.245	459.001	-0.109	0.242
-471.230	-173.586	-0.227	-0.007
-470.216	-3.118	0.301	0.210
-469.201	-166.410	0.043	0.002
-468.186	385.954	0.073	0.152
-467.172	-55.924	0.203	-0.091
-466.157	-55.576	-0.181	0.081
-465.143	417.933	-0.080	-0.171
-464.128	-34.391	0.197	-0.108
-463.113	-200.000	-0.043	-0.246
-462.099	5.390	0.177	-0.131
-461.084	-29.897	-0.209	-0.119
-460.070	221.189	-0.138	-0.221
-459.055	-16.476	-0.236	-0.150
-458.040	69.154	-0.123	0.126
-457.026	36.962	-0.348	-0.308
-456.011	234.947	-0.152	-0.251
-454.997	7.404	-0.072	0.054
-453.982	-57.870	-0.196	-0.086
-452.968	-3.325	-0.245	0.171
-451.953	-200.000	-0.014	0.288
-450.938	800.000	0.049	0.183
-449.924	267.372	-0.203	0.355
-448.909	-112.925	0.220	0.044
-447.895	-200.000	-0.011	0.133
-446.880	-200.000	0.024	-0.213
-445.865	125.672	-0.190	0.239
-444.851	17.264	-0.054	-0.043
-443.836	-134.362	-0.085	-0.010
-442.822	-200.000	-0.045	-0.228
-441.807	-177.168	0.167	-0.004
-440.792	314.443	-0.126	-0.238
-439.778	12.587	-0.080	-0.062
-438.763	92.032	0.228	0.256
-437.749	-200.000	-0.000	0.233
-436.734	-88.764	-0.247	-0.073
-435.719	800.000	0.162	-0.580
-434.705	-136.017	-0.335	0.039
-433.690	471.101	-0.092	-0.208
-432.676	506.827	0.042	-0.097
-431.661	-151.458	0.344	0.026
-430.646	-200.000	0.028	0.212
-429.632	-58.704	0.105	-0.045
-428.617	164.885	0.143	0.202
-427.603	-63.000	0.324	0.134
-426.588	-200.000	0.017	-0.081
-425.573	72.088	0.296	0.308
-424.559	551.699	-0.097	0.232
-423.544	-161.240	0.074	0.004
-422.530	278.279	-0.040	0.071
-421.515	-48.288	0.141	-0.068
-420.500	-12.286	-0.133	-0.087
-419.486	-17.689	-0.155	-0.097
-418.471	-109.444	-0.230	0.049
-417.457	-200.000	0.050	0.346
-416.442	-49.724	0.351	-0.167
-415.428	45.740	0.107	0.099
-414.413	-83.767	-0.333	-0.106
-413.398	-66.644	-0.183	0.073
-412.384	800.000	0.068	0.279
-411.369	-200.000	-0.062	0.361
-410.355	88.661	-0.093	-0.103
-409.340	-200.000	0.021	-0.134
-408.325	-200.000	-0.004	0.124
-407.311	108.555	0.178	-0.212
-406.296	-71.525	0.315	0.118
-405.282	111.876	0.183	-0.220
-404.267	800.000	-0.081	0.242
-403.252	91.608	-0.067	0.075
-402.238	3.259	-0.176	0.128
-401.223	-113.215	0.245	0.048
-400.209	-141.451	-0.222	0.022
-399.194	800.000	0.031	-0.093
-398.179	-166.461	-0.267	0.011
-397.165	-200.000	-0.038	-0.227
-396.150	-23.471	0.297	-0.178
-395.136	125.721	0.105	0.132
-394.121	-200.000	-0.011	-0.243
-393.106	63.742	0.152	0.153
-392.092	-3.361	0.137	0.095
-391.077	-200.000	0.042	0.391
-390.063	800.000	0.110	0.342
-389.048	49.449	0.213	-0.200
-388.033	-151.216	-0.272	0.020
-387.019	-39.342	0.203	0.106
-386.004	-61.969	0.312	-0.130
-384.990	76.964	0.146	0.155
-383.975	293.498	-0.181	0.330
-382.960	-58.048	-0.102	-0.045
-381.946	-168.640	-0.066	-0.003
-380.931	295.904	0.017	0.032
-379.917	82.764	0.129	0.140
-378.902	-38.205	-0.113	0.060
-377.888	104.412	0.192	0.225
-376.873	-142.956	-0.150	0.015
-375.858	-200.000	0.012	0.219
-374.844	-200.000	0.051	-0.417
-373.829	-104.900	-0.229	-0.052
-372.815	30.513	-0.029	-0.025
-371.800	333.925	-0.174	-0.336
-370.785	207.153	-0.107	-0.167
-369.771	-110.139	-0.163	-0.034
-368.756	-36.715	0.302	0.162
-367.742	800.000	-0.022	0.087
-366.727	-10.591	0.401	0.265
-365.712	-159.875	-0.287	-0.016
-364.698	157.683	-0.097	0.133
-363.683	800.000	0.085	0.340
-362.669	-103.911	-0.408	0.095
-361.654	-200.000	0.029	-0.281
-360.639	-200.000	-0.048	-0.453
-359.625	288.596	0.139	0.252
-358.610	-27.066	0.106	0.062
-357.596	94.053	0.067	0.076
-356.581	-200.000	-0.020	0.161
-355.566	-64.849	0.119	-0.048
-354.552	32.334	0.162	0.139
-353.537	-151.828	-0.067	0.005
-352.523	800.000	-0.059	-0.238
-351.508	-91.167	0.153	0.044
-350.493	-65.327	0.234	-0.094
-349.479	-181.250	0.338	-0.007
-348.464	-28.411	0.229	0.132
-347.450	800.000	-0.036	0.099
-346.435	-114.729	-0.296	-0.056
-345.420	-200.000	-0.040	-0.197
-344.406	-200.000	-0.019	-0.229
-343.391	293.898	0.207	-0.377
-342.377	-200.000	0.016	-0.321
-341.362	-93.431	-0.219	0.061
-340.348	326.936	-0.170	0.325
-339.333	-200.000	0.075	0.397
-338.318	-87.866	-0.329	0.099
-337.304	-69.127	0.213	0.082
-336.289	202.406	-0.058	-0.089
-335.275	362.678	0.035	0.071
-334.260	1.680	-0.158	0.113
-333.245	-128.209	-0.176	-0.025
-332.231	-200.000	0.009	0.321
-331.216	0.239	0.167	0.119
-330.202	7.298	0.199	-0.148
-329.187	60.546	-0.211	0.208
-328.172	-5.371	-0.078	0.053
-327.158	95.960	-0.036	0.041
-326.143	23.217	0.249	-0.204
-325.129	53.719	0.272	-0.260
-324.114	800.000	0.095	-0.361
-323.099	603.771	0.111	-0.276
-322.085	646.803	-0.097	-0.247
-321.070	-141.472	0.200	-0.020
-320.056	200.873	-0.072	0.110
-319.041	-200.000	-0.017	0.314
-318.026	217.633	0.203	0.322
-317.012	339.957	0.064	-0.124
-315.997	-46.857	-0.202	-0.098
-314.983	162.120	0.116	0.162
-313.968	-59.212	0.129	-0.056
-312.953	-162.179	0.235	-0.012
-311.939	-157.074	-0.201	-0.012
-310.924	-68.323	-0.182	-0.070
-309.910	-66.810	-0.148	0.058
-308.895	-200.000	0.035	0.262
-307.880	-145.144	-0.181	0.016
-306.866	-119.949	0.489	-0.084
-305.851	-75.646	-0.155	-0.055
-304.837	114.529	-0.092	0.112
-303.822	173.786	-0.241	-0.346
-302.807	-62.005	-0.164	-0.068
-301.793	65.097	0.141	0.142
-300.778	-200.000	-0.018	0.158
-299.764	-200.000	-0.006	-0.319
-298.749	-200.000	-0.001	0.206
-297.735	13.370	-0.256	-0.197
-296.720	-72.815	0.048	0.018
-295.705	-200.000	-0.006	-0.105
-294.691	106.107	-0.153	-0.180
-293.676	-108.304	0.118	-0.025
-292.662	159.324	-0.028	0.039
-291.647	185.118	-0.270	-0.398
-290.632	21.670	0.553	0.448
-289.618	336.051	-0.119	0.231
-288.603	793.999	0.106	-0.291
-287.589	-139.967	0.088	0.009
-286.574	-106.526	0.390	0.086
-285.559	-200.000	-0.050	0.253
-284.545	91.918	0.074	-0.083
-283.530	-19.645	-0.132	0.081
-282.516	322.339	-0.129	-0.244
-281.501	45.555	-0.205	-0.188
-280.486	-49.999	0.304	-0.143
-279.472	163.876	-0.048	0.068
-278.457	-22.922	-0.095	-0.057
-277.443	-94.747	-0.258	0.069
-276.428	127.631	-0.167	-0.211
-275.413	-110.769	0.397	0.081
-274.399	-200.000	0.021	-0.220
-273.384	-200.000	-0.000	0.212
-272.370	-125.593	0.101	0.015
-271.355	-60.684	-0.279	-0.118
-270.340	-108.607	-0.167	-0.036
-269.326	0.110	-0.207	-0.147
-268.311	-47.359	-0.146	-0.071
-267.297	48.334	0.151	-0.140
-266.282	-200.000	0.005	0.079
-265.267	-116.458	0.308	-0.057
-264.253	-135.532	-0.269	0.032
-263.238	-200.000	-0.039	0.173
-262.224	81.750	0.110	0.118
-261.209	31.678	-0.193	-0.165
-260.195	-77.328	-0.227	0.078
-259.180	-200.000	0.030	-0.170
-258.165	35.508	0.162	-0.141
-257.151	800.000	-0.137	-0.383
-256.136	-39.877	0.151	0.078
-255.122	-200.000	-0.056	0.307
-254.107	31.202	0.092	-0.078
-253.092	202.837	0.111	-0.170
-252.078	-144.922	0.155	0.014
-251.063	-75.842	-0.346	-0.122
-250.049	178.329	-0.077	0.111
-249.034	-6.537	-0.078	0.053
-248.019	-36.284	-0.230	-0.123
-247.005	769.069	0.110	-0.296
-245.990	-157.001	0.340	-0.021
-244.976	-143.018	-0.424	0.041
-243.961	-103.528	0.251	-0.058
-242.946	66.719	0.162	-0.164
-241.932	-200.000	-0.001	-0.194
-240.917	491.070	-0.049	0.112
-239.903	282.969	-0.177	0.316
-238.888	74.426	0.124	-0.129
-237.873	98.169	0.217	-0.248
-236.859	-11.847	0.048	-0.031
-235.844	-94.592	0.160	-0.043
-234.830	-82.170	0.105	0.034
-233.815	127.520	-0.221	-0.278
-232.800	391.573	-0.179	-0.369
-231.786	228.201	0.110	0.178
-230.771	364.667	0.097	-0.194
-229.757	6.065	0.169	-0.124
-228.742	6.272	-0.182	0.134
-227.727	-200.000	-0.023	0.251
-226.713	-48.562	-0.116	-0.056
-225.698	67.506	-0.111	-0.112
-224.684	-22.859	0.295	0.177
-223.669	663.569	0.028	0.073
-222.655	-99.360	0.081	0.020
-221.640	28.073	-0.110	0.092
-220.625	271.632	0.066	0.115
-219.611	-194.668	-0.230	0.002
-218.596	186.024	0.030	-0.044
-217.582	800.000	-0.071	0.276
-216.567	1.971	-0.148	0.106
-215.552	800.000	0.133	-0.391
-214.538	-107.784	0.262	0.057
-213.523	-20.791	-0.411	0.250
-212.509	800.000	-0.076	-0.226
-211.494	114.722	0.042	0.051
-210.479	135.046	-0.192	0.248
-209.465	158.132	-0.090	-0.124
-208.450	184.243	-0.165	0.242
-207.436	-81.498	-0.107	-0.035
-206.421	-135.048	0.253	-0.030
-205.406	-52.192	0.104	-0.048
-204.392	-187.042	0.196	0.003
-203.377	-200.000	0.015	0.214
-202.363	36.140	0.231	0.202
-201.348	-200.000	-0.020	0.256
-200.333	658.338	0.044	0.112
-199.319	69.076	-0.110	0.112
-198.304	-200.000	-0.010	0.409
-197.290	-129.223	-0.076	-0.011
-196.275	68.686	0.312	-0.317
-195.260	-200.000	-0.071	-0.312
-194.246	57.043	-0.139	-0.134
-193.231	193.052	0.252	0.378
-192.217	-20.367	-0.382	0.233
-191.202	-200.000	-0.015	0.278
-190.187	-136.409	-0.091	-0.011
-189.173	27.739	0.055	-0.046
-188.158	-71.685	0.251	-0.093
-187.144	46.082	0.234	-0.214
-186.129	-200.000	0.025	0.185
-185.114	-200.000	-0.072	-0.353
-184.100	166.769	0.121	-0.171
-183.085	800.000	0.064	-0.256
-182.071	311.037	0.231	-0.429
-181.056	283.202	0.078	0.139
-180.042	131.791	-0.018	0.023
-179.027	81.462	0.115	-0.123
-178.012	-4.760	0.358	0.244
-176.998	140.637	-0.195	0.255
-175.983	-130.074	-0.150	-0.020
-174.969	-105.248	0.183	0.041
-173.954	186.990	0.130	-0.192
-172.939	-44.660	-0.192	-0.095
-171.925	-200.000	0.005	0.041
-170.910	592.370	0.104	0.253
-169.896	-133.226	0.207	0.026
-168.881	109.181	-0.223	-0.265
-167.866	-117.956	-0.065	-0.012
-166.852	-143.418	0.501	0.047
-165.837	367.224	0.146	-0.292
-164.823	-200.000	0.004	-0.297
-163.808	347.162	0.072	-0.141
-162.793	-60.627	0.101	0.042
-161.779	-67.026	0.188	0.073
-160.764	-6.703	-0.017	0.012
-159.750	-39.639	0.189	0.098
-158.735	-0.244	0.172	0.121
-157.720	-24.922	-0.365	0.214
-156.706	122.309	-0.304	0.376
-155.691	-200.000	-0.003	-0.152
-154.677	-200.000	-0.009	-0.093
-153.662	-200.000	-0.036	0.170
-152.647	-18.138	0.161	0.100
-151.633	-200.000	-0.047	0.228
-150.618	68.291	0.244	0.247
-149.604	-200.000	0.003	0.099
-148.589	-174.897	0.294	-0.008
-147.574	252.336	-0.148	0.249
-146.560	-115.009	0.322	-0.061
-145.545	101.594	-0.161	-0.185
-144.531	118.615	-0.048	0.059
-143.516	114.619	-0.014	-0.017
-142.502	-33.164	-0.117	0.064
-141.487	159.005	0.281	-0.385
-140.472	-200.000	0.064	0.406
-139.458	-153.428	-0.363	-0.025
-138.443	-200.000	0.050	0.502
-137.429	-200.000	-0.024	-0.326
-136.414	52.130	0.091	0.086
-135.399	800.000	0.032	-0.116
-134.385	-200.000	0.003	-0.125
-133.370	-74.473	0.175	0.062
-132.356	-65.612	0.185	-0.073
-131.341	-200.000	0.007	0.038
-130.326	72.354	0.112	0.116
-129.312	-101.056	0.473	-0.115
-128.297	173.603	-0.230	-0.327
-127.283	800.000	0.073	0.252
-126.268	88.464	0.092	-0.101
-125.253	-58.786	-0.100	0.043
-124.239	6.916	0.350	-0.258
-123.224	800.000	0.071	0.291
-122.210	-55.073	0.185	0.082
