DTS Sentinel unit serial number:	SN413079Multiplexer serial number:	ORYXHardware model number:	OX4-SRSoftware version number:	ORYX F/W v4.00 Oryx Data Collector v3.7.2.0data status	okinstallation	princeton_trtdifferential loss correction	single-endedforward channel	channel 1reverse channel	N/Adate	2019/09/17time	03:54:35forward acquisition time	60.00reverse acquisition time	0.00gamma	496.2192k internal	0.2323k external	0.2323temperature offset calibration	0.9959default loss term (dB/km)	0.3790temperature slope calibration	1.0000multiplexer offset coefficient	1.0000multiplexer slope coefficient	1.0000fibre end	0.00T internal ref (°C)	29.94T ext. ref 1 (°C)	0.13T ext. ref 2 (°C)	24.42length (m)	temperature (°C)	Stokes	anti-Stokes-747.200	-200.000	0.037	-0.296
-746.185	44.883	0.113	-0.105
-745.171	-200.000	-0.010	0.070
-744.156	-200.000	0.006	0.492
-743.142	-200.000	0.010	0.055
-742.127	161.877	0.144	0.204
-741.112	211.170	-0.086	-0.136
-740.098	-33.231	0.280	0.157
-739.083	83.863	0.246	0.272
-738.069	-200.000	-0.021	0.109
-737.054	800.000	0.031	-0.128
-736.039	1.073	-0.230	-0.167
-735.025	-184.313	-0.104	-0.002
-734.010	-13.936	-0.232	0.151
-732.996	57.132	0.051	0.051
-731.981	-60.576	0.137	-0.059
-730.966	133.742	0.149	-0.195
-729.952	-71.984	-0.056	0.021
-728.937	-92.501	-0.310	-0.088
-727.923	-56.385	-0.093	0.042
-726.908	67.306	0.100	-0.103
-725.894	175.601	-0.092	0.134
-724.879	-200.000	-0.003	0.095
-723.864	436.725	-0.047	-0.104
-722.850	800.000	0.151	0.474
-721.835	-49.930	-0.231	0.110
-720.821	-63.259	-0.178	-0.074
-719.806	-157.979	0.129	0.008
-718.791	-200.000	-0.018	-0.234
-717.777	800.000	-0.053	-0.149
-716.762	44.377	-0.337	0.312
-715.748	102.841	0.164	-0.194
-714.733	-200.000	-0.020	-0.182
-713.718	-0.810	-0.208	-0.149
-712.704	62.534	-0.136	-0.137
-711.689	-41.929	0.313	0.162
-710.675	800.000	0.066	0.272
-709.660	-31.486	-0.170	-0.096
-708.645	-154.313	0.045	-0.003
-707.631	-68.382	0.097	-0.038
-706.616	-200.000	-0.002	-0.076
-705.602	-105.859	0.390	-0.089
-704.587	12.216	-0.083	-0.065
-703.572	-85.184	0.154	0.048
-702.558	800.000	-0.067	-0.224
-701.543	7.479	-0.368	0.278
-700.529	-119.935	-0.240	0.042
-699.514	-200.000	0.067	0.499
-698.499	700.984	0.047	-0.124
-697.485	-121.561	0.095	-0.016
-696.470	2.854	0.294	-0.215
-695.456	-8.261	-0.152	0.103
-694.441	-97.391	0.286	0.075
-693.426	800.000	-0.089	-0.269
-692.412	160.320	0.113	0.159
-691.397	82.191	-0.049	-0.053
-690.383	-6.863	-0.248	0.170
-689.368	-75.976	-0.049	0.017
-688.354	-200.000	0.017	-0.117
-687.339	-139.404	0.314	0.034
-686.324	-200.000	0.052	-0.324
-685.310	302.005	0.079	-0.147
-684.295	109.426	0.090	0.109
-683.281	206.813	0.071	0.112
-682.266	-23.673	-0.291	-0.176
-681.251	-114.113	-0.115	-0.022
-680.237	325.432	0.095	0.184
-679.222	-103.151	-0.082	-0.020
-678.208	-82.029	-0.187	0.062
-677.193	-200.000	-0.046	0.231
-676.178	-200.000	0.036	0.163
-675.164	-90.028	-0.359	0.105
-674.149	800.000	-0.165	0.538
-673.135	-177.384	-0.167	0.004
-672.120	-45.500	0.106	-0.053
-671.105	-37.316	-0.357	-0.192
-670.091	-133.537	-0.314	0.040
-669.076	-22.338	-0.306	-0.187
-668.062	592.851	0.117	-0.292
-667.047	30.353	-0.172	-0.148
-666.032	-89.324	-0.185	0.055
-665.018	-200.000	-0.009	-0.094
-664.003	-54.307	-0.164	-0.075
-662.989	-7.409	0.211	-0.144
-661.974	417.017	0.033	-0.071
-660.959	-91.626	-0.130	0.037
-659.945	-96.963	-0.289	-0.076
-658.930	86.799	-0.125	-0.139
-657.916	-110.573	-0.281	-0.059
-656.901	56.386	-0.149	0.146
-655.886	-156.690	-0.221	-0.014
-654.872	334.352	0.158	-0.308
-653.857	-200.000	-0.038	-0.196
-652.843	-134.039	-0.127	-0.016
-651.828	-115.513	0.298	0.056
-650.814	-37.330	-0.266	0.143
-649.799	157.809	0.293	-0.408
-648.784	224.767	0.116	-0.189
-647.770	228.470	0.051	0.084
-646.755	172.059	0.195	-0.282
-645.741	800.000	-0.039	-0.121
-644.726	101.957	0.204	0.239
-643.711	-200.000	-0.088	-0.412
-642.697	-121.224	-0.368	-0.062
-641.682	0.878	0.203	-0.146
-640.668	-67.897	0.063	-0.025
-639.653	100.252	-0.158	0.185
-638.638	-164.907	-0.238	-0.011
-637.624	463.368	-0.099	-0.221
-636.609	-75.896	-0.163	-0.058
-635.595	352.186	-0.086	-0.171
-634.580	-98.821	0.193	-0.049
-633.565	-22.034	-0.203	-0.124
-632.551	-54.761	-0.284	0.129
-631.536	260.629	0.055	0.096
-630.522	-137.645	-0.129	-0.015
-629.507	-46.753	-0.181	-0.089
-628.492	355.997	-0.080	-0.160
-627.478	90.610	-0.054	0.061
-626.463	4.759	-0.387	-0.286
-625.449	-151.078	0.170	-0.013
-624.434	800.000	-0.063	-0.248
-623.419	20.018	-0.047	-0.038
-622.405	115.711	0.108	-0.133
-621.390	-200.000	-0.004	-0.106
-620.376	39.386	0.086	0.077
-619.361	-200.000	0.015	0.294
-618.346	-200.000	0.046	-0.264
-617.332	-39.888	-0.231	-0.121
-616.317	-28.076	0.337	-0.196
-615.303	-200.000	0.039	0.203
-614.288	-48.444	-0.277	-0.134
-613.273	30.323	0.082	-0.070
-612.259	-39.565	0.269	-0.141
-611.244	17.486	0.033	0.027
-610.230	105.485	-0.093	0.110
-609.215	-2.260	-0.113	0.080
-608.201	-74.621	-0.105	-0.038
-607.186	-148.565	0.160	0.013
-606.171	-26.928	0.121	-0.071
-605.157	-161.225	0.052	0.003
-604.142	642.127	-0.082	0.211
-603.128	-200.000	-0.002	0.144
-602.113	37.864	-0.193	0.172
-601.098	160.224	-0.165	0.231
-600.084	-109.775	-0.238	0.050
-599.069	800.000	-0.046	0.170
-598.055	-143.805	-0.301	0.029
-597.040	787.516	-0.060	-0.165
-596.025	627.974	-0.114	-0.289
-595.011	-93.728	-0.055	0.015
-593.996	227.596	0.016	-0.026
-592.982	223.079	0.039	0.064
-591.967	-200.000	0.003	0.313
-590.952	-7.295	0.255	0.174
-589.938	-90.012	-0.098	0.029
-588.923	141.087	0.206	0.273
-587.909	-200.000	-0.043	0.236
-586.894	-94.516	0.107	-0.029
-585.879	800.000	0.056	0.207
-584.865	285.837	-0.081	0.146
-583.850	11.775	-0.206	-0.159
-582.836	-149.718	0.161	-0.013
-581.821	-147.982	-0.049	0.004
-580.806	-64.584	-0.221	-0.090
-579.792	-148.806	-0.445	0.036
-578.777	-82.449	0.152	-0.050
-577.763	-200.000	-0.014	-0.116
-576.748	-141.433	-0.205	0.021
-575.733	-65.329	-0.143	0.058
-574.719	-14.195	0.299	0.194
-573.704	-129.611	0.289	-0.040
-572.690	800.000	0.079	-0.237
-571.675	288.784	-0.059	-0.106
-570.661	-57.033	0.331	-0.146
-569.646	800.000	-0.058	0.208
-568.631	800.000	-0.032	0.125
-567.617	9.177	-0.168	-0.127
-566.602	-200.000	-0.010	0.117
-565.588	-38.051	-0.199	0.106
-564.573	422.931	-0.117	0.252
-563.558	91.207	0.126	-0.142
-562.544	-141.539	0.183	-0.018
-561.529	-10.900	-0.215	0.142
-560.515	-95.325	0.159	-0.043
-559.500	121.978	-0.099	-0.124
-558.485	-200.000	-0.006	-0.068
-557.471	-105.469	0.173	0.039
-556.456	44.290	0.052	-0.048
-555.442	800.000	0.034	0.131
-554.427	-94.595	-0.471	-0.128
-553.412	-171.084	0.270	0.009
-552.398	-45.045	-0.100	0.050
-551.383	536.741	-0.073	-0.173
-550.369	-200.000	-0.015	-0.158
-549.354	800.000	-0.033	-0.095
-548.339	-200.000	0.038	-0.181
-547.325	-36.618	-0.133	-0.072
-546.310	-200.000	0.030	0.220
-545.296	44.445	-0.151	0.139
-544.281	-44.304	-0.267	-0.134
-543.266	800.000	0.052	0.160
-542.252	309.098	-0.147	0.275
-541.237	76.275	0.200	0.212
-540.223	-39.203	-0.341	0.179
-539.208	-188.404	0.258	0.003
-538.193	-163.638	0.422	0.020
-537.179	-62.575	0.179	0.074
-536.164	-91.327	-0.171	-0.049
-535.150	662.007	0.098	-0.254
-534.135	69.808	-0.421	-0.435
-533.121	686.223	-0.112	-0.292
-532.106	64.793	0.150	-0.152
-531.091	564.849	-0.020	-0.048
-530.077	-48.423	0.056	-0.027
-529.062	-33.438	0.397	-0.220
-528.048	-200.000	0.061	-0.307
-527.033	-78.658	0.174	-0.059
-526.018	236.582	0.068	-0.113
-525.004	-200.000	-0.001	-0.290
-523.989	197.374	-0.124	-0.189
-522.975	-83.396	-0.337	-0.108
-521.960	468.429	-0.091	0.205
-520.945	-54.820	-0.176	0.080
-519.931	57.610	-0.014	0.013
-518.916	-200.000	0.002	0.017
-517.902	12.982	-0.218	-0.169
-516.887	-200.000	-0.001	0.053
-515.872	-34.403	-0.187	-0.102
-514.858	252.937	0.183	0.312
-513.843	-58.396	-0.185	0.080
-512.829	800.000	-0.039	0.168
-511.814	144.276	-0.036	0.048
-510.799	-200.000	0.032	0.155
-509.785	-200.000	0.014	0.374
-508.770	733.799	0.080	0.214
-507.756	137.909	-0.248	-0.325
-506.741	800.000	0.097	0.346
-505.726	-139.636	0.066	-0.007
-504.712	86.211	0.032	-0.035
-503.697	-97.985	-0.080	-0.021
-502.683	662.520	-0.051	-0.131
-501.668	162.307	0.079	0.111
-500.653	-49.623	0.035	-0.016
-499.639	618.898	-0.071	-0.177
-498.624	800.000	0.030	0.097
-497.610	-26.643	0.117	0.069
-496.595	217.447	0.306	0.488
-495.581	16.022	-0.405	0.319
-494.566	-5.021	0.244	0.168
-493.551	-51.861	-0.229	0.106
-492.537	-46.218	0.180	-0.088
-491.522	210.102	0.029	0.045
-490.508	139.130	0.215	-0.283
-489.493	800.000	-0.112	-0.316
-488.478	-68.245	0.222	0.086
-487.464	-64.907	0.243	0.098
-486.449	-28.455	0.098	0.057
-485.435	-118.022	-0.388	-0.069
-484.420	649.751	-0.031	-0.080
-483.405	800.000	-0.031	-0.134
-482.391	713.725	-0.051	-0.135
-481.376	87.581	-0.213	-0.236
-480.362	-145.760	0.150	0.013
-479.347	800.000	-0.072	-0.306
-478.332	-67.148	0.119	0.047
-477.318	187.242	0.085	-0.126
-476.303	800.000	-0.012	-0.035
-475.289	-194.072	0.313	0.003
-474.274	-150.862	-0.079	-0.006
-473.259	-28.723	-0.055	0.032
-472.245	327.675	0.093	0.179
-471.230	-53.250	-0.355	0.163
-470.216	111.893	0.035	-0.042
-469.201	739.034	0.125	0.336
-468.186	-200.000	0.018	0.089
-467.172	58.686	0.104	-0.102
-466.157	800.000	-0.094	-0.328
-465.143	-200.000	0.024	-0.229
-464.128	800.000	-0.132	-0.424
-463.113	39.499	0.136	0.122
-462.099	170.351	-0.140	-0.200
-461.084	-200.000	-0.004	0.048
-460.070	-72.441	-0.224	-0.083
-459.055	110.117	0.125	-0.150
-458.040	-200.000	-0.036	0.169
-457.026	-200.000	0.004	0.142
-456.011	-31.398	-0.263	0.148
-454.997	186.149	-0.236	0.350
-453.982	108.747	-0.152	-0.181
-452.968	-200.000	-0.009	0.050
-451.953	-200.000	-0.022	-0.277
-450.938	152.581	0.188	0.257
-449.924	-30.956	0.235	-0.132
-448.909	-112.464	-0.075	0.015
-447.895	800.000	-0.029	-0.100
-446.880	168.723	-0.182	0.260
-445.865	-200.000	-0.005	0.029
-444.851	96.593	0.171	-0.196
-443.836	-200.000	-0.059	-0.266
-442.822	-200.000	-0.000	0.089
-441.807	-34.358	0.161	-0.088
-440.792	-200.000	-0.050	0.290
-439.778	-60.199	0.185	0.079
-438.763	346.473	-0.089	-0.175
-437.749	309.214	-0.048	-0.090
-436.734	-200.000	-0.003	-0.116
-435.719	-6.856	-0.061	-0.041
-434.705	203.931	0.038	-0.059
-433.690	-22.232	0.225	0.136
-432.676	412.156	0.061	-0.130
-431.661	90.954	0.097	-0.108
-430.646	800.000	-0.117	0.385
-429.632	202.865	-0.147	0.227
-428.617	-159.104	0.196	0.011
-427.603	-47.423	-0.146	-0.071
-426.588	236.654	0.049	0.082
-425.573	471.940	-0.026	-0.058
-424.559	800.000	0.125	-0.379
-423.544	-47.694	-0.248	-0.120
-422.530	100.679	0.155	-0.180
-421.515	-45.615	0.256	-0.126
-420.500	-90.082	0.449	0.130
-419.486	-57.045	0.380	-0.167
-418.471	-66.870	-0.106	0.042
-417.457	66.551	0.046	0.047
-416.442	-90.103	-0.151	-0.044
-415.428	201.778	0.044	-0.068
-414.413	232.941	-0.074	-0.122
-413.398	-30.431	0.022	0.012
-412.384	-48.008	0.190	0.092
-411.369	-93.187	-0.038	0.011
-410.355	-166.667	0.501	-0.021
-409.340	-46.465	-0.168	-0.082
-408.325	-43.224	0.161	0.081
-407.311	475.090	-0.081	0.182
-406.296	800.000	0.082	0.231
-405.282	714.895	-0.010	0.026
-404.267	131.548	0.151	-0.194
-403.252	800.000	0.158	0.437
-402.238	-139.661	0.238	0.025
-401.223	-63.847	0.075	-0.031
-400.209	-200.000	-0.006	0.083
-399.194	-101.782	0.188	0.045
-398.179	-15.576	-0.211	-0.134
-397.165	9.403	-0.128	0.096
-396.150	92.043	0.125	0.140
-395.136	211.038	-0.127	0.199
-394.121	-50.035	0.232	0.110
-393.106	-200.000	-0.034	-0.159
-392.092	239.787	-0.134	-0.223
-391.077	-146.663	0.409	-0.035
-390.063	-53.304	-0.225	-0.103
-389.048	-200.000	-0.022	0.221
-388.033	800.000	0.046	-0.176
-387.019	71.338	0.056	-0.058
-386.004	-98.873	-0.193	0.049
-384.990	-200.000	-0.014	-0.133
-383.975	-200.000	0.027	0.187
-382.960	132.370	-0.123	-0.158
-381.946	-35.331	0.046	-0.025
-380.931	216.470	-0.079	-0.125
-379.917	50.751	-0.350	0.330
-378.902	-200.000	-0.018	-0.146
-377.888	-124.954	0.196	-0.030
-376.873	-200.000	0.049	0.414
-375.858	45.097	-0.187	0.171
-374.844	13.465	-0.330	0.255
-373.829	-200.000	0.027	0.210
-372.815	-200.000	0.032	-0.190
-371.800	-77.839	-0.216	-0.074
-370.785	162.984	-0.185	0.258
-369.771	-110.910	0.373	0.076
-368.756	-92.986	-0.320	0.089
-367.742	-26.802	0.067	-0.039
-366.727	216.279	-0.114	-0.180
-365.712	81.810	-0.226	-0.244
-364.698	-111.165	0.092	0.019
-363.683	-200.000	0.006	-0.308
-362.669	183.590	-0.055	-0.080
-361.654	-90.034	-0.436	0.127
-360.639	630.531	0.120	0.301
-359.625	75.518	-0.336	-0.353
-358.610	-57.816	0.290	-0.126
-357.596	-16.067	0.085	0.053
-356.581	-123.614	0.514	-0.081
-355.566	-200.000	0.080	0.549
-354.552	-11.111	0.072	0.047
-353.537	-22.041	0.021	0.013
-352.523	25.798	0.100	-0.083
-351.508	263.699	-0.070	-0.120
-350.493	688.700	0.192	0.500
-349.479	4.475	-0.185	0.135
-348.464	-153.088	-0.247	-0.017
-347.450	247.890	0.098	0.164
-346.435	110.949	0.246	0.295
-345.420	-200.000	0.009	0.042
-344.406	-200.000	0.018	-0.345
-343.391	-1.248	-0.346	-0.243
-342.377	64.730	0.082	-0.082
-341.362	510.322	-0.123	0.285
-340.348	-113.760	0.172	-0.033
-339.333	-73.999	0.248	0.089
-338.318	-45.948	0.210	-0.103
-337.304	668.644	0.090	0.232
-336.289	-200.000	-0.012	0.306
-335.275	257.265	-0.105	0.179
-334.260	83.006	0.054	-0.059
-333.245	-200.000	0.003	0.128
-332.231	43.344	0.183	0.166
-331.216	-179.891	0.295	0.006
-330.202	153.909	-0.041	0.057
-329.187	-29.922	0.036	0.020
-328.172	-146.403	0.080	0.007
-327.158	17.902	0.068	-0.054
-326.143	-69.597	-0.347	-0.132
-325.129	12.345	0.144	-0.110
-324.114	-31.316	0.311	-0.174
-323.099	-167.209	0.245	0.010
-322.085	-127.564	-0.182	0.026
-321.070	-59.021	-0.233	0.100
-320.056	-141.005	-0.087	0.009
-319.041	218.829	-0.122	-0.194
-318.026	800.000	0.053	-0.163
-317.012	-159.760	-0.189	-0.010
-315.997	800.000	-0.017	-0.067
-314.983	76.509	0.117	0.123
-313.968	-133.882	-0.152	-0.019
-312.953	800.000	-0.107	0.304
-311.939	-200.000	0.014	0.096
-310.924	219.121	-0.194	0.308
-309.910	81.229	0.136	-0.146
-308.895	225.162	0.119	0.192
-307.880	117.401	-0.202	-0.246
-306.866	136.531	-0.236	-0.306
-305.851	28.652	-0.163	0.137
-304.837	-200.000	-0.002	0.228
-303.822	772.400	-0.125	0.339
-302.807	-200.000	-0.072	0.444
-301.793	800.000	-0.048	-0.200
-300.778	524.964	-0.115	-0.268
-299.764	800.000	0.074	0.224
-298.749	-200.000	0.007	0.117
-297.735	-63.421	-0.327	0.134
-296.720	-153.277	0.093	-0.006
-295.705	-13.751	-0.307	-0.197
-294.691	-45.108	0.297	0.147
-293.676	-62.057	0.242	0.100
-292.662	313.350	-0.032	-0.060
-291.647	420.150	-0.075	0.160
-290.632	-200.000	-0.030	-0.171
-289.618	-126.074	0.376	-0.056
-288.603	-56.948	0.508	-0.222
-287.589	-200.000	0.022	-0.183
-286.574	114.198	-0.016	0.019
-285.559	-84.339	0.331	-0.104
-284.545	654.906	-0.057	-0.144
-283.530	-20.279	0.200	0.122
-282.516	-200.000	-0.003	-0.155
-281.501	-111.179	-0.217	-0.044
-280.486	180.979	0.069	-0.101
-279.472	800.000	0.068	-0.204
-278.457	387.687	-0.055	-0.113
-277.443	-104.245	-0.244	0.056
-276.428	569.956	0.075	0.181
-275.413	800.000	0.072	0.214
-274.399	-200.000	0.027	-0.167
-273.384	-200.000	-0.020	-0.222
-272.370	-25.796	0.308	-0.180
-271.355	-200.000	0.005	0.316
-270.340	-68.744	-0.071	0.027
-269.326	-140.321	0.196	0.020
-268.311	442.015	0.043	0.093
-267.297	-200.000	-0.006	0.075
-266.282	-44.506	0.371	0.184
-265.267	-200.000	-0.005	-0.215
-264.253	-200.000	0.012	-0.130
-263.238	-50.141	0.200	0.094
-262.224	89.218	-0.255	0.281
-261.209	-200.000	-0.055	0.364
-260.195	-200.000	-0.017	-0.080
-259.180	646.300	0.062	-0.156
-258.165	-200.000	-0.003	-0.135
-257.151	-93.278	-0.195	-0.054
-256.136	-55.425	0.243	-0.108
-255.122	800.000	0.042	0.118
-254.107	-34.496	-0.086	0.047
-253.092	800.000	0.099	0.292
-252.078	-158.456	-0.154	-0.009
-251.063	193.279	0.044	-0.066
-250.049	87.168	0.048	0.052
-249.034	-77.162	-0.172	0.059
-248.019	800.000	0.092	-0.350
-247.005	682.793	0.106	-0.273
-245.990	-32.523	0.219	-0.121
-244.976	-83.552	-0.198	0.063
-243.961	83.389	0.047	-0.051
-242.946	-160.767	-0.207	-0.011
-241.932	-15.809	0.387	-0.244
-240.917	-34.871	-0.195	0.105
-239.903	106.964	-0.207	-0.244
-238.888	-106.232	-0.374	-0.083
-237.873	21.458	0.197	0.159
-236.859	12.509	-0.113	0.086
-235.844	-26.821	-0.131	-0.076
-234.830	276.764	0.189	-0.333
-233.815	-58.509	0.091	-0.039
-232.800	-52.006	0.141	-0.065
-231.786	-26.363	-0.218	0.127
-230.771	-64.673	0.106	-0.043
-229.757	631.212	-0.143	0.359
-228.742	-11.790	0.106	0.069
-227.727	263.400	0.046	0.079
-226.713	-118.312	0.143	-0.025
-225.698	128.369	0.117	-0.147
-224.684	142.438	0.085	-0.112
-223.669	-67.538	0.169	0.066
-222.655	199.323	0.193	0.293
-221.640	-1.506	-0.293	0.204
-220.625	-101.968	-0.246	-0.059
-219.611	569.213	0.064	-0.153
-218.596	522.457	-0.119	-0.276
-217.582	-163.381	-0.294	-0.014
-216.567	-53.417	0.190	-0.086
-215.552	-200.000	0.005	-0.069
-214.538	-69.578	0.242	-0.092
-213.523	24.427	0.068	0.056
-212.509	-6.954	0.386	-0.259
-211.494	-83.931	-0.222	0.070
-210.479	-69.889	0.189	0.071
-209.465	-68.872	0.135	-0.051
-208.450	-129.068	0.198	0.027
-207.436	141.285	0.213	-0.279
-206.421	800.000	-0.048	0.141
-205.406	89.562	0.158	0.174
-204.392	92.376	-0.084	0.094
-203.377	385.487	-0.149	-0.304
-202.363	143.720	0.030	0.039
-201.348	800.000	-0.076	-0.222
-200.333	-65.252	-0.149	0.059
-199.319	-141.863	0.365	0.036
-198.304	291.931	-0.186	0.335
-197.290	82.255	-0.070	-0.075
-196.275	-200.000	-0.073	0.340
-195.260	-111.538	0.193	-0.039
-194.246	-200.000	0.009	0.126
-193.231	800.000	0.041	0.120
-192.217	-197.190	0.098	-0.001
-191.202	-66.833	-0.298	-0.116
-190.187	35.221	-0.223	-0.193
-189.173	351.838	0.195	-0.382
-188.158	83.193	0.027	-0.029
-187.144	800.000	0.123	-0.465
-186.129	800.000	-0.133	-0.398
-185.114	-170.387	-0.063	-0.002
-184.100	-200.000	-0.020	0.235
-183.085	104.616	-0.109	-0.127
-182.071	41.499	0.171	0.153
-181.056	-72.179	0.157	0.058
-180.042	-30.918	-0.096	0.054
-179.027	263.705	-0.209	0.359
-178.012	-150.507	-0.394	0.030
-176.998	-200.000	0.009	0.206
-175.983	353.101	-0.045	0.088
-174.969	73.018	-0.260	-0.268
-173.954	-2.188	0.238	0.165
-172.939	-121.191	0.076	0.013
-171.925	-134.439	0.214	0.026
-170.910	-200.000	0.014	0.161
-169.896	216.380	-0.037	0.058
-168.881	574.727	0.082	0.198
-167.866	149.120	-0.260	0.347
-166.852	-5.011	-0.084	0.057
-165.837	132.271	-0.068	0.086
-164.823	266.349	0.131	0.227
-163.808	-60.545	-0.260	-0.109
-162.793	-200.000	0.071	-0.359
-161.779	94.071	-0.067	0.075
-160.764	-85.792	0.217	0.066
-159.750	123.513	-0.051	0.063
-158.735	118.156	-0.082	-0.100
-157.720	-200.000	0.025	-0.356
-156.706	-200.000	0.039	0.169
-155.691	91.842	-0.080	0.088
-154.677	58.461	-0.099	0.095
-153.662	-170.043	0.232	0.008
-152.647	-200.000	0.002	0.289
-151.633	-64.637	-0.284	-0.114
-150.618	482.464	-0.093	-0.209
-149.604	296.754	0.255	-0.461
-148.589	-200.000	0.018	-0.081
-147.574	-200.000	-0.010	0.102
-146.560	-89.768	0.272	-0.079
-145.545	544.299	0.125	0.295
-144.531	757.548	-0.127	0.339
-143.516	-148.356	-0.260	-0.021
-142.502	-133.089	-0.227	-0.028
-141.487	595.333	-0.160	0.391
-140.472	-15.798	0.046	0.029
-139.458	-45.675	0.148	-0.072
-138.443	-57.670	0.155	0.067
-137.429	42.367	-0.153	-0.137
-136.414	-200.000	-0.054	0.283
-135.399	42.777	-0.147	0.132
-134.385	-104.563	-0.324	-0.074
-133.370	-77.016	-0.254	-0.088
-132.356	97.451	0.037	0.041
-131.341	42.641	0.217	-0.194
-130.326	800.000	0.032	-0.134
-129.312	-200.000	0.006	0.104
-128.297	-84.199	0.064	-0.020
-127.283	9.787	-0.051	-0.038
-126.268	800.000	0.015	-0.056
-125.253	196.738	-0.109	-0.164
-124.239	-14.317	-0.161	0.102
-123.224	-186.928	0.226	0.003
-122.210	1.666	0.106	0.075
