DTS Sentinel unit serial number:	SN413079Multiplexer serial number:	ORYXHardware model number:	OX4-SRSoftware version number:	ORYX F/W v4.00 Oryx Data Collector v3.7.2.0data status	okinstallation	princeton_trtdifferential loss correction	single-endedforward channel	channel 1reverse channel	N/Adate	2019/09/15time	19:34:35forward acquisition time	60.00reverse acquisition time	0.00gamma	496.2192k internal	0.2302k external	0.2302temperature offset calibration	0.9953default loss term (dB/km)	0.3790temperature slope calibration	1.0000multiplexer offset coefficient	1.0000multiplexer slope coefficient	1.0000fibre end	0.00T internal ref (°C)	38.25T ext. ref 1 (°C)	7.34T ext. ref 2 (°C)	27.95length (m)	temperature (°C)	Stokes	anti-Stokes-747.200	-129.322	0.229	-0.032
-746.185	-75.498	-0.296	0.107
-745.171	-200.000	0.022	-0.177
-744.156	-200.000	0.023	0.476
-743.142	31.259	0.190	-0.166
-742.127	-116.220	-0.069	-0.013
-741.112	126.711	0.102	0.132
-740.098	435.422	0.120	0.265
-739.083	-160.181	0.107	-0.006
-738.069	-156.238	0.110	-0.007
-737.054	48.206	-0.153	-0.146
-736.039	35.542	-0.077	-0.069
-735.025	-48.648	0.206	0.101
-734.010	-128.127	0.122	-0.018
-732.996	-36.702	-0.329	-0.180
-731.981	-145.769	0.186	0.017
-730.966	32.178	0.337	-0.296
-729.952	800.000	-0.023	0.096
-728.937	-113.759	0.080	-0.016
-727.923	-101.593	0.077	0.019
-726.908	20.322	0.153	0.126
-725.894	-193.764	0.212	-0.002
-724.879	114.267	-0.057	-0.071
-723.864	-106.285	0.301	-0.069
-722.850	248.433	0.188	-0.324
-721.835	-200.000	0.055	-0.251
-720.821	373.830	-0.094	-0.194
-719.806	269.437	-0.144	-0.257
-718.791	800.000	0.111	-0.316
-717.777	-200.000	0.023	0.267
-716.762	-200.000	0.004	-0.054
-715.748	-200.000	-0.052	-0.540
-714.733	800.000	-0.034	0.123
-713.718	2.849	-0.103	0.076
-712.704	644.490	-0.039	0.101
-711.689	800.000	-0.050	-0.213
-710.675	-80.205	-0.161	-0.055
-709.660	15.506	0.282	0.226
-708.645	41.651	-0.059	0.054
-707.631	-119.934	0.340	-0.059
-706.616	118.253	-0.025	0.031
-705.602	147.252	0.064	-0.088
-704.587	262.080	0.014	-0.024
-703.572	-54.077	-0.134	0.062
-702.558	10.966	-0.209	0.162
-701.543	-200.000	-0.049	0.379
-700.529	221.570	0.102	-0.168
-699.514	595.630	-0.079	0.200
-698.499	151.389	0.063	-0.088
-697.485	-19.251	-0.125	-0.079
-696.470	39.715	-0.269	-0.245
-695.456	-56.169	-0.200	-0.090
-694.441	65.818	-0.137	-0.141
-693.426	205.735	-0.129	0.203
-692.412	-174.111	0.211	0.006
-691.397	-133.007	-0.294	0.038
-690.383	-123.593	0.174	0.028
-689.368	-116.726	-0.090	0.017
-688.354	592.669	0.131	0.329
-687.339	720.451	-0.029	0.078
-686.324	665.885	0.013	-0.033
-685.310	98.185	-0.161	-0.189
-684.295	19.458	-0.096	-0.079
-683.281	214.098	-0.094	-0.151
-682.266	-200.000	0.040	-0.206
-681.251	238.509	-0.144	-0.243
-680.237	154.662	-0.147	-0.205
-679.222	-200.000	0.009	0.154
-678.208	-200.000	-0.014	0.273
-677.193	-50.100	-0.045	0.022
-676.178	102.544	0.170	0.203
-675.164	800.000	0.018	0.058
-674.149	-122.840	-0.106	0.017
-673.135	321.992	-0.129	-0.250
-672.120	-127.670	0.136	0.020
-671.105	-12.298	-0.448	-0.297
-670.091	-200.000	-0.006	-0.232
-669.076	-20.622	-0.156	0.097
-668.062	-133.327	0.238	0.030
-667.047	105.299	0.112	0.134
-666.032	800.000	0.110	0.409
-665.018	-99.242	0.291	-0.075
-664.003	51.618	0.202	0.195
-662.989	-200.000	-0.008	-0.261
-661.974	-200.000	-0.133	0.000
-660.959	-57.571	0.108	-0.048
-659.945	-200.000	-0.024	-0.217
-658.930	610.381	-0.065	-0.165
-657.916	-153.369	0.173	0.012
-656.901	-160.992	-0.187	-0.010
-655.886	466.464	-0.048	-0.109
-654.872	-67.024	0.436	0.175
-653.857	-173.298	0.242	0.007
-652.843	-81.653	-0.343	-0.114
-651.828	-26.418	-0.344	-0.205
-650.814	-139.786	-0.147	0.016
-649.799	-200.000	0.007	0.047
-648.784	-87.118	0.314	0.097
-647.770	-200.000	-0.025	0.149
-646.755	16.156	-0.333	-0.266
-645.741	197.316	0.096	0.148
-644.726	188.751	0.139	0.211
-643.711	298.999	0.185	0.346
-642.697	-79.362	0.284	0.098
-641.682	-1.102	0.284	0.204
-640.668	-200.000	-0.015	-0.095
-639.653	404.912	0.045	-0.096
-638.638	521.040	-0.113	-0.269
-637.624	-27.732	0.071	-0.042
-636.609	-159.297	-0.264	-0.015
-635.595	513.588	-0.084	0.198
-634.580	-91.654	0.141	0.041
-633.565	-141.012	-0.319	0.033
-632.551	-200.000	0.019	0.430
-631.536	26.362	0.201	-0.171
-630.522	-88.199	-0.085	0.026
-629.507	-10.828	0.046	-0.031
-628.492	57.435	-0.119	-0.118
-627.478	-78.018	-0.257	-0.090
-626.463	800.000	0.064	-0.262
-625.449	-64.286	0.198	-0.082
-624.434	55.427	0.201	-0.198
-623.419	800.000	-0.063	0.221
-622.405	-200.000	-0.048	0.255
-621.390	100.813	0.045	0.053
-620.376	-134.773	0.327	-0.040
-619.361	147.793	-0.034	0.047
-618.346	371.829	-0.069	0.143
-617.332	-65.110	0.072	0.029
-616.317	-144.833	0.205	-0.019
-615.303	186.768	-0.157	-0.237
-614.288	431.392	-0.080	-0.176
-613.273	206.728	-0.028	-0.044
-612.259	109.628	0.130	-0.158
-611.244	-70.404	0.293	-0.113
-610.230	-61.831	0.065	0.027
-609.215	39.299	0.221	0.200
-608.201	102.947	-0.053	-0.063
-607.186	-200.000	-0.007	-0.127
-606.171	-200.000	-0.013	0.316
-605.157	-55.295	-0.338	-0.154
-604.142	139.652	0.130	-0.174
-603.128	4.817	-0.036	-0.027
-602.113	-43.985	0.240	-0.122
-601.098	75.754	-0.143	0.153
-600.084	-200.000	-0.003	0.098
-599.069	-132.307	-0.075	0.010
-598.055	-119.377	-0.149	-0.026
-597.040	226.173	-0.151	-0.248
-596.025	51.884	-0.318	0.306
-595.011	5.572	-0.434	0.325
-593.996	143.161	0.069	0.092
-592.982	-200.000	0.008	-0.165
-591.967	-200.000	0.047	0.319
-590.952	-200.000	-0.029	-0.292
-589.938	-200.000	0.000	-0.091
-588.923	-3.697	0.142	0.100
-587.909	-91.078	0.216	-0.063
-586.894	800.000	-0.069	0.213
-585.879	0.690	0.290	-0.210
-584.865	699.255	-0.078	-0.208
-583.850	-200.000	0.022	0.415
-582.836	514.914	0.063	-0.148
-581.821	-200.000	0.048	-0.284
-580.806	191.719	-0.064	0.097
-579.792	214.737	-0.160	-0.256
-578.777	-82.558	0.254	-0.083
-577.763	59.925	0.063	-0.063
-576.748	707.649	-0.065	-0.174
-575.733	-108.992	-0.451	-0.097
-574.719	259.989	0.111	-0.194
-573.704	12.363	-0.127	-0.099
-572.690	0.494	0.086	-0.062
-571.675	29.170	-0.213	0.183
-570.661	-180.760	-0.312	0.006
-569.646	-83.413	-0.066	-0.021
-568.631	-84.629	-0.069	-0.022
-567.617	100.876	0.117	0.138
-566.602	-157.142	0.296	-0.018
-565.588	-0.866	0.219	0.157
-564.573	-174.987	0.366	-0.010
-563.558	-110.323	-0.115	-0.024
-562.544	-51.052	-0.079	-0.037
-561.529	50.195	0.196	0.187
-560.515	-100.064	-0.314	0.079
-559.500	800.000	-0.038	-0.126
-558.485	130.333	-0.082	-0.106
-557.471	-200.000	0.081	0.391
-556.456	73.269	-0.056	0.060
-555.442	-113.187	-0.131	-0.026
-554.427	71.416	0.187	-0.196
-553.412	-16.819	0.231	-0.148
-552.398	-110.806	0.202	0.042
-551.383	23.627	0.177	-0.148
-550.369	-77.862	-0.149	0.052
-549.354	-160.096	-0.083	0.005
-548.339	48.976	0.084	0.080
-547.325	260.785	0.051	-0.088
-546.310	-200.000	-0.017	-0.385
-545.296	-94.020	-0.103	-0.029
-544.281	-39.727	0.176	0.093
-543.266	-58.410	-0.161	0.071
-542.252	182.692	0.182	0.271
-541.237	-96.078	0.253	-0.068
-540.223	-47.951	-0.176	-0.086
-539.208	-200.000	0.006	-0.141
-538.193	-200.000	0.012	0.367
-537.179	254.449	0.102	-0.176
-536.164	-0.706	-0.300	-0.215
-535.150	-74.419	-0.137	0.050
-534.135	272.268	0.088	-0.157
-533.121	450.511	0.134	-0.298
-532.106	-107.794	-0.275	0.061
-531.091	37.841	-0.129	0.116
-530.077	297.545	0.168	-0.312
-529.062	389.135	-0.102	-0.213
-528.048	-127.739	0.132	-0.019
-527.033	800.000	0.117	-0.507
-526.018	142.189	-0.190	-0.254
-525.004	-89.431	-0.444	0.132
-523.989	268.752	-0.047	-0.083
-522.975	-93.843	-0.355	-0.099
-521.960	226.346	-0.103	0.168
-520.945	281.293	-0.045	-0.082
-519.931	194.520	-0.140	-0.214
-518.916	112.976	-0.087	-0.107
-517.902	530.169	-0.075	-0.180
-516.887	-178.478	0.554	-0.013
-515.872	153.969	0.293	0.406
-514.858	-35.458	0.197	0.108
-513.843	590.137	0.152	-0.379
-512.829	-101.123	0.179	-0.044
-511.814	-143.682	0.356	-0.034
-510.799	546.063	0.042	0.101
-509.785	800.000	0.014	0.057
-508.770	-200.000	0.029	-0.259
-507.756	-200.000	-0.021	0.204
-506.741	-105.168	-0.409	0.094
-505.726	53.246	-0.147	-0.142
-504.712	-18.578	0.163	0.103
-503.697	-35.267	0.206	0.113
-502.683	129.099	0.160	0.206
-501.668	-200.000	0.017	0.206
-500.653	80.422	0.149	-0.162
-499.639	-2.639	-0.368	0.260
-498.624	-85.828	-0.296	-0.092
-497.610	72.731	0.211	-0.223
-496.595	-15.762	-0.123	0.079
-495.581	-9.272	-0.043	-0.029
-494.566	16.465	0.118	-0.094
-493.551	475.941	0.017	-0.039
-492.537	800.000	-0.060	-0.231
-491.522	15.690	-0.099	-0.078
-490.508	-123.949	0.162	0.026
-489.493	443.202	-0.134	0.297
-488.478	800.000	-0.079	0.230
-487.464	686.759	-0.071	0.186
-486.449	39.348	0.295	-0.266
-485.435	-142.168	0.165	0.017
-484.420	0.300	-0.132	-0.095
-483.405	800.000	-0.089	-0.378
-482.391	-9.790	-0.156	-0.105
-481.376	131.963	-0.123	0.160
-480.362	-14.722	-0.096	-0.062
-479.347	-179.452	0.438	0.010
-478.332	-5.678	0.074	0.051
-477.318	800.000	-0.095	0.290
-476.303	-153.364	-0.176	-0.012
-475.289	10.980	-0.285	0.220
-474.274	558.729	0.110	0.268
-473.259	-200.000	0.026	0.234
-472.245	114.173	-0.208	-0.255
-471.230	-200.000	-0.000	-0.217
-470.216	-154.430	-0.140	0.009
-469.201	-200.000	0.025	-0.283
-468.186	-163.358	0.192	-0.009
-467.172	-97.657	0.284	0.074
-466.157	-57.710	0.309	0.136
-465.143	249.823	-0.223	-0.381
-464.128	800.000	0.066	-0.228
-463.113	-163.577	0.091	0.004
-462.099	-27.585	0.112	0.066
-461.084	65.865	-0.220	0.224
-460.070	-77.489	-0.341	-0.119
-459.055	445.199	0.242	-0.536
-458.040	227.435	0.141	0.232
-457.026	4.650	0.144	0.107
-456.011	-1.808	-0.141	0.100
-454.997	-200.000	-0.017	0.174
-453.982	-139.024	-0.164	0.018
-452.968	-135.571	-0.238	0.029
-451.953	-70.577	-0.064	-0.025
-450.938	-200.000	0.017	0.118
-449.924	-200.000	-0.020	0.297
-448.909	225.575	-0.191	-0.311
-447.895	-200.000	-0.013	-0.246
-446.880	-200.000	-0.020	0.089
-445.865	800.000	-0.065	0.197
-444.851	367.051	-0.094	0.192
-443.836	663.355	0.150	0.391
-442.822	-63.254	0.344	0.143
-441.807	236.238	-0.131	0.217
-440.792	800.000	0.121	0.341
-439.778	229.751	-0.144	0.236
-438.763	-86.712	-0.085	0.026
-437.749	94.914	0.221	-0.253
-436.734	522.713	0.053	-0.124
-435.719	-200.000	0.007	-0.092
-434.705	-59.748	-0.276	0.119
-433.690	-33.021	-0.185	-0.103
-432.676	-84.079	0.169	-0.054
-431.661	-20.121	0.128	-0.079
-430.646	10.812	0.344	-0.265
-429.632	105.977	0.143	-0.170
-428.617	10.446	0.112	0.086
-427.603	-200.000	0.008	0.105
-426.588	-94.392	-0.130	-0.036
-425.573	-200.000	-0.026	0.143
-424.559	-92.666	0.095	0.027
-423.544	-172.541	-0.188	-0.006
-422.530	184.250	0.149	-0.223
-421.515	-92.874	-0.146	-0.041
-420.500	-155.198	-0.123	0.008
-419.486	105.466	-0.029	-0.034
-418.471	-113.278	0.224	-0.044
-417.457	-81.008	0.356	0.119
-416.442	-50.440	-0.096	0.046
-415.428	106.308	0.077	-0.091
-414.413	-99.240	0.301	0.077
-413.398	80.171	0.308	0.334
-412.384	118.460	-0.102	0.126
-411.369	-72.307	-0.078	0.029
-410.355	-157.768	-0.234	0.014
-409.340	-97.796	-0.133	0.035
-408.325	514.615	0.058	0.137
-407.311	29.762	-0.196	-0.168
-406.296	117.428	0.115	0.142
-405.282	-200.000	0.003	0.489
-404.267	32.444	-0.093	-0.081
-403.252	-42.324	-0.116	-0.060
-402.238	-65.138	0.237	0.096
-401.223	-200.000	-0.013	0.181
-400.209	-96.313	-0.061	-0.016
-399.194	524.944	-0.061	-0.145
-398.179	351.080	-0.122	-0.242
-397.165	800.000	-0.098	0.409
-396.150	-71.082	-0.234	-0.088
-395.136	-58.121	-0.075	0.033
-394.121	-200.000	-0.047	-0.278
-393.106	-113.947	-0.261	-0.051
-392.092	-85.289	0.147	0.046
-391.077	76.532	-0.172	-0.183
-390.063	-22.299	-0.153	0.093
-389.048	561.328	-0.061	-0.149
-388.033	-125.891	0.272	0.041
-387.019	-74.938	-0.198	-0.071
-386.004	754.841	-0.030	-0.081
-384.990	-72.277	-0.248	0.092
-383.975	-125.060	0.288	-0.045
-382.960	-41.875	0.115	-0.059
-381.946	800.000	0.090	0.371
-380.931	4.896	-0.334	-0.247
-379.917	238.628	0.095	-0.159
-378.902	-7.251	0.374	-0.255
-377.888	-180.472	-0.283	-0.006
-376.873	140.580	0.274	0.364
-375.858	-34.212	0.120	-0.066
-374.844	-200.000	0.028	-0.249
-373.829	125.963	0.062	0.079
-372.815	-147.084	0.211	-0.018
-371.800	-115.022	0.127	0.024
-370.785	-38.911	0.113	0.060
-369.771	200.797	-0.204	0.315
-368.756	-200.000	0.019	-0.230
-367.742	89.080	0.107	-0.119
-366.727	146.565	-0.228	0.308
-365.712	121.737	0.022	0.028
-364.698	-33.410	-0.145	0.080
-363.683	-61.192	-0.252	-0.106
-362.669	4.819	0.133	0.098
-361.654	-77.797	-0.241	-0.084
-360.639	215.042	-0.037	-0.059
-359.625	12.336	0.120	0.093
-358.610	4.516	-0.354	0.261
-357.596	155.255	-0.240	-0.331
-356.581	-33.699	0.269	-0.149
-355.566	-58.302	0.086	0.037
-354.552	-200.000	-0.009	-0.187
-353.537	-80.854	0.285	-0.095
-352.523	153.197	0.127	-0.174
-351.508	800.000	0.018	0.052
-350.493	-0.251	0.288	-0.206
-349.479	227.221	-0.198	0.323
-348.464	-69.929	0.201	-0.077
-347.450	-200.000	-0.036	0.273
-346.435	40.276	0.228	0.206
-345.420	112.660	-0.213	-0.258
-344.406	800.000	-0.048	0.211
-343.391	-83.894	0.194	-0.062
-342.377	-200.000	-0.018	-0.299
-341.362	-200.000	-0.022	0.165
-340.348	121.829	0.018	-0.023
-339.333	-101.413	0.500	0.122
-338.318	-81.974	-0.077	0.025
-337.304	-56.840	-0.245	0.109
-336.289	-91.485	0.165	0.047
-335.275	-200.000	-0.004	-0.106
-334.260	800.000	0.095	0.336
-333.245	800.000	0.082	-0.253
-332.231	122.617	0.013	0.016
-331.216	35.079	-0.130	0.115
-330.202	-82.707	-0.322	0.104
-329.187	-92.626	0.214	-0.060
-328.172	-91.980	0.164	-0.047
-327.158	145.471	-0.200	-0.268
-326.143	420.186	-0.107	-0.229
-325.129	-44.294	-0.192	-0.097
-324.114	-140.386	-0.266	-0.028
-323.099	432.479	-0.146	0.317
-322.085	167.263	-0.205	-0.292
-321.070	72.098	0.198	-0.207
-320.056	-108.800	0.236	-0.051
-319.041	322.219	-0.027	-0.052
-318.026	182.387	0.172	-0.254
-317.012	-62.053	0.202	0.085
-315.997	-200.000	0.003	-0.191
-314.983	-107.527	0.312	-0.069
-313.968	-73.246	-0.237	0.087
-312.953	29.211	0.163	-0.139
-311.939	-116.499	0.047	-0.009
-310.924	275.537	0.098	-0.174
-309.910	800.000	0.018	0.063
-308.895	-73.781	-0.385	0.140
-307.880	27.601	-0.100	-0.084
-306.866	68.896	-0.178	-0.183
-305.851	-25.209	-0.251	0.149
-304.837	5.734	0.092	0.068
-303.822	211.020	-0.008	0.013
-302.807	-14.328	-0.093	0.060
-301.793	470.256	0.013	-0.030
-300.778	49.417	-0.154	0.145
-299.764	-27.897	0.184	-0.107
-298.749	-179.036	0.160	0.004
-297.735	-82.185	0.151	0.049
-296.720	344.131	0.219	0.429
-295.705	-162.855	-0.136	0.007
-294.691	800.000	-0.020	-0.078
-293.676	800.000	0.087	0.360
-292.662	-46.839	0.118	-0.058
-291.647	672.427	-0.051	-0.133
-290.632	192.208	0.146	-0.221
-289.618	128.873	-0.145	-0.185
-288.603	800.000	-0.068	-0.255
-287.589	-52.193	0.114	-0.053
-286.574	-109.625	0.235	0.050
-285.559	-135.310	-0.293	-0.035
-284.545	-200.000	0.028	0.216
-283.530	800.000	0.089	-0.277
-282.516	213.217	-0.011	0.017
-281.501	-200.000	-0.057	-0.275
-280.486	-49.105	0.197	-0.094
-279.472	188.824	-0.051	-0.077
-278.457	-106.653	-0.243	-0.054
-277.443	187.168	-0.051	-0.075
-276.428	-120.839	0.105	-0.018
-275.413	-94.144	-0.250	-0.069
-274.399	-51.194	-0.243	0.114
-273.384	102.643	0.128	-0.150
-272.370	86.542	-0.133	0.146
-271.355	-75.831	0.126	0.045
-270.340	185.020	-0.103	-0.152
-269.326	-117.944	0.161	0.029
-268.311	-200.000	0.000	0.151
-267.297	-170.083	-0.030	-0.001
-266.282	0.397	-0.140	0.100
-265.267	-200.000	-0.003	-0.065
-264.253	800.000	-0.052	-0.191
-263.238	-200.000	0.005	0.165
-262.224	114.731	0.068	0.083
-261.209	-200.000	-0.006	0.092
-260.195	-6.233	-0.104	-0.071
-259.180	345.010	-0.061	-0.120
-258.165	-49.197	0.285	0.136
-257.151	800.000	0.042	0.159
-256.136	-53.982	-0.280	0.127
-255.122	162.392	0.229	0.321
-254.107	11.135	0.123	-0.094
-253.092	9.183	0.160	-0.121
-252.078	44.613	-0.231	0.212
-251.063	-60.773	-0.082	0.035
-250.049	800.000	0.067	0.256
-249.034	-58.381	0.051	0.022
-248.019	90.244	-0.189	-0.211
-247.005	800.000	-0.035	-0.114
-245.990	602.004	0.099	-0.245
-244.976	800.000	-0.035	-0.151
-243.961	-200.000	-0.015	0.121
-242.946	800.000	0.045	-0.154
-241.932	424.397	-0.213	-0.458
-240.917	296.359	-0.053	0.097
-239.903	-200.000	0.015	-0.152
-238.888	-200.000	0.005	0.117
-237.873	-200.000	0.026	-0.226
-236.859	69.945	-0.083	0.085
-235.844	-200.000	0.006	0.184
-234.830	142.047	0.023	0.031
-233.815	-200.000	-0.006	-0.169
-232.800	-200.000	0.021	0.242
-231.786	-98.913	0.237	0.060
-230.771	-200.000	-0.017	0.282
-229.757	131.589	-0.134	0.172
-228.742	-200.000	0.011	0.103
-227.727	-121.875	-0.570	0.094
-226.713	188.774	0.087	0.129
-225.698	17.066	-0.179	-0.142
-224.684	-98.191	-0.232	0.060
-223.669	-196.931	-0.144	0.001
-222.655	-96.309	-0.142	0.038
-221.640	-200.000	0.308	0.001
-220.625	316.199	0.086	0.162
-219.611	-143.559	0.114	-0.011
-218.596	602.020	0.138	0.342
-217.582	-123.054	0.259	0.041
-216.567	11.205	0.170	0.129
-215.552	800.000	0.028	-0.090
-214.538	800.000	-0.092	0.304
-213.523	286.518	-0.115	-0.208
-212.509	-200.000	-0.257	0.000
-211.494	81.917	0.115	0.124
-210.479	206.877	0.157	0.244
-209.465	163.454	0.108	-0.152
-208.450	-200.000	-0.020	0.193
-207.436	109.023	0.246	-0.294
-206.421	316.827	0.026	-0.050
-205.406	-15.343	0.166	0.106
-204.392	-167.804	0.478	0.019
-203.377	-33.336	-0.172	0.095
-202.363	-200.000	0.006	0.146
-201.348	467.818	-0.068	-0.153
-200.333	-146.862	-0.313	-0.027
-199.319	67.355	-0.054	-0.055
-198.304	-40.988	-0.109	-0.056
-197.290	21.254	0.311	0.252
-196.275	800.000	-0.028	-0.103
-195.260	-84.412	-0.272	0.086
-194.246	112.833	-0.156	-0.188
-193.231	-57.498	0.193	0.085
-192.217	-133.543	-0.245	-0.031
-191.202	-1.954	-0.264	-0.185
-190.187	-66.521	0.283	-0.112
-189.173	21.678	-0.138	0.112
-188.158	79.018	-0.148	-0.158
-187.144	-200.000	0.002	-0.014
-186.129	126.151	0.130	-0.164
-185.114	-123.261	-0.032	0.005
-184.100	800.000	0.016	-0.050
-183.085	-180.835	0.076	0.002
-182.071	184.721	0.082	0.121
-181.056	107.090	0.095	0.113
-180.042	-151.581	0.153	0.011
-179.027	-19.114	-0.142	0.088
-178.012	472.050	-0.143	0.322
-176.998	-200.000	0.012	0.144
-175.983	800.000	0.153	0.437
-174.969	-38.660	0.386	0.203
-173.954	669.806	0.088	-0.226
-172.939	-84.996	-0.256	0.080
-171.925	81.099	0.176	-0.190
-170.910	39.729	-0.178	0.159
-169.896	282.906	-0.031	-0.055
-168.881	256.145	-0.069	0.118
-167.866	-75.957	0.340	-0.120
-166.852	800.000	-0.060	0.195
-165.837	-89.522	-0.346	-0.101
-164.823	-49.392	-0.158	-0.075
-163.808	217.208	-0.220	0.349
-162.793	-62.970	0.159	-0.066
-161.779	17.158	0.286	-0.226
-160.764	71.164	0.039	0.040
-159.750	-56.703	-0.219	0.096
-158.735	-63.722	-0.178	0.073
-157.720	-66.709	-0.419	0.165
-156.706	-148.958	-0.105	-0.008
-155.691	-200.000	-0.068	-0.413
-154.677	800.000	0.020	0.084
-153.662	-93.393	0.272	0.075
-152.647	17.019	-0.133	-0.105
-151.633	-200.000	-0.011	-0.092
-150.618	-35.122	-0.174	-0.094
-149.604	36.413	-0.186	-0.163
-148.589	-120.803	0.379	-0.064
-147.574	-93.660	0.390	0.107
-146.560	119.813	0.080	0.098
-145.545	116.095	0.091	0.110
-144.531	-200.000	0.006	0.301
-143.516	-200.000	0.039	0.304
-142.502	800.000	0.054	-0.155
-141.487	587.962	0.062	-0.152
-140.472	800.000	0.134	-0.390
-139.458	-82.533	-0.428	-0.138
-138.443	-83.118	0.196	-0.063
-137.429	49.925	0.062	0.058
-136.414	-85.176	0.235	0.073
-135.399	-77.550	-0.236	-0.081
-134.385	256.823	-0.100	0.170
-133.370	-200.000	-0.006	-0.034
-132.356	800.000	-0.011	0.038
-131.341	-200.000	-0.010	-0.370
-130.326	562.243	-0.062	0.150
-129.312	-1.725	-0.274	-0.192
-128.297	-69.469	-0.258	0.098
-127.283	65.251	-0.309	0.311
-126.268	340.822	0.132	0.256
-125.253	-33.857	-0.367	-0.201
-124.239	611.443	0.076	0.189
-123.224	511.827	-0.128	0.295
-122.210	-172.118	0.304	-0.010
-121.195	122.388	0.064	-0.079
