DTS Sentinel unit serial number:	SN413079Multiplexer serial number:	ORYXHardware model number:	OX4-SRSoftware version number:	ORYX F/W v4.00 Oryx Data Collector v3.7.2.0data status	okinstallation	princeton_trtdifferential loss correction	single-endedforward channel	channel 1reverse channel	N/Adate	2019/09/12time	15:56:11forward acquisition time	60.00reverse acquisition time	0.00gamma	496.2192k internal	0.2299k external	0.2299temperature offset calibration	1.0071default loss term (dB/km)	0.3790temperature slope calibration	1.0000multiplexer offset coefficient	1.0000multiplexer slope coefficient	1.0000fibre end	0.00T internal ref (°C)	39.27T ext. ref 1 (°C)	2.41T ext. ref 2 (°C)	32.17length (m)	temperature (°C)	Stokes	anti-Stokes-747.200	784.708	0.103	0.288
-746.185	-32.578	-0.383	0.218
-745.171	800.000	-0.025	0.100
-744.156	-45.046	0.052	0.026
-743.142	800.000	-0.073	0.287
-742.127	134.759	-0.034	0.045
-741.112	-54.859	0.121	-0.056
-740.098	-200.000	-0.001	0.316
-739.083	-153.912	-0.143	0.010
-738.069	-30.252	0.365	0.212
-737.054	-6.825	0.035	-0.024
-736.039	-137.093	-0.282	-0.033
-735.025	800.000	0.043	0.156
-734.010	-140.772	-0.191	-0.020
-732.996	-200.000	0.028	-0.196
-731.981	-191.411	0.171	-0.002
-730.966	-108.330	0.040	0.009
-729.952	-83.772	-0.457	0.149
-728.937	2.096	-0.055	-0.041
-727.923	-60.004	-0.431	-0.188
-726.908	-49.490	0.103	0.050
-725.894	97.857	0.272	-0.319
-724.879	-141.202	-0.033	0.003
-723.864	-200.000	0.023	0.150
-722.850	100.876	0.082	-0.097
-721.835	749.418	-0.173	-0.476
-720.821	-10.346	-0.202	-0.137
-719.806	-12.505	-0.104	-0.069
-718.791	-29.652	-0.159	0.092
-717.777	-41.991	-0.332	0.173
-716.762	-11.821	-0.313	0.209
-715.748	33.965	0.206	-0.183
-714.733	-200.000	0.133	-0.655
-713.718	-182.446	-0.495	-0.009
-712.704	-64.942	-0.030	-0.012
-711.689	305.742	-0.055	-0.104
-710.675	137.417	-0.034	-0.046
-709.660	800.000	0.043	-0.148
-708.645	-87.170	-0.121	0.038
-707.631	-62.568	-0.315	-0.133
-706.616	66.124	-0.146	0.151
-705.602	-70.895	0.216	0.083
-704.587	65.605	-0.102	0.105
-703.572	5.751	-0.128	-0.097
-702.558	165.520	0.090	-0.130
-701.543	-123.685	-0.223	-0.036
-700.529	-200.000	-0.016	0.085
-699.514	27.311	-0.157	-0.135
-698.499	-200.000	-0.052	0.458
-697.485	193.942	0.209	-0.322
-696.470	200.857	0.081	-0.127
-695.456	-30.572	0.257	-0.148
-694.441	-112.531	0.466	-0.095
-693.426	-105.200	-0.447	0.104
-692.412	-115.880	0.246	-0.047
-691.397	24.050	0.172	0.144
-690.383	602.540	-0.165	-0.419
-689.368	-200.000	0.014	-0.158
-688.354	122.347	0.127	-0.161
-687.339	-90.585	-0.112	-0.033
-686.324	-197.937	-0.156	-0.001
-685.310	115.693	0.052	0.065
-684.295	482.332	0.027	-0.063
-683.281	49.668	-0.139	0.133
-682.266	32.387	-0.240	0.211
-681.251	291.630	-0.056	0.104
-680.237	800.000	-0.096	-0.399
-679.222	-185.697	-0.260	-0.004
-678.208	-80.435	-0.106	-0.036
-677.193	-117.926	-0.157	-0.029
-676.178	53.379	0.153	-0.149
-675.164	800.000	-0.041	0.135
-674.149	-200.000	-0.030	-0.161
-673.135	50.046	-0.316	-0.304
-672.120	800.000	-0.035	0.134
-671.105	590.719	0.064	-0.160
-670.091	800.000	0.051	-0.213
-669.076	123.874	-0.057	-0.072
-668.062	-106.854	-0.210	-0.047
-667.047	-28.039	-0.115	-0.068
-666.032	37.119	0.216	0.194
-665.018	417.206	0.103	0.223
-664.003	-200.000	0.007	-0.225
-662.989	800.000	-0.057	-0.207
-661.974	-139.168	-0.209	0.023
-660.959	-58.079	0.129	0.057
-659.945	43.627	0.204	-0.190
-658.930	-143.070	-0.048	-0.005
-657.916	-4.840	-0.119	0.083
-656.901	719.902	-0.124	0.335
-655.886	-79.710	-0.282	-0.097
-654.872	-200.000	0.007	0.058
-653.857	4.123	0.274	0.204
-652.843	-152.876	0.197	-0.014
-651.828	-200.000	0.016	-0.136
-650.814	-200.000	-0.003	0.123
-649.799	-171.339	0.197	-0.007
-648.784	-114.129	-0.507	-0.100
-647.770	257.282	0.115	-0.201
-646.755	-141.530	-0.174	0.018
-645.741	-200.000	0.058	-0.322
-644.726	204.451	0.098	-0.155
-643.711	126.774	-0.064	0.082
-642.697	27.675	-0.217	-0.185
-641.682	-107.042	-0.186	0.042
-640.668	16.125	0.206	-0.165
-639.653	-15.702	0.280	-0.182
-638.638	34.681	0.121	0.108
-637.624	800.000	0.010	0.031
-636.609	-200.000	-0.009	0.186
-635.595	-63.871	0.222	-0.092
-634.580	131.734	-0.307	-0.401
-633.565	-65.685	0.296	0.120
-632.551	116.599	0.165	-0.206
-631.536	-200.000	0.018	0.121
-630.522	-200.000	-0.004	-0.083
-629.507	-200.000	-0.015	-0.196
-628.492	-200.000	0.000	0.016
-627.478	-31.712	0.123	-0.070
-626.463	-25.758	-0.217	-0.130
-625.449	219.961	-0.045	0.073
-624.434	53.354	-0.430	-0.419
-623.419	-200.000	0.014	-0.066
-622.405	685.581	-0.072	0.192
-621.390	-53.648	0.057	-0.026
-620.376	6.920	0.173	0.131
-619.361	62.427	0.062	0.063
-618.346	-200.000	-0.003	0.211
-617.332	-53.043	-0.197	0.092
-616.317	-200.000	0.011	0.199
-615.303	-5.177	0.168	-0.117
-614.288	-200.000	-0.022	0.236
-613.273	372.977	-0.063	-0.130
-612.259	46.532	-0.175	-0.165
-611.244	-58.789	0.187	-0.082
-610.230	-144.606	0.167	0.016
-609.215	106.383	-0.192	-0.231
-608.201	-28.916	-0.009	0.005
-607.186	-200.000	0.023	0.287
-606.171	18.800	-0.184	0.150
-605.157	255.085	-0.153	0.265
-604.142	339.437	0.028	-0.055
-603.128	68.047	-0.046	0.048
-602.113	-59.758	-0.026	0.012
-601.098	-200.000	0.052	0.439
-600.084	-200.000	-0.026	0.158
-599.069	35.170	-0.060	0.053
-598.055	757.465	0.054	0.147
-597.040	96.922	0.179	-0.208
-596.025	446.139	-0.106	-0.237
-595.011	-6.711	0.102	-0.070
-593.996	-108.985	-0.331	0.072
-592.982	-69.449	-0.224	0.087
-591.967	492.121	-0.063	-0.147
-590.952	-200.000	-0.029	0.268
-589.938	-125.868	0.111	-0.017
-588.923	673.494	-0.032	-0.085
-587.909	-200.000	-0.006	0.255
-586.894	-88.647	0.127	-0.038
-585.879	-85.114	-0.194	-0.062
-584.865	16.185	-0.125	-0.100
-583.850	-49.510	-0.178	0.086
-582.836	153.904	-0.123	0.171
-581.821	-134.259	-0.304	-0.038
-580.806	185.166	-0.112	0.168
-579.792	800.000	-0.123	0.390
-578.777	490.789	-0.031	0.072
-577.763	-200.000	0.036	-0.265
-576.748	40.346	-0.202	0.185
-575.733	14.130	-0.513	0.405
-574.719	-200.000	-0.010	-0.261
-573.704	-181.901	-0.291	0.006
-572.690	-77.048	0.387	0.137
-571.675	51.799	-0.086	-0.083
-570.661	237.655	0.163	-0.275
-569.646	33.208	0.227	-0.199
-568.631	29.975	-0.129	-0.112
-567.617	28.533	-0.090	-0.077
-566.602	-145.774	0.184	-0.017
-565.588	-94.152	-0.152	0.042
-564.573	87.038	0.192	0.215
-563.558	25.304	0.087	-0.074
-562.544	85.491	0.076	0.084
-561.529	340.014	-0.165	-0.326
-560.515	223.720	-0.111	-0.182
-559.500	-200.000	-0.008	0.064
-558.485	-33.938	0.122	0.068
-557.471	32.580	-0.215	-0.188
-556.456	-145.789	-0.299	-0.027
-555.442	54.517	0.091	-0.089
-554.427	166.739	-0.215	0.309
-553.412	-127.831	0.234	0.034
-552.398	-68.337	-0.405	-0.159
-551.383	179.699	-0.138	0.204
-550.369	60.636	0.165	0.165
-549.354	21.358	0.105	0.086
-548.339	-200.000	-0.011	-0.259
-547.325	-54.451	0.193	0.089
-546.310	-62.599	-0.166	-0.070
-545.296	800.000	0.048	0.174
-544.281	38.342	0.333	0.301
-543.266	173.763	0.092	0.134
-542.252	-200.000	0.012	-0.233
-541.237	-12.590	-0.081	0.054
-540.223	-90.312	-0.114	0.033
-539.208	-200.000	0.043	0.195
-538.193	-192.666	-0.072	0.001
-537.179	-54.330	-0.328	-0.151
-536.164	-87.132	-0.126	-0.039
-535.150	-69.057	0.157	-0.061
-534.135	-42.761	0.052	-0.027
-533.121	-9.623	-0.146	0.099
-532.106	163.217	0.332	-0.472
-531.091	307.783	0.153	-0.288
-530.077	457.818	-0.053	-0.119
-529.062	-116.002	0.270	0.051
-528.048	136.315	-0.255	-0.337
-527.033	119.501	0.219	-0.274
-526.018	36.629	-0.191	0.171
-525.004	236.525	-0.088	-0.147
-523.989	245.716	0.238	-0.406
-522.975	180.804	0.204	0.303
-521.960	73.075	0.008	0.008
-520.945	54.401	-0.229	-0.223
-519.931	-200.000	-0.057	-0.265
-518.916	249.583	-0.081	-0.139
-517.902	-54.978	-0.246	-0.112
-516.887	237.936	0.046	-0.077
-515.872	-33.693	0.123	0.069
-514.858	-4.046	0.467	0.327
-513.843	800.000	-0.169	-0.527
-512.829	800.000	0.058	0.228
-511.814	-5.676	-0.044	0.030
-510.799	272.093	-0.094	0.168
-509.785	-33.551	0.041	0.023
-508.770	800.000	-0.014	0.045
-507.756	800.000	0.132	0.370
-506.741	79.927	-0.093	-0.101
-505.726	-107.299	0.341	0.076
-504.712	-26.584	-0.205	-0.121
-503.697	-66.261	0.291	0.117
-502.683	-99.360	0.117	0.030
-501.668	-200.000	0.020	-0.207
-500.653	279.976	-0.098	-0.177
-499.639	-200.000	-0.012	0.239
-498.624	125.701	-0.107	-0.136
-497.610	-170.194	0.213	0.008
-496.595	24.643	-0.083	0.069
-495.581	-82.719	-0.135	-0.044
-494.566	200.872	0.098	0.152
-493.551	800.000	0.094	0.288
-492.537	259.436	-0.021	0.036
-491.522	800.000	0.157	-0.487
-490.508	6.697	-0.295	0.222
-489.493	-86.907	-0.136	0.042
-488.478	-68.049	0.181	-0.071
-487.464	-200.000	0.007	0.134
-486.449	-56.231	0.296	-0.133
-485.435	-56.888	0.054	-0.024
-484.420	-200.000	-0.009	0.436
-483.405	216.752	-0.135	-0.218
-482.391	81.159	-0.209	0.227
-481.376	-57.441	-0.216	0.096
-480.362	-5.218	-0.088	-0.061
-479.347	-41.847	0.108	-0.056
-478.332	-86.276	0.120	0.037
-477.318	-108.338	-0.101	0.022
-476.303	94.918	0.099	-0.114
-475.289	-33.966	-0.140	0.078
-474.274	-200.000	-0.002	-0.041
-473.259	32.788	-0.165	-0.144
-472.245	800.000	0.071	-0.238
-471.230	800.000	-0.021	-0.066
-470.216	82.909	-0.353	-0.388
-469.201	378.854	-0.200	-0.412
-468.186	-119.493	-0.158	-0.028
-467.172	11.295	0.450	-0.348
-466.157	-95.378	0.101	0.027
-465.143	800.000	0.053	-0.175
-464.128	254.371	0.031	-0.054
-463.113	-71.580	0.314	0.118
-462.099	-39.470	-0.144	0.076
-461.084	116.204	-0.101	-0.125
-460.070	-200.000	-0.013	-0.288
-459.055	114.982	-0.038	-0.046
-458.040	-200.000	0.032	-0.219
-457.026	-74.119	-0.167	0.061
-456.011	623.445	0.011	0.028
-454.997	-163.570	0.323	-0.015
-453.982	-67.938	0.175	0.069
-452.968	-159.269	-0.131	-0.007
-451.953	147.775	0.101	0.137
-450.938	387.514	-0.014	-0.030
-449.924	-125.924	-0.019	-0.003
-448.909	25.606	-0.096	-0.081
-447.895	211.990	-0.166	-0.264
-446.880	82.596	0.105	-0.115
-445.865	-27.870	-0.173	-0.101
-444.851	-96.579	0.241	0.064
-443.836	-21.801	0.106	0.065
-442.822	-118.217	-0.175	-0.031
-441.807	-155.001	0.223	-0.015
-440.792	119.605	0.133	-0.166
-439.778	-200.000	0.020	-0.162
-438.763	-113.729	-0.058	0.011
-437.749	-104.477	0.181	-0.042
-436.734	48.687	-0.128	-0.121
-435.719	-200.000	-0.003	-0.088
-434.705	506.115	0.029	0.068
-433.690	-126.790	0.496	-0.074
-432.676	-200.000	-0.001	0.339
-431.661	114.505	0.154	0.189
-430.646	-27.240	0.082	-0.048
-429.632	88.036	-0.249	0.279
-428.617	236.599	0.078	0.130
-427.603	-56.478	0.160	0.072
-426.588	777.315	0.051	-0.140
-425.573	-200.000	-0.048	-0.396
-424.559	-77.655	0.085	-0.030
-423.544	254.421	-0.079	-0.137
-422.530	-167.547	0.244	-0.010
-421.515	46.283	-0.048	0.045
-420.500	-95.780	-0.247	-0.066
-419.486	220.042	-0.145	-0.234
-418.471	270.798	-0.083	0.147
-417.457	215.855	0.051	0.082
-416.442	-31.990	-0.190	0.107
-415.428	800.000	-0.099	-0.298
-414.413	104.905	0.122	0.145
-413.398	-200.000	0.026	-0.121
-412.384	-8.624	-0.114	0.077
-411.369	39.206	0.261	-0.236
-410.355	-200.000	-0.028	-0.426
-409.340	0.594	0.250	0.180
-408.325	4.735	0.124	0.092
-407.311	-200.000	0.004	0.101
-406.296	-200.000	0.001	-0.196
-405.282	-78.731	-0.012	-0.004
-404.267	92.563	-0.261	-0.297
-403.252	-12.813	0.116	0.076
-402.238	-200.000	0.003	0.450
-401.223	800.000	-0.045	0.178
-400.209	-84.942	-0.382	0.121
-399.194	-33.493	0.211	0.118
-398.179	-200.000	0.088	0.438
-397.165	-31.559	0.372	0.211
-396.150	-71.239	-0.189	0.072
-395.136	-200.000	-0.030	0.187
-394.121	176.468	0.009	0.013
-393.106	87.451	-0.028	-0.031
-392.092	471.886	0.042	-0.096
-391.077	-155.246	0.241	-0.016
-390.063	66.871	0.166	-0.170
-389.048	-154.497	0.357	-0.024
-388.033	282.599	0.040	-0.072
-387.019	-26.084	0.233	-0.138
-386.004	-159.177	-0.032	-0.002
-384.990	-135.848	0.139	-0.017
-383.975	552.651	0.154	0.372
-382.960	-108.967	0.180	0.039
-381.946	3.777	-0.169	-0.124
-380.931	-15.056	-0.237	-0.153
-379.917	-37.769	0.425	-0.228
-378.902	-39.075	0.191	-0.101
-377.888	594.977	-0.092	0.229
-376.873	151.330	-0.082	0.112
-375.858	800.000	0.032	0.132
-374.844	51.762	0.074	0.071
-373.829	71.733	-0.220	0.230
-372.815	-80.068	-0.251	-0.085
-371.800	17.707	-0.109	-0.088
-370.785	-200.000	-0.018	-0.107
-369.771	800.000	0.077	0.221
-368.756	-50.880	0.047	-0.022
-367.742	312.233	0.115	-0.218
-366.727	-104.814	-0.308	-0.071
-365.712	800.000	-0.029	0.098
-364.698	166.042	-0.079	0.112
-363.683	117.155	-0.215	0.265
-362.669	177.813	0.251	0.368
-361.654	33.837	0.139	0.122
-360.639	63.419	-0.078	0.079
-359.625	141.931	-0.157	0.210
-358.610	523.413	0.136	-0.321
-357.596	-23.969	-0.129	-0.077
-356.581	800.000	0.058	0.248
-355.566	57.508	0.141	-0.138
-354.552	-148.773	0.076	0.006
-353.537	29.698	0.180	0.154
-352.523	800.000	-0.139	0.415
-351.508	131.506	0.193	-0.249
-350.493	-200.000	0.013	-0.265
-349.479	41.847	-0.278	-0.253
-348.464	-200.000	0.041	-0.264
-347.450	192.040	0.161	-0.244
-346.435	-31.865	-0.140	-0.079
-345.420	182.159	0.153	0.227
-344.406	226.462	-0.109	-0.177
-343.391	-63.943	0.339	0.139
-342.377	-200.000	0.003	0.065
-341.362	14.504	-0.177	-0.139
-340.348	-137.366	0.192	0.022
-339.333	-200.000	-0.020	0.331
-338.318	-188.731	0.348	0.004
-337.304	-52.453	0.235	0.109
-336.289	-142.914	-0.254	-0.025
-335.275	800.000	0.067	-0.214
-334.260	-200.000	0.022	0.265
-333.245	-200.000	-0.021	0.162
-332.231	-200.000	0.057	0.428
-331.216	-3.113	0.057	-0.040
-330.202	-18.905	0.359	-0.224
-329.187	-94.676	-0.202	-0.055
-328.172	-28.098	-0.124	-0.072
-327.158	-200.000	0.010	0.176
-326.143	444.526	0.077	0.169
-325.129	-200.000	-0.010	0.109
-324.114	-28.670	0.230	0.133
-323.099	-74.936	-0.306	-0.110
-322.085	-200.000	-0.004	-0.181
-321.070	139.238	0.117	-0.155
-320.056	-139.791	-0.351	-0.037
-319.041	147.170	-0.117	-0.157
-318.026	-200.000	-0.014	-0.084
-317.012	-200.000	-0.002	0.218
-315.997	-200.000	0.007	-0.177
-314.983	294.813	-0.113	0.207
-313.968	355.216	0.083	0.165
-312.953	72.725	-0.227	0.238
-311.939	4.491	-0.588	-0.433
-310.924	-82.322	0.300	0.098
-309.910	48.745	0.117	-0.110
-308.895	120.147	-0.132	-0.164
-307.880	36.293	0.052	0.046
-306.866	16.495	-0.071	-0.056
-305.851	-182.955	-0.255	0.005
-304.837	-111.302	-0.155	-0.032
-303.822	319.786	0.058	0.111
-302.807	-58.656	0.354	-0.154
-301.793	-200.000	-0.011	0.282
-300.778	-129.252	-0.201	0.028
-299.764	456.457	-0.121	-0.269
-298.749	-200.000	0.017	-0.110
-297.735	-61.804	-0.304	-0.128
-296.720	-200.000	-0.037	-0.199
-295.705	-200.000	0.013	-0.133
-294.691	-101.330	-0.378	0.092
-293.676	-174.118	-0.101	0.003
-292.662	-119.642	-0.199	-0.034
-291.647	-26.039	-0.129	0.076
-290.632	-131.072	-0.200	-0.027
-289.618	32.908	0.150	0.130
-288.603	137.052	0.338	0.442
-287.589	546.460	0.180	0.432
-286.574	73.057	0.152	0.159
-285.559	800.000	-0.020	-0.059
-284.545	-21.121	-0.163	0.100
-283.530	-200.000	0.047	-0.249
-282.516	-146.873	-0.256	-0.022
-281.501	347.131	0.123	-0.242
-280.486	800.000	-0.103	0.287
-279.472	115.033	0.084	0.103
-278.457	-196.116	0.241	-0.002
-277.443	-200.000	-0.006	-0.084
-276.428	-50.776	-0.309	-0.146
-275.413	288.075	-0.051	0.093
-274.399	407.331	0.056	-0.118
-273.384	11.249	-0.141	0.108
-272.370	-14.656	-0.083	0.053
-271.355	-151.034	-0.211	0.016
-270.340	573.893	-0.075	0.184
-269.326	169.454	-0.141	-0.202
-268.311	-123.078	-0.123	0.020
-267.297	-75.445	0.163	-0.058
-266.282	-71.071	-0.253	0.095
-265.267	-39.636	0.087	-0.045
-264.253	209.784	0.168	-0.264
-263.238	-72.846	0.170	-0.063
-262.224	102.126	0.101	-0.118
-261.209	-200.000	-0.005	0.184
-260.195	-50.348	-0.051	-0.024
-259.180	-9.567	-0.125	-0.084
-258.165	-200.000	-0.008	-0.212
-257.151	-103.124	0.303	-0.072
-256.136	133.660	-0.230	0.298
-255.122	-200.000	0.005	0.072
-254.107	598.571	-0.059	0.145
-253.092	104.115	0.153	-0.181
-252.078	-55.229	-0.059	-0.026
-251.063	-200.000	-0.030	0.235
-250.049	-87.248	-0.335	0.102
-249.034	-42.724	-0.375	0.191
-248.019	800.000	-0.048	-0.191
-247.005	56.878	0.146	0.142
-245.990	535.146	0.082	0.195
-244.976	800.000	-0.075	-0.295
-243.961	-13.439	0.124	-0.081
-242.946	18.792	0.220	0.176
-241.932	-90.861	-0.132	0.038
-240.917	-200.000	-0.004	-0.225
-239.903	462.826	0.063	0.142
-238.888	45.265	-0.045	-0.041
-237.873	479.666	0.176	0.399
-236.859	-115.048	0.214	0.041
-235.844	800.000	-0.074	0.257
-234.830	15.159	0.132	-0.104
-233.815	-73.127	-0.329	-0.121
-232.800	173.275	-0.282	0.407
-231.786	54.263	0.127	0.122
-230.771	-200.000	0.014	0.290
-229.757	-48.563	-0.146	0.070
-228.742	-131.642	-0.384	0.050
-227.727	-113.263	-0.088	0.017
-226.713	-166.648	-0.163	-0.007
-225.698	391.826	0.058	-0.120
-224.684	-200.000	-0.024	0.185
-223.669	178.721	-0.104	0.152
-222.655	-61.731	0.291	0.122
-221.640	-29.281	0.151	-0.086
-220.625	217.135	0.122	-0.195
-219.611	800.000	0.077	-0.304
-218.596	41.162	0.077	0.070
-217.582	177.337	0.038	-0.055
-216.567	141.352	-0.287	0.379
-215.552	800.000	-0.081	0.272
-214.538	-49.843	0.072	0.034
-213.523	364.860	-0.017	-0.033
-212.509	336.898	0.104	-0.203
-211.494	125.848	0.238	0.301
-210.479	-128.504	0.220	0.031
-209.465	287.678	-0.066	-0.119
-208.450	88.203	-0.122	-0.136
-207.436	800.000	0.033	-0.110
-206.421	-10.714	0.131	-0.087
-205.406	154.393	-0.125	0.171
-204.392	394.566	0.152	0.316
-203.377	197.437	0.109	-0.166
-202.363	-200.000	0.025	0.232
-201.348	-200.000	0.009	0.084
-200.333	225.743	0.070	-0.114
-199.319	800.000	-0.122	0.344
-198.304	-83.653	-0.057	-0.018
-197.290	-16.323	0.186	0.118
-196.275	-200.000	-0.040	0.263
-195.260	-46.163	-0.051	-0.025
-194.246	17.709	-0.175	-0.139
-193.231	-101.973	0.258	0.062
-192.217	800.000	0.093	0.353
-191.202	201.410	-0.049	0.076
-190.187	265.189	-0.136	-0.237
-189.173	204.161	-0.128	-0.199
-188.158	38.909	-0.079	-0.070
-187.144	-58.735	0.240	0.104
-186.129	141.646	-0.168	-0.222
-185.114	-72.461	0.381	0.141
-184.100	399.518	-0.070	0.147
-183.085	70.217	0.094	-0.097
-182.071	-118.002	0.213	0.038
-181.056	629.425	-0.016	-0.040
-180.042	18.169	-0.166	0.132
-179.027	-23.057	0.168	0.101
-178.012	218.937	0.023	-0.036
-176.998	-4.389	-0.230	-0.159
-175.983	800.000	-0.051	0.143
-174.969	800.000	-0.042	0.140
-173.954	68.907	0.050	0.051
-172.939	302.842	-0.090	-0.166
-171.925	350.729	0.080	-0.158
-170.910	677.136	-0.104	-0.269
-169.896	-5.945	-0.264	0.180
-168.881	-200.000	-0.008	-0.134
-167.866	-200.000	0.005	0.123
-166.852	80.424	0.123	0.132
-165.837	54.653	0.193	-0.186
-164.823	-127.649	-0.050	-0.007
-163.808	-200.000	0.034	0.176
-162.793	8.719	0.248	0.186
-161.779	265.342	0.048	0.083
-160.764	280.146	0.148	-0.264
-159.750	24.991	0.280	-0.232
-158.735	-200.000	0.023	0.166
-157.720	-184.690	0.332	-0.005
-156.706	208.834	0.211	-0.329
-155.691	-35.454	0.059	0.032
-154.677	-200.000	-0.008	-0.341
-153.662	-133.754	0.151	-0.019
-152.647	65.532	-0.154	0.155
-151.633	69.776	0.223	-0.230
-150.618	11.004	0.163	-0.124
-149.604	800.000	0.067	0.249
-148.589	-200.000	0.065	-0.329
-147.574	-158.136	0.136	0.008
-146.560	-200.000	-0.004	0.136
-145.545	278.883	-0.130	0.231
-144.531	-22.818	-0.234	0.141
-143.516	-66.385	-0.064	-0.026
-142.502	-110.562	-0.299	0.062
-141.487	800.000	-0.067	0.235
-140.472	-46.721	0.356	0.174
-139.458	-87.664	0.087	-0.026
-138.443	-17.504	0.143	-0.090
-137.429	-176.006	0.050	0.001
-136.414	650.617	0.066	0.169
-135.399	-67.550	0.058	0.023
-134.385	-113.824	-0.137	-0.026
-133.370	-57.248	0.163	0.071
-132.356	-120.696	-0.192	-0.032
-131.341	40.673	0.284	-0.255
-130.326	800.000	-0.054	-0.189
-129.312	-170.318	-0.274	0.010
-128.297	144.978	0.122	0.162
-127.283	210.543	0.174	-0.273
-126.268	176.888	0.142	0.205
-125.253	43.669	0.153	0.139
-124.239	-79.280	0.187	0.063
-123.224	155.748	0.152	-0.209
-122.210	-58.959	0.364	0.157
-121.195	566.711	-0.163	0.393
