DTS Sentinel unit serial number:	SN413079Multiplexer serial number:	ORYXHardware model number:	OX4-SRSoftware version number:	ORYX F/W v4.00 Oryx Data Collector v3.7.2.0data status	okinstallation	princeton_trtdifferential loss correction	single-endedforward channel	channel 1reverse channel	N/Adate	2019/09/17time	06:26:35forward acquisition time	60.00reverse acquisition time	0.00gamma	496.2192k internal	0.2328k external	0.2328temperature offset calibration	0.9967default loss term (dB/km)	0.3790temperature slope calibration	1.0000multiplexer offset coefficient	1.0000multiplexer slope coefficient	1.0000fibre end	0.00T internal ref (°C)	28.25T ext. ref 1 (°C)	0.13T ext. ref 2 (°C)	21.58length (m)	temperature (°C)	Stokes	anti-Stokes-747.200	117.361	0.056	0.069
-746.185	-200.000	-0.040	0.418
-745.171	-88.572	0.408	0.122
-744.156	800.000	-0.080	0.329
-743.142	-200.000	-0.035	-0.256
-742.127	-26.353	-0.117	-0.069
-741.112	242.195	-0.224	-0.378
-740.098	-200.000	-0.054	0.344
-739.083	800.000	-0.084	0.326
-738.069	-200.000	0.039	0.350
-737.054	-92.355	0.386	-0.109
-736.039	-16.902	-0.053	0.034
-735.025	-5.829	0.179	-0.124
-734.010	-66.180	-0.171	-0.069
-732.996	27.679	0.183	-0.156
-731.981	-129.889	-0.309	-0.043
-730.966	95.505	0.144	0.165
-729.952	800.000	-0.148	-0.554
-728.937	-115.667	0.287	0.054
-727.923	800.000	0.109	0.325
-726.908	-193.553	0.189	-0.002
-725.894	-157.721	-0.086	-0.005
-724.879	2.015	0.219	-0.159
-723.864	-71.248	-0.254	-0.096
-722.850	15.296	-0.089	-0.070
-721.835	800.000	0.076	-0.270
-720.821	-12.905	0.267	0.175
-719.806	88.354	0.171	0.191
-718.791	87.863	0.121	0.135
-717.777	-186.863	0.219	-0.003
-716.762	-79.173	-0.244	-0.083
-715.748	-26.725	0.033	-0.020
-714.733	-37.827	0.227	-0.121
-713.718	480.285	-0.194	-0.443
-712.704	-27.844	0.323	-0.189
-711.689	-200.000	-0.013	-0.309
-710.675	800.000	-0.135	0.470
-709.660	15.153	-0.200	0.158
-708.645	6.110	-0.113	-0.085
-707.631	590.396	-0.153	-0.379
-706.616	33.853	0.114	-0.100
-705.602	-10.430	0.287	0.191
-704.587	186.947	0.171	-0.257
-703.572	29.670	0.255	0.219
-702.558	-78.143	-0.353	-0.122
-701.543	-16.062	0.200	-0.128
-700.529	-71.975	0.299	-0.112
-699.514	-98.284	-0.277	0.071
-698.499	-200.000	0.020	0.134
-697.485	-1.160	0.197	0.140
-696.470	42.375	0.319	-0.292
-695.456	23.777	0.146	-0.121
-694.441	-64.693	-0.187	0.076
-693.426	800.000	-0.060	-0.194
-692.412	-95.098	-0.102	-0.028
-691.397	800.000	-0.077	-0.222
-690.383	22.248	-0.244	-0.200
-689.368	-115.106	-0.142	-0.027
-688.354	-91.452	-0.351	0.101
-687.339	70.280	0.191	0.199
-686.324	92.702	-0.138	0.157
-685.310	276.503	0.102	-0.182
-684.295	800.000	0.084	0.291
-683.281	-200.000	0.027	-0.120
-682.266	-122.157	0.339	0.056
-681.251	-75.834	-0.163	0.058
-680.237	45.547	0.198	0.184
-679.222	703.016	-0.043	-0.115
-678.208	-29.387	-0.326	-0.187
-677.193	-200.000	-0.010	0.187
-676.178	41.863	0.097	0.088
-675.164	-87.943	0.194	0.059
-674.149	-117.988	-0.429	0.077
-673.135	44.662	-0.143	0.132
-672.120	-58.690	-0.084	0.037
-671.105	425.434	0.023	0.050
-670.091	5.565	0.212	0.157
-669.076	140.725	-0.216	0.286
-668.062	800.000	0.044	-0.139
-667.047	800.000	-0.078	-0.259
-666.032	501.125	-0.089	-0.206
-665.018	63.596	-0.168	0.170
-664.003	-90.021	-0.173	0.051
-662.989	-145.329	0.187	0.017
-661.974	-200.000	0.005	-0.131
-660.959	-200.000	0.021	0.164
-659.945	143.469	0.178	-0.238
-658.930	43.547	0.213	0.196
-657.916	-63.757	-0.232	-0.096
-656.901	100.152	-0.308	-0.359
-655.886	61.693	-0.105	-0.105
-654.872	-86.957	0.128	-0.039
-653.857	-200.000	0.006	-0.291
-652.843	-52.622	-0.144	-0.067
-651.828	-51.554	-0.281	0.132
-650.814	800.000	0.050	0.175
-649.799	-84.414	-0.199	0.063
-648.784	89.629	0.239	-0.267
-647.770	22.750	-0.076	-0.063
-646.755	231.111	-0.063	0.103
-645.741	181.372	0.217	-0.321
-644.726	53.356	-0.092	0.088
-643.711	-117.358	0.364	0.066
-642.697	-111.938	0.154	-0.031
-641.682	620.622	-0.074	-0.186
-640.668	-127.692	0.056	0.008
-639.653	62.713	-0.195	0.196
-638.638	-136.585	-0.215	0.025
-637.624	-45.363	-0.251	0.125
-636.609	386.754	0.102	-0.211
-635.595	-32.119	-0.176	-0.099
-634.580	-27.717	-0.124	-0.072
-633.565	-200.000	0.029	-0.420
-632.551	800.000	-0.063	0.180
-631.536	-200.000	0.016	-0.127
-630.522	239.402	-0.132	-0.220
-629.507	4.298	-0.265	0.194
-628.492	800.000	-0.050	0.211
-627.478	-59.217	-0.127	-0.055
-626.463	139.656	-0.213	0.282
-625.449	663.672	0.069	0.179
-624.434	127.268	-0.049	0.062
-623.419	-200.000	0.009	0.198
-622.405	-68.514	-0.160	-0.062
-621.390	39.766	0.261	0.235
-620.376	-200.000	0.035	-0.245
-619.361	-44.612	-0.050	0.025
-618.346	-1.273	0.192	0.136
-617.332	-12.146	-0.021	-0.014
-616.317	88.473	0.296	0.329
-615.303	-123.358	0.277	-0.044
-614.288	-122.342	0.034	-0.006
-613.273	800.000	-0.039	0.124
-612.259	576.322	0.166	-0.407
-611.244	-200.000	0.001	0.117
-610.230	800.000	0.031	0.106
-609.215	-200.000	0.024	-0.116
-608.201	-99.305	0.200	0.051
-607.186	40.013	0.388	-0.349
-606.171	-87.473	-0.325	0.099
-605.157	669.006	-0.076	-0.198
-604.142	-32.839	-0.169	0.094
-603.128	-200.000	-0.028	-0.268
-602.113	132.806	-0.048	0.062
-601.098	174.949	-0.150	-0.218
-600.084	494.867	0.058	0.132
-599.069	596.535	-0.040	-0.100
-598.055	-117.391	-0.172	-0.031
-597.040	34.918	0.114	-0.100
-596.025	136.619	-0.221	0.289
-595.011	-2.554	-0.124	-0.087
-593.996	659.384	-0.111	0.287
-592.982	-109.323	-0.173	0.037
-591.967	-131.544	0.202	-0.027
-590.952	563.103	0.052	-0.127
-589.938	699.111	-0.105	-0.278
-588.923	30.871	-0.060	0.051
-587.909	-179.373	0.130	0.003
-586.894	-157.582	0.357	-0.021
-585.879	38.132	-0.105	-0.094
-584.865	-112.684	-0.076	-0.015
-583.850	305.098	-0.200	0.372
-582.836	-27.717	-0.364	-0.211
-581.821	265.653	0.167	0.292
-580.806	206.830	-0.112	0.175
-579.792	-80.073	0.340	-0.114
-578.777	800.000	-0.018	0.058
-577.763	-54.318	-0.111	0.050
-576.748	-120.798	-0.111	-0.019
-575.733	739.118	0.087	-0.233
-574.719	-200.000	0.006	-0.070
-573.704	-200.000	-0.036	-0.198
-572.690	413.262	-0.136	0.289
-571.675	-45.829	0.036	0.018
-570.661	264.126	0.081	-0.141
-569.646	20.411	0.037	0.030
-568.631	800.000	-0.049	0.154
-567.617	-42.743	0.332	-0.169
-566.602	-34.431	-0.131	-0.072
-565.588	-100.638	0.195	-0.048
-564.573	433.515	0.040	0.087
-563.558	443.848	0.183	-0.402
-562.544	800.000	0.054	-0.182
-561.529	-96.880	0.010	-0.003
-560.515	800.000	0.168	0.474
-559.500	800.000	0.007	-0.019
-558.485	-116.856	-0.306	-0.056
-557.471	421.113	-0.024	0.051
-556.456	-69.629	-0.267	-0.102
-555.442	-52.572	0.184	-0.085
-554.427	-200.000	0.016	0.171
-553.412	-200.000	0.051	-0.253
-552.398	-61.535	-0.131	-0.055
-551.383	800.000	-0.067	0.188
-550.369	40.955	0.061	0.055
-549.354	800.000	-0.081	0.279
-548.339	-177.145	0.095	-0.002
-547.325	-8.905	0.285	-0.191
-546.310	-31.427	0.138	0.078
-545.296	-200.000	0.004	-0.054
-544.281	-186.805	-0.213	-0.003
-543.266	84.296	0.118	0.129
-542.252	-200.000	0.034	0.170
-541.237	17.136	0.279	0.221
-540.223	-130.593	-0.106	-0.014
-539.208	-172.787	0.349	0.011
-538.193	97.893	-0.087	0.100
-537.179	415.033	-0.092	0.195
-536.164	-200.000	0.004	-0.316
-535.150	-200.000	0.035	-0.355
-534.135	50.343	0.436	-0.412
-533.121	29.186	-0.293	0.249
-532.106	-82.982	-0.081	-0.026
-531.091	-28.482	0.231	0.133
-530.077	-117.012	-0.242	0.044
-529.062	180.076	0.067	-0.098
-528.048	-173.469	-0.217	-0.007
-527.033	-4.080	0.294	0.204
-526.018	-200.000	-0.030	0.160
-525.004	-200.000	-0.059	0.307
-523.989	-200.000	0.024	0.129
-522.975	-59.618	0.156	-0.067
-521.960	800.000	0.076	0.280
-520.945	1.727	-0.151	0.108
-519.931	800.000	0.050	-0.147
-518.916	-140.667	0.078	0.008
-517.902	-59.523	-0.463	0.198
-516.887	179.297	-0.136	-0.199
-515.872	729.838	-0.127	-0.340
-514.858	60.976	-0.172	0.171
-513.843	461.342	-0.064	0.142
-512.829	5.323	-0.193	-0.142
-511.814	130.311	-0.192	0.246
-510.799	800.000	-0.047	-0.150
-509.785	168.209	0.085	-0.121
-508.770	134.717	-0.145	-0.188
-507.756	-62.554	-0.223	-0.092
-506.741	-85.663	0.158	-0.049
-505.726	0.259	-0.212	-0.151
-504.712	53.534	0.105	0.101
-503.697	436.272	-0.026	0.057
-502.683	21.647	-0.196	-0.159
-501.668	-52.073	-0.110	-0.051
-500.653	108.926	-0.248	0.295
-499.639	27.697	-0.225	0.189
-498.624	59.670	-0.184	-0.181
-497.610	361.858	-0.050	-0.099
-496.595	88.100	-0.109	0.121
-495.581	-86.422	0.129	-0.040
-494.566	-93.568	-0.199	-0.055
-493.551	-157.033	0.261	-0.016
-492.537	-41.404	-0.086	0.044
-491.522	456.883	0.040	0.089
-490.508	139.565	0.117	-0.154
-489.493	-99.491	0.260	0.065
-488.478	794.903	0.114	-0.313
-487.464	15.577	0.063	0.049
-486.449	-200.000	0.025	0.116
-485.435	-137.921	0.348	-0.039
-484.420	59.142	-0.302	-0.297
-483.405	444.627	-0.105	0.229
-482.391	-76.952	-0.178	0.062
-481.376	-162.395	-0.090	0.004
-480.362	-28.253	-0.237	0.136
-479.347	-200.000	-0.016	0.165
-478.332	-200.000	0.019	-0.150
-477.318	398.823	0.065	0.135
-476.303	84.954	-0.047	0.052
-475.289	63.835	-0.058	-0.058
-474.274	-80.182	-0.034	-0.011
-473.259	-181.789	0.295	-0.006
-472.245	-58.799	0.465	0.200
-471.230	-164.813	0.424	-0.019
-470.216	-125.278	0.359	-0.055
-469.201	549.489	0.054	0.129
-468.186	-69.940	-0.072	0.028
-467.172	36.661	0.145	0.128
-466.157	244.393	0.053	-0.089
-465.143	-18.148	-0.127	0.079
-464.128	800.000	-0.037	0.103
-463.113	-28.242	0.212	0.122
-462.099	800.000	0.030	-0.098
-461.084	-200.000	0.006	0.114
-460.070	-112.964	-0.074	0.015
-459.055	51.311	-0.127	-0.120
-458.040	34.705	0.086	0.075
-457.026	213.624	0.198	0.313
-456.011	-87.607	-0.320	0.096
-454.997	-34.412	-0.057	0.031
-453.982	-50.308	-0.198	-0.093
-452.968	800.000	-0.027	-0.096
-451.953	-200.000	0.016	-0.107
-450.938	-112.534	0.209	0.042
-449.924	-200.000	-0.001	0.085
-448.909	187.378	-0.115	0.171
-447.895	313.091	-0.089	-0.167
-446.880	16.438	-0.037	-0.029
-445.865	-133.836	0.314	-0.039
-444.851	-6.910	0.246	0.166
-443.836	-200.000	-0.045	-0.202
-442.822	47.954	0.299	-0.278
-441.807	-91.121	0.246	-0.070
-440.792	-95.643	0.214	-0.057
-439.778	91.305	0.083	0.093
-438.763	-200.000	-0.042	-0.191
-437.749	-200.000	0.026	-0.143
-436.734	139.447	-0.075	-0.099
-435.719	-57.885	0.214	0.093
-434.705	-117.682	-0.219	-0.039
-433.690	-30.577	0.188	-0.106
-432.676	522.768	0.169	-0.395
-431.661	141.266	0.069	0.091
-430.646	800.000	-0.066	0.202
-429.632	-200.000	-0.006	0.261
-428.617	-200.000	0.023	-0.212
-427.603	11.317	0.088	-0.067
-426.588	-30.522	0.048	0.027
-425.573	-200.000	0.015	-0.329
-424.559	136.489	-0.011	0.015
-423.544	185.451	-0.159	-0.236
-422.530	132.168	0.029	0.037
-421.515	-57.355	-0.265	-0.116
-420.500	148.383	0.145	-0.195
-419.486	-67.116	0.446	-0.175
-418.471	-23.861	0.207	0.124
-417.457	-200.000	-0.004	-0.119
-416.442	155.696	0.110	-0.151
-415.428	209.550	0.332	-0.517
-414.413	800.000	0.069	0.191
-413.398	459.523	0.058	0.128
-412.384	-200.000	0.006	0.066
-411.369	-46.097	-0.173	-0.085
-410.355	19.509	0.111	-0.089
-409.340	-159.670	-0.077	-0.004
-408.325	-76.833	-0.161	0.056
-407.311	-200.000	-0.012	-0.298
-406.296	-97.578	-0.251	-0.065
-405.282	-200.000	0.036	0.358
-404.267	-107.113	-0.128	0.028
-403.252	-200.000	-0.024	-0.254
-402.238	-44.112	-0.287	-0.143
-401.223	-20.814	-0.109	0.066
-400.209	-4.393	-0.099	-0.068
-399.194	250.962	-0.119	-0.201
-398.179	157.416	0.132	-0.182
-397.165	-82.364	-0.038	0.012
-396.150	-55.398	-0.315	0.141
-395.136	800.000	0.100	0.300
-394.121	68.153	0.236	0.240
-393.106	-92.487	0.123	-0.034
-392.092	-160.563	0.257	0.014
-391.077	419.893	-0.052	0.111
-390.063	-200.000	0.016	-0.192
-389.048	-153.445	0.271	-0.019
-388.033	271.418	-0.093	-0.163
-387.019	159.077	0.043	0.059
-386.004	-132.108	0.248	0.032
-384.990	800.000	0.054	0.163
-383.975	-2.832	0.163	0.113
-382.960	-33.253	-0.192	-0.106
-381.946	-92.997	-0.031	0.009
-380.931	-57.130	-0.264	-0.115
-379.917	-21.957	-0.256	-0.155
-378.902	95.423	-0.089	0.101
-377.888	-4.159	0.228	-0.157
-376.873	81.560	0.176	-0.189
-375.858	-57.590	0.121	0.053
-374.844	-60.770	-0.126	0.053
-373.829	-75.859	-0.346	0.122
-372.815	-200.000	0.035	-0.193
-371.800	81.124	-0.112	0.120
-370.785	-198.628	0.115	0.001
-369.771	800.000	-0.041	0.118
-368.756	-200.000	0.015	-0.119
-367.742	-200.000	0.024	0.130
-366.727	114.928	-0.057	0.069
-365.712	-200.000	-0.034	-0.241
-364.698	-56.721	0.044	0.019
-363.683	-200.000	-0.021	0.182
-362.669	246.899	-0.231	0.387
-361.654	445.028	-0.143	0.312
-360.639	-200.000	0.392	0.001
-359.625	69.185	-0.220	-0.225
-358.610	36.339	-0.171	0.149
-357.596	15.893	0.121	0.095
-356.581	3.602	-0.320	0.232
-355.566	69.926	0.220	-0.225
-354.552	30.146	-0.056	-0.048
-353.537	-75.483	-0.141	-0.050
-352.523	75.306	0.070	0.073
-351.508	249.793	0.074	-0.124
-350.493	41.782	0.087	0.078
-349.479	228.741	-0.148	-0.240
-348.464	204.345	0.301	0.462
-347.450	800.000	-0.015	0.057
-346.435	476.569	-0.047	-0.106
-345.420	-2.653	0.256	-0.178
-344.406	312.120	-0.125	0.232
-343.391	111.775	-0.138	-0.165
-342.377	224.930	-0.083	-0.133
-341.362	675.536	0.215	0.554
-340.348	-75.164	-0.157	0.056
-339.333	-1.957	-0.094	0.066
-338.318	-200.000	-0.014	0.273
-337.304	171.056	0.076	0.108
-336.289	-92.407	-0.288	0.080
-335.275	-96.017	-0.254	-0.067
-334.260	-200.000	0.011	-0.191
-333.245	800.000	0.015	0.059
-332.231	233.060	0.088	-0.143
-331.216	195.429	-0.090	0.136
-330.202	92.547	0.116	0.130
-329.187	-200.000	0.086	0.435
-328.172	-129.098	0.172	0.024
-327.158	-68.075	0.239	-0.092
-326.143	-97.553	-0.015	-0.004
-325.129	-136.224	-0.388	-0.045
-324.114	747.174	-0.069	-0.185
-323.099	92.019	-0.084	-0.094
-322.085	-200.000	-0.004	0.040
-321.070	645.673	-0.207	-0.525
-320.056	26.242	-0.201	-0.166
-319.041	-102.008	-0.371	-0.089
-318.026	226.845	-0.167	0.269
-317.012	56.980	-0.206	0.199
-315.997	-200.000	0.012	0.200
-314.983	-152.344	0.281	-0.020
-313.968	-123.950	0.013	0.002
-312.953	-155.020	-0.196	0.013
-311.939	-79.661	-0.281	0.094
-310.924	370.839	-0.108	0.216
-309.910	-200.000	-0.089	0.420
-308.895	712.931	-0.043	-0.113
-307.880	800.000	-0.044	-0.171
-306.866	147.531	-0.059	-0.079
-305.851	49.865	0.234	0.219
-304.837	-134.722	-0.189	0.023
-303.822	119.046	0.164	-0.201
-302.807	800.000	0.043	-0.122
-301.793	-161.732	0.268	0.014
-300.778	-75.019	0.321	0.114
-299.764	783.080	-0.024	-0.066
-298.749	-91.725	-0.121	0.034
-297.735	16.153	0.246	-0.192
-296.720	-112.924	-0.101	0.020
-295.705	8.145	-0.265	0.197
-294.691	44.186	0.341	0.310
-293.676	230.035	-0.108	0.174
-292.662	71.258	0.298	-0.306
-291.647	-51.796	0.175	0.081
-290.632	254.736	0.089	-0.151
-289.618	-46.203	-0.110	0.054
-288.603	114.964	0.155	-0.187
-287.589	-200.000	-0.050	-0.386
-286.574	-47.488	-0.095	-0.046
-285.559	32.518	-0.046	0.039
-284.545	-4.035	0.259	-0.177
-283.530	800.000	-0.038	-0.162
-282.516	-175.008	-0.279	0.008
-281.501	388.435	-0.053	-0.109
-280.486	264.834	-0.019	-0.033
-279.472	82.335	-0.127	-0.136
-278.457	-91.083	0.171	-0.049
-277.443	-72.234	0.094	0.034
-276.428	-27.684	0.053	-0.031
-275.413	-156.371	-0.148	-0.009
-274.399	-200.000	-0.040	-0.312
-273.384	12.409	-0.060	0.045
-272.370	-120.153	-0.185	-0.031
-271.355	-200.000	0.034	-0.186
-270.340	-37.632	0.433	0.228
-269.326	-33.298	0.080	0.044
-268.311	17.061	-0.055	-0.043
-267.297	-29.619	-0.077	-0.044
-266.282	-200.000	0.265	0.001
-265.267	147.543	-0.078	0.104
-264.253	-200.000	0.007	0.447
-263.238	418.415	0.057	0.120
-262.224	196.270	-0.151	-0.228
-261.209	-48.683	0.082	0.039
-260.195	-4.873	0.262	-0.178
-259.180	121.266	0.236	-0.290
-258.165	-200.000	0.102	0.501
-257.151	-29.454	0.195	0.110
-256.136	800.000	-0.056	-0.212
-255.122	12.792	0.243	-0.186
-254.107	-76.190	-0.131	0.046
-253.092	-148.334	0.365	-0.030
-252.078	-115.639	0.420	-0.078
-251.063	699.813	-0.098	-0.255
-250.049	-200.000	0.030	-0.260
-249.034	148.160	0.091	-0.121
-248.019	122.340	-0.202	-0.250
-247.005	64.951	0.124	-0.124
-245.990	800.000	0.110	-0.456
-244.976	111.546	-0.219	0.261
-243.961	287.332	-0.121	0.215
-242.946	800.000	-0.126	-0.365
-241.932	150.752	0.168	0.226
-240.917	-123.269	-0.187	-0.029
-239.903	-153.450	-0.269	-0.018
-238.888	254.593	-0.127	-0.216
-237.873	109.676	-0.229	-0.271
-236.859	-200.000	-0.025	-0.151
-235.844	-24.763	0.081	-0.048
-234.830	18.135	0.400	0.316
-233.815	-200.000	0.034	0.347
-232.800	175.611	-0.105	-0.150
-231.786	-11.286	-0.156	0.101
-230.771	136.808	-0.199	0.257
-229.757	-140.970	0.228	0.023
-228.742	492.439	-0.032	0.071
-227.727	-121.346	-0.234	-0.039
-226.713	175.210	-0.026	0.037
-225.698	3.153	0.180	0.129
-224.684	-129.116	-0.403	-0.056
-223.669	-200.000	-0.012	0.108
-222.655	-49.645	-0.133	0.062
-221.640	13.685	-0.033	0.026
-220.625	258.462	0.132	-0.224
-219.611	91.388	0.190	0.210
-218.596	-125.053	0.139	0.021
-217.582	200.994	-0.167	-0.253
-216.567	364.120	-0.153	0.303
-215.552	342.324	-0.018	-0.035
-214.538	-1.262	-0.194	0.135
-213.523	-109.920	-0.055	0.011
-212.509	-200.000	-0.164	0.000
-211.494	-157.215	0.183	0.011
-210.479	435.273	-0.124	-0.266
-209.465	99.370	-0.128	-0.146
-208.450	-200.000	0.073	0.436
-207.436	-200.000	0.003	0.342
-206.421	52.980	0.125	0.118
-205.406	-49.093	-0.194	-0.092
-204.392	214.379	-0.041	-0.064
-203.377	64.175	0.079	-0.079
-202.363	-200.000	-0.083	-0.491
-201.348	-200.000	0.014	-0.117
-200.333	212.302	-0.148	-0.230
-199.319	34.564	-0.218	0.188
-198.304	-200.000	-0.001	0.287
-197.290	7.759	0.157	0.116
-196.275	31.985	0.099	-0.084
-195.260	10.233	0.130	-0.098
-194.246	-120.896	-0.345	0.057
-193.231	-169.374	0.189	-0.007
-192.217	342.110	0.030	0.058
-191.202	-65.049	0.201	0.080
-190.187	50.099	0.135	-0.125
-189.173	-164.687	0.230	0.010
-188.158	-200.000	0.001	0.286
-187.144	20.045	-0.312	0.248
-186.129	185.163	0.060	-0.087
-185.114	-67.558	0.336	0.130
-184.100	101.188	-0.047	-0.054
-183.085	-13.189	-0.293	-0.188
-182.071	-200.000	0.005	-0.107
-181.056	299.478	0.035	0.064
-180.042	-200.000	-0.072	0.326
-179.027	800.000	-0.083	0.317
-178.012	0.778	-0.083	-0.059
-176.998	141.701	-0.181	-0.236
-175.983	-108.320	0.170	-0.036
-174.969	-200.000	-0.015	0.106
-173.954	593.836	0.147	0.358
-172.939	-85.695	0.076	0.023
-171.925	-87.194	0.147	-0.044
-170.910	-200.000	0.029	0.136
-169.896	800.000	0.051	0.147
-168.881	-9.813	-0.117	-0.076
-167.866	-149.473	-0.098	-0.008
-166.852	-200.000	0.002	0.212
-165.837	253.446	-0.119	0.200
-164.823	-162.600	-0.113	0.005
-163.808	-21.889	0.102	0.061
-162.793	133.942	0.123	0.157
-161.779	-200.000	0.016	0.119
-160.764	-51.559	-0.211	0.097
-159.750	800.000	0.060	-0.186
-158.735	800.000	-0.072	0.282
-157.720	-200.000	0.038	0.267
-156.706	-79.024	0.268	-0.090
-155.691	17.586	0.206	-0.161
-154.677	800.000	0.083	-0.272
-153.662	-120.540	-0.279	0.047
-152.647	-25.015	0.281	-0.164
-151.633	55.209	-0.318	-0.303
-150.618	125.634	0.117	-0.145
-149.604	-46.801	0.311	0.150
-148.589	33.548	0.012	0.010
-147.574	-112.773	-0.178	0.035
-146.560	90.767	0.203	-0.224
-145.545	800.000	0.078	0.260
-144.531	-93.635	-0.202	-0.055
-143.516	-103.850	-0.308	0.071
-142.502	314.421	-0.102	-0.189
-141.487	287.490	-0.199	-0.353
-140.472	597.186	0.036	-0.088
-139.458	22.864	-0.053	0.043
-138.443	-0.157	0.350	-0.245
-137.429	-167.622	-0.244	0.010
-136.414	211.227	0.264	0.409
-135.399	138.867	-0.071	0.091
-134.385	-200.000	0.028	0.134
-133.370	33.037	-0.221	0.188
-132.356	14.367	0.169	0.130
-131.341	-40.308	0.190	-0.097
-130.326	735.184	-0.036	-0.094
-129.312	267.219	0.033	0.057
-128.297	-168.640	0.206	0.008
-127.283	-93.163	0.231	-0.063
-126.268	203.311	-0.131	0.199
-125.253	-48.705	-0.447	-0.211
-124.239	-200.000	0.039	-0.167
-123.224	288.613	0.137	-0.243
-122.210	10.429	-0.173	0.130
-121.195	300.069	0.030	0.055
-120.180	800.000	-0.013	0.037
