DTS Sentinel unit serial number:	SN413079Multiplexer serial number:	ORYXHardware model number:	OX4-SRSoftware version number:	ORYX F/W v4.00 Oryx Data Collector v3.7.2.0data status	okinstallation	princeton_trtdifferential loss correction	single-endedforward channel	channel 1reverse channel	N/Adate	2019/09/17time	16:46:35forward acquisition time	60.00reverse acquisition time	0.00gamma	496.2192k internal	0.2292k external	0.2292temperature offset calibration	0.9960default loss term (dB/km)	0.3790temperature slope calibration	1.0000multiplexer offset coefficient	1.0000multiplexer slope coefficient	1.0000fibre end	0.00T internal ref (°C)	42.16T ext. ref 1 (°C)	0.37T ext. ref 2 (°C)	38.47length (m)	temperature (°C)	Stokes	anti-Stokes-747.200	702.012	-0.052	-0.141
-746.185	538.540	0.036	0.088
-745.171	800.000	-0.068	0.264
-744.156	33.709	0.410	0.365
-743.142	401.657	-0.088	-0.189
-742.127	91.800	-0.100	0.115
-741.112	-92.503	-0.306	0.088
-740.098	800.000	0.069	0.292
-739.083	-200.000	-0.236	0.000
-738.069	800.000	0.031	0.114
-737.054	-200.000	-0.032	0.554
-736.039	800.000	-0.089	0.289
-735.025	-91.035	0.342	0.101
-734.010	-119.449	0.115	0.020
-732.996	-18.539	-0.149	-0.095
-731.981	634.983	0.091	-0.237
-730.966	186.769	0.263	-0.400
-729.952	203.789	0.030	0.047
-728.937	207.179	-0.261	-0.417
-727.923	-200.000	-0.030	0.238
-726.908	-200.000	0.001	0.187
-725.894	24.390	-0.232	-0.196
-724.879	544.139	-0.136	-0.332
-723.864	175.708	-0.097	0.144
-722.850	-200.000	0.011	0.137
-721.835	-200.000	0.017	-0.175
-720.821	-200.000	0.044	-0.208
-719.806	-74.273	0.308	-0.114
-718.791	-56.227	0.285	-0.130
-717.777	10.813	0.119	-0.093
-716.762	-68.990	-0.183	-0.072
-715.748	348.722	-0.063	-0.127
-714.733	-200.000	-0.035	0.361
-713.718	197.295	-0.117	-0.182
-712.704	242.878	0.100	-0.172
-711.689	49.965	0.158	0.153
-710.675	-65.046	-0.464	-0.192
-709.660	204.995	0.122	0.193
-708.645	-58.156	0.184	0.082
-707.631	-200.000	0.004	0.044
-706.616	-200.000	-0.048	-0.320
-705.602	-200.000	-0.010	0.196
-704.587	-180.185	-0.244	-0.005
-703.572	-23.301	0.388	-0.238
-702.558	800.000	-0.122	0.346
-701.543	-160.442	0.189	0.010
-700.529	53.287	0.176	0.173
-699.514	-141.417	0.067	0.007
-698.499	-19.288	0.098	0.062
-697.485	23.185	0.177	-0.148
-696.470	-122.786	0.074	0.012
-695.456	67.867	0.040	-0.041
-694.441	-200.000	-0.035	0.362
-693.426	-54.925	0.273	-0.126
-692.412	800.000	-0.072	0.281
-691.397	-108.609	-0.283	0.062
-690.383	-70.650	-0.087	-0.034
-689.368	35.771	0.080	-0.072
-688.354	768.684	-0.125	-0.347
-687.339	85.685	0.123	0.139
-686.324	-104.887	-0.366	0.086
-685.310	-73.886	0.570	-0.212
-684.295	63.955	-0.079	0.081
-683.281	54.062	-0.090	-0.088
-682.266	3.597	0.195	0.145
-681.251	-79.590	-0.115	0.040
-680.237	225.687	-0.126	0.208
-679.222	30.962	0.154	0.135
-678.208	473.919	-0.056	-0.128
-677.193	800.000	0.065	-0.198
-676.178	-96.080	-0.186	-0.050
-675.164	110.263	-0.049	0.060
-674.149	138.613	0.201	0.270
-673.135	72.003	0.342	-0.363
-672.120	-99.411	0.151	-0.039
-671.105	-149.702	-0.142	0.011
-670.091	650.607	0.005	0.013
-669.076	124.885	0.104	-0.134
-668.062	-97.734	-0.335	0.089
-667.047	-0.191	-0.165	-0.119
-666.032	-137.088	-0.210	0.024
-665.018	-106.215	0.133	0.030
-664.003	-69.929	0.113	-0.044
-662.989	39.384	-0.120	0.110
-661.974	-46.927	-0.442	-0.220
-660.959	-98.322	0.153	-0.040
-659.945	800.000	0.107	-0.364
-658.930	-21.381	-0.071	-0.044
-657.916	800.000	0.066	-0.239
-656.901	-18.864	-0.062	-0.039
-655.886	-111.632	-0.103	-0.021
-654.872	121.773	0.125	0.159
-653.857	386.234	0.093	-0.196
-652.843	9.667	-0.173	0.134
-651.828	-200.000	-0.026	0.143
-650.814	-103.416	0.196	0.047
-649.799	681.284	0.025	-0.067
-648.784	800.000	0.052	0.222
-647.770	800.000	-0.068	0.218
-646.755	800.000	0.034	0.119
-645.741	-82.475	-0.134	-0.044
-644.726	800.000	0.035	0.109
-643.711	-39.078	0.070	-0.038
-642.697	-200.000	-0.021	-0.248
-641.682	-101.666	0.208	-0.052
-640.668	800.000	0.036	0.159
-639.653	-86.619	-0.232	0.072
-638.638	141.483	0.182	0.246
-637.624	-200.000	-0.033	-0.257
-636.609	763.852	-0.062	0.171
-635.595	-39.852	-0.443	0.236
-634.580	19.191	-0.230	-0.188
-633.565	-200.000	0.060	-0.480
-632.551	-110.124	-0.109	0.023
-631.536	534.160	-0.069	-0.167
-630.522	188.629	0.060	-0.091
-629.507	409.993	-0.095	0.205
-628.492	40.676	0.295	0.271
-627.478	159.478	-0.051	-0.072
-626.463	142.080	0.185	-0.249
-625.449	-147.404	-0.164	-0.014
-624.434	34.618	-0.165	-0.147
-623.419	-200.000	0.067	0.332
-622.405	-130.538	0.177	-0.024
-621.390	-179.891	0.193	-0.004
-620.376	127.122	0.111	0.144
-619.361	-200.000	0.013	-0.244
-618.346	800.000	0.050	-0.199
-617.332	698.907	-0.115	0.309
-616.317	-100.290	-0.250	0.063
-615.303	25.052	-0.262	0.221
-614.288	735.033	-0.054	0.148
-613.273	294.483	-0.136	0.254
-612.259	573.071	0.084	0.209
-611.244	-173.326	-0.449	0.014
-610.230	-74.234	0.115	-0.042
-609.215	-115.851	0.438	-0.083
-608.201	800.000	-0.112	-0.316
-607.186	73.300	-0.137	0.146
-606.171	-28.319	0.032	-0.019
-605.157	-119.987	0.099	0.017
-604.142	-200.000	-0.013	-0.321
-603.128	-99.920	-0.331	-0.084
-602.113	-128.817	0.293	-0.042
-601.098	-200.000	-0.021	-0.286
-600.084	8.219	-0.165	0.126
-599.069	-74.973	-0.084	0.031
-598.055	-69.849	-0.167	0.065
-597.040	54.210	-0.144	-0.141
-596.025	83.706	0.084	-0.093
-595.011	3.362	-0.148	-0.110
-593.996	-200.000	0.004	-0.080
-592.982	-118.770	-0.352	-0.063
-591.967	35.601	-0.153	0.137
-590.952	47.218	0.062	-0.059
-589.938	-58.647	-0.366	-0.161
-588.923	-110.392	0.124	-0.026
-587.909	67.537	-0.161	0.167
-586.894	196.380	-0.016	-0.024
-585.879	-200.000	0.005	0.107
-584.865	-53.701	0.065	0.030
-583.850	163.897	-0.179	-0.257
-582.836	-108.206	0.281	-0.062
-581.821	-117.086	0.483	0.090
-580.806	34.218	-0.094	0.083
-579.792	28.717	-0.194	0.167
-578.777	800.000	0.012	-0.047
-577.763	259.195	-0.121	-0.213
-576.748	-200.000	-0.014	0.078
-575.733	800.000	0.182	0.523
-574.719	800.000	-0.035	0.118
-573.704	-38.169	0.093	0.050
-572.690	73.419	-0.123	0.131
-571.675	10.584	-0.072	-0.056
-570.661	-200.000	0.002	0.043
-569.646	117.187	-0.130	-0.162
-568.631	-175.945	-0.502	-0.014
-567.617	-96.121	0.189	0.051
-566.602	-200.000	-0.027	0.131
-565.588	-200.000	-0.003	0.140
-564.573	113.739	0.020	-0.025
-563.558	34.402	0.041	0.036
-562.544	-179.956	-0.078	-0.002
-561.529	-138.442	0.188	0.021
-560.515	-60.805	0.064	-0.027
-559.500	800.000	0.093	0.287
-558.485	-112.006	0.098	0.020
-557.471	9.825	0.142	0.109
-556.456	-68.669	-0.191	0.075
-555.442	138.908	-0.009	-0.012
-554.427	-173.470	-0.168	0.005
-553.412	800.000	-0.092	0.263
-552.398	2.588	-0.141	-0.103
-551.383	-121.653	-0.190	0.032
-550.369	-100.627	0.333	-0.084
-549.354	800.000	0.021	0.081
-548.339	85.892	-0.128	0.143
-547.325	117.590	-0.113	-0.142
-546.310	-117.346	0.168	-0.031
-545.296	44.263	-0.200	-0.187
-544.281	-112.650	0.064	0.013
-543.266	800.000	-0.048	0.171
-542.252	-106.926	-0.138	0.031
-541.237	-200.000	-0.014	-0.190
-540.223	94.973	0.118	-0.136
-539.208	-200.000	-0.034	0.302
-538.193	140.475	-0.171	0.229
-537.179	-200.000	-0.011	0.099
-536.164	50.730	0.069	-0.067
-535.150	-166.353	0.083	-0.004
-534.135	19.694	0.247	0.202
-533.121	-139.047	0.154	0.017
-532.106	-64.709	-0.421	0.173
-531.091	-200.000	-0.030	-0.402
-530.077	-27.021	-0.120	0.071
-529.062	10.466	0.170	-0.131
-528.048	243.416	-0.017	-0.028
-527.033	276.610	0.116	0.209
-526.018	213.688	0.189	0.304
-525.004	244.134	0.152	-0.259
-523.989	-74.002	0.285	-0.105
-522.975	-200.000	0.002	-0.009
-521.960	-121.799	-0.125	0.021
-520.945	-72.516	0.018	0.007
-519.931	-200.000	0.014	-0.135
-518.916	546.577	0.088	0.214
-517.902	-70.573	-0.122	0.047
-516.887	-200.000	0.023	0.189
-515.872	-135.628	0.198	-0.024
-514.858	-143.289	-0.084	-0.008
-513.843	-82.552	-0.052	0.017
-512.829	17.157	-0.180	0.144
-511.814	6.379	-0.455	0.342
-510.799	302.912	0.117	-0.219
-509.785	-200.000	0.030	0.356
-508.770	-200.000	-0.038	-0.191
-507.756	127.998	-0.249	-0.321
-506.741	-109.119	0.162	0.035
-505.726	-189.145	0.302	0.004
-504.712	-200.000	0.046	0.374
-503.697	-179.614	0.441	0.010
-502.683	91.221	-0.095	-0.108
-501.668	-108.988	0.237	-0.051
-500.653	208.461	0.102	-0.162
-499.639	-200.000	-0.015	-0.353
-498.624	-176.967	0.145	-0.004
-497.610	800.000	0.015	-0.048
-496.595	-69.196	0.286	0.112
-495.581	156.344	0.197	0.276
-494.566	465.399	0.045	-0.103
-493.551	800.000	-0.060	0.168
-492.537	-61.095	0.055	0.024
-491.522	-200.000	-0.005	0.280
-490.508	60.358	0.153	0.154
-489.493	661.242	-0.061	-0.158
-488.478	371.430	-0.194	-0.398
-487.464	430.058	-0.139	-0.305
-486.449	23.271	-0.016	-0.013
-485.435	375.801	-0.119	-0.246
-484.420	-131.880	-0.279	-0.037
-483.405	29.190	0.232	0.199
-482.391	146.645	0.094	0.127
-481.376	-112.184	0.195	0.040
-480.362	800.000	-0.036	0.123
-479.347	472.302	-0.090	0.206
-478.332	-127.597	-0.207	0.030
-477.318	-112.635	0.209	0.042
-476.303	255.471	0.077	0.134
-475.289	-158.646	0.075	-0.004
-474.274	-185.905	0.237	-0.004
-473.259	72.937	0.062	0.065
-472.245	147.178	0.240	-0.328
-471.230	34.913	0.067	-0.059
-470.216	42.686	-0.127	-0.117
-469.201	800.000	-0.037	0.113
-468.186	-8.341	0.133	0.091
-467.172	800.000	0.032	0.130
-466.157	-37.947	-0.033	-0.018
-465.143	102.718	-0.120	-0.143
-464.128	-75.855	-0.342	-0.123
-463.113	-58.750	-0.179	-0.078
-462.099	-132.449	-0.269	0.035
-461.084	-200.000	-0.032	-0.451
-460.070	-107.753	0.138	-0.031
-459.055	127.367	-0.159	-0.205
-458.040	365.429	0.133	-0.271
-457.026	800.000	0.041	0.135
-456.011	-200.000	-0.073	0.400
-454.997	-200.000	0.039	0.273
-453.982	800.000	0.037	-0.149
-452.968	764.300	-0.094	-0.257
-451.953	-200.000	0.011	-0.334
-450.938	-46.126	0.227	0.113
-449.924	-10.353	-0.281	0.189
-448.909	-149.007	0.123	0.010
-447.895	800.000	-0.020	-0.057
-446.880	-200.000	-0.002	0.335
-445.865	-95.298	-0.317	0.086
-444.851	-94.411	-0.047	0.013
-443.836	347.907	-0.042	0.083
-442.822	-90.266	-0.172	-0.051
-441.807	-52.218	-0.012	0.005
-440.792	115.062	0.100	-0.123
-439.778	-200.000	-0.035	0.223
-438.763	-121.565	0.508	-0.085
-437.749	-145.687	0.118	-0.011
-436.734	800.000	-0.032	-0.124
-435.719	-154.438	0.131	-0.009
-434.705	-200.000	-0.001	-0.108
-433.690	-200.000	-0.030	-0.164
-432.676	-86.203	-0.145	0.045
-431.661	-91.637	-0.181	-0.052
-430.646	80.844	-0.221	-0.241
-429.632	140.757	-0.091	0.122
-428.617	46.909	-0.273	0.257
-427.603	11.660	0.222	0.172
-426.588	234.863	0.073	-0.121
-425.573	699.946	0.155	-0.412
-424.559	-59.310	0.345	0.150
-423.544	-21.114	0.231	0.143
-422.530	-200.000	0.002	0.067
-421.515	-21.485	-0.069	-0.042
-420.500	423.530	0.094	0.205
-419.486	45.706	-0.242	0.226
-418.471	-99.325	-0.181	0.046
-417.457	-89.186	0.082	0.024
-416.442	800.000	-0.045	-0.129
-415.428	49.943	0.263	0.250
-414.413	-155.205	0.143	-0.009
-413.398	13.484	-0.053	-0.041
-412.384	-98.749	-0.393	0.101
-411.369	-184.045	0.299	0.005
-410.355	-150.088	0.263	-0.021
-409.340	-39.095	-0.053	0.028
-408.325	-164.706	-0.369	-0.017
-407.311	-200.000	0.007	-0.198
-406.296	176.997	-0.112	-0.164
-405.282	-104.629	0.132	-0.031
-404.267	-132.878	0.348	0.045
-403.252	142.452	-0.101	-0.135
-402.238	355.143	0.057	-0.114
-401.223	800.000	-0.061	-0.171
-400.209	-200.000	-0.042	0.333
-399.194	-98.490	-0.555	-0.143
-398.179	-152.413	-0.030	0.002
-397.165	183.884	-0.152	-0.228
-396.150	65.911	0.082	0.084
-395.136	22.593	-0.141	0.116
-394.121	135.135	0.155	-0.204
-393.106	-52.348	0.091	-0.043
-392.092	31.641	0.165	0.144
-391.077	-29.645	-0.134	-0.077
-390.063	12.963	-0.064	0.050
-389.048	-200.000	0.007	-0.125
-388.033	800.000	-0.103	0.309
-387.019	0.972	0.086	0.062
-386.004	-158.361	0.237	0.014
-384.990	-126.584	0.290	-0.043
-383.975	-120.931	-0.114	0.019
-382.960	-130.813	0.207	-0.028
-381.946	135.286	0.074	-0.097
-380.931	40.630	-0.038	-0.034
-379.917	-200.000	-0.007	0.072
-378.902	329.922	0.046	0.090
-377.888	60.697	-0.210	-0.210
-376.873	-122.750	0.240	-0.039
-375.858	-71.426	-0.107	0.041
-374.844	-15.931	-0.090	-0.058
-373.829	-11.685	-0.093	-0.062
-372.815	-200.000	-0.010	-0.076
-371.800	-29.340	-0.027	0.015
-370.785	800.000	0.062	-0.195
-369.771	654.043	-0.036	0.094
-368.756	-37.531	0.111	0.060
-367.742	-200.000	0.005	0.052
-366.727	270.595	0.116	0.206
-365.712	-82.343	-0.199	0.065
-364.698	-83.155	0.077	0.025
-363.683	22.824	0.184	-0.152
-362.669	3.334	-0.268	0.197
-361.654	800.000	0.105	0.297
-360.639	-200.000	-0.036	0.187
-359.625	-200.000	-0.014	-0.107
-358.610	57.657	0.197	0.194
-357.596	46.647	0.164	0.154
-356.581	-34.283	-0.112	0.062
-355.566	235.452	0.072	-0.119
-354.552	-99.389	-0.158	-0.040
-353.537	-52.172	0.153	-0.071
-352.523	53.659	-0.091	0.088
-351.508	-200.000	0.054	-0.445
-350.493	-129.603	0.293	-0.041
-349.479	-11.542	-0.143	-0.095
-348.464	147.017	0.066	0.090
-347.450	-74.604	-0.058	0.021
-346.435	800.000	0.056	-0.159
-345.420	-39.653	-0.410	-0.216
-344.406	800.000	0.078	0.341
-343.391	227.897	0.103	0.168
-342.377	104.342	0.426	0.506
-341.362	-141.247	0.085	0.009
-340.348	-200.000	0.002	0.071
-339.333	193.690	0.044	0.067
-338.318	-200.000	0.041	0.204
-337.304	-200.000	-0.003	0.281
-336.289	-86.311	0.227	0.070
-335.275	-200.000	0.012	-0.159
-334.260	201.132	0.088	0.137
-333.245	-148.341	0.164	0.014
-332.231	253.520	0.077	-0.133
-331.216	-200.000	-0.003	0.394
-330.202	800.000	-0.036	0.114
-329.187	-124.242	0.375	-0.059
-328.172	-101.650	0.165	0.040
-327.158	13.475	0.174	0.136
-326.143	-200.000	0.092	-0.512
-325.129	10.174	0.303	0.232
-324.114	-86.297	0.142	-0.044
-323.099	800.000	-0.024	0.080
-322.085	-200.000	0.030	-0.144
-321.070	-200.000	0.014	-0.161
-320.056	-26.427	-0.340	-0.201
-319.041	-200.000	-0.003	0.048
-318.026	-123.951	-0.103	-0.016
-317.012	533.932	0.137	-0.327
-315.997	-200.000	0.076	-0.380
-314.983	129.213	0.160	-0.205
-313.968	800.000	-0.080	-0.350
-312.953	-14.410	-0.200	0.130
-311.939	-6.480	0.237	0.162
-310.924	800.000	-0.040	0.121
-309.910	-19.486	-0.297	-0.185
-308.895	528.354	0.078	0.186
-307.880	-93.369	-0.104	-0.029
-306.866	800.000	0.063	-0.252
-305.851	-106.717	-0.282	-0.063
-304.837	96.019	0.187	0.215
-303.822	-200.000	0.002	-0.317
-302.807	25.971	0.097	0.081
-301.793	-157.329	-0.364	0.022
-300.778	73.689	-0.101	-0.107
-299.764	-38.060	-0.333	-0.178
-298.749	82.850	0.159	-0.173
-297.735	393.810	-0.174	0.363
-296.720	800.000	-0.004	-0.014
-295.705	29.437	-0.022	0.019
-294.691	-200.000	0.027	0.202
-293.676	-36.600	-0.195	0.105
-292.662	-200.000	0.005	-0.133
-291.647	-200.000	0.010	-0.122
-290.632	-3.208	0.225	-0.158
-289.618	800.000	0.036	-0.152
-288.603	-4.152	0.228	-0.159
-287.589	-200.000	0.015	0.170
-286.574	673.080	0.025	0.066
-285.559	-9.603	0.305	0.204
-284.545	635.442	-0.096	-0.246
-283.530	-200.000	0.001	-0.343
-282.516	166.617	-0.234	-0.334
-281.501	324.079	-0.211	0.406
-280.486	800.000	-0.064	-0.215
-279.472	87.275	0.140	-0.155
-278.457	-123.420	-0.145	-0.023
-277.443	-200.000	0.053	-0.287
-276.428	-200.000	-0.005	-0.440
-275.413	-200.000	0.045	-0.250
-274.399	81.257	-0.140	-0.152
-273.384	-37.595	-0.148	0.079
-272.370	1.849	-0.160	0.116
-271.355	-75.633	0.195	-0.069
-270.340	-158.785	-0.164	0.009
-269.326	53.488	-0.272	0.262
-268.311	119.003	-0.072	0.090
-267.297	-31.875	-0.161	-0.090
-266.282	-0.518	-0.034	0.024
-265.267	3.915	-0.048	-0.036
-264.253	399.252	0.086	-0.181
-263.238	-66.329	-0.311	-0.124
-262.224	-166.834	-0.225	0.009
-261.209	-31.151	0.013	0.008
-260.195	800.000	-0.093	-0.359
-259.180	-147.097	-0.235	0.020
-258.165	-69.908	-0.186	-0.071
-257.151	47.355	0.173	0.162
-256.136	53.785	-0.249	0.240
-255.122	-30.159	0.192	0.109
-254.107	800.000	-0.061	-0.181
-253.092	72.599	0.037	0.039
-252.078	800.000	0.082	-0.247
-251.063	66.864	-0.221	0.226
-250.049	-142.577	0.303	0.030
-249.034	-189.406	-0.215	0.003
-248.019	184.396	-0.159	0.237
-247.005	194.365	-0.104	0.158
-245.990	-200.000	-0.001	0.119
-244.976	-39.410	-0.200	0.105
-243.961	-200.000	-0.009	0.199
-242.946	41.610	0.065	0.059
-241.932	800.000	0.012	-0.034
-240.917	319.101	-0.061	-0.115
-239.903	33.759	0.201	-0.175
-238.888	74.900	-0.105	-0.111
-237.873	-200.000	0.028	-0.129
-236.859	100.130	0.059	0.069
-235.844	-139.265	-0.160	-0.017
-234.830	241.300	-0.091	-0.153
-233.815	-163.055	-0.234	0.011
-232.800	-68.827	0.155	-0.060
-231.786	-109.454	-0.200	0.043
-230.771	448.092	0.063	0.139
-229.757	-200.000	0.015	0.279
-228.742	138.737	-0.121	-0.159
-227.727	-200.000	-0.009	-0.305
-226.713	-48.079	-0.183	0.089
-225.698	781.381	-0.079	0.217
-224.684	33.213	-0.074	-0.064
-223.669	-200.000	0.030	-0.226
-222.655	-70.614	-0.193	0.073
-221.640	-200.000	-0.012	0.126
-220.625	800.000	-0.138	-0.381
-219.611	78.552	0.159	-0.171
-218.596	800.000	-0.030	-0.122
-217.582	-80.002	0.346	0.117
-216.567	37.165	-0.173	0.154
-215.552	-69.280	-0.234	-0.090
-214.538	42.025	0.226	-0.205
-213.523	398.451	0.056	-0.118
-212.509	-69.182	-0.134	-0.051
-211.494	800.000	0.097	-0.287
-210.479	264.263	0.077	-0.134
-209.465	369.238	0.090	-0.183
-208.450	-3.763	-0.140	-0.097
-207.436	1.271	0.149	0.107
-206.421	48.391	-0.149	-0.140
-205.406	-33.230	0.318	0.176
-204.392	303.418	-0.062	-0.115
-203.377	800.000	-0.101	-0.295
-202.363	800.000	-0.053	0.196
-201.348	800.000	0.095	-0.340
-200.333	-2.623	0.257	-0.180
-199.319	-53.886	-0.208	-0.095
-198.304	800.000	0.019	-0.066
-197.290	800.000	0.029	-0.093
-196.275	-28.873	0.148	0.085
-195.260	800.000	0.085	-0.275
-194.246	-200.000	0.006	-0.231
-193.231	219.876	-0.189	0.303
-192.217	800.000	0.073	0.211
-191.202	-200.000	0.040	0.286
-190.187	15.078	0.187	0.146
-189.173	-200.000	-0.040	0.184
-188.158	17.462	-0.032	-0.025
-187.144	-110.070	0.200	0.042
-186.129	243.132	0.107	0.179
-185.114	18.037	0.150	0.120
-184.100	-200.000	-0.032	-0.143
-183.085	-94.501	0.479	0.131
-182.071	-74.193	0.215	-0.078
-181.056	-200.000	0.035	-0.191
-180.042	-200.000	-0.034	0.241
-179.027	617.407	-0.023	0.058
-178.012	-79.488	-0.080	-0.027
-176.998	41.479	-0.229	-0.207
-175.983	-115.326	0.410	-0.077
-174.969	-200.000	-0.073	0.575
-173.954	-158.675	0.129	0.007
-172.939	-17.829	0.325	0.204
-171.925	21.788	0.092	-0.075
-170.910	-46.937	-0.271	0.133
-169.896	-24.075	0.308	-0.184
-168.881	-132.556	0.190	-0.024
-167.866	-200.000	-0.007	0.260
-166.852	-200.000	-0.019	-0.118
-165.837	-23.706	-0.186	-0.112
-164.823	-200.000	-0.018	0.170
-163.808	800.000	-0.175	0.633
-162.793	-200.000	-0.017	-0.154
-161.779	41.863	0.221	-0.200
-160.764	17.174	0.172	0.136
-159.750	800.000	0.060	0.241
-158.735	115.211	0.144	0.176
-157.720	-200.000	-0.012	-0.177
-156.706	-200.000	0.002	-0.103
-155.691	-169.772	0.214	0.008
-154.677	-88.637	-0.033	0.010
-153.662	-100.669	-0.101	0.025
-152.647	-87.978	0.167	0.050
-151.633	-168.628	-0.226	-0.009
-150.618	146.543	-0.035	0.047
-149.604	122.425	-0.222	0.277
-148.589	-92.114	0.174	-0.049
-147.574	-200.000	0.079	-0.439
-146.560	1.314	0.235	0.169
-145.545	-90.660	0.115	-0.033
-144.531	-200.000	0.003	0.216
-143.516	24.040	-0.208	-0.172
-142.502	800.000	0.104	-0.306
-141.487	-12.021	0.173	0.113
-140.472	255.733	-0.053	-0.091
-139.458	-72.879	0.193	0.071
-138.443	249.100	-0.108	0.183
-137.429	-200.000	-0.005	0.124
-136.414	-42.293	0.170	0.087
-135.399	800.000	-0.083	0.302
-134.385	800.000	0.116	0.392
-133.370	-200.000	0.025	-0.218
-132.356	-185.743	0.261	-0.004
-131.341	284.648	0.172	0.309
-130.326	-69.322	0.218	0.084
-129.312	-124.635	0.247	0.038
-128.297	-163.997	0.206	0.010
-127.283	-143.383	0.237	-0.023
-126.268	211.356	0.024	0.038
-125.253	186.364	0.046	-0.068
-124.239	228.980	0.104	0.170
-123.224	13.184	-0.093	-0.072
-122.210	-61.276	-0.162	-0.068
-121.195	-27.113	0.179	0.104
