DTS Sentinel unit serial number:	SN413079Multiplexer serial number:	ORYXHardware model number:	OX4-SRSoftware version number:	ORYX F/W v4.00 Oryx Data Collector v3.7.2.0data status	okinstallation	princeton_trtdifferential loss correction	single-endedforward channel	channel 1reverse channel	N/Adate	2019/09/15time	21:26:35forward acquisition time	60.00reverse acquisition time	0.00gamma	496.2192k internal	0.2329k external	0.2329temperature offset calibration	0.9959default loss term (dB/km)	0.3790temperature slope calibration	1.0000multiplexer offset coefficient	1.0000multiplexer slope coefficient	1.0000fibre end	0.00T internal ref (°C)	30.86T ext. ref 1 (°C)	8.28T ext. ref 2 (°C)	23.89length (m)	temperature (°C)	Stokes	anti-Stokes-747.200	101.727	0.035	0.041
-746.185	-151.345	-0.206	-0.015
-745.171	-200.000	-0.010	0.253
-744.156	-59.259	-0.305	0.132
-743.142	-88.779	0.274	-0.082
-742.127	-200.000	0.004	0.047
-741.112	764.101	-0.101	0.276
-740.098	-17.836	-0.152	0.096
-739.083	-200.000	0.026	-0.135
-738.069	77.997	0.119	-0.127
-737.054	-97.510	-0.190	-0.050
-736.039	-126.900	-0.127	-0.019
-735.025	11.880	0.222	0.172
-734.010	-5.091	-0.128	-0.089
-732.996	-44.942	-0.011	0.005
-731.981	202.345	-0.140	-0.217
-730.966	-200.000	-0.016	0.495
-729.952	-19.424	-0.117	-0.073
-728.937	337.651	-0.108	-0.212
-727.923	-200.000	-0.046	0.254
-726.908	-5.094	0.135	0.093
-725.894	-90.139	-0.205	-0.060
-724.879	63.563	-0.398	-0.402
-723.864	197.115	0.247	0.379
-722.850	690.439	-0.075	0.197
-721.835	-146.038	-0.079	-0.007
-720.821	800.000	0.055	0.192
-719.806	523.644	-0.109	0.259
-718.791	-46.946	0.250	-0.123
-717.777	-200.000	-0.022	0.181
-716.762	800.000	-0.062	0.189
-715.748	-200.000	-0.052	-0.338
-714.733	129.388	-0.155	-0.199
-713.718	800.000	0.021	-0.087
-712.704	50.092	-0.092	0.087
-711.689	-200.000	0.043	0.250
-710.675	-42.528	-0.190	0.098
-709.660	26.280	-0.115	0.097
-708.645	327.367	-0.086	0.167
-707.631	800.000	0.103	0.360
-706.616	-125.871	-0.173	0.026
-705.602	800.000	0.073	-0.247
-704.587	-200.000	0.045	-0.299
-703.572	8.395	0.190	0.143
-702.558	13.415	0.135	0.105
-701.543	125.775	-0.062	-0.079
-700.529	-200.000	-0.028	-0.142
-699.514	-37.749	-0.293	0.157
-698.499	-10.736	0.171	-0.113
-697.485	-200.000	0.038	0.182
-696.470	-200.000	-0.031	-0.191
-695.456	-124.923	-0.064	-0.010
-694.441	-24.499	0.173	0.104
-693.426	-80.509	0.199	0.067
-692.412	321.878	-0.160	-0.307
-691.397	196.466	-0.046	0.070
-690.383	-3.007	-0.186	0.130
-689.368	800.000	-0.016	-0.061
-688.354	332.814	-0.211	-0.410
-687.339	800.000	-0.053	-0.229
-686.324	75.753	-0.248	-0.263
-685.310	-13.240	-0.196	-0.128
-684.295	-200.000	-0.020	-0.169
-683.281	18.115	0.028	-0.022
-682.266	-175.291	-0.230	-0.006
-681.251	800.000	0.120	0.411
-680.237	800.000	0.061	-0.187
-679.222	-82.598	-0.194	-0.063
-678.208	442.184	0.056	-0.123
-677.193	118.058	0.211	0.262
-676.178	800.000	-0.049	0.187
-675.164	499.119	-0.063	0.145
-674.149	107.745	-0.252	-0.302
-673.135	-89.518	-0.083	0.025
-672.120	419.521	-0.113	-0.243
-671.105	-82.638	0.084	-0.027
-670.091	21.035	-0.081	-0.066
-669.076	-200.000	0.029	0.411
-668.062	-200.000	0.010	-0.401
-667.047	145.189	-0.144	-0.194
-666.032	55.148	0.115	-0.112
-665.018	-101.413	-0.046	0.011
-664.003	-200.000	0.064	0.537
-662.989	233.183	-0.103	-0.170
-661.974	461.903	0.024	0.053
-660.959	216.785	-0.135	-0.215
-659.945	-200.000	0.004	-0.042
-658.930	-118.244	-0.231	-0.041
-657.916	44.612	-0.144	0.133
-656.901	-200.000	0.019	0.274
-655.886	294.736	-0.106	0.195
-654.872	-115.713	-0.127	0.024
-653.857	-7.968	-0.266	-0.180
-652.843	-70.861	0.188	0.071
-651.828	-200.000	0.016	-0.324
-650.814	115.020	0.158	-0.194
-649.799	108.546	0.196	-0.234
-648.784	-122.608	-0.106	-0.017
-647.770	-65.339	0.225	-0.091
-646.755	-200.000	-0.003	-0.017
-645.741	1.612	-0.116	-0.084
-644.726	-94.537	-0.369	-0.101
-643.711	-147.006	-0.212	-0.018
-642.697	423.641	-0.031	0.068
-641.682	1.839	0.131	-0.095
-640.668	-200.000	-0.047	-0.270
-639.653	-172.701	-0.138	0.004
-638.638	-99.488	0.268	0.068
-637.624	13.880	-0.077	-0.060
-636.609	485.303	0.171	-0.391
-635.595	117.239	0.054	0.067
-634.580	-87.119	0.213	-0.065
-633.565	-200.000	0.016	-0.452
-632.551	37.478	-0.150	0.134
-631.536	-139.281	-0.447	-0.048
-630.522	-200.000	0.045	-0.249
-629.507	36.649	0.513	0.454
-628.492	-200.000	0.015	0.239
-627.478	384.925	-0.126	0.260
-626.463	264.484	-0.091	-0.158
-625.449	164.072	-0.096	0.135
-624.434	800.000	-0.054	0.187
-623.419	-200.000	-0.046	0.227
-622.405	-200.000	-0.028	-0.301
-621.390	-65.357	-0.135	0.054
-620.376	-200.000	0.008	-0.220
-619.361	132.343	-0.129	-0.167
-618.346	-97.142	0.188	-0.049
-617.332	750.018	-0.112	0.302
-616.317	33.472	-0.100	0.087
-615.303	293.235	0.090	-0.164
-614.288	-108.125	0.186	-0.040
-613.273	-0.023	-0.243	0.174
-612.259	15.036	-0.041	0.032
-611.244	800.000	-0.100	0.418
-610.230	151.982	0.006	0.008
-609.215	-113.230	0.140	0.028
-608.201	355.630	-0.183	-0.365
-607.186	92.011	-0.118	-0.133
-606.171	-20.066	0.134	-0.083
-605.157	21.366	-0.190	-0.155
-604.142	241.606	0.216	0.361
-603.128	494.860	0.039	-0.090
-602.113	18.831	0.086	0.069
-601.098	-200.000	0.039	-0.184
-600.084	-138.729	-0.026	0.003
-599.069	-200.000	-0.015	0.167
-598.055	-105.899	-0.138	-0.031
-597.040	-94.449	-0.114	0.031
-596.025	134.955	-0.214	-0.278
-595.011	44.906	-0.489	0.450
-593.996	-200.000	-0.009	-0.057
-592.982	97.543	-0.229	0.264
-591.967	58.716	0.036	-0.035
-590.952	-80.056	-0.290	0.097
-589.938	-191.377	-0.105	-0.001
-588.923	174.433	-0.114	-0.165
-587.909	-200.000	-0.007	-0.186
-586.894	-200.000	-0.019	0.159
-585.879	-59.344	-0.256	0.110
-584.865	167.236	-0.172	0.245
-583.850	-200.000	-0.004	0.041
-582.836	-200.000	0.017	0.109
-581.821	-117.773	0.479	-0.086
-580.806	-124.461	0.423	-0.066
-579.792	18.178	0.221	0.177
-578.777	-84.709	-0.209	-0.066
-577.763	727.587	-0.091	-0.243
-576.748	-60.193	0.312	-0.133
-575.733	800.000	-0.017	0.050
-574.719	341.092	-0.067	0.130
-573.704	31.662	-0.413	-0.356
-572.690	-181.596	-0.074	-0.001
-571.675	570.206	-0.126	0.308
-570.661	698.565	0.139	0.364
-569.646	-157.499	-0.221	-0.013
-568.631	-164.971	-0.475	-0.021
-567.617	127.316	0.065	0.083
-566.602	-44.768	-0.072	-0.036
-565.588	-1.589	0.023	0.016
-564.573	-6.514	0.350	-0.238
-563.558	-78.147	-0.231	-0.079
-562.544	31.168	-0.157	-0.134
-561.529	328.841	-0.103	-0.198
-560.515	124.268	0.264	-0.332
-559.500	225.483	-0.053	0.087
-558.485	21.403	0.235	-0.191
-557.471	1.971	0.086	-0.062
-556.456	1.473	-0.174	-0.125
-555.442	75.162	-0.033	0.035
-554.427	-146.857	-0.133	0.011
-553.412	370.498	0.093	0.188
-552.398	-200.000	-0.016	-0.318
-551.383	-34.779	0.150	-0.082
-550.369	62.676	0.091	0.091
-549.354	-140.849	-0.305	-0.031
-548.339	153.485	0.057	-0.078
-547.325	625.353	0.017	0.042
-546.310	-200.000	-0.047	0.232
-545.296	562.988	-0.086	-0.208
-544.281	-98.502	-0.160	0.041
-543.266	90.940	0.300	0.336
-542.252	-200.000	-0.010	0.206
-541.237	-200.000	-0.019	0.337
-540.223	111.687	-0.143	-0.173
-539.208	181.139	0.083	0.121
-538.193	7.804	0.171	0.128
-537.179	182.009	0.138	0.203
-536.164	415.557	0.168	0.359
-535.150	-87.045	0.058	0.017
-534.135	-200.000	-0.007	-0.066
-533.121	329.855	0.163	-0.312
-532.106	-59.691	0.042	0.018
-531.091	17.895	0.220	0.175
-530.077	10.098	-0.070	0.053
-529.062	104.445	-0.123	0.145
-528.048	-96.141	-0.321	-0.085
-527.033	6.060	-0.315	-0.233
-526.018	-168.654	0.218	-0.008
-525.004	-88.657	-0.033	0.010
-523.989	159.865	-0.096	0.134
-522.975	5.153	-0.126	-0.092
-521.960	94.364	-0.210	-0.238
-520.945	134.943	0.072	0.094
-519.931	-200.000	-0.013	0.101
-518.916	-99.260	0.552	-0.139
-517.902	-200.000	0.048	-0.302
-516.887	-200.000	0.020	-0.119
-515.872	759.980	0.092	0.249
-514.858	42.070	-0.115	-0.104
-513.843	-159.299	-0.194	0.011
-512.829	363.499	0.184	0.369
-511.814	531.899	0.056	0.132
-510.799	304.451	0.095	-0.175
-509.785	35.932	0.192	0.168
-508.770	-200.000	0.065	0.357
-507.756	-51.662	0.193	0.090
-506.741	-162.750	-0.304	0.015
-505.726	-184.334	-0.130	0.002
-504.712	-99.962	0.219	-0.055
-503.697	-129.324	0.206	0.029
-502.683	-200.000	-0.020	0.206
-501.668	-78.869	0.437	0.148
-500.653	79.875	0.023	-0.024
-499.639	631.128	-0.035	0.088
-498.624	225.416	-0.064	-0.103
-497.610	800.000	0.027	-0.091
-496.595	139.767	-0.123	-0.162
-495.581	54.617	-0.111	-0.107
-494.566	-172.930	0.164	-0.005
-493.551	66.995	-0.239	0.243
-492.537	-35.547	0.146	0.079
-491.522	-9.877	0.115	-0.076
-490.508	-200.000	0.058	0.283
-489.493	800.000	-0.021	0.059
-488.478	170.053	-0.158	-0.225
-487.464	-158.771	-0.085	-0.005
-486.449	800.000	-0.084	-0.297
-485.435	-61.056	0.089	0.038
-484.420	-55.504	-0.210	0.094
-483.405	63.973	0.039	0.039
-482.391	-92.119	0.235	0.066
-481.376	800.000	0.077	0.272
-480.362	-37.329	0.233	0.124
-479.347	-200.000	0.033	0.294
-478.332	-36.352	0.286	-0.153
-477.318	-9.337	-0.034	-0.023
-476.303	800.000	0.088	0.367
-475.289	-3.631	0.213	0.148
-474.274	202.479	0.122	0.187
-473.259	15.114	0.087	0.068
-472.245	-27.682	0.146	0.085
-471.230	-200.000	-0.019	-0.137
-470.216	149.330	-0.105	-0.142
-469.201	72.420	-0.080	0.084
-468.186	461.327	0.121	-0.269
-467.172	-100.504	0.135	-0.033
-466.157	-113.685	-0.226	-0.044
-465.143	-170.488	0.118	-0.004
-464.128	147.631	0.049	-0.066
-463.113	43.943	0.138	-0.126
-462.099	-80.562	0.026	0.009
-461.084	29.065	-0.375	0.317
-460.070	174.602	-0.204	-0.293
-459.055	115.570	0.168	-0.204
-458.040	502.881	-0.143	0.330
-457.026	-200.000	-0.007	0.060
-456.011	800.000	-0.050	-0.200
-454.997	76.997	-0.054	0.057
-453.982	-200.000	0.004	0.197
-452.968	331.538	0.124	-0.239
-451.953	-47.337	-0.293	-0.142
-450.938	63.877	-0.170	0.170
-449.924	800.000	0.057	-0.188
-448.909	-38.724	0.260	-0.137
-447.895	142.064	-0.191	0.252
-446.880	288.580	-0.083	0.149
-445.865	90.505	0.133	0.148
-444.851	25.532	0.119	0.098
-443.836	-170.051	-0.173	-0.006
-442.822	118.862	-0.096	-0.119
-441.807	424.490	0.146	-0.312
-440.792	-200.000	-0.025	-0.244
-439.778	123.686	-0.133	0.166
-438.763	7.331	-0.193	-0.144
-437.749	412.936	-0.041	-0.086
-436.734	800.000	-0.080	-0.260
-435.719	339.264	-0.132	0.255
-434.705	-40.690	0.103	0.053
-433.690	296.928	-0.023	-0.041
-432.676	-31.902	0.146	0.081
-431.661	726.101	-0.019	0.051
-430.646	-94.375	0.186	-0.050
-429.632	-43.297	0.251	-0.127
-428.617	135.253	-0.046	-0.060
-427.603	99.392	0.144	0.165
-426.588	-200.000	-0.025	-0.260
-425.573	-27.314	-0.209	0.121
-424.559	-50.133	-0.043	0.020
-423.544	122.464	-0.055	0.068
-422.530	82.421	0.176	-0.190
-421.515	-28.078	0.195	0.112
-420.500	119.412	-0.153	-0.189
-419.486	10.218	-0.168	0.127
-418.471	40.955	-0.196	-0.176
-417.457	-162.776	0.262	0.013
-416.442	148.083	0.155	-0.208
-415.428	-42.381	-0.127	-0.064
-414.413	315.241	-0.091	0.170
-413.398	112.746	0.042	-0.051
-412.384	266.664	0.049	-0.085
-411.369	281.996	-0.034	-0.060
-410.355	1.643	0.117	0.084
-409.340	-55.910	0.394	0.175
-408.325	-82.311	-0.223	0.072
-407.311	-200.000	0.018	0.216
-406.296	-100.115	0.531	-0.132
-405.282	196.947	0.028	-0.042
-404.267	-78.975	0.166	0.056
-403.252	-54.747	-0.172	-0.077
-402.238	168.344	-0.049	-0.069
-401.223	459.508	-0.030	0.065
-400.209	158.965	0.220	0.304
-399.194	24.954	0.078	0.064
-398.179	104.152	0.281	0.329
-397.165	-200.000	-0.000	-0.178
-396.150	-111.150	-0.281	-0.057
-395.136	-54.472	-0.261	0.117
-394.121	-200.000	0.020	0.529
-393.106	800.000	-0.032	0.118
-392.092	82.354	-0.261	0.281
-391.077	-1.287	0.369	-0.259
-390.063	-76.322	-0.077	0.027
-389.048	-198.989	0.297	0.002
-388.033	121.025	0.254	-0.314
-387.019	-45.653	-0.193	-0.095
-386.004	83.192	-0.170	0.184
-384.990	-75.029	0.092	0.033
-383.975	-185.022	-0.216	-0.003
-382.960	-200.000	-0.017	-0.078
-381.946	-93.943	-0.112	-0.031
-380.931	-200.000	-0.028	-0.158
-379.917	-200.000	-0.046	-0.394
-378.902	-59.568	-0.252	0.107
-377.888	33.741	-0.321	-0.277
-376.873	-152.470	0.289	0.021
-375.858	-61.155	-0.177	-0.074
-374.844	-57.107	0.256	-0.112
-373.829	-133.300	0.117	-0.015
-372.815	-127.572	0.145	-0.021
-371.800	-200.000	-0.002	0.083
-370.785	59.393	-0.325	0.318
-369.771	-72.416	0.512	-0.188
-368.756	45.845	0.164	0.150
-367.742	800.000	-0.075	-0.283
-366.727	46.401	0.295	-0.271
-365.712	127.887	-0.061	0.077
-364.698	-110.022	-0.169	0.035
-363.683	-61.120	-0.241	0.101
-362.669	132.954	0.240	-0.308
-361.654	-67.578	-0.211	0.082
-360.639	800.000	-0.065	-0.212
-359.625	72.172	0.075	0.077
-358.610	-98.050	-0.170	0.043
-357.596	594.495	-0.153	-0.375
-356.581	54.461	0.058	0.056
-355.566	281.130	0.037	-0.065
-354.552	212.696	0.240	0.376
-353.537	800.000	-0.021	0.068
-352.523	-69.565	-0.127	0.048
-351.508	-18.599	0.331	-0.205
-350.493	48.543	0.092	-0.086
-349.479	800.000	-0.036	0.127
-348.464	-200.000	0.009	-0.127
-347.450	39.536	-0.082	0.073
-346.435	-129.590	-0.239	-0.033
-345.420	449.994	-0.124	0.271
-344.406	800.000	-0.042	0.164
-343.391	163.733	0.164	-0.229
-342.377	17.110	0.089	0.070
-341.362	-33.336	-0.347	-0.190
-340.348	-43.464	0.310	-0.155
-339.333	368.021	0.044	0.089
-338.318	691.517	0.092	-0.238
-337.304	800.000	-0.057	-0.161
-336.289	-174.134	-0.215	0.006
-335.275	-200.000	-0.005	0.284
-334.260	-200.000	-0.053	0.341
-333.245	-200.000	-0.039	-0.231
-332.231	-14.124	-0.082	-0.052
-331.216	-127.975	-0.217	-0.031
-330.202	89.973	0.084	0.093
-329.187	-14.674	0.174	0.111
-328.172	-148.451	0.078	0.006
-327.158	14.508	0.227	0.176
-326.143	60.310	0.091	-0.089
-325.129	327.121	0.086	0.163
-324.114	306.828	0.060	0.111
-323.099	17.795	0.039	-0.031
-322.085	308.574	0.153	-0.284
-321.070	-61.568	-0.193	0.080
-320.056	11.375	-0.163	0.124
-319.041	-85.026	0.194	-0.060
-318.026	-72.438	-0.283	0.104
-317.012	800.000	-0.035	-0.135
-315.997	177.418	-0.072	0.105
-314.983	320.947	-0.017	0.032
-313.968	75.084	0.190	-0.198
-312.953	-18.109	-0.145	0.090
-311.939	33.195	0.281	-0.241
-310.924	-96.090	0.075	0.020
-309.910	56.087	-0.133	-0.127
-308.895	-117.659	-0.148	0.026
-307.880	-149.082	0.099	0.008
-306.866	-143.320	-0.295	0.028
-305.851	12.193	-0.139	0.106
-304.837	800.000	-0.028	-0.098
-303.822	-158.183	0.113	-0.007
-302.807	-66.459	0.371	0.146
-301.793	-160.093	0.166	-0.009
-300.778	-200.000	-0.185	0.000
-299.764	47.566	0.110	-0.102
-298.749	-128.574	-0.214	0.030
-297.735	-64.358	-0.080	-0.032
-296.720	-200.000	-0.004	-0.184
-295.705	-200.000	-0.027	0.174
-294.691	-84.772	-0.362	-0.113
-293.676	6.101	0.225	0.165
-292.662	-73.707	0.356	0.128
-291.647	114.858	-0.381	0.460
-290.632	-111.995	-0.200	-0.040
-289.618	-88.891	0.186	0.054
-288.603	-103.206	0.183	-0.043
-287.589	-200.000	-0.046	-0.239
-286.574	-3.924	-0.099	-0.068
-285.559	412.954	0.096	0.201
-284.545	-81.912	0.244	0.079
-283.530	39.419	-0.160	0.142
-282.516	48.125	-0.029	-0.027
-281.501	-59.235	0.161	-0.069
-280.486	-101.392	0.090	0.022
-279.472	800.000	0.042	-0.154
-278.457	-114.252	-0.222	-0.042
-277.443	-15.172	0.112	-0.071
-276.428	166.177	-0.176	0.247
-275.413	-190.118	0.151	-0.002
-274.399	-123.147	0.377	0.060
-273.384	-172.953	-0.368	0.011
-272.370	259.516	0.120	-0.204
-271.355	187.039	0.107	0.158
-270.340	53.925	0.277	-0.263
-269.326	-200.000	-0.052	0.282
-268.311	-152.414	-0.164	-0.012
-267.297	800.000	-0.077	-0.213
-266.282	391.899	0.051	-0.104
-265.267	-200.000	0.025	0.150
-264.253	-118.184	0.171	-0.030
-263.238	207.779	-0.145	-0.224
-262.224	326.348	-0.026	-0.050
-261.209	-111.123	-0.248	0.050
-260.195	3.229	0.087	0.063
-259.180	-148.219	0.264	0.022
-258.165	-200.000	0.039	0.333
-257.151	-200.000	-0.020	0.094
-256.136	-100.903	-0.081	-0.020
-255.122	-200.000	0.001	-0.015
-254.107	109.671	0.121	0.143
-253.092	310.744	-0.060	-0.111
-252.078	-200.000	0.018	-0.090
-251.063	239.415	-0.041	-0.067
-250.049	-200.000	-0.067	0.302
-249.034	-145.518	-0.119	-0.011
-248.019	135.740	-0.036	-0.046
-247.005	-24.651	0.270	-0.158
-245.990	213.016	0.088	0.137
-244.976	176.665	-0.204	0.293
-243.961	-200.000	0.080	-0.457
-242.946	58.803	-0.051	0.049
-241.932	-92.037	0.320	-0.090
-240.917	496.291	-0.054	0.122
-239.903	-188.817	0.255	-0.003
-238.888	-175.591	-0.190	-0.005
-237.873	-200.000	-0.006	0.174
-236.859	-33.871	0.019	0.011
-235.844	99.103	-0.071	0.081
-234.830	-44.259	-0.169	-0.084
-233.815	-200.000	-0.017	-0.276
-232.800	360.670	0.132	-0.260
-231.786	-177.104	0.438	-0.011
-230.771	79.275	-0.249	-0.263
-229.757	-61.475	0.226	-0.094
-228.742	-200.000	-0.007	-0.231
-227.727	-149.265	-0.307	-0.024
-226.713	621.661	0.061	0.152
-225.698	-7.310	0.230	-0.154
-224.684	-128.139	-0.270	0.038
-223.669	-200.000	-0.029	-0.296
-222.655	800.000	-0.080	-0.302
-221.640	129.670	0.255	0.321
-220.625	800.000	0.078	-0.297
-219.611	253.709	-0.106	0.179
-218.596	800.000	0.068	0.266
-217.582	-200.000	-0.026	0.159
-216.567	-137.692	-0.217	-0.024
-215.552	-98.482	-0.092	0.023
-214.538	-109.636	-0.295	0.061
-213.523	53.981	0.112	-0.106
-212.509	-37.499	-0.214	0.113
-211.494	-51.055	0.220	0.102
-210.479	-68.225	-0.087	-0.033
-209.465	-148.414	0.281	0.023
-208.450	462.444	-0.065	0.143
-207.436	67.268	-0.108	-0.109
-206.421	-173.341	-0.080	-0.002
-205.406	-200.000	-0.011	0.058
-204.392	238.626	0.096	0.158
-203.377	109.934	0.243	0.288
-202.363	-200.000	0.007	0.211
-201.348	-32.358	-0.116	0.064
-200.333	-9.148	-0.146	-0.096
-199.319	187.135	-0.110	-0.162
-198.304	169.835	-0.132	-0.186
-197.290	-38.309	-0.369	-0.193
-196.275	182.508	-0.069	-0.101
-195.260	152.434	0.235	0.316
-194.246	-139.514	0.623	0.066
-193.231	-200.000	-0.008	0.189
-192.217	800.000	0.032	0.093
-191.202	-200.000	-0.010	0.108
-190.187	-119.401	0.213	0.037
-189.173	-149.154	-0.395	-0.031
-188.158	-147.381	-0.245	0.020
-187.144	-61.561	0.024	-0.010
-186.129	174.336	0.055	-0.079
-185.114	59.629	-0.099	-0.096
-184.100	-120.848	0.137	0.023
-183.085	242.406	0.154	-0.254
-182.071	-200.000	0.063	0.290
-181.056	-8.677	-0.071	0.047
-180.042	105.331	0.253	-0.295
-179.027	-200.000	-0.099	-0.659
-178.012	800.000	0.040	0.112
-176.998	-6.020	-0.094	0.063
-175.983	104.890	-0.107	0.124
-174.969	-200.000	-0.045	0.217
-173.954	-200.000	-0.017	0.090
-172.939	6.673	0.345	-0.253
-171.925	-19.631	0.039	0.024
-170.910	66.373	0.017	-0.017
-169.896	-200.000	0.048	-0.212
-168.881	-76.536	0.239	-0.083
-167.866	-84.672	-0.146	-0.045
-166.852	-49.996	-0.258	-0.120
-165.837	19.846	0.126	-0.100
-164.823	-25.673	0.066	-0.038
-163.808	98.740	0.316	0.359
-162.793	-143.416	-0.249	-0.023
-161.779	-121.753	-0.275	0.045
-160.764	800.000	0.107	-0.367
-159.750	129.928	-0.187	-0.236
-158.735	-173.485	-0.174	-0.005
-157.720	-13.487	-0.092	-0.059
-156.706	-50.431	-0.080	-0.037
-155.691	14.429	-0.037	0.028
-154.677	87.620	0.038	-0.042
-153.662	800.000	-0.041	0.168
-152.647	-112.934	0.190	0.037
-151.633	-105.743	-0.359	0.080
-150.618	-200.000	0.001	0.097
-149.604	-60.157	0.173	-0.073
-148.589	800.000	0.051	0.147
-147.574	-55.951	0.347	0.152
-146.560	556.531	-0.142	0.338
-145.545	-28.564	0.095	-0.054
-144.531	-14.121	0.047	-0.030
-143.516	273.994	0.177	0.307
-142.502	-24.992	0.097	-0.056
-141.487	-45.835	0.249	0.121
-140.472	161.149	0.118	-0.163
-139.458	308.743	-0.176	0.323
-138.443	-114.360	-0.142	0.027
-137.429	-65.515	-0.163	0.064
-136.414	-200.000	-0.025	-0.243
-135.399	-96.516	-0.283	0.073
-134.385	-200.000	0.002	0.455
-133.370	800.000	0.040	0.127
-132.356	8.901	-0.104	0.077
-131.341	60.467	-0.133	-0.129
-130.326	800.000	-0.004	0.013
-129.312	126.920	0.093	-0.116
-128.297	-107.041	0.033	-0.007
-127.283	374.137	0.046	0.092
-126.268	800.000	0.053	-0.204
-125.253	-171.161	-0.460	0.015
-124.239	542.605	0.086	0.202
-123.224	-116.151	-0.143	-0.026
-122.210	288.126	-0.130	-0.231
