DTS Sentinel unit serial number:	SN413079Multiplexer serial number:	ORYXHardware model number:	OX4-SRSoftware version number:	ORYX F/W v4.00 Oryx Data Collector v3.7.2.0data status	okinstallation	princeton_trtdifferential loss correction	single-endedforward channel	channel 1reverse channel	N/Adate	2019/09/13time	00:18:35forward acquisition time	60.00reverse acquisition time	0.00gamma	496.2192k internal	0.2328k external	0.2328temperature offset calibration	1.0143default loss term (dB/km)	0.3790temperature slope calibration	1.0000multiplexer offset coefficient	1.0000multiplexer slope coefficient	1.0000fibre end	0.00T internal ref (°C)	28.50T ext. ref 1 (°C)	3.73T ext. ref 2 (°C)	23.17length (m)	temperature (°C)	Stokes	anti-Stokes-747.200	-61.832	0.305	0.129
-746.185	262.632	-0.006	-0.010
-745.171	-124.845	-0.006	0.001
-744.156	-132.624	-0.178	0.023
-743.142	529.609	-0.073	-0.173
-742.127	-192.676	-0.303	0.003
-741.112	-80.152	-0.274	-0.093
-740.098	-62.587	-0.100	-0.042
-739.083	347.868	-0.188	-0.373
-738.069	-68.184	-0.125	0.049
-737.054	800.000	-0.078	-0.265
-736.039	-167.064	-0.275	0.011
-735.025	-36.065	0.171	-0.093
-734.010	-200.000	0.010	-0.325
-732.996	-200.000	0.007	-0.088
-731.981	473.758	-0.146	-0.331
-730.966	800.000	0.062	0.191
-729.952	-108.884	-0.337	-0.073
-728.937	-168.886	0.202	-0.008
-727.923	-141.721	-0.370	-0.037
-726.908	-48.245	-0.326	0.159
-725.894	-92.789	0.208	-0.058
-724.879	-125.975	-0.227	-0.034
-723.864	800.000	0.053	0.215
-722.850	800.000	-0.036	0.122
-721.835	53.067	-0.196	0.189
-720.821	-200.000	0.013	-0.128
-719.806	-200.000	-0.025	-0.305
-718.791	-21.993	-0.145	0.089
-717.777	502.376	0.045	0.104
-716.762	-18.847	0.168	0.106
-715.748	170.198	-0.085	-0.123
-714.733	-200.000	0.029	-0.152
-713.718	360.841	0.038	0.076
-712.704	-200.000	0.040	-0.312
-711.689	-200.000	-0.098	-0.488
-710.675	151.990	-0.167	-0.229
-709.660	-200.000	0.013	-0.253
-708.645	800.000	0.051	-0.144
-707.631	800.000	0.097	0.292
-706.616	-200.000	-0.006	-0.049
-705.602	69.459	0.100	0.103
-704.587	800.000	-0.034	0.110
-703.572	185.468	0.228	-0.341
-702.558	-6.363	-0.196	-0.135
-701.543	-200.000	0.014	0.220
-700.529	-62.849	0.225	0.094
-699.514	-176.954	-0.246	-0.006
-698.499	-125.751	-0.255	-0.039
-697.485	-146.645	0.075	0.007
-696.470	56.071	-0.131	-0.128
-695.456	-200.000	-0.020	0.263
-694.441	-33.608	0.194	0.108
-693.426	76.673	-0.145	0.154
-692.412	-70.640	-0.119	-0.045
-691.397	-147.917	-0.314	-0.026
-690.383	-69.649	-0.171	-0.066
-689.368	192.586	-0.140	-0.213
-688.354	23.822	0.159	0.132
-687.339	800.000	-0.088	-0.315
-686.324	157.963	-0.345	-0.480
-685.310	-30.112	0.106	-0.060
-684.295	-70.996	-0.366	-0.139
-683.281	52.722	0.384	-0.369
-682.266	352.315	-0.127	0.252
-681.251	412.160	-0.087	-0.185
-680.237	45.786	0.069	-0.064
-679.222	800.000	0.038	0.117
-678.208	-200.000	-0.009	-0.297
-677.193	362.863	0.140	0.283
-676.178	-123.898	-0.261	0.041
-675.164	-35.789	-0.147	0.080
-674.149	-63.138	0.205	0.085
-673.135	-33.471	-0.229	-0.127
-672.120	99.280	0.184	0.213
-671.105	380.509	-0.091	-0.187
-670.091	-154.949	-0.181	-0.012
-669.076	-200.000	-0.002	0.088
-668.062	-200.000	0.001	0.050
-667.047	89.056	0.045	0.050
-666.032	27.715	-0.142	0.120
-665.018	-131.918	0.238	-0.031
-664.003	374.614	-0.059	0.121
-662.989	-200.000	0.007	0.168
-661.974	-200.000	0.028	0.142
-660.959	5.594	0.468	-0.347
-659.945	-89.792	-0.287	-0.084
-658.930	-40.803	-0.231	-0.120
-657.916	57.817	-0.086	0.084
-656.901	-25.518	-0.145	0.086
-655.886	147.155	0.028	-0.038
-654.872	-200.000	0.021	-0.222
-653.857	-117.483	-0.264	-0.048
-652.843	-176.459	-0.148	0.004
-651.828	-115.872	-0.105	-0.020
-650.814	-200.000	0.065	0.000
-649.799	-54.010	-0.212	0.097
-648.784	-72.283	0.086	-0.032
-647.770	800.000	0.057	0.227
-646.755	443.716	0.024	-0.052
-645.741	-200.000	-0.009	-0.367
-644.726	305.955	-0.219	-0.410
-643.711	-126.403	-0.259	-0.039
-642.697	328.375	-0.125	0.240
-641.682	171.633	-0.060	0.087
-640.668	-49.428	0.121	0.058
-639.653	-122.831	-0.187	-0.030
-638.638	-157.600	-0.223	-0.013
-637.624	800.000	0.020	-0.074
-636.609	-147.667	0.401	0.034
-635.595	3.422	-0.237	-0.173
-634.580	639.093	-0.083	-0.212
-633.565	580.924	0.156	-0.384
-632.551	188.002	-0.059	-0.088
-631.536	-123.436	-0.376	-0.060
-630.522	-200.000	-0.035	0.163
-629.507	800.000	-0.069	0.293
-628.492	154.961	-0.110	-0.152
-627.478	-200.000	0.014	0.128
-626.463	-53.322	0.233	0.107
-625.449	589.214	-0.105	0.260
-624.434	-200.000	-0.037	0.239
-623.419	-131.634	0.078	-0.010
-622.405	-144.725	-0.108	0.010
-621.390	800.000	0.014	0.059
-620.376	188.495	-0.057	0.085
-619.361	409.531	-0.065	-0.138
-618.346	-200.000	-0.027	-0.259
-617.332	-200.000	-0.076	-0.353
-616.317	205.139	0.055	0.086
-615.303	353.961	-0.112	0.222
-614.288	694.251	0.048	-0.125
-613.273	-148.780	-0.078	0.006
-612.259	800.000	0.055	0.196
-611.244	-200.000	0.068	-0.303
-610.230	-114.166	-0.397	0.077
-609.215	771.058	0.107	0.293
-608.201	-200.000	-0.077	-0.483
-607.186	-22.432	-0.208	0.126
-606.171	-42.181	-0.205	-0.105
-605.157	-64.814	0.183	-0.074
-604.142	-144.732	0.528	-0.049
-603.128	-129.706	-0.262	-0.036
-602.113	-200.000	-0.059	-0.418
-601.098	-56.016	0.220	0.098
-600.084	58.652	0.129	0.127
-599.069	131.215	-0.044	-0.057
-598.055	-49.697	-0.161	0.077
-597.040	42.596	-0.039	-0.035
-596.025	335.486	-0.124	-0.240
-595.011	-200.000	-0.017	0.174
-593.996	-200.000	0.019	-0.126
-592.982	-120.791	0.167	-0.028
-591.967	-128.334	0.147	-0.021
-590.952	-19.791	-0.016	0.010
-589.938	307.490	0.134	-0.250
-588.923	-85.340	-0.477	0.149
-587.909	-130.944	0.110	0.015
-586.894	58.322	0.130	-0.128
-585.879	-200.000	-0.001	0.258
-584.865	-104.421	0.476	0.110
-583.850	-50.663	0.305	-0.144
-582.836	264.507	-0.148	-0.259
-581.821	-12.693	0.113	-0.074
-580.806	-150.640	0.442	-0.034
-579.792	-188.877	0.097	0.001
-578.777	800.000	-0.040	-0.166
-577.763	-5.117	0.166	-0.115
-576.748	-200.000	-0.131	0.000
-575.733	-1.782	0.166	-0.117
-574.719	281.079	-0.037	-0.067
-573.704	113.058	0.095	0.116
-572.690	330.318	0.179	-0.346
-571.675	-90.217	0.062	-0.018
-570.661	-13.261	-0.128	-0.083
-569.646	93.712	-0.182	-0.206
-568.631	-55.249	-0.271	-0.122
-567.617	-11.627	-0.161	-0.106
-566.602	-93.228	0.316	-0.088
-565.588	-153.389	0.309	-0.022
-564.573	-59.379	0.225	0.097
-563.558	-28.854	-0.171	-0.098
-562.544	800.000	-0.107	-0.297
-561.529	411.639	-0.126	0.267
-560.515	388.692	-0.099	0.205
-559.500	181.713	-0.099	-0.146
-558.485	-127.712	-0.009	0.001
-557.471	-1.124	0.099	-0.070
-556.456	494.925	0.080	-0.185
-555.442	-200.000	-0.036	-0.230
-554.427	-89.155	0.398	-0.117
-553.412	114.179	-0.211	-0.257
-552.398	179.995	0.100	-0.147
-551.383	-44.490	0.051	-0.026
-550.369	-200.000	0.029	-0.171
-549.354	-200.000	-0.084	-0.506
-548.339	-168.310	-0.298	0.011
-547.325	-120.782	0.256	-0.043
-546.310	-111.808	0.106	0.021
-545.296	-200.000	-0.007	-0.058
-544.281	-117.557	-0.326	0.059
-543.266	-61.372	-0.025	0.011
-542.252	58.392	-0.130	-0.128
-541.237	-55.913	-0.271	0.121
-540.223	-83.298	-0.040	0.013
-539.208	-200.000	-0.056	-0.256
-538.193	-200.000	-0.016	-0.108
-537.179	-131.548	-0.124	0.016
-536.164	-118.384	-0.287	-0.051
-535.150	-21.414	0.130	-0.079
-534.135	461.021	-0.103	-0.229
-533.121	72.291	0.239	0.248
-532.106	175.463	0.085	0.124
-531.091	-45.879	-0.331	0.163
-530.077	-55.218	0.196	-0.088
-529.062	-200.000	-0.001	-0.075
-528.048	-66.768	0.177	0.070
-527.033	266.895	-0.081	0.141
-526.018	472.978	0.051	0.115
-525.004	56.159	-0.158	-0.154
-523.989	-136.417	-0.160	-0.019
-522.975	380.807	-0.060	0.122
-521.960	-75.942	0.209	0.074
-520.945	19.033	-0.210	-0.168
-519.931	-200.000	-0.018	-0.207
-518.916	-75.782	-0.119	-0.042
-517.902	-200.000	0.032	-0.161
-516.887	363.234	0.190	-0.382
-515.872	-75.000	-0.226	0.081
-514.858	16.192	0.205	0.162
-513.843	517.597	0.088	0.206
-512.829	-153.590	-0.123	0.008
-511.814	-58.080	-0.094	0.041
-510.799	-177.454	-0.588	-0.014
-509.785	800.000	-0.050	0.180
-508.770	29.678	-0.305	-0.259
-507.756	478.089	-0.068	-0.154
-506.741	538.844	-0.189	0.449
-505.726	64.772	0.228	0.229
-504.712	-200.000	0.012	0.131
-503.697	103.508	-0.136	0.159
-502.683	-200.000	-0.003	-0.230
-501.668	111.730	-0.132	0.159
-500.653	103.226	0.288	0.337
-499.639	-32.551	-0.146	-0.081
-498.624	219.095	-0.203	0.324
-497.610	-87.334	-0.103	-0.031
-496.595	-75.488	-0.202	-0.072
-495.581	-200.000	0.029	-0.212
-494.566	712.940	0.026	-0.069
-493.551	-136.778	-0.438	-0.050
-492.537	800.000	0.060	0.248
-491.522	-48.981	0.178	-0.085
-490.508	93.741	-0.152	0.172
-489.493	-90.645	-0.063	-0.018
-488.478	415.747	-0.054	-0.114
-487.464	-58.279	-0.287	-0.124
-486.449	-2.041	-0.019	-0.013
-485.435	-44.101	-0.138	-0.069
-484.420	-86.144	0.390	0.120
-483.405	-146.282	-0.050	-0.004
-482.391	-64.489	0.253	-0.103
-481.376	800.000	0.056	-0.236
-480.362	800.000	0.042	-0.181
-479.347	-64.297	0.106	0.043
-478.332	800.000	0.012	0.034
-477.318	800.000	0.069	0.194
-476.303	-59.135	-0.205	-0.088
-475.289	-70.004	0.108	0.041
-474.274	-72.388	-0.312	-0.115
-473.259	23.897	-0.190	-0.156
-472.245	-94.492	0.222	0.060
-471.230	61.218	0.242	-0.240
-470.216	800.000	0.144	-0.500
-469.201	134.154	-0.261	0.337
-468.186	738.731	0.134	0.358
-467.172	42.937	0.125	0.114
-466.157	-60.394	0.048	-0.020
-465.143	-90.752	0.188	-0.054
-464.128	-191.118	-0.302	0.003
-463.113	76.658	0.294	0.311
-462.099	52.572	-0.144	-0.137
-461.084	562.397	-0.163	0.394
-460.070	195.964	-0.147	0.223
-459.055	-173.311	0.237	0.007
-458.040	134.111	-0.102	-0.131
-457.026	800.000	0.074	0.272
-456.011	73.828	-0.113	0.118
-454.997	-138.152	0.218	0.024
-453.982	-72.366	0.186	0.069
-452.968	-54.996	-0.233	-0.105
-451.953	-43.720	-0.148	0.074
-450.938	-200.000	-0.001	0.036
-449.924	-9.637	-0.302	-0.201
-448.909	-13.824	0.225	-0.145
-447.895	32.282	0.169	-0.145
-446.880	-30.695	-0.298	0.168
-445.865	-72.344	-0.234	-0.086
-444.851	800.000	-0.094	0.295
-443.836	-111.933	0.104	-0.021
-442.822	13.494	0.350	0.271
-441.807	166.876	-0.123	0.174
-440.792	800.000	-0.048	-0.202
-439.778	-157.901	0.209	-0.012
-438.763	83.202	-0.065	0.071
-437.749	-23.049	-0.256	0.153
-436.734	800.000	0.082	0.304
-435.719	-75.820	0.143	-0.050
-434.705	51.018	0.121	0.114
-433.690	142.731	-0.136	0.180
-432.676	-33.554	0.319	-0.175
-431.661	-45.646	0.108	0.053
-430.646	759.996	-0.076	0.204
-429.632	-45.116	-0.177	0.087
-428.617	-52.062	0.389	-0.180
-427.603	418.230	-0.053	0.114
-426.588	-74.577	0.123	-0.044
-425.573	-0.119	-0.144	-0.102
-424.559	-9.663	-0.081	0.053
-423.544	-155.839	-0.070	0.004
-422.530	389.982	-0.036	-0.075
-421.515	12.353	0.142	0.109
-420.500	20.603	0.088	0.071
-419.486	-200.000	0.002	-0.043
-418.471	-131.489	0.250	0.033
-417.457	-130.879	0.060	0.008
-416.442	174.290	0.073	-0.105
-415.428	-28.449	0.485	-0.278
-414.413	717.647	-0.077	0.202
-413.398	34.847	0.222	0.193
-412.384	-176.114	0.229	0.006
-411.369	109.099	0.090	0.107
-410.355	-77.293	-0.201	-0.070
-409.340	113.920	-0.204	0.246
-408.325	-200.000	0.009	0.150
-407.311	7.220	-0.226	0.168
-406.296	-11.752	-0.322	-0.210
-405.282	800.000	0.109	-0.337
-404.267	8.387	0.296	-0.221
-403.252	-132.991	-0.184	-0.023
-402.238	-93.063	0.137	0.038
-401.223	154.435	0.240	0.328
-400.209	-125.956	0.205	-0.031
-399.194	33.759	-0.144	0.124
-398.179	-200.000	-0.023	0.196
-397.165	-26.848	0.263	0.153
-396.150	787.388	0.068	-0.187
-395.136	206.040	0.259	0.400
-394.121	333.309	0.159	0.306
-393.106	556.889	0.105	0.252
-392.092	-6.739	0.234	0.158
-391.077	-41.002	0.258	-0.132
-390.063	-65.209	-0.383	-0.154
-389.048	-79.908	0.098	-0.033
-388.033	-4.767	-0.115	-0.079
-387.019	-200.000	0.019	-0.082
-386.004	62.806	-0.173	-0.172
-384.990	-200.000	-0.032	0.234
-383.975	30.364	-0.229	-0.194
-382.960	800.000	0.045	-0.183
-381.946	800.000	0.095	-0.302
-380.931	-171.666	0.249	0.008
-379.917	350.261	-0.113	0.222
-378.902	-28.663	-0.234	-0.134
-377.888	-172.012	-0.104	-0.003
-376.873	549.415	0.038	-0.091
-375.858	54.694	-0.244	0.233
-374.844	-55.177	-0.257	-0.115
-373.829	28.389	0.271	0.228
-372.815	-38.799	-0.442	0.232
-371.800	-105.908	-0.225	-0.050
-370.785	800.000	-0.150	-0.418
-369.771	-96.733	0.164	0.043
-368.756	57.839	0.302	0.293
-367.742	500.657	0.122	0.279
-366.727	-132.533	-0.237	0.030
-365.712	446.425	-0.112	-0.243
-364.698	-19.418	0.056	0.034
-363.683	87.433	-0.140	-0.154
-362.669	-104.837	0.106	-0.024
-361.654	-22.144	0.268	0.161
-360.639	9.446	0.230	0.173
-359.625	161.193	0.251	0.349
-358.610	-131.997	0.295	-0.038
-357.596	151.790	0.212	-0.287
-356.581	-200.000	-0.004	-0.391
-355.566	800.000	-0.084	0.325
-354.552	-92.188	0.192	0.054
-353.537	188.447	-0.050	-0.074
-352.523	88.957	-0.142	-0.157
-351.508	242.858	0.037	0.061
-350.493	-200.000	0.012	0.091
-349.479	67.232	0.279	-0.283
-348.464	800.000	0.053	-0.219
-347.450	-200.000	0.011	0.156
-346.435	149.371	-0.099	0.134
-345.420	110.709	0.029	-0.035
-344.406	-53.461	-0.555	-0.252
-343.391	438.213	0.119	0.257
-342.377	-48.565	-0.013	-0.006
-341.362	-118.474	-0.125	-0.022
-340.348	-73.248	0.054	-0.019
-339.333	82.735	-0.055	0.059
-338.318	800.000	0.048	-0.187
-337.304	426.553	0.131	-0.280
-336.289	512.811	0.116	0.269
-335.275	684.202	-0.048	0.125
-334.260	800.000	0.042	0.163
-333.245	-16.150	-0.105	0.066
-332.231	-14.484	-0.114	-0.072
-331.216	305.445	-0.105	-0.194
-330.202	-115.657	-0.130	0.024
-329.187	17.375	-0.055	-0.043
-328.172	-99.217	0.279	0.070
-327.158	800.000	0.063	-0.222
-326.143	-47.765	-0.122	0.059
-325.129	40.478	-0.151	-0.135
-324.114	-200.000	0.011	-0.226
-323.099	-104.616	0.110	0.025
-322.085	2.900	0.096	0.069
-321.070	181.298	-0.072	-0.105
-320.056	-200.000	-0.000	-0.170
-319.041	-33.888	-0.397	-0.216
-318.026	10.850	0.228	-0.172
-317.012	-49.797	0.209	-0.098
-315.997	-85.000	-0.144	0.045
-314.983	114.270	-0.225	0.271
-313.968	-151.286	-0.329	-0.024
-312.953	-97.340	0.145	-0.037
-311.939	-87.382	-0.193	-0.058
-310.924	-24.442	0.314	0.185
-309.910	-123.768	-0.329	0.051
-308.895	800.000	-0.060	0.213
-307.880	76.899	0.167	0.175
-306.866	-200.000	-0.042	0.306
-305.851	-200.000	0.044	-0.194
-304.837	196.923	0.021	-0.032
-303.822	-200.000	0.000	0.265
-302.807	76.568	-0.249	-0.262
-301.793	-62.690	0.176	0.072
-300.778	800.000	-0.126	-0.388
-299.764	147.651	-0.051	-0.068
-298.749	-97.688	-0.309	0.079
-297.735	-177.298	-0.248	0.006
-296.720	800.000	0.035	0.104
-295.705	-30.926	0.089	0.050
-294.691	60.868	-0.140	-0.138
-293.676	446.661	-0.048	0.104
-292.662	481.595	-0.099	0.223
-291.647	223.922	-0.184	-0.294
-290.632	-131.801	-0.199	0.026
-289.618	299.810	0.008	-0.015
-288.603	-179.584	0.189	0.004
-287.589	-200.000	0.027	0.223
-286.574	-129.624	0.144	0.020
-285.559	20.602	-0.062	0.050
-284.545	4.645	0.263	0.191
-283.530	-200.000	-0.026	0.355
-282.516	-122.554	0.277	0.044
-281.501	39.531	0.041	-0.036
-280.486	67.313	0.319	-0.322
-279.472	-128.832	-0.221	-0.031
-278.457	-200.000	0.019	0.460
-277.443	-200.000	0.012	-0.263
-276.428	800.000	-0.062	0.182
-275.413	-134.281	0.090	0.011
-274.399	-79.963	-0.350	-0.116
-273.384	303.588	0.248	0.455
-272.370	-200.000	-0.001	0.142
-271.355	73.633	0.185	0.191
-270.340	166.947	0.052	-0.072
-269.326	262.491	-0.222	-0.380
-268.311	-200.000	-0.006	0.117
-267.297	-162.252	-0.084	0.004
-266.282	-32.419	0.377	0.208
-265.267	-200.000	0.005	-0.150
-264.253	-165.071	0.110	-0.005
-263.238	590.888	0.137	0.335
-262.224	-99.315	-0.120	0.030
-261.209	-92.419	-0.276	0.077
-260.195	376.811	0.155	-0.313
-259.180	-200.000	-0.010	-0.115
-258.165	-200.000	-0.022	0.173
-257.151	205.930	-0.134	0.206
-256.136	-13.892	0.304	0.194
-255.122	-26.042	0.428	-0.249
-254.107	609.092	-0.106	-0.262
-253.092	33.621	0.197	-0.169
-252.078	131.208	-0.155	0.196
-251.063	-140.812	-0.430	-0.044
-250.049	-200.000	-0.045	0.298
-249.034	109.687	0.064	0.075
-248.019	502.663	0.120	-0.273
-247.005	-146.278	-0.247	-0.021
-245.990	511.849	0.056	0.128
-244.976	-10.346	-0.160	-0.105
-243.961	-200.000	0.046	0.292
-242.946	-200.000	-0.078	0.363
-241.932	800.000	0.048	0.205
-240.917	-200.000	0.039	0.266
-239.903	-104.894	0.332	-0.075
-238.888	506.941	0.198	0.454
-237.873	-121.974	-0.268	-0.044
-236.859	4.883	-0.314	0.228
-235.844	800.000	-0.030	0.113
-234.830	150.474	0.081	0.108
-233.815	50.235	-0.151	-0.140
-232.800	-92.100	0.366	-0.102
-231.786	96.959	-0.110	-0.124
-230.771	800.000	0.092	-0.252
-229.757	41.779	-0.101	-0.090
-228.742	52.065	0.183	0.172
-227.727	-28.558	-0.111	0.063
-226.713	-25.248	-0.229	0.134
-225.698	-200.000	0.020	0.344
-224.684	209.803	-0.215	0.332
-223.669	164.238	-0.072	-0.100
-222.655	-200.000	0.051	0.319
-221.640	72.689	-0.058	0.060
-220.625	-178.915	0.272	0.006
-219.611	173.846	0.052	-0.074
-218.596	-7.389	0.145	-0.097
-217.582	-200.000	-0.018	0.130
-216.567	-142.165	0.164	0.016
-215.552	-137.187	-0.089	-0.010
-214.538	32.916	0.097	-0.083
-213.523	-94.887	-0.151	-0.040
-212.509	-87.056	-0.101	0.030
-211.494	249.033	0.034	0.057
-210.479	-92.039	-0.250	-0.070
-209.465	28.039	-0.149	-0.124
-208.450	-200.000	-0.036	-0.266
-207.436	-200.000	-0.035	0.286
-206.421	800.000	0.078	0.251
-205.406	112.631	-0.059	0.071
-204.392	64.901	-0.041	0.041
-203.377	800.000	-0.094	-0.299
-202.363	-165.639	0.166	0.007
-201.348	-67.176	0.296	0.115
-200.333	-3.942	0.176	-0.121
-199.319	-200.000	0.063	-0.311
-198.304	800.000	-0.118	-0.439
-197.290	-200.000	-0.027	-0.219
-196.275	-44.987	0.124	0.061
-195.260	-61.170	0.118	-0.049
-194.246	-90.569	0.336	0.096
-193.231	-7.672	0.097	0.064
-192.217	196.582	0.231	0.347
-191.202	-122.564	-0.135	0.022
-190.187	-138.083	0.263	-0.029
-189.173	-200.000	0.037	-0.172
-188.158	95.637	-0.152	-0.171
-187.144	-200.000	-0.006	-0.183
-186.129	-117.655	-0.217	-0.039
-185.114	209.237	-0.069	0.107
-184.100	44.584	0.219	0.199
-183.085	60.239	-0.178	0.174
-182.071	-200.000	-0.015	-0.096
-181.056	-117.500	0.212	0.038
-180.042	-200.000	-0.023	0.382
-179.027	85.047	-0.143	-0.155
-178.012	-84.990	0.171	0.053
-176.998	-46.374	-0.339	-0.164
-175.983	-105.657	0.204	-0.046
-174.969	237.174	-0.093	-0.152
-173.954	-92.046	0.231	-0.064
-172.939	-200.000	-0.031	0.205
-171.925	-200.000	0.030	-0.256
-170.910	442.306	0.167	-0.361
-169.896	-200.000	0.065	-0.442
-168.881	800.000	-0.099	-0.415
-167.866	6.956	-0.087	0.064
-166.852	80.668	0.147	-0.156
-165.837	-32.299	-0.076	0.042
-164.823	-8.617	0.206	0.136
-163.808	746.720	0.020	-0.052
-162.793	-110.666	0.343	-0.070
-161.779	-154.405	0.418	-0.028
-160.764	-160.258	0.088	0.005
-159.750	-65.241	0.122	-0.048
-158.735	-87.199	0.116	-0.035
-157.720	216.758	-0.241	0.378
-156.706	-94.460	-0.113	0.030
-155.691	-200.000	0.103	0.498
-154.677	-17.434	0.046	0.028
-153.662	-200.000	0.005	-0.326
-152.647	159.103	-0.167	0.228
-151.633	-13.544	-0.192	-0.123
-150.618	-188.397	0.270	-0.003
-149.604	-126.467	0.365	-0.053
-148.589	47.143	-0.159	0.146
-147.574	-139.368	-0.177	0.019
-146.560	130.313	-0.104	-0.131
-145.545	-171.543	0.232	-0.008
-144.531	-156.879	-0.502	-0.030
-143.516	-119.846	0.165	-0.028
-142.502	102.561	0.032	0.036
-141.487	800.000	0.070	-0.213
-140.472	-200.000	0.015	0.170
-139.458	189.144	0.094	0.138
-138.443	-8.653	0.083	0.055
-137.429	40.977	-0.080	0.071
-136.414	22.868	-0.184	0.148
-135.399	-116.866	0.439	-0.079
-134.385	23.568	0.239	-0.194
-133.370	271.721	0.116	-0.201
-132.356	81.683	-0.225	-0.240
-131.341	29.785	0.152	0.127
-130.326	195.413	0.141	-0.211
-129.312	-33.652	0.270	0.147
-128.297	800.000	0.033	-0.112
-127.283	130.628	-0.140	0.177
-126.268	-125.017	0.081	0.012
-125.253	-133.302	-0.211	0.026
-124.239	118.439	-0.010	0.013
-123.224	-98.220	0.113	0.028
-122.210	-200.000	-0.061	0.335
