DTS Sentinel unit serial number:	SN413079Multiplexer serial number:	ORYXHardware model number:	OX4-SRSoftware version number:	ORYX F/W v4.00 Oryx Data Collector v3.7.2.0data status	okinstallation	princeton_trtdifferential loss correction	single-endedforward channel	channel 1reverse channel	N/Adate	2019/09/16time	04:14:35forward acquisition time	60.00reverse acquisition time	0.00gamma	496.2192k internal	0.2332k external	0.2332temperature offset calibration	0.9980default loss term (dB/km)	0.3790temperature slope calibration	1.0000multiplexer offset coefficient	1.0000multiplexer slope coefficient	1.0000fibre end	0.00T internal ref (°C)	27.37T ext. ref 1 (°C)	10.77T ext. ref 2 (°C)	21.42length (m)	temperature (°C)	Stokes	anti-Stokes-747.200	578.717	-0.032	0.078
-746.185	797.058	0.068	0.188
-745.171	-137.007	-0.092	0.011
-744.156	-66.031	-0.121	0.049
-743.142	-103.826	0.217	0.051
-742.127	-200.000	-0.007	0.294
-741.112	4.597	0.326	0.241
-740.098	343.087	0.074	-0.146
-739.083	-200.000	-0.007	0.050
-738.069	38.784	-0.146	-0.131
-737.054	-140.100	0.136	0.014
-736.039	-68.563	0.128	-0.050
-735.025	800.000	0.032	-0.126
-734.010	-85.915	-0.044	-0.014
-732.996	-200.000	0.013	-0.094
-731.981	25.088	-0.085	-0.071
-730.966	133.621	0.136	0.177
-729.952	-109.914	0.055	-0.011
-728.937	-47.816	-0.403	0.196
-727.923	-66.087	0.133	0.054
-726.908	4.851	-0.196	-0.145
-725.894	0.245	0.177	-0.127
-724.879	484.634	-0.021	0.048
-723.864	4.294	-0.403	-0.297
-722.850	232.068	0.043	0.071
-721.835	-200.000	-0.001	-0.146
-720.821	-97.269	-0.256	0.067
-719.806	-109.452	-0.231	0.049
-718.791	150.631	-0.219	0.300
-717.777	-156.330	0.102	-0.006
-716.762	-57.093	0.098	0.044
-715.748	30.954	0.197	-0.169
-714.733	-200.000	0.019	-0.092
-713.718	195.228	0.104	0.159
-712.704	-49.211	0.134	-0.064
-711.689	-200.000	0.014	0.257
-710.675	123.622	-0.145	0.183
-709.660	-67.952	0.307	-0.120
-708.645	-25.994	0.168	-0.099
-707.631	-68.931	0.286	-0.111
-706.616	-23.521	0.299	-0.180
-705.602	800.000	-0.110	-0.415
-704.587	-200.000	0.035	-0.267
-703.572	-32.200	-0.264	-0.148
-702.558	-36.236	-0.108	0.058
-701.543	351.733	-0.276	-0.549
-700.529	45.472	-0.104	-0.096
-699.514	-200.000	-0.000	-0.096
-698.499	-106.441	-0.327	-0.073
-697.485	522.635	0.046	0.110
-696.470	-24.605	0.163	0.097
-695.456	-8.179	0.194	0.131
-694.441	8.598	0.189	-0.143
-693.426	-62.292	0.246	-0.103
-692.412	800.000	0.056	-0.221
-691.397	62.571	-0.249	-0.250
-690.383	55.718	0.116	-0.113
-689.368	-59.961	0.110	-0.047
-688.354	-200.000	0.042	-0.216
-687.339	800.000	0.064	-0.197
-686.324	-25.117	0.271	-0.161
-685.310	-64.236	-0.177	0.072
-684.295	-8.043	-0.079	-0.053
-683.281	40.908	0.042	-0.038
-682.266	165.007	0.134	0.190
-681.251	-143.264	0.127	0.012
-680.237	440.833	-0.185	-0.407
-679.222	524.623	0.150	0.355
-678.208	-200.000	0.011	0.138
-677.193	491.587	0.146	-0.336
-676.178	-200.000	0.007	-0.224
-675.164	-178.548	-0.054	-0.001
-674.149	403.812	-0.082	0.173
-673.135	-0.933	0.032	-0.022
-672.120	81.006	0.104	0.112
-671.105	-200.000	0.001	-0.113
-670.091	-200.000	0.028	0.211
-669.076	-182.005	-0.106	0.002
-668.062	539.793	0.094	0.225
-667.047	-200.000	-0.008	-0.247
-666.032	282.897	-0.167	-0.300
-665.018	-78.345	-0.163	-0.056
-664.003	-200.000	0.000	0.045
-662.989	66.830	0.188	0.192
-661.974	-166.526	0.321	0.013
-660.959	-91.947	-0.180	0.051
-659.945	188.407	0.037	-0.056
-658.930	-111.465	0.170	-0.035
-657.916	149.025	0.192	0.260
-656.901	90.511	-0.034	0.038
-655.886	-200.000	0.033	-0.171
-654.872	465.626	-0.069	0.154
-653.857	-41.531	-0.223	0.115
-652.843	369.799	0.075	0.153
-651.828	-62.084	-0.002	0.001
-650.814	-65.923	-0.068	0.027
-649.799	-135.511	-0.494	0.059
-648.784	-200.000	0.044	0.248
-647.770	-200.000	-0.006	-0.147
-646.755	-103.971	-0.159	0.037
-645.741	426.454	-0.046	-0.100
-644.726	28.218	-0.239	-0.202
-643.711	145.076	0.081	0.109
-642.697	126.037	0.175	0.222
-641.682	-200.000	0.023	0.197
-640.668	261.980	0.042	0.072
-639.653	800.000	-0.109	-0.452
-638.638	-200.000	-0.009	-0.377
-637.624	-115.360	-0.084	-0.016
-636.609	-200.000	0.019	-0.097
-635.595	-16.342	-0.094	0.060
-634.580	623.137	-0.079	-0.199
-633.565	-200.000	-0.026	0.468
-632.551	93.820	-0.131	-0.149
-631.536	-75.500	0.229	0.082
-630.522	106.152	0.144	0.171
-629.507	123.509	0.108	0.135
-628.492	176.317	-0.085	-0.124
-627.478	172.727	0.128	0.184
-626.463	-115.196	-0.068	-0.013
-625.449	75.565	-0.063	0.066
-624.434	311.209	-0.105	0.197
-623.419	-39.567	-0.051	-0.027
-622.405	331.929	-0.155	0.300
-621.390	-200.000	0.005	0.376
-620.376	-153.518	-0.236	-0.016
-619.361	-103.733	0.197	0.046
-618.346	-167.232	0.204	0.008
-617.332	628.683	-0.029	0.074
-616.317	271.007	-0.145	0.256
-615.303	-200.000	-0.003	-0.088
-614.288	-97.116	0.223	-0.058
-613.273	-139.300	-0.263	0.028
-612.259	-172.060	-0.214	0.007
-611.244	117.977	0.250	0.308
-610.230	-54.576	-0.185	0.084
-609.215	153.487	-0.089	-0.122
-608.201	13.980	0.178	-0.139
-607.186	-67.451	0.263	-0.103
-606.171	-50.027	0.333	-0.158
-605.157	-51.792	0.276	-0.129
-604.142	800.000	0.068	-0.272
-603.128	143.160	-0.058	-0.078
-602.113	-200.000	0.001	0.186
-601.098	0.357	0.162	0.116
-600.084	-200.000	0.036	-0.160
-599.069	111.348	-0.079	-0.096
-598.055	-108.944	0.169	0.036
-597.040	-200.000	0.027	-0.285
-596.025	-200.000	0.004	-0.172
-595.011	12.768	0.145	-0.112
-593.996	-200.000	0.050	0.233
-592.982	513.559	0.033	-0.077
-591.967	-63.837	0.167	-0.068
-590.952	-200.000	-0.013	0.140
-589.938	-16.601	-0.075	0.048
-588.923	19.459	0.244	0.196
-587.909	-137.145	0.380	0.043
-586.894	-86.780	0.310	-0.095
-585.879	0.046	-0.175	-0.124
-584.865	-95.216	0.159	-0.043
-583.850	71.462	-0.210	-0.218
-582.836	-150.346	-0.178	-0.014
-581.821	-92.091	0.426	-0.120
-580.806	760.235	-0.075	0.204
-579.792	-200.000	-0.002	-0.083
-578.777	-55.178	-0.130	-0.058
-577.763	-200.000	-0.040	-0.224
-576.748	90.833	0.084	0.094
-575.733	0.603	-0.201	-0.144
-574.719	800.000	-0.060	0.251
-573.704	-52.950	-0.084	0.039
-572.690	267.055	-0.102	-0.178
-571.675	98.078	-0.085	0.097
-570.661	-45.448	0.152	0.075
-569.646	172.862	0.076	-0.110
-568.631	-22.307	0.169	0.102
-567.617	777.737	0.090	0.246
-566.602	800.000	-0.045	0.139
-565.588	-191.058	0.123	0.001
-564.573	-177.634	-0.395	0.010
-563.558	-39.540	-0.254	0.133
-562.544	-200.000	0.020	0.433
-561.529	484.104	-0.083	-0.189
-560.515	-200.000	0.070	-0.425
-559.500	-131.170	-0.055	-0.007
-558.485	-8.659	-0.257	0.172
-557.471	-116.400	-0.225	-0.042
-556.456	580.760	0.074	-0.182
-555.442	-200.000	-0.222	0.000
-554.427	523.611	0.086	-0.203
-553.412	-112.965	-0.180	-0.036
-552.398	800.000	0.049	-0.190
-551.383	-51.109	0.119	0.056
-550.369	-72.986	-0.246	-0.090
-549.354	123.864	0.071	0.088
-548.339	-200.000	-0.009	-0.309
-547.325	195.790	-0.121	0.183
-546.310	753.718	0.107	0.290
-545.296	-79.403	-0.191	0.065
-544.281	76.705	0.030	-0.031
-543.266	192.963	-0.127	-0.192
-542.252	-53.089	0.239	-0.109
-541.237	54.817	-0.255	0.245
-540.223	-200.000	0.027	-0.127
-539.208	40.042	-0.052	0.047
-538.193	-200.000	-0.017	0.101
-537.179	-200.000	-0.026	-0.195
-536.164	108.198	-0.170	-0.202
-535.150	104.183	-0.026	-0.031
-534.135	-200.000	-0.035	-0.179
-533.121	-200.000	0.016	0.181
-532.106	-107.203	0.024	0.005
-531.091	800.000	-0.065	-0.215
-530.077	-88.724	0.183	-0.054
-529.062	-28.912	-0.290	0.166
-528.048	-124.920	-0.496	-0.076
-527.033	800.000	-0.101	-0.409
-526.018	413.746	0.089	-0.188
-525.004	-88.011	-0.292	0.087
-523.989	33.570	-0.100	0.087
-522.975	-155.442	0.432	0.028
-521.960	649.295	0.071	0.181
-520.945	-200.000	-0.001	0.137
-519.931	-5.620	-0.102	0.070
-518.916	21.784	0.230	0.187
-517.902	117.837	0.155	0.190
-516.887	-115.920	0.274	-0.051
-515.872	-53.266	0.224	-0.103
-514.858	-12.169	-0.209	0.137
-513.843	800.000	-0.017	0.051
-512.829	-200.000	0.059	0.499
-511.814	-3.612	-0.058	0.040
-510.799	55.157	-0.017	0.017
-509.785	-200.000	-0.005	-0.114
-508.770	-200.000	-0.024	-0.431
-507.756	-49.131	0.114	-0.054
-506.741	-21.049	-0.175	-0.107
-505.726	396.745	0.058	0.121
-504.712	65.309	-0.289	-0.291
-503.697	-88.989	0.229	0.068
-502.683	110.773	-0.177	0.213
-501.668	-153.146	-0.150	-0.010
-500.653	-200.000	0.018	0.243
-499.639	-65.308	0.353	-0.142
-498.624	800.000	0.030	-0.127
-497.610	800.000	0.043	-0.140
-496.595	-193.229	-0.163	0.001
-495.581	89.844	0.108	-0.120
-494.566	800.000	0.129	-0.534
-493.551	34.274	0.219	-0.190
-492.537	63.393	-0.038	0.038
-491.522	-76.524	0.151	-0.053
-490.508	-105.693	-0.416	-0.094
-489.493	-16.503	-0.204	0.129
-488.478	-62.534	0.240	0.099
-487.464	574.318	-0.007	0.016
-486.449	123.320	0.199	-0.248
-485.435	104.733	0.076	-0.089
-484.420	33.349	0.233	-0.201
-483.405	627.701	0.205	-0.514
-482.391	800.000	0.098	0.387
-481.376	-18.793	0.221	0.137
-480.362	3.297	0.163	-0.118
-479.347	283.626	0.082	-0.146
-478.332	800.000	0.024	-0.085
-477.318	713.152	-0.164	0.434
-476.303	-13.954	0.207	0.133
-475.289	-152.468	-0.047	-0.003
-474.274	800.000	-0.031	-0.130
-473.259	691.317	0.067	-0.175
-472.245	326.653	0.129	0.245
-471.230	800.000	0.053	0.209
-470.216	157.684	0.028	0.038
-469.201	78.618	-0.154	-0.163
-468.186	232.964	-0.038	0.061
-467.172	-88.725	-0.090	-0.026
-466.157	208.505	0.048	-0.074
-465.143	34.139	-0.093	-0.080
-464.128	-89.562	0.248	-0.072
-463.113	-154.291	-0.145	-0.010
-462.099	-33.321	-0.217	0.120
-461.084	16.375	-0.110	0.087
-460.070	-5.790	0.101	-0.068
-459.055	-200.000	0.071	-0.374
-458.040	-192.475	0.150	-0.001
-457.026	100.577	-0.066	-0.076
-456.011	-200.000	0.033	-0.147
-454.997	800.000	-0.086	0.268
-453.982	-200.000	-0.089	-0.402
-452.968	-200.000	0.034	0.183
-451.953	800.000	-0.032	0.092
-450.938	192.394	0.072	0.108
-449.924	287.466	0.139	0.250
-448.909	-117.098	-0.430	0.078
-447.895	-166.129	-0.272	-0.011
-446.880	559.214	-0.043	0.104
-445.865	-123.698	0.314	0.049
-444.851	-21.314	-0.223	0.135
-443.836	165.459	-0.209	-0.293
-442.822	-23.026	0.277	-0.166
-441.807	-200.000	0.049	-0.347
-440.792	-56.090	-0.124	-0.055
-439.778	-86.409	0.114	-0.035
-438.763	-200.000	-0.001	-0.099
-437.749	-36.404	-0.208	0.111
-436.734	-200.000	-0.055	-0.298
-435.719	-53.309	0.257	0.117
-434.705	-101.482	-0.399	0.096
-433.690	-200.000	0.010	0.301
-432.676	800.000	0.112	0.350
-431.661	69.241	-0.186	0.190
-430.646	530.636	0.088	-0.207
-429.632	800.000	-0.045	-0.145
-428.617	414.329	0.146	-0.310
-427.603	-119.893	-0.167	-0.029
-426.588	78.540	0.203	-0.216
-425.573	-106.179	0.309	-0.069
-424.559	-200.000	0.013	0.128
-423.544	-200.000	0.026	-0.185
-422.530	156.925	-0.082	0.112
-421.515	-8.077	0.188	-0.126
-420.500	124.711	0.253	0.316
-419.486	9.919	0.100	0.075
-418.471	-99.108	0.205	-0.051
-417.457	700.755	0.024	-0.063
-416.442	197.787	0.157	-0.239
-415.428	-24.118	0.331	-0.197
-414.413	800.000	0.032	0.101
-413.398	-200.000	-0.010	0.234
-412.384	114.815	0.186	-0.226
-411.369	-200.000	-0.022	-0.118
-410.355	209.975	-0.098	0.153
-409.340	-200.000	-0.020	-0.180
-408.325	-200.000	0.015	-0.216
-407.311	238.965	-0.023	0.038
-406.296	800.000	0.068	0.255
-405.282	642.627	-0.057	0.143
-404.267	176.017	-0.080	0.116
-403.252	419.817	0.113	0.240
-402.238	187.973	-0.063	0.094
-401.223	-157.048	-0.114	-0.007
-400.209	341.685	0.092	0.179
-399.194	800.000	0.150	-0.415
-398.179	-30.707	-0.339	0.191
-397.165	-99.759	0.147	-0.036
-396.150	-88.360	-0.252	-0.075
-395.136	800.000	0.114	-0.335
-394.121	27.543	-0.180	0.151
-393.106	-200.000	0.022	-0.106
-392.092	215.582	0.126	-0.199
-391.077	-200.000	-0.033	0.249
-390.063	191.317	-0.078	0.116
-389.048	-111.533	-0.361	-0.073
-388.033	329.897	-0.222	0.424
-387.019	489.337	-0.089	-0.202
-386.004	160.899	-0.196	-0.272
-384.990	452.004	0.036	-0.078
-383.975	-31.991	0.151	-0.084
-382.960	367.282	-0.151	-0.302
-381.946	702.054	-0.101	0.263
-380.931	-69.081	0.233	0.089
-379.917	-148.533	-0.160	0.013
-378.902	19.097	0.261	-0.208
-377.888	12.964	-0.339	0.260
-376.873	660.959	0.018	0.047
-375.858	800.000	0.074	-0.205
-374.844	108.940	-0.259	-0.307
-373.829	-200.000	-0.039	0.196
-372.815	11.576	-0.178	0.135
-371.800	-200.000	0.028	0.195
-370.785	406.569	-0.141	-0.295
-369.771	3.502	-0.197	0.143
-368.756	-200.000	0.010	0.076
-367.742	-53.375	0.244	0.111
-366.727	63.445	0.095	0.094
-365.712	-40.143	-0.207	-0.107
-364.698	43.481	-0.147	0.134
-363.683	26.560	0.205	-0.170
-362.669	800.000	0.023	0.075
-361.654	-200.000	-0.015	0.164
-360.639	183.843	0.040	0.059
-359.625	-98.271	0.095	-0.024
-358.610	-200.000	0.008	0.061
-357.596	-143.115	0.388	0.037
-356.581	-43.158	-0.113	-0.056
-355.566	435.729	0.154	-0.332
-354.552	-64.661	-0.256	-0.103
-353.537	800.000	-0.094	-0.271
-352.523	191.090	0.181	-0.269
-351.508	-200.000	0.083	-0.531
-350.493	-200.000	-0.039	-0.265
-349.479	-200.000	0.024	0.236
-348.464	201.608	-0.167	0.254
-347.450	-130.592	-0.158	-0.021
-346.435	134.977	-0.064	0.082
-345.420	-164.313	0.237	0.011
-344.406	39.502	0.070	-0.062
-343.391	-200.000	0.004	0.144
-342.377	-115.160	-0.322	-0.060
-341.362	-200.000	-0.032	-0.386
-340.348	800.000	-0.048	0.196
-339.333	-41.117	0.228	0.116
-338.318	197.049	0.130	0.196
-337.304	176.374	-0.090	-0.130
-336.289	167.835	-0.155	0.219
-335.275	-155.607	-0.311	-0.020
-334.260	-200.000	0.017	0.174
-333.245	-91.275	0.087	0.025
-332.231	503.391	0.158	0.362
-331.216	-79.447	-0.434	-0.145
-330.202	-200.000	0.044	0.262
-329.187	708.013	0.111	0.292
-328.172	381.727	-0.044	-0.089
-327.158	347.581	-0.065	-0.127
-326.143	-39.189	0.106	-0.055
-325.129	-81.545	-0.261	-0.085
-324.114	-0.225	-0.146	-0.102
-323.099	-148.418	-0.374	0.030
-322.085	-187.573	-0.253	-0.003
-321.070	194.826	-0.006	-0.009
-320.056	96.621	0.059	-0.067
-319.041	-200.000	-0.014	-0.081
-318.026	-200.000	0.122	-0.738
-317.012	-29.992	0.153	-0.086
-315.997	-96.387	0.077	-0.020
-314.983	-129.926	0.332	-0.045
-313.968	800.000	-0.082	0.224
-312.953	348.511	0.045	0.088
-311.939	315.165	-0.076	-0.142
-310.924	-51.195	0.188	-0.087
-309.910	82.938	-0.148	-0.159
-308.895	-200.000	0.007	0.153
-307.880	-104.335	0.314	0.072
-306.866	-50.011	0.123	0.058
-305.851	48.436	-0.019	0.017
-304.837	-97.719	-0.242	-0.062
-303.822	262.922	-0.053	-0.091
-302.807	-144.347	0.272	-0.025
-301.793	335.705	-0.102	-0.195
-300.778	-200.000	0.045	-0.304
-299.764	83.856	-0.236	-0.254
-298.749	-36.578	0.052	-0.028
-297.735	800.000	-0.066	-0.239
-296.720	-68.989	-0.056	0.021
-295.705	235.552	-0.146	0.239
-294.691	456.833	0.124	-0.273
-293.676	-200.000	0.038	-0.240
-292.662	-86.853	-0.086	0.026
-291.647	-160.943	0.218	-0.011
-290.632	-155.845	-0.345	-0.022
-289.618	131.056	0.037	-0.047
-288.603	-173.255	0.362	-0.011
-287.589	-200.000	-0.007	0.171
-286.574	29.241	-0.148	-0.124
-285.559	-99.072	0.168	-0.042
-284.545	228.077	0.068	0.109
-283.530	103.652	-0.083	0.097
-282.516	86.866	0.032	-0.035
-281.501	-29.283	0.019	-0.011
-280.486	-46.577	-0.063	0.030
-279.472	703.495	0.075	-0.195
-278.457	277.384	0.144	0.254
-277.443	-72.365	0.135	-0.049
-276.428	-133.257	-0.212	-0.026
-275.413	-23.948	0.148	0.087
-274.399	-80.323	0.247	0.081
-273.384	800.000	0.067	0.209
-272.370	150.250	-0.246	-0.330
-271.355	87.575	-0.138	0.151
-270.340	-126.929	-0.151	0.022
-269.326	800.000	-0.066	0.184
-268.311	-118.165	0.062	0.011
-267.297	-125.526	0.313	-0.047
-266.282	-137.856	-0.319	0.035
-265.267	-200.000	-0.048	0.243
-264.253	-170.447	0.148	-0.005
-263.238	-137.851	0.174	-0.019
-262.224	-200.000	-0.046	-0.376
-261.209	393.476	-0.051	0.105
-260.195	-100.232	-0.120	0.029
-259.180	-140.273	-0.090	-0.009
-258.165	-27.262	0.212	-0.122
-257.151	103.482	0.136	0.157
-256.136	-170.451	-0.295	0.010
-255.122	-8.353	-0.192	0.127
-254.107	159.472	0.073	-0.101
-253.092	564.014	-0.075	0.178
-252.078	800.000	0.041	-0.124
-251.063	-54.682	0.328	-0.146
-250.049	358.971	-0.112	0.220
-249.034	749.404	0.059	0.156
-248.019	-200.000	0.004	-0.115
-247.005	-200.000	-0.020	0.092
-245.990	-90.285	-0.150	0.043
-244.976	-200.000	0.023	0.149
-243.961	-186.489	0.078	-0.001
-242.946	150.275	-0.215	0.288
-241.932	92.521	-0.257	-0.286
-240.917	48.177	0.049	0.045
-239.903	366.799	-0.107	0.213
-238.888	-31.266	0.267	0.149
-237.873	-74.585	0.334	0.119
-236.859	-76.659	0.201	0.069
-235.844	800.000	-0.011	-0.031
-234.830	43.679	-0.066	0.059
-233.815	100.467	-0.185	0.211
-232.800	192.614	-0.132	-0.196
-231.786	221.551	-0.157	0.248
-230.771	-200.000	-0.048	0.256
-229.757	-8.993	0.116	-0.077
-228.742	-38.769	0.154	-0.080
-227.727	52.715	0.042	-0.039
-226.713	461.205	-0.235	-0.516
-225.698	-200.000	-0.042	-0.251
-224.684	-23.889	0.209	-0.123
-223.669	-60.668	-0.319	0.133
-222.655	-200.000	0.018	-0.147
-221.640	29.683	-0.225	0.188
-220.625	-46.184	-0.048	0.023
-219.611	41.280	0.183	0.163
-218.596	-54.604	0.135	-0.060
-217.582	-81.450	0.095	0.031
-216.567	-108.839	-0.491	0.103
-215.552	41.443	-0.226	-0.202
-214.538	-200.000	0.003	-0.074
-213.523	88.912	-0.197	-0.216
-212.509	-200.000	-0.002	0.037
-211.494	-112.984	-0.098	-0.019
-210.479	800.000	0.080	0.242
-209.465	212.055	0.139	0.215
-208.450	234.175	-0.048	-0.078
-207.436	-56.024	-0.137	0.060
-206.421	800.000	0.129	0.433
-205.406	-43.484	0.164	0.082
-204.392	199.988	-0.121	0.182
-203.377	467.348	0.272	0.600
-202.363	-200.000	-0.018	0.179
-201.348	703.907	0.090	-0.233
-200.333	-34.872	0.098	-0.052
-199.319	-200.000	0.018	-0.103
-198.304	267.832	0.056	0.096
-197.290	800.000	0.025	0.088
-196.275	-184.612	0.146	0.002
-195.260	-137.114	0.273	0.031
-194.246	-200.000	-0.015	0.444
-193.231	579.039	0.174	0.418
-192.217	67.903	-0.124	0.125
-191.202	35.844	-0.214	0.186
-190.187	117.578	-0.094	0.114
-189.173	-200.000	-0.003	-0.218
-188.158	-139.041	0.197	0.021
-187.144	-200.000	0.014	0.220
-186.129	-159.345	0.112	-0.006
-185.114	384.822	0.093	0.190
-184.100	-200.000	0.021	0.294
-183.085	-34.426	-0.259	-0.140
-182.071	615.638	0.065	0.160
-181.056	-161.807	-0.239	0.012
-180.042	-7.116	0.274	-0.183
-179.027	-113.616	0.063	-0.012
-178.012	472.483	-0.071	0.158
-176.998	649.474	-0.094	-0.237
-175.983	800.000	-0.036	-0.118
-174.969	-31.032	0.203	0.113
-173.954	48.727	0.101	-0.093
-172.939	-177.515	0.152	0.004
-171.925	65.461	0.120	0.119
-170.910	-200.000	-0.037	-0.193
-169.896	170.714	0.187	-0.263
-168.881	-136.787	0.332	-0.038
-167.866	734.996	-0.046	0.121
-166.852	-117.332	0.187	0.033
-165.837	167.779	0.141	0.197
-164.823	187.242	-0.129	-0.189
-163.808	38.331	-0.203	0.177
-162.793	-200.000	0.050	0.226
-161.779	-161.156	0.149	0.008
-160.764	800.000	0.040	0.167
-159.750	69.482	-0.126	-0.128
-158.735	-54.349	-0.156	0.069
-157.720	505.657	-0.075	0.171
-156.706	371.228	-0.082	-0.164
-155.691	-176.001	-0.311	0.008
-154.677	-50.908	0.175	-0.081
-153.662	128.975	-0.049	0.061
-152.647	353.403	0.057	0.112
-151.633	-1.566	0.247	-0.171
-150.618	26.225	0.222	0.183
-149.604	800.000	-0.031	0.102
-148.589	800.000	-0.057	0.159
-147.574	321.743	-0.151	-0.283
-146.560	-115.526	0.033	0.006
-145.545	-200.000	-0.010	0.121
-144.531	175.561	0.197	-0.281
-143.516	-200.000	0.019	0.125
-142.502	-200.000	0.025	0.195
-141.487	4.162	-0.186	-0.134
-140.472	81.631	-0.081	-0.086
-139.458	92.699	-0.313	-0.347
-138.443	-123.187	0.187	0.029
-137.429	79.686	-0.145	-0.153
-136.414	-200.000	-0.007	-0.189
-135.399	800.000	-0.057	0.202
-134.385	-15.904	-0.113	-0.071
-133.370	-77.960	0.173	0.059
-132.356	-53.956	0.220	-0.098
-131.341	113.047	-0.083	0.099
-130.326	-200.000	0.024	0.188
-129.312	800.000	0.042	0.129
-128.297	-26.966	-0.338	-0.194
-127.283	-200.000	-0.001	-0.314
-126.268	-139.686	0.261	0.027
-125.253	154.489	-0.207	0.279
-124.239	392.094	0.044	-0.089
-123.224	446.007	0.015	0.033
-122.210	-200.000	-0.023	-0.280
-121.195	800.000	-0.047	-0.141
