DTS Sentinel unit serial number:	SN413079Multiplexer serial number:	ORYXHardware model number:	OX4-SRSoftware version number:	ORYX F/W v4.00 Oryx Data Collector v3.7.2.0data status	okinstallation	princeton_trtdifferential loss correction	single-endedforward channel	channel 1reverse channel	N/Adate	2019/09/15time	14:58:35forward acquisition time	60.00reverse acquisition time	0.00gamma	496.2192k internal	0.2292k external	0.2292temperature offset calibration	0.9951default loss term (dB/km)	0.3790temperature slope calibration	1.0000multiplexer offset coefficient	1.0000multiplexer slope coefficient	1.0000fibre end	0.00T internal ref (°C)	40.12T ext. ref 1 (°C)	4.89T ext. ref 2 (°C)	37.55length (m)	temperature (°C)	Stokes	anti-Stokes-747.200	3.881	0.247	0.184
-746.185	45.524	-0.255	0.241
-745.171	800.000	-0.087	0.313
-744.156	366.046	0.274	0.565
-743.142	-200.000	0.000	0.234
-742.127	-200.000	0.061	0.535
-741.112	800.000	0.066	0.276
-740.098	800.000	-0.177	0.625
-739.083	-200.000	0.040	0.304
-738.069	-0.070	-0.190	0.138
-737.054	123.289	0.124	0.160
-736.039	72.400	-0.246	-0.263
-735.025	-200.000	-0.030	0.240
-734.010	-200.000	0.058	0.348
-732.996	30.521	-0.185	-0.161
-731.981	-11.608	-0.237	-0.159
-730.966	-9.966	-0.215	0.146
-729.952	-188.392	-0.400	-0.005
-728.937	-200.000	0.061	0.327
-727.923	-51.726	-0.188	-0.090
-726.908	115.516	-0.136	0.170
-725.894	178.600	-0.241	-0.361
-724.879	-200.000	-0.023	-0.139
-723.864	77.255	-0.080	-0.087
-722.850	225.009	-0.081	0.135
-721.835	-68.948	-0.230	-0.091
-720.821	174.460	-0.128	-0.190
-719.806	-112.602	-0.086	0.017
-718.791	5.886	-0.352	0.266
-717.777	32.494	0.206	0.182
-716.762	-139.117	-0.469	0.052
-715.748	-63.864	0.071	-0.029
-714.733	-144.067	-0.156	-0.015
-713.718	-17.185	-0.281	-0.181
-712.704	16.415	0.396	0.320
-711.689	800.000	0.022	0.071
-710.675	12.516	0.074	0.058
-709.660	204.129	0.020	0.032
-708.645	-94.326	-0.275	-0.077
-707.631	85.428	-0.159	-0.179
-706.616	138.739	-0.221	-0.296
-705.602	-41.094	0.084	-0.045
-704.587	-200.000	-0.059	0.285
-703.572	-200.000	0.042	0.294
-702.558	32.061	-0.147	0.129
-701.543	-200.000	0.029	0.132
-700.529	-4.634	0.180	-0.127
-699.514	800.000	0.073	0.217
-698.499	379.666	0.078	0.163
-697.485	329.137	0.095	0.186
-696.470	51.865	-0.106	-0.103
-695.456	-187.729	-0.447	0.006
-694.441	251.844	0.217	0.378
-693.426	-112.060	-0.172	-0.035
-692.412	-200.000	-0.039	-0.190
-691.397	607.895	0.129	-0.328
-690.383	799.991	0.128	-0.362
-689.368	-200.000	-0.003	0.295
-688.354	61.240	-0.136	-0.138
-687.339	-14.079	-0.186	0.123
-686.324	482.557	0.097	-0.226
-685.310	-187.950	-0.330	0.004
-684.295	610.739	-0.151	-0.386
-683.281	-1.757	-0.218	0.156
-682.266	-1.876	0.122	0.088
-681.251	-155.754	-0.515	-0.034
-680.237	37.624	-0.178	0.161
-679.222	-200.000	0.025	0.128
-678.208	95.340	-0.031	0.037
-677.193	-200.000	-0.027	0.277
-676.178	-94.688	0.179	0.050
-675.164	690.128	0.116	0.309
-674.149	-24.888	-0.108	0.065
-673.135	-174.383	0.205	-0.006
-672.120	191.754	-0.090	-0.139
-671.105	242.267	0.141	0.241
-670.091	37.144	0.072	-0.065
-669.076	-147.021	0.165	0.014
-668.062	-117.484	0.079	0.015
-667.047	651.202	0.126	-0.328
-666.032	-200.000	0.021	-0.250
-665.018	800.000	0.091	-0.274
-664.003	-200.000	-0.066	-0.391
-662.989	132.958	-0.212	0.279
-661.974	-58.180	-0.216	0.096
-660.959	13.857	-0.226	-0.180
-659.945	67.030	0.055	0.057
-658.930	188.122	0.039	0.059
-657.916	-166.175	0.584	0.025
-656.901	-57.135	0.228	-0.103
-655.886	10.705	0.326	0.253
-654.872	-200.000	0.001	0.164
-653.857	-200.000	0.041	0.292
-652.843	-200.000	-0.009	0.184
-651.828	-200.000	0.005	0.091
-650.814	-26.946	-0.369	-0.219
-649.799	-112.075	0.113	0.023
-648.784	686.951	-0.042	0.112
-647.770	366.800	-0.046	-0.095
-646.755	160.360	-0.143	-0.204
-645.741	45.917	-0.355	-0.335
-644.726	-200.000	0.018	-0.104
-643.711	-200.000	0.034	-0.152
-642.697	60.341	0.183	-0.185
-641.682	-200.000	0.004	-0.183
-640.668	800.000	0.021	-0.082
-639.653	28.143	0.105	-0.090
-638.638	142.220	-0.121	0.164
-637.624	-113.513	-0.116	-0.023
-636.609	-74.206	-0.099	-0.036
-635.595	-46.954	0.242	-0.120
-634.580	-34.958	0.258	0.144
-633.565	-181.190	0.029	-0.001
-632.551	-200.000	0.016	-0.499
-631.536	67.087	0.221	-0.229
-630.522	381.213	0.076	0.160
-629.507	190.561	0.184	0.281
-628.492	-122.434	-0.196	0.033
-627.478	-88.280	-0.348	0.106
-626.463	348.971	0.112	0.225
-625.449	-87.890	-0.355	0.109
-624.434	-103.487	0.148	-0.035
-623.419	-175.237	0.133	0.004
-622.405	259.658	-0.134	-0.236
-621.390	-200.000	-0.051	-0.227
-620.376	800.000	-0.073	-0.237
-619.361	-90.251	-0.172	0.051
-618.346	800.000	-0.059	-0.174
-617.332	-118.017	-0.157	0.029
-616.317	35.635	0.282	0.253
-615.303	-8.837	0.339	-0.231
-614.288	-7.308	-0.167	-0.115
-613.273	-154.988	0.060	0.004
-612.259	676.315	-0.076	-0.200
-611.244	-145.167	-0.476	0.044
-610.230	-90.698	-0.306	0.090
-609.215	-128.933	0.227	-0.033
-608.201	121.541	-0.101	-0.128
-607.186	401.000	0.131	-0.280
-606.171	2.492	0.214	-0.158
-605.157	-105.858	-0.377	-0.087
-604.142	110.042	-0.091	-0.111
-603.128	6.800	0.095	-0.072
-602.113	16.182	0.152	0.122
-601.098	800.000	0.044	-0.128
-600.084	77.382	-0.029	-0.032
-599.069	26.180	-0.086	-0.073
-598.055	-79.076	0.105	0.036
-597.040	-200.000	0.059	0.297
-596.025	338.402	0.077	0.152
-595.011	42.659	0.257	0.239
-593.996	-200.000	0.014	0.203
-592.982	703.237	0.079	-0.211
-591.967	101.401	0.102	0.121
-590.952	-61.795	-0.370	0.158
-589.938	800.000	0.047	0.147
-588.923	77.761	0.111	0.120
-587.909	-185.041	0.162	0.003
-586.894	-200.000	-0.030	0.160
-585.879	-143.527	-0.396	-0.038
-584.865	-33.147	0.132	0.075
-583.850	800.000	-0.086	0.271
-582.836	17.541	0.145	-0.118
-581.821	-200.000	0.053	-0.315
-580.806	65.941	-0.291	0.300
-579.792	-138.298	0.083	-0.009
-578.777	-200.000	-0.000	-0.208
-577.763	246.456	0.162	-0.278
-576.748	33.875	-0.079	0.070
-575.733	33.829	0.080	0.071
-574.719	-200.000	0.013	0.165
-573.704	-59.559	-0.446	0.195
-572.690	78.229	0.322	0.349
-571.675	36.993	-0.078	0.070
-570.661	-27.769	0.180	-0.106
-569.646	764.841	-0.123	0.340
-568.631	92.243	-0.190	-0.218
-567.617	502.661	0.101	-0.238
-566.602	7.359	0.347	-0.264
-565.588	237.673	0.027	-0.045
-564.573	800.000	0.096	-0.303
-563.558	124.251	0.097	-0.124
-562.544	94.967	-0.190	0.220
-561.529	-136.861	0.279	0.033
-560.515	133.699	0.136	-0.179
-559.500	-45.598	-0.210	0.106
-558.485	90.464	0.265	0.302
-557.471	-51.101	0.292	-0.139
-556.456	38.306	-0.187	-0.169
-555.442	85.624	0.256	-0.286
-554.427	-136.289	0.121	-0.014
-553.412	206.702	0.119	0.189
-552.398	29.084	-0.078	-0.067
-551.383	249.146	-0.245	-0.422
-550.369	-200.000	-0.014	-0.207
-549.354	795.672	0.016	0.044
-548.339	47.048	0.285	-0.269
-547.325	-200.000	-0.037	-0.228
-546.310	1.001	-0.275	-0.201
-545.296	158.951	0.066	-0.093
-544.281	10.212	-0.261	-0.201
-543.266	796.455	-0.043	0.121
-542.252	63.000	0.155	0.158
-541.237	37.101	-0.201	-0.181
-540.223	345.380	-0.081	0.162
-539.208	-190.362	0.153	0.002
-538.193	-200.000	0.072	-0.328
-537.179	42.670	-0.187	0.173
-536.164	501.703	-0.043	0.100
-535.150	251.342	-0.107	-0.185
-534.135	-86.827	0.246	0.076
-533.121	-159.447	0.022	0.001
-532.106	-81.155	-0.143	-0.048
-531.091	117.190	0.024	0.031
-530.077	233.480	-0.076	-0.127
-529.062	-17.215	-0.303	-0.194
-528.048	-91.219	0.149	-0.043
-527.033	467.270	0.154	-0.350
-526.018	307.894	-0.129	0.244
-525.004	-200.000	-0.162	-0.000
-523.989	800.000	0.060	0.225
-522.975	-115.178	0.270	-0.052
-521.960	-106.782	-0.259	-0.058
-520.945	670.620	-0.022	-0.057
-519.931	375.389	-0.039	0.081
-518.916	-123.615	-0.147	-0.024
-517.902	-26.267	0.187	0.111
-516.887	86.982	-0.198	0.222
-515.872	800.000	-0.076	-0.249
-514.858	-45.496	0.128	-0.065
-513.843	538.199	0.123	-0.296
-512.829	96.774	-0.175	-0.204
-511.814	-144.615	0.306	-0.029
-510.799	-56.051	-0.272	0.123
-509.785	-85.227	-0.150	-0.048
-508.770	-97.230	-0.063	-0.017
-507.756	-200.000	-0.047	-0.259
-506.741	142.793	-0.015	-0.020
-505.726	193.914	0.059	0.091
-504.712	-28.860	-0.128	0.074
-503.697	18.606	0.028	0.023
-502.683	561.508	-0.084	-0.206
-501.668	318.717	-0.128	-0.246
-500.653	224.151	0.123	-0.201
-499.639	-155.066	0.478	-0.032
-498.624	-111.221	0.320	0.066
-497.610	-109.329	0.248	0.053
-496.595	286.499	-0.064	-0.117
-495.581	7.712	0.112	-0.085
-494.566	489.675	-0.033	-0.077
-493.551	-147.406	0.126	-0.011
-492.537	221.487	0.016	-0.027
-491.522	437.883	0.086	0.189
-490.508	-200.000	-0.073	-0.385
-489.493	322.063	-0.034	-0.065
-488.478	-78.085	0.134	-0.047
-487.464	800.000	0.039	0.134
-486.449	-200.000	0.031	0.162
-485.435	800.000	-0.108	-0.478
-484.420	16.471	-0.167	0.134
-483.405	800.000	0.050	-0.155
-482.391	800.000	-0.032	-0.138
-481.376	-34.108	-0.123	-0.069
-480.362	481.412	-0.055	-0.128
-479.347	-24.910	-0.329	0.198
-478.332	-200.000	-0.037	-0.299
-477.318	99.372	-0.078	-0.092
-476.303	145.199	0.042	0.057
-475.289	-200.000	0.019	-0.201
-474.274	-200.000	0.011	0.145
-473.259	-200.000	-0.025	-0.483
-472.245	-87.412	0.209	-0.064
-471.230	-200.000	-0.016	-0.085
-470.216	370.134	-0.074	0.152
-469.201	131.673	-0.115	0.149
-468.186	800.000	-0.054	-0.218
-467.172	-25.584	0.097	0.058
-466.157	-51.534	0.097	-0.046
-465.143	-200.000	0.020	0.140
-464.128	-31.676	-0.229	-0.130
-463.113	-110.906	0.161	0.033
-462.099	-200.000	-0.021	-0.208
-461.084	-146.129	-0.170	0.015
-460.070	-200.000	-0.024	-0.129
-459.055	55.254	-0.101	0.099
-458.040	5.621	0.011	-0.008
-457.026	38.719	0.275	-0.248
-456.011	-200.000	-0.034	-0.163
-454.997	-200.000	0.012	-0.462
-453.982	-91.184	-0.235	-0.068
-452.968	-129.483	0.328	0.046
-451.953	759.250	-0.079	0.216
-450.938	99.516	0.106	0.124
-449.924	-110.647	0.046	0.010
-448.909	-53.073	-0.084	-0.039
-447.895	-200.000	0.007	0.081
-446.880	800.000	0.055	0.205
-445.865	533.669	-0.097	-0.232
-444.851	250.705	-0.087	-0.150
-443.836	-200.000	0.001	0.009
-442.822	242.838	-0.083	-0.141
-441.807	-113.210	-0.121	-0.024
-440.792	94.884	-0.122	-0.141
-439.778	85.389	0.246	0.273
-438.763	-200.000	0.051	0.250
-437.749	601.308	-0.030	0.076
-436.734	322.015	0.097	-0.187
-435.719	23.267	-0.080	0.066
-434.705	-14.214	-0.302	0.197
-433.690	-200.000	0.009	-0.051
-432.676	278.516	0.035	0.064
-431.661	-12.152	0.088	-0.058
-430.646	654.391	0.081	0.211
-429.632	405.622	-0.123	-0.262
-428.617	800.000	0.079	0.316
-427.603	33.120	0.160	0.140
-426.588	159.572	0.103	0.145
-425.573	-37.309	0.019	-0.010
-424.559	-200.000	0.010	-0.064
-423.544	-200.000	-0.030	0.258
-422.530	-200.000	0.057	-0.254
-421.515	-21.042	-0.041	-0.025
-420.500	136.435	0.197	0.260
-419.486	-153.970	-0.242	0.017
-418.471	127.854	-0.146	0.188
-417.457	479.280	0.117	-0.268
-416.442	800.000	0.063	0.250
-415.428	231.603	-0.076	0.126
-414.413	800.000	-0.081	-0.342
-413.398	72.126	0.191	-0.201
-412.384	322.432	-0.116	-0.223
-411.369	-60.424	-0.187	0.080
-410.355	-108.554	0.358	-0.078
-409.340	-81.528	-0.496	0.165
-408.325	36.255	-0.144	-0.128
-407.311	12.870	-0.136	0.106
-406.296	-43.051	-0.089	0.046
-405.282	-50.826	-0.351	-0.167
-404.267	-42.471	-0.033	0.017
-403.252	480.262	-0.105	-0.240
-402.238	329.651	-0.102	-0.197
-401.223	-200.000	-0.079	-0.507
-400.209	508.402	-0.096	0.224
-399.194	-12.177	-0.376	-0.249
-398.179	8.568	0.171	0.130
-397.165	336.102	-0.143	-0.281
-396.150	6.071	0.103	-0.077
-395.136	-19.113	0.111	0.070
-394.121	-148.928	-0.016	-0.001
-393.106	79.108	-0.216	-0.233
-392.092	-200.000	0.021	-0.249
-391.077	15.655	0.201	-0.159
-390.063	-200.000	-0.043	-0.203
-389.048	-200.000	0.006	0.059
-388.033	-200.000	0.091	0.561
-387.019	-122.978	0.287	0.047
-386.004	174.304	-0.202	-0.295
-384.990	-200.000	0.087	0.413
-383.975	800.000	0.074	0.237
-382.960	-14.116	-0.170	0.111
-381.946	-200.000	-0.055	0.262
-380.931	-200.000	-0.002	0.237
-379.917	-34.764	-0.080	0.044
-378.902	-13.273	0.208	-0.136
-377.888	-200.000	-0.027	-0.175
-376.873	1.663	0.238	0.173
-375.858	-149.468	-0.366	0.029
-374.844	90.790	0.217	0.245
-373.829	-200.000	0.011	0.167
-372.815	-71.552	-0.179	0.067
-371.800	57.456	-0.016	-0.016
-370.785	800.000	0.036	0.103
-369.771	630.910	-0.096	-0.246
-368.756	-35.922	0.200	0.109
-367.742	374.580	0.120	-0.247
-366.727	88.731	0.123	0.138
-365.712	65.968	-0.100	-0.102
-364.698	-63.406	0.142	0.059
-363.683	51.105	0.067	-0.064
-362.669	-131.104	0.029	0.004
-361.654	38.107	0.164	0.147
-360.639	76.904	-0.280	-0.300
-359.625	-183.945	0.360	0.006
-358.610	-121.680	0.300	0.050
-357.596	-200.000	-0.023	-0.164
-356.581	118.773	-0.057	0.071
-355.566	309.298	-0.154	0.290
-354.552	-82.808	0.206	0.067
-353.537	-78.600	-0.281	-0.097
-352.523	66.967	0.065	0.067
-351.508	565.784	-0.116	0.283
-350.493	69.259	-0.243	-0.252
-349.479	-14.931	-0.236	0.152
-348.464	302.030	-0.083	0.155
-347.450	86.092	-0.104	0.115
-346.435	-65.479	-0.413	-0.167
-345.420	-24.807	-0.180	-0.108
-344.406	310.593	0.059	0.111
-343.391	-133.504	0.108	0.014
-342.377	322.958	0.045	0.086
-341.362	-200.000	0.014	-0.152
-340.348	92.557	-0.009	-0.010
-339.333	-199.321	-0.305	-0.002
-338.318	33.233	-0.257	-0.224
-337.304	-200.000	0.015	-0.297
-336.289	-66.076	0.497	0.200
-335.275	325.066	-0.054	-0.104
-334.260	107.186	0.193	-0.232
-333.245	324.410	-0.056	0.108
-332.231	27.328	-0.036	0.030
-331.216	476.361	0.069	0.157
-330.202	-112.486	0.253	-0.051
-329.187	-200.000	0.018	0.152
-328.172	-167.214	-0.246	0.010
-327.158	-161.580	0.264	-0.014
-326.143	115.252	-0.132	0.162
-325.129	18.891	0.201	0.162
-324.114	-82.904	0.305	0.099
-323.099	395.718	0.068	-0.142
-322.085	-132.070	0.227	0.030
-321.070	5.603	-0.245	-0.182
-320.056	71.560	0.185	-0.194
-319.041	-103.408	0.428	-0.102
-318.026	278.837	-0.118	-0.211
-317.012	88.753	-0.185	0.207
-315.997	-106.294	0.122	0.028
-314.983	88.473	0.176	-0.197
-313.968	-26.721	0.224	0.132
-312.953	-96.685	0.206	-0.055
-311.939	-5.348	-0.245	-0.169
-310.924	-28.601	-0.303	-0.176
-309.910	318.746	0.059	0.112
-308.895	800.000	-0.138	-0.508
-307.880	800.000	0.063	-0.252
-306.866	800.000	0.080	0.259
-305.851	-16.916	-0.145	-0.092
-304.837	564.417	-0.081	0.199
-303.822	-24.999	-0.204	0.122
-302.807	224.976	0.140	0.227
-301.793	-200.000	-0.021	0.165
-300.778	-115.205	0.299	-0.057
-299.764	152.019	0.152	0.209
-298.749	16.825	0.376	-0.300
-297.735	161.820	0.249	0.351
-296.720	485.451	-0.098	-0.225
-295.705	-200.000	-0.016	0.106
-294.691	-200.000	-0.039	0.253
-293.676	-200.000	-0.032	0.158
-292.662	-200.000	-0.006	-0.033
-291.647	-200.000	0.010	0.062
-290.632	274.964	-0.105	0.187
-289.618	-104.256	0.336	-0.078
-288.603	-159.519	-0.305	-0.017
-287.589	-61.179	0.171	0.072
-286.574	253.898	0.060	0.103
-285.559	-200.000	0.027	-0.398
-284.545	-200.000	-0.009	-0.067
-283.530	-200.000	-0.013	0.066
-282.516	-30.812	-0.379	0.215
-281.501	-200.000	0.001	-0.031
-280.486	-57.330	0.156	-0.069
-279.472	-33.850	0.295	0.163
-278.457	501.588	0.062	0.144
-277.443	-200.000	0.040	0.237
-276.428	-200.000	0.027	0.257
-275.413	800.000	0.068	0.251
-274.399	249.356	-0.099	-0.168
-273.384	800.000	0.027	-0.091
-272.370	-92.838	-0.050	0.014
-271.355	-31.176	0.155	0.088
-270.340	245.479	0.024	0.040
-269.326	-83.511	-0.152	0.049
-268.311	800.000	-0.121	0.366
-267.297	-70.896	-0.225	0.085
-266.282	316.500	0.102	-0.193
-265.267	-200.000	-0.054	0.316
-264.253	-159.052	-0.504	0.029
-263.238	34.337	-0.080	-0.070
-262.224	258.667	-0.192	0.332
-261.209	294.618	-0.155	0.284
-260.195	-67.816	-0.268	-0.105
-259.180	76.884	-0.301	0.321
-258.165	-28.251	-0.226	0.131
-257.151	800.000	-0.100	0.333
-256.136	8.264	0.075	-0.056
-255.122	-108.361	-0.482	0.104
-254.107	-137.080	0.289	0.033
-253.092	-200.000	-0.031	0.202
-252.078	124.463	-0.143	0.180
-251.063	-200.000	0.028	0.163
-250.049	-135.238	0.269	-0.032
-249.034	400.514	-0.082	0.173
-248.019	-73.911	0.124	0.045
-247.005	-125.140	-0.264	0.041
-245.990	181.702	0.150	-0.222
-244.976	574.172	0.059	0.144
-243.961	95.861	0.200	-0.229
-242.946	-200.000	-0.040	-0.267
-241.932	-62.005	0.302	-0.127
-240.917	30.738	-0.171	0.147
-239.903	129.535	-0.121	-0.155
-238.888	-200.000	-0.089	0.445
-237.873	129.542	-0.130	0.166
-236.859	192.517	-0.104	0.158
-235.844	87.817	0.189	-0.210
-234.830	3.132	0.099	-0.073
-233.815	800.000	-0.095	-0.364
-232.800	-117.990	-0.137	0.025
-231.786	-200.000	-0.001	0.082
-230.771	-200.000	-0.003	0.196
-229.757	-15.646	-0.113	-0.072
-228.742	-166.661	-0.048	0.002
-227.727	-89.688	-0.319	-0.094
-226.713	-124.902	0.253	-0.039
-225.698	-112.460	-0.170	-0.034
-224.684	800.000	-0.058	0.244
-223.669	477.106	-0.092	0.209
-222.655	-200.000	0.050	0.226
-221.640	422.458	0.090	0.194
-220.625	-50.621	-0.110	0.052
-219.611	120.535	0.281	-0.350
-218.596	-120.554	0.204	0.035
-217.582	-178.848	0.196	0.004
-216.567	800.000	-0.111	-0.350
-215.552	-200.000	0.002	0.132
-214.538	-13.302	0.177	0.115
-213.523	-58.574	0.307	0.134
-212.509	79.740	-0.173	0.186
-211.494	48.001	0.264	0.248
-210.479	74.077	0.131	0.137
-209.465	247.857	0.149	0.252
-208.450	121.675	0.106	0.133
-207.436	107.127	-0.238	0.283
-206.421	-10.929	-0.185	-0.123
-205.406	393.913	-0.142	0.296
-204.392	800.000	0.073	-0.275
-203.377	-80.231	0.313	0.105
-202.363	278.084	-0.079	-0.141
-201.348	-61.522	-0.225	-0.095
-200.333	-103.124	0.091	-0.021
-199.319	-98.782	-0.235	0.060
-198.304	-39.481	-0.123	0.065
-197.290	800.000	-0.060	0.168
-196.275	-65.769	0.281	-0.113
-195.260	95.000	-0.115	0.131
-194.246	800.000	-0.107	0.336
-193.231	-41.911	0.087	0.045
-192.217	-25.940	0.217	-0.128
-191.202	-36.304	-0.194	0.105
-190.187	-152.257	0.319	0.023
-189.173	-10.746	-0.365	-0.242
-188.158	-117.187	0.151	0.028
-187.144	-200.000	0.012	0.211
-186.129	46.820	0.266	-0.247
-185.114	-98.772	0.051	0.013
-184.100	-135.802	-0.078	0.009
-183.085	354.036	-0.092	0.184
-182.071	236.054	-0.070	0.116
-181.056	-39.291	-0.274	0.144
-180.042	97.790	0.202	-0.233
-179.027	160.006	-0.160	0.224
-178.012	64.504	-0.133	0.134
-176.998	-146.725	0.256	0.022
-175.983	800.000	-0.019	0.075
-174.969	800.000	0.052	0.179
-173.954	-146.254	0.324	0.028
-172.939	88.803	0.094	-0.104
-171.925	-73.271	0.181	0.066
-170.910	800.000	0.074	0.272
-169.896	-61.602	-0.137	-0.057
-168.881	-122.411	-0.055	0.009
-167.866	304.046	0.132	-0.245
-166.852	-55.250	0.187	0.084
-165.837	-200.000	-0.012	-0.119
-164.823	-200.000	0.003	0.018
-163.808	-200.000	0.020	0.140
-162.793	657.047	0.143	0.367
-161.779	800.000	0.059	0.185
-160.764	63.435	0.180	-0.180
-159.750	-78.063	0.231	-0.080
-158.735	379.511	-0.163	0.334
-157.720	-200.000	-0.005	0.153
-156.706	800.000	0.026	-0.115
-155.691	-116.306	0.170	0.032
-154.677	91.774	-0.219	0.247
-153.662	-96.793	0.202	0.053
-152.647	-136.473	0.170	-0.020
-151.633	137.502	-0.169	-0.222
-150.618	-200.000	-0.002	0.167
-149.604	-200.000	0.007	-0.210
-148.589	76.337	-0.039	-0.041
-147.574	800.000	0.152	0.434
-146.560	800.000	0.068	0.230
-145.545	497.770	0.088	0.203
-144.531	800.000	0.067	0.216
-143.516	-9.984	-0.037	0.025
-142.502	-116.550	-0.228	0.042
-141.487	800.000	-0.081	-0.343
-140.472	87.004	-0.319	-0.353
-139.458	-75.629	0.216	-0.077
-138.443	-95.771	0.526	0.140
-137.429	800.000	0.027	0.116
-136.414	123.332	0.088	0.111
-135.399	-200.000	-0.002	0.132
-134.385	-45.536	0.450	0.223
-133.370	625.319	-0.134	-0.339
-132.356	762.149	-0.096	-0.260
-131.341	-42.718	-0.365	-0.186
-130.326	209.504	0.129	-0.203
-129.312	39.087	0.133	0.119
-128.297	21.430	-0.079	-0.064
-127.283	-119.047	0.231	-0.040
-126.268	109.848	-0.095	-0.113
-125.253	800.000	0.112	0.315
-124.239	19.679	-0.247	-0.198
-123.224	57.833	0.206	0.201
-122.210	-93.153	0.336	0.093
-121.195	83.374	0.222	0.241
-120.180	13.513	0.191	-0.148
-119.166	-69.587	0.319	0.122
