DTS Sentinel unit serial number:	SN413079Multiplexer serial number:	ORYXHardware model number:	OX4-SRSoftware version number:	ORYX F/W v4.00 Oryx Data Collector v3.7.2.0data status	okinstallation	princeton_trtdifferential loss correction	single-endedforward channel	channel 1reverse channel	N/Adate	2019/09/18time	02:02:35forward acquisition time	60.00reverse acquisition time	0.00gamma	496.2192k internal	0.2341k external	0.2341temperature offset calibration	0.9975default loss term (dB/km)	0.3790temperature slope calibration	1.0000multiplexer offset coefficient	1.0000multiplexer slope coefficient	1.0000fibre end	0.00T internal ref (°C)	22.89T ext. ref 1 (°C)	0.16T ext. ref 2 (°C)	16.72length (m)	temperature (°C)	Stokes	anti-Stokes-747.200	-66.595	0.207	0.082
-746.185	-129.146	-0.158	-0.022
-745.171	-68.956	0.271	-0.105
-744.156	800.000	0.048	0.142
-743.142	142.111	0.210	-0.279
-742.127	800.000	0.082	-0.297
-741.112	101.069	-0.086	-0.100
-740.098	-200.000	0.006	0.510
-739.083	193.283	0.075	-0.114
-738.069	-74.261	-0.268	0.097
-737.054	112.131	0.121	-0.146
-736.039	44.236	-0.159	-0.146
-735.025	-200.000	-0.020	-0.139
-734.010	-152.957	-0.260	0.018
-732.996	-181.035	-0.214	0.004
-731.981	204.929	0.060	-0.093
-730.966	-11.360	-0.213	0.140
-729.952	-116.856	-0.151	-0.028
-728.937	49.790	0.147	-0.139
-727.923	677.986	-0.050	0.129
-726.908	-18.424	0.098	0.061
-725.894	286.305	0.055	-0.100
-724.879	-184.802	-0.186	-0.003
-723.864	-200.000	-0.028	0.142
-722.850	-26.917	0.160	0.094
-721.835	800.000	-0.121	-0.367
-720.821	221.517	0.205	-0.329
-719.806	-49.804	-0.120	-0.057
-718.791	-65.840	0.191	-0.077
-717.777	-78.913	0.152	-0.052
-716.762	-200.000	0.016	0.081
-715.748	-200.000	0.020	0.612
-714.733	15.871	0.177	-0.139
-713.718	277.967	0.155	-0.276
-712.704	-200.000	-0.021	-0.105
-711.689	543.248	0.157	-0.374
-710.675	198.953	-0.090	-0.138
-709.660	-133.422	-0.102	0.013
-708.645	21.006	0.294	-0.239
-707.631	-200.000	-0.003	0.132
-706.616	131.624	0.124	0.159
-705.602	-140.217	-0.183	0.019
-704.587	-2.689	0.139	-0.097
-703.572	-200.000	-0.021	0.148
-702.558	125.070	-0.079	-0.099
-701.543	25.700	0.148	-0.124
-700.529	-200.000	0.004	-0.027
-699.514	-178.792	0.293	0.007
-698.499	-81.253	-0.319	0.105
-697.485	-200.000	-0.044	0.000
-696.470	-122.889	-0.327	-0.053
-695.456	800.000	0.048	0.187
-694.441	800.000	0.063	-0.191
-693.426	-200.000	0.023	0.252
-692.412	215.204	-0.031	-0.049
-691.397	227.735	0.044	-0.072
-690.383	218.045	0.202	-0.322
-689.368	557.640	0.105	-0.254
-688.354	-181.374	0.295	0.006
-687.339	-78.287	-0.265	-0.091
-686.324	124.214	-0.147	-0.185
-685.310	-133.818	-0.039	-0.005
-684.295	800.000	-0.038	0.153
-683.281	-74.173	-0.055	-0.020
-682.266	800.000	-0.115	0.411
-681.251	-87.540	0.198	-0.060
-680.237	-42.454	-0.152	0.078
-679.222	800.000	-0.071	-0.203
-678.208	-52.035	-0.286	-0.133
-677.193	-169.920	0.295	0.011
-676.178	800.000	-0.087	0.247
-675.164	-2.299	-0.375	0.263
-674.149	59.466	-0.261	0.257
-673.135	-12.434	0.350	0.229
-672.120	195.973	0.034	-0.052
-671.105	-200.000	0.022	-0.176
-670.091	-120.870	-0.194	0.033
-669.076	-111.754	0.331	0.067
-668.062	-194.123	-0.145	0.001
-667.047	800.000	0.085	0.340
-666.032	469.555	-0.076	0.171
-665.018	-175.207	-0.135	-0.004
-664.003	-77.930	-0.508	-0.175
-662.989	-138.184	-0.168	-0.019
-661.974	187.927	0.187	-0.279
-660.959	-27.043	0.305	-0.178
-659.945	-23.727	-0.309	-0.185
-658.930	-43.087	-0.264	-0.134
-657.916	-157.878	0.214	0.013
-656.901	-135.207	0.105	0.013
-655.886	800.000	-0.177	-0.528
-654.872	-185.871	0.100	0.001
-653.857	162.836	-0.358	-0.501
-652.843	-121.159	-0.224	-0.037
-651.828	-106.054	-0.352	0.079
-650.814	800.000	0.068	0.251
-649.799	-184.694	-0.241	0.004
-648.784	-200.000	-0.001	-0.387
-647.770	800.000	-0.140	0.396
-646.755	24.694	-0.152	-0.126
-645.741	58.990	0.084	0.082
-644.726	-177.707	-0.080	0.002
-643.711	-11.045	0.121	0.079
-642.697	-200.000	-0.024	-0.177
-641.682	65.806	0.099	-0.100
-640.668	-169.908	-0.104	0.004
-639.653	299.662	-0.259	0.477
-638.638	-200.000	0.050	-0.317
-637.624	298.518	0.119	-0.218
-636.609	-147.809	-0.039	0.003
-635.595	800.000	0.025	-0.070
-634.580	543.284	-0.079	0.188
-633.565	-161.528	0.206	0.011
-632.551	-134.242	0.290	0.036
-631.536	-64.110	-0.071	-0.029
-630.522	39.325	-0.232	-0.207
-629.507	22.909	-0.323	0.264
-628.492	800.000	-0.025	-0.073
-627.478	208.020	0.078	0.121
-626.463	-200.000	0.057	0.360
-625.449	-200.000	-0.014	-0.091
-624.434	800.000	0.038	0.125
-623.419	-151.338	-0.332	-0.025
-622.405	-8.743	0.413	-0.276
-621.390	-145.432	0.194	0.017
-620.376	-200.000	-0.007	-0.178
-619.361	-56.698	-0.219	-0.097
-618.346	320.162	0.025	-0.048
-617.332	0.252	-0.099	-0.071
-616.317	-81.435	-0.134	0.044
-615.303	488.911	0.119	-0.272
-614.288	-57.494	0.240	0.105
-613.273	-34.423	0.094	-0.051
-612.259	-181.615	0.139	-0.003
-611.244	800.000	-0.139	-0.415
-610.230	-106.351	-0.104	0.023
-609.215	93.134	-0.103	0.116
-608.201	315.570	-0.085	0.161
-607.186	-200.000	0.043	-0.247
-606.171	-132.982	0.233	-0.030
-605.157	800.000	-0.027	0.078
-604.142	-73.545	-0.184	0.067
-603.128	-200.000	0.007	-0.179
-602.113	294.320	0.106	-0.193
-601.098	-8.637	0.320	0.214
-600.084	136.150	-0.242	0.314
-599.069	-200.000	-0.053	-0.443
-598.055	338.173	0.106	-0.205
-597.040	542.181	-0.108	-0.257
-596.025	184.588	0.028	-0.042
-595.011	71.627	0.189	0.196
-593.996	367.902	0.097	-0.195
-592.982	23.192	-0.113	0.093
-591.967	30.311	-0.260	-0.222
-590.952	-200.000	-0.005	0.127
-589.938	96.174	0.159	-0.181
-588.923	316.530	-0.080	-0.151
-587.909	47.876	-0.176	0.164
-586.894	-21.660	0.133	0.081
-585.879	-6.060	-0.119	-0.081
-584.865	-27.996	0.219	-0.126
-583.850	139.096	-0.185	-0.242
-582.836	800.000	-0.029	-0.123
-581.821	800.000	0.071	-0.212
-580.806	-67.058	-0.111	-0.044
-579.792	351.210	0.135	-0.265
-578.777	-48.845	0.103	-0.049
-577.763	-76.923	-0.212	-0.074
-576.748	61.364	0.119	0.118
-575.733	800.000	0.043	-0.151
-574.719	-103.717	-0.235	-0.055
-573.704	-115.763	-0.312	0.058
-572.690	50.875	-0.157	-0.148
-571.675	-200.000	0.014	0.172
-570.661	-200.000	0.002	0.042
-569.646	174.126	-0.055	-0.080
-568.631	165.069	-0.104	-0.146
-567.617	151.925	-0.160	0.218
-566.602	178.084	0.117	0.170
-565.588	439.222	0.093	0.203
-564.573	-76.027	-0.367	-0.129
-563.558	-111.081	0.256	-0.052
-562.544	48.052	-0.053	0.049
-561.529	49.903	-0.098	-0.092
-560.515	-200.000	-0.011	0.101
-559.500	574.655	0.090	-0.220
-558.485	-84.327	0.256	-0.081
-557.471	-87.738	-0.300	0.090
-556.456	-78.981	-0.135	0.046
-555.442	78.847	0.116	0.123
-554.427	118.250	0.152	-0.187
-553.412	-40.210	0.230	-0.119
-552.398	-77.702	0.073	-0.025
-551.383	-83.144	0.158	-0.051
-550.369	325.371	-0.059	-0.112
-549.354	462.372	0.116	0.257
-548.339	-18.150	0.182	-0.113
-547.325	800.000	-0.058	-0.175
-546.310	-27.464	0.290	0.168
-545.296	482.645	0.060	-0.135
-544.281	-121.651	-0.126	-0.021
-543.266	-148.489	-0.077	-0.006
-542.252	-120.358	-0.446	0.075
-541.237	800.000	-0.067	0.283
-540.223	-132.228	0.029	0.004
-539.208	22.239	-0.142	-0.115
-538.193	-95.619	0.146	-0.039
-537.179	-108.977	-0.214	-0.045
-536.164	-200.000	-0.023	-0.153
-535.150	-200.000	0.043	-0.417
-534.135	34.020	0.220	-0.190
-533.121	338.046	0.057	0.110
-532.106	155.075	0.130	-0.178
-531.091	-119.958	0.125	-0.021
-530.077	-29.060	0.259	-0.148
-529.062	433.066	-0.099	0.213
-528.048	-87.052	-0.108	-0.033
-527.033	-111.309	0.176	-0.036
-526.018	-86.112	0.499	0.153
-525.004	290.217	0.212	0.382
-523.989	377.240	-0.188	0.381
-522.975	-145.502	-0.143	0.013
-521.960	-200.000	0.001	-0.407
-520.945	-63.472	-0.140	-0.057
-519.931	166.784	-0.199	-0.281
-518.916	800.000	-0.068	0.278
-517.902	280.419	0.161	-0.287
-516.887	2.749	-0.389	-0.280
-515.872	626.872	0.125	0.312
-514.858	8.680	0.019	-0.014
-513.843	-141.490	-0.277	0.028
-512.829	-111.633	-0.235	0.047
-511.814	-200.000	-0.005	-0.034
-510.799	-133.323	-0.215	-0.027
-509.785	-139.360	-0.132	-0.014
-508.770	-24.379	0.153	-0.090
-507.756	-191.329	-0.279	-0.003
-506.741	-200.000	-0.009	-0.082
-505.726	800.000	-0.015	0.054
-504.712	5.332	0.044	0.032
-503.697	-23.511	-0.125	0.075
-502.683	800.000	-0.109	-0.312
-501.668	-138.253	0.042	0.005
-500.653	-200.000	-0.003	-0.149
-499.639	-74.926	-0.231	0.082
-498.624	55.418	0.165	0.158
-497.610	546.702	0.125	0.296
-496.595	130.545	-0.045	0.057
-495.581	-200.000	-0.025	0.263
-494.566	447.415	0.057	-0.124
-493.551	301.172	0.028	-0.051
-492.537	-25.498	-0.188	0.110
-491.522	135.046	0.112	-0.145
-490.508	-200.000	-0.065	-0.437
-489.493	800.000	0.024	0.089
-488.478	185.022	0.032	0.047
-487.464	92.232	-0.166	0.186
-486.449	-200.000	-0.032	-0.223
-485.435	-150.186	-0.315	-0.024
-484.420	210.200	0.167	0.260
-483.405	-200.000	0.039	0.233
-482.391	-29.059	-0.201	0.115
-481.376	-47.424	0.407	0.196
-480.362	-59.567	0.333	0.142
-479.347	-46.065	0.081	-0.039
-478.332	44.275	0.200	-0.182
-477.318	-125.477	-0.211	-0.032
-476.303	800.000	0.045	-0.145
-475.289	161.829	0.021	-0.029
-474.274	-200.000	0.027	-0.253
-473.259	-200.000	0.044	-0.193
-472.245	446.964	-0.085	0.186
-471.230	-200.000	-0.050	-0.250
-470.216	85.563	-0.114	-0.124
-469.201	-113.597	-0.205	-0.040
-468.186	-19.270	-0.140	-0.086
-467.172	97.627	-0.101	-0.115
-466.157	-200.000	-0.041	-0.411
-465.143	-34.817	0.196	-0.106
-464.128	800.000	-0.114	-0.341
-463.113	670.827	-0.023	-0.058
-462.099	-35.912	0.121	-0.065
-461.084	69.801	-0.197	0.201
-460.070	278.019	-0.013	0.023
-459.055	-38.942	0.121	0.063
-458.040	-100.021	-0.467	0.115
-457.026	-200.000	0.004	0.081
-456.011	54.072	-0.141	-0.134
-454.997	65.906	-0.095	0.095
-453.982	-55.534	-0.185	0.082
-452.968	222.935	-0.145	0.232
-451.953	-72.448	-0.145	0.053
-450.938	-200.000	0.002	0.206
-449.924	247.054	-0.204	0.340
-448.909	800.000	-0.111	-0.435
-447.895	7.452	-0.182	-0.135
-446.880	-200.000	0.032	-0.725
-445.865	-113.842	-0.184	-0.035
-444.851	800.000	-0.049	-0.172
-443.836	-200.000	-0.027	-0.171
-442.822	197.608	-0.143	-0.216
-441.807	-135.214	0.099	-0.012
-440.792	-200.000	0.004	-0.328
-439.778	233.719	-0.106	0.174
-438.763	-198.966	-0.110	-0.001
-437.749	276.907	0.044	-0.078
-436.734	45.048	-0.205	-0.187
-435.719	-37.719	0.260	-0.137
-434.705	651.017	-0.026	-0.066
-433.690	-200.000	0.009	-0.209
-432.676	-105.062	-0.205	-0.046
-431.661	800.000	-0.050	0.151
-430.646	-200.000	-0.010	0.107
-429.632	97.600	-0.033	0.038
-428.617	298.387	0.069	0.126
-427.603	91.819	-0.095	0.106
-426.588	-125.871	0.492	-0.073
-425.573	27.933	-0.106	-0.089
-424.559	-91.670	0.158	0.045
-423.544	-12.977	0.204	0.131
-422.530	800.000	0.021	0.074
-421.515	157.780	0.073	0.100
-420.500	800.000	0.050	0.169
-419.486	17.066	0.190	-0.149
-418.471	51.762	-0.023	-0.021
-417.457	-200.000	0.019	0.333
-416.442	800.000	-0.028	-0.108
-415.428	21.245	0.187	-0.150
-414.413	-85.223	0.048	-0.015
-413.398	-5.033	0.354	0.241
-412.384	-84.941	-0.227	0.070
-411.369	-80.341	-0.115	0.038
-410.355	316.302	-0.035	0.065
-409.340	-44.697	-0.163	0.081
-408.325	148.646	0.142	-0.189
-407.311	-116.797	-0.139	-0.025
-406.296	-200.000	-0.090	-0.401
-405.282	-0.478	0.336	-0.236
-404.267	788.137	0.036	0.097
-403.252	-52.187	0.070	0.032
-402.238	-200.000	0.001	-0.201
-401.223	-99.743	0.192	-0.048
-400.209	-102.183	-0.070	-0.017
-399.194	-200.000	0.006	0.119
-398.179	-55.163	0.123	0.055
-397.165	383.758	-0.085	0.172
-396.150	252.116	0.065	-0.110
-395.136	-200.000	0.037	0.170
-394.121	-96.232	-0.385	0.101
-393.106	-110.619	-0.235	-0.048
-392.092	-177.597	0.235	-0.006
-391.077	-200.000	0.015	-0.125
-390.063	-58.489	0.372	0.160
-389.048	622.644	-0.142	0.353
-388.033	-200.000	-0.033	0.456
-387.019	-200.000	0.028	-0.213
-386.004	403.325	-0.111	-0.230
-384.990	-42.559	-0.358	-0.180
-383.975	254.998	0.107	0.181
-382.960	605.549	0.115	-0.283
-381.946	-144.362	-0.142	-0.013
-380.931	-170.084	-0.186	0.007
-379.917	92.111	0.137	0.152
-378.902	130.485	-0.140	-0.177
-377.888	-68.645	0.269	-0.103
-376.873	-24.997	0.196	-0.115
-375.858	-33.776	0.274	-0.149
-374.844	1.179	-0.226	-0.160
-373.829	-30.408	0.078	0.044
-372.815	123.338	0.099	0.122
-371.800	235.662	-0.138	0.226
-370.785	130.835	0.161	-0.205
-369.771	-200.000	0.056	0.310
-368.756	-200.000	0.075	-0.375
-367.742	163.292	0.146	0.203
-366.727	-52.175	-0.192	0.088
-365.712	-200.000	-0.036	0.244
-364.698	-153.593	0.344	-0.023
-363.683	24.481	-0.164	0.134
-362.669	800.000	-0.050	0.145
-361.654	157.689	0.038	0.052
-360.639	39.291	0.168	0.149
-359.625	-96.789	0.070	0.018
-358.610	169.723	0.086	0.121
-357.596	-89.279	0.181	0.053
-356.581	87.991	-0.072	0.078
-355.566	63.699	-0.206	0.205
-354.552	-23.995	-0.341	0.201
-353.537	299.922	-0.146	-0.266
-352.523	-72.032	-0.175	0.064
-351.508	-200.000	-0.045	0.272
-350.493	-200.000	0.121	0.534
-349.479	-200.000	0.001	-0.053
-348.464	-157.798	-0.094	0.005
-347.450	-200.000	-0.007	0.107
-346.435	205.055	0.217	0.332
-345.420	-45.228	0.379	0.186
-344.406	5.858	-0.119	0.087
-343.391	-123.613	0.336	0.053
-342.377	513.301	-0.064	0.147
-341.362	-21.466	0.055	-0.033
-340.348	-51.059	0.121	0.056
-339.333	-65.176	-0.062	-0.025
-338.318	-41.567	0.221	-0.112
-337.304	542.519	-0.150	0.352
-336.289	-97.334	-0.448	-0.115
-335.275	-200.000	0.025	-0.227
-334.260	-94.853	0.441	0.118
-333.245	176.846	0.148	0.213
-332.231	-194.786	-0.406	0.003
-331.216	-200.000	-0.077	0.387
-330.202	-142.757	0.294	-0.028
-329.187	-104.577	-0.277	0.063
-328.172	554.351	0.126	-0.298
-327.158	520.609	-0.033	-0.077
-326.143	-151.342	0.327	0.024
-325.129	139.258	0.044	-0.058
-324.114	-23.405	-0.086	-0.051
-323.099	-138.307	-0.184	-0.020
-322.085	-88.860	0.504	0.147
-321.070	-114.913	0.388	0.073
-320.056	-200.000	0.017	0.075
-319.041	-143.511	0.359	-0.034
-318.026	-21.008	0.478	0.288
-317.012	20.105	-0.173	0.137
-315.997	-121.293	0.264	0.043
-314.983	24.162	-0.214	-0.175
-313.968	800.000	-0.067	0.200
-312.953	800.000	-0.084	-0.330
-311.939	-71.060	-0.204	0.076
-310.924	41.411	0.204	-0.182
-309.910	-37.890	-0.139	-0.073
-308.895	180.639	0.102	-0.148
-307.880	-103.120	-0.143	0.033
-306.866	-61.097	-0.293	0.122
-305.851	-81.288	-0.212	0.069
-304.837	114.226	0.127	-0.152
-303.822	-71.926	-0.498	0.183
-302.807	-177.209	-0.036	-0.001
-301.793	-139.902	-0.538	0.056
-300.778	-103.318	0.183	0.043
-299.764	-79.039	0.042	0.014
-298.749	20.961	0.140	0.112
-297.735	-168.843	-0.216	-0.008
-296.720	177.784	0.230	0.330
-295.705	358.040	0.054	0.106
-294.691	24.689	0.190	-0.155
-293.676	-200.000	-0.024	0.225
-292.662	800.000	-0.018	0.079
-291.647	429.993	-0.078	0.166
-290.632	-200.000	0.019	-0.148
-289.618	-14.943	0.130	0.082
-288.603	-200.000	0.025	-0.124
-287.589	100.575	-0.199	-0.228
-286.574	-103.681	-0.162	-0.037
-285.559	87.001	0.053	0.058
-284.545	-200.000	0.003	0.088
-283.530	-200.000	0.035	-0.230
-282.516	-200.000	0.028	0.142
-281.501	591.272	0.096	-0.233
-280.486	346.358	-0.074	0.143
-279.472	-59.972	-0.055	-0.023
-278.457	-200.000	0.027	0.160
-277.443	-200.000	0.005	-0.023
-276.428	-200.000	0.046	0.352
-275.413	397.457	-0.210	0.433
-274.399	51.243	-0.121	-0.113
-273.384	-27.146	-0.188	0.108
-272.370	61.646	0.166	-0.163
-271.355	-200.000	-0.016	0.142
-270.340	-82.905	0.342	0.109
-269.326	-49.364	-0.103	-0.048
-268.311	800.000	0.134	0.422
-267.297	-200.000	0.010	0.061
-266.282	-55.819	-0.297	-0.130
-265.267	-88.134	-0.211	-0.062
-264.253	-93.731	0.094	0.026
-263.238	-21.214	0.162	0.097
-262.224	483.383	0.112	0.250
-261.209	-134.929	0.281	0.033
-260.195	-64.623	-0.285	0.114
-259.180	447.372	-0.080	0.173
-258.165	-200.000	0.017	0.111
-257.151	-200.000	0.167	-0.001
-256.136	-82.149	-0.132	-0.042
-255.122	-120.781	0.087	-0.014
-254.107	333.275	-0.024	-0.045
-253.092	-75.781	0.118	-0.041
-252.078	21.444	0.119	0.095
-251.063	-200.000	0.053	0.319
-250.049	58.888	-0.075	0.072
-249.034	-145.038	0.451	-0.040
-248.019	-200.000	0.008	0.124
-247.005	333.831	-0.093	0.178
-245.990	139.809	0.069	0.090
-244.976	800.000	-0.104	0.370
-243.961	800.000	0.020	-0.071
-242.946	-200.000	0.010	0.074
-241.932	-91.514	0.284	-0.080
-240.917	236.652	0.110	0.179
-239.903	-13.156	-0.160	-0.102
-238.888	143.836	-0.122	0.159
-237.873	-172.455	0.262	0.008
-236.859	-102.005	-0.231	0.055
-235.844	-78.367	-0.178	0.060
-234.830	800.000	0.065	-0.207
-233.815	11.599	-0.210	0.158
-232.800	-159.395	-0.306	0.017
-231.786	357.582	-0.174	-0.341
-230.771	414.906	-0.074	-0.155
-229.757	-70.856	0.065	-0.024
-228.742	249.521	0.246	0.409
-227.727	147.185	0.088	0.116
-226.713	459.217	0.079	-0.173
-225.698	446.284	-0.074	-0.160
-224.684	201.272	0.129	0.196
-223.669	29.132	-0.144	-0.120
-222.655	800.000	0.030	0.099
-221.640	-76.539	0.364	-0.126
-220.625	110.646	-0.134	-0.159
-219.611	-57.621	0.148	-0.064
-218.596	-200.000	0.002	-0.213
-217.582	800.000	0.014	0.042
-216.567	-72.628	0.344	-0.124
-215.552	-66.379	0.133	-0.052
-214.538	-200.000	0.004	-0.171
-213.523	-17.842	-0.128	0.079
-212.509	-14.267	0.130	0.082
-211.494	-43.332	0.066	-0.033
-210.479	800.000	0.060	-0.183
-209.465	-3.179	-0.325	0.222
-208.450	500.310	-0.052	-0.118
-207.436	209.698	-0.068	-0.104
-206.421	52.020	-0.046	-0.043
-205.406	2.787	0.184	0.131
-204.392	-194.271	-0.223	0.002
-203.377	22.978	-0.199	0.160
-202.363	-45.983	0.280	-0.135
-201.348	-42.082	0.317	-0.159
-200.333	-51.451	0.053	0.024
-199.319	-7.486	-0.127	-0.085
-198.304	-134.750	0.217	0.026
-197.290	-200.000	-0.035	-0.200
-196.275	-98.406	-0.138	0.035
-195.260	34.405	-0.398	-0.341
-194.246	-200.000	-0.022	-0.265
-193.231	21.082	-0.206	-0.164
-192.217	-95.568	0.380	-0.100
-191.202	800.000	-0.137	-0.412
-190.187	44.678	-0.269	-0.242
-189.173	317.500	0.057	0.105
-188.158	-100.850	0.507	0.122
-187.144	-200.000	0.005	0.112
-186.129	-200.000	-0.142	0.000
-185.114	437.690	-0.077	-0.164
-184.100	-200.000	0.044	0.256
-183.085	199.621	-0.134	0.201
-182.071	800.000	0.086	0.278
-181.056	61.815	0.090	0.087
-180.042	-54.772	0.229	0.102
-179.027	-74.317	-0.012	-0.004
-178.012	474.913	0.030	0.066
-176.998	247.692	0.117	0.194
-175.983	-195.936	-0.107	-0.001
-174.969	800.000	-0.057	0.187
-173.954	4.992	0.122	0.088
-172.939	-200.000	0.030	0.155
-171.925	-95.504	-0.163	0.043
-170.910	-96.050	0.219	0.057
-169.896	-147.374	0.116	-0.010
-168.881	233.159	-0.034	-0.054
-167.866	9.758	0.190	-0.141
-166.852	259.433	-0.147	-0.248
-165.837	-143.342	0.347	-0.033
-164.823	-200.000	-0.001	0.142
-163.808	81.320	0.165	-0.175
-162.793	-74.408	-0.297	0.105
-161.779	-200.000	-0.010	0.071
-160.764	702.518	-0.045	-0.117
-159.750	265.410	-0.026	0.045
-158.735	296.667	-0.073	-0.131
-157.720	800.000	0.047	0.185
-156.706	-131.319	0.299	0.039
-155.691	-4.160	-0.187	0.127
-154.677	-56.064	-0.096	0.042
-153.662	59.015	0.092	-0.089
-152.647	135.255	0.080	-0.102
-151.633	-68.676	0.071	-0.027
-150.618	-199.474	-0.204	-0.001
-149.604	-52.626	0.352	-0.159
-148.589	52.441	-0.206	0.193
-147.574	482.061	0.199	-0.442
-146.560	-62.041	0.341	-0.139
-145.545	33.964	0.253	-0.215
-144.531	-200.000	0.050	0.267
-143.516	-200.000	0.011	0.051
-142.502	5.148	-0.067	0.048
-141.487	800.000	0.041	0.146
-140.472	91.408	-0.264	-0.290
-139.458	-200.000	-0.002	-0.286
-138.443	114.585	0.118	-0.141
-137.429	-136.700	0.588	0.066
-136.414	800.000	-0.020	-0.063
-135.399	-126.698	0.255	-0.037
-134.385	-91.042	0.117	-0.033
-133.370	30.796	-0.181	0.152
-132.356	-177.284	0.043	0.001
-131.341	108.478	0.053	0.062
-130.326	48.992	-0.042	-0.038
-129.312	102.043	0.089	-0.102
-128.297	-200.000	-0.010	0.130
-127.283	284.746	0.109	-0.191
-126.268	-62.702	0.305	-0.124
-125.253	-184.229	0.073	0.001
-124.239	339.424	-0.073	0.139
-123.224	322.605	-0.139	-0.259
-122.210	-86.950	-0.130	-0.039
