DTS Sentinel unit serial number:	SN413079Multiplexer serial number:	ORYXHardware model number:	OX4-SRSoftware version number:	ORYX F/W v4.00 Oryx Data Collector v3.7.2.0data status	okinstallation	princeton_trtdifferential loss correction	single-endedforward channel	channel 1reverse channel	N/Adate	2019/09/13time	16:34:35forward acquisition time	60.00reverse acquisition time	0.00gamma	496.2192k internal	0.2304k external	0.2304temperature offset calibration	1.0163default loss term (dB/km)	0.3790temperature slope calibration	1.0000multiplexer offset coefficient	1.0000multiplexer slope coefficient	1.0000fibre end	0.00T internal ref (°C)	35.06T ext. ref 1 (°C)	4.89T ext. ref 2 (°C)	30.18length (m)	temperature (°C)	Stokes	anti-Stokes-747.200	36.210	-0.198	-0.178
-746.185	800.000	0.072	-0.220
-745.171	-200.000	0.005	0.074
-744.156	-32.580	-0.410	0.232
-743.142	59.188	0.072	0.072
-742.127	648.793	-0.033	0.087
-741.112	800.000	-0.053	0.153
-740.098	432.859	-0.144	0.318
-739.083	-69.031	0.326	0.128
-738.069	68.847	0.077	-0.081
-737.054	-93.659	0.426	0.120
-736.039	-85.678	0.042	-0.013
-735.025	-78.600	0.038	0.013
-734.010	4.419	-0.137	0.102
-732.996	161.016	-0.204	-0.291
-731.981	463.479	0.127	0.289
-730.966	-59.631	-0.215	-0.094
-729.952	-26.535	-0.287	0.171
-728.937	800.000	-0.091	0.360
-727.923	293.295	0.128	0.238
-726.908	-80.964	-0.241	-0.081
-725.894	48.774	-0.201	-0.192
-724.879	-120.835	0.304	0.052
-723.864	-200.000	-0.003	0.278
-722.850	800.000	-0.048	-0.167
-721.835	49.334	0.053	-0.051
-720.821	-200.000	-0.032	0.170
-719.806	-93.789	-0.116	0.033
-718.791	-45.251	-0.231	0.117
-717.777	91.281	-0.155	0.177
-716.762	49.154	-0.276	-0.264
-715.748	114.650	-0.077	-0.095
-714.733	1.822	-0.213	0.156
-713.718	-72.002	0.105	0.040
-712.704	-90.580	0.218	0.064
-711.689	251.410	-0.070	0.121
-710.675	170.614	-0.119	0.174
-709.660	577.792	0.078	-0.195
-708.645	79.651	0.138	0.151
-707.631	-66.415	-0.264	0.107
-706.616	-118.127	-0.241	-0.044
-705.602	483.646	0.032	-0.075
-704.587	219.954	0.061	0.100
-703.572	-113.125	0.260	-0.052
-702.558	-93.903	0.344	-0.096
-701.543	-187.266	0.055	0.001
-700.529	158.304	0.100	-0.141
-699.514	-5.633	-0.128	0.089
-698.499	79.610	0.257	0.280
-697.485	-22.319	0.091	-0.056
-696.470	512.154	0.046	0.109
-695.456	363.394	0.121	0.247
-694.441	-6.575	0.228	0.158
-693.426	228.660	0.114	0.189
-692.412	-132.318	-0.426	0.056
-691.397	-115.730	-0.223	0.042
-690.383	-75.865	-0.132	-0.047
-689.368	78.307	-0.070	-0.076
-688.354	40.375	-0.193	0.176
-687.339	-7.981	0.112	-0.077
-686.324	157.054	0.095	0.133
-685.310	24.826	0.222	-0.187
-684.295	-117.161	-0.218	0.040
-683.281	800.000	-0.082	-0.250
-682.266	-113.677	-0.061	0.012
-681.251	-200.000	0.005	0.102
-680.237	205.446	0.046	-0.072
-679.222	-179.715	-0.156	0.003
-678.208	38.536	-0.132	0.120
-677.193	552.967	0.052	-0.128
-676.178	-24.611	-0.086	-0.052
-675.164	-200.000	0.002	0.040
-674.149	220.425	-0.154	0.251
-673.135	-200.000	-0.032	-0.180
-672.120	800.000	-0.047	-0.190
-671.105	800.000	-0.108	-0.307
-670.091	52.236	-0.210	0.203
-669.076	790.393	-0.069	-0.191
-668.062	270.627	-0.185	-0.330
-667.047	-103.600	0.431	-0.103
-666.032	784.145	0.103	0.285
-665.018	-5.653	-0.214	0.149
-664.003	-200.000	0.026	0.183
-662.989	-200.000	-0.011	0.293
-661.974	490.674	-0.088	0.204
-660.959	-200.000	0.062	-0.377
-659.945	70.034	0.172	-0.181
-658.930	-51.866	0.229	-0.108
-657.916	681.486	-0.140	-0.370
-656.901	11.811	-0.270	0.210
-655.886	441.637	-0.074	0.164
-654.872	124.223	-0.031	-0.040
-653.857	-66.660	-0.122	-0.049
-652.843	-200.000	0.011	0.101
-651.828	800.000	0.070	0.295
-650.814	132.913	0.129	-0.169
-649.799	-200.000	0.048	-0.407
-648.784	-32.194	-0.229	-0.130
-647.770	426.781	0.052	-0.113
-646.755	139.476	-0.094	0.126
-645.741	-64.480	0.073	-0.030
-644.726	800.000	0.125	0.397
-643.711	416.328	0.109	-0.236
-642.697	202.336	-0.122	-0.191
-641.682	18.007	-0.179	0.145
-640.668	-81.056	-0.206	0.069
-639.653	-57.335	-0.328	-0.146
-638.638	234.209	0.029	0.048
-637.624	-57.158	-0.049	0.022
-636.609	-200.000	-0.071	-0.334
-635.595	51.387	0.104	-0.100
-634.580	194.138	0.051	0.079
-633.565	-200.000	0.007	0.089
-632.551	800.000	0.028	0.093
-631.536	-75.039	0.289	0.105
-630.522	-63.199	0.049	0.021
-629.507	-10.775	-0.264	-0.177
-628.492	-200.000	-0.017	-0.226
-627.478	-68.633	0.288	-0.113
-626.463	324.362	-0.045	-0.086
-625.449	317.089	0.138	-0.263
-624.434	-200.000	0.003	0.240
-623.419	-160.014	0.202	0.011
-622.405	-121.690	0.148	-0.025
-621.390	627.070	0.039	0.099
-620.376	17.890	-0.059	-0.048
-619.361	87.633	-0.305	-0.342
-618.346	345.022	0.164	0.326
-617.332	800.000	-0.135	0.519
-616.317	457.202	0.174	-0.391
-615.303	-200.000	0.008	0.183
-614.288	-40.236	-0.230	0.121
-613.273	-131.460	-0.283	0.038
-612.259	-23.695	-0.129	0.078
-611.244	122.295	-0.129	0.164
-610.230	147.081	0.133	0.181
-609.215	374.853	0.071	0.146
-608.201	214.608	0.038	-0.061
-607.186	-138.540	-0.183	-0.020
-606.171	-66.125	0.358	-0.145
-605.157	16.579	-0.026	-0.021
-604.142	-200.000	0.010	0.065
-603.128	-200.000	-0.035	-0.316
-602.113	800.000	0.141	0.405
-601.098	402.129	-0.077	0.163
-600.084	-48.698	-0.257	0.125
-599.069	504.526	0.077	-0.181
-598.055	120.214	-0.103	0.130
-597.040	-139.479	-0.070	-0.008
-596.025	-4.528	0.145	-0.102
-595.011	419.279	0.039	-0.085
-593.996	-200.000	-0.094	-0.436
-592.982	-3.072	-0.106	-0.075
-591.967	-153.697	-0.258	0.018
-590.952	60.994	0.237	0.238
-589.938	-110.621	-0.050	0.010
-588.923	-25.879	-0.149	-0.089
-587.909	112.431	-0.087	0.107
-586.894	800.000	0.082	-0.355
-585.879	12.539	-0.183	0.143
-584.865	347.959	-0.081	0.162
-583.850	800.000	0.143	0.430
-582.836	105.782	0.058	0.070
-581.821	87.783	0.204	-0.229
-580.806	-200.000	0.001	0.107
-579.792	-200.000	-0.008	-0.236
-578.777	3.010	0.173	0.127
-577.763	-9.264	-0.257	0.174
-576.748	362.121	-0.155	0.315
-575.733	65.415	-0.134	-0.138
-574.719	91.052	-0.055	-0.062
-573.704	800.000	-0.012	0.054
-572.690	11.849	-0.080	0.062
-571.675	-116.867	-0.012	-0.002
-570.661	-200.000	0.027	-0.149
-569.646	-59.395	0.194	-0.084
-568.631	18.143	-0.073	-0.059
-567.617	-132.572	-0.175	0.023
-566.602	-7.257	-0.326	-0.223
-565.588	-9.006	0.249	-0.169
-564.573	-128.737	0.210	-0.030
-563.558	800.000	0.067	0.206
-562.544	-126.207	-0.278	-0.042
-561.529	10.892	0.157	-0.121
-560.515	786.152	-0.020	0.056
-559.500	18.656	0.291	0.235
-558.485	384.718	0.064	-0.134
-557.471	-200.000	0.022	0.138
-556.456	-140.138	-0.247	-0.026
-555.442	-6.022	0.243	-0.168
-554.427	549.032	-0.031	0.074
-553.412	-200.000	-0.050	-0.242
-552.398	-80.674	-0.324	-0.109
-551.383	-181.774	0.329	-0.006
-550.369	-200.000	-0.007	0.336
-549.354	122.114	-0.358	0.452
-548.339	-85.623	0.208	-0.065
-547.325	-200.000	0.004	-0.041
-546.310	-167.757	0.190	0.008
-545.296	-200.000	-0.024	-0.197
-544.281	11.610	-0.076	0.059
-543.266	29.968	0.090	0.078
-542.252	-83.961	-0.206	0.066
-541.237	-200.000	-0.016	-0.080
-540.223	-29.942	0.178	0.102
-539.208	53.929	0.159	0.154
-538.193	-64.842	0.165	0.067
-537.179	-56.128	-0.202	-0.091
-536.164	283.809	-0.143	-0.259
-535.150	0.577	-0.033	0.024
-534.135	-84.537	0.109	-0.035
-533.121	-29.850	0.263	0.151
-532.106	12.687	0.137	0.107
-531.091	-137.278	-0.524	-0.060
-530.077	84.602	-0.068	0.075
-529.062	-119.304	0.238	0.042
-528.048	-155.297	0.127	-0.008
-527.033	800.000	-0.107	0.343
-526.018	27.263	0.108	-0.091
-525.004	58.011	0.304	-0.301
-523.989	-200.000	0.004	-0.386
-522.975	599.562	-0.085	-0.213
-521.960	-26.848	0.056	-0.033
-520.945	130.538	0.090	0.117
-519.931	737.195	0.078	-0.211
-518.916	-200.000	0.007	-0.388
-517.902	292.410	0.057	0.105
-516.887	579.204	0.128	0.315
-515.872	139.824	0.235	-0.312
-514.858	-200.000	0.240	-0.001
-513.843	280.306	0.116	0.210
-512.829	74.537	-0.178	-0.189
-511.814	800.000	-0.069	-0.218
-510.799	699.921	-0.084	0.224
-509.785	-36.486	0.270	-0.147
-508.770	406.748	0.103	-0.218
-507.756	-200.000	-0.005	-0.289
-506.741	380.148	-0.093	0.193
-505.726	800.000	0.079	-0.305
-504.712	21.263	0.258	-0.211
-503.697	673.173	0.059	0.155
-502.683	800.000	-0.050	0.140
-501.668	85.971	0.076	0.084
-500.653	800.000	-0.076	-0.266
-499.639	-1.975	-0.183	0.130
-498.624	-92.297	-0.377	0.107
-497.610	-109.669	0.533	-0.113
-496.595	-37.151	0.194	0.105
-495.581	127.310	0.223	0.285
-494.566	41.981	0.233	-0.213
-493.551	98.060	-0.257	0.298
-492.537	-156.598	0.133	0.008
-491.522	0.237	-0.081	0.058
-490.508	142.479	0.156	0.208
-489.493	2.169	0.211	-0.153
-488.478	445.962	0.138	-0.306
-487.464	-200.000	-0.019	-0.283
-486.449	-58.874	-0.123	0.054
-485.435	426.150	-0.064	-0.140
-484.420	800.000	0.041	-0.169
-483.405	44.423	-0.278	0.257
-482.391	-48.905	0.164	-0.079
-481.376	-180.220	-0.365	0.008
-480.362	308.917	-0.141	0.265
-479.347	-200.000	0.000	-0.141
-478.332	-200.000	0.079	0.460
-477.318	539.088	0.082	0.196
-476.303	800.000	-0.044	-0.158
-475.289	9.803	-0.198	-0.151
-474.274	72.866	-0.254	-0.267
-473.259	32.695	0.111	0.097
-472.245	274.283	0.182	0.325
-471.230	-24.180	0.108	0.065
-470.216	95.150	-0.280	0.321
-469.201	800.000	0.020	-0.081
-468.186	-0.135	-0.223	0.160
-467.172	-200.000	-0.034	-0.274
-466.157	540.098	0.068	-0.163
-465.143	5.608	-0.111	-0.083
-464.128	33.720	-0.142	0.124
-463.113	-52.730	-0.067	-0.031
-462.099	3.324	-0.291	0.213
-461.084	160.228	0.051	-0.072
-460.070	800.000	0.037	0.110
-459.055	44.795	-0.152	-0.141
-458.040	3.643	0.197	0.145
-457.026	-123.191	-0.154	0.025
-456.011	41.736	-0.138	0.126
-454.997	-65.809	0.190	0.076
-453.982	-86.936	-0.127	0.039
-452.968	582.869	-0.194	0.480
-451.953	64.264	-0.278	-0.282
-450.938	102.834	0.050	0.059
-449.924	53.979	-0.191	-0.185
-448.909	-96.011	-0.030	-0.008
-447.895	-200.000	0.004	-0.171
-446.880	103.070	0.128	-0.150
-445.865	-4.276	-0.071	0.050
-444.851	800.000	0.064	-0.212
-443.836	-200.000	-0.031	0.362
-442.822	437.450	0.047	-0.103
-441.807	-200.000	0.005	-0.124
-440.792	234.061	-0.044	0.073
-439.778	97.859	0.190	-0.220
-438.763	800.000	0.103	0.316
-437.749	-162.776	0.281	0.014
-436.734	124.308	-0.400	-0.506
-435.719	-161.884	-0.061	-0.003
-434.705	103.390	0.231	0.273
-433.690	313.538	0.119	-0.225
-432.676	-32.757	0.172	0.096
-431.661	190.038	-0.113	-0.171
-430.646	-44.397	-0.244	-0.123
-429.632	-40.221	0.296	0.155
-428.617	-200.000	-0.008	0.112
-427.603	-120.947	0.272	0.046
-426.588	-40.992	-0.195	0.102
-425.573	216.472	-0.162	0.259
-424.559	559.414	0.063	0.154
-423.544	-68.299	0.128	0.050
-422.530	358.002	-0.204	-0.409
-421.515	-200.000	0.068	-0.325
-420.500	-73.364	-0.097	-0.035
-419.486	-140.073	-0.337	0.036
-418.471	300.697	0.166	-0.308
-417.457	161.593	-0.136	-0.192
-416.442	171.286	0.064	-0.093
-415.428	-128.929	0.244	-0.034
-414.413	-200.000	0.081	0.386
-413.398	-200.000	0.035	0.419
-412.384	-144.254	0.171	0.016
-411.369	-200.000	0.013	-0.219
-410.355	-62.591	-0.163	-0.068
-409.340	-200.000	-0.192	-0.001
-408.325	-200.000	0.071	0.352
-407.311	31.710	0.114	-0.098
-406.296	269.101	-0.020	-0.036
-405.282	-200.000	0.002	-0.047
-404.267	-200.000	-0.044	0.427
-403.252	800.000	-0.011	-0.034
-402.238	-27.208	-0.180	-0.105
-401.223	-1.038	0.221	0.157
-400.209	537.707	0.102	-0.245
-399.194	-125.981	-0.159	-0.024
-398.179	-109.845	-0.324	0.068
-397.165	138.436	0.268	-0.353
-396.150	-105.822	-0.274	-0.062
-395.136	-200.000	-0.032	-0.146
-394.121	-14.188	0.295	-0.191
-393.106	14.332	0.167	0.131
-392.092	3.049	0.385	0.281
-391.077	-200.000	0.041	-0.203
-390.063	84.009	0.224	-0.246
-389.048	515.706	-0.091	0.213
-388.033	-25.223	-0.185	0.110
-387.019	56.835	0.205	0.200
-386.004	9.601	-0.160	0.121
-384.990	-103.579	-0.408	0.096
-383.975	-200.000	-0.057	0.371
-382.960	800.000	0.122	-0.429
-381.946	89.535	-0.022	-0.025
-380.931	31.541	0.070	0.060
-379.917	-200.000	0.027	-0.120
-378.902	62.083	0.237	-0.238
-377.888	-108.664	0.084	0.018
-376.873	800.000	-0.021	-0.083
-375.858	-14.663	-0.105	0.067
-374.844	-11.877	0.223	-0.147
-373.829	-200.000	0.041	0.241
-372.815	-39.599	-0.182	-0.096
-371.800	-200.000	-0.000	-0.142
-370.785	53.989	-0.137	0.132
-369.771	293.478	0.063	0.116
-368.756	72.487	0.253	0.265
-367.742	-200.000	-0.059	0.284
-366.727	626.953	-0.148	0.375
-365.712	52.452	0.070	-0.067
-364.698	248.036	-0.111	0.189
-363.683	394.345	-0.030	0.062
-362.669	-15.820	-0.220	-0.140
-361.654	392.689	0.152	0.318
-360.639	-200.000	0.013	0.072
-359.625	-63.920	0.127	0.052
-358.610	-40.727	-0.262	0.136
-357.596	437.942	0.015	-0.033
-356.581	50.152	-0.220	-0.209
-355.566	-196.989	0.227	-0.001
-354.552	-18.708	-0.192	-0.120
-353.537	-95.763	-0.152	0.041
-352.523	-118.557	-0.322	0.057
-351.508	-119.325	0.128	0.022
-350.493	800.000	-0.107	0.310
-349.479	-200.000	-0.031	0.198
-348.464	360.747	0.061	0.123
-347.450	26.720	-0.292	0.245
-346.435	84.845	-0.108	-0.118
-345.420	31.955	0.254	-0.219
-344.406	-200.000	-0.023	-0.256
-343.391	181.309	0.107	0.158
-342.377	-191.997	0.060	-0.001
-341.362	112.607	0.249	-0.302
-340.348	55.530	0.444	-0.431
-339.333	325.713	-0.045	0.087
-338.318	372.689	0.171	-0.349
-337.304	-38.902	-0.231	-0.122
-336.289	605.591	0.116	0.290
-335.275	31.631	0.196	-0.169
-334.260	-200.000	-0.005	0.292
-333.245	65.550	-0.154	0.156
-332.231	800.000	0.053	0.219
-331.216	-200.000	0.020	0.092
-330.202	523.508	0.127	0.298
-329.187	4.559	0.259	-0.191
-328.172	287.131	-0.124	0.224
-327.158	-147.394	0.406	-0.034
-326.143	2.321	-0.118	-0.086
-325.129	-200.000	0.007	-0.126
-324.114	-200.000	0.016	0.336
-323.099	100.490	0.300	0.349
-322.085	-91.467	0.109	0.031
-321.070	800.000	-0.085	-0.242
-320.056	138.404	0.179	0.235
-319.041	19.016	-0.269	0.216
-318.026	-116.815	-0.435	-0.080
-317.012	212.027	-0.079	0.125
-315.997	-79.623	-0.095	0.032
-314.983	-6.202	0.389	0.266
-313.968	51.576	-0.353	-0.336
-312.953	154.277	0.152	0.209
-311.939	-47.522	-0.278	-0.135
-310.924	-34.893	0.115	0.063
-309.910	800.000	0.061	-0.178
-308.895	-93.672	-0.524	-0.145
-307.880	-72.434	0.286	0.106
-306.866	62.825	0.221	0.222
-305.851	-200.000	0.003	0.114
-304.837	-37.908	-0.192	-0.102
-303.822	60.970	0.204	-0.203
-302.807	-185.068	-0.473	-0.007
-301.793	-160.795	0.252	-0.013
-300.778	85.010	0.015	-0.017
-299.764	-15.646	0.078	0.050
-298.749	-165.893	0.135	-0.006
-297.735	-186.161	-0.092	0.001
-296.720	-126.271	0.244	0.037
-295.705	-89.592	0.326	0.096
-294.691	38.414	0.283	0.253
-293.676	44.019	-0.176	0.162
-292.662	391.786	0.120	0.249
-291.647	800.000	-0.085	0.286
-290.632	98.744	0.143	-0.166
-289.618	173.328	0.098	-0.142
-288.603	47.724	0.147	-0.138
-287.589	-3.415	0.166	0.116
-286.574	340.414	-0.078	-0.152
-285.559	-200.000	-0.021	-0.122
-284.545	188.472	0.182	0.273
-283.530	-32.265	0.100	0.056
-282.516	-200.000	0.019	-0.266
-281.501	-200.000	0.015	-0.124
-280.486	131.867	-0.266	-0.342
-279.472	-75.783	0.135	0.048
-278.457	-70.848	0.251	-0.094
-277.443	155.047	-0.109	0.150
-276.428	-143.533	0.226	0.022
-275.413	103.871	0.083	0.098
-274.399	-93.038	-0.459	-0.128
-273.384	-200.000	-0.017	-0.097
-272.370	-200.000	0.001	-0.117
-271.355	-200.000	0.005	0.176
-270.340	-22.877	-0.199	-0.120
-269.326	625.313	-0.063	-0.158
-268.311	-200.000	0.069	-0.392
-267.297	800.000	-0.042	-0.134
-266.282	-62.608	-0.055	0.023
-265.267	-149.733	-0.094	-0.007
-264.253	-13.078	0.512	0.332
-263.238	-22.986	-0.193	0.116
-262.224	-55.972	-0.151	-0.067
-261.209	-147.830	-0.281	-0.023
-260.195	509.154	-0.048	0.110
-259.180	-200.000	-0.014	-0.387
-258.165	-59.328	-0.489	-0.210
-257.151	-200.000	-0.051	-0.359
-256.136	-28.180	-0.424	-0.245
-255.122	-5.370	0.153	-0.105
-254.107	-200.000	-0.019	-0.252
-253.092	44.518	0.120	0.110
-252.078	800.000	0.059	-0.167
-251.063	-66.085	-0.031	-0.012
-250.049	122.534	0.179	0.223
-249.034	62.205	-0.072	-0.071
-248.019	-72.046	0.029	0.011
-247.005	-41.662	0.285	0.146
-245.990	-93.154	-0.093	-0.026
-244.976	633.725	-0.129	-0.327
-243.961	121.611	-0.244	-0.304
-242.946	285.453	-0.011	-0.019
-241.932	-200.000	-0.010	0.198
-240.917	-67.270	-0.256	0.101
-239.903	93.270	-0.083	-0.093
-238.888	61.015	-0.123	0.122
-237.873	130.475	-0.145	-0.186
-236.859	-41.835	-0.221	0.113
-235.844	127.146	-0.199	-0.251
-234.830	-178.588	0.155	-0.004
-233.815	-59.950	0.174	0.074
-232.800	131.698	0.268	-0.344
-231.786	32.678	-0.315	0.272
-230.771	-139.053	-0.190	0.021
-229.757	-125.131	-0.115	-0.018
-228.742	-110.048	0.107	-0.022
-227.727	-200.000	0.004	0.111
-226.713	64.050	0.104	-0.105
-225.698	-200.000	-0.055	0.433
-224.684	105.965	-0.010	0.012
-223.669	-200.000	0.007	0.619
-222.655	-83.967	-0.110	0.035
-221.640	58.404	0.160	-0.157
-220.625	301.764	0.060	0.110
-219.611	-128.767	-0.109	-0.015
-218.596	-90.005	-0.234	0.068
-217.582	-200.000	0.007	0.192
-216.567	-89.260	0.198	-0.058
-215.552	153.704	-0.095	0.130
-214.538	15.487	0.220	-0.172
-213.523	-200.000	-0.015	-0.243
-212.509	111.198	0.048	-0.058
-211.494	-114.248	0.127	0.025
-210.479	-2.359	0.163	-0.114
-209.465	800.000	0.097	-0.321
-208.450	545.632	-0.063	0.150
-207.436	493.062	0.078	0.178
-206.421	46.353	0.229	-0.211
-205.406	-200.000	-0.001	-0.189
-204.392	396.598	0.037	0.076
-203.377	-136.538	-0.294	-0.034
-202.363	133.821	-0.074	0.096
-201.348	-29.921	0.204	0.116
-200.333	-119.096	0.285	0.050
-199.319	-22.114	0.258	0.156
-198.304	106.333	0.157	-0.185
-197.290	181.758	-0.100	-0.147
-196.275	683.141	0.095	-0.248
-195.260	800.000	-0.136	0.379
-194.246	63.095	-0.132	0.131
-193.231	734.368	0.024	0.064
-192.217	800.000	0.069	0.212
-191.202	-200.000	-0.000	0.255
-190.187	-100.709	-0.140	0.034
-189.173	-200.000	-0.004	0.414
-188.158	221.985	0.186	0.297
-187.144	800.000	0.052	-0.188
-186.129	46.655	-0.289	-0.267
-185.114	338.415	-0.159	-0.308
-184.100	-99.515	-0.261	0.065
-183.085	5.959	-0.016	-0.012
-182.071	262.903	-0.105	-0.181
-181.056	-135.326	0.348	-0.041
-180.042	800.000	-0.063	-0.239
-179.027	89.353	-0.094	-0.105
-178.012	786.530	0.109	0.298
-176.998	181.854	0.237	0.348
-175.983	211.848	0.119	-0.187
-174.969	-200.000	-0.018	-0.362
-173.954	800.000	0.067	0.226
-172.939	-200.000	-0.011	0.195
-171.925	-77.068	-0.229	0.079
-170.910	-89.419	-0.200	-0.059
-169.896	48.451	-0.158	-0.147
-168.881	-120.041	-0.175	0.030
-167.866	-109.776	-0.190	-0.040
-166.852	-63.854	0.074	0.030
-165.837	33.640	-0.264	-0.229
-164.823	422.470	0.125	0.267
-163.808	46.621	-0.132	0.122
-162.793	542.740	-0.084	0.199
-161.779	2.555	0.100	-0.072
-160.764	-162.788	-0.143	-0.007
-159.750	217.418	0.126	-0.200
-158.735	416.076	-0.135	-0.288
-157.720	-91.464	0.116	-0.033
-156.706	-51.307	0.054	0.025
-155.691	-133.792	-0.155	-0.019
-154.677	-54.641	0.196	0.088
-153.662	-200.000	0.009	0.044
-152.647	143.941	0.287	-0.381
-151.633	-19.165	0.142	-0.088
-150.618	-200.000	0.053	0.242
-149.604	-163.126	0.112	0.005
-148.589	800.000	0.020	-0.061
-147.574	-200.000	-0.010	-0.076
-146.560	-122.032	0.383	0.063
-145.545	-104.144	0.296	0.068
-144.531	-70.011	0.086	-0.033
-143.516	-29.182	0.331	-0.189
-142.502	-164.388	-0.085	-0.004
-141.487	-144.114	-0.037	0.003
-140.472	-194.773	-0.152	-0.001
-139.458	6.309	0.123	0.091
-138.443	-200.000	0.007	0.074
-137.429	-155.634	0.125	-0.008
-136.414	117.657	0.066	0.081
-135.399	-200.000	0.010	-0.055
-134.385	-123.322	-0.225	0.036
-133.370	212.674	0.049	0.076
-132.356	800.000	-0.115	0.337
-131.341	110.875	0.174	0.209
-130.326	-200.000	-0.017	0.128
-129.312	101.701	-0.096	0.111
-128.297	256.430	0.029	-0.049
-127.283	212.519	0.140	-0.220
-126.268	89.161	-0.190	-0.210
-125.253	-110.751	0.035	0.007
-124.239	800.000	-0.035	0.106
-123.224	-189.448	0.153	-0.002
-122.210	427.012	-0.049	0.104
-121.195	800.000	0.035	-0.106
-120.180	-200.000	-0.002	0.214
-119.166	-27.595	-0.142	0.082
