DTS Sentinel unit serial number:	SN413079Multiplexer serial number:	ORYXHardware model number:	OX4-SRSoftware version number:	ORYX F/W v4.00 Oryx Data Collector v3.7.2.0data status	okinstallation	princeton_trtdifferential loss correction	single-endedforward channel	channel 1reverse channel	N/Adate	2019/09/13time	15:26:35forward acquisition time	60.00reverse acquisition time	0.00gamma	496.2192k internal	0.2305k external	0.2305temperature offset calibration	1.0162default loss term (dB/km)	0.3790temperature slope calibration	1.0000multiplexer offset coefficient	1.0000multiplexer slope coefficient	1.0000fibre end	0.00T internal ref (°C)	35.25T ext. ref 1 (°C)	4.73T ext. ref 2 (°C)	29.36length (m)	temperature (°C)	Stokes	anti-Stokes-747.200	-200.000	0.024	0.287
-746.185	314.979	0.204	0.392
-745.171	140.927	-0.111	-0.150
-744.156	392.663	0.075	0.159
-743.142	-121.595	-0.168	-0.028
-742.127	107.316	-0.246	0.298
-741.112	-200.000	-0.020	0.378
-740.098	154.693	-0.132	0.185
-739.083	546.292	-0.037	0.090
-738.069	-91.414	-0.135	0.039
-737.054	-63.842	-0.127	0.053
-736.039	286.036	-0.017	0.031
-735.025	61.517	-0.074	-0.074
-734.010	4.976	-0.023	0.017
-732.996	-48.842	-0.325	-0.158
-731.981	800.000	0.060	-0.234
-730.966	516.149	0.047	-0.112
-729.952	-200.000	-0.074	-0.355
-728.937	800.000	0.045	0.188
-727.923	-114.415	-0.356	-0.070
-726.908	209.267	0.196	0.312
-725.894	-68.784	0.088	0.035
-724.879	-200.000	-0.056	-0.327
-723.864	-126.633	0.415	-0.063
-722.850	507.800	0.110	0.260
-721.835	-62.771	-0.095	0.040
-720.821	187.703	-0.200	-0.304
-719.806	105.768	0.118	-0.142
-718.791	137.595	0.090	-0.120
-717.777	-200.000	-0.001	-0.372
-716.762	-200.000	-0.039	-0.202
-715.748	800.000	0.016	0.058
-714.733	253.373	0.081	0.140
-713.718	-200.000	0.020	-0.143
-712.704	-45.982	0.200	0.100
-711.689	-200.000	-0.026	-0.132
-710.675	-107.452	-0.221	-0.049
-709.660	402.419	0.110	0.235
-708.645	800.000	0.024	-0.092
-707.631	800.000	-0.076	-0.290
-706.616	800.000	0.040	-0.162
-705.602	49.856	0.185	0.177
-704.587	273.856	-0.254	0.456
-703.572	-62.700	-0.173	0.073
-702.558	468.250	0.189	-0.431
-701.543	-200.000	-0.024	-0.167
-700.529	-200.000	-0.003	-0.099
-699.514	160.702	0.217	0.308
-698.499	-200.000	0.026	-0.137
-697.485	-200.000	0.002	-0.048
-696.470	-187.127	-0.361	-0.005
-695.456	-200.000	-0.013	0.328
-694.441	-200.000	-0.005	0.303
-693.426	-200.000	0.018	-0.240
-692.412	-82.446	-0.105	-0.035
-691.397	-101.854	0.180	-0.044
-690.383	-189.734	-0.203	-0.002
-689.368	59.935	0.326	-0.327
-688.354	-3.990	-0.197	-0.138
-687.339	305.968	-0.074	0.140
-686.324	-200.000	-0.056	-0.319
-685.310	-63.900	-0.219	-0.091
-684.295	-54.058	-0.216	0.100
-683.281	184.122	0.111	-0.167
-682.266	64.205	-0.179	0.182
-681.251	-22.550	0.092	-0.056
-680.237	-200.000	-0.019	-0.139
-679.222	624.025	0.076	-0.194
-678.208	-200.000	0.010	0.304
-677.193	123.907	0.114	0.145
-676.178	800.000	0.037	0.117
-675.164	-114.715	-0.055	-0.011
-674.149	800.000	-0.046	-0.171
-673.135	-1.426	-0.338	-0.242
-672.120	7.376	0.142	-0.108
-671.105	-200.000	-0.046	-0.343
-670.091	502.036	-0.059	0.139
-669.076	-33.081	-0.220	-0.124
-668.062	-66.978	-0.046	0.018
-667.047	-200.000	0.055	-0.246
-666.032	-74.087	-0.310	-0.114
-665.018	2.993	0.240	0.177
-664.003	-105.002	0.020	-0.005
-662.989	-119.586	0.110	0.019
-661.974	64.781	-0.308	-0.316
-660.959	800.000	-0.139	0.425
-659.945	3.116	-0.086	0.064
-658.930	-126.698	-0.181	-0.027
-657.916	-72.679	0.292	-0.109
-656.901	-87.082	0.030	-0.009
-655.886	-125.206	-0.260	-0.040
-654.872	42.068	0.197	-0.181
-653.857	220.020	-0.057	-0.092
-652.843	689.044	0.081	-0.214
-651.828	390.651	0.166	-0.348
-650.814	-149.940	0.271	-0.021
-649.799	-80.147	0.325	-0.111
-648.784	-200.000	0.003	0.142
-647.770	800.000	-0.055	0.218
-646.755	-71.491	0.077	-0.029
-645.741	-143.438	0.328	0.032
-644.726	-200.000	-0.038	-0.226
-643.711	44.422	-0.098	0.092
-642.697	-32.913	0.135	0.076
-641.682	199.172	-0.129	0.201
-640.668	17.767	0.132	0.107
-639.653	22.375	-0.355	-0.294
-638.638	-200.000	-0.007	-0.369
-637.624	444.088	-0.175	0.388
-636.609	-75.039	-0.161	0.058
-635.595	-193.797	0.298	0.003
-634.580	-104.776	0.132	0.031
-633.565	-200.000	0.042	0.224
-632.551	585.805	0.048	-0.119
-631.536	-52.192	-0.110	0.052
-630.522	96.368	0.146	0.170
-629.507	-200.000	0.024	0.257
-628.492	-85.033	0.267	-0.085
-627.478	79.214	-0.123	-0.134
-626.463	-89.671	-0.022	-0.006
-625.449	405.252	0.022	0.047
-624.434	241.956	0.141	-0.239
-623.419	800.000	-0.096	-0.359
-622.405	-200.000	-0.010	-0.065
-621.390	800.000	-0.032	0.134
-620.376	-200.000	-0.037	0.219
-619.361	-88.825	-0.041	-0.012
-618.346	-129.373	-0.221	0.031
-617.332	-8.136	0.043	-0.029
-616.317	-74.781	0.224	-0.082
-615.303	417.671	-0.113	-0.244
-614.288	-200.000	-0.034	0.213
-613.273	25.377	0.083	0.070
-612.259	-181.035	0.355	0.007
-611.244	395.883	0.152	0.320
-610.230	-6.315	-0.331	-0.229
-609.215	-111.810	-0.271	-0.055
-608.201	-171.515	-0.109	0.004
-607.186	3.892	0.078	-0.057
-606.171	-44.248	0.128	-0.065
-605.157	-195.306	-0.154	-0.001
-604.142	88.071	-0.094	-0.105
-603.128	-174.012	0.209	-0.006
-602.113	800.000	0.012	0.048
-601.098	45.024	-0.199	-0.186
-600.084	-200.000	0.001	-0.183
-599.069	524.844	0.043	-0.103
-598.055	800.000	-0.040	-0.122
-597.040	-200.000	0.004	0.051
-596.025	-30.696	0.251	0.144
-595.011	-177.572	-0.073	0.002
-593.996	-41.298	0.195	0.102
-592.982	606.866	0.088	0.222
-591.967	-95.642	-0.321	-0.087
-590.952	36.434	0.268	0.240
-589.938	-42.689	-0.077	0.039
-588.923	63.928	-0.125	0.127
-587.909	176.861	-0.238	-0.351
-586.894	-52.556	-0.441	-0.206
-585.879	-32.104	0.104	-0.059
-584.865	-107.652	-0.192	0.042
-583.850	800.000	0.029	-0.113
-582.836	-56.319	-0.224	0.100
-581.821	252.743	0.119	-0.205
-580.806	205.361	-0.044	-0.069
-579.792	88.485	-0.014	0.016
-578.777	164.835	-0.079	0.112
-577.763	91.343	0.029	-0.033
-576.748	640.204	0.033	-0.085
-575.733	-53.244	-0.324	0.150
-574.719	-200.000	-0.021	0.224
-573.704	163.254	0.150	-0.214
-572.690	-81.231	-0.194	-0.065
-571.675	209.179	0.122	0.193
-570.661	82.310	0.205	0.225
-569.646	-200.000	-0.004	-0.115
-568.631	-33.131	0.309	-0.173
-567.617	800.000	-0.093	-0.290
-566.602	35.289	0.166	-0.147
-565.588	-32.612	-0.178	-0.100
-564.573	-54.772	0.056	0.025
-563.558	-142.847	-0.347	-0.034
-562.544	800.000	-0.083	0.254
-561.529	370.719	0.063	-0.130
-560.515	-200.000	-0.002	-0.098
-559.500	150.009	-0.223	-0.306
-558.485	-51.815	0.284	0.134
-557.471	63.649	0.091	0.092
-556.456	-200.000	-0.025	-0.294
-555.442	-200.000	0.052	-0.447
-554.427	-200.000	0.013	-0.234
-553.412	-131.822	0.143	-0.019
-552.398	11.590	0.073	0.057
-551.383	257.022	-0.151	0.262
-550.369	-32.874	-0.143	-0.080
-549.354	-200.000	-0.004	0.050
-548.339	613.711	-0.080	-0.202
-547.325	-68.155	-0.267	-0.105
-546.310	-173.329	0.140	-0.004
-545.296	299.113	-0.106	0.197
-544.281	116.483	-0.056	0.070
-543.266	-200.000	0.003	0.287
-542.252	664.532	-0.117	0.306
-541.237	302.937	0.138	0.257
-540.223	-53.603	0.484	-0.223
-539.208	47.209	-0.048	0.045
-538.193	-121.621	0.272	-0.046
-537.179	-91.376	-0.191	0.055
-536.164	453.620	-0.124	-0.277
-535.150	800.000	0.010	0.041
-534.135	19.391	0.229	-0.185
-533.121	9.509	-0.034	-0.026
-532.106	-56.341	-0.192	0.086
-531.091	152.439	0.173	0.239
-530.077	386.406	-0.143	-0.299
-529.062	-92.370	-0.223	0.063
-528.048	-132.553	0.275	-0.036
-527.033	20.086	-0.214	-0.174
-526.018	331.469	0.109	0.212
-525.004	800.000	0.091	0.302
-523.989	105.068	-0.182	0.216
-522.975	-200.000	0.005	0.072
-521.960	276.511	-0.180	0.323
-520.945	129.788	0.069	-0.089
-519.931	417.765	0.033	-0.072
-518.916	-6.210	0.247	-0.170
-517.902	34.382	-0.129	0.113
-516.887	0.759	-0.291	0.210
-515.872	-178.870	-0.219	-0.005
-514.858	360.829	0.131	0.265
-513.843	3.316	-0.107	-0.078
-512.829	131.999	0.055	-0.072
-511.814	-55.513	-0.350	0.158
-510.799	29.078	0.106	-0.091
-509.785	62.182	-0.172	-0.173
-508.770	-200.000	0.001	-0.126
-507.756	-59.983	-0.216	0.093
-506.741	-140.176	-0.176	0.019
-505.726	32.287	0.031	0.027
-504.712	-200.000	0.012	-0.066
-503.697	-200.000	-0.003	0.234
-502.683	-0.041	-0.221	-0.159
-501.668	401.357	-0.076	0.160
-500.653	-70.661	0.127	0.048
-499.639	-104.729	0.175	-0.040
-498.624	7.665	-0.153	-0.115
-497.610	800.000	-0.049	-0.166
-496.595	267.235	0.027	0.048
-495.581	-121.650	-0.093	0.016
-494.566	39.607	-0.140	-0.126
-493.551	237.099	-0.218	-0.364
-492.537	-97.247	0.091	-0.024
-491.522	140.430	0.112	-0.149
-490.508	31.176	-0.190	-0.164
-489.493	-17.871	-0.154	-0.098
-488.478	-93.264	-0.249	-0.070
-487.464	494.489	0.066	-0.153
-486.449	800.000	0.054	0.178
-485.435	5.093	-0.291	0.216
-484.420	-65.081	-0.109	0.044
-483.405	230.403	-0.104	0.171
-482.391	359.117	-0.104	0.209
-481.376	124.779	0.131	-0.166
-480.362	236.181	0.030	0.050
-479.347	-200.000	-0.007	0.236
-478.332	-49.861	-0.235	-0.113
-477.318	-200.000	0.005	0.268
-476.303	21.813	0.176	-0.145
-475.289	163.210	-0.163	-0.230
-474.274	236.201	0.169	-0.282
-473.259	89.517	0.173	-0.195
-472.245	800.000	-0.045	0.132
-471.230	72.899	0.123	-0.130
-470.216	-151.599	-0.055	-0.004
-469.201	69.595	0.027	-0.028
-468.186	-15.242	-0.178	-0.114
-467.172	48.551	-0.068	-0.064
-466.157	-200.000	0.018	0.141
-465.143	-114.661	-0.128	-0.025
-464.128	-148.862	0.331	-0.027
-463.113	-30.374	0.101	-0.058
-462.099	-140.981	-0.182	-0.019
-461.084	-23.405	0.288	-0.174
-460.070	-200.000	-0.009	-0.086
-459.055	219.188	0.141	0.227
-458.040	307.347	0.112	0.210
-457.026	10.591	0.231	-0.177
-456.011	-113.658	-0.288	0.057
-454.997	-104.207	0.290	0.068
-453.982	42.386	0.090	-0.082
-452.968	800.000	-0.082	0.244
-451.953	-75.166	0.111	0.040
-450.938	31.998	-0.163	0.141
-449.924	0.470	0.042	0.030
-448.909	-128.312	-0.230	-0.033
-447.895	-167.435	-0.433	0.017
-446.880	38.120	-0.359	0.321
-445.865	-77.779	0.320	-0.111
-444.851	-93.564	0.542	0.151
-443.836	30.707	-0.056	0.048
-442.822	-200.000	0.068	0.346
-441.807	-53.231	-0.477	0.220
-440.792	668.408	0.092	-0.239
-439.778	355.007	0.068	0.135
-438.763	99.421	-0.127	-0.148
-437.749	689.804	0.050	-0.133
-436.734	473.190	-0.107	0.243
-435.719	800.000	-0.064	-0.185
-434.705	800.000	0.116	0.458
-433.690	194.574	0.130	-0.198
-432.676	314.294	-0.080	-0.152
-431.661	213.198	0.136	-0.216
-430.646	240.767	0.092	0.154
-429.632	-200.000	-0.015	-0.149
-428.617	-85.090	-0.070	-0.022
-427.603	-140.658	0.118	0.012
-426.588	-55.453	-0.152	-0.069
-425.573	207.614	0.042	0.065
-424.559	800.000	0.035	-0.140
-423.544	-109.020	-0.169	-0.036
-422.530	-200.000	0.027	0.249
-421.515	-95.393	-0.192	0.052
-420.500	-38.421	0.335	-0.178
-419.486	103.763	0.225	-0.265
-418.471	-64.234	-0.195	0.080
-417.457	-57.201	0.407	0.180
-416.442	246.452	-0.034	-0.058
-415.428	404.906	-0.221	-0.469
-414.413	-200.000	0.029	-0.191
-413.398	634.715	0.068	0.172
-412.384	-62.103	-0.140	0.059
-411.369	-200.000	0.043	0.318
-410.355	581.294	-0.038	-0.092
-409.340	-171.951	-0.370	-0.012
-408.325	-126.664	-0.189	0.028
-407.311	311.293	0.147	-0.277
-406.296	408.904	0.107	-0.228
-405.282	-200.000	0.036	-0.184
-404.267	-69.067	-0.133	0.051
-403.252	198.959	0.240	0.369
-402.238	-200.000	-0.014	-0.172
-401.223	69.336	0.106	0.110
-400.209	-65.887	-0.111	-0.044
-399.194	239.037	-0.124	0.207
-398.179	-200.000	0.003	0.283
-397.165	-51.461	-0.042	-0.019
-396.150	-69.837	0.108	0.041
-395.136	616.799	0.197	0.496
-394.121	-103.370	-0.219	0.052
-393.106	151.749	0.140	-0.191
-392.092	-89.668	0.233	-0.069
-391.077	-133.027	0.245	0.031
-390.063	-53.936	0.053	0.024
-389.048	-200.000	0.008	-0.039
-388.033	-81.456	-0.189	0.062
-387.019	-119.412	-0.256	-0.045
-386.004	-200.000	0.055	0.459
-384.990	-119.404	-0.200	-0.035
-383.975	225.081	0.077	-0.125
-382.960	800.000	0.045	-0.157
-381.946	213.283	0.114	0.180
-380.931	800.000	0.096	-0.310
-379.917	800.000	0.100	-0.332
-378.902	304.649	0.054	0.101
-377.888	-71.013	0.175	0.066
-376.873	28.585	-0.183	-0.155
-375.858	-47.455	0.332	-0.162
-374.844	461.406	-0.136	0.304
-373.829	-42.592	0.099	0.050
-372.815	-159.168	0.232	-0.013
-371.800	-109.125	0.120	0.026
-370.785	-96.797	-0.261	0.069
-369.771	-200.000	0.020	0.229
-368.756	-84.676	0.361	0.114
-367.742	79.971	-0.114	-0.123
-366.727	-113.850	-0.337	0.066
-365.712	-192.415	0.144	0.001
-364.698	-145.398	0.226	-0.020
-363.683	304.827	-0.059	-0.110
-362.669	-200.000	-0.088	-0.415
-361.654	-83.627	0.135	-0.043
-360.639	17.659	0.295	0.235
-359.625	-76.039	0.254	-0.090
-358.610	-19.775	-0.388	0.241
-357.596	478.297	-0.039	0.088
-356.581	-2.100	0.190	-0.134
-355.566	-102.836	0.202	0.048
-354.552	262.542	-0.140	0.243
-353.537	36.072	0.088	0.078
-352.523	-177.931	-0.239	0.006
-351.508	-2.828	-0.321	0.225
-350.493	111.097	0.141	0.170
-349.479	268.344	-0.067	0.118
-348.464	249.064	0.244	-0.413
-347.450	-92.315	-0.075	-0.021
-346.435	800.000	-0.023	-0.071
-345.420	800.000	0.022	-0.071
-344.406	53.072	-0.100	-0.096
-343.391	-63.313	-0.135	0.056
-342.377	-21.059	-0.099	0.061
-341.362	-200.000	0.013	0.150
-340.348	-92.611	0.040	-0.011
-339.333	19.357	-0.222	-0.179
-338.318	800.000	0.040	-0.133
-337.304	7.919	-0.235	-0.177
-336.289	-23.136	-0.065	-0.039
-335.275	-38.659	-0.105	-0.056
-334.260	-200.000	-0.003	0.155
-333.245	800.000	0.183	0.513
-332.231	-107.806	-0.269	-0.059
-331.216	556.335	-0.085	-0.206
-330.202	800.000	0.131	0.391
-329.187	-21.954	-0.434	0.264
-328.172	236.025	0.287	0.476
-327.158	-190.941	0.111	-0.001
-326.143	800.000	0.059	-0.249
-325.129	800.000	0.016	0.053
-324.114	100.653	0.078	-0.091
-323.099	73.423	0.080	-0.084
-322.085	-17.813	-0.331	-0.208
-321.070	-66.675	-0.195	-0.077
-320.056	-46.266	0.159	0.078
-319.041	204.257	0.159	0.247
-318.026	759.763	-0.043	0.117
-317.012	800.000	0.073	0.252
-315.997	-62.312	-0.058	-0.024
-314.983	-200.000	-0.005	-0.233
-313.968	-115.590	-0.225	-0.042
-312.953	-135.772	-0.083	0.010
-311.939	447.927	0.074	-0.164
-310.924	-161.716	0.428	0.022
-309.910	-24.417	0.218	0.130
-308.895	-97.914	-0.583	-0.151
-307.880	-96.981	0.060	-0.016
-306.866	-41.806	0.188	0.096
-305.851	-92.346	-0.303	0.085
-304.837	-128.646	-0.518	-0.073
-303.822	-39.111	0.239	0.125
-302.807	17.233	0.264	0.209
-301.793	800.000	-0.096	0.283
-300.778	-200.000	0.027	0.253
-299.764	-19.042	-0.038	0.024
-298.749	-200.000	0.041	0.348
-297.735	111.897	-0.234	0.283
-296.720	33.466	0.209	-0.181
-295.705	-200.000	-0.051	0.301
-294.691	177.069	0.107	-0.155
-293.676	-171.439	0.095	-0.003
-292.662	-121.845	0.086	0.014
-291.647	-47.983	0.291	0.141
-290.632	111.005	0.061	0.073
-289.618	-200.000	0.177	0.000
-288.603	356.140	0.164	-0.326
-287.589	164.154	0.084	0.118
-286.574	256.026	0.135	0.232
-285.559	264.520	-0.207	0.360
-284.545	305.476	0.196	-0.364
-283.530	-34.793	0.153	-0.083
-282.516	633.882	0.155	-0.392
-281.501	-58.670	-0.183	0.079
-280.486	-200.000	-0.047	0.320
-279.472	-23.784	-0.132	-0.079
-278.457	405.376	0.108	-0.227
-277.443	246.764	-0.144	-0.243
-276.428	-66.642	-0.187	0.074
-275.413	309.101	-0.098	-0.183
-274.399	255.822	-0.093	0.159
-273.384	18.057	0.340	0.271
-272.370	454.222	0.119	-0.264
-271.355	426.956	-0.105	-0.226
-270.340	641.493	-0.059	-0.149
-269.326	-24.887	0.199	0.118
-268.311	800.000	-0.031	-0.087
-267.297	37.181	-0.102	0.090
-266.282	-67.891	0.047	-0.019
-265.267	-14.437	-0.349	0.224
-264.253	765.739	0.069	-0.188
-263.238	9.276	-0.176	0.133
-262.224	135.776	0.131	-0.170
-261.209	800.000	0.056	0.159
-260.195	-86.677	0.178	0.054
-259.180	-180.502	0.154	-0.003
-258.165	-200.000	0.003	-0.055
-257.151	-124.927	-0.130	0.020
-256.136	65.283	0.152	-0.153
-255.122	-39.728	0.302	0.157
-254.107	-33.666	-0.039	-0.021
-253.092	132.975	-0.100	0.129
-252.078	-0.536	-0.171	0.121
-251.063	-46.454	0.176	0.086
-250.049	34.789	0.112	-0.098
-249.034	295.935	0.131	-0.240
-248.019	-32.159	0.160	-0.089
-247.005	221.071	-0.026	-0.042
-245.990	62.328	0.205	-0.204
-244.976	108.321	0.376	0.448
-243.961	-97.079	-0.160	0.042
-242.946	339.178	-0.095	-0.186
-241.932	800.000	0.139	-0.400
-240.917	502.435	-0.021	-0.048
-239.903	-102.852	0.176	-0.042
-238.888	-76.275	0.080	-0.028
-237.873	92.542	-0.027	0.031
-236.859	-61.890	0.206	-0.086
-235.844	-146.660	-0.359	0.031
-234.830	-91.083	0.066	-0.019
-233.815	626.249	-0.041	0.103
-232.800	-200.000	0.011	-0.051
-231.786	800.000	0.035	-0.138
-230.771	-6.588	0.138	0.094
-229.757	-57.799	0.270	0.118
-228.742	5.849	0.240	-0.177
-227.727	380.620	0.105	0.214
-226.713	53.109	0.073	0.070
-225.698	-91.570	0.178	0.050
-224.684	-200.000	-0.013	-0.248
-223.669	-200.000	-0.022	-0.129
-222.655	-123.104	-0.117	0.019
-221.640	-68.040	-0.103	0.040
-220.625	800.000	0.101	-0.409
-219.611	-13.917	-0.341	-0.220
-218.596	-35.541	0.278	-0.150
-217.582	175.458	0.258	-0.373
-216.567	-104.004	-0.464	-0.108
-215.552	719.755	0.078	-0.206
-214.538	8.584	-0.113	-0.085
-213.523	562.329	0.115	-0.277
-212.509	752.744	-0.043	-0.116
-211.494	800.000	0.088	0.317
-210.479	-200.000	0.012	-0.125
-209.465	-200.000	-0.010	-0.207
-208.450	-200.000	-0.015	0.292
-207.436	-87.379	0.091	-0.027
-206.421	-34.254	0.123	-0.067
-205.406	-81.290	-0.197	-0.065
-204.392	-71.233	0.129	0.048
-203.377	29.574	-0.072	0.061
-202.363	800.000	-0.071	0.234
-201.348	-57.260	-0.253	-0.111
-200.333	-69.705	-0.184	0.070
-199.319	-200.000	-0.032	-0.174
-198.304	-77.309	0.197	0.068
-197.290	44.002	0.250	0.228
-196.275	453.647	-0.088	-0.195
-195.260	353.369	0.052	-0.103
-194.246	800.000	0.041	-0.144
-193.231	-147.844	-0.252	0.021
-192.217	-56.224	0.146	-0.065
-191.202	-81.366	0.246	0.081
-190.187	32.456	0.263	-0.226
-189.173	374.993	0.137	-0.278
-188.158	96.487	0.234	-0.267
-187.144	-17.994	0.182	-0.114
-186.129	800.000	0.078	0.269
-185.114	-153.925	0.268	-0.018
-184.100	800.000	-0.117	-0.341
-183.085	-55.265	-0.247	-0.110
-182.071	13.999	-0.225	0.174
-181.056	175.542	-0.155	0.224
-180.042	348.027	-0.163	0.319
-179.027	-61.811	0.245	-0.102
-178.012	38.635	-0.097	0.086
-176.998	305.524	0.039	0.073
-175.983	800.000	0.054	-0.205
-174.969	56.502	-0.045	0.044
-173.954	-200.000	-0.018	0.258
-172.939	-69.630	0.080	-0.030
-171.925	-6.339	-0.400	0.272
-170.910	-76.048	-0.336	0.118
-169.896	-200.000	0.007	-0.095
-168.881	-200.000	-0.014	0.293
-167.866	-2.292	0.183	-0.128
-166.852	-100.482	-0.515	-0.127
-165.837	-51.453	0.175	-0.082
-164.823	-200.000	0.008	0.074
-163.808	196.430	-0.103	0.156
-162.793	-123.173	-0.085	0.014
-161.779	113.547	-0.092	0.111
-160.764	-116.445	-0.353	0.065
-159.750	-85.372	0.391	0.121
-158.735	166.950	-0.089	-0.125
-157.720	70.350	-0.035	0.036
-156.706	-160.117	0.156	-0.008
-155.691	70.575	0.060	-0.061
-154.677	800.000	-0.031	0.106
-153.662	800.000	-0.056	-0.155
-152.647	185.985	-0.043	0.064
-151.633	-200.000	0.013	0.115
-150.618	-154.613	-0.381	0.025
-149.604	25.719	-0.056	0.046
-148.589	-156.653	0.229	-0.014
-147.574	17.823	0.197	-0.156
-146.560	-100.421	-0.172	0.042
-145.545	133.020	0.079	0.102
-144.531	-44.297	0.188	0.094
-143.516	-5.321	0.132	-0.090
-142.502	800.000	-0.043	-0.185
-141.487	336.416	-0.124	-0.239
-140.472	-26.861	0.133	0.077
-139.458	-159.855	-0.189	-0.010
-138.443	-152.529	0.171	-0.012
-137.429	-108.370	0.270	-0.058
-136.414	-98.524	-0.277	0.070
-135.399	-200.000	0.000	0.013
-134.385	92.371	-0.093	0.104
-133.370	108.583	0.223	0.265
-132.356	-44.209	-0.073	0.036
-131.341	-142.307	0.283	-0.028
-130.326	-109.180	0.106	0.022
-129.312	69.069	0.076	0.077
-128.297	-200.000	0.005	-0.035
-127.283	-105.996	0.321	-0.072
-126.268	-47.246	0.227	-0.110
-125.253	800.000	0.048	0.157
-124.239	-87.522	0.300	0.090
-123.224	5.773	-0.168	0.123
-122.210	800.000	-0.043	-0.161
-121.195	96.356	0.139	0.158
