DTS Sentinel unit serial number:	SN413079Multiplexer serial number:	ORYXHardware model number:	OX4-SRSoftware version number:	ORYX F/W v4.00 Oryx Data Collector v3.7.2.0data status	okinstallation	princeton_trtdifferential loss correction	single-endedforward channel	channel 1reverse channel	N/Adate	2019/09/13time	20:50:35forward acquisition time	60.00reverse acquisition time	0.00gamma	496.2192k internal	0.2331k external	0.2331temperature offset calibration	1.0085default loss term (dB/km)	0.3790temperature slope calibration	1.0000multiplexer offset coefficient	1.0000multiplexer slope coefficient	1.0000fibre end	0.00T internal ref (°C)	28.75T ext. ref 1 (°C)	3.19T ext. ref 2 (°C)	23.27length (m)	temperature (°C)	Stokes	anti-Stokes-747.200	41.222	-0.332	0.302
-746.185	-52.088	-0.073	-0.034
-745.171	-34.514	0.378	-0.208
-744.156	-200.000	-0.003	0.203
-743.142	104.047	0.184	-0.218
-742.127	800.000	-0.063	0.274
-741.112	-200.000	0.018	-0.467
-740.098	800.000	-0.002	0.008
-739.083	734.204	-0.072	0.194
-738.069	32.901	-0.193	0.168
-737.054	-51.023	0.082	-0.039
-736.039	-114.059	-0.086	-0.017
-735.025	-98.565	0.279	0.072
-734.010	67.912	0.210	-0.217
-732.996	-200.000	0.005	-0.163
-731.981	-142.913	-0.119	-0.012
-730.966	-22.710	0.131	-0.080
-729.952	-112.007	-0.472	-0.096
-728.937	141.172	0.074	0.098
-727.923	-162.943	-0.409	0.020
-726.908	42.578	-0.203	0.185
-725.894	90.296	0.018	-0.020
-724.879	-25.403	-0.191	0.114
-723.864	27.325	0.054	0.046
-722.850	-71.764	-0.363	-0.136
-721.835	-200.000	0.015	0.176
-720.821	21.407	0.271	0.222
-719.806	305.991	0.028	0.053
-718.791	141.986	0.108	-0.143
-717.777	-200.000	0.021	0.095
-716.762	-111.980	0.081	-0.016
-715.748	-200.000	-0.080	0.378
-714.733	523.153	-0.068	-0.160
-713.718	-15.478	-0.164	-0.105
-712.704	57.689	-0.065	0.064
-711.689	-113.783	0.258	0.050
-710.675	-139.848	-0.217	0.023
-709.660	-26.996	0.171	-0.100
-708.645	29.586	-0.205	-0.176
-707.631	390.339	-0.107	-0.222
-706.616	-200.000	0.004	-0.187
-705.602	-53.349	-0.133	0.061
-704.587	-56.411	0.219	-0.098
-703.572	402.260	-0.081	0.171
-702.558	689.997	-0.156	-0.411
-701.543	-200.000	0.005	-0.306
-700.529	-81.259	0.251	-0.083
-699.514	-90.462	-0.050	0.015
-698.499	41.890	-0.156	-0.142
-697.485	-39.714	0.161	0.085
-696.470	800.000	0.180	0.656
-695.456	800.000	0.060	0.177
-694.441	-125.540	0.054	0.008
-693.426	800.000	0.040	0.156
-692.412	204.055	-0.185	-0.288
-691.397	-110.158	-0.254	-0.053
-690.383	-51.385	0.155	-0.073
-689.368	-200.000	0.013	-0.066
-688.354	-200.000	-0.008	0.101
-687.339	-8.062	0.075	0.051
-686.324	-62.738	-0.422	-0.176
-685.310	-9.452	-0.063	-0.042
-684.295	800.000	0.081	-0.334
-683.281	26.706	-0.317	0.267
-682.266	23.173	-0.185	-0.152
-681.251	75.055	0.032	0.034
-680.237	24.080	-0.110	0.091
-679.222	590.872	0.049	-0.122
-678.208	-115.057	-0.534	-0.102
-677.193	-28.470	0.242	-0.140
-676.178	-90.814	-0.171	0.050
-675.164	-200.000	-0.014	-0.184
-674.149	800.000	0.158	0.619
-673.135	-72.177	0.389	-0.145
-672.120	23.817	0.140	0.116
-671.105	238.054	0.061	-0.102
-670.091	-32.039	-0.048	-0.027
-669.076	205.146	0.022	-0.034
-668.062	-91.185	-0.273	-0.079
-667.047	253.617	0.117	-0.200
-666.032	123.293	0.125	0.157
-665.018	-200.000	-0.057	0.424
-664.003	9.498	-0.155	0.118
-662.989	-63.613	0.324	0.133
-661.974	-122.387	0.037	-0.006
-660.959	105.446	-0.123	-0.146
-659.945	102.402	0.172	-0.202
-658.930	126.044	-0.185	-0.235
-657.916	155.892	0.281	0.389
-656.901	-119.341	-0.014	-0.002
-655.886	-80.994	-0.108	0.036
-654.872	-200.000	-0.092	0.000
-653.857	275.955	-0.049	-0.087
-652.843	-6.631	0.106	-0.072
-651.828	21.879	-0.157	0.129
-650.814	40.045	-0.137	-0.124
-649.799	-200.000	0.021	-0.245
-648.784	-46.759	0.036	-0.018
-647.770	-200.000	-0.002	-0.340
-646.755	70.434	0.094	-0.098
-645.741	654.735	0.093	-0.240
-644.726	610.486	0.071	0.178
-643.711	461.339	0.093	-0.209
-642.697	-145.579	0.141	0.013
-641.682	-85.286	-0.247	-0.077
-640.668	-74.926	0.355	-0.128
-639.653	800.000	-0.038	-0.115
-638.638	6.370	-0.140	-0.104
-637.624	-145.346	0.174	-0.016
-636.609	-200.000	0.069	-0.315
-635.595	46.955	0.154	-0.143
-634.580	800.000	-0.025	0.096
-633.565	-122.240	0.386	0.063
-632.551	-159.785	0.182	0.010
-631.536	495.531	0.068	0.157
-630.522	-97.331	0.339	0.088
-629.507	-31.823	0.203	0.114
-628.492	129.592	0.076	0.097
-627.478	-83.517	0.225	-0.072
-626.463	-97.009	-0.146	-0.038
-625.449	-47.632	-0.121	0.059
-624.434	-200.000	0.011	0.079
-623.419	773.968	0.105	0.286
-622.405	-200.000	0.013	0.370
-621.390	-200.000	0.013	-0.129
-620.376	-131.776	-0.248	-0.033
-619.361	142.283	0.012	0.016
-618.346	800.000	0.030	0.102
-617.332	-31.695	-0.392	-0.220
-616.317	66.675	-0.091	-0.093
-615.303	-124.700	0.189	-0.029
-614.288	-2.560	0.250	0.175
-613.273	-70.624	0.198	-0.075
-612.259	800.000	-0.062	-0.181
-611.244	-2.137	0.134	-0.094
-610.230	800.000	-0.073	0.274
-609.215	-141.441	0.293	-0.030
-608.201	-46.433	-0.062	-0.031
-607.186	-12.176	0.117	-0.077
-606.171	-128.579	-0.173	-0.025
-605.157	34.334	-0.251	0.220
-604.142	-115.978	-0.139	0.026
-603.128	-200.000	-0.033	-0.184
-602.113	45.598	0.071	-0.065
-601.098	-83.504	0.208	0.067
-600.084	-83.123	0.124	0.040
-599.069	13.478	0.139	-0.108
-598.055	-162.059	-0.260	-0.013
-597.040	50.369	0.125	0.118
-596.025	342.953	0.043	0.085
-595.011	39.590	-0.146	-0.131
-593.996	-146.219	0.308	0.027
-592.982	99.871	0.165	-0.192
-591.967	-89.212	-0.227	0.067
-590.952	210.362	0.021	0.034
-589.938	47.889	-0.055	-0.052
-588.923	-66.423	0.178	0.071
-587.909	135.208	-0.090	-0.117
-586.894	-79.140	-0.225	0.076
-585.879	274.570	-0.042	0.074
-584.865	19.960	0.214	-0.173
-583.850	-115.878	0.080	-0.015
-582.836	50.344	-0.055	0.052
-581.821	-53.019	-0.122	-0.056
-580.806	-43.908	-0.136	0.068
-579.792	-83.929	0.282	-0.090
-578.777	-200.000	-0.028	0.129
-577.763	107.091	-0.265	0.315
-576.748	-77.583	0.145	0.050
-575.733	-128.890	-0.194	0.027
-574.719	108.756	-0.109	-0.130
-573.704	-200.000	-0.006	0.037
-572.690	-52.830	0.184	0.085
-571.675	34.732	-0.181	0.158
-570.661	-75.008	0.059	0.021
-569.646	90.414	0.178	0.199
-568.631	-157.389	0.217	-0.013
-567.617	-121.872	0.039	-0.006
-566.602	-200.000	-0.058	-0.261
-565.588	325.779	-0.123	-0.234
-564.573	212.991	0.085	0.134
-563.558	-200.000	-0.061	-0.418
-562.544	-102.353	-0.300	-0.072
-561.529	89.152	-0.130	0.144
-560.515	463.955	-0.032	0.071
-559.500	284.425	0.042	0.076
-558.485	167.203	0.126	0.178
-557.471	-200.000	-0.002	0.061
-556.456	297.537	0.049	0.091
-555.442	9.949	-0.164	0.125
-554.427	-108.443	0.470	-0.101
-553.412	800.000	-0.041	0.141
-552.398	185.036	-0.188	-0.279
-551.383	-4.645	-0.096	0.066
-550.369	-200.000	-0.006	-0.160
-549.354	-200.000	0.028	0.227
-548.339	84.061	-0.107	-0.116
-547.325	188.559	-0.108	-0.161
-546.310	151.704	-0.050	0.069
-545.296	800.000	-0.044	0.178
-544.281	129.258	-0.125	0.160
-543.266	-77.595	0.132	0.046
-542.252	3.839	0.364	0.266
-541.237	255.269	0.125	-0.213
-540.223	489.327	-0.133	-0.304
-539.208	27.034	-0.216	0.181
-538.193	-200.000	0.032	0.289
-537.179	57.964	0.157	-0.153
-536.164	345.442	0.073	0.143
-535.150	-140.814	-0.383	-0.039
-534.135	92.146	0.225	0.253
-533.121	-200.000	0.017	0.260
-532.106	112.356	0.060	0.073
-531.091	614.820	-0.079	0.198
-530.077	203.584	0.144	0.223
-529.062	254.349	0.027	0.046
-528.048	800.000	-0.025	-0.101
-527.033	20.761	0.296	-0.239
-526.018	39.094	-0.330	-0.295
-525.004	373.271	0.030	-0.061
-523.989	-126.153	-0.270	0.040
-522.975	-200.000	0.006	-0.259
-521.960	302.171	0.150	0.276
-520.945	19.394	0.088	-0.071
-519.931	-53.498	-0.144	0.066
-518.916	-54.565	-0.190	-0.086
-517.902	-92.102	0.163	-0.046
-516.887	-53.722	-0.158	-0.072
-515.872	-200.000	-0.015	0.125
-514.858	-58.622	0.241	-0.104
-513.843	-200.000	-0.040	0.313
-512.829	-26.726	0.217	-0.126
-511.814	-200.000	-0.080	0.469
-510.799	-38.537	0.213	0.112
-509.785	109.778	-0.029	-0.035
-508.770	338.991	0.060	-0.116
-507.756	185.072	0.253	-0.374
-506.741	-189.697	-0.446	-0.005
-505.726	-147.736	-0.305	0.026
-504.712	-13.333	-0.201	0.130
-503.697	129.715	0.143	0.182
-502.683	767.830	0.090	0.245
-501.668	-98.738	0.173	-0.044
-500.653	-152.338	-0.074	0.005
-499.639	-96.135	0.087	0.023
-498.624	78.307	-0.190	-0.202
-497.610	-148.111	-0.237	-0.020
-496.595	-200.000	0.030	0.200
-495.581	81.501	0.108	-0.116
-494.566	-77.073	-0.139	0.048
-493.551	-119.629	-0.236	-0.041
-492.537	-151.436	-0.323	-0.024
-491.522	488.042	0.154	0.351
-490.508	800.000	-0.017	-0.060
-489.493	-123.003	-0.389	-0.062
-488.478	14.012	0.062	-0.048
-487.464	-200.000	0.008	-0.059
-486.449	95.962	0.336	0.383
-485.435	-141.430	-0.310	-0.031
-484.420	104.380	-0.201	-0.235
-483.405	-30.757	-0.173	-0.098
-482.391	-49.145	-0.101	-0.048
-481.376	598.014	-0.023	0.056
-480.362	-200.000	-0.019	0.125
-479.347	12.670	0.065	0.050
-478.332	800.000	-0.021	-0.073
-477.318	-58.384	0.083	-0.036
-476.303	37.129	0.237	-0.209
-475.289	-200.000	0.034	-0.215
-474.274	98.023	-0.051	0.058
-473.259	-73.534	-0.167	-0.061
-472.245	-22.427	0.174	0.105
-471.230	-2.294	-0.368	-0.257
-470.216	104.508	0.267	-0.314
-469.201	59.056	0.172	-0.168
-468.186	-200.000	-0.062	-0.323
-467.172	62.205	-0.281	0.279
-466.157	84.928	0.217	0.237
-465.143	52.006	-0.200	-0.189
-464.128	-132.119	0.047	0.006
-463.113	800.000	0.027	0.092
-462.099	1.319	-0.404	-0.289
-461.084	173.946	0.133	-0.191
-460.070	-167.396	-0.154	-0.006
-459.055	39.731	-0.123	0.110
-458.040	-125.723	-0.139	0.021
-457.026	116.866	-0.049	0.060
-456.011	406.567	0.094	0.197
-454.997	-65.027	-0.110	-0.044
-453.982	-160.676	0.279	0.015
-452.968	-18.803	0.145	-0.090
-451.953	800.000	-0.092	-0.294
-450.938	-200.000	0.017	0.127
-449.924	-75.507	-0.294	0.104
-448.909	246.249	0.342	0.574
-447.895	91.166	-0.386	-0.431
-446.880	171.071	-0.172	0.245
-445.865	-22.800	-0.325	-0.195
-444.851	732.141	-0.058	-0.154
-443.836	204.706	-0.120	-0.185
-442.822	-89.448	0.247	-0.072
-441.807	-114.774	-0.097	-0.018
-440.792	59.550	0.012	0.011
-439.778	579.635	-0.055	-0.135
-438.763	-38.335	-0.213	-0.112
-437.749	-200.000	-0.005	-0.506
-436.734	-121.330	-0.226	0.037
-435.719	-29.867	0.229	0.130
-434.705	15.092	0.088	0.068
-433.690	-141.814	0.211	-0.021
-432.676	-144.246	-0.203	0.019
-431.661	800.000	0.039	0.151
-430.646	221.396	0.022	0.035
-429.632	-187.252	-0.150	0.002
-428.617	-6.249	-0.083	0.056
-427.603	800.000	0.049	0.184
-426.588	-200.000	-0.002	0.197
-425.573	-200.000	0.006	-0.084
-424.559	-95.639	0.094	0.025
-423.544	772.298	-0.142	-0.385
-422.530	-179.185	-0.295	-0.007
-421.515	-200.000	-0.009	-0.084
-420.500	-200.000	-0.003	-0.113
-419.486	-200.000	0.065	0.338
-418.471	-130.185	0.346	0.047
-417.457	-200.000	-0.008	-0.165
-416.442	-29.301	0.152	-0.087
-415.428	5.471	-0.324	-0.238
-414.413	-95.232	-0.165	-0.044
-413.398	-200.000	0.037	0.404
-412.384	82.395	0.075	-0.081
-411.369	800.000	-0.031	-0.132
-410.355	115.568	0.151	-0.184
-409.340	287.527	-0.110	-0.198
-408.325	-100.511	-0.246	0.061
-407.311	306.762	0.176	-0.325
-406.296	-144.286	-0.056	0.005
-405.282	-69.379	0.380	0.145
-404.267	800.000	-0.014	0.051
-403.252	201.890	0.109	0.167
-402.238	800.000	-0.071	0.282
-401.223	70.177	0.048	-0.049
-400.209	-103.063	0.389	0.092
-399.194	45.497	0.103	0.094
-398.179	47.260	-0.168	0.156
-397.165	-200.000	0.024	0.121
-396.150	-106.372	0.297	0.066
-395.136	562.739	-0.123	0.297
-394.121	800.000	-0.067	0.203
-393.106	800.000	-0.082	0.308
-392.092	3.482	0.075	0.054
-391.077	122.447	-0.074	0.092
-390.063	-83.538	-0.093	-0.030
-389.048	151.786	0.126	0.171
-388.033	-127.487	-0.282	0.041
-387.019	141.296	-0.053	0.070
-386.004	-200.000	-0.006	0.078
-384.990	179.180	-0.110	0.159
-383.975	-200.000	0.023	-0.250
-382.960	-5.155	-0.243	-0.166
-381.946	-200.000	0.020	-0.144
-380.931	-81.981	-0.428	0.139
-379.917	800.000	0.110	-0.459
-378.902	800.000	-0.111	-0.427
-377.888	800.000	-0.024	-0.087
-376.873	-62.285	0.190	0.078
-375.858	581.517	0.078	0.189
-374.844	800.000	0.071	0.246
-373.829	-128.862	0.110	0.015
-372.815	-200.000	0.004	-0.052
-371.800	-8.078	0.080	0.054
-370.785	-200.000	0.060	-0.413
-369.771	-74.909	-0.189	-0.067
-368.756	-78.237	0.293	-0.100
-367.742	-49.318	0.166	0.079
-366.727	439.569	0.062	-0.133
-365.712	36.642	-0.070	0.061
-364.698	201.143	-0.072	-0.109
-363.683	192.708	0.233	0.349
-362.669	-108.379	-0.215	-0.046
-361.654	800.000	0.112	0.355
-360.639	23.956	-0.031	-0.026
-359.625	427.020	-0.015	0.032
-358.610	120.519	-0.054	-0.066
-357.596	214.006	0.125	0.196
-356.581	-57.707	-0.193	-0.084
-355.566	12.019	-0.323	-0.246
-354.552	331.760	0.137	0.262
-353.537	-150.528	0.241	0.018
-352.523	385.255	-0.101	0.207
-351.508	303.214	-0.078	-0.143
-350.493	43.029	-0.109	-0.098
-349.479	92.395	-0.236	-0.263
-348.464	70.370	0.015	0.015
-347.450	-74.464	-0.057	0.020
-346.435	-162.408	0.237	0.012
-345.420	-121.320	-0.297	0.049
-344.406	-52.336	-0.037	0.017
-343.391	140.972	0.144	-0.189
-342.377	-14.347	-0.228	-0.146
-341.362	-25.416	0.357	0.209
-340.348	-126.521	-0.156	-0.023
-339.333	-77.835	0.127	0.043
-338.318	800.000	-0.019	-0.065
-337.304	16.676	0.115	-0.090
-336.289	292.157	0.188	0.339
-335.275	-181.529	-0.093	0.002
-334.260	-124.522	-0.188	0.029
-333.245	800.000	0.031	-0.120
-332.231	800.000	0.051	-0.218
-331.216	11.897	-0.126	-0.096
-330.202	331.481	0.151	0.289
-329.187	-200.000	0.067	-0.394
-328.172	800.000	0.059	0.241
-327.158	-86.426	-0.071	-0.022
-326.143	561.218	0.105	0.252
-325.129	533.853	-0.098	0.230
-324.114	65.053	0.235	0.235
-323.099	-115.689	-0.129	-0.024
-322.085	-183.564	0.090	-0.002
-321.070	-200.000	0.002	0.180
-320.056	-200.000	-0.037	-0.344
-319.041	-200.000	0.046	-0.256
-318.026	-67.252	-0.223	0.087
-317.012	47.207	0.239	0.220
-315.997	-137.911	0.357	0.039
-314.983	-200.000	-0.026	-0.205
-313.968	-200.000	-0.055	0.320
-312.953	-76.712	0.296	0.103
-311.939	-18.476	0.146	-0.090
-310.924	19.038	-0.278	-0.221
-309.910	206.496	-0.061	0.095
-308.895	-85.791	-0.143	-0.044
-307.880	175.683	0.181	0.260
-306.866	-38.763	0.083	-0.043
-305.851	-1.664	-0.342	-0.238
-304.837	800.000	0.066	0.192
-303.822	-82.943	-0.145	-0.046
-302.807	-127.662	0.184	-0.026
-301.793	-49.243	-0.303	-0.143
-300.778	64.005	0.216	-0.215
-299.764	800.000	0.061	-0.198
-298.749	-71.543	0.284	-0.105
-297.735	800.000	0.042	-0.176
-296.720	-167.760	0.235	-0.009
-295.705	-158.142	-0.140	0.008
-294.691	284.459	0.129	0.230
-293.676	136.231	0.108	-0.139
-292.662	208.808	-0.143	0.221
-291.647	40.084	-0.217	-0.193
-290.632	-200.000	0.067	-0.365
-289.618	101.556	0.086	0.099
-288.603	512.298	-0.188	-0.434
-287.589	94.743	0.182	-0.204
-286.574	-31.187	-0.132	-0.073
-285.559	-92.266	0.235	-0.066
-284.545	18.468	0.063	-0.050
-283.530	-92.900	0.247	0.068
-282.516	800.000	-0.026	0.107
-281.501	-200.000	-0.044	0.304
-280.486	-142.363	0.297	-0.029
-279.472	-121.234	0.309	0.051
-278.457	-200.000	0.009	0.225
-277.443	90.222	0.114	-0.126
-276.428	-73.701	-0.284	0.102
-275.413	800.000	0.022	-0.092
-274.399	514.260	-0.067	0.153
-273.384	-44.006	0.280	0.139
-272.370	-200.000	0.001	0.022
-271.355	137.037	0.300	-0.388
-270.340	-37.419	-0.253	0.133
-269.326	521.485	-0.092	0.213
-268.311	-200.000	-0.010	-0.130
-267.297	-1.093	0.128	0.089
-266.282	590.712	0.157	-0.381
-265.267	-200.000	-0.026	-0.222
-264.253	317.113	0.081	0.150
-263.238	-200.000	0.024	0.294
-262.224	800.000	0.079	0.225
-261.209	-67.766	-0.230	-0.089
-260.195	-116.488	-0.056	-0.010
-259.180	800.000	-0.059	0.224
-258.165	302.880	-0.022	-0.041
-257.151	4.707	-0.140	-0.102
-256.136	-104.484	-0.358	0.082
-255.122	-145.034	-0.041	0.004
-254.107	25.402	0.250	0.205
-253.092	-138.645	-0.045	0.005
-252.078	-153.242	-0.331	-0.023
-251.063	160.427	-0.089	-0.122
-250.049	210.178	-0.104	0.162
-249.034	-116.787	0.114	0.021
-248.019	-73.258	0.093	0.034
-247.005	-200.000	0.005	-0.145
-245.990	79.728	0.070	-0.075
-244.976	126.939	-0.106	-0.133
-243.961	450.190	0.146	-0.318
-242.946	-32.149	-0.161	0.089
-241.932	101.047	0.150	-0.172
-240.917	-136.481	-0.355	-0.041
-239.903	-90.505	0.106	0.030
-238.888	-162.549	0.246	0.012
-237.873	-134.752	-0.100	-0.012
-236.859	152.338	0.270	-0.364
-235.844	800.000	0.049	0.212
-234.830	325.579	0.113	-0.214
-233.815	-60.931	0.318	0.133
-232.800	-76.223	0.329	0.114
-231.786	222.785	-0.061	-0.097
-230.771	-7.804	-0.162	0.108
-229.757	-200.000	-0.069	0.298
-228.742	-177.623	-0.165	0.004
-227.727	133.945	-0.244	0.311
-226.713	-20.659	0.179	0.109
-225.698	-86.004	-0.188	0.057
-224.684	165.685	-0.191	-0.267
-223.669	-200.000	-0.011	-0.051
-222.655	-200.000	-0.006	0.033
-221.640	-94.544	0.242	0.065
-220.625	-142.042	0.227	-0.022
-219.611	800.000	-0.057	-0.238
-218.596	16.984	-0.374	0.292
-217.582	139.617	0.154	0.201
-216.567	75.537	0.183	0.190
-215.552	367.644	-0.017	-0.034
-214.538	-15.708	-0.228	-0.143
-213.523	-200.000	0.025	-0.148
-212.509	-36.120	-0.200	0.107
-211.494	52.806	0.117	-0.111
-210.479	-87.606	0.405	0.121
-209.465	-68.737	-0.221	-0.084
-208.450	-146.850	0.057	0.005
-207.436	79.931	-0.109	-0.115
-206.421	602.098	-0.029	0.071
-205.406	400.750	-0.173	0.358
-204.392	-89.323	-0.195	-0.057
-203.377	-131.971	0.036	0.005
-202.363	-43.080	0.073	-0.036
-201.348	31.207	-0.347	-0.294
-200.333	-58.506	0.422	-0.180
-199.319	126.551	-0.052	-0.065
-198.304	800.000	0.066	0.270
-197.290	-32.937	0.174	-0.095
-196.275	141.429	-0.158	-0.206
-195.260	-132.249	-0.221	-0.028
-194.246	49.933	0.155	-0.144
-193.231	-136.901	-0.098	0.011
-192.217	426.242	0.115	0.244
-191.202	-158.641	-0.100	-0.006
-190.187	-113.902	-0.108	0.021
-189.173	16.435	-0.074	0.058
-188.158	85.297	-0.112	0.121
-187.144	-27.226	-0.055	-0.031
-186.129	-200.000	0.017	-0.168
-185.114	-200.000	-0.009	-0.304
-184.100	207.483	0.162	-0.250
-183.085	800.000	-0.058	-0.234
-182.071	12.447	-0.308	-0.234
-181.056	-77.136	-0.099	0.034
-180.042	207.282	0.107	0.165
-179.027	-200.000	-0.056	-0.268
-178.012	-109.197	0.228	0.048
-176.998	-182.990	-0.169	0.003
-175.983	340.598	0.176	0.338
-174.969	-49.611	-0.086	0.040
-173.954	-20.591	0.132	0.080
-172.939	-136.145	-0.127	-0.015
-171.925	-191.132	0.184	0.002
-170.910	357.902	-0.075	-0.147
-169.896	402.981	0.015	0.032
-168.881	788.108	-0.097	0.261
-167.866	691.513	0.143	0.369
-166.852	358.652	-0.100	-0.196
-165.837	218.718	-0.106	0.166
-164.823	247.628	-0.127	0.211
-163.808	127.920	-0.197	0.246
-162.793	597.392	-0.133	0.325
-161.779	128.354	-0.092	-0.115
-160.764	331.461	-0.052	0.098
-159.750	434.936	0.104	0.222
-158.735	-200.000	0.030	0.244
-157.720	-200.000	-0.028	0.125
-156.706	6.105	-0.203	-0.148
-155.691	800.000	0.063	-0.209
-154.677	-200.000	-0.016	-0.150
-153.662	246.998	0.193	-0.320
-152.647	-27.962	0.345	0.196
-151.633	-121.240	0.122	0.020
-150.618	-56.328	0.108	0.047
-149.604	293.072	-0.090	0.161
-148.589	-48.588	0.168	0.079
-147.574	361.591	0.077	0.152
-146.560	255.446	0.055	0.093
-145.545	166.991	-0.034	0.048
-144.531	114.795	0.077	0.093
-143.516	169.666	-0.027	-0.038
-142.502	539.343	-0.070	0.163
-141.487	-141.052	-0.089	-0.009
-140.472	-90.562	0.389	-0.111
-139.458	-57.673	-0.391	0.168
-138.443	-108.623	0.276	-0.058
-137.429	-200.000	-0.050	0.373
-136.414	142.790	-0.053	0.069
-135.399	-200.000	-0.005	-0.406
-134.385	-200.000	-0.009	-0.073
-133.370	-165.530	0.407	-0.017
-132.356	-7.954	-0.312	0.207
-131.341	-167.547	0.134	-0.005
-130.326	-200.000	-0.017	-0.102
-129.312	-5.087	-0.127	-0.086
-128.297	194.983	0.138	-0.205
-127.283	119.809	-0.039	-0.047
-126.268	381.999	0.008	0.016
-125.253	73.407	-0.113	-0.117
-124.239	-200.000	0.063	0.403
-123.224	-200.000	0.014	0.153
-122.210	-15.475	-0.049	-0.031
-121.195	246.580	-0.093	-0.154
