DTS Sentinel unit serial number:	SN413079Multiplexer serial number:	ORYXHardware model number:	OX4-SRSoftware version number:	ORYX F/W v4.00 Oryx Data Collector v3.7.2.0data status	okinstallation	princeton_trtdifferential loss correction	single-endedforward channel	channel 1reverse channel	N/Adate	2019/09/13time	05:46:35forward acquisition time	60.00reverse acquisition time	0.00gamma	496.2192k internal	0.2335k external	0.2335temperature offset calibration	1.0156default loss term (dB/km)	0.3790temperature slope calibration	1.0000multiplexer offset coefficient	1.0000multiplexer slope coefficient	1.0000fibre end	0.00T internal ref (°C)	26.19T ext. ref 1 (°C)	4.05T ext. ref 2 (°C)	20.91length (m)	temperature (°C)	Stokes	anti-Stokes-747.200	-87.704	0.230	0.070
-746.185	-200.000	-0.017	0.084
-745.171	195.264	-0.034	0.051
-744.156	5.973	-0.115	0.086
-743.142	250.500	0.162	0.277
-742.127	800.000	0.085	0.333
-741.112	-85.566	0.399	-0.125
-740.098	-200.000	0.074	0.524
-739.083	325.472	-0.084	0.161
-738.069	800.000	0.081	0.344
-737.054	44.539	0.229	0.212
-736.039	-61.184	-0.290	0.123
-735.025	-200.000	-0.011	-0.132
-734.010	22.405	0.156	0.128
-732.996	108.887	0.140	-0.168
-731.981	-200.000	-0.042	0.191
-730.966	-132.383	0.330	-0.043
-729.952	800.000	0.070	0.226
-728.937	83.051	0.167	-0.182
-727.923	37.006	-0.210	-0.186
-726.908	-118.731	-0.234	0.041
-725.894	-47.571	0.166	0.081
-724.879	473.174	0.129	0.291
-723.864	183.880	-0.092	-0.136
-722.850	-54.783	0.170	-0.077
-721.835	371.272	0.137	-0.280
-720.821	-145.466	0.038	-0.003
-719.806	227.523	-0.128	-0.209
-718.791	-85.976	-0.196	-0.061
-717.777	6.541	0.145	0.108
-716.762	-180.516	0.284	0.006
-715.748	-111.018	-0.156	0.032
-714.733	-35.827	-0.149	0.081
-713.718	-200.000	-0.034	0.388
-712.704	-95.734	0.373	-0.100
-711.689	41.450	-0.265	0.241
-710.675	-100.350	-0.271	0.067
-709.660	577.676	0.053	-0.130
-708.645	123.096	0.106	0.134
-707.631	-155.568	0.179	0.012
-706.616	67.773	0.173	-0.178
-705.602	-103.269	-0.167	0.039
-704.587	-48.967	0.082	0.039
-703.572	800.000	-0.030	-0.095
-702.558	-200.000	-0.003	-0.048
-701.543	54.256	-0.123	0.118
-700.529	20.246	-0.266	-0.215
-699.514	13.247	0.125	-0.097
-698.499	104.998	-0.026	0.030
-697.485	-200.000	-0.056	0.328
-696.470	-200.000	0.030	0.298
-695.456	-7.579	-0.064	0.043
-694.441	-184.913	0.100	0.002
-693.426	-150.708	0.189	0.014
-692.412	161.700	0.182	-0.255
-691.397	-86.927	-0.193	0.059
-690.383	800.000	0.064	0.273
-689.368	-82.835	0.208	0.067
-688.354	-74.814	-0.250	-0.090
-687.339	-200.000	0.228	0.000
-686.324	-200.000	0.013	0.207
-685.310	-200.000	-0.066	-0.388
-684.295	19.133	-0.370	-0.298
-683.281	43.432	0.321	0.294
-682.266	-60.487	-0.205	0.087
-681.251	-51.526	0.129	0.061
-680.237	-47.058	0.078	0.038
-679.222	-200.000	0.038	-0.345
-678.208	351.198	0.151	-0.299
-677.193	250.345	-0.064	-0.109
-676.178	-32.529	-0.468	-0.261
-675.164	111.484	-0.086	0.105
-674.149	-171.523	-0.056	0.002
-673.135	-69.329	-0.162	0.062
-672.120	-2.238	-0.079	-0.055
-671.105	-72.493	0.075	-0.028
-670.091	446.070	0.095	-0.209
-669.076	234.941	0.105	0.174
-668.062	339.552	-0.090	0.175
-667.047	51.891	-0.190	0.181
-666.032	-200.000	-0.073	-0.358
-665.018	-75.880	0.354	-0.125
-664.003	37.808	-0.214	0.191
-662.989	-200.000	-0.010	-0.103
-661.974	-200.000	0.234	0.001
-660.959	208.437	-0.100	-0.157
-659.945	88.235	0.146	-0.162
-658.930	-56.088	0.119	-0.053
-657.916	-57.001	-0.167	0.074
-656.901	800.000	0.052	0.205
-655.886	-200.000	-0.018	0.217
-654.872	-163.951	-0.032	0.001
-653.857	-146.269	0.266	-0.023
-652.843	-137.986	0.126	0.014
-651.828	46.671	-0.050	-0.047
-650.814	-200.000	-0.046	-0.311
-649.799	-200.000	0.037	-0.182
-648.784	-22.365	-0.390	-0.236
-647.770	-91.326	-0.088	0.025
-646.755	-95.940	0.068	-0.018
-645.741	19.561	0.265	0.213
-644.726	-172.445	-0.098	-0.003
-643.711	-200.000	-0.054	-0.404
-642.697	14.358	0.229	-0.179
-641.682	546.393	0.137	-0.327
-640.668	376.014	0.056	-0.114
-639.653	77.056	-0.116	-0.124
-638.638	-8.188	0.178	-0.120
-637.624	78.017	0.115	0.123
-636.609	-200.000	-0.059	-0.443
-635.595	21.598	0.097	0.079
-634.580	-27.592	0.136	0.079
-633.565	-52.704	-0.235	0.108
-632.551	800.000	0.106	-0.357
-631.536	19.633	-0.098	0.079
-630.522	-79.313	-0.072	-0.024
-629.507	67.518	0.139	0.142
-628.492	-68.847	-0.114	-0.044
-627.478	-72.082	-0.449	-0.167
-626.463	-100.504	-0.116	-0.029
-625.449	-117.704	-0.076	-0.014
-624.434	800.000	0.045	-0.133
-623.419	-65.435	-0.105	-0.042
-622.405	800.000	-0.026	0.098
-621.390	124.716	0.023	0.029
-620.376	800.000	0.092	-0.295
-619.361	800.000	0.045	-0.163
-618.346	118.317	-0.234	-0.288
-617.332	15.803	-0.323	0.254
-616.317	-200.000	-0.032	-0.170
-615.303	330.285	-0.023	-0.045
-614.288	-200.000	-0.055	-0.381
-613.273	63.669	-0.132	-0.133
-612.259	-162.242	-0.244	0.012
-611.244	800.000	-0.023	0.071
-610.230	800.000	0.120	-0.385
-609.215	-49.716	0.281	-0.133
-608.201	-164.581	0.203	0.009
-607.186	31.319	-0.195	0.167
-606.171	-51.366	-0.316	0.148
-605.157	278.856	-0.053	-0.094
-604.142	193.670	0.132	0.200
-603.128	-147.055	-0.234	0.020
-602.113	136.173	0.171	-0.222
-601.098	71.329	0.246	-0.255
-600.084	-61.424	-0.337	0.142
-599.069	-35.679	0.218	-0.118
-598.055	214.337	-0.051	-0.080
-597.040	-43.904	0.355	0.178
-596.025	-48.652	0.349	-0.167
-595.011	-179.140	0.076	-0.002
-593.996	-143.057	0.272	-0.026
-592.982	-139.671	-0.209	-0.022
-591.967	71.825	-0.144	-0.149
-590.952	144.835	-0.014	-0.019
-589.938	374.642	-0.199	-0.405
-588.923	-104.240	0.288	0.067
-587.909	15.707	0.124	-0.097
-586.894	119.966	0.139	-0.172
-585.879	-4.798	-0.255	-0.176
-584.865	-33.240	-0.068	0.037
-583.850	-181.094	-0.222	-0.004
-582.836	-200.000	0.027	0.603
-581.821	286.388	-0.197	0.355
-580.806	800.000	-0.027	-0.076
-579.792	-166.425	-0.134	-0.006
-578.777	-26.873	0.289	-0.169
-577.763	244.783	-0.049	-0.082
-576.748	-33.685	0.216	0.119
-575.733	-135.846	-0.195	-0.023
-574.719	116.960	-0.236	-0.290
-573.704	-101.240	0.167	-0.041
-572.690	148.832	0.075	0.101
-571.675	-200.000	-0.021	-0.148
-570.661	-65.484	0.211	0.085
-569.646	-108.275	0.132	0.029
-568.631	-86.178	-0.047	0.014
-567.617	321.816	-0.061	0.115
-566.602	-200.000	-0.015	-0.117
-565.588	800.000	0.105	0.322
-564.573	164.371	0.081	0.113
-563.558	-200.000	0.002	0.015
-562.544	200.555	0.176	0.271
-561.529	639.435	0.053	-0.135
-560.515	275.935	0.162	-0.286
-559.500	107.717	-0.252	0.299
-558.485	-44.028	-0.252	-0.126
-557.471	-107.414	0.197	-0.043
-556.456	-155.938	-0.200	-0.013
-555.442	-64.091	-0.268	0.109
-554.427	500.582	-0.065	-0.150
-553.412	3.443	0.196	0.142
-552.398	257.488	-0.102	-0.175
-551.383	292.850	0.040	-0.073
-550.369	298.758	0.069	-0.127
-549.354	-200.000	-0.024	-0.104
-548.339	800.000	-0.072	-0.216
-547.325	-60.297	0.416	-0.176
-546.310	457.680	0.180	-0.399
-545.296	-131.841	-0.080	0.010
-544.281	-53.586	-0.175	-0.080
-543.266	-21.154	0.034	-0.020
-542.252	-177.825	0.269	-0.006
-541.237	-38.043	0.115	0.061
-540.223	-5.611	-0.034	0.024
-539.208	-68.077	0.488	-0.189
-538.193	-84.460	-0.512	-0.161
-537.179	-10.575	0.221	0.146
-536.164	-19.558	0.225	-0.139
-535.150	214.012	-0.075	-0.119
-534.135	677.206	-0.027	-0.070
-533.121	-135.195	-0.279	-0.033
-532.106	601.657	0.075	0.186
-531.091	580.780	0.088	0.216
-530.077	14.988	0.077	0.060
-529.062	-60.229	-0.353	-0.150
-528.048	-200.000	-0.019	0.237
-527.033	-135.849	-0.217	0.026
-526.018	-136.716	-0.252	-0.029
-525.004	-195.264	-0.137	-0.001
-523.989	-103.566	-0.106	-0.025
-522.975	239.395	0.230	0.381
-521.960	-167.106	-0.228	-0.009
-520.945	43.799	0.442	0.403
-519.931	800.000	0.034	0.113
-518.916	-200.000	-0.218	0.001
-517.902	147.094	-0.186	0.250
-516.887	-68.610	0.239	-0.092
-515.872	-200.000	0.038	0.167
-514.858	-181.179	-0.217	-0.004
-513.843	16.605	0.138	-0.108
-512.829	-62.045	0.300	-0.125
-511.814	-105.732	-0.247	0.056
-510.799	287.643	0.136	0.245
-509.785	-98.703	0.291	0.074
-508.770	800.000	0.018	-0.054
-507.756	-200.000	-0.233	-0.001
-506.741	13.642	-0.235	-0.182
-505.726	-93.099	-0.199	-0.055
-504.712	-38.744	-0.070	0.037
-503.697	-36.277	0.259	-0.139
-502.683	230.927	-0.072	-0.116
-501.668	187.448	0.066	-0.098
-500.653	126.262	-0.247	0.311
-499.639	-31.858	0.243	-0.136
-498.624	-123.188	0.318	-0.051
-497.610	-195.555	0.156	0.001
-496.595	-171.201	-0.243	-0.008
-495.581	-12.360	0.044	0.029
-494.566	-39.230	0.373	0.195
-493.551	23.059	0.099	0.081
-492.537	78.778	0.127	-0.135
-491.522	115.491	0.221	0.268
-490.508	25.493	-0.167	-0.138
-489.493	65.122	-0.160	0.161
-488.478	-200.000	0.046	0.206
-487.464	114.274	0.211	0.256
-486.449	-200.000	0.025	0.186
-485.435	284.395	-0.053	0.095
-484.420	-88.896	-0.256	0.076
-483.405	-40.099	0.141	0.073
-482.391	-13.793	-0.222	0.143
-481.376	-3.757	0.191	0.132
-480.362	533.152	-0.035	0.083
-479.347	-114.412	-0.224	-0.043
-478.332	-128.179	0.382	-0.054
-477.318	405.115	0.067	0.140
-476.303	-200.000	0.061	-0.277
-475.289	72.922	-0.311	-0.323
-474.274	-35.283	0.074	-0.040
-473.259	-152.141	0.124	-0.009
-472.245	-23.490	-0.207	0.124
-471.230	800.000	-0.108	0.380
-470.216	-100.214	0.237	0.058
-469.201	-75.151	-0.038	0.013
-468.186	50.541	0.060	0.056
-467.172	210.093	0.050	-0.078
-466.157	68.252	-0.235	-0.239
-465.143	277.861	0.157	0.277
-464.128	-72.217	-0.141	-0.052
-463.113	366.345	0.039	0.078
-462.099	-200.000	-0.041	0.324
-461.084	800.000	0.082	0.272
-460.070	729.067	0.048	-0.127
-459.055	800.000	0.041	-0.134
-458.040	40.885	0.148	0.132
-457.026	800.000	-0.079	-0.297
-456.011	-77.212	-0.210	-0.073
-454.997	-99.535	-0.088	-0.022
-453.982	139.575	0.140	0.183
-452.968	297.476	-0.081	0.147
-451.953	439.785	0.093	0.203
-450.938	-36.103	-0.104	0.056
-449.924	243.624	0.136	0.227
-448.909	-179.631	-0.078	-0.002
-447.895	-164.895	-0.231	0.010
-446.880	-143.042	-0.154	-0.015
-445.865	28.056	-0.095	-0.080
-444.851	263.970	0.143	-0.246
-443.836	-11.326	-0.252	-0.165
-442.822	-200.000	-0.062	-0.341
-441.807	-33.177	0.033	-0.018
-440.792	-166.301	-0.194	0.008
-439.778	-112.777	0.079	-0.016
-438.763	20.488	0.216	0.173
-437.749	1.781	-0.258	-0.185
-436.734	-9.567	-0.199	-0.132
-435.719	-153.984	-0.103	-0.007
-434.705	165.448	-0.103	-0.144
-433.690	-95.429	-0.240	-0.064
-432.676	-200.000	0.043	-0.288
-431.661	100.977	-0.182	-0.210
-430.646	-56.706	-0.277	0.122
-429.632	-200.000	-0.015	0.385
-428.617	-43.759	-0.146	-0.073
-427.603	11.692	-0.172	0.131
-426.588	-150.766	0.517	0.039
-425.573	-37.464	0.260	0.137
-424.559	380.654	-0.057	0.115
-423.544	22.425	0.273	-0.221
-422.530	-81.887	-0.148	-0.048
-421.515	800.000	-0.034	0.138
-420.500	800.000	-0.008	0.023
-419.486	11.405	-0.046	0.035
-418.471	254.506	0.083	-0.141
-417.457	436.053	-0.217	-0.469
-416.442	75.751	0.076	-0.079
-415.428	-110.245	0.127	-0.026
-414.413	222.286	-0.132	0.211
-413.398	-142.133	-0.177	0.017
-412.384	597.860	0.111	0.272
-411.369	353.853	-0.021	0.042
-410.355	264.178	0.047	-0.081
-409.340	14.793	-0.337	-0.262
-408.325	-123.041	-0.245	-0.039
-407.311	109.100	0.246	-0.292
-406.296	184.410	-0.075	-0.110
-405.282	573.359	0.052	-0.126
-404.267	-4.625	-0.128	0.087
-403.252	-95.958	0.234	0.062
-402.238	-34.990	0.401	-0.217
-401.223	800.000	0.122	-0.363
-400.209	433.447	0.077	0.166
-399.194	-121.340	0.327	0.054
-398.179	584.595	0.072	0.174
-397.165	-110.304	0.216	-0.045
-396.150	-200.000	0.001	0.003
-395.136	-41.489	-0.412	0.210
-394.121	-200.000	-0.031	-0.167
-393.106	800.000	-0.082	0.253
-392.092	-48.147	0.236	0.113
-391.077	-104.807	-0.151	0.034
-390.063	-108.051	-0.326	0.070
-389.048	-43.779	-0.134	-0.067
-388.033	-24.028	0.251	-0.149
-387.019	142.111	-0.184	-0.242
-386.004	-43.966	-0.308	-0.153
-384.990	-200.000	0.021	0.146
-383.975	-200.000	-0.038	0.300
-382.960	-11.489	-0.068	-0.044
-381.946	-150.718	0.129	0.010
-380.931	-48.206	0.190	-0.091
-379.917	489.588	0.008	-0.017
-378.902	193.828	0.170	0.254
-377.888	77.916	0.160	0.168
-376.873	-23.173	-0.170	0.101
-375.858	115.170	-0.154	-0.186
-374.844	369.651	0.082	0.165
-373.829	-200.000	-0.077	-0.391
-372.815	-200.000	-0.015	0.249
-371.800	44.136	0.017	-0.015
-370.785	-200.000	0.042	-0.273
-369.771	800.000	-0.042	-0.153
-368.756	-113.188	-0.149	0.029
-367.742	67.979	0.232	0.235
-366.727	18.671	-0.190	-0.151
-365.712	800.000	-0.024	0.102
-364.698	499.842	0.079	0.180
-363.683	-35.638	-0.253	-0.136
-362.669	-62.720	-0.215	0.088
-361.654	-200.000	-0.009	0.096
-360.639	-107.874	0.215	-0.046
-359.625	800.000	-0.080	0.238
-358.610	1.566	0.194	0.138
-357.596	-200.000	0.021	-0.166
-356.581	-200.000	-0.007	0.054
-355.566	-200.000	-0.027	0.176
-354.552	-79.741	0.238	-0.079
-353.537	164.364	-0.236	-0.329
-352.523	380.569	-0.069	0.141
-351.508	-200.000	-0.008	0.387
-350.493	800.000	0.037	0.113
-349.479	-158.247	-0.176	0.010
-348.464	-25.256	0.152	0.089
-347.450	-200.000	0.013	0.149
-346.435	114.303	0.193	0.233
-345.420	-24.914	0.262	0.154
-344.406	-20.281	-0.350	0.213
-343.391	204.303	0.210	-0.322
-342.377	12.065	-0.175	0.133
-341.362	385.693	-0.030	-0.061
-340.348	-77.614	-0.287	-0.098
-339.333	-148.062	-0.332	0.027
-338.318	-200.000	-0.040	-0.304
-337.304	38.318	-0.062	-0.055
-336.289	265.863	0.098	-0.168
-335.275	-39.304	0.172	-0.089
-334.260	47.614	0.180	-0.166
-333.245	-43.819	0.205	0.102
-332.231	544.875	-0.092	0.217
-331.216	133.849	-0.052	-0.067
-330.202	800.000	-0.033	-0.101
-329.187	-107.643	-0.404	0.087
-328.172	-61.864	-0.247	0.102
-327.158	-103.571	-0.084	0.020
-326.143	-166.154	-0.269	0.011
-325.129	800.000	0.032	-0.102
-324.114	-89.641	-0.388	-0.112
-323.099	800.000	-0.040	0.122
-322.085	187.321	-0.092	-0.135
-321.070	-90.629	-0.113	-0.032
-320.056	155.493	-0.067	-0.091
-319.041	65.202	0.140	0.140
-318.026	553.430	-0.102	0.243
-317.012	91.619	-0.251	-0.279
-315.997	-69.707	0.367	-0.139
-314.983	169.212	-0.043	0.061
-313.968	77.021	-0.227	-0.238
-312.953	-53.691	0.075	0.034
-311.939	467.771	0.147	0.327
-310.924	5.790	0.162	0.118
-309.910	-53.009	-0.116	0.053
-308.895	12.190	-0.076	0.058
-307.880	-200.000	-0.088	-0.397
-306.866	800.000	-0.125	-0.448
-305.851	132.068	-0.156	-0.199
-304.837	-44.547	-0.216	-0.107
-303.822	-200.000	-0.017	0.409
-302.807	-62.235	0.433	-0.178
-301.793	499.905	-0.091	0.207
-300.778	348.890	0.137	0.268
-299.764	150.972	0.029	0.039
-298.749	-124.241	0.131	-0.020
-297.735	-167.608	-0.140	0.006
-296.720	-47.942	0.095	0.045
-295.705	-163.097	0.275	0.013
-294.691	-37.423	-0.131	-0.069
-293.676	-21.472	0.152	-0.092
-292.662	513.371	-0.068	-0.155
-291.647	6.760	-0.143	0.105
-290.632	-37.293	-0.153	-0.081
-289.618	-198.337	0.258	-0.001
-288.603	-65.349	0.202	0.080
-287.589	-52.986	-0.262	0.119
-286.574	-173.030	0.115	0.004
-285.559	-197.938	-0.224	-0.001
-284.545	-200.000	0.032	0.331
-283.530	389.443	0.022	0.046
-282.516	-120.379	-0.191	0.032
-281.501	-200.000	0.070	0.378
-280.486	-74.971	-0.236	0.083
-279.472	62.322	-0.047	-0.047
-278.457	-81.895	-0.342	-0.110
-277.443	381.935	0.127	-0.257
-276.428	151.648	0.040	0.054
-275.413	800.000	-0.159	0.557
-274.399	217.444	-0.087	0.136
-273.384	266.093	-0.076	0.131
-272.370	74.287	-0.134	0.139
-271.355	800.000	0.102	-0.301
-270.340	-155.984	0.350	-0.022
-269.326	694.571	-0.096	0.250
-268.311	-200.000	0.085	-0.369
-267.297	204.275	0.247	-0.378
-266.282	246.054	-0.186	-0.309
-265.267	-44.578	0.097	-0.048
-264.253	-119.234	0.340	0.058
-263.238	800.000	0.092	-0.290
-262.224	93.172	0.236	-0.263
-261.209	150.263	-0.220	0.294
-260.195	19.045	-0.119	0.094
-259.180	800.000	0.063	0.242
-258.165	-200.000	0.003	-0.246
-257.151	-200.000	0.021	0.239
-256.136	255.176	0.218	0.369
-255.122	800.000	0.075	0.234
-254.107	-70.108	-0.200	0.075
-253.092	271.862	-0.138	-0.240
-252.078	-131.570	0.212	0.028
-251.063	-59.745	0.287	0.121
-250.049	-17.144	0.105	0.065
-249.034	-200.000	-0.015	0.159
-248.019	-200.000	0.123	0.000
-247.005	-59.832	0.246	0.104
-245.990	796.230	0.105	0.284
-244.976	-86.945	0.146	0.044
-243.961	518.085	0.062	0.142
-242.946	-200.000	0.021	0.164
-241.932	58.409	-0.147	0.142
-240.917	-129.790	0.084	0.011
-239.903	-200.000	0.013	-0.095
-238.888	-108.901	-0.094	0.020
-237.873	-200.000	-0.030	-0.237
-236.859	12.244	0.040	-0.030
-235.844	800.000	-0.073	-0.254
-234.830	-40.190	-0.117	-0.060
-233.815	-200.000	-0.006	-0.355
-232.800	209.870	0.161	-0.248
-231.786	609.385	-0.070	-0.173
-230.771	-92.923	0.466	-0.128
-229.757	-200.000	0.005	0.292
-228.742	-56.743	-0.122	-0.053
-227.727	64.847	0.028	0.028
-226.713	-200.000	0.023	-0.311
-225.698	800.000	0.090	-0.308
-224.684	172.007	0.214	-0.303
-223.669	422.798	-0.137	0.290
-222.655	33.408	-0.057	0.049
-221.640	398.612	0.118	-0.242
-220.625	189.819	0.140	0.207
-219.611	47.711	-0.148	0.136
-218.596	409.309	0.018	-0.038
-217.582	18.727	-0.170	-0.134
-216.567	44.768	0.099	0.090
-215.552	169.688	0.126	0.178
-214.538	-64.559	0.212	-0.085
-213.523	800.000	-0.048	-0.157
-212.509	297.470	0.055	0.099
-211.494	2.373	0.257	0.183
-210.479	-200.000	-0.008	0.219
-209.465	-200.000	0.013	0.121
-208.450	-11.327	0.272	0.176
-207.436	523.231	0.060	-0.140
-206.421	-103.214	0.333	0.077
-205.406	-200.000	-0.003	0.143
-204.392	-133.681	0.258	0.032
-203.377	12.451	-0.286	0.217
-202.363	-34.059	0.176	-0.095
-201.348	-200.000	0.002	0.261
-200.333	-91.882	0.236	0.066
-199.319	339.355	0.169	-0.324
-198.304	43.447	0.071	0.063
-197.290	-91.716	0.298	0.083
-196.275	503.885	0.182	-0.413
-195.260	-200.000	-0.310	0.001
-194.246	-51.208	-0.341	0.157
-193.231	133.733	0.242	-0.308
-192.217	-54.690	-0.231	-0.103
-191.202	800.000	0.046	0.165
-190.187	104.686	0.057	-0.066
-189.173	18.041	0.190	0.149
-188.158	184.086	-0.062	-0.090
-187.144	158.128	-0.177	-0.241
-186.129	-90.252	0.066	-0.019
-185.114	46.199	0.054	-0.049
-184.100	800.000	0.147	0.486
-183.085	-43.391	0.103	0.051
-182.071	182.468	-0.059	-0.085
-181.056	572.603	0.091	0.219
-180.042	342.079	0.061	0.118
-179.027	101.065	-0.152	-0.173
-178.012	-200.000	0.032	0.220
-176.998	-147.311	-0.342	-0.029
-175.983	-138.970	-0.370	-0.039
-174.969	-82.267	0.099	0.032
-173.954	172.878	0.178	0.252
-172.939	32.226	-0.259	0.219
-171.925	137.364	0.117	-0.150
-170.910	-125.123	0.284	0.043
-169.896	-28.423	-0.089	0.050
-168.881	80.010	-0.323	0.341
-167.866	136.249	-0.121	0.155
-166.852	53.323	-0.128	-0.121
-165.837	-72.308	-0.296	-0.108
-164.823	-200.000	-0.042	-0.206
-163.808	-77.504	0.337	-0.115
-162.793	28.548	0.196	0.162
-161.779	-200.000	0.039	-0.307
-160.764	184.231	-0.162	-0.235
-159.750	800.000	-0.143	0.416
-158.735	110.545	0.194	0.229
-157.720	-200.000	0.018	0.205
-156.706	-49.626	0.110	0.051
-155.691	-84.997	-0.230	-0.071
-154.677	-200.000	0.050	0.259
-153.662	-21.632	-0.058	0.035
-152.647	235.591	0.200	0.324
-151.633	-95.360	0.140	-0.037
-150.618	-19.323	0.233	-0.142
-149.604	113.669	0.061	0.073
-148.589	195.737	0.041	0.061
-147.574	-162.669	0.221	-0.011
-146.560	800.000	0.087	0.239
-145.545	-200.000	-0.027	-0.388
-144.531	-200.000	0.007	0.108
-143.516	-138.517	-0.154	-0.017
-142.502	-200.000	-0.038	0.340
-141.487	481.245	0.080	0.177
-140.472	-105.364	-0.253	-0.056
-139.458	1.294	-0.189	-0.134
-138.443	-117.063	-0.238	-0.043
-137.429	800.000	0.074	0.297
-136.414	-200.000	0.002	0.203
-135.399	-19.611	0.145	0.088
-134.385	-200.000	0.011	0.303
-133.370	94.983	-0.110	0.123
-132.356	-200.000	-0.042	-0.294
-131.341	-200.000	-0.020	-0.106
-130.326	193.479	0.076	-0.113
-129.312	-200.000	-0.018	0.437
-128.297	-200.000	0.003	0.151
-127.283	37.914	0.244	0.213
-126.268	38.012	-0.249	-0.217
-125.253	800.000	-0.023	-0.066
-124.239	6.873	-0.176	0.129
-123.224	-200.000	-0.001	0.178
-122.210	800.000	0.063	-0.203
-121.195	-200.000	-0.064	0.332
