DTS Sentinel unit serial number:	SN413079Multiplexer serial number:	ORYXHardware model number:	OX4-SRSoftware version number:	ORYX F/W v4.00 Oryx Data Collector v3.7.2.0data status	okinstallation	princeton_trtdifferential loss correction	single-endedforward channel	channel 1reverse channel	N/Adate	2019/09/10time	22:36:11forward acquisition time	60.00reverse acquisition time	0.00gamma	496.2192k internal	0.2332k external	0.2332temperature offset calibration	0.9934default loss term (dB/km)	0.3790temperature slope calibration	1.0000multiplexer offset coefficient	1.0000multiplexer slope coefficient	1.0000fibre end	0.00T internal ref (°C)	30.28T ext. ref 1 (°C)	-0.31T ext. ref 2 (°C)	23.70length (m)	temperature (°C)	Stokes	anti-Stokes-747.200	108.725	-0.149	-0.179
-746.185	800.000	-0.032	-0.110
-745.171	-200.000	0.013	-0.057
-744.156	-25.565	-0.194	0.115
-743.142	384.389	-0.132	-0.274
-742.127	-27.605	-0.107	0.062
-741.112	-169.516	-0.287	0.011
-740.098	13.807	-0.048	0.037
-739.083	-72.506	0.203	0.076
-738.069	15.247	-0.133	-0.105
-737.054	800.000	-0.031	-0.106
-736.039	800.000	-0.083	0.304
-735.025	290.937	-0.166	0.303
-734.010	800.000	-0.033	0.099
-732.996	-146.983	-0.317	-0.027
-731.981	-46.973	-0.274	-0.135
-730.966	351.436	-0.150	-0.298
-729.952	-63.569	0.193	-0.080
-728.937	238.535	-0.063	0.106
-727.923	-107.425	-0.356	-0.078
-726.908	315.437	0.080	-0.153
-725.894	-168.748	-0.048	0.002
-724.879	-124.689	-0.315	0.049
-723.864	800.000	0.067	-0.231
-722.850	3.197	-0.144	0.105
-721.835	531.247	0.034	-0.081
-720.821	-73.201	0.081	-0.030
-719.806	-159.162	-0.223	0.013
-718.791	-189.257	0.126	-0.002
-717.777	-200.000	-0.034	-0.170
-716.762	557.175	0.068	0.164
-715.748	-200.000	0.005	0.162
-714.733	-143.904	0.083	0.008
-713.718	-6.079	0.258	0.177
-712.704	-76.363	0.049	0.017
-711.689	-93.079	0.150	0.042
-710.675	-59.791	-0.328	0.141
-709.660	-55.867	-0.189	0.085
-708.645	-6.777	-0.501	-0.343
-707.631	-18.889	0.170	-0.106
-706.616	800.000	-0.025	0.093
-705.602	-75.974	0.413	0.147
-704.587	-200.000	-0.057	-0.382
-703.572	800.000	-0.061	-0.252
-702.558	-124.662	-0.186	0.029
-701.543	326.248	0.132	0.254
-700.529	-39.789	-0.155	0.081
-699.514	800.000	-0.073	0.236
-698.499	-200.000	-0.077	0.379
-697.485	-183.388	0.273	0.005
-696.470	800.000	-0.060	0.245
-695.456	38.159	-0.075	0.067
-694.441	128.848	-0.039	-0.050
-693.426	399.329	0.039	-0.082
-692.412	30.329	-0.023	-0.019
-691.397	-157.540	-0.261	-0.016
-690.383	-200.000	0.021	-0.132
-689.368	-87.899	-0.259	0.078
-688.354	-26.539	0.305	-0.179
-687.339	-25.066	0.136	-0.081
-686.324	-96.293	-0.186	0.049
-685.310	-36.008	-0.302	-0.164
-684.295	-108.557	-0.218	0.047
-683.281	-105.182	0.165	-0.038
-682.266	-126.761	0.354	-0.053
-681.251	229.999	-0.204	-0.335
-680.237	57.731	-0.125	-0.123
-679.222	-2.402	-0.113	-0.080
-678.208	-200.000	0.016	-0.332
-677.193	8.651	-0.123	0.093
-676.178	-200.000	-0.001	0.077
-675.164	-90.570	0.138	0.040
-674.149	225.426	0.153	-0.248
-673.135	5.012	-0.245	-0.181
-672.120	-142.055	-0.263	-0.026
-671.105	3.135	-0.174	-0.127
-670.091	490.284	0.009	0.021
-669.076	-102.830	-0.116	0.028
-668.062	274.357	-0.119	0.211
-667.047	89.419	-0.090	0.101
-666.032	-59.555	-0.107	0.046
-665.018	800.000	0.033	0.094
-664.003	-200.000	-0.051	-0.247
-662.989	230.101	-0.129	0.212
-661.974	-84.698	0.283	-0.090
-660.959	85.846	-0.159	0.175
-659.945	-86.305	0.184	0.057
-658.930	182.385	0.115	-0.170
-657.916	-200.000	-0.017	-0.228
-656.901	17.519	-0.235	0.187
-655.886	99.554	0.135	-0.157
-654.872	-200.000	0.038	-0.234
-653.857	-110.736	0.241	-0.050
-652.843	-167.065	0.404	0.016
-651.828	109.173	-0.078	0.094
-650.814	-155.304	-0.070	-0.005
-649.799	26.323	-0.277	-0.232
-648.784	389.962	0.088	-0.183
-647.770	204.832	0.139	-0.217
-646.755	167.781	0.224	0.320
-645.741	142.226	0.215	0.286
-644.726	106.220	0.034	-0.040
-643.711	-200.000	0.005	0.051
-642.697	-200.000	-0.053	0.259
-641.682	-108.727	-0.288	-0.062
-640.668	-200.000	0.034	0.171
-639.653	-61.942	-0.042	0.018
-638.638	3.292	0.163	-0.119
-637.624	800.000	-0.036	-0.137
-636.609	-200.000	-0.078	0.452
-635.595	-200.000	0.003	-0.106
-634.580	30.072	-0.160	-0.137
-633.565	282.879	-0.125	-0.225
-632.551	800.000	0.081	0.282
-631.536	33.158	0.118	-0.102
-630.522	-31.786	-0.293	-0.165
-629.507	-91.775	0.246	-0.070
-628.492	-49.067	0.234	0.112
-627.478	-5.572	-0.254	0.175
-626.463	-200.000	0.020	-0.108
-625.449	135.627	0.134	0.175
-624.434	-37.159	-0.212	-0.114
-623.419	-28.422	-0.213	0.123
-622.405	109.190	0.132	-0.159
-621.390	485.941	0.040	-0.091
-620.376	29.261	0.265	-0.225
-619.361	478.994	0.141	-0.320
-618.346	-120.002	-0.159	-0.027
-617.332	-56.897	-0.402	-0.178
-616.317	62.015	-0.026	-0.026
-615.303	-53.460	-0.118	-0.054
-614.288	-95.060	-0.085	0.023
-613.273	73.702	-0.080	-0.084
-612.259	113.011	-0.335	0.406
-611.244	800.000	0.080	0.290
-610.230	-54.623	-0.237	0.107
-609.215	-200.000	0.013	0.179
-608.201	95.133	0.260	0.296
-607.186	249.995	0.146	-0.248
-606.171	800.000	-0.044	-0.124
-605.157	-17.154	0.133	0.084
-604.142	139.240	-0.102	-0.134
-603.128	-113.900	0.167	-0.032
-602.113	192.196	-0.232	0.350
-601.098	110.847	-0.036	0.044
-600.084	-102.600	-0.343	0.082
-599.069	529.222	-0.046	0.109
-598.055	235.887	-0.134	0.222
-597.040	393.245	0.096	-0.199
-596.025	25.866	-0.120	0.100
-595.011	20.494	0.201	-0.163
-593.996	800.000	-0.101	0.338
-592.982	73.957	0.204	0.214
-591.967	134.702	-0.190	0.246
-590.952	25.672	0.119	0.099
-589.938	-200.000	0.021	0.244
-588.923	-106.341	-0.235	0.053
-587.909	-12.513	0.090	0.058
-586.894	-35.698	0.059	0.032
-585.879	800.000	-0.098	-0.297
-584.865	183.458	0.193	0.286
-583.850	-57.525	-0.330	0.145
-582.836	-200.000	0.066	-0.351
-581.821	-200.000	-0.010	0.137
-580.806	-75.244	-0.214	0.076
-579.792	800.000	0.016	0.066
-578.777	189.432	0.172	0.258
-577.763	-200.000	0.009	0.126
-576.748	682.618	0.108	-0.281
-575.733	115.143	0.137	0.167
-574.719	396.069	-0.051	-0.106
-573.704	106.576	0.147	-0.175
-572.690	-171.298	0.262	-0.009
-571.675	55.235	0.110	-0.106
-570.661	279.438	-0.061	0.108
-569.646	-7.052	0.195	-0.132
-568.631	-156.731	-0.452	0.028
-567.617	-166.986	0.099	0.004
-566.602	-133.614	0.211	0.026
-565.588	-11.353	-0.243	-0.160
-564.573	720.032	0.045	-0.120
-563.558	328.164	0.140	0.268
-562.544	112.846	-0.102	-0.123
-561.529	-200.000	0.073	0.324
-560.515	204.097	-0.119	-0.184
-559.500	394.863	-0.198	-0.411
-558.485	570.403	0.174	-0.424
-557.471	11.143	0.085	-0.065
-556.456	-124.160	0.326	-0.051
-555.442	229.373	-0.116	0.188
-554.427	104.110	-0.289	0.339
-553.412	800.000	0.100	-0.307
-552.398	-200.000	0.048	0.212
-551.383	-18.747	0.102	0.064
-550.369	-48.305	0.397	0.191
-549.354	-163.071	0.126	-0.006
-548.339	-143.315	0.059	-0.006
-547.325	166.627	-0.103	-0.146
-546.310	-133.091	0.286	-0.036
-545.296	-85.588	-0.267	-0.083
-544.281	-200.000	-0.074	-0.547
-543.266	-54.799	0.361	-0.163
-542.252	-47.768	-0.142	0.069
-541.237	-41.730	-0.115	0.059
-540.223	42.518	-0.089	0.080
-539.208	-135.970	0.161	0.019
-538.193	-29.974	0.027	0.015
-537.179	-43.086	0.082	0.042
-536.164	255.222	0.107	-0.184
-535.150	56.203	0.178	-0.172
-534.135	-111.570	0.098	0.020
-533.121	290.057	0.076	0.138
-532.106	-27.085	-0.390	-0.227
-531.091	409.543	0.144	-0.305
-530.077	486.873	0.015	0.034
-529.062	-104.274	0.071	-0.016
-528.048	345.507	0.040	0.077
-527.033	443.442	0.069	0.150
-526.018	-37.258	0.026	0.014
-525.004	559.579	-0.142	-0.342
-523.989	-9.659	0.285	-0.189
-522.975	-200.000	-0.017	-0.266
-521.960	87.304	-0.150	0.165
-520.945	-7.838	0.126	-0.085
-519.931	-200.000	-0.027	0.156
-518.916	484.960	-0.031	-0.072
-517.902	219.872	-0.043	-0.068
-516.887	37.161	0.130	0.115
-515.872	153.122	-0.200	-0.273
-514.858	-118.475	0.221	0.039
-513.843	128.573	-0.150	-0.190
-512.829	20.877	-0.250	0.202
-511.814	800.000	-0.084	-0.359
-510.799	246.432	0.047	0.079
-509.785	117.641	0.046	-0.057
-508.770	58.715	-0.329	0.322
-507.756	-130.622	-0.112	-0.015
-506.741	403.920	-0.115	0.242
-505.726	-200.000	-0.018	-0.409
-504.712	-200.000	0.017	-0.500
-503.697	386.354	-0.083	0.171
-502.683	-21.804	-0.258	-0.156
-501.668	413.357	0.110	0.233
-500.653	-58.032	0.395	0.172
-499.639	74.603	-0.170	0.178
-498.624	84.479	-0.096	-0.105
-497.610	-200.000	-0.026	0.185
-496.595	-200.000	-0.048	0.238
-495.581	157.091	0.159	0.219
-494.566	-200.000	-0.023	0.174
-493.551	800.000	0.104	-0.351
-492.537	-19.295	-0.271	0.167
-491.522	-50.297	-0.283	0.133
-490.508	311.855	-0.064	-0.120
-489.493	41.638	0.299	-0.270
-488.478	-200.000	-0.008	-0.090
-487.464	113.478	0.064	0.077
-486.449	-200.000	-0.085	-0.388
-485.435	110.930	-0.075	-0.090
-484.420	-200.000	0.006	0.114
-483.405	-93.907	0.069	0.019
-482.391	-52.198	0.078	-0.036
-481.376	-148.128	0.516	0.043
-480.362	-23.888	0.200	-0.119
-479.347	800.000	-0.034	0.140
-478.332	-83.376	-0.126	0.040
-477.318	-148.297	-0.165	-0.014
-476.303	-132.850	0.272	-0.035
-475.289	800.000	0.104	0.350
-474.274	-138.822	0.203	0.022
-473.259	-122.654	-0.313	0.050
-472.245	99.033	-0.096	-0.110
-471.230	-157.468	0.169	-0.010
-470.216	110.841	0.105	-0.126
-469.201	-152.727	0.260	-0.018
-468.186	-190.188	0.132	-0.001
-467.172	-49.626	0.124	-0.059
-466.157	642.394	0.067	-0.170
-465.143	-106.961	0.140	-0.031
-464.128	50.760	0.149	-0.141
-463.113	800.000	0.023	-0.082
-462.099	481.300	0.040	0.091
-461.084	-200.000	-0.010	-0.159
-460.070	800.000	-0.053	0.157
-459.055	-62.870	0.132	0.054
-458.040	800.000	0.204	0.669
-457.026	-90.186	-0.249	0.072
-456.011	-157.031	0.264	0.016
-454.997	61.199	-0.182	-0.180
-453.982	-200.000	0.000	0.076
-452.968	398.352	0.113	0.236
-451.953	270.246	0.096	-0.168
-450.938	327.846	-0.051	0.098
-449.924	-13.957	-0.157	0.101
-448.909	82.807	-0.187	0.202
-447.895	-132.694	-0.339	-0.043
-446.880	-162.411	0.253	-0.012
-445.865	103.117	0.069	0.081
-444.851	-200.000	-0.007	0.135
-443.836	-15.070	0.224	-0.142
-442.822	-43.523	-0.077	0.038
-441.807	-81.691	-0.367	-0.120
-440.792	-145.838	0.336	-0.030
-439.778	-40.228	0.279	0.144
-438.763	800.000	-0.012	0.036
-437.749	-160.254	0.324	0.017
-436.734	363.104	-0.075	0.150
-435.719	-200.000	-0.019	0.257
-434.705	-200.000	-0.074	0.352
-433.690	-7.865	0.222	-0.149
-432.676	-112.284	-0.117	-0.023
-431.661	477.237	0.104	-0.233
-430.646	-42.755	-0.153	0.077
-429.632	4.083	-0.306	-0.223
-428.617	-107.064	0.361	-0.079
-427.603	800.000	-0.013	-0.055
-426.588	52.971	-0.084	0.080
-425.573	-128.990	0.089	-0.012
-424.559	-61.695	0.092	-0.038
-423.544	-104.974	0.156	-0.035
-422.530	-68.062	-0.258	-0.100
-421.515	-126.470	0.354	-0.052
-420.500	-90.010	0.484	0.140
-419.486	231.945	-0.136	0.221
-418.471	-143.225	-0.334	0.032
-417.457	106.979	-0.152	-0.180
-416.442	57.480	0.087	0.084
-415.428	-140.017	-0.087	0.009
-414.413	-200.000	0.038	-0.487
-413.398	800.000	-0.027	-0.091
-412.384	159.129	-0.162	-0.224
-411.369	-198.594	-0.110	0.001
-410.355	800.000	0.095	0.264
-409.340	-165.705	0.263	0.011
-408.325	-200.000	-0.031	-0.254
-407.311	61.749	0.065	-0.065
-406.296	-50.999	-0.218	-0.101
-405.282	-200.000	-0.013	-0.083
-404.267	-105.642	-0.110	-0.025
-403.252	108.398	0.153	0.181
-402.238	74.153	0.273	0.284
-401.223	134.852	0.116	0.149
-400.209	376.259	0.027	-0.054
-399.194	46.128	0.149	-0.137
-398.179	78.198	0.269	0.285
-397.165	476.912	0.121	-0.272
-396.150	-200.000	-0.001	0.167
-395.136	155.320	-0.026	0.035
-394.121	-75.842	0.279	0.098
-393.106	489.665	0.046	0.105
-392.092	-13.931	0.284	0.182
-391.077	-107.782	0.235	0.051
-390.063	-38.053	-0.228	0.120
-389.048	628.725	0.089	0.222
-388.033	-200.000	0.027	-0.270
-387.019	148.883	0.050	-0.068
-386.004	-200.000	0.017	0.249
-384.990	157.804	-0.041	-0.056
-383.975	-3.159	0.118	-0.082
-382.960	-200.000	-0.018	0.199
-381.946	143.938	0.113	0.149
-380.931	-80.949	0.315	-0.104
-379.917	-200.000	-0.029	-0.259
-378.902	494.107	-0.226	0.515
-377.888	110.436	-0.138	-0.164
-376.873	282.104	0.061	-0.108
-375.858	-200.000	0.030	-0.366
-374.844	-11.955	0.057	-0.037
-373.829	-72.260	-0.104	0.038
-372.815	800.000	-0.066	-0.268
-371.800	-93.191	-0.092	-0.025
-370.785	588.009	-0.038	-0.094
-369.771	137.237	0.033	0.043
-368.756	-123.046	-0.222	0.035
-367.742	800.000	-0.055	-0.182
-366.727	431.208	-0.142	-0.306
-365.712	-200.000	-0.034	-0.224
-364.698	-121.362	-0.105	0.017
-363.683	-200.000	-0.015	-0.163
-362.669	369.216	0.081	-0.163
-361.654	-73.578	-0.180	0.065
-360.639	-149.074	-0.037	-0.003
-359.625	1.259	0.203	0.144
-358.610	70.014	0.251	0.257
-357.596	340.849	-0.166	-0.320
-356.581	-200.000	-0.035	-0.225
-355.566	-85.588	0.121	0.037
-354.552	36.891	0.127	0.111
-353.537	800.000	0.031	-0.107
-352.523	-29.485	-0.137	-0.077
-351.508	-128.218	-0.193	0.027
-350.493	-200.000	-0.009	-0.067
-349.479	-69.186	-0.475	0.181
-348.464	-1.362	0.217	0.152
-347.450	-200.000	-0.007	-0.046
-346.435	-23.925	-0.108	0.064
-345.420	-112.156	0.140	-0.028
-344.406	-186.421	0.148	0.002
-343.391	64.478	0.186	0.185
-342.377	73.091	0.073	0.076
-341.362	-176.453	-0.318	0.008
-340.348	326.581	0.070	-0.133
-339.333	-8.405	0.252	-0.168
-338.318	-28.751	-0.090	0.051
-337.304	-200.000	0.010	-0.146
-336.289	-18.738	-0.105	0.065
-335.275	-200.000	0.016	-0.207
-334.260	295.328	-0.038	-0.068
-333.245	99.798	0.115	-0.132
-332.231	15.705	0.100	-0.078
-331.216	-123.916	-0.090	-0.014
-330.202	-107.321	-0.335	-0.073
-329.187	-200.000	-0.062	-0.300
-328.172	316.493	-0.121	-0.226
-327.158	64.550	0.141	-0.141
-326.143	-80.742	-0.064	0.021
-325.129	-47.835	-0.554	0.266
-324.114	15.674	0.127	0.099
-323.099	285.482	0.062	0.111
-322.085	-13.395	-0.151	-0.097
-321.070	-139.859	-0.015	0.002
-320.056	153.461	-0.075	-0.102
-319.041	1.110	-0.118	0.084
-318.026	-126.830	-0.288	0.042
-317.012	340.957	0.076	0.147
-315.997	221.590	-0.151	0.240
-314.983	51.567	0.048	0.045
-313.968	-58.367	0.251	-0.108
-312.953	-200.000	0.041	-0.208
-311.939	-200.000	0.056	0.275
-310.924	26.735	0.143	0.119
-309.910	-200.000	-0.017	-0.241
-308.895	96.403	-0.129	0.146
-307.880	57.781	0.146	-0.141
-306.866	800.000	0.217	0.677
-305.851	59.918	-0.313	0.306
-304.837	-172.248	0.369	0.012
-303.822	-122.442	0.366	0.059
-302.807	86.426	-0.112	0.122
-301.793	53.521	-0.318	-0.302
-300.778	107.240	-0.098	-0.115
-299.764	47.644	-0.253	-0.234
-298.749	455.336	0.097	0.212
-297.735	213.642	0.049	-0.076
-296.720	-110.856	-0.205	-0.042
-295.705	-200.000	0.008	-0.122
-294.691	-25.605	0.230	0.134
-293.676	800.000	0.037	0.141
-292.662	-34.725	-0.117	0.063
-291.647	-200.000	0.010	-0.170
-290.632	0.146	-0.051	-0.036
-289.618	-29.984	0.081	-0.046
-288.603	-200.000	-0.058	-0.288
-287.589	95.795	-0.032	0.037
-286.574	800.000	-0.108	0.455
-285.559	-52.573	0.175	0.080
-284.545	-115.069	-0.093	-0.018
-283.530	-200.000	0.010	-0.116
-282.516	734.624	-0.056	-0.149
-281.501	-48.218	-0.152	-0.072
-280.486	-86.398	-0.109	-0.033
-279.472	-200.000	-0.018	0.100
-278.457	691.664	-0.099	0.255
-277.443	76.913	0.162	0.170
-276.428	800.000	-0.043	-0.140
-275.413	800.000	0.044	0.168
-274.399	-56.466	-0.403	0.176
-273.384	-200.000	0.091	0.443
-272.370	-29.605	0.343	0.194
-271.355	-77.115	-0.110	-0.038
-270.340	-200.000	0.017	-0.355
-269.326	800.000	-0.091	-0.344
-268.311	-200.000	0.007	-0.220
-267.297	800.000	-0.059	0.227
-266.282	-59.632	-0.309	0.131
-265.267	201.413	-0.194	0.294
-264.253	25.445	-0.292	-0.240
-263.238	-200.000	-0.009	0.163
-262.224	145.021	0.179	0.236
-261.209	685.455	-0.065	-0.166
-260.195	5.296	0.195	0.142
-259.180	685.589	-0.116	0.298
-258.165	37.824	-0.191	0.167
-257.151	-200.000	-0.010	0.140
-256.136	205.889	0.131	0.202
-255.122	-43.412	-0.052	0.026
-254.107	187.615	0.037	-0.055
-253.092	101.450	0.211	-0.243
-252.078	168.617	0.032	-0.045
-251.063	254.680	-0.050	0.085
-250.049	141.793	-0.061	-0.080
-249.034	520.227	-0.138	-0.318
-248.019	-57.595	-0.380	0.164
-247.005	-76.975	0.183	-0.063
-245.990	507.544	-0.105	0.240
-244.976	6.173	-0.290	-0.212
-243.961	191.154	0.123	-0.183
-242.946	-168.205	-0.291	-0.011
-241.932	-141.994	-0.273	0.027
-240.917	-82.091	0.214	0.069
-239.903	-200.000	-0.034	0.172
-238.888	398.357	-0.062	0.128
-237.873	-200.000	0.027	0.126
-236.859	-4.594	0.178	-0.121
-235.844	-97.050	-0.122	-0.031
-234.830	129.659	0.099	0.125
-233.815	102.356	-0.167	0.193
-232.800	-31.768	0.369	-0.204
-231.786	-200.000	0.051	-0.231
-230.771	-122.073	-0.385	0.062
-229.757	-50.010	-0.148	0.069
-228.742	800.000	-0.034	-0.118
-227.727	-200.000	-0.036	-0.309
-226.713	-61.926	-0.189	0.078
-225.698	800.000	-0.114	0.326
-224.684	116.738	0.079	0.095
-223.669	108.209	-0.038	0.045
-222.655	800.000	0.081	-0.291
-221.640	109.737	-0.096	0.114
-220.625	63.830	0.250	-0.247
-219.611	729.921	-0.072	-0.190
-218.596	-147.447	0.098	-0.008
-217.582	-79.745	0.243	-0.081
-216.567	-200.000	-0.030	-0.255
-215.552	117.459	-0.073	0.088
-214.538	-200.000	-0.009	-0.273
-213.523	-200.000	-0.018	-0.328
-212.509	-200.000	-0.016	-0.086
-211.494	736.853	0.052	-0.138
-210.479	-200.000	-0.024	-0.135
-209.465	-42.842	0.263	-0.132
-208.450	64.428	-0.128	-0.127
-207.436	-200.000	-0.006	0.156
-206.421	404.263	-0.110	-0.228
-205.406	-34.103	-0.027	0.015
-204.392	1.131	-0.229	-0.162
-203.377	150.768	-0.096	0.129
-202.363	117.923	-0.339	-0.412
-201.348	800.000	-0.120	0.389
-200.333	324.178	-0.160	0.301
-199.319	-200.000	-0.009	-0.075
-198.304	80.119	0.065	-0.069
-197.290	505.922	0.020	-0.045
-196.275	197.383	0.146	0.220
-195.260	-75.917	0.111	-0.039
-194.246	-200.000	0.062	0.366
-193.231	63.032	0.118	-0.116
-192.217	274.989	0.024	-0.041
-191.202	-134.516	0.427	0.051
-190.187	539.667	-0.017	0.039
-189.173	-127.246	-0.318	0.046
-188.158	-27.650	0.255	-0.146
-187.144	46.569	-0.063	-0.057
-186.129	-200.000	-0.002	0.340
-185.114	121.585	0.103	-0.126
-184.100	559.866	0.178	-0.424
-183.085	800.000	-0.072	-0.215
-182.071	-13.817	-0.351	0.223
-181.056	151.650	0.205	-0.275
-180.042	-123.888	-0.320	0.050
-179.027	62.924	-0.157	0.154
-178.012	-108.894	0.026	0.006
-176.998	-127.610	0.076	0.011
-175.983	-108.818	0.190	0.040
-174.969	-200.000	0.040	0.249
-173.954	157.658	-0.061	0.083
-172.939	117.002	0.212	0.256
-171.925	-200.000	0.019	-0.178
-170.910	-126.784	-0.029	0.004
-169.896	-39.370	-0.098	0.050
-168.881	-92.640	0.038	-0.010
-167.866	-5.300	0.122	0.083
-166.852	-36.685	0.197	-0.104
-165.837	82.182	0.080	-0.086
-164.823	800.000	-0.041	-0.164
-163.808	800.000	-0.005	0.015
-162.793	-200.000	-0.042	0.237
-161.779	-130.311	-0.233	-0.031
-160.764	331.661	0.063	0.119
-159.750	-38.172	0.079	-0.041
-158.735	-200.000	0.027	0.164
-157.720	-117.822	0.076	-0.013
-156.706	-64.764	-0.180	-0.072
-155.691	-200.000	-0.008	0.262
-154.677	114.695	-0.089	-0.107
-153.662	-200.000	-0.010	0.100
-152.647	-116.195	0.103	-0.019
-151.633	337.380	-0.041	-0.078
-150.618	278.792	-0.017	0.030
-149.604	-200.000	0.018	0.244
-148.589	671.078	-0.059	0.151
-147.574	117.828	0.262	0.317
-146.560	-36.421	-0.135	-0.072
-145.545	-2.231	0.329	0.227
-144.531	-110.546	0.316	0.064
-143.516	377.144	0.102	-0.206
-142.502	-41.606	0.074	-0.037
-141.487	50.567	-0.264	-0.246
-140.472	-101.210	0.318	-0.076
-139.458	-158.602	-0.369	-0.021
-138.443	73.072	-0.221	0.227
-137.429	92.759	0.295	0.328
-136.414	-99.039	-0.158	0.039
-135.399	800.000	-0.065	0.232
-134.385	800.000	-0.050	0.187
-133.370	-11.651	-0.222	0.143
-132.356	123.782	0.165	-0.203
-131.341	-118.628	-0.094	-0.016
-130.326	-10.074	-0.155	-0.101
-129.312	-200.000	0.009	0.102
-128.297	-159.792	0.079	0.004
-127.283	-194.210	-0.151	0.001
-126.268	-200.000	-0.021	-0.172
-125.253	15.462	-0.199	-0.154
-124.239	-84.657	-0.058	0.018
-123.224	667.623	0.131	-0.332
-122.210	-49.652	0.145	-0.068
