DTS Sentinel unit serial number:	SN413079Multiplexer serial number:	ORYXHardware model number:	OX4-SRSoftware version number:	ORYX F/W v4.00 Oryx Data Collector v3.7.2.0data status	okinstallation	princeton_trtdifferential loss correction	single-endedforward channel	channel 1reverse channel	N/Adate	2019/09/12time	09:28:11forward acquisition time	60.00reverse acquisition time	0.00gamma	496.2192k internal	0.2302k external	0.2302temperature offset calibration	1.0040default loss term (dB/km)	0.3790temperature slope calibration	1.0000multiplexer offset coefficient	1.0000multiplexer slope coefficient	1.0000fibre end	0.00T internal ref (°C)	35.42T ext. ref 1 (°C)	1.78T ext. ref 2 (°C)	33.12length (m)	temperature (°C)	Stokes	anti-Stokes-747.200	-200.000	-0.037	-0.207
-746.185	-14.506	0.275	-0.180
-745.171	-55.109	0.261	0.120
-744.156	-104.147	-0.263	0.062
-743.142	800.000	0.054	0.157
-742.127	-200.000	-0.024	0.290
-741.112	-102.298	0.207	-0.051
-740.098	-141.427	-0.279	0.029
-739.083	800.000	-0.027	0.095
-738.069	800.000	-0.103	0.345
-737.054	178.498	-0.141	-0.209
-736.039	282.171	0.150	-0.273
-735.025	-34.301	0.151	-0.084
-734.010	251.961	-0.135	-0.234
-732.996	-200.000	0.061	-0.558
-731.981	56.790	0.254	-0.252
-730.966	-200.000	-0.021	0.186
-729.952	-95.681	-0.249	0.068
-728.937	116.676	0.018	-0.022
-727.923	-147.449	-0.514	0.044
-726.908	45.051	-0.215	-0.202
-725.894	800.000	0.004	-0.011
-724.879	158.244	-0.213	-0.300
-723.864	-200.000	-0.038	0.222
-722.850	722.199	-0.010	0.028
-721.835	20.911	0.061	-0.050
-720.821	66.899	-0.092	0.095
-719.806	600.930	-0.035	-0.088
-718.791	-76.476	-0.462	-0.165
-717.777	94.660	-0.106	-0.123
-716.762	18.081	-0.280	-0.227
-715.748	58.304	-0.202	-0.202
-714.733	-156.729	0.157	-0.010
-713.718	800.000	0.068	-0.264
-712.704	202.921	-0.205	-0.322
-711.689	103.176	0.149	-0.177
-710.675	-189.353	0.116	-0.001
-709.660	800.000	-0.055	0.204
-708.645	800.000	0.038	-0.119
-707.631	800.000	0.007	-0.031
-706.616	166.083	-0.081	-0.117
-705.602	-4.244	0.222	-0.156
-704.587	-163.274	0.381	-0.019
-703.572	-23.705	-0.191	-0.117
-702.558	-151.084	0.265	0.020
-701.543	299.336	0.072	0.134
-700.529	-184.935	0.265	0.004
-699.514	40.672	-0.126	0.116
-698.499	-132.652	-0.305	0.040
-697.485	-101.784	-0.170	-0.042
-696.470	-34.889	0.270	0.150
-695.456	19.817	0.212	0.174
-694.441	800.000	0.062	-0.211
-693.426	-36.646	0.212	0.116
-692.412	-19.959	-0.174	-0.109
-691.397	-133.598	-0.333	0.042
-690.383	800.000	0.053	0.170
-689.368	-92.243	-0.248	-0.071
-688.354	-5.133	0.167	-0.117
-687.339	-74.826	-0.221	0.081
-686.324	800.000	-0.043	-0.171
-685.310	-200.000	-0.013	-0.205
-684.295	-75.345	0.405	-0.147
-683.281	304.203	-0.026	-0.050
-682.266	-14.847	0.030	-0.019
-681.251	-200.000	0.542	0.002
-680.237	-133.877	0.114	0.014
-679.222	52.826	-0.199	0.193
-678.208	-37.137	0.264	0.144
-677.193	-200.000	-0.053	0.548
-676.178	-34.733	-0.134	-0.075
-675.164	105.524	-0.143	0.172
-674.149	-52.041	-0.145	0.068
-673.135	55.146	-0.205	0.202
-672.120	-91.941	-0.302	-0.087
-671.105	-111.439	0.023	-0.005
-670.091	-200.000	0.027	-0.358
-669.076	450.174	-0.125	-0.280
-668.062	17.953	0.319	0.259
-667.047	-200.000	0.068	-0.452
-666.032	-109.868	-0.132	0.028
-665.018	-69.943	0.189	0.073
-664.003	205.502	0.169	0.267
-662.989	-200.000	0.032	0.179
-661.974	-103.659	0.338	-0.080
-660.959	21.464	0.265	0.219
-659.945	-153.591	0.030	-0.002
-658.930	128.318	0.047	-0.060
-657.916	800.000	-0.048	-0.202
-656.901	-80.104	-0.315	0.107
-655.886	-56.321	0.245	0.111
-654.872	71.927	-0.159	-0.168
-653.857	-171.298	0.495	0.017
-652.843	-200.000	0.030	0.150
-651.828	141.344	-0.139	0.187
-650.814	-36.107	0.240	0.132
-649.799	-200.000	-0.001	-0.185
-648.784	-21.072	0.144	0.090
-647.770	-53.230	0.071	-0.033
-646.755	299.027	0.139	-0.260
-645.741	60.706	0.126	0.127
-644.726	-41.155	-0.517	-0.271
-643.711	118.992	-0.153	-0.192
-642.697	-189.543	-0.284	-0.003
-641.682	-71.853	-0.243	-0.092
-640.668	-15.623	0.236	0.153
-639.653	0.419	-0.193	0.140
-638.638	-135.080	-0.129	0.016
-637.624	172.613	-0.083	0.122
-636.609	224.452	-0.265	-0.435
-635.595	-200.000	0.045	0.200
-634.580	-117.031	0.254	0.047
-633.565	22.375	0.202	0.167
-632.551	-31.104	0.222	0.127
-631.536	800.000	-0.081	-0.289
-630.522	-42.914	0.302	0.156
-629.507	-13.094	0.095	-0.063
-628.492	219.033	0.156	0.253
-627.478	-61.025	0.122	0.052
-626.463	48.904	-0.023	-0.022
-625.449	93.047	0.202	0.231
-624.434	85.815	0.151	-0.168
-623.419	365.380	0.129	-0.264
-622.405	-200.000	-0.019	-0.122
-621.390	-59.249	-0.416	0.182
-620.376	-113.607	-0.199	-0.039
-619.361	-64.533	-0.100	0.041
-618.346	-41.863	0.118	0.061
-617.332	424.124	-0.054	-0.118
-616.317	222.911	0.145	0.237
-615.303	-80.627	-0.319	0.108
-614.288	22.310	-0.182	-0.151
-613.273	41.509	0.235	-0.216
-612.259	303.302	-0.133	0.251
-611.244	800.000	0.070	0.245
-610.230	800.000	-0.124	0.346
-609.215	-0.780	-0.156	-0.112
-608.201	-200.000	-0.002	0.303
-607.186	-200.000	0.018	-0.100
-606.171	484.981	-0.059	-0.135
-605.157	-140.795	0.249	0.026
-604.142	-200.000	-0.044	-0.528
-603.128	-58.874	-0.209	-0.092
-602.113	98.572	-0.069	-0.081
-601.098	12.762	-0.032	-0.025
-600.084	478.459	0.093	-0.213
-599.069	95.955	-0.149	0.172
-598.055	697.086	-0.116	-0.309
-597.040	-200.000	-0.005	-0.254
-596.025	-200.000	-0.004	0.237
-595.011	-200.000	-0.014	-0.460
-593.996	726.010	0.091	-0.245
-592.982	-80.365	0.142	0.048
-591.967	-200.000	-0.001	-0.385
-590.952	53.003	-0.275	-0.266
-589.938	-34.745	-0.123	0.068
-588.923	800.000	-0.026	0.111
-587.909	-99.642	0.174	0.044
-586.894	-200.000	-0.034	-0.179
-585.879	442.317	0.156	0.346
-584.865	800.000	0.084	0.326
-583.850	-73.561	0.135	-0.050
-582.836	-82.340	0.358	-0.118
-581.821	418.390	-0.078	-0.169
-580.806	226.705	0.048	0.078
-579.792	-110.106	-0.488	-0.103
-578.777	-53.659	0.240	-0.111
-577.763	429.599	-0.026	-0.058
-576.748	31.852	-0.143	-0.125
-575.733	164.182	0.141	-0.201
-574.719	-46.851	-0.189	0.094
-573.704	427.885	0.135	-0.295
-572.690	80.074	-0.055	0.060
-571.675	-176.538	0.338	0.009
-570.661	-200.000	0.040	0.240
-569.646	-182.692	-0.028	-0.001
-568.631	137.583	0.067	0.089
-567.617	-10.477	0.114	0.077
-566.602	22.583	0.193	0.160
-565.588	-13.345	-0.310	0.204
-564.573	800.000	-0.162	-0.467
-563.558	800.000	-0.027	-0.111
-562.544	-40.774	-0.277	-0.145
-561.529	-23.177	0.177	-0.108
-560.515	800.000	0.080	-0.231
-559.500	154.939	0.145	0.202
-558.485	-200.000	-0.018	0.318
-557.471	-200.000	0.008	-0.284
-556.456	-29.024	-0.095	-0.055
-555.442	-99.198	-0.626	-0.160
-554.427	110.682	0.135	0.164
-553.412	241.645	-0.083	0.140
-552.398	-200.000	-0.019	0.095
-551.383	396.930	-0.142	0.300
-550.369	440.543	-0.098	0.216
-549.354	-200.000	-0.002	0.045
-548.339	-129.337	0.390	-0.055
-547.325	-122.833	0.213	0.035
-546.310	66.909	0.155	0.160
-545.296	-0.032	-0.291	0.210
-544.281	110.161	0.239	0.290
-543.266	69.277	-0.083	0.087
-542.252	95.501	0.241	0.277
-541.237	-19.730	-0.121	-0.076
-540.223	-143.787	-0.159	0.015
-539.208	-76.431	0.170	0.060
-538.193	800.000	-0.121	-0.361
-537.179	459.357	-0.012	0.026
-536.164	135.723	0.340	-0.448
-535.150	-106.381	-0.059	0.013
-534.135	-27.246	0.272	0.160
-533.121	-18.696	-0.169	0.107
-532.106	-200.000	-0.031	-0.220
-531.091	-200.000	-0.039	-0.392
-530.077	-3.340	-0.273	0.192
-529.062	-94.433	-0.181	0.050
-528.048	131.291	0.118	0.153
-527.033	-109.846	-0.386	-0.082
-526.018	13.416	-0.083	-0.065
-525.004	-87.872	-0.197	-0.060
-523.989	0.548	0.219	-0.158
-522.975	800.000	-0.082	-0.235
-521.960	-28.061	-0.229	0.134
-520.945	-44.210	-0.134	-0.068
-519.931	-103.429	-0.148	-0.035
-518.916	-142.153	0.474	-0.048
-517.902	-200.000	0.009	0.068
-516.887	-50.162	-0.149	-0.071
-515.872	318.301	-0.075	-0.144
-514.858	17.227	-0.227	0.182
-513.843	88.764	0.073	0.082
-512.829	-96.583	-0.207	-0.055
-511.814	-62.532	0.205	-0.086
-510.799	-128.144	0.279	0.040
-509.785	260.634	-0.052	-0.090
-508.770	612.660	0.048	-0.120
-507.756	22.064	-0.236	0.194
-506.741	-191.087	-0.389	0.004
-505.726	50.059	0.084	0.080
-504.712	-200.000	0.008	0.095
-503.697	-93.980	-0.068	0.019
-502.683	-74.204	0.095	-0.035
-501.668	209.631	0.240	-0.380
-500.653	-168.327	0.364	-0.014
-499.639	-27.025	0.319	0.188
-498.624	800.000	0.015	0.046
-497.610	-200.000	-0.073	0.328
-496.595	77.095	0.007	0.007
-495.581	175.052	-0.040	-0.058
-494.566	-200.000	-0.038	-0.313
-493.551	189.398	-0.136	0.205
-492.537	-30.219	0.059	0.034
-491.522	667.176	0.098	-0.255
-490.508	-99.679	0.251	-0.064
-489.493	176.522	-0.112	-0.165
-488.478	49.897	0.388	-0.369
-487.464	800.000	-0.078	-0.218
-486.449	58.602	0.042	0.042
-485.435	-70.964	0.021	0.008
-484.420	-24.160	-0.219	0.132
-483.405	-107.721	0.287	0.063
-482.391	-200.000	0.061	0.611
-481.376	-200.000	0.066	0.370
-480.362	-199.495	0.411	-0.002
-479.347	-200.000	0.017	-0.158
-478.332	-140.824	-0.093	0.010
-477.318	23.011	-0.186	0.154
-476.303	-91.768	-0.211	0.060
-475.289	-13.174	0.154	-0.101
-474.274	71.807	-0.170	-0.178
-473.259	38.257	0.206	0.185
-472.245	-46.590	-0.158	0.078
-471.230	60.201	0.301	0.300
-470.216	42.165	-0.198	0.181
-469.201	82.378	-0.170	-0.185
-468.186	9.916	0.090	0.069
-467.172	19.902	0.060	0.049
-466.157	-90.994	0.184	-0.053
-465.143	51.861	-0.126	-0.121
-464.128	196.715	0.246	-0.378
-463.113	572.825	-0.045	0.111
-462.099	660.564	-0.121	0.314
-461.084	-200.000	-0.038	0.187
-460.070	134.293	-0.211	-0.276
-459.055	-16.956	0.119	0.076
-458.040	-101.384	0.183	0.045
-457.026	-200.000	-0.060	-0.404
-456.011	417.003	-0.079	-0.170
-454.997	124.911	0.141	-0.179
-453.982	-147.298	-0.198	0.017
-452.968	-20.058	-0.236	-0.147
-451.953	278.167	0.217	0.389
-450.938	-200.000	-0.026	0.115
-449.924	800.000	-0.041	-0.137
-448.909	-200.000	-0.009	0.050
-447.895	-19.513	0.095	0.059
-446.880	800.000	0.130	0.369
-445.865	37.901	-0.084	0.075
-444.851	64.175	0.033	-0.033
-443.836	-30.125	0.234	0.134
-442.822	749.180	-0.071	0.193
-441.807	-90.308	-0.548	0.160
-440.792	237.616	-0.058	0.097
-439.778	35.301	-0.108	-0.096
-438.763	-200.000	-0.107	-0.532
-437.749	-173.419	-0.046	0.001
-436.734	301.581	0.152	0.284
-435.719	168.468	0.114	-0.163
-434.705	718.246	-0.087	-0.234
-433.690	390.179	-0.178	0.372
-432.676	100.661	-0.221	-0.258
-431.661	243.990	-0.041	-0.069
-430.646	-153.323	0.089	-0.006
-429.632	-121.339	0.177	0.030
-428.617	762.439	-0.074	0.202
-427.603	90.179	0.285	0.321
-426.588	-200.000	0.049	0.312
-425.573	-87.268	-0.198	-0.061
-424.559	800.000	-0.084	-0.261
-423.544	254.696	-0.068	0.117
-422.530	64.689	-0.377	-0.382
-421.515	143.710	-0.133	0.179
-420.500	-16.070	-0.101	-0.064
-419.486	24.926	0.114	0.095
-418.471	92.676	-0.069	0.078
-417.457	-39.721	-0.181	0.095
-416.442	163.334	-0.077	-0.109
-415.428	-80.941	0.121	-0.040
-414.413	235.461	0.087	-0.145
-413.398	-46.313	-0.052	-0.026
-412.384	268.994	0.089	-0.157
-411.369	42.284	0.203	-0.186
-410.355	-112.584	0.328	-0.066
-409.340	27.467	0.130	0.110
-408.325	-200.000	-0.021	-0.192
-407.311	200.491	0.185	-0.286
-406.296	605.476	0.012	0.031
-405.282	40.541	-0.253	-0.229
-404.267	-102.677	0.321	0.077
-403.252	-161.661	-0.051	-0.003
-402.238	-85.339	-0.270	-0.085
-401.223	-200.000	-0.046	0.242
-400.209	-200.000	-0.063	0.286
-399.194	-200.000	-0.006	0.111
-398.179	12.150	0.241	0.186
-397.165	6.271	0.229	0.171
-396.150	-200.000	-0.013	0.311
-395.136	-200.000	0.019	-0.157
-394.121	-24.071	0.230	0.138
-393.106	43.804	-0.109	-0.100
-392.092	576.141	-0.082	-0.201
-391.077	-200.000	0.019	-0.398
-390.063	603.113	0.154	-0.384
-389.048	286.733	0.112	0.204
-388.033	-200.000	-0.022	0.190
-387.019	-90.819	-0.126	0.037
-386.004	304.150	0.085	0.159
-384.990	-88.210	0.089	-0.027
-383.975	120.876	-0.333	-0.416
-382.960	455.007	0.138	-0.308
-381.946	72.858	-0.123	0.129
-380.931	-200.000	0.002	0.445
-379.917	188.605	-0.051	0.077
-378.902	-200.000	0.309	-0.001
-377.888	135.082	0.070	0.091
-376.873	-4.899	-0.073	-0.051
-375.858	81.679	-0.047	-0.051
-374.844	660.684	0.068	-0.177
-373.829	800.000	0.020	0.076
-372.815	574.961	0.134	0.328
-371.800	-117.469	-0.180	-0.033
-370.785	-200.000	-0.014	-0.087
-369.771	-154.984	-0.215	0.014
-368.756	-103.790	0.282	-0.066
-367.742	117.391	0.160	-0.197
-366.727	66.475	0.109	0.111
-365.712	688.991	0.128	0.337
-364.698	24.935	0.235	0.195
-363.683	-29.336	0.261	-0.150
-362.669	-12.284	-0.217	-0.143
-361.654	-200.000	-0.013	0.094
-360.639	208.495	0.135	-0.212
-359.625	-114.057	0.180	-0.035
-358.610	-134.151	0.096	-0.012
-357.596	109.514	0.061	0.073
-356.581	800.000	-0.094	-0.283
-355.566	450.039	0.070	-0.154
-354.552	800.000	0.050	-0.159
-353.537	53.370	-0.149	0.144
-352.523	-76.443	-0.300	-0.106
-351.508	-50.060	0.142	-0.067
-350.493	157.593	0.245	-0.340
-349.479	-67.483	0.210	0.083
-348.464	-200.000	-0.018	0.195
-347.450	494.143	0.160	0.369
-346.435	11.863	0.116	-0.090
-345.420	-61.397	0.044	-0.019
-344.406	-48.925	0.186	-0.090
-343.391	-200.000	0.024	0.135
-342.377	92.992	-0.111	0.125
-341.362	-16.061	0.386	-0.246
-340.348	-8.765	0.027	-0.018
-339.333	-98.618	-0.117	0.030
-338.318	-200.000	-0.009	-0.104
-337.304	800.000	0.052	0.192
-336.289	792.183	0.158	-0.435
-335.275	55.203	-0.296	-0.287
-334.260	451.948	0.069	0.152
-333.245	-127.828	-0.184	-0.027
-332.231	193.490	0.216	0.328
-331.216	-200.000	0.011	-0.157
-330.202	-116.271	0.259	-0.048
-329.187	15.448	0.198	0.156
-328.172	-200.000	-0.015	0.188
-327.158	339.675	-0.049	0.095
-326.143	-49.873	0.124	-0.059
-325.129	-40.410	-0.292	0.152
-324.114	-113.935	0.346	-0.067
-323.099	-91.344	-0.269	0.077
-322.085	-8.878	0.280	-0.188
-321.070	-200.000	0.052	-0.250
-320.056	-56.028	0.246	0.110
-319.041	-38.223	-0.211	-0.112
-318.026	336.863	-0.105	0.204
-317.012	-38.364	0.343	-0.182
-315.997	22.807	0.060	-0.049
-314.983	171.451	-0.078	0.112
-313.968	310.429	-0.136	-0.255
-312.953	800.000	-0.066	0.220
-311.939	-89.063	-0.128	0.038
-310.924	-102.863	-0.168	-0.040
-309.910	309.374	0.058	-0.109
-308.895	-200.000	0.020	-0.288
-307.880	-25.966	-0.240	-0.141
-306.866	16.890	0.042	-0.034
-305.851	144.812	0.142	0.190
-304.837	-183.252	-0.298	-0.005
-303.822	-52.505	0.121	-0.056
-302.807	66.685	0.193	-0.197
-301.793	265.206	-0.088	-0.153
-300.778	398.930	0.153	-0.321
-299.764	-170.657	0.096	-0.003
-298.749	30.792	0.318	-0.273
-297.735	82.266	-0.233	0.253
-296.720	-200.000	-0.035	0.379
-295.705	215.819	-0.068	0.109
-294.691	-200.000	-0.047	-0.343
-293.676	-200.000	0.002	0.205
-292.662	640.258	0.130	0.330
-291.647	53.287	0.167	-0.160
-290.632	-29.106	-0.256	0.147
-289.618	-31.116	-0.101	0.057
-288.603	415.951	0.047	-0.100
-287.589	-164.867	-0.256	-0.012
-286.574	-152.089	-0.162	0.012
-285.559	-133.593	0.299	0.037
-284.545	800.000	0.060	-0.235
-283.530	451.912	0.070	-0.155
-282.516	11.968	-0.044	-0.034
-281.501	-180.669	-0.228	-0.005
-280.486	-200.000	-0.009	0.062
-279.472	-200.000	-0.032	0.211
-278.457	-123.858	0.072	-0.011
-277.443	-200.000	-0.011	-0.056
-276.428	-200.000	-0.047	-0.235
-275.413	-57.075	0.139	-0.061
-274.399	800.000	0.016	0.067
-273.384	-200.000	-0.019	-0.172
-272.370	-103.096	0.439	0.104
-271.355	640.994	-0.133	-0.340
-270.340	-171.523	-0.158	-0.005
-269.326	150.947	0.178	0.243
-268.311	-75.793	0.286	-0.102
-267.297	190.323	-0.100	-0.150
-266.282	-109.836	-0.053	-0.011
-265.267	18.741	-0.037	0.029
-264.253	-6.343	0.099	0.067
-263.238	-200.000	-0.023	0.182
-262.224	14.751	-0.370	-0.290
-261.209	-8.086	-0.105	0.071
-260.195	-200.000	0.035	-0.242
-259.180	17.190	0.393	0.312
-258.165	407.438	-0.098	-0.207
-257.151	-99.770	0.702	-0.176
-256.136	31.966	-0.185	-0.159
-255.122	6.026	-0.324	0.240
-254.107	24.278	-0.026	-0.021
-253.092	39.328	0.234	0.210
-252.078	-99.412	-0.260	0.065
-251.063	-117.111	0.265	-0.048
-250.049	-16.490	-0.288	0.183
-249.034	-99.802	-0.181	0.045
-248.019	-98.365	-0.120	0.031
-247.005	332.896	-0.150	0.289
-245.990	-200.000	0.011	0.192
-244.976	9.352	-0.209	-0.158
-243.961	235.717	0.133	-0.220
-242.946	334.739	-0.084	0.163
-241.932	113.894	-0.208	0.252
-240.917	-37.205	-0.236	0.126
-239.903	453.386	0.100	0.220
-238.888	-12.437	-0.036	-0.024
-237.873	800.000	0.103	-0.406
-236.859	46.044	-0.159	0.147
-235.844	258.593	-0.068	0.116
-234.830	-19.316	0.023	-0.014
-233.815	-200.000	-0.022	-0.141
-232.800	294.050	-0.142	-0.259
-231.786	124.318	-0.078	-0.098
-230.771	-128.136	0.060	0.009
-229.757	471.549	-0.068	0.152
-228.742	-37.445	-0.441	0.235
-227.727	-200.000	-0.029	0.162
-226.713	-200.000	0.003	-0.146
-225.698	-6.774	-0.139	-0.094
-224.684	800.000	0.097	0.300
-223.669	800.000	-0.102	0.389
-222.655	285.938	-0.085	-0.152
-221.640	-75.274	0.254	-0.091
-220.625	67.230	-0.191	0.195
-219.611	218.943	-0.033	0.053
-218.596	293.623	-0.077	0.141
-217.582	123.743	0.303	0.379
-216.567	-67.456	0.173	0.068
-215.552	800.000	-0.067	-0.268
-214.538	173.520	0.163	0.235
-213.523	-200.000	-0.022	0.162
-212.509	-75.303	0.265	0.094
-211.494	132.437	0.098	0.126
-210.479	-16.666	0.159	-0.100
-209.465	105.100	-0.175	-0.206
-208.450	-59.777	0.197	0.084
-207.436	-130.345	-0.348	0.047
-206.421	177.082	-0.127	-0.185
-205.406	-22.355	-0.029	-0.018
-204.392	-60.102	-0.148	0.063
-203.377	-61.433	0.201	0.084
-202.363	-93.595	-0.382	-0.105
-201.348	91.832	0.077	-0.087
-200.333	-200.000	-0.007	0.213
-199.319	-79.008	-0.068	0.023
-198.304	-8.477	0.223	-0.150
-197.290	30.330	0.145	-0.124
-196.275	255.269	-0.093	-0.160
-195.260	264.355	-0.260	0.451
-194.246	-55.369	-0.272	-0.122
-193.231	-6.418	-0.145	0.099
-192.217	-72.775	-0.119	-0.044
-191.202	187.579	0.211	0.314
-190.187	554.291	0.029	-0.070
-189.173	-94.636	0.081	-0.022
-188.158	-117.475	-0.212	-0.038
-187.144	644.960	0.080	0.204
-186.129	800.000	-0.066	0.199
-185.114	-88.396	-0.263	0.078
-184.100	-200.000	0.044	-0.286
-183.085	-74.888	-0.206	-0.074
-182.071	216.094	-0.068	0.108
-181.056	617.199	0.008	-0.021
-180.042	-140.056	0.064	0.007
-179.027	800.000	0.091	-0.308
-178.012	-72.046	0.220	0.082
-176.998	-200.000	-0.001	0.170
-175.983	164.351	0.147	-0.207
-174.969	364.280	0.165	-0.330
-173.954	800.000	0.108	0.338
-172.939	651.195	-0.082	0.210
-171.925	-200.000	-0.022	0.258
-170.910	-200.000	-0.019	0.280
-169.896	-92.898	0.115	0.032
-168.881	-74.999	0.081	-0.029
-167.866	-155.747	-0.190	0.012
-166.852	-68.406	0.246	0.095
-165.837	800.000	0.023	0.069
-164.823	-71.726	-0.249	0.093
-163.808	-141.323	0.244	-0.025
-162.793	-128.393	0.100	0.014
-161.779	-45.680	-0.448	-0.221
-160.764	226.800	0.100	0.161
-159.750	-53.503	-0.453	-0.207
-158.735	-37.519	-0.068	-0.036
-157.720	-200.000	0.051	0.455
-156.706	-130.488	-0.362	-0.049
-155.691	-200.000	0.010	-0.061
-154.677	-200.000	0.050	-0.232
-153.662	800.000	0.078	-0.241
-152.647	40.587	0.173	0.155
-151.633	81.551	-0.147	0.159
-150.618	-95.652	0.312	-0.083
-149.604	1.523	0.134	-0.096
-148.589	6.899	0.362	-0.269
-147.574	306.103	0.040	-0.074
-146.560	166.472	0.234	0.330
-145.545	7.928	-0.111	-0.083
-144.531	458.309	0.068	0.151
-143.516	-166.976	-0.209	0.009
-142.502	32.227	0.110	-0.095
-141.487	-104.857	-0.259	0.059
-140.472	-69.672	0.133	-0.051
-139.458	-200.000	0.004	-0.273
-138.443	-2.590	0.237	0.165
-137.429	276.364	0.100	0.177
-136.414	-200.000	-0.009	-0.067
-135.399	-71.623	0.193	-0.072
-134.385	-9.789	-0.176	0.117
-133.370	-11.185	0.124	0.081
-132.356	-200.000	-0.028	0.237
-131.341	-179.308	-0.381	-0.008
-130.326	-97.628	-0.100	-0.026
-129.312	-200.000	0.004	-0.082
-128.297	1.786	0.246	0.177
-127.283	-200.000	0.002	-0.148
-126.268	800.000	0.057	-0.245
-125.253	-200.000	0.016	-0.115
-124.239	-34.402	0.119	0.065
-123.224	180.738	0.157	-0.230
-122.210	456.013	0.036	-0.080
-121.195	73.752	0.092	0.096
