DTS Sentinel unit serial number:	SN413079Multiplexer serial number:	ORYXHardware model number:	OX4-SRSoftware version number:	ORYX F/W v4.00 Oryx Data Collector v3.7.2.0data status	okinstallation	princeton_trtdifferential loss correction	single-endedforward channel	channel 1reverse channel	N/Adate	2019/09/18time	11:58:35forward acquisition time	60.00reverse acquisition time	0.00gamma	496.2192k internal	0.2323k external	0.2323temperature offset calibration	0.9978default loss term (dB/km)	0.3790temperature slope calibration	1.0000multiplexer offset coefficient	1.0000multiplexer slope coefficient	1.0000fibre end	0.00T internal ref (°C)	31.48T ext. ref 1 (°C)	0.49T ext. ref 2 (°C)	27.68length (m)	temperature (°C)	Stokes	anti-Stokes-747.200	140.375	0.098	0.131
-746.185	-59.167	-0.162	-0.070
-745.171	-31.180	0.088	-0.050
-744.156	-77.575	-0.337	0.118
-743.142	154.875	0.084	0.117
-742.127	-5.992	-0.191	0.132
-741.112	120.714	0.042	0.052
-740.098	-51.255	-0.517	0.244
-739.083	-28.841	-0.175	0.102
-738.069	100.762	0.110	0.129
-737.054	44.550	-0.090	-0.083
-736.039	-200.000	0.035	0.164
-735.025	27.359	0.240	0.203
-734.010	-200.000	-0.066	-0.339
-732.996	-124.158	0.146	-0.023
-731.981	118.342	0.129	0.161
-730.966	-132.321	-0.417	0.054
-729.952	-47.650	0.250	-0.123
-728.937	-188.171	-0.239	0.003
-727.923	-200.000	-0.013	0.072
-726.908	120.636	0.087	0.110
-725.894	-3.154	0.153	-0.108
-724.879	35.368	0.196	0.174
-723.864	-3.327	0.221	-0.156
-722.850	800.000	0.026	-0.094
-721.835	-123.886	0.409	0.065
-720.821	47.711	-0.186	0.175
-719.806	-13.401	-0.274	0.179
-718.791	12.970	0.134	-0.105
-717.777	-200.000	-0.005	-0.139
-716.762	-46.693	0.147	-0.073
-715.748	216.564	-0.225	-0.361
-714.733	800.000	0.082	-0.243
-713.718	-43.337	-0.069	-0.035
-712.704	-200.000	0.043	0.305
-711.689	800.000	-0.083	-0.239
-710.675	157.456	-0.153	0.213
-709.660	-87.271	-0.015	-0.005
-708.645	142.309	-0.124	-0.165
-707.631	38.560	0.319	0.287
-706.616	82.815	0.254	0.279
-705.602	-109.302	0.112	0.024
-704.587	-61.477	0.207	-0.088
-703.572	306.478	0.202	0.378
-702.558	175.586	0.282	0.413
-701.543	800.000	0.069	-0.264
-700.529	22.736	0.181	-0.149
-699.514	-101.868	-0.066	0.016
-698.499	48.671	-0.437	-0.413
-697.485	-87.537	-0.170	0.052
-696.470	118.749	-0.089	-0.111
-695.456	32.382	0.166	-0.144
-694.441	67.674	-0.117	-0.121
-693.426	546.818	-0.105	-0.254
-692.412	265.929	-0.052	0.091
-691.397	-12.492	0.061	0.040
-690.383	-200.000	0.006	0.214
-689.368	-75.057	-0.355	-0.128
-688.354	170.410	-0.037	0.054
-687.339	35.421	0.098	0.086
-686.324	-43.509	0.215	0.109
-685.310	800.000	0.100	-0.314
-684.295	59.514	-0.045	0.045
-683.281	21.012	-0.126	0.103
-682.266	-93.961	0.338	-0.094
-681.251	-60.850	-0.387	0.165
-680.237	-55.217	-0.128	-0.058
-679.222	-200.000	0.017	0.244
-678.208	-64.445	-0.144	-0.059
-677.193	690.310	0.142	0.375
-676.178	-126.832	-0.320	-0.048
-675.164	-124.234	-0.343	-0.054
-674.149	-200.000	0.037	-0.206
-673.135	620.090	0.018	0.046
-672.120	-55.722	-0.352	0.159
-671.105	12.338	0.227	0.176
-670.091	610.871	0.072	-0.181
-669.076	685.238	0.119	-0.313
-668.062	800.000	-0.065	-0.283
-667.047	197.992	0.250	-0.385
-666.032	-200.000	-0.025	0.182
-665.018	-77.423	-0.042	-0.015
-664.003	242.777	0.120	-0.202
-662.989	-74.847	0.254	-0.092
-661.974	-66.646	-0.121	-0.048
-660.959	106.900	0.140	-0.168
-659.945	9.839	0.241	0.184
-658.930	-113.254	-0.228	0.045
-657.916	-200.000	0.007	-0.032
-656.901	800.000	0.011	0.044
-655.886	41.026	-0.185	-0.168
-654.872	-120.986	-0.096	-0.016
-653.857	-56.165	0.294	0.131
-652.843	156.203	-0.131	-0.181
-651.828	-2.790	0.185	-0.130
-650.814	14.590	0.225	-0.177
-649.799	-200.000	0.019	0.213
-648.784	-200.000	-0.016	-0.069
-647.770	-94.774	0.176	-0.048
-646.755	191.645	-0.101	-0.153
-645.741	-74.184	0.258	0.094
-644.726	30.453	-0.163	-0.140
-643.711	-86.524	0.234	-0.072
-642.697	216.342	0.140	-0.223
-641.682	203.967	-0.075	0.117
-640.668	497.372	-0.163	-0.376
-639.653	106.211	0.187	-0.223
-638.638	-128.885	0.229	-0.032
-637.624	-9.962	-0.076	-0.051
-636.609	-25.034	-0.192	0.114
-635.595	13.536	0.221	0.172
-634.580	121.790	-0.120	0.151
-633.565	-33.280	-0.114	0.063
-632.551	375.395	0.168	-0.344
-631.536	800.000	-0.042	-0.132
-630.522	290.281	0.080	0.147
-629.507	574.585	-0.021	-0.052
-628.492	694.033	0.129	-0.340
-627.478	-165.205	-0.168	-0.007
-626.463	61.381	0.266	0.266
-625.449	-158.973	0.074	-0.004
-624.434	800.000	0.116	-0.354
-623.419	-154.923	0.142	-0.009
-622.405	215.330	0.121	0.194
-621.390	800.000	0.173	0.612
-620.376	-146.902	-0.230	0.020
-619.361	210.795	0.060	-0.094
-618.346	-67.113	-0.152	-0.060
-617.332	589.764	0.025	-0.062
-616.317	20.008	-0.202	0.163
-615.303	-200.000	-0.027	0.194
-614.288	-94.670	-0.250	0.068
-613.273	141.816	-0.285	-0.380
-612.259	-61.361	0.239	-0.101
-611.244	102.025	0.212	-0.249
-610.230	134.441	-0.168	-0.219
-609.215	184.052	-0.135	0.200
-608.201	4.715	0.151	-0.111
-607.186	-200.000	-0.014	0.078
-606.171	-200.000	-0.003	0.134
-605.157	-93.296	0.127	0.035
-604.142	800.000	0.038	-0.149
-603.128	-200.000	0.002	-0.166
-602.113	-81.394	0.446	-0.147
-601.098	104.735	-0.123	-0.146
-600.084	117.444	-0.141	-0.174
-599.069	-200.000	0.061	-0.296
-598.055	157.764	0.110	-0.153
-597.040	-200.000	0.001	-0.095
-596.025	-24.562	0.253	-0.151
-595.011	0.203	0.157	-0.112
-593.996	232.065	-0.043	-0.070
-592.982	108.499	-0.105	0.126
-591.967	386.271	-0.125	-0.259
-590.952	-200.000	0.012	0.087
-589.938	-200.000	0.012	-0.164
-588.923	583.621	0.106	0.262
-587.909	18.212	-0.031	-0.025
-586.894	-128.201	-0.167	-0.024
-585.879	361.759	0.080	0.161
-584.865	-200.000	-0.021	0.352
-583.850	539.009	-0.126	-0.301
-582.836	130.771	0.128	-0.165
-581.821	-59.216	-0.108	0.047
-580.806	-114.420	-0.224	0.043
-579.792	-109.133	0.089	-0.019
-578.777	-200.000	-0.036	0.193
-577.763	-167.913	0.027	-0.001
-576.748	-28.101	-0.168	0.098
-575.733	-91.299	-0.222	0.064
-574.719	251.757	-0.166	-0.283
-573.704	410.626	0.061	-0.130
-572.690	-200.000	-0.001	-0.496
-571.675	105.184	-0.091	-0.108
-570.661	67.749	0.177	-0.182
-569.646	-11.266	-0.154	-0.102
-568.631	-24.102	0.376	-0.225
-567.617	-104.400	-0.161	-0.037
-566.602	-200.000	-0.019	-0.558
-565.588	239.541	-0.121	-0.202
-564.573	0.590	-0.164	-0.118
-563.558	84.220	-0.071	0.078
-562.544	-200.000	0.068	0.460
-561.529	800.000	-0.027	-0.075
-560.515	-74.018	0.131	0.048
-559.500	-57.326	0.166	-0.073
-558.485	-200.000	0.262	0.000
-557.471	800.000	0.025	-0.097
-556.456	148.926	0.112	0.152
-555.442	-86.950	0.098	0.030
-554.427	87.927	0.238	0.265
-553.412	-25.798	-0.256	0.151
-552.398	-80.598	0.064	-0.021
-551.383	-200.000	-0.027	0.306
-550.369	800.000	0.139	0.566
-549.354	182.885	-0.124	-0.184
-548.339	371.348	-0.072	0.147
-547.325	71.526	0.063	-0.066
-546.310	-200.000	0.016	0.407
-545.296	25.281	-0.150	-0.125
-544.281	14.665	-0.159	-0.124
-543.266	800.000	-0.100	0.294
-542.252	-156.583	-0.210	0.013
-541.237	-200.000	-0.040	0.218
-540.223	-200.000	0.005	-0.294
-539.208	40.740	-0.097	0.088
-538.193	-22.704	0.355	-0.215
-537.179	-105.526	0.189	0.043
-536.164	-56.853	-0.242	-0.107
-535.150	59.035	0.216	0.212
-534.135	128.565	0.120	-0.153
-533.121	214.514	0.142	0.225
-532.106	800.000	-0.076	-0.250
-531.091	72.931	-0.129	-0.135
-530.077	-200.000	0.009	-0.162
-529.062	151.436	-0.068	-0.093
-528.048	-161.087	0.070	0.004
-527.033	250.656	0.102	0.174
-526.018	-34.006	-0.245	-0.135
-525.004	-95.460	-0.233	-0.063
-523.989	251.523	-0.145	-0.247
-522.975	-60.168	0.170	0.073
-521.960	-73.593	-0.133	-0.049
-520.945	-108.776	0.284	0.061
-519.931	-200.000	-0.002	-0.330
-518.916	-99.351	0.062	-0.016
-517.902	55.612	-0.122	0.118
-516.887	-161.001	-0.056	0.003
-515.872	38.340	-0.279	-0.249
-514.858	12.723	-0.102	0.079
-513.843	-114.655	-0.068	-0.013
-512.829	-44.349	-0.084	0.042
-511.814	239.255	-0.142	-0.236
-510.799	-44.033	0.284	-0.143
-509.785	-157.248	0.221	-0.013
-508.770	-200.000	0.038	0.217
-507.756	30.964	-0.234	0.200
-506.741	58.991	-0.255	0.251
-505.726	-88.669	-0.044	0.013
-504.712	-32.692	-0.269	0.150
-503.697	-94.886	0.196	0.053
-502.683	800.000	-0.094	-0.342
-501.668	800.000	-0.207	0.579
-500.653	58.428	0.237	-0.233
-499.639	74.176	-0.047	0.050
-498.624	33.601	-0.169	-0.147
-497.610	-119.460	-0.142	0.025
-496.595	-25.348	0.144	-0.085
-495.581	800.000	-0.058	0.244
-494.566	-200.000	-0.003	-0.028
-493.551	-82.364	0.160	-0.052
-492.537	800.000	-0.042	0.179
-491.522	23.267	0.218	-0.179
-490.508	108.412	0.127	0.151
-489.493	11.569	0.262	0.201
-488.478	379.157	0.050	0.102
-487.464	-69.258	-0.161	-0.062
-486.449	-17.293	0.127	0.080
-485.435	68.105	-0.086	-0.088
-484.420	7.364	0.283	0.211
-483.405	683.067	-0.090	0.235
-482.391	354.770	0.177	0.351
-481.376	800.000	0.117	0.406
-480.362	-38.026	0.357	-0.189
-479.347	-139.710	0.361	-0.038
-478.332	129.565	-0.129	-0.165
-477.318	304.583	-0.019	0.036
-476.303	700.758	-0.048	-0.126
-475.289	32.613	0.245	-0.212
-474.274	-128.388	0.178	-0.025
-473.259	285.232	-0.058	0.104
-472.245	-59.765	-0.157	0.067
-471.230	214.942	0.094	-0.148
-470.216	800.000	-0.102	-0.308
-469.201	182.701	0.132	-0.194
-468.186	-149.535	-0.292	-0.023
-467.172	-200.000	-0.041	-0.380
-466.157	12.296	-0.097	0.075
-465.143	800.000	-0.084	0.247
-464.128	-176.999	-0.262	-0.007
-463.113	-47.974	-0.072	0.035
-462.099	-27.885	0.226	0.131
-461.084	72.920	-0.064	-0.066
-460.070	-187.205	0.205	0.003
-459.055	-96.064	0.174	-0.046
-458.040	114.783	-0.162	0.198
-457.026	-169.480	-0.398	0.015
-456.011	22.966	0.251	0.206
-454.997	-200.000	0.018	-0.081
-453.982	222.812	0.087	0.139
-452.968	-135.637	-0.140	-0.017
-451.953	-200.000	0.044	-0.339
-450.938	534.612	0.086	0.203
-449.924	-26.960	0.093	-0.054
-448.909	542.043	0.041	0.098
-447.895	-200.000	-0.091	0.426
-446.880	5.071	-0.075	-0.055
-445.865	352.805	0.041	-0.081
-444.851	-89.687	-0.267	0.078
-443.836	43.754	0.084	-0.077
-442.822	-172.853	-0.174	-0.005
-441.807	-200.000	-0.009	-0.185
-440.792	-11.035	-0.114	-0.075
-439.778	1.197	0.216	0.155
-438.763	254.800	0.061	0.104
-437.749	29.074	-0.263	-0.223
-436.734	7.766	-0.145	-0.108
-435.719	200.234	-0.087	-0.134
-434.705	-55.677	-0.056	0.025
-433.690	96.573	0.300	-0.343
-432.676	18.165	-0.121	-0.096
-431.661	369.905	0.136	0.275
-430.646	-144.635	0.326	0.030
-429.632	-200.000	0.005	0.273
-428.617	-200.000	0.008	-0.239
-427.603	-69.224	-0.203	-0.078
-426.588	520.788	0.077	-0.180
-425.573	221.106	0.082	-0.131
-424.559	142.549	-0.213	0.283
-423.544	-5.243	-0.342	-0.235
-422.530	-145.413	-0.196	-0.018
-421.515	-21.911	-0.409	-0.248
-420.500	-140.498	0.033	0.003
-419.486	62.602	0.075	-0.075
-418.471	800.000	-0.058	-0.182
-417.457	-99.830	-0.204	-0.051
-416.442	470.789	0.024	0.054
-415.428	125.396	0.179	0.225
-414.413	88.854	0.203	-0.225
-413.398	-48.333	-0.166	-0.080
-412.384	157.834	0.138	-0.190
-411.369	49.601	0.037	0.035
-410.355	273.361	0.120	0.211
-409.340	-200.000	-0.010	-0.088
-408.325	89.304	-0.120	-0.133
-407.311	-113.160	-0.185	0.036
-406.296	162.308	-0.160	0.223
-405.282	-48.265	-0.229	-0.110
-404.267	-18.657	0.072	0.045
-403.252	157.165	0.137	0.189
-402.238	-200.000	-0.026	0.185
-401.223	314.629	0.038	0.071
-400.209	106.697	0.263	-0.311
-399.194	-23.856	-0.193	-0.115
-398.179	-11.167	-0.127	0.084
-397.165	32.752	-0.184	-0.159
-396.150	800.000	0.029	0.128
-395.136	-58.482	0.071	0.031
-394.121	-200.000	-0.075	-0.413
-393.106	424.459	0.066	-0.141
-392.092	-181.147	-0.159	-0.003
-391.077	173.159	0.245	0.352
-390.063	-68.440	0.105	0.041
-389.048	-63.515	-0.152	0.062
-388.033	99.120	-0.084	0.096
-387.019	800.000	-0.042	0.118
-386.004	11.736	-0.210	0.160
-384.990	-200.000	0.002	0.120
-383.975	-200.000	0.062	0.277
-382.960	120.046	-0.036	-0.044
-381.946	-200.000	-0.018	-0.174
-380.931	383.060	-0.109	-0.223
-379.917	-32.245	0.256	0.142
-378.902	662.445	-0.060	0.155
-377.888	-78.453	0.228	-0.078
-376.873	318.830	0.032	-0.061
-375.858	56.531	-0.180	-0.174
-374.844	154.698	-0.213	0.291
-373.829	-170.224	0.221	-0.008
-372.815	-62.966	-0.232	-0.095
-371.800	211.572	0.147	-0.230
-370.785	-200.000	0.013	-0.063
-369.771	447.059	-0.033	0.072
-368.756	39.120	-0.121	0.107
-367.742	19.699	-0.382	0.306
-366.727	800.000	-0.099	-0.295
-365.712	175.928	-0.174	-0.251
-364.698	-79.040	-0.178	-0.060
-363.683	161.142	-0.181	0.251
-362.669	30.333	-0.070	0.059
-361.654	-84.186	-0.064	-0.020
-360.639	-49.249	-0.056	0.026
-359.625	-200.000	-0.006	0.063
-358.610	-116.433	-0.130	-0.024
-357.596	-176.875	0.137	-0.003
-356.581	-90.164	-0.199	0.057
-355.566	-22.469	0.213	-0.128
-354.552	341.595	0.050	-0.096
-353.537	642.798	-0.078	0.197
-352.523	94.543	-0.048	-0.054
-351.508	-200.000	0.017	-0.231
-350.493	-200.000	0.017	0.105
-349.479	-126.399	-0.241	-0.036
-348.464	-68.946	0.104	-0.040
-347.450	51.874	0.037	0.035
-346.435	541.372	-0.025	0.059
-345.420	192.299	-0.116	-0.174
-344.406	-193.786	0.084	0.001
-343.391	-135.261	0.182	-0.022
-342.377	-120.168	-0.213	-0.036
-341.362	302.579	0.042	0.078
-340.348	800.000	-0.066	0.205
-339.333	-3.771	0.009	-0.006
-338.318	603.002	0.125	0.310
-337.304	-200.000	-0.011	0.361
-336.289	-95.009	-0.163	0.044
-335.275	-92.298	0.143	-0.040
-334.260	-81.720	0.260	0.085
-333.245	-1.014	-0.445	-0.313
-332.231	31.185	0.090	-0.077
-331.216	263.210	-0.076	-0.131
-330.202	-200.000	0.019	-0.139
-329.187	478.464	0.153	-0.344
-328.172	800.000	0.052	0.148
-327.158	-81.413	-0.265	0.087
-326.143	-45.461	0.063	-0.031
-325.129	173.269	0.179	0.257
-324.114	800.000	0.060	0.251
-323.099	21.560	-0.162	0.131
-322.085	322.864	-0.095	0.180
-321.070	-70.494	0.170	0.064
-320.056	-197.633	-0.018	0.000
-319.041	476.751	-0.204	-0.459
-318.026	-21.661	-0.152	0.092
-317.012	-7.986	-0.147	-0.099
-315.997	-28.994	-0.173	-0.099
-314.983	800.000	0.058	0.242
-313.968	13.410	0.185	0.142
-312.953	113.303	0.235	0.283
-311.939	-200.000	0.124	0.626
-310.924	116.602	-0.200	-0.244
-309.910	-200.000	-0.010	0.385
-308.895	25.486	-0.232	0.192
-307.880	-0.292	0.158	-0.111
-306.866	-200.000	0.005	-0.070
-305.851	147.291	0.042	0.056
-304.837	-200.000	-0.025	-0.335
-303.822	-93.287	0.200	0.055
-302.807	283.413	-0.058	-0.103
-301.793	-78.475	0.224	-0.076
-300.778	-44.779	-0.096	0.048
-299.764	171.621	-0.194	0.276
-298.749	-90.233	-0.101	-0.029
-297.735	-200.000	0.010	0.187
-296.720	800.000	0.017	0.059
-295.705	-200.000	-0.031	-0.281
-294.691	-157.989	0.390	-0.023
-293.676	-200.000	-0.001	-0.038
-292.662	-144.866	0.268	0.024
-291.647	-146.534	0.210	-0.018
-290.632	-117.396	-0.472	-0.085
-289.618	-147.195	0.320	-0.027
-288.603	800.000	0.096	0.279
-287.589	6.431	-0.045	0.033
-286.574	304.986	0.060	0.111
-285.559	-112.183	0.081	0.016
-284.545	223.868	-0.158	0.252
-283.530	426.677	-0.097	-0.207
-282.516	800.000	0.020	-0.054
-281.501	-200.000	0.008	0.439
-280.486	-33.387	-0.085	0.047
-279.472	800.000	-0.073	0.258
-278.457	-47.851	-0.151	-0.073
-277.443	26.350	-0.334	0.277
-276.428	-101.504	0.247	-0.059
-275.413	53.970	0.126	-0.120
-274.399	-68.015	-0.163	0.063
-273.384	800.000	0.058	-0.161
-272.370	57.784	0.054	-0.052
-271.355	55.489	-0.169	-0.162
-270.340	-200.000	-0.010	-0.334
-269.326	-200.000	0.040	0.241
-268.311	800.000	0.074	-0.235
-267.297	53.841	0.099	-0.094
-266.282	-29.935	-0.111	0.063
-265.267	-200.000	0.017	-0.205
-264.253	262.914	0.089	0.153
-263.238	-106.495	0.309	-0.068
-262.224	-200.000	0.030	-0.133
-261.209	-200.000	0.002	0.108
-260.195	-115.217	-0.281	-0.053
-259.180	-12.424	-0.291	0.189
-258.165	800.000	0.030	-0.122
-257.151	-160.080	0.167	0.009
-256.136	318.059	-0.099	0.185
-255.122	-127.013	0.043	0.006
-254.107	-55.369	-0.097	-0.043
-253.092	-7.985	-0.143	0.096
-252.078	-69.984	0.187	0.070
-251.063	-200.000	-0.032	0.146
-250.049	176.787	0.248	-0.357
-249.034	15.417	0.317	0.246
-248.019	68.496	-0.028	0.029
-247.005	-61.428	-0.422	-0.176
-245.990	-17.275	0.059	-0.037
-244.976	-117.352	-0.008	-0.002
-243.961	-97.278	0.147	0.038
-242.946	61.423	-0.085	-0.084
-241.932	-66.366	0.317	0.125
-240.917	1.311	0.068	-0.049
-239.903	-23.143	0.115	0.069
-238.888	269.954	0.032	-0.055
-237.873	-33.642	-0.173	-0.094
-236.859	-160.472	-0.377	0.020
-235.844	-150.607	-0.292	0.022
-234.830	800.000	0.045	-0.176
-233.815	-41.073	-0.289	-0.148
-232.800	139.242	-0.055	-0.071
-231.786	-96.201	0.215	-0.056
-230.771	-160.798	0.136	0.007
-229.757	-200.000	0.044	-0.203
-228.742	-55.138	0.233	0.104
-227.727	-42.589	0.227	0.115
-226.713	-200.000	0.021	-0.223
-225.698	-200.000	0.004	0.360
-224.684	-116.588	0.262	-0.048
-223.669	-137.461	0.113	0.013
-222.655	-200.000	-0.018	-0.140
-221.640	800.000	0.055	0.169
-220.625	-123.637	0.146	0.023
-219.611	11.514	0.343	-0.260
-218.596	385.854	-0.203	0.414
-217.582	800.000	0.036	-0.133
-216.567	1.196	0.079	-0.056
-215.552	800.000	-0.059	-0.175
-214.538	375.270	0.090	0.181
-213.523	-200.000	-0.020	0.193
-212.509	-52.518	0.091	-0.042
-211.494	133.835	-0.163	0.208
-210.479	-61.217	-0.118	0.049
-209.465	535.276	-0.040	0.093
-208.450	159.172	0.151	-0.207
-207.436	53.981	-0.187	0.178
-206.421	-94.112	0.258	0.070
-205.406	800.000	0.002	-0.009
-204.392	-131.888	-0.214	0.028
-203.377	-200.000	0.013	0.088
-202.363	-86.403	0.462	0.140
-201.348	-200.000	-0.062	0.374
-200.333	-102.138	0.182	-0.043
-199.319	-200.000	-0.031	-0.336
-198.304	-135.086	0.187	0.022
-197.290	-34.184	0.237	0.129
-196.275	800.000	-0.058	-0.172
-195.260	222.787	-0.213	-0.340
-194.246	-174.807	0.295	-0.008
-193.231	-42.176	0.370	0.187
-192.217	-200.000	-0.017	0.135
-191.202	14.054	-0.118	0.091
-190.187	800.000	-0.046	-0.166
-189.173	-200.000	-0.013	0.186
-188.158	-7.421	-0.241	-0.161
-187.144	269.776	-0.098	-0.170
-186.129	-200.000	0.005	0.103
-185.114	800.000	0.034	0.145
-184.100	277.671	0.185	0.325
-183.085	-26.324	0.153	0.089
-182.071	-200.000	-0.055	0.319
-181.056	-190.312	-0.463	0.005
-180.042	128.851	0.360	0.453
-179.027	-81.991	0.332	-0.107
-178.012	-62.645	-0.049	-0.020
-176.998	632.894	-0.018	-0.045
-175.983	-84.669	-0.421	-0.131
-174.969	-106.056	0.217	0.048
-173.954	-200.000	-0.006	-0.262
-172.939	121.494	-0.065	0.080
-171.925	632.166	0.048	-0.120
-170.910	32.600	-0.134	0.115
-169.896	25.192	-0.285	-0.234
-168.881	694.565	0.069	0.179
-167.866	213.441	0.240	-0.374
-166.852	670.719	-0.066	0.168
-165.837	800.000	0.067	0.224
-164.823	66.537	0.098	0.099
-163.808	-200.000	-0.024	-0.114
-162.793	-200.000	-0.070	0.457
-161.779	-138.162	-0.228	-0.025
-160.764	284.425	0.128	-0.228
-159.750	258.901	-0.037	0.062
-158.735	602.626	-0.051	0.125
-157.720	-200.000	-0.006	-0.157
-156.706	111.962	0.272	0.324
-155.691	-9.263	0.147	-0.097
-154.677	800.000	-0.011	-0.047
-153.662	-49.123	-0.182	-0.086
-152.647	694.167	-0.054	-0.140
-151.633	209.007	0.139	-0.214
-150.618	-16.227	0.235	-0.147
-149.604	111.748	0.133	-0.159
-148.589	166.157	0.260	-0.363
-147.574	-47.254	-0.086	-0.041
-146.560	4.379	-0.215	-0.155
-145.545	-30.189	-0.169	-0.095
-144.531	800.000	-0.107	0.382
-143.516	-200.000	-0.006	0.118
-142.502	800.000	-0.095	-0.366
-141.487	-129.112	-0.421	0.058
-140.472	800.000	-0.057	0.213
-139.458	800.000	0.089	0.323
-138.443	15.201	0.259	-0.201
-137.429	-151.861	0.579	-0.042
-136.414	718.306	-0.109	-0.284
-135.399	0.072	0.274	0.192
-134.385	-200.000	-0.038	0.277
-133.370	265.190	-0.093	0.160
-132.356	309.567	0.120	0.220
-131.341	-200.000	0.026	0.187
-130.326	-67.291	0.148	0.057
-129.312	-200.000	0.015	-0.112
-128.297	-200.000	-0.002	0.257
-127.283	-200.000	0.005	0.095
-126.268	72.432	-0.232	0.238
-125.253	110.522	-0.073	-0.087
-124.239	-58.373	-0.092	0.039
-123.224	36.551	0.054	0.047
-122.210	770.793	0.061	0.164
-121.195	-37.158	0.137	0.072
