DTS Sentinel unit serial number:	SN413079Multiplexer serial number:	ORYXHardware model number:	OX4-SRSoftware version number:	ORYX F/W v4.00 Oryx Data Collector v3.7.2.0data status	okinstallation	princeton_trtdifferential loss correction	single-endedforward channel	channel 1reverse channel	N/Adate	2019/09/12time	18:43:34forward acquisition time	15.00reverse acquisition time	0.00gamma	496.2192k internal	0.2319k external	0.2319temperature offset calibration	1.0116default loss term (dB/km)	0.3790temperature slope calibration	1.0000multiplexer offset coefficient	1.0000multiplexer slope coefficient	1.0000fibre end	0.00T internal ref (°C)	33.00T ext. ref 1 (°C)	2.99T ext. ref 2 (°C)	27.57length (m)	temperature (°C)	Stokes	anti-Stokes-747.200	688.741	0.313	0.829
-746.185	-55.928	0.130	0.059
-745.171	-200.000	0.043	-0.343
-744.156	-74.283	-0.796	-0.291
-743.142	-85.393	0.617	0.195
-742.127	-140.412	0.191	0.020
-741.112	800.000	-0.362	-1.466
-740.098	-162.905	-0.410	0.020
-739.083	-181.111	-0.409	-0.008
-738.069	800.000	-0.186	-0.596
-737.054	800.000	-0.331	-1.013
-736.039	141.880	-0.444	-0.595
-735.025	-60.075	0.880	0.380
-734.010	-200.000	0.055	0.303
-732.996	447.344	0.481	-1.071
-731.981	800.000	-0.061	0.255
-730.966	324.741	0.191	-0.370
-729.952	-85.738	-0.548	-0.172
-728.937	-200.000	-0.010	0.915
-727.923	-0.207	-0.594	-0.428
-726.908	800.000	0.101	-0.365
-725.894	690.300	0.101	0.268
-724.879	-54.083	0.416	-0.191
-723.864	83.811	0.485	0.535
-722.850	424.905	-0.086	0.186
-721.835	207.045	0.370	-0.583
-720.821	-41.414	0.251	0.131
-719.806	800.000	0.102	0.374
-718.791	-200.000	0.028	-0.303
-717.777	485.066	-0.223	0.513
-716.762	-200.000	-0.053	-0.502
-715.748	-10.371	0.131	0.088
-714.733	-123.611	-0.061	0.010
-713.718	-200.000	0.051	-0.269
-712.704	-100.527	-0.714	-0.178
-711.689	-152.813	0.702	0.050
-710.675	256.533	0.336	0.582
-709.660	-153.943	1.031	0.071
-708.645	446.282	0.254	-0.565
-707.631	272.545	0.017	-0.031
-706.616	800.000	0.078	-0.335
-705.602	53.086	-0.391	0.378
-704.587	-141.401	-0.495	0.051
-703.572	-200.000	-0.087	0.813
-702.558	-98.542	0.300	0.077
-701.543	-200.000	-0.025	-0.136
-700.529	-173.783	0.874	0.026
-699.514	51.548	0.169	0.163
-698.499	171.957	0.112	-0.162
-697.485	-71.586	0.926	0.349
-696.470	-200.000	0.064	0.472
-695.456	-170.024	-0.798	-0.029
-694.441	800.000	-0.105	-0.341
-693.426	-117.855	-0.824	-0.149
-692.412	22.022	-0.097	-0.080
-691.397	556.285	-0.448	-1.090
-690.383	-86.115	-0.468	-0.146
-689.368	-200.000	-0.014	-0.309
-688.354	-200.000	0.127	0.624
-687.339	-200.000	0.142	0.715
-686.324	800.000	-0.101	0.314
-685.310	-166.098	-1.135	-0.049
-684.295	-12.682	0.367	0.242
-683.281	130.125	0.215	-0.278
-682.266	146.216	-0.072	0.098
-681.251	800.000	0.211	-0.608
-680.237	800.000	-0.200	0.596
-679.222	325.940	0.175	-0.338
-678.208	309.531	-0.263	0.497
-677.193	269.663	-0.409	-0.725
-676.178	-125.108	-0.329	0.051
-675.164	800.000	-0.119	0.491
-674.149	569.450	0.116	0.286
-673.135	-141.591	-0.578	0.059
-672.120	-90.222	0.517	-0.152
-671.105	62.922	-0.442	0.446
-670.091	73.764	0.287	-0.304
-669.076	35.049	-0.583	-0.515
-668.062	800.000	-0.171	-0.693
-667.047	-8.817	0.753	0.509
-666.032	-123.728	0.112	-0.018
-665.018	-146.166	-0.311	-0.028
-664.003	137.066	-0.104	-0.138
-662.989	800.000	0.252	0.817
-661.974	24.628	-0.319	-0.266
-660.959	289.454	0.218	0.398
-659.945	-188.134	0.718	-0.009
-658.930	72.045	-0.328	-0.345
-657.916	759.427	-0.283	0.774
-656.901	-200.000	0.119	-0.586
-655.886	-200.000	0.003	0.436
-654.872	-200.000	0.075	-0.622
-653.857	800.000	-0.067	0.201
-652.843	-95.129	-0.210	0.057
-651.828	-162.325	0.605	-0.030
-650.814	-200.000	-0.047	0.953
-649.799	-82.302	0.410	-0.134
-648.784	-102.252	-0.257	0.062
-647.770	164.113	-0.731	-1.038
-646.755	-86.871	0.676	0.208
-645.741	417.971	-0.283	0.611
-644.726	1.599	-0.301	0.218
-643.711	-104.862	0.188	0.043
-642.697	349.159	-0.052	-0.104
-641.682	-13.502	-0.075	-0.049
-640.668	-200.000	-0.015	0.153
-639.653	294.083	0.258	-0.474
-638.638	17.192	0.715	0.571
-637.624	13.972	-0.697	0.547
-636.609	-200.000	0.019	-0.368
-635.595	-200.000	0.075	-0.493
-634.580	26.670	0.190	0.160
-633.565	-89.446	0.216	0.064
-632.551	55.730	-0.133	-0.130
-631.536	136.395	0.572	-0.752
-630.522	574.027	-0.165	-0.405
-629.507	248.576	-0.246	0.419
-628.492	710.322	-0.156	-0.415
-627.478	800.000	0.162	-0.536
-626.463	151.182	-0.328	0.449
-625.449	-200.000	-0.008	0.597
-624.434	-59.230	0.431	0.187
-623.419	-73.201	-0.472	0.174
-622.405	139.644	0.522	0.692
-621.390	208.352	0.012	0.019
-620.376	-7.080	-0.237	-0.162
-619.361	275.440	0.173	0.309
-618.346	277.666	0.441	-0.790
-617.332	-200.000	0.059	-1.274
-616.317	61.812	0.540	0.542
-615.303	-200.000	-0.045	-0.328
-614.288	-99.738	-0.774	-0.195
-613.273	-200.000	0.111	0.505
-612.259	-114.986	-0.734	0.140
-611.244	-200.000	0.008	-0.064
-610.230	800.000	-0.192	-0.561
-609.215	-38.310	0.386	-0.206
-608.201	-78.150	0.509	0.176
-607.186	461.232	0.194	0.435
-606.171	-175.574	0.132	-0.004
-605.157	-107.851	-0.434	0.095
-604.142	-200.000	-0.003	0.385
-603.128	9.525	0.200	0.153
-602.113	285.007	-0.296	0.537
-601.098	-101.937	-0.979	0.238
-600.084	80.264	0.065	-0.070
-599.069	-79.707	-0.787	0.267
-598.055	584.140	-0.245	0.605
-597.040	-89.229	0.696	-0.207
-596.025	-29.338	0.234	0.135
-595.011	800.000	-0.248	-0.721
-593.996	-160.592	-0.760	0.041
-592.982	-79.305	-0.150	-0.051
-591.967	69.385	-0.240	-0.249
-590.952	-200.000	-0.136	-1.140
-589.938	450.805	0.255	-0.566
-588.923	161.593	0.459	-0.646
-587.909	712.197	0.250	0.666
-586.894	480.755	-0.303	0.691
-585.879	-158.026	1.008	-0.060
-584.865	-99.019	0.575	-0.147
-583.850	-200.000	-0.011	-0.121
-582.836	-25.876	0.554	-0.328
-581.821	32.934	-0.141	-0.123
-580.806	176.267	-0.380	0.556
-579.792	-200.000	-0.078	-0.426
-578.777	74.714	0.095	0.100
-577.763	-144.320	-0.650	0.061
-576.748	-83.054	0.436	-0.141
-575.733	173.916	0.268	0.389
-574.719	-14.629	-0.509	0.329
-573.704	-114.351	0.739	-0.143
-572.690	-155.753	0.328	0.021
-571.675	-200.000	-0.007	-0.488
-570.661	-200.000	-0.037	0.775
-569.646	504.083	-0.177	-0.411
-568.631	-57.651	0.935	0.412
-567.617	754.094	0.047	0.127
-566.602	73.372	0.011	-0.011
-565.588	22.392	-0.116	-0.096
-564.573	679.876	0.190	0.496
-563.558	-84.568	-0.698	-0.221
-562.544	35.081	-0.259	-0.228
-561.529	-15.631	0.260	-0.167
-560.515	312.874	-0.121	-0.228
-559.500	366.655	0.427	-0.865
-558.485	235.269	0.213	0.353
-557.471	-32.128	-0.988	0.555
-556.456	-120.165	0.094	-0.016
-555.442	237.928	-0.326	0.544
-554.427	-45.558	0.639	0.318
-553.412	-48.235	-0.245	-0.119
-552.398	273.468	-0.465	-0.826
-551.383	91.660	-0.638	-0.720
-550.369	-200.000	0.071	-0.468
-549.354	247.874	-0.452	-0.768
-548.339	-101.354	-0.510	-0.125
-547.325	-86.279	-0.556	0.172
-546.310	-200.000	0.020	0.374
-545.296	-75.652	0.277	0.099
-544.281	78.431	-0.525	-0.563
-543.266	-17.699	-0.982	0.619
-542.252	60.591	-0.158	0.158
-541.237	203.014	0.427	-0.663
-540.223	254.761	0.072	0.123
-539.208	800.000	-0.133	-0.568
-538.193	-73.975	0.668	-0.243
-537.179	148.152	-0.584	0.790
-536.164	308.316	-0.267	-0.501
-535.150	224.289	-0.165	-0.268
-534.135	-181.537	0.325	-0.006
-533.121	800.000	0.309	-1.148
-532.106	-26.896	-0.704	0.413
-531.091	134.629	0.412	-0.536
-530.077	-59.326	0.889	-0.384
-529.062	761.803	-0.122	0.331
-528.048	-192.324	0.366	0.003
-527.033	27.487	-0.894	-0.754
-526.018	-70.336	-0.234	0.089
-525.004	800.000	0.279	-1.028
-523.989	-4.291	0.314	0.218
-522.975	585.442	-0.126	-0.309
-521.960	78.575	-0.343	-0.368
-520.945	184.228	0.387	-0.575
-519.931	14.118	0.507	-0.396
-518.916	-33.382	0.094	-0.052
-517.902	-54.486	-0.985	-0.448
-516.887	96.908	-0.352	-0.405
-515.872	-168.152	-1.132	-0.044
-514.858	132.690	0.674	-0.872
-513.843	-118.901	1.009	0.178
-512.829	-90.964	0.237	-0.068
-511.814	-90.502	0.468	0.136
-510.799	-200.000	-0.190	1.099
-509.785	-69.529	-0.104	0.040
-508.770	-136.911	0.431	-0.050
-507.756	-113.956	1.157	-0.225
-506.741	446.477	0.345	-0.760
-505.726	-40.497	0.687	0.358
-504.712	-156.091	-1.385	-0.088
-503.697	-42.705	0.288	0.147
-502.683	25.690	0.403	0.337
-501.668	-162.851	-0.884	0.043
-500.653	-101.065	0.203	0.050
-499.639	6.189	0.268	-0.199
-498.624	432.898	-0.453	0.984
-497.610	-200.000	0.141	-0.682
-496.595	282.724	0.335	0.602
-495.581	49.369	-0.715	0.674
-494.566	289.554	0.388	-0.706
-493.551	30.932	-0.650	0.558
-492.537	800.000	-0.157	0.570
-491.522	370.623	0.408	0.829
-490.508	54.980	0.244	-0.236
-489.493	-78.595	-0.451	-0.155
-488.478	-70.840	0.323	0.122
-487.464	229.326	-0.241	-0.394
-486.449	-81.921	-0.863	0.283
-485.435	-48.934	0.551	-0.265
-484.420	-4.591	0.161	0.112
-483.405	-155.167	-0.783	-0.051
-482.391	98.963	-0.067	-0.077
-481.376	-200.000	0.174	0.778
-480.362	5.895	-0.616	0.457
-479.347	142.274	0.177	-0.235
-478.332	320.557	-0.247	-0.471
-477.318	157.755	0.382	-0.530
-476.303	-200.000	-0.046	-0.513
-475.289	-66.208	0.585	0.233
-474.274	-145.162	0.207	-0.019
-473.259	-60.608	-1.035	0.440
-472.245	-75.613	0.304	0.108
-471.230	-82.678	0.291	-0.094
-470.216	72.986	-0.058	-0.060
-469.201	207.735	0.260	0.407
-468.186	-51.475	0.572	0.267
-467.172	172.139	0.337	0.484
-466.157	-65.549	0.225	0.090
-465.143	-9.672	0.407	-0.271
-464.128	-200.000	0.036	-0.444
-463.113	-51.660	-0.226	-0.105
-462.099	135.384	-0.215	0.279
-461.084	477.840	-0.130	0.295
-460.070	171.008	0.702	1.007
-459.055	174.317	-0.185	-0.268
-458.040	800.000	-0.196	-0.843
-457.026	121.162	0.486	-0.605
-456.011	-80.138	0.630	0.211
-454.997	37.676	-0.852	0.757
-453.982	-118.807	-0.967	-0.170
-452.968	-31.095	-1.049	-0.592
-451.953	-172.008	-0.429	0.014
-450.938	-200.000	0.199	1.044
-449.924	106.664	0.295	0.350
-448.909	591.106	0.159	0.393
-447.895	653.025	0.128	-0.328
-446.880	208.624	0.272	-0.426
-445.865	65.921	0.198	-0.201
-444.851	-85.818	0.638	-0.198
-443.836	-109.374	0.466	0.099
-442.822	-32.593	-0.281	0.156
-441.807	-50.182	1.116	-0.528
-440.792	-64.471	-0.630	0.256
-439.778	-191.160	0.775	0.008
-438.763	-200.000	0.064	0.723
-437.749	-75.139	0.774	0.277
-436.734	800.000	0.237	0.728
-435.719	-200.000	-0.076	-0.941
-434.705	-200.000	-0.177	-1.040
-433.690	-110.593	0.501	0.104
-432.676	301.338	0.179	-0.330
-431.661	7.846	0.523	0.392
-430.646	800.000	-0.180	-0.683
-429.632	39.985	0.846	-0.760
-428.617	-107.690	0.701	-0.153
-427.603	-90.561	-0.207	-0.060
-426.588	74.672	-0.450	0.473
-425.573	417.819	-0.284	0.607
-424.559	-115.899	-0.277	0.052
-423.544	-43.131	-0.956	0.484
-422.530	-115.134	0.643	0.122
-421.515	-94.418	-0.318	0.087
-420.500	-107.964	-0.580	-0.126
-419.486	-118.767	-0.398	0.070
-418.471	800.000	0.095	-0.342
-417.457	-200.000	-0.015	-0.520
-416.442	1.750	-0.664	-0.478
-415.428	-200.000	-0.017	0.120
-414.413	462.702	-0.445	-0.992
-413.398	36.123	-0.446	-0.393
-412.384	-90.896	-0.307	-0.088
-411.369	-113.146	0.961	0.189
-410.355	368.979	0.284	0.573
-409.340	228.767	-0.248	-0.404
-408.325	27.163	-0.418	-0.350
-407.311	16.930	-0.390	0.308
-406.296	-58.786	0.284	-0.123
-405.282	-78.597	-0.645	0.220
-404.267	-27.101	-0.182	-0.106
-403.252	-75.769	-0.663	0.235
-402.238	-37.985	-0.709	-0.376
-401.223	-200.000	-0.070	0.830
-400.209	17.050	0.219	-0.173
-399.194	212.097	0.363	-0.571
-398.179	218.414	-0.215	-0.342
-397.165	106.178	-0.405	0.479
-396.150	0.488	0.122	0.087
-395.136	-200.000	0.005	-0.432
-394.121	-87.339	-0.547	-0.166
-393.106	-81.898	0.264	-0.086
-392.092	212.012	-0.429	-0.675
-391.077	-200.000	0.009	-0.108
-390.063	-66.953	0.209	-0.082
-389.048	69.800	0.467	0.480
-388.033	-141.925	0.702	-0.070
-387.019	800.000	0.210	-0.591
-386.004	800.000	-0.097	-0.406
-384.990	800.000	-0.037	-0.156
-383.975	22.466	-0.387	0.315
-382.960	66.970	0.393	-0.399
-381.946	23.890	-0.566	0.465
-380.931	-115.543	0.151	0.028
-379.917	800.000	0.064	0.183
-378.902	800.000	-0.053	0.186
-377.888	-13.590	0.201	0.130
-376.873	-200.000	-0.108	-0.474
-375.858	-200.000	0.135	0.981
-374.844	-33.607	0.435	0.239
-373.829	-200.000	0.054	0.915
-372.815	41.671	0.525	0.475
-371.800	152.983	-0.288	-0.392
-370.785	184.829	0.218	0.322
-369.771	102.608	-0.676	0.789
-368.756	-108.988	0.589	0.125
-367.742	50.384	0.277	-0.261
-366.727	44.419	-0.426	0.390
-365.712	251.027	0.413	0.701
-364.698	175.452	-0.399	-0.576
-363.683	-108.097	-0.626	-0.135
-362.669	-200.000	-0.116	0.568
-361.654	-14.252	-0.308	0.198
-360.639	-32.335	0.476	0.265
-359.625	203.754	0.018	0.028
-358.610	-200.000	-0.636	-0.003
-357.596	-30.374	-0.494	0.280
-356.581	625.745	-0.048	-0.122
-355.566	-200.000	-0.144	-0.773
-354.552	-36.997	0.532	-0.284
-353.537	-200.000	-0.025	0.357
-352.523	-172.105	0.449	-0.014
-351.508	-99.075	-0.531	0.134
-350.493	82.716	-0.623	0.674
-349.479	-177.966	0.174	0.004
-348.464	290.785	-0.153	-0.277
-347.450	-106.159	0.401	0.090
-346.435	568.993	0.331	0.802
-345.420	433.917	0.059	-0.128
-344.406	-112.092	0.148	-0.030
-343.391	-43.944	-0.476	0.238
-342.377	-75.577	0.976	0.346
-341.362	-101.188	0.936	0.228
-340.348	55.687	-0.784	0.757
-339.333	-47.620	0.208	0.101
-338.318	-17.137	0.538	-0.338
-337.304	-150.126	-0.570	0.044
-336.289	-49.550	0.479	0.227
-335.275	800.000	0.197	0.569
-334.260	-171.010	0.525	-0.018
-333.245	-42.569	0.344	0.175
-332.231	-121.605	-0.179	-0.030
-331.216	-56.532	0.786	0.347
-330.202	-200.000	-0.077	0.570
-329.187	-13.534	0.028	-0.018
-328.172	-52.751	-0.516	-0.237
-327.158	-161.728	-0.629	-0.032
-326.143	800.000	-0.204	0.648
-325.129	-168.879	-0.403	-0.015
-324.114	106.685	-0.509	-0.601
-323.099	89.562	-0.384	0.426
-322.085	-50.426	-0.553	0.260
-321.070	-200.000	-0.043	0.221
-320.056	-26.137	-0.483	0.283
-319.041	-29.383	-0.211	0.120
-318.026	192.750	-0.357	-0.537
-317.012	-96.801	-0.635	0.166
-315.997	-122.311	-0.346	-0.056
-314.983	-38.478	0.251	-0.132
-313.968	378.959	-0.164	0.335
-312.953	486.945	-0.170	0.387
-311.939	-200.000	-0.152	-1.155
-310.924	-83.886	-1.095	-0.347
-309.910	800.000	0.015	-0.062
-308.895	274.877	0.438	-0.772
-307.880	340.184	-0.558	1.083
-306.866	-48.350	0.879	-0.421
-305.851	-70.146	-0.517	-0.196
-304.837	133.830	0.538	-0.693
-303.822	-176.271	0.714	-0.019
-302.807	-179.228	-0.711	-0.016
-301.793	96.095	0.519	0.590
-300.778	589.849	-0.106	-0.261
-299.764	-14.735	-0.350	-0.224
-298.749	39.804	0.446	0.398
-297.735	-52.782	0.823	0.377
-296.720	800.000	0.202	-0.616
-295.705	-73.241	0.551	0.201
-294.691	-200.000	0.028	0.201
-293.676	800.000	-0.087	0.300
-292.662	-200.000	-0.005	-0.352
-291.647	171.311	0.324	-0.462
-290.632	-200.000	0.013	-0.500
-289.618	741.799	0.219	-0.584
-288.603	543.808	0.217	-0.515
-287.589	197.907	-0.233	0.353
-286.574	57.511	0.569	0.553
-285.559	-133.329	-0.543	0.068
-284.545	55.517	-0.338	0.326
-283.530	-79.733	-0.409	-0.137
-282.516	-25.861	0.395	-0.231
-281.501	51.265	0.363	-0.342
-280.486	537.638	-0.151	0.356
-279.472	-200.000	0.054	0.430
-278.457	-200.000	0.135	0.698
-277.443	-116.742	0.650	-0.119
-276.428	321.134	-0.454	-0.858
-275.413	-37.180	-0.854	-0.454
-274.399	78.962	-0.493	0.524
-273.384	-122.015	0.320	-0.052
-272.370	10.805	0.614	0.466
-271.355	-0.368	0.879	-0.620
-270.340	-94.421	-0.436	-0.118
-269.326	0.898	-0.154	0.110
-268.311	-68.413	0.470	0.181
-267.297	-25.985	0.408	-0.239
-266.282	180.507	0.173	0.252
-265.267	-78.366	-0.186	0.063
-264.253	77.021	0.188	0.198
-263.238	-116.004	-0.583	0.108
-262.224	-87.385	-0.552	-0.166
-261.209	-59.280	-0.670	-0.286
-260.195	215.830	0.399	0.629
-259.180	122.081	-0.130	0.161
-258.165	-104.225	0.754	-0.174
-257.151	-167.796	0.831	0.033
-256.136	-200.000	0.093	0.682
-255.122	800.000	0.095	0.349
-254.107	134.002	-0.317	-0.408
-253.092	562.051	-0.099	-0.239
-252.078	-200.000	0.059	0.319
-251.063	20.062	-0.398	0.319
-250.049	14.174	0.583	-0.450
-249.034	-3.844	0.446	0.307
-248.019	-122.497	0.743	-0.120
-247.005	-86.138	-0.765	0.234
-245.990	800.000	0.203	-0.805
-244.976	-141.347	0.370	-0.037
-243.961	-60.680	1.027	-0.432
-242.946	-200.000	-0.116	0.968
-241.932	192.837	0.412	-0.618
-240.917	-180.330	-0.337	0.007
-239.903	686.410	-0.180	0.466
-238.888	128.882	-0.146	0.185
-237.873	-32.819	-0.789	-0.435
-236.859	84.382	0.203	0.220
-235.844	-200.000	0.065	0.604
-234.830	40.457	-0.475	0.424
-233.815	52.027	0.352	0.332
-232.800	-135.283	0.312	-0.037
-231.786	136.313	0.337	0.435
-230.771	452.772	-0.218	0.478
-229.757	371.429	-0.276	-0.555
-228.742	94.824	0.630	0.711
-227.727	-200.000	-0.017	-0.133
-226.713	232.590	-0.400	-0.652
-225.698	-21.157	-0.527	-0.319
-224.684	403.109	0.263	0.549
-223.669	177.717	0.517	-0.747
-222.655	68.126	0.241	-0.245
-221.640	-145.362	0.437	0.039
-220.625	-200.000	-0.047	-0.682
-219.611	-99.966	0.383	-0.095
-218.596	-59.262	0.287	0.123
-217.582	351.740	0.054	0.106
-216.567	-40.429	-0.563	0.290
-215.552	-22.347	0.504	-0.303
-214.538	-86.953	0.421	-0.127
-213.523	-169.125	0.246	0.009
-212.509	-200.000	-0.020	0.217
-211.494	800.000	-0.304	0.847
-210.479	-174.471	0.489	0.014
-209.465	-31.099	0.301	0.168
-208.450	-18.070	0.255	-0.158
-207.436	-200.000	0.083	-0.585
-206.421	800.000	0.281	-0.991
-205.406	78.012	-0.304	-0.321
-204.392	68.230	0.437	-0.443
-203.377	48.224	0.395	0.366
-202.363	-200.000	-0.044	0.267
-201.348	-200.000	-0.047	-0.603
-200.333	-14.699	0.286	-0.182
-199.319	-79.590	0.386	-0.129
-198.304	800.000	-0.236	0.740
-197.290	271.386	0.222	-0.388
-196.275	-48.801	-0.854	-0.406
-195.260	-200.000	-0.017	-0.137
-194.246	14.122	0.356	0.275
-193.231	-47.598	-0.683	0.329
-192.217	-19.874	-0.407	-0.249
-191.202	-84.478	-0.400	-0.125
-190.187	-34.223	-0.416	0.226
-189.173	800.000	0.115	0.379
-188.158	415.644	0.322	-0.679
-187.144	-66.334	-0.422	0.166
-186.129	800.000	0.247	-0.851
-185.114	-200.000	0.081	-0.650
-184.100	67.638	-0.477	0.482
-183.085	-121.870	-0.743	0.121
-182.071	469.233	-0.086	-0.190
-181.056	3.557	-0.707	0.510
-180.042	-111.700	0.803	-0.161
-179.027	59.872	-0.579	-0.566
-178.012	38.848	-0.378	0.334
-176.998	-200.000	0.079	-0.489
-175.983	-161.490	0.148	0.008
-174.969	-92.105	-0.522	0.146
-173.954	-118.060	-0.108	-0.019
-172.939	-180.410	0.868	0.018
-171.925	-51.903	-0.585	0.269
-170.910	-122.928	-0.891	0.142
-169.896	-1.103	0.130	-0.091
-168.881	329.356	0.493	0.938
-167.866	800.000	-0.210	0.633
-166.852	800.000	0.188	0.723
-165.837	-120.833	-0.459	0.077
-164.823	-114.526	0.601	0.114
-163.808	800.000	-0.272	0.743
-162.793	29.476	-0.312	-0.262
-161.779	34.161	0.549	-0.473
-160.764	128.686	-0.499	0.629
-159.750	1.122	-0.418	-0.297
-158.735	-118.334	0.584	-0.103
-157.720	800.000	0.110	-0.311
-156.706	103.693	0.661	0.767
-155.691	-200.000	-0.025	0.129
-154.677	-101.451	0.262	0.063
-153.662	-1.455	-0.457	0.319
-152.647	-154.108	-0.338	0.023
-151.633	-0.203	0.216	0.152
-150.618	773.828	-0.395	1.065
-149.604	418.183	0.456	-0.963
-148.589	-5.489	0.295	-0.200
-147.574	-145.816	-0.465	-0.041
-146.560	-25.878	0.495	-0.288
-145.545	800.000	0.066	-0.185
-144.531	-108.514	0.530	0.113
-143.516	-9.542	-0.057	0.038
-142.502	-140.019	-0.197	0.021
-141.487	617.340	-0.113	0.281
-140.472	-200.000	0.035	0.380
-139.458	-120.513	0.284	-0.048
-138.443	-94.758	-0.159	-0.043
-137.429	152.193	0.634	0.854
-136.414	-200.000	0.009	0.329
-135.399	209.890	0.522	-0.809
-134.385	-129.643	-0.832	-0.113
-133.370	270.369	0.047	-0.082
-132.356	94.248	-0.301	-0.337
-131.341	24.689	0.292	0.239
-130.326	-78.100	-1.177	-0.400
-129.312	-71.586	0.553	-0.204
-128.297	-71.808	0.440	-0.162
-127.283	800.000	0.074	-0.313
-126.268	-63.320	0.629	-0.256
-125.253	17.338	-0.191	0.150
-124.239	-14.353	-0.669	0.425
-123.224	-200.000	0.051	0.539
-122.210	55.866	0.579	-0.554
-121.195	61.985	-0.094	-0.093
