DTS Sentinel unit serial number:	SN413079Multiplexer serial number:	ORYXHardware model number:	OX4-SRSoftware version number:	ORYX F/W v4.00 Oryx Data Collector v3.7.2.0data status	okinstallation	princeton_trtdifferential loss correction	single-endedforward channel	channel 1reverse channel	N/Adate	2019/09/18time	20:54:35forward acquisition time	60.00reverse acquisition time	0.00gamma	496.2192k internal	0.2339k external	0.2339temperature offset calibration	1.0027default loss term (dB/km)	0.3790temperature slope calibration	1.0000multiplexer offset coefficient	1.0000multiplexer slope coefficient	1.0000fibre end	0.00T internal ref (°C)	26.84T ext. ref 1 (°C)	0.96T ext. ref 2 (°C)	18.21length (m)	temperature (°C)	Stokes	anti-Stokes-747.200	-189.439	0.262	0.003
-746.185	-163.371	0.186	-0.009
-745.171	800.000	0.087	0.338
-744.156	-113.274	-0.453	-0.089
-743.142	20.844	0.288	0.234
-742.127	-147.836	-0.190	0.016
-741.112	-200.000	-0.018	-0.471
-740.098	-6.564	0.043	-0.029
-739.083	-14.359	0.274	0.177
-738.069	800.000	-0.014	0.049
-737.054	-165.426	0.293	0.013
-736.039	-157.045	-0.366	-0.022
-735.025	-25.203	0.064	0.038
-734.010	-7.996	-0.191	-0.129
-732.996	99.163	-0.095	-0.110
-731.981	-200.000	-0.022	-0.285
-730.966	151.780	-0.158	0.215
-729.952	303.175	-0.120	-0.222
-728.937	-186.232	-0.251	0.004
-727.923	-200.000	-0.032	0.356
-726.908	334.094	-0.022	-0.042
-725.894	14.292	0.222	-0.174
-724.879	-33.765	-0.125	-0.069
-723.864	-97.346	0.166	-0.043
-722.850	-200.000	0.002	-0.116
-721.835	263.615	-0.147	-0.255
-720.821	71.636	-0.241	0.251
-719.806	-200.000	-0.015	0.123
-718.791	199.717	0.166	-0.255
-717.777	-168.691	0.227	0.009
-716.762	-28.195	0.180	0.104
-715.748	-98.653	-0.308	-0.079
-714.733	163.968	-0.184	-0.259
-713.718	83.067	0.302	-0.329
-712.704	-200.000	-0.009	-0.099
-711.689	-83.275	-0.365	0.118
-710.675	-200.000	0.049	0.219
-709.660	-200.000	0.005	-0.313
-708.645	-76.628	0.218	-0.077
-707.631	198.933	0.220	-0.337
-706.616	-44.149	0.138	-0.070
-705.602	-135.890	0.057	0.007
-704.587	-142.123	0.217	-0.022
-703.572	225.818	-0.109	-0.177
-702.558	-1.155	-0.184	0.130
-701.543	-200.000	0.001	-0.094
-700.529	20.533	-0.026	-0.021
-699.514	-29.260	-0.186	-0.107
-698.499	350.350	0.108	0.214
-697.485	-65.082	-0.128	0.052
-696.470	768.622	-0.061	0.165
-695.456	-162.496	-0.399	-0.020
-694.441	-200.000	0.014	0.068
-693.426	-200.000	0.001	0.046
-692.412	-100.667	-0.115	0.028
-691.397	800.000	-0.162	0.513
-690.383	-200.000	0.018	-0.235
-689.368	410.898	-0.131	-0.278
-688.354	-76.887	0.294	0.103
-687.339	-4.037	-0.145	0.100
-686.324	-192.154	0.181	0.002
-685.310	-71.195	0.067	0.025
-684.295	92.356	0.302	0.340
-683.281	-109.332	0.077	-0.016
-682.266	362.341	0.073	0.146
-681.251	-122.165	0.305	0.050
-680.237	-114.605	0.316	0.061
-679.222	-200.000	-0.042	-0.403
-678.208	51.441	-0.127	0.120
-677.193	-42.674	-0.355	-0.181
-676.178	33.582	0.180	-0.157
-675.164	-200.000	-0.023	-0.156
-674.149	489.455	-0.047	-0.107
-673.135	16.092	-0.055	-0.043
-672.120	-200.000	-0.019	-0.190
-671.105	355.216	0.077	-0.154
-670.091	-102.888	-0.140	-0.033
-669.076	396.037	-0.060	-0.125
-668.062	118.066	-0.080	0.098
-667.047	-135.478	-0.271	0.032
-666.032	800.000	-0.036	0.110
-665.018	-15.487	0.239	0.153
-664.003	56.652	-0.064	-0.063
-662.989	12.824	0.349	0.269
-661.974	62.139	-0.193	-0.193
-660.959	-200.000	0.031	-0.146
-659.945	726.246	0.073	-0.194
-658.930	-200.000	0.028	0.351
-657.916	45.456	-0.141	0.130
-656.901	75.299	0.369	-0.389
-655.886	33.529	0.148	0.129
-654.872	-200.000	-0.021	-0.344
-653.857	-139.551	0.057	0.006
-652.843	34.611	0.138	0.121
-651.828	-45.353	0.292	0.145
-650.814	-131.426	-0.257	0.034
-649.799	800.000	-0.065	0.237
-648.784	800.000	-0.057	-0.219
-647.770	341.377	-0.070	0.137
-646.755	-102.308	-0.241	-0.058
-645.741	-200.000	0.005	-0.040
-644.726	-59.791	-0.328	0.140
-643.711	-45.764	0.190	-0.094
-642.697	-69.202	-0.261	-0.100
-641.682	653.949	0.085	0.218
-640.668	263.811	-0.122	-0.213
-639.653	-98.514	-0.232	-0.059
-638.638	84.808	-0.187	0.204
-637.624	-200.000	-0.053	-0.327
-636.609	319.147	0.075	-0.141
-635.595	88.918	0.151	-0.168
-634.580	139.949	0.137	-0.181
-633.565	-59.098	0.115	0.050
-632.551	69.146	-0.142	0.145
-631.536	-119.882	0.332	-0.057
-630.522	800.000	-0.028	-0.091
-629.507	-159.616	0.437	0.024
-628.492	-85.680	-0.075	-0.023
-627.478	-146.934	0.110	0.009
-626.463	-200.000	-0.032	0.152
-625.449	800.000	0.092	0.261
-624.434	-200.000	-0.015	0.125
-623.419	-193.831	0.095	-0.001
-622.405	4.354	0.163	0.119
-621.390	-200.000	0.012	-0.158
-620.376	90.345	0.085	-0.095
-619.361	-198.940	0.472	-0.003
-618.346	-60.708	0.143	-0.061
-617.332	50.194	0.101	0.095
-616.317	-74.294	-0.214	-0.077
-615.303	-146.764	0.163	0.014
-614.288	-74.225	0.182	0.066
-613.273	800.000	0.021	0.090
-612.259	512.057	-0.025	-0.058
-611.244	-200.000	0.026	-0.283
-610.230	398.166	0.064	-0.133
-609.215	540.791	-0.053	0.125
-608.201	-200.000	0.007	-0.367
-607.186	-144.288	0.072	-0.007
-606.171	-148.653	-0.401	0.033
-605.157	-87.621	0.418	0.126
-604.142	9.659	-0.238	-0.180
-603.128	191.625	-0.208	0.312
-602.113	-75.719	-0.036	-0.013
-601.098	-5.306	-0.127	-0.087
-600.084	-45.802	-0.132	-0.065
-599.069	17.698	0.257	0.204
-598.055	508.516	-0.076	0.177
-597.040	-200.000	0.016	-0.227
-596.025	-60.188	0.131	0.056
-595.011	145.351	-0.123	0.164
-593.996	-71.053	-0.225	-0.084
-592.982	320.367	-0.009	0.017
-591.967	166.501	-0.136	0.192
-590.952	-27.397	-0.085	-0.049
-589.938	22.269	-0.078	0.064
-588.923	-108.414	0.082	-0.018
-587.909	350.849	0.045	-0.089
-586.894	-144.694	-0.109	-0.010
-585.879	-200.000	0.029	-0.141
-584.865	800.000	0.057	0.180
-583.850	-35.283	0.259	0.140
-582.836	-63.938	0.171	-0.070
-581.821	-55.560	-0.277	-0.124
-580.806	-200.000	-0.008	0.051
-579.792	698.864	0.111	0.291
-578.777	800.000	0.088	0.300
-577.763	-200.000	-0.002	-0.097
-576.748	-200.000	-0.007	-0.232
-575.733	-19.592	-0.173	0.107
-574.719	464.649	-0.075	-0.167
-573.704	-89.573	-0.309	0.090
-572.690	79.886	0.153	-0.164
-571.675	-95.082	-0.089	-0.024
-570.661	-200.000	-0.034	-0.160
-569.646	33.479	0.186	0.161
-568.631	9.639	-0.419	0.317
-567.617	-65.978	0.443	0.176
-566.602	-200.000	-0.040	-0.193
-565.588	-200.000	0.014	-0.201
-564.573	149.898	-0.090	-0.121
-563.558	-200.000	0.053	0.248
-562.544	-88.342	0.140	0.042
-561.529	126.921	0.007	0.009
-560.515	-74.506	-0.124	0.045
-559.500	-14.996	0.146	-0.093
-558.485	569.486	-0.028	-0.068
-557.471	-97.484	0.297	0.077
-556.456	36.354	0.202	0.177
-555.442	11.255	-0.131	0.100
-554.427	-102.471	-0.445	-0.106
-553.412	-31.110	0.027	-0.015
-552.398	168.210	-0.101	0.143
-551.383	-141.205	-0.239	0.024
-550.369	-145.550	-0.150	-0.013
-549.354	-200.000	-0.019	-0.142
-548.339	553.577	0.062	-0.149
-547.325	-177.678	-0.030	-0.001
-546.310	177.887	0.113	-0.164
-545.296	-42.920	-0.278	0.141
-544.281	-19.901	-0.214	-0.131
-543.266	-200.000	-0.038	0.285
-542.252	38.172	0.122	0.108
-541.237	-96.356	0.165	0.044
-540.223	-44.833	0.099	-0.049
-539.208	-191.920	-0.550	-0.005
-538.193	-166.214	-0.320	0.013
-537.179	211.523	-0.126	0.198
-536.164	30.793	-0.198	-0.169
-535.150	30.628	0.146	-0.124
-534.135	-200.000	-0.036	0.156
-533.121	173.366	-0.074	0.106
-532.106	-200.000	-0.322	-0.001
-531.091	406.235	-0.257	0.539
-530.077	-81.327	-0.515	-0.169
-529.062	-78.616	0.181	0.061
-528.048	145.279	-0.114	-0.151
-527.033	800.000	0.040	0.123
-526.018	800.000	0.013	0.050
-525.004	-200.000	0.000	-0.045
-523.989	262.227	0.217	0.374
-522.975	-80.388	0.255	0.085
-521.960	-200.000	-0.065	-0.290
-520.945	683.331	-0.141	-0.367
-519.931	18.335	0.155	-0.123
-518.916	-118.367	-0.229	0.040
-517.902	-151.517	-0.079	-0.006
-516.887	-44.444	0.218	-0.109
-515.872	-128.233	-0.076	0.011
-514.858	-143.191	-0.144	-0.014
-513.843	800.000	-0.052	0.160
-512.829	800.000	-0.049	-0.162
-511.814	-107.928	-0.100	0.022
-510.799	-95.279	-0.339	0.091
-509.785	111.437	0.038	0.046
-508.770	-200.000	0.032	-0.333
-507.756	102.810	-0.255	-0.297
-506.741	-200.000	-0.028	0.247
-505.726	-111.812	-0.099	0.020
-504.712	-77.474	-0.034	-0.012
-503.697	-43.371	-0.370	0.186
-502.683	-81.693	-0.124	0.040
-501.668	231.449	-0.152	-0.248
-500.653	469.555	0.051	0.114
-499.639	-70.516	-0.154	-0.058
-498.624	175.488	0.118	0.170
-497.610	-200.000	0.002	-0.106
-496.595	-200.000	0.025	-0.289
-495.581	800.000	0.152	0.576
-494.566	358.547	0.159	0.315
-493.551	-159.264	-0.265	0.015
-492.537	-200.000	0.036	0.230
-491.522	800.000	-0.107	-0.364
-490.508	-200.000	0.030	-0.282
-489.493	-90.057	-0.499	-0.144
-488.478	114.939	-0.100	0.121
-487.464	769.550	0.122	0.330
-486.449	-91.690	0.338	0.096
-485.435	282.526	0.149	0.265
-484.420	-89.824	0.335	0.097
-483.405	-200.000	-0.051	-0.251
-482.391	-200.000	-0.020	-0.094
-481.376	96.012	0.046	-0.052
-480.362	800.000	-0.087	-0.371
-479.347	10.411	0.314	0.237
-478.332	800.000	0.023	0.080
-477.318	-24.368	0.088	0.052
-476.303	27.253	0.160	0.133
-475.289	-130.843	-0.131	-0.017
-474.274	-101.031	0.110	-0.027
-473.259	219.424	0.050	-0.079
-472.245	-121.726	0.260	-0.043
-471.230	-171.605	0.137	-0.005
-470.216	122.703	-0.165	0.205
-469.201	-200.000	0.014	0.141
-468.186	94.530	0.108	0.122
-467.172	-38.942	0.276	0.144
-466.157	-65.847	-0.189	-0.075
-465.143	-182.416	0.287	-0.005
-464.128	259.342	0.259	0.443
-463.113	-200.000	0.042	0.233
-462.099	-3.217	0.156	0.108
-461.084	-200.000	0.011	0.097
-460.070	-116.557	-0.188	0.034
-459.055	39.197	-0.115	0.102
-458.040	-168.421	-0.386	-0.015
-457.026	154.327	0.036	-0.050
-456.011	-200.000	-0.080	0.366
-454.997	-137.992	-0.206	0.023
-453.982	-200.000	0.002	-0.345
-452.968	-200.000	-0.003	-0.209
-451.953	672.548	0.113	-0.291
-450.938	800.000	-0.032	-0.095
-449.924	-101.260	0.141	0.034
-448.909	800.000	0.098	-0.270
-447.895	59.763	0.175	-0.171
-446.880	-96.880	0.050	0.013
-445.865	-133.784	0.182	0.022
-444.851	-158.513	-0.264	0.015
-443.836	800.000	0.095	-0.342
-442.822	-47.372	0.099	0.048
-441.807	-14.770	0.047	-0.030
-440.792	-95.532	-0.372	0.099
-439.778	-97.747	-0.289	-0.074
-438.763	521.127	0.014	0.033
-437.749	800.000	-0.027	-0.087
-436.734	45.970	0.205	-0.188
-435.719	104.299	-0.304	-0.355
-434.705	111.095	0.205	-0.245
-433.690	-61.063	0.514	-0.215
-432.676	-62.498	-0.378	-0.156
-431.661	286.589	-0.107	0.192
-430.646	24.878	0.324	0.266
-429.632	-200.000	-0.006	0.125
-428.617	72.787	-0.203	0.210
-427.603	424.025	0.120	-0.256
-426.588	-200.000	-0.001	0.184
-425.573	214.662	0.113	-0.177
-424.559	123.174	0.052	0.065
-423.544	-200.000	-0.025	-0.211
-422.530	800.000	-0.169	-0.462
-421.515	-41.132	0.399	0.204
-420.500	-120.268	0.423	-0.071
-419.486	800.000	-0.054	-0.168
-418.471	28.634	-0.336	-0.282
-417.457	172.558	0.207	0.294
-416.442	544.222	0.128	0.303
-415.428	800.000	0.033	0.094
-414.413	63.957	0.213	-0.212
-413.398	-82.286	-0.376	0.121
-412.384	-102.528	-0.128	-0.030
-411.369	159.626	-0.141	-0.194
-410.355	-200.000	0.016	0.403
-409.340	-200.000	-0.082	0.423
-408.325	61.965	0.050	-0.050
-407.311	-200.000	-0.027	-0.325
-406.296	386.330	0.118	-0.241
-405.282	36.652	-0.284	0.248
-404.267	-109.767	0.172	0.036
-403.252	-104.000	0.071	-0.016
-402.238	800.000	-0.031	-0.120
-401.223	-6.593	-0.218	0.147
-400.209	221.834	-0.132	-0.210
-399.194	95.356	-0.248	-0.279
-398.179	-200.000	-0.029	0.199
-397.165	645.412	-0.149	0.375
-396.150	-200.000	-0.003	0.024
-395.136	-17.746	0.106	-0.066
-394.121	-26.682	-0.203	-0.118
-393.106	-120.958	0.210	-0.035
-392.092	-138.494	0.153	-0.017
-391.077	1.250	-0.324	-0.230
-390.063	128.746	0.189	0.238
-389.048	-200.000	-0.029	-0.285
-388.033	-137.814	-0.109	0.012
-387.019	800.000	0.116	-0.319
-386.004	-200.000	0.024	-0.174
-384.990	-200.000	-0.031	0.203
-383.975	800.000	0.117	0.428
-382.960	-129.263	0.294	-0.041
-381.946	41.922	-0.299	-0.268
-380.931	-200.000	0.023	0.136
-379.917	19.465	-0.085	0.068
-378.902	-200.000	0.040	0.260
-377.888	-52.834	-0.108	0.049
-376.873	-40.833	0.105	-0.054
-375.858	-200.000	0.013	-0.079
-374.844	-200.000	-0.073	-0.456
-373.829	-71.994	0.178	-0.066
-372.815	-139.505	0.110	0.012
-371.800	-200.000	0.011	0.231
-370.785	124.723	-0.099	-0.123
-369.771	121.662	-0.017	-0.021
-368.756	95.550	-0.192	-0.216
-367.742	118.738	0.197	0.241
-366.727	-15.204	-0.168	-0.106
-365.712	20.566	0.249	0.199
-364.698	-120.732	-0.229	-0.038
-363.683	93.900	-0.124	-0.139
-362.669	72.872	-0.114	0.117
-361.654	-167.837	-0.177	-0.007
-360.639	-200.000	0.007	0.115
-359.625	-200.000	-0.056	-0.262
-358.610	-160.599	0.220	-0.012
-357.596	-200.000	0.025	0.155
-356.581	-58.221	-0.305	-0.131
-355.566	288.914	0.123	0.219
-354.552	800.000	0.051	-0.210
-353.537	99.182	-0.320	-0.365
-352.523	-89.324	0.387	0.113
-351.508	-200.000	0.000	0.054
-350.493	411.036	0.140	0.293
-349.479	33.843	0.300	-0.257
-348.464	800.000	-0.039	0.160
-347.450	346.515	0.182	-0.354
-346.435	31.748	-0.095	0.080
-345.420	-46.432	-0.346	0.168
-344.406	323.510	-0.086	-0.162
-343.391	-200.000	0.002	0.058
-342.377	424.477	0.179	0.381
-341.362	541.284	0.126	0.297
-340.348	-63.338	-0.275	-0.112
-339.333	-200.000	-0.002	-0.048
-338.318	800.000	-0.069	-0.223
-337.304	800.000	0.090	0.270
-336.289	-75.587	-0.299	-0.105
-335.275	134.630	0.131	0.167
-334.260	-169.444	0.115	-0.004
-333.245	98.856	0.429	-0.489
-332.231	-200.000	-0.004	0.113
-331.216	-123.155	0.277	0.044
-330.202	-94.146	-0.233	-0.063
-329.187	96.298	0.157	0.177
-328.172	-200.000	0.027	-0.156
-327.158	334.607	-0.143	-0.273
-326.143	-36.013	0.144	-0.077
-325.129	713.338	0.108	-0.281
-324.114	-200.000	-0.001	-0.085
-323.099	-169.197	-0.243	0.009
-322.085	72.016	0.155	-0.159
-321.070	-200.000	-0.003	0.060
-320.056	-63.468	-0.072	0.029
-319.041	181.768	0.133	-0.193
-318.026	-12.858	-0.051	-0.033
-317.012	-50.170	0.112	-0.052
-315.997	20.119	-0.192	0.153
-314.983	-200.000	-0.028	-0.205
-313.968	237.200	0.060	-0.099
-312.953	800.000	0.055	-0.221
-311.939	204.242	-0.135	0.206
-310.924	345.704	-0.070	0.136
-309.910	-142.534	-0.284	0.027
-308.895	-168.339	0.355	0.013
-307.880	-100.622	0.366	-0.089
-306.866	-200.000	-0.008	-0.180
-305.851	-200.000	0.015	0.215
-304.837	-90.663	0.207	0.059
-303.822	62.175	-0.187	-0.184
-302.807	-139.927	-0.062	-0.006
-301.793	-190.886	0.098	-0.001
-300.778	219.892	-0.144	-0.227
-299.764	308.906	0.226	0.415
-298.749	800.000	-0.097	-0.268
-297.735	-52.521	-0.375	0.171
-296.720	357.483	0.067	-0.133
-295.705	318.219	-0.103	0.193
-294.691	-73.271	0.214	0.077
-293.676	-52.349	-0.303	0.138
-292.662	800.000	0.049	-0.160
-291.647	-200.000	0.001	-0.350
-290.632	402.298	-0.120	-0.249
-289.618	-38.854	-0.081	-0.042
-288.603	343.613	0.111	-0.213
-287.589	-200.000	0.004	-0.175
-286.574	-200.000	-0.020	-0.184
-285.559	-133.574	-0.211	-0.026
-284.545	2.855	0.032	0.023
-283.530	-25.254	0.047	0.028
-282.516	-200.000	0.097	-0.525
-281.501	6.791	0.151	-0.110
-280.486	-70.403	0.121	-0.045
-279.472	409.026	0.195	-0.406
-278.457	285.029	-0.201	-0.357
-277.443	189.362	0.182	0.269
-276.428	179.377	0.100	-0.144
-275.413	450.730	-0.035	-0.077
-274.399	-49.490	-0.018	-0.008
-273.384	195.567	0.043	-0.064
-272.370	-178.553	-0.246	0.006
-271.355	-200.000	-0.011	-0.050
-270.340	800.000	-0.052	-0.187
-269.326	17.138	-0.080	0.063
-268.311	-3.360	0.105	0.072
-267.297	-131.509	0.173	-0.022
-266.282	23.257	-0.034	0.028
-265.267	15.301	-0.277	0.214
-264.253	721.708	0.024	0.063
-263.238	-200.000	0.031	-0.177
-262.224	-94.656	-0.162	-0.043
-261.209	-122.001	0.199	0.032
-260.195	110.397	-0.261	-0.308
-259.180	800.000	0.115	0.403
-258.165	-135.560	0.028	-0.003
-257.151	402.680	0.137	0.284
-256.136	-200.000	-0.025	0.268
-255.122	67.610	0.138	-0.139
-254.107	26.799	-0.224	0.184
-253.092	-200.000	-0.031	-0.227
-252.078	576.668	-0.086	-0.208
-251.063	195.313	0.201	-0.300
-250.049	97.169	0.039	-0.044
-249.034	700.492	0.161	-0.418
-248.019	131.124	-0.147	0.185
-247.005	210.456	-0.236	0.365
-245.990	24.318	-0.052	-0.042
-244.976	-72.914	0.234	-0.085
-243.961	361.625	-0.135	0.266
-242.946	111.513	-0.158	0.188
-241.932	29.669	-0.128	-0.107
-240.917	-44.161	-0.181	-0.089
-239.903	800.000	0.042	0.163
-238.888	-200.000	-0.026	0.386
-237.873	-200.000	0.005	0.371
-236.859	800.000	-0.015	0.045
-235.844	-105.302	-0.154	-0.035
-234.830	-110.128	0.328	-0.067
-233.815	-7.389	0.541	0.360
-232.800	-35.446	0.125	-0.067
-231.786	-200.000	0.013	0.238
-230.771	-114.056	0.237	-0.045
-229.757	800.000	-0.110	0.333
-228.742	-138.482	0.138	0.015
-227.727	-70.592	0.093	0.035
-226.713	-149.468	0.148	-0.012
-225.698	-28.822	-0.152	-0.086
-224.684	-9.097	-0.103	-0.068
-223.669	-200.000	0.008	0.045
-222.655	-120.190	-0.185	-0.031
-221.640	306.103	0.112	0.204
-220.625	-150.506	0.371	0.028
-219.611	-200.000	0.040	0.202
-218.596	-30.792	0.300	-0.167
-217.582	-200.000	-0.021	0.095
-216.567	169.670	0.155	0.218
-215.552	10.820	-0.245	0.184
-214.538	-200.000	0.009	0.048
-213.523	45.310	-0.168	0.152
-212.509	-178.661	0.251	0.006
-211.494	-200.000	0.020	-0.253
-210.479	-31.138	-0.272	-0.151
-209.465	88.275	0.047	-0.051
-208.450	-108.208	-0.043	0.009
-207.436	-146.586	0.137	0.012
-206.421	-65.921	0.115	-0.045
-205.406	-75.707	0.114	-0.040
-204.392	29.798	0.039	0.033
-203.377	800.000	0.098	-0.335
-202.363	-69.925	-0.261	-0.098
-201.348	442.510	0.072	0.155
-200.333	800.000	0.028	-0.093
-199.319	39.824	-0.267	0.235
-198.304	686.457	-0.082	0.210
-197.290	800.000	-0.025	0.101
-196.275	-64.757	0.418	0.166
-195.260	-200.000	0.040	0.205
-194.246	-57.958	-0.203	0.087
-193.231	-45.717	-0.377	0.183
-192.217	347.837	0.098	-0.190
-191.202	-63.267	0.369	0.149
-190.187	-200.000	-0.043	0.242
-189.173	278.010	-0.142	0.248
-188.158	24.719	-0.160	0.130
-187.144	-200.000	0.017	0.383
-186.129	-189.293	-0.139	-0.002
-185.114	66.737	0.154	-0.153
-184.100	-200.000	0.001	-0.203
-183.085	-144.288	0.170	0.016
-182.071	23.954	-0.192	0.155
-181.056	-67.360	0.177	-0.068
-180.042	-188.281	0.202	-0.003
-179.027	136.938	0.082	0.105
-178.012	-137.864	0.231	-0.025
-176.998	271.529	-0.138	0.239
-175.983	800.000	-0.091	0.379
-174.969	-147.873	-0.166	-0.014
-173.954	-200.000	0.042	0.220
-172.939	-23.670	-0.302	0.177
-171.925	-167.885	0.317	0.012
-170.910	-33.092	0.180	0.098
-169.896	204.748	0.109	-0.165
-168.881	400.841	0.043	0.089
-167.866	25.659	0.041	0.034
-166.852	-23.236	-0.044	0.026
-165.837	420.161	-0.047	0.099
-164.823	-130.947	-0.196	0.026
-163.808	89.728	0.118	-0.129
-162.793	800.000	0.086	-0.234
-161.779	-81.378	-0.189	0.061
-160.764	93.620	0.149	0.166
-159.750	800.000	0.100	-0.305
-158.735	203.422	-0.333	-0.505
-157.720	-75.991	0.280	0.097
-156.706	-100.766	0.083	0.020
-155.691	-135.923	0.332	-0.038
-154.677	800.000	0.056	-0.162
-153.662	-200.000	0.029	-0.176
-152.647	800.000	-0.033	0.131
-151.633	30.545	0.205	-0.172
-150.618	144.254	0.196	0.257
-149.604	-33.985	-0.138	0.074
-148.589	-8.531	-0.154	0.101
-147.574	645.401	-0.027	0.066
-146.560	105.302	-0.106	0.122
-145.545	708.786	-0.016	-0.043
-144.531	-200.000	-0.030	-0.515
-143.516	800.000	0.058	0.197
-142.502	321.984	-0.091	-0.169
-141.487	201.362	0.072	-0.109
-140.472	-200.000	0.013	-0.076
-139.458	445.426	-0.056	-0.121
-138.443	800.000	0.057	0.200
-137.429	-102.994	-0.301	0.070
-136.414	68.175	0.095	0.095
-135.399	800.000	0.020	0.083
-134.385	-2.762	-0.181	-0.124
-133.370	144.182	0.160	0.209
-132.356	585.975	-0.156	-0.375
-131.341	-10.836	-0.196	-0.127
-130.326	208.879	-0.078	0.120
-129.312	-200.000	-0.005	-0.315
-128.297	-127.204	-0.236	-0.034
-127.283	78.041	-0.165	-0.172
-126.268	-200.000	0.044	-0.221
-125.253	800.000	0.062	0.212
-124.239	207.095	-0.227	0.346
-123.224	-20.127	-0.061	-0.037
-122.210	439.720	-0.087	0.185
