DTS Sentinel unit serial number:	SN413079Multiplexer serial number:	ORYXHardware model number:	OX4-SRSoftware version number:	ORYX F/W v4.00 Oryx Data Collector v3.7.2.0data status	okinstallation	princeton_trtdifferential loss correction	single-endedforward channel	channel 1reverse channel	N/Adate	2019/09/12time	01:48:11forward acquisition time	60.00reverse acquisition time	0.00gamma	496.2192k internal	0.2320k external	0.2320temperature offset calibration	1.0078default loss term (dB/km)	0.3790temperature slope calibration	1.0000multiplexer offset coefficient	1.0000multiplexer slope coefficient	1.0000fibre end	0.00T internal ref (°C)	32.81T ext. ref 1 (°C)	2.05T ext. ref 2 (°C)	27.58length (m)	temperature (°C)	Stokes	anti-Stokes-747.200	56.542	0.266	0.261
-746.185	-66.417	-0.420	0.169
-745.171	-6.399	-0.294	0.203
-744.156	671.186	-0.083	0.217
-743.142	161.579	0.147	0.208
-742.127	-200.000	-0.005	0.105
-741.112	-102.748	-0.269	0.065
-740.098	800.000	-0.012	0.039
-739.083	265.034	0.074	-0.130
-738.069	426.086	-0.099	0.215
-737.054	189.408	0.089	0.135
-736.039	282.476	0.030	-0.055
-735.025	-46.856	0.126	-0.062
-734.010	-7.027	-0.359	0.247
-732.996	-200.000	-0.007	-0.343
-731.981	-12.016	0.050	0.033
-730.966	115.583	0.189	-0.233
-729.952	-94.771	0.038	-0.010
-728.937	-200.000	0.026	-0.307
-727.923	-88.044	0.213	-0.065
-726.908	-200.000	-0.032	0.248
-725.894	146.526	-0.063	0.085
-724.879	703.504	-0.064	0.171
-723.864	-39.040	-0.260	-0.138
-722.850	113.223	-0.148	-0.181
-721.835	353.204	0.031	-0.061
-720.821	2.076	0.185	0.135
-719.806	-200.000	-0.018	0.129
-718.791	-90.957	0.154	-0.045
-717.777	271.552	0.132	0.236
-716.762	58.775	-0.198	0.196
-715.748	498.634	-0.135	-0.314
-714.733	21.928	0.387	0.318
-713.718	505.901	0.077	0.179
-712.704	648.001	0.076	0.196
-711.689	-200.000	0.053	0.325
-710.675	204.014	-0.084	0.132
-709.660	-200.000	0.000	-0.221
-708.645	124.155	0.152	0.193
-707.631	-200.000	0.051	-0.313
-706.616	-59.373	0.141	0.061
-705.602	472.657	-0.021	0.048
-704.587	-103.503	-0.311	-0.074
-703.572	662.935	-0.094	0.244
-702.558	179.362	-0.182	0.270
-701.543	-162.697	-0.122	-0.006
-700.529	-200.000	0.001	0.079
-699.514	-86.894	-0.286	0.088
-698.499	59.876	-0.275	-0.274
-697.485	-107.251	-0.288	-0.064
-696.470	755.056	-0.075	0.205
-695.456	180.128	0.119	-0.176
-694.441	-130.273	-0.182	0.025
-693.426	17.616	-0.096	0.077
-692.412	-63.476	0.115	0.048
-691.397	800.000	-0.107	-0.373
-690.383	-50.185	-0.200	0.095
-689.368	-194.302	-0.261	0.002
-688.354	556.292	-0.095	-0.232
-687.339	-11.446	-0.161	0.107
-686.324	800.000	-0.048	-0.155
-685.310	34.413	-0.162	-0.143
-684.295	-55.855	-0.168	0.076
-683.281	-142.218	-0.307	0.031
-682.266	-200.000	-0.039	-0.472
-681.251	-200.000	-0.052	-0.238
-680.237	-99.492	-0.202	-0.051
-679.222	413.335	0.132	0.282
-678.208	412.409	-0.085	0.182
-677.193	-152.723	0.315	0.023
-676.178	412.527	0.030	-0.065
-675.164	-200.000	0.038	-0.222
-674.149	-188.264	-0.110	-0.001
-673.135	-39.547	-0.211	-0.111
-672.120	-119.273	-0.298	0.052
-671.105	-1.655	0.050	0.036
-670.091	-137.713	-0.395	0.045
-669.076	800.000	0.046	-0.136
-668.062	800.000	-0.074	-0.207
-667.047	20.800	-0.089	-0.073
-666.032	-133.304	-0.136	-0.017
-665.018	59.607	-0.125	0.124
-664.003	176.482	-0.060	0.087
-662.989	578.383	-0.111	-0.275
-661.974	-45.488	-0.198	-0.099
-660.959	-24.515	0.070	-0.042
-659.945	-200.000	0.035	0.239
-658.930	44.930	0.122	0.114
-657.916	-200.000	0.034	0.403
-656.901	307.712	-0.104	0.196
-655.886	-61.045	0.348	-0.148
-654.872	-200.000	0.048	0.256
-653.857	-200.000	0.023	0.379
-652.843	393.774	0.069	0.145
-651.828	254.363	-0.095	0.163
-650.814	121.022	-0.056	-0.070
-649.799	150.658	-0.219	0.300
-648.784	-65.611	-0.265	0.107
-647.770	-38.210	0.182	0.097
-646.755	214.211	0.113	-0.180
-645.741	-14.943	-0.280	0.181
-644.726	209.062	0.132	-0.209
-643.711	-200.000	0.036	-0.189
-642.697	44.918	0.195	0.181
-641.682	39.380	-0.191	0.172
-640.668	800.000	-0.060	0.227
-639.653	-200.000	0.030	-0.340
-638.638	-37.520	-0.401	-0.216
-637.624	114.532	-0.058	0.071
-636.609	-34.661	0.192	-0.106
-635.595	-107.620	0.095	-0.021
-634.580	-48.140	-0.367	-0.179
-633.565	-200.000	-0.001	0.092
-632.551	-200.000	0.021	-0.112
-631.536	-200.000	-0.014	0.104
-630.522	55.617	0.074	0.072
-629.507	72.215	-0.368	-0.385
-628.492	467.288	-0.088	0.198
-627.478	-9.977	0.118	0.079
-626.463	-200.000	0.010	-0.116
-625.449	41.023	-0.155	-0.141
-624.434	-122.552	0.087	-0.014
-623.419	-200.000	-0.076	0.379
-622.405	-200.000	-0.008	-0.064
-621.390	140.250	0.095	0.127
-620.376	-156.405	-0.063	-0.004
-619.361	-109.133	0.216	0.046
-618.346	280.461	0.206	0.371
-617.332	250.785	0.053	0.091
-616.317	-200.000	-0.033	0.617
-615.303	-29.479	-0.121	0.070
-614.288	0.439	0.327	-0.235
-613.273	-200.000	0.003	-0.024
-612.259	427.472	-0.058	-0.127
-611.244	-94.965	-0.194	0.053
-610.230	-181.476	-0.239	-0.005
-609.215	-2.087	0.310	-0.219
-608.201	-45.729	-0.053	-0.027
-607.186	490.945	-0.074	-0.169
-606.171	-7.173	-0.213	0.145
-605.157	-24.679	-0.205	-0.123
-604.142	650.960	-0.135	-0.349
-603.128	349.134	0.096	0.191
-602.113	800.000	-0.084	0.260
-601.098	470.611	-0.102	0.231
-600.084	338.677	0.227	0.444
-599.069	212.155	-0.035	-0.055
-598.055	-21.255	-0.320	-0.196
-597.040	371.067	-0.188	0.383
-596.025	-93.062	-0.210	0.059
-595.011	68.285	-0.269	0.277
-593.996	284.067	-0.128	-0.232
-592.982	92.676	-0.175	0.199
-591.967	-200.000	-0.003	0.100
-590.952	-90.760	0.191	-0.055
-589.938	7.293	0.174	-0.131
-588.923	-8.616	0.250	-0.168
-587.909	-99.267	0.135	0.034
-586.894	-13.242	-0.202	0.132
-585.879	355.990	0.133	-0.265
-584.865	-200.000	-0.006	0.108
-583.850	76.776	-0.064	-0.068
-582.836	-200.000	-0.024	0.205
-581.821	41.134	0.279	0.254
-580.806	-17.199	0.183	-0.116
-579.792	121.141	0.084	0.106
-578.777	118.173	0.129	-0.159
-577.763	4.861	0.184	0.136
-576.748	-44.327	0.142	-0.071
-575.733	59.765	-0.203	-0.201
-574.719	491.168	-0.100	-0.231
-573.704	9.280	0.035	0.027
-572.690	800.000	0.052	0.204
-571.675	-19.121	-0.112	0.070
-570.661	800.000	-0.079	-0.241
-569.646	66.534	-0.072	0.073
-568.631	-200.000	0.034	-0.277
-567.617	800.000	0.054	0.218
-566.602	-200.000	0.007	-0.084
-565.588	105.680	0.066	-0.078
-564.573	81.167	-0.322	-0.349
-563.558	86.372	-0.174	0.193
-562.544	-200.000	0.009	-0.365
-561.529	-67.042	-0.125	0.049
-560.515	-200.000	-0.018	-0.326
-559.500	-140.144	0.232	-0.024
-558.485	-144.771	-0.141	0.013
-557.471	800.000	-0.076	0.277
-556.456	570.998	0.025	0.061
-555.442	-117.906	0.074	0.013
-554.427	-57.465	-0.193	-0.085
-553.412	-142.861	0.095	-0.009
-552.398	-85.829	-0.463	-0.144
-551.383	353.593	0.059	-0.117
-550.369	109.890	0.115	0.138
-549.354	-83.345	-0.035	0.011
-548.339	-52.549	-0.168	0.078
-547.325	8.560	0.325	0.246
-546.310	44.813	-0.184	-0.170
-545.296	-200.000	-0.196	0.001
-544.281	98.080	0.068	0.078
-543.266	-200.000	-0.001	0.148
-542.252	-120.289	0.180	-0.031
-541.237	-200.000	0.024	0.131
-540.223	108.364	-0.082	0.098
-539.208	352.094	-0.084	0.166
-538.193	14.426	-0.038	-0.030
-537.179	357.704	-0.213	-0.426
-536.164	-200.000	0.047	-0.316
-535.150	-64.491	-0.307	-0.125
-534.135	114.244	0.184	-0.225
-533.121	333.643	-0.140	0.272
-532.106	-200.000	-0.010	0.113
-531.091	800.000	0.059	0.191
-530.077	13.609	0.117	-0.091
-529.062	26.818	-0.116	0.097
-528.048	-200.000	0.041	0.209
-527.033	166.868	0.102	0.145
-526.018	-128.742	-0.302	0.043
-525.004	-134.790	0.240	-0.029
-523.989	-115.175	-0.391	0.074
-522.975	-162.779	0.407	0.020
-521.960	-19.941	0.134	-0.083
-520.945	-7.408	0.168	-0.114
-519.931	-115.526	0.161	0.030
-518.916	48.617	-0.237	-0.223
-517.902	51.010	-0.083	0.079
-516.887	501.860	-0.093	-0.216
-515.872	495.289	0.063	-0.146
-514.858	458.028	-0.050	-0.112
-513.843	-190.014	-0.205	0.002
-512.829	800.000	0.033	0.132
-511.814	-186.728	-0.142	-0.002
-510.799	30.252	-0.031	0.026
-509.785	-200.000	-0.013	-0.686
-508.770	641.682	-0.094	-0.240
-507.756	-37.739	0.019	0.010
-506.741	193.958	0.118	-0.180
-505.726	-85.153	0.199	-0.062
-504.712	800.000	0.059	0.230
-503.697	800.000	0.075	0.277
-502.683	257.399	-0.119	-0.205
-501.668	-65.774	0.128	0.051
-500.653	237.202	0.222	-0.369
-499.639	-128.087	-0.137	-0.020
-498.624	100.700	0.097	0.113
-497.610	-80.548	0.122	0.041
-496.595	-86.707	0.067	0.021
-495.581	-113.729	0.323	-0.063
-494.566	-155.908	-0.290	-0.018
-493.551	-180.929	-0.305	0.006
-492.537	38.945	0.182	0.163
-491.522	-183.911	-0.260	0.004
-490.508	503.928	-0.051	0.117
-489.493	-81.762	0.135	0.044
-488.478	-200.000	0.001	-0.356
-487.464	-49.584	0.396	0.189
-486.449	800.000	0.031	0.103
-485.435	-158.882	0.217	-0.012
-484.420	274.361	0.180	-0.318
-483.405	93.811	-0.020	-0.023
-482.391	685.653	-0.025	-0.065
-481.376	-200.000	-0.012	0.307
-480.362	160.389	0.197	-0.275
-479.347	800.000	0.085	-0.333
-478.332	373.444	-0.051	-0.104
-477.318	-200.000	0.031	0.369
-476.303	-37.955	-0.280	0.149
-475.289	-200.000	0.037	-0.276
-474.274	192.677	-0.065	-0.098
-473.259	-164.303	-0.393	0.018
-472.245	-200.000	-0.022	0.097
-471.230	299.479	0.122	-0.224
-470.216	273.113	0.128	0.226
-469.201	800.000	0.041	-0.115
-468.186	206.204	0.107	-0.166
-467.172	-155.026	-0.331	-0.022
-466.157	54.592	-0.123	-0.119
-465.143	469.514	0.098	0.219
-464.128	-88.059	-0.612	0.184
-463.113	-200.000	-0.037	-0.370
-462.099	356.319	0.077	-0.153
-461.084	324.130	-0.118	-0.226
-460.070	134.229	-0.090	-0.117
-459.055	800.000	0.090	0.266
-458.040	260.043	0.067	0.115
-457.026	-44.945	-0.320	-0.159
-456.011	-200.000	-0.181	0.000
-454.997	800.000	0.067	0.214
-453.982	-200.000	-0.003	-0.254
-452.968	433.613	-0.023	0.050
-451.953	47.578	-0.092	0.086
-450.938	140.193	0.057	0.075
-449.924	585.560	-0.131	-0.322
-448.909	-81.242	-0.265	0.087
-447.895	-200.000	0.028	-0.283
-446.880	69.645	0.303	0.312
-445.865	-159.301	0.377	0.021
-444.851	-120.048	-0.353	-0.060
-443.836	-97.756	0.234	-0.061
-442.822	-110.291	-0.249	0.052
-441.807	-46.612	-0.277	-0.136
-440.792	-57.584	-0.437	0.191
-439.778	-121.917	0.073	-0.012
-438.763	-12.946	-0.347	0.226
-437.749	-0.026	0.253	-0.180
-436.734	800.000	-0.016	-0.050
-435.719	-106.836	0.101	0.022
-434.705	67.869	0.192	0.196
-433.690	-42.704	0.067	-0.034
-432.676	71.410	-0.109	0.113
-431.661	299.669	0.022	0.040
-430.646	141.884	-0.055	-0.072
-429.632	457.817	0.076	-0.169
-428.617	-158.232	0.274	0.016
-427.603	348.742	0.086	-0.169
-426.588	244.825	0.191	0.321
-425.573	63.168	-0.303	-0.303
-424.559	800.000	0.026	-0.111
-423.544	-200.000	0.032	-0.296
-422.530	114.809	0.045	-0.055
-421.515	414.058	0.084	0.178
-420.500	95.485	-0.028	0.032
-419.486	196.085	0.077	0.117
-418.471	-35.942	0.253	0.136
-417.457	363.713	0.079	0.159
-416.442	-49.063	-0.045	0.021
-415.428	-28.480	-0.194	0.112
-414.413	-15.038	-0.281	0.180
-413.398	314.443	-0.108	-0.204
-412.384	63.328	-0.181	-0.181
-411.369	-200.000	0.024	-0.339
-410.355	-200.000	0.039	-0.245
-409.340	800.000	-0.023	-0.069
-408.325	-16.212	0.305	-0.193
-407.311	800.000	-0.056	0.171
-406.296	36.029	0.256	0.225
-405.282	399.302	0.090	0.188
-404.267	516.077	-0.036	0.084
-403.252	59.568	0.263	0.259
-402.238	227.631	0.162	0.262
-401.223	-106.841	-0.049	-0.011
-400.209	-200.000	0.005	-0.221
-399.194	11.876	-0.493	0.378
-398.179	-149.336	0.214	0.017
-397.165	37.605	-0.139	-0.123
-396.150	-48.052	0.177	-0.086
-395.136	-7.514	-0.187	-0.127
-394.121	285.356	-0.101	-0.181
-393.106	37.142	0.285	-0.251
-392.092	328.564	0.066	0.127
-391.077	158.202	0.031	-0.043
-390.063	-174.526	-0.195	-0.006
-389.048	-177.431	0.154	0.004
-388.033	800.000	0.081	-0.318
-387.019	-73.562	0.175	0.064
-386.004	-123.234	0.152	-0.024
-384.990	-9.793	-0.039	0.026
-383.975	-99.276	0.375	0.094
-382.960	-169.786	-0.217	-0.008
-381.946	800.000	0.055	-0.160
-380.931	-42.843	-0.132	0.067
-379.917	-200.000	0.019	-0.160
-378.902	96.092	-0.157	-0.179
-377.888	74.882	0.095	-0.100
-376.873	-200.000	-0.043	0.335
-375.858	-71.659	-0.155	0.057
-374.844	-28.282	-0.109	-0.063
-373.829	-81.109	0.202	-0.067
-372.815	-199.180	0.073	-0.000
-371.800	-3.832	-0.387	-0.268
-370.785	-60.569	0.293	-0.124
-369.771	219.116	0.148	-0.235
-368.756	-200.000	-0.037	-0.384
-367.742	39.391	0.419	0.374
-366.727	227.997	-0.026	0.043
-365.712	800.000	-0.079	0.272
-364.698	800.000	-0.046	0.151
-363.683	154.044	0.066	-0.090
-362.669	229.655	-0.184	-0.299
-361.654	133.364	-0.126	-0.163
-360.639	-87.899	0.117	0.035
-359.625	-41.090	0.023	0.012
-358.610	109.226	0.129	-0.154
-357.596	413.241	0.115	-0.243
-356.581	-83.528	0.138	0.044
-355.566	-140.084	-0.180	-0.019
-354.552	720.636	0.078	0.206
-353.537	25.324	0.066	-0.054
-352.523	-200.000	-0.021	-0.115
-351.508	381.598	0.146	0.299
-350.493	-200.000	0.175	-0.001
-349.479	39.558	-0.248	-0.222
-348.464	800.000	-0.038	0.132
-347.450	800.000	0.048	0.191
-346.435	-173.819	-0.243	0.007
-345.420	-200.000	-0.029	0.258
-344.406	-113.862	0.063	-0.012
-343.391	-81.273	-0.111	0.036
-342.377	800.000	0.042	-0.160
-341.362	-128.296	-0.174	-0.025
-340.348	-200.000	-0.019	0.214
-339.333	-16.529	0.192	0.121
-338.318	800.000	0.020	-0.059
-337.304	-33.516	0.066	-0.036
-336.289	269.218	0.024	0.042
-335.275	-67.955	0.066	0.025
-334.260	-75.760	-0.246	-0.087
-333.245	-165.030	-0.306	-0.014
-332.231	-144.492	-0.038	-0.004
-331.216	21.009	0.025	-0.021
-330.202	18.447	0.170	0.136
-329.187	-73.451	-0.231	-0.084
-328.172	418.014	-0.044	0.092
-327.158	-44.667	0.223	0.111
-326.143	67.804	0.267	0.271
-325.129	235.303	-0.114	0.187
-324.114	800.000	0.026	-0.092
-323.099	454.726	0.013	-0.028
-322.085	263.831	-0.122	0.212
-321.070	184.047	-0.285	0.420
-320.056	-200.000	0.028	0.180
-319.041	183.058	0.195	-0.287
-318.026	7.860	0.119	0.088
-317.012	-49.198	0.179	0.085
-315.997	-151.804	0.093	-0.007
-314.983	-200.000	0.000	0.020
-313.968	-150.353	0.174	-0.013
-312.953	128.500	-0.182	-0.230
-311.939	-146.635	0.407	0.035
-310.924	-200.000	0.001	0.236
-309.910	800.000	-0.060	-0.232
-308.895	-34.591	0.313	0.170
-307.880	322.034	0.094	0.178
-306.866	3.279	0.200	-0.145
-305.851	-87.421	-0.248	-0.075
-304.837	-102.133	0.030	-0.007
-303.822	425.331	-0.112	-0.240
-302.807	800.000	0.194	0.567
-301.793	310.561	-0.172	0.320
-300.778	312.756	-0.086	-0.161
-299.764	87.602	0.277	-0.305
-298.749	281.783	-0.110	0.197
-297.735	-11.785	-0.287	0.187
-296.720	-156.453	-0.351	0.022
-295.705	-128.366	0.404	0.057
-294.691	-110.311	0.374	0.077
-293.676	800.000	-0.022	-0.067
-292.662	-21.031	-0.113	-0.069
-291.647	-115.597	-0.247	0.046
-290.632	-71.309	-0.066	0.025
-289.618	-147.426	0.326	-0.027
-288.603	-200.000	-0.007	0.068
-287.589	443.769	0.055	-0.120
-286.574	109.951	-0.220	-0.262
-285.559	-200.000	-0.047	0.222
-284.545	-82.277	0.218	-0.071
-283.530	731.918	0.133	0.353
-282.516	-140.244	-0.277	-0.029
-281.501	0.096	-0.099	0.070
-280.486	-200.000	0.046	-0.249
-279.472	800.000	0.048	-0.186
-278.457	-189.972	-0.113	-0.001
-277.443	3.092	-0.191	0.138
-276.428	272.405	0.108	-0.189
-275.413	-200.000	0.024	-0.390
-274.399	9.334	0.197	-0.148
-273.384	373.254	0.156	0.314
-272.370	-58.646	0.199	-0.086
-271.355	78.951	-0.214	0.227
-270.340	3.088	-0.263	0.190
-269.326	800.000	0.065	-0.223
-268.311	-143.478	-0.150	0.014
-267.297	-200.000	0.080	-0.391
-266.282	356.734	0.065	0.129
-265.267	141.453	0.066	0.087
-264.253	113.232	0.260	0.313
-263.238	800.000	-0.074	0.213
-262.224	-66.857	-0.117	0.046
-261.209	-200.000	0.046	0.409
-260.195	-34.370	0.199	0.108
-259.180	-26.139	-0.158	-0.092
-258.165	-89.321	0.189	-0.055
-257.151	800.000	0.048	0.205
-256.136	-126.650	0.278	-0.041
-255.122	-133.720	0.084	0.010
-254.107	-200.000	-0.005	0.153
-253.092	-69.046	-0.084	0.032
-252.078	99.089	0.017	-0.020
-251.063	15.690	0.277	-0.216
-250.049	137.614	-0.222	0.288
-249.034	51.087	-0.217	0.204
-248.019	568.246	0.089	0.213
-247.005	-119.162	-0.088	0.015
-245.990	-90.824	-0.142	-0.041
-244.976	-16.676	0.081	-0.051
-243.961	105.893	0.026	0.030
-242.946	-125.529	0.134	-0.020
-241.932	38.728	0.275	0.243
-240.917	-200.000	0.074	0.343
-239.903	215.943	-0.315	0.496
-238.888	426.937	-0.217	0.463
-237.873	-76.353	0.287	0.100
-236.859	150.988	-0.234	0.315
-235.844	3.311	-0.296	-0.214
-234.830	-200.000	0.030	0.280
-233.815	155.788	0.090	0.123
-232.800	377.465	-0.098	0.199
-231.786	34.522	-0.089	-0.077
-230.771	781.589	0.168	-0.456
-229.757	-200.000	0.029	-0.217
-228.742	-39.724	0.234	-0.121
-227.727	-200.000	-0.042	0.284
-226.713	-200.000	0.020	0.378
-225.698	800.000	0.065	-0.182
-224.684	-53.270	-0.202	-0.092
-223.669	800.000	0.121	-0.395
-222.655	71.854	0.204	-0.210
-221.640	58.378	-0.110	0.107
-220.625	-37.924	-0.195	0.102
-219.611	241.992	0.191	-0.316
-218.596	401.497	0.085	0.176
-217.582	-107.026	0.152	0.033
-216.567	135.921	-0.115	0.148
-215.552	383.482	0.125	0.254
-214.538	77.032	-0.237	-0.250
-213.523	-3.090	0.116	-0.080
-212.509	-76.891	-0.240	-0.083
-211.494	-200.000	0.023	0.278
-210.479	80.697	-0.214	-0.228
-209.465	337.388	-0.052	0.100
-208.450	30.462	-0.135	0.114
-207.436	356.198	-0.156	0.308
-206.421	-200.000	-0.079	0.369
-205.406	26.711	0.084	-0.070
-204.392	43.824	-0.177	-0.161
-203.377	87.661	-0.129	0.142
-202.363	-73.959	0.189	-0.068
-201.348	-200.000	-0.025	0.191
-200.333	800.000	-0.099	0.394
-199.319	-25.372	-0.140	-0.082
-198.304	-200.000	0.023	-0.338
-197.290	256.158	-0.164	-0.279
-196.275	595.451	0.090	0.221
-195.260	800.000	0.032	0.100
-194.246	-106.430	0.561	-0.124
-193.231	312.290	-0.059	-0.109
-192.217	88.123	0.162	-0.178
-191.202	800.000	-0.072	-0.312
-190.187	720.389	-0.077	0.203
-189.173	-107.736	0.052	-0.011
-188.158	-140.059	0.160	-0.017
-187.144	8.000	0.198	0.147
-186.129	37.043	-0.092	-0.081
-185.114	539.818	0.147	-0.347
-184.100	182.515	0.085	-0.124
-183.085	-200.000	0.032	-0.140
-182.071	-200.000	0.006	0.070
-181.056	2.152	-0.067	-0.048
-180.042	82.305	0.131	0.141
-179.027	92.770	-0.177	-0.197
-178.012	-124.230	0.075	-0.012
-176.998	800.000	-0.047	0.175
-175.983	-33.466	0.184	0.101
-174.969	800.000	0.129	-0.414
-173.954	-87.857	-0.464	-0.138
-172.939	-69.234	-0.326	-0.124
-171.925	30.772	0.219	-0.185
-170.910	-159.097	0.153	-0.009
-169.896	800.000	0.088	0.253
-168.881	-3.201	0.167	-0.115
-167.866	503.527	-0.045	-0.103
-166.852	265.032	0.115	0.198
-165.837	-200.000	0.058	0.290
-164.823	546.736	0.076	-0.179
-163.808	800.000	-0.084	-0.317
-162.793	294.354	0.215	-0.388
-161.779	348.020	0.256	-0.498
-160.764	800.000	-0.078	0.274
-159.750	220.891	-0.151	-0.240
-158.735	-119.448	0.169	0.029
-157.720	-64.528	0.204	0.082
-156.706	-200.000	0.065	-0.406
-155.691	72.836	-0.216	-0.223
-154.677	754.552	0.087	0.233
-153.662	-152.729	-0.331	-0.023
-152.647	-75.445	0.453	-0.159
-151.633	-37.549	0.073	-0.038
-150.618	123.334	-0.326	0.404
-149.604	-80.961	0.205	0.067
-148.589	4.846	-0.195	-0.142
-147.574	314.147	0.119	-0.222
-146.560	-62.283	-0.206	0.085
-145.545	-4.077	0.183	-0.125
-144.531	76.453	-0.114	0.120
-143.516	-112.628	0.382	-0.075
-142.502	735.745	0.111	-0.294
-141.487	800.000	0.078	0.289
-140.472	355.639	0.180	0.354
-139.458	800.000	-0.052	-0.188
-138.443	800.000	-0.115	0.385
-137.429	272.295	-0.117	-0.204
-136.414	424.083	0.126	-0.268
-135.399	172.572	-0.094	-0.133
-134.385	-33.677	0.413	0.225
-133.370	-103.668	0.239	-0.055
-132.356	59.654	-0.251	-0.244
-131.341	-74.682	-0.195	-0.069
-130.326	629.641	-0.089	-0.222
-129.312	-200.000	0.016	-0.161
-128.297	-39.311	0.252	0.130
-127.283	-200.000	0.069	0.340
-126.268	-169.321	-0.366	0.013
-125.253	389.734	-0.036	-0.074
-124.239	28.686	-0.265	-0.222
-123.224	515.914	0.187	-0.431
-122.210	42.496	0.203	0.183
-121.195	382.269	0.079	-0.160
-120.180	-139.292	0.305	0.032
