DTS Sentinel unit serial number:	SN413079Multiplexer serial number:	ORYXHardware model number:	OX4-SRSoftware version number:	ORYX F/W v4.00 Oryx Data Collector v3.7.2.0data status	okinstallation	princeton_trtdifferential loss correction	single-endedforward channel	channel 1reverse channel	N/Adate	2019/09/15time	21:54:35forward acquisition time	60.00reverse acquisition time	0.00gamma	496.2192k internal	0.2329k external	0.2329temperature offset calibration	0.9964default loss term (dB/km)	0.3790temperature slope calibration	1.0000multiplexer offset coefficient	1.0000multiplexer slope coefficient	1.0000fibre end	0.00T internal ref (°C)	30.00T ext. ref 1 (°C)	8.47T ext. ref 2 (°C)	23.00length (m)	temperature (°C)	Stokes	anti-Stokes-747.200	-200.000	0.009	0.147
-746.185	32.970	-0.194	-0.170
-745.171	43.677	0.132	-0.121
-744.156	-140.101	0.166	0.018
-743.142	-120.417	0.247	-0.042
-742.127	48.545	0.060	0.057
-741.112	-200.000	-0.023	-0.266
-740.098	-99.190	-0.319	-0.081
-739.083	4.931	-0.047	0.035
-738.069	-200.000	-0.017	0.312
-737.054	-177.881	-0.048	-0.001
-736.039	-68.808	0.314	0.122
-735.025	-37.040	0.172	0.093
-734.010	-103.183	-0.697	0.166
-732.996	-1.331	0.275	0.195
-731.981	-90.435	-0.153	-0.045
-730.966	-200.000	0.080	0.394
-729.952	-67.459	-0.303	-0.120
-728.937	-200.000	-0.014	0.278
-727.923	197.675	-0.173	-0.266
-726.908	-68.622	-0.247	-0.096
-725.894	163.523	-0.297	0.420
-724.879	-200.000	-0.008	0.141
-723.864	-99.327	0.568	-0.144
-722.850	-53.177	0.262	-0.121
-721.835	800.000	0.008	-0.026
-720.821	-88.908	-0.227	0.068
-719.806	-91.749	-0.243	-0.069
-718.791	626.821	0.086	0.219
-717.777	-121.257	0.462	0.078
-716.762	-16.304	0.343	0.219
-715.748	-200.000	-0.044	-0.242
-714.733	-107.788	0.209	0.046
-713.718	-143.388	-0.511	0.049
-712.704	341.076	0.027	0.054
-711.689	800.000	0.054	-0.192
-710.675	170.330	-0.101	-0.145
-709.660	-200.000	-0.009	0.137
-708.645	15.954	-0.107	0.085
-707.631	-200.000	-0.051	-0.410
-706.616	-128.966	0.192	-0.027
-705.602	35.688	0.112	0.099
-704.587	-153.655	0.048	0.003
-703.572	339.916	-0.201	0.394
-702.558	170.944	-0.105	-0.152
-701.543	-32.856	-0.262	-0.146
-700.529	372.678	-0.062	0.127
-699.514	-98.739	-0.049	0.013
-698.499	-200.000	0.041	-0.377
-697.485	145.531	-0.051	0.068
-696.470	-38.169	0.357	-0.190
-695.456	800.000	-0.025	-0.098
-694.441	-86.526	0.350	0.108
-693.426	-15.589	-0.137	-0.088
-692.412	417.926	0.132	0.283
-691.397	80.769	0.206	-0.224
-690.383	160.364	-0.261	0.366
-689.368	354.812	0.054	0.108
-688.354	-200.000	0.047	-0.248
-687.339	48.702	-0.255	0.241
-686.324	-113.111	-0.139	0.027
-685.310	-200.000	0.006	-0.156
-684.295	-33.993	0.258	0.143
-683.281	-200.000	-0.024	-0.212
-682.266	98.432	0.123	-0.143
-681.251	-127.394	0.090	-0.013
-680.237	-71.725	-0.194	0.073
-679.222	-200.000	-0.011	-0.261
-678.208	-200.000	-0.024	0.122
-677.193	56.303	0.257	-0.251
-676.178	-200.000	0.048	-0.343
-675.164	-71.405	0.216	-0.081
-674.149	-61.587	0.070	-0.029
-673.135	683.990	0.050	0.130
-672.120	88.769	0.064	-0.071
-671.105	-143.603	-0.123	-0.012
-670.091	484.661	-0.092	-0.210
-669.076	-177.791	0.109	0.003
-668.062	622.399	0.015	0.037
-667.047	116.595	-0.121	0.149
-666.032	69.196	0.303	-0.312
-665.018	80.332	-0.051	-0.056
-664.003	800.000	0.027	0.105
-662.989	-24.020	-0.297	-0.178
-661.974	-200.000	0.019	0.165
-660.959	240.214	0.291	-0.487
-659.945	-86.714	-0.040	-0.012
-658.930	-200.000	0.025	-0.335
-657.916	486.073	0.038	0.087
-656.901	105.753	0.164	-0.195
-655.886	-200.000	0.042	-0.267
-654.872	-23.241	0.054	0.032
-653.857	800.000	0.022	-0.079
-652.843	-62.958	-0.075	-0.031
-651.828	-163.909	-0.273	0.013
-650.814	-47.030	-0.101	-0.050
-649.799	-200.000	0.068	-0.310
-648.784	149.710	-0.259	-0.353
-647.770	-53.097	-0.095	-0.044
-646.755	-200.000	-0.012	0.102
-645.741	-148.963	0.177	-0.014
-644.726	-143.224	-0.291	-0.028
-643.711	751.069	-0.040	-0.109
-642.697	78.661	0.083	-0.089
-641.682	-100.363	-0.193	0.048
-640.668	-1.444	0.109	0.077
-639.653	110.678	0.098	0.118
-638.638	136.278	0.081	-0.105
-637.624	203.624	0.132	0.204
-636.609	800.000	0.068	0.269
-635.595	596.036	0.123	-0.304
-634.580	-200.000	0.066	-0.338
-633.565	-200.000	0.012	-0.076
-632.551	1.735	-0.251	0.182
-631.536	-109.913	-0.125	-0.026
-630.522	780.846	0.045	-0.122
-629.507	-200.000	0.005	-0.153
-628.492	-39.332	-0.143	0.075
-627.478	-106.735	0.062	-0.014
-626.463	42.940	-0.054	0.050
-625.449	141.242	-0.160	0.212
-624.434	-63.679	-0.138	-0.057
-623.419	-51.051	0.187	0.088
-622.405	-103.742	0.226	-0.053
-621.390	114.726	-0.053	-0.065
-620.376	800.000	0.083	0.232
-619.361	-154.556	-0.227	0.015
-618.346	129.822	-0.042	-0.053
-617.332	-108.249	0.207	0.045
-616.317	-200.000	0.072	0.415
-615.303	566.874	0.193	0.469
-614.288	-200.000	-0.009	-0.146
-613.273	-92.556	0.080	-0.023
-612.259	-52.694	-0.298	0.138
-611.244	109.107	-0.196	-0.235
-610.230	-200.000	0.034	-0.171
-609.215	-200.000	0.008	0.052
-608.201	715.485	-0.143	-0.380
-607.186	-143.311	0.150	0.014
-606.171	64.242	0.160	0.161
-605.157	292.099	-0.217	0.396
-604.142	41.754	-0.181	0.164
-603.128	-181.019	-0.360	-0.007
-602.113	-51.526	-0.275	-0.128
-601.098	219.968	-0.146	-0.235
-600.084	28.779	0.110	-0.093
-599.069	20.710	-0.251	-0.204
-598.055	800.000	0.074	0.235
-597.040	-184.387	-0.292	0.005
-596.025	-200.000	-0.025	-0.132
-595.011	-174.586	0.201	-0.006
-593.996	-173.250	-0.273	-0.008
-592.982	-125.295	-0.282	-0.043
-591.967	-1.943	0.275	-0.193
-590.952	465.879	-0.058	-0.130
-589.938	-25.667	-0.120	-0.071
-588.923	570.506	0.084	-0.204
-587.909	800.000	-0.207	-0.643
-586.894	245.831	0.112	-0.189
-585.879	-153.415	0.224	-0.016
-584.865	696.956	-0.079	-0.209
-583.850	687.353	-0.069	-0.179
-582.836	-28.719	-0.338	-0.195
-581.821	-145.706	0.330	0.029
-580.806	800.000	-0.046	-0.197
-579.792	-107.439	-0.207	0.045
-578.777	800.000	-0.102	0.304
-577.763	800.000	0.122	0.449
-576.748	-60.025	0.262	-0.112
-575.733	152.382	-0.300	-0.410
-574.719	-32.636	-0.372	-0.207
-573.704	-68.791	-0.105	0.041
-572.690	-200.000	0.026	-0.284
-571.675	-10.687	-0.041	0.027
-570.661	-93.807	-0.123	-0.034
-569.646	-165.725	0.147	0.006
-568.631	58.706	0.120	0.118
-567.617	608.000	0.105	-0.262
-566.602	-121.601	-0.125	-0.021
-565.588	-200.000	0.007	0.178
-564.573	-85.608	0.151	0.047
-563.558	657.866	-0.043	-0.110
-562.544	-61.116	0.199	-0.084
-561.529	88.745	0.175	-0.195
-560.515	-47.782	0.115	-0.056
-559.500	-200.000	-0.009	-0.198
-558.485	31.167	-0.159	0.136
-557.471	16.991	-0.030	0.023
-556.456	393.258	0.046	-0.096
-555.442	-82.098	-0.047	0.015
-554.427	-102.267	-0.530	-0.127
-553.412	-69.469	0.269	-0.103
-552.398	225.728	-0.203	-0.328
-551.383	696.969	-0.082	0.215
-550.369	534.400	0.088	-0.209
-549.354	-25.823	-0.120	-0.071
-548.339	108.059	0.144	-0.172
-547.325	-200.000	0.027	0.313
-546.310	800.000	-0.024	0.096
-545.296	800.000	0.034	0.098
-544.281	267.397	-0.078	-0.136
-543.266	578.584	-0.142	0.348
-542.252	4.421	0.306	0.224
-541.237	110.536	0.167	0.200
-540.223	-67.344	-0.113	-0.044
-539.208	800.000	0.098	-0.374
-538.193	-126.426	-0.357	0.053
-537.179	-86.754	0.413	-0.126
-536.164	-142.188	0.223	-0.022
-535.150	-10.202	0.083	-0.055
-534.135	105.940	-0.048	-0.057
-533.121	-173.438	-0.247	-0.007
-532.106	-105.453	-0.295	-0.067
-531.091	72.013	-0.040	0.042
-530.077	-89.632	0.270	0.079
-529.062	-26.374	0.221	-0.129
-528.048	-138.961	-0.396	-0.043
-527.033	-200.000	0.044	-0.383
-526.018	-200.000	0.003	0.255
-525.004	-153.728	-0.383	-0.026
-523.989	-161.265	-0.421	0.022
-522.975	-58.819	-0.180	0.078
-521.960	91.843	0.129	-0.145
-520.945	-122.134	0.087	-0.014
-519.931	-200.000	-0.001	-0.059
-518.916	-17.141	0.194	-0.122
-517.902	-200.000	-0.049	-0.309
-516.887	-126.576	0.270	0.040
-515.872	-200.000	0.005	0.269
-514.858	-169.243	-0.430	0.016
-513.843	-200.000	0.015	-0.191
-512.829	265.897	0.057	-0.099
-511.814	-200.000	0.013	0.106
-510.799	89.321	0.181	0.201
-509.785	45.864	0.163	-0.151
-508.770	228.693	-0.118	0.192
-507.756	-73.532	0.235	-0.086
-506.741	-200.000	0.011	-0.069
-505.726	745.395	-0.103	0.276
-504.712	589.979	0.041	0.102
-503.697	544.675	-0.066	-0.156
-502.683	-177.489	0.396	-0.010
-501.668	-200.000	0.021	0.092
-500.653	102.234	-0.055	0.064
-499.639	-155.796	0.329	0.021
-498.624	297.597	0.090	-0.166
-497.610	800.000	-0.052	-0.147
-496.595	237.279	-0.079	0.131
-495.581	267.073	-0.121	0.211
-494.566	-200.000	-0.023	0.292
-493.551	800.000	-0.110	-0.306
-492.537	201.835	-0.056	0.086
-491.522	13.304	-0.136	-0.105
-490.508	800.000	-0.037	-0.109
-489.493	-23.961	-0.134	-0.080
-488.478	-67.073	0.208	-0.082
-487.464	-184.944	0.106	0.002
-486.449	-99.606	-0.159	-0.040
-485.435	100.600	-0.148	-0.172
-484.420	-200.000	-0.007	0.063
-483.405	-70.215	0.108	-0.041
-482.391	9.726	-0.143	0.108
-481.376	116.627	-0.158	0.193
-480.362	20.500	-0.128	-0.103
-479.347	-54.275	-0.072	-0.033
-478.332	-60.775	-0.198	0.083
-477.318	-200.000	-0.042	-0.462
-476.303	-74.800	0.135	-0.048
-475.289	43.678	-0.061	0.056
-474.274	-80.163	-0.136	0.046
-473.259	-16.723	-0.120	-0.076
-472.245	2.703	-0.082	-0.060
-471.230	100.468	0.071	-0.082
-470.216	-200.000	-0.027	0.348
-469.201	116.109	-0.186	0.227
-468.186	-11.539	-0.123	-0.081
-467.172	-71.548	-0.223	-0.083
-466.157	-73.604	0.347	-0.126
-465.143	800.000	-0.059	0.225
-464.128	-200.000	-0.025	-0.146
-463.113	-170.386	0.150	0.005
-462.099	-43.576	-0.061	-0.031
-461.084	-73.205	-0.053	-0.019
-460.070	-132.862	0.260	0.033
-459.055	618.286	-0.100	-0.250
-458.040	-45.067	0.284	-0.141
-457.026	-200.000	0.093	0.441
-456.011	-200.000	-0.049	0.379
-454.997	800.000	0.165	0.505
-453.982	800.000	0.063	0.176
-452.968	759.199	0.084	-0.227
-451.953	117.673	-0.033	0.041
-450.938	384.705	0.023	-0.047
-449.924	206.599	-0.106	-0.165
-448.909	53.294	0.065	0.062
-447.895	16.769	-0.145	-0.114
-446.880	204.553	0.143	-0.221
-445.865	800.000	-0.073	-0.278
-444.851	444.873	0.126	-0.275
-443.836	59.027	-0.174	0.170
-442.822	-103.229	-0.338	0.080
-441.807	682.235	-0.098	0.254
-440.792	84.685	0.157	0.171
-439.778	-68.978	-0.216	0.083
-438.763	-192.205	0.379	0.004
-437.749	-8.818	0.093	0.062
-436.734	36.006	-0.283	-0.248
-435.719	-176.892	0.093	0.002
-434.705	135.267	0.289	-0.374
-433.690	-200.000	-0.030	-0.279
-432.676	-128.138	0.252	-0.036
-431.661	-164.089	-0.151	0.007
-430.646	800.000	-0.047	0.128
-429.632	-200.000	-0.028	0.235
-428.617	-200.000	0.081	-0.426
-427.603	800.000	0.043	-0.134
-426.588	-200.000	0.022	0.327
-425.573	573.187	0.091	0.220
-424.559	-59.107	0.098	-0.042
-423.544	206.440	-0.224	-0.347
-422.530	-12.773	-0.334	-0.217
-421.515	112.707	0.142	0.171
-420.500	176.508	-0.072	-0.105
-419.486	-200.000	0.019	0.090
-418.471	-200.000	-0.014	-0.189
-417.457	-5.205	-0.072	0.050
-416.442	-42.212	0.156	-0.079
-415.428	-79.775	0.131	0.044
-414.413	-158.830	-0.351	0.020
-413.398	-53.425	0.145	0.066
-412.384	-162.784	-0.257	0.012
-411.369	331.111	-0.094	-0.181
-410.355	248.427	-0.112	-0.189
-409.340	-119.032	0.258	-0.045
-408.325	268.858	-0.070	-0.121
-407.311	141.057	-0.051	0.067
-406.296	-77.371	0.237	0.082
-405.282	-200.000	0.031	-0.152
-404.267	-59.783	0.120	0.051
-403.252	-9.953	-0.008	-0.005
-402.238	-87.526	0.085	-0.025
-401.223	-200.000	-0.016	-0.136
-400.209	-41.658	-0.241	-0.123
-399.194	-200.000	0.079	-0.513
-398.179	-32.059	-0.194	-0.108
-397.165	160.144	0.270	-0.374
-396.150	-158.895	0.516	-0.029
-395.136	-165.431	-0.266	0.012
-394.121	-200.000	-0.009	-0.151
-393.106	-128.808	-0.220	-0.031
-392.092	408.536	-0.136	0.285
-391.077	-17.423	0.491	-0.307
-390.063	800.000	-0.043	0.149
-389.048	259.211	-0.157	0.268
-388.033	277.421	-0.102	0.180
-387.019	-189.266	-0.301	0.004
-386.004	-84.434	-0.252	-0.079
-384.990	-151.320	0.247	-0.018
-383.975	-200.000	0.036	0.393
-382.960	384.777	0.082	-0.167
-381.946	49.637	-0.117	-0.109
-380.931	150.565	-0.239	-0.322
-379.917	-200.000	0.005	-0.059
-378.902	-2.895	-0.246	0.171
-377.888	-200.000	-0.017	0.076
-376.873	-59.914	-0.221	0.094
-375.858	-200.000	-0.008	0.099
-374.844	-111.591	-0.269	-0.054
-373.829	-100.459	-0.285	-0.070
-372.815	72.628	0.092	0.095
-371.800	-200.000	0.008	0.795
-370.785	-44.817	-0.203	-0.101
-369.771	800.000	-0.075	-0.212
-368.756	63.162	0.068	-0.068
-367.742	-83.033	0.146	-0.047
-366.727	-200.000	-0.006	0.095
-365.712	14.992	-0.170	0.132
-364.698	765.738	0.179	-0.481
-363.683	-5.893	-0.148	-0.100
-362.669	10.621	-0.235	-0.177
-361.654	264.696	-0.026	0.044
-360.639	-200.000	-0.016	0.354
-359.625	-200.000	-0.006	0.269
-358.610	-67.988	-0.246	-0.095
-357.596	-105.637	0.203	-0.046
-356.581	33.674	0.062	-0.054
-355.566	11.425	0.310	0.236
-354.552	717.929	-0.049	0.130
-353.537	181.452	-0.204	0.298
-352.523	-200.000	-0.055	0.283
-351.508	105.312	0.223	-0.261
-350.493	105.367	0.040	0.047
-349.479	-160.879	0.386	0.020
-348.464	-200.000	-0.009	-0.072
-347.450	-3.639	0.207	-0.143
-346.435	304.516	-0.083	-0.153
-345.420	-74.371	-0.152	-0.054
-344.406	-27.342	-0.343	0.198
-343.391	-136.687	0.226	0.026
-342.377	289.712	0.083	-0.149
-341.362	800.000	-0.015	0.052
-340.348	-28.569	-0.158	0.090
-339.333	55.875	-0.026	-0.025
-338.318	-113.949	0.159	-0.031
-337.304	-200.000	-0.002	-0.059
-336.289	-43.665	-0.390	0.195
-335.275	-60.504	0.082	-0.034
-334.260	800.000	0.075	-0.235
-333.245	-21.791	-0.293	0.177
-332.231	-72.616	0.120	0.044
-331.216	546.979	0.001	0.003
-330.202	-61.534	0.107	0.045
-329.187	-18.464	-0.414	0.256
-328.172	-109.377	0.143	-0.030
-327.158	-64.767	-0.195	-0.078
-326.143	-60.461	-0.126	-0.053
-325.129	-4.468	0.228	-0.156
-324.114	-9.364	0.245	-0.162
-323.099	-38.021	0.111	0.059
-322.085	382.946	0.086	-0.175
-321.070	-200.000	0.082	0.558
-320.056	-57.284	0.474	0.207
-319.041	-200.000	0.010	0.370
-318.026	-200.000	-0.026	-0.168
-317.012	-200.000	0.018	0.106
-315.997	24.191	-0.201	0.165
-314.983	759.902	-0.048	0.128
-313.968	-116.382	-0.192	0.035
-312.953	-136.236	0.222	0.026
-311.939	73.144	-0.260	-0.270
-310.924	-134.442	-0.093	-0.011
-309.910	-200.000	0.041	0.520
-308.895	20.425	-0.089	0.071
-307.880	205.830	0.136	0.209
-306.866	233.546	-0.075	-0.122
-305.851	-99.007	-0.250	0.063
-304.837	130.945	-0.185	0.235
-303.822	276.218	0.043	0.075
-302.807	-200.000	-0.010	-0.330
-301.793	-33.556	0.267	0.146
-300.778	-135.296	0.239	0.028
-299.764	-136.457	-0.249	-0.029
-298.749	442.277	0.089	-0.192
-297.735	-88.456	0.240	-0.071
-296.720	90.338	0.107	-0.118
-295.705	-200.000	-0.005	0.277
-294.691	43.821	-0.314	-0.285
-293.676	-175.889	-0.342	0.009
-292.662	-98.282	0.062	-0.016
-291.647	-67.281	-0.282	0.110
-290.632	266.487	-0.061	0.105
-289.618	-38.275	-0.267	-0.140
-288.603	800.000	-0.055	-0.229
-287.589	555.439	0.137	0.327
-286.574	-131.339	0.487	0.064
-285.559	-200.000	-0.012	-0.110
-284.545	-138.828	0.305	-0.033
-283.530	-200.000	0.028	0.238
-282.516	6.189	0.110	0.081
-281.501	-25.334	0.055	-0.032
-280.486	-94.167	-0.269	-0.073
-279.472	-116.338	0.293	0.054
-278.457	800.000	-0.043	0.135
-277.443	184.193	0.045	0.066
-276.428	800.000	0.032	0.125
-275.413	-200.000	0.014	0.069
-274.399	16.506	0.308	-0.241
-273.384	-200.000	-0.026	-0.161
-272.370	544.524	0.040	-0.094
-271.355	800.000	0.031	0.088
-270.340	-87.769	0.507	0.151
-269.326	-200.000	0.028	0.147
-268.311	-62.056	0.286	0.118
-267.297	800.000	-0.136	0.389
-266.282	-200.000	0.003	0.035
-265.267	-200.000	-0.037	-0.274
-264.253	139.323	-0.258	0.336
-263.238	134.896	-0.062	0.080
-262.224	-91.923	0.323	0.091
-261.209	800.000	0.038	0.164
-260.195	370.652	-0.180	0.360
-259.180	108.885	0.112	-0.133
-258.165	-113.861	0.052	-0.010
-257.151	-200.000	0.051	-0.356
-256.136	313.831	-0.093	-0.173
-255.122	-200.000	0.040	0.197
-254.107	-200.000	0.029	-0.270
-253.092	181.956	0.060	0.088
-252.078	422.022	0.123	-0.262
-251.063	-118.871	0.320	-0.056
-250.049	-200.000	-0.008	-0.256
-249.034	-121.942	-0.249	-0.041
-248.019	-200.000	0.011	0.111
-247.005	71.446	0.295	-0.302
-245.990	-82.489	0.226	-0.072
-244.976	800.000	0.081	-0.237
-243.961	-106.213	0.089	-0.020
-242.946	-187.737	0.265	-0.003
-241.932	642.657	-0.072	0.182
-240.917	-26.626	0.260	0.150
-239.903	-55.852	0.298	-0.131
-238.888	765.129	-0.132	-0.353
-237.873	-39.467	0.174	-0.090
-236.859	173.339	0.133	-0.190
-235.844	698.963	0.109	0.282
-234.830	-171.003	-0.529	0.018
-233.815	191.478	0.121	0.179
-232.800	-77.109	0.149	0.051
-231.786	-72.577	0.207	-0.075
-230.771	-12.509	0.153	0.099
-229.757	410.835	0.114	-0.239
-228.742	-165.148	0.223	0.010
-227.727	-40.247	-0.179	-0.092
-226.713	-66.321	0.143	-0.056
-225.698	3.470	-0.293	0.211
-224.684	-111.247	-0.099	0.020
-223.669	298.351	0.113	0.205
-222.655	-42.401	-0.112	-0.056
-221.640	88.939	-0.129	0.142
-220.625	100.060	0.218	0.249
-219.611	-7.889	-0.182	-0.121
-218.596	-47.961	0.256	-0.122
-217.582	68.276	-0.289	0.292
-216.567	-200.000	0.014	-0.063
-215.552	446.601	-0.082	0.177
-214.538	800.000	0.136	0.406
-213.523	-200.000	-0.012	-0.346
-212.509	-196.084	-0.305	-0.002
-211.494	-62.073	-0.053	0.022
-210.479	216.991	0.074	-0.116
-209.465	3.997	0.233	0.168
-208.450	-200.000	-0.038	-0.421
-207.436	58.292	-0.024	0.023
-206.421	-65.420	0.113	-0.045
-205.406	167.409	0.156	0.219
-204.392	-16.406	-0.061	0.038
-203.377	-78.293	-0.197	-0.067
-202.363	97.582	0.125	0.142
-201.348	10.961	-0.070	0.053
-200.333	189.272	-0.060	-0.088
-199.319	-14.664	0.177	0.112
-198.304	106.418	0.324	-0.379
-197.290	12.777	0.191	-0.146
-196.275	-85.012	0.163	0.050
-195.260	-86.304	0.350	-0.106
-194.246	221.744	0.260	0.412
-193.231	-200.000	-0.020	-0.156
-192.217	-83.906	-0.320	-0.100
-191.202	-118.831	0.414	0.072
-190.187	-200.000	0.013	-0.073
-189.173	302.585	0.152	0.277
-188.158	-200.000	0.024	0.334
-187.144	-200.000	-0.015	-0.112
-186.129	-17.330	-0.138	-0.086
-185.114	85.465	0.050	0.054
-184.100	-200.000	-0.022	0.127
-183.085	7.290	-0.190	-0.140
-182.071	-54.874	0.119	0.053
-181.056	-200.000	-0.003	0.128
-180.042	33.962	0.270	0.232
-179.027	-200.000	-0.011	0.189
-178.012	-200.000	-0.075	0.353
-176.998	14.930	-0.199	0.153
-175.983	-125.886	0.249	0.037
-174.969	283.604	0.082	0.146
-173.954	-200.000	0.025	-0.131
-172.939	-200.000	-0.020	-0.126
-171.925	800.000	0.048	0.135
-170.910	132.510	-0.204	0.259
-169.896	-125.874	-0.147	-0.022
-168.881	-111.143	0.051	0.010
-167.866	-75.490	0.435	0.152
-166.852	-200.000	-0.014	0.301
-165.837	-120.070	-0.084	-0.014
-164.823	511.036	0.064	0.148
-163.808	52.912	-0.243	0.229
-162.793	-38.525	-0.174	-0.091
-161.779	-160.172	-0.087	-0.005
-160.764	800.000	0.130	0.417
-159.750	-82.934	-0.084	0.027
-158.735	289.812	0.050	0.090
-157.720	800.000	-0.051	0.206
-156.706	100.907	-0.148	-0.169
-155.691	-200.000	0.032	-0.201
-154.677	-18.564	0.366	0.224
-153.662	328.184	0.092	0.174
-152.647	-200.000	0.044	-0.266
-151.633	41.547	-0.157	0.140
-150.618	105.995	-0.127	-0.148
-149.604	800.000	0.068	-0.269
-148.589	178.479	0.224	0.322
-147.574	-129.376	0.281	0.038
-146.560	-138.003	0.381	0.042
-145.545	-138.047	0.199	0.022
-144.531	153.003	0.176	-0.237
-143.516	-200.000	0.071	0.627
-142.502	800.000	-0.094	0.287
-141.487	131.533	-0.207	-0.262
-140.472	-200.000	-0.053	0.419
-139.458	-78.759	0.453	-0.152
-138.443	768.757	-0.044	0.119
-137.429	-101.683	-0.188	0.045
-136.414	-18.516	-0.233	0.143
-135.399	-36.141	0.169	0.090
-134.385	254.740	0.133	-0.224
-133.370	-89.246	0.403	-0.117
-132.356	-170.813	-0.221	0.007
-131.341	77.716	0.257	0.269
-130.326	12.327	0.281	0.213
-129.312	-3.818	0.109	0.074
-128.297	21.843	0.333	0.267
-127.283	800.000	0.060	0.199
-126.268	79.574	-0.139	0.147
-125.253	800.000	0.095	0.291
-124.239	-200.000	0.017	-0.189
-123.224	303.235	-0.072	-0.132
