DTS Sentinel unit serial number:	SN413079Multiplexer serial number:	ORYXHardware model number:	OX4-SRSoftware version number:	ORYX F/W v4.00 Oryx Data Collector v3.7.2.0data status	okinstallation	princeton_trtdifferential loss correction	single-endedforward channel	channel 1reverse channel	N/Adate	2019/09/17time	19:34:35forward acquisition time	60.00reverse acquisition time	0.00gamma	496.2192k internal	0.2312k external	0.2312temperature offset calibration	0.9975default loss term (dB/km)	0.3790temperature slope calibration	1.0000multiplexer offset coefficient	1.0000multiplexer slope coefficient	1.0000fibre end	0.00T internal ref (°C)	36.14T ext. ref 1 (°C)	0.25T ext. ref 2 (°C)	24.86length (m)	temperature (°C)	Stokes	anti-Stokes-747.200	218.382	0.064	0.104
-746.185	-96.213	0.162	-0.044
-745.171	587.991	-0.013	-0.033
-744.156	78.583	-0.114	0.123
-743.142	-121.921	-0.159	0.027
-742.127	-140.118	-0.042	0.004
-741.112	137.243	-0.034	0.045
-740.098	413.050	0.097	-0.209
-739.083	800.000	0.032	0.096
-738.069	-200.000	-0.002	0.359
-737.054	192.738	-0.156	0.239
-736.039	-84.195	-0.296	0.095
-735.025	-35.816	0.336	0.184
-734.010	30.858	-0.236	-0.205
-732.996	-174.761	-0.183	-0.005
-731.981	3.259	0.203	0.150
-730.966	11.790	-0.166	-0.129
-729.952	800.000	-0.027	-0.083
-728.937	-71.994	-0.456	-0.172
-727.923	800.000	-0.101	0.410
-726.908	-106.631	0.241	0.054
-725.894	21.795	-0.284	0.234
-724.879	-102.436	-0.266	0.065
-723.864	-33.358	-0.063	-0.035
-722.850	-97.337	-0.330	-0.087
-721.835	-73.001	0.373	-0.139
-720.821	257.460	-0.135	-0.236
-719.806	-200.000	-0.018	0.124
-718.791	78.174	-0.128	0.139
-717.777	243.549	-0.241	-0.410
-716.762	-141.239	0.334	-0.035
-715.748	33.742	-0.147	0.130
-714.733	-51.948	0.173	0.082
-713.718	481.156	-0.113	0.261
-712.704	-67.615	0.046	-0.018
-711.689	800.000	0.035	0.115
-710.675	5.324	-0.058	0.043
-709.660	-200.000	0.008	0.242
-708.645	277.830	-0.183	0.331
-707.631	-71.584	0.146	0.055
-706.616	17.005	-0.050	-0.040
-705.602	-63.722	-0.268	0.111
-704.587	800.000	0.069	-0.202
-703.572	-90.348	0.487	0.143
-702.558	381.740	-0.114	-0.236
-701.543	-65.547	0.233	0.095
-700.529	99.106	-0.157	0.183
-699.514	-81.186	0.146	-0.049
-698.499	-88.186	0.126	-0.038
-697.485	483.182	-0.079	0.182
-696.470	-14.738	-0.220	0.143
-695.456	800.000	-0.154	0.462
-694.441	215.811	0.252	0.406
-693.426	257.108	-0.086	-0.149
-692.412	-111.672	-0.211	0.043
-691.397	-200.000	-0.018	0.308
-690.383	-4.162	0.063	-0.044
-689.368	129.697	-0.111	0.143
-688.354	-200.000	-0.026	0.120
-687.339	96.401	0.028	0.033
-686.324	315.734	0.015	-0.028
-685.310	433.737	0.053	-0.117
-684.295	-200.000	-0.004	0.309
-683.281	-36.535	0.163	-0.089
-682.266	-200.000	0.043	-0.213
-681.251	800.000	0.130	0.447
-680.237	-135.981	0.102	0.012
-679.222	800.000	-0.072	-0.230
-678.208	136.129	0.200	-0.263
-677.193	45.006	0.140	-0.130
-676.178	31.937	-0.163	0.142
-675.164	-135.699	0.142	0.017
-674.149	-32.135	-0.223	0.126
-673.135	103.098	-0.051	-0.060
-672.120	124.326	-0.303	-0.386
-671.105	299.250	0.005	0.009
-670.091	114.409	-0.183	-0.225
-669.076	-12.506	0.160	-0.106
-668.062	48.702	0.156	-0.148
-667.047	-200.000	-0.017	0.150
-666.032	26.428	-0.186	0.157
-665.018	-114.825	0.124	-0.024
-664.003	-131.856	0.492	0.065
-662.989	76.786	0.210	-0.226
-661.974	-69.193	-0.335	0.130
-660.959	-192.980	-0.227	-0.002
-659.945	331.601	0.051	0.099
-658.930	-140.254	-0.331	0.035
-657.916	244.006	-0.028	0.048
-656.901	-69.623	-0.219	0.085
-655.886	10.921	0.323	0.250
-654.872	800.000	-0.061	-0.209
-653.857	-4.849	-0.294	0.205
-652.843	-200.000	0.035	0.180
-651.828	-117.417	-0.289	0.053
-650.814	17.744	0.184	0.148
-649.799	146.387	-0.141	-0.192
-648.784	-147.566	-0.110	-0.009
-647.770	-7.778	0.027	-0.018
-646.755	-158.212	-0.344	-0.020
-645.741	-109.454	0.428	-0.092
-644.726	-200.000	0.026	0.348
-643.711	-26.790	-0.119	0.071
-642.697	800.000	0.063	-0.206
-641.682	-167.802	-0.133	0.005
-640.668	-37.270	0.089	0.048
-639.653	-200.000	-0.048	-0.214
-638.638	-168.945	-0.146	0.006
-637.624	-200.000	0.024	-0.305
-636.609	-200.000	0.004	-0.096
-635.595	-200.000	0.079	0.417
-634.580	15.608	0.191	-0.152
-633.565	800.000	-0.017	-0.053
-632.551	-49.468	-0.079	-0.038
-631.536	-200.000	0.033	0.146
-630.522	-46.663	0.146	-0.072
-629.507	435.245	-0.182	0.399
-628.492	-147.941	-0.491	0.041
-627.478	-200.000	0.003	-0.257
-626.463	800.000	-0.117	-0.354
-625.449	800.000	-0.053	-0.202
-624.434	-55.531	-0.278	-0.126
-623.419	382.810	0.093	0.193
-622.405	-151.082	-0.101	-0.008
-621.390	-50.372	0.338	-0.161
-620.376	21.114	-0.145	-0.119
-619.361	-200.000	0.045	0.305
-618.346	-124.893	0.093	-0.015
-617.332	-200.000	0.030	-0.139
-616.317	124.094	0.123	-0.156
-615.303	84.089	0.019	-0.021
-614.288	800.000	0.020	0.074
-613.273	286.722	0.106	0.193
-612.259	-200.000	0.061	-0.564
-611.244	24.089	-0.227	-0.189
-610.230	-131.644	0.283	0.038
-609.215	-172.060	-0.229	-0.007
-608.201	-105.744	-0.218	0.050
-607.186	-32.742	0.264	0.148
-606.171	16.370	-0.232	0.185
-605.157	-200.000	0.021	-0.333
-604.142	490.827	-0.088	-0.204
-603.128	-147.646	-0.311	0.026
-602.113	31.291	0.318	-0.275
-601.098	-190.830	-0.078	0.001
-600.084	-153.588	-0.417	-0.029
-599.069	-10.265	0.162	0.108
-598.055	-200.000	-0.010	-0.164
-597.040	-69.127	0.167	0.065
-596.025	90.836	-0.074	0.083
-595.011	-185.414	0.227	0.004
-593.996	735.516	0.121	-0.326
-592.982	800.000	-0.071	0.301
-591.967	-48.770	-0.250	-0.121
-590.952	76.235	-0.152	-0.162
-589.938	-200.000	0.042	0.231
-588.923	-200.000	0.070	0.342
-587.909	-200.000	0.016	-0.283
-586.894	-47.781	0.337	0.165
-585.879	-76.322	-0.096	-0.034
-584.865	-200.000	-0.083	-0.402
-583.850	506.173	-0.162	-0.378
-582.836	-117.455	-0.387	-0.071
-581.821	-120.822	0.049	-0.008
-580.806	-200.000	-0.022	0.125
-579.792	798.522	-0.103	0.285
-578.777	-70.834	0.067	-0.025
-577.763	36.098	-0.139	-0.124
-576.748	800.000	-0.155	0.554
-575.733	203.212	-0.118	-0.183
-574.719	116.797	0.017	0.020
-573.704	-138.390	0.107	-0.012
-572.690	8.441	-0.249	0.189
-571.675	79.735	0.120	0.129
-570.661	110.459	0.083	-0.101
-569.646	-131.822	-0.199	-0.026
-568.631	-159.937	0.297	-0.016
-567.617	57.628	-0.074	-0.073
-566.602	-147.800	0.061	-0.005
-565.588	45.486	0.289	0.269
-564.573	229.240	0.151	0.249
-563.558	-49.479	0.116	-0.056
-562.544	-136.845	0.234	0.027
-561.529	207.706	-0.115	0.181
-560.515	43.461	-0.241	-0.222
-559.500	616.012	-0.128	-0.322
-558.485	-200.000	-0.006	0.270
-557.471	-80.378	0.174	-0.059
-556.456	176.531	0.142	-0.209
-555.442	19.126	-0.207	0.167
-554.427	-200.000	0.003	0.353
-553.412	-200.000	-0.053	-0.297
-552.398	21.962	-0.166	-0.136
-551.383	-133.536	-0.390	-0.049
-550.369	404.986	-0.104	0.221
-549.354	38.310	0.257	0.231
-548.339	800.000	-0.129	-0.359
-547.325	800.000	0.072	0.250
-546.310	339.961	0.066	-0.130
-545.296	-29.464	-0.393	-0.226
-544.281	-200.000	0.036	-0.182
-543.266	284.481	0.232	0.421
-542.252	7.966	-0.031	-0.024
-541.237	-200.000	-0.030	0.255
-540.223	63.539	-0.080	-0.081
-539.208	16.206	-0.158	0.125
-538.193	-1.743	0.176	-0.125
-537.179	-200.000	-0.042	-0.585
-536.164	42.642	-0.096	0.088
-535.150	3.086	-0.292	0.214
-534.135	250.564	-0.188	-0.322
-533.121	24.026	0.205	0.170
-532.106	-116.525	0.177	0.033
-531.091	100.247	0.133	-0.155
-530.077	3.107	-0.246	-0.180
-529.062	22.186	-0.230	-0.189
-528.048	24.287	-0.081	0.067
-527.033	-61.132	0.093	-0.040
-526.018	-0.231	-0.195	0.140
-525.004	545.600	0.117	0.282
-523.989	175.335	0.139	0.202
-522.975	800.000	0.083	-0.233
-521.960	-200.000	-0.003	-0.255
-520.945	111.929	-0.291	0.353
-519.931	-2.507	-0.338	0.238
-518.916	368.459	0.064	-0.129
-517.902	20.749	-0.161	-0.131
-516.887	-81.143	-0.268	-0.089
-515.872	81.370	0.164	0.179
-514.858	22.117	-0.170	-0.140
-513.843	-65.915	0.280	0.113
-512.829	114.739	-0.048	-0.058
-511.814	677.072	-0.198	-0.516
-510.799	34.220	0.321	0.282
-509.785	90.369	-0.092	0.104
-508.770	-140.799	0.022	0.002
-507.756	-83.347	0.156	-0.050
-506.741	100.220	0.158	-0.185
-505.726	800.000	-0.118	0.395
-504.712	137.300	0.214	0.281
-503.697	-107.451	0.048	0.010
-502.683	-101.577	0.215	0.053
-501.668	-167.560	-0.176	-0.007
-500.653	-200.000	0.012	-0.080
-499.639	-147.181	-0.318	0.027
-498.624	-66.843	-0.174	-0.069
-497.610	173.735	0.292	-0.423
-496.595	-54.165	0.143	0.065
-495.581	201.940	0.237	0.366
-494.566	-119.322	0.146	-0.026
-493.551	-58.504	-0.158	-0.069
-492.537	-138.770	0.247	0.027
-491.522	374.290	0.159	0.326
-490.508	127.148	0.100	0.127
-489.493	-140.016	-0.156	-0.017
-488.478	30.501	0.178	-0.153
-487.464	-200.000	-0.001	-0.275
-486.449	-23.523	0.131	-0.079
-485.435	-200.000	0.008	-0.212
-484.420	-200.000	-0.007	-0.188
-483.405	-200.000	-0.021	0.199
-482.391	76.843	-0.118	-0.126
-481.376	-146.654	0.052	-0.005
-480.362	40.606	-0.357	-0.323
-479.347	127.138	-0.050	0.064
-478.332	800.000	0.054	-0.185
-477.318	187.636	0.127	-0.190
-476.303	727.984	-0.094	0.252
-475.289	258.572	0.055	-0.094
-474.274	-110.038	0.192	-0.040
-473.259	-84.215	0.233	-0.074
-472.245	-157.071	-0.383	-0.023
-471.230	106.037	0.089	0.106
-470.216	800.000	-0.144	0.436
-469.201	53.499	-0.110	-0.106
-468.186	-47.883	0.260	-0.126
-467.172	-99.166	-0.110	0.028
-466.157	77.044	-0.221	-0.235
-465.143	-114.247	0.123	0.024
-464.128	49.491	-0.344	0.325
-463.113	201.290	-0.075	0.116
-462.099	-55.903	0.245	0.110
-461.084	-5.351	0.323	0.223
-460.070	26.061	-0.091	-0.076
-459.055	182.057	0.066	0.098
-458.040	69.209	0.178	0.184
-457.026	202.755	0.076	-0.118
-456.011	-146.857	0.175	-0.015
-454.997	422.171	-0.111	0.239
-453.982	-102.823	-0.242	-0.058
-452.968	64.431	-0.145	-0.147
-451.953	-71.755	0.437	0.163
-450.938	-66.749	0.158	-0.063
-449.924	-122.530	0.258	0.042
-448.909	593.072	0.097	0.239
-447.895	238.051	-0.050	-0.084
-446.880	-109.852	-0.153	-0.032
-445.865	-200.000	-0.011	-0.069
-444.851	-70.565	-0.173	0.066
-443.836	-130.670	0.088	-0.012
-442.822	574.942	-0.117	-0.286
-441.807	22.647	0.372	-0.306
-440.792	800.000	-0.050	-0.148
-439.778	-159.970	0.214	0.012
-438.763	-200.000	0.030	-0.318
-437.749	-152.132	0.202	0.015
-436.734	-2.256	0.097	-0.068
-435.719	11.636	-0.154	0.118
-434.705	-169.587	-0.247	0.009
-433.690	235.898	-0.121	0.201
-432.676	-84.707	0.393	-0.124
-431.661	144.492	-0.158	0.211
-430.646	-73.857	-0.055	-0.020
-429.632	-88.145	-0.102	0.031
-428.617	60.950	-0.033	0.032
-427.603	456.146	-0.181	-0.403
-426.588	800.000	0.100	0.377
-425.573	-200.000	-0.037	0.375
-424.559	-118.511	0.134	0.024
-423.544	-95.290	0.457	0.123
-422.530	14.448	0.132	0.103
-421.515	-16.735	0.242	0.154
-420.500	-116.875	-0.315	-0.058
-419.486	800.000	-0.078	-0.231
-418.471	-16.255	-0.165	0.105
-417.457	570.293	0.110	0.268
-416.442	-84.163	-0.210	0.067
-415.428	800.000	0.070	-0.210
-414.413	-28.104	0.302	-0.175
-413.398	800.000	0.063	-0.207
-412.384	-200.000	-0.041	0.250
-411.369	-169.306	-0.301	-0.011
-410.355	-200.000	-0.013	-0.155
-409.340	-200.000	-0.014	0.137
-408.325	748.968	-0.038	-0.102
-407.311	-87.503	-0.267	-0.081
-406.296	-32.454	0.167	-0.093
-405.282	800.000	0.051	-0.149
-404.267	645.059	-0.137	-0.349
-403.252	800.000	0.036	0.105
-402.238	-92.908	-0.165	0.046
-401.223	800.000	-0.002	0.006
-400.209	-200.000	-0.039	-0.181
-399.194	25.616	0.040	0.033
-398.179	-146.817	0.097	-0.008
-397.165	-40.865	-0.313	0.162
-396.150	109.726	-0.236	-0.283
-395.136	-181.412	-0.167	0.003
-394.121	-53.610	0.222	0.102
-393.106	-82.492	-0.281	0.091
-392.092	800.000	0.059	-0.178
-391.077	-102.286	0.414	0.099
-390.063	500.273	-0.017	-0.039
-389.048	-73.011	-0.128	0.047
-388.033	347.214	-0.157	-0.309
-387.019	-147.940	0.114	-0.009
-386.004	-164.328	-0.115	-0.005
-384.990	-62.179	0.220	0.092
-383.975	-200.000	0.059	0.288
-382.960	-107.099	0.099	-0.022
-381.946	-91.996	-0.293	0.083
-380.931	96.369	0.037	0.043
-379.917	351.305	0.143	-0.282
-378.902	-191.834	0.153	0.002
-377.888	132.839	-0.046	-0.059
-376.873	-171.442	-0.036	0.001
-375.858	800.000	-0.032	-0.141
-374.844	-64.412	-0.180	-0.073
-373.829	-146.276	0.041	-0.004
-372.815	-200.000	0.033	0.277
-371.800	-200.000	0.009	0.233
-370.785	-106.288	-0.071	0.016
-369.771	-115.255	-0.131	-0.025
-368.756	198.133	-0.168	0.257
-367.742	214.121	-0.123	-0.194
-366.727	-200.000	0.020	-0.276
-365.712	800.000	-0.117	-0.364
-364.698	101.692	-0.168	-0.196
-363.683	86.839	0.302	-0.333
-362.669	800.000	0.049	-0.215
-361.654	-8.235	-0.075	-0.051
-360.639	341.919	-0.074	0.144
-359.625	-67.967	-0.083	0.032
-358.610	-157.503	-0.173	-0.010
-357.596	-174.398	-0.208	-0.006
-356.581	57.818	0.254	-0.248
-355.566	-77.531	-0.140	-0.049
-354.552	-172.360	-0.284	-0.009
-353.537	800.000	-0.070	-0.201
-352.523	174.013	-0.115	0.166
-351.508	46.055	0.168	0.155
-350.493	-110.202	-0.143	0.030
-349.479	45.097	0.303	0.279
-348.464	-200.000	-0.018	-0.227
-347.450	108.882	-0.149	0.178
-346.435	-92.489	0.223	0.063
-345.420	800.000	0.007	-0.021
-344.406	-96.212	-0.129	-0.034
-343.391	-56.565	0.459	0.203
-342.377	-154.217	-0.101	0.007
-341.362	-1.576	-0.376	0.265
-340.348	-46.859	-0.045	0.022
-339.333	80.680	-0.267	-0.287
-338.318	-200.000	0.024	0.352
-337.304	-86.764	0.235	0.072
-336.289	-70.144	-0.355	0.135
-335.275	-200.000	-0.006	-0.027
-334.260	100.930	0.105	-0.122
-333.245	386.605	0.038	0.079
-332.231	-84.809	0.517	-0.162
-331.216	-175.242	-0.105	-0.003
-330.202	-59.965	0.160	0.068
-329.187	679.818	0.083	-0.216
-328.172	-200.000	-0.010	0.123
-327.158	-200.000	-0.021	0.223
-326.143	184.743	0.133	0.197
-325.129	541.462	0.150	0.356
-324.114	-200.000	0.010	0.048
-323.099	800.000	-0.032	0.094
-322.085	-200.000	-0.004	0.119
-321.070	-166.844	0.136	0.006
-320.056	-75.422	0.214	-0.076
-319.041	38.258	-0.143	-0.127
-318.026	-56.849	0.172	-0.076
-317.012	49.038	0.196	-0.184
-315.997	231.669	0.193	-0.316
-314.983	-200.000	0.025	0.220
-313.968	-70.958	-0.079	0.030
-312.953	-164.582	0.283	-0.013
-311.939	480.157	0.187	0.423
-310.924	67.406	0.059	-0.060
-309.910	-60.491	-0.204	0.086
-308.895	247.859	-0.092	0.155
-307.880	190.959	0.080	-0.120
-306.866	-200.000	0.030	0.193
-305.851	-200.000	0.020	-0.217
-304.837	67.707	-0.168	0.171
-303.822	95.878	-0.184	-0.210
-302.807	-90.978	-0.132	0.038
-301.793	-200.000	0.034	-0.229
-300.778	-200.000	-0.007	-0.122
-299.764	206.473	-0.073	-0.113
-298.749	102.923	0.183	-0.214
-297.735	73.731	0.271	0.283
-296.720	-101.526	0.272	0.066
-295.705	68.182	-0.061	-0.062
-294.691	800.000	-0.007	-0.021
-293.676	26.991	0.167	-0.139
-292.662	-93.315	0.323	-0.089
-291.647	-200.000	0.059	0.328
-290.632	-20.364	0.067	-0.041
-289.618	800.000	0.044	-0.178
-288.603	-200.000	-0.031	-0.191
-287.589	415.558	0.082	0.173
-286.574	-139.150	0.085	0.009
-285.559	-200.000	0.013	-0.131
-284.545	-127.569	-0.296	-0.043
-283.530	162.146	-0.067	0.093
-282.516	-134.742	0.133	-0.016
-281.501	533.666	0.118	0.279
-280.486	-200.000	0.031	-0.148
-279.472	112.857	-0.251	0.303
-278.457	-200.000	-0.000	0.030
-277.443	-10.036	0.054	-0.035
-276.428	800.000	0.111	0.424
-275.413	-200.000	-0.041	-0.204
-274.399	-200.000	-0.012	-0.071
-273.384	-90.804	0.487	-0.140
-272.370	-48.873	0.475	0.227
-271.355	-200.000	-0.028	0.305
-270.340	800.000	-0.096	-0.302
-269.326	-37.367	-0.241	0.128
-268.311	-72.763	-0.212	-0.078
-267.297	108.214	0.084	-0.100
-266.282	170.697	-0.138	0.197
-265.267	-105.994	-0.188	-0.042
-264.253	53.204	-0.191	0.182
-263.238	199.575	0.114	0.174
-262.224	664.148	0.071	0.184
-261.209	651.103	-0.041	0.104
-260.195	-92.341	-0.234	-0.066
-259.180	233.656	0.198	-0.324
-258.165	-200.000	-0.018	-0.175
-257.151	193.371	-0.100	-0.151
-256.136	-68.485	-0.211	-0.082
-255.122	142.980	0.178	-0.235
-254.107	800.000	0.044	-0.150
-253.092	-101.602	0.073	-0.018
-252.078	-200.000	0.034	0.202
-251.063	43.374	-0.188	-0.171
-250.049	40.573	-0.102	0.092
-249.034	11.167	-0.275	0.209
-248.019	38.501	0.172	0.153
-247.005	-97.830	-0.139	0.036
-245.990	800.000	0.079	-0.338
-244.976	-200.000	-0.044	-0.213
-243.961	-75.939	-0.077	-0.027
-242.946	-200.000	0.002	0.157
-241.932	-114.307	0.285	-0.055
-240.917	-74.757	0.066	-0.023
-239.903	24.216	-0.253	-0.208
-238.888	440.158	0.135	0.294
-237.873	-71.027	0.254	0.095
-236.859	-200.000	0.024	-0.223
-235.844	578.215	-0.065	-0.158
-234.830	6.399	-0.214	0.158
-233.815	-19.870	0.065	-0.040
-232.800	-200.000	0.000	0.250
-231.786	514.192	0.142	0.329
-230.771	-75.908	0.300	-0.106
-229.757	-116.175	0.194	-0.036
-228.742	8.460	-0.249	0.186
-227.727	-156.587	0.293	0.018
-226.713	-111.563	-0.131	-0.026
-225.698	166.230	-0.054	0.077
-224.684	-48.569	0.282	-0.135
-223.669	-38.653	-0.368	-0.193
-222.655	-68.403	-0.238	-0.092
-221.640	-200.000	-0.011	0.052
-220.625	111.139	0.123	0.147
-219.611	-46.308	-0.577	0.282
-218.596	97.673	0.123	0.141
-217.582	-200.000	-0.108	0.474
-216.567	-14.567	-0.075	-0.048
-215.552	-124.569	-0.194	0.030
-214.538	-200.000	-0.022	-0.178
-213.523	-19.714	0.197	0.121
-212.509	-59.366	-0.470	0.201
-211.494	104.046	0.123	-0.143
-210.479	-26.482	-0.162	-0.094
-209.465	-200.000	0.087	0.000
-208.450	7.428	0.121	-0.090
-207.436	-100.307	0.053	0.013
-206.421	800.000	-0.012	0.050
-205.406	179.718	-0.059	0.085
-204.392	36.685	0.137	-0.120
-203.377	-62.098	0.282	-0.117
-202.363	-200.000	0.026	0.196
-201.348	800.000	-0.068	0.272
-200.333	-45.636	-0.202	0.099
-199.319	112.384	0.251	-0.302
-198.304	-49.325	0.234	0.111
-197.290	-20.853	0.121	0.074
-196.275	550.351	-0.091	-0.216
-195.260	48.091	0.016	-0.015
-194.246	-24.638	0.125	0.074
-193.231	255.391	-0.136	-0.231
-192.217	-43.922	-0.339	-0.169
-191.202	115.123	-0.234	-0.284
-190.187	497.833	0.090	0.205
-189.173	59.149	0.136	-0.133
-188.158	-72.762	0.356	0.130
-187.144	168.061	-0.250	-0.353
-186.129	-110.245	0.290	0.060
-185.114	-200.000	0.012	-0.250
-184.100	-70.944	-0.459	0.172
-183.085	-114.126	0.268	-0.051
-182.071	217.497	0.170	-0.268
-181.056	-14.864	0.053	0.033
-180.042	-64.576	0.340	0.137
-179.027	-145.135	-0.378	0.034
-178.012	-161.688	0.237	-0.012
-176.998	-122.058	-0.108	0.018
-175.983	800.000	-0.027	-0.094
-174.969	65.132	-0.191	0.192
-173.954	800.000	0.067	0.209
-172.939	249.564	-0.184	0.309
-171.925	800.000	-0.074	0.307
-170.910	116.048	-0.193	0.235
-169.896	22.725	-0.053	-0.043
-168.881	-15.557	0.204	-0.129
-167.866	179.302	0.115	0.168
-166.852	441.392	-0.142	-0.307
-165.837	165.089	-0.080	0.112
-164.823	252.973	0.087	0.148
-163.808	-111.103	-0.055	-0.011
-162.793	22.459	0.349	0.283
-161.779	129.444	-0.109	-0.138
-160.764	-66.825	0.190	0.075
-159.750	46.458	-0.115	0.106
-158.735	-18.129	0.249	0.155
-157.720	-52.882	0.223	-0.102
-156.706	355.406	-0.089	0.175
-155.691	-82.579	0.280	-0.090
-154.677	-194.339	-0.196	0.002
-153.662	319.221	-0.065	0.122
-152.647	800.000	0.023	0.073
-151.633	-115.531	0.256	0.048
-150.618	-200.000	0.004	0.222
-149.604	-32.544	0.065	-0.036
-148.589	-126.023	0.186	-0.028
-147.574	136.583	0.165	-0.213
-146.560	-200.000	-0.037	-0.196
-145.545	-89.004	0.601	0.176
-144.531	14.625	-0.116	-0.090
-143.516	-101.768	-0.246	0.059
-142.502	642.096	-0.147	0.371
-141.487	791.678	0.136	-0.371
-140.472	-200.000	-0.035	-0.229
-139.458	-200.000	0.000	-0.320
-138.443	238.790	-0.085	0.139
-137.429	-200.000	-0.017	-0.293
-136.414	-164.908	0.139	0.006
-135.399	-47.073	-0.167	0.081
-134.385	-129.206	-0.145	-0.020
-133.370	-54.135	0.401	0.181
-132.356	800.000	-0.055	0.236
-131.341	145.391	0.131	-0.174
-130.326	17.714	-0.119	0.094
-129.312	-63.441	0.321	-0.131
-128.297	181.385	0.112	-0.162
-127.283	-23.405	0.500	0.297
-126.268	95.090	-0.093	0.104
-125.253	-200.000	-0.008	0.220
-124.239	300.656	0.148	-0.271
-123.224	-152.185	0.468	0.034
-122.210	347.977	0.034	-0.066
