DTS Sentinel unit serial number:	SN413079Multiplexer serial number:	ORYXHardware model number:	OX4-SRSoftware version number:	ORYX F/W v4.00 Oryx Data Collector v3.7.2.0data status	okinstallation	princeton_trtdifferential loss correction	single-endedforward channel	channel 1reverse channel	N/Adate	2019/09/13time	17:18:35forward acquisition time	60.00reverse acquisition time	0.00gamma	496.2192k internal	0.2293k external	0.2293temperature offset calibration	1.0138default loss term (dB/km)	0.3790temperature slope calibration	1.0000multiplexer offset coefficient	1.0000multiplexer slope coefficient	1.0000fibre end	0.00T internal ref (°C)	35.91T ext. ref 1 (°C)	4.79T ext. ref 2 (°C)	34.66length (m)	temperature (°C)	Stokes	anti-Stokes-747.200	68.830	0.288	-0.303
-746.185	-200.000	0.012	0.136
-745.171	477.469	0.071	-0.163
-744.156	-127.263	-0.153	0.023
-743.142	-170.288	0.063	0.002
-742.127	-132.941	0.231	0.030
-741.112	-200.000	0.015	-0.305
-740.098	800.000	0.093	0.303
-739.083	98.606	-0.050	0.059
-738.069	71.356	-0.103	-0.109
-737.054	87.257	-0.060	0.068
-736.039	-42.308	-0.137	-0.072
-735.025	-80.020	0.334	0.115
-734.010	643.715	-0.099	-0.258
-732.996	-84.748	0.087	-0.028
-731.981	286.858	0.165	-0.305
-730.966	-200.000	-0.011	-0.204
-729.952	800.000	0.084	-0.286
-728.937	800.000	0.075	-0.284
-727.923	508.798	0.029	-0.068
-726.908	251.067	-0.120	-0.208
-725.894	-147.604	-0.194	-0.017
-724.879	-82.984	-0.109	-0.036
-723.864	190.273	-0.093	0.143
-722.850	256.167	-0.086	-0.151
-721.835	-60.099	-0.029	0.013
-720.821	-200.000	0.004	0.028
-719.806	800.000	0.040	0.158
-718.791	-52.708	0.213	0.101
-717.777	37.418	-0.078	-0.071
-716.762	-200.000	-0.033	-0.424
-715.748	-47.545	0.120	0.060
-714.733	-146.337	0.176	0.016
-713.718	-36.128	-0.203	-0.112
-712.704	16.636	0.122	-0.098
-711.689	-200.000	0.004	-0.205
-710.675	354.337	-0.067	0.136
-709.660	-91.580	0.240	-0.070
-708.645	123.170	0.104	0.133
-707.631	592.795	-0.050	-0.127
-706.616	488.909	-0.026	0.061
-705.602	164.991	0.126	0.182
-704.587	-140.572	-0.331	0.035
-703.572	443.455	0.040	0.089
-702.558	83.451	-0.038	-0.043
-701.543	800.000	0.086	-0.322
-700.529	48.552	-0.245	0.234
-699.514	-47.894	-0.119	-0.059
-698.499	-133.345	0.195	-0.025
-697.485	-150.917	-0.185	-0.014
-696.470	134.168	-0.114	-0.151
-695.456	131.176	-0.172	-0.225
-694.441	-112.795	-0.306	0.062
-693.426	-128.446	0.153	0.022
-692.412	-200.000	0.014	0.192
-691.397	272.348	-0.082	-0.148
-690.383	244.142	0.284	-0.487
-689.368	-165.221	-0.259	0.012
-688.354	26.881	-0.310	-0.265
-687.339	-56.613	-0.034	-0.015
-686.324	348.749	0.077	0.156
-685.310	-41.279	0.262	0.138
-684.295	-94.967	0.318	-0.088
-683.281	-109.695	0.183	-0.039
-682.266	800.000	0.119	-0.435
-681.251	-86.234	-0.289	0.091
-680.237	21.497	0.164	-0.136
-679.222	-15.387	-0.209	0.136
-678.208	38.621	-0.248	0.226
-677.193	743.372	0.027	-0.075
-676.178	283.619	0.059	-0.109
-675.164	74.146	-0.121	0.130
-674.149	39.641	-0.188	-0.172
-673.135	-83.684	-0.044	-0.014
-672.120	-171.396	0.112	-0.004
-671.105	230.306	-0.121	-0.202
-670.091	88.112	0.211	0.238
-669.076	800.000	-0.066	0.253
-668.062	-17.259	-0.239	0.154
-667.047	109.129	0.141	-0.172
-666.032	-192.624	-0.074	-0.001
-665.018	-200.000	-0.001	0.098
-664.003	800.000	-0.062	-0.210
-662.989	800.000	0.060	-0.176
-661.974	500.031	0.053	-0.125
-660.959	-107.937	0.103	-0.023
-659.945	800.000	-0.088	-0.280
-658.930	-200.000	0.016	0.133
-657.916	273.048	-0.004	0.007
-656.901	800.000	0.065	-0.247
-655.886	58.363	-0.058	0.058
-654.872	-17.434	-0.212	0.136
-653.857	170.130	-0.091	0.133
-652.843	-35.428	0.324	-0.180
-651.828	800.000	-0.078	-0.347
-650.814	243.832	-0.191	-0.327
-649.799	-49.537	0.163	0.079
-648.784	-131.357	0.180	0.024
-647.770	333.441	0.060	0.118
-646.755	571.364	0.063	0.156
-645.741	-106.261	0.130	-0.030
-644.726	-200.000	0.007	-0.086
-643.711	800.000	0.016	0.046
-642.697	-126.434	0.301	-0.046
-641.682	-200.000	-0.040	0.290
-640.668	-61.806	-0.402	-0.171
-639.653	-110.985	0.239	0.050
-638.638	-151.825	-0.199	-0.015
-637.624	-187.959	0.319	0.004
-636.609	800.000	-0.075	-0.252
-635.595	-78.684	-0.111	0.038
-634.580	-181.673	0.025	-0.000
-633.565	-1.965	0.354	0.254
-632.551	-14.998	0.084	0.055
-631.536	29.409	0.324	-0.281
-630.522	800.000	0.058	-0.257
-629.507	-96.624	-0.095	0.025
-628.492	800.000	-0.107	0.474
-627.478	-68.166	0.289	0.114
-626.463	279.540	0.083	-0.151
-625.449	-53.714	-0.239	0.111
-624.434	-43.154	-0.225	-0.116
-623.419	-53.731	-0.170	0.079
-622.405	800.000	-0.109	0.334
-621.390	-49.697	-0.211	-0.102
-620.376	-200.000	0.017	-0.094
-619.361	324.428	-0.189	-0.368
-618.346	-200.000	0.051	0.261
-617.332	-148.059	-0.162	0.014
-616.317	-180.497	-0.117	0.002
-615.303	-67.787	-0.289	0.115
-614.288	-112.606	0.088	0.018
-613.273	-200.000	-0.056	-0.302
-612.259	-91.138	-0.178	-0.052
-611.244	-123.521	0.171	0.028
-610.230	12.819	-0.136	0.107
-609.215	-3.615	-0.179	-0.127
-608.201	30.517	0.067	-0.059
-607.186	-124.186	-0.073	0.012
-606.171	-117.377	-0.302	-0.056
-605.157	-200.000	-0.012	0.127
-604.142	199.839	0.049	-0.077
-603.128	800.000	-0.110	-0.388
-602.113	800.000	-0.051	0.224
-601.098	-200.000	-0.037	0.204
-600.084	-43.623	0.132	0.067
-599.069	-200.000	0.006	-0.048
-598.055	94.438	-0.229	0.265
-597.040	53.468	-0.254	0.248
-596.025	800.000	-0.023	0.078
-595.011	437.274	-0.084	-0.187
-593.996	-76.976	-0.250	0.089
-592.982	135.043	-0.084	0.111
-591.967	800.000	-0.063	-0.270
-590.952	170.640	-0.037	-0.054
-589.938	-28.722	-0.285	-0.167
-588.923	17.898	0.052	0.042
-587.909	89.724	-0.111	-0.126
-586.894	654.883	-0.090	0.234
-585.879	-122.182	0.392	0.065
-584.865	-200.000	0.028	-0.138
-583.850	-58.899	0.383	0.169
-582.836	528.746	-0.140	-0.335
-581.821	-200.000	0.023	-0.217
-580.806	-58.248	-0.275	-0.122
-579.792	-200.000	0.026	-0.234
-578.777	15.070	-0.091	0.072
-577.763	-13.590	0.162	0.106
-576.748	-169.103	-0.238	-0.009
-575.733	-200.000	-0.063	0.000
-574.719	-40.209	-0.195	0.103
-573.704	54.016	-0.162	0.158
-572.690	-92.309	-0.232	-0.066
-571.675	-100.657	0.206	-0.052
-570.661	-200.000	-0.020	0.116
-569.646	-39.005	0.289	-0.155
-568.631	-141.529	0.228	-0.023
-567.617	-41.963	-0.320	-0.167
-566.602	81.915	0.087	-0.096
-565.588	165.182	0.151	-0.216
-564.573	-200.000	-0.115	-0.566
-563.558	-152.065	-0.200	0.015
-562.544	800.000	0.038	-0.157
-561.529	304.924	0.077	0.145
-560.515	-96.532	0.104	0.028
-559.500	240.068	0.046	-0.078
-558.485	654.246	0.102	-0.267
-557.471	-119.328	0.053	0.009
-556.456	-82.026	0.140	0.046
-555.442	71.814	-0.082	0.087
-554.427	740.779	-0.144	-0.394
-553.412	786.150	0.075	-0.208
-552.398	16.920	0.284	-0.228
-551.383	-33.303	-0.212	-0.119
-550.369	800.000	0.092	-0.408
-549.354	-110.492	-0.134	0.028
-548.339	-200.000	-0.015	0.195
-547.325	-1.230	-0.229	0.164
-546.310	260.841	0.049	0.085
-545.296	800.000	0.052	-0.164
-544.281	-90.570	-0.145	-0.043
-543.266	-88.055	0.238	-0.073
-542.252	-59.420	-0.293	-0.128
-541.237	-200.000	-0.020	0.269
-540.223	215.188	-0.056	-0.091
-539.208	-200.000	-0.001	-0.104
-538.193	-126.047	-0.229	-0.035
-537.179	79.226	-0.153	0.166
-536.164	-3.634	-0.103	0.072
-535.150	-151.086	-0.115	-0.009
-534.135	-73.343	-0.026	0.010
-533.121	-25.723	-0.255	-0.153
-532.106	205.419	-0.084	-0.132
-531.091	164.251	-0.055	0.078
-530.077	-174.210	-0.084	-0.002
-529.062	25.535	-0.145	-0.122
-528.048	-107.251	-0.241	0.054
-527.033	-200.000	0.010	0.161
-526.018	-41.881	-0.262	0.136
-525.004	511.554	0.130	-0.306
-523.989	-10.016	-0.147	0.099
-522.975	743.468	0.041	0.113
-521.960	-150.166	-0.121	0.010
-520.945	800.000	-0.020	0.074
-519.931	-3.674	0.293	-0.206
-518.916	22.988	0.212	-0.177
-517.902	-32.960	0.209	0.118
-516.887	109.415	0.056	0.068
-515.872	118.315	-0.183	-0.228
-514.858	109.398	0.122	0.148
-513.843	800.000	0.080	0.263
-512.829	-103.439	-0.386	-0.092
-511.814	-72.369	0.094	0.035
-510.799	-30.266	0.279	-0.161
-509.785	275.302	0.125	-0.224
-508.770	800.000	0.057	-0.173
-507.756	683.116	-0.128	-0.339
-506.741	-165.748	0.032	-0.001
-505.726	219.413	0.226	0.366
-504.712	-200.000	-0.006	-0.294
-503.697	62.988	-0.152	0.154
-502.683	-30.725	-0.041	0.024
-501.668	355.959	-0.033	-0.067
-500.653	-26.055	-0.328	0.195
-499.639	309.812	-0.058	-0.110
-498.624	-71.250	-0.377	0.143
-497.610	77.442	0.131	-0.142
-496.595	-98.245	-0.186	-0.048
-495.581	-6.767	-0.212	0.146
-494.566	-180.437	-0.308	0.006
-493.551	207.460	0.076	-0.120
-492.537	29.467	0.106	0.092
-491.522	248.257	0.125	-0.213
-490.508	-114.721	-0.228	-0.044
-489.493	-200.000	-0.080	0.388
-488.478	-63.409	0.339	0.141
-487.464	572.012	0.134	-0.330
-486.449	-65.536	0.146	-0.059
-485.435	-81.105	0.137	0.046
-484.420	332.415	0.027	-0.053
-483.405	-0.506	0.169	0.121
-482.391	232.624	0.077	0.127
-481.376	-43.889	-0.208	0.106
-480.362	800.000	0.038	0.114
-479.347	-200.000	-0.082	-0.602
-478.332	109.867	0.177	-0.214
-477.318	120.326	-0.117	0.147
-476.303	-200.000	0.052	-0.357
-475.289	78.109	0.252	0.272
-474.274	105.462	-0.095	0.114
-473.259	-107.681	0.089	0.020
-472.245	-43.953	-0.192	-0.098
-471.230	197.368	-0.071	0.109
-470.216	800.000	0.079	0.244
-469.201	226.924	0.159	0.261
-468.186	-200.000	0.077	-0.525
-467.172	-200.000	-0.046	-0.271
-466.157	215.072	-0.122	-0.195
-465.143	113.364	0.141	0.173
-464.128	800.000	0.044	-0.139
-463.113	28.394	0.303	0.259
-462.099	759.647	-0.029	0.080
-461.084	91.494	-0.069	0.079
-460.070	52.671	-0.147	0.142
-459.055	-172.858	-0.281	-0.009
-458.040	15.529	-0.318	0.253
-457.026	-132.657	-0.125	0.016
-456.011	241.063	-0.130	0.219
-454.997	-78.454	0.133	0.046
-453.982	-147.008	0.112	0.010
-452.968	11.931	0.193	0.150
-451.953	103.612	0.249	0.296
-450.938	-76.597	0.148	0.052
-449.924	54.959	-0.316	0.309
-448.909	-23.783	-0.091	0.055
-447.895	-4.864	-0.099	0.069
-446.880	-74.554	-0.153	0.056
-445.865	-139.992	-0.055	-0.006
-444.851	-156.429	-0.067	-0.004
-443.836	-200.000	0.000	0.120
-442.822	289.204	-0.212	-0.389
-441.807	800.000	0.063	0.274
-440.792	221.734	-0.147	0.240
-439.778	-168.224	0.183	-0.007
-438.763	-89.623	0.118	0.035
-437.749	51.668	0.217	0.208
-436.734	307.996	-0.147	0.277
-435.719	160.639	0.095	0.134
-434.705	-30.537	0.447	0.256
-433.690	-200.000	-0.022	-0.198
-432.676	-92.524	0.359	-0.102
-431.661	168.110	0.173	0.249
-430.646	446.232	-0.115	0.256
-429.632	-200.000	0.005	-0.111
-428.617	-70.532	-0.236	0.090
-427.603	-200.000	0.002	0.041
-426.588	58.452	0.272	-0.269
-425.573	-5.138	0.177	-0.123
-424.559	-122.446	0.165	0.027
-423.544	800.000	-0.068	0.277
-422.530	-200.000	0.038	0.265
-421.515	-24.113	-0.138	0.083
-420.500	34.804	0.158	0.140
-419.486	800.000	-0.069	-0.266
-418.471	15.547	-0.246	0.195
-417.457	-11.010	-0.217	0.145
-416.442	-200.000	0.087	0.490
-415.428	-3.098	-0.412	0.291
-414.413	-60.761	0.255	0.109
-413.398	800.000	0.056	0.204
-412.384	401.032	0.127	0.269
-411.369	145.714	-0.023	0.031
-410.355	-29.887	-0.098	-0.057
-409.340	-200.000	0.017	0.181
-408.325	353.454	-0.099	0.198
-407.311	475.542	0.103	-0.234
-406.296	10.278	0.199	-0.153
-405.282	107.432	-0.044	-0.053
-404.267	-200.000	-0.036	0.175
-403.252	-122.648	-0.224	0.037
-402.238	-68.259	-0.168	0.066
-401.223	-126.759	0.215	0.032
-400.209	661.260	0.083	0.217
-399.194	800.000	0.074	-0.207
-398.179	421.257	0.113	-0.244
-397.165	-196.863	0.097	-0.001
-396.150	-159.671	0.262	0.015
-395.136	-133.108	0.066	0.008
-394.121	502.527	0.151	0.352
-393.106	-200.000	-0.392	0.001
-392.092	800.000	-0.110	0.407
-391.077	-200.000	-0.010	-0.286
-390.063	800.000	0.084	-0.234
-389.048	290.996	0.139	-0.255
-388.033	289.204	0.096	0.176
-387.019	-3.393	-0.263	-0.185
-386.004	110.028	-0.149	-0.180
-384.990	34.220	0.173	0.152
-383.975	-100.740	-0.386	0.096
-382.960	-1.609	0.270	-0.192
-381.946	-200.000	0.016	-0.152
-380.931	-110.946	0.077	0.016
-379.917	110.297	-0.154	-0.186
-378.902	658.142	0.073	0.189
-377.888	-105.106	0.354	0.082
-376.873	-120.746	-0.240	0.041
-375.858	-77.419	-0.250	-0.087
-374.844	-197.077	0.404	0.003
-373.829	-200.000	0.016	-0.344
-372.815	-78.654	0.207	0.071
-371.800	115.097	-0.164	-0.202
-370.785	97.749	0.260	-0.302
-369.771	-67.460	0.041	-0.016
-368.756	294.650	-0.040	-0.074
-367.742	508.402	0.152	-0.355
-366.727	48.351	0.144	0.135
-365.712	-200.000	-0.002	0.105
-364.698	11.964	0.126	-0.098
-363.683	398.870	0.074	0.156
-362.669	800.000	0.032	0.136
-361.654	172.115	-0.167	0.242
-360.639	-143.545	0.137	-0.013
-359.625	-200.000	0.006	-0.166
-358.610	75.188	0.051	0.054
-357.596	-200.000	0.017	0.158
-356.581	-200.000	-0.002	0.096
-355.566	-142.776	0.164	0.016
-354.552	800.000	-0.036	-0.157
-353.537	364.861	0.112	0.226
-352.523	800.000	0.063	0.185
-351.508	129.139	-0.248	-0.319
-350.493	60.939	0.152	0.152
-349.479	24.395	0.082	-0.069
-348.464	-200.000	-0.003	-0.055
-347.450	-85.720	-0.215	-0.067
-346.435	-7.526	-0.039	0.026
-345.420	-127.288	-0.159	0.023
-344.406	-163.315	-0.161	-0.008
-343.391	-77.485	0.208	0.073
-342.377	117.020	0.115	0.142
-341.362	-177.720	0.331	0.008
-340.348	694.297	0.010	-0.027
-339.333	800.000	0.056	-0.182
-338.318	-192.497	-0.179	-0.002
-337.304	-83.145	-0.342	0.111
-336.289	-127.506	-0.335	-0.049
-335.275	-71.220	0.500	0.189
-334.260	-143.890	0.163	-0.015
-333.245	98.398	-0.059	0.069
-332.231	81.819	0.182	0.199
-331.216	-140.259	-0.309	-0.033
-330.202	39.010	0.143	-0.129
-329.187	199.406	0.127	-0.195
-328.172	-200.000	0.024	0.136
-327.158	-37.029	0.279	0.150
-326.143	43.163	0.041	0.038
-325.129	30.109	0.142	-0.121
-324.114	-200.000	0.070	-0.362
-323.099	800.000	-0.097	0.364
-322.085	-73.883	-0.228	-0.083
-321.070	136.240	-0.278	-0.365
-320.056	-104.196	0.168	0.039
-319.041	-40.656	0.229	-0.120
-318.026	1.080	0.114	0.083
-317.012	429.095	0.035	0.076
-315.997	182.604	0.119	-0.177
-314.983	-31.953	0.154	0.087
-313.968	800.000	0.052	-0.202
-312.953	800.000	-0.054	0.157
-311.939	-200.000	0.036	0.191
-310.924	-200.000	-0.014	0.184
-309.910	257.198	0.095	0.165
-308.895	-200.000	0.000	0.133
-307.880	-8.274	-0.339	0.229
-306.866	179.086	0.087	-0.128
-305.851	-54.416	0.119	-0.054
-304.837	244.826	-0.086	-0.145
-303.822	-200.000	0.004	0.111
-302.807	-200.000	0.019	-0.114
-301.793	-110.505	-0.087	0.018
-300.778	-103.253	-0.251	0.060
-299.764	14.870	-0.083	0.065
-298.749	116.936	-0.168	0.208
-297.735	800.000	-0.163	-0.477
-296.720	436.819	0.108	-0.237
-295.705	162.036	-0.081	-0.114
-294.691	800.000	0.156	-0.471
-293.676	-41.201	0.114	-0.059
-292.662	3.846	-0.133	0.098
-291.647	46.865	-0.320	0.299
-290.632	-44.866	-0.160	-0.080
-289.618	-30.963	-0.103	0.058
-288.603	-164.235	-0.219	0.010
-287.589	-108.241	0.470	0.102
-286.574	-58.798	-0.271	0.118
-285.559	-200.000	0.008	0.151
-284.545	800.000	0.093	-0.308
-283.530	-40.651	0.252	0.131
-282.516	-120.650	0.166	-0.028
-281.501	800.000	-0.154	-0.465
-280.486	29.140	-0.188	0.160
-279.472	-130.519	-0.312	0.042
-278.457	393.458	-0.089	0.187
-277.443	-200.000	0.022	0.345
-276.428	309.817	0.017	0.032
-275.413	68.976	0.021	0.021
-274.399	599.015	-0.019	0.049
-273.384	134.035	0.082	-0.107
-272.370	158.260	0.168	-0.234
-271.355	151.330	-0.027	-0.036
-270.340	-88.412	0.289	-0.087
-269.326	-200.000	0.006	-0.061
-268.311	156.091	0.199	-0.276
-267.297	-117.232	-0.126	-0.023
-266.282	-38.484	-0.181	0.096
-265.267	-194.622	-0.137	-0.001
-264.253	398.035	-0.093	0.195
-263.238	210.541	0.062	0.098
-262.224	-200.000	-0.001	0.135
-261.209	55.967	-0.261	0.254
-260.195	800.000	0.036	-0.147
-259.180	-19.277	-0.140	0.088
-258.165	-64.246	0.284	0.116
-257.151	-200.000	-0.052	0.234
-256.136	49.138	-0.189	-0.179
-255.122	244.407	0.129	0.217
-254.107	-55.388	0.113	0.051
-253.092	-200.000	-0.033	0.172
-252.078	405.114	0.128	-0.270
-251.063	-99.291	0.148	-0.038
-250.049	25.844	0.272	0.228
-249.034	691.701	0.094	-0.246
-248.019	141.136	-0.161	-0.213
-247.005	749.465	-0.065	-0.175
-245.990	-200.000	-0.000	-0.084
-244.976	-15.741	-0.032	0.020
-243.961	-200.000	-0.020	0.637
-242.946	30.809	0.194	-0.166
-241.932	180.037	-0.124	0.182
-240.917	-200.000	0.038	-0.221
-239.903	75.869	-0.059	0.062
-238.888	-31.283	-0.248	-0.140
-237.873	800.000	0.109	-0.388
-236.859	1.407	-0.232	-0.167
-235.844	-200.000	0.055	-0.483
-234.830	-158.435	0.132	0.008
-233.815	-101.578	-0.106	0.026
-232.800	63.473	-0.122	0.123
-231.786	20.213	0.094	-0.076
-230.771	-200.000	0.033	0.262
-229.757	608.821	0.128	0.319
-228.742	92.528	0.201	-0.227
-227.727	260.650	0.049	-0.086
-226.713	-24.391	0.451	-0.269
-225.698	413.871	0.056	0.119
-224.684	800.000	-0.081	0.248
-223.669	334.608	-0.072	0.139
-222.655	-138.619	0.132	0.014
-221.640	-134.008	-0.416	-0.052
-220.625	-200.000	0.009	0.131
-219.611	-1.364	0.141	0.099
-218.596	-200.000	-0.002	0.073
-217.582	800.000	0.029	0.090
-216.567	-127.401	-0.162	0.024
-215.552	141.655	-0.284	0.377
-214.538	-168.826	-0.222	-0.008
-213.523	-57.057	-0.090	0.040
-212.509	555.896	-0.128	-0.308
-211.494	125.136	-0.256	-0.323
-210.479	16.951	-0.253	-0.201
-209.465	-200.000	-0.080	0.385
-208.450	104.213	0.036	0.043
-207.436	-84.174	-0.105	-0.033
-206.421	-30.741	-0.198	0.112
-205.406	-139.070	-0.410	-0.044
-204.392	-200.000	0.055	-0.267
-203.377	151.013	0.162	-0.221
-202.363	336.039	0.172	0.335
-201.348	-156.879	0.105	0.006
-200.333	275.746	-0.112	-0.200
-199.319	-200.000	-0.034	0.179
-198.304	800.000	0.032	0.109
-197.290	-2.666	0.229	0.160
-196.275	365.410	-0.148	-0.298
-195.260	-50.474	0.091	0.043
-194.246	78.139	0.186	0.198
-193.231	-200.000	0.082	-0.503
-192.217	-106.786	0.276	0.061
-191.202	-37.739	0.093	0.049
-190.187	800.000	0.098	-0.312
-189.173	-200.000	0.078	-0.348
-188.158	64.310	0.101	0.102
-187.144	-100.143	0.219	0.055
-186.129	-84.741	-0.131	0.041
-185.114	-109.437	0.150	0.032
-184.100	103.613	0.161	0.189
-183.085	194.124	-0.103	0.156
-182.071	29.233	0.154	-0.131
-181.056	58.402	-0.256	-0.251
-180.042	800.000	-0.059	-0.249
-179.027	552.386	-0.066	-0.158
-178.012	-12.548	0.205	0.134
-176.998	800.000	0.058	-0.159
-175.983	2.417	0.113	0.082
-174.969	-183.807	0.023	-0.000
-173.954	286.429	0.142	0.257
-172.939	-76.916	-0.193	0.068
-171.925	800.000	0.069	-0.243
-170.910	-21.288	0.257	0.157
-169.896	28.597	0.216	-0.183
-168.881	-200.000	-0.010	-0.060
-167.866	-8.897	-0.079	0.053
-166.852	105.261	0.087	-0.103
-165.837	-139.564	-0.196	-0.021
-164.823	-200.000	-0.015	-0.293
-163.808	-4.109	0.270	-0.187
-162.793	-200.000	0.008	0.098
-161.779	-152.190	-0.251	-0.018
-160.764	-152.678	0.122	-0.009
-159.750	-106.183	0.170	0.038
-158.735	-124.146	0.211	0.033
-157.720	40.897	0.238	0.214
-156.706	350.335	0.144	0.284
-155.691	-121.987	0.338	-0.056
-154.677	-200.000	-0.011	0.077
-153.662	-200.000	-0.027	-0.223
-152.647	-200.000	0.005	-0.186
-151.633	-193.845	-0.077	-0.001
-150.618	633.586	-0.054	-0.137
-149.604	-25.189	-0.168	-0.099
-148.589	-37.339	0.155	-0.083
-147.574	800.000	-0.040	0.174
-146.560	-41.561	-0.080	-0.041
-145.545	23.993	0.132	-0.109
-144.531	-67.126	0.449	-0.177
-143.516	-200.000	0.028	0.132
-142.502	-80.194	0.060	-0.020
-141.487	-171.832	0.251	-0.008
-140.472	161.139	-0.091	0.128
-139.458	40.199	-0.012	-0.011
-138.443	70.261	0.084	-0.087
-137.429	-60.817	0.015	0.006
-136.414	-200.000	-0.039	-0.234
-135.399	-55.281	0.100	0.045
-134.385	-80.400	-0.196	0.065
-133.370	87.606	0.092	0.101
-132.356	466.884	0.134	-0.299
-131.341	-100.076	0.146	0.036
-130.326	94.032	-0.062	-0.070
-129.312	196.898	-0.136	-0.208
-128.297	-71.063	-0.087	0.033
-127.283	20.848	0.041	-0.033
-126.268	195.015	0.058	-0.089
-125.253	138.124	0.102	-0.134
-124.239	-149.509	-0.143	0.011
-123.224	-135.064	0.410	0.049
-122.210	-200.000	-0.010	0.047
-121.195	74.803	0.161	-0.169
-120.180	50.827	0.148	0.140
