DTS Sentinel unit serial number:	SN413079Multiplexer serial number:	ORYXHardware model number:	OX4-SRSoftware version number:	ORYX F/W v4.00 Oryx Data Collector v3.7.2.0data status	okinstallation	princeton_trtdifferential loss correction	single-endedforward channel	channel 1reverse channel	N/Adate	2019/09/17time	06:42:35forward acquisition time	60.00reverse acquisition time	0.00gamma	496.2192k internal	0.2328k external	0.2328temperature offset calibration	0.9967default loss term (dB/km)	0.3790temperature slope calibration	1.0000multiplexer offset coefficient	1.0000multiplexer slope coefficient	1.0000fibre end	0.00T internal ref (°C)	27.87T ext. ref 1 (°C)	0.12T ext. ref 2 (°C)	21.30length (m)	temperature (°C)	Stokes	anti-Stokes-747.200	-92.496	-0.106	-0.030
-746.185	206.830	-0.080	0.125
-745.171	146.152	0.102	0.138
-744.156	-26.397	-0.133	0.079
-743.142	228.984	-0.015	-0.024
-742.127	51.153	-0.048	0.045
-741.112	-25.810	0.089	0.053
-740.098	105.659	0.121	0.144
-739.083	-200.000	-0.022	0.108
-738.069	22.017	0.220	0.181
-737.054	-55.095	0.298	0.135
-736.039	70.137	-0.170	0.177
-735.025	372.678	0.096	0.196
-734.010	84.033	0.128	0.141
-732.996	728.623	-0.073	0.197
-731.981	-200.000	0.011	-0.054
-730.966	-22.013	0.129	-0.079
-729.952	257.075	0.104	-0.180
-728.937	-98.962	-0.180	0.046
-727.923	-92.659	0.384	-0.108
-726.908	-141.489	-0.471	0.048
-725.894	800.000	-0.076	0.212
-724.879	174.523	-0.099	-0.145
-723.864	-126.773	0.196	0.029
-722.850	-88.203	-0.121	-0.037
-721.835	800.000	0.041	-0.169
-720.821	-37.474	0.059	-0.031
-719.806	800.000	0.116	0.341
-718.791	-14.439	0.307	0.199
-717.777	199.464	-0.128	0.197
-716.762	148.515	-0.035	0.047
-715.748	282.505	0.137	-0.248
-714.733	-200.000	0.011	-0.163
-713.718	-200.000	0.050	-0.379
-712.704	-200.000	-0.029	0.170
-711.689	18.963	0.076	-0.061
-710.675	-73.654	-0.225	0.082
-709.660	800.000	-0.027	-0.089
-708.645	338.430	-0.086	0.168
-707.631	800.000	0.076	-0.214
-706.616	-106.821	0.318	-0.071
-705.602	665.369	0.111	0.288
-704.587	-50.017	-0.130	0.062
-703.572	-200.000	0.107	-0.510
-702.558	393.901	-0.085	0.177
-701.543	-81.490	-0.042	-0.014
-700.529	-139.075	-0.107	0.012
-699.514	10.045	0.155	0.119
-698.499	439.266	0.051	-0.111
-697.485	635.869	0.124	0.317
-696.470	-33.546	-0.138	-0.077
-695.456	290.304	-0.052	0.096
-694.441	84.084	-0.177	0.195
-693.426	-64.539	0.265	-0.108
-692.412	-64.524	-0.051	0.021
-691.397	126.424	0.156	-0.198
-690.383	-62.369	-0.098	0.041
-689.368	-8.099	-0.205	-0.139
-688.354	8.142	0.248	-0.187
-687.339	59.185	-0.333	0.329
-686.324	69.706	-0.081	0.084
-685.310	-55.981	-0.244	0.110
-684.295	-124.691	-0.322	0.050
-683.281	-149.979	0.521	0.041
-682.266	-16.856	-0.155	-0.099
-681.251	800.000	-0.091	-0.295
-680.237	89.819	-0.194	-0.217
-679.222	137.964	-0.105	0.139
-678.208	40.730	0.064	-0.058
-677.193	-11.165	0.032	-0.021
-676.178	-200.000	-0.015	0.227
-675.164	-200.000	-0.043	-0.379
-674.149	41.769	-0.111	-0.101
-673.135	-99.681	-0.187	-0.047
-672.120	-38.921	0.152	0.080
-671.105	475.104	0.053	0.121
-670.091	-26.586	0.137	-0.081
-669.076	800.000	0.067	-0.282
-668.062	80.314	-0.083	-0.090
-667.047	-49.986	-0.342	-0.163
-666.032	-185.434	0.376	-0.006
-665.018	-116.183	0.147	0.027
-664.003	-59.818	0.110	-0.047
-662.989	-138.323	0.169	-0.019
-661.974	-188.393	0.237	0.003
-660.959	414.662	-0.048	0.102
-659.945	-92.928	0.018	-0.005
-658.930	-73.545	0.446	0.163
-657.916	196.768	0.122	-0.187
-656.901	596.006	-0.104	0.257
-655.886	-131.180	0.036	0.005
-654.872	16.909	-0.113	0.090
-653.857	-21.092	-0.170	0.104
-652.843	800.000	0.109	-0.399
-651.828	-101.805	0.355	-0.086
-650.814	-48.695	-0.284	0.137
-649.799	-117.875	0.390	0.070
-648.784	-200.000	-0.025	0.113
-647.770	-142.152	0.193	0.019
-646.755	480.073	-0.046	0.104
-645.741	-100.773	-0.184	-0.046
-644.726	-72.944	-0.255	-0.094
-643.711	619.982	-0.063	0.160
-642.697	62.428	-0.313	0.314
-641.682	-151.881	-0.192	0.014
-640.668	-200.000	0.002	-0.095
-639.653	-102.243	-0.100	-0.024
-638.638	-200.000	0.004	0.023
-637.624	30.837	-0.126	-0.109
-636.609	-124.723	-0.143	-0.022
-635.595	-200.000	-0.003	-0.021
-634.580	-113.133	-0.496	0.098
-633.565	76.310	-0.262	-0.278
-632.551	755.469	0.079	-0.213
-631.536	-158.708	-0.093	0.005
-630.522	676.822	-0.161	-0.421
-629.507	69.728	-0.089	-0.092
-628.492	-81.228	0.207	0.068
-627.478	24.945	-0.128	-0.106
-626.463	-77.305	0.248	-0.086
-625.449	263.019	-0.148	0.257
-624.434	-63.806	-0.263	-0.108
-623.419	400.560	-0.004	0.009
-622.405	-0.278	-0.095	0.068
-621.390	-135.635	0.272	-0.032
-620.376	144.989	0.171	0.230
-619.361	16.492	-0.271	-0.215
-618.346	-196.835	-0.339	-0.002
-617.332	-113.934	-0.155	0.030
-616.317	800.000	0.037	0.110
-615.303	398.692	0.071	-0.148
-614.288	-200.000	-0.023	-0.193
-613.273	344.478	0.058	0.113
-612.259	-89.201	0.317	0.094
-611.244	-27.822	0.077	0.045
-610.230	90.490	0.013	0.015
-609.215	777.844	-0.050	-0.138
-608.201	135.869	0.056	-0.072
-607.186	-37.525	0.212	0.113
-606.171	-59.917	-0.112	0.048
-605.157	800.000	0.035	0.123
-604.142	-35.039	-0.191	-0.104
-603.128	800.000	-0.042	0.129
-602.113	800.000	-0.072	-0.207
-601.098	22.474	-0.047	-0.038
-600.084	138.447	0.307	-0.403
-599.069	-200.000	0.005	0.131
-598.055	-89.119	0.023	0.007
-597.040	-107.158	0.157	-0.035
-596.025	8.680	0.100	-0.076
-595.011	188.353	-0.075	0.112
-593.996	-200.000	-0.044	-0.270
-592.982	706.771	-0.091	0.241
-591.967	-200.000	-0.019	-0.178
-590.952	-200.000	0.008	-0.271
-589.938	-200.000	0.000	-0.097
-588.923	706.612	0.020	-0.054
-587.909	800.000	0.082	-0.296
-586.894	-130.300	0.314	-0.043
-585.879	-15.710	-0.356	-0.227
-584.865	-200.000	-0.012	0.184
-583.850	-56.705	-0.110	0.049
-582.836	-87.771	-0.232	-0.070
-581.821	114.251	-0.310	0.377
-580.806	172.888	-0.115	-0.166
-579.792	800.000	0.016	0.061
-578.777	800.000	-0.085	0.249
-577.763	-22.100	-0.091	0.055
-576.748	0.978	0.138	-0.099
-575.733	-113.620	0.077	-0.015
-574.719	10.731	0.058	-0.044
-573.704	-94.793	0.216	0.059
-572.690	-110.832	-0.310	0.064
-571.675	302.562	0.196	-0.364
-570.661	70.232	-0.131	0.135
-569.646	-53.364	0.522	0.239
-568.631	-92.025	-0.286	-0.081
-567.617	88.327	-0.229	-0.254
-566.602	-200.000	-0.046	-0.213
-565.588	122.842	0.201	-0.252
-564.573	-145.052	-0.311	-0.028
-563.558	520.816	-0.106	0.248
-562.544	-68.992	0.119	-0.046
-561.529	94.860	-0.123	0.140
-560.515	800.000	-0.035	0.138
-559.500	-82.915	-0.343	-0.111
-558.485	118.762	0.049	0.060
-557.471	-71.153	-0.357	-0.134
-556.456	-170.570	0.247	-0.009
-555.442	158.373	-0.171	-0.237
-554.427	-22.134	-0.055	0.034
-553.412	800.000	-0.070	0.280
-552.398	800.000	0.050	-0.203
-551.383	157.119	-0.128	-0.176
-550.369	-200.000	0.059	-0.382
-549.354	-1.822	0.124	-0.087
-548.339	-73.666	0.220	0.080
-547.325	-200.000	0.075	0.424
-546.310	-161.456	0.104	0.005
-545.296	-200.000	-0.060	-0.316
-544.281	410.243	-0.139	-0.295
-543.266	-14.139	-0.294	0.189
-542.252	-27.063	0.144	-0.084
-541.237	147.289	-0.031	-0.042
-540.223	-200.000	0.025	0.183
-539.208	298.806	-0.158	-0.291
-538.193	-200.000	0.025	0.162
-537.179	-200.000	0.019	0.099
-536.164	-200.000	-0.061	-0.298
-535.150	107.507	-0.308	0.366
-534.135	-22.010	0.152	0.092
-533.121	72.236	0.113	0.118
-532.106	-50.942	0.280	-0.131
-531.091	-115.221	-0.162	0.031
-530.077	-62.883	0.225	-0.093
-529.062	-76.281	0.347	0.122
-528.048	-193.823	0.390	0.003
-527.033	67.449	-0.097	0.098
-526.018	800.000	-0.050	0.171
-525.004	-19.543	0.079	-0.049
-523.989	-115.153	-0.164	0.031
-522.975	39.482	0.136	-0.121
-521.960	-81.916	-0.119	-0.039
-520.945	365.066	0.056	0.113
-519.931	64.988	-0.092	-0.092
-518.916	103.101	0.054	-0.063
-517.902	8.770	-0.176	-0.133
-516.887	771.488	-0.049	-0.134
-515.872	727.078	-0.100	0.266
-514.858	-140.960	-0.143	-0.015
-513.843	-200.000	-0.022	-0.134
-512.829	56.809	0.597	-0.580
-511.814	-200.000	-0.023	-0.254
-510.799	239.731	-0.184	-0.306
-509.785	42.902	0.115	-0.105
-508.770	534.221	0.094	-0.223
-507.756	-107.939	-0.465	-0.101
-506.741	-85.716	0.225	-0.070
-505.726	-200.000	-0.046	0.381
-504.712	166.227	0.131	0.186
-503.697	-200.000	0.079	-0.377
-502.683	-47.877	0.301	-0.145
-501.668	-33.955	0.080	-0.044
-500.653	-200.000	-0.018	0.122
-499.639	320.481	-0.062	0.118
-498.624	59.444	-0.010	-0.010
-497.610	56.538	0.138	0.134
-496.595	-200.000	0.067	0.382
-495.581	276.197	-0.094	0.166
-494.566	800.000	-0.102	-0.346
-493.551	-152.273	0.181	-0.013
-492.537	-200.000	0.038	0.180
-491.522	23.818	-0.454	0.374
-490.508	186.253	0.167	-0.249
-489.493	-30.084	0.364	0.206
-488.478	-80.759	0.105	0.035
-487.464	323.619	0.110	0.209
-486.449	715.042	-0.009	0.025
-485.435	-68.799	0.099	0.038
-484.420	-84.790	-0.184	0.058
-483.405	-97.338	0.117	0.030
-482.391	-114.674	-0.194	-0.037
-481.376	-200.000	0.001	-0.232
-480.362	-139.791	0.175	-0.019
-479.347	59.152	-0.156	0.153
-478.332	-60.935	-0.181	0.076
-477.318	405.515	0.035	-0.073
-476.303	59.308	0.107	0.105
-475.289	-200.000	-0.001	-0.008
-474.274	-200.000	-0.024	0.202
-473.259	195.318	0.078	-0.119
-472.245	389.636	0.028	-0.057
-471.230	-200.000	0.016	0.096
-470.216	110.062	0.104	0.124
-469.201	-200.000	0.026	0.208
-468.186	800.000	0.069	0.283
-467.172	-103.169	0.309	0.073
-466.157	800.000	-0.109	-0.332
-465.143	800.000	0.080	0.221
-464.128	-200.000	-0.010	-0.152
-463.113	243.877	-0.067	0.113
-462.099	1.751	0.072	-0.051
-461.084	-200.000	-0.007	-0.035
-460.070	-200.000	-0.009	0.391
-459.055	70.652	-0.083	-0.086
-458.040	-200.000	-0.010	-0.047
-457.026	-91.466	0.309	-0.088
-456.011	-168.165	-0.334	-0.013
-454.997	211.060	0.168	-0.263
-453.982	568.069	-0.095	-0.230
-452.968	-14.555	0.192	-0.123
-451.953	-144.892	-0.148	0.014
-450.938	800.000	-0.097	-0.338
-449.924	-9.120	0.252	-0.168
-448.909	9.487	0.211	-0.159
-447.895	162.075	0.177	-0.246
-446.880	800.000	-0.032	-0.129
-445.865	-176.554	0.110	0.003
-444.851	-50.186	0.335	-0.158
-443.836	-200.000	0.000	0.181
-442.822	-158.521	0.155	-0.009
-441.807	-200.000	0.018	0.447
-440.792	48.339	0.031	0.029
-439.778	-120.651	0.181	-0.030
-438.763	-200.000	-0.008	0.125
-437.749	-200.000	0.014	-0.075
-436.734	-200.000	0.028	0.292
-435.719	-200.000	-0.056	0.262
-434.705	149.127	-0.061	-0.082
-433.690	115.897	-0.154	-0.188
-432.676	49.238	0.057	-0.053
-431.661	78.162	-0.277	0.294
-430.646	120.161	0.119	0.146
-429.632	-152.402	-0.572	0.041
-428.617	116.594	0.186	-0.227
-427.603	-200.000	0.004	0.149
-426.588	306.998	0.078	0.145
-425.573	710.169	-0.070	-0.185
-424.559	-28.315	-0.290	0.166
-423.544	-200.000	0.021	0.222
-422.530	60.411	0.114	-0.112
-421.515	-200.000	-0.004	-0.310
-420.500	-65.285	-0.188	0.075
-419.486	-65.904	-0.364	0.145
-418.471	-200.000	-0.011	0.250
-417.457	-54.403	-0.249	-0.112
-416.442	338.226	0.109	-0.211
-415.428	19.832	0.277	-0.222
-414.413	67.053	-0.171	0.173
-413.398	155.688	0.072	0.098
-412.384	-200.000	0.025	0.273
-411.369	-73.874	-0.046	-0.017
-410.355	-200.000	-0.021	0.136
-409.340	81.075	0.194	0.208
-408.325	10.897	-0.227	0.172
-407.311	67.114	-0.042	0.043
-406.296	-123.863	-0.340	-0.053
-405.282	-200.000	-0.003	0.106
-404.267	-87.936	-0.162	-0.049
-403.252	-200.000	-0.033	0.247
-402.238	-23.429	-0.508	0.304
-401.223	-200.000	-0.007	-0.446
-400.209	744.280	-0.141	-0.378
-399.194	28.154	0.322	-0.270
-398.179	800.000	0.078	-0.321
-397.165	568.243	0.027	-0.066
-396.150	-172.612	-0.176	0.006
-395.136	800.000	-0.075	0.324
-394.121	-85.275	-0.054	-0.017
-393.106	27.107	-0.040	0.033
-392.092	-52.642	0.504	-0.231
-391.077	-160.706	-0.321	-0.017
-390.063	82.931	-0.126	0.136
-389.048	82.750	0.268	-0.290
-388.033	110.061	0.218	0.260
-387.019	70.174	0.041	0.042
-386.004	13.239	-0.026	0.020
-384.990	-200.000	0.063	-0.372
-383.975	800.000	0.073	-0.286
-382.960	54.667	-0.142	-0.136
-381.946	-190.623	0.238	0.003
-380.931	800.000	-0.037	0.138
-379.917	-0.112	-0.073	0.051
-378.902	800.000	-0.051	-0.172
-377.888	-200.000	0.051	-0.243
-376.873	198.405	0.158	0.241
-375.858	-61.658	-0.159	0.066
-374.844	-197.247	-0.166	-0.001
-373.829	800.000	0.029	-0.095
-372.815	-48.158	0.499	0.239
-371.800	-107.698	0.295	0.064
-370.785	-200.000	0.050	0.314
-369.771	-26.127	0.328	0.192
-368.756	-27.034	0.285	-0.165
-367.742	-58.696	0.160	-0.069
-366.727	-25.201	0.226	-0.133
-365.712	800.000	0.101	0.330
-364.698	-200.000	-0.002	0.248
-363.683	72.763	0.334	-0.346
-362.669	-41.712	-0.314	0.160
-361.654	-200.000	-0.014	0.349
-360.639	-10.647	0.506	0.332
-359.625	-162.871	-0.335	0.016
-358.610	-25.736	-0.043	-0.025
-357.596	-99.034	-0.165	0.041
-356.581	41.253	-0.113	0.101
-355.566	107.440	0.116	-0.137
-354.552	94.183	0.106	0.119
-353.537	284.323	0.102	0.183
-352.523	486.016	-0.045	0.101
-351.508	372.106	-0.040	0.082
-350.493	125.830	0.104	0.131
-349.479	-1.472	0.443	-0.310
-348.464	-122.098	-0.031	-0.005
-347.450	-70.073	-0.272	0.103
-346.435	-72.168	0.316	-0.116
-345.420	49.175	0.159	-0.148
-344.406	-65.114	0.085	-0.034
-343.391	200.763	0.086	-0.131
-342.377	-200.000	0.046	-0.242
-341.362	-200.000	-0.021	-0.110
-340.348	-30.865	-0.096	-0.054
-339.333	800.000	0.094	0.288
-338.318	-200.000	0.054	0.287
-337.304	77.968	-0.133	-0.141
-336.289	-8.957	-0.062	-0.041
-335.275	768.674	-0.047	0.127
-334.260	133.208	-0.137	0.176
-333.245	800.000	0.058	-0.159
-332.231	51.670	0.080	-0.076
-331.216	-181.738	0.289	0.006
-330.202	543.989	-0.040	-0.096
-329.187	-200.000	0.006	0.172
-328.172	800.000	-0.068	-0.259
-327.158	290.344	0.214	0.386
-326.143	145.929	-0.182	-0.242
-325.129	8.576	-0.262	-0.195
-324.114	-200.000	0.041	-0.236
-323.099	1.675	-0.254	-0.181
-322.085	800.000	-0.054	-0.223
-321.070	-200.000	-0.030	-0.191
-320.056	408.367	-0.094	-0.196
-319.041	-159.830	0.049	0.003
-318.026	-62.799	0.153	-0.063
-317.012	-25.447	-0.081	-0.047
-315.997	173.432	0.211	-0.302
-314.983	68.201	-0.136	-0.138
-313.968	800.000	-0.057	-0.180
-312.953	77.845	0.060	-0.063
-311.939	18.787	0.055	0.044
-310.924	800.000	0.053	-0.148
-309.910	365.568	0.064	0.128
-308.895	-146.462	-0.208	-0.018
-307.880	-36.481	-0.150	-0.080
-306.866	-47.883	-0.275	-0.132
-305.851	13.791	-0.183	-0.141
-304.837	-92.389	0.249	-0.069
-303.822	465.474	0.035	-0.078
-302.807	36.409	-0.191	0.166
-301.793	176.893	0.118	0.170
-300.778	-200.000	0.197	0.001
-299.764	-123.282	-0.042	0.007
-298.749	800.000	0.077	-0.224
-297.735	698.628	-0.146	0.380
-296.720	750.948	0.111	0.297
-295.705	-117.921	-0.121	0.022
-294.691	-200.000	-0.001	-0.106
-293.676	149.919	-0.238	0.320
-292.662	52.587	-0.141	-0.133
-291.647	-0.894	-0.111	0.078
-290.632	-73.673	-0.284	0.102
-289.618	800.000	-0.054	-0.166
-288.603	-166.792	-0.280	0.011
-287.589	-160.173	0.219	-0.012
-286.574	415.963	-0.154	-0.325
-285.559	-143.509	0.109	0.010
-284.545	-41.618	-0.142	-0.072
-283.530	-200.000	-0.001	0.076
-282.516	5.698	0.173	0.126
-281.501	-67.496	-0.152	-0.059
-280.486	-112.806	0.259	0.051
-279.472	414.040	-0.090	-0.189
-278.457	368.245	-0.158	-0.317
-277.443	-181.055	0.389	0.008
-276.428	244.262	0.081	-0.134
-275.413	240.146	-0.078	-0.128
-274.399	49.426	-0.209	0.195
-273.384	-200.000	-0.011	0.055
-272.370	-11.035	-0.240	0.157
-271.355	-44.019	-0.198	-0.099
-270.340	172.897	-0.097	-0.139
-269.326	89.158	0.126	-0.139
-268.311	-65.119	-0.098	-0.039
-267.297	-156.163	0.448	-0.028
-266.282	10.805	0.130	0.098
-265.267	-200.000	-0.010	0.098
-264.253	137.803	0.091	-0.118
-263.238	-34.411	-0.300	0.162
-262.224	-200.000	0.013	0.183
-261.209	257.281	-0.051	0.087
-260.195	96.082	-0.112	-0.127
-259.180	111.164	0.195	-0.233
-258.165	17.461	-0.107	-0.084
-257.151	-94.523	0.179	0.048
-256.136	18.102	0.186	-0.147
-255.122	-0.316	-0.099	-0.069
-254.107	691.454	-0.070	0.180
-253.092	1.751	0.220	-0.157
-252.078	-33.497	-0.288	-0.158
-251.063	-200.000	-0.043	0.413
-250.049	342.905	0.219	0.424
-249.034	-58.518	-0.129	0.055
-248.019	-169.075	-0.109	0.004
-247.005	-200.000	0.020	-0.097
-245.990	-200.000	-0.006	0.027
-244.976	27.289	0.231	-0.191
-243.961	50.494	0.219	-0.204
-242.946	134.224	0.119	0.152
-241.932	81.695	-0.091	-0.097
-240.917	-200.000	-0.006	-0.039
-239.903	-127.146	0.145	0.021
-238.888	161.747	-0.098	-0.136
-237.873	-57.183	-0.339	0.148
-236.859	-120.154	-0.404	-0.068
-235.844	-50.782	0.122	0.057
-234.830	131.014	-0.305	0.387
-233.815	165.400	0.262	0.366
-232.800	800.000	0.071	0.217
-231.786	-200.000	0.032	0.261
-230.771	-200.000	0.052	0.244
-229.757	-58.129	-0.239	0.103
-228.742	69.414	0.074	-0.075
-227.727	-12.453	-0.308	-0.198
-226.713	-57.113	-0.171	0.074
-225.698	-200.000	-0.021	-0.120
-224.684	-128.854	0.086	0.012
-223.669	-2.159	-0.055	-0.038
-222.655	-42.366	0.258	-0.130
-221.640	-200.000	-0.078	0.438
-220.625	800.000	0.059	-0.211
-219.611	616.077	0.034	0.084
-218.596	-71.146	-0.343	0.127
-217.582	-200.000	-0.032	0.220
-216.567	79.757	0.122	-0.129
-215.552	-86.424	0.098	-0.030
-214.538	-52.929	0.089	0.041
-213.523	94.065	-0.037	0.041
-212.509	-141.236	0.316	0.032
-211.494	-145.291	0.390	0.035
-210.479	66.762	0.073	0.073
-209.465	-156.355	0.026	-0.002
-208.450	-14.174	-0.105	-0.067
-207.436	800.000	0.096	-0.289
-206.421	800.000	-0.089	0.340
-205.406	-105.782	-0.163	0.036
-204.392	-200.000	-0.051	0.417
-203.377	30.165	0.184	0.155
-202.363	-51.609	0.211	0.097
-201.348	284.337	-0.150	-0.267
-200.333	-200.000	0.052	0.399
-199.319	-147.780	-0.036	0.003
-198.304	-90.923	0.266	0.075
-197.290	-74.089	0.235	0.084
-196.275	164.117	-0.011	0.015
-195.260	-29.734	-0.159	-0.090
-194.246	-118.762	0.298	-0.052
-193.231	-35.812	0.115	0.061
-192.217	-200.000	0.039	-0.222
-191.202	22.145	0.089	0.072
-190.187	-166.775	-0.255	0.010
-189.173	-135.380	0.213	-0.025
-188.158	-188.294	0.191	-0.002
-187.144	239.039	0.156	-0.255
-186.129	314.461	-0.100	-0.185
-185.114	-2.857	-0.126	0.087
-184.100	-84.663	0.351	-0.109
-183.085	241.531	-0.150	-0.247
-182.071	161.708	0.133	-0.184
-181.056	161.053	-0.075	0.103
-180.042	246.196	0.100	0.166
-179.027	800.000	-0.022	0.080
-178.012	235.650	0.064	0.104
-176.998	-25.266	-0.148	0.086
-175.983	108.105	-0.055	-0.065
-174.969	384.204	-0.146	0.296
-173.954	-0.767	0.181	-0.126
-172.939	-200.000	-0.037	-0.313
-171.925	766.061	-0.056	0.151
-170.910	-13.012	0.056	-0.036
-169.896	800.000	0.083	0.256
-168.881	67.545	0.264	0.266
-167.866	253.304	-0.135	0.228
-166.852	-200.000	-0.032	-0.253
-165.837	-128.837	-0.226	0.031
-164.823	-200.000	-0.027	0.240
-163.808	800.000	-0.038	-0.130
-162.793	531.346	-0.082	0.191
-161.779	-94.986	0.089	-0.024
-160.764	90.022	-0.036	-0.040
-159.750	-200.000	0.006	0.044
-158.735	-9.340	0.024	-0.016
-157.720	800.000	0.067	0.289
-156.706	28.458	-0.038	-0.031
-155.691	112.475	-0.055	0.065
-154.677	185.095	0.097	0.142
-153.662	-0.897	0.194	0.135
-152.647	-112.035	-0.242	-0.048
-151.633	-63.523	-0.498	0.201
-150.618	70.106	0.141	-0.143
-149.604	-94.324	-0.345	-0.093
-148.589	64.653	0.171	0.170
-147.574	14.859	-0.090	0.069
-146.560	53.665	0.265	0.250
-145.545	146.575	-0.157	-0.208
-144.531	146.688	0.143	-0.190
-143.516	135.511	-0.108	-0.138
-142.502	-157.672	-0.076	-0.004
-141.487	-15.532	0.136	-0.086
-140.472	25.831	0.278	0.228
-139.458	-46.151	-0.082	-0.040
-138.443	-145.309	-0.217	0.019
-137.429	800.000	0.034	-0.094
-136.414	171.601	0.038	-0.054
-135.399	33.262	0.194	0.165
-134.385	-157.021	0.319	0.019
-133.370	110.589	0.119	0.140
-132.356	503.855	-0.127	0.289
-131.341	-200.000	-0.037	0.371
-130.326	-200.000	-0.019	0.402
-129.312	-31.736	0.409	-0.226
-128.297	-7.473	0.066	-0.044
-127.283	-79.426	0.435	0.145
-126.268	-68.662	-0.150	-0.057
-125.253	233.772	-0.046	0.075
-124.239	-184.744	0.246	0.004
-123.224	389.103	0.074	-0.150
-122.210	10.304	0.082	-0.062
-121.195	780.027	-0.194	-0.522
