DTS Sentinel unit serial number:	SN413079Multiplexer serial number:	ORYXHardware model number:	OX4-SRSoftware version number:	ORYX F/W v4.00 Oryx Data Collector v3.7.2.0data status	okinstallation	princeton_trtdifferential loss correction	single-endedforward channel	channel 1reverse channel	N/Adate	2019/09/15time	18:30:35forward acquisition time	60.00reverse acquisition time	0.00gamma	496.2192k internal	0.2289k external	0.2289temperature offset calibration	0.9935default loss term (dB/km)	0.3790temperature slope calibration	1.0000multiplexer offset coefficient	1.0000multiplexer slope coefficient	1.0000fibre end	0.00T internal ref (°C)	44.06T ext. ref 1 (°C)	6.75T ext. ref 2 (°C)	37.50length (m)	temperature (°C)	Stokes	anti-Stokes-747.200	800.000	-0.090	-0.257
-746.185	-129.113	0.189	-0.027
-745.171	800.000	0.052	0.207
-744.156	101.636	-0.218	0.260
-743.142	94.804	0.154	0.179
-742.127	23.184	-0.426	0.359
-741.112	-146.154	-0.220	-0.020
-740.098	171.994	-0.060	0.088
-739.083	-80.750	-0.233	-0.079
-738.069	-200.000	0.013	0.146
-737.054	31.134	0.047	-0.042
-736.039	328.694	-0.022	0.043
-735.025	115.959	-0.079	-0.099
-734.010	-110.882	-0.298	-0.063
-732.996	-200.000	-0.005	0.144
-731.981	-87.201	-0.596	0.186
-730.966	-46.612	-0.257	-0.129
-729.952	800.000	-0.052	-0.174
-728.937	-157.771	-0.365	0.022
-727.923	302.987	-0.043	-0.082
-726.908	37.893	-0.014	-0.013
-725.894	-132.330	-0.210	-0.028
-724.879	-139.217	0.168	-0.018
-723.864	800.000	0.076	0.244
-722.850	-129.050	-0.327	0.047
-721.835	-200.000	-0.035	-0.208
-720.821	-60.470	-0.399	-0.174
-719.806	-42.706	-0.210	0.109
-718.791	-108.123	0.182	0.040
-717.777	196.545	0.186	-0.290
-716.762	-200.000	-0.020	0.225
-715.748	-200.000	0.003	-0.240
-714.733	-200.000	-0.022	-0.184
-713.718	39.232	0.203	-0.186
-712.704	-126.252	0.087	-0.013
-711.689	800.000	-0.110	0.397
-710.675	48.024	0.234	-0.224
-709.660	-50.569	0.203	-0.098
-708.645	-200.000	-0.038	0.431
-707.631	-200.000	0.005	-0.073
-706.616	230.876	-0.168	-0.281
-705.602	30.549	0.149	-0.131
-704.587	4.163	0.077	-0.057
-703.572	-47.985	-0.154	-0.076
-702.558	349.523	0.213	0.430
-701.543	-10.187	0.273	0.185
-700.529	-200.000	-0.030	-0.260
-699.514	55.810	0.044	0.044
-698.499	-200.000	-0.018	-0.358
-697.485	800.000	0.022	-0.080
-696.470	800.000	0.139	-0.422
-695.456	-200.000	-0.021	-0.177
-694.441	-160.040	-0.193	-0.011
-693.426	-200.000	-0.005	-0.220
-692.412	-200.000	-0.040	0.191
-691.397	77.917	0.294	-0.320
-690.383	-64.927	-0.110	0.045
-689.368	-67.683	-0.213	0.085
-688.354	569.706	0.024	0.059
-687.339	-68.992	-0.319	0.126
-686.324	-35.680	-0.154	0.086
-685.310	692.921	-0.094	0.252
-684.295	215.318	-0.152	-0.247
-683.281	-200.000	0.031	-0.346
-682.266	800.000	0.048	-0.138
-681.251	2.450	0.205	-0.152
-680.237	120.280	-0.091	0.115
-679.222	-70.027	-0.103	0.040
-678.208	262.806	0.079	-0.140
-677.193	132.719	0.084	-0.110
-676.178	22.567	-0.338	-0.283
-675.164	-53.466	0.040	0.019
-674.149	63.033	0.231	0.237
-673.135	-200.000	0.011	-0.307
-672.120	-16.999	-0.130	0.084
-671.105	-54.590	-0.256	-0.118
-670.091	166.875	0.124	0.180
-669.076	-134.227	0.489	-0.061
-668.062	138.016	-0.167	-0.224
-667.047	170.491	-0.094	0.137
-666.032	47.586	0.203	-0.194
-665.018	-200.000	-0.012	0.303
-664.003	112.809	0.202	-0.250
-662.989	-116.486	-0.193	0.036
-661.974	-200.000	0.002	0.049
-660.959	191.981	0.096	0.147
-659.945	73.050	-0.171	-0.182
-658.930	71.181	0.046	-0.049
-657.916	60.216	0.154	0.156
-656.901	-112.174	-0.221	0.045
-655.886	800.000	-0.070	0.261
-654.872	-85.803	-0.318	-0.101
-653.857	-200.000	-0.021	-0.284
-652.843	-146.240	-0.204	-0.018
-651.828	-102.376	-0.177	-0.043
-650.814	-132.903	-0.131	-0.017
-649.799	800.000	0.019	0.077
-648.784	-92.631	-0.118	-0.034
-647.770	-125.601	-0.135	0.021
-646.755	-64.079	0.470	-0.196
-645.741	-81.289	-0.222	0.075
-644.726	-60.287	-0.243	-0.106
-643.711	211.957	-0.065	0.105
-642.697	406.921	0.013	0.029
-641.682	-178.203	0.263	-0.006
-640.668	800.000	-0.022	0.075
-639.653	132.896	0.212	0.279
-638.638	548.556	0.149	-0.364
-637.624	-58.589	-0.194	-0.086
-636.609	97.912	0.152	0.178
-635.595	-115.929	0.169	-0.032
-634.580	-126.596	0.212	-0.032
-633.565	800.000	0.010	-0.033
-632.551	-200.000	-0.016	-0.075
-631.536	408.960	-0.156	-0.336
-630.522	-45.424	-0.221	-0.112
-629.507	-200.000	-0.016	-0.264
-628.492	-97.168	-0.182	0.049
-627.478	359.419	-0.028	-0.058
-626.463	50.748	0.290	-0.280
-625.449	800.000	0.036	0.107
-624.434	321.651	-0.104	0.202
-623.419	-10.743	0.066	0.044
-622.405	-200.000	0.008	0.066
-621.390	141.060	-0.164	0.221
-620.376	-105.490	0.156	-0.036
-619.361	43.762	-0.122	-0.114
-618.346	-200.000	-0.014	0.299
-617.332	-104.363	-0.234	-0.055
-616.317	800.000	-0.042	0.153
-615.303	13.303	0.151	0.119
-614.288	800.000	-0.028	0.111
-613.273	-52.118	0.302	-0.143
-612.259	-79.693	-0.275	0.094
-611.244	26.092	-0.238	-0.203
-610.230	-81.792	0.074	-0.025
-609.215	394.382	0.246	-0.523
-608.201	159.168	0.092	-0.130
-607.186	185.088	0.168	0.254
-606.171	98.102	0.309	0.362
-605.157	-28.295	0.173	0.102
-604.142	-200.000	-0.001	0.236
-603.128	121.766	-0.087	-0.110
-602.113	-27.153	-0.406	0.241
-601.098	800.000	-0.008	0.037
-600.084	-200.000	0.046	-0.226
-599.069	113.141	0.120	-0.148
-598.055	220.665	-0.099	-0.162
-597.040	278.980	0.159	-0.289
-596.025	-34.657	-0.348	0.194
-595.011	101.128	-0.114	0.135
-593.996	-169.380	0.269	-0.010
-592.982	82.816	-0.123	-0.136
-591.967	-200.000	0.006	0.083
-590.952	-7.913	0.121	-0.083
-589.938	-194.139	-0.162	0.001
-588.923	244.569	0.135	-0.231
-587.909	800.000	0.051	-0.161
-586.894	-200.000	-0.013	0.066
-585.879	43.738	-0.181	-0.169
-584.865	34.224	0.237	0.210
-583.850	-109.848	0.268	0.057
-582.836	35.824	-0.128	-0.115
-581.821	-62.191	0.460	-0.195
-580.806	-200.000	-0.029	-0.368
-579.792	-200.000	-0.041	-0.500
-578.777	-10.203	0.179	-0.121
-577.763	-1.555	0.063	-0.046
-576.748	103.416	-0.331	-0.396
-575.733	-4.462	0.270	-0.190
-574.719	5.120	0.193	-0.145
-573.704	182.539	0.124	-0.186
-572.690	-200.000	-0.014	-0.116
-571.675	-68.220	-0.107	0.042
-570.661	-200.000	0.029	-0.143
-569.646	252.038	0.203	-0.352
-568.631	-200.000	0.007	-0.034
-567.617	-194.598	-0.127	-0.001
-566.602	800.000	-0.068	-0.268
-565.588	703.331	-0.085	-0.229
-564.573	149.147	-0.095	-0.131
-563.558	-100.745	0.355	-0.089
-562.544	-200.000	-0.046	-0.271
-561.529	-117.400	0.181	0.033
-560.515	800.000	0.081	0.315
-559.500	732.003	0.013	0.034
-558.485	-200.000	0.006	0.124
-557.471	744.479	-0.044	-0.121
-556.456	23.250	0.182	0.152
-555.442	72.161	0.069	0.073
-554.427	96.940	0.099	-0.115
-553.412	556.323	-0.075	-0.184
-552.398	-77.225	-0.126	-0.044
-551.383	800.000	-0.082	0.246
-550.369	-86.675	-0.046	-0.014
-549.354	-72.652	0.089	-0.033
-548.339	-73.303	-0.074	-0.027
-547.325	524.590	0.107	-0.255
-546.310	-1.250	0.292	-0.210
-545.296	-112.522	-0.185	-0.038
-544.281	-200.000	-0.001	0.060
-543.266	-200.000	-0.014	-0.476
-542.252	-40.146	-0.211	-0.112
-541.237	-200.000	0.004	0.138
-540.223	230.453	-0.095	-0.159
-539.208	-60.922	0.056	-0.024
-538.193	-200.000	-0.005	0.290
-537.179	-133.243	0.374	-0.048
-536.164	47.073	-0.294	-0.278
-535.150	229.923	0.173	-0.287
-534.135	800.000	-0.005	0.017
-533.121	-200.000	0.036	0.428
-532.106	-8.516	0.225	-0.154
-531.091	455.104	-0.075	-0.169
-530.077	-122.905	-0.085	-0.014
-529.062	178.894	-0.118	0.175
-528.048	155.663	-0.207	0.290
-527.033	-200.000	-0.016	-0.323
-526.018	-81.327	-0.220	-0.074
-525.004	44.045	-0.102	0.095
-523.989	-200.000	-0.008	-0.330
-522.975	-200.000	-0.004	-0.080
-521.960	688.550	0.113	0.300
-520.945	-196.703	-0.091	0.001
-519.931	45.852	0.254	-0.239
-518.916	13.401	-0.114	-0.090
-517.902	-147.808	0.349	-0.030
-516.887	-4.151	0.179	0.126
-515.872	-200.000	0.024	-0.127
-514.858	-200.000	-0.017	0.562
-513.843	-132.238	-0.214	-0.028
-512.829	-200.000	-0.051	0.268
-511.814	800.000	0.060	0.231
-510.799	-58.039	-0.260	-0.115
-509.785	-40.188	0.163	0.086
-508.770	-121.086	0.126	0.021
-507.756	-118.261	0.288	-0.052
-506.741	-200.000	-0.004	0.108
-505.726	47.640	0.075	-0.071
-504.712	-200.000	0.024	0.319
-503.697	-66.970	0.089	-0.036
-502.683	-51.308	0.026	-0.012
-501.668	60.496	0.129	-0.129
-500.653	-17.086	-0.263	-0.169
-499.639	-200.000	0.000	-0.136
-498.624	-45.607	-0.217	0.109
-497.610	-94.617	-0.043	0.012
-496.595	-200.000	0.004	-0.081
-495.581	-200.000	0.031	-0.244
-494.566	-126.464	-0.180	-0.027
-493.551	-174.092	-0.333	-0.010
-492.537	144.667	-0.123	0.166
-491.522	-69.873	-0.406	-0.157
-490.508	-200.000	-0.017	-0.159
-489.493	-200.000	-0.006	0.362
-488.478	-176.227	-0.486	-0.013
-487.464	-200.000	0.027	0.280
-486.449	800.000	-0.074	-0.266
-485.435	264.236	-0.167	-0.295
-484.420	-145.837	-0.262	0.024
-483.405	800.000	-0.016	-0.064
-482.391	101.057	-0.158	0.187
-481.376	-32.434	-0.228	-0.129
-480.362	-131.206	-0.070	0.009
-479.347	-132.221	0.386	-0.051
-478.332	86.813	-0.202	-0.226
-477.318	800.000	-0.025	0.103
-476.303	255.234	-0.033	-0.058
-475.289	-200.000	-0.023	0.451
-474.274	19.785	0.249	-0.203
-473.259	800.000	0.032	-0.096
-472.245	800.000	0.099	0.283
-471.230	-26.513	-0.173	0.103
-470.216	2.717	0.176	0.130
-469.201	800.000	0.033	-0.139
-468.186	-200.000	0.039	0.191
-467.172	8.239	-0.107	-0.081
-466.157	-15.667	0.320	-0.207
-465.143	110.034	-0.057	-0.070
-464.128	-73.080	-0.090	0.033
-463.113	-200.000	-0.004	0.170
-462.099	32.573	-0.133	-0.116
-461.084	-46.759	-0.075	0.037
-460.070	-113.424	-0.111	0.022
-459.055	174.339	-0.171	-0.251
-458.040	-137.322	-0.256	0.029
-457.026	48.454	-0.135	0.129
-456.011	800.000	-0.101	-0.333
-454.997	800.000	0.110	-0.365
-453.982	-26.529	0.163	0.097
-452.968	-82.166	0.041	-0.014
-451.953	-162.727	-0.272	-0.013
-450.938	-28.314	-0.107	-0.062
-449.924	-200.000	0.012	0.125
-448.909	-169.287	-0.125	0.005
-447.895	678.566	0.020	-0.053
-446.880	-199.644	-0.214	0.001
-445.865	-164.772	0.118	0.005
-444.851	-114.562	-0.285	0.055
-443.836	-11.181	0.064	0.043
-442.822	-60.451	-0.396	0.171
-441.807	120.985	-0.114	0.143
-440.792	426.983	-0.054	-0.119
-439.778	142.639	-0.178	0.239
-438.763	800.000	-0.062	0.248
-437.749	16.908	-0.108	-0.087
-436.734	42.076	-0.168	-0.154
-435.719	-128.216	-0.219	-0.032
-434.705	84.810	-0.262	0.291
-433.690	-157.930	-0.115	0.007
-432.676	-78.158	0.185	-0.065
-431.661	-200.000	-0.025	-0.122
-430.646	105.397	-0.043	-0.051
-429.632	-164.165	-0.276	-0.013
-428.617	-98.692	-0.052	-0.013
-427.603	-53.116	0.227	-0.105
-426.588	225.618	0.066	-0.108
-425.573	-22.768	0.124	-0.076
-424.559	800.000	0.049	-0.184
-423.544	-101.193	0.075	-0.019
-422.530	178.670	-0.148	0.219
-421.515	210.256	0.064	0.102
-420.500	126.586	0.061	-0.079
-419.486	800.000	-0.028	-0.079
-418.471	-134.930	-0.308	0.038
-417.457	-200.000	-0.002	0.051
-416.442	-37.920	0.151	0.081
-415.428	160.203	0.047	0.066
-414.413	-26.270	-0.129	-0.077
-413.398	-200.000	-0.001	0.238
-412.384	800.000	-0.096	0.268
-411.369	25.963	0.093	-0.078
-410.355	-58.956	-0.624	-0.273
-409.340	153.250	-0.095	-0.131
-408.325	469.224	0.144	0.328
-407.311	256.815	0.025	-0.043
-406.296	16.908	0.153	-0.123
-405.282	227.976	0.177	0.292
-404.267	72.879	-0.163	-0.172
-403.252	-200.000	0.067	-0.380
-402.238	-13.684	0.108	-0.070
-401.223	-57.734	0.147	-0.065
-400.209	-200.000	-0.027	0.181
-399.194	-200.000	-0.023	0.138
-398.179	-200.000	0.006	-0.181
-397.165	-200.000	0.054	-0.418
-396.150	294.250	0.145	-0.267
-395.136	96.490	-0.126	0.145
-394.121	-28.734	-0.208	0.121
-393.106	203.216	0.050	0.079
-392.092	-200.000	0.027	-0.150
-391.077	-200.000	-0.088	-0.404
-390.063	-20.633	-0.206	-0.128
-389.048	-22.477	0.330	-0.202
-388.033	92.190	-0.123	0.140
-387.019	-79.180	-0.425	-0.146
-386.004	-101.882	-0.383	0.093
-384.990	-64.409	0.320	0.131
-383.975	60.720	-0.149	0.149
-382.960	-200.000	-0.331	0.000
-381.946	126.776	0.132	-0.169
-380.931	-111.806	-0.190	-0.039
-379.917	-43.639	-0.150	-0.076
-378.902	-200.000	-0.027	-0.146
-377.888	-200.000	0.008	-0.132
-376.873	220.202	0.065	0.105
-375.858	-12.631	0.042	0.028
-374.844	370.854	0.098	-0.201
-373.829	231.080	-0.223	0.368
-372.815	-200.000	-0.179	0.000
-371.800	122.967	0.174	0.220
-370.785	-84.798	0.113	0.036
-369.771	402.516	0.090	-0.191
-368.756	-200.000	0.062	0.315
-367.742	-20.997	-0.202	0.125
-366.727	138.980	0.202	0.268
-365.712	115.265	-0.118	0.146
-364.698	174.726	0.070	-0.103
-363.683	616.439	0.052	0.132
-362.669	-105.233	0.142	-0.033
-361.654	-111.745	0.337	0.069
-360.639	-200.000	0.020	0.140
-359.625	-200.000	0.019	0.332
-358.610	-140.474	0.318	-0.033
-357.596	-146.744	-0.154	0.013
-356.581	586.306	-0.053	-0.132
-355.566	156.491	-0.211	-0.294
-354.552	-135.480	-0.132	-0.016
-353.537	-29.781	-0.054	0.031
-352.523	583.776	0.080	0.199
-351.508	800.000	-0.055	0.158
-350.493	40.063	-0.183	-0.166
-349.479	800.000	-0.029	-0.096
-348.464	60.207	-0.160	0.159
-347.450	800.000	0.028	0.105
-346.435	-61.533	0.029	-0.012
-345.420	-200.000	-0.044	-0.432
-344.406	-81.884	-0.314	0.104
-343.391	-166.565	0.175	-0.007
-342.377	-200.000	0.050	0.230
-341.362	194.313	0.181	-0.277
-340.348	53.677	0.115	0.111
-339.333	-61.945	-0.125	0.053
-338.318	-11.800	-0.230	-0.152
-337.304	51.313	0.058	0.055
-336.289	-200.000	0.024	0.275
-335.275	-127.567	-0.149	-0.022
-334.260	-46.940	0.162	-0.080
-333.245	112.820	0.079	-0.096
-332.231	179.579	0.173	0.255
-331.216	-37.231	-0.040	0.021
-330.202	59.528	-0.165	-0.164
-329.187	355.235	0.167	0.336
-328.172	682.042	-0.164	0.431
-327.158	725.038	-0.024	0.064
-326.143	-107.328	0.421	-0.093
-325.129	-200.000	0.155	-0.000
-324.114	800.000	0.093	0.267
-323.099	68.973	-0.165	0.171
-322.085	125.708	0.030	0.038
-321.070	800.000	-0.005	-0.022
-320.056	-8.756	-0.078	-0.053
-319.041	800.000	0.065	0.277
-318.026	37.231	-0.099	0.088
-317.012	626.035	0.038	0.096
-315.997	-143.739	0.229	0.022
-314.983	-35.658	0.059	-0.032
-313.968	-200.000	-0.005	0.053
-312.953	252.519	-0.115	0.197
-311.939	-200.000	-0.008	-0.067
-310.924	-200.000	0.045	0.244
-309.910	-200.000	-0.001	0.103
-308.895	-39.438	0.071	0.037
-307.880	277.928	0.162	0.291
-306.866	96.723	0.193	0.223
-305.851	33.368	-0.479	0.419
-304.837	45.235	-0.153	0.142
-303.822	69.888	-0.151	-0.157
-302.807	800.000	-0.070	-0.214
-301.793	800.000	0.089	-0.279
-300.778	-200.000	-0.000	0.162
-299.764	-39.282	0.218	-0.115
-298.749	-37.433	0.194	0.104
-297.735	-200.000	-0.040	0.186
-296.720	101.325	0.238	0.279
-295.705	49.771	0.179	0.170
-294.691	345.615	-0.072	0.142
-293.676	-146.019	-0.127	-0.011
-292.662	365.426	0.097	0.196
-291.647	800.000	-0.050	-0.175
-290.632	-200.000	0.014	-0.155
-289.618	-115.347	0.230	0.044
-288.603	800.000	-0.041	0.121
-287.589	-18.060	0.257	0.162
-286.574	-9.783	0.326	0.218
-285.559	-200.000	-0.064	-0.294
-284.545	44.476	-0.066	0.061
-283.530	47.474	0.193	0.181
-282.516	131.993	-0.100	-0.130
-281.501	464.842	-0.202	-0.454
-280.486	186.618	0.056	-0.083
-279.472	227.045	0.197	-0.323
-278.457	-70.123	0.185	-0.071
-277.443	-180.697	0.333	0.007
-276.428	379.719	0.239	0.493
-275.413	800.000	-0.067	0.186
-274.399	-200.000	-0.027	0.263
-273.384	-51.710	0.193	-0.090
-272.370	15.858	-0.184	0.146
-271.355	-131.872	0.165	-0.022
-270.340	-84.688	0.596	0.189
-269.326	800.000	0.076	-0.268
-268.311	31.659	0.138	0.120
-267.297	416.517	-0.065	0.140
-266.282	5.475	0.080	0.059
-265.267	-200.000	-0.021	0.308
-264.253	72.456	0.265	0.278
-263.238	-200.000	-0.015	0.248
-262.224	800.000	-0.064	-0.237
-261.209	-200.000	0.013	0.160
-260.195	395.775	0.028	0.058
-259.180	-121.423	-0.100	-0.017
-258.165	800.000	0.035	-0.111
-257.151	38.644	-0.143	0.128
-256.136	172.459	0.067	0.097
-255.122	-132.165	-0.156	-0.020
-254.107	-200.000	-0.009	-0.189
-253.092	-177.622	-0.133	-0.003
-252.078	-4.907	-0.133	0.092
-251.063	182.620	0.068	-0.101
-250.049	121.784	-0.093	-0.117
-249.034	383.177	0.037	0.077
-248.019	-200.000	0.053	0.356
-247.005	68.715	-0.087	-0.090
-245.990	93.843	0.204	-0.233
-244.976	-200.000	0.021	0.097
-243.961	-30.240	0.159	0.091
-242.946	-200.000	0.035	0.253
-241.932	-124.608	0.113	-0.018
-240.917	-110.330	-0.168	-0.035
-239.903	-200.000	0.027	0.200
-238.888	-140.408	-0.126	-0.013
-237.873	-30.696	0.155	-0.088
-236.859	-200.000	0.018	0.117
-235.844	-200.000	0.076	0.368
-234.830	195.675	-0.102	-0.155
-233.815	-134.402	-0.068	-0.008
-232.800	27.981	-0.273	0.231
-231.786	-5.840	0.305	0.210
-230.771	-129.982	0.137	0.019
-229.757	159.501	-0.171	0.239
-228.742	-25.574	0.466	0.276
-227.727	800.000	-0.067	0.219
-226.713	204.304	-0.271	-0.421
-225.698	-0.098	0.130	-0.093
-224.684	-115.101	-0.210	-0.040
-223.669	195.583	-0.141	0.216
-222.655	161.637	-0.203	0.285
-221.640	-200.000	0.004	-0.280
-220.625	-99.772	0.262	-0.066
-219.611	800.000	-0.080	-0.316
-218.596	122.230	-0.060	0.075
-217.582	-200.000	-0.031	-0.140
-216.567	-107.522	-0.586	0.129
-215.552	800.000	0.042	0.138
-214.538	-162.684	-0.295	-0.015
-213.523	-40.482	-0.249	-0.130
-212.509	800.000	0.021	0.080
-211.494	95.693	-0.068	-0.078
-210.479	343.507	-0.080	-0.157
-209.465	149.979	0.197	0.268
-208.450	-96.134	-0.191	0.051
-207.436	-91.886	-0.238	0.068
-206.421	800.000	0.080	0.303
-205.406	39.816	0.326	0.294
-204.392	290.972	0.081	-0.148
-203.377	800.000	0.067	-0.192
-202.363	-148.894	0.113	-0.009
-201.348	-86.547	0.071	0.022
-200.333	-118.040	0.377	-0.068
-199.319	-198.144	0.441	0.003
-198.304	107.581	-0.106	0.127
-197.290	77.589	-0.091	-0.097
-196.275	-58.485	0.147	-0.064
-195.260	-49.965	0.144	-0.068
-194.246	-106.139	0.150	0.034
-193.231	-200.000	-0.007	-0.376
-192.217	291.715	0.052	0.095
-191.202	800.000	-0.023	-0.071
-190.187	719.960	0.063	-0.168
-189.173	-200.000	-0.015	0.403
-188.158	74.186	0.122	-0.128
-187.144	233.069	0.089	-0.147
-186.129	-17.012	-0.106	-0.067
-185.114	-37.474	0.214	0.115
-184.100	-200.000	0.014	-0.150
-183.085	-71.022	0.203	0.076
-182.071	86.967	-0.150	-0.166
-181.056	-200.000	-0.036	-0.284
-180.042	270.301	0.126	0.223
-179.027	125.563	-0.023	-0.029
-178.012	118.974	0.038	0.047
-176.998	257.247	0.053	-0.091
-175.983	-111.006	0.177	-0.037
-174.969	69.947	-0.125	-0.129
-173.954	145.260	-0.116	0.156
-172.939	-60.731	-0.289	0.123
-171.925	7.338	0.260	-0.194
-170.910	-7.281	0.061	-0.042
-169.896	83.326	0.077	0.084
-168.881	-69.326	0.180	0.069
-167.866	-53.725	0.030	0.014
-166.852	154.365	0.153	-0.210
-165.837	800.000	-0.051	-0.156
-164.823	52.488	-0.192	0.184
-163.808	-24.742	0.009	-0.005
-162.793	800.000	-0.057	0.161
-161.779	280.849	0.115	0.206
-160.764	373.476	0.073	0.149
-159.750	-200.000	-0.023	-0.180
-158.735	800.000	0.030	-0.122
-157.720	132.117	0.070	0.091
-156.706	33.289	0.140	-0.122
-155.691	323.251	-0.157	-0.301
-154.677	-200.000	-0.068	-0.306
-153.662	164.108	-0.070	0.098
-152.647	-98.093	-0.178	-0.046
-151.633	543.744	-0.020	-0.047
-150.618	193.795	-0.146	-0.222
-149.604	-21.664	-0.155	0.094
-148.589	-9.730	-0.162	-0.108
-147.574	591.681	-0.127	0.313
-146.560	218.501	0.046	0.073
-145.545	693.403	0.054	0.141
-144.531	336.484	-0.111	0.216
-143.516	-118.661	-0.186	-0.033
-142.502	-200.000	0.049	0.255
-141.487	42.948	0.132	0.120
-140.472	-43.019	-0.263	0.133
-139.458	-200.000	0.007	-0.069
-138.443	493.634	-0.086	-0.197
-137.429	316.315	-0.047	0.088
-136.414	14.518	-0.189	0.148
-135.399	800.000	0.023	-0.093
-134.385	-104.966	0.387	-0.089
-133.370	112.129	0.041	-0.050
-132.356	275.003	0.085	0.150
-131.341	-200.000	-0.047	-0.259
-130.326	-110.357	0.177	-0.037
-129.312	-200.000	0.049	0.360
-128.297	800.000	0.059	-0.218
-127.283	-61.026	0.317	-0.134
-126.268	19.723	0.093	-0.075
-125.253	-116.916	0.112	-0.020
-124.239	445.981	0.049	0.108
-123.224	10.900	-0.164	-0.125
