DTS Sentinel unit serial number:	SN413079Multiplexer serial number:	ORYXHardware model number:	OX4-SRSoftware version number:	ORYX F/W v4.00 Oryx Data Collector v3.7.2.0data status	okinstallation	princeton_trtdifferential loss correction	single-endedforward channel	channel 1reverse channel	N/Adate	2019/09/17time	01:46:35forward acquisition time	60.00reverse acquisition time	0.00gamma	496.2192k internal	0.2324k external	0.2324temperature offset calibration	0.9956default loss term (dB/km)	0.3790temperature slope calibration	1.0000multiplexer offset coefficient	1.0000multiplexer slope coefficient	1.0000fibre end	0.00T internal ref (°C)	29.58T ext. ref 1 (°C)	0.11T ext. ref 2 (°C)	24.56length (m)	temperature (°C)	Stokes	anti-Stokes-747.200	490.060	-0.117	0.270
-746.185	-103.978	-0.236	0.056
-745.171	-170.175	0.215	0.008
-744.156	46.519	-0.369	0.346
-743.142	300.564	0.169	0.315
-742.127	-27.994	-0.075	0.044
-741.112	366.507	0.126	-0.256
-740.098	-109.873	-0.407	0.086
-739.083	-200.000	0.023	0.245
-738.069	-145.294	-0.081	-0.007
-737.054	136.680	0.026	-0.034
-736.039	-101.528	-0.226	-0.055
-735.025	130.960	0.185	0.239
-734.010	-153.205	-0.443	-0.031
-732.996	-23.877	-0.321	-0.194
-731.981	-120.557	-0.063	0.011
-730.966	800.000	-0.033	-0.132
-729.952	36.254	0.127	0.113
-728.937	435.500	-0.090	-0.198
-727.923	341.363	0.116	0.228
-726.908	-23.816	-0.092	-0.056
-725.894	-200.000	0.001	-0.180
-724.879	51.037	0.192	0.184
-723.864	800.000	-0.045	0.191
-722.850	800.000	-0.080	-0.324
-721.835	800.000	-0.066	0.192
-720.821	-102.959	0.237	-0.057
-719.806	-3.613	-0.190	0.133
-718.791	627.266	0.058	-0.147
-717.777	45.798	0.070	-0.065
-716.762	-0.667	-0.144	0.103
-715.748	800.000	0.140	-0.426
-714.733	160.806	0.370	0.522
-713.718	-51.004	-0.268	0.127
-712.704	-93.541	0.171	-0.048
-711.689	374.094	0.133	-0.273
-710.675	-102.774	0.171	0.041
-709.660	-105.306	0.114	0.026
-708.645	-194.326	-0.094	-0.001
-707.631	330.846	-0.015	-0.030
-706.616	225.219	-0.269	-0.439
-705.602	621.911	0.091	0.231
-704.587	-142.280	0.191	-0.019
-703.572	72.540	0.261	-0.274
-702.558	-19.167	0.162	0.101
-701.543	-7.265	0.148	0.101
-700.529	-120.722	-0.205	0.035
-699.514	322.922	0.060	-0.115
-698.499	-200.000	0.005	-0.057
-697.485	-168.358	0.398	0.015
-696.470	-87.070	-0.189	-0.058
-695.456	-125.319	-0.187	0.029
-694.441	-4.835	0.023	0.016
-693.426	72.491	0.243	0.255
-692.412	-98.513	0.183	-0.047
-691.397	-200.000	0.031	-0.300
-690.383	62.973	0.222	-0.224
-689.368	-200.000	-0.056	-0.319
-688.354	800.000	-0.082	0.282
-687.339	800.000	-0.055	-0.211
-686.324	-83.335	-0.007	-0.002
-685.310	-200.000	0.023	-0.102
-684.295	69.067	-0.106	-0.110
-683.281	155.736	-0.072	-0.100
-682.266	-20.883	-0.460	-0.284
-681.251	-89.229	-0.411	-0.122
-680.237	-20.117	0.382	0.237
-679.222	446.128	0.061	-0.134
-678.208	-200.000	-0.005	0.339
-677.193	-42.296	-0.280	0.144
-676.178	-53.042	0.174	-0.081
-675.164	38.636	-0.093	-0.084
-674.149	-147.796	0.429	0.036
-673.135	778.786	-0.103	0.284
-672.120	176.406	0.079	0.116
-671.105	-200.000	0.013	-0.242
-670.091	506.469	0.147	-0.344
-669.076	48.800	-0.075	0.071
-668.062	-102.170	0.036	-0.009
-667.047	144.366	0.159	0.214
-666.032	-200.000	0.044	-0.386
-665.018	217.607	-0.054	0.087
-664.003	218.528	0.023	-0.037
-662.989	187.757	-0.075	0.113
-661.974	371.680	-0.149	0.305
-660.959	800.000	-0.031	0.119
-659.945	-19.044	-0.118	-0.074
-658.930	-33.500	0.229	-0.127
-657.916	-200.000	0.049	-0.323
-656.901	-200.000	-0.020	0.199
-655.886	-200.000	-0.008	0.126
-654.872	270.166	-0.096	-0.169
-653.857	89.762	0.124	-0.139
-652.843	-174.826	0.266	0.008
-651.828	-136.582	0.102	-0.012
-650.814	263.565	-0.078	-0.137
-649.799	-200.000	-0.023	-0.224
-648.784	-33.087	0.329	0.184
-647.770	-200.000	-0.038	-0.495
-646.755	194.999	-0.143	-0.219
-645.741	86.385	0.433	-0.480
-644.726	-63.387	-0.010	0.004
-643.711	139.830	-0.085	-0.113
-642.697	-200.000	0.016	-0.134
-641.682	10.977	-0.431	-0.331
-640.668	-138.080	0.181	-0.020
-639.653	-75.225	-0.252	-0.091
-638.638	-51.760	-0.134	0.063
-637.624	156.386	-0.327	0.454
-636.609	12.420	-0.378	0.293
-635.595	-200.000	-0.101	-0.530
-634.580	800.000	-0.057	0.194
-633.565	-115.092	0.208	0.040
-632.551	411.571	-0.212	0.453
-631.536	678.337	-0.133	0.349
-630.522	-16.625	-0.081	0.051
-629.507	-32.658	0.414	0.231
-628.492	800.000	0.036	-0.103
-627.478	-112.373	0.337	-0.068
-626.463	-139.873	0.114	0.012
-625.449	-87.792	-0.174	-0.053
-624.434	799.624	-0.087	-0.241
-623.419	100.874	-0.126	-0.147
-622.405	306.929	0.171	0.320
-621.390	-122.383	0.080	-0.013
-620.376	-49.959	0.317	0.151
-619.361	-61.642	0.211	0.089
-618.346	-200.000	-0.016	0.187
-617.332	684.035	-0.016	-0.042
-616.317	-200.000	-0.018	0.324
-615.303	535.993	0.080	0.190
-614.288	-200.000	-0.011	-0.245
-613.273	15.044	-0.207	-0.163
-612.259	396.793	-0.026	-0.054
-611.244	-200.000	-0.028	0.165
-610.230	-9.120	0.157	0.106
-609.215	-51.790	0.132	0.062
-608.201	70.324	0.099	-0.103
-607.186	800.000	0.025	0.096
-606.171	-69.900	0.126	0.048
-605.157	-117.447	0.237	0.043
-604.142	-93.943	0.158	-0.043
-603.128	590.320	0.091	0.226
-602.113	-103.714	0.227	0.053
-601.098	-72.227	0.189	-0.070
-600.084	800.000	-0.070	0.249
-599.069	100.172	-0.035	-0.040
-598.055	54.811	-0.128	-0.124
-597.040	-120.506	-0.298	0.051
-596.025	635.154	-0.052	-0.133
-595.011	93.866	-0.072	-0.082
-593.996	-36.060	0.083	-0.045
-592.982	331.265	-0.056	-0.109
-591.967	-113.922	0.136	0.027
-590.952	-36.451	-0.046	0.025
-589.938	371.498	-0.048	0.098
-588.923	52.355	0.123	0.118
-587.909	37.043	0.049	0.044
-586.894	37.209	-0.360	0.320
-585.879	-91.674	-0.073	0.021
-584.865	-32.562	-0.410	0.229
-583.850	2.284	-0.151	-0.110
-582.836	-200.000	0.087	-0.446
-581.821	-200.000	-0.011	-0.105
-580.806	-131.675	0.113	-0.015
-579.792	514.403	-0.053	-0.123
-578.777	-154.777	-0.203	-0.014
-577.763	-200.000	0.028	-0.172
-576.748	-33.429	-0.210	-0.116
-575.733	257.625	0.067	-0.116
-574.719	-47.710	-0.247	0.120
-573.704	-200.000	-0.049	0.323
-572.690	88.480	-0.116	0.129
-571.675	-94.139	0.131	-0.036
-570.661	-200.000	0.013	0.326
-569.646	-24.622	-0.120	0.072
-568.631	190.743	-0.016	-0.025
-567.617	115.057	0.100	-0.122
-566.602	-92.543	0.113	-0.032
-565.588	620.833	-0.060	0.151
-564.573	-117.152	-0.172	-0.031
-563.558	-82.025	0.197	0.064
-562.544	174.724	-0.043	-0.062
-561.529	-28.094	-0.233	-0.135
-560.515	279.938	-0.099	0.178
-559.500	-113.823	0.205	0.040
-558.485	-58.846	0.333	0.144
-557.471	-29.354	-0.200	-0.115
-556.456	-19.908	-0.093	0.058
-555.442	-0.455	0.147	0.104
-554.427	800.000	-0.061	-0.223
-553.412	800.000	-0.064	0.243
-552.398	-118.150	-0.146	0.026
-551.383	111.772	-0.102	-0.123
-550.369	-200.000	-0.046	-0.292
-549.354	755.499	-0.031	-0.083
-548.339	-36.493	0.337	0.182
-547.325	-8.349	-0.052	0.035
-546.310	-91.403	0.362	-0.104
-545.296	-38.928	0.274	-0.145
-544.281	-200.000	-0.008	0.096
-543.266	-23.135	-0.041	-0.025
-542.252	318.739	-0.074	0.140
-541.237	800.000	0.077	-0.221
-540.223	25.149	-0.174	0.144
-539.208	40.885	0.179	0.162
-538.193	800.000	0.023	0.076
-537.179	-120.100	-0.362	-0.062
-536.164	25.637	0.213	-0.178
-535.150	-200.000	-0.000	0.543
-534.135	494.064	0.048	-0.111
-533.121	-200.000	0.011	-0.174
-532.106	-2.443	0.112	0.079
-531.091	-130.404	-0.107	-0.015
-530.077	23.710	0.230	0.190
-529.062	112.268	0.161	-0.194
-528.048	265.052	0.095	0.166
-527.033	82.995	-0.143	0.156
-526.018	451.035	0.073	-0.162
-525.004	193.521	0.248	0.376
-523.989	-43.071	0.194	0.098
-522.975	-0.800	-0.058	0.041
-521.960	-79.240	0.183	-0.062
-520.945	-200.000	-0.026	-0.197
-519.931	101.283	-0.211	-0.246
-518.916	-200.000	-0.003	-0.210
-517.902	-200.000	0.022	0.244
-516.887	167.171	-0.263	-0.374
-515.872	800.000	0.129	-0.508
-514.858	-200.000	-0.003	0.147
-513.843	-35.726	-0.293	0.159
-512.829	280.459	-0.037	-0.067
-511.814	-120.812	0.343	-0.058
-510.799	340.119	0.160	0.313
-509.785	-200.000	0.005	-0.030
-508.770	226.007	0.092	0.150
-507.756	-48.378	0.335	0.162
-506.741	-25.734	0.174	0.103
-505.726	48.904	-0.184	-0.173
-504.712	99.260	-0.081	0.093
-503.697	2.639	-0.289	-0.209
-502.683	-23.456	-0.413	-0.248
-501.668	-71.519	-0.260	0.097
-500.653	-200.000	0.044	-0.228
-499.639	79.550	0.119	0.128
-498.624	-200.000	0.042	0.407
-497.610	800.000	0.068	0.195
-496.595	-92.691	0.220	0.062
-495.581	800.000	0.053	0.228
-494.566	800.000	-0.015	-0.043
-493.551	94.841	0.137	-0.156
-492.537	800.000	-0.050	-0.212
-491.522	800.000	0.066	0.214
-490.508	-82.738	0.180	0.058
-489.493	-53.783	-0.113	-0.051
-488.478	-200.000	-0.016	0.184
-487.464	5.689	0.134	0.099
-486.449	142.408	-0.173	0.229
-485.435	221.786	-0.095	0.153
-484.420	-200.000	0.003	-0.063
-483.405	-133.537	0.297	-0.037
-482.391	501.070	-0.089	-0.206
-481.376	-74.739	-0.091	-0.033
-480.362	-36.738	0.405	0.218
-479.347	291.588	-0.076	0.138
-478.332	-200.000	0.007	0.108
-477.318	-60.862	-0.134	-0.057
-476.303	-57.978	-0.195	-0.085
-475.289	-103.322	-0.096	-0.023
-474.274	-26.730	0.251	0.147
-473.259	-146.586	0.149	-0.013
-472.245	299.295	0.132	0.243
-471.230	253.237	0.104	-0.177
-470.216	94.444	-0.028	0.032
-469.201	333.852	0.137	0.265
-468.186	245.306	-0.055	0.093
-467.172	187.761	0.167	0.248
-466.157	58.712	-0.125	-0.123
-465.143	765.260	0.164	0.445
-464.128	-141.968	-0.147	0.015
-463.113	-20.339	-0.179	-0.110
-462.099	461.563	-0.124	-0.275
-461.084	-200.000	-0.020	0.090
-460.070	-154.981	0.386	0.025
-459.055	-38.693	0.248	-0.131
-458.040	15.452	0.309	-0.243
-457.026	-71.376	0.386	0.144
-456.011	-52.766	-0.172	0.079
-454.997	-6.543	0.144	-0.098
-453.982	-200.000	0.058	-0.308
-452.968	-152.820	-0.241	-0.017
-451.953	800.000	0.055	0.205
-450.938	-28.861	-0.118	0.067
-449.924	-200.000	0.002	-0.151
-448.909	-93.439	0.127	0.035
-447.895	-3.387	-0.230	-0.160
-446.880	-14.796	-0.287	0.184
-445.865	-154.658	-0.259	-0.017
-444.851	352.197	0.132	-0.262
-443.836	21.847	-0.167	-0.136
-442.822	-35.240	-0.347	0.189
-441.807	475.223	-0.082	-0.185
-440.792	-56.828	-0.374	-0.165
-439.778	-110.099	-0.044	0.009
-438.763	21.914	0.179	-0.145
-437.749	155.964	-0.115	0.158
-436.734	-96.101	0.252	-0.067
-435.719	-45.381	-0.410	-0.203
-434.705	-73.738	-0.532	-0.193
-433.690	-52.959	0.188	-0.086
-432.676	12.584	0.123	0.094
-431.661	536.092	0.067	-0.158
-430.646	-18.273	-0.248	0.154
-429.632	465.185	0.145	-0.323
-428.617	-200.000	0.022	-0.292
-427.603	-132.811	0.196	0.025
-426.588	-14.789	-0.043	0.028
-425.573	-32.748	-0.124	-0.069
-424.559	-142.850	-0.263	0.025
-423.544	313.808	0.044	-0.083
-422.530	590.091	0.037	-0.090
-421.515	396.710	-0.199	0.414
-420.500	58.134	0.083	-0.081
-419.486	-200.000	0.036	0.326
-418.471	-140.936	-0.313	0.032
-417.457	560.355	-0.065	-0.156
-416.442	-76.959	0.154	-0.054
-415.428	-87.247	-0.369	-0.112
-414.413	-200.000	0.015	0.145
-413.398	629.690	-0.108	-0.273
-412.384	140.924	0.174	-0.230
-411.369	-95.643	0.218	0.058
-410.355	-51.763	-0.239	0.111
-409.340	232.370	0.221	-0.362
-408.325	-75.422	0.247	-0.088
-407.311	73.672	-0.148	0.154
-406.296	42.980	-0.284	-0.258
-405.282	800.000	0.055	-0.181
-404.267	-148.381	0.287	-0.023
-403.252	-7.435	0.267	-0.180
-402.238	-200.000	-0.011	-0.429
-401.223	800.000	0.012	-0.035
-400.209	-3.765	-0.247	-0.171
-399.194	-200.000	0.021	0.336
-398.179	-12.353	-0.213	0.138
-397.165	380.620	-0.189	0.386
-396.150	-200.000	0.051	-0.341
-395.136	58.145	-0.282	-0.276
-394.121	21.471	0.109	-0.088
-393.106	770.311	0.110	-0.299
-392.092	241.574	-0.036	-0.059
-391.077	-200.000	0.006	0.085
-390.063	-6.942	0.409	-0.276
-389.048	533.671	0.075	-0.177
-388.033	-34.460	0.223	-0.122
-387.019	371.872	-0.110	0.222
-386.004	-79.383	-0.147	0.049
-384.990	800.000	-0.081	-0.348
-383.975	-200.000	0.011	-0.138
-382.960	83.629	-0.099	-0.107
-381.946	-50.955	-0.159	-0.074
-380.931	-71.579	-0.162	-0.060
-379.917	7.839	-0.110	0.082
-378.902	-111.732	-0.101	0.020
-377.888	22.109	0.312	-0.254
-376.873	-73.128	0.194	0.071
-375.858	800.000	0.094	-0.367
-374.844	425.247	-0.146	-0.312
-373.829	452.718	-0.130	0.286
-372.815	153.938	0.186	0.254
-371.800	-13.892	-0.105	0.068
-370.785	-100.586	0.536	0.132
-369.771	-60.651	0.256	-0.108
-368.756	800.000	-0.034	-0.101
-367.742	126.563	0.117	0.148
-366.727	106.947	0.271	0.321
-365.712	800.000	-0.059	-0.255
-364.698	-85.905	0.264	-0.081
-363.683	800.000	0.163	-0.474
-362.669	-80.025	0.148	-0.049
-361.654	-126.198	0.246	-0.037
-360.639	-113.354	0.110	-0.022
-359.625	0.614	-0.177	0.126
-358.610	800.000	0.045	-0.133
-357.596	-141.718	0.398	0.040
-356.581	-46.710	-0.246	0.120
-355.566	80.772	-0.050	-0.053
-354.552	-200.000	-0.094	0.463
-353.537	-124.861	-0.128	0.020
-352.523	-49.341	-0.069	-0.033
-351.508	-72.444	0.165	0.061
-350.493	115.366	-0.281	-0.341
-349.479	86.654	-0.214	0.235
-348.464	-165.904	-0.150	-0.006
-347.450	245.455	-0.047	-0.078
-346.435	800.000	-0.072	-0.285
-345.420	-48.680	-0.061	-0.029
-344.406	48.438	-0.120	0.112
-343.391	-137.560	-0.158	-0.018
-342.377	-101.878	0.197	-0.047
-341.362	309.462	0.177	0.329
-340.348	164.542	0.013	-0.019
-339.333	148.362	0.253	0.339
-338.318	-90.433	0.151	-0.044
-337.304	800.000	0.064	-0.274
-336.289	800.000	0.042	0.158
-335.275	646.964	-0.052	0.132
-334.260	-200.000	-0.004	0.351
-333.245	-200.000	-0.013	0.121
-332.231	-200.000	-0.001	0.029
-331.216	94.547	0.118	0.133
-330.202	145.756	-0.183	-0.243
-329.187	-83.506	0.240	0.076
-328.172	-66.221	-0.065	-0.026
-327.158	-87.849	-0.110	0.033
-326.143	800.000	-0.040	-0.123
-325.129	-62.837	0.308	0.127
-324.114	46.742	-0.226	-0.208
-323.099	-200.000	-0.054	0.308
-322.085	-30.444	0.512	-0.289
-321.070	800.000	0.029	-0.120
-320.056	305.500	-0.123	0.228
-319.041	-152.888	-0.107	0.008
-318.026	800.000	0.050	-0.155
-317.012	-144.015	0.356	0.033
-315.997	-155.944	-0.266	-0.017
-314.983	-82.579	0.020	0.006
-313.968	800.000	0.058	0.230
-312.953	255.740	-0.242	-0.412
-311.939	66.205	-0.147	0.149
-310.924	-35.731	-0.347	0.187
-309.910	-129.705	0.172	-0.024
-308.895	-197.902	-0.046	0.000
-307.880	79.184	0.089	-0.095
-306.866	64.692	-0.255	0.256
-305.851	294.696	0.163	0.295
-304.837	-186.365	-0.178	-0.003
-303.822	50.633	-0.083	0.078
-302.807	130.899	-0.199	-0.253
-301.793	56.771	-0.119	0.115
-300.778	-45.186	0.252	0.124
-299.764	-200.000	0.024	-0.132
-298.749	-87.744	0.192	-0.057
-297.735	253.285	-0.039	0.067
-296.720	800.000	0.037	0.117
-295.705	-83.599	-0.381	-0.121
-294.691	43.625	-0.021	0.019
-293.676	117.176	0.127	-0.154
-292.662	247.861	0.101	0.169
-291.647	302.206	0.085	0.156
-290.632	454.984	-0.132	0.291
-289.618	800.000	0.037	0.153
-288.603	-151.846	0.427	-0.031
-287.589	98.682	-0.265	0.304
-286.574	-76.842	-0.235	0.082
-285.559	288.368	-0.150	-0.270
-284.545	42.700	0.021	-0.019
-283.530	-41.754	-0.217	-0.111
-282.516	-200.000	-0.059	-0.343
-281.501	479.428	0.078	-0.176
-280.486	800.000	-0.051	0.198
-279.472	214.292	0.132	-0.208
-278.457	65.994	-0.320	-0.322
-277.443	-200.000	-0.065	0.322
-276.428	-200.000	-0.026	0.414
-275.413	241.323	-0.156	-0.259
-274.399	217.059	0.023	0.036
-273.384	-200.000	-0.000	-0.011
-272.370	255.953	0.028	0.047
-271.355	-200.000	0.065	0.350
-270.340	-146.701	0.144	-0.012
-269.326	-134.665	0.024	0.003
-268.311	429.247	0.221	0.474
-267.297	-20.359	0.309	-0.189
-266.282	-200.000	0.026	-0.164
-265.267	800.000	0.060	0.169
-264.253	150.162	-0.181	-0.243
-263.238	-22.611	0.044	0.026
-262.224	167.339	-0.167	0.235
-261.209	-200.000	0.022	0.173
-260.195	800.000	0.171	-0.517
-259.180	28.300	-0.245	-0.205
-258.165	-0.258	-0.201	0.142
-257.151	295.023	0.115	0.208
-256.136	-129.508	-0.200	-0.027
-255.122	-92.736	-0.313	0.087
-254.107	45.074	0.159	-0.146
-253.092	800.000	0.031	-0.110
-252.078	190.674	-0.240	-0.357
-251.063	-79.144	-0.244	-0.082
-250.049	-200.000	0.041	0.233
-249.034	-114.950	-0.420	-0.079
-248.019	-90.005	-0.197	-0.057
-247.005	142.205	0.117	0.153
-245.990	-123.864	-0.441	-0.069
-244.976	-135.317	-0.373	-0.044
-243.961	-200.000	-0.026	-0.311
-242.946	255.095	0.039	0.066
-241.932	338.789	0.030	0.057
-240.917	54.616	0.140	-0.133
-239.903	-200.000	-0.031	0.161
-238.888	-200.000	-0.091	0.581
-237.873	-18.647	0.112	0.069
-236.859	207.267	-0.099	0.153
-235.844	70.599	-0.180	0.184
-234.830	-200.000	0.343	-0.001
-233.815	29.266	-0.338	0.284
-232.800	800.000	0.053	-0.156
-231.786	38.677	-0.146	0.129
-230.771	-117.532	0.281	-0.050
-229.757	-26.852	-0.052	-0.030
-228.742	-79.017	-0.035	-0.012
-227.727	-2.515	0.207	0.143
-226.713	-116.297	-0.380	0.070
-225.698	258.108	0.027	-0.045
-224.684	48.299	-0.096	-0.089
-223.669	-200.000	-0.040	0.394
-222.655	-46.884	-0.149	-0.072
-221.640	-113.403	-0.118	0.023
-220.625	-26.143	-0.265	-0.154
-219.611	411.410	-0.021	0.044
-218.596	793.496	0.066	-0.180
-217.582	800.000	-0.010	0.036
-216.567	-45.890	0.218	-0.107
-215.552	800.000	-0.068	-0.253
-214.538	560.751	0.036	0.085
-213.523	-102.919	0.232	0.055
-212.509	226.328	-0.062	-0.099
-211.494	-68.566	0.271	0.104
-210.479	201.595	0.133	0.202
-209.465	-69.476	0.217	-0.082
-208.450	696.857	0.094	0.243
-207.436	-200.000	0.004	0.026
-206.421	51.045	-0.124	0.116
-205.406	-15.031	0.196	0.124
-204.392	293.889	0.134	-0.242
-203.377	504.257	0.050	0.115
-202.363	-29.617	-0.178	0.100
-201.348	800.000	0.027	-0.093
-200.333	800.000	-0.055	-0.214
-199.319	109.385	0.281	0.333
-198.304	148.423	0.112	0.149
-197.290	48.113	-0.218	-0.202
-196.275	-200.000	0.013	0.220
-195.260	-41.601	-0.092	0.047
-194.246	139.362	0.159	0.207
-193.231	-144.106	-0.240	0.022
-192.217	-114.891	-0.256	0.048
-191.202	47.940	0.199	0.184
-190.187	483.836	-0.029	-0.065
-189.173	18.848	0.209	0.166
-188.158	-84.586	-0.490	0.153
-187.144	179.580	0.215	-0.311
-186.129	236.646	-0.098	-0.160
-185.114	769.598	0.040	-0.108
-184.100	97.643	0.173	-0.197
-183.085	800.000	-0.070	0.298
-182.071	27.709	0.216	-0.179
-181.056	61.414	0.060	0.059
-180.042	-11.291	-0.129	0.084
-179.027	-134.507	0.201	0.024
-178.012	-32.580	0.109	0.060
-176.998	25.660	-0.160	0.132
-175.983	-30.298	0.721	-0.404
-174.969	38.797	-0.110	0.097
-173.954	800.000	-0.080	-0.230
-172.939	-79.678	-0.230	0.077
-171.925	-199.201	0.087	-0.000
-170.910	-140.904	0.407	0.041
-169.896	-95.916	0.273	-0.072
-168.881	63.566	-0.304	-0.302
-167.866	-41.900	-0.313	-0.159
-166.852	-200.000	0.005	-0.185
-165.837	-78.258	0.363	0.123
-164.823	-200.000	-0.028	-0.267
-163.808	-73.848	0.183	0.066
-162.793	-142.981	-0.313	0.030
-161.779	-113.944	0.040	0.008
-160.764	-69.749	0.271	-0.102
-159.750	800.000	-0.063	0.176
-158.735	368.626	-0.121	-0.242
-157.720	-123.839	0.187	0.029
-156.706	-93.024	-0.161	0.044
-155.691	-77.193	0.117	-0.040
-154.677	133.571	0.258	0.329
-153.662	-74.980	0.189	0.067
-152.647	492.262	-0.151	-0.340
-151.633	616.450	-0.084	-0.209
-150.618	-138.432	-0.445	0.048
-149.604	359.772	-0.085	0.167
-148.589	50.936	-0.159	-0.148
-147.574	-45.871	0.149	0.072
-146.560	57.092	0.015	-0.015
-145.545	-200.000	-0.018	0.114
-144.531	454.680	0.132	0.290
-143.516	800.000	-0.027	-0.113
-142.502	-200.000	0.019	-0.217
-141.487	79.844	0.178	-0.188
-140.472	-38.414	-0.183	0.096
-139.458	14.865	0.122	-0.094
-138.443	-200.000	0.026	0.244
-137.429	-119.737	0.405	-0.069
-136.414	225.706	-0.029	-0.046
-135.399	-65.562	-0.038	0.015
-134.385	-200.000	0.062	0.327
-133.370	-25.375	0.217	-0.127
-132.356	66.299	0.201	0.201
-131.341	-48.962	-0.034	-0.016
-130.326	48.383	-0.025	0.023
-129.312	-68.620	-0.276	-0.105
-128.297	-200.000	0.032	0.149
-127.283	-200.000	-0.002	0.070
-126.268	726.858	-0.101	0.265
-125.253	800.000	-0.063	0.263
-124.239	-92.214	0.246	-0.068
-123.224	205.321	-0.095	-0.145
-122.210	-173.073	-0.029	0.001
-121.195	257.929	-0.251	-0.425
