DTS Sentinel unit serial number:	SN413079Multiplexer serial number:	ORYXHardware model number:	OX4-SRSoftware version number:	ORYX F/W v4.00 Oryx Data Collector v3.7.2.0data status	okinstallation	princeton_trtdifferential loss correction	single-endedforward channel	channel 1reverse channel	N/Adate	2019/09/18time	21:54:35forward acquisition time	60.00reverse acquisition time	0.00gamma	496.2192k internal	0.2341k external	0.2341temperature offset calibration	1.0021default loss term (dB/km)	0.3790temperature slope calibration	1.0000multiplexer offset coefficient	1.0000multiplexer slope coefficient	1.0000fibre end	0.00T internal ref (°C)	24.69T ext. ref 1 (°C)	0.81T ext. ref 2 (°C)	18.25length (m)	temperature (°C)	Stokes	anti-Stokes-747.200	-200.000	-0.039	-0.205
-746.185	-116.421	-0.284	-0.053
-745.171	800.000	0.056	0.209
-744.156	-137.698	-0.435	-0.049
-743.142	800.000	0.078	-0.283
-742.127	428.320	-0.092	0.200
-741.112	363.427	0.130	0.263
-740.098	-200.000	-0.035	0.287
-739.083	15.848	0.437	0.344
-738.069	689.228	0.087	0.229
-737.054	17.847	-0.236	0.188
-736.039	58.662	-0.156	0.153
-735.025	-22.884	0.201	0.122
-734.010	117.340	0.049	-0.060
-732.996	-200.000	-0.075	-0.450
-731.981	800.000	-0.036	0.113
-730.966	-200.000	-0.005	0.142
-729.952	290.751	0.086	-0.157
-728.937	-25.145	0.057	-0.034
-727.923	53.735	-0.251	0.242
-726.908	-200.000	0.321	0.000
-725.894	49.987	0.235	-0.222
-724.879	8.805	0.115	-0.087
-723.864	529.362	0.107	-0.252
-722.850	-82.802	0.210	0.068
-721.835	800.000	0.061	0.185
-720.821	45.343	-0.096	0.088
-719.806	-117.743	-0.162	0.029
-718.791	-111.669	-0.129	-0.026
-717.777	-200.000	0.023	-0.499
-716.762	-200.000	0.021	-0.199
-715.748	393.968	-0.090	0.188
-714.733	212.837	-0.239	-0.377
-713.718	-26.209	0.232	0.136
-712.704	160.948	-0.106	-0.148
-711.689	46.178	-0.242	-0.225
-710.675	534.407	0.084	0.200
-709.660	800.000	-0.087	0.272
-708.645	-10.431	0.235	0.156
-707.631	-79.116	-0.137	0.047
-706.616	-42.144	0.064	-0.033
-705.602	-136.711	0.171	-0.020
-704.587	134.878	0.170	-0.221
-703.572	-200.000	0.003	-0.056
-702.558	-33.497	0.293	0.162
-701.543	80.630	0.121	0.131
-700.529	225.969	-0.084	0.136
-699.514	-18.248	-0.173	0.108
-698.499	-133.067	0.113	0.014
-697.485	484.038	-0.096	0.220
-696.470	19.925	-0.101	-0.082
-695.456	-46.590	0.109	-0.054
-694.441	344.778	0.113	0.222
-693.426	-200.000	-0.007	0.060
-692.412	267.318	-0.138	-0.241
-691.397	-87.653	-0.053	-0.016
-690.383	-120.139	-0.114	-0.019
-689.368	127.440	-0.061	-0.077
-688.354	-15.417	0.192	-0.123
-687.339	62.075	0.270	0.270
-686.324	239.394	-0.063	0.105
-685.310	-36.466	0.308	-0.166
-684.295	272.712	0.140	0.248
-683.281	-200.000	0.043	0.342
-682.266	523.684	-0.121	-0.284
-681.251	93.064	0.049	0.055
-680.237	16.160	-0.413	-0.325
-679.222	298.896	0.064	0.118
-678.208	-102.074	0.046	0.011
-677.193	50.081	0.058	0.055
-676.178	-123.759	0.275	-0.044
-675.164	-15.360	-0.359	-0.230
-674.149	93.483	-0.129	-0.146
-673.135	-200.000	-0.035	0.209
-672.120	362.649	-0.163	-0.327
-671.105	-141.833	0.131	0.013
-670.091	-147.269	-0.313	-0.027
-669.076	188.121	-0.221	-0.330
-668.062	408.520	-0.056	0.118
-667.047	-98.673	0.499	-0.127
-666.032	-153.952	-0.360	0.024
-665.018	800.000	-0.042	-0.169
-664.003	-76.064	0.199	0.070
-662.989	-105.055	-0.375	0.086
-661.974	376.275	-0.180	0.367
-660.959	313.466	-0.090	0.169
-659.945	59.301	-0.203	0.200
-658.930	-5.466	0.130	0.089
-657.916	53.309	-0.045	-0.043
-656.901	-200.000	0.026	-0.353
-655.886	317.250	0.049	0.093
-654.872	-200.000	-0.000	0.478
-653.857	-200.000	0.048	-0.237
-652.843	300.105	-0.149	-0.275
-651.828	-200.000	-0.015	0.268
-650.814	-156.247	-0.298	0.019
-649.799	-18.328	0.259	-0.162
-648.784	-14.321	0.574	-0.369
-647.770	-90.652	-0.189	0.054
-646.755	22.659	-0.088	0.072
-645.741	-142.925	0.245	-0.024
-644.726	-92.134	0.248	0.070
-643.711	-62.767	0.051	-0.021
-642.697	154.934	0.088	-0.121
-641.682	-94.047	-0.202	-0.055
-640.668	-69.152	0.288	-0.110
-639.653	217.254	-0.008	0.013
-638.638	-83.298	-0.301	-0.096
-637.624	-32.478	-0.260	-0.145
-636.609	-200.000	0.040	0.242
-635.595	16.803	-0.213	0.169
-634.580	-200.000	0.015	0.097
-633.565	36.330	-0.114	0.100
-632.551	438.288	0.098	0.213
-631.536	-117.079	-0.168	0.031
-630.522	-156.020	-0.310	0.020
-629.507	166.618	-0.129	-0.183
-628.492	200.568	-0.198	0.304
-627.478	-200.000	-0.014	-0.082
-626.463	800.000	-0.033	0.116
-625.449	-143.598	-0.088	-0.008
-624.434	-200.000	-0.001	0.056
-623.419	-26.916	-0.081	0.047
-622.405	313.720	-0.110	0.206
-621.390	-86.740	0.218	0.066
-620.376	800.000	-0.080	-0.234
-619.361	134.793	-0.096	-0.125
-618.346	225.688	-0.150	-0.243
-617.332	231.378	-0.091	-0.149
-616.317	55.623	-0.173	0.168
-615.303	-200.000	0.020	0.105
-614.288	266.168	-0.139	0.241
-613.273	738.847	0.046	0.122
-612.259	-8.113	0.113	-0.076
-611.244	-87.018	0.132	0.040
-610.230	800.000	0.060	-0.170
-609.215	-62.627	0.387	0.160
-608.201	743.282	0.040	0.107
-607.186	-70.230	0.329	0.124
-606.171	711.145	0.022	0.058
-605.157	-70.416	0.313	-0.118
-604.142	69.207	-0.168	-0.172
-603.128	-30.739	0.166	-0.094
-602.113	-200.000	0.014	-0.069
-601.098	287.489	0.133	0.241
-600.084	56.290	-0.266	0.257
-599.069	-79.500	-0.172	0.058
-598.055	-11.796	0.316	-0.207
-597.040	470.656	-0.085	0.191
-596.025	-135.678	-0.258	0.030
-595.011	-90.511	0.105	0.030
-593.996	70.542	0.121	-0.125
-592.982	-200.000	0.021	-0.266
-591.967	20.686	-0.055	-0.044
-590.952	55.073	0.182	0.175
-589.938	-56.525	0.115	0.051
-588.923	-200.000	-0.026	0.123
-587.909	290.849	-0.038	0.069
-586.894	-138.357	-0.205	0.023
-585.879	-98.904	0.322	-0.081
-584.865	-146.537	0.286	-0.025
-583.850	-112.474	0.242	-0.048
-582.836	-114.951	-0.459	0.087
-581.821	41.971	0.317	-0.287
-580.806	-99.724	0.270	0.067
-579.792	254.204	-0.114	-0.194
-578.777	-42.734	0.138	0.070
-577.763	52.248	-0.188	0.178
-576.748	146.221	-0.087	-0.117
-575.733	-63.359	0.409	-0.168
-574.719	800.000	-0.098	0.279
-573.704	-32.798	-0.127	0.070
-572.690	-50.925	-0.283	0.132
-571.675	151.722	0.161	-0.218
-570.661	201.381	0.172	0.264
-569.646	1.313	-0.052	-0.037
-568.631	499.663	-0.095	-0.218
-567.617	37.107	0.185	-0.163
-566.602	-200.000	0.031	0.142
-565.588	-153.089	-0.142	0.010
-564.573	-149.201	0.343	0.027
-563.558	-91.097	0.033	-0.010
-562.544	-106.315	0.187	-0.042
-561.529	593.377	-0.091	-0.223
-560.515	-11.877	0.271	0.177
-559.500	344.155	-0.115	0.224
-558.485	488.217	0.107	-0.242
-557.471	73.324	-0.084	-0.088
-556.456	800.000	0.139	0.516
-555.442	171.365	-0.235	0.335
-554.427	221.354	-0.068	0.109
-553.412	-101.869	-0.211	0.051
-552.398	-200.000	0.001	-0.458
-551.383	38.515	0.155	-0.138
-550.369	-101.780	-0.168	0.040
-549.354	-91.674	-0.259	-0.073
-548.339	800.000	0.052	-0.184
-547.325	169.013	-0.129	-0.183
-546.310	226.570	0.169	0.273
-545.296	-111.046	0.109	-0.022
-544.281	-167.617	-0.109	-0.004
-543.266	-23.239	-0.141	0.084
-542.252	-180.559	-0.116	-0.002
-541.237	-112.927	-0.225	0.044
-540.223	-45.157	-0.369	-0.182
-539.208	-64.169	0.074	0.030
-538.193	349.350	-0.025	0.048
-537.179	-198.423	-0.234	0.001
-536.164	-200.000	-0.004	-0.128
-535.150	-197.811	0.172	0.001
-534.135	-53.706	0.158	0.072
-533.121	-200.000	-0.008	0.064
-532.106	337.823	-0.102	-0.198
-531.091	93.710	-0.162	0.182
-530.077	-200.000	0.033	0.226
-529.062	102.478	0.146	0.170
-528.048	-15.903	0.200	-0.127
-527.033	4.833	-0.136	-0.099
-526.018	-200.000	0.010	-0.052
-525.004	-109.988	0.270	0.056
-523.989	-144.433	0.202	-0.019
-522.975	-200.000	-0.026	0.124
-521.960	800.000	-0.049	0.136
-520.945	800.000	0.026	0.112
-519.931	-176.405	-0.121	0.003
-518.916	9.787	-0.122	0.092
-517.902	-48.646	0.180	-0.086
-516.887	300.580	0.165	-0.302
-515.872	-200.000	0.038	-0.337
-514.858	-200.000	0.003	0.087
-513.843	-52.671	-0.389	-0.178
-512.829	-72.134	0.122	0.045
-511.814	449.195	-0.118	0.259
-510.799	96.497	-0.060	0.068
-509.785	-200.000	0.029	0.157
-508.770	-4.463	-0.235	0.161
-507.756	666.966	-0.134	0.343
-506.741	-106.860	-0.238	0.052
-505.726	800.000	-0.097	0.310
-504.712	-196.570	-0.268	-0.002
-503.697	104.438	0.022	0.026
-502.683	-124.843	0.094	-0.014
-501.668	147.556	-0.114	-0.152
-500.653	-50.655	0.314	-0.147
-499.639	-119.149	-0.274	0.048
-498.624	24.564	0.171	-0.141
-497.610	-200.000	-0.011	-0.071
-496.595	800.000	-0.077	0.234
-495.581	-200.000	-0.009	0.165
-494.566	-47.206	-0.208	0.101
-493.551	6.526	0.210	-0.155
-492.537	218.148	-0.082	-0.130
-491.522	800.000	0.048	0.165
-490.508	800.000	0.054	0.183
-489.493	731.680	0.025	0.067
-488.478	-91.591	-0.315	-0.089
-487.464	-115.765	0.137	-0.025
-486.449	194.394	-0.103	-0.155
-485.435	178.004	-0.086	-0.124
-484.420	304.079	-0.078	0.143
-483.405	-65.173	-0.225	-0.090
-482.391	-163.070	-0.208	0.010
-481.376	145.719	0.155	-0.206
-480.362	-200.000	0.010	-0.153
-479.347	13.664	-0.364	0.280
-478.332	-108.199	0.217	0.047
-477.318	97.310	0.325	0.370
-476.303	-33.520	0.212	0.116
-475.289	286.553	-0.072	-0.130
-474.274	-74.087	0.269	-0.097
-473.259	-200.000	0.006	-0.205
-472.245	33.329	0.166	-0.143
-471.230	-118.415	0.230	-0.040
-470.216	-8.122	0.173	-0.115
-469.201	40.982	0.159	0.142
-468.186	-25.079	0.077	0.045
-467.172	-200.000	0.002	0.398
-466.157	-200.000	-0.066	0.310
-465.143	-200.000	-0.018	0.304
-464.128	44.003	-0.169	0.153
-463.113	-117.920	-0.136	-0.024
-462.099	-187.237	-0.242	0.003
-461.084	-200.000	-0.016	0.078
-460.070	238.467	-0.024	-0.040
-459.055	800.000	-0.107	-0.332
-458.040	727.741	-0.047	0.123
-457.026	292.513	-0.055	0.100
-456.011	-112.834	-0.085	0.017
-454.997	25.337	0.193	-0.159
-453.982	-54.237	-0.212	0.095
-452.968	259.155	-0.153	0.262
-451.953	276.864	-0.174	0.306
-450.938	40.525	-0.206	0.184
-449.924	-17.012	0.258	0.161
-448.909	-200.000	0.008	-0.047
-447.895	800.000	-0.065	0.254
-446.880	-200.000	0.046	-0.205
-445.865	-64.039	-0.284	0.115
-444.851	-28.759	-0.301	-0.172
-443.836	800.000	0.068	0.215
-442.822	-14.474	0.030	-0.019
-441.807	419.161	-0.185	-0.392
-440.792	-27.922	0.035	-0.020
-439.778	-200.000	0.007	-0.035
-438.763	-108.652	-0.194	0.041
-437.749	-200.000	-0.018	-0.206
-436.734	-151.620	-0.443	0.032
-435.719	-200.000	-0.002	-0.196
-434.705	-155.942	0.234	-0.015
-433.690	209.238	-0.181	-0.280
-432.676	-200.000	-0.022	0.404
-431.661	-97.542	0.262	-0.067
-430.646	695.890	-0.149	-0.388
-429.632	-200.000	-0.003	-0.140
-428.617	-200.000	-0.006	-0.185
-427.603	-14.347	0.080	-0.051
-426.588	800.000	0.017	-0.062
-425.573	742.854	0.066	-0.177
-424.559	317.558	0.043	-0.080
-423.544	-200.000	-0.011	-0.264
-422.530	29.698	0.141	0.119
-421.515	40.696	-0.234	0.209
-420.500	-34.223	0.163	-0.089
-419.486	39.823	-0.115	-0.102
-418.471	-2.250	-0.165	-0.115
-417.457	-200.000	-0.041	0.329
-416.442	-200.000	-0.049	-0.229
-415.428	-112.109	-0.260	0.052
-414.413	-20.699	-0.134	0.082
-413.398	-0.452	0.242	-0.170
-412.384	-160.260	-0.330	0.018
-411.369	288.275	-0.062	-0.111
-410.355	-200.000	0.011	-0.369
-409.340	-130.679	0.090	0.012
-408.325	-200.000	0.005	-0.159
-407.311	152.991	-0.229	0.309
-406.296	27.616	-0.306	-0.254
-405.282	122.666	0.157	-0.194
-404.267	-200.000	0.021	-0.291
-403.252	800.000	0.065	0.243
-402.238	-38.716	0.088	0.046
-401.223	-94.536	0.078	0.021
-400.209	-48.453	0.195	-0.093
-399.194	800.000	-0.016	0.056
-398.179	-200.000	0.012	0.068
-397.165	434.384	0.075	-0.161
-396.150	315.880	0.119	-0.222
-395.136	-100.970	-0.136	0.033
-394.121	-200.000	0.030	0.346
-393.106	800.000	0.063	0.261
-392.092	-200.000	-0.001	-0.044
-391.077	78.123	0.130	-0.137
-390.063	-118.172	-0.260	-0.046
-389.048	-54.445	0.196	0.088
-388.033	-69.517	-0.180	0.068
-387.019	-2.810	0.139	-0.096
-386.004	121.399	0.031	0.039
-384.990	-161.995	0.283	-0.014
-383.975	33.230	-0.125	-0.107
-382.960	23.678	-0.126	0.102
-381.946	800.000	0.061	-0.248
-380.931	149.887	0.040	0.054
-379.917	-54.999	0.294	-0.131
-378.902	-176.408	0.150	0.004
-377.888	212.599	0.143	-0.222
-376.873	560.848	-0.146	-0.348
-375.858	20.212	-0.116	-0.092
-374.844	-140.180	-0.259	0.027
-373.829	-7.360	-0.199	0.133
-372.815	326.913	0.116	0.219
-371.800	800.000	0.094	0.276
-370.785	800.000	0.061	-0.246
-369.771	800.000	0.088	0.296
-368.756	-200.000	0.010	-0.163
-367.742	-67.078	0.144	0.056
-366.727	407.970	-0.088	0.184
-365.712	-151.039	-0.196	0.015
-364.698	94.288	0.092	-0.103
-363.683	-200.000	-0.065	-0.297
-362.669	94.370	-0.125	-0.140
-361.654	68.737	0.111	0.113
-360.639	72.108	0.101	-0.104
-359.625	-65.877	-0.191	-0.075
-358.610	-47.287	0.147	0.071
-357.596	299.052	-0.093	-0.170
-356.581	-200.000	0.044	0.307
-355.566	145.773	-0.059	0.078
-354.552	68.593	0.177	0.179
-353.537	73.517	-0.253	-0.262
-352.523	-52.760	0.192	0.087
-351.508	270.326	0.052	-0.089
-350.493	800.000	0.031	-0.119
-349.479	800.000	-0.085	0.260
-348.464	19.014	0.221	0.174
-347.450	639.934	-0.148	0.371
-346.435	-200.000	-0.015	0.121
-345.420	-5.755	0.139	0.094
-344.406	-200.000	-0.032	-0.277
-343.391	-200.000	-0.003	0.287
-342.377	-200.000	0.002	-0.112
-341.362	29.651	0.095	0.080
-340.348	666.244	-0.067	-0.171
-339.333	14.126	0.094	-0.072
-338.318	188.473	0.193	0.285
-337.304	-128.572	0.349	-0.049
-336.289	-60.227	-0.129	0.054
-335.275	301.022	-0.188	-0.343
-334.260	-101.644	0.490	0.117
-333.245	-3.111	0.137	0.094
-332.231	719.544	-0.012	-0.032
-331.216	800.000	-0.087	-0.296
-330.202	67.090	-0.067	-0.067
-329.187	296.416	0.113	-0.204
-328.172	96.172	-0.280	-0.316
-327.158	-139.261	0.511	0.054
-326.143	55.205	0.210	-0.200
-325.129	-83.433	0.159	0.050
-324.114	516.760	-0.064	0.146
-323.099	800.000	0.111	0.322
-322.085	-98.659	-0.222	-0.056
-321.070	-51.718	-0.349	-0.160
-320.056	-26.227	-0.299	0.173
-319.041	800.000	-0.104	0.450
-318.026	-31.059	0.399	-0.222
-317.012	-200.000	0.054	0.404
-315.997	23.603	0.137	-0.111
-314.983	598.763	-0.182	-0.445
-313.968	-200.000	0.001	-0.311
-312.953	29.792	-0.202	-0.170
-311.939	87.371	-0.206	0.225
-310.924	-97.472	-0.094	0.024
-309.910	24.664	0.161	-0.131
-308.895	342.662	-0.185	0.357
-307.880	368.498	-0.011	-0.021
-306.866	-126.865	-0.239	-0.035
-305.851	-135.543	-0.129	0.015
-304.837	109.979	-0.200	-0.236
-303.822	28.220	0.093	-0.077
-302.807	-200.000	0.015	0.088
-301.793	195.576	0.123	-0.184
-300.778	421.239	0.158	-0.334
-299.764	-72.785	-0.088	0.032
-298.749	337.740	-0.067	-0.128
-297.735	88.188	0.094	-0.103
-296.720	-88.025	-0.071	-0.021
-295.705	116.915	0.062	-0.075
-294.691	800.000	0.167	-0.458
-293.676	7.960	0.147	0.108
-292.662	-65.783	-0.420	-0.166
-291.647	-200.000	-0.020	-0.095
-290.632	-82.595	0.385	-0.123
-289.618	335.350	0.109	0.209
-288.603	-147.285	0.078	0.007
-287.589	-20.621	-0.323	0.195
-286.574	-200.000	0.030	0.176
-285.559	-62.830	-0.168	-0.069
-284.545	380.388	0.042	-0.084
-283.530	-200.000	-0.001	-0.185
-282.516	-27.400	-0.291	-0.166
-281.501	-57.087	-0.214	-0.093
-280.486	145.948	-0.182	-0.240
-279.472	-22.108	-0.018	0.011
-278.457	-157.841	-0.173	0.010
-277.443	48.906	0.255	0.236
-276.428	639.004	0.041	-0.103
-275.413	-56.019	0.197	-0.087
-274.399	-200.000	0.003	0.059
-273.384	332.250	-0.084	0.159
-272.370	800.000	0.041	0.162
-271.355	-107.985	0.300	-0.064
-270.340	-200.000	-0.006	0.085
-269.326	-148.720	-0.026	0.002
-268.311	-141.467	0.387	-0.038
-267.297	-15.780	-0.038	0.024
-266.282	520.708	-0.051	0.118
-265.267	-41.646	-0.144	-0.073
-264.253	-104.834	-0.248	-0.056
-263.238	-161.396	0.149	-0.008
-262.224	261.597	0.176	-0.300
-261.209	800.000	-0.063	-0.241
-260.195	145.890	0.089	-0.117
-259.180	85.502	-0.267	0.289
-258.165	-36.950	-0.235	0.124
-257.151	110.611	-0.212	0.251
-256.136	-123.224	-0.209	0.033
-255.122	800.000	0.015	0.052
-254.107	-121.795	0.202	0.033
-253.092	-21.197	-0.329	0.198
-252.078	72.392	-0.206	-0.211
-251.063	758.795	0.020	-0.053
-250.049	20.418	-0.183	-0.145
-249.034	86.254	-0.111	0.121
-248.019	230.976	0.038	0.061
-247.005	43.423	0.119	0.106
-245.990	155.866	-0.162	0.220
-244.976	-36.180	0.289	-0.154
-243.961	-200.000	0.199	0.000
-242.946	304.066	0.059	0.108
-241.932	-200.000	0.034	-0.174
-240.917	800.000	0.038	0.112
-239.903	148.117	0.078	0.103
-238.888	-64.783	-0.261	0.104
-237.873	800.000	-0.018	0.059
-236.859	-197.472	0.194	0.001
-235.844	207.315	-0.050	-0.077
-234.830	194.462	-0.066	-0.099
-233.815	-23.146	0.250	0.148
-232.800	-200.000	-0.043	0.198
-231.786	-85.560	0.194	0.059
-230.771	266.792	-0.063	-0.109
-229.757	-85.353	-0.311	0.095
-228.742	146.167	0.057	0.076
-227.727	-62.221	0.198	-0.081
-226.713	800.000	0.079	0.227
-225.698	-200.000	-0.113	-0.000
-224.684	76.889	0.072	0.076
-223.669	-3.161	-0.215	0.147
-222.655	71.251	0.215	-0.219
-221.640	-200.000	0.017	-0.086
-220.625	382.952	-0.125	0.253
-219.611	174.020	0.219	0.310
-218.596	-200.000	-0.017	-0.253
-217.582	-200.000	-0.046	-0.334
-216.567	-200.000	0.011	0.178
-215.552	100.565	0.101	-0.115
-214.538	122.795	0.142	-0.174
-213.523	-96.451	0.140	-0.036
-212.509	-10.856	0.121	-0.078
-211.494	94.625	0.010	0.011
-210.479	8.266	-0.253	0.186
-209.465	72.280	-0.093	-0.095
-208.450	-112.470	0.253	-0.050
-207.436	668.687	0.090	-0.230
-206.421	-50.039	-0.457	0.212
-205.406	-92.056	0.179	0.050
-204.392	-141.581	-0.500	0.049
-203.377	-94.528	0.297	0.079
-202.363	800.000	0.071	-0.283
-201.348	221.677	0.220	0.347
-200.333	398.355	-0.135	0.278
-199.319	99.866	0.299	-0.340
-198.304	45.808	0.117	0.106
-197.290	800.000	0.083	0.285
-196.275	294.637	0.095	-0.171
-195.260	-200.000	-0.020	0.143
-194.246	-200.000	0.029	-0.246
-193.231	-200.000	0.070	-0.316
-192.217	135.361	0.067	-0.086
-191.202	14.724	0.068	-0.052
-190.187	-66.229	0.259	-0.101
-189.173	-149.311	-0.184	-0.014
-188.158	84.986	-0.062	0.066
-187.144	103.507	-0.217	0.249
-186.129	217.055	-0.056	0.088
-185.114	85.548	0.170	-0.183
-184.100	800.000	0.086	-0.301
-183.085	-107.416	-0.293	0.063
-182.071	42.777	-0.072	0.064
-181.056	-164.840	0.108	0.005
-180.042	1.523	-0.132	-0.093
-179.027	-200.000	-0.002	0.320
-178.012	-108.593	0.312	-0.066
-176.998	800.000	-0.069	-0.216
-175.983	-200.000	-0.067	-0.307
-174.969	-75.778	0.123	-0.043
-173.954	-137.802	-0.192	0.021
-172.939	800.000	0.076	0.276
-171.925	-86.269	-0.158	-0.048
-170.910	188.652	-0.020	-0.029
-169.896	521.861	0.094	-0.217
-168.881	166.602	0.219	-0.305
-167.866	49.489	0.079	0.073
-166.852	-133.756	0.227	-0.028
-165.837	-18.260	-0.227	0.139
-164.823	-200.000	0.021	0.167
-163.808	137.052	0.261	0.334
-162.793	136.695	0.184	0.236
-161.779	12.107	0.273	0.206
-160.764	-138.910	-0.244	-0.026
-159.750	164.380	0.143	-0.198
-158.735	-97.377	-0.204	0.052
-157.720	800.000	-0.070	-0.192
-156.706	800.000	-0.048	0.137
-155.691	-11.679	0.182	-0.117
-154.677	108.216	0.260	0.303
-153.662	-137.443	-0.110	0.012
-152.647	-101.872	0.336	-0.079
-151.633	733.115	0.014	0.035
-150.618	-200.000	0.007	-0.095
-149.604	26.469	0.130	-0.106
-148.589	55.593	0.086	0.082
-147.574	40.798	-0.230	0.203
-146.560	-200.000	0.030	0.156
-145.545	-140.060	0.118	0.012
-144.531	144.222	0.159	0.208
-143.516	-61.097	-0.114	0.047
-142.502	26.438	0.242	0.198
-141.487	1.444	0.253	-0.178
-140.472	154.987	-0.122	0.164
-139.458	508.386	0.085	-0.194
-138.443	103.082	-0.044	-0.050
-137.429	-198.124	0.233	-0.001
-136.414	91.245	0.223	-0.245
-135.399	-200.000	-0.005	0.073
-134.385	-200.000	-0.270	0.001
-133.370	396.765	0.053	-0.108
-132.356	-200.000	-0.003	0.101
-131.341	216.005	-0.257	-0.399
-130.326	-79.933	0.360	-0.118
-129.312	-42.999	0.167	0.083
-128.297	-79.186	0.026	-0.009
-127.283	-200.000	0.106	-0.544
-126.268	-64.128	-0.477	-0.190
-125.253	12.703	-0.192	-0.145
-124.239	212.260	-0.249	-0.384
-123.224	31.495	-0.017	-0.015
-122.210	117.091	0.156	-0.188
-121.195	72.690	-0.146	-0.149
-120.180	20.720	-0.025	-0.020
