DTS Sentinel unit serial number:	SN413079Multiplexer serial number:	ORYXHardware model number:	OX4-SRSoftware version number:	ORYX F/W v4.00 Oryx Data Collector v3.7.2.0data status	okinstallation	princeton_trtdifferential loss correction	single-endedforward channel	channel 1reverse channel	N/Adate	2019/09/15time	17:54:36forward acquisition time	60.00reverse acquisition time	0.00gamma	496.2192k internal	0.2291k external	0.2291temperature offset calibration	0.9932default loss term (dB/km)	0.3790temperature slope calibration	1.0000multiplexer offset coefficient	1.0000multiplexer slope coefficient	1.0000fibre end	0.00T internal ref (°C)	44.81T ext. ref 1 (°C)	6.39T ext. ref 2 (°C)	39.08length (m)	temperature (°C)	Stokes	anti-Stokes-747.200	-90.888	-0.230	-0.068
-746.185	41.586	-0.079	-0.073
-745.171	160.959	0.106	0.151
-744.156	-200.000	0.050	0.239
-743.142	800.000	0.084	0.300
-742.127	197.864	0.247	0.387
-741.112	-200.000	-0.004	-0.144
-740.098	-112.746	0.339	-0.069
-739.083	-1.403	-0.256	-0.185
-738.069	800.000	-0.035	0.120
-737.054	-200.000	-0.004	-0.039
-736.039	-200.000	-0.018	0.087
-735.025	-200.000	-0.041	-0.276
-734.010	800.000	0.064	-0.219
-732.996	-90.350	0.096	0.028
-731.981	-60.637	-0.032	0.014
-730.966	236.220	0.250	0.423
-729.952	318.757	0.088	0.171
-728.937	-63.503	0.063	-0.027
-727.923	-46.588	-0.304	-0.153
-726.908	209.288	-0.068	0.108
-725.894	-200.000	0.012	-0.070
-724.879	567.245	0.045	0.111
-723.864	-56.475	-0.224	-0.102
-722.850	560.452	-0.042	-0.104
-721.835	172.027	-0.072	-0.106
-720.821	-112.506	0.360	-0.073
-719.806	-95.824	0.172	0.047
-718.791	-200.000	0.026	-0.292
-717.777	-27.231	0.057	0.034
-716.762	-138.024	-0.207	-0.024
-715.748	505.468	-0.057	0.134
-714.733	-200.000	-0.057	-0.281
-713.718	-200.000	-0.012	-0.072
-712.704	43.759	0.190	-0.177
-711.689	-36.458	0.439	-0.242
-710.675	800.000	0.112	-0.349
-709.660	101.636	0.265	-0.316
-708.645	800.000	-0.069	0.294
-707.631	800.000	-0.021	-0.062
-706.616	-200.000	-0.051	0.248
-705.602	-99.270	0.135	-0.035
-704.587	74.068	-0.242	0.259
-703.572	-200.000	-0.009	-0.064
-702.558	53.409	0.298	-0.292
-701.543	-15.364	0.241	0.158
-700.529	-200.000	-0.033	-0.157
-699.514	-77.063	-0.152	0.054
-698.499	-127.861	0.159	0.023
-697.485	-200.000	0.108	-0.510
-696.470	-141.367	0.106	0.011
-695.456	-200.000	-0.018	0.177
-694.441	-200.000	-0.013	-0.192
-693.426	-136.987	-0.334	0.039
-692.412	54.315	0.415	0.408
-691.397	-42.891	-0.105	-0.055
-690.383	76.840	-0.151	0.164
-689.368	-87.618	-0.266	-0.082
-688.354	-84.008	-0.274	0.089
-687.339	135.472	-0.015	-0.020
-686.324	453.456	-0.106	0.240
-685.310	-200.000	0.014	0.221
-684.295	738.104	-0.052	0.143
-683.281	800.000	-0.028	-0.084
-682.266	253.568	-0.096	-0.167
-681.251	-11.601	-0.251	-0.169
-680.237	-173.450	-0.246	-0.008
-679.222	-74.214	-0.332	-0.123
-678.208	-26.711	-0.192	-0.115
-677.193	372.816	0.034	0.070
-676.178	86.418	0.210	0.237
-675.164	-200.000	-0.034	-0.167
-674.149	-131.522	-0.123	-0.016
-673.135	-150.475	-0.324	-0.025
-672.120	-108.149	-0.125	0.028
-671.105	17.178	-0.233	0.189
-670.091	25.227	-0.106	-0.090
-669.076	44.624	-0.150	0.141
-668.062	445.142	0.124	0.278
-667.047	-133.548	0.226	0.029
-666.032	586.411	0.042	0.106
-665.018	402.634	-0.068	-0.147
-664.003	-71.804	-0.163	-0.062
-662.989	-46.969	-0.070	0.035
-661.974	35.697	-0.055	-0.049
-660.959	59.900	-0.098	-0.099
-659.945	257.718	0.060	-0.105
-658.930	-118.267	0.208	-0.038
-657.916	615.043	0.022	-0.056
-656.901	-200.000	-0.039	-0.179
-655.886	90.396	-0.231	0.264
-654.872	472.444	0.048	0.111
-653.857	512.512	-0.056	-0.132
-652.843	130.972	0.065	-0.085
-651.828	247.907	-0.167	0.289
-650.814	-125.212	0.287	0.045
-649.799	800.000	0.104	0.394
-648.784	152.028	0.094	-0.131
-647.770	-58.161	0.206	0.092
-646.755	-33.476	0.399	-0.225
-645.741	-200.000	0.099	0.476
-644.726	-8.579	-0.194	-0.133
-643.711	-151.309	0.342	-0.026
-642.697	-25.001	-0.084	0.051
-641.682	-51.697	-0.064	-0.031
-640.668	-62.827	0.385	0.162
-639.653	707.251	-0.127	-0.343
-638.638	-77.801	0.192	-0.068
-637.624	-105.616	-0.046	0.011
-636.609	-200.000	0.011	-0.321
-635.595	177.288	0.202	0.300
-634.580	-200.000	-0.049	0.350
-633.565	-104.674	0.122	-0.029
-632.551	65.105	-0.181	0.186
-631.536	62.856	0.075	0.076
-630.522	190.495	-0.195	0.299
-629.507	-52.724	-0.246	0.116
-628.492	800.000	-0.106	-0.359
-627.478	-62.145	-0.137	0.058
-626.463	-72.015	0.190	0.072
-625.449	159.096	0.087	0.123
-624.434	-143.837	-0.181	-0.017
-623.419	-200.000	0.007	0.255
-622.405	-90.169	-0.174	-0.051
-621.390	117.860	0.128	-0.160
-620.376	198.998	0.207	-0.323
-619.361	88.858	-0.034	0.039
-618.346	-22.813	0.139	-0.085
-617.332	-110.351	-0.086	0.018
-616.317	-49.935	-0.077	-0.037
-615.303	-40.308	0.083	0.044
-614.288	190.181	-0.050	0.077
-613.273	669.560	0.079	0.209
-612.259	-3.083	-0.088	-0.062
-611.244	-104.063	-0.093	-0.022
-610.230	1.009	-0.174	0.127
-609.215	227.917	-0.202	-0.334
-608.201	107.616	0.257	-0.312
-607.186	-42.617	0.154	0.080
-606.171	12.337	-0.251	-0.197
-605.157	800.000	-0.045	0.130
-604.142	-37.184	0.269	0.147
-603.128	271.685	0.292	0.524
-602.113	-131.928	0.304	0.040
-601.098	105.433	0.148	-0.178
-600.084	72.105	0.123	-0.130
-599.069	-200.000	-0.018	0.121
-598.055	-180.493	0.314	-0.007
-597.040	-138.504	0.281	-0.031
-596.025	-117.294	0.555	-0.103
-595.011	-84.887	0.098	0.031
-593.996	80.534	0.121	-0.133
-592.982	68.605	-0.205	-0.215
-591.967	54.238	0.146	0.143
-590.952	800.000	0.140	0.428
-589.938	53.520	0.235	0.229
-588.923	348.516	-0.205	-0.411
-587.909	-200.000	-0.057	-0.383
-586.894	-157.878	0.458	-0.028
-585.879	-50.058	0.240	0.116
-584.865	-200.000	0.015	0.098
-583.850	-124.501	-0.083	-0.013
-582.836	-85.814	-0.417	-0.131
-581.821	86.271	-0.109	-0.122
-580.806	56.898	0.208	0.207
-579.792	290.069	0.096	0.178
-578.777	-56.015	-0.195	-0.089
-577.763	-200.000	-0.001	-0.120
-576.748	93.668	-0.188	-0.216
-575.733	-12.846	-0.072	0.048
-574.719	34.847	0.154	0.137
-573.704	-16.492	0.399	-0.257
-572.690	-200.000	0.040	-0.341
-571.675	800.000	-0.045	0.174
-570.661	450.914	-0.116	-0.261
-569.646	-103.897	-0.117	0.028
-568.631	738.943	0.111	-0.303
-567.617	-46.561	-0.340	-0.170
-566.602	-90.253	0.074	0.022
-565.588	-93.361	-0.320	0.090
-564.573	800.000	-0.069	0.248
-563.558	67.437	0.291	0.302
-562.544	-28.443	0.051	0.030
-561.529	-11.589	-0.169	-0.113
-560.515	-34.222	-0.295	0.164
-559.500	79.939	-0.092	0.100
-558.485	17.953	-0.048	-0.039
-557.471	-62.207	-0.125	0.053
-556.456	336.369	-0.184	0.362
-555.442	430.367	-0.073	-0.160
-554.427	272.579	-0.110	-0.198
-553.412	-200.000	0.046	-0.236
-552.398	38.456	-0.088	-0.080
-551.383	-200.000	0.024	-0.152
-550.369	275.000	0.195	-0.350
-549.354	-38.449	0.082	-0.044
-548.339	-200.000	-0.046	-0.485
-547.325	124.461	0.264	0.337
-546.310	2.066	-0.126	0.092
-545.296	-38.611	0.157	0.084
-544.281	-200.000	-0.004	-0.405
-543.266	-28.133	0.036	-0.021
-542.252	-55.045	-0.072	-0.033
-541.237	-200.000	-0.019	0.098
-540.223	-96.309	-0.257	-0.069
-539.208	-49.766	-0.065	-0.032
-538.193	-46.809	-0.259	0.129
-537.179	291.882	-0.092	-0.170
-536.164	256.736	-0.197	-0.344
-535.150	800.000	0.058	-0.217
-534.135	38.978	0.253	0.229
-533.121	-200.000	-0.019	0.132
-532.106	73.523	-0.368	0.391
-531.091	-200.000	0.019	0.096
-530.077	288.146	-0.097	-0.179
-529.062	-119.509	0.184	-0.032
-528.048	-45.693	-0.220	0.110
-527.033	156.967	0.136	0.190
-526.018	-39.555	-0.164	0.087
-525.004	-140.110	-0.108	-0.012
-523.989	-200.000	0.026	-0.156
-522.975	255.508	-0.048	0.084
-521.960	-26.587	0.190	0.113
-520.945	-161.013	-0.103	-0.005
-519.931	206.410	0.055	0.086
-518.916	-135.085	-0.221	-0.027
-517.902	-22.630	0.116	-0.071
-516.887	-10.881	-0.086	-0.057
-515.872	-128.890	-0.059	-0.008
-514.858	194.050	-0.140	-0.215
-513.843	489.510	-0.098	0.228
-512.829	162.725	-0.235	-0.335
-511.814	56.881	-0.049	0.048
-510.799	368.531	-0.034	0.070
-509.785	290.784	0.201	-0.370
-508.770	-200.000	0.004	0.079
-507.756	-200.000	0.009	0.123
-506.741	800.000	-0.035	0.136
-505.726	-158.047	0.247	-0.015
-504.712	338.358	0.025	-0.049
-503.697	339.788	-0.119	-0.234
-502.683	-92.280	-0.334	-0.096
-501.668	-200.000	0.022	-0.127
-500.653	-105.669	-0.341	0.078
-499.639	-157.793	-0.201	0.012
-498.624	800.000	-0.043	0.159
-497.610	-10.542	-0.074	0.050
-496.595	153.828	0.100	0.139
-495.581	-25.752	-0.186	-0.111
-494.566	138.369	-0.077	-0.103
-493.551	800.000	0.061	-0.247
-492.537	81.247	0.190	0.208
-491.522	800.000	0.018	0.060
-490.508	685.454	0.058	-0.153
-489.493	3.155	-0.219	0.161
-488.478	-200.000	0.009	-0.234
-487.464	567.728	-0.083	-0.205
-486.449	162.545	0.125	0.178
-485.435	109.070	0.151	0.183
-484.420	-147.298	0.071	0.006
-483.405	-31.845	0.233	0.132
-482.391	73.784	0.147	0.156
-481.376	-1.222	-0.160	0.114
-480.362	-200.000	0.029	0.344
-479.347	-109.987	-0.351	0.074
-478.332	105.428	0.250	-0.299
-477.318	-97.167	-0.234	-0.062
-476.303	-200.000	0.031	-0.209
-475.289	-43.907	0.266	0.136
-474.274	11.436	-0.266	-0.206
-473.259	-200.000	-0.035	0.212
-472.245	80.855	0.148	0.162
-471.230	-56.538	0.126	0.057
-470.216	61.491	0.076	0.077
-469.201	76.487	-0.029	0.031
-468.186	149.638	-0.107	-0.147
-467.172	77.818	0.086	-0.093
-466.157	9.977	-0.214	0.164
-465.143	55.543	-0.096	-0.094
-464.128	-82.982	0.341	0.111
-463.113	4.095	0.108	0.080
-462.099	-63.536	-0.209	-0.087
-461.084	-111.766	0.098	-0.020
-460.070	198.017	0.130	0.200
-459.055	-6.328	0.183	-0.127
-458.040	-200.000	0.030	-0.381
-457.026	103.211	0.146	0.174
-456.011	-98.661	0.051	0.013
-454.997	0.872	0.295	0.214
-453.982	-200.000	0.019	0.176
-452.968	-200.000	0.012	0.139
-451.953	-200.000	-0.029	-0.319
-450.938	-42.150	0.114	-0.059
-449.924	14.303	0.288	-0.228
-448.909	202.591	0.118	-0.184
-447.895	800.000	0.005	0.017
-446.880	-134.580	-0.144	0.018
-445.865	33.356	-0.032	-0.028
-444.851	-200.000	0.018	0.279
-443.836	-47.329	0.125	-0.062
-442.822	72.425	-0.262	0.277
-441.807	-150.883	-0.187	-0.014
-440.792	189.797	-0.131	-0.198
-439.778	27.552	-0.164	0.139
-438.763	-200.000	-0.007	0.053
-437.749	-5.899	0.193	0.134
-436.734	-179.181	0.083	-0.002
-435.719	-69.436	0.137	-0.053
-434.705	-200.000	0.011	-0.377
-433.690	-200.000	-0.008	-0.229
-432.676	92.293	-0.103	-0.118
-431.661	205.595	0.107	-0.167
-430.646	800.000	0.074	-0.319
-429.632	-200.000	-0.041	-0.299
-428.617	283.329	-0.102	0.185
-427.603	486.454	-0.107	0.246
-426.588	-124.924	0.135	-0.021
-425.573	82.706	0.123	0.135
-424.559	-60.359	0.073	0.031
-423.544	-70.954	-0.163	-0.062
-422.530	-200.000	0.042	0.212
-421.515	-82.233	0.223	0.074
-420.500	-98.217	0.101	-0.026
-419.486	-15.983	0.119	0.076
-418.471	800.000	-0.126	0.409
-417.457	-200.000	0.018	0.170
-416.442	-12.463	-0.316	-0.209
-415.428	-80.681	-0.264	-0.089
-414.413	-15.137	0.139	-0.090
-413.398	163.690	-0.046	0.065
-412.384	274.352	0.034	0.060
-411.369	-35.044	-0.214	-0.118
-410.355	-31.019	-0.323	-0.184
-409.340	492.236	-0.126	0.292
-408.325	103.573	0.163	-0.193
-407.311	648.677	-0.151	-0.389
-406.296	-200.000	-0.059	-0.394
-405.282	-121.070	0.448	-0.076
-404.267	45.704	0.316	-0.295
-403.252	-45.992	0.105	-0.052
-402.238	-199.424	-0.038	0.000
-401.223	217.811	0.088	-0.141
-400.209	-171.070	-0.170	0.006
-399.194	-30.335	-0.056	-0.032
-398.179	142.870	0.079	0.106
-397.165	-200.000	-0.020	-0.318
-396.150	-197.357	0.044	0.000
-395.136	800.000	-0.074	-0.209
-394.121	-52.195	0.249	-0.116
-393.106	466.050	-0.056	-0.126
-392.092	223.566	0.136	0.221
-391.077	800.000	0.050	0.163
-390.063	-113.503	-0.287	-0.057
-389.048	-156.175	-0.268	-0.017
-388.033	82.805	0.035	-0.038
-387.019	398.996	0.102	-0.216
-386.004	-11.864	-0.175	0.116
-384.990	-58.187	-0.233	0.103
-383.975	-127.974	0.172	-0.025
-382.960	-200.000	-0.056	0.293
-381.946	800.000	0.023	0.074
-380.931	-9.277	0.292	-0.197
-379.917	18.153	-0.150	-0.121
-378.902	-56.806	0.024	-0.011
-377.888	800.000	-0.066	-0.248
-376.873	27.802	-0.239	-0.203
-375.858	137.687	0.174	-0.230
-374.844	-200.000	-0.060	0.347
-373.829	-27.868	-0.250	0.146
-372.815	800.000	-0.022	0.082
-371.800	-68.777	0.210	-0.082
-370.785	-110.077	-0.134	0.028
-369.771	800.000	0.025	0.104
-368.756	86.099	-0.234	0.260
-367.742	179.252	0.106	0.156
-366.727	138.402	0.117	0.155
-365.712	-127.000	-0.318	0.047
-364.698	-31.919	-0.138	-0.078
-363.683	-131.954	0.048	-0.006
-362.669	71.898	0.155	0.163
-361.654	-16.380	0.227	-0.145
-360.639	-111.377	0.104	-0.021
-359.625	610.324	0.068	0.170
-358.610	-200.000	-0.022	0.147
-357.596	-157.607	-0.325	0.020
-356.581	-68.831	-0.251	-0.098
-355.566	149.042	-0.139	-0.190
-354.552	-131.695	-0.152	0.020
-353.537	800.000	0.056	-0.180
-352.523	-200.000	-0.011	0.147
-351.508	-37.727	-0.264	0.142
-350.493	223.556	-0.126	0.205
-349.479	-200.000	-0.015	0.098
-348.464	72.139	0.152	0.160
-347.450	-134.797	0.188	-0.023
-346.435	-42.836	0.093	0.048
-345.420	-19.731	-0.080	-0.050
-344.406	-200.000	-0.044	-0.296
-343.391	211.799	-0.176	-0.280
-342.377	479.413	-0.053	0.122
-341.362	800.000	0.080	0.288
-340.348	302.283	0.122	0.227
-339.333	-84.125	-0.561	-0.179
-338.318	-200.000	0.063	-0.302
-337.304	-34.613	-0.243	-0.134
-336.289	205.958	-0.180	0.282
-335.275	800.000	0.080	0.226
-334.260	-75.674	-0.187	0.067
-333.245	-68.594	0.129	0.050
-332.231	-200.000	-0.021	0.268
-331.216	-191.426	-0.158	0.002
-330.202	679.692	-0.074	0.193
-329.187	420.915	0.084	-0.182
-328.172	-43.416	0.101	0.052
-327.158	-128.774	-0.062	0.009
-326.143	114.500	-0.143	-0.175
-325.129	-200.000	-0.029	-0.139
-324.114	-200.000	-0.067	0.348
-323.099	665.742	-0.118	-0.307
-322.085	800.000	0.060	-0.172
-321.070	212.454	0.204	-0.324
-320.056	-141.114	-0.160	0.016
-319.041	447.068	-0.101	0.224
-318.026	-57.850	-0.336	0.148
-317.012	-12.280	-0.095	0.062
-315.997	-200.000	-0.003	0.158
-314.983	119.636	0.078	0.098
-313.968	16.224	0.178	-0.141
-312.953	800.000	0.056	0.219
-311.939	-43.880	0.233	0.118
-310.924	196.663	0.078	0.120
-309.910	800.000	-0.067	-0.199
-308.895	-99.465	0.213	0.054
-307.880	800.000	0.059	0.171
-306.866	-149.736	-0.076	-0.006
-305.851	-189.760	-0.135	0.002
-304.837	800.000	0.100	0.305
-303.822	164.037	-0.284	0.403
-302.807	-4.862	0.161	0.112
-301.793	-76.301	0.484	0.172
-300.778	-162.389	-0.183	-0.009
-299.764	-32.867	0.326	-0.182
-298.749	130.867	-0.194	-0.251
-297.735	-33.327	-0.356	0.198
-296.720	73.121	-0.025	0.026
-295.705	-200.000	-0.009	0.048
-294.691	34.707	0.279	0.246
-293.676	-30.200	-0.153	0.087
-292.662	13.879	0.057	0.045
-291.647	-110.511	0.082	-0.017
-290.632	-50.848	0.175	-0.083
-289.618	-146.725	-0.339	0.029
-288.603	74.059	0.107	-0.113
-287.589	81.507	0.246	0.268
-286.574	-130.183	0.267	0.037
-285.559	257.273	0.105	0.182
-284.545	-45.568	-0.173	0.086
-283.530	93.410	0.117	-0.133
-282.516	-189.399	0.474	-0.006
-281.501	800.000	0.063	-0.222
-280.486	800.000	-0.048	0.164
-279.472	-55.860	-0.343	-0.154
-278.457	800.000	-0.035	0.142
-277.443	-144.611	0.158	0.015
-276.428	-116.181	0.255	-0.048
-275.413	119.468	0.090	0.112
-274.399	462.589	0.166	-0.373
-273.384	146.037	-0.152	-0.205
-272.370	184.128	-0.045	0.067
-271.355	800.000	-0.102	0.344
-270.340	99.469	0.198	0.230
-269.326	-200.000	-0.091	0.477
-268.311	592.454	-0.131	0.325
-267.297	-200.000	-0.004	-0.033
-266.282	340.417	-0.025	0.049
-265.267	800.000	-0.080	-0.267
-264.253	361.866	0.097	-0.196
-263.238	15.456	-0.163	-0.128
-262.224	800.000	0.078	0.256
-261.209	-74.843	-0.223	0.080
-260.195	199.376	0.143	-0.220
-259.180	-200.000	0.012	-0.062
-258.165	102.506	0.237	0.279
-257.151	-77.745	0.626	-0.217
-256.136	-176.252	0.371	-0.010
-255.122	-200.000	-0.008	-0.130
-254.107	67.434	0.111	-0.114
-253.092	-99.742	0.143	0.036
-252.078	-200.000	-0.050	0.255
-251.063	86.496	0.254	-0.282
-250.049	9.689	0.041	0.031
-249.034	-134.149	0.311	-0.039
-248.019	48.154	-0.043	0.041
-247.005	26.094	-0.066	-0.055
-245.990	18.023	0.089	-0.071
-244.976	-94.526	-0.297	-0.081
-243.961	-77.769	0.018	-0.006
-242.946	217.900	0.145	-0.232
-241.932	-138.851	0.183	-0.020
-240.917	40.311	0.148	-0.134
-239.903	-161.115	-0.322	-0.017
-238.888	-145.992	0.292	-0.026
-237.873	77.717	-0.269	0.287
-236.859	227.494	-0.101	0.165
-235.844	-200.000	-0.010	0.068
-234.830	-60.642	-0.080	-0.034
-233.815	145.408	0.285	0.383
-232.800	24.456	0.068	0.057
-231.786	-200.000	-0.023	0.156
-230.771	277.667	0.067	-0.121
-229.757	56.037	0.080	-0.078
-228.742	-93.644	-0.354	-0.098
-227.727	-143.605	-0.277	0.026
-226.713	351.794	-0.163	-0.324
-225.698	-24.785	-0.156	0.093
-224.684	-189.055	-0.024	0.000
-223.669	-82.572	0.231	0.075
-222.655	-200.000	0.004	-0.143
-221.640	-69.063	-0.153	-0.059
-220.625	156.856	0.012	-0.016
-219.611	395.050	-0.079	0.165
-218.596	800.000	0.050	0.145
-217.582	-200.000	-0.024	0.439
-216.567	-136.269	-0.186	0.022
-215.552	-148.884	0.310	-0.025
-214.538	-200.000	-0.032	0.301
-213.523	-200.000	-0.064	-0.301
-212.509	4.003	0.067	0.049
-211.494	211.254	0.143	0.225
-210.479	-200.000	-0.021	-0.365
-209.465	-83.639	0.194	-0.062
-208.450	800.000	-0.074	0.233
-207.436	-44.645	-0.297	0.149
-206.421	-65.165	-0.370	-0.149
-205.406	385.901	-0.096	-0.198
-204.392	680.116	0.100	-0.261
-203.377	800.000	-0.084	0.316
-202.363	800.000	0.025	-0.076
-201.348	800.000	-0.117	-0.345
-200.333	-56.191	-0.288	-0.128
-199.319	-0.513	-0.124	-0.088
-198.304	42.198	-0.119	0.108
-197.290	13.654	-0.238	0.185
-196.275	-3.724	0.259	0.180
-195.260	-200.000	-0.005	-0.181
-194.246	-82.670	0.070	-0.023
-193.231	-34.384	-0.123	0.068
-192.217	261.480	-0.168	0.292
-191.202	800.000	-0.065	-0.211
-190.187	800.000	-0.086	0.254
-189.173	800.000	-0.094	0.270
-188.158	-14.200	-0.211	-0.137
-187.144	94.121	0.034	-0.039
-186.129	-200.000	-0.015	0.108
-185.114	-107.614	-0.094	-0.021
-184.100	-17.810	0.192	-0.121
-183.085	-25.325	0.045	-0.027
-182.071	312.256	0.128	0.240
-181.056	-77.681	0.234	-0.081
-180.042	371.866	-0.055	-0.112
-179.027	-144.264	0.127	-0.012
-178.012	-200.000	-0.045	0.288
-176.998	88.554	0.208	0.231
-175.983	-131.548	-0.377	0.050
-174.969	451.862	0.161	-0.356
-173.954	-200.000	0.029	-0.462
-172.939	800.000	-0.139	-0.495
-171.925	347.203	0.022	0.044
-170.910	-103.769	-0.384	-0.090
-169.896	-200.000	-0.003	0.060
-168.881	-80.486	-0.271	-0.090
-167.866	800.000	0.050	0.142
-166.852	-134.207	0.134	-0.017
-165.837	-113.280	-0.078	0.015
-164.823	15.778	0.065	0.051
-163.808	365.380	-0.132	0.267
-162.793	31.493	-0.341	-0.293
-161.779	-32.466	0.310	0.173
-160.764	-75.625	0.320	-0.114
-159.750	-67.879	0.119	0.046
-158.735	800.000	-0.039	0.163
-157.720	-9.741	0.358	-0.238
-156.706	-200.000	-0.067	-0.420
-155.691	-93.787	-0.253	-0.070
-154.677	-200.000	-0.028	-0.231
-153.662	-130.544	-0.274	-0.037
-152.647	227.739	0.134	-0.218
-151.633	-0.264	0.310	0.220
-150.618	50.939	0.019	-0.018
-149.604	36.554	-0.187	-0.165
-148.589	-91.277	0.269	-0.077
-147.574	-153.228	0.569	-0.040
-146.560	128.674	0.093	0.119
-145.545	-133.805	0.126	-0.016
-144.531	41.971	0.205	0.186
-143.516	-14.861	0.098	0.063
-142.502	-35.354	0.360	-0.196
-141.487	-200.000	0.011	0.098
-140.472	229.566	0.182	-0.298
-139.458	-33.846	-0.217	0.119
-138.443	89.869	0.120	0.134
-137.429	-200.000	0.021	0.104
-136.414	-7.607	-0.173	0.117
-135.399	314.876	-0.141	0.266
-134.385	161.187	0.149	-0.208
-133.370	800.000	-0.045	-0.184
-132.356	174.272	0.137	0.198
-131.341	4.653	-0.244	0.179
-130.326	49.449	0.115	0.108
-129.312	-10.697	0.169	0.112
-128.297	-55.446	-0.229	0.103
-127.283	-85.132	-0.152	0.048
-126.268	-200.000	0.051	-0.233
-125.253	-200.000	0.049	0.317
-124.239	-88.032	0.185	-0.055
-123.224	-23.772	0.097	0.058
-122.210	191.536	0.170	-0.256
-121.195	91.185	-0.131	0.147
