DTS Sentinel unit serial number:	SN413079Multiplexer serial number:	ORYXHardware model number:	OX4-SRSoftware version number:	ORYX F/W v4.00 Oryx Data Collector v3.7.2.0data status	okinstallation	princeton_trtdifferential loss correction	single-endedforward channel	channel 1reverse channel	N/Adate	2019/09/11time	22:52:11forward acquisition time	60.00reverse acquisition time	0.00gamma	496.2192k internal	0.2316k external	0.2316temperature offset calibration	1.0062default loss term (dB/km)	0.3790temperature slope calibration	1.0000multiplexer offset coefficient	1.0000multiplexer slope coefficient	1.0000fibre end	0.00T internal ref (°C)	34.69T ext. ref 1 (°C)	1.84T ext. ref 2 (°C)	29.42length (m)	temperature (°C)	Stokes	anti-Stokes-747.200	800.000	-0.104	-0.408
-746.185	800.000	0.089	0.288
-745.171	-200.000	-0.026	0.261
-744.156	-200.000	-0.015	0.157
-743.142	7.050	0.241	0.182
-742.127	73.247	-0.168	0.178
-741.112	1.917	0.158	0.115
-740.098	-39.066	-0.362	0.193
-739.083	398.165	-0.006	-0.012
-738.069	5.576	0.283	0.212
-737.054	-25.443	-0.347	-0.208
-736.039	-165.951	-0.263	-0.011
-735.025	408.783	0.069	-0.147
-734.010	-47.315	-0.287	0.142
-732.996	-97.669	0.204	0.054
-731.981	-1.218	-0.313	0.224
-730.966	-121.698	-0.327	-0.055
-729.952	-138.903	0.166	-0.018
-728.937	-6.589	-0.310	0.214
-727.923	153.941	-0.103	0.143
-726.908	-105.791	0.156	0.036
-725.894	99.123	0.120	0.141
-724.879	52.540	-0.134	0.130
-723.864	800.000	-0.086	-0.297
-722.850	50.663	0.247	-0.237
-721.835	127.785	0.028	0.036
-720.821	-101.273	-0.235	0.058
-719.806	-42.929	-0.350	0.180
-718.791	-200.000	0.009	0.184
-717.777	-200.000	0.010	-0.452
-716.762	-63.585	0.079	0.033
-715.748	-30.005	-0.086	-0.050
-714.733	668.905	0.228	-0.598
-713.718	487.139	-0.066	0.152
-712.704	-200.000	0.089	0.428
-711.689	800.000	0.048	0.174
-710.675	87.695	0.127	0.142
-709.660	19.528	0.249	0.203
-708.645	145.168	-0.113	-0.152
-707.631	134.745	0.197	-0.259
-706.616	-200.000	0.001	-0.087
-705.602	-141.846	-0.317	0.032
-704.587	224.087	-0.154	0.251
-703.572	65.540	0.096	0.098
-702.558	199.618	-0.105	-0.163
-701.543	736.231	0.188	-0.509
-700.529	313.705	0.125	-0.238
-699.514	800.000	-0.068	0.263
-698.499	-34.149	-0.307	0.170
-697.485	193.442	0.136	0.208
-696.470	21.054	0.259	0.212
-695.456	101.504	-0.036	0.042
-694.441	-25.538	0.173	-0.103
-693.426	330.312	0.103	0.201
-692.412	199.078	0.050	0.078
-691.397	167.340	-0.208	0.299
-690.383	93.393	-0.178	-0.204
-689.368	-38.828	0.185	0.098
-688.354	49.481	-0.278	-0.265
-687.339	-200.000	-0.022	-0.514
-686.324	109.306	0.147	0.178
-685.310	-84.074	-0.225	0.072
-684.295	-96.291	0.233	0.062
-683.281	-24.901	0.086	-0.052
-682.266	-100.835	0.511	-0.127
-681.251	64.380	0.058	-0.059
-680.237	-26.185	-0.080	0.047
-679.222	-200.000	-0.000	0.201
-678.208	-5.960	-0.235	-0.162
-677.193	106.466	-0.047	0.056
-676.178	94.344	-0.151	-0.173
-675.164	139.891	-0.247	-0.328
-674.149	-48.300	0.129	-0.063
-673.135	-200.000	0.010	0.139
-672.120	-33.597	0.292	0.163
-671.105	87.192	-0.103	0.115
-670.091	-32.354	-0.182	-0.103
-669.076	-39.661	0.211	0.111
-668.062	-107.341	-0.218	0.048
-667.047	-57.301	0.238	0.106
-666.032	254.991	-0.145	-0.251
-665.018	-121.420	0.217	0.037
-664.003	-164.989	0.141	-0.006
-662.989	800.000	0.092	0.285
-661.974	-51.568	0.127	0.060
-660.959	465.457	-0.120	0.270
-659.945	-151.523	-0.325	-0.024
-658.930	679.314	0.081	-0.214
-657.916	-70.598	0.114	-0.043
-656.901	102.841	0.110	0.131
-655.886	174.094	0.044	0.065
-654.872	36.346	0.133	0.118
-653.857	-200.000	-0.061	-0.410
-652.843	-19.010	0.113	0.071
-651.828	-82.262	0.390	-0.128
-650.814	-5.575	0.116	-0.080
-649.799	23.126	-0.139	0.115
-648.784	-200.000	-0.033	-0.474
-647.770	210.687	-0.146	0.231
-646.755	-26.084	0.143	-0.085
-645.741	-104.331	-0.089	-0.021
-644.726	-200.000	0.004	-0.182
-643.711	800.000	0.073	-0.242
-642.697	-81.826	0.327	-0.108
-641.682	-78.402	0.289	0.100
-640.668	-49.628	0.228	0.109
-639.653	-110.297	0.230	0.048
-638.638	-17.697	0.197	-0.125
-637.624	211.965	-0.028	-0.044
-636.609	243.876	0.202	0.342
-635.595	-200.000	-0.034	0.249
-634.580	23.583	0.117	0.097
-633.565	-98.174	-0.281	0.073
-632.551	220.617	0.190	0.308
-631.536	7.333	0.260	0.196
-630.522	-125.839	-0.106	-0.016
-629.507	429.639	-0.037	0.080
-628.492	671.956	-0.112	-0.293
-627.478	251.796	0.125	-0.214
-626.463	-200.000	0.011	-0.133
-625.449	421.598	-0.020	-0.043
-624.434	169.472	0.094	-0.136
-623.419	-25.732	-0.208	-0.123
-622.405	800.000	0.047	0.147
-621.390	-28.607	-0.676	-0.392
-620.376	153.929	0.117	-0.162
-619.361	-200.000	-0.072	0.324
-618.346	-107.254	-0.392	-0.087
-617.332	484.845	0.088	0.203
-616.317	-118.979	-0.225	0.040
-615.303	-200.000	-0.024	-0.140
-614.288	-200.000	0.013	-0.062
-613.273	151.756	-0.076	-0.104
-612.259	356.843	-0.142	0.286
-611.244	-14.461	0.076	-0.049
-610.230	-56.476	0.146	0.065
-609.215	-200.000	0.035	0.192
-608.201	249.053	-0.149	-0.255
-607.186	800.000	-0.081	-0.249
-606.171	-65.725	-0.185	-0.075
-605.157	-74.245	0.432	-0.157
-604.142	-200.000	-0.061	0.273
-603.128	-29.637	0.200	-0.115
-602.113	63.863	-0.178	-0.181
-601.098	-169.767	-0.192	-0.007
-600.084	-14.300	0.261	0.170
-599.069	168.306	-0.049	-0.071
-598.055	671.660	-0.054	0.141
-597.040	-10.124	0.172	0.115
-596.025	-154.803	0.195	-0.013
-595.011	53.943	0.038	0.037
-593.996	264.036	-0.071	0.124
-592.982	16.029	0.152	0.120
-591.967	-200.000	-0.070	0.311
-590.952	-200.000	0.013	0.074
-589.938	21.794	0.320	-0.262
-588.923	-200.000	-0.016	-0.233
-587.909	-200.000	-0.031	-0.206
-586.894	292.251	0.016	-0.029
-585.879	595.342	0.093	-0.233
-584.865	27.306	-0.208	-0.176
-583.850	-11.480	-0.388	-0.257
-582.836	-111.215	0.248	0.051
-581.821	153.190	-0.264	0.364
-580.806	800.000	-0.022	-0.075
-579.792	-9.994	0.251	0.168
-578.777	800.000	0.104	0.336
-577.763	-19.983	0.083	-0.051
-576.748	-200.000	-0.004	-0.283
-575.733	85.811	-0.135	0.150
-574.719	-71.405	-0.100	-0.038
-573.704	542.158	-0.174	-0.417
-572.690	24.696	0.322	0.268
-571.675	800.000	-0.037	-0.136
-570.661	-130.680	0.179	-0.024
-569.646	80.532	-0.269	-0.292
-568.631	-117.890	-0.352	-0.063
-567.617	-187.273	-0.328	0.004
-566.602	-168.378	-0.268	-0.010
-565.588	23.750	0.240	-0.198
-564.573	-200.000	-0.032	0.247
-563.558	-200.000	0.066	0.303
-562.544	-107.050	-0.180	-0.040
-561.529	293.250	-0.202	0.370
-560.515	800.000	-0.019	0.062
-559.500	-58.200	-0.211	-0.092
-558.485	265.891	0.077	0.134
-557.471	88.097	-0.070	-0.078
-556.456	-95.284	-0.120	0.032
-555.442	-11.831	-0.249	-0.164
-554.427	800.000	0.068	0.287
-553.412	-98.363	-0.235	-0.060
-552.398	140.711	-0.161	-0.213
-551.383	250.706	-0.111	0.190
-550.369	-100.016	0.453	-0.113
-549.354	-200.000	-0.004	0.332
-548.339	800.000	0.028	-0.097
-547.325	-139.848	-0.120	-0.013
-546.310	125.890	0.102	0.130
-545.296	-160.578	-0.284	-0.015
-544.281	-200.000	0.000	0.187
-543.266	-74.651	0.251	-0.091
-542.252	465.844	0.167	0.376
-541.237	-114.250	-0.083	0.016
-540.223	-108.306	0.315	0.068
-539.208	-68.474	0.164	-0.064
-538.193	-69.427	0.148	-0.057
-537.179	205.918	0.065	-0.102
-536.164	15.381	-0.030	0.024
-535.150	-59.193	0.202	-0.088
-534.135	224.982	-0.076	-0.123
-533.121	275.682	-0.081	-0.144
-532.106	27.736	0.086	0.073
-531.091	-36.197	0.151	0.082
-530.077	-22.880	-0.259	0.157
-529.062	-200.000	0.026	0.317
-528.048	729.287	-0.041	-0.110
-527.033	271.722	0.136	0.240
-526.018	-162.552	-0.290	-0.014
-525.004	-200.000	-0.007	-0.230
-523.989	-157.632	-0.146	-0.009
-522.975	33.451	0.175	0.152
-521.960	383.633	0.246	-0.507
-520.945	800.000	-0.104	-0.326
-519.931	-200.000	-0.021	-0.185
-518.916	-200.000	0.026	0.178
-517.902	250.461	-0.166	-0.283
-516.887	158.952	-0.057	-0.079
-515.872	800.000	-0.050	0.150
-514.858	86.895	0.158	0.175
-513.843	360.835	-0.153	0.309
-512.829	100.636	-0.097	-0.113
-511.814	800.000	-0.066	0.234
-510.799	-200.000	0.024	0.258
-509.785	-153.881	0.210	0.014
-508.770	124.573	-0.135	0.170
-507.756	58.739	0.066	0.065
-506.741	800.000	0.125	0.378
-505.726	51.123	0.038	-0.036
-504.712	-166.073	-0.420	-0.018
-503.697	106.182	-0.292	-0.348
-502.683	800.000	0.027	0.090
-501.668	274.126	0.142	0.253
-500.653	87.202	0.174	-0.193
-499.639	292.946	-0.032	0.059
-498.624	114.798	-0.099	0.121
-497.610	-186.413	-0.248	0.004
-496.595	205.039	0.182	-0.284
-495.581	-70.099	-0.169	0.064
-494.566	-145.242	0.205	0.019
-493.551	107.305	-0.114	-0.136
-492.537	382.788	0.154	0.317
-491.522	528.468	0.052	-0.122
-490.508	97.863	-0.180	0.208
-489.493	116.590	-0.060	0.074
-488.478	133.165	0.115	0.149
-487.464	174.623	0.233	0.339
-486.449	790.754	-0.040	-0.110
-485.435	-20.319	-0.453	0.280
-484.420	-94.439	0.198	-0.054
-483.405	800.000	-0.080	-0.287
-482.391	89.736	-0.175	0.195
-481.376	100.755	0.206	-0.240
-480.362	-200.000	-0.013	-0.225
-479.347	-200.000	-0.015	-0.123
-478.332	-74.874	-0.248	-0.089
-477.318	-133.293	-0.228	0.029
-476.303	-200.000	-0.039	-0.180
-475.289	800.000	0.029	0.097
-474.274	70.390	0.074	-0.077
-473.259	679.150	0.100	-0.260
-472.245	800.000	0.030	-0.130
-471.230	108.003	-0.140	-0.167
-470.216	-57.418	0.218	0.096
-469.201	-147.564	0.415	0.035
-468.186	336.170	0.020	0.039
-467.172	-149.440	0.011	-0.001
-466.157	705.075	-0.095	0.252
-465.143	-200.000	0.016	0.089
-464.128	531.294	-0.057	0.135
-463.113	-200.000	0.013	0.223
-462.099	800.000	-0.049	-0.159
-461.084	206.264	-0.068	-0.106
-460.070	312.788	-0.225	0.424
-459.055	324.230	0.131	0.251
-458.040	111.918	0.332	0.401
-457.026	-113.235	-0.132	-0.026
-456.011	-90.561	0.125	0.036
-454.997	72.413	-0.134	0.140
-453.982	-200.000	0.008	0.091
-452.968	-200.000	0.006	-0.346
-451.953	490.720	0.034	-0.077
-450.938	161.196	0.021	0.030
-449.924	123.509	0.106	-0.133
-448.909	141.152	0.189	-0.250
-447.895	242.987	0.152	0.255
-446.880	-94.810	-0.325	-0.088
-445.865	53.019	0.134	-0.129
-444.851	492.735	0.093	0.214
-443.836	-200.000	0.085	-0.430
-442.822	-147.208	-0.117	0.010
-441.807	-200.000	0.026	0.227
-440.792	368.640	-0.128	-0.260
-439.778	-43.108	-0.191	-0.097
-438.763	206.543	0.127	0.198
-437.749	-137.836	0.088	0.010
-436.734	66.910	-0.144	0.147
-435.719	-12.274	0.524	-0.343
-434.705	800.000	0.073	-0.252
-433.690	-42.849	0.114	-0.058
-432.676	-97.247	-0.123	0.032
-431.661	-8.002	0.359	-0.242
-430.646	-90.761	-0.092	0.027
-429.632	-112.293	0.254	0.051
-428.617	-200.000	-0.003	0.032
-427.603	-200.000	-0.022	-0.412
-426.588	21.036	-0.170	0.138
-425.573	680.440	-0.081	0.210
-424.559	-69.802	0.275	-0.105
-423.544	32.418	-0.132	0.114
-422.530	-2.627	-0.077	0.054
-421.515	-14.863	0.176	0.113
-420.500	-127.908	0.156	0.022
-419.486	-3.737	-0.300	-0.208
-418.471	296.401	-0.091	-0.167
-417.457	-108.069	0.102	-0.022
-416.442	797.360	-0.023	0.063
-415.428	-28.480	-0.092	0.053
-414.413	-200.000	-0.054	0.248
-413.398	-29.623	-0.121	-0.069
-412.384	571.773	-0.007	-0.017
-411.369	33.381	-0.078	0.068
-410.355	161.335	0.240	0.336
-409.340	-115.742	-0.249	-0.047
-408.325	739.793	-0.060	0.162
-407.311	-200.000	-0.042	0.245
-406.296	588.146	-0.066	-0.162
-405.282	-33.066	0.161	-0.089
-404.267	-115.688	-0.101	-0.019
-403.252	800.000	0.087	-0.328
-402.238	23.444	0.029	-0.024
-401.223	800.000	-0.170	-0.671
-400.209	-104.175	0.077	0.018
-399.194	486.948	-0.151	0.345
-398.179	579.637	-0.121	0.295
-397.165	-33.358	-0.234	0.129
-396.150	524.689	0.175	-0.412
-395.136	54.273	0.097	-0.093
-394.121	-121.270	0.170	0.028
-393.106	-119.375	0.025	-0.004
-392.092	-168.943	-0.202	-0.008
-391.077	6.653	0.151	0.112
-390.063	-150.580	-0.179	-0.014
-389.048	800.000	-0.044	-0.156
-388.033	-81.132	0.120	-0.040
-387.019	-106.185	-0.343	-0.077
-386.004	-44.045	-0.248	0.124
-384.990	64.951	-0.231	0.232
-383.975	203.621	0.136	0.210
-382.960	-70.391	-0.204	-0.077
-381.946	93.370	0.053	-0.060
-380.931	-200.000	0.006	0.147
-379.917	544.638	0.180	-0.430
-378.902	46.225	0.081	-0.075
-377.888	-200.000	0.026	-0.178
-376.873	800.000	0.041	0.164
-375.858	12.443	0.137	-0.105
-374.844	750.840	0.096	-0.260
-373.829	-200.000	0.030	0.206
-372.815	-153.038	-0.169	-0.012
-371.800	254.353	0.063	-0.108
-370.785	-146.980	-0.182	0.016
-369.771	289.813	-0.058	-0.106
-368.756	-166.798	0.151	-0.006
-367.742	-38.739	0.152	-0.080
-366.727	596.218	0.056	0.138
-365.712	-88.335	0.116	0.035
-364.698	288.217	0.089	0.161
-363.683	154.712	0.148	-0.203
-362.669	87.530	0.091	-0.100
-361.654	-118.951	0.297	0.052
-360.639	7.297	-0.057	0.042
-359.625	218.386	-0.055	-0.088
-358.610	-77.814	0.244	0.084
-357.596	800.000	-0.113	0.378
-356.581	-67.270	0.302	0.119
-355.566	-200.000	-0.045	0.485
-354.552	-200.000	-0.042	-0.233
-353.537	-119.022	-0.095	0.017
-352.523	-200.000	-0.019	0.145
-351.508	-127.883	0.063	-0.009
-350.493	-200.000	-0.001	0.039
-349.479	100.003	-0.016	-0.018
-348.464	109.980	-0.170	0.203
-347.450	800.000	0.067	0.236
-346.435	-47.522	0.198	0.096
-345.420	800.000	-0.057	0.242
-344.406	800.000	-0.005	0.019
-343.391	-91.108	0.327	0.093
-342.377	0.658	-0.204	-0.145
-341.362	-200.000	0.054	-0.326
-340.348	-200.000	-0.077	-0.399
-339.333	800.000	0.045	-0.161
-338.318	-200.000	-0.021	-0.249
-337.304	-69.522	-0.356	-0.136
-336.289	107.299	-0.125	0.148
-335.275	367.875	0.165	0.333
-334.260	-59.193	0.157	0.068
-333.245	-41.664	0.071	-0.036
-332.231	-87.249	0.189	0.057
-331.216	94.691	0.110	-0.124
-330.202	-55.025	-0.286	-0.129
-329.187	800.000	-0.068	-0.223
-328.172	-200.000	0.010	0.126
-327.158	113.286	-0.120	0.145
-326.143	-170.443	0.208	-0.007
-325.129	800.000	0.021	0.065
-324.114	37.768	0.087	0.077
-323.099	309.170	0.123	-0.229
-322.085	800.000	-0.055	-0.229
-321.070	-78.736	0.081	0.027
-320.056	47.917	0.040	0.037
-319.041	800.000	-0.040	-0.165
-318.026	209.880	-0.237	0.371
-317.012	-119.687	-0.087	0.015
-315.997	-96.780	-0.180	-0.047
-314.983	-139.877	0.108	0.011
-313.968	800.000	0.118	-0.435
-312.953	-200.000	0.010	-0.262
-311.939	800.000	0.041	-0.142
-310.924	800.000	0.076	-0.314
-309.910	213.572	0.140	0.221
-308.895	91.782	0.203	-0.228
-307.880	-200.000	0.028	-0.193
-306.866	-200.000	0.011	0.367
-305.851	217.469	-0.105	0.167
-304.837	800.000	-0.113	0.356
-303.822	-40.445	0.229	-0.118
-302.807	691.113	-0.091	-0.238
-301.793	279.097	-0.137	-0.244
-300.778	-61.386	0.335	0.140
-299.764	57.301	-0.189	-0.183
-298.749	800.000	-0.117	-0.394
-297.735	-200.000	-0.004	-0.069
-296.720	100.334	0.115	-0.133
-295.705	-130.202	0.225	-0.031
-294.691	98.424	0.034	0.039
-293.676	-146.792	0.142	0.012
-292.662	-24.657	0.221	-0.131
-291.647	70.897	0.073	-0.075
-290.632	-148.313	-0.098	0.008
-289.618	-109.823	-0.293	0.061
-288.603	800.000	-0.039	0.165
-287.589	-200.000	0.015	0.420
-286.574	-64.598	-0.244	0.099
-285.559	615.600	-0.156	-0.388
-284.545	322.137	-0.032	0.061
-283.530	-200.000	0.005	-0.168
-282.516	112.861	0.136	-0.164
-281.501	800.000	0.136	-0.388
-280.486	224.552	0.125	0.201
-279.472	-96.982	-0.461	0.120
-278.457	-200.000	0.045	0.354
-277.443	50.866	0.058	0.055
-276.428	347.350	-0.172	-0.337
-275.413	164.204	-0.220	0.308
-274.399	-200.000	-0.011	0.051
-273.384	144.864	0.073	-0.097
-272.370	-73.467	0.343	0.125
-271.355	-200.000	0.047	0.550
-270.340	-200.000	-0.016	-0.238
-269.326	-200.000	-0.001	-0.199
-268.311	-6.281	-0.132	-0.090
-267.297	800.000	0.079	0.287
-266.282	-149.156	-0.231	0.018
-265.267	194.166	0.156	0.235
-264.253	-200.000	0.011	0.177
-263.238	-200.000	0.014	-0.178
-262.224	-83.639	-0.456	-0.145
-261.209	-110.791	0.272	-0.056
-260.195	-134.069	0.379	0.047
-259.180	-142.189	0.428	0.042
-258.165	-200.000	-0.012	0.335
-257.151	-200.000	0.030	-0.173
-256.136	-139.646	0.217	0.023
-255.122	-45.899	0.094	-0.046
-254.107	226.655	0.115	0.185
-253.092	-43.139	0.233	0.118
-252.078	15.872	-0.336	0.262
-251.063	-181.855	0.291	0.006
-250.049	-200.000	0.023	0.143
-249.034	-200.000	0.016	0.150
-248.019	800.000	0.051	-0.141
-247.005	-31.626	0.353	0.197
-245.990	-200.000	0.042	-0.236
-244.976	-200.000	-0.079	-0.551
-243.961	800.000	0.126	-0.476
-242.946	-33.650	-0.232	0.127
-241.932	800.000	-0.055	-0.198
-240.917	25.506	0.042	0.034
-239.903	5.625	-0.105	-0.077
-238.888	800.000	-0.057	0.184
-237.873	-146.028	0.155	-0.014
-236.859	800.000	-0.018	0.055
-235.844	373.834	-0.109	0.220
-234.830	-119.649	-0.440	0.076
-233.815	-110.339	-0.082	0.017
-232.800	212.271	0.088	-0.138
-231.786	100.701	0.209	-0.241
-230.771	-200.000	0.308	-0.001
-229.757	55.783	-0.135	0.130
-228.742	-16.082	-0.104	-0.066
-227.727	-200.000	-0.025	0.231
-226.713	59.113	-0.133	0.130
-225.698	216.095	-0.139	-0.219
-224.684	-200.000	-0.026	0.155
-223.669	-77.252	0.253	-0.088
-222.655	195.800	-0.089	0.135
-221.640	185.897	0.126	-0.185
-220.625	-200.000	-0.017	0.234
-219.611	169.829	-0.103	0.146
-218.596	542.947	-0.035	0.083
-217.582	242.482	0.114	-0.190
-216.567	642.802	-0.059	0.149
-215.552	-97.797	0.234	-0.060
-214.538	-200.000	0.026	0.264
-213.523	462.189	-0.099	0.220
-212.509	800.000	-0.068	-0.255
-211.494	-195.528	-0.287	0.002
-210.479	9.470	-0.350	-0.263
-209.465	-38.123	0.161	0.085
-208.450	2.710	0.123	-0.089
-207.436	-13.085	0.033	0.021
-206.421	-85.869	0.235	-0.072
-205.406	-88.869	-0.290	-0.085
-204.392	800.000	-0.042	0.154
-203.377	-126.338	0.121	-0.018
-202.363	312.921	-0.053	0.099
-201.348	-106.200	0.051	-0.011
-200.333	177.146	-0.220	-0.318
-199.319	-85.139	-0.352	-0.109
-198.304	-141.200	0.028	0.003
-197.290	-4.532	-0.191	0.131
-196.275	-200.000	0.011	-0.344
-195.260	-22.508	-0.036	-0.021
-194.246	800.000	-0.104	0.314
-193.231	-122.424	-0.043	-0.007
-192.217	-90.943	-0.196	-0.056
-191.202	717.064	0.092	0.243
-190.187	141.440	0.092	0.121
-189.173	800.000	-0.058	-0.235
-188.158	-63.756	0.090	0.037
-187.144	684.338	0.144	0.371
-186.129	3.559	-0.025	0.018
-185.114	-135.973	0.084	-0.010
-184.100	154.483	0.077	-0.104
-183.085	99.340	-0.089	0.102
-182.071	127.177	0.144	0.181
-181.056	196.007	0.131	0.197
-180.042	-19.481	0.158	0.097
-179.027	-46.801	0.349	0.169
-178.012	58.524	0.121	0.118
-176.998	77.268	-0.157	-0.165
-175.983	-0.671	0.049	-0.035
-174.969	147.089	-0.066	0.088
-173.954	-200.000	-0.002	-0.189
-172.939	27.054	0.128	0.107
-171.925	44.636	-0.184	0.167
-170.910	438.121	-0.084	-0.182
-169.896	19.582	-0.182	-0.145
-168.881	80.736	-0.209	-0.223
-167.866	187.641	-0.097	0.144
-166.852	579.616	-0.072	-0.174
-165.837	800.000	-0.037	0.120
-164.823	-191.780	0.093	0.001
-163.808	304.453	-0.066	-0.121
-162.793	164.594	0.056	-0.078
-161.779	-106.233	-0.200	-0.044
-160.764	-200.000	0.014	-0.173
-159.750	800.000	0.017	0.050
-158.735	-54.484	-0.234	-0.105
-157.720	-52.473	-0.132	-0.061
-156.706	498.992	0.065	0.149
-155.691	-200.000	-0.017	0.093
-154.677	131.859	-0.202	-0.258
-153.662	437.030	0.210	-0.453
-152.647	800.000	-0.099	0.301
-151.633	346.708	-0.104	0.203
-150.618	-200.000	-0.079	-0.348
-149.604	800.000	0.014	0.040
-148.589	18.957	-0.172	-0.137
-147.574	18.204	-0.139	0.110
-146.560	231.621	0.064	0.104
-145.545	-200.000	-0.019	0.090
-144.531	123.583	-0.051	-0.063
-143.516	-89.517	-0.159	0.046
-142.502	-21.690	0.138	0.083
-141.487	0.854	-0.183	0.130
-140.472	100.071	-0.234	0.268
-139.458	-52.226	-0.146	0.067
-138.443	-117.160	0.471	0.085
-137.429	416.059	-0.111	-0.233
-136.414	-18.833	0.257	-0.158
-135.399	43.086	0.159	0.143
-134.385	203.601	0.037	0.056
-133.370	-200.000	-0.020	-0.117
-132.356	800.000	-0.094	-0.307
-131.341	690.056	-0.051	-0.133
-130.326	-24.761	0.188	-0.111
-129.312	-134.431	-0.112	-0.014
-128.297	800.000	0.037	0.108
-127.283	78.848	-0.181	-0.192
-126.268	35.880	0.244	0.212
-125.253	231.192	-0.026	-0.043
-124.239	-104.762	-0.379	-0.086
-123.224	800.000	0.066	-0.230
-122.210	-200.000	0.040	-0.464
-121.195	-146.317	0.196	0.017
