DTS Sentinel unit serial number:	SN413079Multiplexer serial number:	ORYXHardware model number:	OX4-SRSoftware version number:	ORYX F/W v4.00 Oryx Data Collector v3.7.2.0data status	okinstallation	princeton_trtdifferential loss correction	single-endedforward channel	channel 1reverse channel	N/Adate	2019/09/12time	18:17:34forward acquisition time	15.00reverse acquisition time	0.00gamma	496.2192k internal	0.2318k external	0.2318temperature offset calibration	1.0098default loss term (dB/km)	0.3790temperature slope calibration	1.0000multiplexer offset coefficient	1.0000multiplexer slope coefficient	1.0000fibre end	0.00T internal ref (°C)	33.44T ext. ref 1 (°C)	2.90T ext. ref 2 (°C)	28.09length (m)	temperature (°C)	Stokes	anti-Stokes-747.200	-200.000	0.009	0.094
-746.185	6.199	0.641	0.481
-745.171	178.448	-0.486	0.718
-744.156	69.992	-0.674	0.704
-743.142	800.000	-0.123	-0.398
-742.127	410.620	-0.184	-0.395
-741.112	78.856	-0.632	-0.685
-740.098	-200.000	-0.112	1.019
-739.083	44.234	-0.084	-0.078
-738.069	-55.873	0.321	0.145
-737.054	192.507	-0.111	0.169
-736.039	39.394	-0.061	-0.056
-735.025	-104.679	-0.510	0.119
-734.010	-56.605	-0.874	-0.392
-732.996	-200.000	0.071	-0.756
-731.981	-165.230	-0.506	0.023
-730.966	231.653	0.157	0.260
-729.952	-39.184	0.318	0.169
-728.937	149.029	0.184	-0.252
-727.923	-178.199	0.973	-0.023
-726.908	-161.276	-1.088	0.057
-725.894	615.704	0.235	0.596
-724.879	-62.579	-0.509	0.214
-723.864	282.144	-0.344	0.625
-722.850	61.224	0.598	0.601
-721.835	360.021	-0.291	-0.589
-720.821	-188.924	0.616	-0.008
-719.806	-21.830	-0.200	0.123
-718.791	-200.000	0.008	0.111
-717.777	-28.551	-0.606	0.353
-716.762	155.557	0.124	0.173
-715.748	-72.706	0.250	0.093
-714.733	162.928	-0.170	-0.241
-713.718	293.700	0.323	-0.596
-712.704	-200.000	-0.013	-0.504
-711.689	4.323	-0.387	0.286
-710.675	-200.000	0.008	-0.366
-709.660	-99.803	0.213	-0.054
-708.645	800.000	0.113	-0.330
-707.631	800.000	0.101	-0.414
-706.616	-120.119	0.849	0.147
-705.602	68.977	0.478	-0.496
-704.587	-94.705	0.365	-0.100
-703.572	124.313	-0.643	-0.817
-702.558	-200.000	0.140	1.120
-701.543	-97.101	0.523	0.138
-700.529	-200.000	-0.025	-0.308
-699.514	2.906	-0.226	-0.166
-698.499	53.085	0.593	-0.573
-697.485	101.793	0.849	-1.000
-696.470	-200.000	0.150	0.691
-695.456	-94.267	-0.635	-0.175
-694.441	128.339	-0.666	-0.856
-693.426	-21.137	-0.814	-0.503
-692.412	-200.000	-0.022	0.272
-691.397	209.065	0.450	0.712
-690.383	-90.808	0.762	-0.222
-689.368	-122.737	-0.519	0.085
-688.354	130.424	0.560	0.725
-687.339	-200.000	0.023	-0.690
-686.324	-200.000	-0.126	-0.724
-685.310	497.368	-0.248	-0.576
-684.295	16.880	-0.105	0.084
-683.281	-127.936	1.022	-0.148
-682.266	455.824	0.275	-0.617
-681.251	-200.000	0.058	0.634
-680.237	-92.944	-1.010	0.285
-679.222	-49.405	0.918	0.442
-678.208	-140.065	-0.213	0.023
-677.193	800.000	0.074	0.275
-676.178	-200.000	0.002	-0.321
-675.164	-36.013	0.840	0.458
-674.149	383.959	0.269	-0.560
-673.135	-200.000	-0.085	0.714
-672.120	297.371	-0.309	0.573
-671.105	-200.000	0.135	0.669
-670.091	283.599	-0.151	-0.274
-669.076	-134.617	-0.583	-0.072
-668.062	-103.560	-0.257	-0.061
-667.047	-200.000	0.024	-0.162
-666.032	202.357	0.208	-0.325
-665.018	28.275	-0.419	0.357
-664.003	-38.224	-0.919	0.492
-662.989	-99.258	0.503	0.128
-661.974	800.000	-0.076	-0.325
-660.959	-200.000	-0.114	0.725
-659.945	-102.225	0.022	0.005
-658.930	-200.000	-0.077	-0.833
-657.916	-51.843	-0.218	-0.103
-656.901	499.226	-0.066	-0.154
-655.886	-14.090	0.994	-0.647
-654.872	85.047	-0.261	0.288
-653.857	-200.000	-0.004	0.342
-652.843	-24.373	0.623	0.375
-651.828	165.461	-0.455	-0.649
-650.814	-28.369	0.815	-0.474
-649.799	-63.627	-0.807	-0.334
-648.784	-110.377	0.880	-0.184
-647.770	800.000	0.286	0.831
-646.755	-45.038	0.400	0.201
-645.741	99.460	-0.230	0.269
-644.726	-100.848	0.552	-0.137
-643.711	43.999	0.466	0.430
-642.697	504.853	0.401	-0.937
-641.682	196.416	-0.080	-0.122
-640.668	139.746	-0.477	-0.633
-639.653	353.181	-0.132	-0.264
-638.638	59.029	-0.761	-0.754
-637.624	-200.000	-0.110	1.145
-636.609	-43.657	0.747	-0.379
-635.595	-50.415	-0.177	0.084
-634.580	453.569	0.346	0.772
-633.565	-200.000	0.163	-0.850
-632.551	-24.354	0.547	0.329
-631.536	-200.000	0.007	-0.230
-630.522	-10.289	-0.047	-0.032
-629.507	242.028	-0.392	-0.660
-628.492	-200.000	-0.024	0.639
-627.478	-43.007	-0.420	0.215
-626.463	-200.000	-0.038	-1.008
-625.449	80.345	0.457	-0.496
-624.434	-200.000	0.039	0.483
-623.419	-69.261	0.295	-0.114
-622.405	-143.498	-1.263	-0.121
-621.390	800.000	0.232	-0.803
-620.376	800.000	0.178	0.602
-619.361	-171.606	1.065	0.035
-618.346	-200.000	-0.215	1.202
-617.332	-50.714	0.305	0.144
-616.317	-43.989	0.161	0.082
-615.303	711.245	-0.139	-0.371
-614.288	-162.785	0.346	-0.017
-613.273	-194.982	-0.152	-0.001
-612.259	583.143	-0.244	-0.604
-611.244	380.061	-0.260	0.536
-610.230	31.013	-0.723	-0.624
-609.215	358.697	-0.317	-0.637
-608.201	-83.202	0.690	-0.223
-607.186	800.000	-0.168	-0.695
-606.171	-57.054	0.476	-0.211
-605.157	-4.857	0.534	-0.371
-604.142	53.672	-0.344	-0.333
-603.128	38.518	0.378	-0.339
-602.113	-160.927	-0.382	0.020
-601.098	-174.390	-0.845	0.025
-600.084	128.035	0.405	0.519
-599.069	-200.000	-0.021	0.675
-598.055	-200.000	0.016	-0.369
-597.040	139.050	0.202	0.267
-596.025	62.054	-0.591	0.593
-595.011	-43.143	-0.469	0.239
-593.996	-85.817	0.785	-0.245
-592.982	-200.000	-0.146	-0.784
-591.967	-118.550	-0.593	0.106
-590.952	119.076	0.378	0.470
-589.938	35.394	0.169	-0.149
-588.923	-78.392	-0.334	-0.115
-587.909	293.624	0.193	-0.355
-586.894	289.548	0.297	-0.542
-585.879	800.000	-0.146	0.461
-584.865	-67.172	0.336	-0.133
-583.850	-149.513	-0.283	-0.023
-582.836	83.327	0.360	0.395
-581.821	-129.940	-0.389	0.054
-580.806	401.996	-0.241	-0.509
-579.792	235.980	-0.184	0.306
-578.777	-200.000	0.121	0.544
-577.763	-200.000	0.051	0.259
-576.748	99.876	-0.237	-0.276
-575.733	-149.681	-0.601	-0.048
-574.719	-200.000	0.014	0.461
-573.704	87.573	0.627	0.698
-572.690	88.410	-0.151	0.169
-571.675	62.835	0.215	0.216
-570.661	-61.582	-0.453	0.191
-569.646	9.935	0.281	0.215
-568.631	82.411	-0.084	0.092
-567.617	165.554	0.394	-0.560
-566.602	146.612	0.293	-0.396
-565.588	800.000	-0.130	0.399
-564.573	800.000	-0.242	-1.043
-563.558	-139.759	-1.167	-0.125
-562.544	-200.000	0.032	0.770
-561.529	478.087	-0.170	-0.387
-560.515	800.000	-0.122	-0.391
-559.500	800.000	0.205	-0.636
-558.485	-173.563	0.468	0.014
-557.471	-200.000	0.043	1.225
-556.456	-71.020	-0.562	-0.212
-555.442	139.054	-0.369	0.487
-554.427	157.748	0.024	-0.034
-553.412	-132.639	-0.190	-0.025
-552.398	-59.697	0.133	-0.057
-551.383	-8.349	-0.564	0.381
-550.369	-20.127	0.754	0.467
-549.354	-27.278	-0.659	-0.386
-548.339	554.145	0.249	-0.602
-547.325	-129.488	0.520	0.072
-546.310	-105.242	0.365	-0.084
-545.296	-200.000	-0.054	0.416
-544.281	436.007	-0.160	-0.351
-543.266	143.209	0.486	0.649
-542.252	800.000	-0.144	0.587
-541.237	-25.214	-0.852	0.507
-540.223	-66.289	-0.499	-0.199
-539.208	90.334	-0.719	-0.808
-538.193	105.539	-0.436	0.518
-537.179	128.050	-0.347	0.444
-536.164	-200.000	0.117	-0.759
-535.150	104.106	0.372	-0.439
-534.135	-41.108	0.268	0.139
-533.121	17.885	-0.149	0.119
-532.106	26.870	0.432	-0.364
-531.091	264.664	-0.150	0.263
-530.077	-51.072	-0.473	-0.223
-529.062	227.429	0.141	0.230
-528.048	44.971	-0.206	-0.190
-527.033	136.831	-0.451	-0.591
-526.018	800.000	-0.057	0.219
-525.004	-200.000	0.110	0.560
-523.989	34.101	0.273	-0.239
-522.975	800.000	0.177	-0.664
-521.960	-170.170	-0.882	0.031
-520.945	-200.000	-0.099	0.564
-519.931	403.026	0.070	-0.148
-518.916	-132.511	-0.953	0.123
-517.902	84.281	-0.165	0.181
-516.887	20.400	0.366	0.297
-515.872	-93.734	-0.296	-0.082
-514.858	-200.000	0.154	1.279
-513.843	269.520	0.129	-0.228
-512.829	44.586	0.191	-0.176
-511.814	13.544	-0.233	0.182
-510.799	800.000	0.205	-0.686
-509.785	235.064	0.235	0.389
-508.770	313.046	-0.696	1.311
-507.756	-114.022	0.101	-0.020
-506.741	-4.320	0.447	-0.310
-505.726	-185.132	0.717	0.011
-504.712	781.542	-0.135	-0.371
-503.697	-62.225	-0.407	0.170
-502.683	800.000	0.148	0.575
-501.668	206.864	-0.482	0.753
-500.653	-200.000	-0.017	0.691
-499.639	455.427	0.172	0.383
-498.624	92.316	0.259	-0.293
-497.610	131.991	-0.503	-0.649
-496.595	-34.979	0.154	0.084
-495.581	800.000	-0.127	0.390
-494.566	-152.148	-0.712	0.052
-493.551	183.550	0.097	0.144
-492.537	800.000	0.211	0.848
-491.522	0.902	0.446	-0.321
-490.508	299.428	0.180	0.333
-489.493	800.000	-0.166	0.504
-488.478	12.372	0.124	-0.096
-487.464	196.950	0.452	0.690
-486.449	-200.000	-0.032	-0.652
-485.435	-53.233	0.186	-0.086
-484.420	-128.933	0.529	-0.074
-483.405	183.033	-0.261	-0.387
-482.391	-178.784	-0.809	-0.018
-481.376	-57.262	0.208	-0.092
-480.362	-200.000	-0.046	0.662
-479.347	-91.869	0.874	0.248
-478.332	15.335	0.428	-0.336
-477.318	8.692	-0.129	-0.097
-476.303	60.947	0.302	0.300
-475.289	-140.092	-0.711	-0.075
-474.274	800.000	0.256	-0.803
-473.259	-200.000	0.121	0.715
-472.245	-16.904	0.768	0.486
-471.230	-95.555	0.329	0.088
-470.216	-200.000	-0.262	-0.001
-469.201	-117.871	0.207	-0.037
-468.186	-200.000	0.086	0.852
-467.172	-171.617	0.660	0.022
-466.157	-4.590	-0.745	0.515
-465.143	-10.036	0.199	-0.132
-464.128	800.000	-0.096	0.267
-463.113	-11.811	-1.429	-0.939
-462.099	-200.000	0.035	-0.481
-461.084	36.935	-0.417	0.369
-460.070	187.949	-0.264	-0.394
-459.055	-77.213	0.587	-0.205
-458.040	-60.396	-0.807	-0.344
-457.026	78.439	-0.392	0.419
-456.011	-200.000	0.090	1.060
-454.997	-74.425	0.371	0.134
-453.982	128.659	0.052	0.066
-452.968	-200.000	-0.061	0.311
-451.953	318.540	-0.203	-0.384
-450.938	-32.742	0.609	-0.339
-449.924	800.000	-0.166	-0.505
-448.909	-20.673	0.144	-0.088
-447.895	-56.464	0.607	0.269
-446.880	218.915	0.144	0.231
-445.865	-200.000	0.116	0.748
-444.851	800.000	-0.265	0.867
-443.836	-66.128	0.289	-0.115
-442.822	-200.000	-0.094	-0.536
-441.807	17.822	-0.544	-0.434
-440.792	800.000	-0.115	0.414
-439.778	47.596	-0.659	-0.615
-438.763	321.771	0.207	0.394
-437.749	-52.453	0.229	0.106
-436.734	131.145	0.452	-0.580
-435.719	341.393	-0.099	-0.194
-434.705	34.917	-0.236	0.207
-433.690	-116.965	0.543	-0.099
-432.676	-38.626	0.258	0.136
-431.661	-200.000	0.016	-0.372
-430.646	-37.889	-0.390	0.208
-429.632	85.974	-0.144	-0.159
-428.617	522.961	-0.228	0.536
-427.603	-39.400	-0.080	0.042
-426.588	17.511	-0.958	-0.762
-425.573	-161.231	-0.328	-0.017
-424.559	-103.721	-0.655	-0.153
-423.544	41.427	0.274	0.248
-422.530	81.845	-0.296	-0.320
-421.515	487.590	-0.317	0.723
-420.500	-200.000	0.046	-0.235
-419.486	-200.000	0.217	0.963
-418.471	800.000	-0.186	-0.794
-417.457	280.155	0.208	-0.372
-416.442	84.183	0.272	-0.297
-415.428	-132.356	0.439	0.057
-414.413	243.579	-0.363	0.608
-413.398	-42.745	0.954	-0.485
-412.384	-200.000	0.093	-0.687
-411.369	-26.190	-0.374	-0.220
-410.355	258.340	0.292	-0.503
-409.340	-7.367	0.457	0.309
-408.325	131.838	0.203	-0.261
-407.311	44.954	-0.606	-0.557
-406.296	-176.627	-0.844	0.022
-405.282	-31.483	-0.741	-0.416
-404.267	281.853	0.380	0.681
-403.252	280.114	0.094	-0.167
-402.238	-145.944	-0.552	-0.049
-401.223	264.505	0.353	0.613
-400.209	-99.264	-0.393	0.099
-399.194	139.485	0.492	-0.647
-398.179	-58.701	0.356	-0.154
-397.165	-10.413	-0.468	0.309
-396.150	-200.000	0.007	-0.511
-395.136	268.666	0.259	0.453
-394.121	196.086	0.343	0.522
-393.106	109.795	0.403	0.483
-392.092	-47.495	-0.446	-0.216
-391.077	-68.745	0.313	-0.121
-390.063	569.103	0.046	-0.112
-389.048	-160.670	0.998	-0.053
-388.033	800.000	0.228	-0.919
-387.019	-200.000	0.054	-0.332
-386.004	2.833	-0.342	-0.248
-384.990	135.516	0.403	0.523
-383.975	157.060	0.328	-0.453
-382.960	800.000	0.105	-0.386
-381.946	-200.000	0.045	0.402
-380.931	80.152	-0.393	0.422
-379.917	380.825	0.039	0.080
-378.902	-42.397	0.755	-0.384
-377.888	-99.592	1.078	-0.270
-376.873	12.585	0.023	-0.017
-375.858	-57.445	-0.204	0.089
-374.844	-200.000	-0.023	-0.646
-373.829	208.495	0.110	-0.171
-372.815	150.856	0.422	-0.572
-371.800	-200.000	0.071	0.437
-370.785	120.095	0.332	-0.411
-369.771	800.000	0.162	0.447
-368.756	-27.350	0.546	0.317
-367.742	265.117	-0.220	-0.382
-366.727	800.000	-0.069	0.282
-365.712	-71.669	-0.488	0.182
-364.698	-200.000	0.004	-0.097
-363.683	254.369	-0.075	0.128
-362.669	52.327	0.680	-0.647
-361.654	39.582	0.373	0.334
-360.639	250.399	-0.151	0.256
-359.625	-200.000	-0.024	0.260
-358.610	71.614	-0.235	0.243
-357.596	50.634	-0.540	0.509
-356.581	800.000	0.118	0.459
-355.566	97.313	-0.115	0.131
-354.552	-32.843	0.156	0.086
-353.537	-200.000	0.019	0.867
-352.523	102.798	0.152	0.177
-351.508	-21.107	0.262	-0.160
-350.493	-18.575	-0.445	-0.277
-349.479	26.824	-0.335	-0.280
-348.464	460.446	0.097	-0.215
-347.450	81.036	-0.358	-0.386
-346.435	-200.000	-0.204	-1.081
-345.420	800.000	0.182	-0.669
-344.406	-49.164	-0.085	0.041
-343.391	18.327	-0.502	-0.400
-342.377	-200.000	-0.021	-0.788
-341.362	292.239	-0.196	0.356
-340.348	-1.258	0.200	-0.141
-339.333	170.754	0.383	-0.546
-338.318	-103.321	-0.454	0.107
-337.304	800.000	0.308	1.094
-336.289	-75.368	0.551	-0.196
-335.275	-200.000	0.085	0.412
-334.260	146.770	-0.261	-0.350
-333.245	-31.518	-0.560	0.313
-332.231	17.794	-1.029	-0.816
-331.216	-102.999	0.586	-0.139
-330.202	-140.780	0.566	-0.058
-329.187	800.000	-0.100	-0.337
-328.172	-120.535	-0.414	-0.070
-327.158	4.391	-0.730	0.533
-326.143	-16.652	0.146	0.092
-325.129	800.000	-0.242	-0.683
-324.114	116.417	-0.170	0.207
-323.099	-105.515	0.540	0.122
-322.085	481.902	-0.235	0.532
-321.070	66.694	-0.836	-0.847
-320.056	-120.495	-0.547	-0.092
-319.041	-200.000	-0.023	0.139
-318.026	-32.235	0.146	0.081
-317.012	-200.000	-0.047	0.294
-315.997	8.622	0.494	-0.370
-314.983	388.917	-0.190	0.392
-313.968	-128.069	0.736	0.105
-312.953	-31.172	0.117	-0.066
-311.939	-40.574	-0.500	-0.258
-310.924	364.982	-0.184	-0.369
-309.910	232.062	-0.344	0.561
-308.895	-178.769	0.529	-0.012
-307.880	-16.312	0.970	-0.613
-306.866	800.000	0.328	0.990
-305.851	-7.930	0.627	0.421
-304.837	452.175	0.282	0.620
-303.822	256.807	-0.548	-0.936
-302.807	-127.835	-0.684	-0.098
-301.793	28.369	-0.474	0.398
-300.778	104.104	0.508	-0.595
-299.764	-16.128	0.282	0.178
-298.749	-108.544	-0.767	0.164
-297.735	407.278	-0.351	0.737
-296.720	-191.818	0.200	-0.002
-295.705	22.135	0.513	-0.416
-294.691	800.000	-0.282	0.923
-293.676	-128.194	-0.451	-0.064
-292.662	800.000	0.093	0.269
-291.647	88.568	-0.231	0.255
-290.632	64.461	-0.504	-0.505
-289.618	-81.697	-0.398	0.130
-288.603	800.000	-0.218	0.793
-287.589	-22.814	0.464	0.279
-286.574	90.722	0.366	0.408
-285.559	800.000	-0.262	-0.923
-284.545	350.091	-0.152	0.298
-283.530	37.774	-0.520	0.459
-282.516	-117.682	0.593	0.106
-281.501	87.840	-0.358	0.395
-280.486	-139.848	-0.724	-0.076
-279.472	800.000	0.247	-0.696
-278.457	-31.206	0.157	0.088
-277.443	-81.594	-0.817	-0.267
-276.428	37.738	-0.409	0.361
-275.413	-154.790	0.434	0.029
-274.399	-115.084	0.467	0.088
-273.384	-104.832	-0.398	-0.091
-272.370	-10.315	-0.524	-0.345
-271.355	-139.669	0.802	0.085
-270.340	-138.320	0.171	0.019
-269.326	55.108	-0.596	0.572
-268.311	-122.813	0.707	-0.114
-267.297	-169.623	0.463	0.017
-266.282	-200.000	-0.006	-0.618
-265.267	-37.679	0.216	0.115
-264.253	269.462	0.290	-0.505
-263.238	-64.322	0.819	-0.331
-262.224	-200.000	-0.030	-1.231
-261.209	47.850	0.317	0.294
-260.195	61.943	0.215	-0.212
-259.180	-85.105	-0.807	0.251
-258.165	23.616	0.331	-0.271
-257.151	372.789	0.046	-0.092
-256.136	-200.000	0.170	0.992
-255.122	-200.000	0.147	0.665
-254.107	302.708	0.090	0.165
-253.092	-200.000	0.117	0.604
-252.078	12.729	-0.588	-0.451
-251.063	-170.998	-0.781	0.026
-250.049	13.153	-0.029	0.023
-249.034	800.000	-0.142	-0.504
-248.019	-45.606	0.983	0.483
-247.005	283.008	0.590	-1.052
-245.990	-56.734	-0.294	-0.129
-244.976	207.536	-0.344	-0.534
-243.961	800.000	0.217	0.687
-242.946	398.144	0.410	0.851
-241.932	800.000	-0.132	0.480
-240.917	-1.532	0.573	-0.401
-239.903	800.000	0.296	-0.969
-238.888	800.000	0.232	-0.734
-237.873	-48.884	-0.555	0.264
-236.859	800.000	-0.150	-0.631
-235.844	-200.000	-0.001	-0.944
-234.830	-152.524	0.543	0.039
-233.815	800.000	0.039	0.145
-232.800	-1.293	0.390	-0.273
-231.786	-46.112	0.197	-0.096
-230.771	800.000	0.276	0.999
-229.757	501.729	0.525	-1.202
-228.742	-34.270	-0.438	-0.238
-227.727	11.183	-0.469	0.356
-226.713	-200.000	-0.049	-0.282
-225.698	-13.458	-0.442	0.284
-224.684	387.522	-0.100	-0.205
-223.669	650.148	0.262	-0.665
-222.655	347.013	-0.222	0.433
-221.640	58.063	-0.373	-0.363
-220.625	-38.148	0.374	-0.196
-219.611	39.388	0.416	-0.369
-218.596	-161.586	-0.221	0.011
-217.582	-200.000	0.011	0.253
-216.567	3.582	-0.195	-0.141
-215.552	-189.394	0.111	-0.001
-214.538	-200.000	0.100	0.441
-213.523	78.982	0.230	0.244
-212.509	-150.258	0.807	-0.062
-211.494	-162.240	0.387	-0.019
-210.479	-54.914	-0.554	0.248
-209.465	-200.000	-0.085	-0.526
-208.450	800.000	-0.172	-0.548
-207.436	121.379	0.438	0.541
-206.421	687.083	-0.097	-0.253
-205.406	231.091	0.372	-0.603
-204.392	-54.443	-0.427	-0.192
-203.377	-44.969	-0.663	0.327
-202.363	272.849	-0.200	0.350
-201.348	445.445	0.223	-0.486
-200.333	326.444	-0.216	-0.410
-199.319	-200.000	0.018	-0.772
-198.304	800.000	0.321	-1.110
-197.290	194.054	0.473	0.710
-196.275	-200.000	0.086	0.547
-195.260	315.895	0.175	-0.327
-194.246	159.253	-0.549	-0.756
-193.231	73.097	-0.325	-0.336
-192.217	659.858	0.136	-0.347
-191.202	-200.000	0.014	0.758
-190.187	-200.000	-0.070	-0.546
-189.173	680.757	-0.152	0.393
-188.158	-200.000	0.124	-0.917
-187.144	-145.665	-0.682	-0.060
-186.129	-47.380	0.274	0.132
-185.114	-165.097	0.250	-0.011
-184.100	-84.004	0.513	-0.162
-183.085	-17.999	-0.654	0.406
-182.071	151.131	0.552	0.744
-181.056	-200.000	0.149	0.810
-180.042	440.829	-0.244	-0.529
-179.027	-194.445	-0.599	0.005
-178.012	-25.700	-0.318	0.186
-176.998	800.000	0.117	0.340
-175.983	-50.931	-0.278	-0.129
-174.969	123.635	0.100	-0.124
-173.954	409.054	0.258	0.541
-172.939	323.043	0.050	0.094
-171.925	-3.035	-0.886	-0.612
-170.910	378.533	-0.345	0.698
-169.896	229.113	0.284	0.459
-168.881	-160.359	0.888	0.047
-167.866	-24.275	-0.234	0.138
-166.852	179.587	-0.066	-0.096
-165.837	261.454	0.187	0.321
-164.823	-200.000	-0.149	-0.880
-163.808	47.171	0.305	0.281
-162.793	11.919	0.734	0.558
-161.779	121.573	-0.229	0.283
-160.764	53.591	0.590	0.561
-159.750	-200.000	-0.026	0.180
-158.735	37.184	0.680	0.596
-157.720	-112.009	0.455	-0.091
-156.706	73.179	0.197	0.203
-155.691	76.363	-0.285	0.299
-154.677	-145.672	0.118	0.010
-153.662	-128.892	-0.759	-0.105
-152.647	39.020	0.170	0.150
-151.633	71.607	-0.477	0.490
-150.618	-111.061	-0.579	-0.117
-149.604	244.270	0.348	-0.577
-148.589	-141.690	-0.352	-0.035
-147.574	800.000	-0.175	0.492
-146.560	11.147	-0.178	0.134
-145.545	-80.957	-0.313	-0.103
-144.531	-16.855	-0.369	0.231
-143.516	-21.663	-0.374	0.226
-142.502	469.218	-0.413	0.916
-141.487	22.752	-0.294	0.238
-140.472	-31.436	-0.414	0.230
-139.458	-86.763	0.408	0.123
-138.443	288.354	-0.274	-0.491
-137.429	155.338	0.248	0.337
-136.414	800.000	-0.051	-0.173
-135.399	574.017	0.220	0.531
-134.385	68.583	0.369	-0.374
-133.370	42.321	0.311	0.280
-132.356	-99.835	-0.435	-0.108
-131.341	800.000	0.174	-0.681
-130.326	-96.563	0.000	0.000
-129.312	-200.000	0.080	-0.722
-128.297	-102.726	-0.811	-0.191
-127.283	800.000	-0.178	-0.747
-126.268	473.181	0.129	0.287
-125.253	-179.786	0.805	-0.017
-124.239	-200.000	0.051	-0.694
-123.224	4.633	0.277	-0.201
-122.210	81.328	0.591	-0.631
-121.195	-63.402	0.786	0.320
-120.180	800.000	-0.080	0.302
