DTS Sentinel unit serial number:	SN413079Multiplexer serial number:	ORYXHardware model number:	OX4-SRSoftware version number:	ORYX F/W v4.00 Oryx Data Collector v3.7.2.0data status	okinstallation	princeton_trtdifferential loss correction	single-endedforward channel	channel 1reverse channel	N/Adate	2019/09/12time	11:00:11forward acquisition time	60.00reverse acquisition time	0.00gamma	496.2192k internal	0.2296k external	0.2296temperature offset calibration	1.0047default loss term (dB/km)	0.3790temperature slope calibration	1.0000multiplexer offset coefficient	1.0000multiplexer slope coefficient	1.0000fibre end	0.00T internal ref (°C)	38.42T ext. ref 1 (°C)	1.94T ext. ref 2 (°C)	36.26length (m)	temperature (°C)	Stokes	anti-Stokes-747.200	-200.000	0.049	-0.235
-746.185	-30.932	-0.278	0.160
-745.171	5.626	-0.189	-0.142
-744.156	-20.328	-0.199	0.125
-743.142	-105.357	0.271	-0.063
-742.127	19.968	-0.155	-0.128
-741.112	-35.580	0.116	0.064
-740.098	313.724	0.191	0.367
-739.083	-117.864	-0.190	0.035
-738.069	206.428	-0.137	0.218
-737.054	-200.000	0.052	-0.406
-736.039	-155.493	-0.424	0.028
-735.025	33.272	-0.206	-0.183
-734.010	800.000	0.027	-0.111
-732.996	-48.856	-0.392	-0.192
-731.981	-103.674	-0.551	0.132
-730.966	-46.620	-0.136	-0.068
-729.952	800.000	0.022	-0.077
-728.937	33.713	0.087	0.078
-727.923	-200.000	-0.007	0.082
-726.908	-129.235	-0.333	0.047
-725.894	-169.223	0.085	0.003
-724.879	330.229	0.183	-0.360
-723.864	-116.792	0.100	0.019
-722.850	109.035	0.255	-0.311
-721.835	-41.052	-0.008	0.004
-720.821	14.440	0.015	0.012
-719.806	245.188	-0.059	0.101
-718.791	-150.249	-0.257	0.020
-717.777	-46.449	0.193	-0.097
-716.762	-179.741	-0.066	0.001
-715.748	-27.850	0.329	-0.195
-714.733	-14.354	0.111	-0.073
-713.718	-200.000	0.016	-0.145
-712.704	-34.552	-0.290	0.162
-711.689	-11.443	-0.251	-0.169
-710.675	-200.000	0.004	0.098
-709.660	-13.603	-0.271	-0.179
-708.645	21.520	0.099	0.083
-707.631	98.469	-0.216	-0.254
-706.616	52.868	-0.064	0.062
-705.602	800.000	0.089	0.293
-704.587	-131.780	0.232	0.031
-703.572	-47.268	0.026	-0.013
-702.558	-22.207	0.170	-0.105
-701.543	121.629	-0.172	0.219
-700.529	-50.480	-0.131	-0.063
-699.514	-90.812	0.246	0.072
-698.499	800.000	-0.100	0.323
-697.485	800.000	-0.047	0.172
-696.470	269.528	0.057	0.101
-695.456	-79.037	-0.102	0.035
-694.441	800.000	-0.095	-0.292
-693.426	100.525	-0.226	-0.268
-692.412	-200.000	0.007	-0.379
-691.397	-12.631	-0.281	-0.187
-690.383	4.347	0.258	0.193
-689.368	129.105	-0.248	-0.322
-688.354	139.043	-0.156	-0.209
-687.339	-200.000	-0.001	-0.210
-686.324	82.156	-0.204	0.225
-685.310	-98.861	-0.188	0.049
-684.295	-163.488	-0.340	0.016
-683.281	57.844	0.139	0.139
-682.266	421.473	0.082	0.178
-681.251	208.865	0.231	-0.369
-680.237	333.668	-0.122	-0.240
-679.222	-74.911	-0.240	0.088
-678.208	800.000	0.057	-0.192
-677.193	-121.795	0.072	-0.012
-676.178	96.604	-0.236	-0.275
-675.164	-200.000	-0.008	0.081
-674.149	-200.000	-0.008	0.294
-673.135	486.928	-0.044	-0.101
-672.120	-200.000	0.014	-0.105
-671.105	-26.539	0.188	-0.112
-670.091	-167.836	-0.129	0.005
-669.076	-118.175	-0.196	0.036
-668.062	-92.425	-0.224	0.064
-667.047	30.871	0.328	0.286
-666.032	109.615	0.111	0.136
-665.018	-200.000	0.042	-0.339
-664.003	243.303	-0.055	-0.093
-662.989	-77.683	0.187	-0.066
-661.974	-66.613	-0.315	0.127
-660.959	42.317	0.083	0.077
-659.945	77.424	0.289	-0.313
-658.930	57.868	0.066	-0.066
-657.916	149.794	-0.022	0.031
-656.901	25.671	-0.398	0.337
-655.886	-36.048	0.182	-0.100
-654.872	120.719	-0.113	0.143
-653.857	-139.445	-0.200	-0.022
-652.843	-86.911	0.208	0.065
-651.828	800.000	0.037	0.119
-650.814	-91.024	-0.168	0.049
-649.799	429.890	0.064	-0.142
-648.784	757.552	-0.164	-0.451
-647.770	54.086	0.063	0.062
-646.755	-200.000	-0.035	0.339
-645.741	800.000	-0.159	-0.448
-644.726	-148.000	-0.154	0.013
-643.711	-162.625	-0.195	0.010
-642.697	129.774	0.122	-0.159
-641.682	-102.301	0.366	0.089
-640.668	209.553	-0.142	-0.226
-639.653	-7.098	0.257	0.177
-638.638	170.999	-0.213	-0.311
-637.624	-96.375	-0.091	0.024
-636.609	-90.258	-0.133	0.039
-635.595	-200.000	0.008	-0.161
-634.580	271.676	0.130	-0.233
-633.565	-127.416	-0.192	-0.028
-632.551	18.993	-0.425	0.347
-631.536	89.977	-0.219	-0.249
-630.522	33.721	-0.292	-0.258
-629.507	-138.329	0.249	0.028
-628.492	800.000	0.124	0.362
-627.478	133.393	-0.064	-0.084
-626.463	-200.000	-0.008	-0.106
-625.449	-20.601	-0.261	-0.163
-624.434	100.116	0.094	-0.111
-623.419	-99.030	-0.057	0.015
-622.405	-152.918	0.150	-0.011
-621.390	-144.775	-0.046	-0.004
-620.376	-71.428	0.299	0.114
-619.361	8.005	-0.252	-0.192
-618.346	-22.616	-0.101	-0.062
-617.332	240.393	-0.075	-0.127
-616.317	-88.504	0.338	-0.102
-615.303	32.525	-0.223	0.196
-614.288	-50.930	0.277	0.132
-613.273	-200.000	-0.071	0.456
-612.259	97.259	-0.125	-0.146
-611.244	-76.924	-0.195	-0.069
-610.230	481.910	-0.032	-0.074
-609.215	-200.000	-0.015	-0.105
-608.201	-200.000	-0.041	-0.245
-607.186	-61.258	0.384	-0.164
-606.171	18.112	-0.102	-0.082
-605.157	198.172	0.101	0.157
-604.142	-59.091	0.199	-0.087
-603.128	-67.849	0.191	-0.076
-602.113	800.000	-0.063	0.217
-601.098	153.647	-0.074	0.103
-600.084	-94.126	0.275	-0.077
-599.069	106.608	-0.054	0.065
-598.055	180.209	0.183	0.272
-597.040	-124.328	0.175	0.028
-596.025	-200.000	0.030	-0.249
-595.011	-123.072	0.382	0.062
-593.996	186.397	-0.086	-0.130
-592.982	-76.196	-0.107	-0.038
-591.967	380.003	0.092	0.191
-590.952	-114.570	0.133	0.026
-589.938	-200.000	0.001	-0.059
-588.923	-34.241	-0.209	0.117
-587.909	-51.343	0.402	-0.191
-586.894	266.823	-0.095	-0.169
-585.879	146.135	0.215	0.293
-584.865	800.000	-0.128	0.380
-583.850	288.233	-0.090	0.165
-582.836	176.321	0.138	0.204
-581.821	-14.506	-0.179	-0.117
-580.806	800.000	0.031	-0.125
-579.792	0.573	0.110	-0.080
-578.777	-77.775	0.191	0.067
-577.763	203.337	-0.053	-0.083
-576.748	-150.001	-0.296	0.023
-575.733	-0.923	0.245	-0.176
-574.719	176.532	0.236	0.348
-573.704	52.263	0.192	-0.186
-572.690	800.000	-0.079	-0.304
-571.675	800.000	-0.084	-0.294
-570.661	-3.231	-0.007	-0.005
-569.646	-90.048	-0.228	0.067
-568.631	56.974	0.229	0.227
-567.617	-20.797	-0.235	-0.146
-566.602	-49.308	-0.224	-0.109
-565.588	-157.490	-0.152	-0.009
-564.573	-200.000	-0.078	-0.399
-563.558	320.108	-0.176	0.339
-562.544	63.606	0.145	0.148
-561.529	101.407	0.228	0.270
-560.515	-200.000	-0.029	-0.329
-559.500	-68.363	0.105	0.041
-558.485	43.377	-0.068	0.063
-557.471	86.910	0.109	0.123
-556.456	-93.214	0.181	-0.051
-555.442	-72.309	-0.379	-0.142
-554.427	800.000	-0.038	0.123
-553.412	102.967	-0.126	-0.150
-552.398	84.748	-0.101	0.112
-551.383	257.220	-0.114	0.198
-550.369	-134.194	-0.454	0.057
-549.354	260.113	0.113	0.199
-548.339	-200.000	-0.041	0.271
-547.325	-104.261	-0.107	-0.025
-546.310	800.000	-0.084	0.353
-545.296	69.730	0.141	0.147
-544.281	-36.645	-0.152	-0.083
-543.266	-200.000	0.084	0.382
-542.252	20.244	0.081	-0.067
-541.237	130.559	0.126	-0.164
-540.223	-19.948	0.111	-0.070
-539.208	-137.927	-0.134	0.015
-538.193	-103.020	0.031	-0.007
-537.179	6.849	0.123	-0.093
-536.164	-51.998	-0.074	-0.035
-535.150	-124.548	0.061	0.010
-534.135	-80.507	0.118	0.040
-533.121	33.153	0.322	0.283
-532.106	800.000	0.055	-0.215
-531.091	275.590	-0.062	-0.112
-530.077	800.000	0.054	-0.214
-529.062	721.574	0.128	-0.345
-528.048	-100.010	0.145	0.037
-527.033	800.000	-0.077	0.251
-526.018	329.304	-0.004	-0.008
-525.004	-200.000	-0.016	0.242
-523.989	217.345	0.049	-0.079
-522.975	32.287	0.205	-0.179
-521.960	-126.313	0.414	0.063
-520.945	669.828	0.023	0.061
-519.931	-143.037	-0.171	0.017
-518.916	636.588	0.085	0.218
-517.902	-17.178	-0.099	-0.063
-516.887	236.040	0.049	0.083
-515.872	-200.000	-0.004	0.250
-514.858	800.000	0.036	0.152
-513.843	-51.529	-0.095	-0.045
-512.829	327.343	-0.157	0.305
-511.814	-29.421	0.214	0.124
-510.799	-73.274	-0.040	-0.015
-509.785	-72.789	-0.084	0.031
-508.770	37.977	-0.257	-0.231
-507.756	800.000	0.047	-0.154
-506.741	331.883	0.059	-0.115
-505.726	399.913	-0.185	-0.394
-504.712	-200.000	0.014	0.153
-503.697	373.122	0.050	-0.104
-502.683	149.080	-0.085	-0.117
-501.668	-61.116	0.218	0.093
-500.653	-103.526	-0.071	-0.017
-499.639	268.101	0.088	0.156
-498.624	-44.277	-0.062	0.031
-497.610	-32.395	-0.136	-0.077
-496.595	-122.504	0.236	-0.039
-495.581	120.241	-0.207	-0.260
-494.566	-200.000	-0.017	0.148
-493.551	-200.000	-0.017	-0.141
-492.537	166.902	0.148	-0.213
-491.522	-68.768	0.219	-0.086
-490.508	-200.000	0.031	-0.140
-489.493	800.000	-0.045	0.184
-488.478	361.584	-0.002	0.005
-487.464	254.342	-0.168	0.291
-486.449	54.718	-0.125	0.122
-485.435	61.781	-0.159	-0.160
-484.420	-16.829	0.281	-0.180
-483.405	-195.266	-0.369	0.003
-482.391	383.249	0.126	0.262
-481.376	31.391	-0.106	-0.093
-480.362	-105.278	-0.477	0.110
-479.347	-200.000	-0.003	0.250
-478.332	157.564	0.075	0.105
-477.318	-90.488	-0.336	0.098
-476.303	-3.434	-0.102	-0.071
-475.289	153.047	0.080	0.110
-474.274	-66.660	-0.325	-0.130
-473.259	-192.084	-0.079	-0.001
-472.245	46.377	-0.241	-0.226
-471.230	800.000	-0.031	-0.106
-470.216	117.836	0.104	-0.129
-469.201	-59.930	0.143	-0.062
-468.186	-123.716	-0.203	-0.032
-467.172	-200.000	-0.040	0.243
-466.157	-26.799	0.324	-0.192
-465.143	-143.366	-0.239	0.023
-464.128	-109.561	-0.267	-0.057
-463.113	-0.762	-0.113	0.081
-462.099	18.532	0.170	-0.137
-461.084	800.000	-0.079	0.288
-460.070	56.972	0.053	0.052
-459.055	67.552	-0.120	-0.124
-458.040	161.772	0.115	-0.162
-457.026	-164.040	0.292	-0.014
-456.011	-1.136	-0.275	0.196
-454.997	-73.617	-0.249	-0.092
-453.982	231.813	-0.150	0.249
-452.968	58.395	-0.172	0.170
-451.953	-28.420	0.269	-0.157
-450.938	-18.673	0.071	0.045
-449.924	-7.688	-0.177	-0.121
-448.909	175.796	0.043	-0.062
-447.895	74.347	0.081	0.086
-446.880	-126.275	0.273	-0.041
-445.865	225.816	0.154	-0.252
-444.851	-139.130	0.084	0.009
-443.836	136.253	-0.088	0.116
-442.822	149.750	-0.292	0.399
-441.807	-113.642	-0.211	0.042
-440.792	-23.738	0.264	0.160
-439.778	17.228	-0.244	-0.195
-438.763	202.304	0.017	-0.026
-437.749	-88.421	0.297	0.089
-436.734	508.992	0.047	0.109
-435.719	-25.879	-0.259	-0.154
-434.705	-30.284	0.192	-0.110
-433.690	98.052	0.194	0.225
-432.676	-71.565	-0.158	-0.060
-431.661	-40.197	0.227	0.119
-430.646	-141.265	-0.115	0.012
-429.632	-93.965	0.085	-0.024
-428.617	-10.591	0.173	0.115
-427.603	-125.833	0.166	-0.025
-426.588	-122.768	0.131	0.021
-425.573	445.328	-0.083	-0.183
-424.559	-35.892	0.223	-0.122
-423.544	-200.000	-0.037	0.427
-422.530	-28.963	-0.190	0.110
-421.515	-73.896	-0.047	-0.017
-420.500	-59.452	-0.128	-0.056
-419.486	441.271	-0.106	-0.233
-418.471	185.956	-0.218	0.328
-417.457	-104.359	-0.277	-0.065
-416.442	52.379	0.030	-0.029
-415.428	445.054	-0.068	0.151
-414.413	-200.000	0.037	0.204
-413.398	800.000	0.099	-0.380
-412.384	144.602	0.087	-0.117
-411.369	-200.000	-0.022	-0.231
-410.355	203.884	0.056	-0.087
-409.340	710.402	-0.042	0.112
-408.325	-166.044	0.336	-0.014
-407.311	89.950	-0.058	0.065
-406.296	537.183	0.113	-0.272
-405.282	742.751	-0.107	-0.291
-404.267	-200.000	-0.046	-0.279
-403.252	-27.896	-0.198	-0.116
-402.238	-58.437	0.129	0.057
-401.223	481.696	0.077	0.177
-400.209	-173.489	0.323	-0.010
-399.194	585.990	-0.090	0.222
-398.179	-65.176	0.473	-0.192
-397.165	139.294	0.107	-0.142
-396.150	-200.000	-0.039	0.327
-395.136	69.015	0.181	-0.187
-394.121	-135.955	0.203	-0.024
-393.106	800.000	0.064	0.228
-392.092	596.536	0.070	0.176
-391.077	213.191	0.075	0.120
-390.063	-134.839	0.130	0.016
-389.048	-144.389	0.312	0.029
-388.033	-200.000	-0.013	-0.190
-387.019	750.027	-0.066	0.180
-386.004	-200.000	0.036	0.217
-384.990	64.914	0.435	0.442
-383.975	115.185	0.179	0.221
-382.960	298.363	0.205	0.380
-381.946	-108.281	-0.266	0.058
-380.931	13.469	0.230	0.180
-379.917	91.699	-0.137	-0.156
-378.902	9.324	0.197	-0.150
-377.888	-200.000	0.034	-0.262
-376.873	-23.528	-0.290	0.176
-375.858	493.171	0.107	0.247
-374.844	391.413	0.009	0.019
-373.829	-158.668	-0.367	0.021
-372.815	-44.914	-0.121	-0.060
-371.800	-132.107	-0.008	0.001
-370.785	245.741	-0.149	0.253
-369.771	-52.098	-0.220	0.103
-368.756	800.000	-0.113	0.356
-367.742	73.088	0.398	-0.418
-366.727	40.871	-0.128	-0.116
-365.712	-164.026	0.245	-0.011
-364.698	-82.156	0.153	-0.050
-363.683	-200.000	0.007	-0.314
-362.669	285.583	0.039	0.070
-361.654	-67.066	0.531	-0.211
-360.639	-200.000	-0.043	-0.385
-359.625	241.769	-0.078	-0.132
-358.610	-64.518	-0.191	0.078
-357.596	-73.771	0.066	-0.024
-356.581	800.000	0.058	-0.194
-355.566	800.000	-0.030	0.123
-354.552	-150.924	-0.399	0.030
-353.537	173.263	-0.213	0.309
-352.523	-159.635	0.220	-0.012
-351.508	800.000	-0.100	-0.283
-350.493	-158.903	-0.139	0.008
-349.479	68.820	0.186	-0.192
-348.464	513.594	0.100	0.235
-347.450	-69.211	0.155	-0.060
-346.435	-153.295	0.185	-0.013
-345.420	-165.064	-0.252	0.011
-344.406	143.333	0.101	-0.135
-343.391	455.165	0.170	-0.380
-342.377	-131.587	-0.079	-0.010
-341.362	577.610	-0.082	0.202
-340.348	570.679	0.066	-0.163
-339.333	-200.000	0.007	0.092
-338.318	51.200	-0.129	-0.123
-337.304	800.000	0.123	-0.439
-336.289	-200.000	-0.024	-0.280
-335.275	-129.042	-0.188	-0.026
-334.260	800.000	-0.035	-0.106
-333.245	-88.750	0.152	-0.045
-332.231	-81.130	-0.020	0.007
-331.216	87.595	-0.385	-0.429
-330.202	-116.778	-0.190	-0.035
-329.187	-64.551	-0.215	-0.088
-328.172	-65.732	0.192	-0.077
-327.158	-37.519	0.137	-0.073
-326.143	-97.223	-0.110	-0.029
-325.129	-195.761	0.126	-0.001
-324.114	-200.000	0.005	-0.032
-323.099	69.910	-0.208	0.216
-322.085	800.000	0.023	0.088
-321.070	-81.758	-0.036	0.012
-320.056	-65.506	-0.270	0.109
-319.041	106.081	-0.062	-0.073
-318.026	66.373	-0.244	0.249
-317.012	-75.517	-0.199	0.071
-315.997	-124.948	0.350	0.054
-314.983	-200.000	-0.021	-0.192
-313.968	85.007	-0.049	0.054
-312.953	800.000	-0.042	0.127
-311.939	-200.000	0.002	-0.350
-310.924	-200.000	-0.035	-0.277
-309.910	-69.548	0.367	-0.141
-308.895	114.467	-0.039	-0.048
-307.880	208.962	0.072	-0.113
-306.866	-29.561	-0.050	-0.029
-305.851	247.206	-0.134	-0.227
-304.837	-125.618	0.034	0.005
-303.822	-146.740	-0.389	-0.034
-302.807	233.297	0.235	0.388
-301.793	-41.610	0.213	0.110
-300.778	800.000	-0.046	-0.199
-299.764	-200.000	-0.036	0.302
-298.749	249.630	-0.038	-0.065
-297.735	-116.760	-0.161	0.030
-296.720	-200.000	0.004	-0.045
-295.705	-122.384	0.185	-0.030
-294.691	-101.665	0.303	0.074
-293.676	800.000	0.054	0.220
-292.662	-200.000	0.024	0.325
-291.647	-117.187	0.173	0.032
-290.632	-106.417	-0.112	0.025
-289.618	597.122	0.077	0.192
-288.603	-69.338	-0.303	0.117
-287.589	348.042	-0.163	-0.323
-286.574	800.000	-0.076	-0.285
-285.559	314.517	-0.090	-0.170
-284.545	422.666	0.138	-0.298
-283.530	-78.162	0.486	0.168
-282.516	800.000	0.054	-0.181
-281.501	18.013	0.266	-0.213
-280.486	133.602	-0.080	-0.103
-279.472	216.891	-0.158	-0.252
-278.457	-59.917	0.051	-0.022
-277.443	-200.000	-0.004	0.081
-276.428	134.789	0.126	-0.164
-275.413	354.829	-0.019	-0.037
-274.399	-178.191	0.265	-0.006
-273.384	-42.509	-0.165	0.085
-272.370	-200.000	-0.002	0.078
-271.355	-41.760	0.252	0.130
-270.340	285.274	0.054	-0.098
-269.326	-200.000	-0.045	-0.219
-268.311	-200.000	-0.015	0.157
-267.297	800.000	-0.026	0.071
-266.282	-2.777	0.069	0.048
-265.267	360.864	0.059	-0.118
-264.253	-80.463	0.238	-0.080
-263.238	353.822	0.107	0.213
-262.224	371.769	0.104	-0.211
-261.209	14.416	-0.281	0.220
-260.195	-51.832	0.136	0.064
-259.180	210.066	-0.101	-0.159
-258.165	123.055	-0.082	-0.103
-257.151	-49.038	-0.086	-0.041
-256.136	-200.000	-0.044	0.446
-255.122	-15.715	-0.292	-0.187
-254.107	800.000	-0.046	0.171
-253.092	-200.000	0.007	0.226
-252.078	-51.642	-0.203	-0.095
-251.063	28.827	-0.136	0.116
-250.049	-67.154	-0.259	-0.102
-249.034	800.000	0.047	-0.137
-248.019	227.900	-0.044	-0.072
-247.005	64.553	0.080	-0.081
-245.990	-118.452	0.333	-0.059
-244.976	9.357	-0.079	0.060
-243.961	-115.151	-0.010	-0.002
-242.946	-129.347	-0.095	0.013
-241.932	-99.376	-0.268	-0.068
-240.917	-200.000	-0.003	0.174
-239.903	-129.403	-0.198	0.028
-238.888	-38.118	0.217	0.115
-237.873	-200.000	-0.021	0.157
-236.859	14.206	0.184	0.143
-235.844	273.671	0.010	-0.018
-234.830	-65.528	0.212	-0.085
-233.815	535.444	0.093	0.220
-232.800	50.125	0.170	0.161
-231.786	-7.727	-0.208	0.141
-230.771	198.055	0.005	0.008
-229.757	-200.000	0.023	-0.275
-228.742	62.909	0.230	-0.231
-227.727	6.295	-0.379	0.281
-226.713	177.155	0.040	0.058
-225.698	142.801	-0.128	-0.170
-224.684	752.860	-0.181	-0.491
-223.669	-200.000	0.042	0.368
-222.655	315.770	-0.078	0.148
-221.640	45.682	-0.070	-0.064
-220.625	-48.929	0.381	-0.183
-219.611	-200.000	0.024	0.216
-218.596	-59.630	-0.197	-0.084
-217.582	-70.753	-0.140	-0.053
-216.567	-6.530	0.200	0.136
-215.552	228.784	-0.094	-0.153
-214.538	-200.000	0.017	0.163
-213.523	-172.168	0.230	0.007
-212.509	-110.391	0.363	0.075
-211.494	-200.000	0.035	0.296
-210.479	-200.000	-0.035	-0.298
-209.465	-200.000	0.016	-0.166
-208.450	364.551	-0.158	0.319
-207.436	130.584	-0.356	-0.457
-206.421	-47.245	-0.143	-0.070
-205.406	-200.000	-0.068	0.374
-204.392	537.380	-0.053	-0.125
-203.377	-87.099	-0.226	0.069
-202.363	-200.000	0.023	0.121
-201.348	-36.642	0.210	-0.113
-200.333	-20.103	-0.281	-0.174
-199.319	-32.861	0.069	-0.038
-198.304	267.415	-0.128	-0.224
-197.290	-200.000	0.046	0.316
-196.275	-143.665	-0.177	-0.017
-195.260	-116.635	0.260	0.048
-194.246	-200.000	0.024	0.218
-193.231	-200.000	0.001	-0.019
-192.217	16.992	-0.067	0.053
-191.202	-103.892	-0.144	0.034
-190.187	94.753	-0.207	0.236
-189.173	94.043	-0.174	0.198
-188.158	800.000	0.039	-0.120
-187.144	800.000	-0.128	0.449
-186.129	800.000	0.084	0.247
-185.114	-42.919	0.246	0.125
-184.100	-50.450	-0.182	0.086
-183.085	-88.839	-0.249	0.074
-182.071	800.000	0.042	0.150
-181.056	-200.000	0.025	0.197
-180.042	-122.647	-0.103	-0.017
-179.027	-1.663	-0.401	-0.282
-178.012	800.000	-0.041	-0.127
-176.998	-174.777	0.174	-0.005
-175.983	662.759	-0.082	0.211
-174.969	-32.614	0.328	0.182
-173.954	-40.985	-0.221	0.114
-172.939	-49.724	0.066	0.031
-171.925	-104.326	-0.123	0.028
-170.910	-146.217	0.217	-0.019
-169.896	-66.197	-0.074	-0.030
-168.881	387.937	-0.114	0.236
-167.866	704.280	0.068	0.179
-166.852	120.481	0.126	0.157
-165.837	274.489	-0.058	-0.103
-164.823	125.523	0.010	0.012
-163.808	-126.451	0.125	-0.019
-162.793	-200.000	0.019	0.138
-161.779	210.025	0.114	-0.179
-160.764	82.545	0.233	-0.252
-159.750	-200.000	-0.048	0.258
-158.735	-107.986	0.055	0.012
-157.720	-200.000	0.058	-0.274
-156.706	29.362	0.326	-0.276
-155.691	-174.581	-0.086	-0.002
-154.677	-6.782	-0.079	0.054
-153.662	800.000	0.086	0.292
-152.647	544.381	-0.090	-0.214
-151.633	800.000	0.033	-0.142
-150.618	-95.552	0.432	-0.116
-149.604	395.442	-0.015	-0.031
-148.589	800.000	-0.076	-0.306
-147.574	-84.347	0.174	-0.055
-146.560	94.062	-0.188	-0.213
-145.545	-200.000	0.008	-0.178
-144.531	384.595	-0.255	-0.525
-143.516	-90.642	0.315	0.091
-142.502	112.096	0.257	0.310
-141.487	223.850	-0.197	0.317
-140.472	183.156	-0.180	0.265
-139.458	-75.624	0.165	0.058
-138.443	700.050	-0.151	-0.398
-137.429	102.716	-0.233	0.272
-136.414	-27.407	0.497	0.288
-135.399	-66.158	-0.094	0.037
-134.385	-75.352	0.236	-0.084
-133.370	270.312	0.062	-0.110
-132.356	800.000	-0.101	-0.384
-131.341	-60.372	0.090	-0.038
-130.326	38.837	0.122	0.109
-129.312	-200.000	0.018	0.103
-128.297	-81.141	0.210	-0.069
-127.283	138.198	0.114	-0.150
-126.268	-141.331	0.121	0.012
-125.253	415.982	-0.162	0.344
-124.239	-75.708	-0.125	-0.044
-123.224	-73.527	0.167	0.061
-122.210	-156.635	0.337	-0.021
