DTS Sentinel unit serial number:	SN413079Multiplexer serial number:	ORYXHardware model number:	OX4-SRSoftware version number:	ORYX F/W v4.00 Oryx Data Collector v3.7.2.0data status	okinstallation	princeton_trtdifferential loss correction	single-endedforward channel	channel 1reverse channel	N/Adate	2019/09/19time	05:50:35forward acquisition time	60.00reverse acquisition time	0.00gamma	496.2192k internal	0.2343k external	0.2343temperature offset calibration	1.0017default loss term (dB/km)	0.3790temperature slope calibration	1.0000multiplexer offset coefficient	1.0000multiplexer slope coefficient	1.0000fibre end	0.00T internal ref (°C)	19.25T ext. ref 1 (°C)	0.58T ext. ref 2 (°C)	12.77length (m)	temperature (°C)	Stokes	anti-Stokes-747.200	36.065	-0.120	-0.106
-746.185	-155.170	0.094	-0.006
-745.171	1.349	0.332	0.239
-744.156	-103.183	-0.315	0.075
-743.142	-44.722	0.061	-0.031
-742.127	-200.000	0.016	0.278
-741.112	-67.654	0.150	-0.059
-740.098	643.173	-0.082	-0.209
-739.083	32.832	0.188	0.163
-738.069	138.661	0.189	0.249
-737.054	800.000	0.068	0.287
-736.039	-200.000	0.024	-0.353
-735.025	496.442	-0.010	0.022
-734.010	-200.000	0.046	-0.349
-732.996	-58.214	-0.287	0.125
-731.981	247.329	0.150	0.253
-730.966	-76.649	-0.240	0.084
-729.952	-36.697	0.110	0.059
-728.937	-128.506	0.098	0.014
-727.923	-31.168	-0.034	0.019
-726.908	588.288	-0.077	-0.190
-725.894	-200.000	-0.006	-0.158
-724.879	-82.000	-0.135	-0.044
-723.864	189.666	0.143	0.215
-722.850	-200.000	0.022	0.368
-721.835	-110.355	0.250	-0.052
-720.821	207.681	0.175	0.274
-719.806	-200.000	-0.015	-0.253
-718.791	-34.503	0.049	-0.027
-717.777	-141.441	-0.362	0.037
-716.762	-163.590	-0.259	-0.012
-715.748	565.814	-0.105	0.254
-714.733	179.815	0.076	-0.111
-713.718	-108.828	-0.521	-0.112
-712.704	96.651	0.208	0.238
-711.689	37.221	-0.160	-0.142
-710.675	-103.702	0.250	-0.059
-709.660	650.096	0.057	0.146
-708.645	60.275	-0.330	0.326
-707.631	-85.488	-0.173	0.054
-706.616	73.491	-0.266	0.278
-705.602	146.685	-0.096	0.129
-704.587	44.595	0.097	-0.089
-703.572	70.879	-0.262	-0.272
-702.558	2.949	0.132	-0.095
-701.543	-134.857	-0.125	0.015
-700.529	-56.238	-0.134	0.059
-699.514	398.285	0.144	-0.301
-698.499	800.000	0.066	0.194
-697.485	-200.000	0.091	0.418
-696.470	-75.313	0.261	0.093
-695.456	-77.618	-0.282	-0.098
-694.441	217.965	-0.082	0.131
-693.426	422.409	0.061	0.130
-692.412	15.459	-0.095	-0.074
-691.397	-127.155	0.103	-0.015
-690.383	0.101	0.196	-0.140
-689.368	48.305	-0.259	-0.242
-688.354	170.481	-0.098	0.140
-687.339	800.000	-0.076	-0.249
-686.324	55.282	0.100	-0.097
-685.310	-156.685	-0.366	0.023
-684.295	800.000	0.071	0.274
-683.281	-113.792	0.234	-0.045
-682.266	49.661	0.094	0.088
-681.251	-200.000	0.035	-0.382
-680.237	755.277	0.059	0.160
-679.222	736.223	-0.086	-0.230
-678.208	-183.562	0.334	-0.006
-677.193	-129.670	-0.426	0.059
-676.178	230.805	-0.059	-0.096
-675.164	13.936	0.161	0.125
-674.149	-60.375	-0.138	-0.059
-673.135	-78.331	0.352	0.121
-672.120	-200.000	0.039	-0.251
-671.105	577.493	-0.139	-0.339
-670.091	-4.802	-0.230	0.158
-669.076	309.847	-0.087	-0.162
-668.062	-26.962	0.125	0.073
-667.047	800.000	0.066	0.229
-666.032	10.224	0.295	0.224
-665.018	-70.260	0.379	-0.144
-664.003	-106.096	0.309	0.069
-662.989	49.933	0.151	0.142
-661.974	-9.096	-0.088	0.059
-660.959	102.899	-0.221	-0.259
-659.945	-142.659	-0.217	-0.021
-658.930	-74.887	-0.209	0.075
-657.916	-85.580	-0.248	-0.077
-656.901	202.639	-0.038	-0.059
-655.886	-75.965	0.124	0.044
-654.872	-74.303	-0.233	-0.084
-653.857	800.000	0.057	-0.233
-652.843	-200.000	-0.019	-0.373
-651.828	219.919	-0.072	0.115
-650.814	-200.000	-0.016	-0.142
-649.799	800.000	-0.057	0.169
-648.784	-10.916	0.164	-0.108
-647.770	-135.928	0.231	-0.027
-646.755	-151.916	-0.328	0.024
-645.741	-19.932	0.310	-0.191
-644.726	355.171	0.125	0.248
-643.711	-200.000	0.096	-0.431
-642.697	-6.120	-0.177	-0.120
-641.682	-133.769	-0.273	-0.034
-640.668	-130.896	0.296	0.040
-639.653	-60.956	0.143	0.060
-638.638	38.356	-0.306	-0.272
-637.624	29.148	-0.342	0.289
-636.609	-200.000	-0.023	-0.111
-635.595	17.434	-0.087	-0.069
-634.580	217.067	0.071	0.113
-633.565	-20.974	0.061	-0.037
-632.551	-27.615	0.384	0.222
-631.536	-132.352	0.388	0.050
-630.522	-155.799	0.053	-0.003
-629.507	-74.296	0.296	-0.106
-628.492	-200.000	0.002	-0.301
-627.478	58.897	-0.043	-0.042
-626.463	800.000	-0.066	0.193
-625.449	-200.000	-0.026	0.256
-624.434	87.762	-0.059	-0.065
-623.419	-119.396	-0.082	-0.014
-622.405	-146.821	-0.123	0.011
-621.390	13.502	0.032	-0.025
-620.376	800.000	-0.136	-0.441
-619.361	29.729	-0.080	0.068
-618.346	467.575	-0.176	-0.394
-617.332	185.869	0.125	0.185
-616.317	49.391	0.226	0.212
-615.303	-35.659	-0.215	-0.116
-614.288	-200.000	0.017	0.230
-613.273	244.907	0.103	-0.173
-612.259	134.872	-0.239	0.309
-611.244	53.494	0.056	-0.054
-610.230	-60.587	0.220	0.093
-609.215	573.546	0.079	0.193
-608.201	132.498	-0.084	-0.108
-607.186	-58.563	-0.050	-0.022
-606.171	-98.477	-0.059	-0.015
-605.157	4.937	0.269	-0.197
-604.142	-9.948	-0.385	-0.255
-603.128	-60.279	-0.252	-0.107
-602.113	-81.714	0.287	0.094
-601.098	-200.000	-0.055	0.289
-600.084	-56.461	0.129	-0.057
-599.069	154.157	-0.139	0.189
-598.055	240.231	-0.118	-0.195
-597.040	-113.519	-0.087	-0.017
-596.025	-68.502	-0.265	0.102
-595.011	-4.126	0.064	-0.044
-593.996	-74.172	0.175	0.063
-592.982	800.000	0.039	-0.164
-591.967	396.945	-0.127	0.264
-590.952	-200.000	-0.021	0.102
-589.938	800.000	0.038	-0.121
-588.923	-33.280	0.437	0.241
-587.909	-112.642	-0.131	0.026
-586.894	-56.619	0.157	0.069
-585.879	30.397	0.358	-0.304
-584.865	325.701	-0.113	-0.215
-583.850	-200.000	0.003	-0.062
-582.836	717.735	-0.088	0.233
-581.821	-33.343	-0.103	-0.057
-580.806	-70.353	0.296	-0.112
-579.792	-121.564	-0.032	0.005
-578.777	203.584	-0.089	0.137
-577.763	130.110	0.120	-0.153
-576.748	-20.021	-0.166	-0.102
-575.733	-152.706	-0.416	0.029
-574.719	56.775	0.250	-0.242
-573.704	360.190	0.155	0.308
-572.690	-120.308	0.304	-0.052
-571.675	-50.067	-0.205	0.096
-570.661	-107.393	0.188	0.041
-569.646	800.000	-0.075	-0.290
-568.631	31.116	-0.194	-0.165
-567.617	-106.363	-0.295	0.066
-566.602	129.307	-0.134	-0.171
-565.588	723.158	-0.059	-0.156
-564.573	-169.460	-0.213	0.008
-563.558	-200.000	0.011	0.071
-562.544	-109.335	-0.186	-0.039
-561.529	-200.000	0.009	-0.315
-560.515	188.220	0.126	0.188
-559.500	306.132	0.173	-0.319
-558.485	-148.135	0.144	-0.012
-557.471	-157.455	-0.133	-0.008
-556.456	-84.932	0.170	0.053
-555.442	169.365	-0.083	0.118
-554.427	341.610	0.140	0.271
-553.412	61.994	-0.198	-0.196
-552.398	-69.855	-0.085	0.032
-551.383	618.344	-0.104	-0.260
-550.369	-7.587	-0.166	0.111
-549.354	279.444	-0.037	0.066
-548.339	100.377	-0.155	-0.179
-547.325	708.139	0.055	0.144
-546.310	-117.889	0.220	0.039
-545.296	-19.532	-0.551	0.339
-544.281	-55.464	0.186	0.083
-543.266	800.000	-0.100	-0.359
-542.252	-141.759	0.246	0.025
-541.237	-77.466	0.257	0.088
-540.223	273.508	0.083	0.146
-539.208	-66.984	-0.175	0.069
-538.193	-34.486	0.094	-0.051
-537.179	-48.104	-0.245	-0.118
-536.164	-200.000	-0.014	0.382
-535.150	307.453	0.111	-0.205
-534.135	85.047	-0.067	0.072
-533.121	-200.000	-0.011	0.059
-532.106	-146.047	0.131	-0.012
-531.091	-100.099	-0.241	-0.060
-530.077	615.341	0.115	0.286
-529.062	-200.000	0.005	0.041
-528.048	-75.031	0.140	0.050
-527.033	-144.664	-0.126	-0.012
-526.018	344.404	0.031	0.060
-525.004	-97.339	-0.315	0.081
-523.989	164.244	-0.163	0.228
-522.975	-2.339	-0.228	0.159
-521.960	800.000	0.078	0.312
-520.945	81.746	-0.144	0.155
-519.931	-200.000	-0.022	-0.103
-518.916	-103.370	-0.066	0.015
-517.902	-200.000	0.157	0.000
-516.887	-198.299	0.379	-0.002
-515.872	62.510	0.103	-0.102
-514.858	66.301	-0.080	0.080
-513.843	-80.387	0.139	-0.046
-512.829	-63.675	0.141	0.057
-511.814	159.593	0.127	0.175
-510.799	328.655	-0.108	-0.206
-509.785	411.158	-0.172	-0.361
-508.770	-104.398	-0.209	-0.048
-507.756	119.703	-0.109	0.134
-506.741	-200.000	-0.002	-0.082
-505.726	507.978	0.065	0.149
-504.712	-103.331	0.322	0.075
-503.697	-31.042	0.409	-0.229
-502.683	126.820	-0.082	-0.103
-501.668	0.475	-0.296	-0.210
-500.653	-200.000	0.202	0.001
-499.639	-200.000	-0.013	-0.137
-498.624	123.669	0.140	0.175
-497.610	-120.272	-0.152	0.026
-496.595	-121.767	-0.149	0.024
-495.581	-54.457	0.137	0.062
-494.566	-34.653	-0.343	-0.186
-493.551	-200.000	0.007	-0.105
-492.537	800.000	0.118	-0.364
-491.522	-200.000	0.016	-0.121
-490.508	112.461	0.093	-0.111
-489.493	-200.000	-0.009	0.396
-488.478	-200.000	0.004	0.212
-487.464	-89.108	-0.447	-0.131
-486.449	-27.318	0.052	0.030
-485.435	265.681	0.047	-0.081
-484.420	800.000	0.044	0.165
-483.405	-43.849	-0.068	-0.034
-482.391	-10.728	0.335	-0.219
-481.376	-23.531	-0.194	0.115
-480.362	-106.844	0.144	0.032
-479.347	-42.651	-0.185	-0.093
-478.332	-116.586	-0.134	0.025
-477.318	10.847	-0.127	-0.096
-476.303	187.834	0.197	0.292
-475.289	-200.000	0.034	0.336
-474.274	340.499	0.071	0.137
-473.259	-52.322	0.229	0.105
-472.245	218.151	-0.088	-0.139
-471.230	-200.000	-0.000	-0.009
-470.216	-121.494	0.377	0.062
-469.201	64.917	-0.220	-0.220
-468.186	-76.919	0.124	0.043
-467.172	-109.386	0.177	-0.037
-466.157	84.062	-0.015	0.016
-465.143	-147.846	-0.448	-0.037
-464.128	-113.174	-0.130	0.025
-463.113	-200.000	0.062	-0.330
-462.099	-82.008	0.379	0.123
-461.084	-43.841	0.337	-0.168
-460.070	49.760	-0.212	-0.198
-459.055	-29.362	-0.169	0.096
-458.040	-40.660	-0.107	-0.055
-457.026	437.204	-0.102	-0.219
-456.011	800.000	-0.081	-0.237
-454.997	113.392	-0.159	-0.191
-453.982	-52.536	0.192	-0.088
-452.968	185.796	-0.108	0.158
-451.953	87.669	-0.129	-0.141
-450.938	-142.257	0.565	-0.055
-449.924	173.178	-0.183	0.261
-448.909	-200.000	0.000	-0.193
-447.895	-136.191	0.325	0.038
-446.880	548.956	-0.067	0.160
-445.865	-200.000	0.044	0.244
-444.851	424.907	-0.094	-0.201
-443.836	57.177	-0.229	-0.221
-442.822	800.000	0.026	-0.076
-441.807	101.582	-0.085	-0.098
-440.792	-171.420	0.156	-0.005
-439.778	-200.000	-0.032	0.179
-438.763	800.000	0.081	-0.283
-437.749	333.035	-0.097	-0.185
-436.734	-200.000	0.001	-0.082
-435.719	46.905	0.086	0.079
-434.705	-123.779	-0.121	-0.019
-433.690	800.000	0.130	0.391
-432.676	507.503	-0.126	-0.290
-431.661	-200.000	0.002	-0.241
-430.646	-34.945	0.355	0.192
-429.632	-96.444	-0.158	-0.041
-428.617	-139.546	0.041	0.004
-427.603	-128.533	-0.185	-0.026
-426.588	-200.000	-0.018	-0.201
-425.573	29.505	0.139	0.117
-424.559	-1.167	0.248	-0.174
-423.544	-94.117	-0.068	0.018
-422.530	-37.521	0.133	0.070
-421.515	-69.429	-0.080	-0.030
-420.500	-200.000	0.004	0.123
-419.486	110.543	0.049	0.058
-418.471	21.519	-0.321	-0.258
-417.457	-29.327	0.171	-0.097
-416.442	42.956	0.325	0.293
-415.428	32.350	-0.202	-0.172
-414.413	-165.425	-0.201	-0.009
-413.398	-114.938	0.260	0.049
-412.384	-200.000	-0.041	-0.194
-411.369	-200.000	-0.040	0.183
-410.355	-87.648	0.152	0.045
-409.340	-52.056	0.152	0.070
-408.325	35.840	0.120	-0.104
-407.311	325.446	0.045	-0.085
-406.296	-52.263	0.007	0.003
-405.282	800.000	0.038	-0.114
-404.267	800.000	-0.098	-0.308
-403.252	-105.966	0.327	-0.073
-402.238	-65.438	-0.157	-0.062
-401.223	70.059	0.146	0.149
-400.209	-44.629	-0.265	-0.131
-399.194	61.510	0.122	-0.120
-398.179	-200.000	-0.004	0.119
-397.165	-4.744	-0.439	-0.299
-396.150	-4.406	-0.416	-0.284
-395.136	-43.525	-0.074	0.037
-394.121	-63.008	0.060	-0.024
-393.106	-153.887	-0.153	-0.010
-392.092	56.947	0.325	0.312
-391.077	29.050	-0.401	-0.336
-390.063	120.803	-0.111	-0.137
-389.048	115.960	-0.270	0.326
-388.033	365.111	0.049	0.097
-387.019	-17.469	-0.216	0.134
-386.004	199.290	-0.199	-0.301
-384.990	57.571	-0.016	0.015
-383.975	322.835	-0.121	0.227
-382.960	-200.000	-0.007	0.101
-381.946	-200.000	0.003	0.099
-380.931	-131.032	-0.294	0.039
-379.917	800.000	-0.029	-0.101
-378.902	-117.475	0.113	-0.020
-377.888	416.714	-0.120	0.253
-376.873	196.805	-0.117	-0.176
-375.858	-82.624	-0.093	-0.030
-374.844	-200.000	0.008	0.120
-373.829	482.872	0.064	0.143
-372.815	-109.859	0.098	-0.020
-371.800	-126.732	-0.400	-0.058
-370.785	-116.224	-0.351	-0.064
-369.771	38.558	0.099	-0.087
-368.756	-60.798	0.221	0.092
-367.742	-75.629	-0.220	-0.077
-366.727	79.267	-0.076	0.080
-365.712	-91.807	0.163	0.046
-364.698	-200.000	-0.019	-0.163
-363.683	-27.084	0.327	-0.188
-362.669	-18.622	-0.295	0.182
-361.654	-104.120	0.129	0.030
-360.639	-72.014	0.247	0.090
-359.625	800.000	0.055	0.237
-358.610	-95.260	0.234	0.062
-357.596	-200.000	-0.039	0.455
-356.581	475.309	-0.071	0.158
-355.566	-58.842	-0.199	-0.085
-354.552	-17.100	-0.216	0.134
-353.537	20.557	-0.145	-0.116
-352.523	800.000	0.058	0.208
-351.508	100.434	-0.233	0.266
-350.493	-75.604	0.142	0.050
-349.479	-157.619	-0.226	-0.013
-348.464	-200.000	0.025	-0.201
-347.450	-51.574	-0.132	0.061
-346.435	-55.169	0.297	0.131
-345.420	800.000	-0.078	-0.320
-344.406	166.241	0.033	-0.046
-343.391	81.633	-0.207	0.221
-342.377	-139.863	-0.195	0.020
-341.362	-165.206	0.309	-0.013
-340.348	-142.265	-0.079	-0.008
-339.333	-150.313	-0.180	0.014
-338.318	-77.362	-0.406	-0.139
-337.304	-73.297	-0.128	-0.046
-336.289	-156.877	-0.208	-0.013
-335.275	424.907	-0.101	0.214
-334.260	146.789	0.060	0.080
-333.245	-200.000	-0.215	-0.001
-332.231	-200.000	0.005	-0.135
-331.216	-71.484	-0.374	-0.138
-330.202	132.633	0.134	-0.170
-329.187	-148.322	-0.052	0.004
-328.172	-62.395	0.240	-0.098
-327.158	195.726	-0.061	0.091
-326.143	-86.641	-0.377	0.114
-325.129	-32.017	0.300	0.165
-324.114	-32.880	0.301	-0.165
-323.099	124.108	-0.116	0.144
-322.085	-125.596	0.063	-0.009
-321.070	-60.482	0.023	-0.010
-320.056	-116.320	-0.226	0.041
-319.041	-47.106	0.227	0.109
-318.026	18.509	0.080	-0.063
-317.012	-64.780	-0.321	-0.128
-315.997	-200.000	0.025	-0.280
-314.983	447.191	0.206	-0.445
-313.968	-116.807	0.022	0.004
-312.953	594.348	-0.045	-0.110
-311.939	403.912	-0.059	0.123
-310.924	-76.498	-0.128	-0.044
-309.910	800.000	0.044	0.161
-308.895	-52.023	0.153	-0.070
-307.880	800.000	-0.065	0.187
-306.866	246.134	-0.169	-0.280
-305.851	130.113	-0.336	0.423
-304.837	-110.431	-0.186	0.038
-303.822	-15.020	0.155	0.098
-302.807	-124.414	-0.217	0.033
-301.793	63.692	0.109	0.108
-300.778	225.866	0.048	0.077
-299.764	-200.000	-0.007	-0.067
-298.749	-2.809	0.231	0.159
-297.735	48.150	-0.136	-0.126
-296.720	379.397	-0.111	0.223
-295.705	113.061	-0.115	0.137
-294.691	100.812	0.062	-0.071
-293.676	-95.025	0.097	0.026
-292.662	76.205	-0.233	-0.243
-291.647	128.775	-0.292	-0.367
-290.632	-87.290	0.298	0.089
-289.618	-121.885	0.157	-0.025
-288.603	-200.000	-0.017	0.154
-287.589	1.862	0.260	0.184
-286.574	-200.000	0.008	-0.229
-285.559	-51.206	-0.150	0.069
-284.545	453.863	-0.042	-0.091
-283.530	172.070	-0.146	0.207
-282.516	86.665	0.201	-0.218
-281.501	800.000	-0.083	-0.353
-280.486	146.743	0.139	-0.184
-279.472	800.000	-0.097	0.266
-278.457	72.461	0.176	0.181
-277.443	-200.000	-0.016	0.088
-276.428	-82.143	0.204	-0.066
-275.413	-125.228	0.142	-0.021
-274.399	28.348	-0.142	-0.118
-273.384	96.184	0.179	-0.202
-272.370	-200.000	0.004	-0.037
-271.355	-118.683	0.118	-0.020
-270.340	-64.813	-0.188	-0.075
-269.326	-200.000	0.039	0.187
-268.311	-84.822	0.218	0.067
-267.297	-190.343	-0.119	-0.001
-266.282	424.849	-0.022	0.048
-265.267	125.744	0.029	-0.036
-264.253	-200.000	-0.035	-0.177
-263.238	-36.944	0.231	-0.121
-262.224	800.000	0.076	-0.306
-261.209	-200.000	0.069	-0.398
-260.195	-200.000	-0.115	-0.000
-259.180	-97.921	0.360	-0.091
-258.165	73.120	-0.076	0.078
-257.151	-200.000	-0.016	-0.172
-256.136	-75.184	-0.307	-0.108
-255.122	-129.812	0.269	-0.036
-254.107	16.753	-0.132	-0.102
-253.092	-36.493	0.110	0.058
-252.078	93.530	0.076	0.085
-251.063	-71.457	0.305	0.112
-250.049	-92.070	0.213	0.059
-249.034	-80.413	-0.163	-0.053
-248.019	-51.682	0.192	-0.088
-247.005	800.000	0.072	0.253
-245.990	40.117	0.233	0.206
-244.976	-200.000	-0.002	-0.033
-243.961	-200.000	-0.007	-0.072
-242.946	-110.277	0.096	-0.020
-241.932	-200.000	-0.002	0.262
-240.917	48.622	0.213	0.196
-239.903	800.000	0.078	0.329
-238.888	-11.736	-0.215	-0.138
-237.873	156.002	-0.077	0.104
-236.859	-14.906	0.079	-0.049
-235.844	457.516	-0.056	0.122
-234.830	3.290	-0.132	0.095
-233.815	-163.404	0.281	-0.013
-232.800	248.234	0.067	-0.112
-231.786	140.687	-0.162	-0.210
-230.771	77.283	-0.244	-0.255
-229.757	-30.111	0.218	-0.122
-228.742	135.210	0.258	0.328
-227.727	800.000	-0.071	0.238
-226.713	-1.509	0.366	0.253
-225.698	-200.000	-0.019	0.166
-224.684	40.972	0.224	0.199
-223.669	144.341	0.084	0.110
-222.655	-166.815	0.383	0.015
-221.640	87.364	-0.053	-0.057
-220.625	-8.463	0.101	-0.066
-219.611	21.283	-0.188	0.150
-218.596	282.512	0.148	0.261
-217.582	-162.782	0.395	-0.019
-216.567	-200.000	-0.011	-0.578
-215.552	-51.873	-0.204	0.093
-214.538	800.000	-0.084	0.276
-213.523	129.223	0.121	0.152
-212.509	575.498	-0.099	0.237
-211.494	438.772	0.134	0.286
-210.479	-3.621	0.201	-0.137
-209.465	-92.447	-0.134	-0.037
-208.450	460.298	0.105	-0.228
-207.436	155.643	0.195	0.263
-206.421	46.531	0.269	-0.244
-205.406	40.850	-0.055	-0.049
-204.392	86.393	-0.030	0.032
-203.377	-150.750	-0.417	0.031
-202.363	-139.528	0.317	-0.033
-201.348	-14.379	0.247	0.156
-200.333	-153.855	-0.202	0.014
-199.319	-178.753	-0.243	-0.005
-198.304	-34.963	0.283	0.152
-197.290	-93.778	0.168	0.045
-196.275	101.030	-0.147	-0.167
-195.260	112.470	-0.181	-0.214
-194.246	-200.000	-0.038	-0.298
-193.231	64.901	0.142	0.141
-192.217	-200.000	-0.018	0.202
-191.202	-87.723	0.234	0.069
-190.187	-200.000	0.141	0.649
-189.173	-83.572	0.048	0.015
-188.158	-48.048	-0.150	0.071
-187.144	-2.433	-0.236	0.162
-186.129	-29.702	-0.397	0.222
-185.114	-14.506	0.120	-0.075
-184.100	-70.202	0.158	-0.059
-183.085	227.379	-0.206	-0.328
-182.071	-130.883	-0.110	0.014
-181.056	59.478	-0.321	-0.310
-180.042	-27.802	0.233	-0.132
-179.027	-148.881	0.209	0.017
-178.012	167.826	0.061	0.085
-176.998	118.691	0.098	0.119
-175.983	-169.204	0.263	0.010
-174.969	-200.000	0.051	0.237
-173.954	-27.681	-0.228	-0.130
-172.939	416.639	0.121	0.253
-171.925	-200.000	0.091	0.441
-170.910	157.423	-0.101	0.136
-169.896	-12.270	0.303	0.194
-168.881	-48.357	-0.226	0.106
-167.866	800.000	-0.037	-0.122
-166.852	40.749	0.211	-0.186
-165.837	-63.095	-0.185	-0.075
-164.823	800.000	-0.106	0.343
-163.808	-126.460	0.374	-0.054
-162.793	-200.000	0.028	-0.387
-161.779	-159.732	-0.235	0.013
-160.764	259.396	0.145	-0.244
-159.750	-200.000	0.042	0.255
-158.735	800.000	0.039	0.159
-157.720	-61.000	-0.531	0.219
-156.706	110.139	-0.191	-0.225
-155.691	-200.000	0.086	-0.500
-154.677	1.782	-0.080	0.056
-153.662	-18.694	0.429	0.262
-152.647	-142.236	-0.151	0.015
-151.633	18.633	0.137	-0.108
-150.618	-127.443	0.348	-0.050
-149.604	-108.663	-0.314	-0.066
-148.589	13.397	-0.401	0.304
-147.574	-200.000	-0.054	0.266
-146.560	157.155	0.015	-0.020
-145.545	449.049	-0.209	0.450
-144.531	800.000	0.052	0.142
-143.516	119.509	0.210	0.254
-142.502	-146.036	-0.147	-0.013
-141.487	84.750	-0.067	0.072
-140.472	-129.464	0.089	-0.012
-139.458	79.129	-0.080	-0.084
-138.443	-54.561	-0.221	-0.098
-137.429	505.308	-0.157	-0.355
-136.414	78.737	-0.192	-0.201
-135.399	615.934	-0.085	0.210
-134.385	-200.000	0.014	0.070
-133.370	-52.620	0.250	-0.113
-132.356	329.092	-0.150	0.283
-131.341	-200.000	-0.008	-0.094
-130.326	-101.769	0.151	-0.036
-129.312	1.377	0.289	0.203
-128.297	-200.000	0.009	-0.062
-127.283	33.152	0.102	0.086
-126.268	110.198	0.107	-0.125
-125.253	-200.000	-0.051	0.426
-124.239	-108.068	-0.013	0.003
-123.224	-200.000	-0.008	-0.100
-122.210	-96.421	-0.090	-0.023
