DTS Sentinel unit serial number:	SN413079Multiplexer serial number:	ORYXHardware model number:	OX4-SRSoftware version number:	ORYX F/W v4.00 Oryx Data Collector v3.7.2.0data status	okinstallation	princeton_trtdifferential loss correction	single-endedforward channel	channel 1reverse channel	N/Adate	2019/09/17time	19:30:35forward acquisition time	60.00reverse acquisition time	0.00gamma	496.2192k internal	0.2309k external	0.2309temperature offset calibration	0.9971default loss term (dB/km)	0.3790temperature slope calibration	1.0000multiplexer offset coefficient	1.0000multiplexer slope coefficient	1.0000fibre end	0.00T internal ref (°C)	36.62T ext. ref 1 (°C)	0.25T ext. ref 2 (°C)	25.07length (m)	temperature (°C)	Stokes	anti-Stokes-747.200	344.464	0.105	0.210
-746.185	-200.000	-0.069	0.404
-745.171	676.837	-0.089	0.236
-744.156	57.932	0.072	0.071
-743.142	193.056	0.091	0.140
-742.127	-200.000	0.035	0.168
-741.112	-18.116	0.082	0.052
-740.098	800.000	0.155	0.599
-739.083	-0.324	-0.259	0.187
-738.069	151.390	-0.165	0.228
-737.054	-200.000	0.060	-0.360
-736.039	78.693	-0.235	-0.255
-735.025	-200.000	0.019	0.331
-734.010	288.999	0.037	-0.068
-732.996	-99.372	-0.409	-0.105
-731.981	125.477	0.333	-0.427
-730.966	466.162	-0.077	-0.176
-729.952	160.254	0.103	-0.146
-728.937	-158.205	-0.246	-0.015
-727.923	800.000	0.019	-0.056
-726.908	-85.473	0.082	0.026
-725.894	-55.605	0.142	0.065
-724.879	305.323	-0.147	-0.277
-723.864	800.000	-0.059	-0.212
-722.850	10.278	0.212	-0.164
-721.835	411.366	0.039	0.083
-720.821	0.727	0.180	-0.131
-719.806	-114.601	-0.354	-0.069
-718.791	-200.000	0.036	0.288
-717.777	38.866	-0.023	-0.021
-716.762	-99.928	0.182	0.046
-715.748	-200.000	-0.007	0.617
-714.733	-200.000	0.027	-0.169
-713.718	203.101	0.101	0.159
-712.704	31.942	-0.257	0.225
-711.689	112.606	0.184	-0.226
-710.675	30.255	0.064	0.056
-709.660	-103.081	0.189	-0.045
-708.645	-59.443	-0.263	0.115
-707.631	254.413	0.069	0.120
-706.616	123.294	-0.112	-0.142
-705.602	82.886	0.285	0.315
-704.587	-35.162	-0.141	0.078
-703.572	-116.876	-0.132	0.025
-702.558	596.256	0.124	-0.312
-701.543	-146.254	0.292	-0.026
-700.529	-200.000	0.006	0.126
-699.514	800.000	-0.017	-0.066
-698.499	679.702	-0.064	0.170
-697.485	153.681	0.205	0.284
-696.470	800.000	-0.034	0.105
-695.456	85.979	0.132	-0.148
-694.441	478.672	0.119	0.274
-693.426	283.410	-0.191	0.348
-692.412	419.845	0.053	0.114
-691.397	3.921	0.126	-0.094
-690.383	49.634	-0.173	-0.165
-689.368	-58.747	-0.342	-0.150
-688.354	58.885	-0.038	0.038
-687.339	193.717	0.019	-0.029
-686.324	-200.000	-0.028	0.192
-685.310	-200.000	0.020	0.103
-684.295	199.036	0.074	-0.115
-683.281	3.197	0.181	0.134
-682.266	29.120	-0.281	0.242
-681.251	55.467	-0.177	-0.174
-680.237	43.340	-0.086	0.079
-679.222	-127.649	0.301	0.044
-678.208	-49.565	-0.265	-0.128
-677.193	-53.929	0.054	0.025
-676.178	78.151	0.095	0.103
-675.164	800.000	-0.039	0.140
-674.149	63.599	0.173	0.176
-673.135	-200.000	0.001	0.131
-672.120	-99.133	-0.366	-0.094
-671.105	256.958	0.102	0.178
-670.091	-200.000	-0.024	-0.299
-669.076	316.107	0.103	0.197
-668.062	-200.000	0.011	-0.077
-667.047	15.694	-0.003	-0.002
-666.032	-200.000	0.001	-0.054
-665.018	18.331	0.124	-0.100
-664.003	-200.000	-0.014	-0.214
-662.989	-11.538	0.267	-0.178
-661.974	-29.669	0.304	-0.176
-660.959	-156.314	-0.111	0.007
-659.945	-46.456	0.184	-0.092
-658.930	-200.000	0.029	-0.205
-657.916	754.901	-0.090	-0.248
-656.901	-123.175	0.079	0.013
-655.886	-53.983	-0.136	0.063
-654.872	14.085	0.108	-0.085
-653.857	195.121	0.144	-0.221
-652.843	373.365	-0.176	-0.363
-651.828	151.042	0.170	0.235
-650.814	180.601	-0.151	0.224
-649.799	-200.000	-0.004	-0.074
-648.784	800.000	0.155	-0.476
-647.770	152.401	-0.095	0.132
-646.755	152.553	-0.078	0.108
-645.741	-200.000	-0.035	-0.221
-644.726	66.443	-0.101	0.104
-643.711	79.216	-0.280	-0.303
-642.697	800.000	-0.039	0.143
-641.682	-200.000	0.041	-0.221
-640.668	206.259	-0.033	0.051
-639.653	-31.986	-0.205	-0.116
-638.638	102.395	0.348	-0.412
-637.624	115.842	-0.069	0.085
-636.609	135.041	-0.147	0.194
-635.595	181.499	0.038	-0.056
-634.580	56.414	-0.277	-0.272
-633.565	-168.431	0.131	-0.005
-632.551	36.117	0.085	0.076
-631.536	-16.109	-0.170	0.109
-630.522	107.897	0.255	0.307
-629.507	44.706	-0.126	-0.118
-628.492	-81.168	0.129	-0.043
-627.478	-58.686	-0.193	0.084
-626.463	94.454	0.209	0.241
-625.449	-26.167	0.420	0.250
-624.434	-55.201	-0.107	-0.048
-623.419	-82.269	-0.179	-0.059
-622.405	97.046	-0.083	0.096
-621.390	-96.588	0.103	0.028
-620.376	-101.466	0.127	0.031
-619.361	-125.848	-0.293	0.045
-618.346	64.446	0.208	0.212
-617.332	611.836	-0.074	-0.187
-616.317	800.000	0.070	-0.205
-615.303	-159.116	0.196	-0.011
-614.288	-60.054	-0.137	-0.059
-613.273	-200.000	-0.011	0.193
-612.259	210.689	0.117	-0.186
-611.244	-42.603	-0.140	0.072
-610.230	-164.569	-0.244	-0.011
-609.215	44.179	0.123	-0.114
-608.201	-200.000	-0.031	-0.148
-607.186	187.885	-0.154	0.232
-606.171	800.000	0.112	0.335
-605.157	800.000	-0.080	0.347
-604.142	-87.040	-0.259	-0.080
-603.128	-32.217	-0.247	-0.139
-602.113	-116.940	-0.048	0.009
-601.098	76.580	0.400	-0.429
-600.084	-81.392	0.295	-0.098
-599.069	-84.052	-0.118	0.038
-598.055	-67.025	-0.124	0.049
-597.040	358.663	0.063	0.126
-596.025	-200.000	-0.019	-0.108
-595.011	58.075	-0.246	-0.243
-593.996	280.224	-0.163	-0.294
-592.982	287.053	0.158	0.289
-591.967	57.605	-0.358	-0.353
-590.952	370.991	-0.049	-0.101
-589.938	-200.000	0.015	-0.106
-588.923	120.420	0.272	-0.341
-587.909	-139.360	0.046	-0.005
-586.894	147.705	0.078	-0.107
-585.879	-200.000	0.015	-0.088
-584.865	-200.000	-0.009	-0.044
-583.850	-166.707	0.225	-0.009
-582.836	-15.475	-0.263	-0.169
-581.821	-179.622	-0.267	0.006
-580.806	-32.773	-0.083	-0.047
-579.792	-200.000	-0.034	0.208
-578.777	732.228	-0.175	0.472
-577.763	27.369	0.004	0.004
-576.748	-200.000	0.081	0.000
-575.733	7.320	-0.213	0.160
-574.719	-138.652	-0.225	-0.025
-573.704	-141.140	-0.044	-0.005
-572.690	395.652	-0.068	0.143
-571.675	-200.000	0.017	-0.335
-570.661	-130.798	0.024	-0.003
-569.646	-150.649	-0.286	-0.022
-568.631	-200.000	-0.092	-0.477
-567.617	-200.000	-0.008	-0.251
-566.602	214.827	-0.145	0.231
-565.588	199.559	0.082	0.127
-564.573	-200.000	0.020	0.129
-563.558	47.120	-0.011	-0.010
-562.544	-25.693	-0.118	-0.071
-561.529	263.144	0.156	-0.274
-560.515	76.610	-0.203	-0.217
-559.500	21.715	0.267	0.219
-558.485	-118.416	-0.165	0.029
-557.471	-148.184	-0.097	-0.008
-556.456	-200.000	-0.025	0.166
-555.442	462.953	-0.114	-0.256
-554.427	-135.724	-0.227	0.027
-553.412	-101.047	-0.041	0.010
-552.398	-200.000	0.012	0.084
-551.383	23.826	0.071	0.059
-550.369	29.036	0.192	0.164
-549.354	-103.554	0.102	0.024
-548.339	-184.587	0.316	0.005
-547.325	211.377	0.042	-0.066
-546.310	58.484	0.124	0.123
-545.296	205.234	0.125	-0.196
-544.281	-107.639	-0.184	0.040
-543.266	-22.012	-0.173	-0.106
-542.252	214.647	-0.177	-0.282
-541.237	-159.240	-0.158	-0.009
-540.223	-18.521	0.316	-0.199
-539.208	-200.000	0.006	0.229
-538.193	800.000	0.049	0.142
-537.179	800.000	-0.052	-0.230
-536.164	800.000	-0.068	-0.208
-535.150	-153.850	0.096	0.007
-534.135	3.885	0.108	-0.079
-533.121	-16.759	0.074	-0.047
-532.106	-9.308	0.074	-0.050
-531.091	-117.982	0.025	0.005
-530.077	155.613	-0.104	-0.144
-529.062	-111.566	0.277	-0.057
-528.048	800.000	0.044	-0.130
-527.033	358.056	0.122	-0.246
-526.018	800.000	0.097	-0.331
-525.004	-56.436	-0.094	0.042
-523.989	-100.815	-0.084	0.021
-522.975	-200.000	0.018	-0.170
-521.960	8.344	0.125	0.094
-520.945	-105.345	-0.241	-0.055
-519.931	-21.246	0.139	0.086
-518.916	800.000	-0.033	0.116
-517.902	484.194	0.032	0.074
-516.887	106.416	-0.085	-0.101
-515.872	-2.362	-0.062	0.043
-514.858	352.707	-0.072	0.144
-513.843	5.694	-0.153	0.114
-512.829	-99.021	0.482	-0.123
-511.814	22.540	-0.183	0.151
-510.799	302.038	0.078	0.145
-509.785	262.931	-0.038	-0.066
-508.770	155.814	0.090	0.125
-507.756	-62.846	0.316	-0.132
-506.741	48.744	-0.052	-0.049
-505.726	60.636	0.165	0.164
-504.712	-22.179	0.164	-0.100
-503.697	-139.216	0.298	-0.032
-502.683	-15.371	-0.222	0.143
-501.668	-102.399	-0.264	0.064
-500.653	-98.733	-0.313	0.080
-499.639	-62.489	-0.207	0.087
-498.624	626.555	0.036	-0.092
-497.610	-105.489	0.110	0.025
-496.595	-191.480	0.110	0.001
-495.581	800.000	-0.081	0.240
-494.566	-200.000	-0.072	-0.354
-493.551	800.000	-0.075	-0.277
-492.537	-128.874	0.295	-0.042
-491.522	-72.182	0.224	-0.083
-490.508	222.622	-0.055	0.089
-489.493	403.958	-0.124	-0.263
-488.478	-136.076	-0.336	-0.040
-487.464	-200.000	-0.023	0.160
-486.449	-200.000	-0.020	-0.504
-485.435	-23.375	0.098	-0.059
-484.420	-200.000	0.013	-0.104
-483.405	78.016	0.167	-0.179
-482.391	97.276	0.143	-0.165
-481.376	-200.000	-0.022	-0.196
-480.362	16.188	-0.048	-0.038
-479.347	100.882	-0.072	-0.085
-478.332	-121.002	-0.065	0.011
-477.318	-200.000	-0.030	-0.407
-476.303	165.988	0.139	0.197
-475.289	800.000	-0.080	-0.252
-474.274	-42.734	-0.183	0.093
-473.259	468.160	0.043	0.097
-472.245	48.908	0.062	-0.059
-471.230	56.850	0.044	-0.044
-470.216	318.704	-0.108	-0.206
-469.201	164.730	0.238	0.338
-468.186	-98.929	-0.248	-0.063
-467.172	-143.169	0.264	-0.026
-466.157	204.651	0.033	0.051
-465.143	1.751	0.164	0.119
-464.128	291.808	0.123	0.224
-463.113	-122.958	0.238	-0.038
-462.099	30.222	0.058	0.050
-461.084	51.461	0.255	0.244
-460.070	800.000	0.070	0.223
-459.055	129.364	0.142	-0.182
-458.040	109.510	-0.128	0.154
-457.026	-200.000	-0.002	0.084
-456.011	127.555	0.200	0.255
-454.997	-22.844	0.056	-0.034
-453.982	383.980	-0.113	0.234
-452.968	-46.011	0.080	0.039
-451.953	168.988	-0.038	0.054
-450.938	424.541	0.084	0.182
-449.924	-200.000	-0.052	0.253
-448.909	51.992	-0.140	0.134
-447.895	-94.273	0.168	0.046
-446.880	-129.014	-0.215	0.030
-445.865	7.425	-0.168	-0.126
-444.851	-114.173	0.309	0.060
-443.836	800.000	0.013	0.050
-442.822	254.039	0.105	-0.180
-441.807	-200.000	0.028	0.278
-440.792	-90.368	0.079	0.023
-439.778	-52.718	-0.065	0.030
-438.763	-159.919	0.093	-0.005
-437.749	800.000	0.124	-0.483
-436.734	-135.003	-0.133	-0.016
-435.719	-11.886	-0.286	0.188
-434.705	90.372	0.236	0.265
-433.690	-112.852	-0.074	-0.015
-432.676	-42.856	0.104	0.053
-431.661	206.654	0.079	-0.124
-430.646	-137.007	-0.017	-0.002
-429.632	70.695	0.067	0.069
-428.617	-67.702	0.057	-0.022
-427.603	5.430	-0.107	-0.079
-426.588	152.205	0.051	-0.069
-425.573	76.639	0.213	-0.227
-424.559	-39.820	-0.076	0.040
-423.544	800.000	0.081	0.315
-422.530	-200.000	-0.002	-0.049
-421.515	39.502	-0.217	0.195
-420.500	41.595	-0.255	0.232
-419.486	193.286	0.158	-0.240
-418.471	-90.677	-0.360	0.104
-417.457	-17.450	0.088	-0.055
-416.442	-93.930	0.213	0.059
-415.428	602.325	0.050	-0.125
-414.413	170.460	-0.271	-0.389
-413.398	-200.000	0.033	-0.403
-412.384	-25.289	0.121	-0.072
-411.369	-200.000	-0.058	-0.318
-410.355	-71.124	-0.148	0.056
-409.340	75.680	-0.103	0.110
-408.325	177.312	-0.184	0.269
-407.311	800.000	-0.056	0.173
-406.296	-29.061	0.229	-0.132
-405.282	145.415	0.060	0.080
-404.267	291.709	0.139	-0.254
-403.252	-200.000	0.006	0.148
-402.238	343.901	-0.062	0.123
-401.223	-165.326	-0.305	-0.013
-400.209	800.000	0.012	-0.047
-399.194	214.268	0.159	0.252
-398.179	-200.000	-0.023	-0.142
-397.165	-200.000	-0.008	-0.190
-396.150	-32.607	0.319	-0.178
-395.136	-130.256	-0.154	0.021
-394.121	269.949	0.078	-0.137
-393.106	-97.972	0.222	0.057
-392.092	445.491	0.093	-0.205
-391.077	78.401	-0.123	-0.132
-390.063	-71.190	-0.246	0.093
-389.048	-155.202	0.087	-0.006
-388.033	255.816	-0.077	-0.133
-387.019	134.315	0.114	0.148
-386.004	9.771	0.270	-0.205
-384.990	567.175	0.064	-0.156
-383.975	800.000	0.069	0.276
-382.960	-120.952	-0.342	0.058
-381.946	-200.000	0.019	0.151
-380.931	61.402	0.020	-0.020
-379.917	-44.595	-0.118	-0.059
-378.902	52.481	-0.219	0.209
-377.888	12.860	-0.077	0.059
-376.873	-85.803	0.151	0.047
-375.858	-200.000	0.024	0.108
-374.844	124.983	0.173	-0.218
-373.829	-200.000	-0.054	0.288
-372.815	-161.643	0.303	0.016
-371.800	-200.000	-0.013	-0.070
-370.785	800.000	0.007	0.029
-369.771	-96.008	0.269	-0.072
-368.756	800.000	-0.037	-0.142
-367.742	70.666	-0.021	0.022
-366.727	421.943	-0.190	0.409
-365.712	-200.000	-0.005	0.337
-364.698	-200.000	0.030	-0.131
-363.683	-200.000	-0.028	0.213
-362.669	338.414	0.117	-0.229
-361.654	372.635	0.077	0.157
-360.639	-166.879	-0.189	0.008
-359.625	5.258	-0.365	0.269
-358.610	800.000	-0.020	0.070
-357.596	-92.921	0.278	-0.078
-356.581	-114.619	-0.223	-0.043
-355.566	-123.128	0.277	-0.044
-354.552	-16.887	0.156	0.098
-353.537	-33.138	-0.164	0.091
-352.523	258.713	-0.056	-0.096
-351.508	-107.780	0.229	0.050
-350.493	-117.683	-0.387	0.070
-349.479	221.202	0.173	0.278
-348.464	800.000	0.046	0.196
-347.450	122.555	-0.088	-0.110
-346.435	-119.048	0.058	0.010
-345.420	-169.703	-0.358	-0.013
-344.406	-104.213	0.183	-0.043
-343.391	-200.000	-0.076	0.365
-342.377	11.409	0.061	0.047
-341.362	124.259	0.077	0.097
-340.348	106.076	0.197	0.233
-339.333	800.000	-0.033	0.136
-338.318	-200.000	-0.042	-0.290
-337.304	10.122	-0.311	-0.236
-336.289	-200.000	-0.021	0.206
-335.275	155.059	-0.178	0.245
-334.260	12.989	-0.225	0.174
-333.245	-200.000	0.051	0.352
-332.231	-76.634	0.484	0.170
-331.216	92.653	-0.111	-0.125
-330.202	68.082	-0.442	-0.452
-329.187	-34.177	0.065	-0.036
-328.172	800.000	0.028	0.107
-327.158	-102.485	0.211	-0.050
-326.143	-16.996	-0.220	0.139
-325.129	26.533	-0.074	-0.062
-324.114	-41.849	-0.136	-0.070
-323.099	-97.658	0.287	0.074
-322.085	-123.466	0.196	-0.031
-321.070	-41.016	-0.347	-0.179
-320.056	-200.000	-0.026	-0.282
-319.041	32.845	0.143	0.124
-318.026	226.192	-0.083	0.134
-317.012	-200.000	0.025	0.126
-315.997	-170.309	-0.336	0.012
-314.983	-65.302	0.062	0.025
-313.968	105.117	-0.005	-0.005
-312.953	-181.204	-0.122	-0.002
-311.939	-119.687	-0.468	0.081
-310.924	-74.935	0.063	0.023
-309.910	91.033	0.126	-0.141
-308.895	661.532	0.116	-0.299
-307.880	65.018	0.187	-0.189
-306.866	-97.773	0.161	-0.042
-305.851	-200.000	0.008	-0.229
-304.837	-58.024	-0.105	0.046
-303.822	-111.229	0.303	-0.062
-302.807	-117.903	-0.205	0.037
-301.793	-22.632	-0.154	0.093
-300.778	-200.000	-0.030	-0.136
-299.764	-200.000	-0.048	0.242
-298.749	800.000	-0.023	0.078
-297.735	124.321	0.138	0.174
-296.720	126.061	-0.085	-0.108
-295.705	436.762	0.092	0.200
-294.691	-67.596	0.167	-0.065
-293.676	-14.437	0.125	0.080
-292.662	180.071	-0.182	0.267
-291.647	416.712	-0.105	-0.224
-290.632	-17.558	0.206	-0.129
-289.618	-86.541	-0.043	0.013
-288.603	63.481	-0.255	-0.255
-287.589	-77.502	0.182	0.063
-286.574	-200.000	-0.027	0.185
-285.559	-200.000	0.021	-0.133
-284.545	-86.201	-0.435	-0.134
-283.530	132.585	-0.155	0.199
-282.516	49.982	-0.363	0.341
-281.501	373.209	0.124	0.251
-280.486	-76.162	0.273	0.096
-279.472	800.000	-0.059	-0.178
-278.457	-145.513	0.036	0.003
-277.443	-193.553	-0.095	0.001
-276.428	-12.187	-0.169	0.110
-275.413	-54.222	-0.222	-0.101
-274.399	-141.072	0.137	-0.014
-273.384	498.201	-0.069	0.159
-272.370	153.966	0.198	0.271
-271.355	197.185	0.037	0.056
-270.340	-200.000	0.029	0.202
-269.326	428.490	-0.066	0.142
-268.311	-198.717	0.167	-0.001
-267.297	88.024	0.083	-0.092
-266.282	-112.403	-0.214	0.043
-265.267	-2.922	-0.270	0.188
-264.253	-21.423	0.113	-0.069
-263.238	15.114	0.112	-0.088
-262.224	319.962	0.059	-0.112
-261.209	235.851	0.091	0.149
-260.195	-24.210	0.225	-0.134
-259.180	6.988	-0.185	0.137
-258.165	-170.222	0.117	0.004
-257.151	-200.000	-0.019	0.236
-256.136	-106.875	-0.173	-0.038
-255.122	500.540	-0.075	-0.172
-254.107	-80.654	0.293	-0.097
-253.092	43.016	0.150	0.136
-252.078	276.233	0.179	-0.317
-251.063	294.238	0.115	-0.210
-250.049	-167.454	-0.139	-0.006
-249.034	-44.245	-0.264	-0.132
-248.019	-69.734	-0.034	-0.013
-247.005	-200.000	-0.004	-0.150
-245.990	32.699	-0.257	-0.222
-244.976	800.000	-0.047	0.131
-243.961	-89.536	0.270	-0.079
-242.946	208.471	0.043	-0.067
-241.932	113.211	0.195	0.236
-240.917	800.000	-0.092	0.305
-239.903	-134.580	0.315	-0.038
-238.888	68.476	-0.101	-0.103
-237.873	-75.205	0.228	0.081
-236.859	-45.092	-0.164	-0.081
-235.844	-94.452	-0.119	-0.032
-234.830	-153.016	-0.185	0.013
-233.815	-90.895	0.064	0.018
-232.800	-200.000	-0.032	0.348
-231.786	175.532	0.076	0.109
-230.771	61.407	0.130	0.129
-229.757	-200.000	0.048	0.317
-228.742	32.048	0.299	0.257
-227.727	800.000	-0.086	0.255
-226.713	257.506	-0.058	-0.099
-225.698	800.000	0.078	0.339
-224.684	-200.000	-0.015	0.153
-223.669	-167.323	-0.164	-0.007
-222.655	84.422	0.021	-0.023
-221.640	-178.007	-0.215	-0.005
-220.625	409.101	-0.142	0.300
-219.611	-98.199	-0.188	0.048
-218.596	-55.625	0.216	-0.096
-217.582	89.466	-0.275	-0.305
-216.567	800.000	-0.064	-0.259
-215.552	-159.401	0.289	-0.016
-214.538	253.433	0.255	0.434
-213.523	41.476	0.073	0.066
-212.509	-49.225	0.179	-0.085
-211.494	635.919	0.088	-0.222
-210.479	235.723	-0.099	-0.163
-209.465	15.262	0.090	0.070
-208.450	-11.955	0.129	-0.084
-207.436	135.430	-0.222	0.287
-206.421	-45.082	0.147	-0.073
-205.406	-200.000	-0.041	-0.000
-204.392	217.066	0.081	0.128
-203.377	404.602	-0.034	-0.072
-202.363	12.695	0.057	0.044
-201.348	-45.402	-0.112	0.055
-200.333	109.266	-0.069	0.082
-199.319	198.149	-0.103	-0.156
-198.304	800.000	0.077	-0.295
-197.290	-18.229	-0.316	-0.197
-196.275	800.000	-0.027	0.104
-195.260	2.836	-0.167	-0.120
-194.246	-200.000	0.009	-0.202
-193.231	332.160	0.115	0.221
-192.217	413.728	-0.101	0.213
-191.202	-200.000	-0.010	0.249
-190.187	-114.517	0.495	0.094
-189.173	162.609	0.086	-0.119
-188.158	325.171	0.017	0.033
-187.144	-156.254	-0.024	-0.002
-186.129	415.307	0.123	-0.260
-185.114	-122.080	0.266	-0.043
-184.100	-200.000	0.027	0.328
-183.085	800.000	0.035	0.120
-182.071	-200.000	0.051	-0.417
-181.056	-200.000	-0.004	-0.206
-180.042	-34.069	0.151	-0.083
-179.027	-200.000	-0.065	-0.341
-178.012	42.781	0.214	-0.194
-176.998	-13.437	-0.200	0.129
-175.983	-122.974	0.085	0.014
-174.969	-200.000	0.005	-0.049
-173.954	-200.000	-0.032	-0.167
-172.939	110.593	0.146	0.174
-171.925	293.138	-0.153	0.278
-170.910	311.027	-0.189	-0.352
-169.896	134.538	0.085	-0.110
-168.881	74.846	0.231	-0.242
-167.866	-24.354	0.175	0.104
-166.852	800.000	0.011	-0.032
-165.837	-36.371	0.143	0.076
-164.823	-129.787	-0.233	0.032
-163.808	784.072	-0.051	0.140
-162.793	-106.164	0.221	-0.049
-161.779	117.344	0.152	0.185
-160.764	-200.000	0.013	0.185
-159.750	-52.590	-0.155	0.071
-158.735	107.674	0.110	-0.131
-157.720	-63.811	0.284	-0.116
-156.706	-33.713	-0.328	-0.180
-155.691	-109.664	-0.284	0.059
-154.677	-131.959	-0.137	0.018
-153.662	800.000	-0.009	-0.028
-152.647	51.799	0.081	-0.077
-151.633	552.158	-0.132	0.314
-150.618	117.941	0.229	0.280
-149.604	79.258	0.110	0.117
-148.589	-200.000	0.053	-0.400
-147.574	159.417	-0.075	0.104
-146.560	-110.049	0.070	-0.015
-145.545	91.301	0.245	-0.273
-144.531	65.317	0.160	0.160
-143.516	-200.000	0.026	0.124
-142.502	800.000	-0.066	0.247
-141.487	-126.214	-0.205	-0.030
-140.472	-150.667	0.182	0.014
-139.458	-11.101	0.252	-0.165
-138.443	-34.154	-0.092	0.050
-137.429	13.536	0.228	0.175
-136.414	116.515	0.063	0.077
-135.399	67.327	-0.139	0.140
-134.385	-88.172	-0.265	-0.079
-133.370	269.656	0.072	0.126
-132.356	-18.127	0.115	-0.072
-131.341	-4.381	-0.180	-0.123
-130.326	-169.852	0.086	0.003
-129.312	270.730	0.161	0.281
-128.297	-143.507	-0.156	-0.015
-127.283	-68.707	0.251	-0.096
-126.268	800.000	0.075	-0.294
-125.253	-126.887	-0.076	-0.011
-124.239	-56.513	0.400	-0.176
-123.224	320.394	0.022	0.042
-122.210	238.181	-0.214	-0.352
-121.195	287.209	-0.095	-0.170
-120.180	800.000	0.149	-0.413
