DTS Sentinel unit serial number:	SN413079Multiplexer serial number:	ORYXHardware model number:	OX4-SRSoftware version number:	ORYX F/W v4.00 Oryx Data Collector v3.7.2.0data status	okinstallation	princeton_trtdifferential loss correction	single-endedforward channel	channel 1reverse channel	N/Adate	2019/09/17time	08:30:35forward acquisition time	60.00reverse acquisition time	0.00gamma	496.2192k internal	0.2328k external	0.2328temperature offset calibration	0.9966default loss term (dB/km)	0.3790temperature slope calibration	1.0000multiplexer offset coefficient	1.0000multiplexer slope coefficient	1.0000fibre end	0.00T internal ref (°C)	27.56T ext. ref 1 (°C)	0.14T ext. ref 2 (°C)	23.06length (m)	temperature (°C)	Stokes	anti-Stokes-747.200	-53.377	-0.091	-0.042
-746.185	327.737	0.071	-0.137
-745.171	15.901	-0.250	0.199
-744.156	-140.481	0.315	0.033
-743.142	239.518	-0.086	-0.144
-742.127	-88.890	-0.475	0.142
-741.112	11.368	0.146	-0.112
-740.098	74.234	-0.233	0.246
-739.083	-147.538	0.223	-0.019
-738.069	-200.000	0.011	0.341
-737.054	52.101	-0.028	-0.027
-736.039	32.634	0.081	-0.070
-735.025	72.214	0.199	-0.209
-734.010	26.026	-0.196	-0.164
-732.996	-200.000	0.017	0.137
-731.981	-126.282	-0.267	0.040
-730.966	274.569	-0.234	-0.417
-729.952	-87.872	-0.148	0.045
-728.937	5.219	0.172	0.128
-727.923	-95.453	-0.386	-0.104
-726.908	90.697	0.239	0.270
-725.894	393.307	0.046	-0.095
-724.879	-200.000	-0.034	-0.253
-723.864	-4.504	0.226	0.157
-722.850	-200.000	0.089	0.476
-721.835	484.865	-0.072	-0.164
-720.821	358.470	0.037	0.075
-719.806	18.403	-0.249	0.200
-718.791	-124.852	0.315	0.049
-717.777	800.000	0.017	-0.069
-716.762	24.371	-0.111	-0.092
-715.748	-6.001	0.243	0.167
-714.733	-91.646	-0.283	-0.081
-713.718	-83.401	0.395	-0.127
-712.704	-31.774	-0.235	-0.133
-711.689	-99.518	-0.178	0.045
-710.675	-46.190	-0.150	0.074
-709.660	-37.223	-0.292	0.157
-708.645	-19.898	-0.266	0.165
-707.631	-118.861	-0.181	0.032
-706.616	-141.922	0.351	0.035
-705.602	-1.014	-0.200	-0.142
-704.587	-200.000	0.055	-0.401
-703.572	-85.207	0.282	-0.089
-702.558	11.486	-0.241	0.185
-701.543	-110.740	0.130	0.027
-700.529	-5.909	-0.159	0.109
-699.514	198.633	0.062	-0.096
-698.499	104.466	-0.266	0.315
-697.485	650.341	-0.053	0.135
-696.470	-126.054	-0.244	0.037
-695.456	800.000	-0.061	0.256
-694.441	-47.962	0.047	-0.023
-693.426	-95.576	0.060	0.016
-692.412	26.492	-0.071	-0.059
-691.397	-83.339	0.141	-0.045
-690.383	-200.000	0.017	-0.101
-689.368	-96.686	-0.181	-0.048
-688.354	139.199	-0.067	0.088
-687.339	-113.536	0.347	0.068
-686.324	62.179	0.142	-0.143
-685.310	448.114	-0.145	-0.322
-684.295	121.892	-0.163	-0.204
-683.281	800.000	-0.088	0.336
-682.266	27.791	0.031	-0.026
-681.251	-68.144	0.131	-0.051
-680.237	-81.141	-0.425	-0.141
-679.222	274.137	0.104	-0.185
-678.208	26.045	0.013	0.011
-677.193	-54.029	-0.327	0.150
-676.178	125.086	0.196	-0.248
-675.164	-200.000	0.023	-0.163
-674.149	68.725	-0.059	-0.061
-673.135	-114.196	-0.366	0.071
-672.120	-77.429	-0.057	0.020
-671.105	800.000	0.057	0.233
-670.091	-121.016	-0.047	-0.008
-669.076	-45.193	-0.356	-0.178
-668.062	-166.328	0.104	-0.004
-667.047	62.550	0.116	-0.116
-666.032	4.023	-0.097	-0.071
-665.018	-16.700	-0.105	0.067
-664.003	-46.288	-0.387	-0.191
-662.989	-114.097	0.237	-0.046
-661.974	-108.005	-0.308	0.067
-660.959	245.474	-0.133	-0.225
-659.945	-143.026	0.221	0.021
-658.930	314.592	-0.109	0.205
-657.916	-200.000	-0.075	0.529
-656.901	-155.518	-0.215	-0.014
-655.886	-67.749	0.363	-0.143
-654.872	42.554	-0.100	0.091
-653.857	800.000	-0.047	-0.189
-652.843	121.983	-0.092	-0.115
-651.828	-200.000	0.008	0.130
-650.814	356.506	0.130	-0.260
-649.799	88.794	0.218	0.244
-648.784	-65.494	-0.299	-0.121
-647.770	-200.000	0.005	0.136
-646.755	-102.538	0.339	-0.081
-645.741	-132.894	-0.184	0.024
-644.726	114.561	-0.187	0.229
-643.711	800.000	-0.044	-0.159
-642.697	135.862	0.249	-0.325
-641.682	-106.653	-0.167	-0.037
-640.668	-85.545	-0.413	-0.129
-639.653	-40.898	-0.152	-0.079
-638.638	-135.207	0.134	-0.016
-637.624	455.101	-0.095	-0.212
-636.609	106.466	0.176	0.209
-635.595	-60.559	0.251	-0.107
-634.580	-200.000	0.005	0.039
-633.565	171.094	-0.166	-0.239
-632.551	-200.000	0.036	-0.167
-631.536	800.000	0.032	-0.116
-630.522	-200.000	-0.031	-0.218
-629.507	800.000	-0.041	0.115
-628.492	80.543	0.200	0.216
-627.478	-40.612	0.031	-0.016
-626.463	800.000	-0.050	-0.174
-625.449	-2.455	-0.181	-0.127
-624.434	119.920	0.141	0.176
-623.419	11.980	0.048	-0.037
-622.405	35.580	-0.228	0.201
-621.390	230.347	-0.109	0.179
-620.376	228.639	-0.243	0.398
-619.361	49.728	0.240	-0.227
-618.346	800.000	-0.048	-0.198
-617.332	-200.000	-0.060	-0.371
-616.317	-200.000	0.022	0.206
-615.303	11.809	-0.096	0.074
-614.288	800.000	0.123	0.354
-613.273	479.676	-0.114	-0.258
-612.259	-108.388	0.295	-0.064
-611.244	-109.656	-0.195	-0.041
-610.230	-107.870	-0.253	0.055
-609.215	52.324	0.126	-0.120
-608.201	181.445	0.123	0.182
-607.186	-33.617	-0.063	-0.035
-606.171	-104.235	0.059	0.014
-605.157	130.794	0.229	0.294
-604.142	260.490	0.140	-0.242
-603.128	561.723	0.102	-0.248
-602.113	-200.000	-0.051	-0.304
-601.098	-127.379	-0.280	-0.041
-600.084	800.000	-0.124	0.401
-599.069	-51.333	-0.160	0.075
-598.055	-184.267	-0.218	0.004
-597.040	-200.000	0.022	-0.225
-596.025	-200.000	-0.015	-0.333
-595.011	800.000	-0.022	-0.089
-593.996	-200.000	0.042	-0.190
-592.982	-86.500	0.290	0.089
-591.967	800.000	-0.089	-0.278
-590.952	151.152	0.191	0.260
-589.938	-200.000	0.040	-0.223
-588.923	182.301	-0.088	-0.130
-587.909	457.275	-0.130	-0.290
-586.894	-57.044	0.330	0.146
-585.879	56.618	-0.354	0.345
-584.865	800.000	-0.082	0.272
-583.850	-143.358	-0.332	-0.032
-582.836	800.000	-0.051	0.198
-581.821	68.311	0.311	-0.319
-580.806	-67.886	-0.066	0.026
-579.792	800.000	0.115	-0.373
-578.777	214.691	-0.108	-0.172
-577.763	-200.000	-0.012	-0.314
-576.748	176.768	0.131	0.190
-575.733	-100.645	-0.155	0.038
-574.719	-51.276	0.039	-0.018
-573.704	1.836	-0.153	0.110
-572.690	155.014	0.108	-0.149
-571.675	-200.000	0.007	0.155
-570.661	3.901	-0.056	0.041
-569.646	-51.156	0.276	-0.130
-568.631	292.881	0.047	-0.085
-567.617	7.381	-0.192	0.143
-566.602	-130.725	-0.410	0.055
-565.588	-106.848	0.400	0.089
-564.573	-13.516	0.305	-0.198
-563.558	185.048	0.103	0.153
-562.544	-59.113	0.355	-0.153
-561.529	27.781	-0.252	0.212
-560.515	130.254	0.106	-0.135
-559.500	3.573	-0.291	-0.212
-558.485	-145.051	0.208	0.019
-557.471	-26.906	0.335	-0.195
-556.456	-124.927	0.139	-0.021
-555.442	-0.631	0.174	-0.124
-554.427	-123.765	0.282	0.045
-553.412	-28.518	-0.273	0.157
-552.398	800.000	-0.087	0.260
-551.383	-200.000	-0.027	0.266
-550.369	-3.922	-0.029	0.020
-549.354	-124.988	-0.432	-0.066
-548.339	-200.000	-0.010	0.231
-547.325	-200.000	-0.012	0.096
-546.310	-200.000	-0.015	0.320
-545.296	293.446	0.138	-0.252
-544.281	-17.583	-0.295	-0.185
-543.266	603.638	0.054	-0.134
-542.252	-11.741	-0.250	0.164
-541.237	411.275	0.127	0.269
-540.223	-200.000	0.038	0.329
-539.208	170.063	0.186	0.267
-538.193	-200.000	0.010	0.062
-537.179	-47.239	0.178	-0.087
-536.164	-51.358	0.149	0.070
-535.150	153.514	-0.114	-0.156
-534.135	-200.000	0.004	0.156
-533.121	800.000	0.066	-0.238
-532.106	-100.750	0.152	0.037
-531.091	-74.658	0.557	-0.200
-530.077	-136.957	-0.244	0.028
-529.062	272.246	0.221	-0.389
-528.048	147.735	0.096	0.129
-527.033	-95.362	0.188	0.051
-526.018	383.854	0.062	0.127
-525.004	-140.995	0.156	-0.016
-523.989	-121.816	0.331	0.055
-522.975	143.308	0.226	0.301
-521.960	-200.000	0.017	-0.075
-520.945	-200.000	-0.068	0.301
-519.931	-29.635	-0.109	0.062
-518.916	178.209	-0.174	-0.254
-517.902	466.740	-0.132	0.296
-516.887	800.000	0.041	0.159
-515.872	1.299	-0.396	0.284
-514.858	133.424	-0.120	-0.154
-513.843	16.070	-0.134	0.105
-512.829	13.562	0.257	-0.199
-511.814	600.468	-0.097	0.241
-510.799	-146.641	-0.086	0.007
-509.785	-16.221	0.135	0.086
-508.770	800.000	0.028	-0.100
-507.756	166.591	-0.163	-0.231
-506.741	132.101	-0.219	0.282
-505.726	-57.285	0.334	0.147
-504.712	-89.326	0.206	-0.061
-503.697	-25.858	0.235	0.138
-502.683	127.134	0.172	0.217
-501.668	-200.000	0.029	0.169
-500.653	177.571	0.008	0.011
-499.639	75.380	0.184	-0.194
-498.624	-67.498	-0.259	0.102
-497.610	58.837	-0.058	-0.057
-496.595	-60.366	-0.244	0.104
-495.581	800.000	-0.049	-0.164
-494.566	800.000	0.082	0.269
-493.551	-200.000	-0.023	0.131
-492.537	-66.088	-0.175	-0.070
-491.522	367.612	0.156	-0.315
-490.508	35.318	0.242	0.211
-489.493	9.937	0.226	-0.171
-488.478	184.423	-0.135	0.199
-487.464	36.462	0.239	-0.210
-486.449	-99.324	-0.310	0.078
-485.435	-88.112	-0.058	0.017
-484.420	800.000	-0.045	-0.154
-483.405	-27.101	-0.330	0.192
-482.391	16.767	0.251	0.198
-481.376	-148.432	0.217	-0.018
-480.362	-200.000	-0.002	0.086
-479.347	461.090	-0.117	0.260
-478.332	-200.000	-0.062	0.365
-477.318	-41.398	0.148	0.076
-476.303	-150.907	0.204	-0.015
-475.289	116.589	0.082	0.101
-474.274	72.426	-0.125	0.129
-473.259	-200.000	-0.025	-0.205
-472.245	-37.190	-0.196	-0.105
-471.230	-8.850	0.363	-0.242
-470.216	-200.000	0.014	0.097
-469.201	216.669	-0.059	-0.094
-468.186	800.000	-0.079	-0.244
-467.172	-148.747	0.029	-0.002
-466.157	707.125	-0.095	0.249
-465.143	-14.315	0.237	0.152
-464.128	-62.088	-0.123	-0.051
-463.113	105.611	0.190	0.224
-462.099	800.000	-0.012	-0.037
-461.084	-68.852	-0.155	-0.059
-460.070	-200.000	-0.055	-0.255
-459.055	2.085	0.044	0.032
-458.040	-109.080	0.038	0.008
-457.026	-200.000	-0.010	-0.083
-456.011	-200.000	0.027	-0.144
-454.997	254.296	-0.122	0.208
-453.982	98.452	-0.171	-0.196
-452.968	-103.678	-0.265	-0.062
-451.953	800.000	-0.078	-0.279
-450.938	122.369	0.045	-0.057
-449.924	115.997	-0.110	0.134
-448.909	800.000	0.077	-0.257
-447.895	124.991	0.055	-0.069
-446.880	160.897	0.210	-0.292
-445.865	682.536	-0.117	0.304
-444.851	-143.355	0.424	0.040
-443.836	-200.000	-0.006	0.114
-442.822	-80.498	0.263	0.087
-441.807	336.106	0.072	-0.139
-440.792	-68.288	-0.363	0.141
-439.778	-200.000	-0.026	0.177
-438.763	-69.068	0.227	0.087
-437.749	88.080	0.128	-0.141
-436.734	-82.617	0.308	0.099
-435.719	72.601	0.087	0.090
-434.705	-200.000	0.008	-0.128
-433.690	-144.276	0.235	-0.022
-432.676	114.158	-0.110	0.133
-431.661	-119.447	0.326	0.056
-430.646	800.000	0.064	-0.205
-429.632	362.706	0.021	0.042
-428.617	800.000	0.054	0.159
-427.603	184.066	-0.125	-0.184
-426.588	19.782	0.258	0.206
-425.573	-123.616	-0.557	-0.088
-424.559	157.661	-0.099	-0.136
-423.544	389.976	0.147	-0.303
-422.530	24.312	-0.223	-0.183
-421.515	-116.269	0.228	-0.042
-420.500	57.272	0.038	0.037
-419.486	-91.531	0.343	0.097
-418.471	-86.946	-0.088	-0.027
-417.457	-200.000	-0.036	-0.228
-416.442	-169.589	-0.284	0.010
-415.428	237.079	-0.104	-0.172
-414.413	375.652	-0.114	0.232
-413.398	-69.531	0.249	0.095
-412.384	167.377	-0.182	-0.258
-411.369	-26.393	-0.096	-0.056
-410.355	-200.000	-0.002	-0.168
-409.340	37.423	-0.085	0.075
-408.325	-133.849	0.362	-0.045
-407.311	-200.000	0.017	0.139
-406.296	21.365	0.224	-0.181
-405.282	402.772	0.127	0.265
-404.267	800.000	-0.033	0.095
-403.252	-59.605	-0.210	0.090
-402.238	-200.000	0.005	-0.033
-401.223	329.489	-0.022	-0.041
-400.209	800.000	0.042	0.169
-399.194	183.392	-0.173	0.255
-398.179	-34.463	0.176	0.096
-397.165	271.867	0.244	-0.428
-396.150	-26.526	-0.148	0.086
-395.136	11.767	-0.271	0.207
-394.121	-116.513	-0.019	-0.004
-393.106	41.764	0.193	-0.174
-392.092	59.802	-0.109	0.107
-391.077	-200.000	0.025	-0.130
-390.063	-155.681	-0.020	-0.001
-389.048	-35.632	-0.244	0.132
-388.033	-35.427	0.111	0.060
-387.019	-48.381	0.154	-0.074
-386.004	239.942	0.091	0.151
-384.990	386.364	0.092	0.188
-383.975	-200.000	-0.058	0.375
-382.960	163.429	0.179	-0.250
-381.946	-25.048	0.242	0.142
-380.931	-155.751	0.357	-0.023
-379.917	-17.509	0.068	-0.043
-378.902	258.534	-0.162	0.278
-377.888	119.992	0.139	0.171
-376.873	-131.338	-0.067	-0.009
-375.858	-182.805	-0.119	0.002
-374.844	295.131	0.051	0.092
-373.829	-3.373	0.363	0.251
-372.815	-200.000	-0.013	0.513
-371.800	78.962	0.109	0.116
-370.785	144.044	-0.094	-0.124
-369.771	-68.708	0.167	-0.064
-368.756	41.805	0.258	0.232
-367.742	-200.000	0.023	-0.381
-366.727	-121.314	-0.141	0.023
-365.712	19.401	-0.186	0.149
-364.698	123.570	-0.105	-0.131
-363.683	-103.170	-0.256	0.060
-362.669	4.238	-0.019	0.014
-361.654	-160.575	-0.330	-0.017
-360.639	764.168	0.060	-0.162
-359.625	-28.255	-0.072	0.041
-358.610	800.000	-0.150	-0.472
-357.596	-116.374	-0.242	-0.044
-356.581	112.721	-0.097	-0.117
-355.566	-200.000	-0.017	-0.151
-354.552	-200.000	-0.052	-0.319
-353.537	145.916	-0.121	-0.162
-352.523	-145.669	-0.187	-0.017
-351.508	-14.671	0.300	-0.191
-350.493	-48.181	-0.268	0.128
-349.479	-2.507	-0.134	-0.093
-348.464	-200.000	-0.019	-0.206
-347.450	-200.000	0.013	-0.077
-346.435	-200.000	0.005	0.118
-345.420	-117.023	-0.231	0.042
-344.406	664.955	0.153	0.392
-343.391	11.335	-0.216	-0.164
-342.377	785.281	0.141	-0.382
-341.362	478.039	-0.110	-0.247
-340.348	522.014	-0.141	0.329
-339.333	163.475	0.266	0.371
-338.318	-60.465	-0.246	0.104
-337.304	56.470	0.196	-0.189
-336.289	269.291	-0.059	0.103
-335.275	174.581	-0.056	0.081
-334.260	118.808	0.294	-0.360
-333.245	-135.253	0.287	-0.034
-332.231	-87.525	-0.469	-0.141
-331.216	-119.653	0.226	0.039
-330.202	-70.922	0.088	0.033
-329.187	-40.086	-0.157	-0.081
-328.172	316.123	-0.056	0.104
-327.158	189.591	-0.209	-0.310
-326.143	13.926	-0.172	-0.133
-325.129	-200.000	0.017	-0.235
-324.114	-93.107	-0.148	-0.041
-323.099	733.419	-0.147	-0.389
-322.085	134.149	0.050	-0.064
-321.070	-60.730	0.163	0.069
-320.056	52.710	0.140	-0.133
-319.041	-200.000	-0.003	0.170
-318.026	52.238	0.257	0.243
-317.012	41.004	-0.264	0.236
-315.997	-134.124	-0.259	-0.032
-314.983	15.081	0.133	0.103
-313.968	-85.052	-0.077	0.024
-312.953	-132.896	-0.081	-0.010
-311.939	116.745	-0.271	-0.329
-310.924	2.896	0.137	0.098
-309.910	-47.297	0.106	0.051
-308.895	-41.721	-0.261	-0.133
-307.880	-39.015	-0.081	0.042
-306.866	800.000	0.049	0.166
-305.851	800.000	0.059	-0.213
-304.837	58.542	0.097	-0.094
-303.822	-98.535	-0.153	-0.039
-302.807	12.719	0.225	-0.172
-301.793	-95.129	-0.066	0.018
-300.778	-13.733	0.144	-0.092
-299.764	282.560	-0.027	0.048
-298.749	-200.000	0.016	0.086
-297.735	132.709	-0.047	-0.060
-296.720	800.000	0.020	0.077
-295.705	56.219	0.137	0.132
-294.691	-200.000	-0.023	0.132
-293.676	800.000	-0.108	0.313
-292.662	-151.613	-0.127	0.009
-291.647	-161.634	0.181	-0.009
-290.632	-7.925	0.343	-0.229
-289.618	76.360	-0.203	-0.213
-288.603	800.000	0.075	-0.316
-287.589	-200.000	-0.020	-0.216
-286.574	629.323	0.106	0.265
-285.559	23.202	0.167	-0.136
-284.545	45.846	-0.204	-0.187
-283.530	248.453	-0.039	0.066
-282.516	122.730	0.222	0.275
-281.501	-200.000	-0.005	0.158
-280.486	30.784	-0.104	-0.088
-279.472	297.871	-0.077	-0.141
-278.457	-26.594	-0.092	0.053
-277.443	317.438	-0.144	0.270
-276.428	44.910	0.135	-0.123
-275.413	-155.096	0.261	-0.017
-274.399	725.531	-0.018	-0.046
-273.384	13.511	0.138	0.106
-272.370	-200.000	-0.016	0.257
-271.355	80.087	0.297	0.316
-270.340	800.000	0.055	-0.195
-269.326	63.020	-0.201	0.199
-268.311	-26.136	0.208	0.121
-267.297	76.958	0.242	-0.254
-266.282	-96.868	0.156	0.041
-265.267	10.485	0.285	-0.214
-264.253	-65.831	0.240	-0.095
-263.238	-42.616	-0.177	0.089
-262.224	-197.242	0.063	-0.000
-261.209	32.760	-0.194	-0.166
-260.195	105.192	0.130	-0.151
-259.180	0.286	0.271	0.191
-258.165	110.485	-0.162	-0.193
-257.151	129.301	-0.044	0.056
-256.136	-123.008	-0.338	-0.054
-255.122	295.299	-0.025	0.045
-254.107	-200.000	0.036	0.484
-253.092	800.000	0.111	0.317
-252.078	-200.000	0.057	-0.396
-251.063	194.781	-0.077	0.115
-250.049	523.330	-0.121	0.281
-249.034	-31.171	0.209	0.116
-248.019	206.748	0.133	0.205
-247.005	-200.000	-0.015	-0.154
-245.990	-63.359	-0.202	0.082
-244.976	-147.244	0.357	0.030
-243.961	-4.200	0.270	-0.185
-242.946	-69.852	-0.139	-0.053
-241.932	-99.186	-0.373	0.093
-240.917	-40.069	0.103	-0.053
-239.903	-129.537	-0.369	0.050
-238.888	22.163	-0.086	-0.069
-237.873	114.478	0.105	0.126
-236.859	800.000	0.087	0.320
-235.844	800.000	0.042	-0.127
-234.830	17.892	0.255	-0.201
-233.815	800.000	0.099	0.285
-232.800	575.836	-0.084	-0.204
-231.786	800.000	0.065	-0.215
-230.771	148.402	0.083	-0.110
-229.757	-109.434	0.119	-0.025
-228.742	-200.000	0.110	-0.537
-227.727	-130.039	0.027	-0.004
-226.713	-57.171	-0.287	0.125
-225.698	240.908	-0.170	-0.280
-224.684	394.028	0.022	-0.045
-223.669	-132.542	-0.297	-0.038
-222.655	33.662	-0.296	0.254
-221.640	108.875	0.076	-0.089
-220.625	152.912	-0.147	0.199
-219.611	561.349	-0.070	-0.168
-218.596	800.000	-0.038	0.117
-217.582	354.508	0.067	0.132
-216.567	-77.660	0.202	0.069
-215.552	800.000	-0.019	-0.067
-214.538	-200.000	-0.038	-0.312
-213.523	-8.532	0.131	0.087
-212.509	342.458	0.169	0.326
-211.494	37.791	-0.415	0.364
-210.479	-178.305	0.297	0.007
-209.465	-65.097	-0.175	-0.070
-208.450	800.000	-0.013	0.047
-207.436	-200.000	0.050	0.336
-206.421	-78.162	-0.245	0.083
-205.406	44.026	-0.476	-0.430
-204.392	-16.517	-0.238	-0.149
-203.377	320.329	0.078	0.146
-202.363	-200.000	-0.040	-0.192
-201.348	-200.000	-0.001	-0.080
-200.333	-160.126	-0.149	-0.008
-199.319	-30.943	-0.258	0.144
-198.304	800.000	-0.055	0.154
-197.290	-2.147	-0.083	0.058
-196.275	-75.300	-0.447	0.157
-195.260	-12.319	0.164	-0.106
-194.246	-40.985	-0.070	-0.036
-193.231	-159.091	-0.342	0.019
-192.217	-135.332	0.108	-0.013
-191.202	75.498	0.130	-0.135
-190.187	-120.994	0.200	0.033
-189.173	438.771	-0.112	-0.241
-188.158	-200.000	0.012	0.324
-187.144	-133.063	-0.125	0.016
-186.129	127.597	0.054	-0.068
-185.114	228.902	0.148	0.237
-184.100	-12.898	0.239	-0.153
-183.085	103.567	-0.072	-0.084
-182.071	67.296	0.311	0.313
-181.056	3.667	0.044	0.031
-180.042	87.611	0.171	-0.186
-179.027	800.000	-0.053	-0.148
-178.012	-200.000	-0.040	0.231
-176.998	800.000	-0.025	-0.096
-175.983	-200.000	0.046	0.232
-174.969	-159.245	-0.108	0.006
-173.954	-121.504	0.221	0.036
-172.939	-112.840	0.132	-0.026
-171.925	-44.478	0.066	-0.032
-170.910	800.000	0.072	0.270
-169.896	-84.050	-0.142	0.045
-168.881	95.137	-0.207	0.232
-167.866	-127.651	-0.180	0.026
-166.852	-2.962	-0.267	0.184
-165.837	-200.000	-0.012	0.147
-164.823	-200.000	0.046	-0.428
-163.808	-118.253	0.142	0.025
-162.793	-49.072	-0.452	0.213
-161.779	800.000	-0.072	-0.274
-160.764	800.000	-0.087	-0.236
-159.750	-137.328	0.101	-0.011
-158.735	132.473	-0.147	-0.186
-157.720	4.658	0.034	0.024
-156.706	221.127	-0.133	-0.211
-155.691	-25.609	0.084	0.049
-154.677	-70.888	-0.245	0.091
-153.662	-200.000	-0.027	-0.140
-152.647	-200.000	0.021	-0.242
-151.633	7.934	-0.405	-0.299
-150.618	661.170	0.173	0.439
-149.604	609.435	0.016	0.040
-148.589	17.686	0.023	-0.018
-147.574	-41.940	0.252	-0.127
-146.560	191.526	-0.131	0.195
-145.545	68.914	-0.155	-0.157
-144.531	131.350	0.206	-0.261
-143.516	75.921	-0.280	0.292
-142.502	-103.157	-0.176	-0.041
-141.487	18.672	0.174	0.137
-140.472	800.000	0.091	0.291
-139.458	543.940	-0.011	-0.025
-138.443	38.134	0.079	0.070
-137.429	-200.000	0.011	0.263
-136.414	-127.187	-0.394	0.057
-135.399	161.865	0.195	0.269
-134.385	174.984	-0.225	0.321
-133.370	246.102	-0.106	-0.176
-132.356	296.812	-0.036	-0.064
-131.341	-200.000	0.017	0.221
-130.326	325.209	-0.127	0.239
-129.312	65.043	0.201	0.200
-128.297	226.463	-0.113	0.180
-127.283	-119.290	-0.161	-0.028
-126.268	-58.840	0.063	0.027
-125.253	-76.432	0.107	0.037
-124.239	-5.122	0.245	-0.166
-123.224	800.000	0.102	-0.277
-122.210	135.394	-0.161	-0.206
-121.195	-200.000	0.033	0.155
-120.180	800.000	0.057	-0.158
