DTS Sentinel unit serial number:	SN413079Multiplexer serial number:	ORYXHardware model number:	OX4-SRSoftware version number:	ORYX F/W v4.00 Oryx Data Collector v3.7.2.0data status	okinstallation	princeton_trtdifferential loss correction	single-endedforward channel	channel 1reverse channel	N/Adate	2019/09/16time	01:26:35forward acquisition time	60.00reverse acquisition time	0.00gamma	496.2192k internal	0.2334k external	0.2334temperature offset calibration	0.9975default loss term (dB/km)	0.3790temperature slope calibration	1.0000multiplexer offset coefficient	1.0000multiplexer slope coefficient	1.0000fibre end	0.00T internal ref (°C)	27.28T ext. ref 1 (°C)	9.89T ext. ref 2 (°C)	21.90length (m)	temperature (°C)	Stokes	anti-Stokes-747.200	47.617	-0.082	-0.077
-746.185	800.000	-0.103	0.327
-745.171	759.131	-0.099	0.270
-744.156	293.439	-0.016	-0.030
-743.142	2.244	0.111	-0.080
-742.127	-146.132	0.212	-0.019
-741.112	-200.000	-0.006	0.305
-740.098	-91.064	-0.204	0.059
-739.083	32.227	0.127	0.110
-738.069	203.092	0.173	0.269
-737.054	28.051	-0.341	0.289
-736.039	-200.000	-0.022	0.137
-735.025	800.000	0.058	0.216
-734.010	-78.837	-0.332	0.114
-732.996	-23.905	0.210	0.126
-731.981	-9.989	-0.183	0.122
-730.966	-148.451	-0.321	-0.026
-729.952	-52.918	-0.056	-0.026
-728.937	160.597	0.206	0.288
-727.923	-172.614	-0.282	0.009
-726.908	95.632	-0.174	-0.199
-725.894	-20.975	0.177	0.109
-724.879	-200.000	0.006	-0.143
-723.864	-109.539	-0.353	-0.075
-722.850	270.773	-0.048	-0.085
-721.835	627.839	0.053	0.135
-720.821	-200.000	-0.009	-0.096
-719.806	31.081	-0.254	0.219
-718.791	-200.000	-0.083	-0.448
-717.777	-3.593	-0.241	-0.168
-716.762	-200.000	-0.009	0.195
-715.748	-76.518	-0.144	0.051
-714.733	-114.577	-0.324	-0.062
-713.718	45.839	-0.144	0.134
-712.704	-200.000	-0.016	0.072
-711.689	-200.000	0.039	-0.438
-710.675	-109.832	-0.274	-0.058
-709.660	-87.401	-0.325	0.099
-708.645	-29.908	0.192	-0.110
-707.631	10.518	0.154	0.118
-706.616	800.000	0.045	0.154
-705.602	6.433	-0.165	-0.123
-704.587	-20.027	0.296	0.183
-703.572	-152.545	-0.072	0.005
-702.558	485.659	-0.034	0.077
-701.543	176.082	-0.179	0.260
-700.529	435.881	-0.024	-0.052
-699.514	-27.782	0.109	-0.063
-698.499	260.147	0.213	-0.370
-697.485	-200.000	0.033	-0.200
-696.470	447.109	-0.085	-0.189
-695.456	-200.000	0.017	0.330
-694.441	-57.950	0.230	-0.101
-693.426	-55.857	-0.180	-0.081
-692.412	-77.290	-0.244	-0.085
-691.397	25.168	-0.281	-0.234
-690.383	-200.000	0.007	0.212
-689.368	42.225	0.182	0.166
-688.354	75.213	-0.090	-0.095
-687.339	-108.977	0.178	0.038
-686.324	800.000	-0.028	0.102
-685.310	-67.334	0.191	-0.075
-684.295	-7.960	0.051	-0.034
-683.281	-15.657	-0.276	-0.177
-682.266	0.913	-0.283	-0.203
-681.251	-101.876	0.129	-0.031
-680.237	-34.861	-0.299	0.164
-679.222	19.642	-0.109	0.088
-678.208	-142.585	-0.543	0.053
-677.193	800.000	-0.118	0.372
-676.178	800.000	-0.007	-0.020
-675.164	-94.182	-0.410	0.112
-674.149	-98.741	0.180	-0.046
-673.135	331.177	0.024	-0.046
-672.120	800.000	-0.075	0.233
-671.105	-30.205	0.262	0.149
-670.091	23.733	0.081	0.067
-669.076	423.852	0.075	0.161
-668.062	-102.460	-0.304	0.073
-667.047	66.043	-0.315	-0.320
-666.032	514.814	-0.029	-0.069
-665.018	5.647	0.317	0.235
-664.003	567.865	0.149	0.363
-662.989	502.011	0.094	0.219
-661.974	-146.141	0.157	-0.014
-660.959	117.617	0.060	-0.074
-659.945	85.673	-0.182	-0.200
-658.930	-117.733	0.148	0.027
-657.916	800.000	0.132	-0.395
-656.901	-200.000	0.027	0.222
-655.886	485.775	-0.258	0.590
-654.872	107.332	-0.147	-0.175
-653.857	102.121	-0.137	0.160
-652.843	-48.961	0.421	0.202
-651.828	-119.820	0.326	0.056
-650.814	-200.000	0.010	-0.048
-649.799	59.162	0.111	0.110
-648.784	86.331	0.235	0.259
-647.770	800.000	0.131	-0.375
-646.755	-69.806	-0.234	0.089
-645.741	800.000	-0.032	0.119
-644.726	-200.000	0.021	-0.285
-643.711	158.890	-0.074	0.103
-642.697	-24.541	0.070	-0.042
-641.682	-99.895	0.130	-0.033
-640.668	73.959	-0.194	-0.204
-639.653	8.780	-0.199	0.150
-638.638	800.000	-0.036	0.110
-637.624	-131.163	-0.187	0.025
-636.609	-200.000	0.077	0.453
-635.595	800.000	0.073	-0.250
-634.580	108.651	-0.079	-0.094
-633.565	106.329	-0.087	0.103
-632.551	-99.183	0.045	-0.011
-631.536	50.641	0.235	0.223
-630.522	-200.000	-0.000	0.140
-629.507	-200.000	0.032	0.203
-628.492	800.000	-0.074	-0.253
-627.478	62.443	-0.078	-0.078
-626.463	15.932	-0.131	-0.103
-625.449	-200.000	-0.020	0.151
-624.434	-39.509	0.134	-0.070
-623.419	800.000	-0.019	0.062
-622.405	123.022	0.171	0.214
-621.390	-66.996	-0.095	-0.037
-620.376	800.000	-0.071	0.220
-619.361	-107.118	0.224	0.049
-618.346	67.842	-0.121	-0.124
-617.332	-110.681	-0.259	0.054
-616.317	800.000	-0.080	-0.247
-615.303	-127.085	-0.146	-0.021
-614.288	9.627	0.016	0.012
-613.273	-200.000	-0.032	0.463
-612.259	23.963	0.295	0.244
-611.244	800.000	0.054	-0.235
-610.230	44.105	0.212	0.194
-609.215	-54.564	-0.246	-0.111
-608.201	-200.000	0.008	-0.416
-607.186	427.244	0.114	-0.247
-606.171	-200.000	-0.002	-0.025
-605.157	-97.604	-0.131	-0.034
-604.142	-200.000	0.021	0.094
-603.128	42.813	0.196	-0.178
-602.113	-33.996	-0.210	-0.116
-601.098	-83.194	0.020	0.006
-600.084	121.769	-0.327	0.407
-599.069	20.844	0.151	-0.122
-598.055	-200.000	-0.015	0.285
-597.040	-200.000	-0.015	-0.315
-596.025	-200.000	0.526	0.002
-595.011	-164.173	0.071	0.003
-593.996	800.000	-0.081	-0.305
-592.982	-115.752	0.148	0.028
-591.967	-0.494	-0.297	-0.211
-590.952	800.000	-0.043	0.183
-589.938	59.722	-0.089	-0.088
-588.923	-120.466	-0.211	0.036
-587.909	-200.000	-0.019	-0.283
-586.894	800.000	0.053	-0.209
-585.879	43.176	-0.156	-0.142
-584.865	45.461	-0.186	-0.171
-583.850	-200.000	0.035	-0.184
-582.836	-85.712	-0.168	-0.052
-581.821	800.000	-0.024	0.068
-580.806	184.175	0.079	-0.117
-579.792	562.335	-0.038	0.091
-578.777	-101.052	0.250	0.061
-577.763	-5.494	-0.322	-0.221
-576.748	-200.000	-0.023	0.123
-575.733	-177.962	0.169	-0.004
-574.719	26.001	-0.085	0.071
-573.704	-27.075	-0.210	0.123
-572.690	-128.071	-0.219	0.031
-571.675	15.433	0.047	-0.037
-570.661	-45.049	-0.081	0.040
-569.646	-85.481	-0.272	-0.085
-568.631	-200.000	0.025	-0.178
-567.617	190.354	-0.214	0.321
-566.602	-152.232	0.195	0.014
-565.588	398.496	0.063	0.132
-564.573	-200.000	0.013	-0.200
-563.558	-123.502	0.141	-0.022
-562.544	41.271	0.187	0.168
-561.529	-200.000	0.133	0.000
-560.515	226.110	-0.098	-0.159
-559.500	-200.000	0.021	0.136
-558.485	33.848	0.334	0.290
-557.471	800.000	-0.084	-0.273
-556.456	-76.420	-0.370	-0.130
-555.442	-200.000	0.044	0.205
-554.427	-122.890	0.068	0.011
-553.412	218.293	0.025	0.040
-552.398	129.585	-0.058	0.073
-551.383	-42.906	0.277	0.140
-550.369	-48.415	-0.150	0.072
-549.354	-104.325	-0.222	-0.051
-548.339	-35.266	-0.270	-0.147
-547.325	-200.000	0.026	0.315
-546.310	-77.877	0.214	0.074
-545.296	-34.567	-0.262	0.143
-544.281	331.986	0.101	0.195
-543.266	250.979	-0.056	-0.095
-542.252	-99.355	-0.074	-0.019
-541.237	800.000	-0.052	-0.190
-540.223	9.178	0.400	0.301
-539.208	-107.503	-0.099	-0.022
-538.193	179.584	-0.103	0.150
-537.179	-72.507	0.233	-0.086
-536.164	49.790	0.127	-0.119
-535.150	157.722	0.230	0.318
-534.135	-200.000	-0.002	0.188
-533.121	14.739	0.149	-0.116
-532.106	541.257	0.030	0.072
-531.091	-200.000	0.035	0.348
-530.077	-123.090	0.201	0.032
-529.062	-84.317	0.276	0.087
-528.048	64.915	0.031	0.031
-527.033	-200.000	0.004	-0.232
-526.018	-56.036	-0.064	-0.029
-525.004	158.754	-0.085	-0.118
-523.989	-81.107	-0.074	0.024
-522.975	713.923	-0.144	0.380
-521.960	-51.734	0.118	0.055
-520.945	158.304	-0.156	0.215
-519.931	-200.000	-0.018	0.311
-518.916	-200.000	0.008	-0.083
-517.902	-200.000	-0.029	-0.137
-516.887	-26.699	0.112	0.066
-515.872	-129.056	-0.211	0.029
-514.858	-200.000	-0.027	-0.260
-513.843	-163.956	0.246	0.011
-512.829	-124.828	-0.110	-0.017
-511.814	685.173	0.030	-0.079
-510.799	-131.437	0.663	-0.087
-509.785	-123.768	-0.048	0.008
-508.770	54.456	0.222	-0.213
-507.756	134.328	0.175	-0.226
-506.741	-200.000	-0.031	0.312
-505.726	-200.000	-0.065	0.509
-504.712	-200.000	-0.038	-0.164
-503.697	749.723	-0.086	0.232
-502.683	-57.470	-0.314	0.137
-501.668	-161.259	-0.434	-0.022
-500.653	62.833	-0.364	-0.362
-499.639	79.758	0.087	-0.093
-498.624	-24.830	0.475	-0.281
-497.610	-200.000	-0.009	-0.201
-496.595	800.000	0.078	0.223
-495.581	639.424	0.080	0.203
-494.566	-200.000	0.017	0.270
-493.551	221.994	0.047	-0.075
-492.537	-200.000	-0.032	-0.485
-491.522	498.020	-0.171	-0.393
-490.508	132.886	-0.068	-0.088
-489.493	518.463	-0.166	0.387
-488.478	245.242	-0.070	-0.117
-487.464	77.403	0.146	-0.154
-486.449	151.625	-0.122	-0.166
-485.435	225.421	-0.027	0.044
-484.420	-200.000	0.001	-0.067
-483.405	-103.316	-0.206	0.048
-482.391	166.425	0.085	0.120
-481.376	-101.505	-0.392	-0.095
-480.362	-122.910	-0.192	-0.031
-479.347	-15.746	0.483	-0.307
-478.332	-164.689	0.205	-0.009
-477.318	-200.000	-0.001	-0.357
-476.303	-12.488	-0.291	0.189
-475.289	-200.000	-0.031	-0.184
-474.274	-6.541	-0.049	0.033
-473.259	30.010	0.154	-0.131
-472.245	211.248	-0.121	0.190
-471.230	-200.000	-0.014	-0.219
-470.216	222.830	-0.152	-0.243
-469.201	-157.050	0.237	0.014
-468.186	-39.544	0.187	0.097
-467.172	34.554	0.199	0.172
-466.157	800.000	-0.081	0.278
-465.143	86.555	-0.024	-0.026
-464.128	42.860	-0.213	0.193
-463.113	285.821	0.125	0.224
-462.099	-175.664	-0.338	0.009
-461.084	-77.284	0.156	0.054
-460.070	-82.223	-0.373	0.121
-459.055	-63.262	-0.399	0.164
-458.040	-148.604	0.416	0.034
-457.026	-200.000	-0.019	-0.603
-456.011	-143.022	0.323	0.031
-454.997	475.222	-0.108	0.242
-453.982	-199.440	0.288	-0.001
-452.968	302.868	-0.061	0.112
-451.953	800.000	-0.052	-0.221
-450.938	55.155	0.063	0.060
-449.924	-71.294	0.326	0.121
-448.909	800.000	-0.031	0.127
-447.895	64.941	0.292	0.293
-446.880	47.844	0.219	-0.203
-445.865	121.646	0.198	0.246
-444.851	254.150	0.006	-0.011
-443.836	136.312	-0.265	-0.343
-442.822	660.151	0.052	-0.132
-441.807	-43.288	0.156	0.078
-440.792	79.028	0.223	0.237
-439.778	-48.042	0.212	0.102
-438.763	6.477	-0.149	0.110
-437.749	-71.982	0.170	-0.063
-436.734	-118.295	-0.706	0.125
-435.719	-59.670	0.217	0.092
-434.705	-29.437	-0.057	-0.032
-433.690	191.710	-0.032	0.048
-432.676	-200.000	0.017	-0.120
-431.661	-51.244	0.056	-0.026
-430.646	78.849	0.117	0.125
-429.632	-54.920	-0.244	-0.109
-428.617	-37.654	0.114	-0.060
-427.603	-200.000	0.004	-0.021
-426.588	-48.071	-0.200	0.096
-425.573	-200.000	-0.005	0.402
-424.559	-89.276	0.211	0.062
-423.544	-88.024	-0.132	0.039
-422.530	492.827	0.071	0.160
-421.515	43.044	-0.086	-0.077
-420.500	34.922	0.011	-0.009
-419.486	-103.160	0.255	0.060
-418.471	33.607	0.217	-0.187
-417.457	-200.000	-0.039	-0.221
-416.442	548.577	0.018	-0.043
-415.428	199.928	0.053	-0.081
-414.413	642.689	0.112	0.283
-413.398	39.519	0.274	0.244
-412.384	800.000	-0.050	0.164
-411.369	337.930	0.036	0.070
-410.355	155.787	0.052	0.071
-409.340	-82.891	-0.244	-0.078
-408.325	-200.000	0.049	-0.319
-407.311	88.864	-0.200	0.220
-406.296	-84.897	-0.279	-0.087
-405.282	37.686	-0.095	0.084
-404.267	-162.564	0.164	-0.008
-403.252	-103.079	-0.121	-0.029
-402.238	72.345	0.316	0.327
-401.223	439.538	0.107	0.233
-400.209	-104.392	0.159	-0.037
-399.194	-10.250	0.184	-0.121
-398.179	4.733	-0.225	-0.164
-397.165	-200.000	-0.017	-0.403
-396.150	260.827	0.114	-0.195
-395.136	203.225	0.129	-0.199
-394.121	800.000	0.117	-0.345
-393.106	54.919	-0.078	0.075
-392.092	441.721	-0.072	-0.156
-391.077	800.000	-0.077	0.229
-390.063	337.322	-0.028	0.054
-389.048	480.597	0.019	0.043
-388.033	800.000	0.008	0.035
-387.019	800.000	-0.011	0.042
-386.004	-160.200	-0.089	-0.005
-384.990	800.000	0.033	0.109
-383.975	-95.350	0.201	0.053
-382.960	-27.470	-0.225	-0.130
-381.946	800.000	-0.106	0.317
-380.931	-200.000	0.001	-0.078
-379.917	548.973	0.063	0.151
-378.902	-106.836	-0.202	0.044
-377.888	-128.697	-0.300	-0.042
-376.873	120.218	0.162	0.199
-375.858	82.049	0.073	0.079
-374.844	-26.697	-0.115	0.067
-373.829	217.919	-0.209	-0.330
-372.815	-200.000	0.039	-0.214
-371.800	-200.000	-0.019	0.137
-370.785	-79.135	0.369	0.124
-369.771	84.358	-0.032	-0.034
-368.756	-25.755	0.175	-0.102
-367.742	800.000	0.042	-0.168
-366.727	239.460	-0.139	-0.229
-365.712	-163.893	-0.148	0.007
-364.698	-141.599	-0.426	0.042
-363.683	800.000	0.063	0.216
-362.669	-200.000	0.002	-0.054
-361.654	-106.306	-0.466	0.103
-360.639	-78.553	-0.024	-0.008
-359.625	-58.287	-0.206	0.089
-358.610	-76.311	0.397	0.138
-357.596	800.000	0.154	0.436
-356.581	-200.000	-0.023	0.274
-355.566	202.330	0.081	0.123
-354.552	12.763	-0.454	0.348
-353.537	418.645	-0.073	0.154
-352.523	300.076	-0.054	-0.099
-351.508	800.000	-0.067	0.195
-350.493	-95.322	-0.177	-0.047
-349.479	4.762	-0.177	-0.129
-348.464	-200.000	0.039	-0.289
-347.450	180.338	0.149	-0.216
-346.435	-43.998	-0.270	0.134
-345.420	-200.000	-0.021	0.253
-344.406	-124.823	0.326	-0.050
-343.391	-20.324	0.065	0.040
-342.377	-153.426	-0.171	-0.012
-341.362	-133.370	-0.197	0.025
-340.348	125.293	-0.241	-0.301
-339.333	242.699	0.073	-0.121
-338.318	-63.774	0.033	0.013
-337.304	800.000	-0.090	0.265
-336.289	33.598	-0.339	-0.291
-335.275	800.000	0.139	0.465
-334.260	10.817	0.250	0.189
-333.245	-153.397	0.249	-0.017
-332.231	-95.621	0.232	-0.062
-331.216	-11.589	0.104	-0.068
-330.202	800.000	0.017	0.067
-329.187	24.187	0.130	-0.106
-328.172	121.663	0.104	0.129
-327.158	-200.000	0.048	0.221
-326.143	266.783	0.159	0.275
-325.129	130.658	0.062	0.078
-324.114	25.139	0.268	0.220
-323.099	-40.746	-0.125	0.064
-322.085	800.000	-0.012	0.045
-321.070	29.756	0.126	-0.106
-320.056	697.967	-0.052	-0.134
-319.041	-92.681	-0.247	-0.069
-318.026	800.000	0.020	0.070
-317.012	64.226	0.106	-0.106
-315.997	-45.983	-0.312	0.152
-314.983	37.811	-0.088	-0.077
-313.968	-27.332	-0.378	0.218
-312.953	-200.000	-0.019	0.373
-311.939	31.102	0.017	-0.014
-310.924	-92.928	0.215	0.059
-309.910	47.670	0.211	0.194
-308.895	-129.050	-0.155	0.021
-307.880	22.733	0.117	0.095
-306.866	508.549	-0.124	0.283
-305.851	322.652	0.130	0.245
-304.837	-69.489	0.171	-0.065
-303.822	-200.000	-0.046	0.218
-302.807	-56.432	-0.076	0.033
-301.793	-102.460	0.280	0.066
-300.778	688.860	-0.139	-0.358
-299.764	-200.000	0.013	-0.193
-298.749	-22.972	0.308	-0.184
-297.735	-110.433	-0.157	-0.032
-296.720	-188.966	-0.150	-0.002
-295.705	-200.000	0.006	-0.114
-294.691	-70.658	0.160	-0.060
-293.676	-88.789	0.122	-0.036
-292.662	291.329	-0.078	-0.140
-291.647	97.857	0.029	-0.033
-290.632	-200.000	-0.059	-0.346
-289.618	358.760	0.225	0.445
-288.603	102.933	-0.112	-0.129
-287.589	369.566	-0.141	-0.283
-286.574	-200.000	0.006	-0.313
-285.559	-15.574	-0.218	0.138
-284.545	55.534	0.130	0.125
-283.530	135.385	0.128	0.165
-282.516	-84.580	0.647	0.201
-281.501	-27.362	-0.216	-0.124
-280.486	-14.263	-0.199	-0.127
-279.472	800.000	0.068	-0.243
-278.457	-54.930	-0.105	0.047
-277.443	-200.000	-0.067	-0.499
-276.428	-9.184	0.155	-0.102
-275.413	796.833	0.109	0.298
-274.399	-131.444	0.382	-0.050
-273.384	-80.979	-0.173	-0.056
-272.370	-106.941	-0.061	-0.013
-271.355	108.948	-0.277	-0.327
-270.340	131.692	0.063	-0.080
-269.326	-65.851	-0.227	-0.089
-268.311	140.338	-0.213	0.277
-267.297	69.327	0.240	0.244
-266.282	-103.891	-0.102	0.023
-265.267	-96.414	0.157	-0.041
-264.253	263.812	-0.160	0.275
-263.238	800.000	-0.027	0.109
-262.224	-91.434	0.224	0.063
-261.209	-200.000	0.035	-0.174
-260.195	-36.160	0.291	0.155
-259.180	384.933	0.018	0.036
-258.165	-87.692	0.242	0.072
-257.151	38.915	-0.211	0.186
-256.136	-126.673	-0.312	0.046
-255.122	33.720	0.195	-0.167
-254.107	-36.857	-0.222	-0.117
-253.092	-72.618	0.050	-0.018
-252.078	-73.009	0.174	-0.063
-251.063	-100.997	-0.141	0.034
-250.049	-43.466	-0.267	-0.133
-249.034	-112.634	-0.190	0.037
-248.019	-104.936	0.095	-0.022
-247.005	34.721	-0.258	-0.222
-245.990	199.534	-0.094	-0.143
-244.976	778.644	-0.072	0.195
-243.961	-98.478	-0.033	-0.008
-242.946	-158.662	-0.273	-0.015
-241.932	3.475	0.040	0.029
-240.917	469.342	-0.251	-0.555
-239.903	556.203	0.049	-0.116
-238.888	-200.000	0.025	-0.270
-237.873	481.119	0.047	-0.105
-236.859	82.636	0.073	0.078
-235.844	-51.824	-0.188	-0.086
-234.830	188.725	0.062	-0.092
-233.815	135.798	-0.024	-0.031
-232.800	99.581	-0.292	-0.333
-231.786	86.006	0.031	0.033
-230.771	-200.000	0.065	0.475
-229.757	63.315	-0.198	-0.195
-228.742	-81.298	0.197	-0.064
-227.727	274.893	0.079	-0.138
-226.713	-1.327	0.069	0.048
-225.698	121.365	-0.075	-0.092
-224.684	-14.913	0.235	-0.148
-223.669	60.584	-0.046	0.044
-222.655	-14.015	0.194	-0.124
-221.640	-94.730	0.256	-0.068
-220.625	-200.000	-0.038	-0.245
-219.611	-79.440	-0.177	-0.059
-218.596	3.205	-0.257	0.184
-217.582	-122.995	-0.104	0.016
-216.567	-67.011	-0.145	-0.056
-215.552	-200.000	0.042	-0.307
-214.538	-88.374	0.180	0.053
-213.523	140.354	-0.055	0.071
-212.509	800.000	0.099	-0.300
-211.494	146.280	0.162	-0.214
-210.479	72.521	0.289	-0.297
-209.465	-64.491	-0.052	0.021
-208.450	-161.580	-0.265	0.013
-207.436	-63.711	-0.266	0.107
-206.421	800.000	-0.032	-0.122
-205.406	800.000	0.069	0.198
-204.392	234.550	0.078	0.127
-203.377	84.623	-0.169	-0.182
-202.363	-57.511	0.255	-0.110
-201.348	-128.576	0.487	0.068
-200.333	800.000	0.079	-0.237
-199.319	-132.100	-0.299	0.038
-198.304	153.545	-0.087	0.117
-197.290	-64.332	0.270	-0.108
-196.275	-37.619	0.276	0.145
-195.260	-32.801	-0.148	0.081
-194.246	62.742	0.050	-0.049
-193.231	-200.000	0.030	0.199
-192.217	800.000	0.031	0.112
-191.202	-31.616	-0.262	-0.145
-190.187	-152.582	0.450	0.032
-189.173	800.000	-0.079	-0.225
-188.158	241.810	-0.168	-0.276
-187.144	-115.850	0.284	0.052
-186.129	-83.105	0.314	0.100
-185.114	-112.400	-0.233	-0.046
-184.100	800.000	-0.064	0.179
-183.085	-200.000	0.010	-0.153
-182.071	5.402	0.081	-0.059
-181.056	-96.824	-0.085	-0.022
-180.042	-101.397	0.200	0.048
-179.027	800.000	-0.017	-0.062
-178.012	67.716	0.046	0.046
-176.998	-200.000	0.041	0.209
-175.983	-141.757	-0.361	0.036
-174.969	800.000	0.046	0.136
-173.954	-200.000	-0.050	0.276
-172.939	-14.669	0.222	-0.140
-171.925	291.190	-0.183	-0.328
-170.910	43.795	0.097	-0.088
-169.896	-200.000	-0.002	0.035
-168.881	-122.580	-0.280	0.045
-167.866	136.083	0.172	-0.221
-166.852	20.187	-0.040	-0.032
-165.837	13.312	-0.104	-0.080
-164.823	-200.000	0.010	0.131
-163.808	206.306	0.059	0.090
-162.793	427.867	0.135	-0.286
-161.779	-200.000	0.008	0.093
-160.764	325.799	-0.099	0.186
-159.750	29.208	0.200	-0.167
-158.735	758.922	-0.113	-0.301
-157.720	-10.019	-0.240	0.156
-156.706	244.300	0.241	0.397
-155.691	349.963	0.065	-0.127
-154.677	800.000	0.039	-0.137
-153.662	35.559	0.160	-0.138
-152.647	-200.000	-0.034	-0.172
-151.633	-3.591	-0.316	-0.215
-150.618	16.432	-0.147	-0.114
-149.604	-150.430	-0.142	0.011
-148.589	162.416	0.077	-0.106
-147.574	-200.000	-0.024	-0.277
-146.560	-85.805	-0.202	-0.062
-145.545	-87.012	0.324	-0.097
-144.531	319.758	0.057	0.106
-143.516	-147.708	0.011	-0.001
-142.502	242.385	0.216	0.354
-141.487	-150.321	-0.430	-0.033
-140.472	698.148	0.161	-0.416
-139.458	-200.000	-0.019	-0.266
-138.443	205.295	0.128	-0.195
-137.429	796.185	0.115	0.310
-136.414	54.749	-0.102	-0.096
-135.399	57.331	0.339	-0.325
-134.385	61.513	-0.090	-0.088
-133.370	105.648	-0.032	-0.037
-132.356	-200.000	0.068	-0.310
-131.341	-191.164	0.206	-0.002
-130.326	-0.509	-0.276	0.192
-129.312	-149.129	-0.310	-0.024
-128.297	-25.968	-0.174	-0.101
-127.283	800.000	-0.068	-0.218
-126.268	417.285	0.110	-0.232
-125.253	124.775	0.164	0.202
-124.239	-200.000	0.021	0.282
-123.224	205.826	0.083	0.127
-122.210	-120.000	0.119	0.020
-121.195	167.388	0.274	-0.382
