DTS Sentinel unit serial number:	SN413079Multiplexer serial number:	ORYXHardware model number:	OX4-SRSoftware version number:	ORYX F/W v4.00 Oryx Data Collector v3.7.2.0data status	okinstallation	princeton_trtdifferential loss correction	single-endedforward channel	channel 1reverse channel	N/Adate	2019/09/13time	17:50:35forward acquisition time	60.00reverse acquisition time	0.00gamma	496.2192k internal	0.2304k external	0.2304temperature offset calibration	1.0155default loss term (dB/km)	0.3790temperature slope calibration	1.0000multiplexer offset coefficient	1.0000multiplexer slope coefficient	1.0000fibre end	0.00T internal ref (°C)	35.48T ext. ref 1 (°C)	5.04T ext. ref 2 (°C)	28.74length (m)	temperature (°C)	Stokes	anti-Stokes-747.200	-181.795	0.201	0.004
-746.185	800.000	0.085	-0.373
-745.171	-59.264	-0.052	-0.023
-744.156	371.134	-0.112	-0.231
-743.142	154.785	-0.087	0.122
-742.127	-21.683	0.098	0.061
-741.112	10.671	-0.439	-0.341
-740.098	800.000	0.110	0.438
-739.083	-200.000	-0.010	0.329
-738.069	480.368	0.075	-0.172
-737.054	-96.099	-0.277	0.075
-736.039	-50.300	-0.366	0.176
-735.025	-62.128	0.211	0.090
-734.010	800.000	-0.117	-0.385
-732.996	10.675	0.162	-0.126
-731.981	-101.602	-0.249	-0.061
-730.966	800.000	0.048	0.177
-729.952	800.000	0.078	-0.231
-728.937	-181.989	-0.458	0.009
-727.923	-98.813	-0.152	-0.039
-726.908	-28.741	-0.073	-0.043
-725.894	800.000	-0.056	-0.178
-724.879	65.039	-0.105	-0.108
-723.864	-165.493	-0.268	-0.012
-722.850	-200.000	-0.050	-0.513
-721.835	800.000	0.083	-0.273
-720.821	-200.000	0.063	-0.484
-719.806	800.000	0.087	-0.355
-718.791	256.497	-0.033	0.058
-717.777	800.000	0.048	-0.200
-716.762	-200.000	-0.367	-0.001
-715.748	343.288	-0.152	0.303
-714.733	23.867	-0.068	0.057
-713.718	-169.034	-0.274	-0.010
-712.704	-96.840	-0.141	0.038
-711.689	-3.968	-0.246	0.173
-710.675	30.587	-0.193	-0.168
-709.660	-53.883	-0.254	0.118
-708.645	559.050	-0.057	0.139
-707.631	299.327	-0.137	0.257
-706.616	-110.925	-0.166	-0.035
-705.602	131.435	0.296	-0.387
-704.587	-129.677	0.024	-0.003
-703.572	62.236	0.103	-0.104
-702.558	-86.770	-0.275	-0.085
-701.543	-65.970	-0.159	-0.064
-700.529	-200.000	-0.041	0.248
-699.514	-152.694	0.244	-0.018
-698.499	-52.154	0.297	-0.140
-697.485	-68.761	0.200	0.079
-696.470	-200.000	-0.039	0.221
-695.456	24.817	-0.094	-0.079
-694.441	87.482	0.122	-0.137
-693.426	199.152	0.108	0.168
-692.412	-15.789	-0.197	0.128
-691.397	-146.157	0.038	-0.003
-690.383	-40.393	-0.133	-0.070
-689.368	-83.144	-0.280	0.092
-688.354	-126.144	0.251	0.038
-687.339	800.000	0.063	-0.210
-686.324	431.023	0.051	-0.112
-685.310	269.848	0.164	-0.292
-684.295	-56.445	0.053	-0.024
-683.281	-200.000	-0.032	0.229
-682.266	800.000	-0.031	0.138
-681.251	14.650	0.079	-0.063
-680.237	800.000	-0.062	-0.199
-679.222	-109.631	-0.064	0.014
-678.208	40.214	-0.141	0.129
-677.193	185.141	-0.187	-0.282
-676.178	730.632	0.045	-0.122
-675.164	-2.162	-0.116	-0.083
-674.149	-200.000	0.012	0.360
-673.135	800.000	0.045	0.133
-672.120	-121.909	0.205	0.034
-671.105	800.000	0.008	0.022
-670.091	-200.000	0.013	0.217
-669.076	-111.863	0.243	-0.050
-668.062	-83.259	-0.222	0.072
-667.047	128.214	0.061	-0.079
-666.032	-158.078	0.119	-0.007
-665.018	457.853	-0.035	-0.080
-664.003	120.752	-0.043	0.055
-662.989	57.732	-0.039	0.038
-661.974	362.677	0.033	0.068
-660.959	-148.306	0.183	-0.015
-659.945	-200.000	0.011	0.156
-658.930	22.289	-0.243	-0.202
-657.916	-73.273	0.043	0.016
-656.901	-66.594	0.136	-0.055
-655.886	617.478	0.033	0.085
-654.872	545.533	0.062	0.149
-653.857	-200.000	-0.063	-0.386
-652.843	-112.713	0.034	-0.007
-651.828	-200.000	-0.017	0.380
-650.814	-200.000	0.039	-0.256
-649.799	-200.000	0.027	-0.206
-648.784	-159.553	-0.206	0.012
-647.770	-30.114	-0.406	-0.234
-646.755	800.000	0.078	0.277
-645.741	-175.472	-0.336	0.009
-644.726	-177.398	-0.095	-0.002
-643.711	-200.000	0.010	0.225
-642.697	119.706	-0.260	-0.327
-641.682	395.856	-0.071	-0.150
-640.668	-22.324	0.265	-0.163
-639.653	-115.883	-0.537	0.102
-638.638	-171.767	-0.197	0.007
-637.624	41.179	-0.159	-0.145
-636.609	800.000	-0.057	-0.168
-635.595	-200.000	0.021	0.476
-634.580	-200.000	0.006	-0.069
-633.565	-183.117	-0.186	0.003
-632.551	-200.000	0.057	0.260
-631.536	794.072	0.056	-0.157
-630.522	-84.581	-0.397	0.127
-629.507	-89.691	0.199	0.059
-628.492	-127.820	0.289	-0.042
-627.478	74.621	-0.120	0.128
-626.463	-200.000	-0.046	0.249
-625.449	59.836	-0.161	-0.161
-624.434	-105.395	-0.202	-0.047
-623.419	342.593	0.049	0.098
-622.405	-200.000	0.027	0.212
-621.390	218.550	0.123	-0.199
-620.376	113.204	-0.291	0.357
-619.361	800.000	0.061	0.189
-618.346	106.027	-0.165	0.198
-617.332	-127.430	-0.207	-0.031
-616.317	800.000	0.041	0.169
-615.303	-200.000	-0.087	0.455
-614.288	360.741	-0.021	-0.043
-613.273	800.000	-0.064	0.211
-612.259	64.674	0.172	-0.175
-611.244	39.926	0.245	-0.223
-610.230	-200.000	-0.067	-0.348
-609.215	-83.707	0.309	0.100
-608.201	-122.364	0.230	0.038
-607.186	-200.000	0.000	-0.019
-606.171	99.771	0.178	0.209
-605.157	-155.133	0.055	-0.004
-604.142	-200.000	-0.026	0.213
-603.128	741.798	0.045	-0.124
-602.113	-200.000	-0.024	-0.371
-601.098	-143.290	0.132	-0.013
-600.084	-10.519	0.344	-0.231
-599.069	-200.000	-0.022	0.207
-598.055	70.031	-0.190	0.198
-597.040	-200.000	0.011	0.133
-596.025	283.296	0.045	-0.082
-595.011	-16.343	0.277	-0.178
-593.996	-200.000	-0.019	0.312
-592.982	-20.855	0.233	0.145
-591.967	128.871	-0.276	-0.356
-590.952	190.409	0.109	0.166
-589.938	-64.133	0.130	0.053
-588.923	800.000	0.028	0.081
-587.909	-200.000	-0.068	-0.305
-586.894	74.257	-0.181	-0.193
-585.879	-200.000	-0.040	-0.210
-584.865	-118.976	-0.206	-0.037
-583.850	80.815	0.138	-0.151
-582.836	-200.000	-0.042	-0.295
-581.821	277.820	0.040	-0.073
-580.806	77.907	0.190	0.205
-579.792	-151.889	-0.154	-0.011
-578.777	-200.000	-0.007	-0.197
-577.763	688.737	0.025	-0.066
-576.748	245.295	0.134	0.229
-575.733	-128.429	-0.581	0.083
-574.719	-200.000	0.002	-0.085
-573.704	-200.000	-0.018	-0.239
-572.690	119.603	-0.146	-0.183
-571.675	-200.000	-0.010	-0.109
-570.661	234.991	-0.138	-0.231
-569.646	7.442	0.088	0.067
-568.631	-200.000	-0.023	-0.270
-567.617	-83.722	-0.014	-0.004
-566.602	58.137	-0.197	-0.195
-565.588	-200.000	-0.035	-0.288
-564.573	800.000	0.071	0.226
-563.558	-73.040	0.245	-0.091
-562.544	-87.326	-0.297	-0.091
-561.529	-185.612	-0.359	-0.005
-560.515	256.004	-0.005	0.009
-559.500	-200.000	0.035	-0.218
-558.485	-200.000	0.005	0.163
-557.471	153.953	0.082	0.114
-556.456	-97.887	0.369	-0.096
-555.442	109.871	-0.215	0.261
-554.427	-16.648	-0.281	-0.180
-553.412	-23.883	-0.173	-0.105
-552.398	74.026	-0.115	-0.122
-551.383	-47.628	0.256	0.126
-550.369	-105.364	0.080	0.018
-549.354	130.836	0.128	-0.166
-548.339	-200.000	-0.021	0.147
-547.325	-140.149	0.231	0.025
-546.310	235.364	0.113	-0.188
-545.296	-133.659	-0.246	0.031
-544.281	-151.168	0.236	0.018
-543.266	-13.611	-0.280	0.183
-542.252	-29.686	-0.199	0.115
-541.237	-167.521	0.221	-0.009
-540.223	-200.000	-0.011	-0.150
-539.208	82.413	0.235	0.257
-538.193	-10.316	-0.241	-0.162
-537.179	92.188	0.183	0.209
-536.164	247.721	0.047	0.081
-535.150	-35.918	0.210	0.115
-534.135	-142.372	0.010	-0.001
-533.121	-65.347	0.395	-0.160
-532.106	487.566	-0.012	-0.029
-531.091	-200.000	0.050	0.333
-530.077	113.707	-0.197	-0.242
-529.062	-49.528	-0.089	0.043
-528.048	-25.244	0.150	0.090
-527.033	76.633	-0.040	0.043
-526.018	480.377	0.035	0.079
-525.004	-176.701	0.467	0.012
-523.989	-200.000	-0.012	0.070
-522.975	-27.159	-0.172	-0.101
-521.960	191.171	0.086	0.131
-520.945	117.003	0.108	0.134
-519.931	18.236	-0.135	-0.109
-518.916	-200.000	-0.003	-0.032
-517.902	58.877	-0.141	0.140
-516.887	45.484	0.130	-0.122
-515.872	-200.000	-0.025	-0.159
-514.858	-119.487	-0.383	0.067
-513.843	-0.552	0.095	-0.068
-512.829	-66.764	0.179	-0.072
-511.814	-200.000	-0.071	-0.384
-510.799	-200.000	-0.004	-0.228
-509.785	96.152	-0.168	-0.194
-508.770	35.104	0.302	0.266
-507.756	245.532	0.250	-0.424
-506.741	127.860	-0.141	-0.180
-505.726	-11.444	-0.239	0.158
-504.712	-200.000	0.283	-0.001
-503.697	75.344	0.122	-0.130
-502.683	-88.889	0.257	-0.077
-501.668	-119.322	-0.339	-0.060
-500.653	23.823	0.056	0.047
-499.639	-200.000	-0.001	-0.304
-498.624	-13.142	-0.204	-0.134
-497.610	494.212	-0.081	-0.188
-496.595	-44.914	0.030	0.015
-495.581	120.093	0.221	0.276
-494.566	-98.236	0.221	-0.057
-493.551	-150.004	-0.164	-0.013
-492.537	-65.081	0.199	-0.081
-491.522	-200.000	-0.005	-0.238
-490.508	-181.468	-0.317	0.006
-489.493	-200.000	-0.026	0.192
-488.478	-19.298	-0.065	0.040
-487.464	-200.000	-0.001	-0.065
-486.449	-141.327	-0.331	0.034
-485.435	712.812	0.038	0.102
-484.420	-141.403	-0.173	0.018
-483.405	-78.346	-0.191	-0.066
-482.391	-23.215	-0.374	-0.227
-481.376	-200.000	0.002	0.219
-480.362	-123.938	-0.131	-0.021
-479.347	154.887	0.292	-0.404
-478.332	800.000	0.124	-0.425
-477.318	198.985	0.167	-0.257
-476.303	-43.036	-0.449	-0.229
-475.289	800.000	0.048	-0.141
-474.274	-200.000	-0.020	0.240
-473.259	-117.903	-0.326	-0.059
-472.245	86.667	-0.128	-0.142
-471.230	167.993	0.103	-0.148
-470.216	-116.401	0.290	-0.054
-469.201	-87.651	-0.226	0.069
-468.186	64.290	0.073	-0.074
-467.172	-119.049	-0.243	0.043
-466.157	-12.812	0.219	0.144
-465.143	-200.000	0.089	0.532
-464.128	800.000	0.021	-0.092
-463.113	-178.992	-0.095	-0.002
-462.099	-70.763	0.313	-0.119
-461.084	-73.354	-0.244	-0.090
-460.070	-123.707	-0.051	-0.008
-459.055	-59.184	0.227	-0.098
-458.040	-93.364	-0.159	-0.044
-457.026	251.260	-0.214	0.366
-456.011	800.000	-0.023	0.065
-454.997	-55.935	0.168	0.076
-453.982	162.151	-0.029	0.041
-452.968	-53.952	0.211	0.097
-451.953	800.000	0.112	-0.408
-450.938	4.249	-0.050	0.037
-449.924	115.612	-0.200	0.246
-448.909	-200.000	0.003	-0.041
-447.895	520.033	-0.086	0.203
-446.880	800.000	0.082	-0.284
-445.865	506.626	-0.180	-0.420
-444.851	-119.022	-0.260	0.046
-443.836	-96.647	-0.289	0.077
-442.822	-102.618	-0.194	0.047
-441.807	-45.485	-0.201	0.100
-440.792	-168.876	0.210	-0.008
-439.778	112.432	0.237	0.288
-438.763	4.033	0.223	0.164
-437.749	-81.732	-0.158	-0.052
-436.734	-137.931	-0.466	-0.052
-435.719	-38.500	0.161	0.086
-434.705	-54.840	0.215	0.098
-433.690	-80.296	-0.505	0.170
-432.676	800.000	0.094	-0.296
-431.661	12.930	0.315	0.245
-430.646	-93.835	0.307	-0.085
-429.632	-9.853	-0.078	-0.052
-428.617	800.000	0.078	-0.218
-427.603	99.315	-0.190	0.221
-426.588	275.680	0.040	0.072
-425.573	-130.972	-0.070	0.009
-424.559	-58.295	0.205	0.089
-423.544	800.000	-0.057	-0.165
-422.530	-30.426	-0.188	0.107
-421.515	800.000	-0.065	0.197
-420.500	800.000	0.097	-0.337
-419.486	-31.930	0.285	0.161
-418.471	-199.639	0.247	-0.001
-417.457	-116.834	0.115	0.021
-416.442	-184.373	-0.294	-0.005
-415.428	-88.103	-0.031	-0.009
-414.413	308.852	-0.067	-0.126
-413.398	-86.688	-0.171	0.053
-412.384	-105.109	-0.122	0.028
-411.369	-71.078	0.150	0.057
-410.355	-135.710	-0.251	-0.030
-409.340	-146.777	0.197	-0.017
-408.325	-198.307	0.318	0.002
-407.311	-200.000	-0.040	-0.486
-406.296	-74.515	0.256	0.093
-405.282	492.154	-0.106	0.245
-404.267	-200.000	0.085	0.379
-403.252	-38.709	-0.276	0.146
-402.238	698.994	0.051	-0.134
-401.223	-61.550	-0.255	0.107
-400.209	94.886	0.205	-0.235
-399.194	-75.460	-0.283	0.101
-398.179	18.600	-0.160	-0.128
-397.165	800.000	-0.070	0.271
-396.150	-200.000	0.003	0.068
-395.136	-9.880	-0.099	0.066
-394.121	-26.308	0.166	-0.098
-393.106	-118.061	0.262	-0.047
-392.092	-200.000	0.052	-0.284
-391.077	-52.120	0.131	0.061
-390.063	-154.730	0.101	0.007
-389.048	-61.642	-0.178	0.075
-388.033	392.111	-0.023	0.048
-387.019	-97.971	-0.184	0.048
-386.004	-200.000	0.015	-0.109
-384.990	-52.810	0.127	-0.059
-383.975	97.179	0.389	0.448
-382.960	9.110	-0.077	-0.059
-381.946	-69.538	-0.372	-0.143
-380.931	-119.794	-0.145	-0.025
-379.917	-30.381	-0.182	0.104
-378.902	97.256	-0.090	-0.104
-377.888	-28.839	0.112	-0.065
-376.873	800.000	0.058	0.225
-375.858	191.982	0.143	-0.217
-374.844	-186.611	-0.240	-0.003
-373.829	110.407	0.129	0.155
-372.815	-144.257	0.141	-0.013
-371.800	464.607	-0.077	-0.173
-370.785	-174.986	0.281	-0.008
-369.771	122.653	0.224	-0.281
-368.756	-117.109	0.232	-0.042
-367.742	800.000	-0.089	0.262
-366.727	-161.244	-0.131	-0.007
-365.712	-37.341	0.155	0.083
-364.698	800.000	-0.080	0.274
-363.683	240.487	-0.069	0.115
-362.669	61.455	0.119	0.119
-361.654	-74.057	0.257	-0.094
-360.639	65.794	-0.244	-0.248
-359.625	-200.000	-0.011	0.078
-358.610	-40.767	-0.142	0.074
-357.596	-52.328	-0.261	0.121
-356.581	-200.000	0.012	0.128
-355.566	162.272	0.152	0.214
-354.552	521.639	-0.071	0.166
-353.537	-200.000	0.016	0.313
-352.523	-200.000	0.057	-0.288
-351.508	-102.359	0.553	-0.133
-350.493	-200.000	0.011	0.158
-349.479	-137.425	0.194	0.022
-348.464	800.000	0.070	0.268
-347.450	-162.155	0.283	-0.014
-346.435	800.000	-0.041	-0.128
-345.420	119.305	-0.197	0.244
-344.406	-150.784	0.127	0.010
-343.391	-71.025	0.157	0.059
-342.377	-68.617	0.183	0.071
-341.362	800.000	-0.037	-0.116
-340.348	485.333	0.062	-0.141
-339.333	167.396	-0.068	-0.097
-338.318	-112.155	-0.288	0.058
-337.304	800.000	0.031	0.138
-336.289	626.774	0.093	-0.234
-335.275	668.530	-0.053	-0.136
-334.260	-200.000	-0.009	-0.092
-333.245	800.000	-0.050	-0.197
-332.231	90.575	-0.068	-0.077
-331.216	123.103	-0.190	-0.238
-330.202	-147.259	-0.295	-0.025
-329.187	-33.312	-0.060	0.033
-328.172	-200.000	0.064	0.399
-327.158	92.991	0.098	-0.110
-326.143	-48.694	-0.086	-0.041
-325.129	52.568	0.152	-0.145
-324.114	35.224	-0.238	-0.209
-323.099	-74.911	-0.353	0.127
-322.085	-146.332	-0.100	0.009
-321.070	-200.000	-0.018	0.220
-320.056	-200.000	0.021	0.118
-319.041	550.658	0.066	-0.158
-318.026	100.629	-0.103	-0.120
-317.012	337.496	0.135	0.263
-315.997	-200.000	0.033	0.203
-314.983	-200.000	-0.011	-0.090
-313.968	-20.476	-0.163	0.101
-312.953	-52.736	0.353	-0.163
-311.939	345.587	-0.026	0.052
-310.924	197.867	-0.045	0.069
-309.910	-155.301	0.256	-0.017
-308.895	45.661	0.276	0.255
-307.880	439.161	0.097	-0.212
-306.866	-11.030	-0.229	0.151
-305.851	13.829	0.238	0.185
-304.837	-109.837	-0.451	0.095
-303.822	24.899	0.150	-0.124
-302.807	301.100	-0.095	0.176
-301.793	-200.000	-0.041	-0.195
-300.778	-200.000	0.021	0.192
-299.764	181.805	0.171	-0.252
-298.749	-12.308	-0.092	-0.060
-297.735	-200.000	0.010	-0.087
-296.720	-200.000	-0.021	0.120
-295.705	18.548	-0.176	-0.141
-294.691	7.263	-0.129	-0.096
-293.676	462.710	-0.041	-0.091
-292.662	79.446	-0.301	-0.323
-291.647	800.000	0.106	-0.334
-290.632	-200.000	0.031	-0.266
-289.618	800.000	-0.071	-0.251
-288.603	-28.136	0.342	0.197
-287.589	-118.263	0.283	0.050
-286.574	-87.782	-0.161	-0.049
-285.559	211.958	-0.158	0.249
-284.545	-86.651	-0.219	0.067
-283.530	-98.556	0.245	-0.063
-282.516	-5.173	-0.101	-0.069
-281.501	129.793	-0.151	0.193
-280.486	-27.952	-0.090	0.052
-279.472	193.262	0.081	-0.122
-278.457	-58.147	0.113	0.049
-277.443	444.836	0.129	-0.283
-276.428	-55.324	-0.063	0.028
-275.413	78.127	0.201	0.214
-274.399	45.923	0.293	0.271
-273.384	91.982	-0.489	0.550
-272.370	-81.442	0.031	0.010
-271.355	-113.639	0.135	0.026
-270.340	-159.993	0.364	-0.020
-269.326	-160.945	0.150	-0.008
-268.311	-51.465	-0.489	0.229
-267.297	-61.268	-0.200	-0.084
-266.282	800.000	-0.070	0.228
-265.267	-94.319	0.166	-0.045
-264.253	-33.741	0.291	0.160
-263.238	-200.000	-0.016	-0.074
-262.224	800.000	0.037	0.103
-261.209	158.141	0.312	0.433
-260.195	94.721	-0.112	-0.127
-259.180	-200.000	0.039	0.184
-258.165	800.000	0.119	0.425
-257.151	86.466	0.063	-0.069
-256.136	139.139	-0.219	0.288
-255.122	800.000	-0.034	0.132
-254.107	67.511	-0.079	-0.081
-253.092	-200.000	-0.007	-0.403
-252.078	-200.000	0.019	0.248
-251.063	51.981	-0.048	0.046
-250.049	133.593	0.111	-0.144
-249.034	101.976	0.142	-0.165
-248.019	-35.385	0.210	-0.114
-247.005	22.746	0.061	-0.050
-245.990	226.092	0.145	-0.235
-244.976	-200.000	0.036	0.160
-243.961	433.478	-0.140	0.303
-242.946	-89.822	-0.256	-0.075
-241.932	-122.263	-0.187	0.031
-240.917	-200.000	0.006	-0.058
-239.903	334.821	-0.086	-0.167
-238.888	-141.481	-0.140	-0.014
-237.873	-160.688	0.228	-0.012
-236.859	-41.886	-0.166	-0.085
-235.844	373.490	0.175	-0.356
-234.830	-200.000	-0.003	0.107
-233.815	-122.765	-0.490	-0.079
-232.800	12.058	-0.135	0.104
-231.786	563.575	0.116	0.281
-230.771	-200.000	0.015	-0.096
-229.757	478.289	-0.120	0.270
-228.742	-62.301	0.142	0.059
-227.727	-11.392	-0.202	0.133
-226.713	111.375	0.166	-0.200
-225.698	-148.310	-0.200	0.016
-224.684	800.000	0.047	0.200
-223.669	-4.493	0.086	0.059
-222.655	-66.182	0.154	0.061
-221.640	-200.000	0.028	-0.251
-220.625	800.000	-0.048	-0.159
-219.611	-200.000	0.005	-0.076
-218.596	776.662	-0.087	-0.236
-217.582	800.000	0.056	0.180
-216.567	415.610	-0.157	0.333
-215.552	-165.894	-0.203	0.009
-214.538	9.153	0.128	0.097
-213.523	800.000	0.060	-0.186
-212.509	-199.163	0.334	0.002
-211.494	-147.503	0.158	-0.013
-210.479	166.199	0.179	0.253
-209.465	-200.000	-0.015	0.189
-208.450	-151.653	0.244	-0.018
-207.436	-90.531	0.232	0.067
-206.421	-63.888	0.228	0.093
-205.406	-12.537	0.141	0.092
-204.392	-200.000	-0.079	0.389
-203.377	-50.983	0.095	-0.044
-202.363	-22.327	0.074	0.044
-201.348	-21.235	-0.175	0.107
-200.333	-158.527	0.338	-0.019
-199.319	-169.908	-0.086	-0.003
-198.304	-200.000	-0.034	-0.286
-197.290	-200.000	-0.010	-0.111
-196.275	-6.004	-0.235	-0.160
-195.260	-11.655	-0.272	-0.178
-194.246	-59.747	-0.360	-0.154
-193.231	407.934	0.074	-0.157
-192.217	-20.695	0.072	0.044
-191.202	-87.705	0.326	0.098
-190.187	-200.000	0.041	-0.538
-189.173	22.814	0.254	0.207
-188.158	800.000	0.008	-0.027
-187.144	181.989	-0.050	0.073
-186.129	368.567	0.040	-0.081
-185.114	-49.249	0.329	0.156
-184.100	-14.879	0.295	-0.189
-183.085	-136.621	-0.158	-0.018
-182.071	-150.997	0.263	0.020
-181.056	7.516	-0.038	0.028
-180.042	62.057	0.065	-0.064
-179.027	394.086	0.151	-0.314
-178.012	-24.247	-0.170	0.101
-176.998	41.551	0.348	-0.314
-175.983	-1.973	0.095	0.067
-174.969	-200.000	0.027	-0.162
-173.954	496.045	-0.079	-0.182
-172.939	-50.688	-0.335	-0.157
-171.925	148.420	-0.060	0.080
-170.910	0.129	-0.210	-0.149
-169.896	-15.708	0.126	-0.080
-168.881	-157.105	0.138	0.008
-167.866	800.000	-0.029	-0.087
-166.852	-43.197	-0.090	0.045
-165.837	800.000	0.073	0.314
-164.823	-133.510	0.361	-0.045
-163.808	508.095	-0.086	0.199
-162.793	-139.635	-0.163	0.017
-161.779	-200.000	-0.026	0.137
-160.764	-56.657	0.325	0.143
-159.750	149.136	0.048	-0.065
-158.735	-22.844	-0.187	0.112
-157.720	256.949	0.147	0.251
-156.706	407.335	-0.099	0.208
-155.691	800.000	-0.051	-0.190
-154.677	-200.000	0.037	0.289
-153.662	-200.000	-0.025	0.109
-152.647	800.000	-0.082	0.348
-151.633	-15.215	0.333	-0.212
-150.618	-165.457	-0.162	0.007
-149.604	132.762	-0.151	0.194
-148.589	-200.000	-0.019	-0.343
-147.574	-200.000	0.036	0.338
-146.560	13.310	-0.336	0.259
-145.545	-158.558	-0.306	-0.018
-144.531	-70.701	0.313	0.118
-143.516	-200.000	-0.033	-0.170
-142.502	800.000	-0.172	0.656
-141.487	-137.343	-0.282	-0.032
-140.472	-35.042	-0.076	-0.041
-139.458	-100.500	-0.231	0.057
-138.443	800.000	-0.055	0.179
-137.429	-1.598	0.167	-0.117
-136.414	800.000	0.031	0.113
-135.399	-56.881	-0.131	-0.057
-134.385	-138.705	0.232	0.025
-133.370	4.046	-0.126	0.092
-132.356	11.373	-0.110	0.084
-131.341	-200.000	0.022	0.168
-130.326	-126.372	-0.168	0.025
-129.312	-64.713	0.031	0.013
-128.297	166.975	-0.112	-0.158
-127.283	-28.932	-0.103	-0.059
-126.268	800.000	-0.032	-0.118
-125.253	-168.088	0.138	-0.005
-124.239	128.278	0.174	0.220
-123.224	-17.966	0.130	0.081
