DTS Sentinel unit serial number:	SN413079Multiplexer serial number:	ORYXHardware model number:	OX4-SRSoftware version number:	ORYX F/W v4.00 Oryx Data Collector v3.7.2.0data status	okinstallation	princeton_trtdifferential loss correction	single-endedforward channel	channel 1reverse channel	N/Adate	2019/09/13time	11:02:35forward acquisition time	60.00reverse acquisition time	0.00gamma	496.2192k internal	0.2318k external	0.2318temperature offset calibration	1.0163default loss term (dB/km)	0.3790temperature slope calibration	1.0000multiplexer offset coefficient	1.0000multiplexer slope coefficient	1.0000fibre end	0.00T internal ref (°C)	31.92T ext. ref 1 (°C)	4.65T ext. ref 2 (°C)	28.80length (m)	temperature (°C)	Stokes	anti-Stokes-747.200	120.152	-0.134	-0.168
-746.185	-123.197	-0.221	-0.036
-745.171	-200.000	-0.005	-0.341
-744.156	81.291	-0.191	-0.209
-743.142	-136.823	0.303	0.035
-742.127	-12.679	-0.247	0.163
-741.112	-200.000	-0.061	-0.353
-740.098	-46.250	-0.292	0.145
-739.083	-35.242	-0.278	0.153
-738.069	-200.000	-0.034	0.207
-737.054	361.984	0.044	0.089
-736.039	-200.000	-0.050	0.265
-735.025	1.686	0.171	0.125
-734.010	800.000	-0.033	0.120
-732.996	800.000	-0.130	-0.421
-731.981	-116.298	0.096	0.018
-730.966	-200.000	0.025	-0.114
-729.952	800.000	0.041	0.134
-728.937	-114.972	-0.387	-0.074
-727.923	359.225	-0.268	0.541
-726.908	-200.000	0.008	0.129
-725.894	282.082	-0.127	0.231
-724.879	-30.266	-0.121	-0.069
-723.864	-163.366	-0.400	0.019
-722.850	-200.000	-0.146	0.000
-721.835	142.077	-0.052	-0.069
-720.821	-110.824	-0.192	0.040
-719.806	156.085	-0.184	0.257
-718.791	41.038	-0.295	0.269
-717.777	91.781	0.029	0.033
-716.762	370.268	-0.115	-0.235
-715.748	-126.078	0.130	0.020
-714.733	28.993	0.048	0.041
-713.718	298.255	-0.029	-0.054
-712.704	-51.633	-0.161	0.076
-711.689	356.676	0.123	-0.248
-710.675	-90.601	-0.158	-0.046
-709.660	-175.757	-0.334	0.009
-708.645	-200.000	0.005	0.121
-707.631	-4.407	-0.174	0.122
-706.616	398.083	-0.177	0.375
-705.602	-200.000	0.036	-0.458
-704.587	-200.000	0.012	0.190
-703.572	-68.571	-0.044	-0.017
-702.558	-200.000	0.015	-0.096
-701.543	645.011	0.040	-0.104
-700.529	-139.421	0.051	-0.005
-699.514	253.935	-0.154	-0.266
-698.499	-13.381	0.288	0.189
-697.485	-200.000	-0.003	-0.181
-696.470	-105.737	0.339	0.077
-695.456	-19.315	-0.104	-0.065
-694.441	-184.022	-0.430	0.007
-693.426	-9.593	0.216	0.145
-692.412	349.545	0.116	0.231
-691.397	236.549	-0.119	-0.199
-690.383	-77.331	0.231	0.081
-689.368	800.000	0.085	-0.239
-688.354	29.376	0.255	-0.219
-687.339	800.000	-0.046	0.149
-686.324	-55.132	-0.212	-0.096
-685.310	-200.000	0.020	0.186
-684.295	-78.589	-0.346	-0.119
-683.281	-102.519	0.113	0.027
-682.266	-80.650	-0.215	-0.072
-681.251	-67.843	0.197	0.078
-680.237	62.206	0.102	-0.103
-679.222	-200.000	0.025	-0.132
-678.208	-134.950	-0.360	-0.044
-677.193	-104.122	0.222	-0.052
-676.178	354.409	-0.112	0.224
-675.164	135.378	0.245	0.321
-674.149	-164.797	0.010	-0.000
-673.135	-111.667	0.284	-0.058
-672.120	-88.103	0.034	0.010
-671.105	-57.522	0.269	0.119
-670.091	-200.000	-0.001	-0.044
-669.076	-99.058	0.157	0.040
-668.062	-41.515	-0.048	-0.025
-667.047	800.000	-0.079	-0.236
-666.032	-178.103	0.224	-0.005
-665.018	297.847	0.157	0.291
-664.003	224.463	0.108	-0.176
-662.989	-117.148	0.282	-0.052
-661.974	800.000	0.093	0.277
-660.959	-84.872	-0.038	-0.012
-659.945	266.402	-0.148	-0.261
-658.930	-200.000	0.059	-0.299
-657.916	-12.371	-0.241	0.159
-656.901	135.126	0.359	0.471
-655.886	-84.349	-0.131	-0.042
-654.872	-37.944	-0.117	-0.062
-653.857	238.667	-0.086	-0.144
-652.843	56.844	0.239	-0.235
-651.828	287.642	-0.108	-0.198
-650.814	-162.412	-0.137	0.007
-649.799	110.375	0.146	0.177
-648.784	-200.000	0.007	0.176
-647.770	800.000	-0.028	0.111
-646.755	39.358	-0.044	-0.039
-645.741	371.068	0.019	-0.039
-644.726	-54.126	0.173	0.079
-643.711	-29.366	-0.222	0.128
-642.697	74.093	-0.221	-0.234
-641.682	-200.000	-0.004	-0.074
-640.668	-98.504	-0.150	0.039
-639.653	-66.263	0.147	-0.059
-638.638	-136.164	0.057	0.007
-637.624	800.000	0.019	-0.057
-636.609	10.059	0.173	0.132
-635.595	90.084	-0.280	0.315
-634.580	55.703	0.235	0.230
-633.565	-33.325	-0.058	0.032
-632.551	84.318	-0.147	-0.162
-631.536	-200.000	0.024	-0.348
-630.522	-108.622	-0.381	-0.082
-629.507	800.000	0.093	-0.355
-628.492	451.077	0.080	-0.179
-627.478	48.182	-0.056	-0.053
-626.463	-132.124	0.068	-0.009
-625.449	-200.000	-0.001	-0.152
-624.434	-126.696	-0.352	-0.053
-623.419	-200.000	-0.048	-0.230
-622.405	-44.568	0.296	0.149
-621.390	-173.698	0.202	0.006
-620.376	-200.000	0.020	-0.194
-619.361	-6.012	-0.154	-0.106
-618.346	564.780	-0.107	0.261
-617.332	-94.651	-0.146	-0.040
-616.317	16.044	0.120	-0.095
-615.303	-2.719	0.146	-0.103
-614.288	-200.000	0.006	0.087
-613.273	-14.573	0.198	0.128
-612.259	-144.834	-0.218	-0.020
-611.244	422.477	-0.128	-0.277
-610.230	-200.000	0.005	-0.068
-609.215	-36.853	-0.154	-0.083
-608.201	-46.817	0.341	-0.168
-607.186	732.471	-0.068	0.184
-606.171	-116.971	-0.334	-0.061
-605.157	35.467	-0.289	-0.255
-604.142	468.294	-0.103	-0.232
-603.128	-200.000	0.071	0.331
-602.113	-200.000	-0.045	0.339
-601.098	800.000	0.087	-0.298
-600.084	319.429	0.182	-0.347
-599.069	585.694	0.031	0.076
-598.055	-200.000	-0.044	-0.308
-597.040	-161.279	-0.150	0.008
-596.025	46.710	0.284	-0.266
-595.011	-96.643	0.160	0.042
-593.996	490.312	0.112	0.258
-592.982	73.600	-0.332	0.349
-591.967	-9.987	-0.110	-0.073
-590.952	-121.819	0.240	0.040
-589.938	162.662	0.088	-0.124
-588.923	-200.000	-0.009	0.048
-587.909	-139.581	-0.142	-0.015
-586.894	-7.558	-0.131	0.089
-585.879	-105.941	-0.011	-0.003
-584.865	-161.711	-0.226	-0.012
-583.850	317.038	-0.152	-0.290
-582.836	119.341	-0.209	-0.261
-581.821	-61.444	0.160	0.068
-580.806	556.300	-0.117	0.283
-579.792	86.265	-0.212	-0.234
-578.777	722.546	0.097	-0.261
-577.763	544.045	-0.089	0.214
-576.748	-30.651	0.532	0.303
-575.733	-184.967	-0.130	-0.002
-574.719	294.881	-0.041	0.076
-573.704	-58.311	-0.109	-0.047
-572.690	-113.629	-0.153	0.030
-571.675	-120.610	-0.099	0.017
-570.661	-53.466	-0.160	0.074
-569.646	-187.074	-0.270	0.004
-568.631	16.276	0.244	-0.193
-567.617	99.123	-0.136	0.158
-566.602	800.000	0.108	0.432
-565.588	346.166	-0.066	0.131
-564.573	217.548	-0.130	-0.209
-563.558	-36.880	-0.326	-0.176
-562.544	-200.000	-0.061	-0.308
-561.529	514.065	0.039	0.091
-560.515	11.831	0.266	-0.205
-559.500	-56.665	-0.005	-0.002
-558.485	216.730	0.066	0.105
-557.471	-74.457	0.262	-0.095
-556.456	-200.000	-0.000	-0.136
-555.442	412.039	0.033	0.071
-554.427	-200.000	-0.028	-0.125
-553.412	-83.811	0.185	0.059
-552.398	-91.175	-0.498	0.143
-551.383	49.671	-0.207	0.196
-550.369	800.000	-0.040	0.111
-549.354	193.278	-0.179	0.272
-548.339	-125.688	0.056	-0.008
-547.325	-200.000	-0.005	0.116
-546.310	-167.604	-0.112	-0.004
-545.296	-28.990	0.146	-0.084
-544.281	-200.000	-0.021	0.237
-543.266	-97.735	-0.310	-0.081
-542.252	167.000	-0.135	0.192
-541.237	-200.000	0.024	-0.174
-540.223	-6.503	0.215	-0.147
-539.208	-100.962	-0.356	-0.088
-538.193	-115.990	-0.053	0.010
-537.179	45.362	0.138	-0.128
-536.164	-200.000	0.019	0.262
-535.150	35.765	-0.388	-0.342
-534.135	-200.000	-0.002	0.342
-533.121	-13.420	0.005	-0.003
-532.106	-200.000	0.011	0.141
-531.091	72.050	0.151	-0.158
-530.077	-166.790	-0.455	-0.019
-529.062	-200.000	-0.035	0.234
-528.048	-81.229	-0.288	-0.095
-527.033	26.832	-0.154	0.130
-526.018	-200.000	-0.017	-0.530
-525.004	252.709	-0.097	0.167
-523.989	297.125	0.183	-0.336
-522.975	-110.336	0.285	0.060
-521.960	-71.977	-0.239	0.089
-520.945	-110.402	-0.099	-0.021
-519.931	668.172	-0.062	0.162
-518.916	-17.855	0.240	0.151
-517.902	-71.754	0.303	-0.113
-516.887	267.474	0.082	0.145
-515.872	619.781	-0.087	0.218
-514.858	-75.219	-0.122	-0.044
-513.843	800.000	-0.103	-0.303
-512.829	236.792	-0.077	-0.128
-511.814	488.318	-0.117	0.267
-510.799	-79.307	-0.219	-0.074
-509.785	320.737	-0.062	0.119
-508.770	800.000	-0.070	0.231
-507.756	133.280	0.096	0.124
-506.741	-39.320	-0.264	-0.139
-505.726	-122.975	-0.230	-0.037
-504.712	531.690	-0.076	0.181
-503.697	25.253	-0.176	-0.146
-502.683	-200.000	-0.016	-0.153
-501.668	-200.000	0.033	0.302
-500.653	-97.167	0.159	0.042
-499.639	-86.056	-0.241	-0.075
-498.624	59.147	0.093	0.092
-497.610	-50.271	0.381	-0.181
-496.595	130.056	0.175	-0.225
-495.581	289.330	0.113	-0.206
-494.566	230.776	0.087	0.143
-493.551	302.064	-0.128	0.237
-492.537	-12.850	-0.191	0.124
-491.522	442.722	-0.082	-0.181
-490.508	-178.072	0.057	0.001
-489.493	97.053	0.039	-0.045
-488.478	-69.621	-0.075	0.029
-487.464	32.473	-0.253	0.219
-486.449	-195.953	-0.353	-0.003
-485.435	800.000	0.130	-0.369
-484.420	214.032	-0.158	-0.251
-483.405	32.752	0.155	0.134
-482.391	-131.150	-0.122	-0.016
-481.376	-39.062	0.300	0.158
-480.362	-200.000	-0.057	-0.297
-479.347	-13.820	0.345	-0.223
-478.332	51.503	0.386	-0.367
-477.318	-166.249	-0.070	-0.003
-476.303	-128.468	-0.249	-0.035
-475.289	-121.898	-0.374	-0.062
-474.274	111.339	0.058	-0.070
-473.259	1.758	-0.145	-0.105
-472.245	-62.745	0.037	0.015
-471.230	-8.012	-0.184	-0.124
-470.216	-189.846	0.459	0.005
-469.201	-200.000	-0.002	-0.040
-468.186	136.003	0.078	-0.102
-467.172	-83.826	0.238	-0.076
-466.157	-29.116	-0.170	0.098
-465.143	-80.246	-0.232	-0.078
-464.128	12.941	0.169	-0.131
-463.113	-200.000	-0.045	-0.305
-462.099	108.990	-0.059	-0.071
-461.084	118.336	0.195	-0.241
-460.070	-43.588	0.268	0.135
-459.055	-124.652	-0.166	-0.026
-458.040	-135.451	-0.156	-0.019
-457.026	-76.111	0.422	0.149
-456.011	287.433	-0.084	0.153
-454.997	-36.858	-0.075	-0.040
-453.982	143.306	-0.184	0.245
-452.968	800.000	-0.086	0.319
-451.953	231.568	-0.148	0.242
-450.938	769.651	0.087	0.236
-449.924	-70.969	0.255	-0.096
-448.909	800.000	-0.036	0.158
-447.895	-20.028	0.132	0.081
-446.880	-85.249	0.385	0.120
-445.865	-200.000	-0.005	-0.109
-444.851	-93.511	-0.161	-0.045
-443.836	800.000	0.099	0.395
-442.822	24.200	-0.120	-0.099
-441.807	778.587	-0.053	-0.144
-440.792	800.000	0.068	0.196
-439.778	-65.063	-0.176	-0.071
-438.763	-200.000	-0.004	-0.066
-437.749	151.926	-0.273	0.372
-436.734	-200.000	0.012	0.059
-435.719	-43.334	-0.394	0.199
-434.705	116.271	-0.265	-0.324
-433.690	582.389	0.065	0.160
-432.676	-25.234	-0.281	0.166
-431.661	-148.637	0.450	0.037
-430.646	-142.129	-0.296	0.029
-429.632	200.333	0.048	-0.073
-428.617	-134.686	-0.096	-0.012
-427.603	48.971	0.165	0.155
-426.588	-170.068	0.184	-0.007
-425.573	-15.325	-0.210	0.134
-424.559	-44.808	-0.277	0.138
-423.544	-31.661	0.123	0.069
-422.530	-48.710	-0.077	-0.037
-421.515	-87.690	0.084	0.025
-420.500	75.370	-0.093	0.098
-419.486	-33.585	0.144	0.080
-418.471	-200.000	-0.020	-0.229
-417.457	-101.657	-0.093	0.022
-416.442	-146.723	0.198	-0.017
-415.428	61.682	-0.114	0.114
-414.413	-200.000	0.001	-0.067
-413.398	91.994	-0.077	-0.086
-412.384	-200.000	-0.043	-0.223
-411.369	6.917	0.109	0.081
-410.355	408.290	0.077	0.163
-409.340	-125.642	-0.220	0.033
-408.325	640.858	0.075	-0.192
-407.311	40.639	0.208	-0.187
-406.296	546.745	0.096	0.229
-405.282	800.000	0.075	-0.236
-404.267	-73.532	0.315	-0.115
-403.252	-158.221	0.163	0.010
-402.238	-127.849	-0.128	0.018
-401.223	800.000	-0.078	-0.238
-400.209	-200.000	0.017	0.309
-399.194	187.766	-0.095	0.141
-398.179	-51.169	0.148	0.069
-397.165	45.065	-0.116	-0.106
-396.150	800.000	-0.061	-0.249
-395.136	-78.179	0.195	0.067
-394.121	124.593	0.098	0.124
-393.106	-161.989	0.194	-0.010
-392.092	-75.069	0.025	-0.009
-391.077	-90.026	0.448	-0.130
-390.063	-200.000	0.169	-0.001
-389.048	-63.363	0.240	0.099
-388.033	30.220	-0.159	0.136
-387.019	-200.000	-0.063	-0.291
-386.004	5.979	0.214	0.158
-384.990	269.018	-0.037	0.065
-383.975	593.466	-0.077	-0.190
-382.960	-57.406	-0.202	0.089
-381.946	211.372	0.095	-0.150
-380.931	32.177	-0.162	0.139
-379.917	328.031	-0.012	0.023
-378.902	-200.000	-0.004	-0.040
-377.888	89.371	0.131	-0.146
-376.873	173.993	-0.052	-0.075
-375.858	800.000	0.038	-0.107
-374.844	-59.367	-0.133	0.057
-373.829	117.093	-0.234	-0.287
-372.815	-154.312	0.232	-0.016
-371.800	-200.000	0.009	0.084
-370.785	32.704	0.178	-0.154
-369.771	-87.478	0.465	0.140
-368.756	285.543	0.098	-0.176
-367.742	-200.000	-0.006	0.100
-366.727	-92.971	0.155	0.043
-365.712	101.038	-0.171	0.198
-364.698	71.102	-0.024	-0.025
-363.683	-122.685	-0.084	-0.014
-362.669	9.733	-0.027	0.020
-361.654	-200.000	0.013	-0.127
-360.639	-200.000	-0.034	-0.264
-359.625	531.137	0.131	0.308
-358.610	-78.415	0.380	-0.130
-357.596	-144.405	0.111	0.010
-356.581	-107.717	-0.078	-0.017
-355.566	-102.595	-0.291	-0.069
-354.552	-112.791	0.318	-0.063
-353.537	-88.941	0.366	0.108
-352.523	-87.183	0.086	-0.026
-351.508	98.606	0.111	0.128
-350.493	-50.576	-0.312	0.146
-349.479	71.053	-0.241	-0.249
-348.464	147.150	0.062	-0.083
-347.450	-95.749	-0.156	-0.042
-346.435	-54.619	0.271	0.122
-345.420	490.161	0.129	-0.295
-344.406	800.000	-0.021	-0.079
-343.391	194.125	0.180	-0.272
-342.377	800.000	0.057	-0.246
-341.362	95.497	0.190	-0.216
-340.348	5.918	-0.276	-0.204
-339.333	223.603	0.093	0.150
-338.318	-200.000	0.042	0.289
-337.304	317.209	-0.059	0.112
-336.289	-98.817	0.354	-0.090
-335.275	-102.321	-0.086	-0.021
-334.260	-2.093	0.136	0.095
-333.245	-186.882	0.160	0.002
-332.231	-41.395	0.266	0.136
-331.216	153.265	0.047	-0.064
-330.202	349.561	0.186	0.366
-329.187	-200.000	0.004	-0.080
-328.172	-179.744	0.192	-0.004
-327.158	-14.452	-0.245	-0.157
-326.143	-38.400	-0.170	-0.089
-325.129	-92.754	0.319	0.089
-324.114	26.345	0.360	0.299
-323.099	59.759	-0.075	0.074
-322.085	-48.979	0.116	0.055
-321.070	-6.718	0.171	0.116
-320.056	286.300	0.112	-0.202
-319.041	-69.407	-0.198	-0.076
-318.026	759.043	0.103	0.277
-317.012	8.621	0.281	0.210
-315.997	-96.969	0.377	-0.098
-314.983	-153.702	0.343	-0.023
-313.968	-171.867	-0.173	-0.006
-312.953	95.155	-0.145	0.164
-311.939	-98.523	-0.139	0.035
-310.924	-101.009	-0.326	0.080
-309.910	714.923	0.061	-0.161
-308.895	-200.000	-0.030	-0.293
-307.880	800.000	-0.042	0.125
-306.866	-78.264	-0.139	-0.047
-305.851	800.000	-0.041	-0.124
-304.837	136.139	-0.091	-0.118
-303.822	-200.000	-0.006	0.032
-302.807	18.679	0.116	-0.093
-301.793	-200.000	0.015	0.260
-300.778	67.685	0.209	0.213
-299.764	-60.775	0.141	0.059
-298.749	290.767	0.064	-0.116
-297.735	-200.000	-0.009	-0.272
-296.720	110.223	0.053	-0.064
-295.705	78.226	-0.122	-0.130
-294.691	-145.509	-0.294	0.026
-293.676	-74.006	0.223	-0.081
-292.662	286.589	-0.112	0.201
-291.647	-106.645	-0.371	0.082
-290.632	-149.975	0.490	0.038
-289.618	-166.889	0.214	-0.009
-288.603	-200.000	0.041	0.186
-287.589	-200.000	-0.037	-0.244
-286.574	-200.000	0.022	0.109
-285.559	117.727	0.060	-0.073
-284.545	-91.855	-0.196	0.055
-283.530	-40.366	-0.062	0.032
-282.516	800.000	-0.017	0.068
-281.501	13.352	-0.331	-0.255
-280.486	800.000	0.017	0.051
-279.472	-24.157	0.138	-0.082
-278.457	-3.266	0.148	-0.102
-277.443	800.000	-0.097	-0.268
-276.428	81.405	0.144	-0.155
-275.413	-51.016	-0.220	-0.102
-274.399	7.419	0.110	-0.082
-273.384	277.383	0.043	0.077
-272.370	109.691	-0.140	-0.167
-271.355	51.084	-0.101	0.095
-270.340	27.040	-0.148	0.123
-269.326	208.244	-0.150	-0.233
-268.311	257.271	0.154	0.264
-267.297	-155.045	-0.155	-0.010
-266.282	-148.315	-0.249	-0.020
-265.267	-78.064	-0.047	-0.016
-264.253	1.781	0.319	-0.228
-263.238	-83.755	0.174	0.055
-262.224	-95.148	-0.117	-0.031
-261.209	160.425	0.240	-0.333
-260.195	-200.000	-0.024	-0.244
-259.180	-18.458	-0.135	-0.084
-258.165	-62.333	0.409	0.169
-257.151	-136.228	-0.301	0.035
-256.136	-200.000	-0.050	0.502
-255.122	-96.749	-0.348	-0.091
-254.107	-107.080	-0.255	0.056
-253.092	-47.268	0.298	0.144
-252.078	-200.000	-0.009	-0.417
-251.063	129.126	0.063	-0.080
-250.049	-21.962	-0.061	-0.037
-249.034	-41.452	0.279	0.142
-248.019	-52.442	-0.150	-0.069
-247.005	800.000	-0.126	0.453
-245.990	-169.394	0.171	0.006
-244.976	800.000	0.093	0.373
-243.961	139.761	0.255	-0.334
-242.946	6.958	-0.024	0.017
-241.932	114.427	-0.084	-0.102
-240.917	-200.000	0.056	0.334
-239.903	-74.857	-0.280	-0.100
-238.888	45.150	0.155	0.142
-237.873	109.916	0.190	0.226
-236.859	128.573	-0.036	-0.045
-235.844	-74.293	0.135	0.049
-234.830	800.000	-0.102	0.348
-233.815	-200.000	0.005	-0.055
-232.800	29.409	-0.217	0.183
-231.786	800.000	-0.014	0.056
-230.771	51.020	0.135	0.127
-229.757	135.368	0.125	-0.162
-228.742	800.000	-0.112	0.340
-227.727	800.000	0.153	0.537
-226.713	40.771	-0.053	-0.047
-225.698	-3.002	0.242	-0.167
-224.684	51.406	-0.105	0.099
-223.669	-200.000	0.041	0.194
-222.655	63.627	0.015	0.015
-221.640	131.225	-0.097	0.124
-220.625	-39.073	0.275	0.144
-219.611	-124.017	0.314	-0.049
-218.596	-14.041	-0.134	-0.086
-217.582	45.440	0.168	-0.153
-216.567	-103.857	0.146	-0.034
-215.552	-31.170	-0.202	0.113
-214.538	-40.531	-0.017	-0.009
-213.523	800.000	0.030	0.098
-212.509	79.295	0.179	-0.190
-211.494	79.346	0.102	0.108
-210.479	-38.872	-0.131	-0.069
-209.465	-200.000	-0.027	-0.157
-208.450	658.210	-0.038	0.098
-207.436	-145.335	0.219	-0.020
-206.421	305.689	-0.062	0.114
-205.406	800.000	-0.053	-0.150
-204.392	105.546	0.147	0.172
-203.377	398.771	-0.058	0.121
-202.363	96.743	-0.210	0.238
-201.348	213.382	0.052	0.081
-200.333	800.000	-0.022	-0.063
-199.319	-200.000	-0.012	0.383
-198.304	-30.809	0.090	-0.051
-197.290	-200.000	-0.440	-0.001
-196.275	-6.727	-0.060	-0.040
-195.260	675.604	0.084	0.217
-194.246	12.473	-0.087	-0.066
-193.231	-113.627	0.227	0.044
-192.217	-2.456	-0.295	0.205
-191.202	197.111	0.116	0.176
-190.187	-49.720	-0.129	-0.061
-189.173	96.436	-0.134	-0.152
-188.158	8.736	0.089	0.066
-187.144	-87.376	-0.227	-0.068
-186.129	607.709	0.102	0.253
-185.114	180.749	-0.139	-0.202
-184.100	-66.463	0.098	0.039
-183.085	229.181	0.137	0.222
-182.071	51.145	0.163	-0.153
-181.056	-171.290	0.085	-0.003
-180.042	-61.736	-0.145	-0.060
-179.027	493.520	-0.066	-0.150
-178.012	367.994	-0.070	-0.140
-176.998	-200.000	-0.012	0.119
-175.983	-200.000	-0.001	-0.042
-174.969	-200.000	-0.030	-0.198
-173.954	800.000	-0.093	-0.270
-172.939	-200.000	0.015	0.181
-171.925	800.000	0.047	-0.130
-170.910	133.348	-0.329	-0.420
-169.896	800.000	0.031	-0.098
-168.881	208.949	0.297	0.460
-167.866	-200.000	0.011	-0.077
-166.852	3.039	0.303	-0.218
-165.837	800.000	0.048	-0.152
-164.823	-200.000	0.015	0.140
-163.808	143.069	-0.074	0.097
-162.793	-116.797	0.177	0.032
-161.779	80.788	0.241	-0.257
-160.764	-57.683	-0.288	0.125
-159.750	271.720	-0.199	-0.346
-158.735	11.586	0.158	0.120
-157.720	85.342	0.257	0.279
-156.706	-174.174	-0.376	-0.011
-155.691	76.936	0.043	0.045
-154.677	465.444	-0.034	0.076
-153.662	231.228	-0.114	0.184
-152.647	4.824	-0.126	-0.092
-151.633	-92.828	0.046	-0.013
-150.618	800.000	-0.073	0.307
-149.604	-200.000	0.005	0.404
-148.589	-57.462	0.199	0.086
-147.574	-154.134	0.201	-0.013
-146.560	399.971	-0.146	0.302
-145.545	-94.682	0.471	0.126
-144.531	-61.955	0.029	-0.012
-143.516	195.994	-0.047	-0.071
-142.502	202.427	0.231	-0.353
-141.487	550.678	0.068	0.162
-140.472	240.274	0.196	-0.323
-139.458	-200.000	-0.004	0.116
-138.443	104.092	-0.107	-0.125
-137.429	-99.570	-0.300	0.075
-136.414	-146.624	-0.100	0.009
-135.399	-200.000	0.047	0.449
-134.385	223.672	-0.204	-0.326
-133.370	800.000	-0.042	-0.135
-132.356	144.307	-0.123	-0.163
-131.341	800.000	0.052	-0.214
-130.326	68.268	-0.150	0.152
-129.312	144.925	0.187	0.247
-128.297	800.000	0.146	0.491
-127.283	20.535	-0.093	-0.075
-126.268	149.497	-0.070	0.093
-125.253	-200.000	0.016	0.166
-124.239	800.000	-0.086	-0.275
-123.224	17.869	0.057	0.045
-122.210	-200.000	-0.004	-0.049
