DTS Sentinel unit serial number:	SN413079Multiplexer serial number:	ORYXHardware model number:	OX4-SRSoftware version number:	ORYX F/W v4.00 Oryx Data Collector v3.7.2.0data status	okinstallation	princeton_trtdifferential loss correction	single-endedforward channel	channel 1reverse channel	N/Adate	2019/09/14time	09:06:35forward acquisition time	60.00reverse acquisition time	0.00gamma	496.2192k internal	0.2325k external	0.2325temperature offset calibration	1.0070default loss term (dB/km)	0.3790temperature slope calibration	1.0000multiplexer offset coefficient	1.0000multiplexer slope coefficient	1.0000fibre end	0.00T internal ref (°C)	30.27T ext. ref 1 (°C)	3.76T ext. ref 2 (°C)	28.60length (m)	temperature (°C)	Stokes	anti-Stokes-747.200	-117.220	-0.173	0.032
-746.185	-200.000	0.021	0.529
-745.171	-200.000	0.021	0.324
-744.156	-63.213	0.127	-0.053
-743.142	-146.658	0.620	-0.054
-742.127	300.080	-0.104	0.194
-741.112	-2.231	-0.150	-0.106
-740.098	96.125	-0.131	0.151
-739.083	800.000	0.036	-0.123
-738.069	186.444	-0.183	0.274
-737.054	65.909	0.129	0.132
-736.039	-200.000	0.004	0.125
-735.025	800.000	-0.080	-0.258
-734.010	-114.144	-0.383	-0.075
-732.996	-167.806	0.256	0.010
-731.981	-200.000	-0.006	0.047
-730.966	-149.772	-0.397	0.031
-729.952	193.331	-0.155	0.237
-728.937	800.000	0.026	-0.077
-727.923	-67.829	-0.129	-0.051
-726.908	-7.295	-0.194	-0.132
-725.894	63.753	-0.134	-0.136
-724.879	429.283	0.021	0.047
-723.864	49.616	0.166	0.158
-722.850	41.557	-0.338	-0.309
-721.835	-46.919	-0.180	0.088
-720.821	-129.157	-0.132	-0.019
-719.806	-77.702	0.291	-0.101
-718.791	565.386	-0.094	0.229
-717.777	-101.684	0.461	0.113
-716.762	-27.108	-0.074	0.044
-715.748	-128.041	-0.295	0.043
-714.733	-174.150	-0.245	0.007
-713.718	-47.560	-0.232	-0.113
-712.704	400.540	0.049	-0.104
-711.689	-66.054	0.277	0.111
-710.675	-144.037	0.203	0.019
-709.660	200.082	-0.241	-0.373
-708.645	800.000	-0.104	-0.335
-707.631	42.687	-0.094	-0.086
-706.616	800.000	0.059	-0.245
-705.602	-200.000	0.068	0.405
-704.587	800.000	-0.081	0.254
-703.572	565.281	0.035	0.086
-702.558	-127.583	0.307	-0.045
-701.543	-200.000	-0.057	0.294
-700.529	-2.555	-0.167	0.118
-699.514	-190.608	0.227	0.002
-698.499	-200.000	0.019	-0.131
-697.485	-73.254	-0.348	-0.128
-696.470	130.642	-0.063	-0.081
-695.456	-152.468	-0.270	-0.020
-694.441	-112.658	-0.197	0.039
-693.426	800.000	0.090	-0.306
-692.412	515.254	-0.039	0.093
-691.397	-200.000	-0.017	0.109
-690.383	800.000	0.031	0.093
-689.368	800.000	0.042	0.146
-688.354	268.004	0.161	-0.283
-687.339	-91.588	0.131	0.038
-686.324	-34.242	-0.052	0.029
-685.310	800.000	-0.011	-0.047
-684.295	211.821	-0.117	0.186
-683.281	25.136	0.154	0.129
-682.266	753.547	-0.061	-0.166
-681.251	-200.000	0.023	0.369
-680.237	-72.510	-0.379	0.141
-679.222	-105.656	-0.297	0.068
-678.208	194.437	0.112	0.171
-677.193	-200.000	0.012	-0.119
-676.178	244.108	0.211	-0.356
-675.164	22.889	-0.146	0.121
-674.149	153.155	-0.184	-0.253
-673.135	800.000	-0.036	0.124
-672.120	-69.034	-0.310	0.120
-671.105	437.454	0.050	0.109
-670.091	-143.964	-0.249	-0.024
-669.076	554.701	0.032	-0.078
-668.062	423.573	-0.160	-0.346
-667.047	-200.000	0.051	0.296
-666.032	61.774	0.149	-0.149
-665.018	164.835	0.162	-0.229
-664.003	-83.964	0.304	-0.097
-662.989	-64.202	-0.188	0.077
-661.974	282.885	-0.113	0.205
-660.959	-169.323	-0.307	-0.011
-659.945	-69.121	0.131	0.051
-658.930	-87.840	-0.224	-0.068
-657.916	50.497	0.101	-0.096
-656.901	113.872	-0.187	-0.229
-655.886	212.803	-0.143	-0.227
-654.872	273.597	-0.174	-0.310
-653.857	-135.148	-0.152	-0.018
-652.843	-19.364	-0.164	-0.102
-651.828	-60.635	-0.015	-0.007
-650.814	164.649	0.118	0.167
-649.799	135.363	0.126	0.165
-648.784	-200.000	0.023	0.155
-647.770	548.359	0.030	0.073
-646.755	120.301	0.132	0.165
-645.741	-200.000	0.002	-0.173
-644.726	-115.388	-0.134	0.025
-643.711	-121.860	-0.177	0.029
-642.697	-200.000	0.027	-0.291
-641.682	-43.401	0.067	-0.034
-640.668	139.667	-0.161	-0.214
-639.653	-70.799	0.215	0.082
-638.638	-148.556	0.381	-0.031
-637.624	-65.139	-0.139	0.057
-636.609	-57.208	-0.172	0.076
-635.595	34.893	0.207	0.182
-634.580	-158.995	0.189	0.011
-633.565	-200.000	-0.017	-0.256
-632.551	-200.000	-0.014	-0.116
-631.536	-45.977	0.155	0.077
-630.522	-96.588	-0.138	0.037
-629.507	-120.336	-0.025	-0.004
-628.492	800.000	0.023	-0.083
-627.478	109.560	-0.188	0.226
-626.463	-95.172	-0.179	0.048
-625.449	-73.429	-0.030	-0.011
-624.434	102.887	0.105	-0.123
-623.419	73.004	-0.151	-0.159
-622.405	-189.310	0.370	-0.004
-621.390	130.216	0.182	0.234
-620.376	127.674	-0.047	-0.059
-619.361	104.281	0.293	-0.346
-618.346	436.322	-0.137	-0.300
-617.332	205.220	0.223	0.347
-616.317	800.000	0.087	0.292
-615.303	137.254	0.078	0.103
-614.288	569.772	-0.101	0.245
-613.273	-56.288	-0.152	0.068
-612.259	290.987	0.137	0.250
-611.244	287.186	-0.085	0.153
-610.230	109.409	0.064	0.077
-609.215	800.000	0.075	0.217
-608.201	147.842	-0.184	0.249
-607.186	-0.253	-0.193	-0.138
-606.171	179.087	-0.160	-0.235
-605.157	-156.232	-0.154	0.010
-604.142	-200.000	-0.022	-0.107
-603.128	-115.089	0.169	-0.032
-602.113	-27.146	-0.559	0.327
-601.098	-117.551	-0.134	-0.024
-600.084	-200.000	-0.000	-0.151
-599.069	-121.979	-0.175	0.029
-598.055	-50.419	0.237	0.112
-597.040	154.717	-0.092	0.127
-596.025	-12.644	-0.028	0.019
-595.011	-200.000	-0.034	0.289
-593.996	301.857	0.129	-0.239
-592.982	-200.000	-0.006	-0.241
-591.967	-120.097	-0.140	-0.024
-590.952	-5.581	0.255	-0.175
-589.938	55.920	-0.198	-0.193
-588.923	-15.706	0.243	-0.156
-587.909	800.000	0.064	0.229
-586.894	800.000	-0.089	-0.288
-585.879	-200.000	-0.007	0.156
-584.865	188.931	0.037	-0.056
-583.850	524.362	0.108	0.256
-582.836	114.836	0.242	-0.296
-581.821	556.082	0.031	-0.075
-580.806	22.473	-0.172	0.141
-579.792	-200.000	0.032	0.169
-578.777	-20.604	-0.469	-0.289
-577.763	-47.376	0.405	-0.198
-576.748	-31.844	0.326	0.183
-575.733	683.531	-0.048	-0.126
-574.719	-90.348	-0.290	-0.084
-573.704	63.781	-0.078	0.079
-572.690	-200.000	0.020	0.114
-571.675	-200.000	0.008	0.099
-570.661	-200.000	0.050	-0.339
-569.646	-145.492	-0.105	0.009
-568.631	-200.000	-0.007	0.229
-567.617	-119.847	-0.185	0.032
-566.602	192.699	-0.086	-0.131
-565.588	-68.523	-0.076	-0.029
-564.573	441.885	0.168	-0.369
-563.558	190.432	-0.255	0.383
-562.544	352.671	-0.217	-0.431
-561.529	-134.730	-0.322	-0.039
-560.515	-81.582	0.061	0.020
-559.500	579.743	0.069	-0.168
-558.485	-153.526	-0.143	0.010
-557.471	37.840	-0.106	0.094
-556.456	-200.000	0.010	0.047
-555.442	568.903	-0.089	-0.216
-554.427	-37.996	0.227	0.121
-553.412	-70.354	0.101	0.038
-552.398	84.387	0.188	-0.206
-551.383	-96.039	-0.403	0.107
-550.369	-113.482	-0.247	0.048
-549.354	2.428	0.168	-0.122
-548.339	-200.000	-0.095	0.000
-547.325	-74.384	0.068	-0.024
-546.310	239.448	-0.168	-0.280
-545.296	-113.444	0.085	-0.017
-544.281	-200.000	-0.011	-0.063
-543.266	-200.000	0.050	-0.227
-542.252	135.587	-0.202	-0.263
-541.237	800.000	-0.050	-0.156
-540.223	50.178	-0.189	0.178
-539.208	-33.126	0.327	-0.182
-538.193	132.328	-0.089	0.115
-537.179	-51.620	0.094	0.044
-536.164	-120.505	0.174	0.029
-535.150	209.264	-0.219	0.344
-534.135	146.610	-0.142	0.191
-533.121	108.739	0.025	0.030
-532.106	-200.000	-0.003	-0.146
-531.091	-119.037	0.025	-0.004
-530.077	388.882	-0.085	0.176
-529.062	112.730	-0.141	0.171
-528.048	16.007	-0.031	-0.025
-527.033	-127.337	0.129	-0.019
-526.018	286.429	-0.215	0.388
-525.004	800.000	0.105	-0.405
-523.989	-44.394	0.213	0.107
-522.975	-200.000	-0.103	0.591
-521.960	16.319	0.206	0.163
-520.945	163.915	0.205	-0.288
-519.931	-173.969	-0.356	0.010
-518.916	76.313	-0.215	0.227
-517.902	-200.000	-0.011	-0.121
-516.887	-200.000	-0.016	-0.133
-515.872	71.473	-0.114	0.118
-514.858	-161.041	0.387	0.020
-513.843	-160.591	-0.071	0.004
-512.829	-63.926	-0.190	-0.078
-511.814	0.391	-0.078	-0.056
-510.799	-136.704	-0.182	0.021
-509.785	411.868	0.143	0.303
-508.770	331.124	-0.196	0.377
-507.756	-69.038	-0.023	0.009
-506.741	231.244	0.038	-0.062
-505.726	-23.525	-0.375	-0.225
-504.712	-179.144	0.149	-0.003
-503.697	96.734	0.091	-0.104
-502.683	-125.077	-0.118	-0.018
-501.668	222.803	-0.090	-0.145
-500.653	-6.029	-0.110	0.075
-499.639	-200.000	0.023	-0.442
-498.624	-81.751	-0.109	-0.036
-497.610	-200.000	-0.019	0.150
-496.595	-200.000	0.003	-0.122
-495.581	800.000	0.105	0.294
-494.566	-86.642	0.232	-0.071
-493.551	30.998	0.190	-0.162
-492.537	-200.000	-0.016	0.094
-491.522	-149.903	-0.219	-0.017
-490.508	-200.000	-0.011	0.358
-489.493	-121.295	0.344	-0.057
-488.478	286.881	0.111	-0.200
-487.464	38.893	-0.205	-0.183
-486.449	586.351	-0.049	0.120
-485.435	25.468	-0.216	-0.180
-484.420	271.477	-0.074	0.130
-483.405	-200.000	-0.001	-0.204
-482.391	-37.719	0.257	-0.137
-481.376	165.697	0.080	0.113
-480.362	355.301	0.172	0.342
-479.347	-200.000	-0.086	0.418
-478.332	12.951	-0.161	-0.124
-477.318	-123.636	0.215	0.034
-476.303	67.227	0.274	0.279
-475.289	-45.234	0.088	-0.044
-474.274	362.250	0.153	0.307
-473.259	-74.546	-0.249	-0.090
-472.245	143.049	-0.035	0.046
-471.230	80.515	0.171	-0.184
-470.216	-115.962	-0.354	0.066
-469.201	800.000	-0.008	-0.029
-468.186	-140.560	-0.273	-0.028
-467.172	-15.568	-0.183	0.117
-466.157	-93.687	-0.057	-0.016
-465.143	-139.642	0.089	-0.009
-464.128	800.000	0.043	0.170
-463.113	-143.230	-0.258	0.025
-462.099	83.514	-0.274	0.298
-461.084	83.377	0.066	0.072
-460.070	-73.573	-0.123	0.045
-459.055	-96.454	-0.315	-0.083
-458.040	-79.722	0.135	0.045
-457.026	44.500	0.153	0.141
-456.011	-62.306	0.167	0.069
-454.997	-200.000	0.008	-0.139
-453.982	-125.623	-0.245	-0.037
-452.968	18.091	0.058	-0.046
-451.953	109.416	-0.184	0.220
-450.938	92.617	-0.232	0.262
-449.924	-158.441	0.322	-0.019
-448.909	-148.179	0.381	0.031
-447.895	-91.355	-0.034	0.010
-446.880	432.213	-0.088	0.190
-445.865	-200.000	-0.014	-0.121
-444.851	46.188	0.082	0.076
-443.836	197.987	0.176	-0.267
-442.822	87.321	-0.223	0.246
-441.807	-200.000	-0.002	0.073
-440.792	-73.257	-0.054	0.020
-439.778	-64.018	-0.158	-0.064
-438.763	-23.228	0.173	-0.104
-437.749	-135.083	-0.223	-0.027
-436.734	-143.168	-0.137	-0.013
-435.719	37.731	-0.198	0.176
-434.705	800.000	-0.075	-0.223
-433.690	-200.000	-0.004	-0.064
-432.676	-7.544	0.077	-0.052
-431.661	149.608	0.129	0.175
-430.646	43.066	-0.138	0.126
-429.632	323.769	-0.020	0.038
-428.617	272.282	-0.101	0.177
-427.603	-102.013	0.309	-0.074
-426.588	-200.000	-0.011	0.172
-425.573	119.422	-0.069	-0.085
-424.559	369.041	0.130	0.262
-423.544	-14.371	0.114	-0.073
-422.530	-95.992	0.106	0.028
-421.515	-152.099	0.237	0.017
-420.500	104.453	-0.162	-0.191
-419.486	-121.464	-0.229	-0.038
-418.471	104.698	-0.182	0.214
-417.457	-200.000	0.008	0.361
-416.442	-103.630	-0.051	-0.012
-415.428	-7.569	-0.138	-0.093
-414.413	200.612	0.104	-0.159
-413.398	-200.000	-0.033	-0.265
-412.384	-16.599	-0.286	0.180
-411.369	-25.239	0.063	-0.037
-410.355	-164.769	-0.158	0.007
-409.340	85.961	0.354	-0.388
-408.325	-132.200	-0.156	0.020
-407.311	-50.488	-0.229	-0.107
-406.296	-151.472	0.331	0.024
-405.282	-119.092	0.306	0.053
-404.267	-132.368	-0.107	0.014
-403.252	273.035	0.077	0.136
-402.238	-18.804	0.235	0.146
-401.223	-128.178	-0.065	-0.009
-400.209	441.791	0.115	-0.251
-399.194	12.469	0.154	0.118
-398.179	-132.248	0.142	0.018
-397.165	-66.412	0.033	-0.013
-396.150	155.838	-0.168	0.230
-395.136	-200.000	0.038	-0.187
-394.121	-87.909	-0.250	0.075
-393.106	-125.844	-0.381	-0.057
-392.092	137.080	0.110	-0.144
-391.077	-40.352	-0.343	-0.177
-390.063	-133.362	0.409	-0.051
-389.048	-200.000	-0.044	0.204
-388.033	-96.681	0.133	-0.035
-387.019	-100.116	0.373	0.092
-386.004	-146.245	0.071	0.006
-384.990	-8.706	0.129	-0.086
-383.975	-11.465	0.242	0.158
-382.960	16.363	-0.246	-0.193
-381.946	144.309	-0.155	-0.205
-380.931	-113.106	-0.459	0.090
-379.917	800.000	0.078	0.246
-378.902	800.000	-0.022	0.083
-377.888	800.000	0.050	-0.210
-376.873	-200.000	0.014	-0.175
-375.858	-115.280	0.215	0.040
-374.844	329.679	-0.077	-0.148
-373.829	165.306	-0.108	0.151
-372.815	-200.000	0.055	-0.322
-371.800	378.491	-0.056	-0.114
-370.785	-1.070	0.259	-0.182
-369.771	-200.000	-0.025	0.559
-368.756	164.518	0.190	0.266
-367.742	-200.000	0.015	0.071
-366.727	6.694	-0.068	-0.050
-365.712	245.230	-0.057	0.095
-364.698	-78.119	-0.203	0.070
-363.683	-36.778	0.056	0.030
-362.669	314.503	0.041	0.077
-361.654	800.000	-0.026	-0.091
-360.639	611.049	0.089	-0.221
-359.625	800.000	-0.063	0.219
-358.610	240.050	-0.079	-0.130
-357.596	-16.060	-0.170	-0.107
-356.581	295.231	0.093	-0.169
-355.566	-30.139	-0.073	0.041
-354.552	800.000	-0.073	-0.310
-353.537	42.826	0.300	-0.272
-352.523	800.000	0.140	0.458
-351.508	-186.603	-0.289	-0.004
-350.493	-200.000	-0.051	-0.344
-349.479	-200.000	-0.037	-0.207
-348.464	379.822	-0.119	0.243
-347.450	-30.955	-0.079	-0.044
-346.435	800.000	-0.035	-0.125
-345.420	155.490	0.155	-0.212
-344.406	800.000	0.009	-0.031
-343.391	-153.485	0.027	-0.002
-342.377	-200.000	0.013	-0.435
-341.362	658.355	-0.060	-0.153
-340.348	-200.000	0.006	-0.079
-339.333	5.281	-0.103	0.075
-338.318	-108.352	0.124	0.027
-337.304	-62.980	0.348	-0.143
-336.289	-51.556	-0.096	-0.044
-335.275	-133.943	0.103	-0.013
-334.260	67.763	-0.176	-0.178
-333.245	72.419	0.144	0.149
-332.231	56.461	0.037	0.035
-331.216	177.517	0.127	-0.183
-330.202	-16.570	0.121	-0.076
-329.187	57.862	0.276	0.268
-328.172	-200.000	0.012	-0.091
-327.158	-200.000	0.003	-0.103
-326.143	-200.000	-0.014	0.166
-325.129	84.834	-0.155	-0.169
-324.114	14.701	-0.058	0.045
-323.099	-42.088	0.125	-0.064
-322.085	198.802	-0.153	-0.233
-321.070	37.338	-0.283	-0.249
-320.056	220.447	0.240	-0.382
-319.041	800.000	-0.073	0.300
-318.026	-200.000	-0.066	-0.483
-317.012	-200.000	-0.042	-0.241
-315.997	-32.887	-0.405	0.223
-314.983	85.043	-0.256	-0.278
-313.968	-78.903	0.312	0.106
-312.953	-117.967	-0.184	-0.033
-311.939	485.571	0.065	0.146
-310.924	33.557	-0.122	-0.105
-309.910	231.435	-0.051	-0.083
-308.895	273.807	0.064	-0.112
-307.880	-36.166	-0.254	0.136
-306.866	-200.000	-0.040	-0.226
-305.851	81.187	-0.055	-0.059
-304.837	-157.954	0.291	0.017
-303.822	-121.755	0.319	0.052
-302.807	55.500	-0.095	0.091
-301.793	265.771	-0.017	0.030
-300.778	747.846	-0.034	0.092
-299.764	-113.180	0.165	-0.032
-298.749	553.339	0.051	0.121
-297.735	-127.104	0.464	0.067
-296.720	-200.000	-0.064	0.291
-295.705	139.878	-0.176	-0.229
-294.691	189.427	0.096	0.142
-293.676	-89.456	-0.088	0.026
-292.662	800.000	-0.023	0.074
-291.647	722.784	-0.133	0.351
-290.632	450.939	-0.106	0.231
-289.618	-126.898	0.326	0.048
-288.603	-111.534	-0.266	0.054
-287.589	-200.000	-0.029	-0.212
-286.574	22.628	0.204	0.165
-285.559	252.208	-0.214	0.361
-284.545	98.654	-0.017	0.019
-283.530	-75.964	0.018	-0.006
-282.516	-23.767	0.140	-0.083
-281.501	295.363	-0.058	0.104
-280.486	-176.712	0.338	0.009
-279.472	-37.751	-0.190	0.100
-278.457	-31.077	0.193	0.108
-277.443	-90.923	-0.315	-0.090
-276.428	-200.000	0.011	-0.120
-275.413	-200.000	0.078	0.000
-274.399	2.020	0.111	0.079
-273.384	-200.000	0.020	0.228
-272.370	-72.493	-0.126	-0.046
-271.355	-87.497	0.036	-0.011
-270.340	-139.130	-0.407	0.044
-269.326	76.282	0.159	-0.167
-268.311	-86.287	0.265	-0.081
-267.297	-44.202	0.275	-0.137
-266.282	115.920	0.121	-0.147
-265.267	43.366	0.085	-0.077
-264.253	37.177	0.052	0.046
-263.238	800.000	0.026	0.111
-262.224	-189.930	0.365	-0.004
-261.209	451.721	-0.099	0.218
-260.195	-200.000	-0.003	-0.131
-259.180	-129.521	0.383	0.052
-258.165	-69.352	0.208	-0.079
-257.151	-156.177	-0.132	0.008
-256.136	800.000	-0.078	0.337
-255.122	-17.409	-0.181	0.112
-254.107	71.826	0.111	0.114
-253.092	786.379	0.128	-0.348
-252.078	-141.186	-0.051	-0.005
-251.063	660.063	0.026	0.066
-250.049	-200.000	-0.006	-0.105
-249.034	304.354	-0.128	-0.235
-248.019	30.991	-0.145	0.123
-247.005	800.000	-0.105	-0.356
-245.990	23.036	-0.233	-0.189
-244.976	-98.642	-0.160	0.040
-243.961	-113.415	-0.308	-0.060
-242.946	-200.000	0.007	-0.379
-241.932	427.405	-0.063	-0.134
-240.917	176.361	0.148	-0.213
-239.903	800.000	-0.035	-0.138
-238.888	-200.000	-0.048	0.384
-237.873	-107.400	0.241	0.052
-236.859	41.187	-0.359	0.321
-235.844	51.544	0.030	0.028
-234.830	0.916	0.032	-0.023
-233.815	-200.000	-0.003	-0.409
-232.800	800.000	0.068	0.251
-231.786	94.299	0.096	0.108
-230.771	61.280	-0.268	-0.264
-229.757	531.847	0.016	-0.038
-228.742	-21.918	-0.219	0.132
-227.727	40.366	0.228	-0.203
-226.713	-92.121	-0.012	-0.003
-225.698	746.619	0.025	-0.067
-224.684	19.946	0.167	0.133
-223.669	-65.641	-0.108	-0.043
-222.655	125.771	-0.061	0.076
-221.640	85.287	-0.169	0.183
-220.625	36.780	0.150	0.131
-219.611	40.548	-0.024	-0.021
-218.596	-109.244	0.227	0.048
-217.582	356.268	-0.085	0.166
-216.567	-200.000	0.033	-0.143
-215.552	-200.000	0.284	-0.001
-214.538	522.630	-0.039	0.091
-213.523	175.688	0.090	0.130
-212.509	-155.333	0.195	-0.013
-211.494	99.931	0.098	-0.112
-210.479	39.106	-0.136	0.120
-209.465	-96.496	0.025	0.007
-208.450	-200.000	0.002	-0.015
-207.436	-200.000	-0.006	0.349
-206.421	-126.174	0.279	0.041
-205.406	-72.804	0.113	0.041
-204.392	252.846	-0.192	0.323
-203.377	105.537	-0.073	-0.085
-202.363	206.401	0.048	-0.074
-201.348	119.320	0.152	0.186
-200.333	-156.974	0.166	-0.010
-199.319	359.942	-0.093	0.183
-198.304	73.338	-0.110	0.113
-197.290	-133.708	0.233	-0.029
-196.275	-133.562	0.136	0.017
-195.260	-200.000	0.046	-0.203
-194.246	-138.075	0.103	-0.011
-193.231	-169.193	-0.319	0.012
-192.217	-16.569	0.202	0.127
-191.202	-174.647	0.198	-0.006
-190.187	192.156	0.078	-0.115
-189.173	293.827	-0.019	0.034
-188.158	263.950	-0.120	-0.207
-187.144	365.289	-0.089	-0.176
-186.129	-36.157	-0.090	-0.048
-185.114	800.000	0.135	-0.482
-184.100	-57.593	0.397	-0.172
-183.085	536.703	0.048	-0.113
-182.071	-28.787	0.366	-0.207
-181.056	263.822	0.093	-0.160
-180.042	-200.000	-0.034	-0.157
-179.027	164.967	0.168	0.233
-178.012	81.855	0.111	0.119
-176.998	-91.947	0.280	0.078
-175.983	8.575	-0.184	0.137
-174.969	-96.686	-0.257	-0.067
-173.954	417.544	0.111	-0.233
-172.939	-55.139	-0.056	0.025
-171.925	-134.232	0.239	-0.029
-170.910	-72.929	-0.048	0.017
-169.896	800.000	-0.121	0.479
-168.881	-189.310	0.185	-0.002
-167.866	114.590	-0.101	-0.122
-166.852	-200.000	-0.027	0.411
-165.837	-200.000	-0.013	0.155
-164.823	62.191	-0.173	0.171
-163.808	-10.814	0.185	0.121
-162.793	100.578	-0.142	-0.163
-161.779	-71.522	0.193	0.071
-160.764	-98.007	0.169	-0.043
-159.750	185.770	-0.180	-0.264
-158.735	-200.000	-0.018	-0.118
-157.720	-19.019	0.042	0.026
-156.706	800.000	0.044	0.134
-155.691	187.145	-0.071	-0.105
-154.677	-200.000	0.003	-0.111
-153.662	800.000	-0.072	-0.239
-152.647	-7.581	-0.167	0.111
-151.633	800.000	-0.008	0.030
-150.618	-43.039	-0.226	-0.113
-149.604	-200.000	-0.002	0.406
-148.589	-140.725	0.374	0.038
-147.574	-175.802	-0.099	0.003
-146.560	28.613	0.134	-0.111
-145.545	730.665	0.038	0.100
-144.531	-158.875	-0.065	-0.004
-143.516	-200.000	-0.003	0.300
-142.502	800.000	0.039	0.127
-141.487	318.193	0.143	-0.267
-140.472	-37.164	-0.111	0.059
-139.458	173.485	0.232	-0.329
-138.443	512.211	-0.074	-0.170
-137.429	-90.816	-0.045	-0.013
-136.414	410.824	0.210	0.439
-135.399	0.919	0.079	0.055
-134.385	-200.000	0.008	-0.193
-133.370	-109.229	-0.091	0.019
-132.356	-111.731	-0.129	-0.026
-131.341	800.000	-0.097	0.363
-130.326	-124.292	-0.170	-0.026
-129.312	-31.975	0.221	-0.122
-128.297	361.380	0.179	-0.354
-127.283	-98.853	-0.130	0.032
-126.268	-45.217	-0.147	-0.072
-125.253	-200.000	-0.030	-0.219
-124.239	-5.846	0.018	-0.012
-123.224	122.574	-0.013	0.016
