DTS Sentinel unit serial number:	SN413079Multiplexer serial number:	ORYXHardware model number:	OX4-SRSoftware version number:	ORYX F/W v4.00 Oryx Data Collector v3.7.2.0data status	okinstallation	princeton_trtdifferential loss correction	single-endedforward channel	channel 1reverse channel	N/Adate	2019/09/19time	03:54:35forward acquisition time	60.00reverse acquisition time	0.00gamma	496.2192k internal	0.2343k external	0.2343temperature offset calibration	1.0019default loss term (dB/km)	0.3790temperature slope calibration	1.0000multiplexer offset coefficient	1.0000multiplexer slope coefficient	1.0000fibre end	0.00T internal ref (°C)	20.44T ext. ref 1 (°C)	0.63T ext. ref 2 (°C)	14.31length (m)	temperature (°C)	Stokes	anti-Stokes-747.200	-32.395	0.313	-0.175
-746.185	-97.809	-0.257	0.067
-745.171	284.356	0.097	0.174
-744.156	800.000	-0.056	-0.160
-743.142	-200.000	-0.011	-0.196
-742.127	800.000	0.116	0.353
-741.112	185.400	-0.067	-0.099
-740.098	-67.596	0.221	0.087
-739.083	159.364	-0.215	0.299
-738.069	-16.668	0.274	0.173
-737.054	18.059	-0.301	-0.240
-736.039	4.480	-0.360	-0.264
-735.025	-200.000	0.030	0.447
-734.010	-200.000	-0.005	-0.216
-732.996	73.865	-0.363	-0.381
-731.981	80.417	-0.214	0.231
-730.966	-200.000	0.067	0.301
-729.952	-119.327	-0.101	0.018
-728.937	-124.879	0.257	-0.040
-727.923	206.480	0.087	0.135
-726.908	698.310	-0.176	-0.462
-725.894	-33.723	-0.145	0.080
-724.879	-75.371	-0.183	-0.065
-723.864	32.539	0.167	-0.145
-722.850	87.098	-0.153	-0.170
-721.835	-122.288	0.131	0.021
-720.821	800.000	-0.072	-0.202
-719.806	124.544	0.233	-0.294
-718.791	-200.000	0.002	-0.081
-717.777	-55.742	-0.091	-0.041
-716.762	-184.835	-0.311	0.005
-715.748	260.205	-0.105	0.181
-714.733	-58.815	-0.105	0.045
-713.718	49.652	-0.199	-0.188
-712.704	514.509	0.053	-0.123
-711.689	-200.000	0.042	0.186
-710.675	130.313	-0.149	-0.191
-709.660	-49.559	-0.199	-0.095
-708.645	90.968	-0.135	-0.151
-707.631	241.495	-0.028	-0.047
-706.616	-49.974	0.148	-0.070
-705.602	-9.196	-0.148	-0.099
-704.587	238.589	-0.104	0.173
-703.572	206.469	0.155	-0.242
-702.558	-33.617	0.249	-0.137
-701.543	652.495	0.083	-0.212
-700.529	800.000	-0.047	-0.199
-699.514	-61.183	0.101	0.042
-698.499	-154.183	-0.553	-0.037
-697.485	-109.294	0.434	-0.092
-696.470	-45.669	0.039	0.020
-695.456	-89.931	-0.250	0.073
-694.441	-98.244	-0.114	-0.029
-693.426	-200.000	0.011	0.109
-692.412	-97.156	-0.144	-0.038
-691.397	307.187	0.092	-0.171
-690.383	-83.361	-0.214	-0.069
-689.368	491.476	0.142	0.324
-688.354	-169.737	-0.250	-0.009
-687.339	-30.931	0.079	0.045
-686.324	-28.376	-0.064	0.037
-685.310	-200.000	0.033	0.262
-684.295	351.269	-0.100	-0.198
-683.281	15.374	0.139	-0.109
-682.266	15.306	0.129	0.101
-681.251	800.000	0.024	-0.070
-680.237	-200.000	0.069	0.424
-679.222	-200.000	-0.042	0.484
-678.208	-122.645	0.217	0.035
-677.193	-125.950	-0.158	-0.024
-676.178	-142.544	0.122	-0.012
-675.164	495.520	-0.126	0.289
-674.149	-54.154	-0.289	-0.131
-673.135	71.026	0.095	0.099
-672.120	256.074	0.041	0.071
-671.105	800.000	0.107	0.392
-670.091	800.000	-0.078	0.291
-669.076	800.000	-0.047	0.161
-668.062	76.560	-0.203	0.214
-667.047	-105.303	0.276	-0.063
-666.032	13.802	0.139	-0.108
-665.018	444.184	0.018	0.039
-664.003	-68.067	0.076	-0.030
-662.989	209.203	-0.107	0.167
-661.974	70.269	-0.054	-0.055
-660.959	216.642	-0.136	0.216
-659.945	7.986	-0.264	-0.198
-658.930	-97.082	0.025	0.006
-657.916	-145.914	-0.469	-0.042
-656.901	2.822	0.315	0.228
-655.886	800.000	0.162	0.477
-654.872	-200.000	-0.010	-0.340
-653.857	737.313	0.083	-0.221
-652.843	-83.127	-0.380	-0.122
-651.828	230.503	0.156	-0.254
-650.814	-61.195	0.112	-0.047
-649.799	27.512	-0.342	0.287
-648.784	800.000	-0.043	0.119
-647.770	800.000	-0.103	-0.369
-646.755	-59.968	-0.153	0.065
-645.741	-29.033	-0.165	0.095
-644.726	800.000	0.093	0.256
-643.711	-200.000	-0.010	0.063
-642.697	-136.811	-0.185	-0.021
-641.682	159.853	0.055	-0.077
-640.668	-200.000	-0.007	0.194
-639.653	-92.667	0.055	0.015
-638.638	-158.592	-0.502	0.029
-637.624	-200.000	-0.039	-0.565
-636.609	-200.000	-0.012	-0.294
-635.595	800.000	-0.063	-0.185
-634.580	510.635	-0.074	0.171
-633.565	520.881	0.081	-0.190
-632.551	-95.631	-0.069	-0.019
-631.536	800.000	0.060	-0.226
-630.522	-101.357	-0.586	0.142
-629.507	73.860	0.092	-0.096
-628.492	238.992	0.178	-0.295
-627.478	413.242	0.167	-0.353
-626.463	-98.983	0.134	0.034
-625.449	-200.000	-0.010	0.187
-624.434	-11.104	-0.205	0.135
-623.419	-28.522	0.345	-0.198
-622.405	182.837	-0.266	-0.391
-621.390	126.005	0.085	0.107
-620.376	-200.000	0.029	-0.302
-619.361	-37.825	-0.062	-0.033
-618.346	370.270	0.100	-0.202
-617.332	-31.861	0.362	-0.202
-616.317	233.457	-0.069	-0.113
-615.303	-130.448	-0.145	-0.020
-614.288	-164.977	0.048	0.002
-613.273	-160.358	-0.326	-0.017
-612.259	-100.785	-0.249	-0.061
-611.244	-177.057	0.242	-0.006
-610.230	101.933	0.403	-0.468
-609.215	-110.847	-0.321	0.066
-608.201	-93.584	0.383	-0.105
-607.186	198.991	-0.119	0.182
-606.171	40.228	-0.127	0.114
-605.157	-72.157	-0.150	-0.055
-604.142	95.787	0.089	0.102
-603.128	-117.128	-0.041	-0.008
-602.113	-59.947	-0.041	-0.017
-601.098	-92.388	0.096	-0.027
-600.084	800.000	-0.030	-0.087
-599.069	29.354	-0.183	-0.155
-598.055	-200.000	0.005	-0.128
-597.040	-25.044	0.109	0.065
-596.025	-178.476	0.210	-0.005
-595.011	-200.000	0.006	-0.206
-593.996	800.000	-0.045	0.197
-592.982	-71.107	-0.241	-0.090
-591.967	-200.000	0.003	0.329
-590.952	-100.917	-0.433	0.106
-589.938	-89.187	-0.140	0.041
-588.923	-200.000	0.049	0.343
-587.909	403.540	-0.184	-0.385
-586.894	-174.567	-0.260	-0.007
-585.879	118.405	-0.179	-0.220
-584.865	-23.603	-0.175	0.104
-583.850	273.192	0.080	-0.140
-582.836	12.379	-0.106	-0.081
-581.821	-84.198	-0.209	0.066
-580.806	95.894	0.155	-0.176
-579.792	453.115	0.076	-0.167
-578.777	427.998	-0.098	0.210
-577.763	160.895	0.204	0.284
-576.748	-108.902	-0.307	-0.065
-575.733	800.000	0.095	-0.277
-574.719	349.311	0.060	-0.118
-573.704	-51.113	-0.070	-0.033
-572.690	800.000	0.107	0.327
-571.675	126.791	-0.159	0.201
-570.661	-11.413	0.230	0.151
-569.646	430.112	-0.141	-0.303
-568.631	317.604	-0.099	-0.187
-567.617	-115.246	-0.285	-0.054
-566.602	-107.076	0.328	0.072
-565.588	159.762	0.026	0.037
-564.573	240.261	-0.130	-0.216
-563.558	-157.871	-0.191	-0.011
-562.544	-62.153	0.248	-0.103
-561.529	-92.774	0.331	0.092
-560.515	452.614	-0.057	-0.126
-559.500	366.266	0.019	0.037
-558.485	-113.492	-0.257	-0.050
-557.471	187.168	-0.062	0.092
-556.456	28.669	0.085	-0.072
-555.442	93.144	-0.014	-0.016
-554.427	800.000	-0.062	0.226
-553.412	219.420	-0.058	-0.093
-552.398	-163.806	-0.275	0.013
-551.383	800.000	-0.023	-0.079
-550.369	158.992	0.171	-0.236
-549.354	-13.971	-0.350	-0.225
-548.339	800.000	-0.104	-0.293
-547.325	-154.157	-0.119	-0.008
-546.310	8.898	-0.140	-0.105
-545.296	-119.714	-0.451	0.077
-544.281	490.289	0.101	-0.229
-543.266	-59.751	-0.137	0.058
-542.252	-24.194	0.172	-0.102
-541.237	-200.000	-0.014	0.127
-540.223	-200.000	-0.034	0.190
-539.208	121.843	0.115	0.143
-538.193	585.209	-0.068	0.166
-537.179	78.134	-0.160	-0.170
-536.164	104.626	-0.078	-0.091
-535.150	-200.000	0.031	0.202
-534.135	-49.422	-0.133	-0.063
-533.121	-34.384	-0.202	-0.110
-532.106	-116.782	0.282	0.051
-531.091	92.734	-0.080	-0.090
-530.077	-116.244	-0.056	-0.010
-529.062	213.633	-0.142	0.223
-528.048	-200.000	0.008	-0.105
-527.033	-82.125	-0.205	-0.066
-526.018	-44.493	0.095	-0.047
-525.004	-10.651	-0.462	-0.304
-523.989	-49.639	0.310	0.146
-522.975	-200.000	0.007	0.395
-521.960	-25.663	-0.214	0.125
-520.945	-77.815	0.181	0.062
-519.931	-123.006	-0.273	0.044
-518.916	-160.670	0.224	-0.012
-517.902	-200.000	0.027	-0.145
-516.887	-50.001	0.177	0.084
-515.872	800.000	0.036	0.130
-514.858	142.558	0.063	-0.083
-513.843	-128.556	0.325	-0.046
-512.829	28.490	0.067	-0.056
-511.814	-120.860	-0.117	0.020
-510.799	-113.689	0.094	-0.018
-509.785	-37.250	-0.007	-0.004
-508.770	-134.416	0.389	0.047
-507.756	1.955	-0.186	-0.133
-506.741	-132.526	0.323	-0.041
-505.726	194.920	-0.152	-0.229
-504.712	104.440	0.112	-0.131
-503.697	800.000	-0.095	-0.276
-502.683	-200.000	0.029	-0.137
-501.668	-147.428	-0.258	-0.022
-500.653	131.350	0.144	0.183
-499.639	401.368	0.085	-0.178
-498.624	-122.090	-0.132	-0.021
-497.610	-200.000	0.021	0.208
-496.595	800.000	0.046	0.135
-495.581	800.000	-0.035	-0.133
-494.566	652.366	-0.093	-0.236
-493.551	134.765	-0.401	-0.517
-492.537	-174.614	0.196	0.006
-491.522	52.153	-0.174	0.164
-490.508	-32.465	0.171	0.095
-489.493	230.362	0.028	-0.046
-488.478	17.561	-0.093	0.073
-487.464	326.998	-0.023	0.044
-486.449	-1.265	0.295	-0.207
-485.435	40.183	0.256	-0.228
-484.420	-167.998	0.193	0.007
-483.405	-193.778	-0.154	-0.001
-482.391	-172.136	0.113	0.004
-481.376	346.209	0.215	-0.419
-480.362	408.639	0.187	0.392
-479.347	-79.908	0.131	0.044
-478.332	-62.009	-0.163	0.067
-477.318	-93.640	0.588	0.161
-476.303	140.042	0.047	-0.061
-475.289	86.851	-0.186	0.204
-474.274	-68.343	-0.192	-0.074
-473.259	47.712	-0.077	0.071
-472.245	344.602	0.086	-0.166
-471.230	800.000	0.056	-0.197
-470.216	-12.728	0.120	-0.077
-469.201	-65.652	0.178	-0.071
-468.186	-41.875	-0.238	-0.121
-467.172	-29.776	-0.035	0.020
-466.157	3.770	-0.156	0.113
-465.143	800.000	-0.064	0.178
-464.128	800.000	-0.016	0.066
-463.113	-189.997	-0.165	0.002
-462.099	-68.425	0.079	0.030
-461.084	800.000	0.048	-0.174
-460.070	-148.270	0.317	0.026
-459.055	-31.907	-0.213	0.118
-458.040	10.554	0.272	0.205
-457.026	-105.469	0.047	-0.011
-456.011	-125.785	-0.085	0.013
-454.997	-8.650	-0.215	-0.143
-453.982	-156.008	0.520	-0.033
-452.968	-200.000	0.002	0.181
-451.953	-200.000	0.001	0.059
-450.938	55.873	-0.029	-0.028
-449.924	-45.541	-0.159	-0.078
-448.909	-72.870	-0.168	-0.061
-447.895	92.968	0.142	-0.158
-446.880	-200.000	-0.095	-0.420
-445.865	397.712	0.064	-0.132
-444.851	-3.640	0.274	0.188
-443.836	-200.000	-0.005	-0.173
-442.822	62.276	-0.111	0.109
-441.807	-56.383	-0.083	0.036
-440.792	-46.670	0.109	-0.053
-439.778	79.967	-0.154	0.164
-438.763	800.000	-0.042	0.120
-437.749	28.206	-0.287	0.240
-436.734	-158.436	-0.317	0.018
-435.719	-49.450	0.127	-0.060
-434.705	49.875	0.159	-0.149
-433.690	-200.000	0.027	0.129
-432.676	62.151	-0.200	-0.198
-431.661	26.744	-0.110	0.091
-430.646	-41.130	-0.064	0.033
-429.632	800.000	0.077	0.321
-428.617	121.559	-0.181	-0.223
-427.603	-101.318	0.091	-0.022
-426.588	800.000	-0.009	-0.030
-425.573	-116.818	0.283	0.051
-424.559	-62.933	-0.298	0.122
-423.544	-43.107	0.232	0.116
-422.530	-14.320	-0.373	0.238
-421.515	-137.598	-0.168	-0.019
-420.500	-148.249	0.251	-0.020
-419.486	-200.000	-0.023	-0.223
-418.471	-59.688	-0.184	-0.078
-417.457	13.381	-0.228	-0.175
-416.442	300.795	-0.039	0.072
-415.428	800.000	-0.115	0.488
-414.413	-200.000	0.015	-0.210
-413.398	-200.000	0.048	-0.216
-412.384	-54.195	-0.324	0.145
-411.369	-109.222	0.092	0.019
-410.355	436.824	0.094	0.203
-409.340	-122.241	-0.247	0.040
-408.325	800.000	-0.020	0.066
-407.311	248.184	-0.110	-0.184
-406.296	-21.618	0.051	0.031
-405.282	78.334	-0.216	-0.228
-404.267	-22.983	0.113	0.067
-403.252	707.175	-0.135	0.352
-402.238	17.842	-0.068	0.053
-401.223	-73.665	-0.211	-0.076
-400.209	-69.854	0.283	0.107
-399.194	800.000	-0.071	-0.271
-398.179	-200.000	-0.001	-0.220
-397.165	-24.791	-0.135	-0.079
-396.150	-200.000	0.005	-0.283
-395.136	31.754	-0.258	-0.220
-394.121	-157.717	0.084	0.005
-393.106	313.342	0.080	0.149
-392.092	143.628	-0.197	0.260
-391.077	800.000	-0.075	-0.219
-390.063	151.854	0.124	-0.166
-389.048	-200.000	0.054	-0.263
-388.033	-7.205	0.145	-0.097
-387.019	-20.205	0.169	0.103
-386.004	-177.334	0.197	0.005
-384.990	-93.010	0.436	0.120
-383.975	-33.321	0.238	0.130
-382.960	-15.840	-0.505	-0.318
-381.946	-200.000	-0.005	-0.234
-380.931	-200.000	-0.016	0.182
-379.917	-29.022	-0.273	0.155
-378.902	155.831	0.096	0.130
-377.888	-90.126	0.311	-0.090
-376.873	-169.561	0.245	0.009
-375.858	105.894	-0.163	0.190
-374.844	-5.941	-0.170	0.115
-373.829	14.644	0.276	0.213
-372.815	800.000	0.026	0.104
-371.800	-18.521	-0.212	-0.131
-370.785	67.888	0.199	0.201
-369.771	497.421	-0.022	0.050
-368.756	-172.959	-0.240	0.007
-367.742	47.341	0.072	0.066
-366.727	-163.794	0.386	0.018
-365.712	4.455	0.132	0.095
-364.698	-108.307	0.286	0.061
-363.683	800.000	0.099	-0.285
-362.669	-74.752	-0.227	0.080
-361.654	-36.080	0.137	-0.073
-360.639	-184.995	-0.280	0.004
-359.625	-200.000	-0.040	0.189
-358.610	-200.000	0.040	-0.206
-357.596	67.315	0.214	-0.216
-356.581	-87.864	-0.188	0.056
-355.566	-200.000	-0.029	0.346
-354.552	800.000	0.082	0.280
-353.537	51.146	-0.113	0.106
-352.523	46.779	0.057	-0.052
-351.508	472.064	0.051	0.114
-350.493	800.000	-0.063	0.190
-349.479	-200.000	-0.034	0.154
-348.464	-108.017	-0.274	0.059
-347.450	-138.219	0.092	-0.010
-346.435	-96.145	0.169	-0.044
-345.420	1.429	0.137	-0.097
-344.406	800.000	-0.094	0.261
-343.391	800.000	0.142	0.566
-342.377	274.553	-0.111	0.194
-341.362	-81.857	-0.095	-0.031
-340.348	78.825	0.171	-0.180
-339.333	-148.118	0.388	0.032
-338.318	55.061	-0.176	-0.167
-337.304	-46.731	-0.128	-0.062
-336.289	-58.676	-0.167	-0.071
-335.275	17.388	-0.048	-0.038
-334.260	-200.000	0.038	-0.197
-333.245	800.000	0.047	-0.163
-332.231	8.898	0.071	-0.053
-331.216	800.000	0.098	-0.421
-330.202	-200.000	-0.004	-0.329
-329.187	275.267	-0.167	-0.291
-328.172	66.104	0.275	-0.275
-327.158	106.203	-0.066	0.077
-326.143	-123.768	0.403	0.063
-325.129	133.458	0.070	0.090
-324.114	-95.854	0.366	-0.096
-323.099	800.000	0.008	-0.026
-322.085	-54.154	-0.255	0.114
-321.070	-180.535	0.283	-0.006
-320.056	-200.000	0.022	0.137
-319.041	-36.613	-0.334	0.177
-318.026	-200.000	0.006	0.096
-317.012	800.000	-0.061	0.190
-315.997	315.770	-0.212	0.395
-314.983	30.984	-0.053	-0.045
-313.968	-192.932	0.363	-0.003
-312.953	-142.876	-0.322	0.031
-311.939	800.000	0.060	0.244
-310.924	21.522	-0.066	0.053
-309.910	-200.000	0.000	0.126
-308.895	41.530	0.089	0.080
-307.880	62.193	-0.171	-0.168
-306.866	124.296	0.209	-0.258
-305.851	-148.661	0.366	0.029
-304.837	-45.207	-0.270	0.132
-303.822	-115.154	0.063	-0.012
-302.807	-70.614	0.094	-0.035
-301.793	800.000	0.045	0.170
-300.778	83.133	0.231	0.247
-299.764	35.202	-0.055	0.047
-298.749	-200.000	0.017	0.077
-297.735	73.537	-0.254	0.261
-296.720	-47.414	-0.059	-0.028
-295.705	-200.000	0.020	-0.088
-294.691	23.076	0.223	-0.180
-293.676	462.372	-0.103	0.226
-292.662	800.000	-0.060	0.191
-291.647	-200.000	-0.038	0.459
-290.632	800.000	0.004	0.013
-289.618	347.002	-0.079	-0.152
-288.603	-96.164	0.330	-0.086
-287.589	800.000	0.046	-0.180
-286.574	274.110	0.105	-0.182
-285.559	-171.370	-0.229	-0.008
-284.545	107.330	-0.252	-0.294
-283.530	383.872	-0.020	-0.041
-282.516	-149.361	0.219	0.017
-281.501	459.903	0.102	0.224
-280.486	-200.000	0.052	-0.225
-279.472	-168.811	-0.234	0.009
-278.457	-102.630	-0.242	-0.057
-277.443	-4.664	-0.213	-0.145
-276.428	-200.000	0.079	-0.351
-275.413	-14.945	-0.033	-0.021
-274.399	98.642	0.035	0.040
-273.384	800.000	0.048	-0.166
-272.370	-200.000	0.046	-0.300
-271.355	-200.000	0.020	-0.186
-270.340	-200.000	-0.009	0.131
-269.326	107.381	0.069	0.081
-268.311	-139.175	-0.155	-0.016
-267.297	-50.258	0.148	0.069
-266.282	-10.810	0.105	-0.068
-265.267	800.000	0.135	0.471
-264.253	130.761	-0.159	0.200
-263.238	167.317	0.067	-0.094
-262.224	-115.314	-0.393	0.073
-261.209	-200.000	0.037	0.234
-260.195	381.108	0.004	-0.009
-259.180	581.561	0.017	-0.041
-258.165	-200.000	0.057	0.617
-257.151	-151.760	-0.115	-0.008
-256.136	-47.396	0.286	0.137
-255.122	130.774	-0.197	-0.249
-254.107	800.000	0.092	0.270
-253.092	800.000	0.117	-0.329
-252.078	294.372	0.123	0.220
-251.063	269.974	-0.043	-0.074
-250.049	292.109	0.274	-0.489
-249.034	85.492	0.049	-0.053
-248.019	-200.000	0.011	0.203
-247.005	23.270	-0.116	-0.094
-245.990	42.744	-0.073	-0.065
-244.976	-200.000	0.003	-0.281
-243.961	-110.307	-0.219	-0.045
-242.946	-197.595	0.312	-0.002
-241.932	38.186	-0.222	0.194
-240.917	71.655	-0.353	0.360
-239.903	533.883	0.078	-0.182
-238.888	-86.509	0.354	-0.107
-237.873	131.584	0.034	0.043
-236.859	216.196	-0.031	-0.048
-235.844	581.649	0.031	0.074
-234.830	-122.200	-0.158	0.025
-233.815	-116.174	0.359	-0.065
-232.800	201.291	-0.060	0.091
-231.786	120.678	0.057	0.069
-230.771	-200.000	-0.004	-0.093
-229.757	800.000	0.018	-0.060
-228.742	-166.420	-0.089	-0.004
-227.727	-52.271	-0.024	0.011
-226.713	219.410	0.145	-0.227
-225.698	-200.000	0.042	-0.222
-224.684	-97.801	0.325	-0.082
-223.669	3.437	0.126	-0.090
-222.655	-88.842	-0.194	0.056
-221.640	23.145	-0.076	0.061
-220.625	328.073	-0.056	0.106
-219.611	800.000	0.042	-0.144
-218.596	32.277	-0.261	-0.221
-217.582	-81.709	0.291	0.094
-216.567	-63.128	0.080	-0.032
-215.552	-0.611	0.106	-0.074
-214.538	800.000	-0.081	0.225
-213.523	-200.000	0.006	0.172
-212.509	-158.712	0.415	0.023
-211.494	272.764	0.143	0.248
-210.479	-39.754	-0.090	0.046
-209.465	-154.361	0.216	-0.014
-208.450	-200.000	-0.016	0.080
-207.436	180.113	0.114	0.163
-206.421	148.586	0.088	-0.117
-205.406	248.678	-0.076	0.126
-204.392	145.096	0.216	-0.283
-203.377	-92.946	-0.344	-0.094
-202.363	-200.000	0.001	0.150
-201.348	-57.324	0.098	0.042
-200.333	143.675	0.034	0.044
-199.319	676.818	-0.060	0.153
-198.304	-200.000	0.002	-0.094
-197.290	800.000	0.017	0.063
-196.275	-115.892	0.095	0.017
-195.260	424.382	0.184	0.387
-194.246	-21.981	-0.220	0.131
-193.231	188.754	0.039	-0.057
-192.217	0.053	0.099	-0.069
-191.202	-200.000	-0.032	-0.201
-190.187	-16.813	0.124	0.077
-189.173	8.885	-0.297	0.220
-188.158	800.000	-0.044	0.179
-187.144	23.235	-0.260	0.209
-186.129	-50.009	-0.261	0.121
-185.114	-156.429	0.190	0.012
-184.100	-59.626	0.270	0.114
-183.085	201.047	-0.063	0.095
-182.071	10.956	0.202	0.151
-181.056	-1.326	0.091	0.063
-180.042	65.261	0.331	-0.328
-179.027	-200.000	-0.017	0.442
-178.012	132.704	0.116	0.147
-176.998	800.000	0.050	0.138
-175.983	135.536	-0.168	-0.214
-174.969	22.716	-0.187	0.150
-173.954	-61.952	0.113	-0.046
-172.939	229.875	-0.064	-0.102
-171.925	-200.000	-0.011	0.262
-170.910	-200.000	0.023	0.183
-169.896	-159.022	0.176	-0.010
-168.881	-200.000	0.014	0.234
-167.866	179.721	0.175	-0.251
-166.852	-192.984	0.248	-0.002
-165.837	-3.050	0.177	0.121
-164.823	-39.647	0.176	0.090
-163.808	2.054	-0.210	0.149
-162.793	-200.000	0.023	0.365
-161.779	-97.287	0.226	-0.058
-160.764	487.337	0.081	0.181
-159.750	104.422	-0.091	-0.105
-158.735	800.000	0.068	-0.269
-157.720	-57.244	-0.084	-0.036
-156.706	-104.047	0.252	0.057
-155.691	800.000	0.038	0.132
-154.677	-35.062	-0.198	0.106
-153.662	-108.922	-0.134	-0.028
-152.647	399.701	0.199	0.408
-151.633	-78.352	0.300	0.101
-150.618	-145.370	0.122	0.011
-149.604	-200.000	-0.016	-0.158
-148.589	96.782	0.045	0.051
-147.574	-156.933	-0.256	0.015
-146.560	667.391	-0.075	-0.189
-145.545	322.733	-0.186	-0.347
-144.531	800.000	-0.040	0.160
-143.516	115.221	0.233	0.278
-142.502	-4.504	-0.071	-0.048
-141.487	800.000	0.056	0.163
-140.472	-68.466	-0.014	-0.005
-139.458	187.949	0.125	0.183
-138.443	-22.675	0.093	0.055
-137.429	-28.223	0.290	0.164
-136.414	-111.392	-0.134	0.027
-135.399	29.217	0.258	0.214
-134.385	396.032	-0.089	0.181
-133.370	800.000	-0.087	0.250
-132.356	-153.221	0.088	0.006
-131.341	189.718	0.135	0.198
-130.326	254.995	0.093	-0.156
-129.312	-10.513	0.194	0.125
-128.297	37.352	0.138	0.120
-127.283	180.644	0.080	0.115
-126.268	-158.098	-0.155	-0.009
-125.253	22.611	0.129	-0.103
-124.239	-137.783	0.382	-0.042
-123.224	-200.000	0.021	0.222
-122.210	-102.069	-0.339	0.080
-121.195	-142.095	-0.197	-0.019
