DTS Sentinel unit serial number:	SN413079Multiplexer serial number:	ORYXHardware model number:	OX4-SRSoftware version number:	ORYX F/W v4.00 Oryx Data Collector v3.7.2.0data status	okinstallation	princeton_trtdifferential loss correction	single-endedforward channel	channel 1reverse channel	N/Adate	2019/09/12time	08:12:11forward acquisition time	60.00reverse acquisition time	0.00gamma	496.2192k internal	0.2313k external	0.2313temperature offset calibration	1.0043default loss term (dB/km)	0.3790temperature slope calibration	1.0000multiplexer offset coefficient	1.0000multiplexer slope coefficient	1.0000fibre end	0.00T internal ref (°C)	33.28T ext. ref 1 (°C)	1.68T ext. ref 2 (°C)	29.98length (m)	temperature (°C)	Stokes	anti-Stokes-747.200	800.000	0.052	0.221
-746.185	800.000	-0.100	0.347
-745.171	-120.487	-0.144	0.025
-744.156	-150.213	-0.553	0.043
-743.142	-155.792	0.229	-0.015
-742.127	-156.980	-0.259	-0.016
-741.112	23.581	0.132	0.110
-740.098	-139.858	-0.455	0.049
-739.083	-67.197	0.137	0.055
-738.069	-200.000	-0.042	0.403
-737.054	800.000	0.024	-0.070
-736.039	-121.068	-0.144	-0.025
-735.025	107.512	0.130	0.157
-734.010	174.890	-0.193	0.283
-732.996	3.862	0.108	-0.080
-731.981	800.000	0.127	-0.481
-730.966	-200.000	-0.023	-0.182
-729.952	20.766	-0.240	-0.197
-728.937	800.000	-0.076	-0.297
-727.923	-200.000	0.030	0.136
-726.908	-108.341	-0.160	-0.035
-725.894	750.588	-0.064	-0.175
-724.879	-118.489	-0.309	-0.055
-723.864	-169.326	-0.363	-0.014
-722.850	-18.533	-0.176	0.111
-721.835	-200.000	-0.069	-0.524
-720.821	-200.000	0.045	-0.331
-719.806	800.000	-0.073	-0.300
-718.791	-122.168	-0.114	-0.019
-717.777	199.927	-0.095	-0.147
-716.762	-140.545	0.339	-0.036
-715.748	73.472	-0.133	-0.141
-714.733	-82.782	0.245	-0.080
-713.718	-200.000	-0.031	-0.152
-712.704	-57.006	-0.191	-0.085
-711.689	-200.000	0.008	-0.279
-710.675	-78.600	0.202	-0.070
-709.660	-200.000	-0.084	-0.438
-708.645	-23.249	0.097	0.059
-707.631	-138.218	-0.138	-0.015
-706.616	-200.000	0.060	-0.324
-705.602	-66.354	0.183	0.074
-704.587	-175.978	-0.388	0.010
-703.572	-143.686	-0.172	-0.017
-702.558	166.947	-0.158	0.228
-701.543	-142.990	0.185	-0.018
-700.529	-200.000	-0.011	0.123
-699.514	369.496	0.025	-0.051
-698.499	-67.621	0.257	-0.102
-697.485	800.000	-0.119	0.373
-696.470	-118.908	-0.553	-0.098
-695.456	-104.041	-0.237	-0.056
-694.441	-200.000	-0.014	0.210
-693.426	162.197	-0.131	-0.186
-692.412	-49.182	-0.170	0.082
-691.397	303.656	-0.097	0.183
-690.383	583.098	-0.068	-0.168
-689.368	-178.920	0.110	0.003
-688.354	-5.978	0.324	-0.224
-687.339	41.392	-0.012	-0.011
-686.324	800.000	0.072	0.203
-685.310	-200.000	-0.010	0.363
-684.295	-200.000	0.006	-0.206
-683.281	307.788	0.099	0.186
-682.266	800.000	0.091	-0.352
-681.251	318.277	0.065	0.125
-680.237	800.000	0.083	-0.298
-679.222	-200.000	0.042	-0.320
-678.208	186.714	0.155	0.233
-677.193	-200.000	-0.036	-0.324
-676.178	-200.000	-0.032	-0.187
-675.164	10.299	-0.112	0.086
-674.149	-119.802	-0.210	0.037
-673.135	-40.950	-0.056	-0.029
-672.120	-102.418	-0.129	0.031
-671.105	800.000	0.082	0.238
-670.091	-161.633	0.137	-0.007
-669.076	800.000	0.056	0.184
-668.062	-184.280	-0.126	0.002
-667.047	800.000	0.066	-0.288
-666.032	195.615	0.126	0.193
-665.018	-200.000	-0.001	0.150
-664.003	551.753	0.019	-0.047
-662.989	51.864	0.125	-0.121
-661.974	-21.942	-0.116	0.071
-660.959	422.085	0.014	-0.031
-659.945	-82.325	-0.230	-0.076
-658.930	-60.020	-0.061	0.026
-657.916	87.103	0.139	0.155
-656.901	-200.000	-0.000	0.235
-655.886	800.000	-0.153	-0.509
-654.872	9.075	-0.336	-0.257
-653.857	55.492	-0.141	-0.138
-652.843	-200.000	-0.003	-0.068
-651.828	9.299	0.118	0.090
-650.814	-75.606	-0.471	-0.169
-649.799	30.203	-0.314	-0.271
-648.784	496.655	-0.178	0.414
-647.770	-104.751	0.265	-0.062
-646.755	-145.313	-0.240	-0.022
-645.741	164.599	-0.054	0.078
-644.726	30.984	-0.288	0.250
-643.711	-138.978	-0.210	0.023
-642.697	-200.000	-0.021	-0.122
-641.682	13.554	-0.051	-0.040
-640.668	-58.394	-0.052	-0.023
-639.653	-200.000	-0.023	-0.522
-638.638	-62.009	0.044	0.019
-637.624	-195.003	0.189	-0.001
-636.609	-19.886	-0.342	-0.214
-635.595	235.680	0.145	0.242
-634.580	45.337	0.113	0.105
-633.565	638.795	-0.042	0.107
-632.551	584.261	-0.072	-0.178
-631.536	-77.914	0.093	-0.032
-630.522	-77.497	0.237	0.083
-629.507	-2.750	0.081	-0.057
-628.492	800.000	0.056	0.208
-627.478	-112.392	0.119	-0.024
-626.463	122.929	-0.174	-0.220
-625.449	139.571	0.101	-0.134
-624.434	-150.822	-0.045	-0.003
-623.419	114.629	-0.213	-0.262
-622.405	-200.000	-0.038	0.505
-621.390	224.365	0.119	0.194
-620.376	573.581	-0.103	-0.254
-619.361	-45.975	-0.155	-0.077
-618.346	125.225	-0.121	-0.154
-617.332	-72.421	-0.379	0.141
-616.317	-105.975	0.234	0.053
-615.303	-200.000	-0.019	0.424
-614.288	356.955	-0.052	-0.104
-613.273	-81.432	-0.131	-0.043
-612.259	-169.524	-0.266	0.010
-611.244	800.000	-0.104	0.316
-610.230	124.749	0.243	0.309
-609.215	-66.883	0.192	0.077
-608.201	-140.984	-0.385	-0.040
-607.186	800.000	0.078	0.234
-606.171	800.000	-0.027	0.087
-605.157	-200.000	0.027	0.129
-604.142	28.442	-0.336	0.287
-603.128	-200.000	-0.021	0.286
-602.113	-200.000	0.008	-0.111
-601.098	-140.230	-0.194	-0.020
-600.084	507.827	0.012	-0.029
-599.069	-118.862	-0.049	-0.009
-598.055	543.608	-0.085	-0.205
-597.040	-200.000	-0.037	0.227
-596.025	-73.918	0.145	0.053
-595.011	294.729	-0.040	0.073
-593.996	-200.000	0.009	-0.265
-592.982	-200.000	-0.311	-0.001
-591.967	-61.442	0.467	0.198
-590.952	-179.260	-0.125	-0.003
-589.938	62.045	-0.112	0.112
-588.923	76.098	-0.204	0.218
-587.909	-110.533	-0.233	0.049
-586.894	800.000	-0.062	-0.185
-585.879	-119.110	0.232	0.041
-584.865	145.264	-0.050	-0.067
-583.850	705.646	0.042	0.111
-582.836	4.649	0.306	-0.226
-581.821	-41.589	-0.209	0.108
-580.806	-200.000	-0.024	0.151
-579.792	-189.556	0.279	0.003
-578.777	-200.000	0.015	0.166
-577.763	-48.448	-0.341	0.165
-576.748	-83.901	-0.125	-0.040
-575.733	-154.487	0.227	0.015
-574.719	800.000	-0.066	-0.191
-573.704	255.804	0.198	-0.343
-572.690	122.290	-0.154	-0.193
-571.675	-151.236	-0.195	0.015
-570.661	556.037	-0.057	-0.138
-569.646	5.459	0.110	-0.082
-568.631	317.403	0.083	0.157
-567.617	-42.805	0.199	0.102
-566.602	47.056	0.211	-0.198
-565.588	361.933	-0.080	0.161
-564.573	148.754	0.222	0.302
-563.558	-97.753	0.215	0.056
-562.544	74.766	0.103	0.110
-561.529	285.585	-0.072	0.130
-560.515	-58.509	-0.061	-0.027
-559.500	399.092	0.088	-0.185
-558.485	-195.119	-0.309	-0.002
-557.471	-200.000	-0.313	-0.000
-556.456	200.256	-0.106	-0.164
-555.442	404.510	0.103	0.219
-554.427	-200.000	0.016	-0.216
-553.412	800.000	-0.042	0.166
-552.398	800.000	0.072	-0.241
-551.383	67.407	-0.159	-0.163
-550.369	615.729	0.073	-0.184
-549.354	-3.182	0.170	-0.119
-548.339	-23.561	-0.124	0.075
-547.325	389.913	-0.129	0.268
-546.310	72.883	-0.063	0.066
-545.296	-36.621	-0.110	0.059
-544.281	800.000	0.078	-0.325
-543.266	163.173	0.144	-0.203
-542.252	8.236	0.227	-0.172
-541.237	-3.933	0.194	-0.136
-540.223	589.368	-0.098	-0.243
-539.208	84.683	-0.096	0.106
-538.193	26.192	0.123	-0.104
-537.179	-189.453	0.230	-0.003
-536.164	-14.665	0.257	-0.166
-535.150	139.161	0.120	-0.158
-534.135	-136.505	-0.233	0.027
-533.121	-200.000	-0.008	0.270
-532.106	476.985	-0.120	-0.272
-531.091	585.204	0.105	-0.259
-530.077	800.000	-0.072	-0.244
-529.062	104.637	-0.175	-0.208
-528.048	800.000	-0.025	-0.098
-527.033	-130.194	0.236	0.032
-526.018	186.785	0.136	-0.204
-525.004	82.570	0.206	-0.225
-523.989	199.268	-0.161	0.248
-522.975	-200.000	0.012	-0.063
-521.960	-25.229	0.190	-0.113
-520.945	-146.846	-0.223	0.019
-519.931	-200.000	0.015	-0.260
-518.916	-38.173	0.229	0.122
-517.902	800.000	-0.077	0.216
-516.887	10.994	0.112	-0.086
-515.872	800.000	-0.011	0.040
-514.858	-153.420	-0.441	-0.031
-513.843	-200.000	0.008	-0.067
-512.829	800.000	0.124	0.373
-511.814	-74.349	0.224	0.081
-510.799	143.279	-0.196	-0.262
-509.785	57.998	-0.253	0.249
-508.770	287.280	0.060	0.109
-507.756	800.000	-0.076	0.269
-506.741	-120.768	-0.329	0.056
-505.726	95.842	0.057	-0.065
-504.712	73.908	0.094	0.099
-503.697	-29.082	0.185	-0.107
-502.683	109.908	0.022	0.026
-501.668	-200.000	-0.014	-0.231
-500.653	-48.526	-0.352	0.170
-499.639	-200.000	-0.022	0.276
-498.624	121.407	0.248	0.310
-497.610	-200.000	0.042	-0.207
-496.595	556.722	0.093	-0.226
-495.581	-200.000	-0.032	-0.257
-494.566	-155.064	-0.158	-0.010
-493.551	-25.442	0.314	0.187
-492.537	110.949	0.117	-0.141
-491.522	-58.303	0.439	0.192
-490.508	-137.268	-0.354	-0.040
-489.493	-26.677	0.154	-0.090
-488.478	-45.339	0.153	-0.076
-487.464	106.450	0.270	-0.321
-486.449	800.000	-0.105	-0.324
-485.435	29.796	0.182	-0.156
-484.420	-56.261	-0.244	0.109
-483.405	183.780	0.138	0.206
-482.391	-94.532	-0.420	0.115
-481.376	-160.795	0.352	-0.019
-480.362	-105.514	0.152	0.035
-479.347	-148.347	-0.130	0.011
-478.332	-176.533	0.223	0.006
-477.318	449.026	0.017	0.037
-476.303	-162.292	0.151	0.008
-475.289	-106.728	0.250	0.056
-474.274	-94.011	-0.500	-0.138
-473.259	63.764	-0.044	-0.044
-472.245	-173.692	0.085	-0.003
-471.230	35.429	-0.151	-0.133
-470.216	-78.117	-0.176	-0.061
-469.201	-200.000	0.014	-0.131
-468.186	-84.683	0.172	0.054
-467.172	-108.252	0.268	-0.058
-466.157	-200.000	0.006	0.106
-465.143	800.000	-0.041	-0.130
-464.128	-142.492	-0.348	0.034
-463.113	800.000	0.023	-0.099
-462.099	-139.364	-0.351	-0.038
-461.084	-200.000	-0.014	0.066
-460.070	26.330	0.119	-0.100
-459.055	-200.000	0.017	-0.176
-458.040	193.203	0.187	0.284
-457.026	800.000	0.034	0.134
-456.011	-43.718	-0.368	-0.186
-454.997	149.969	-0.141	0.192
-453.982	-37.507	0.036	0.019
-452.968	149.490	0.128	-0.173
-451.953	5.496	-0.151	-0.112
-450.938	-200.000	0.017	0.194
-449.924	-78.072	-0.031	-0.011
-448.909	-61.527	0.416	-0.175
-447.895	-54.069	0.265	-0.121
-446.880	-87.898	-0.058	0.017
-445.865	708.847	-0.068	-0.180
-444.851	55.994	-0.203	-0.198
-443.836	-200.000	0.034	-0.173
-442.822	105.056	0.167	0.198
-441.807	-5.882	0.213	0.146
-440.792	212.380	0.154	0.244
-439.778	14.377	0.203	-0.159
-438.763	-200.000	-0.001	-0.048
-437.749	-58.730	0.036	-0.015
-436.734	-12.187	-0.029	-0.019
-435.719	-35.532	0.448	0.244
-434.705	-108.709	-0.306	-0.066
-433.690	-97.785	0.266	0.069
-432.676	-200.000	-0.005	0.137
-431.661	-135.279	0.326	-0.039
-430.646	76.253	0.356	0.378
-429.632	14.720	0.096	-0.076
-428.617	800.000	-0.060	-0.195
-427.603	-200.000	-0.042	0.299
-426.588	-35.540	0.431	0.234
-425.573	-152.110	0.374	-0.027
-424.559	-200.000	0.028	-0.159
-423.544	-37.663	0.251	-0.134
-422.530	-123.067	-0.185	0.030
-421.515	-200.000	-0.005	0.199
-420.500	-7.110	-0.156	0.106
-419.486	7.749	-0.358	-0.268
-418.471	201.270	0.150	0.231
-417.457	-188.252	0.364	-0.005
-416.442	-200.000	0.028	-0.357
-415.428	800.000	0.078	-0.229
-414.413	19.642	0.129	-0.104
-413.398	334.869	0.029	-0.056
-412.384	-34.669	-0.114	0.062
-411.369	800.000	0.097	0.407
-410.355	-200.000	0.000	-0.109
-409.340	21.300	0.118	-0.096
-408.325	28.720	0.200	-0.170
-407.311	-73.609	-0.218	-0.080
-406.296	-143.601	0.412	-0.039
-405.282	-70.356	-0.304	0.115
-404.267	560.774	-0.033	-0.081
-403.252	334.852	-0.123	-0.239
-402.238	-200.000	0.025	-0.243
-401.223	650.261	-0.055	0.140
-400.209	136.677	0.126	0.165
-399.194	-4.719	-0.275	0.190
-398.179	-66.013	-0.463	-0.185
-397.165	71.747	-0.041	-0.043
-396.150	588.852	-0.172	0.424
-395.136	84.378	0.095	-0.104
-394.121	-200.000	0.005	-0.260
-393.106	800.000	-0.062	0.196
-392.092	-88.853	0.299	0.089
-391.077	44.927	-0.310	-0.285
-390.063	-34.646	0.063	-0.035
-389.048	-25.324	-0.289	-0.171
-388.033	30.444	0.303	0.259
-387.019	-9.587	0.247	0.165
-386.004	-9.558	-0.098	0.065
-384.990	-143.484	0.070	-0.007
-383.975	175.471	0.186	-0.269
-382.960	-72.430	-0.093	0.034
-381.946	412.658	0.082	-0.174
-380.931	31.060	0.136	-0.117
-379.917	-17.121	0.086	0.054
-378.902	651.326	0.047	-0.120
-377.888	212.553	0.093	-0.146
-376.873	800.000	-0.068	0.273
-375.858	-200.000	0.041	0.184
-374.844	167.323	-0.083	0.118
-373.829	27.217	-0.190	0.159
-372.815	-59.363	-0.140	0.060
-371.800	150.322	-0.082	-0.111
-370.785	21.645	-0.150	0.122
-369.771	748.808	-0.141	0.381
-368.756	800.000	0.079	0.247
-367.742	-200.000	-0.020	-0.125
-366.727	-81.639	-0.121	-0.040
-365.712	-200.000	-0.092	-0.456
-364.698	-134.848	0.255	-0.031
-363.683	-169.263	0.238	0.009
-362.669	-0.845	0.182	0.129
-361.654	2.000	-0.347	0.250
-360.639	-2.892	0.153	-0.107
-359.625	-108.454	0.080	-0.017
-358.610	654.424	-0.111	0.286
-357.596	65.265	-0.212	-0.214
-356.581	-200.000	0.021	-0.172
-355.566	309.198	-0.176	0.328
-354.552	-200.000	-0.017	-0.130
-353.537	-200.000	0.004	0.064
-352.523	-97.156	-0.310	-0.081
-351.508	800.000	-0.141	0.389
-350.493	67.492	-0.189	0.192
-349.479	296.860	0.119	-0.218
-348.464	-200.000	-0.026	0.315
-347.450	800.000	-0.077	0.265
-346.435	-200.000	-0.029	0.156
-345.420	-200.000	0.033	-0.154
-344.406	402.763	-0.112	-0.235
-343.391	-200.000	0.039	0.204
-342.377	-129.541	0.255	0.035
-341.362	-153.941	-0.408	0.028
-340.348	-200.000	-0.025	-0.201
-339.333	-164.983	-0.343	-0.015
-338.318	-200.000	-0.049	-0.282
-337.304	-170.742	-0.346	0.012
-336.289	-119.005	-0.166	0.029
-335.275	-200.000	0.051	-0.258
-334.260	800.000	-0.045	0.143
-333.245	800.000	0.071	-0.211
-332.231	-200.000	-0.001	-0.123
-331.216	199.030	0.170	0.260
-330.202	-200.000	-0.010	-0.081
-329.187	-200.000	0.002	-0.393
-328.172	800.000	0.040	-0.123
-327.158	123.605	0.020	0.026
-326.143	-49.884	0.211	0.100
-325.129	295.549	0.063	-0.115
-324.114	10.666	0.212	-0.161
-323.099	800.000	0.003	0.009
-322.085	-73.161	-0.107	0.039
-321.070	-95.070	-0.421	-0.114
-320.056	501.263	-0.034	0.078
-319.041	116.434	-0.098	0.120
-318.026	380.807	0.045	0.092
-317.012	315.959	0.086	0.161
-315.997	-77.870	0.197	-0.068
-314.983	338.748	-0.097	0.188
-313.968	-114.957	0.155	0.029
-312.953	-200.000	-0.021	0.221
-311.939	-85.658	0.404	-0.125
-310.924	48.232	-0.319	0.298
-309.910	-28.682	-0.102	0.059
-308.895	-200.000	0.028	0.268
-307.880	384.457	0.232	-0.476
-306.866	-200.000	0.005	-0.343
-305.851	-84.764	0.525	0.164
-304.837	-200.000	0.064	0.452
-303.822	313.637	0.012	0.022
-302.807	-200.000	-0.012	-0.082
-301.793	143.399	-0.262	0.347
-300.778	-151.076	0.323	-0.024
-299.764	140.299	-0.151	0.198
-298.749	-39.541	-0.156	-0.082
-297.735	-200.000	0.010	0.243
-296.720	800.000	-0.044	-0.161
-295.705	19.302	0.198	0.158
-294.691	-45.582	0.142	-0.070
-293.676	-200.000	0.000	-0.188
-292.662	163.368	0.037	0.052
-291.647	9.359	-0.063	-0.047
-290.632	-200.000	0.018	0.160
-289.618	380.900	0.215	0.440
-288.603	800.000	-0.058	0.253
-287.589	-121.090	-0.229	0.038
-286.574	-141.054	0.045	-0.005
-285.559	-200.000	0.046	-0.512
-284.545	-85.449	-0.127	0.039
-283.530	180.539	-0.239	-0.350
-282.516	-200.000	0.012	-0.220
-281.501	186.943	-0.138	0.205
-280.486	132.069	0.147	-0.189
-279.472	-200.000	-0.034	-0.545
-278.457	-29.195	0.096	0.055
-277.443	-188.220	-0.222	0.003
-276.428	-159.186	0.255	0.014
-275.413	70.933	0.047	0.048
-274.399	-180.931	0.287	-0.006
-273.384	-86.102	0.220	-0.068
-272.370	-200.000	0.001	0.260
-271.355	46.220	0.195	-0.180
-270.340	800.000	0.055	0.154
-269.326	800.000	0.092	-0.388
-268.311	-38.606	0.139	-0.073
-267.297	337.457	-0.092	-0.177
-266.282	211.249	-0.154	0.240
-265.267	-200.000	0.045	-0.254
-264.253	-200.000	-0.005	-0.166
-263.238	176.339	0.297	-0.429
-262.224	189.345	-0.173	0.258
-261.209	58.224	-0.164	0.160
-260.195	-105.790	-0.130	0.029
-259.180	-200.000	-0.020	-0.219
-258.165	457.202	0.236	0.521
-257.151	-103.701	0.127	0.030
-256.136	-200.000	-0.070	0.359
-255.122	800.000	-0.051	0.146
-254.107	-104.440	0.221	0.051
-253.092	-200.000	0.041	-0.262
-252.078	213.578	-0.147	0.232
-251.063	-44.197	-0.244	0.122
-250.049	-45.385	0.227	0.112
-249.034	15.398	0.214	0.167
-248.019	109.834	0.276	-0.329
-247.005	574.913	-0.047	-0.115
-245.990	-94.654	-0.135	0.037
-244.976	516.086	-0.077	0.179
-243.961	-116.571	-0.431	0.079
-242.946	-107.575	0.257	0.056
-241.932	-32.629	-0.119	0.066
-240.917	237.668	-0.082	0.135
-239.903	-139.249	-0.044	-0.005
-238.888	-112.721	-0.444	-0.088
-237.873	17.252	0.112	-0.089
-236.859	-200.000	0.032	-0.148
-235.844	128.639	-0.097	-0.123
-234.830	-200.000	-0.003	-0.271
-233.815	-48.078	-0.177	-0.085
-232.800	-169.204	0.356	-0.013
-231.786	181.799	0.148	-0.216
-230.771	-15.068	0.168	0.107
-229.757	800.000	0.063	-0.242
-228.742	5.805	-0.339	0.249
-227.727	-200.000	0.013	0.083
-226.713	-74.096	0.190	-0.069
-225.698	170.162	-0.224	-0.318
-224.684	-200.000	-0.025	0.190
-223.669	51.455	-0.174	-0.164
-222.655	58.662	0.233	-0.227
-221.640	-200.000	0.001	0.064
-220.625	127.889	-0.009	0.011
-219.611	55.477	-0.137	0.132
-218.596	27.624	0.287	-0.240
-217.582	-167.217	-0.060	0.002
-216.567	-200.000	0.033	-0.162
-215.552	2.644	-0.176	-0.127
-214.538	800.000	-0.163	0.461
-213.523	-200.000	0.027	0.192
-212.509	75.286	0.051	-0.053
-211.494	92.988	-0.280	-0.314
-210.479	800.000	-0.070	-0.292
-209.465	81.232	0.135	-0.145
-208.450	33.928	-0.211	-0.182
-207.436	-79.087	-0.061	0.021
-206.421	-71.662	0.116	-0.043
-205.406	-132.512	-0.310	-0.040
-204.392	-200.000	-0.044	-0.333
-203.377	-200.000	0.006	0.046
-202.363	-200.000	0.006	-0.048
-201.348	-125.664	-0.167	0.025
-200.333	-21.845	-0.126	-0.076
-199.319	-200.000	-0.003	0.052
-198.304	99.346	0.115	-0.132
-197.290	-149.480	0.134	-0.011
-196.275	-194.093	0.257	-0.002
-195.260	111.196	0.113	0.135
-194.246	-77.927	0.156	-0.053
-193.231	-150.968	0.196	-0.015
-192.217	-21.340	0.112	-0.068
-191.202	161.181	-0.158	0.219
-190.187	584.541	-0.064	0.157
-189.173	-200.000	-0.019	0.205
-188.158	-200.000	-0.050	0.356
-187.144	-121.608	-0.210	-0.035
-186.129	-95.029	0.110	0.029
-185.114	-49.584	0.338	-0.160
-184.100	-43.345	-0.401	-0.201
-183.085	-15.308	-0.322	0.204
-182.071	-107.790	0.228	-0.049
-181.056	-200.000	-0.037	-0.223
-180.042	236.363	0.090	0.148
-179.027	-58.661	-0.104	0.045
-178.012	129.230	0.045	0.057
-176.998	-200.000	-0.012	-0.102
-175.983	138.359	0.333	0.433
-174.969	209.334	0.133	-0.206
-173.954	-31.456	-0.204	0.114
-172.939	-95.441	-0.438	-0.117
-171.925	79.774	0.180	0.192
-170.910	432.964	0.093	-0.200
-169.896	800.000	0.079	0.280
-168.881	-200.000	-0.056	0.310
-167.866	800.000	0.111	0.328
-166.852	182.429	-0.092	0.134
-165.837	53.326	0.107	-0.102
-164.823	-200.000	-0.003	0.339
-163.808	-200.000	0.000	0.157
-162.793	243.519	-0.081	0.134
-161.779	107.028	-0.172	0.203
-160.764	11.905	0.326	0.248
-159.750	6.143	-0.225	-0.165
-158.735	99.241	-0.180	-0.206
-157.720	-142.602	-0.326	-0.032
-156.706	24.296	0.161	-0.131
-155.691	-200.000	-0.025	-0.240
-154.677	-200.000	-0.005	-0.143
-153.662	582.875	0.014	0.034
-152.647	-85.691	0.353	-0.109
-151.633	63.341	-0.237	0.235
-150.618	-85.976	-0.123	0.038
-149.604	-74.701	0.133	-0.047
-148.589	-146.772	-0.175	-0.015
-147.574	800.000	-0.074	-0.229
-146.560	27.761	0.225	0.188
-145.545	134.134	-0.290	-0.372
-144.531	346.125	-0.106	-0.206
-143.516	429.315	-0.105	-0.225
-142.502	426.944	0.066	-0.141
-141.487	141.963	-0.108	-0.142
-140.472	72.570	-0.298	-0.308
-139.458	-200.000	-0.009	0.093
-138.443	38.104	0.146	0.128
-137.429	53.815	0.125	-0.118
-136.414	27.234	0.135	0.112
-135.399	-62.911	-0.318	-0.130
-134.385	-200.000	0.008	-0.379
-133.370	17.033	0.366	0.287
-132.356	17.136	-0.224	0.176
-131.341	-115.748	0.107	-0.020
-130.326	147.192	-0.120	0.159
-129.312	-200.000	-0.012	-0.063
-128.297	231.791	0.015	-0.024
-127.283	800.000	-0.037	-0.115
-126.268	-32.268	0.230	-0.127
-125.253	-129.537	0.256	-0.035
-124.239	601.519	0.093	-0.229
-123.224	800.000	-0.082	0.346
