DTS Sentinel unit serial number:	SN413079Multiplexer serial number:	ORYXHardware model number:	OX4-SRSoftware version number:	ORYX F/W v4.00 Oryx Data Collector v3.7.2.0data status	okinstallation	princeton_trtdifferential loss correction	single-endedforward channel	channel 1reverse channel	N/Adate	2019/09/11time	03:56:11forward acquisition time	60.00reverse acquisition time	0.00gamma	496.2192k internal	0.2331k external	0.2331temperature offset calibration	0.9923default loss term (dB/km)	0.3790temperature slope calibration	1.0000multiplexer offset coefficient	1.0000multiplexer slope coefficient	1.0000fibre end	0.00T internal ref (°C)	29.56T ext. ref 1 (°C)	-0.30T ext. ref 2 (°C)	23.67length (m)	temperature (°C)	Stokes	anti-Stokes-747.200	155.518	0.082	0.113
-746.185	538.864	-0.037	-0.090
-745.171	102.461	-0.036	0.043
-744.156	388.418	0.060	-0.125
-743.142	265.623	0.276	-0.485
-742.127	320.470	0.229	0.437
-741.112	142.109	-0.061	-0.081
-740.098	-23.427	-0.282	0.170
-739.083	-105.352	-0.269	0.062
-738.069	-45.383	-0.088	-0.044
-737.054	-78.983	0.172	-0.059
-736.039	-129.299	-0.265	-0.037
-735.025	249.830	0.054	0.092
-734.010	-164.920	-0.140	0.006
-732.996	67.488	-0.276	-0.284
-731.981	274.648	-0.193	-0.344
-730.966	-63.463	-0.239	-0.099
-729.952	62.216	0.065	-0.065
-728.937	790.162	0.129	0.356
-727.923	-180.706	-0.112	-0.002
-726.908	40.654	-0.182	-0.165
-725.894	10.825	0.211	0.162
-724.879	800.000	0.075	-0.237
-723.864	-31.208	0.069	0.039
-722.850	293.023	0.045	-0.083
-721.835	5.235	0.143	0.106
-720.821	-117.028	-0.181	-0.033
-719.806	-102.477	-0.289	-0.070
-718.791	-200.000	-0.023	-0.112
-717.777	95.812	-0.114	0.130
-716.762	60.408	0.190	-0.189
-715.748	315.935	0.086	0.163
-714.733	339.669	-0.112	-0.220
-713.718	-82.297	-0.134	0.044
-712.704	-120.587	-0.272	-0.046
-711.689	-32.940	-0.125	0.070
-710.675	131.503	-0.129	-0.166
-709.660	-37.637	-0.102	0.055
-708.645	405.883	0.034	-0.072
-707.631	275.233	0.094	0.168
-706.616	174.485	-0.128	-0.187
-705.602	108.481	0.118	-0.141
-704.587	567.858	0.065	-0.160
-703.572	-97.144	-0.263	0.069
-702.558	148.752	0.239	0.324
-701.543	-58.468	-0.251	0.110
-700.529	27.157	-0.235	-0.198
-699.514	-53.311	-0.416	0.191
-698.499	-200.000	0.028	-0.181
-697.485	-81.756	-0.082	-0.027
-696.470	685.063	-0.041	0.106
-695.456	-9.704	0.355	-0.237
-694.441	800.000	0.052	-0.172
-693.426	0.750	-0.332	0.239
-692.412	434.158	-0.034	-0.074
-691.397	-54.411	0.237	-0.108
-690.383	-143.909	0.286	-0.027
-689.368	542.043	0.120	-0.286
-688.354	-126.485	-0.193	0.029
-687.339	16.474	-0.141	0.112
-686.324	-14.738	-0.050	0.032
-685.310	-61.887	0.442	-0.186
-684.295	267.307	-0.133	-0.234
-683.281	800.000	-0.091	-0.293
-682.266	133.131	-0.060	-0.078
-681.251	800.000	0.038	-0.152
-680.237	-142.790	-0.343	-0.034
-679.222	-35.053	0.054	-0.029
-678.208	-6.133	-0.139	0.095
-677.193	-88.308	-0.264	-0.079
-676.178	-102.972	0.306	0.073
-675.164	-200.000	-0.011	0.078
-674.149	-20.330	-0.141	-0.087
-673.135	432.645	0.041	-0.089
-672.120	-34.065	-0.314	-0.173
-671.105	237.689	-0.241	0.401
-670.091	-5.733	-0.100	-0.069
-669.076	-22.859	0.020	0.012
-668.062	-78.534	-0.121	0.042
-667.047	288.841	0.061	-0.110
-666.032	-39.938	0.213	-0.112
-665.018	-200.000	-0.004	-0.210
-664.003	-200.000	0.005	0.030
-662.989	-154.212	0.222	0.015
-661.974	107.544	-0.103	-0.123
-660.959	696.989	0.123	-0.323
-659.945	42.114	0.287	-0.261
-658.930	-163.054	-0.130	-0.006
-657.916	226.742	-0.097	0.158
-656.901	18.009	-0.108	-0.087
-655.886	71.523	-0.050	0.052
-654.872	261.544	0.157	0.273
-653.857	-62.641	0.244	0.101
-652.843	-85.765	0.194	-0.060
-651.828	-142.091	-0.172	0.017
-650.814	-86.855	0.212	-0.065
-649.799	-99.994	0.152	0.038
-648.784	-92.801	0.256	-0.072
-647.770	-98.208	-0.186	-0.048
-646.755	218.299	-0.166	-0.266
-645.741	-174.698	0.244	0.007
-644.726	800.000	0.042	-0.147
-643.711	-72.308	0.420	-0.156
-642.697	-83.962	-0.064	0.020
-641.682	38.500	0.231	0.207
-640.668	484.363	-0.035	-0.081
-639.653	-31.671	0.091	0.051
-638.638	-200.000	0.032	-0.227
-637.624	800.000	0.136	-0.449
-636.609	-5.118	0.156	0.108
-635.595	75.813	-0.141	-0.150
-634.580	800.000	0.016	-0.071
-633.565	48.648	-0.136	-0.128
-632.551	800.000	0.026	-0.085
-631.536	245.354	0.090	0.152
-630.522	-38.675	0.461	0.244
-629.507	-90.844	-0.223	0.064
-628.492	-200.000	0.023	0.142
-627.478	-74.565	-0.288	-0.104
-626.463	-70.168	-0.308	0.117
-625.449	-172.043	-0.209	0.007
-624.434	494.353	-0.059	0.136
-623.419	698.511	-0.117	0.308
-622.405	800.000	0.022	0.080
-621.390	120.026	0.090	0.112
-620.376	800.000	-0.087	-0.343
-619.361	604.779	0.061	0.152
-618.346	-82.206	-0.181	-0.059
-617.332	-66.224	0.072	0.029
-616.317	31.610	0.132	0.114
-615.303	-60.989	-0.135	-0.057
-614.288	-14.493	-0.105	-0.068
-613.273	-171.865	0.123	-0.004
-612.259	-83.100	0.374	-0.121
-611.244	-12.174	-0.094	-0.062
-610.230	357.412	-0.090	-0.180
-609.215	-78.634	-0.061	-0.021
-608.201	436.987	0.043	0.094
-607.186	-47.991	0.393	-0.191
-606.171	-148.398	-0.488	0.040
-605.157	157.422	0.127	0.176
-604.142	-26.121	0.314	0.185
-603.128	-200.000	0.008	0.078
-602.113	-78.732	-0.263	0.090
-601.098	-200.000	-0.002	0.084
-600.084	20.058	0.187	0.151
-599.069	390.955	-0.078	-0.163
-598.055	177.661	0.051	-0.075
-597.040	80.599	-0.170	-0.183
-596.025	249.548	0.152	-0.259
-595.011	-200.000	-0.001	0.187
-593.996	217.835	-0.145	-0.231
-592.982	-60.795	0.355	0.150
-591.967	-200.000	-0.025	0.320
-590.952	800.000	0.064	0.207
-589.938	101.770	-0.201	0.235
-588.923	35.324	-0.164	0.144
-587.909	193.883	-0.163	-0.247
-586.894	800.000	0.022	0.082
-585.879	-104.304	-0.109	-0.025
-584.865	714.662	0.092	-0.243
-583.850	-52.090	-0.133	-0.062
-582.836	121.005	0.216	0.269
-581.821	113.764	-0.127	-0.154
-580.806	-200.000	0.014	0.070
-579.792	101.044	0.188	0.219
-578.777	254.086	-0.085	-0.146
-577.763	354.186	-0.064	0.126
-576.748	558.966	-0.170	0.409
-575.733	-170.468	0.317	0.011
-574.719	-4.521	-0.059	0.041
-573.704	23.169	-0.145	0.119
-572.690	-200.000	-0.005	-0.039
-571.675	-85.397	0.286	-0.089
-570.661	545.534	0.052	-0.125
-569.646	595.865	-0.113	-0.279
-568.631	-118.315	0.391	0.070
-567.617	-87.302	0.038	-0.012
-566.602	295.404	0.058	-0.106
-565.588	-190.340	0.318	0.003
-564.573	0.677	0.144	-0.103
-563.558	800.000	0.065	0.254
-562.544	94.160	0.058	-0.066
-561.529	-116.360	-0.084	0.015
-560.515	123.430	0.107	0.134
-559.500	-200.000	-0.008	-0.038
-558.485	-200.000	-0.010	-0.061
-557.471	157.918	-0.139	0.192
-556.456	-66.793	-0.193	0.076
-555.442	-148.271	-0.145	-0.012
-554.427	-69.311	-0.409	0.157
-553.412	34.992	0.062	-0.054
-552.398	-58.476	-0.295	-0.128
-551.383	-200.000	-0.032	-0.190
-550.369	666.781	-0.136	0.350
-549.354	183.843	0.228	0.338
-548.339	-122.637	0.050	0.008
-547.325	716.094	-0.031	-0.082
-546.310	68.575	0.307	0.314
-545.296	-63.998	0.198	0.081
-544.281	-29.423	0.284	0.162
-543.266	209.500	-0.067	0.105
-542.252	-52.276	-0.309	-0.143
-541.237	800.000	0.088	0.271
-540.223	157.126	0.126	0.174
-539.208	27.955	0.090	0.076
-538.193	-110.573	0.377	0.078
-537.179	-170.005	-0.198	0.007
-536.164	800.000	0.012	0.037
-535.150	-17.716	0.188	-0.118
-534.135	-86.737	0.470	-0.143
-533.121	86.877	0.055	-0.060
-532.106	360.132	-0.040	0.079
-531.091	-184.706	0.218	0.003
-530.077	2.067	-0.387	0.279
-529.062	2.512	0.027	0.020
-528.048	-101.931	-0.336	-0.081
-527.033	-200.000	-0.010	0.127
-526.018	-200.000	-0.031	-0.192
-525.004	800.000	0.024	-0.078
-523.989	-162.756	-0.046	-0.002
-522.975	-128.274	-0.281	-0.040
-521.960	-14.126	0.136	-0.087
-520.945	-53.041	-0.049	-0.022
-519.931	78.553	0.129	-0.138
-518.916	-200.000	0.023	0.165
-517.902	-114.518	-0.148	-0.028
-516.887	-200.000	-0.015	0.285
-515.872	56.969	-0.211	-0.205
-514.858	-94.984	0.036	-0.010
-513.843	-18.132	-0.221	-0.138
-512.829	-200.000	0.041	0.224
-511.814	-79.806	-0.270	0.091
-510.799	-15.521	0.108	-0.069
-509.785	-97.854	-0.126	-0.033
-508.770	-73.381	-0.240	-0.088
-507.756	143.808	0.131	0.175
-506.741	151.468	-0.068	0.092
-505.726	800.000	0.036	-0.135
-504.712	106.415	0.143	-0.169
-503.697	28.734	-0.173	-0.146
-502.683	641.868	-0.119	0.303
-501.668	-100.526	-0.128	-0.031
-500.653	-9.064	-0.018	0.012
-499.639	106.373	0.173	0.204
-498.624	262.607	0.080	0.139
-497.610	-130.422	0.216	-0.029
-496.595	-200.000	-0.066	0.340
-495.581	-31.709	-0.182	0.102
-494.566	218.042	-0.176	0.280
-493.551	563.256	0.106	-0.255
-492.537	-166.076	0.236	0.010
-491.522	-200.000	0.061	0.342
-490.508	559.931	0.034	-0.081
-489.493	-200.000	0.017	0.133
-488.478	74.941	0.214	-0.225
-487.464	-13.640	-0.082	-0.053
-486.449	-146.659	-0.487	0.042
-485.435	95.245	0.061	-0.070
-484.420	-76.771	-0.100	0.035
-483.405	-200.000	0.029	0.325
-482.391	-200.000	-0.030	-0.571
-481.376	-98.657	0.117	0.030
-480.362	-200.000	-0.006	-0.341
-479.347	-16.600	0.290	-0.183
-478.332	131.788	-0.120	-0.154
-477.318	-68.870	-0.162	-0.062
-476.303	-61.023	-0.275	0.116
-475.289	-29.176	-0.306	0.175
-474.274	196.401	-0.140	0.212
-473.259	-91.854	-0.332	-0.094
-472.245	251.561	0.086	-0.146
-471.230	72.871	0.144	-0.150
-470.216	136.072	-0.103	0.133
-469.201	-200.000	-0.056	-0.295
-468.186	44.491	-0.032	-0.030
-467.172	347.092	-0.030	-0.060
-466.157	-200.000	-0.018	-0.113
-465.143	78.647	-0.168	0.179
-464.128	-169.650	-0.117	-0.004
-463.113	-142.933	0.096	0.009
-462.099	144.701	0.223	-0.296
-461.084	38.388	0.133	0.118
-460.070	54.211	0.178	0.170
-459.055	53.935	0.144	-0.138
-458.040	-60.740	-0.268	-0.113
-457.026	-62.870	-0.062	0.025
-456.011	-46.608	0.280	-0.137
-454.997	-2.649	0.161	-0.112
-453.982	151.299	0.104	0.141
-452.968	800.000	-0.102	-0.286
-451.953	-77.198	0.118	0.041
-450.938	-110.270	-0.096	0.020
-449.924	-200.000	-0.002	-0.046
-448.909	-107.003	0.460	-0.101
-447.895	-86.303	0.451	-0.138
-446.880	767.471	0.070	0.190
-445.865	333.796	0.038	0.073
-444.851	167.326	-0.156	0.221
-443.836	202.069	-0.262	-0.402
-442.822	800.000	-0.046	-0.159
-441.807	-187.075	-0.114	-0.002
-440.792	-200.000	-0.004	-0.106
-439.778	34.621	-0.365	-0.317
-438.763	-58.969	-0.250	0.107
-437.749	-200.000	0.042	-0.248
-436.734	-200.000	0.043	-0.309
-435.719	-1.580	0.282	0.198
-434.705	486.740	0.042	0.096
-433.690	68.044	0.174	-0.177
-432.676	-26.212	-0.471	-0.275
-431.661	-200.000	0.021	0.200
-430.646	800.000	-0.020	0.072
-429.632	64.532	-0.095	0.095
-428.617	770.510	0.067	0.182
-427.603	336.175	0.078	0.151
-426.588	278.768	0.279	-0.494
-425.573	158.314	0.158	-0.218
-424.559	800.000	-0.050	-0.199
-423.544	-200.000	-0.034	0.206
-422.530	178.878	-0.136	0.198
-421.515	800.000	-0.034	0.124
-420.500	-200.000	-0.065	0.312
-419.486	25.222	-0.029	-0.024
-418.471	-200.000	0.009	0.058
-417.457	-187.335	0.249	-0.003
-416.442	282.302	-0.187	-0.332
-415.428	10.404	0.108	0.082
-414.413	-131.143	0.123	0.016
-413.398	-24.126	-0.049	-0.029
-412.384	78.268	-0.142	0.151
-411.369	-158.608	0.154	0.009
-410.355	-21.724	-0.397	-0.240
-409.340	170.069	0.114	0.162
-408.325	538.664	-0.061	0.145
-407.311	508.000	-0.122	0.281
-406.296	-181.891	-0.158	-0.003
-405.282	-146.394	-0.098	0.009
-404.267	-163.796	-0.227	-0.011
-403.252	2.456	0.013	0.009
-402.238	27.523	-0.168	0.141
-401.223	151.110	-0.120	-0.162
-400.209	93.608	0.177	-0.199
-399.194	33.142	-0.225	-0.194
-398.179	-136.234	0.083	0.010
-397.165	202.233	0.073	0.111
-396.150	-200.000	-0.013	-0.278
-395.136	-100.938	-0.218	-0.053
-394.121	511.114	0.086	-0.199
-393.106	-117.702	-0.119	-0.021
-392.092	-200.000	-0.043	0.261
-391.077	49.106	0.153	0.143
-390.063	39.741	-0.225	0.200
-389.048	-200.000	0.010	-0.092
-388.033	800.000	0.055	0.228
-387.019	13.031	-0.211	0.162
-386.004	492.215	0.063	-0.143
-384.990	573.778	-0.085	0.207
-383.975	800.000	0.083	0.278
-382.960	-12.743	-0.380	-0.245
-381.946	800.000	-0.063	-0.196
-380.931	-200.000	-0.011	0.099
-379.917	-22.141	-0.081	0.048
-378.902	108.897	-0.050	-0.059
-377.888	96.067	-0.221	-0.251
-376.873	800.000	0.105	0.431
-375.858	800.000	0.056	-0.157
-374.844	800.000	-0.068	0.273
-373.829	48.101	-0.207	0.192
-372.815	800.000	-0.056	-0.230
-371.800	345.075	-0.154	-0.300
-370.785	122.877	-0.147	0.183
-369.771	571.858	-0.092	-0.221
-368.756	-35.114	-0.308	-0.167
-367.742	474.305	0.186	-0.416
-366.727	26.293	0.228	-0.189
-365.712	548.087	0.028	-0.066
-364.698	14.365	0.224	0.173
-363.683	-116.076	0.215	-0.040
-362.669	507.795	0.134	0.308
-361.654	-134.038	0.193	0.024
-360.639	-110.901	-0.266	0.054
-359.625	63.780	-0.226	0.225
-358.610	-131.131	0.405	-0.053
-357.596	-200.000	0.018	0.200
-356.581	-85.954	0.335	0.103
-355.566	-200.000	-0.012	0.205
-354.552	-76.182	0.047	-0.017
-353.537	-200.000	0.022	0.223
-352.523	125.720	-0.198	0.247
-351.508	411.702	0.083	-0.175
-350.493	-150.384	0.275	0.021
-349.479	800.000	0.071	-0.280
-348.464	-124.876	-0.331	-0.051
-347.450	600.370	0.088	-0.218
-346.435	127.149	-0.203	-0.256
-345.420	-19.211	-0.017	0.011
-344.406	-124.041	-0.294	-0.046
-343.391	800.000	-0.125	-0.381
-342.377	-141.957	0.118	0.012
-341.362	117.715	0.209	-0.255
-340.348	42.992	-0.090	-0.081
-339.333	-135.367	-0.176	0.021
-338.318	3.843	-0.142	0.102
-337.304	438.081	0.106	0.228
-336.289	800.000	0.080	-0.324
-335.275	-112.267	-0.269	-0.053
-334.260	422.309	0.158	-0.337
-333.245	-124.812	-0.311	0.048
-332.231	2.482	0.110	0.079
-331.216	66.723	-0.059	0.060
-330.202	-56.950	-0.038	-0.017
-329.187	320.168	0.221	0.416
-328.172	251.489	-0.311	0.524
-327.158	537.993	-0.103	-0.243
-326.143	-17.630	0.237	-0.148
-325.129	-200.000	-0.005	-0.071
-324.114	77.457	-0.165	-0.173
-323.099	39.267	0.179	-0.158
-322.085	77.615	0.226	0.238
-321.070	800.000	-0.135	-0.410
-320.056	112.567	-0.173	0.207
-319.041	800.000	-0.037	-0.134
-318.026	-200.000	-0.028	0.264
-317.012	-200.000	0.014	0.260
-315.997	520.466	0.165	-0.382
-314.983	-3.939	-0.047	0.032
-313.968	209.555	0.236	-0.366
-312.953	107.995	0.147	0.173
-311.939	43.751	-0.137	-0.124
-310.924	-35.975	0.072	0.039
-309.910	800.000	-0.061	-0.263
-308.895	-102.041	-0.122	0.029
-307.880	9.781	-0.413	-0.310
-306.866	-200.000	-0.002	-0.218
-305.851	-154.177	-0.065	-0.004
-304.837	114.355	-0.292	0.352
-303.822	800.000	-0.018	0.069
-302.807	-119.567	0.154	-0.026
-301.793	800.000	0.067	0.243
-300.778	-124.741	-0.245	0.038
-299.764	56.584	-0.247	0.238
-298.749	-200.000	-0.012	-0.128
-297.735	-200.000	-0.030	0.214
-296.720	-122.057	-0.141	-0.023
-295.705	159.385	0.104	-0.144
-294.691	-20.066	-0.098	-0.060
-293.676	36.767	0.089	0.078
-292.662	-18.517	0.151	0.093
-291.647	154.136	0.058	-0.078
-290.632	637.380	0.114	0.287
-289.618	-90.209	-0.242	0.070
-288.603	-16.473	0.125	-0.079
-287.589	-43.391	-0.303	-0.151
-286.574	168.212	-0.213	0.300
-285.559	146.224	0.265	0.352
-284.545	-200.000	-0.017	0.299
-283.530	800.000	0.088	-0.249
-282.516	-200.000	0.030	0.155
-281.501	-118.966	0.096	0.017
-280.486	-178.790	-0.173	-0.004
-279.472	-200.000	0.012	0.371
-278.457	-117.704	0.124	0.022
-277.443	38.420	-0.222	0.196
-276.428	-101.719	0.221	0.053
-275.413	-200.000	-0.011	0.296
-274.399	-66.669	-0.464	-0.182
-273.384	421.074	0.107	0.227
-272.370	271.857	-0.131	0.229
-271.355	179.243	-0.100	-0.145
-270.340	-200.000	-0.015	-0.223
-269.326	800.000	0.033	0.102
-268.311	394.025	0.048	-0.098
-267.297	-200.000	0.006	0.254
-266.282	-55.327	0.219	-0.097
-265.267	88.779	-0.157	0.172
-264.253	-96.932	0.060	-0.015
-263.238	-9.002	0.377	0.249
-262.224	-84.610	0.259	0.081
-261.209	72.897	-0.204	0.210
-260.195	-54.499	0.267	0.120
-259.180	800.000	0.025	-0.102
-258.165	18.249	-0.226	-0.178
-257.151	-87.982	-0.025	0.007
-256.136	159.232	-0.131	0.180
-255.122	-103.660	0.326	0.075
-254.107	-200.000	-0.048	-0.222
-253.092	-95.959	0.252	-0.066
-252.078	402.262	-0.089	-0.184
-251.063	-64.217	-0.268	-0.108
-250.049	-149.482	-0.074	0.006
-249.034	-200.000	0.009	-0.069
-248.019	125.372	0.153	0.191
-247.005	393.964	0.063	0.130
-245.990	49.752	-0.172	0.160
-244.976	-99.899	-0.311	-0.077
-243.961	-22.293	-0.240	0.144
-242.946	-88.143	0.068	0.020
-241.932	82.412	-0.103	-0.111
-240.917	59.028	-0.039	-0.037
-239.903	-164.554	0.312	-0.014
-238.888	-200.000	-0.041	-0.243
-237.873	283.155	0.213	-0.378
-236.859	410.419	-0.187	-0.392
-235.844	-95.533	0.243	-0.064
-234.830	58.383	-0.044	0.043
-233.815	-200.000	-0.001	-0.106
-232.800	-69.720	0.382	-0.144
-231.786	517.631	-0.168	-0.388
-230.771	-35.657	0.134	0.072
-229.757	65.976	-0.139	-0.139
-228.742	90.272	0.093	0.102
-227.727	800.000	0.059	0.171
-226.713	237.430	-0.257	0.420
-225.698	31.397	0.138	0.117
-224.684	800.000	0.052	-0.178
-223.669	-186.663	0.173	-0.002
-222.655	-76.178	0.367	0.128
-221.640	-148.106	0.073	-0.006
-220.625	-155.622	0.111	-0.007
-219.611	800.000	0.088	0.277
-218.596	-200.000	-0.002	-0.027
-217.582	800.000	0.071	-0.282
-216.567	800.000	0.098	-0.298
-215.552	396.383	0.085	-0.174
-214.538	103.747	0.192	-0.223
-213.523	-137.073	0.254	0.029
-212.509	-200.000	0.060	-0.334
-211.494	-11.107	0.266	-0.173
-210.479	117.548	-0.187	-0.227
-209.465	39.248	-0.140	-0.124
-208.450	-50.484	-0.285	-0.132
-207.436	-32.861	-0.288	-0.158
-206.421	-45.911	0.217	-0.105
-205.406	283.473	-0.044	0.077
-204.392	-147.354	-0.125	0.010
-203.377	564.042	0.199	0.475
-202.363	-85.628	-0.260	-0.080
-201.348	128.572	-0.106	-0.133
-200.333	110.385	0.246	0.291
-199.319	164.011	0.157	-0.218
-198.304	800.000	0.099	-0.272
-197.290	-0.366	-0.255	-0.179
-196.275	-43.176	-0.226	0.113
-195.260	29.396	-0.095	-0.080
-194.246	-200.000	-0.004	-0.073
-193.231	77.953	0.261	0.274
-192.217	128.995	-0.149	-0.188
-191.202	-122.085	0.258	0.042
-190.187	-97.150	-0.185	0.048
-189.173	-129.493	0.474	0.065
-188.158	-192.381	0.120	0.001
-187.144	363.708	0.047	-0.093
-186.129	-140.811	0.204	0.021
-185.114	-123.103	0.072	-0.011
-184.100	-78.636	-0.162	-0.054
-183.085	129.271	-0.107	0.134
-182.071	166.782	-0.344	-0.480
-181.056	139.590	0.031	0.040
-180.042	-7.850	0.249	0.166
-179.027	-15.042	0.167	0.106
-178.012	-89.885	0.225	-0.065
-176.998	-46.091	-0.040	0.019
-175.983	-92.617	-0.282	0.078
-174.969	-75.077	0.166	-0.058
-173.954	-148.311	0.107	0.009
-172.939	-69.170	0.427	0.162
-171.925	-123.666	0.387	0.060
-170.910	-64.125	-0.343	-0.138
-169.896	-200.000	0.011	-0.080
-168.881	-200.000	-0.020	0.105
-167.866	102.665	0.125	-0.144
-166.852	-200.000	0.064	0.313
-165.837	-200.000	-0.040	0.208
-164.823	-145.483	0.076	-0.007
-163.808	41.830	0.119	0.106
-162.793	12.170	-0.065	-0.049
-161.779	-63.794	-0.248	0.100
-160.764	166.846	-0.194	0.271
-159.750	-97.205	0.288	-0.074
-158.735	38.737	-0.057	0.050
-157.720	216.652	0.086	-0.135
-156.706	91.813	-0.091	0.100
-155.691	-200.000	-0.024	-0.205
-154.677	4.358	0.118	0.085
-153.662	-200.000	0.021	-0.213
-152.647	132.143	0.103	0.131
-151.633	350.282	0.038	0.074
-150.618	-200.000	-0.063	0.283
-149.604	124.890	0.142	0.176
-148.589	-83.186	-0.237	0.075
-147.574	257.233	-0.162	0.274
-146.560	-136.508	0.054	0.006
-145.545	45.697	-0.183	0.166
-144.531	-26.760	0.164	-0.095
-143.516	-127.512	0.265	0.038
-142.502	286.529	0.117	0.208
-141.487	71.577	-0.031	-0.032
-140.472	86.965	0.169	-0.184
-139.458	141.577	0.135	-0.176
-138.443	-11.850	0.409	-0.264
-137.429	-200.000	-0.001	0.095
-136.414	-200.000	0.024	0.225
-135.399	-162.564	-0.075	-0.004
-134.385	800.000	-0.136	-0.564
-133.370	-200.000	-0.013	0.168
-132.356	-7.757	0.178	0.118
-131.341	-113.313	0.217	0.042
-130.326	-200.000	-0.055	0.256
-129.312	-84.329	-0.204	-0.064
-128.297	174.062	-0.107	0.152
-127.283	-19.651	0.309	0.188
-126.268	649.041	-0.111	0.279
-125.253	82.298	0.173	0.184
-124.239	42.366	0.127	0.113
-123.224	111.271	0.050	0.059
-122.210	-66.737	-0.180	0.070
-121.195	-200.000	-0.025	0.122
