DTS Sentinel unit serial number:	SN413079Multiplexer serial number:	ORYXHardware model number:	OX4-SRSoftware version number:	ORYX F/W v4.00 Oryx Data Collector v3.7.2.0data status	okinstallation	princeton_trtdifferential loss correction	single-endedforward channel	channel 1reverse channel	N/Adate	2019/09/11time	10:40:11forward acquisition time	60.00reverse acquisition time	0.00gamma	496.2192k internal	0.2298k external	0.2298temperature offset calibration	0.9949default loss term (dB/km)	0.3790temperature slope calibration	1.0000multiplexer offset coefficient	1.0000multiplexer slope coefficient	1.0000fibre end	0.00T internal ref (°C)	36.67T ext. ref 1 (°C)	0.14T ext. ref 2 (°C)	34.19length (m)	temperature (°C)	Stokes	anti-Stokes-747.200	-200.000	0.015	0.075
-746.185	-200.000	0.013	0.098
-745.171	-200.000	0.007	0.152
-744.156	344.476	-0.047	-0.095
-743.142	115.859	-0.190	0.237
-742.127	800.000	-0.144	0.457
-741.112	-173.414	-0.156	-0.005
-740.098	32.668	0.121	-0.106
-739.083	800.000	-0.044	0.163
-738.069	-200.000	-0.023	-0.256
-737.054	-86.602	-0.199	-0.062
-736.039	-13.250	0.004	-0.003
-735.025	79.087	0.241	0.264
-734.010	800.000	-0.061	0.254
-732.996	69.781	-0.079	-0.083
-731.981	147.254	-0.063	-0.086
-730.966	-179.980	-0.201	-0.004
-729.952	-200.000	0.023	-0.222
-728.937	-100.551	0.087	-0.022
-727.923	-55.776	-0.235	-0.107
-726.908	-200.000	0.001	-0.304
-725.894	-148.495	-0.274	0.023
-724.879	34.065	0.144	0.128
-723.864	5.666	0.144	-0.109
-722.850	-171.147	-0.110	0.004
-721.835	-61.455	-0.406	-0.174
-720.821	55.644	-0.328	-0.324
-719.806	542.382	0.082	-0.200
-718.791	-71.310	-0.073	-0.028
-717.777	800.000	-0.014	0.040
-716.762	20.243	0.239	0.197
-715.748	166.524	0.049	0.071
-714.733	-136.479	0.071	-0.008
-713.718	688.979	-0.053	-0.141
-712.704	-153.975	0.281	-0.020
-711.689	-200.000	0.053	-0.240
-710.675	-63.865	0.025	-0.010
-709.660	800.000	-0.030	0.129
-708.645	-47.596	-0.235	-0.116
-707.631	-15.620	-0.237	0.154
-706.616	-129.263	-0.084	0.012
-705.602	-102.891	-0.242	0.059
-704.587	-200.000	-0.002	-0.129
-703.572	255.086	0.123	0.214
-702.558	-164.193	-0.219	-0.010
-701.543	30.238	-0.195	0.170
-700.529	-29.131	0.439	0.257
-699.514	-88.597	0.339	-0.103
-698.499	71.337	-0.186	0.196
-697.485	-200.000	-0.334	0.002
-696.470	-200.000	0.000	0.312
-695.456	-200.000	0.006	0.162
-694.441	28.835	0.140	-0.121
-693.426	-27.305	0.094	-0.056
-692.412	-132.557	0.279	-0.037
-691.397	-200.000	-0.018	-0.303
-690.383	-118.600	-0.298	0.054
-689.368	-62.650	-0.140	-0.059
-688.354	367.807	0.099	-0.204
-687.339	211.644	0.205	-0.329
-686.324	-143.948	0.224	0.021
-685.310	153.484	0.126	0.175
-684.295	-73.456	-0.319	-0.119
-683.281	48.023	-0.108	0.103
-682.266	-167.884	-0.102	0.004
-681.251	118.003	0.011	-0.014
-680.237	170.207	-0.158	-0.230
-679.222	41.383	-0.236	-0.217
-678.208	116.147	-0.158	-0.198
-677.193	800.000	0.034	-0.107
-676.178	361.939	-0.042	-0.086
-675.164	57.157	-0.085	0.084
-674.149	108.008	-0.101	0.122
-673.135	143.795	0.048	0.065
-672.120	-92.241	-0.320	-0.092
-671.105	12.871	-0.203	0.160
-670.091	-200.000	0.037	-0.194
-669.076	-115.975	-0.388	0.074
-668.062	800.000	0.031	-0.098
-667.047	282.881	-0.095	0.174
-666.032	-47.319	-0.205	0.102
-665.018	800.000	0.091	-0.255
-664.003	-104.275	-0.177	-0.042
-662.989	-200.000	-0.030	-0.200
-661.974	151.560	-0.221	-0.307
-660.959	109.520	-0.121	-0.147
-659.945	800.000	-0.013	0.049
-658.930	-85.940	0.166	-0.052
-657.916	128.676	-0.151	-0.196
-656.901	216.071	-0.113	0.182
-655.886	800.000	0.036	0.149
-654.872	-200.000	0.021	0.113
-653.857	-31.881	0.047	0.027
-652.843	-195.358	-0.080	0.001
-651.828	65.836	-0.132	-0.136
-650.814	-114.922	0.280	0.054
-649.799	-200.000	-0.013	-0.365
-648.784	-200.000	0.028	-0.365
-647.770	233.336	-0.138	-0.230
-646.755	-22.455	0.139	0.085
-645.741	-125.409	0.184	-0.029
-644.726	-200.000	-0.020	0.182
-643.711	800.000	-0.012	0.051
-642.697	29.851	-0.186	0.162
-641.682	800.000	-0.013	0.056
-640.668	213.196	-0.073	-0.117
-639.653	-98.397	-0.085	-0.022
-638.638	-122.260	0.083	0.014
-637.624	-34.437	-0.215	-0.120
-636.609	198.504	0.172	-0.267
-635.595	-183.573	0.158	0.003
-634.580	-153.715	-0.013	0.001
-633.565	-157.382	-0.045	0.003
-632.551	-0.054	-0.238	0.172
-631.536	686.231	0.107	0.285
-630.522	49.332	-0.091	-0.087
-629.507	343.709	0.177	-0.352
-628.492	238.864	0.080	0.135
-627.478	-29.341	0.182	0.106
-626.463	-200.000	0.028	0.220
-625.449	91.245	0.151	0.172
-624.434	76.885	0.354	0.382
-623.419	800.000	-0.109	0.356
-622.405	-34.329	-0.161	-0.090
-621.390	800.000	-0.112	0.330
-620.376	670.044	0.144	-0.378
-619.361	-101.655	-0.087	-0.021
-618.346	127.266	0.137	0.176
-617.332	-200.000	-0.063	0.281
-616.317	99.874	0.131	-0.154
-615.303	-100.411	-0.282	-0.071
-614.288	-94.680	0.237	0.065
-613.273	179.337	0.103	0.153
-612.259	800.000	-0.004	0.013
-611.244	-144.655	0.047	0.004
-610.230	110.730	0.041	-0.051
-609.215	732.338	-0.111	-0.301
-608.201	-85.998	-0.220	-0.069
-607.186	-200.000	0.027	0.202
-606.171	-50.236	-0.231	-0.111
-605.157	-200.000	-0.028	0.436
-604.142	28.963	-0.317	-0.273
-603.128	247.538	0.063	0.108
-602.113	-95.981	0.052	0.014
-601.098	800.000	-0.053	-0.151
-600.084	-85.622	-0.142	-0.045
-599.069	238.952	-0.227	0.383
-598.055	-200.000	-0.016	0.090
-597.040	-84.318	-0.077	0.025
-596.025	-87.642	0.231	-0.071
-595.011	60.437	-0.152	0.153
-593.996	800.000	0.042	0.172
-592.982	-200.000	0.009	-0.200
-591.967	800.000	0.060	-0.225
-590.952	-132.149	0.121	-0.016
-589.938	50.458	0.195	-0.187
-588.923	-144.904	-0.156	0.014
-587.909	-200.000	0.009	0.239
-586.894	-83.494	-0.250	0.081
-585.879	455.433	0.049	0.110
-584.865	800.000	-0.006	-0.024
-583.850	-105.698	-0.231	-0.053
-582.836	218.251	0.240	0.388
-581.821	-200.000	-0.003	0.060
-580.806	162.793	0.129	-0.184
-579.792	-54.120	0.174	0.080
-578.777	58.118	-0.192	0.191
-577.763	-200.000	0.046	-0.454
-576.748	-6.455	0.229	-0.158
-575.733	-30.788	-0.332	0.190
-574.719	17.711	0.135	-0.109
-573.704	101.918	0.090	0.106
-572.690	-2.888	0.186	-0.132
-571.675	-200.000	0.025	-0.212
-570.661	-126.441	-0.232	-0.035
-569.646	224.474	-0.096	0.158
-568.631	-188.817	0.235	0.003
-567.617	-86.459	0.175	0.055
-566.602	-200.000	0.017	-0.270
-565.588	-7.605	0.316	-0.217
-564.573	-1.909	0.299	0.213
-563.558	-175.570	-0.081	-0.002
-562.544	73.750	-0.244	-0.259
-561.529	-200.000	-0.001	0.014
-560.515	341.813	0.107	0.213
-559.500	-200.000	0.028	0.158
-558.485	-200.000	0.176	0.000
-557.471	800.000	-0.076	0.332
-556.456	-200.000	-0.023	-0.230
-555.442	26.161	-0.203	-0.171
-554.427	41.716	-0.268	-0.246
-553.412	692.960	0.062	-0.166
-552.398	-18.524	0.309	0.196
-551.383	-200.000	0.025	-0.211
-550.369	-15.266	0.167	-0.108
-549.354	366.948	0.036	0.074
-548.339	-48.417	-0.067	-0.033
-547.325	196.818	-0.213	0.329
-546.310	-42.322	0.340	0.176
-545.296	-139.203	-0.182	-0.020
-544.281	-114.011	-0.095	0.019
-543.266	109.501	-0.072	-0.088
-542.252	172.488	-0.071	0.104
-541.237	-200.000	-0.006	-0.375
-540.223	-8.035	-0.231	0.158
-539.208	106.710	0.154	-0.185
-538.193	-4.506	0.146	-0.102
-537.179	-97.073	0.199	0.053
-536.164	-34.556	0.262	0.145
-535.150	-133.572	-0.275	0.035
-534.135	90.485	0.116	-0.131
-533.121	-158.430	0.109	0.006
-532.106	-200.000	-0.013	-0.226
-531.091	55.119	-0.062	-0.061
-530.077	86.744	0.066	0.074
-529.062	136.922	-0.221	0.293
-528.048	800.000	-0.048	0.199
-527.033	-200.000	0.009	-0.123
-526.018	-138.724	0.058	-0.006
-525.004	-200.000	-0.030	0.140
-523.989	-43.638	0.170	0.087
-522.975	-176.873	-0.284	-0.007
-521.960	-163.944	-0.187	-0.009
-520.945	-200.000	-0.055	0.461
-519.931	155.325	0.096	-0.133
-518.916	-26.207	-0.146	-0.087
-517.902	-3.031	-0.336	-0.237
-516.887	44.905	0.211	-0.196
-515.872	-200.000	-0.004	-0.074
-514.858	35.156	-0.326	-0.289
-513.843	19.677	0.134	-0.109
-512.829	28.469	-0.133	-0.113
-511.814	273.586	-0.071	0.127
-510.799	-32.056	0.253	-0.143
-509.785	347.466	-0.079	-0.158
-508.770	63.232	-0.108	0.110
-507.756	-24.356	-0.075	-0.045
-506.741	-112.680	0.186	-0.037
-505.726	-200.000	0.023	0.210
-504.712	-200.000	-0.032	-0.362
-503.697	253.293	-0.064	0.110
-502.683	-2.631	0.211	-0.150
-501.668	-104.163	-0.177	-0.042
-500.653	282.867	-0.140	0.255
-499.639	497.274	-0.057	-0.133
-498.624	32.713	0.231	-0.202
-497.610	-200.000	0.015	0.096
-496.595	37.143	-0.194	0.174
-495.581	104.639	-0.236	0.281
-494.566	-200.000	-0.026	-0.230
-493.551	-103.236	0.358	-0.085
-492.537	140.801	-0.106	0.141
-491.522	-200.000	0.061	-0.345
-490.508	189.896	0.031	0.047
-489.493	-200.000	-0.087	0.421
-488.478	-23.377	0.150	-0.091
-487.464	-99.040	-0.065	0.017
-486.449	231.180	0.049	0.081
-485.435	-200.000	0.012	-0.195
-484.420	-137.621	0.195	0.022
-483.405	-134.850	0.249	-0.030
-482.391	-5.636	-0.422	-0.292
-481.376	357.102	-0.063	0.126
-480.362	-107.946	0.240	-0.053
-479.347	-200.000	-0.055	0.265
-478.332	489.235	-0.073	0.168
-477.318	31.383	0.154	-0.134
-476.303	-176.022	-0.344	-0.009
-475.289	-80.435	-0.197	0.066
-474.274	-59.399	-0.149	0.065
-473.259	-200.000	-0.036	0.198
-472.245	9.327	-0.287	0.219
-471.230	213.589	0.136	0.217
-470.216	72.177	0.235	0.247
-469.201	7.478	0.336	-0.254
-468.186	476.617	0.058	0.133
-467.172	-156.692	0.094	0.006
-466.157	448.926	-0.062	-0.139
-465.143	13.503	-0.070	-0.055
-464.128	386.070	0.130	-0.271
-463.113	40.868	-0.142	-0.130
-462.099	-71.340	0.326	-0.123
-461.084	238.541	-0.140	-0.236
-460.070	800.000	0.075	0.307
-459.055	-131.270	0.237	-0.032
-458.040	-158.134	-0.264	0.016
-457.026	513.517	0.067	-0.157
-456.011	-92.462	0.220	0.062
-454.997	-116.548	-0.110	0.020
-453.982	-69.138	0.117	-0.046
-452.968	-200.000	0.053	-0.277
-451.953	119.369	0.094	0.118
-450.938	16.205	0.171	-0.136
-449.924	2.515	-0.167	0.122
-448.909	800.000	-0.044	0.164
-447.895	-136.906	-0.102	-0.012
-446.880	-200.000	-0.012	0.183
-445.865	-122.010	-0.375	-0.062
-444.851	365.379	0.167	-0.340
-443.836	-135.013	0.516	0.063
-442.822	-200.000	0.023	-0.119
-441.807	310.747	0.137	0.260
-440.792	-94.416	-0.129	-0.036
-439.778	340.482	-0.100	0.197
-438.763	-200.000	0.002	0.046
-437.749	166.197	0.283	-0.405
-436.734	422.892	0.138	0.299
-435.719	-200.000	-0.017	0.095
-434.705	73.276	0.213	-0.225
-433.690	81.380	0.051	0.056
-432.676	287.142	0.071	-0.129
-431.661	-137.197	-0.175	0.020
-430.646	16.206	0.097	0.077
-429.632	-136.009	0.074	-0.009
-428.617	156.348	0.008	0.011
-427.603	183.576	-0.105	-0.156
-426.588	629.879	0.007	0.017
-425.573	800.000	-0.069	0.277
-424.559	62.112	-0.051	0.052
-423.544	-200.000	0.026	-0.386
-422.530	-120.011	0.104	0.018
-421.515	800.000	0.011	0.036
-420.500	105.798	0.217	0.259
-419.486	52.958	-0.246	0.237
-418.471	-85.264	-0.313	0.099
-417.457	-200.000	-0.053	-0.262
-416.442	-200.000	0.055	0.337
-415.428	-145.748	0.066	0.006
-414.413	228.714	-0.185	0.304
-413.398	-200.000	0.021	0.196
-412.384	170.501	0.030	-0.044
-411.369	114.620	-0.245	0.301
-410.355	30.638	0.233	-0.200
-409.340	-5.918	0.360	0.249
-408.325	50.960	0.132	-0.126
-407.311	106.438	-0.087	-0.104
-406.296	392.833	-0.041	0.085
-405.282	352.509	-0.054	-0.108
-404.267	-31.251	0.106	-0.060
-403.252	-38.420	-0.191	-0.102
-402.238	-68.104	0.038	0.015
-401.223	-31.406	0.465	0.264
-400.209	624.406	-0.046	-0.117
-399.194	-88.527	0.225	-0.068
-398.179	-200.000	0.009	-0.162
-397.165	-182.120	0.361	0.007
-396.150	800.000	0.091	0.270
-395.136	100.216	0.019	0.022
-394.121	257.138	-0.092	-0.160
-393.106	31.080	-0.095	0.082
-392.092	23.049	0.095	-0.078
-391.077	-88.670	-0.298	0.089
-390.063	-200.000	0.003	-0.146
-389.048	-200.000	-0.021	-0.165
-388.033	-105.040	-0.214	0.049
-387.019	-54.690	-0.076	0.034
-386.004	2.137	0.011	0.008
-384.990	800.000	0.102	0.325
-383.975	46.220	0.304	0.283
-382.960	76.721	0.179	-0.191
-381.946	-200.000	0.025	0.158
-380.931	-196.346	-0.171	-0.001
-379.917	-109.827	-0.224	-0.047
-378.902	35.715	-0.220	-0.194
-377.888	732.304	-0.060	-0.162
-376.873	250.673	0.291	0.498
-375.858	-147.309	0.196	0.017
-374.844	-57.009	-0.194	0.086
-373.829	-134.948	0.195	0.024
-372.815	-200.000	-0.012	0.194
-371.800	-139.597	-0.479	-0.051
-370.785	-90.940	0.059	-0.017
-369.771	390.404	-0.027	-0.057
-368.756	-118.790	-0.070	-0.012
-367.742	-200.000	-0.036	-0.190
-366.727	-200.000	-0.032	0.233
-365.712	-200.000	0.008	0.125
-364.698	-77.769	-0.139	0.048
-363.683	800.000	-0.125	-0.354
-362.669	-81.971	-0.062	0.021
-361.654	-59.123	-0.161	0.070
-360.639	24.971	-0.200	0.167
-359.625	800.000	0.037	-0.105
-358.610	105.783	0.363	0.431
-357.596	800.000	-0.099	-0.423
-356.581	-100.800	-0.161	0.040
-355.566	-191.890	-0.172	-0.002
-354.552	-98.463	0.075	-0.019
-353.537	24.597	-0.058	0.049
-352.523	-132.406	0.141	-0.018
-351.508	-80.617	0.054	0.018
-350.493	-145.334	0.108	0.010
-349.479	-200.000	-0.010	-0.170
-348.464	411.578	0.084	-0.179
-347.450	298.208	-0.111	0.205
-346.435	136.401	-0.166	-0.218
-345.420	206.212	-0.021	0.033
-344.406	91.679	-0.397	-0.449
-343.391	-49.940	-0.301	-0.143
-342.377	800.000	0.082	-0.230
-341.362	-130.593	-0.187	0.025
-340.348	-200.000	0.015	0.159
-339.333	-103.656	-0.200	0.047
-338.318	74.416	-0.170	0.179
-337.304	12.313	0.349	-0.270
-336.289	-88.783	0.214	-0.064
-335.275	263.982	0.081	0.141
-334.260	257.940	0.151	0.262
-333.245	-102.220	0.217	0.052
-332.231	-93.253	-0.081	0.023
-331.216	-38.865	0.168	-0.089
-330.202	-29.409	0.028	-0.016
-329.187	-74.812	0.364	0.131
-328.172	-72.562	-0.346	0.128
-327.158	-25.660	-0.101	-0.060
-326.143	-200.000	0.030	-0.152
-325.129	140.376	-0.056	0.074
-324.114	-200.000	-0.032	0.222
-323.099	0.721	0.097	0.070
-322.085	-128.350	-0.139	0.020
-321.070	152.695	-0.093	0.128
-320.056	-98.504	-0.263	-0.068
-319.041	-34.780	-0.214	0.118
-318.026	-200.000	0.015	-0.071
-317.012	631.308	-0.122	-0.310
-315.997	-200.000	-0.011	-0.227
-314.983	-200.000	-0.029	0.179
-313.968	165.684	-0.154	0.218
-312.953	172.207	-0.199	-0.287
-311.939	-200.000	-0.014	0.127
-310.924	52.911	0.071	-0.068
-309.910	-76.441	0.074	0.026
-308.895	800.000	-0.053	-0.197
-307.880	535.843	-0.107	-0.255
-306.866	-200.000	0.030	0.298
-305.851	-200.000	-0.006	-0.201
-304.837	-32.971	0.151	0.084
-303.822	4.177	0.311	-0.228
-302.807	241.586	-0.169	0.283
-301.793	771.976	0.175	-0.480
-300.778	-200.000	0.001	-0.100
-299.764	-200.000	-0.012	-0.173
-298.749	-68.908	0.138	0.054
-297.735	207.817	-0.180	-0.282
-296.720	-77.510	-0.092	0.032
-295.705	-134.312	0.313	0.039
-294.691	800.000	0.101	-0.288
-293.676	-200.000	-0.020	0.133
-292.662	69.723	0.202	-0.209
-291.647	-94.888	0.105	0.029
-290.632	800.000	-0.018	-0.054
-289.618	800.000	0.074	0.288
-288.603	496.186	-0.158	-0.364
-287.589	-117.367	0.335	0.061
-286.574	800.000	0.056	-0.192
-285.559	-111.557	-0.175	0.036
-284.545	165.631	0.074	-0.104
-283.530	-74.664	0.081	-0.029
-282.516	134.735	0.075	-0.097
-281.501	-107.054	0.257	-0.057
-280.486	86.216	0.115	-0.127
-279.472	51.884	0.133	0.127
-278.457	238.546	-0.164	0.273
-277.443	-6.414	-0.156	0.107
-276.428	-117.317	0.240	0.044
-275.413	85.136	-0.021	0.023
-274.399	111.475	-0.205	0.248
-273.384	232.402	0.033	0.054
-272.370	800.000	-0.054	0.205
-271.355	195.666	-0.196	-0.299
-270.340	5.023	-0.360	-0.266
-269.326	-183.036	-0.334	0.006
-268.311	97.379	-0.158	0.181
-267.297	399.542	-0.021	0.044
-266.282	-112.342	-0.587	0.118
-265.267	-70.825	-0.256	0.097
-264.253	-48.360	-0.158	0.076
-263.238	-121.849	-0.094	-0.016
-262.224	800.000	-0.055	0.168
-261.209	-61.103	-0.273	0.115
-260.195	-126.815	0.062	-0.009
-259.180	198.698	0.082	0.126
-258.165	114.257	-0.089	-0.109
-257.151	-84.427	-0.150	0.047
-256.136	10.466	0.268	-0.205
-255.122	-163.805	-0.086	0.004
-254.107	-33.950	0.321	0.177
-253.092	-17.539	-0.188	-0.118
-252.078	-86.347	-0.100	0.031
-251.063	265.597	0.070	0.123
-250.049	-55.645	0.311	0.139
-249.034	-65.130	0.326	-0.132
-248.019	434.250	-0.180	-0.392
-247.005	60.446	-0.052	-0.051
-245.990	-145.125	-0.247	0.023
-244.976	-41.578	-0.171	-0.088
-243.961	-38.432	-0.079	0.042
-242.946	213.696	0.092	-0.145
-241.932	-200.000	0.015	0.223
-240.917	509.489	0.038	0.088
-239.903	-166.816	-0.268	-0.011
-238.888	784.393	0.040	0.110
-237.873	-57.897	-0.115	-0.050
-236.859	800.000	-0.115	0.378
-235.844	-71.569	-0.297	0.111
-234.830	0.391	0.291	0.208
-233.815	-103.452	-0.329	0.077
-232.800	-91.298	0.247	-0.071
-231.786	-4.840	-0.153	0.105
-230.771	-200.000	0.024	-0.122
-229.757	-112.694	0.391	-0.078
-228.742	-149.958	-0.247	0.019
-227.727	452.741	0.081	0.179
-226.713	142.673	-0.067	0.089
-225.698	96.024	-0.167	0.191
-224.684	800.000	-0.049	-0.184
-223.669	-200.000	-0.068	0.338
-222.655	-185.178	-0.181	-0.003
-221.640	-81.650	-0.276	-0.091
-220.625	-200.000	-0.006	0.105
-219.611	799.642	-0.051	-0.141
-218.596	16.025	0.070	-0.055
-217.582	-85.556	-0.078	0.024
-216.567	-200.000	-0.018	-0.085
-215.552	-89.546	0.198	0.058
-214.538	-200.000	0.051	-0.297
-213.523	48.465	-0.059	-0.055
-212.509	103.084	-0.182	-0.213
-211.494	463.269	0.101	-0.226
-210.479	353.478	0.058	0.115
-209.465	125.986	0.057	-0.072
-208.450	-44.854	0.470	-0.234
-207.436	211.241	0.056	-0.088
-206.421	133.358	0.132	-0.171
-205.406	712.850	0.153	-0.404
-204.392	63.425	0.102	-0.103
-203.377	-152.352	0.183	0.013
-202.363	-160.969	-0.333	-0.018
-201.348	221.333	0.078	0.126
-200.333	-6.917	-0.129	0.087
-199.319	-200.000	0.017	0.159
-198.304	423.583	0.096	0.207
-197.290	131.249	-0.157	-0.201
-196.275	-134.517	0.192	-0.023
-195.260	196.336	0.059	0.090
-194.246	-133.921	-0.119	0.015
-193.231	26.165	0.158	-0.131
-192.217	17.084	-0.034	-0.027
-191.202	-200.000	0.010	0.550
-190.187	-125.024	0.135	-0.021
-189.173	-18.909	0.126	-0.078
-188.158	-200.000	0.086	-0.394
-187.144	173.286	-0.112	-0.162
-186.129	26.206	0.209	0.175
-185.114	-97.188	-0.184	0.048
-184.100	-24.539	0.127	0.076
-183.085	19.367	0.134	0.107
-182.071	-31.073	0.105	0.059
-181.056	-200.000	0.042	-0.246
-180.042	-63.206	0.182	-0.075
-179.027	220.129	0.075	-0.121
-178.012	-80.716	0.232	-0.077
-176.998	273.190	-0.122	0.215
-175.983	-185.328	-0.202	-0.003
-174.969	-123.062	0.160	0.026
-173.954	-200.000	0.014	-0.087
-172.939	-57.177	0.147	-0.065
-171.925	-127.545	0.220	0.032
-170.910	800.000	0.021	-0.070
-169.896	800.000	0.065	-0.251
-168.881	95.208	-0.058	-0.066
-167.866	57.596	-0.127	0.124
-166.852	800.000	0.070	0.237
-165.837	-168.485	-0.160	0.006
-164.823	-61.908	0.072	0.030
-163.808	40.601	0.156	-0.141
-162.793	376.980	0.134	-0.274
-161.779	-141.401	0.188	0.019
-160.764	-56.266	0.127	-0.056
-159.750	-26.368	-0.104	-0.061
-158.735	-94.512	0.284	-0.077
-157.720	123.254	-0.170	0.212
-156.706	111.840	0.201	0.242
-155.691	-149.435	0.251	0.020
-154.677	-70.251	-0.422	-0.160
-153.662	345.319	-0.065	0.128
-152.647	-29.430	-0.199	0.114
-151.633	50.438	-0.211	0.199
-150.618	-200.000	-0.002	-0.254
-149.604	-110.756	0.048	0.010
-148.589	-200.000	-0.021	0.157
-147.574	-200.000	-0.034	0.358
-146.560	-200.000	0.007	0.182
-145.545	-13.096	-0.043	-0.028
-144.531	375.898	0.064	-0.130
-143.516	-133.467	-0.129	-0.016
-142.502	530.165	-0.063	-0.147
-141.487	-136.668	0.147	-0.017
-140.472	-200.000	0.049	-0.239
-139.458	64.533	-0.324	-0.325
-138.443	43.596	-0.102	-0.093
-137.429	-32.527	-0.126	0.070
-136.414	233.553	0.133	0.218
-135.399	121.662	-0.029	0.036
-134.385	-200.000	0.029	-0.186
-133.370	800.000	-0.046	-0.187
-132.356	-101.074	0.108	-0.026
-131.341	533.400	-0.041	0.096
-130.326	-6.804	0.063	0.043
-129.312	-53.524	-0.144	-0.065
-128.297	-38.824	-0.079	-0.042
-127.283	-38.460	-0.137	-0.072
-126.268	99.477	0.085	-0.097
-125.253	475.498	-0.094	-0.212
-124.239	147.982	0.331	-0.444
-123.224	80.196	0.045	0.049
-122.210	-171.413	0.274	-0.009
