DTS Sentinel unit serial number:	SN413079Multiplexer serial number:	ORYXHardware model number:	OX4-SRSoftware version number:	ORYX F/W v4.00 Oryx Data Collector v3.7.2.0data status	okinstallation	princeton_trtdifferential loss correction	single-endedforward channel	channel 1reverse channel	N/Adate	2019/09/15time	16:50:35forward acquisition time	60.00reverse acquisition time	0.00gamma	496.2192k internal	0.2292k external	0.2292temperature offset calibration	0.9932default loss term (dB/km)	0.3790temperature slope calibration	1.0000multiplexer offset coefficient	1.0000multiplexer slope coefficient	1.0000fibre end	0.00T internal ref (°C)	44.31T ext. ref 1 (°C)	5.77T ext. ref 2 (°C)	40.34length (m)	temperature (°C)	Stokes	anti-Stokes-747.200	-108.431	0.252	0.056
-746.185	780.918	0.173	0.483
-745.171	-67.858	0.080	-0.032
-744.156	-200.000	0.014	-0.075
-743.142	487.034	0.077	0.179
-742.127	134.951	0.124	0.164
-741.112	463.830	0.060	0.136
-740.098	-86.095	0.308	0.097
-739.083	-200.000	-0.010	0.088
-738.069	-63.955	-0.339	0.142
-737.054	-78.654	0.295	-0.103
-736.039	628.559	-0.107	0.277
-735.025	121.316	0.211	-0.269
-734.010	-17.950	-0.368	-0.236
-732.996	-37.125	-0.130	0.071
-731.981	5.183	0.098	0.074
-730.966	605.297	-0.010	0.025
-729.952	-200.000	0.029	0.178
-728.937	259.062	0.138	-0.244
-727.923	-145.681	-0.256	0.023
-726.908	800.000	0.141	-0.464
-725.894	-35.942	-0.179	-0.099
-724.879	-113.778	0.126	-0.025
-723.864	182.510	-0.001	-0.002
-722.850	-200.000	-0.029	0.195
-721.835	800.000	-0.076	-0.271
-720.821	-200.000	0.021	0.114
-719.806	-200.000	0.018	-0.085
-718.791	-112.867	-0.039	-0.008
-717.777	-200.000	-0.043	-0.330
-716.762	-30.238	0.341	-0.198
-715.748	-33.613	0.027	0.015
-714.733	-200.000	0.018	-0.087
-713.718	47.889	-0.302	-0.288
-712.704	-132.701	-0.273	-0.036
-711.689	800.000	-0.050	-0.151
-710.675	66.983	-0.061	0.063
-709.660	519.255	0.037	0.089
-708.645	-73.981	-0.343	0.127
-707.631	82.283	-0.112	0.124
-706.616	297.784	-0.019	0.036
-705.602	-75.828	0.067	0.024
-704.587	60.219	0.177	0.179
-703.572	-165.698	-0.375	0.017
-702.558	-13.192	0.339	-0.225
-701.543	-159.264	0.122	-0.007
-700.529	179.558	0.146	-0.219
-699.514	676.380	-0.036	0.095
-698.499	178.667	0.029	0.044
-697.485	17.317	-0.159	0.129
-696.470	157.077	0.108	0.152
-695.456	-15.266	-0.169	-0.111
-694.441	207.986	-0.162	0.258
-693.426	-122.634	-0.457	-0.076
-692.412	247.827	0.080	0.139
-691.397	-21.689	0.047	0.029
-690.383	122.641	-0.142	0.181
-689.368	800.000	0.086	0.257
-688.354	181.414	0.119	-0.179
-687.339	-25.963	-0.205	-0.123
-686.324	173.276	-0.266	-0.391
-685.310	127.077	0.214	-0.277
-684.295	124.045	0.102	-0.131
-683.281	79.113	-0.226	0.247
-682.266	-133.192	-0.152	0.020
-681.251	424.735	0.147	-0.322
-680.237	216.367	-0.042	-0.068
-679.222	-116.705	-0.163	-0.031
-678.208	-195.605	-0.128	0.001
-677.193	800.000	0.036	0.134
-676.178	-200.000	0.021	0.127
-675.164	16.540	0.141	-0.114
-674.149	-46.403	-0.521	-0.261
-673.135	89.587	-0.241	-0.275
-672.120	-11.698	-0.012	-0.008
-671.105	-97.730	0.202	0.053
-670.091	-84.915	-0.308	-0.099
-669.076	800.000	-0.072	0.234
-668.062	-1.302	-0.243	0.175
-667.047	76.507	-0.064	-0.070
-666.032	-116.700	-0.146	0.027
-665.018	45.383	0.132	-0.124
-664.003	75.472	-0.090	0.097
-662.989	78.989	-0.180	0.196
-661.974	-200.000	0.047	0.299
-660.959	127.510	0.084	0.108
-659.945	255.619	-0.223	-0.389
-658.930	800.000	-0.052	0.162
-657.916	-21.292	-0.140	0.087
-656.901	-200.000	0.076	0.359
-655.886	-38.728	0.304	-0.164
-654.872	-23.895	-0.133	0.081
-653.857	0.034	-0.107	-0.078
-652.843	-49.466	-0.282	0.137
-651.828	-102.790	0.160	-0.039
-650.814	15.710	0.195	0.157
-649.799	-1.576	-0.169	0.122
-648.784	-93.989	0.277	0.078
-647.770	-10.885	0.119	-0.080
-646.755	432.071	0.081	0.180
-645.741	-142.955	-0.258	-0.025
-644.726	262.938	0.213	0.377
-643.711	-200.000	-0.009	0.355
-642.697	-23.808	0.375	-0.229
-641.682	-200.000	0.031	-0.157
-640.668	75.368	-0.087	-0.094
-639.653	124.952	0.084	-0.108
-638.638	6.298	-0.078	-0.059
-637.624	-64.792	0.096	-0.039
-636.609	-97.837	-0.443	-0.117
-635.595	780.638	0.060	0.167
-634.580	247.923	0.089	0.154
-633.565	229.986	-0.124	-0.206
-632.551	38.225	0.138	-0.125
-631.536	-95.570	-0.196	-0.054
-630.522	800.000	-0.042	-0.175
-629.507	-200.000	0.017	-0.201
-628.492	-87.985	0.290	0.089
-627.478	89.762	-0.105	0.119
-626.463	662.888	-0.125	-0.328
-625.449	205.945	0.129	-0.204
-624.434	331.812	0.098	0.193
-623.419	800.000	-0.063	-0.183
-622.405	458.538	0.100	0.227
-621.390	-150.008	0.180	0.014
-620.376	-200.000	0.021	0.185
-619.361	800.000	0.063	0.214
-618.346	-142.231	0.125	0.013
-617.332	-28.903	-0.049	0.029
-616.317	55.737	-0.144	-0.142
-615.303	-200.000	-0.020	-0.186
-614.288	113.509	-0.188	-0.232
-613.273	730.082	0.095	0.260
-612.259	206.909	0.135	-0.214
-611.244	-129.233	0.214	-0.030
-610.230	151.150	0.098	-0.136
-609.215	99.539	0.112	0.132
-608.201	346.073	-0.083	0.166
-607.186	-39.503	-0.391	0.209
-606.171	-102.851	-0.084	0.020
-605.157	96.423	0.148	0.172
-604.142	175.723	-0.099	0.146
-603.128	-200.000	-0.289	-0.001
-602.113	-200.000	0.002	-0.100
-601.098	-94.998	0.244	-0.067
-600.084	-110.351	-0.129	-0.027
-599.069	-200.000	-0.013	-0.159
-598.055	800.000	-0.066	0.207
-597.040	-146.459	0.050	-0.004
-596.025	-200.000	-0.013	-0.088
-595.011	-70.483	-0.301	-0.116
-593.996	544.226	0.063	0.153
-592.982	-149.342	-0.124	-0.010
-591.967	-39.711	0.065	0.035
-590.952	-54.549	0.075	0.035
-589.938	-31.869	0.097	0.055
-588.923	83.491	0.116	0.128
-587.909	-92.599	-0.215	0.061
-586.894	52.473	-0.098	0.095
-585.879	52.177	0.162	-0.157
-584.865	667.771	-0.061	0.161
-583.850	551.280	0.044	0.107
-582.836	28.474	0.125	0.108
-581.821	-72.187	0.082	0.031
-580.806	-33.501	0.125	0.070
-579.792	-65.212	-0.296	0.121
-578.777	-60.989	-0.069	-0.030
-577.763	-200.000	0.019	-0.135
-576.748	18.970	0.212	0.173
-575.733	-172.401	0.348	0.011
-574.719	26.967	0.259	0.221
-573.704	800.000	0.032	0.138
-572.690	-50.812	0.163	0.078
-571.675	-119.749	0.239	0.042
-570.661	42.042	-0.108	0.100
-569.646	161.129	0.041	-0.059
-568.631	-125.946	-0.243	-0.037
-567.617	-200.000	-0.003	0.388
-566.602	49.493	-0.247	-0.237
-565.588	-19.379	0.325	-0.205
-564.573	-131.188	0.179	-0.024
-563.558	69.319	0.264	0.276
-562.544	800.000	-0.052	0.205
-561.529	288.384	-0.072	0.132
-560.515	-200.000	-0.061	-0.322
-559.500	-44.524	0.049	-0.025
-558.485	272.393	0.170	-0.306
-557.471	-200.000	0.017	-0.186
-556.456	-153.896	0.275	0.019
-555.442	-200.000	0.005	-0.156
-554.427	300.317	0.031	0.059
-553.412	-114.231	-0.139	0.027
-552.398	225.228	-0.080	0.131
-551.383	633.081	0.065	-0.168
-550.369	19.853	-0.232	-0.190
-549.354	-200.000	0.005	-0.025
-548.339	-200.000	0.018	0.190
-547.325	-63.350	-0.199	-0.083
-546.310	800.000	0.046	0.193
-545.296	-35.487	-0.073	-0.040
-544.281	-26.080	0.189	0.113
-543.266	658.344	-0.119	0.310
-542.252	-200.000	0.057	-0.352
-541.237	-11.787	-0.140	0.094
-540.223	-11.534	-0.139	-0.093
-539.208	-12.786	-0.203	-0.134
-538.193	131.261	0.100	-0.130
-537.179	-88.134	0.082	0.025
-536.164	-200.000	-0.019	0.288
-535.150	-120.088	-0.137	-0.024
-534.135	-127.970	-0.081	0.012
-533.121	79.759	0.176	-0.192
-532.106	-200.000	-0.030	-0.181
-531.091	800.000	0.041	0.147
-530.077	-5.796	0.211	0.146
-529.062	-88.896	0.175	-0.053
-528.048	33.073	-0.197	-0.174
-527.033	183.561	-0.022	-0.034
-526.018	632.778	-0.123	-0.317
-525.004	206.469	-0.089	-0.141
-523.989	80.214	0.126	0.137
-522.975	800.000	-0.054	0.156
-521.960	-200.000	0.001	0.134
-520.945	547.690	0.030	0.073
-519.931	-180.395	-0.215	-0.005
-518.916	281.218	0.088	-0.160
-517.902	282.591	-0.057	-0.103
-516.887	-50.682	-0.406	0.194
-515.872	-168.850	0.044	0.002
-514.858	-53.012	-0.254	0.119
-513.843	-153.152	-0.101	-0.007
-512.829	-125.777	-0.197	0.030
-511.814	800.000	-0.060	0.170
-510.799	-32.742	0.285	-0.161
-509.785	-103.142	0.107	0.026
-508.770	143.700	-0.133	-0.180
-507.756	-117.324	0.303	-0.056
-506.741	-91.553	-0.110	-0.032
-505.726	-19.733	0.082	-0.051
-504.712	-139.228	-0.247	0.027
-503.697	68.630	0.121	0.126
-502.683	800.000	-0.057	0.183
-501.668	-200.000	-0.066	-0.344
-500.653	-78.361	-0.272	0.095
-499.639	401.480	0.036	-0.077
-498.624	-180.446	0.471	0.010
-497.610	64.134	-0.149	-0.152
-496.595	-78.432	0.123	0.043
-495.581	19.441	-0.278	0.227
-494.566	-200.000	0.001	0.103
-493.551	-59.472	-0.469	-0.204
-492.537	-128.532	0.126	0.018
-491.522	800.000	0.034	-0.140
-490.508	-33.760	0.208	-0.116
-489.493	-165.660	0.036	-0.002
-488.478	343.132	-0.098	0.194
-487.464	-94.021	-0.030	-0.008
-486.449	-91.209	-0.286	-0.083
-485.435	-200.000	0.006	0.032
-484.420	244.058	-0.140	0.238
-483.405	-47.384	-0.150	-0.074
-482.391	334.204	0.060	0.117
-481.376	-43.934	0.362	0.185
-480.362	191.416	0.107	0.164
-479.347	594.739	-0.092	0.231
-478.332	800.000	-0.080	0.236
-477.318	86.913	-0.090	-0.101
-476.303	800.000	-0.026	0.087
-475.289	80.691	-0.168	-0.184
-474.274	38.928	0.108	-0.097
-473.259	209.548	-0.161	0.256
-472.245	-119.631	-0.207	-0.036
-471.230	800.000	0.114	0.365
-470.216	12.206	0.383	0.299
-469.201	736.799	-0.033	0.090
-468.186	-104.236	-0.057	0.013
-467.172	-167.008	0.339	0.014
-466.157	-200.000	-0.014	0.187
-465.143	776.446	-0.037	-0.103
-464.128	-30.193	-0.183	0.105
-463.113	32.181	-0.040	-0.035
-462.099	-200.000	-0.010	0.130
-461.084	-200.000	0.002	0.085
-460.070	-141.128	-0.178	-0.018
-459.055	-109.766	-0.197	-0.042
-458.040	632.970	-0.115	0.294
-457.026	195.147	0.220	0.339
-456.011	-24.379	0.192	0.116
-454.997	-168.969	-0.210	-0.008
-453.982	67.144	-0.117	0.120
-452.968	104.444	0.102	0.122
-451.953	-200.000	-0.011	0.220
-450.938	800.000	0.011	-0.047
-449.924	-75.855	-0.039	-0.014
-448.909	-74.380	-0.316	0.115
-447.895	-200.000	-0.054	0.266
-446.880	-18.070	-0.066	0.042
-445.865	-54.231	0.166	-0.076
-444.851	-21.488	-0.154	0.095
-443.836	-16.795	-0.231	-0.148
-442.822	-141.162	0.344	0.036
-441.807	-119.226	-0.085	0.015
-440.792	158.976	0.120	0.168
-439.778	-144.370	0.318	-0.030
-438.763	381.439	-0.084	0.175
-437.749	800.000	-0.090	-0.360
-436.734	401.805	-0.127	0.270
-435.719	142.691	0.063	-0.084
-434.705	-113.657	-0.370	0.073
-433.690	-200.000	0.002	0.457
-432.676	7.339	-0.096	-0.073
-431.661	341.050	-0.119	0.235
-430.646	-32.848	0.323	0.182
-429.632	-104.189	-0.384	-0.090
-428.617	699.795	-0.069	-0.185
-427.603	185.961	-0.046	0.070
-426.588	8.024	0.105	0.080
-425.573	530.153	0.020	0.047
-424.559	47.051	0.139	-0.131
-423.544	-26.997	0.235	-0.138
-422.530	74.411	0.203	-0.215
-421.515	429.086	-0.169	-0.370
-420.500	800.000	0.067	-0.256
-419.486	-200.000	-0.033	0.159
-418.471	-9.154	-0.170	-0.115
-417.457	-192.873	0.021	-0.000
-416.442	-200.000	0.057	-0.373
-415.428	-114.031	0.119	-0.023
-414.413	36.397	0.136	-0.122
-413.398	-104.752	0.140	-0.033
-412.384	69.925	0.073	0.076
-411.369	545.482	-0.086	-0.207
-410.355	-81.925	-0.254	-0.084
-409.340	-187.846	0.229	-0.003
-408.325	301.840	0.209	0.391
-407.311	196.427	0.125	0.192
-406.296	170.812	-0.044	-0.064
-405.282	-135.748	0.153	-0.018
-404.267	-144.727	0.241	-0.022
-403.252	42.487	-0.107	-0.098
-402.238	-24.669	-0.105	-0.063
-401.223	437.686	-0.026	0.057
-400.209	-81.418	-0.115	-0.038
-399.194	-126.768	-0.447	0.067
-398.179	232.263	-0.064	-0.106
-397.165	-169.454	0.332	0.012
-396.150	-200.000	0.014	0.075
-395.136	-200.000	0.056	0.379
-394.121	-200.000	0.025	-0.160
-393.106	-200.000	0.021	-0.265
-392.092	800.000	0.096	-0.359
-391.077	217.751	0.151	-0.243
-390.063	800.000	-0.060	-0.236
-389.048	-200.000	-0.009	-0.081
-388.033	-80.373	0.332	0.112
-387.019	-132.264	0.337	0.044
-386.004	-13.523	-0.130	-0.085
-384.990	180.503	-0.091	0.135
-383.975	53.755	0.318	-0.309
-382.960	614.205	0.121	-0.306
-381.946	181.807	0.192	0.285
-380.931	130.531	-0.068	-0.087
-379.917	90.106	-0.143	-0.161
-378.902	-151.645	-0.330	-0.025
-377.888	52.061	-0.188	-0.181
-376.873	-28.585	0.195	-0.113
-375.858	52.814	0.189	-0.182
-374.844	-109.967	-0.207	0.044
-373.829	-102.170	-0.325	0.079
-372.815	800.000	-0.019	0.060
-371.800	-200.000	-0.030	0.273
-370.785	189.742	-0.080	-0.121
-369.771	-72.750	-0.164	0.061
-368.756	288.860	-0.126	0.230
-367.742	82.976	0.271	-0.297
-366.727	-127.241	-0.043	0.006
-365.712	800.000	0.063	-0.179
-364.698	-200.000	0.078	-0.449
-363.683	-200.000	0.009	0.454
-362.669	63.636	-0.082	0.083
-361.654	265.717	0.086	-0.151
-360.639	-76.392	0.122	-0.043
-359.625	-200.000	0.002	-0.267
-358.610	-20.661	0.169	0.104
-357.596	-50.676	0.258	-0.122
-356.581	16.516	0.105	0.084
-355.566	-123.426	0.337	0.054
-354.552	-144.704	0.084	0.008
-353.537	295.273	0.147	-0.271
-352.523	-200.000	-0.063	-0.323
-351.508	-102.630	-0.276	0.066
-350.493	-177.706	0.309	0.008
-349.479	-82.396	0.149	0.049
-348.464	-9.602	0.089	-0.060
-347.450	-200.000	0.007	0.282
-346.435	800.000	0.078	-0.288
-345.420	-200.000	-0.008	-0.299
-344.406	800.000	-0.056	0.227
-343.391	196.960	-0.167	0.257
-342.377	-38.789	0.152	0.081
-341.362	106.930	-0.241	-0.288
-340.348	-200.000	-0.042	-0.333
-339.333	15.290	-0.054	-0.043
-338.318	145.674	-0.095	0.128
-337.304	221.173	-0.159	-0.258
-336.289	-200.000	0.021	-0.390
-335.275	-132.799	-0.038	-0.005
-334.260	-95.384	-0.099	0.027
-333.245	83.422	0.216	0.237
-332.231	-200.000	-0.055	-0.383
-331.216	-106.539	-0.118	0.026
-330.202	-200.000	-0.033	0.177
-329.187	214.437	-0.093	-0.148
-328.172	-56.709	-0.058	-0.026
-327.158	378.285	-0.127	0.262
-326.143	-88.988	-0.240	0.072
-325.129	113.420	0.315	-0.385
-324.114	26.944	-0.162	0.137
-323.099	800.000	-0.029	-0.097
-322.085	-200.000	-0.005	-0.107
-321.070	-10.626	0.130	0.087
-320.056	-73.705	0.076	0.028
-319.041	-123.600	-0.112	0.018
-318.026	43.455	0.178	-0.164
-317.012	-160.467	0.141	0.008
-315.997	-158.400	-0.269	0.016
-314.983	-200.000	-0.054	0.292
-313.968	-200.000	0.010	0.057
-312.953	-95.336	-0.118	-0.032
-311.939	-114.041	0.318	-0.062
-310.924	636.644	-0.027	0.069
-309.910	-20.233	-0.275	0.170
-308.895	800.000	0.073	-0.238
-307.880	117.911	0.246	-0.305
-306.866	-17.941	0.233	0.147
-305.851	668.861	-0.066	-0.173
-304.837	-106.378	0.214	-0.048
-303.822	-200.000	-0.019	0.195
-302.807	-34.919	0.316	0.174
-301.793	-200.000	0.046	-0.252
-300.778	-0.568	0.303	-0.216
-299.764	-68.524	0.163	-0.064
-298.749	-72.314	0.343	0.128
-297.735	42.912	-0.192	-0.176
-296.720	229.907	-0.068	-0.111
-295.705	-85.102	-0.080	-0.025
-294.691	51.387	0.063	-0.060
-293.676	315.445	-0.074	-0.140
-292.662	135.108	-0.058	0.075
-291.647	475.034	0.089	0.201
-290.632	-116.780	0.099	0.018
-289.618	2.989	-0.161	-0.117
-288.603	177.439	0.040	0.058
-287.589	-39.604	0.173	-0.091
-286.574	-92.541	0.112	-0.032
-285.559	101.042	-0.263	-0.308
-284.545	520.675	0.129	0.304
-283.530	29.772	-0.225	-0.192
-282.516	-200.000	-0.037	-0.206
-281.501	-13.279	0.121	-0.079
-280.486	23.012	0.204	-0.168
-279.472	-200.000	-0.052	0.297
-278.457	-200.000	0.004	-0.032
-277.443	-94.476	-0.111	0.031
-276.428	-200.000	-0.016	-0.283
-275.413	800.000	0.032	-0.124
-274.399	-200.000	0.021	-0.114
-273.384	47.880	0.096	0.090
-272.370	-200.000	-0.011	-0.157
-271.355	-27.946	-0.563	0.328
-270.340	800.000	-0.051	0.145
-269.326	-200.000	0.049	0.257
-268.311	-31.641	0.204	0.115
-267.297	39.692	-0.070	-0.063
-266.282	235.004	0.190	0.314
-265.267	-200.000	0.247	-0.001
-264.253	-200.000	-0.028	0.441
-263.238	-108.444	0.375	0.081
-262.224	-172.821	0.353	0.011
-261.209	-29.202	-0.199	0.114
-260.195	98.965	0.148	0.171
-259.180	-154.417	-0.123	0.008
-258.165	-138.294	-0.217	0.024
-257.151	-153.878	0.295	-0.020
-256.136	35.108	-0.077	0.067
-255.122	-142.345	-0.158	-0.016
-254.107	144.529	-0.184	0.247
-253.092	335.485	-0.109	0.212
-252.078	165.131	0.079	-0.112
-251.063	-200.000	0.027	0.205
-250.049	210.565	-0.080	0.127
-249.034	-118.702	-0.228	0.040
-248.019	-200.000	-0.012	0.124
-247.005	108.729	0.224	-0.269
-245.990	-25.594	-0.139	0.082
-244.976	79.597	-0.112	-0.121
-243.961	191.494	-0.170	-0.256
-242.946	-2.085	0.218	-0.154
-241.932	-136.216	-0.265	0.031
-240.917	60.794	-0.157	0.156
-239.903	76.213	0.280	0.297
-238.888	-79.487	-0.068	-0.023
-237.873	-181.089	-0.093	-0.002
-236.859	-65.322	-0.091	-0.037
-235.844	-200.000	-0.015	0.147
-234.830	-200.000	0.025	-0.320
-233.815	142.311	-0.032	-0.043
-232.800	-81.889	-0.218	-0.071
-231.786	-200.000	0.021	0.334
-230.771	-146.060	0.104	-0.009
-229.757	-52.896	-0.356	-0.164
-228.742	-200.000	-0.039	-0.272
-227.727	-2.697	0.285	-0.200
-226.713	800.000	-0.062	-0.221
-225.698	69.636	-0.097	0.101
-224.684	585.841	-0.207	0.511
-223.669	-200.000	-0.029	-0.374
-222.655	122.898	0.130	0.163
-221.640	-4.011	-0.106	0.074
-220.625	260.653	-0.091	0.157
-219.611	-152.813	-0.521	0.037
-218.596	-145.043	0.129	-0.012
-217.582	-166.710	-0.117	-0.005
-216.567	57.892	-0.116	-0.114
-215.552	656.299	-0.039	0.099
-214.538	-75.736	0.395	0.141
-213.523	-153.077	0.254	-0.018
-212.509	-200.000	0.085	-0.389
-211.494	-200.000	-0.003	0.329
-210.479	60.568	0.209	-0.208
-209.465	-200.000	-0.064	-0.356
-208.450	-17.034	-0.281	0.178
-207.436	-86.862	-0.085	-0.026
-206.421	-16.965	0.151	-0.096
-205.406	800.000	-0.053	-0.182
-204.392	-200.000	0.034	-0.174
-203.377	-135.267	-0.223	-0.027
-202.363	-200.000	-0.031	0.189
-201.348	194.496	0.149	0.226
-200.333	-127.703	-0.141	0.020
-199.319	81.023	-0.351	0.380
-198.304	-200.000	-0.001	0.129
-197.290	800.000	-0.064	-0.210
-196.275	722.568	-0.042	-0.113
-195.260	800.000	0.067	0.185
-194.246	187.604	0.096	0.144
-193.231	-200.000	-0.016	0.145
-192.217	-200.000	0.042	0.204
-191.202	-133.947	0.333	-0.041
-190.187	-148.856	0.382	-0.031
-189.173	-37.553	0.139	-0.074
-188.158	-200.000	-0.038	-0.322
-187.144	-75.577	0.162	-0.058
-186.129	-166.955	-0.131	-0.005
-185.114	-54.009	-0.282	-0.128
-184.100	-149.077	0.071	-0.006
-183.085	-200.000	-0.011	0.070
-182.071	-45.768	0.253	-0.125
-181.056	-200.000	-0.032	-0.178
-180.042	-200.000	0.007	-0.033
-179.027	85.435	-0.182	0.200
-178.012	-200.000	-0.069	-0.338
-176.998	-70.601	0.038	-0.014
-175.983	676.613	-0.038	-0.098
-174.969	-42.748	0.215	0.110
-173.954	202.715	-0.068	0.105
-172.939	-47.015	-0.176	0.086
-171.925	800.000	-0.059	-0.250
-170.910	-23.059	0.211	-0.127
-169.896	-47.414	-0.177	0.086
-168.881	-130.026	-0.179	0.025
-167.866	141.827	-0.257	0.342
-166.852	-89.598	-0.389	-0.114
-165.837	181.085	-0.060	-0.089
-164.823	-93.000	-0.314	-0.088
-163.808	-41.300	0.048	0.025
-162.793	800.000	0.163	-0.548
-161.779	800.000	0.081	-0.235
-160.764	55.524	0.219	0.212
-159.750	800.000	-0.062	0.213
-158.735	-149.405	-0.380	-0.030
-157.720	-107.992	0.202	-0.044
-156.706	375.772	0.020	0.040
-155.691	-108.012	0.075	0.016
-154.677	-200.000	-0.015	-0.099
-153.662	-166.753	0.243	0.010
-152.647	-103.037	-0.144	-0.034
-151.633	220.212	-0.103	0.165
-150.618	272.958	-0.082	0.145
-149.604	-76.196	-0.296	-0.104
-148.589	111.558	-0.061	0.074
-147.574	-59.410	0.116	0.050
-146.560	174.197	0.044	-0.063
-145.545	-57.632	0.268	0.117
-144.531	-39.899	0.217	0.113
-143.516	-87.064	-0.344	-0.105
-142.502	-167.251	-0.138	-0.006
-141.487	443.130	-0.109	0.238
-140.472	800.000	0.042	-0.144
-139.458	800.000	-0.038	0.106
-138.443	362.388	0.220	0.441
-137.429	-200.000	0.050	0.237
-136.414	-200.000	0.057	-0.375
-135.399	-200.000	-0.016	-0.161
-134.385	15.424	-0.025	0.020
-133.370	800.000	0.071	-0.200
-132.356	-41.254	-0.168	-0.087
-131.341	-200.000	-0.035	-0.237
-130.326	29.859	0.090	0.077
-129.312	83.524	0.052	0.057
-128.297	-148.722	-0.201	-0.016
-127.283	-138.894	0.065	-0.007
-126.268	-30.267	-0.321	-0.182
-125.253	-104.309	0.209	0.049
-124.239	-200.000	-0.008	-0.051
-123.224	-102.654	0.137	-0.033
