DTS Sentinel unit serial number:	SN413079Multiplexer serial number:	ORYXHardware model number:	OX4-SRSoftware version number:	ORYX F/W v4.00 Oryx Data Collector v3.7.2.0data status	okinstallation	princeton_trtdifferential loss correction	single-endedforward channel	channel 1reverse channel	N/Adate	2019/09/13time	08:14:35forward acquisition time	60.00reverse acquisition time	0.00gamma	496.2192k internal	0.2330k external	0.2330temperature offset calibration	1.0163default loss term (dB/km)	0.3790temperature slope calibration	1.0000multiplexer offset coefficient	1.0000multiplexer slope coefficient	1.0000fibre end	0.00T internal ref (°C)	27.14T ext. ref 1 (°C)	4.27T ext. ref 2 (°C)	23.08length (m)	temperature (°C)	Stokes	anti-Stokes-747.200	228.108	-0.139	-0.227
-746.185	151.480	-0.159	-0.218
-745.171	-60.560	0.068	0.029
-744.156	-171.650	-0.214	-0.007
-743.142	-138.807	0.273	0.030
-742.127	663.327	-0.155	0.402
-741.112	-47.175	0.392	-0.192
-740.098	-9.522	0.113	0.076
-739.083	-45.040	0.171	-0.086
-738.069	41.378	-0.212	-0.193
-737.054	-158.382	-0.267	0.016
-736.039	-38.303	-0.245	-0.130
-735.025	94.496	0.090	-0.103
-734.010	-22.755	-0.151	0.091
-732.996	-106.449	0.421	-0.095
-731.981	-200.000	-0.043	0.228
-730.966	800.000	-0.085	0.316
-729.952	-87.988	-0.246	-0.074
-728.937	26.250	0.116	0.097
-727.923	-109.866	-0.363	-0.077
-726.908	-45.059	0.243	0.122
-725.894	-73.379	-0.576	-0.212
-724.879	147.894	-0.045	0.062
-723.864	-200.000	0.017	-0.189
-722.850	-74.943	-0.200	0.072
-721.835	159.095	-0.166	-0.233
-720.821	32.882	-0.077	-0.067
-719.806	-101.574	0.157	0.038
-718.791	-145.501	-0.173	-0.016
-717.777	143.816	0.178	-0.238
-716.762	-78.784	0.121	0.042
-715.748	-200.000	-0.044	-0.235
-714.733	53.112	0.156	0.150
-713.718	-49.646	0.110	0.053
-712.704	-182.546	-0.145	0.003
-711.689	202.627	0.078	-0.121
-710.675	-176.066	-0.436	-0.012
-709.660	200.582	0.049	-0.076
-708.645	-159.159	0.550	-0.031
-707.631	-85.977	-0.331	-0.103
-706.616	-132.287	-0.135	-0.018
-705.602	318.430	-0.052	-0.099
-704.587	67.206	-0.066	0.067
-703.572	-200.000	-0.007	-0.035
-702.558	151.409	-0.226	-0.309
-701.543	-107.732	0.085	0.019
-700.529	68.844	-0.139	0.144
-699.514	-200.000	-0.254	-0.001
-698.499	-90.926	0.216	-0.063
-697.485	-113.161	-0.084	-0.017
-696.470	256.213	-0.033	0.057
-695.456	-200.000	-0.002	0.062
-694.441	62.962	0.047	0.047
-693.426	-200.000	-0.001	-0.192
-692.412	334.521	-0.106	-0.206
-691.397	19.613	0.210	-0.170
-690.383	253.648	-0.039	-0.066
-689.368	-3.386	-0.448	0.313
-688.354	181.900	-0.084	-0.125
-687.339	81.933	-0.039	0.043
-686.324	-20.324	0.199	0.123
-685.310	800.000	0.048	-0.175
-684.295	64.800	-0.022	0.023
-683.281	-200.000	0.057	-0.340
-682.266	-200.000	0.019	-0.247
-681.251	-200.000	-0.033	-0.258
-680.237	-194.613	0.188	-0.001
-679.222	-55.025	-0.206	-0.093
-678.208	16.953	0.213	-0.170
-677.193	-74.109	0.319	0.116
-676.178	330.071	-0.149	-0.289
-675.164	683.674	0.095	0.249
-674.149	-12.412	-0.166	0.109
-673.135	288.132	-0.092	-0.166
-672.120	63.633	-0.131	0.132
-671.105	29.399	-0.185	0.158
-670.091	800.000	-0.055	-0.157
-669.076	-200.000	-0.009	0.100
-668.062	210.570	-0.151	0.238
-667.047	800.000	-0.109	-0.461
-666.032	126.418	-0.132	0.168
-665.018	104.712	0.118	0.139
-664.003	-200.000	-0.015	-0.159
-662.989	163.958	-0.178	0.251
-661.974	51.721	-0.206	0.196
-660.959	73.293	0.140	0.147
-659.945	104.084	0.175	-0.206
-658.930	-120.902	0.133	-0.022
-657.916	-66.187	-0.482	-0.193
-656.901	161.353	0.094	-0.132
-655.886	-163.839	-0.228	-0.011
-654.872	-139.916	-0.066	-0.007
-653.857	-33.639	-0.176	-0.097
-652.843	23.265	-0.147	-0.121
-651.828	-73.835	0.222	0.081
-650.814	-102.046	0.021	0.005
-649.799	457.786	-0.058	-0.130
-648.784	800.000	-0.115	-0.379
-647.770	6.376	-0.184	-0.137
-646.755	-92.827	-0.143	0.040
-645.741	1.184	-0.163	-0.117
-644.726	-166.128	0.104	-0.004
-643.711	-1.087	0.115	0.082
-642.697	-200.000	-0.020	0.191
-641.682	-26.385	0.468	0.275
-640.668	800.000	0.055	-0.164
-639.653	375.349	-0.203	0.415
-638.638	-23.379	-0.343	-0.207
-637.624	75.820	-0.410	-0.435
-636.609	-60.711	-0.182	-0.077
-635.595	591.878	-0.064	-0.158
-634.580	182.563	0.173	0.256
-633.565	-200.000	0.005	0.022
-632.551	-200.000	-0.031	-0.142
-631.536	59.864	-0.028	0.028
-630.522	-65.439	-0.170	0.068
-629.507	175.946	0.195	0.284
-628.492	-200.000	0.021	0.149
-627.478	-12.861	0.158	-0.103
-626.463	800.000	0.122	-0.372
-625.449	210.944	-0.085	0.134
-624.434	-148.655	-0.353	-0.029
-623.419	318.427	0.071	0.136
-622.405	-100.017	0.221	0.055
-621.390	303.941	-0.090	-0.167
-620.376	333.377	0.083	0.161
-619.361	633.898	-0.060	-0.153
-618.346	-200.000	-0.009	0.146
-617.332	-200.000	0.050	0.228
-616.317	646.508	-0.099	-0.254
-615.303	16.767	-0.120	0.095
-614.288	-181.385	-0.173	-0.003
-613.273	-200.000	-0.045	0.302
-612.259	-161.035	0.285	-0.015
-611.244	-121.447	0.217	0.036
-610.230	-200.000	0.001	0.316
-609.215	88.738	0.081	0.090
-608.201	-164.227	0.132	-0.006
-607.186	44.827	0.121	0.112
-606.171	-6.466	-0.150	-0.102
-605.157	-200.000	0.033	-0.178
-604.142	-200.000	0.002	0.010
-603.128	-16.697	-0.237	0.150
-602.113	-200.000	-0.011	-0.309
-601.098	132.338	-0.163	0.210
-600.084	-28.389	0.361	0.208
-599.069	-200.000	0.022	-0.172
-598.055	-15.638	0.143	0.091
-597.040	-130.831	0.112	0.015
-596.025	206.252	-0.084	-0.131
-595.011	800.000	0.044	-0.140
-593.996	18.811	-0.226	-0.181
-592.982	-200.000	0.025	-0.132
-591.967	314.336	-0.066	0.124
-590.952	362.228	-0.223	0.448
-589.938	-200.000	-0.024	0.150
-588.923	90.407	0.173	0.194
-587.909	800.000	0.007	-0.026
-586.894	193.666	-0.219	-0.331
-585.879	791.825	-0.051	-0.140
-584.865	-200.000	-0.022	-0.191
-583.850	32.774	0.135	0.117
-582.836	-200.000	0.021	0.134
-581.821	-1.795	-0.287	0.202
-580.806	800.000	0.034	-0.114
-579.792	689.945	-0.027	-0.072
-578.777	-25.064	-0.262	-0.155
-577.763	-200.000	0.269	-0.001
-576.748	-159.555	-0.358	0.020
-575.733	44.591	0.212	-0.195
-574.719	-70.145	-0.213	-0.081
-573.704	29.809	0.104	-0.088
-572.690	800.000	0.086	0.356
-571.675	16.103	0.101	-0.080
-570.661	-200.000	-0.017	0.393
-569.646	28.705	-0.084	0.071
-568.631	246.178	0.077	-0.130
-567.617	800.000	-0.027	0.118
-566.602	65.508	-0.075	0.075
-565.588	3.986	-0.269	0.197
-564.573	-33.227	0.062	0.034
-563.558	-125.208	0.291	0.045
-562.544	-200.000	-0.012	-0.172
-561.529	-9.187	0.205	-0.137
-560.515	-73.945	-0.093	-0.034
-559.500	649.741	-0.110	0.282
-558.485	444.668	-0.120	0.263
-557.471	800.000	-0.068	0.283
-556.456	-200.000	0.029	0.169
-555.442	-200.000	-0.040	-0.252
-554.427	-200.000	-0.007	-0.422
-553.412	17.524	-0.140	0.112
-552.398	75.440	-0.019	0.020
-551.383	-200.000	0.010	-0.106
-550.369	-200.000	-0.064	0.349
-549.354	-200.000	0.004	0.121
-548.339	-102.297	0.463	-0.111
-547.325	-93.645	-0.442	-0.122
-546.310	35.690	-0.211	0.186
-545.296	-44.736	0.097	0.048
-544.281	-43.996	0.066	0.033
-543.266	-200.000	0.026	0.245
-542.252	110.991	-0.185	0.223
-541.237	288.714	-0.158	0.286
-540.223	70.521	-0.163	0.168
-539.208	800.000	-0.026	-0.114
-538.193	587.706	-0.048	-0.117
-537.179	163.354	-0.157	-0.221
-536.164	-55.818	0.082	0.036
-535.150	-16.973	-0.069	-0.043
-534.135	37.345	-0.112	0.099
-533.121	-200.000	-0.002	-0.243
-532.106	262.679	-0.191	-0.331
-531.091	51.665	-0.193	0.183
-530.077	-200.000	0.016	-0.076
-529.062	50.760	0.068	0.064
-528.048	800.000	-0.061	0.211
-527.033	17.450	-0.023	0.019
-526.018	144.301	-0.237	0.316
-525.004	-131.158	-0.702	-0.093
-523.989	-105.657	0.101	0.023
-522.975	272.254	0.119	0.210
-521.960	800.000	-0.072	-0.207
-520.945	-200.000	0.009	-0.108
-519.931	32.321	0.175	0.151
-518.916	-80.477	0.062	-0.021
-517.902	-121.319	0.177	0.029
-516.887	794.603	0.072	-0.198
-515.872	-200.000	0.016	-0.280
-514.858	123.697	-0.225	-0.282
-513.843	36.248	-0.205	-0.180
-512.829	-39.300	0.069	0.036
-511.814	800.000	-0.048	0.158
-510.799	-200.000	-0.023	-0.102
-509.785	-200.000	0.003	-0.234
-508.770	-200.000	-0.030	-0.194
-507.756	-131.937	-0.269	0.035
-506.741	49.481	0.028	-0.026
-505.726	800.000	-0.039	0.148
-504.712	-102.895	0.108	-0.026
-503.697	-140.469	-0.252	-0.026
-502.683	13.914	0.099	0.077
-501.668	800.000	0.050	-0.170
-500.653	-69.808	-0.165	0.063
-499.639	-62.149	-0.334	-0.139
-498.624	145.735	-0.185	0.247
-497.610	-105.042	-0.100	-0.023
-496.595	185.303	0.191	0.283
-495.581	-88.138	0.118	0.035
-494.566	715.769	-0.141	0.372
-493.551	87.103	0.155	-0.170
-492.537	-93.144	0.482	0.134
-491.522	-200.000	0.012	0.121
-490.508	7.393	-0.129	0.096
-489.493	126.558	-0.147	-0.185
-488.478	95.063	-0.081	0.092
-487.464	-3.006	-0.171	-0.119
-486.449	800.000	0.041	-0.149
-485.435	384.256	0.224	0.460
-484.420	-200.000	0.008	-0.346
-483.405	-61.345	0.076	0.032
-482.391	-81.015	0.158	0.052
-481.376	-32.814	0.529	-0.293
-480.362	-62.239	-0.410	0.170
-479.347	66.639	-0.243	-0.247
-478.332	-98.432	-0.322	-0.082
-477.318	734.891	-0.056	-0.149
-476.303	800.000	0.081	0.261
-475.289	-30.911	0.230	0.130
-474.274	174.225	-0.170	0.245
-473.259	800.000	-0.042	0.125
-472.245	-33.317	0.295	-0.162
-471.230	-200.000	-0.022	0.300
-470.216	-92.124	-0.358	0.101
-469.201	-65.239	-0.370	0.148
-468.186	8.952	-0.073	-0.055
-467.172	-127.778	0.110	-0.016
-466.157	210.025	0.128	-0.201
-465.143	168.075	-0.125	-0.177
-464.128	-107.309	0.169	-0.037
-463.113	-200.000	-0.012	-0.328
-462.099	-31.825	0.233	-0.130
-461.084	1.901	-0.038	0.028
-460.070	-4.200	0.155	0.107
-459.055	156.858	-0.109	0.150
-458.040	800.000	0.024	-0.073
-457.026	-45.854	-0.123	0.060
-456.011	800.000	-0.048	0.146
-454.997	-200.000	-0.024	0.144
-453.982	-0.176	0.181	0.128
-452.968	-70.217	0.090	0.034
-451.953	800.000	0.092	-0.335
-450.938	-200.000	0.115	0.000
-449.924	-91.863	0.066	0.019
-448.909	-85.397	-0.165	-0.051
-447.895	-107.661	0.205	-0.045
-446.880	-154.911	0.197	-0.013
-445.865	98.474	-0.169	0.194
-444.851	-200.000	-0.009	0.205
-443.836	8.678	-0.223	0.167
-442.822	-200.000	-0.063	0.376
-441.807	-200.000	0.028	0.164
-440.792	79.384	-0.125	-0.133
-439.778	-107.516	0.290	-0.063
-438.763	35.243	-0.160	-0.140
-437.749	21.391	-0.138	0.111
-436.734	624.954	0.060	-0.149
-435.719	56.242	-0.192	0.185
-434.705	-34.994	-0.138	0.075
-433.690	-34.780	-0.168	0.091
-432.676	25.493	-0.122	0.101
-431.661	330.399	-0.033	-0.063
-430.646	-8.981	-0.138	0.092
-429.632	-132.363	0.229	-0.029
-428.617	-200.000	-0.000	-0.324
-427.603	199.005	-0.155	-0.236
-426.588	478.633	0.143	-0.321
-425.573	-35.925	-0.051	-0.027
-424.559	-179.784	0.409	0.009
-423.544	-200.000	-0.009	0.137
-422.530	-16.098	0.072	0.045
-421.515	3.329	-0.415	-0.300
-420.500	-24.115	0.146	-0.086
-419.486	-190.505	0.385	-0.004
-418.471	115.649	0.192	-0.233
-417.457	582.300	-0.062	-0.151
-416.442	81.893	0.050	0.054
-415.428	-28.009	-0.730	0.420
-414.413	800.000	0.094	0.375
-413.398	-8.056	-0.153	-0.103
-412.384	238.036	0.012	-0.020
-411.369	5.977	0.209	-0.154
-410.355	-27.439	-0.251	0.145
-409.340	10.742	0.168	0.128
-408.325	-89.141	0.117	-0.034
-407.311	-146.434	0.157	-0.014
-406.296	67.740	-0.107	-0.109
-405.282	-61.615	0.177	-0.074
-404.267	-150.133	0.160	0.012
-403.252	-20.839	-0.172	0.105
-402.238	483.446	0.078	0.177
-401.223	-130.946	0.121	0.016
-400.209	-127.652	-0.156	-0.022
-399.194	-107.478	-0.338	0.074
-398.179	-71.872	0.164	0.061
-397.165	-144.169	-0.177	-0.016
-396.150	59.455	-0.042	0.041
-395.136	800.000	-0.091	-0.301
-394.121	-65.101	-0.404	0.162
-393.106	172.702	0.058	0.083
-392.092	-27.883	0.143	0.082
-391.077	-145.663	0.261	-0.023
-390.063	55.140	-0.033	0.032
-389.048	50.347	-0.087	-0.081
-388.033	-200.000	-0.002	0.098
-387.019	-145.821	-0.027	0.002
-386.004	-82.829	0.225	0.072
-384.990	-143.417	0.116	0.011
-383.975	-114.028	-0.140	0.027
-382.960	108.969	-0.083	-0.099
-381.946	-74.586	-0.116	-0.041
-380.931	-120.739	-0.327	0.055
-379.917	-28.231	0.056	0.032
-378.902	-29.516	0.137	-0.078
-377.888	314.184	0.035	-0.065
-376.873	234.848	0.085	0.139
-375.858	-53.828	0.207	0.094
-374.844	16.122	0.060	0.047
-373.829	-160.621	0.199	0.011
-372.815	800.000	0.081	0.233
-371.800	28.059	0.178	-0.149
-370.785	-200.000	0.011	-0.171
-369.771	16.297	-0.187	-0.147
-368.756	268.547	0.106	-0.185
-367.742	-10.605	0.232	-0.153
-366.727	475.589	-0.069	-0.154
-365.712	-20.963	0.350	-0.213
-364.698	-4.332	0.325	-0.223
-363.683	155.215	0.113	0.154
-362.669	274.296	0.134	0.236
-361.654	1.539	-0.189	-0.135
-360.639	-98.067	-0.378	-0.097
-359.625	-29.048	0.043	0.024
-358.610	-119.400	-0.166	0.029
-357.596	-200.000	-0.006	-0.209
-356.581	-200.000	-0.019	0.118
-355.566	14.978	0.338	-0.262
-354.552	-29.781	0.353	-0.200
-353.537	36.252	0.079	-0.069
-352.523	800.000	-0.093	0.325
-351.508	-7.410	0.064	-0.043
-350.493	-75.715	0.076	-0.027
-349.479	394.482	-0.100	0.206
-348.464	-42.733	0.217	0.109
-347.450	-110.942	-0.333	0.068
-346.435	-15.518	0.165	0.105
-345.420	-69.552	0.241	0.091
-344.406	490.409	-0.047	-0.107
-343.391	235.719	-0.068	0.111
-342.377	124.864	-0.071	0.088
-341.362	-60.449	-0.319	0.134
-340.348	13.088	0.150	0.115
-339.333	-46.339	-0.170	-0.083
-338.318	655.784	-0.024	0.060
-337.304	124.275	-0.258	-0.322
-336.289	-136.751	0.332	0.038
-335.275	-67.962	-0.083	0.032
-334.260	-121.451	-0.062	-0.010
-333.245	-102.578	-0.331	-0.078
-332.231	537.110	-0.114	-0.269
-331.216	174.707	-0.140	0.201
-330.202	800.000	-0.091	0.274
-329.187	205.279	-0.124	0.191
-328.172	800.000	-0.077	-0.249
-327.158	-127.092	0.248	0.036
-326.143	-40.338	0.216	-0.111
-325.129	26.441	0.104	0.086
-324.114	204.365	0.103	0.158
-323.099	-200.000	-0.001	0.108
-322.085	-200.000	0.014	0.089
-321.070	800.000	0.058	-0.162
-320.056	-200.000	-0.000	-0.351
-319.041	29.658	0.095	-0.080
-318.026	-129.225	-0.289	-0.040
-317.012	-45.944	0.224	-0.110
-315.997	118.328	0.203	-0.248
-314.983	-120.096	0.461	-0.078
-313.968	-186.097	0.244	-0.004
-312.953	24.489	-0.177	0.145
-311.939	-18.774	-0.080	-0.049
-310.924	800.000	0.115	-0.347
-309.910	6.809	0.227	-0.167
-308.895	-79.296	-0.073	0.024
-307.880	14.511	0.285	-0.220
-306.866	-169.116	0.206	0.008
-305.851	614.820	-0.098	0.244
-304.837	-170.418	0.270	0.009
-303.822	800.000	0.087	-0.258
-302.807	106.126	0.080	-0.094
-301.793	-111.897	0.137	-0.027
-300.778	-63.713	0.179	0.073
-299.764	-152.439	-0.324	-0.023
-298.749	-50.870	-0.187	0.087
-297.735	-90.140	0.061	0.018
-296.720	168.374	0.123	-0.173
-295.705	-91.397	0.217	0.061
-294.691	-65.063	-0.290	0.116
-293.676	-93.140	0.418	0.115
-292.662	216.224	-0.121	0.191
-291.647	-76.888	-0.158	-0.055
-290.632	578.799	-0.115	-0.279
-289.618	-200.000	-0.021	0.241
-288.603	47.591	-0.325	-0.300
-287.589	-200.000	0.046	0.236
-286.574	-64.952	-0.391	-0.156
-285.559	-60.933	-0.258	0.108
-284.545	15.508	-0.214	0.166
-283.530	-81.731	-0.203	-0.066
-282.516	8.260	0.297	-0.221
-281.501	194.371	0.177	-0.266
-280.486	150.829	0.195	-0.262
-279.472	45.618	-0.130	-0.119
-278.457	29.080	0.240	-0.202
-277.443	-97.005	-0.173	-0.045
-276.428	-38.457	-0.225	-0.118
-275.413	-85.794	0.182	0.056
-274.399	800.000	-0.044	-0.146
-273.384	200.906	-0.160	0.243
-272.370	109.789	-0.099	0.118
-271.355	407.689	-0.041	0.085
-270.340	-29.355	-0.126	-0.071
-269.326	63.619	0.384	-0.381
-268.311	282.434	-0.075	0.133
-267.297	800.000	-0.052	0.192
-266.282	-86.139	0.225	0.068
-265.267	800.000	0.044	-0.157
-264.253	800.000	-0.031	0.089
-263.238	800.000	0.035	0.116
-262.224	-100.411	-0.236	0.058
-261.209	-71.770	-0.301	-0.111
-260.195	101.930	0.192	-0.222
-259.180	-132.293	0.405	0.052
-258.165	-3.670	-0.174	-0.119
-257.151	-34.212	0.160	-0.087
-256.136	-179.241	0.176	0.004
-255.122	-200.000	0.053	-0.316
-254.107	800.000	-0.043	-0.149
-253.092	-71.754	0.230	0.085
-252.078	181.523	-0.025	0.036
-251.063	100.953	0.070	-0.080
-250.049	-200.000	0.026	-0.276
-249.034	-137.977	0.224	-0.025
-248.019	-200.000	0.049	0.364
-247.005	65.586	0.036	0.036
-245.990	800.000	0.023	0.082
-244.976	-162.304	0.175	-0.009
-243.961	-89.044	0.217	-0.063
-242.946	102.923	0.334	-0.386
-241.932	23.480	0.339	-0.275
-240.917	67.048	-0.027	-0.027
-239.903	277.483	0.038	-0.068
-238.888	-200.000	0.010	0.114
-237.873	-15.000	-0.097	0.062
-236.859	-16.099	-0.307	0.192
-235.844	-99.926	0.046	0.011
-234.830	-175.282	-0.198	0.005
-233.815	-20.370	-0.140	0.085
-232.800	-141.643	-0.144	0.014
-231.786	-151.965	0.239	-0.017
-230.771	-200.000	0.003	-0.250
-229.757	-200.000	0.064	-0.373
-228.742	-142.439	0.226	-0.022
-227.727	9.078	0.117	0.087
-226.713	512.291	-0.026	0.059
-225.698	10.158	-0.107	0.081
-224.684	-80.855	0.255	0.083
-223.669	-131.767	0.216	0.028
-222.655	-200.000	-0.005	-0.033
-221.640	-200.000	-0.015	0.197
-220.625	-126.500	-0.199	-0.029
-219.611	-64.444	-0.029	0.012
-218.596	-71.757	0.071	-0.026
-217.582	36.290	0.199	0.173
-216.567	-1.271	-0.172	0.120
-215.552	-200.000	0.009	-0.209
-214.538	189.701	-0.177	0.262
-213.523	800.000	-0.059	-0.235
-212.509	-20.245	-0.215	-0.131
-211.494	-175.499	0.144	0.004
-210.479	84.645	0.112	0.121
-209.465	-67.476	0.281	0.109
-208.450	81.279	-0.146	-0.155
-207.436	-89.931	-0.086	0.025
-206.421	55.265	0.251	0.240
-205.406	501.625	-0.050	0.114
-204.392	-200.000	0.036	-0.175
-203.377	27.378	0.164	-0.136
-202.363	6.243	0.166	-0.121
-201.348	-149.735	0.316	0.024
-200.333	136.063	-0.082	0.105
-199.319	116.761	-0.089	0.107
-198.304	-60.911	0.089	0.037
-197.290	800.000	-0.118	-0.345
-196.275	800.000	0.127	-0.376
-195.260	-200.000	0.015	-0.246
-194.246	-57.401	0.215	-0.093
-193.231	-200.000	0.004	0.182
-192.217	-200.000	0.104	0.452
-191.202	-34.604	0.155	-0.084
-190.187	-200.000	-0.029	0.189
-189.173	-94.929	0.053	0.014
-188.158	38.858	-0.273	-0.240
-187.144	-146.795	-0.230	0.020
-186.129	-70.190	0.300	-0.112
-185.114	0.434	-0.070	-0.049
-184.100	800.000	-0.071	0.199
-183.085	293.744	0.117	-0.211
-182.071	-94.161	0.265	-0.072
-181.056	-19.307	-0.227	0.139
-180.042	366.083	-0.200	-0.398
-179.027	-200.000	-0.005	0.060
-178.012	800.000	-0.034	-0.119
-176.998	-71.810	0.133	-0.049
-175.983	1.558	-0.191	-0.135
-174.969	62.652	0.219	0.215
-173.954	-200.000	0.083	0.000
-172.939	-162.969	-0.293	-0.014
-171.925	-112.615	0.105	-0.021
-170.910	-105.780	0.171	-0.038
-169.896	28.826	0.151	0.126
-168.881	235.449	-0.090	0.147
-167.866	10.083	-0.052	0.039
-166.852	-91.221	0.378	-0.106
-165.837	416.985	-0.057	0.119
-164.823	-7.638	-0.101	-0.067
-163.808	-151.272	-0.243	0.018
-162.793	-95.789	-0.182	0.048
-161.779	800.000	0.111	0.363
-160.764	18.330	0.243	0.191
-159.750	-136.351	0.190	-0.022
-158.735	-58.078	0.277	0.119
-157.720	-79.898	-0.384	0.127
-156.706	145.175	-0.105	0.138
-155.691	528.554	-0.051	0.117
-154.677	-137.275	-0.109	0.012
-153.662	-200.000	-0.014	0.174
-152.647	643.514	0.135	0.340
-151.633	-107.755	-0.351	0.075
-150.618	-53.594	0.365	-0.164
-149.604	373.288	-0.158	-0.316
-148.589	-51.650	0.426	-0.195
-147.574	-163.471	-0.220	0.010
-146.560	117.845	-0.044	-0.054
-145.545	18.582	-0.088	-0.069
-144.531	228.648	0.052	0.083
-143.516	800.000	-0.087	-0.314
-142.502	-200.000	0.000	-0.146
-141.487	139.238	0.108	-0.140
-140.472	-34.817	-0.272	-0.146
-139.458	-115.974	0.056	0.010
-138.443	419.053	0.080	0.168
-137.429	-47.284	0.330	-0.158
-136.414	800.000	0.029	-0.107
-135.399	-99.452	-0.094	-0.023
-134.385	-67.368	0.133	0.052
-133.370	48.121	-0.133	0.123
-132.356	415.017	-0.082	-0.173
-131.341	29.931	-0.295	-0.247
-130.326	-29.864	0.075	-0.042
-129.312	-200.000	-0.013	-0.252
-128.297	-200.000	-0.008	0.074
-127.283	-138.325	-0.272	-0.030
-126.268	-200.000	-0.050	0.348
-125.253	52.552	-0.235	0.221
-124.239	549.469	0.039	0.091
-123.224	171.103	-0.129	0.182
-122.210	-77.364	0.090	0.031
-121.195	-92.798	-0.046	0.013
