DTS Sentinel unit serial number:	SN413079Multiplexer serial number:	ORYXHardware model number:	OX4-SRSoftware version number:	ORYX F/W v4.00 Oryx Data Collector v3.7.2.0data status	okinstallation	princeton_trtdifferential loss correction	single-endedforward channel	channel 1reverse channel	N/Adate	2019/09/13time	11:14:35forward acquisition time	60.00reverse acquisition time	0.00gamma	496.2192k internal	0.2317k external	0.2317temperature offset calibration	1.0157default loss term (dB/km)	0.3790temperature slope calibration	1.0000multiplexer offset coefficient	1.0000multiplexer slope coefficient	1.0000fibre end	0.00T internal ref (°C)	32.25T ext. ref 1 (°C)	4.69T ext. ref 2 (°C)	29.74length (m)	temperature (°C)	Stokes	anti-Stokes-747.200	-94.849	-0.389	-0.107
-746.185	328.661	0.102	-0.198
-745.171	313.116	-0.139	-0.264
-744.156	152.173	-0.104	-0.143
-743.142	367.048	0.073	-0.149
-742.127	-17.370	0.216	-0.138
-741.112	800.000	0.013	0.044
-740.098	-143.115	-0.440	-0.043
-739.083	488.827	-0.041	-0.095
-738.069	414.162	0.027	-0.059
-737.054	-83.640	0.149	0.048
-736.039	-120.806	-0.188	-0.032
-735.025	95.663	0.081	0.093
-734.010	370.052	-0.049	-0.101
-732.996	-66.769	0.157	-0.063
-731.981	-58.531	0.192	0.084
-730.966	-136.942	0.211	0.025
-729.952	-200.000	0.011	0.057
-728.937	135.024	-0.253	-0.333
-727.923	109.299	-0.224	-0.272
-726.908	-200.000	-0.047	-0.250
-725.894	289.331	0.048	0.089
-724.879	282.214	-0.073	0.133
-723.864	-24.231	-0.331	-0.200
-722.850	12.094	-0.204	-0.159
-721.835	-38.053	-0.206	0.110
-720.821	163.721	0.118	0.168
-719.806	-142.051	-0.261	0.026
-718.791	-22.034	0.096	0.059
-717.777	-38.961	0.310	-0.165
-716.762	-44.450	-0.399	-0.202
-715.748	-82.685	-0.176	-0.058
-714.733	-50.192	0.251	0.120
-713.718	800.000	-0.013	0.038
-712.704	-94.624	-0.232	-0.064
-711.689	-126.723	0.055	0.008
-710.675	-93.195	-0.122	0.034
-709.660	-16.505	0.240	-0.154
-708.645	-36.130	-0.306	-0.167
-707.631	-1.857	0.368	-0.262
-706.616	602.549	-0.069	0.174
-705.602	-200.000	0.018	-0.169
-704.587	133.927	-0.215	-0.282
-703.572	-101.202	-0.327	0.081
-702.558	-79.948	0.268	-0.091
-701.543	-200.000	-0.044	-0.344
-700.529	-200.000	-0.009	-0.278
-699.514	493.937	-0.105	-0.243
-698.499	800.000	-0.063	-0.183
-697.485	446.478	0.068	0.150
-696.470	-64.266	0.193	0.079
-695.456	-55.013	0.112	0.051
-694.441	-140.399	0.033	-0.004
-693.426	-200.000	-0.021	-0.128
-692.412	-200.000	-0.009	-0.201
-691.397	-83.683	-0.408	-0.132
-690.383	73.281	-0.093	-0.098
-689.368	-144.841	-0.243	-0.022
-688.354	-200.000	0.078	-0.347
-687.339	-200.000	-0.004	0.075
-686.324	-19.178	0.107	0.067
-685.310	-104.810	0.066	-0.015
-684.295	36.464	-0.343	-0.306
-683.281	64.465	0.027	0.027
-682.266	325.646	0.071	-0.138
-681.251	-200.000	0.015	0.125
-680.237	-4.022	0.327	-0.229
-679.222	-146.867	0.216	-0.019
-678.208	150.822	0.075	0.103
-677.193	238.879	-0.250	-0.419
-676.178	-115.684	0.271	0.051
-675.164	12.241	0.305	0.237
-674.149	-156.923	-0.406	-0.025
-673.135	-200.000	0.017	-0.181
-672.120	376.343	-0.089	0.183
-671.105	246.985	-0.092	0.156
-670.091	-200.000	0.013	-0.304
-669.076	101.885	0.226	-0.267
-668.062	301.305	-0.181	-0.338
-667.047	-130.938	-0.282	-0.038
-666.032	-40.047	-0.040	-0.021
-665.018	-130.899	-0.133	0.018
-664.003	80.916	-0.142	0.155
-662.989	-97.743	0.107	-0.028
-661.974	-103.274	-0.160	-0.038
-660.959	-87.401	-0.343	0.105
-659.945	-125.693	-0.188	-0.029
-658.930	-73.184	-0.158	-0.058
-657.916	800.000	-0.028	-0.085
-656.901	-200.000	0.023	-0.163
-655.886	-200.000	-0.064	-0.317
-654.872	-173.840	-0.242	-0.007
-653.857	142.780	-0.138	0.185
-652.843	-85.134	-0.402	-0.127
-651.828	200.854	-0.072	-0.112
-650.814	-200.000	-0.015	0.129
-649.799	650.654	0.058	-0.149
-648.784	309.575	0.088	-0.166
-647.770	291.173	-0.038	-0.070
-646.755	53.160	-0.180	-0.174
-645.741	186.309	-0.026	-0.039
-644.726	-83.860	-0.106	0.034
-643.711	309.998	0.030	0.056
-642.697	-161.153	0.385	-0.020
-641.682	-69.993	-0.268	-0.103
-640.668	800.000	0.031	-0.107
-639.653	-17.184	-0.208	0.133
-638.638	-75.687	-0.399	0.143
-637.624	77.807	0.264	-0.284
-636.609	-82.841	-0.344	-0.112
-635.595	-117.125	-0.163	0.030
-634.580	204.810	0.135	-0.211
-633.565	-96.227	0.349	-0.093
-632.551	-61.786	-0.310	-0.131
-631.536	40.077	0.250	-0.227
-630.522	800.000	0.026	-0.087
-629.507	7.906	0.132	-0.100
-628.492	60.255	0.123	-0.123
-627.478	301.514	0.129	0.240
-626.463	-200.000	0.000	-0.239
-625.449	-200.000	-0.008	-0.244
-624.434	3.865	0.057	0.042
-623.419	-53.365	0.105	0.049
-622.405	82.279	0.098	-0.107
-621.390	750.806	0.088	-0.240
-620.376	-200.000	0.020	-0.116
-619.361	-200.000	0.052	0.274
-618.346	133.946	0.157	0.205
-617.332	800.000	-0.024	0.085
-616.317	279.182	-0.107	-0.191
-615.303	172.618	-0.068	-0.099
-614.288	53.286	-0.168	-0.162
-613.273	50.849	-0.138	-0.131
-612.259	-136.036	-0.329	0.039
-611.244	70.710	0.179	0.187
-610.230	-122.419	-0.210	-0.035
-609.215	-36.275	-0.055	-0.030
-608.201	800.000	-0.061	-0.215
-607.186	60.505	0.262	0.261
-606.171	-119.248	0.228	0.040
-605.157	29.193	-0.097	0.083
-604.142	453.027	0.074	-0.166
-603.128	-32.658	0.038	0.021
-602.113	-29.936	-0.204	0.117
-601.098	-200.000	0.302	0.001
-600.084	76.924	0.184	-0.196
-599.069	-200.000	0.364	-0.001
-598.055	-200.000	0.053	-0.587
-597.040	-67.377	0.164	0.065
-596.025	-197.077	0.122	0.001
-595.011	37.949	-0.037	-0.033
-593.996	502.332	-0.113	-0.262
-592.982	-70.429	0.250	0.095
-591.967	260.639	-0.078	0.135
-590.952	-62.911	-0.300	-0.125
-589.938	219.100	0.154	-0.248
-588.923	-200.000	-0.013	0.088
-587.909	51.871	0.261	0.250
-586.894	-161.539	-0.073	0.004
-585.879	-125.880	0.127	0.019
-584.865	-158.434	0.096	-0.006
-583.850	69.154	0.104	0.108
-582.836	-86.083	0.099	-0.031
-581.821	-200.000	0.007	-0.131
-580.806	-126.240	-0.097	0.015
-579.792	800.000	-0.004	-0.016
-578.777	303.272	0.173	0.322
-577.763	-200.000	-0.072	0.396
-576.748	-200.000	-0.246	-0.000
-575.733	-200.000	-0.035	-0.246
-574.719	800.000	-0.044	0.187
-573.704	15.870	0.255	0.202
-572.690	-200.000	-0.019	0.351
-571.675	-200.000	-0.013	-0.193
-570.661	-200.000	0.047	-0.260
-569.646	38.349	-0.277	0.249
-568.631	800.000	-0.067	-0.252
-567.617	-200.000	-0.031	0.157
-566.602	-200.000	-0.020	-0.109
-565.588	-122.641	-0.424	0.069
-564.573	-87.514	-0.211	-0.064
-563.558	-49.130	-0.113	0.054
-562.544	-200.000	-0.068	-0.307
-561.529	-42.335	0.259	-0.133
-560.515	26.602	0.059	0.049
-559.500	800.000	-0.083	0.271
-558.485	-111.536	-0.305	-0.062
-557.471	167.641	-0.075	0.107
-556.456	-200.000	0.030	0.208
-555.442	110.691	-0.152	0.184
-554.427	-200.000	-0.006	-0.109
-553.412	12.265	0.158	-0.122
-552.398	193.261	-0.121	-0.185
-551.383	800.000	-0.060	-0.242
-550.369	-69.313	-0.120	-0.046
-549.354	-69.110	0.202	0.078
-548.339	-185.694	0.337	0.005
-547.325	511.123	-0.166	-0.387
-546.310	-200.000	0.003	0.056
-545.296	-133.266	0.348	0.044
-544.281	353.147	-0.186	-0.371
-543.266	-47.995	0.209	-0.101
-542.252	-200.000	-0.016	0.104
-541.237	-173.491	0.077	-0.002
-540.223	-9.339	0.333	0.223
-539.208	83.075	0.179	0.196
-538.193	-178.731	-0.209	0.005
-537.179	425.471	0.225	-0.487
-536.164	800.000	-0.060	0.265
-535.150	-129.188	-0.160	0.022
-534.135	-44.622	0.219	-0.110
-533.121	-178.917	-0.461	-0.010
-532.106	-114.506	0.230	-0.044
-531.091	-140.159	-0.514	-0.054
-530.077	-12.638	0.248	0.163
-529.062	-200.000	0.014	-0.158
-528.048	-200.000	0.017	-0.149
-527.033	21.175	-0.220	-0.179
-526.018	-120.481	-0.255	-0.043
-525.004	68.419	-0.280	-0.288
-523.989	-200.000	0.062	0.299
-522.975	-200.000	0.030	-0.189
-521.960	126.927	0.058	0.074
-520.945	60.943	-0.083	-0.083
-519.931	236.090	-0.121	0.202
-518.916	155.494	0.084	-0.116
-517.902	325.218	0.157	-0.300
-516.887	-200.000	-0.014	0.076
-515.872	-30.606	0.137	0.078
-514.858	109.737	-0.270	0.325
-513.843	-170.892	0.245	-0.008
-512.829	-93.906	-0.184	0.051
-511.814	153.681	0.120	-0.165
-510.799	800.000	0.038	-0.152
-509.785	-200.000	-0.296	-0.001
-508.770	31.512	0.121	-0.105
-507.756	800.000	-0.059	-0.194
-506.741	-55.049	0.114	-0.051
-505.726	-69.250	-0.360	-0.139
-504.712	658.133	0.091	-0.235
-503.697	-152.034	-0.024	-0.002
-502.683	-1.257	-0.155	-0.110
-501.668	229.888	0.014	0.023
-500.653	165.054	-0.213	-0.302
-499.639	-200.000	-0.021	-0.178
-498.624	-38.619	-0.259	0.137
-497.610	305.563	0.047	-0.089
-496.595	0.247	-0.117	0.083
-495.581	721.008	-0.080	-0.212
-494.566	-119.159	0.309	0.054
-493.551	182.788	-0.072	-0.106
-492.537	-200.000	-0.079	0.427
-491.522	800.000	0.046	0.179
-490.508	277.757	0.120	-0.213
-489.493	-41.721	0.233	-0.120
-488.478	221.819	0.111	-0.180
-487.464	257.075	-0.113	0.194
-486.449	202.599	-0.066	-0.102
-485.435	-105.577	0.047	-0.011
-484.420	800.000	-0.059	-0.208
-483.405	-109.561	0.188	0.040
-482.391	41.689	0.300	0.272
-481.376	-129.008	0.205	0.029
-480.362	347.387	0.078	0.154
-479.347	44.674	-0.152	0.140
-478.332	14.348	0.232	-0.181
-477.318	617.540	-0.014	0.036
-476.303	129.291	-0.024	0.030
-475.289	395.765	0.037	-0.077
-474.274	301.392	0.077	0.143
-473.259	800.000	0.066	0.223
-472.245	705.020	0.054	0.143
-471.230	-109.618	-0.059	-0.012
-470.216	-70.074	-0.181	0.069
-469.201	260.605	0.225	0.390
-468.186	-200.000	-0.010	0.159
-467.172	800.000	0.057	-0.223
-466.157	37.707	-0.320	0.285
-465.143	-149.030	-0.274	-0.022
-464.128	-162.866	0.196	0.010
-463.113	-145.521	-0.184	0.017
-462.099	-87.291	0.088	0.027
-461.084	-67.257	0.195	-0.077
-460.070	11.384	0.263	-0.202
-459.055	-29.402	-0.111	0.063
-458.040	-33.632	0.134	-0.074
-457.026	644.005	-0.019	0.049
-456.011	186.057	0.194	-0.289
-454.997	227.670	0.126	-0.205
-453.982	16.749	-0.299	0.237
-452.968	-200.000	0.026	-0.266
-451.953	215.286	0.140	0.222
-450.938	205.031	-0.186	-0.290
-449.924	-200.000	0.050	-0.326
-448.909	-200.000	-0.024	-0.146
-447.895	181.632	0.188	0.276
-446.880	-70.357	-0.089	-0.034
-445.865	800.000	0.090	0.339
-444.851	22.467	-0.316	-0.258
-443.836	-200.000	0.078	-0.528
-442.822	196.831	0.099	-0.151
-441.807	-200.000	0.165	0.001
-440.792	187.149	0.140	0.209
-439.778	800.000	0.042	-0.126
-438.763	346.845	0.055	-0.109
-437.749	67.223	0.114	-0.116
-436.734	800.000	0.115	0.328
-435.719	800.000	-0.061	-0.192
-434.705	41.437	-0.077	-0.070
-433.690	186.868	-0.149	0.222
-432.676	-48.373	0.285	0.137
-431.661	25.908	-0.166	-0.139
-430.646	-85.154	-0.225	-0.071
-429.632	765.566	0.056	0.153
-428.617	-26.002	-0.095	0.056
-427.603	-200.000	-0.039	0.329
-426.588	594.530	-0.045	0.111
-425.573	-119.464	0.043	0.007
-424.559	32.460	0.066	-0.057
-423.544	-4.902	-0.146	-0.101
-422.530	16.691	0.069	0.054
-421.515	22.808	0.222	0.182
-420.500	295.540	-0.270	0.493
-419.486	-77.120	0.296	0.103
-418.471	-152.576	-0.271	0.019
-417.457	-28.079	0.152	-0.088
-416.442	394.112	0.084	0.174
-415.428	43.698	-0.208	0.191
-414.413	-20.593	0.269	0.165
-413.398	-81.310	-0.351	-0.116
-412.384	-124.202	0.204	0.032
-411.369	44.490	-0.224	-0.205
-410.355	781.046	-0.073	0.198
-409.340	0.118	0.093	0.066
-408.325	-30.197	0.317	0.180
-407.311	82.795	-0.221	0.240
-406.296	-200.000	0.063	0.286
-405.282	608.653	-0.055	-0.137
-404.267	-200.000	0.008	0.055
-403.252	-61.608	-0.198	0.083
-402.238	-91.549	-0.134	-0.038
-401.223	-200.000	-0.052	0.303
-400.209	-110.403	-0.115	-0.024
-399.194	-73.749	0.335	0.122
-398.179	-180.229	-0.209	-0.004
-397.165	-112.100	-0.075	-0.015
-396.150	149.230	-0.082	-0.112
-395.136	-3.026	-0.268	-0.187
-394.121	-200.000	-0.016	0.130
-393.106	-180.077	-0.199	0.004
-392.092	-86.891	-0.303	0.092
-391.077	-90.124	0.184	0.053
-390.063	-200.000	0.031	0.188
-389.048	-23.277	-0.046	0.028
-388.033	19.612	-0.089	0.071
-387.019	184.607	-0.162	0.240
-386.004	684.866	-0.123	-0.321
-384.990	-118.939	-0.183	0.032
-383.975	212.644	-0.213	0.335
-382.960	59.419	-0.162	0.159
-381.946	21.336	-0.186	0.151
-380.931	800.000	-0.109	0.370
-379.917	-106.554	-0.223	-0.050
-378.902	-200.000	-0.013	0.398
-377.888	-20.984	0.286	0.175
-376.873	800.000	-0.066	-0.203
-375.858	-17.116	0.448	-0.282
-374.844	87.690	0.120	0.133
-373.829	800.000	-0.084	0.273
-372.815	89.678	0.137	0.153
-371.800	-200.000	0.046	-0.205
-370.785	-200.000	0.060	0.305
-369.771	109.055	-0.148	0.177
-368.756	-200.000	-0.043	-0.489
-367.742	-66.341	0.075	-0.030
-366.727	-130.591	0.135	0.018
-365.712	196.547	0.090	-0.136
-364.698	-116.692	0.153	-0.028
-363.683	328.849	0.056	-0.108
-362.669	-66.101	-0.254	0.101
-361.654	20.807	0.194	0.157
-360.639	-103.789	0.175	-0.041
-359.625	-200.000	-0.031	-0.151
-358.610	-157.854	0.096	0.006
-357.596	-82.405	-0.323	-0.105
-356.581	-18.536	0.138	-0.086
-355.566	104.965	0.129	-0.152
-354.552	800.000	0.099	0.326
-353.537	800.000	-0.056	0.228
-352.523	-78.087	-0.294	-0.101
-351.508	-133.686	-0.150	-0.019
-350.493	-102.841	0.201	0.048
-349.479	186.427	-0.096	-0.143
-348.464	-200.000	-0.024	-0.109
-347.450	93.140	0.031	-0.035
-346.435	-200.000	-0.014	-0.094
-345.420	130.553	0.274	0.350
-344.406	-200.000	0.038	0.228
-343.391	-98.060	-0.401	0.103
-342.377	800.000	-0.079	0.239
-341.362	-142.097	-0.059	-0.006
-340.348	-200.000	-0.012	0.174
-339.333	-102.456	-0.158	0.038
-338.318	-138.877	0.242	-0.026
-337.304	152.703	0.201	-0.274
-336.289	-132.451	-0.197	0.025
-335.275	-200.000	-0.017	-0.234
-334.260	187.372	0.076	-0.113
-333.245	28.454	-0.148	-0.125
-332.231	-200.000	0.036	-0.242
-331.216	169.261	0.147	0.209
-330.202	123.181	0.166	0.208
-329.187	-186.151	0.414	-0.006
-328.172	313.706	-0.103	0.193
-327.158	-64.400	-0.299	0.121
-326.143	-120.190	-0.152	-0.026
-325.129	-1.857	-0.132	0.093
-324.114	800.000	-0.056	0.182
-323.099	-98.971	0.143	0.036
-322.085	-200.000	-0.033	0.243
-321.070	378.716	-0.026	-0.053
-320.056	205.502	0.246	0.380
-319.041	-182.635	0.077	0.001
-318.026	-200.000	0.032	0.427
-317.012	800.000	0.012	0.052
-315.997	268.773	-0.019	-0.033
-314.983	-200.000	-0.044	-0.218
-313.968	-200.000	0.019	-0.134
-312.953	-71.650	-0.147	0.055
-311.939	15.651	0.201	-0.157
-310.924	730.429	0.082	0.218
-309.910	-65.934	0.162	-0.064
-308.895	-151.188	-0.176	-0.013
-307.880	125.529	0.163	0.205
-306.866	800.000	-0.047	0.144
-305.851	-200.000	-0.042	-0.391
-304.837	20.065	0.092	0.073
-303.822	-143.174	-0.140	-0.013
-302.807	-37.719	0.139	-0.074
-301.793	74.373	0.038	-0.039
-300.778	181.705	-0.107	-0.156
-299.764	-200.000	0.040	-0.233
-298.749	225.694	-0.108	-0.174
-297.735	18.276	-0.052	0.042
-296.720	228.373	0.171	0.277
-295.705	213.831	-0.170	0.268
-294.691	-114.982	-0.138	0.026
-293.676	50.649	-0.110	-0.104
-292.662	-0.104	0.237	0.168
-291.647	-200.000	-0.012	-0.278
-290.632	-78.400	-0.153	-0.052
-289.618	-88.274	-0.327	-0.097
-288.603	-13.305	0.246	0.159
-287.589	-161.038	-0.240	0.013
-286.574	-71.072	0.091	0.034
-285.559	-98.208	0.325	0.083
-284.545	-200.000	0.049	-0.275
-283.530	-120.315	0.209	0.035
-282.516	-5.963	0.179	0.122
-281.501	-200.000	0.035	-0.279
-280.486	623.397	-0.035	-0.087
-279.472	-182.582	-0.299	-0.005
-278.457	800.000	0.037	0.141
-277.443	127.190	0.053	-0.067
-276.428	232.524	0.034	-0.056
-275.413	-200.000	0.013	0.056
-274.399	-55.608	-0.116	0.052
-273.384	-56.531	0.312	-0.137
-272.370	-200.000	-0.010	0.203
-271.355	-200.000	-0.005	-0.061
-270.340	30.153	0.255	-0.217
-269.326	34.385	0.113	0.098
-268.311	95.485	-0.184	0.208
-267.297	-200.000	-0.047	-0.287
-266.282	32.206	0.253	0.217
-265.267	-25.378	-0.301	-0.177
-264.253	250.488	0.136	-0.230
-263.238	-64.976	0.130	0.052
-262.224	-4.088	0.326	0.224
-261.209	167.075	-0.188	-0.266
-260.195	-132.261	0.057	0.007
-259.180	-200.000	0.079	0.357
-258.165	-45.597	-0.448	-0.220
-257.151	-77.049	-0.019	0.007
-256.136	-6.976	0.237	-0.160
-255.122	-190.391	-0.155	0.002
-254.107	-200.000	-0.029	0.166
-253.092	-119.902	-0.198	-0.034
-252.078	-32.388	-0.271	0.150
-251.063	-197.258	-0.110	-0.001
-250.049	231.801	0.074	-0.120
-249.034	-106.999	0.289	0.063
-248.019	800.000	0.070	0.196
-247.005	150.521	0.018	-0.024
-245.990	54.097	-0.183	-0.175
-244.976	164.293	0.011	-0.015
-243.961	86.083	-0.031	-0.034
-242.946	117.852	-0.140	0.171
-241.932	192.315	0.212	0.317
-240.917	-76.217	-0.106	-0.037
-239.903	12.177	-0.195	0.149
-238.888	333.311	-0.116	-0.223
-237.873	3.553	0.192	0.139
-236.859	-106.570	0.191	0.042
-235.844	-122.925	-0.177	-0.028
-234.830	615.745	-0.131	0.327
-233.815	27.958	0.189	-0.158
-232.800	5.321	0.173	0.126
-231.786	121.570	0.151	0.187
-230.771	-4.846	-0.244	0.167
-229.757	90.563	0.342	-0.380
-228.742	70.425	0.093	0.096
-227.727	-200.000	-0.004	-0.078
-226.713	-36.420	-0.417	0.223
-225.698	-200.000	0.002	0.080
-224.684	-86.090	0.106	-0.033
-223.669	-8.523	0.138	-0.092
-222.655	140.886	-0.222	-0.291
-221.640	-200.000	0.043	-0.401
-220.625	-35.406	0.031	0.017
-219.611	17.119	0.051	0.040
-218.596	-176.557	0.130	0.003
-217.582	-55.234	-0.442	-0.197
-216.567	279.216	-0.084	-0.149
-215.552	69.017	-0.252	-0.257
-214.538	-94.875	0.235	0.063
-213.523	-168.910	-0.237	0.009
-212.509	157.425	0.073	-0.100
-211.494	-34.121	-0.302	-0.164
-210.479	445.745	-0.140	0.304
-209.465	116.573	0.049	-0.060
-208.450	509.892	-0.063	0.145
-207.436	194.920	-0.182	-0.274
-206.421	-50.518	-0.026	0.012
-205.406	-48.812	0.056	0.026
-204.392	-66.294	0.002	0.001
-203.377	79.727	-0.185	-0.197
-202.363	-129.095	0.369	-0.051
-201.348	29.740	0.082	-0.069
-200.333	5.725	-0.281	-0.206
-199.319	39.271	0.223	0.198
-198.304	45.957	0.172	0.157
-197.290	800.000	-0.050	0.197
-196.275	-200.000	-0.017	0.331
-195.260	-11.866	-0.139	0.091
-194.246	74.520	-0.137	-0.143
-193.231	-200.000	0.061	-0.280
-192.217	-93.869	0.233	-0.064
-191.202	-200.000	-0.055	-0.311
-190.187	800.000	0.099	0.297
-189.173	30.575	0.113	-0.096
-188.158	83.628	-0.132	-0.143
-187.144	-75.017	0.078	-0.028
-186.129	800.000	-0.019	-0.061
-185.114	170.641	-0.155	-0.220
-184.100	477.681	-0.087	0.195
-183.085	35.723	-0.256	0.223
-182.071	-99.307	-0.250	-0.062
-181.056	-101.719	-0.467	-0.112
-180.042	-15.180	0.136	0.087
-179.027	800.000	-0.037	0.116
-178.012	-120.570	0.361	0.061
-176.998	-95.059	-0.209	0.056
-175.983	330.319	-0.028	0.053
-174.969	314.586	-0.088	-0.165
-173.954	-200.000	-0.011	0.105
-172.939	800.000	-0.058	0.162
-171.925	-78.917	0.349	0.118
-170.910	-200.000	0.029	0.277
-169.896	-72.999	0.131	0.048
-168.881	-70.215	0.159	-0.060
-167.866	1.531	0.153	-0.109
-166.852	-106.762	-0.195	-0.043
-165.837	-200.000	0.074	0.000
-164.823	-98.681	0.211	-0.053
-163.808	-73.031	0.260	0.095
-162.793	-124.796	0.154	-0.024
-161.779	-8.371	0.211	-0.140
-160.764	298.902	0.111	0.202
-159.750	800.000	-0.034	-0.112
-158.735	615.135	0.073	0.182
-157.720	-36.049	0.125	0.067
-156.706	-122.075	-0.236	0.038
-155.691	-98.617	-0.109	0.027
-154.677	24.281	0.196	-0.160
-153.662	-72.168	0.230	-0.084
-152.647	134.850	-0.143	-0.183
-151.633	-107.196	0.184	-0.040
-150.618	-167.093	0.079	0.003
-149.604	47.527	0.167	-0.154
-148.589	-200.000	0.038	-0.271
-147.574	-200.000	-0.037	-0.222
-146.560	-6.524	0.122	0.082
-145.545	63.309	-0.100	0.099
-144.531	800.000	-0.166	-0.557
-143.516	404.717	0.111	0.232
-142.502	163.476	-0.100	0.139
-141.487	-195.403	-0.317	-0.002
-140.472	-200.000	0.001	-0.101
-139.458	-130.487	-0.134	0.018
-138.443	73.520	-0.136	0.140
-137.429	28.243	-0.033	-0.027
-136.414	194.349	0.022	0.033
-135.399	180.742	0.124	0.180
-134.385	-98.130	0.399	0.101
-133.370	6.120	0.181	0.133
-132.356	119.878	-0.150	0.183
-131.341	-157.010	0.419	-0.025
-130.326	403.491	-0.134	0.278
-129.312	25.038	-0.084	0.069
-128.297	542.621	-0.019	0.045
-127.283	268.114	-0.046	-0.080
-126.268	800.000	0.061	-0.209
-125.253	-125.854	0.144	0.021
-124.239	137.946	-0.164	0.212
-123.224	-200.000	0.013	-0.179
-122.210	65.646	-0.065	0.065
