DTS Sentinel unit serial number:	SN413079Multiplexer serial number:	ORYXHardware model number:	OX4-SRSoftware version number:	ORYX F/W v4.00 Oryx Data Collector v3.7.2.0data status	okinstallation	princeton_trtdifferential loss correction	single-endedforward channel	channel 1reverse channel	N/Adate	2019/09/14time	05:38:35forward acquisition time	60.00reverse acquisition time	0.00gamma	496.2192k internal	0.2334k external	0.2334temperature offset calibration	1.0083default loss term (dB/km)	0.3790temperature slope calibration	1.0000multiplexer offset coefficient	1.0000multiplexer slope coefficient	1.0000fibre end	0.00T internal ref (°C)	26.94T ext. ref 1 (°C)	3.40T ext. ref 2 (°C)	21.77length (m)	temperature (°C)	Stokes	anti-Stokes-747.200	252.848	0.055	0.094
-746.185	800.000	-0.079	0.277
-745.171	55.288	0.173	-0.168
-744.156	800.000	-0.070	-0.210
-743.142	800.000	0.069	0.298
-742.127	58.807	0.048	0.048
-741.112	-200.000	-0.036	0.162
-740.098	67.849	0.261	-0.269
-739.083	32.505	-0.062	-0.054
-738.069	-35.831	-0.161	0.088
-737.054	-19.664	0.227	0.141
-736.039	94.425	-0.073	0.084
-735.025	-111.796	0.425	-0.086
-734.010	254.590	0.043	0.073
-732.996	-129.933	-0.474	0.065
-731.981	75.592	0.245	-0.260
-730.966	-104.871	-0.148	-0.034
-729.952	800.000	-0.093	0.259
-728.937	716.743	0.050	0.132
-727.923	-200.000	-0.006	-0.035
-726.908	503.923	0.058	0.134
-725.894	59.878	0.281	-0.279
-724.879	89.244	-0.152	-0.170
-723.864	-179.800	-0.544	-0.012
-722.850	-57.152	-0.210	0.093
-721.835	-51.459	0.049	0.023
-720.821	78.151	0.248	-0.266
-719.806	42.470	0.215	-0.196
-718.791	222.135	0.121	-0.196
-717.777	89.607	0.097	-0.108
-716.762	-77.934	-0.135	0.047
-715.748	-28.804	0.317	-0.183
-714.733	-74.166	0.205	0.075
-713.718	-200.000	-0.055	-0.244
-712.704	800.000	0.121	-0.484
-711.689	-200.000	-0.003	-0.126
-710.675	511.087	-0.036	0.085
-709.660	91.260	-0.043	0.048
-708.645	89.167	0.382	-0.427
-707.631	148.417	0.057	0.077
-706.616	800.000	-0.069	-0.222
-705.602	800.000	-0.027	0.095
-704.587	51.572	0.191	-0.183
-703.572	-180.337	0.247	0.005
-702.558	321.800	0.022	0.041
-701.543	-129.497	-0.310	-0.043
-700.529	-200.000	-0.061	-0.361
-699.514	-176.038	-0.189	0.005
-698.499	68.775	-0.097	0.100
-697.485	77.337	0.129	0.137
-696.470	73.724	0.190	-0.199
-695.456	368.710	-0.030	-0.061
-694.441	-58.209	-0.070	0.031
-693.426	-146.256	-0.165	0.015
-692.412	85.680	-0.224	0.247
-691.397	297.926	-0.087	-0.161
-690.383	-23.608	-0.056	-0.034
-689.368	-80.262	0.368	-0.123
-688.354	13.893	0.138	-0.108
-687.339	-200.000	0.081	-0.394
-686.324	800.000	0.066	-0.199
-685.310	-128.141	0.032	0.005
-684.295	316.419	-0.065	0.124
-683.281	-128.764	0.450	-0.064
-682.266	-182.474	-0.025	-0.000
-681.251	-160.528	0.166	0.009
-680.237	-34.511	0.037	0.020
-679.222	800.000	-0.166	-0.493
-678.208	-200.000	-0.017	-0.301
-677.193	-200.000	0.298	0.000
-676.178	-21.180	-0.151	0.092
-675.164	-14.314	-0.182	0.117
-674.149	528.249	0.105	0.248
-673.135	163.220	-0.095	0.133
-672.120	-200.000	-0.019	0.137
-671.105	-98.514	0.137	-0.035
-670.091	-200.000	0.080	0.367
-669.076	-200.000	0.053	-0.256
-668.062	193.822	0.080	-0.121
-667.047	184.171	0.122	-0.181
-666.032	-181.425	0.121	-0.002
-665.018	-178.159	0.265	-0.006
-664.003	-55.794	0.256	-0.115
-662.989	50.081	0.198	-0.188
-661.974	-200.000	0.010	-0.149
-660.959	346.120	-0.064	-0.127
-659.945	800.000	0.076	0.273
-658.930	-200.000	0.001	0.038
-657.916	-200.000	0.012	-0.154
-656.901	295.476	0.037	0.069
-655.886	54.491	0.100	0.097
-654.872	-125.517	0.201	0.031
-653.857	197.113	0.111	-0.170
-652.843	-149.681	-0.238	-0.019
-651.828	610.697	0.169	-0.423
-650.814	143.933	0.084	0.112
-649.799	800.000	0.056	-0.182
-648.784	66.078	-0.222	-0.226
-647.770	175.528	-0.057	-0.083
-646.755	-46.748	0.086	-0.042
-645.741	800.000	0.051	0.162
-644.726	556.435	0.057	-0.138
-643.711	-200.000	-0.023	0.184
-642.697	140.380	-0.220	-0.290
-641.682	-121.401	0.088	0.015
-640.668	-50.457	0.167	0.079
-639.653	-41.272	-0.184	-0.095
-638.638	-200.000	0.015	-0.181
-637.624	606.604	0.071	0.178
-636.609	-2.918	-0.329	-0.230
-635.595	161.873	-0.036	0.050
-634.580	-200.000	0.014	-0.200
-633.565	-31.034	-0.197	0.111
-632.551	-200.000	-0.008	0.299
-631.536	-200.000	-0.030	-0.240
-630.522	-51.697	-0.114	-0.053
-629.507	-200.000	0.015	-0.068
-628.492	27.234	0.085	0.071
-627.478	-139.479	0.269	-0.029
-626.463	-200.000	0.010	-0.213
-625.449	68.272	-0.177	0.182
-624.434	-26.863	0.184	0.108
-623.419	-104.238	-0.074	-0.017
-622.405	361.368	0.194	-0.389
-621.390	586.025	-0.137	-0.336
-620.376	-200.000	0.006	-0.120
-619.361	26.590	0.098	-0.082
-618.346	-55.942	-0.180	-0.081
-617.332	-139.058	0.093	0.010
-616.317	72.011	-0.168	-0.175
-615.303	114.323	-0.056	-0.068
-614.288	-200.000	0.036	-0.268
-613.273	-200.000	0.006	-0.188
-612.259	88.560	0.075	-0.084
-611.244	257.834	0.088	-0.152
-610.230	-128.521	-0.206	-0.029
-609.215	-136.815	-0.417	-0.048
-608.201	161.225	0.159	-0.222
-607.186	-119.808	-0.124	-0.021
-606.171	189.904	-0.086	-0.130
-605.157	23.655	-0.189	0.156
-604.142	-102.664	-0.195	0.047
-603.128	-54.570	0.428	-0.193
-602.113	176.151	0.039	0.057
-601.098	686.984	-0.052	-0.137
-600.084	642.117	0.087	-0.221
-599.069	-84.218	0.153	-0.049
-598.055	-92.727	-0.258	0.072
-597.040	-88.225	-0.069	-0.020
-596.025	200.090	-0.048	0.074
-595.011	-40.407	0.211	-0.109
-593.996	-7.357	-0.269	0.182
-592.982	-166.663	-0.312	-0.013
-591.967	-163.793	0.240	0.011
-590.952	88.171	-0.155	0.172
-589.938	21.436	0.131	0.107
-588.923	166.229	0.127	-0.180
-587.909	-200.000	0.025	-0.259
-586.894	59.313	-0.233	-0.230
-585.879	742.915	-0.040	-0.108
-584.865	-14.615	-0.183	0.117
-583.850	-200.000	-0.015	0.276
-582.836	397.225	-0.066	0.139
-581.821	334.314	0.106	-0.204
-580.806	118.072	0.276	-0.339
-579.792	-200.000	0.012	0.212
-578.777	54.363	-0.176	0.169
-577.763	-89.267	-0.192	-0.056
-576.748	34.780	0.202	-0.176
-575.733	61.642	-0.164	-0.163
-574.719	438.879	-0.125	-0.273
-573.704	-154.249	-0.072	0.005
-572.690	800.000	-0.056	0.165
-571.675	800.000	-0.068	-0.272
-570.661	-2.009	-0.246	-0.173
-569.646	800.000	-0.164	-0.506
-568.631	18.881	-0.073	0.058
-567.617	513.560	0.045	-0.105
-566.602	-50.289	0.094	0.044
-565.588	286.207	-0.114	0.206
-564.573	167.270	-0.112	0.158
-563.558	144.044	0.295	-0.393
-562.544	-0.316	-0.174	-0.124
-561.529	167.179	0.145	-0.206
-560.515	-200.000	-0.009	-0.102
-559.500	23.402	-0.240	-0.197
-558.485	482.241	-0.064	-0.144
-557.471	543.036	-0.133	0.316
-556.456	17.954	0.134	-0.107
-555.442	127.418	-0.128	-0.162
-554.427	800.000	0.028	-0.105
-553.412	-200.000	0.040	-0.226
-552.398	-200.000	-0.018	-0.089
-551.383	-200.000	0.027	-0.237
-550.369	533.243	0.036	0.085
-549.354	-132.123	0.289	-0.037
-548.339	-50.938	-0.251	0.117
-547.325	-161.726	-0.399	0.020
-546.310	-26.043	-0.123	0.072
-545.296	42.353	0.334	0.302
-544.281	-200.000	0.007	0.186
-543.266	-19.838	-0.244	-0.151
-542.252	790.701	-0.106	-0.290
-541.237	161.168	0.094	0.130
-540.223	134.439	-0.092	0.119
-539.208	-77.790	-0.201	-0.069
-538.193	369.326	-0.076	0.153
-537.179	800.000	-0.068	0.231
-536.164	-56.598	-0.335	0.148
-535.150	284.635	0.208	-0.372
-534.135	687.967	0.032	-0.084
-533.121	-56.195	-0.111	0.049
-532.106	8.729	-0.053	0.040
-531.091	59.900	0.072	-0.071
-530.077	-99.654	-0.235	0.059
-529.062	-200.000	-0.013	0.142
-528.048	-200.000	0.025	-0.121
-527.033	800.000	0.049	-0.161
-526.018	513.432	-0.074	-0.172
-525.004	44.112	-0.289	-0.264
-523.989	176.374	-0.149	-0.216
-522.975	337.631	0.106	-0.204
-521.960	-44.678	0.221	-0.110
-520.945	-36.322	-0.397	0.213
-519.931	138.802	0.145	-0.190
-518.916	157.576	0.196	0.270
-517.902	-200.000	-0.033	0.151
-516.887	304.706	0.128	0.237
-515.872	-58.623	0.038	0.016
-514.858	800.000	0.137	0.409
-513.843	-200.000	-0.051	0.294
-512.829	800.000	0.059	-0.250
-511.814	744.939	-0.114	0.305
-510.799	-151.021	-0.192	-0.014
-509.785	-58.165	0.145	-0.063
-508.770	-200.000	0.032	0.208
-507.756	127.533	-0.130	-0.164
-506.741	-177.207	0.187	-0.005
-505.726	-18.097	0.175	-0.109
-504.712	349.718	-0.068	-0.133
-503.697	251.605	0.052	-0.088
-502.683	-107.586	-0.157	0.034
-501.668	87.544	0.222	0.244
-500.653	-86.644	0.077	0.024
-499.639	-23.299	0.281	-0.168
-498.624	700.186	0.141	-0.369
-497.610	-56.016	-0.238	-0.106
-496.595	800.000	0.054	0.222
-495.581	-200.000	0.001	-0.066
-494.566	145.802	0.139	0.186
-493.551	454.541	0.056	0.124
-492.537	182.494	-0.173	0.254
-491.522	800.000	0.046	0.180
-490.508	800.000	-0.057	-0.216
-489.493	-200.000	-0.020	-0.156
-488.478	800.000	-0.087	-0.244
-487.464	800.000	-0.072	0.228
-486.449	-90.042	-0.409	-0.119
-485.435	7.136	-0.306	-0.227
-484.420	-36.380	-0.040	0.022
-483.405	86.944	-0.160	-0.176
-482.391	-102.778	-0.273	0.065
-481.376	-116.477	0.293	0.054
-480.362	120.445	0.270	-0.334
-479.347	-200.000	0.012	0.150
-478.332	-17.664	0.091	0.057
-477.318	-117.994	-0.239	-0.042
-476.303	-200.000	-0.001	0.185
-475.289	-54.593	0.114	-0.051
-474.274	800.000	-0.075	-0.232
-473.259	49.720	-0.178	-0.166
-472.245	-180.215	-0.418	0.009
-471.230	-107.480	0.103	0.022
-470.216	448.762	0.057	-0.125
-469.201	-144.946	-0.128	-0.012
-468.186	-164.279	0.160	-0.007
-467.172	-200.000	0.018	0.209
-466.157	-128.154	0.387	-0.055
-465.143	69.195	-0.091	-0.093
-464.128	-69.216	0.352	-0.135
-463.113	-43.244	0.203	-0.102
-462.099	468.546	-0.060	0.134
-461.084	69.678	-0.083	0.085
-460.070	800.000	0.094	-0.374
-459.055	33.305	-0.187	0.162
-458.040	-14.408	0.157	-0.100
-457.026	77.153	0.041	-0.043
-456.011	-74.732	-0.063	-0.023
-454.997	-62.892	0.314	-0.129
-453.982	-99.086	0.257	0.065
-452.968	-200.000	0.003	0.201
-451.953	-114.923	-0.159	0.030
-450.938	-200.000	-0.033	0.247
-449.924	-103.846	0.420	-0.098
-448.909	445.508	-0.061	-0.134
-447.895	-200.000	0.013	0.149
-446.880	-136.699	-0.452	0.052
-445.865	-46.202	-0.156	0.076
-444.851	15.925	0.107	0.083
-443.836	-156.749	0.083	-0.005
-442.822	-122.416	-0.051	-0.008
-441.807	-58.097	-0.347	-0.150
-440.792	-200.000	0.004	-0.021
-439.778	330.985	-0.078	-0.149
-438.763	38.958	-0.192	0.170
-437.749	800.000	-0.039	0.137
-436.734	83.298	0.083	-0.090
-435.719	-116.490	-0.153	-0.028
-434.705	-79.689	0.395	-0.132
-433.690	-200.000	0.024	0.116
-432.676	-200.000	-0.033	0.293
-431.661	-115.589	-0.251	0.047
-430.646	-61.785	0.166	0.069
-429.632	-200.000	0.047	0.207
-428.617	-82.027	-0.156	0.050
-427.603	335.152	-0.072	-0.139
-426.588	-6.934	0.306	0.207
-425.573	80.896	0.118	-0.127
-424.559	-70.576	-0.174	-0.065
-423.544	-18.315	-0.042	0.026
-422.530	-42.285	0.125	-0.063
-421.515	800.000	0.050	-0.197
-420.500	-200.000	-0.035	0.267
-419.486	-52.196	0.409	-0.188
-418.471	491.424	-0.078	-0.178
-417.457	-100.812	-0.057	0.014
-416.442	-5.275	-0.101	-0.069
-415.428	80.456	0.239	-0.256
-414.413	91.325	-0.188	0.209
-413.398	23.612	-0.104	-0.085
-412.384	-99.255	-0.228	0.057
-411.369	-14.225	0.086	0.055
-410.355	31.359	-0.075	-0.064
-409.340	116.778	-0.304	0.370
-408.325	-110.504	0.196	0.040
-407.311	-13.170	0.096	-0.062
-406.296	103.827	0.147	-0.171
-405.282	-93.203	-0.229	-0.063
-404.267	-158.288	-0.306	0.018
-403.252	-122.410	-0.230	0.037
-402.238	-32.790	0.111	-0.061
-401.223	25.200	0.207	0.170
-400.209	-102.620	-0.026	-0.006
-399.194	213.946	-0.056	-0.088
-398.179	211.115	0.100	0.157
-397.165	-118.612	0.036	-0.006
-396.150	-29.545	0.242	0.137
-395.136	-83.470	-0.118	0.037
-394.121	-163.562	0.339	-0.016
-393.106	-0.593	0.046	0.032
-392.092	-39.160	0.373	-0.195
-391.077	-59.940	-0.413	-0.175
-390.063	50.668	0.227	-0.213
-389.048	-200.000	-0.001	0.116
-388.033	7.940	0.130	0.097
-387.019	-26.478	0.190	-0.111
-386.004	457.792	-0.126	0.276
-384.990	-200.000	-0.007	0.368
-383.975	661.199	0.042	0.107
-382.960	-56.443	0.119	-0.052
-381.946	-93.330	0.190	-0.052
-380.931	-119.421	0.457	-0.079
-379.917	-200.000	0.039	0.237
-378.902	-200.000	0.038	-0.226
-377.888	311.668	0.204	-0.380
-376.873	-200.000	-0.046	0.296
-375.858	3.470	-0.176	-0.127
-374.844	7.692	0.227	0.168
-373.829	138.292	0.095	0.124
-372.815	91.342	0.247	0.275
-371.800	289.017	0.144	-0.259
-370.785	-16.426	0.019	-0.012
-369.771	-200.000	-0.042	0.216
-368.756	-200.000	-0.010	-0.167
-367.742	800.000	0.082	0.237
-366.727	-200.000	-0.012	0.174
-365.712	182.658	-0.184	-0.269
-364.698	206.226	0.047	-0.072
-363.683	-200.000	0.133	0.000
-362.669	-167.869	0.053	0.002
-361.654	800.000	-0.077	0.256
-360.639	20.626	-0.161	-0.129
-359.625	175.728	0.041	-0.059
-358.610	128.151	-0.087	0.109
-357.596	-0.230	-0.203	-0.143
-356.581	-57.409	0.204	0.089
-355.566	-118.401	-0.337	-0.059
-354.552	-1.953	0.191	0.133
-353.537	-1.947	-0.248	-0.172
-352.523	318.268	0.021	0.039
-351.508	-200.000	-0.017	0.143
-350.493	-135.006	-0.209	0.025
-349.479	572.055	0.096	-0.232
-348.464	0.921	-0.184	0.130
-347.450	-166.026	-0.165	0.007
-346.435	-200.000	0.077	0.411
-345.420	402.647	-0.085	0.177
-344.406	800.000	-0.030	-0.099
-343.391	-200.000	0.039	0.197
-342.377	584.172	0.107	0.259
-341.362	-200.000	0.007	0.125
-340.348	445.554	-0.087	0.189
-339.333	-51.349	0.061	-0.028
-338.318	60.883	0.037	-0.036
-337.304	-4.874	0.151	-0.103
-336.289	800.000	-0.023	-0.092
-335.275	55.137	0.039	0.037
-334.260	-59.744	-0.184	0.078
-333.245	-93.310	0.030	-0.008
-332.231	-160.097	-0.303	0.016
-331.216	-82.822	-0.034	0.011
-330.202	36.534	-0.079	0.069
-329.187	-104.743	-0.191	-0.043
-328.172	-29.997	-0.060	0.034
-327.158	-200.000	-0.038	-0.196
-326.143	-200.000	-0.020	-0.278
-325.129	-140.674	-0.257	0.026
-324.114	-92.621	0.362	0.100
-323.099	-176.578	0.228	-0.006
-322.085	-129.409	0.156	-0.021
-321.070	24.382	0.143	0.117
-320.056	84.494	-0.110	0.119
-319.041	12.612	-0.173	-0.132
-318.026	-87.476	0.154	-0.046
-317.012	-200.000	0.035	-0.251
-315.997	800.000	-0.029	-0.090
-314.983	-39.584	0.197	0.102
-313.968	800.000	0.099	0.358
-312.953	800.000	0.052	0.203
-311.939	471.850	-0.083	-0.185
-310.924	-200.000	0.013	0.088
-309.910	-110.529	0.201	0.041
-308.895	45.475	-0.327	-0.298
-307.880	-200.000	-0.056	0.347
-306.866	-126.463	0.247	-0.036
-305.851	121.502	-0.105	0.129
-304.837	-36.311	0.228	0.122
-303.822	-158.203	0.380	0.022
-302.807	200.001	0.101	-0.153
-301.793	-108.874	-0.238	-0.050
-300.778	80.411	0.218	-0.232
-299.764	-34.578	-0.059	0.032
-298.749	-120.473	0.329	-0.055
-297.735	675.878	-0.120	-0.308
-296.720	39.812	-0.104	-0.092
-295.705	176.116	0.200	-0.287
-294.691	-37.422	0.372	0.196
-293.676	-181.463	-0.275	0.005
-292.662	-200.000	0.086	0.376
-291.647	-2.933	0.295	-0.204
-290.632	800.000	-0.046	-0.143
-289.618	-100.721	-0.204	-0.050
-288.603	-106.355	-0.262	-0.058
-287.589	-47.114	0.262	0.126
-286.574	194.819	0.061	-0.091
-285.559	-200.000	-0.000	0.227
-284.545	32.356	-0.070	0.060
-283.530	174.681	-0.038	0.054
-282.516	-58.595	-0.249	0.107
-281.501	-42.060	-0.181	0.092
-280.486	-93.561	-0.118	0.032
-279.472	39.694	0.068	-0.060
-278.457	195.108	-0.110	-0.165
-277.443	-86.831	0.251	0.076
-276.428	-200.000	0.013	0.234
-275.413	-200.000	0.003	-0.221
-274.399	1.676	-0.063	-0.045
-273.384	53.684	0.205	0.194
-272.370	-148.947	0.226	-0.018
-271.355	-200.000	0.022	0.100
-270.340	213.202	-0.129	0.202
-269.326	-51.786	-0.125	0.058
-268.311	-50.789	0.127	0.059
-267.297	-25.767	-0.336	0.196
-266.282	43.431	0.093	0.084
-265.267	272.273	0.075	-0.131
-264.253	-200.000	-0.058	-0.285
-263.238	-82.324	0.124	-0.040
-262.224	21.124	-0.083	0.066
-261.209	235.611	-0.092	0.150
-260.195	-13.290	0.109	0.070
-259.180	800.000	0.057	0.182
-258.165	143.772	0.089	0.117
-257.151	-200.000	0.033	0.391
-256.136	180.311	-0.139	0.201
-255.122	-200.000	0.064	0.344
-254.107	151.656	-0.194	0.261
-253.092	147.737	-0.098	-0.130
-252.078	70.341	0.107	-0.109
-251.063	713.746	0.213	0.557
-250.049	-69.237	-0.180	-0.068
-249.034	-200.000	0.008	0.244
-248.019	55.619	-0.142	-0.136
-247.005	-98.378	0.095	0.024
-245.990	669.073	0.087	0.221
-244.976	-131.467	0.228	0.030
-243.961	-74.077	0.191	-0.068
-242.946	-200.000	0.057	0.304
-241.932	215.975	0.262	-0.410
-240.917	16.262	-0.057	-0.045
-239.903	-75.596	0.092	-0.032
-238.888	-200.000	0.036	0.319
-237.873	-7.739	-0.178	-0.118
-236.859	-133.206	0.054	-0.007
-235.844	-137.762	-0.328	0.036
-234.830	-8.345	0.178	0.118
-233.815	-200.000	-0.043	0.378
-232.800	0.693	-0.155	-0.110
-231.786	-200.000	-0.002	-0.037
-230.771	-200.000	-0.018	0.169
-229.757	-101.170	0.353	0.085
-228.742	-82.834	-0.391	-0.124
-227.727	51.513	0.110	0.103
-226.713	78.770	0.162	-0.170
-225.698	800.000	0.009	-0.026
-224.684	236.707	-0.050	0.081
-223.669	4.991	0.059	0.042
-222.655	-47.454	0.343	0.164
-221.640	-57.408	0.324	-0.140
-220.625	-145.844	0.178	-0.016
-219.611	-200.000	-0.016	-0.188
-218.596	-200.000	-0.054	-0.297
-217.582	-200.000	0.010	-0.144
-216.567	4.213	0.285	0.205
-215.552	-109.411	0.172	0.036
-214.538	69.065	0.131	-0.132
-213.523	166.008	0.207	0.289
-212.509	99.474	0.160	0.183
-211.494	800.000	0.014	-0.051
-210.479	-109.302	-0.211	-0.044
-209.465	13.661	-0.014	0.011
-208.450	2.750	-0.363	-0.259
-207.436	223.894	-0.198	0.315
-206.421	-200.000	0.008	0.074
-205.406	-200.000	0.043	0.294
-204.392	60.499	-0.129	0.126
-203.377	-13.772	-0.090	-0.057
-202.363	-30.014	-0.197	-0.110
-201.348	-131.273	0.287	0.037
-200.333	112.644	-0.148	-0.176
-199.319	146.640	-0.119	-0.157
-198.304	-45.492	-0.259	-0.126
-197.290	-92.389	-0.326	-0.090
-196.275	800.000	0.049	0.154
-195.260	-56.801	-0.209	0.091
-194.246	-36.236	0.341	0.181
-193.231	398.659	0.035	-0.072
-192.217	800.000	0.041	-0.113
-191.202	-200.000	-0.009	-0.050
-190.187	261.620	0.118	0.201
-189.173	78.674	-0.019	0.020
-188.158	-143.242	0.256	0.024
-187.144	-200.000	-0.063	-0.332
-186.129	-200.000	-0.010	-0.149
-185.114	75.103	-0.063	0.066
-184.100	68.817	0.115	-0.116
-183.085	-200.000	-0.021	0.101
-182.071	-131.685	0.085	0.011
-181.056	486.592	-0.054	0.121
-180.042	1.617	-0.193	0.136
-179.027	-77.467	0.466	0.159
-178.012	-120.055	-0.243	0.041
-176.998	181.153	-0.184	-0.267
-175.983	-83.883	0.186	-0.058
-174.969	347.590	0.175	0.339
-173.954	86.249	-0.224	0.242
-172.939	-125.754	-0.315	0.047
-171.925	41.513	0.125	0.111
-170.910	800.000	-0.061	0.243
-169.896	663.172	-0.051	-0.129
-168.881	104.972	0.098	0.114
-167.866	133.959	-0.195	0.249
-166.852	237.008	-0.049	0.079
-165.837	61.127	0.083	-0.081
-164.823	-154.085	0.196	-0.013
-163.808	-200.000	0.036	0.220
-162.793	-200.000	0.012	-0.231
-161.779	-200.000	-0.023	-0.497
-160.764	-200.000	-0.007	0.233
-159.750	-76.738	0.343	0.118
-158.735	45.374	0.235	-0.213
-157.720	-95.010	-0.115	0.031
-156.706	64.844	0.114	0.113
-155.691	397.079	-0.098	0.201
-154.677	-123.196	0.222	-0.035
-153.662	800.000	0.027	0.075
-152.647	-115.380	0.162	-0.030
-151.633	66.302	-0.192	0.192
-150.618	8.271	-0.201	-0.148
-149.604	-1.959	0.270	-0.186
-148.589	-81.425	-0.102	0.033
-147.574	-114.139	0.283	-0.054
-146.560	-200.000	0.068	0.442
-145.545	8.867	0.032	0.024
-144.531	-200.000	0.056	0.299
-143.516	-146.239	-0.193	0.017
-142.502	5.171	0.111	0.080
-141.487	305.267	-0.226	-0.412
-140.472	519.276	-0.048	-0.110
-139.458	-37.053	0.143	-0.075
-138.443	-72.307	-0.237	0.086
-137.429	305.055	0.054	0.098
-136.414	286.180	-0.080	0.141
-135.399	27.079	0.174	-0.143
-134.385	70.665	0.168	-0.171
-133.370	253.325	0.082	-0.138
-132.356	-126.379	-0.181	-0.026
-131.341	800.000	-0.055	-0.207
-130.326	241.095	-0.090	0.148
-129.312	23.854	-0.012	0.010
-128.297	42.965	-0.195	-0.174
-127.283	800.000	-0.106	-0.315
-126.268	-200.000	-0.003	-0.126
-125.253	800.000	-0.021	0.067
-124.239	800.000	0.098	0.320
-123.224	278.210	0.081	0.142
-122.210	-176.133	-0.207	-0.005
-121.195	-63.915	-0.339	-0.136
