DTS Sentinel unit serial number:	SN413079Multiplexer serial number:	ORYXHardware model number:	OX4-SRSoftware version number:	ORYX F/W v4.00 Oryx Data Collector v3.7.2.0data status	okinstallation	princeton_trtdifferential loss correction	single-endedforward channel	channel 1reverse channel	N/Adate	2019/09/18time	14:50:35forward acquisition time	60.00reverse acquisition time	0.00gamma	496.2192k internal	0.2307k external	0.2307temperature offset calibration	0.9991default loss term (dB/km)	0.3790temperature slope calibration	1.0000multiplexer offset coefficient	1.0000multiplexer slope coefficient	1.0000fibre end	0.00T internal ref (°C)	35.09T ext. ref 1 (°C)	0.72T ext. ref 2 (°C)	31.34length (m)	temperature (°C)	Stokes	anti-Stokes-747.200	800.000	0.037	0.114
-746.185	641.753	-0.069	-0.178
-745.171	-200.000	0.042	0.230
-744.156	143.588	0.196	0.265
-743.142	-200.000	-0.100	-0.453
-742.127	487.471	0.175	0.405
-741.112	10.140	0.119	0.092
-740.098	-59.920	0.143	0.062
-739.083	-59.267	-0.196	-0.086
-738.069	175.933	0.121	0.178
-737.054	22.616	0.055	-0.046
-736.039	60.211	-0.179	0.180
-735.025	177.489	-0.141	-0.209
-734.010	-200.000	-0.032	-0.162
-732.996	-72.343	-0.241	-0.091
-731.981	441.777	-0.030	0.066
-730.966	-18.142	0.208	-0.132
-729.952	800.000	0.059	-0.225
-728.937	-200.000	-0.031	-0.237
-727.923	-200.000	-0.005	-0.080
-726.908	800.000	-0.057	-0.196
-725.894	53.467	-0.137	0.134
-724.879	53.472	-0.258	0.251
-723.864	150.792	-0.167	-0.230
-722.850	229.753	-0.117	-0.193
-721.835	303.034	-0.044	-0.083
-720.821	-123.673	-0.163	0.026
-719.806	800.000	-0.078	0.245
-718.791	-200.000	-0.023	-0.307
-717.777	-92.258	0.514	-0.147
-716.762	270.411	-0.138	0.247
-715.748	-181.427	-0.160	0.003
-714.733	-200.000	-0.001	-0.462
-713.718	351.910	-0.133	-0.267
-712.704	800.000	-0.063	-0.247
-711.689	-200.000	0.000	-0.184
-710.675	-38.664	0.113	-0.061
-709.660	401.195	-0.150	-0.321
-708.645	74.214	0.112	-0.119
-707.631	726.245	-0.183	-0.495
-706.616	-200.000	0.032	-0.324
-705.602	-23.452	0.143	-0.087
-704.587	-161.857	-0.265	-0.014
-703.572	-115.550	0.233	-0.044
-702.558	138.340	-0.159	-0.211
-701.543	98.152	0.056	0.065
-700.529	-66.581	-0.140	0.057
-699.514	-200.000	0.017	-0.225
-698.499	32.300	0.152	0.134
-697.485	-99.517	0.114	-0.029
-696.470	9.389	-0.105	-0.081
-695.456	-78.564	-0.256	-0.089
-694.441	172.340	-0.052	-0.076
-693.426	-25.642	0.156	0.093
-692.412	-200.000	-0.008	-0.104
-691.397	-16.465	-0.272	-0.175
-690.383	-182.257	-0.275	-0.005
-689.368	721.091	-0.112	-0.301
-688.354	-53.538	-0.199	-0.092
-687.339	-89.773	-0.068	-0.020
-686.324	-200.000	-0.009	0.230
-685.310	-57.417	0.022	-0.010
-684.295	295.724	0.011	-0.021
-683.281	740.872	-0.085	-0.233
-682.266	-31.060	-0.201	0.115
-681.251	-73.805	-0.099	-0.036
-680.237	53.875	0.164	-0.160
-679.222	800.000	0.107	0.394
-678.208	-200.000	0.035	-0.195
-677.193	800.000	0.098	-0.358
-676.178	-34.427	-0.317	-0.176
-675.164	53.221	0.254	-0.247
-674.149	-200.000	0.004	0.322
-673.135	225.432	0.197	-0.324
-672.120	68.059	0.247	-0.256
-671.105	-34.565	0.294	0.163
-670.091	-119.767	-0.114	0.020
-669.076	132.362	-0.028	0.037
-668.062	-200.000	0.021	0.144
-667.047	161.473	-0.095	0.135
-666.032	-133.657	0.150	0.019
-665.018	-15.120	-0.216	-0.140
-664.003	-140.307	-0.209	-0.022
-662.989	-76.202	-0.064	0.023
-661.974	-55.157	-0.197	-0.090
-660.959	348.641	-0.130	0.261
-659.945	800.000	0.056	0.240
-658.930	-2.516	0.086	-0.061
-657.916	72.304	0.008	0.008
-656.901	119.354	-0.173	0.217
-655.886	345.847	0.038	0.075
-654.872	800.000	-0.051	-0.187
-653.857	12.862	-0.158	-0.124
-652.843	262.690	0.168	-0.296
-651.828	-200.000	-0.021	0.099
-650.814	141.419	0.231	0.310
-649.799	14.102	0.139	0.110
-648.784	-87.523	-0.287	-0.088
-647.770	82.756	0.120	0.133
-646.755	-150.732	-0.211	-0.016
-645.741	42.150	0.032	0.029
-644.726	-84.318	-0.184	-0.059
-643.711	-91.576	0.190	-0.055
-642.697	800.000	0.092	0.307
-641.682	149.655	-0.147	0.202
-640.668	-9.748	0.081	0.054
-639.653	-101.473	0.228	0.056
-638.638	348.992	-0.142	-0.283
-637.624	-95.323	-0.210	-0.057
-636.609	421.843	-0.100	0.218
-635.595	-69.086	-0.201	-0.078
-634.580	548.957	0.055	-0.134
-633.565	-143.731	0.155	0.015
-632.551	35.843	-0.057	-0.051
-631.536	-200.000	0.000	-0.057
-630.522	318.453	0.109	-0.210
-629.507	64.637	0.120	0.122
-628.492	-200.000	0.010	-0.251
-627.478	-126.599	0.288	0.043
-626.463	-71.639	0.142	-0.054
-625.449	55.733	-0.024	0.024
-624.434	-53.182	0.187	-0.087
-623.419	176.954	-0.177	-0.260
-622.405	7.921	-0.112	-0.085
-621.390	22.455	-0.076	0.063
-620.376	-31.502	0.114	-0.065
-619.361	441.720	-0.078	0.173
-618.346	-91.131	-0.213	0.062
-617.332	-36.166	0.120	-0.066
-616.317	-22.421	-0.213	0.131
-615.303	-115.291	0.201	0.038
-614.288	38.346	-0.165	0.148
-613.273	112.557	-0.172	0.210
-612.259	800.000	-0.062	-0.239
-611.244	66.826	-0.119	-0.123
-610.230	60.211	-0.212	-0.212
-609.215	285.385	0.089	-0.162
-608.201	-20.254	-0.112	0.070
-607.186	33.571	-0.211	0.186
-606.171	800.000	-0.086	0.296
-605.157	-200.000	0.007	0.296
-604.142	-127.890	-0.119	0.017
-603.128	438.062	0.023	-0.051
-602.113	800.000	0.018	0.071
-601.098	166.130	-0.087	-0.125
-600.084	41.819	0.139	0.127
-599.069	-200.000	-0.018	-0.172
-598.055	97.583	-0.128	0.149
-597.040	50.699	-0.180	-0.173
-596.025	-61.232	-0.135	0.057
-595.011	-76.203	0.124	-0.044
-593.996	-115.032	0.436	-0.084
-592.982	-52.972	0.266	-0.124
-591.967	-17.661	0.151	0.096
-590.952	-61.116	0.194	0.083
-589.938	-17.584	-0.189	-0.120
-588.923	294.695	0.006	-0.011
-587.909	-93.414	-0.240	-0.067
-586.894	-142.940	0.256	-0.025
-585.879	512.053	-0.034	0.081
-584.865	85.517	-0.069	-0.076
-583.850	47.402	-0.111	0.104
-582.836	0.006	-0.261	-0.188
-581.821	-94.177	-0.262	-0.072
-580.806	800.000	0.014	-0.041
-579.792	-200.000	0.043	0.239
-578.777	234.988	0.147	-0.245
-577.763	-72.901	-0.100	-0.037
-576.748	63.205	0.153	0.155
-575.733	-150.120	-0.219	-0.017
-574.719	13.017	0.130	-0.102
-573.704	462.067	-0.063	-0.142
-572.690	-42.640	0.088	0.045
-571.675	257.279	0.190	-0.331
-570.661	322.218	-0.112	-0.216
-569.646	-26.605	-0.078	-0.046
-568.631	115.756	-0.095	-0.117
-567.617	-7.740	-0.070	-0.048
-566.602	-200.000	-0.014	0.131
-565.588	800.000	-0.038	-0.147
-564.573	-200.000	0.013	0.232
-563.558	-200.000	0.021	0.094
-562.544	-27.740	0.398	-0.233
-561.529	-62.155	0.208	-0.088
-560.515	290.285	0.095	0.174
-559.500	-200.000	-0.005	-0.228
-558.485	396.931	0.110	0.231
-557.471	370.077	0.093	-0.189
-556.456	481.421	-0.056	-0.128
-555.442	800.000	-0.025	-0.090
-554.427	-152.539	0.047	-0.003
-553.412	-88.008	-0.266	-0.081
-552.398	-133.451	-0.006	0.001
-551.383	-85.928	-0.202	0.063
-550.369	369.305	0.028	-0.057
-549.354	-148.295	0.221	-0.018
-548.339	800.000	-0.037	-0.122
-547.325	-142.498	-0.252	-0.025
-546.310	-1.488	0.160	0.114
-545.296	-200.000	-0.005	0.313
-544.281	-128.873	-0.099	-0.014
-543.266	44.659	0.067	-0.062
-542.252	-200.000	-0.001	-0.212
-541.237	-121.812	0.321	-0.054
-540.223	-102.035	-0.126	-0.031
-539.208	47.777	-0.088	0.083
-538.193	197.381	-0.085	0.132
-537.179	-200.000	-0.003	-0.192
-536.164	800.000	0.064	0.232
-535.150	-46.324	-0.373	0.185
-534.135	-163.146	0.419	-0.020
-533.121	-150.740	0.462	-0.035
-532.106	125.521	-0.147	0.187
-531.091	-105.630	0.303	0.069
-530.077	-67.293	0.218	0.086
-529.062	-182.510	0.148	0.003
-528.048	800.000	-0.033	-0.128
-527.033	-97.298	0.027	0.007
-526.018	-66.818	0.223	-0.089
-525.004	148.591	0.056	0.076
-523.989	-49.038	-0.384	-0.186
-522.975	800.000	-0.043	-0.169
-521.960	595.359	-0.061	0.153
-520.945	65.639	-0.294	-0.300
-519.931	90.887	-0.136	-0.153
-518.916	-200.000	-0.024	0.191
-517.902	-131.628	-0.073	0.010
-516.887	708.538	-0.092	0.246
-515.872	528.845	-0.119	-0.284
-514.858	379.232	0.059	-0.121
-513.843	67.567	-0.187	0.192
-512.829	-144.405	-0.085	0.008
-511.814	150.726	-0.127	-0.174
-510.799	800.000	-0.052	0.149
-509.785	-48.358	-0.269	0.131
-508.770	4.444	0.391	-0.289
-507.756	472.634	0.027	-0.061
-506.741	-36.055	0.271	0.148
-505.726	-2.791	0.073	0.052
-504.712	-114.831	-0.333	-0.064
-503.697	-200.000	0.027	-0.212
-502.683	-37.754	-0.141	0.076
-501.668	560.892	0.031	0.075
-500.653	-200.000	0.061	0.331
-499.639	-44.385	-0.335	0.169
-498.624	-107.596	-0.091	-0.020
-497.610	-113.935	0.264	-0.052
-496.595	-141.846	-0.135	0.014
-495.581	197.395	0.018	-0.028
-494.566	-5.749	0.368	0.254
-493.551	-128.463	0.122	0.018
-492.537	110.183	0.074	-0.090
-491.522	-103.644	0.495	-0.117
-490.508	83.120	0.056	0.062
-489.493	-160.495	0.385	0.021
-488.478	17.857	0.218	-0.175
-487.464	-59.899	-0.174	-0.075
-486.449	-65.677	0.158	0.064
-485.435	-62.280	-0.121	0.051
-484.420	272.470	0.151	-0.269
-483.405	5.420	0.212	-0.158
-482.391	-200.000	0.004	0.242
-481.376	-145.477	-0.423	-0.038
-480.362	-200.000	0.006	-0.283
-479.347	0.235	-0.202	-0.145
-478.332	800.000	-0.045	-0.173
-477.318	-200.000	-0.013	-0.214
-476.303	-104.488	-0.300	-0.070
-475.289	-149.095	0.239	0.019
-474.274	-44.556	0.265	-0.134
-473.259	-200.000	0.021	-0.394
-472.245	-74.493	-0.267	0.097
-471.230	800.000	0.050	0.141
-470.216	-200.000	-0.003	0.121
-469.201	530.210	0.109	0.258
-468.186	-42.412	0.139	0.071
-467.172	-156.638	-0.264	-0.016
-466.157	-122.804	0.366	0.059
-465.143	311.874	0.184	-0.348
-464.128	-158.821	0.045	0.003
-463.113	294.308	-0.110	-0.202
-462.099	-200.000	-0.029	-0.306
-461.084	-75.543	-0.327	-0.117
-460.070	116.894	0.192	0.237
-459.055	-139.048	-0.094	0.010
-458.040	-198.838	-0.149	-0.001
-457.026	-200.000	-0.032	0.305
-456.011	176.973	0.177	0.258
-454.997	-189.578	-0.243	-0.003
-453.982	-92.330	0.256	0.072
-452.968	-200.000	0.035	0.241
-451.953	698.866	-0.057	-0.151
-450.938	-108.518	0.211	0.046
-449.924	800.000	-0.058	-0.241
-448.909	-115.271	0.270	0.051
-447.895	-30.655	0.238	-0.136
-446.880	-13.642	-0.122	-0.079
-445.865	10.858	0.182	0.140
-444.851	1.063	-0.016	-0.012
-443.836	223.686	0.228	-0.370
-442.822	-26.939	-0.197	-0.115
-441.807	-40.466	-0.224	-0.117
-440.792	-28.743	0.140	-0.081
-439.778	-170.694	0.365	0.013
-438.763	385.367	0.102	-0.212
-437.749	100.016	0.167	-0.195
-436.734	-200.000	-0.007	-0.030
-435.719	60.606	-0.112	0.112
-434.705	-116.084	0.107	0.020
-433.690	-5.899	0.247	-0.170
-432.676	101.076	0.069	-0.081
-431.661	-123.149	0.219	0.035
-430.646	-82.916	-0.179	0.058
-429.632	-200.000	-0.018	0.093
-428.617	19.847	0.014	-0.011
-427.603	705.667	-0.084	0.222
-426.588	288.463	-0.050	-0.091
-425.573	-131.415	-0.094	0.013
-424.559	211.393	0.051	-0.080
-423.544	-200.000	-0.022	0.159
-422.530	-200.000	-0.003	-0.099
-421.515	147.026	-0.168	-0.227
-420.500	165.661	0.115	-0.164
-419.486	460.602	-0.033	-0.074
-418.471	-60.810	-0.212	0.090
-417.457	-99.627	-0.142	0.036
-416.442	-200.000	0.016	0.212
-415.428	-102.623	0.330	-0.079
-414.413	-103.939	0.229	-0.054
-413.398	800.000	-0.052	0.168
-412.384	-119.143	-0.388	0.068
-411.369	-51.219	0.344	0.162
-410.355	800.000	0.070	0.246
-409.340	-24.577	-0.089	-0.053
-408.325	-138.021	-0.178	-0.020
-407.311	298.042	0.088	0.162
-406.296	800.000	-0.007	0.025
-405.282	-19.156	0.175	0.109
-404.267	171.171	0.078	0.113
-403.252	-86.804	-0.215	0.066
-402.238	52.215	-0.196	0.187
-401.223	-70.730	-0.226	-0.086
-400.209	48.533	0.097	0.091
-399.194	-65.773	0.205	0.082
-398.179	-200.000	0.005	0.290
-397.165	102.548	0.049	0.058
-396.150	342.823	0.029	-0.056
-395.136	332.366	0.153	0.296
-394.121	-106.489	-0.565	0.126
-393.106	-200.000	-0.044	-0.215
-392.092	97.968	0.080	0.092
-391.077	-43.338	-0.126	-0.064
-390.063	128.721	-0.054	0.069
-389.048	277.838	-0.078	0.139
-388.033	800.000	0.050	-0.143
-387.019	-57.206	0.229	0.101
-386.004	-173.720	-0.283	-0.008
-384.990	-200.000	0.002	0.056
-383.975	-108.389	0.218	0.047
-382.960	-130.409	-0.124	0.017
-381.946	-7.362	0.256	0.174
-380.931	-200.000	-0.013	-0.237
-379.917	37.762	-0.126	-0.112
-378.902	-40.636	-0.225	-0.117
-377.888	70.545	-0.121	-0.125
-376.873	-200.000	-0.018	0.230
-375.858	403.882	0.091	0.193
-374.844	155.027	-0.049	0.068
-373.829	373.666	-0.034	-0.069
-372.815	1.121	-0.298	0.215
-371.800	-200.000	0.046	-0.482
-370.785	800.000	0.062	-0.218
-369.771	-200.000	-0.024	-0.118
-368.756	300.730	-0.139	0.258
-367.742	39.658	0.237	0.213
-366.727	-80.839	0.063	0.021
-365.712	800.000	0.101	0.317
-364.698	38.873	0.113	-0.101
-363.683	19.384	0.199	0.161
-362.669	-200.000	0.037	0.163
-361.654	800.000	-0.056	-0.181
-360.639	133.011	0.136	0.175
-359.625	800.000	0.025	-0.084
-358.610	233.285	-0.089	0.146
-357.596	800.000	-0.019	-0.058
-356.581	264.299	0.168	-0.292
-355.566	800.000	0.083	0.297
-354.552	251.632	-0.079	0.135
-353.537	308.470	-0.074	0.139
-352.523	-127.933	0.132	-0.019
-351.508	-71.510	-0.449	0.168
-350.493	-28.661	-0.311	-0.179
-349.479	-2.085	-0.282	0.199
-348.464	566.026	0.064	-0.157
-347.450	-131.740	-0.290	0.038
-346.435	68.750	-0.201	0.207
-345.420	-56.285	-0.238	0.106
-344.406	-200.000	0.003	0.332
-343.391	-200.000	0.063	-0.000
-342.377	361.906	-0.050	0.100
-341.362	-200.000	-0.057	-0.289
-340.348	53.264	0.133	0.128
-339.333	-100.953	-0.166	-0.041
-338.318	-54.262	0.083	-0.038
-337.304	3.108	0.144	-0.105
-336.289	-63.590	-0.055	-0.023
-335.275	-56.270	0.376	-0.167
-334.260	800.000	0.047	0.138
-333.245	155.508	-0.240	0.331
-332.231	-126.212	0.049	-0.007
-331.216	-101.532	-0.233	-0.057
-330.202	800.000	0.016	-0.060
-329.187	-200.000	-0.012	0.272
-328.172	-31.592	-0.114	0.064
-327.158	156.875	0.192	-0.265
-326.143	-57.198	-0.225	-0.099
-325.129	177.972	-0.266	0.389
-324.114	63.723	0.258	-0.259
-323.099	-64.522	-0.107	0.043
-322.085	-200.000	0.059	-0.306
-321.070	179.189	0.158	-0.231
-320.056	-98.737	-0.183	-0.047
-319.041	163.902	0.069	0.097
-318.026	-86.726	-0.108	0.033
-317.012	-36.311	-0.081	-0.044
-315.997	-84.697	-0.239	-0.075
-314.983	334.277	0.120	-0.233
-313.968	176.774	-0.147	-0.214
-312.953	-21.556	0.173	-0.106
-311.939	-27.484	0.067	0.039
-310.924	-34.957	-0.155	0.084
-309.910	-200.000	0.043	-0.400
-308.895	435.861	0.065	0.141
-307.880	-93.460	-0.315	0.087
-306.866	47.220	0.174	0.162
-305.851	-85.899	-0.039	0.012
-304.837	-149.537	-0.278	-0.022
-303.822	141.863	-0.143	0.189
-302.807	-95.452	-0.101	0.027
-301.793	10.823	-0.042	-0.032
-300.778	458.891	-0.117	0.260
-299.764	437.034	-0.124	0.271
-298.749	-200.000	0.000	-0.057
-297.735	162.275	-0.121	0.170
-296.720	-200.000	-0.036	-0.228
-295.705	800.000	0.107	-0.307
-294.691	-82.115	0.298	0.097
-293.676	-200.000	-0.038	-0.241
-292.662	-144.887	0.191	0.018
-291.647	495.046	0.132	0.303
-290.632	-132.238	-0.057	0.007
-289.618	-123.267	0.260	0.041
-288.603	82.956	-0.027	0.030
-287.589	451.800	-0.099	-0.219
-286.574	56.341	0.350	-0.340
-285.559	-142.659	0.255	-0.025
-284.545	-44.143	0.064	-0.032
-283.530	-200.000	0.021	-0.148
-282.516	800.000	0.062	0.241
-281.501	800.000	0.065	-0.221
-280.486	-7.794	0.037	0.025
-279.472	36.896	-0.252	0.222
-278.457	800.000	-0.057	0.225
-277.443	-34.878	0.451	0.246
-276.428	-200.000	0.194	-0.001
-275.413	-42.971	-0.210	0.107
-274.399	-54.331	-0.264	0.120
-273.384	-85.550	0.109	0.034
-272.370	37.228	0.063	-0.056
-271.355	800.000	-0.049	-0.167
-270.340	3.424	-0.173	-0.126
-269.326	-107.746	0.285	-0.062
-268.311	-49.876	-0.111	0.053
-267.297	-185.408	0.306	-0.005
-266.282	-52.316	0.138	-0.064
-265.267	454.552	-0.090	-0.199
-264.253	-200.000	0.007	0.227
-263.238	-200.000	0.011	-0.159
-262.224	163.143	0.117	0.164
-261.209	-200.000	-0.026	0.132
-260.195	-46.528	-0.242	0.119
-259.180	78.147	-0.139	0.148
-258.165	-70.777	0.320	0.121
-257.151	93.654	0.142	0.160
-256.136	-32.558	0.277	-0.154
-255.122	79.966	-0.061	-0.065
-254.107	-142.836	0.182	-0.018
-253.092	66.384	0.102	-0.104
-252.078	-61.684	0.094	0.039
-251.063	-44.461	-0.176	0.088
-250.049	301.991	0.072	-0.134
-249.034	53.890	-0.319	-0.306
-248.019	97.102	-0.118	-0.136
-247.005	-200.000	0.002	-0.038
-245.990	-200.000	0.003	-0.210
-244.976	-149.618	-0.416	0.033
-243.961	800.000	-0.081	-0.319
-242.946	800.000	0.025	0.084
-241.932	800.000	-0.060	0.260
-240.917	-76.148	-0.115	0.041
-239.903	481.558	0.021	0.048
-238.888	-131.521	-0.299	-0.039
-237.873	71.107	-0.177	-0.183
-236.859	-179.497	0.153	-0.003
-235.844	59.767	-0.075	0.074
-234.830	-89.633	0.147	0.043
-233.815	-55.358	0.252	0.113
-232.800	-200.000	-0.025	0.282
-231.786	-200.000	-0.005	0.222
-230.771	274.020	-0.076	0.134
-229.757	800.000	0.054	-0.178
-228.742	800.000	-0.040	-0.121
-227.727	93.449	-0.196	0.221
-226.713	-21.124	-0.263	0.161
-225.698	-58.321	0.105	-0.045
-224.684	208.978	-0.040	0.062
-223.669	-200.000	-0.078	-0.404
-222.655	-112.234	0.033	0.007
-221.640	-200.000	0.035	0.198
-220.625	-56.029	0.151	0.067
-219.611	-200.000	-0.005	-0.356
-218.596	800.000	-0.047	-0.149
-217.582	459.207	-0.143	0.317
-216.567	122.983	-0.035	0.044
-215.552	800.000	-0.034	-0.130
-214.538	52.246	-0.093	-0.088
-213.523	-200.000	0.017	-0.108
-212.509	-4.526	-0.251	-0.173
-211.494	449.785	0.063	-0.138
-210.479	-32.776	0.132	0.073
-209.465	77.251	0.033	-0.035
-208.450	-5.326	-0.294	0.201
-207.436	-150.503	-0.259	-0.020
-206.421	-65.813	-0.074	-0.030
-205.406	-125.376	-0.290	-0.044
-204.392	316.596	0.207	0.389
-203.377	355.376	0.085	-0.169
-202.363	49.232	0.085	0.080
-201.348	-200.000	-0.044	-0.220
-200.333	15.900	-0.207	-0.162
-199.319	-10.200	-0.214	-0.141
-198.304	130.779	0.117	-0.149
-197.290	12.400	0.115	0.089
-196.275	-190.361	-0.415	0.005
-195.260	-200.000	0.023	-0.138
-194.246	800.000	-0.073	0.226
-193.231	0.420	0.157	-0.111
-192.217	-84.111	0.311	-0.098
-191.202	800.000	0.060	-0.222
-190.187	-88.451	0.274	0.081
-189.173	800.000	-0.018	0.064
-188.158	-200.000	-0.008	-0.185
-187.144	-200.000	0.007	-0.257
-186.129	-200.000	0.028	-0.221
-185.114	-200.000	-0.013	-0.215
-184.100	-200.000	0.056	0.331
-183.085	-70.172	-0.090	0.034
-182.071	-119.640	0.381	0.066
-181.056	-200.000	0.002	-0.328
-180.042	-200.000	0.037	0.214
-179.027	800.000	-0.013	0.049
-178.012	-200.000	-0.025	0.215
-176.998	381.711	0.097	0.198
-175.983	-50.186	0.046	-0.021
-174.969	-38.714	0.165	-0.086
-173.954	152.140	-0.138	0.188
-172.939	551.246	0.112	0.266
-171.925	501.434	0.102	-0.234
-170.910	-200.000	0.014	0.075
-169.896	-200.000	-0.026	-0.311
-168.881	-15.053	0.232	-0.148
-167.866	223.470	0.107	-0.171
-166.852	800.000	-0.055	0.206
-165.837	1.820	0.299	-0.214
-164.823	-200.000	0.005	0.335
-163.808	800.000	0.079	-0.225
-162.793	-200.000	-0.053	0.282
-161.779	-200.000	-0.005	0.228
-160.764	800.000	0.075	0.309
-159.750	-73.818	0.293	-0.106
-158.735	-38.859	0.094	-0.049
-157.720	276.186	0.212	0.374
-156.706	-27.825	-0.299	0.172
-155.691	-128.355	-0.120	0.017
-154.677	173.120	-0.076	0.109
-153.662	800.000	0.049	0.149
-152.647	421.130	-0.090	0.191
-151.633	-136.824	-0.188	-0.021
-150.618	-200.000	0.004	-0.093
-149.604	490.440	0.075	-0.171
-148.589	156.044	0.135	0.185
-147.574	423.405	0.153	-0.326
-146.560	73.779	0.172	0.179
-145.545	540.510	0.074	0.175
-144.531	-65.637	0.094	0.037
-143.516	-200.000	-0.012	-0.076
-142.502	-59.823	-0.103	-0.044
-141.487	-107.888	-0.100	0.022
-140.472	-141.176	0.294	0.030
-139.458	-200.000	0.010	0.120
-138.443	314.116	-0.175	0.327
-137.429	-170.170	0.121	-0.004
-136.414	800.000	-0.089	0.324
-135.399	171.588	0.405	-0.578
-134.385	-115.138	-0.357	0.067
-133.370	15.669	-0.216	0.169
-132.356	-164.828	-0.270	0.012
-131.341	384.896	0.280	0.573
-130.326	-91.318	-0.292	0.083
-129.312	215.098	0.043	0.068
-128.297	-171.092	0.119	0.004
-127.283	-68.731	0.172	0.066
-126.268	-42.640	0.323	-0.163
-125.253	65.639	-0.378	-0.380
-124.239	800.000	0.019	-0.065
-123.224	-151.234	0.145	0.011
-122.210	792.108	-0.172	-0.470
