DTS Sentinel unit serial number:	SN413079Multiplexer serial number:	ORYXHardware model number:	OX4-SRSoftware version number:	ORYX F/W v4.00 Oryx Data Collector v3.7.2.0data status	okinstallation	princeton_trtdifferential loss correction	single-endedforward channel	channel 1reverse channel	N/Adate	2019/09/14time	02:06:35forward acquisition time	60.00reverse acquisition time	0.00gamma	496.2192k internal	0.2336k external	0.2336temperature offset calibration	1.0073default loss term (dB/km)	0.3790temperature slope calibration	1.0000multiplexer offset coefficient	1.0000multiplexer slope coefficient	1.0000fibre end	0.00T internal ref (°C)	26.48T ext. ref 1 (°C)	3.20T ext. ref 2 (°C)	21.46length (m)	temperature (°C)	Stokes	anti-Stokes-747.200	275.103	0.068	0.121
-746.185	646.971	-0.073	0.187
-745.171	306.148	0.153	-0.286
-744.156	-48.216	-0.493	0.239
-743.142	201.724	-0.041	0.064
-742.127	64.221	-0.225	0.227
-741.112	325.609	-0.031	0.059
-740.098	-76.018	-0.199	-0.071
-739.083	-200.000	0.016	0.072
-738.069	-85.346	0.108	0.034
-737.054	-139.777	-0.329	0.035
-736.039	132.461	0.042	0.055
-735.025	-82.610	-0.081	0.026
-734.010	-200.000	0.093	-0.444
-732.996	-125.999	0.295	0.045
-731.981	-7.327	-0.208	0.141
-730.966	79.643	-0.218	-0.235
-729.952	-96.597	0.131	0.035
-728.937	-200.000	-0.025	-0.151
-727.923	-70.832	-0.188	0.071
-726.908	234.076	-0.143	-0.236
-725.894	-74.600	-0.281	0.102
-724.879	-200.000	-0.036	-0.192
-723.864	-64.828	0.191	-0.078
-722.850	536.929	-0.062	0.148
-721.835	-97.905	0.286	0.074
-720.821	788.012	-0.116	0.320
-719.806	772.601	-0.022	-0.060
-718.791	800.000	0.030	-0.110
-717.777	-200.000	0.033	-0.259
-716.762	-131.371	-0.213	-0.028
-715.748	800.000	0.038	0.142
-714.733	-133.268	0.176	-0.022
-713.718	51.457	-0.201	0.191
-712.704	-168.424	-0.259	0.010
-711.689	-157.709	-0.123	-0.007
-710.675	394.025	0.159	-0.333
-709.660	-77.660	-0.332	0.115
-708.645	440.340	-0.028	0.062
-707.631	800.000	-0.101	-0.308
-706.616	800.000	-0.102	-0.297
-705.602	543.283	-0.075	0.178
-704.587	-4.556	0.092	-0.064
-703.572	43.753	-0.390	-0.358
-702.558	800.000	-0.080	-0.247
-701.543	800.000	-0.055	-0.238
-700.529	-200.000	-0.003	-0.029
-699.514	-84.246	-0.284	-0.090
-698.499	67.949	0.182	0.187
-697.485	-47.481	-0.360	0.176
-696.470	363.794	0.168	-0.339
-695.456	-58.058	0.149	0.065
-694.441	-200.000	0.015	0.168
-693.426	80.839	-0.030	0.032
-692.412	-75.248	0.182	-0.065
-691.397	-165.543	-0.101	0.004
-690.383	392.640	0.036	-0.075
-689.368	-200.000	0.030	-0.212
-688.354	30.480	0.160	-0.137
-687.339	-98.717	-0.113	0.029
-686.324	31.067	-0.039	-0.034
-685.310	-200.000	-0.011	-0.078
-684.295	-74.999	-0.136	0.049
-683.281	-128.165	-0.090	-0.013
-682.266	-10.979	-0.078	-0.052
-681.251	-14.931	-0.211	-0.136
-680.237	800.000	-0.044	-0.123
-679.222	-43.092	-0.384	0.195
-678.208	-102.812	-0.280	0.067
-677.193	-176.419	-0.164	0.004
-676.178	-200.000	0.027	-0.188
-675.164	-200.000	-0.008	-0.060
-674.149	138.103	0.174	0.228
-673.135	19.835	-0.054	-0.043
-672.120	254.189	-0.067	-0.115
-671.105	-200.000	-0.032	0.270
-670.091	83.839	-0.045	0.049
-669.076	552.169	0.095	-0.229
-668.062	-120.183	0.505	0.086
-667.047	356.698	0.037	-0.074
-666.032	-200.000	-0.003	-0.051
-665.018	117.471	-0.119	-0.147
-664.003	-200.000	0.016	-0.076
-662.989	-200.000	0.016	0.392
-661.974	-200.000	-0.014	-0.183
-660.959	295.833	-0.004	-0.007
-659.945	-174.217	0.409	0.012
-658.930	-200.000	-0.004	-0.146
-657.916	-51.988	0.290	-0.135
-656.901	467.781	0.072	-0.162
-655.886	-114.404	-0.397	-0.076
-654.872	0.634	-0.158	-0.113
-653.857	-200.000	0.001	-0.107
-652.843	-59.337	0.224	0.096
-651.828	6.267	0.134	0.100
-650.814	379.632	0.125	0.256
-649.799	-200.000	0.009	-0.385
-648.784	531.430	-0.090	-0.214
-647.770	125.956	-0.055	0.070
-646.755	445.933	0.175	-0.385
-645.741	-183.122	0.025	0.000
-644.726	-113.323	0.024	-0.005
-643.711	-103.561	-0.277	-0.065
-642.697	-72.053	0.036	0.013
-641.682	-200.000	-0.004	-0.138
-640.668	-101.653	-0.023	-0.006
-639.653	-200.000	-0.001	0.095
-638.638	-109.319	-0.143	0.030
-637.624	-32.719	0.210	0.117
-636.609	-200.000	0.035	0.156
-635.595	-200.000	-0.028	-0.326
-634.580	11.733	0.272	0.209
-633.565	-18.930	0.198	-0.123
-632.551	-200.000	-0.007	0.228
-631.536	800.000	0.035	0.113
-630.522	-1.715	0.082	0.058
-629.507	-91.528	0.029	-0.008
-628.492	244.187	-0.073	0.123
-627.478	-82.117	0.295	-0.096
-626.463	-48.870	0.156	0.075
-625.449	71.513	-0.281	-0.291
-624.434	49.700	-0.081	-0.076
-623.419	-48.637	-0.129	-0.062
-622.405	-39.028	0.153	0.080
-621.390	-90.642	0.262	-0.076
-620.376	-11.586	0.135	0.089
-619.361	255.432	-0.098	0.168
-618.346	-70.309	-0.327	-0.124
-617.332	-93.663	-0.585	0.161
-616.317	-57.731	0.126	0.055
-615.303	800.000	0.057	0.201
-614.288	269.148	0.119	0.208
-613.273	-41.384	-0.122	-0.063
-612.259	-200.000	-0.039	-0.200
-611.244	-128.438	-0.157	0.022
-610.230	3.261	-0.128	-0.093
-609.215	267.473	0.194	-0.340
-608.201	-101.552	-0.144	0.035
-607.186	-131.292	0.003	0.000
-606.171	196.498	0.182	0.278
-605.157	232.764	0.196	-0.322
-604.142	-126.141	-0.434	-0.065
-603.128	-79.645	-0.210	-0.071
-602.113	-195.155	0.165	-0.001
-601.098	260.086	0.225	-0.389
-600.084	-106.089	-0.190	-0.043
-599.069	151.223	0.038	0.052
-598.055	-200.000	-0.003	0.059
-597.040	800.000	-0.069	0.213
-596.025	148.800	0.094	-0.127
-595.011	-113.574	-0.138	-0.027
-593.996	-200.000	0.041	0.252
-592.982	101.342	0.264	0.307
-591.967	255.734	-0.093	0.159
-590.952	141.257	-0.086	-0.114
-589.938	317.223	-0.013	0.024
-588.923	291.595	0.103	0.188
-587.909	-82.231	0.148	-0.048
-586.894	46.861	-0.169	0.156
-585.879	-96.483	-0.372	0.098
-584.865	-200.000	0.002	0.123
-583.850	800.000	-0.053	0.149
-582.836	29.573	-0.223	0.190
-581.821	174.429	-0.151	-0.217
-580.806	152.700	-0.099	0.135
-579.792	-115.934	0.406	0.076
-578.777	98.754	-0.054	-0.062
-577.763	121.379	0.220	-0.273
-576.748	-42.206	-0.314	0.160
-575.733	-200.000	-0.071	0.333
-574.719	-120.976	-0.099	0.017
-573.704	-118.916	0.306	-0.054
-572.690	-10.911	-0.223	0.147
-571.675	147.410	-0.097	-0.131
-570.661	468.633	-0.061	0.136
-569.646	13.148	-0.293	0.226
-568.631	512.779	0.081	0.189
-567.617	-200.000	-0.017	-0.218
-566.602	-200.000	-0.022	-0.114
-565.588	-107.939	0.268	0.058
-564.573	321.477	0.017	0.032
-563.558	110.879	0.223	-0.268
-562.544	800.000	-0.098	-0.352
-561.529	212.281	-0.077	0.121
-560.515	-200.000	0.066	-0.392
-559.500	79.298	-0.156	0.167
-558.485	-21.815	0.061	0.037
-557.471	-200.000	0.000	0.154
-556.456	-200.000	0.035	-0.324
-555.442	22.919	0.087	-0.071
-554.427	68.606	-0.039	0.040
-553.412	-60.752	0.240	0.102
-552.398	800.000	-0.036	0.149
-551.383	-38.329	0.167	0.088
-550.369	298.319	0.087	-0.159
-549.354	114.819	0.010	0.012
-548.339	-200.000	0.009	0.415
-547.325	-91.366	-0.106	0.030
-546.310	-86.886	0.127	0.039
-545.296	77.640	-0.282	-0.300
-544.281	-200.000	0.029	0.238
-543.266	20.641	-0.057	-0.046
-542.252	-32.221	-0.106	-0.059
-541.237	-200.000	0.034	-0.326
-540.223	100.456	0.264	-0.305
-539.208	-94.099	-0.061	0.017
-538.193	656.080	0.092	0.235
-537.179	428.276	0.152	0.327
-536.164	-200.000	0.021	-0.118
-535.150	-42.229	-0.132	0.067
-534.135	258.429	-0.074	-0.128
-533.121	272.448	0.132	0.233
-532.106	-69.405	-0.264	0.101
-531.091	-93.959	-0.289	0.079
-530.077	91.534	0.296	0.331
-529.062	128.678	-0.043	0.055
-528.048	-60.343	0.094	0.040
-527.033	84.455	0.289	0.315
-526.018	-200.000	0.016	0.101
-525.004	217.946	0.087	-0.138
-523.989	-137.420	0.082	-0.009
-522.975	117.886	-0.209	-0.257
-521.960	218.244	-0.290	-0.460
-520.945	-83.388	-0.113	0.036
-519.931	-200.000	-0.000	-0.020
-518.916	174.935	-0.177	0.255
-517.902	66.555	-0.072	0.072
-516.887	93.366	-0.123	-0.138
-515.872	268.863	0.204	-0.357
-514.858	-200.000	0.037	0.186
-513.843	122.433	0.110	0.137
-512.829	35.042	0.141	-0.123
-511.814	-200.000	0.004	-0.100
-510.799	800.000	0.075	-0.222
-509.785	216.389	-0.183	0.289
-508.770	-25.289	0.209	0.123
-507.756	63.799	-0.079	0.079
-506.741	297.311	-0.108	0.197
-505.726	325.622	-0.045	0.086
-504.712	-51.829	0.428	0.198
-503.697	-41.125	0.083	0.043
-502.683	34.671	-0.306	-0.266
-501.668	366.877	0.086	-0.172
-500.653	-200.000	0.002	0.090
-499.639	-34.951	-0.156	-0.085
-498.624	800.000	0.026	-0.077
-497.610	-64.720	0.043	0.018
-496.595	119.228	-0.069	-0.085
-495.581	352.834	-0.034	0.067
-494.566	297.300	-0.020	-0.036
-493.551	-200.000	0.001	-0.038
-492.537	63.599	0.273	0.273
-491.522	149.104	-0.101	0.136
-490.508	47.232	0.114	0.106
-489.493	-132.063	0.233	0.030
-488.478	508.841	-0.140	0.323
-487.464	227.201	0.228	-0.369
-486.449	800.000	-0.068	-0.215
-485.435	-200.000	-0.006	-0.085
-484.420	6.715	-0.098	0.072
-483.405	-200.000	0.014	0.086
-482.391	-200.000	-0.007	-0.060
-481.376	92.482	0.157	-0.176
-480.362	-54.271	-0.257	-0.116
-479.347	307.301	0.209	0.387
-478.332	497.122	0.064	0.147
-477.318	-65.472	0.113	-0.045
-476.303	-90.324	-0.172	0.050
-475.289	-4.441	0.272	0.187
-474.274	26.078	0.081	0.067
-473.259	12.465	0.022	-0.016
-472.245	-81.644	-0.212	0.069
-471.230	-44.717	-0.261	-0.129
-470.216	-112.290	0.264	-0.052
-469.201	-200.000	0.126	0.000
-468.186	-200.000	0.056	-0.409
-467.172	174.476	0.235	0.337
-466.157	-200.000	-0.017	0.111
-465.143	-40.494	0.137	-0.071
-464.128	-81.435	-0.190	-0.062
-463.113	-200.000	0.021	0.104
-462.099	-12.190	-0.205	-0.133
-461.084	800.000	0.021	0.083
-460.070	800.000	0.036	0.112
-459.055	244.723	0.195	0.326
-458.040	131.839	-0.095	-0.122
-457.026	28.165	-0.237	0.199
-456.011	-77.652	0.316	-0.108
-454.997	214.197	0.131	-0.206
-453.982	92.297	-0.275	0.308
-452.968	-72.038	0.143	-0.053
-451.953	-136.193	0.310	0.036
-450.938	-10.606	-0.090	0.059
-449.924	-31.393	-0.128	0.072
-448.909	800.000	0.063	-0.183
-447.895	-200.000	-0.003	0.170
-446.880	800.000	-0.081	0.280
-445.865	201.563	-0.085	-0.129
-444.851	800.000	-0.052	0.179
-443.836	-114.700	-0.254	0.048
-442.822	9.844	0.103	0.078
-441.807	800.000	-0.138	-0.481
-440.792	-123.961	-0.071	0.011
-439.778	313.874	-0.126	-0.236
-438.763	-60.391	0.198	-0.084
-437.749	-6.965	0.105	-0.071
-436.734	-27.270	0.026	0.015
-435.719	60.612	-0.094	-0.093
-434.705	-200.000	0.006	0.118
-433.690	160.179	-0.285	-0.395
-432.676	128.247	0.131	0.166
-431.661	-13.276	-0.143	-0.092
-430.646	-54.028	0.064	-0.029
-429.632	-200.000	-0.016	-0.422
-428.617	-82.320	-0.187	0.060
-427.603	-85.754	-0.095	0.029
-426.588	-200.000	-0.020	0.292
-425.573	28.161	0.194	-0.162
-424.559	-200.000	0.027	0.152
-423.544	130.849	0.089	-0.114
-422.530	123.630	0.085	-0.105
-421.515	35.959	0.033	-0.029
-420.500	92.818	0.278	-0.311
-419.486	123.395	-0.165	0.205
-418.471	532.079	0.095	-0.222
-417.457	-200.000	-0.031	0.146
-416.442	-188.983	0.298	-0.004
-415.428	224.822	-0.154	0.246
-414.413	48.683	0.198	-0.184
-413.398	26.233	-0.039	0.033
-412.384	15.088	0.274	-0.213
-411.369	-140.190	-0.148	0.015
-410.355	135.548	0.253	-0.326
-409.340	415.953	-0.040	-0.085
-408.325	-200.000	0.025	0.244
-407.311	122.314	-0.119	0.148
-406.296	511.313	-0.058	-0.135
-405.282	-92.268	-0.191	0.053
-404.267	642.981	0.056	-0.141
-403.252	-200.000	0.004	0.037
-402.238	-114.704	0.211	0.040
-401.223	-144.172	0.022	0.002
-400.209	800.000	0.037	-0.151
-399.194	800.000	0.056	-0.181
-398.179	-63.791	0.173	0.070
-397.165	123.223	-0.148	-0.183
-396.150	-200.000	0.018	0.216
-395.136	-116.508	0.091	0.017
-394.121	-4.205	-0.144	0.099
-393.106	-22.396	0.121	0.073
-392.092	374.741	-0.089	-0.180
-391.077	-66.100	0.045	-0.018
-390.063	-200.000	0.245	-0.001
-389.048	11.507	0.053	-0.040
-388.033	-200.000	0.010	-0.084
-387.019	48.108	-0.204	-0.189
-386.004	-34.895	0.264	0.143
-384.990	-135.585	-0.059	-0.007
-383.975	98.761	-0.140	-0.160
-382.960	-7.351	0.088	0.059
-381.946	-143.135	-0.467	0.045
-380.931	800.000	0.108	0.302
-379.917	-200.000	-0.009	0.143
-378.902	366.797	0.074	-0.147
-377.888	-11.058	-0.195	0.127
-376.873	116.673	-0.071	0.086
-375.858	-200.000	-0.048	-0.353
-374.844	-200.000	-0.001	0.073
-373.829	103.887	-0.196	-0.228
-372.815	89.070	0.359	0.396
-371.800	-20.201	-0.177	-0.108
-370.785	-200.000	0.090	0.421
-369.771	800.000	-0.065	0.254
-368.756	-200.000	0.021	0.160
-367.742	-2.773	-0.164	0.114
-366.727	-193.281	-0.127	-0.001
-365.712	39.508	0.170	0.151
-364.698	-64.172	0.107	0.043
-363.683	-5.415	0.189	0.128
-362.669	229.117	-0.038	-0.062
-361.654	-200.000	0.052	0.310
-360.639	-200.000	-0.010	0.175
-359.625	267.721	-0.072	0.124
-358.610	-141.444	0.306	0.031
-357.596	656.763	-0.103	-0.262
-356.581	-200.000	-0.015	-0.114
-355.566	-200.000	0.026	-0.157
-354.552	-32.813	-0.013	0.007
-353.537	-146.937	0.115	0.010
-352.523	-119.639	0.262	0.045
-351.508	-96.903	-0.372	-0.097
-350.493	-57.611	0.193	-0.084
-349.479	93.701	0.208	-0.233
-348.464	488.760	-0.023	-0.053
-347.450	-7.282	-0.068	0.045
-346.435	-8.706	-0.345	0.229
-345.420	84.940	-0.087	0.094
-344.406	-122.136	-0.143	0.023
-343.391	133.741	0.093	0.119
-342.377	-170.566	-0.322	-0.011
-341.362	92.180	-0.121	0.135
-340.348	106.419	0.178	-0.208
-339.333	-89.145	-0.180	-0.053
-338.318	-200.000	0.023	-0.178
-337.304	-115.216	-0.311	-0.058
-336.289	-50.110	-0.170	0.080
-335.275	83.855	0.085	-0.092
-334.260	-109.236	0.134	0.028
-333.245	-105.093	-0.110	-0.025
-332.231	25.168	0.142	-0.116
-331.216	92.869	0.122	-0.136
-330.202	60.655	-0.161	0.158
-329.187	-79.173	-0.320	-0.107
-328.172	-200.000	-0.003	-0.082
-327.158	143.114	0.115	0.151
-326.143	-200.000	-0.043	0.196
-325.129	133.557	0.137	-0.175
-324.114	214.373	0.138	-0.216
-323.099	-125.792	-0.029	-0.004
-322.085	-200.000	-0.018	-0.328
-321.070	-200.000	0.011	-0.109
-320.056	-200.000	-0.035	-0.269
-319.041	-191.035	-0.115	-0.001
-318.026	80.965	0.018	0.019
-317.012	800.000	0.097	0.288
-315.997	41.659	0.130	-0.116
-314.983	108.425	-0.106	-0.125
-313.968	-20.545	0.235	0.142
-312.953	98.395	0.247	-0.281
-311.939	640.987	-0.083	-0.208
-310.924	-121.681	0.161	-0.026
-309.910	44.118	-0.209	-0.189
-308.895	90.296	0.094	0.104
-307.880	97.055	-0.180	-0.204
-306.866	1.188	-0.083	0.059
-305.851	189.474	-0.086	0.128
-304.837	99.956	0.040	-0.046
-303.822	16.544	-0.215	0.168
-302.807	179.796	-0.382	0.553
-301.793	-3.971	-0.159	0.109
-300.778	422.625	0.106	0.225
-299.764	76.434	-0.073	0.076
-298.749	-200.000	0.007	-0.286
-297.735	-25.459	-0.079	-0.046
-296.720	-104.569	-0.310	-0.071
-295.705	10.939	-0.423	0.319
-294.691	-200.000	-0.015	-0.184
-293.676	-200.000	-0.025	0.134
-292.662	800.000	-0.037	0.149
-291.647	-34.519	0.192	0.104
-290.632	800.000	-0.053	-0.198
-289.618	82.246	-0.109	0.117
-288.603	71.130	-0.253	0.259
-287.589	574.354	0.107	0.258
-286.574	510.185	0.017	0.040
-285.559	65.627	0.203	-0.203
-284.545	800.000	-0.032	-0.138
-283.530	353.271	0.070	-0.137
-282.516	184.580	-0.063	0.092
-281.501	-96.321	-0.248	-0.065
-280.486	800.000	-0.007	0.020
-279.472	25.305	-0.168	0.138
-278.457	-81.987	-0.077	0.025
-277.443	-200.000	-0.209	0.001
-276.428	770.731	-0.048	-0.129
-275.413	-150.378	-0.144	-0.011
-274.399	-200.000	-0.006	0.061
-273.384	-19.259	0.087	0.053
-272.370	-200.000	0.000	-0.174
-271.355	-163.994	0.270	-0.012
-270.340	78.279	0.097	-0.102
-269.326	169.309	0.089	0.125
-268.311	34.142	-0.133	-0.114
-267.297	-99.015	-0.280	-0.070
-266.282	800.000	0.056	0.223
-265.267	-134.956	-0.432	0.051
-264.253	-113.936	-0.383	0.073
-263.238	19.154	0.437	-0.346
-262.224	-19.212	0.151	-0.093
-261.209	-39.667	-0.199	-0.102
-260.195	-35.743	0.282	-0.151
-259.180	800.000	0.071	-0.285
-258.165	800.000	0.044	0.181
-257.151	-169.261	0.324	-0.012
-256.136	9.752	-0.192	-0.143
-255.122	-149.759	0.110	-0.009
-254.107	-186.186	0.414	0.006
-253.092	-45.126	-0.302	-0.148
-252.078	112.591	-0.267	0.318
-251.063	-200.000	0.061	0.305
-250.049	800.000	-0.006	0.016
-249.034	-93.628	0.311	-0.085
-248.019	107.716	0.093	-0.109
-247.005	-24.323	0.338	0.199
-245.990	-101.572	-0.119	0.028
-244.976	115.502	-0.168	0.202
-243.961	-200.000	0.053	0.473
-242.946	-200.000	0.012	0.276
-241.932	-1.050	0.097	0.067
-240.917	22.511	-0.137	-0.111
-239.903	-115.208	-0.492	0.092
-238.888	263.514	-0.041	-0.070
-237.873	195.018	0.175	0.262
-236.859	-187.451	0.041	0.001
-235.844	-200.000	0.023	0.168
-234.830	-128.375	-0.229	-0.032
-233.815	-38.895	-0.227	-0.117
-232.800	176.440	-0.101	-0.145
-231.786	42.719	0.136	-0.122
-230.771	-39.858	-0.067	-0.034
-229.757	-200.000	-0.006	0.353
-228.742	69.713	0.071	0.072
-227.727	-92.918	-0.136	0.037
-226.713	-200.000	0.054	-0.333
-225.698	-200.000	0.021	-0.136
-224.684	-84.335	0.203	0.063
-223.669	85.752	-0.114	-0.123
-222.655	-108.604	0.182	0.038
-221.640	-47.115	0.155	-0.074
-220.625	-200.000	-0.008	0.137
-219.611	281.871	0.136	-0.240
-218.596	-32.099	-0.166	0.091
-217.582	-140.571	0.268	-0.027
-216.567	800.000	0.022	0.084
-215.552	101.971	-0.122	-0.140
-214.538	364.288	0.098	0.194
-213.523	352.785	0.219	-0.426
-212.509	800.000	-0.050	0.169
-211.494	-33.952	-0.425	-0.230
-210.479	-148.792	0.333	0.027
-209.465	612.597	-0.189	0.466
-208.450	128.771	-0.154	0.193
-207.436	-2.644	-0.252	-0.174
-206.421	-61.309	0.164	0.068
-205.406	-45.406	0.136	0.067
-204.392	-8.980	-0.149	0.098
-203.377	-66.931	0.135	-0.052
-202.363	30.496	0.177	-0.149
-201.348	49.476	-0.281	-0.260
-200.333	522.535	0.032	0.073
-199.319	704.448	-0.146	-0.380
-198.304	800.000	0.064	-0.202
-197.290	-80.898	0.147	0.048
-196.275	-103.228	0.105	0.024
-195.260	232.134	-0.224	-0.362
-194.246	-200.000	0.012	0.131
-193.231	-200.000	-0.004	0.212
-192.217	800.000	0.104	-0.288
-191.202	-157.725	0.160	-0.009
-190.187	421.512	0.092	-0.194
-189.173	4.487	-0.260	0.188
-188.158	-40.474	0.123	-0.063
-187.144	-23.029	-0.069	0.041
-186.129	-122.989	0.093	0.015
-185.114	75.287	-0.196	0.203
-184.100	298.327	0.252	-0.455
-183.085	117.362	0.091	-0.110
-182.071	-45.095	0.130	-0.064
-181.056	-115.020	0.046	0.009
-180.042	194.974	-0.105	0.157
-179.027	3.198	0.226	0.161
-178.012	-200.000	0.013	-0.088
-176.998	800.000	0.046	-0.158
-175.983	332.310	-0.110	-0.209
-174.969	220.595	0.022	0.035
-173.954	-200.000	0.068	-0.321
-172.939	-1.223	0.192	0.133
-171.925	417.237	0.047	0.100
-170.910	-36.484	-0.155	-0.082
-169.896	199.139	-0.132	-0.198
-168.881	-26.505	-0.352	0.202
-167.866	-200.000	0.007	-0.239
-166.852	-57.893	0.159	0.068
-165.837	-15.963	0.139	-0.087
-164.823	800.000	-0.093	0.341
-163.808	66.927	0.157	0.157
-162.793	-40.630	0.091	-0.046
-161.779	800.000	0.118	-0.330
-160.764	-56.724	0.183	0.079
-159.750	505.812	0.066	-0.150
-158.735	-33.753	0.240	-0.130
-157.720	42.175	0.328	0.293
-156.706	25.994	-0.173	0.142
-155.691	-200.000	0.010	-0.073
-154.677	-36.688	0.353	-0.186
-153.662	-200.000	-0.011	0.348
-152.647	-200.000	0.022	-0.158
-151.633	198.163	-0.045	-0.068
-150.618	800.000	-0.035	-0.146
-149.604	568.861	0.176	0.419
-148.589	91.014	-0.266	0.293
-147.574	-56.130	0.154	0.067
-146.560	-59.656	0.413	-0.174
-145.545	-145.945	-0.250	-0.022
-144.531	-200.000	-0.001	-0.007
-143.516	369.153	-0.158	-0.314
-142.502	18.485	-0.116	-0.091
-141.487	568.559	0.123	0.293
-140.472	-200.000	0.039	0.425
-139.458	255.683	0.200	0.336
-138.443	-111.669	-0.109	0.022
-137.429	-130.573	0.312	-0.041
-136.414	219.216	0.136	-0.214
-135.399	-79.828	0.210	-0.069
-134.385	-200.000	0.054	-0.296
-133.370	256.183	-0.055	0.093
-132.356	-200.000	0.038	0.374
-131.341	800.000	0.076	0.277
-130.326	-200.000	0.033	0.227
-129.312	20.288	0.298	0.236
-128.297	-200.000	0.018	-0.077
-127.283	11.083	0.078	0.059
-126.268	-41.202	0.290	-0.146
-125.253	-89.272	-0.151	0.044
-124.239	-200.000	-0.005	0.232
-123.224	140.829	0.114	0.147
-122.210	-9.373	0.158	-0.103
-121.195	611.304	0.106	0.259
-120.180	-133.182	0.315	-0.039
