DTS Sentinel unit serial number:	SN413079Multiplexer serial number:	ORYXHardware model number:	OX4-SRSoftware version number:	ORYX F/W v4.00 Oryx Data Collector v3.7.2.0data status	okinstallation	princeton_trtdifferential loss correction	single-endedforward channel	channel 1reverse channel	N/Adate	2019/09/16time	11:34:35forward acquisition time	60.00reverse acquisition time	0.00gamma	496.2192k internal	0.2297k external	0.2297temperature offset calibration	0.9964default loss term (dB/km)	0.3790temperature slope calibration	1.0000multiplexer offset coefficient	1.0000multiplexer slope coefficient	1.0000fibre end	0.00T internal ref (°C)	37.80T ext. ref 1 (°C)	12.98T ext. ref 2 (°C)	35.69length (m)	temperature (°C)	Stokes	anti-Stokes-747.200	290.689	0.081	0.151
-746.185	34.050	0.221	0.197
-745.171	18.459	0.242	0.197
-744.156	-200.000	-0.092	0.501
-743.142	-110.862	-0.309	0.065
-742.127	-71.775	0.121	0.046
-741.112	-200.000	0.014	-0.124
-740.098	742.241	-0.033	0.091
-739.083	-73.245	-0.187	0.070
-738.069	-42.184	0.312	0.163
-737.054	-69.071	-0.164	-0.064
-736.039	268.459	-0.066	0.118
-735.025	131.803	0.149	0.195
-734.010	82.808	-0.202	-0.225
-732.996	29.557	-0.114	-0.099
-731.981	-5.565	-0.278	-0.195
-730.966	-53.788	-0.214	-0.099
-729.952	-117.003	0.036	-0.007
-728.937	-200.000	-0.090	-0.452
-727.923	263.740	-0.071	-0.125
-726.908	149.116	-0.116	0.160
-725.894	800.000	0.058	-0.216
-724.879	800.000	-0.106	0.389
-723.864	15.834	0.106	0.085
-722.850	-61.699	-0.124	-0.053
-721.835	141.559	0.073	-0.099
-720.821	800.000	0.026	-0.114
-719.806	76.317	-0.117	0.126
-718.791	800.000	0.044	-0.130
-717.777	800.000	0.101	-0.330
-716.762	-200.000	-0.005	0.535
-715.748	2.811	-0.271	-0.201
-714.733	357.194	0.061	-0.123
-713.718	263.607	-0.075	-0.133
-712.704	-113.542	-0.174	0.035
-711.689	-200.000	-0.020	-0.164
-710.675	-200.000	-0.026	-0.282
-709.660	-200.000	-0.002	0.106
-708.645	-149.122	-0.182	0.015
-707.631	-82.635	0.051	0.017
-706.616	-200.000	0.013	-0.328
-705.602	56.916	-0.106	0.105
-704.587	-9.134	-0.149	-0.101
-703.572	-91.852	-0.215	-0.062
-702.558	8.238	0.127	-0.097
-701.543	-74.664	-0.267	0.098
-700.529	800.000	-0.045	0.127
-699.514	239.876	0.109	-0.185
-698.499	-95.992	-0.165	-0.045
-697.485	-100.048	-0.201	-0.051
-696.470	-169.523	0.165	0.006
-695.456	444.054	0.092	-0.205
-694.441	-2.091	-0.135	-0.097
-693.426	132.617	-0.096	-0.126
-692.412	800.000	0.070	0.228
-691.397	-200.000	0.008	-0.406
-690.383	-158.911	-0.198	0.011
-689.368	-200.000	-0.026	-0.352
-688.354	-75.973	-0.257	-0.093
-687.339	-200.000	0.040	-0.210
-686.324	-59.823	0.101	-0.044
-685.310	-200.000	0.017	-0.105
-684.295	550.902	-0.038	-0.093
-683.281	-0.141	-0.245	-0.177
-682.266	-97.351	-0.272	-0.072
-681.251	800.000	0.041	0.142
-680.237	-200.000	0.045	0.205
-679.222	-14.196	-0.038	0.025
-678.208	-200.000	0.031	-0.315
-677.193	-58.471	0.185	0.082
-676.178	-74.049	0.362	0.134
-675.164	26.871	0.236	-0.201
-674.149	560.811	0.055	0.134
-673.135	3.677	-0.395	0.294
-672.120	800.000	-0.055	-0.198
-671.105	-33.825	-0.255	-0.143
-670.091	-78.613	0.013	-0.005
-669.076	800.000	0.032	-0.109
-668.062	-12.681	-0.023	-0.015
-667.047	-31.998	0.056	-0.032
-666.032	6.704	-0.077	-0.058
-665.018	42.492	-0.158	0.147
-664.003	-72.657	0.320	-0.120
-662.989	-103.604	-0.194	-0.046
-661.974	-35.869	0.072	0.039
-660.959	-114.649	0.071	-0.014
-659.945	219.095	-0.024	0.039
-658.930	-85.082	0.242	0.077
-657.916	-200.000	0.002	-0.431
-656.901	-168.890	-0.282	-0.011
-655.886	-80.524	-0.158	0.054
-654.872	-200.000	0.033	-0.236
-653.857	-77.871	-0.238	-0.083
-652.843	90.821	0.174	-0.199
-651.828	113.616	0.199	0.246
-650.814	139.639	0.025	0.033
-649.799	-200.000	0.025	-0.119
-648.784	-77.723	-0.163	0.057
-647.770	611.739	0.125	0.319
-646.755	-200.000	-0.010	0.140
-645.741	11.482	-0.199	0.156
-644.726	99.664	-0.148	0.175
-643.711	-200.000	0.027	0.183
-642.697	72.031	-0.212	-0.224
-641.682	800.000	0.030	-0.105
-640.668	13.228	0.187	0.147
-639.653	-90.994	0.144	-0.042
-638.638	213.988	-0.120	0.194
-637.624	166.910	-0.127	0.183
-636.609	-79.738	0.216	-0.074
-635.595	84.720	-0.116	-0.129
-634.580	-40.985	0.097	0.051
-633.565	695.929	0.030	0.080
-632.551	389.943	-0.044	0.092
-631.536	-22.686	0.254	0.156
-630.522	85.605	-0.141	0.158
-629.507	201.405	0.117	0.182
-628.492	466.810	0.153	-0.348
-627.478	247.834	-0.132	-0.228
-626.463	-59.685	-0.229	0.100
-625.449	-19.320	0.189	-0.119
-624.434	-200.000	0.163	-0.000
-623.419	76.860	0.051	0.055
-622.405	-3.803	-0.171	0.121
-621.390	314.572	0.056	0.108
-620.376	-200.000	-0.028	-0.173
-619.361	-200.000	-0.061	-0.287
-618.346	800.000	-0.068	0.200
-617.332	356.600	0.056	0.114
-616.317	-146.636	0.102	0.009
-615.303	-200.000	-0.018	0.116
-614.288	-200.000	0.024	-0.377
-613.273	675.900	-0.176	-0.465
-612.259	155.126	0.086	-0.120
-611.244	800.000	-0.046	-0.196
-610.230	-106.940	-0.172	0.039
-609.215	776.401	0.062	-0.172
-608.201	-200.000	-0.013	0.179
-607.186	172.109	0.320	0.467
-606.171	-200.000	0.033	0.305
-605.157	539.309	0.070	0.169
-604.142	-200.000	0.049	-0.270
-603.128	17.977	-0.138	0.112
-602.113	260.699	0.165	0.290
-601.098	-21.779	-0.114	-0.070
-600.084	-143.585	0.248	-0.024
-599.069	12.681	-0.197	0.155
-598.055	-125.465	-0.243	0.037
-597.040	-200.000	0.011	0.204
-596.025	-120.495	0.379	-0.065
-595.011	-19.952	-0.102	0.064
-593.996	-8.196	-0.189	0.129
-592.982	-200.000	-0.007	0.187
-591.967	-129.664	0.359	-0.050
-590.952	710.980	0.077	-0.207
-589.938	-200.000	-0.011	-0.057
-588.923	-79.182	0.383	0.132
-587.909	-54.241	-0.162	0.075
-586.894	79.797	-0.211	0.230
-585.879	-103.622	0.204	0.048
-584.865	221.057	-0.193	0.314
-583.850	768.921	0.059	-0.163
-582.836	-59.030	-0.172	-0.075
-581.821	557.769	0.162	-0.396
-580.806	-31.567	-0.195	0.111
-579.792	786.665	0.043	-0.121
-578.777	-98.131	-0.095	-0.025
-577.763	-200.000	-0.095	0.501
-576.748	-22.167	-0.321	0.198
-575.733	26.445	0.055	-0.046
-574.719	-168.053	-0.157	-0.006
-573.704	-79.867	-0.333	-0.114
-572.690	800.000	-0.017	-0.070
-571.675	75.217	-0.229	0.245
-570.661	-200.000	-0.002	0.181
-569.646	209.799	-0.115	0.182
-568.631	69.570	0.134	-0.140
-567.617	-68.479	0.111	0.044
-566.602	-200.000	-0.015	-0.238
-565.588	411.135	0.012	-0.026
-564.573	800.000	0.028	0.121
-563.558	-6.124	0.026	0.018
-562.544	-118.092	-0.311	-0.056
-561.529	610.952	-0.105	0.266
-560.515	312.804	0.144	-0.275
-559.500	-18.599	-0.209	-0.132
-558.485	-47.642	-0.427	0.210
-557.471	-37.365	0.208	0.113
-556.456	160.817	0.134	-0.190
-555.442	-200.000	0.000	0.026
-554.427	150.245	0.193	0.265
-553.412	334.098	0.059	0.115
-552.398	170.655	0.108	-0.157
-551.383	-80.168	0.088	0.030
-550.369	-22.976	-0.214	-0.131
-549.354	-200.000	-0.034	-0.285
-548.339	-179.106	0.250	0.006
-547.325	218.252	0.067	0.108
-546.310	10.113	-0.433	-0.333
-545.296	28.529	-0.256	-0.220
-544.281	54.209	-0.027	0.026
-543.266	349.559	0.093	0.187
-542.252	-200.000	-0.011	0.129
-541.237	112.073	-0.170	0.209
-540.223	-100.531	-0.208	0.052
-539.208	800.000	-0.062	0.193
-538.193	-31.430	0.085	-0.049
-537.179	-75.782	0.222	-0.080
-536.164	260.319	0.162	-0.283
-535.150	-200.000	-0.009	0.079
-534.135	227.960	0.030	0.050
-533.121	78.572	-0.068	-0.073
-532.106	-59.233	0.032	0.014
-531.091	-107.574	0.272	-0.060
-530.077	-75.428	-0.452	0.163
-529.062	800.000	0.020	0.071
-528.048	-85.919	-0.348	-0.109
-527.033	317.986	0.129	-0.246
-526.018	-200.000	0.026	-0.184
-525.004	152.998	0.266	0.368
-523.989	-130.238	0.422	-0.058
-522.975	-200.000	0.028	-0.201
-521.960	-200.000	0.017	-0.194
-520.945	27.994	-0.263	-0.224
-519.931	71.566	0.138	0.145
-518.916	25.663	0.144	-0.122
-517.902	50.727	-0.109	0.105
-516.887	-92.444	0.033	0.009
-515.872	536.818	-0.024	-0.058
-514.858	60.122	-0.297	0.297
-513.843	-200.000	-0.037	-0.457
-512.829	480.112	-0.002	0.004
-511.814	431.918	0.152	-0.333
-510.799	138.804	-0.147	-0.195
-509.785	-131.484	0.069	-0.009
-508.770	800.000	-0.041	-0.147
-507.756	115.027	0.220	0.272
-506.741	496.743	-0.145	0.337
-505.726	-74.795	-0.216	0.078
-504.712	102.019	-0.215	0.254
-503.697	67.123	0.189	0.195
-502.683	-200.000	0.039	0.260
-501.668	-142.903	-0.093	0.009
-500.653	492.298	0.060	0.140
-499.639	-29.638	0.399	0.230
-498.624	-42.612	0.123	-0.063
-497.610	482.907	0.080	0.183
-496.595	33.149	-0.136	-0.119
-495.581	-200.000	-0.026	-0.315
-494.566	-200.000	0.045	-0.443
-493.551	-200.000	0.050	-0.270
-492.537	-200.000	-0.009	-0.052
-491.522	61.416	-0.146	0.146
-490.508	-29.625	-0.215	0.124
-489.493	201.240	-0.278	0.433
-488.478	288.884	0.102	-0.187
-487.464	9.234	-0.228	-0.175
-486.449	-19.053	0.200	-0.126
-485.435	-38.377	-0.311	0.167
-484.420	50.248	-0.084	0.080
-483.405	97.600	0.139	-0.161
-482.391	-38.375	0.196	0.105
-481.376	-58.503	0.321	0.141
-480.362	-200.000	-0.015	0.338
-479.347	689.083	0.085	-0.224
-478.332	-88.549	0.159	0.048
-477.318	92.626	0.123	0.141
-476.303	-200.000	0.018	-0.283
-475.289	393.378	0.113	-0.239
-474.274	-12.840	0.128	-0.084
-473.259	-107.176	-0.300	0.067
-472.245	-96.500	0.360	0.096
-471.230	800.000	-0.134	-0.503
-470.216	800.000	0.028	0.108
-469.201	-169.170	-0.146	-0.005
-468.186	-160.179	-0.120	0.007
-467.172	-170.186	-0.093	0.003
-466.157	6.413	0.008	0.006
-465.143	88.347	-0.076	0.085
-464.128	800.000	-0.060	0.221
-463.113	361.966	-0.124	-0.252
-462.099	-170.073	-0.043	0.002
-461.084	221.881	-0.088	0.143
-460.070	800.000	0.050	0.182
-459.055	-91.574	0.363	-0.104
-458.040	72.486	0.197	-0.207
-457.026	-50.360	0.130	0.062
-456.011	-51.368	-0.233	-0.110
-454.997	723.313	0.136	-0.365
-453.982	-200.000	-0.260	-0.000
-452.968	253.556	0.217	-0.373
-451.953	-43.113	0.139	-0.071
-450.938	-95.271	-0.211	0.057
-449.924	355.064	-0.139	0.279
-448.909	-68.064	0.164	0.065
-447.895	45.923	0.261	0.244
-446.880	-115.241	-0.137	0.026
-445.865	50.288	0.032	0.030
-444.851	-11.892	0.204	0.135
-443.836	111.436	-0.065	0.080
-442.822	-79.361	0.123	-0.042
-441.807	83.966	-0.060	0.067
-440.792	85.059	0.061	0.068
-439.778	-68.279	-0.207	0.081
-438.763	-102.200	-0.232	0.056
-437.749	30.180	0.098	0.085
-436.734	-33.517	-0.221	0.123
-435.719	798.583	-0.150	-0.418
-434.705	105.658	-0.074	0.089
-433.690	654.263	-0.124	0.322
-432.676	492.375	0.141	0.325
-431.661	-83.201	-0.379	0.123
-430.646	-200.000	-0.017	-0.107
-429.632	-45.627	-0.276	-0.138
-428.617	-110.935	-0.010	0.002
-427.603	-85.431	-0.251	-0.079
-426.588	-104.988	0.318	0.074
-425.573	104.662	-0.128	0.152
-424.559	-46.866	0.119	-0.059
-423.544	-200.000	0.025	-0.275
-422.530	51.113	-0.161	-0.154
-421.515	130.435	-0.116	-0.150
-420.500	-200.000	-0.006	0.124
-419.486	800.000	-0.082	0.340
-418.471	-106.649	-0.355	0.080
-417.457	23.342	0.074	0.062
-416.442	-92.989	-0.082	-0.023
-415.428	-38.113	-0.117	-0.063
-414.413	427.172	0.010	-0.022
-413.398	800.000	0.086	-0.303
-412.384	-77.420	0.392	-0.137
-411.369	-150.118	0.069	0.005
-410.355	800.000	-0.033	-0.106
-409.340	-131.840	-0.208	-0.027
-408.325	800.000	-0.055	0.209
-407.311	-85.535	-0.144	-0.045
-406.296	129.624	0.199	0.257
-405.282	184.168	-0.012	-0.018
-404.267	36.872	-0.283	0.252
-403.252	-120.795	-0.239	-0.041
-402.238	800.000	0.015	-0.059
-401.223	-62.654	0.044	0.018
-400.209	-108.289	-0.441	0.096
-399.194	260.458	0.220	-0.384
-398.179	204.546	0.034	-0.053
-397.165	800.000	-0.036	0.120
-396.150	91.782	0.206	0.233
-395.136	544.750	-0.078	-0.188
-394.121	583.499	0.102	-0.252
-393.106	-200.000	-0.008	-0.211
-392.092	-140.834	-0.183	-0.019
-391.077	105.832	0.070	0.083
-390.063	-31.888	-0.128	0.072
-389.048	-50.708	0.108	0.051
-388.033	69.905	-0.074	0.077
-387.019	-149.492	0.331	-0.026
-386.004	-73.214	0.305	-0.112
-384.990	-88.860	0.145	-0.043
-383.975	61.925	-0.102	0.103
-382.960	13.949	-0.227	-0.178
-381.946	800.000	-0.009	-0.027
-380.931	-33.706	0.345	0.192
-379.917	255.009	-0.061	0.105
-378.902	-45.810	0.328	0.163
-377.888	800.000	0.035	-0.149
-376.873	800.000	-0.024	0.090
-375.858	800.000	0.168	0.471
-374.844	800.000	-0.142	0.600
-373.829	514.234	0.045	-0.105
-372.815	-118.098	-0.289	-0.052
-371.800	-181.269	0.181	0.004
-370.785	211.590	-0.182	0.288
-369.771	-157.272	0.472	-0.029
-368.756	800.000	-0.101	-0.371
-367.742	281.046	0.105	-0.188
-366.727	131.276	0.188	-0.243
-365.712	217.535	0.113	0.181
-364.698	-200.000	-0.018	-0.227
-363.683	-48.805	0.125	0.060
-362.669	68.968	0.120	-0.124
-361.654	-44.178	0.186	0.094
-360.639	397.844	0.127	-0.266
-359.625	150.676	-0.258	0.353
-358.610	-200.000	-0.032	0.273
-357.596	-200.000	-0.031	-0.305
-356.581	3.591	-0.093	0.069
-355.566	488.275	0.200	-0.459
-354.552	-142.171	-0.342	0.034
-353.537	-102.204	0.362	-0.088
-352.523	-102.638	0.280	-0.067
-351.508	508.126	0.098	-0.230
-350.493	24.804	0.383	0.319
-349.479	422.037	0.143	-0.308
-348.464	800.000	0.045	0.157
-347.450	800.000	-0.055	-0.194
-346.435	-104.616	0.151	0.035
-345.420	-200.000	-0.020	-0.125
-344.406	93.103	0.036	-0.041
-343.391	-23.569	-0.325	0.196
-342.377	759.537	0.102	0.277
-341.362	-50.430	-0.174	-0.083
-340.348	800.000	0.093	-0.334
-339.333	-124.628	-0.021	0.003
-338.318	-150.296	0.281	-0.022
-337.304	-4.140	0.114	0.079
-336.289	214.284	-0.262	0.418
-335.275	-74.975	-0.081	0.029
-334.260	590.030	0.109	0.271
-333.245	-136.040	0.355	-0.042
-332.231	457.886	0.156	-0.349
-331.216	-200.000	0.017	0.111
-330.202	-90.638	-0.091	0.026
-329.187	-44.557	-0.360	0.181
-328.172	-200.000	0.012	-0.211
-327.158	65.472	-0.170	0.173
-326.143	144.984	0.054	0.072
-325.129	-30.196	-0.045	-0.026
-324.114	-160.681	-0.040	0.002
-323.099	618.321	-0.079	-0.200
-322.085	800.000	-0.074	0.237
-321.070	-136.705	-0.381	0.044
-320.056	112.652	0.090	-0.110
-319.041	227.001	-0.188	0.307
-318.026	81.099	-0.219	0.237
-317.012	589.305	0.123	0.306
-315.997	120.366	-0.201	-0.250
-314.983	-23.012	0.030	0.018
-313.968	169.354	-0.171	-0.246
-312.953	173.345	0.129	-0.186
-311.939	66.861	0.205	0.210
-310.924	-200.000	-0.003	-0.039
-309.910	594.242	-0.091	0.225
-308.895	446.078	0.165	0.363
-307.880	800.000	0.079	0.287
-306.866	180.107	-0.237	0.349
-305.851	67.476	-0.152	0.155
-304.837	-200.000	-0.016	-0.335
-303.822	-200.000	0.012	0.403
-302.807	24.316	-0.075	-0.062
-301.793	145.954	-0.126	0.169
-300.778	-96.854	-0.367	-0.097
-299.764	-60.667	-0.300	0.128
-298.749	273.365	0.068	-0.120
-297.735	-0.947	0.214	-0.152
-296.720	176.822	-0.246	-0.359
-295.705	267.086	0.113	-0.198
-294.691	152.955	0.259	0.356
-293.676	82.637	-0.255	0.278
-292.662	-200.000	0.237	0.000
-291.647	-109.472	-0.280	0.059
-290.632	-1.152	-0.083	-0.059
-289.618	755.653	-0.055	0.148
-288.603	-59.311	0.331	-0.143
-287.589	73.368	0.185	-0.195
-286.574	-80.655	-0.380	0.127
-285.559	-102.526	0.345	-0.083
-284.545	-188.257	-0.166	0.002
-283.530	-200.000	0.052	0.276
-282.516	62.672	0.047	0.048
-281.501	38.711	-0.157	0.140
-280.486	-84.874	0.144	-0.045
-279.472	424.242	0.109	-0.234
-278.457	118.012	-0.113	0.140
-277.443	-200.000	-0.014	0.444
-276.428	-200.000	-0.010	-0.250
-275.413	-64.022	0.303	-0.124
-274.399	165.198	0.051	-0.072
-273.384	462.346	-0.152	-0.341
-272.370	133.479	0.132	0.171
-271.355	800.000	-0.039	0.113
-270.340	-79.639	-0.265	0.090
-269.326	68.389	0.098	0.101
-268.311	220.197	0.189	-0.303
-267.297	91.458	0.077	-0.087
-266.282	278.829	-0.079	0.140
-265.267	122.975	-0.052	-0.066
-264.253	-67.810	0.145	0.057
-263.238	800.000	-0.067	0.201
-262.224	-10.916	0.298	0.197
-261.209	-200.000	0.027	-0.373
-260.195	519.595	0.104	-0.245
-259.180	99.406	0.063	-0.073
-258.165	-164.986	0.265	-0.012
-257.151	-18.943	0.190	-0.118
-256.136	338.744	0.105	0.206
-255.122	2.255	-0.139	-0.101
-254.107	554.869	0.042	-0.101
-253.092	-8.003	-0.266	0.180
-252.078	-110.077	0.177	0.037
-251.063	15.508	-0.110	-0.086
-250.049	-106.194	-0.198	-0.045
-249.034	420.391	-0.050	0.108
-248.019	-23.958	0.148	0.089
-247.005	61.777	0.166	-0.166
-245.990	-94.486	0.132	0.036
-244.976	-27.727	0.110	-0.064
-243.961	6.278	-0.155	-0.115
-242.946	360.912	0.049	-0.099
-241.932	-43.559	0.111	-0.056
-240.917	619.164	-0.106	0.268
-239.903	-149.414	0.109	0.009
-238.888	-36.255	-0.019	-0.010
-237.873	-94.543	0.340	-0.093
-236.859	551.914	0.150	-0.361
-235.844	91.687	0.114	-0.128
-234.830	-200.000	-0.033	-0.481
-233.815	-95.213	0.093	0.025
-232.800	800.000	0.028	0.105
-231.786	-64.234	0.407	-0.166
-230.771	800.000	-0.046	0.146
-229.757	-3.635	-0.394	0.274
-228.742	-34.577	-0.171	-0.094
-227.727	-129.193	0.323	0.045
-226.713	145.103	-0.064	-0.086
-225.698	208.286	0.087	0.136
-224.684	122.618	-0.195	-0.244
-223.669	66.215	-0.160	0.163
-222.655	-200.000	0.033	-0.160
-221.640	614.657	-0.078	-0.195
-220.625	-99.370	-0.254	-0.064
-219.611	172.241	-0.189	-0.272
-218.596	-49.850	-0.089	-0.042
-217.582	284.143	-0.014	0.026
-216.567	673.611	0.090	0.233
-215.552	-174.487	0.180	-0.005
-214.538	-200.000	-0.017	-0.085
-213.523	-200.000	-0.033	0.147
-212.509	45.568	0.066	-0.061
-211.494	284.762	0.053	-0.095
-210.479	-17.559	0.267	0.168
-209.465	267.370	-0.013	0.022
-208.450	427.164	-0.080	-0.172
-207.436	-191.263	0.083	-0.001
-206.421	-200.000	0.008	0.136
-205.406	-24.153	-0.162	-0.097
-204.392	33.526	-0.310	-0.269
-203.377	-200.000	-0.063	-0.314
-202.363	552.445	-0.103	-0.247
-201.348	-200.000	0.001	-0.200
-200.333	144.765	0.094	-0.126
-199.319	-200.000	-0.007	-0.256
-198.304	800.000	-0.028	0.080
-197.290	54.928	0.316	-0.305
-196.275	-24.011	-0.211	-0.126
-195.260	-106.651	-0.396	-0.088
-194.246	-113.783	0.152	-0.030
-193.231	23.115	-0.118	-0.097
-192.217	-200.000	0.025	-0.175
-191.202	6.054	-0.084	-0.062
-190.187	-151.433	0.401	-0.030
-189.173	553.574	0.093	0.225
-188.158	339.272	-0.060	-0.117
-187.144	-15.521	-0.169	-0.108
-186.129	-125.440	0.195	0.030
-185.114	96.103	0.154	0.175
-184.100	-94.839	0.095	0.026
-183.085	-61.548	-0.093	-0.039
-182.071	-200.000	0.094	-0.425
-181.056	-70.745	-0.376	-0.142
-180.042	800.000	0.079	-0.301
-179.027	215.196	0.264	0.419
-178.012	-111.205	-0.250	0.051
-176.998	800.000	0.071	-0.219
-175.983	512.391	0.021	-0.050
-174.969	-200.000	-0.019	0.306
-173.954	406.654	0.094	-0.198
-172.939	603.421	-0.178	-0.443
-171.925	-162.221	0.114	0.006
-170.910	-34.493	0.287	0.157
-169.896	74.733	0.196	-0.206
-168.881	-105.645	-0.426	-0.096
-167.866	205.685	0.039	-0.061
-166.852	-200.000	-0.006	0.321
-165.837	800.000	-0.043	0.126
-164.823	61.784	0.217	0.216
-163.808	-19.368	0.257	-0.159
-162.793	176.369	-0.096	-0.139
-161.779	625.549	-0.118	0.297
-160.764	62.242	-0.141	0.140
-159.750	569.683	-0.077	0.186
-158.735	72.632	0.095	-0.098
-157.720	-200.000	-0.018	-0.385
-156.706	-103.172	-0.095	0.022
-155.691	-91.363	-0.106	0.030
-154.677	97.051	-0.122	0.139
-153.662	-87.009	-0.074	0.022
-152.647	-200.000	0.017	0.132
-151.633	-73.826	0.423	-0.154
-150.618	800.000	0.065	0.193
-149.604	198.707	-0.144	-0.220
-148.589	56.399	0.226	-0.220
-147.574	260.336	0.065	0.112
-146.560	-56.145	-0.485	0.216
-145.545	113.174	-0.119	-0.144
-144.531	87.349	0.134	-0.148
-143.516	800.000	-0.037	0.142
-142.502	-113.624	-0.232	-0.045
-141.487	95.951	-0.108	-0.123
-140.472	243.897	-0.116	-0.194
-139.458	46.284	0.218	0.202
-138.443	357.152	0.053	-0.105
-137.429	21.056	-0.105	-0.085
-136.414	502.793	-0.029	0.067
-135.399	168.933	-0.098	-0.139
-134.385	370.274	-0.122	-0.247
-133.370	800.000	0.017	-0.064
-132.356	800.000	0.058	-0.209
-131.341	-200.000	-0.022	-0.102
-130.326	341.371	0.073	0.143
-129.312	-92.798	-0.117	-0.033
-128.297	45.595	0.301	0.278
-127.283	-200.000	-0.094	0.497
-126.268	-55.213	-0.246	-0.110
-125.253	-15.274	0.117	0.074
-124.239	49.691	0.162	0.152
-123.224	324.358	-0.104	-0.197
-122.210	-91.183	0.098	0.028
-121.195	-70.831	-0.303	-0.114
-120.180	-23.586	-0.135	0.081
