DTS Sentinel unit serial number:	SN413079Multiplexer serial number:	ORYXHardware model number:	OX4-SRSoftware version number:	ORYX F/W v4.00 Oryx Data Collector v3.7.2.0data status	okinstallation	princeton_trtdifferential loss correction	single-endedforward channel	channel 1reverse channel	N/Adate	2019/09/17time	02:38:35forward acquisition time	60.00reverse acquisition time	0.00gamma	496.2192k internal	0.2323k external	0.2323temperature offset calibration	0.9958default loss term (dB/km)	0.3790temperature slope calibration	1.0000multiplexer offset coefficient	1.0000multiplexer slope coefficient	1.0000fibre end	0.00T internal ref (°C)	29.81T ext. ref 1 (°C)	0.12T ext. ref 2 (°C)	24.83length (m)	temperature (°C)	Stokes	anti-Stokes-747.200	-200.000	0.038	0.269
-746.185	724.636	-0.163	0.438
-745.171	-95.652	0.191	-0.052
-744.156	245.585	0.065	0.110
-743.142	23.262	0.167	-0.139
-742.127	800.000	-0.058	0.187
-741.112	-35.093	0.140	0.077
-740.098	800.000	-0.026	0.109
-739.083	-147.091	0.071	0.006
-738.069	-200.000	0.037	0.274
-737.054	800.000	-0.051	0.183
-736.039	-145.496	-0.597	-0.054
-735.025	243.209	0.087	0.147
-734.010	-108.759	-0.070	-0.015
-732.996	123.026	-0.184	-0.232
-731.981	396.822	0.103	-0.217
-730.966	-200.000	0.035	0.240
-729.952	800.000	0.105	-0.316
-728.937	248.705	0.156	0.266
-727.923	-103.924	-0.144	-0.034
-726.908	286.001	-0.155	0.282
-725.894	-36.339	0.095	-0.051
-724.879	270.029	-0.189	-0.335
-723.864	-43.633	-0.309	0.157
-722.850	-116.676	-0.135	0.025
-721.835	-60.514	0.142	-0.061
-720.821	-127.151	0.153	-0.023
-719.806	708.535	-0.056	0.150
-718.791	-39.326	-0.186	-0.099
-717.777	-50.290	-0.110	0.052
-716.762	19.344	0.120	-0.097
-715.748	-68.546	0.214	-0.084
-714.733	-194.995	-0.324	-0.003
-713.718	-200.000	0.004	0.111
-712.704	741.909	-0.090	0.244
-711.689	66.726	0.080	-0.082
-710.675	-131.877	-0.342	-0.045
-709.660	800.000	-0.042	-0.184
-708.645	-7.609	0.269	0.184
-707.631	800.000	-0.080	-0.331
-706.616	276.488	0.094	-0.168
-705.602	470.700	0.043	-0.097
-704.587	-200.000	-0.009	0.068
-703.572	44.960	0.045	0.042
-702.558	-200.000	-0.028	-0.437
-701.543	-200.000	-0.015	0.094
-700.529	-200.000	0.026	0.207
-699.514	-164.334	0.341	0.016
-698.499	-18.826	-0.184	-0.116
-697.485	-130.803	-0.381	0.052
-696.470	-200.000	-0.057	0.413
-695.456	-200.000	0.022	0.102
-694.441	-14.284	-0.213	-0.138
-693.426	551.317	0.061	0.147
-692.412	-183.714	-0.225	0.004
-691.397	-85.996	-0.217	-0.068
-690.383	-200.000	-0.081	0.467
-689.368	-62.083	-0.179	-0.075
-688.354	-7.791	-0.061	-0.041
-687.339	800.000	0.084	0.290
-686.324	-121.566	-0.208	-0.035
-685.310	184.144	0.122	0.182
-684.295	634.493	0.114	-0.291
-683.281	40.684	-0.147	0.134
-682.266	17.738	0.207	-0.166
-681.251	16.085	-0.159	-0.126
-680.237	-130.620	-0.353	0.048
-679.222	-200.000	-0.004	-0.056
-678.208	124.360	0.155	0.197
-677.193	-200.000	-0.006	-0.033
-676.178	-103.581	0.318	0.075
-675.164	29.712	0.148	0.127
-674.149	-200.000	-0.038	0.309
-673.135	-200.000	-0.014	0.111
-672.120	-200.000	-0.009	0.221
-671.105	-61.275	-0.114	-0.048
-670.091	136.702	0.218	-0.287
-669.076	-200.000	-0.021	0.131
-668.062	430.106	0.146	0.318
-667.047	-146.373	-0.160	0.014
-666.032	-128.945	0.340	-0.048
-665.018	72.767	-0.116	0.122
-664.003	-124.937	-0.317	-0.049
-662.989	758.867	-0.155	0.424
-661.974	-114.432	-0.089	-0.017
-660.959	-105.171	0.368	0.085
-659.945	-1.989	0.118	-0.083
-658.930	-120.940	-0.387	-0.066
-657.916	-166.043	-0.222	0.010
-656.901	391.899	0.073	0.152
-655.886	-33.481	-0.207	0.115
-654.872	-117.812	0.114	0.021
-653.857	-151.222	-0.173	-0.013
-652.843	65.645	-0.290	-0.296
-651.828	-126.969	0.267	-0.039
-650.814	800.000	-0.086	0.356
-649.799	-145.114	-0.225	-0.021
-648.784	220.840	-0.222	-0.358
-647.770	-200.000	0.026	-0.266
-646.755	-200.000	0.004	0.042
-645.741	-27.181	0.531	-0.311
-644.726	118.251	-0.106	-0.131
-643.711	9.070	0.448	-0.340
-642.697	32.666	0.011	0.010
-641.682	-1.610	0.107	-0.076
-640.668	383.830	-0.124	-0.258
-639.653	32.932	-0.074	0.065
-638.638	-72.204	-0.308	0.115
-637.624	-200.000	0.070	0.318
-636.609	62.369	-0.166	-0.167
-635.595	800.000	-0.096	0.266
-634.580	10.706	-0.119	0.091
-633.565	27.353	0.098	-0.083
-632.551	-1.903	-0.382	0.270
-631.536	102.656	0.139	0.163
-630.522	-174.233	-0.148	0.004
-629.507	21.620	-0.222	-0.182
-628.492	778.268	-0.078	0.215
-627.478	-25.991	-0.302	-0.179
-626.463	104.074	0.013	0.015
-625.449	-200.000	0.022	0.113
-624.434	-130.362	-0.297	0.041
-623.419	800.000	-0.090	-0.316
-622.405	-144.880	0.120	0.011
-621.390	-132.278	-0.160	-0.021
-620.376	321.859	-0.109	0.209
-619.361	-200.000	0.003	-0.237
-618.346	86.641	0.167	0.185
-617.332	31.595	0.163	0.141
-616.317	800.000	-0.041	0.177
-615.303	800.000	0.050	-0.146
-614.288	58.126	0.196	0.193
-613.273	776.850	0.102	0.279
-612.259	722.535	-0.006	0.017
-611.244	-141.400	-0.105	-0.011
-610.230	246.446	0.104	-0.176
-609.215	-111.143	0.330	-0.068
-608.201	139.484	0.069	0.092
-607.186	-200.000	0.007	-0.079
-606.171	291.110	-0.071	0.130
-605.157	-118.965	0.116	0.020
-604.142	1.585	0.109	-0.079
-603.128	800.000	-0.075	0.326
-602.113	-200.000	0.058	0.266
-601.098	-200.000	-0.008	-0.043
-600.084	-22.152	-0.329	-0.200
-599.069	-35.999	-0.280	-0.152
-598.055	-86.541	0.096	0.030
-597.040	68.306	-0.147	0.151
-596.025	800.000	0.024	0.093
-595.011	-72.441	-0.303	-0.112
-593.996	75.917	-0.107	-0.114
-592.982	-99.972	0.480	0.120
-591.967	-200.000	-0.016	-0.213
-590.952	24.203	-0.122	0.101
-589.938	-132.126	-0.265	0.035
-588.923	-200.000	-0.005	-0.103
-587.909	-200.000	0.058	-0.287
-586.894	84.757	0.065	-0.072
-585.879	112.203	0.094	-0.114
-584.865	-47.957	0.351	-0.170
-583.850	-75.214	0.352	0.126
-582.836	-12.006	0.205	-0.135
-581.821	800.000	0.047	0.201
-580.806	221.590	-0.111	0.178
-579.792	80.162	-0.187	0.202
-578.777	-200.000	-0.054	0.415
-577.763	-200.000	-0.035	0.171
-576.748	308.379	-0.174	0.326
-575.733	177.113	0.173	0.253
-574.719	-38.075	0.208	0.111
-573.704	-16.816	-0.217	-0.138
-572.690	-157.957	0.118	0.007
-571.675	800.000	-0.152	0.444
-570.661	-37.896	-0.190	-0.101
-569.646	-7.879	-0.164	-0.111
-568.631	39.721	0.268	0.241
-567.617	198.356	0.160	-0.246
-566.602	-6.401	-0.299	-0.204
-565.588	582.045	-0.109	0.268
-564.573	100.770	-0.073	-0.085
-563.558	-25.531	0.199	-0.118
-562.544	-109.109	-0.337	0.072
-561.529	-106.393	-0.299	-0.067
-560.515	-114.338	-0.333	-0.064
-559.500	-200.000	0.034	-0.232
-558.485	139.057	0.047	0.061
-557.471	800.000	-0.032	0.099
-556.456	133.089	-0.140	0.181
-555.442	-200.000	0.028	-0.351
-554.427	224.241	0.142	0.231
-553.412	-48.050	0.194	0.094
-552.398	-133.293	-0.134	0.017
-551.383	-19.142	-0.306	0.190
-550.369	-200.000	-0.008	0.141
-549.354	-37.297	-0.245	-0.131
-548.339	-200.000	0.008	0.094
-547.325	-200.000	-0.000	-0.521
-546.310	-92.727	-0.160	-0.045
-545.296	127.327	-0.048	-0.061
-544.281	-109.682	-0.083	-0.017
-543.266	-90.091	0.282	0.082
-542.252	-163.382	-0.304	-0.015
-541.237	48.164	0.254	0.238
-540.223	553.015	-0.069	-0.165
-539.208	42.779	-0.121	-0.111
-538.193	2.504	-0.305	0.221
-537.179	-112.999	0.080	-0.016
-536.164	213.272	0.179	-0.284
-535.150	800.000	0.040	-0.168
-534.135	132.510	0.186	-0.240
-533.121	-131.457	0.111	-0.015
-532.106	325.155	0.018	0.034
-531.091	-177.940	-0.148	-0.004
-530.077	315.646	-0.080	-0.151
-529.062	-117.476	-0.230	0.042
-528.048	-200.000	-0.021	-0.266
-527.033	-115.551	0.382	0.072
-526.018	800.000	-0.078	-0.264
-525.004	785.934	0.140	-0.385
-523.989	44.177	0.273	0.251
-522.975	-29.258	-0.051	-0.029
-521.960	-123.892	0.213	-0.034
-520.945	-103.386	-0.330	-0.078
-519.931	147.287	-0.019	-0.025
-518.916	-8.090	-0.117	0.079
-517.902	70.141	-0.080	-0.083
-516.887	800.000	0.058	-0.240
-515.872	-9.531	-0.294	0.196
-514.858	448.980	-0.046	-0.102
-513.843	51.004	0.096	-0.092
-512.829	-31.282	-0.120	0.068
-511.814	44.362	-0.078	-0.072
-510.799	-200.000	0.003	0.156
-509.785	-147.891	-0.267	0.022
-508.770	800.000	-0.068	-0.262
-507.756	800.000	-0.081	0.252
-506.741	45.471	-0.100	-0.092
-505.726	-6.863	0.070	0.048
-504.712	-116.852	-0.172	-0.031
-503.697	-20.681	0.210	-0.129
-502.683	-158.099	-0.167	0.010
-501.668	-128.754	0.341	0.048
-500.653	-11.464	0.241	0.158
-499.639	-85.506	-0.318	-0.099
-498.624	266.027	-0.052	0.090
-497.610	800.000	-0.073	-0.223
-496.595	-200.000	-0.009	0.080
-495.581	-166.590	-0.257	0.011
-494.566	226.246	0.104	-0.168
-493.551	-106.324	-0.056	-0.012
-492.537	138.644	-0.183	0.240
-491.522	-127.338	0.263	-0.038
-490.508	-37.772	0.057	0.030
-489.493	-200.000	0.022	-0.157
-488.478	-110.056	0.131	-0.027
-487.464	-200.000	-0.034	0.179
-486.449	-149.893	-0.165	-0.013
-485.435	-19.590	0.181	0.112
-484.420	-152.056	-0.251	0.018
-483.405	-102.142	-0.214	0.052
-482.391	37.948	-0.030	-0.027
-481.376	-200.000	0.003	0.171
-480.362	232.075	-0.050	0.083
-479.347	800.000	0.040	-0.131
-478.332	136.032	0.082	-0.106
-477.318	614.339	0.018	-0.045
-476.303	-200.000	0.010	0.084
-475.289	-134.612	-0.070	0.008
-474.274	445.708	0.086	0.190
-473.259	347.813	0.107	0.210
-472.245	-200.000	0.001	0.160
-471.230	-92.881	0.361	-0.101
-470.216	-200.000	-0.017	-0.435
-469.201	4.780	-0.101	-0.074
-468.186	228.587	-0.113	-0.184
-467.172	800.000	-0.089	-0.311
-466.157	136.189	0.153	-0.200
-465.143	-134.692	0.435	0.053
-464.128	137.948	0.086	0.113
-463.113	-200.000	-0.033	-0.245
-462.099	-74.163	0.158	-0.057
-461.084	-200.000	0.112	-0.512
-460.070	147.017	0.133	-0.179
-459.055	-115.069	0.255	0.048
-458.040	139.594	-0.210	0.276
-457.026	29.842	-0.059	0.050
-456.011	346.317	0.109	-0.214
-454.997	231.231	0.151	-0.247
-453.982	-200.000	0.043	0.203
-452.968	493.016	-0.136	-0.310
-451.953	-81.354	-0.206	-0.068
-450.938	-200.000	-0.057	0.553
-449.924	-111.648	0.055	-0.011
-448.909	36.917	-0.074	0.066
-447.895	-119.036	0.188	-0.033
-446.880	-58.697	0.276	-0.119
-445.865	199.394	0.113	0.173
-444.851	-83.484	-0.192	0.061
-443.836	-105.846	0.323	-0.073
-442.822	718.489	-0.068	0.181
-441.807	800.000	-0.029	-0.121
-440.792	-200.000	-0.052	-0.255
-439.778	-65.057	-0.303	-0.122
-438.763	-99.893	-0.137	-0.034
-437.749	114.665	0.076	0.092
-436.734	122.768	-0.226	0.282
-435.719	-200.000	-0.044	0.365
-434.705	-200.000	0.106	0.521
-433.690	-81.528	-0.103	0.034
-432.676	-62.258	0.237	-0.099
-431.661	503.241	-0.115	-0.265
-430.646	-1.420	-0.211	-0.149
-429.632	87.322	0.347	0.382
-428.617	-200.000	0.033	0.278
-427.603	42.146	-0.201	-0.182
-426.588	4.627	0.346	0.253
-425.573	-152.728	0.399	-0.028
-424.559	800.000	0.058	0.193
-423.544	-200.000	0.057	-0.328
-422.530	70.438	-0.083	0.086
-421.515	-29.616	0.096	-0.055
-420.500	800.000	0.057	0.244
-419.486	-200.000	0.065	0.384
-418.471	-140.663	-0.112	0.012
-417.457	26.661	0.321	0.268
-416.442	-78.151	-0.116	0.040
-415.428	-70.270	0.189	0.072
-414.413	20.390	-0.028	0.023
-413.398	33.836	0.077	0.067
-412.384	-49.676	-0.416	-0.197
-411.369	-200.000	-0.017	-0.161
-410.355	-200.000	0.042	-0.198
-409.340	291.974	-0.140	-0.254
-408.325	-66.249	0.176	0.070
-407.311	-10.486	-0.115	-0.076
-406.296	-152.884	-0.291	0.020
-405.282	-200.000	-0.018	0.127
-404.267	-200.000	0.013	0.075
-403.252	-130.096	0.076	-0.010
-402.238	-178.111	-0.150	-0.004
-401.223	-148.524	-0.182	0.015
-400.209	800.000	-0.075	-0.275
-399.194	-141.963	0.285	-0.028
-398.179	-200.000	-0.004	-0.030
-397.165	118.930	0.246	0.303
-396.150	7.570	0.305	0.227
-395.136	-77.271	-0.146	0.051
-394.121	-166.313	-0.107	0.004
-393.106	1.003	0.441	-0.315
-392.092	-85.200	0.141	-0.044
-391.077	-95.149	0.129	0.035
-390.063	-200.000	-0.086	-0.423
-389.048	-27.267	0.216	0.125
-388.033	-200.000	0.064	0.281
-387.019	408.835	0.063	-0.132
-386.004	-114.665	0.150	-0.029
-384.990	174.719	0.088	-0.127
-383.975	-88.749	-0.134	0.040
-382.960	-46.317	-0.468	-0.229
-381.946	-200.000	-0.005	-0.058
-380.931	-59.772	-0.134	0.057
-379.917	-200.000	0.006	-0.095
-378.902	341.312	0.229	-0.446
-377.888	282.451	-0.019	-0.033
-376.873	-119.027	0.311	-0.054
-375.858	61.505	-0.074	-0.073
-374.844	-125.494	0.167	-0.025
-373.829	-200.000	-0.370	-0.001
-372.815	147.500	0.066	0.088
-371.800	-150.703	0.067	0.005
-370.785	134.922	-0.138	-0.178
-369.771	242.908	-0.077	-0.129
-368.756	-104.546	-0.240	-0.055
-367.742	-89.304	0.105	0.031
-366.727	-94.641	0.169	-0.046
-365.712	-200.000	0.068	-0.426
-364.698	10.907	0.292	0.222
-363.683	79.784	-0.256	0.273
-362.669	118.262	0.123	0.150
-361.654	-115.044	-0.264	0.050
-360.639	7.603	0.162	0.121
-359.625	-166.616	-0.334	0.014
-358.610	60.689	-0.078	-0.077
-357.596	-200.000	-0.005	-0.182
-356.581	-128.137	-0.246	0.035
-355.566	-52.516	0.185	-0.085
-354.552	223.657	0.151	0.243
-353.537	111.751	-0.155	0.186
-352.523	-200.000	-0.009	0.161
-351.508	85.919	0.231	-0.253
-350.493	800.000	0.130	-0.398
-349.479	44.559	0.224	0.205
-348.464	272.035	-0.091	0.159
-347.450	-88.273	0.103	0.031
-346.435	244.608	0.146	-0.244
-345.420	800.000	0.048	0.137
-344.406	208.203	0.046	0.071
-343.391	-35.409	-0.218	0.118
-342.377	-65.063	-0.302	-0.121
-341.362	211.107	0.174	-0.272
-340.348	8.414	0.163	0.122
-339.333	98.317	-0.315	-0.361
-338.318	-200.000	0.024	0.182
-337.304	262.201	0.132	-0.227
-336.289	-200.000	0.001	0.378
-335.275	800.000	-0.065	0.275
-334.260	-200.000	0.013	0.182
-333.245	-111.679	0.186	0.037
-332.231	-136.140	-0.173	-0.020
-331.216	156.881	-0.138	0.189
-330.202	296.837	0.123	-0.224
-329.187	-89.974	-0.160	0.046
-328.172	-40.535	0.367	0.189
-327.158	-35.311	-0.087	0.047
-326.143	1.718	-0.220	0.158
-325.129	46.337	0.145	0.133
-324.114	-200.000	0.027	-0.129
-323.099	405.122	0.156	0.326
-322.085	-179.794	-0.140	0.003
-321.070	-90.931	-0.161	-0.046
-320.056	164.850	0.078	0.110
-319.041	1.676	0.182	-0.130
-318.026	316.507	-0.151	0.283
-317.012	800.000	-0.037	-0.120
-315.997	-44.131	-0.171	-0.085
-314.983	113.480	-0.220	0.265
-313.968	283.055	0.264	-0.471
-312.953	-144.848	0.240	0.022
-311.939	104.634	0.232	-0.271
-310.924	-90.649	-0.258	0.074
-309.910	-200.000	0.028	-0.231
-308.895	800.000	0.021	0.070
-307.880	-141.333	0.311	0.031
-306.866	-116.374	-0.243	-0.045
-305.851	415.708	-0.226	-0.478
-304.837	-200.000	-0.012	0.168
-303.822	789.122	0.140	0.383
-302.807	227.741	0.115	-0.186
-301.793	151.039	0.148	-0.199
-300.778	-65.484	-0.247	0.099
-299.764	-98.055	-0.213	0.054
-298.749	800.000	0.099	0.288
-297.735	-32.664	-0.084	-0.047
-296.720	800.000	-0.148	0.471
-295.705	370.003	-0.152	-0.305
-294.691	-200.000	-0.049	0.248
-293.676	-168.372	0.230	0.009
-292.662	-73.748	-0.084	-0.030
-291.647	640.773	-0.078	-0.198
-290.632	-24.707	0.296	0.175
-289.618	195.617	0.137	0.207
-288.603	340.611	0.221	-0.428
-287.589	10.712	0.233	0.176
-286.574	76.457	-0.096	0.101
-285.559	90.553	-0.180	-0.200
-284.545	-95.221	-0.292	-0.078
-283.530	90.277	0.088	-0.098
-282.516	103.595	-0.228	-0.265
-281.501	-93.833	-0.232	0.063
-280.486	-34.434	0.217	-0.118
-279.472	-19.032	-0.439	0.271
-278.457	316.117	0.140	-0.261
-277.443	42.554	0.141	0.127
-276.428	17.971	0.127	0.100
-275.413	-1.463	-0.204	-0.143
-274.399	-74.851	0.347	-0.124
-273.384	-86.651	-0.256	-0.078
-272.370	-136.905	-0.099	-0.011
-271.355	352.049	-0.201	0.394
-270.340	-53.468	-0.206	-0.093
-269.326	-38.630	0.231	-0.121
-268.311	-200.000	-0.030	-0.148
-267.297	800.000	0.157	-0.480
-266.282	-18.577	-0.425	-0.263
-265.267	534.945	0.031	0.072
-264.253	800.000	0.061	0.173
-263.238	-200.000	0.044	0.229
-262.224	-167.808	0.221	0.009
-261.209	138.174	0.037	-0.048
-260.195	-94.737	0.276	-0.074
-259.180	-68.491	-0.320	-0.123
-258.165	99.447	-0.085	0.097
-257.151	186.326	0.047	-0.070
-256.136	267.969	0.039	-0.069
-255.122	-200.000	0.040	0.197
-254.107	800.000	-0.087	0.306
-253.092	-144.508	0.528	0.048
-252.078	-200.000	0.025	0.215
-251.063	-32.561	0.077	0.042
-250.049	-200.000	-0.002	0.165
-249.034	-105.265	0.406	0.092
-248.019	17.036	0.233	0.183
-247.005	119.645	-0.263	-0.323
-245.990	42.591	-0.314	0.283
-244.976	-36.397	0.342	0.182
-243.961	549.100	0.033	-0.078
-242.946	-200.000	-0.030	-0.388
-241.932	228.360	-0.132	0.212
-240.917	-200.000	0.002	0.123
-239.903	176.053	-0.189	-0.272
-238.888	-89.383	-0.240	0.070
-237.873	469.686	0.044	0.097
-236.859	-49.915	-0.070	-0.033
-235.844	-79.568	-0.160	-0.054
-234.830	-200.000	-0.033	-0.283
-233.815	165.026	-0.104	0.145
-232.800	800.000	0.058	0.200
-231.786	-200.000	-0.012	-0.426
-230.771	39.530	-0.140	-0.124
-229.757	-47.259	0.265	0.128
-228.742	-97.000	0.140	-0.036
-227.727	-40.682	0.043	-0.022
-226.713	-134.949	-0.269	0.032
-225.698	-66.447	0.266	0.104
-224.684	315.998	-0.164	0.307
-223.669	-58.341	0.079	-0.034
-222.655	269.341	-0.169	0.294
-221.640	794.404	0.119	-0.324
-220.625	-27.420	-0.373	0.214
-219.611	-21.420	0.108	-0.065
-218.596	-112.789	0.222	0.044
-217.582	800.000	0.057	-0.196
-216.567	81.124	-0.302	-0.322
-215.552	-200.000	-0.093	-0.419
-214.538	71.114	-0.108	-0.111
-213.523	-106.809	0.251	0.055
-212.509	-165.941	0.087	-0.004
-211.494	-200.000	0.026	0.426
-210.479	-200.000	-0.035	-0.294
-209.465	427.757	-0.215	-0.459
-208.450	380.606	0.029	-0.058
-207.436	-20.822	0.088	-0.054
-206.421	-200.000	0.032	0.222
-205.406	-110.864	0.209	0.042
-204.392	1.049	0.041	0.029
-203.377	204.609	0.072	-0.110
-202.363	800.000	0.043	-0.135
-201.348	-200.000	-0.046	0.340
-200.333	-50.131	0.334	0.156
-199.319	-75.871	0.398	0.139
-198.304	-200.000	-0.010	-0.096
-197.290	-174.078	-0.071	-0.002
-196.275	-178.414	-0.291	0.007
-195.260	171.207	-0.066	-0.094
-194.246	-54.722	-0.196	0.088
-193.231	-61.881	0.453	0.187
-192.217	15.941	-0.301	-0.234
-191.202	-106.733	0.237	-0.052
-190.187	-200.000	-0.002	-0.112
-189.173	-200.000	0.004	0.110
-188.158	172.955	0.206	-0.293
-187.144	-200.000	0.021	-0.143
-186.129	57.511	0.092	0.089
-185.114	160.177	0.250	0.344
-184.100	376.250	0.069	-0.138
-183.085	9.117	0.188	-0.141
-182.071	40.119	0.068	0.061
-181.056	463.437	0.059	0.131
-180.042	-41.011	-0.180	-0.092
-179.027	-62.173	-0.311	0.128
-178.012	-200.000	0.041	0.257
-176.998	-200.000	0.037	-0.201
-175.983	98.757	0.126	0.143
-174.969	-121.498	-0.287	-0.047
-173.954	218.802	0.177	0.279
-172.939	210.373	-0.105	-0.162
-171.925	-124.344	-0.330	-0.051
-170.910	-194.894	0.119	0.001
-169.896	602.341	0.169	0.415
-168.881	221.230	-0.089	0.141
-167.866	281.560	-0.163	0.288
-166.852	-60.535	-0.058	0.025
-165.837	800.000	-0.090	0.276
-164.823	41.969	0.069	-0.062
-163.808	800.000	-0.087	-0.239
-162.793	166.262	0.248	0.347
-161.779	-43.841	0.058	0.029
-160.764	4.851	-0.150	-0.109
-159.750	800.000	-0.038	0.142
-158.735	-16.299	-0.209	-0.131
-157.720	587.375	0.147	0.358
-156.706	-45.574	-0.101	0.050
-155.691	-125.415	0.184	0.028
-154.677	-42.694	0.237	-0.119
-153.662	184.000	0.056	0.082
-152.647	-200.000	-0.003	-0.105
-151.633	31.329	0.134	-0.113
-150.618	800.000	-0.028	0.115
-149.604	-200.000	-0.032	-0.199
-148.589	-200.000	0.016	-0.080
-147.574	135.398	-0.188	0.241
-146.560	409.275	0.136	-0.284
-145.545	11.618	0.167	-0.126
-144.531	-132.092	0.328	0.042
-143.516	-61.396	0.286	0.119
-142.502	-200.000	-0.038	-0.292
-141.487	-85.941	0.248	0.076
-140.472	800.000	0.082	0.271
-139.458	-200.000	-0.005	0.050
-138.443	-30.077	0.311	0.175
-137.429	-52.178	-0.248	-0.114
-136.414	-200.000	0.003	0.117
-135.399	-200.000	-0.020	-0.165
-134.385	-200.000	-0.031	0.414
-133.370	-12.855	0.272	0.175
-132.356	51.114	0.165	0.154
-131.341	-200.000	0.017	0.234
-130.326	-75.902	0.093	-0.032
-129.312	-200.000	-0.021	-0.103
-128.297	-35.599	0.446	-0.239
-127.283	-145.678	-0.126	-0.011
-126.268	239.976	0.070	0.115
-125.253	-135.824	-0.256	0.030
-124.239	28.952	-0.104	0.087
-123.224	-200.000	-0.028	0.285
-122.210	-64.174	0.241	0.097
