DTS Sentinel unit serial number:	SN413079Multiplexer serial number:	ORYXHardware model number:	OX4-SRSoftware version number:	ORYX F/W v4.00 Oryx Data Collector v3.7.2.0data status	okinstallation	princeton_trtdifferential loss correction	single-endedforward channel	channel 1reverse channel	N/Adate	2019/09/16time	23:02:35forward acquisition time	60.00reverse acquisition time	0.00gamma	496.2192k internal	0.2325k external	0.2325temperature offset calibration	0.9960default loss term (dB/km)	0.3790temperature slope calibration	1.0000multiplexer offset coefficient	1.0000multiplexer slope coefficient	1.0000fibre end	0.00T internal ref (°C)	30.30T ext. ref 1 (°C)	0.09T ext. ref 2 (°C)	23.88length (m)	temperature (°C)	Stokes	anti-Stokes-747.200	294.749	0.101	-0.187
-746.185	386.334	0.193	0.402
-745.171	-137.978	0.104	0.012
-744.156	154.255	0.065	0.090
-743.142	-110.210	-0.196	-0.041
-742.127	-86.342	-0.079	-0.024
-741.112	-200.000	-0.017	0.397
-740.098	156.581	-0.179	0.250
-739.083	166.947	0.198	0.284
-738.069	-31.575	-0.179	-0.102
-737.054	23.794	0.267	0.222
-736.039	-103.392	-0.263	0.062
-735.025	-136.798	0.074	-0.009
-734.010	-13.451	-0.091	-0.059
-732.996	22.466	0.164	-0.136
-731.981	33.915	0.092	0.081
-730.966	-97.521	0.262	0.069
-729.952	-135.373	-0.421	-0.051
-728.937	800.000	-0.030	-0.089
-727.923	120.351	-0.264	-0.330
-726.908	88.257	-0.082	-0.092
-725.894	438.549	-0.082	-0.179
-724.879	575.681	-0.125	0.307
-723.864	-80.758	-0.294	0.099
-722.850	161.941	0.199	-0.282
-721.835	-200.000	-0.357	0.001
-720.821	-71.964	0.255	-0.096
-719.806	-3.771	0.162	-0.114
-718.791	76.687	-0.131	-0.140
-717.777	800.000	0.108	-0.317
-716.762	-27.021	0.449	-0.264
-715.748	63.502	-0.206	0.209
-714.733	-200.000	-0.073	-0.342
-713.718	168.889	-0.079	-0.113
-712.704	-119.472	-0.089	0.016
-711.689	62.570	0.092	-0.093
-710.675	455.172	-0.100	-0.224
-709.660	-58.820	-0.114	-0.050
-708.645	259.849	0.207	-0.359
-707.631	437.939	0.053	0.117
-706.616	-72.294	0.098	0.037
-705.602	-127.730	-0.112	0.016
-704.587	-167.838	0.245	0.010
-703.572	-109.171	-0.551	-0.118
-702.558	-19.717	0.176	0.110
-701.543	-48.040	0.381	-0.186
-700.529	800.000	0.046	0.128
-699.514	-4.429	-0.090	0.063
-698.499	6.745	-0.263	-0.197
-697.485	-105.639	-0.202	0.046
-696.470	-166.617	-0.066	-0.003
-695.456	-162.518	0.175	0.009
-694.441	-200.000	-0.034	-0.313
-693.426	-53.591	0.335	0.154
-692.412	-101.228	-0.120	0.030
-691.397	-32.404	-0.108	0.060
-690.383	800.000	-0.037	-0.103
-689.368	146.530	-0.091	-0.123
-688.354	114.637	0.060	0.074
-687.339	-46.446	0.064	0.032
-686.324	-140.062	-0.064	-0.007
-685.310	78.992	-0.131	-0.141
-684.295	-200.000	-0.001	0.152
-683.281	-112.917	0.143	0.028
-682.266	31.275	-0.186	-0.161
-681.251	70.696	0.195	0.203
-680.237	-200.000	0.005	-0.090
-679.222	-200.000	-0.038	-0.335
-678.208	-89.557	0.352	0.104
-677.193	-96.472	-0.375	-0.100
-676.178	320.115	-0.180	-0.343
-675.164	-200.000	-0.003	0.371
-674.149	250.222	-0.099	0.168
-673.135	238.297	0.144	0.241
-672.120	-81.446	-0.304	-0.101
-671.105	-46.764	0.080	-0.040
-670.091	-94.715	-0.089	-0.024
-669.076	456.438	0.037	-0.083
-668.062	275.062	0.138	0.246
-667.047	-55.349	-0.193	-0.087
-666.032	-200.000	-0.038	0.395
-665.018	-200.000	0.055	0.289
-664.003	800.000	-0.059	-0.228
-662.989	53.189	-0.159	0.153
-661.974	-200.000	-0.004	-0.169
-660.959	-139.016	-0.219	0.024
-659.945	-200.000	0.067	-0.493
-658.930	-200.000	-0.049	-0.270
-657.916	-147.418	-0.278	0.024
-656.901	-107.296	-0.178	-0.039
-655.886	113.945	-0.159	0.195
-654.872	137.767	0.214	-0.281
-653.857	56.176	0.501	-0.489
-652.843	145.029	-0.152	-0.205
-651.828	-122.135	-0.231	0.038
-650.814	-200.000	-0.027	0.193
-649.799	130.868	0.189	-0.243
-648.784	800.000	-0.114	0.335
-647.770	-71.181	0.110	0.042
-646.755	-124.394	-0.141	0.022
-645.741	96.445	-0.328	0.377
-644.726	123.398	-0.014	0.018
-643.711	-47.009	-0.085	0.042
-642.697	161.680	-0.066	0.092
-641.682	196.570	0.198	0.303
-640.668	-184.826	0.246	-0.004
-639.653	115.077	0.188	0.230
-638.638	161.910	0.092	-0.130
-637.624	-106.897	0.564	0.125
-636.609	-96.461	0.600	-0.159
-635.595	35.032	-0.157	-0.138
-634.580	-13.714	-0.210	-0.137
-633.565	463.788	-0.020	-0.044
-632.551	-3.871	0.207	-0.144
-631.536	-200.000	0.011	-0.213
-630.522	-146.471	-0.089	-0.008
-629.507	-102.863	0.058	0.014
-628.492	-22.314	0.380	-0.231
-627.478	16.665	0.149	-0.119
-626.463	-200.000	0.018	-0.130
-625.449	-200.000	0.009	-0.109
-624.434	-49.795	0.150	-0.072
-623.419	-200.000	-0.044	-0.211
-622.405	-58.891	0.106	-0.046
-621.390	-124.020	-0.349	0.055
-620.376	366.178	0.256	-0.519
-619.361	-116.177	-0.287	-0.053
-618.346	-53.489	-0.152	0.070
-617.332	-148.344	-0.321	0.027
-616.317	-11.119	0.106	-0.070
-615.303	40.254	-0.136	-0.123
-614.288	176.694	0.046	0.068
-613.273	-118.615	-0.097	-0.017
-612.259	37.616	0.129	-0.115
-611.244	89.228	-0.141	0.157
-610.230	10.901	-0.205	-0.157
-609.215	56.327	0.264	-0.257
-608.201	179.789	0.061	-0.090
-607.186	-200.000	0.003	-0.077
-606.171	-200.000	-0.010	0.058
-605.157	-200.000	0.009	-0.208
-604.142	-38.374	-0.222	-0.118
-603.128	221.962	-0.171	-0.277
-602.113	-151.263	0.088	0.007
-601.098	-200.000	0.027	0.413
-600.084	116.824	-0.109	0.134
-599.069	-12.266	-0.378	-0.248
-598.055	-200.000	-0.031	0.452
-597.040	-94.123	-0.187	0.051
-596.025	800.000	0.126	-0.371
-595.011	-41.336	-0.365	-0.189
-593.996	13.034	-0.120	-0.093
-592.982	66.841	-0.204	0.208
-591.967	-31.528	-0.067	-0.038
-590.952	39.587	0.105	0.094
-589.938	800.000	0.050	0.198
-588.923	-200.000	0.031	-0.174
-587.909	140.606	0.131	0.173
-586.894	-200.000	-0.010	0.219
-585.879	68.903	0.121	-0.125
-584.865	150.905	0.047	-0.065
-583.850	-8.896	-0.239	0.161
-582.836	648.515	0.106	-0.273
-581.821	-110.011	-0.332	-0.070
-580.806	-200.000	0.032	-0.239
-579.792	800.000	0.067	0.224
-578.777	-7.227	-0.524	0.356
-577.763	-103.760	-0.245	-0.057
-576.748	-53.302	0.135	0.062
-575.733	800.000	-0.073	0.258
-574.719	15.002	0.192	0.151
-573.704	-157.300	-0.394	0.024
-572.690	-200.000	-0.021	0.379
-571.675	69.399	-0.097	-0.100
-570.661	-200.000	-0.010	0.059
-569.646	-200.000	0.023	0.234
-568.631	74.277	0.020	-0.021
-567.617	-47.999	0.213	-0.103
-566.602	44.639	-0.262	-0.241
-565.588	47.089	0.078	-0.073
-564.573	2.925	0.333	-0.242
-563.558	-8.340	0.137	-0.092
-562.544	-200.000	0.002	0.213
-561.529	-93.666	0.016	-0.005
-560.515	-200.000	-0.006	-0.129
-559.500	237.570	-0.072	-0.120
-558.485	-200.000	0.030	-0.349
-557.471	35.270	0.191	-0.168
-556.456	-38.260	-0.057	0.030
-555.442	-121.134	0.450	-0.076
-554.427	-18.204	0.010	-0.006
-553.412	57.026	-0.090	-0.088
-552.398	-165.473	-0.263	-0.012
-551.383	356.096	0.070	-0.139
-550.369	-200.000	0.021	0.118
-549.354	124.149	0.102	0.128
-548.339	-200.000	0.028	-0.203
-547.325	-200.000	-0.017	-0.146
-546.310	137.127	-0.209	0.274
-545.296	-133.832	0.301	0.038
-544.281	-28.448	-0.033	0.019
-543.266	297.984	-0.197	-0.362
-542.252	-200.000	0.001	-0.580
-541.237	14.891	-0.106	0.083
-540.223	-200.000	0.004	-0.190
-539.208	800.000	0.060	-0.256
-538.193	-190.459	-0.418	-0.005
-537.179	277.800	-0.067	0.119
-536.164	-137.838	0.204	-0.023
-535.150	-99.319	-0.405	-0.102
-534.135	-115.699	0.294	-0.055
-533.121	-200.000	0.050	0.277
-532.106	110.807	0.051	-0.061
-531.091	800.000	-0.027	-0.090
-530.077	85.692	-0.141	0.155
-529.062	182.203	-0.051	0.075
-528.048	800.000	0.077	-0.253
-527.033	-200.000	-0.026	-0.132
-526.018	229.065	-0.206	-0.337
-525.004	148.514	0.053	-0.071
-523.989	121.299	0.062	-0.078
-522.975	-146.571	0.174	0.015
-521.960	-200.000	0.013	-0.279
-520.945	99.235	0.194	-0.225
-519.931	230.553	-0.205	-0.336
-518.916	135.562	0.034	0.044
-517.902	670.343	-0.028	0.071
-516.887	440.017	0.022	-0.048
-515.872	77.457	-0.413	-0.439
-514.858	-81.841	0.141	-0.046
-513.843	350.455	-0.081	0.161
-512.829	650.459	0.054	-0.137
-511.814	800.000	-0.057	0.243
-510.799	-114.352	-0.298	0.057
-509.785	-72.897	0.188	-0.069
-508.770	-51.968	-0.158	-0.073
-507.756	-114.255	0.171	0.033
-506.741	-99.569	-0.222	-0.056
-505.726	140.835	0.086	0.113
-504.712	-82.196	0.257	0.084
-503.697	-14.298	0.071	0.046
-502.683	-200.000	-0.008	-0.263
-501.668	-11.509	0.149	-0.098
-500.653	-2.612	0.124	0.087
-499.639	-200.000	0.040	-0.286
-498.624	-33.263	0.276	0.153
-497.610	-101.292	0.150	-0.037
-496.595	800.000	-0.080	0.235
-495.581	88.280	-0.067	-0.074
-494.566	800.000	0.061	-0.193
-493.551	800.000	-0.045	0.148
-492.537	166.288	-0.195	0.276
-491.522	-62.728	0.255	-0.106
-490.508	-142.118	0.179	-0.018
-489.493	68.752	-0.164	-0.168
-488.478	-200.000	0.039	-0.187
-487.464	3.593	0.113	-0.082
-486.449	104.233	-0.057	-0.067
-485.435	177.457	0.182	-0.265
-484.420	-200.000	-0.024	-0.251
-483.405	-41.318	0.262	-0.135
-482.391	109.722	-0.260	-0.312
-481.376	-200.000	-0.013	0.211
-480.362	-176.291	0.237	0.006
-479.347	800.000	-0.098	0.310
-478.332	17.920	-0.135	0.107
-477.318	207.768	-0.194	0.303
-476.303	-200.000	0.015	-0.233
-475.289	703.937	0.023	-0.062
-474.274	800.000	0.142	-0.404
-473.259	-99.224	-0.089	0.022
-472.245	373.144	0.021	-0.043
-471.230	123.121	-0.046	-0.057
-470.216	-72.348	0.330	-0.122
-469.201	370.010	-0.145	0.294
-468.186	-41.270	-0.352	-0.181
-467.172	145.983	0.120	0.161
-466.157	800.000	0.115	-0.376
-465.143	-7.883	0.026	-0.018
-464.128	800.000	-0.077	-0.233
-463.113	-57.233	-0.228	0.100
-462.099	172.269	0.264	-0.378
-461.084	-140.587	-0.090	0.009
-460.070	-102.242	-0.234	0.056
-459.055	-86.125	-0.253	0.078
-458.040	327.894	0.170	0.325
-457.026	230.048	-0.228	0.372
-456.011	254.127	0.033	0.057
-454.997	-200.000	0.002	-0.109
-453.982	46.052	-0.043	0.040
-452.968	-71.866	0.134	0.050
-451.953	115.304	0.039	0.048
-450.938	-105.938	0.166	0.037
-449.924	-69.377	-0.143	0.055
-448.909	-24.617	-0.312	-0.185
-447.895	242.996	-0.165	-0.276
-446.880	-200.000	0.019	-0.129
-445.865	-108.522	-0.251	-0.054
-444.851	327.725	0.107	0.205
-443.836	-65.436	0.177	0.071
-442.822	-49.311	-0.051	-0.024
-441.807	148.071	-0.191	0.256
-440.792	-200.000	0.022	0.331
-439.778	-86.019	-0.174	-0.054
-438.763	-6.758	0.257	-0.174
-437.749	151.516	0.080	0.108
-436.734	515.160	0.058	0.136
-435.719	-86.128	-0.276	-0.085
-434.705	-17.342	0.091	0.057
-433.690	-149.544	0.191	0.015
-432.676	-146.298	-0.268	0.023
-431.661	21.383	0.269	-0.218
-430.646	-200.000	-0.030	0.458
-429.632	-200.000	-0.010	0.362
-428.617	55.500	-0.308	0.297
-427.603	-27.647	-0.128	-0.074
-426.588	-200.000	0.058	-0.347
-425.573	-86.165	-0.309	-0.095
-424.559	144.648	-0.159	0.211
-423.544	-63.627	0.115	-0.047
-422.530	-81.538	-0.139	0.046
-421.515	-200.000	0.044	0.432
-420.500	-92.984	0.021	0.006
-419.486	-122.337	0.107	0.017
-418.471	-134.932	0.219	0.026
-417.457	-200.000	-0.025	0.223
-416.442	37.703	-0.080	-0.070
-415.428	-200.000	-0.046	-0.297
-414.413	-171.149	0.307	-0.010
-413.398	35.673	0.137	0.120
-412.384	51.038	0.184	-0.174
-411.369	-86.652	-0.299	0.091
-410.355	-200.000	0.008	-0.112
-409.340	321.862	-0.088	0.167
-408.325	-28.389	-0.172	0.099
-407.311	55.409	-0.059	-0.057
-406.296	106.307	0.118	-0.139
-405.282	133.592	-0.225	0.289
-404.267	3.609	0.111	-0.081
-403.252	-16.648	-0.345	-0.217
-402.238	236.658	0.106	-0.174
-401.223	-95.686	0.166	-0.044
-400.209	225.695	-0.051	-0.082
-399.194	-157.314	0.313	0.019
-398.179	198.191	-0.126	0.192
-397.165	247.144	-0.032	-0.054
-396.150	-41.672	0.149	0.076
-395.136	350.899	0.028	-0.054
-394.121	-143.855	-0.243	-0.023
-393.106	-200.000	-0.011	-0.220
-392.092	38.403	0.069	-0.062
-391.077	-23.241	-0.445	-0.266
-390.063	-200.000	0.005	0.298
-389.048	800.000	-0.089	0.282
-388.033	-129.641	0.442	0.061
-387.019	354.393	-0.022	-0.043
-386.004	-33.168	0.008	0.004
-384.990	83.825	-0.027	0.029
-383.975	-103.845	-0.137	-0.032
-382.960	125.576	-0.160	-0.200
-381.946	219.901	0.061	-0.097
-380.931	96.179	-0.306	0.348
-379.917	-135.774	-0.103	0.012
-378.902	-124.104	0.130	-0.020
-377.888	-28.346	0.125	0.072
-376.873	63.910	-0.256	-0.256
-375.858	-200.000	-0.008	0.041
-374.844	-66.729	0.199	-0.079
-373.829	222.896	0.037	-0.059
-372.815	-146.630	-0.061	-0.005
-371.800	-0.956	-0.047	0.033
-370.785	-33.426	-0.153	0.084
-369.771	18.104	-0.194	-0.154
-368.756	-100.086	-0.202	0.050
-367.742	492.576	0.089	0.204
-366.727	-63.530	-0.211	0.086
-365.712	-200.000	0.053	0.000
-364.698	70.127	0.206	0.211
-363.683	717.779	-0.163	-0.430
-362.669	-200.000	0.052	0.415
-361.654	-31.124	0.290	0.163
-360.639	43.594	0.097	0.088
-359.625	726.486	-0.046	-0.122
-358.610	-200.000	-0.071	0.345
-357.596	145.262	-0.117	0.156
-356.581	196.115	0.153	-0.231
-355.566	41.941	0.062	-0.056
-354.552	-200.000	0.006	0.209
-353.537	20.489	-0.236	0.189
-352.523	-133.930	-0.360	-0.044
-351.508	-200.000	-0.038	0.227
-350.493	-200.000	-0.011	0.184
-349.479	-200.000	0.041	0.396
-348.464	-49.059	-0.123	0.059
-347.450	-163.127	0.303	0.014
-346.435	-61.369	0.319	-0.133
-345.420	-81.847	-0.288	0.094
-344.406	-140.633	0.222	0.023
-343.391	-200.000	0.038	0.195
-342.377	800.000	-0.046	-0.158
-341.362	262.137	-0.187	0.323
-340.348	145.487	-0.207	0.276
-339.333	75.313	-0.078	0.082
-338.318	-67.615	-0.168	-0.065
-337.304	-100.490	0.237	-0.058
-336.289	-95.813	0.177	-0.047
-335.275	-38.643	-0.118	-0.062
-334.260	800.000	0.057	0.182
-333.245	169.901	0.111	-0.157
-332.231	-151.906	0.144	-0.010
-331.216	-58.572	-0.051	-0.022
-330.202	-200.000	-0.045	0.327
-329.187	-70.099	0.045	0.017
-328.172	3.615	-0.462	-0.335
-327.158	650.191	-0.062	-0.158
-326.143	-200.000	-0.014	-0.065
-325.129	-200.000	0.044	0.208
-324.114	78.580	-0.092	0.098
-323.099	149.338	-0.080	-0.107
-322.085	-57.779	0.220	0.096
-321.070	-95.752	-0.205	-0.054
-320.056	-200.000	-0.020	0.224
-319.041	-200.000	0.010	-0.120
-318.026	-200.000	0.067	0.401
-317.012	800.000	0.061	0.249
-315.997	800.000	0.132	0.418
-314.983	-31.717	0.088	0.049
-313.968	-139.107	0.271	0.029
-312.953	-64.870	0.237	0.095
-311.939	800.000	0.055	-0.199
-310.924	-200.000	0.029	0.263
-309.910	-22.808	0.322	-0.193
-308.895	-200.000	0.012	-0.270
-307.880	714.367	0.093	0.245
-306.866	21.728	0.118	0.095
-305.851	-79.830	0.243	0.081
-304.837	109.849	0.060	0.072
-303.822	-200.000	0.050	0.436
-302.807	-200.000	-0.088	-0.430
-301.793	-21.356	-0.136	0.082
-300.778	-102.576	0.220	0.052
-299.764	-200.000	-0.043	0.239
-298.749	9.169	-0.214	0.160
-297.735	53.932	-0.137	-0.131
-296.720	-35.644	0.299	-0.161
-295.705	-189.185	-0.196	0.002
-294.691	-200.000	0.040	0.246
-293.676	-200.000	-0.039	0.318
-292.662	-24.324	-0.288	0.170
-291.647	144.835	0.096	-0.127
-290.632	-155.244	0.305	-0.020
-289.618	72.983	-0.183	0.189
-288.603	-103.979	0.542	-0.125
-287.589	-97.557	0.224	0.058
-286.574	-148.840	-0.095	-0.008
-285.559	-200.000	0.006	0.034
-284.545	27.325	-0.428	-0.356
-283.530	116.664	0.163	0.198
-282.516	-200.000	-0.025	-0.614
-281.501	231.405	0.087	-0.141
-280.486	72.477	0.009	-0.010
-279.472	-200.000	-0.011	-0.147
-278.457	168.811	-0.298	0.420
-277.443	46.603	-0.123	0.113
-276.428	-167.749	-0.381	-0.015
-275.413	581.298	0.116	0.281
-274.399	-200.000	-0.045	0.328
-273.384	-200.000	-0.032	-0.221
-272.370	29.402	-0.128	-0.107
-271.355	-21.908	-0.126	0.076
-270.340	169.909	0.044	-0.062
-269.326	-92.770	-0.289	-0.080
-268.311	707.385	-0.094	-0.247
-267.297	269.341	0.070	-0.122
-266.282	-73.195	0.192	0.070
-265.267	-132.679	-0.179	0.023
-264.253	289.527	0.158	-0.285
-263.238	-58.890	0.346	-0.148
-262.224	23.465	-0.136	0.111
-261.209	-102.871	0.241	-0.057
-260.195	-183.524	-0.187	0.003
-259.180	-200.000	0.070	0.451
-258.165	-200.000	0.018	0.090
-257.151	13.424	0.069	0.053
-256.136	800.000	-0.050	-0.157
-255.122	608.175	0.104	0.258
-254.107	368.138	-0.164	-0.328
-253.092	-40.119	0.132	-0.068
-252.078	64.706	0.177	0.176
-251.063	76.632	0.172	0.181
-250.049	800.000	-0.057	0.237
-249.034	-37.499	-0.197	0.104
-248.019	-198.170	0.192	0.001
-247.005	-19.344	0.034	-0.021
-245.990	147.780	0.078	0.105
-244.976	-112.053	-0.041	0.008
-243.961	-200.000	-0.014	0.157
-242.946	131.585	-0.178	0.226
-241.932	-87.491	-0.477	-0.143
-240.917	-24.786	0.270	0.159
-239.903	46.839	0.355	-0.326
-238.888	-21.840	-0.150	-0.090
-237.873	-200.000	-0.005	-0.050
-236.859	-200.000	-0.031	-0.280
-235.844	-106.533	0.099	-0.022
-234.830	105.158	0.174	0.204
-233.815	-96.884	-0.142	-0.037
-232.800	800.000	0.080	0.228
-231.786	44.683	-0.159	-0.145
-230.771	-61.521	0.322	-0.134
-229.757	-200.000	0.096	-0.553
-228.742	-39.754	0.470	-0.243
-227.727	152.001	0.071	-0.096
-226.713	-23.924	-0.098	0.058
-225.698	-122.100	0.327	-0.053
-224.684	-200.000	0.051	-0.402
-223.669	-79.419	-0.088	0.029
-222.655	659.536	-0.118	0.301
-221.640	-200.000	-0.005	-0.282
-220.625	-200.000	0.077	-0.697
-219.611	33.934	0.108	0.093
-218.596	-92.035	-0.291	-0.081
-217.582	98.995	0.167	-0.191
-216.567	135.493	-0.060	-0.077
-215.552	31.204	-0.173	0.147
-214.538	675.949	0.141	0.363
-213.523	-35.003	0.230	0.124
-212.509	-36.257	-0.216	0.115
-211.494	-126.249	-0.166	-0.025
-210.479	8.335	-0.115	0.085
-209.465	112.994	0.253	0.303
-208.450	237.222	-0.191	-0.313
-207.436	-21.756	0.153	0.092
-206.421	30.741	-0.303	0.256
-205.406	358.935	0.037	-0.073
-204.392	800.000	-0.112	0.325
-203.377	9.903	0.055	-0.041
-202.363	-88.814	-0.332	-0.097
-201.348	800.000	-0.085	0.240
-200.333	579.705	-0.107	0.259
-199.319	191.404	0.221	-0.328
-198.304	800.000	0.085	-0.234
-197.290	115.239	0.227	0.274
-196.275	231.076	-0.159	0.258
-195.260	-0.171	0.140	0.098
-194.246	-200.000	-0.008	-0.144
-193.231	-154.129	0.434	0.029
-192.217	-145.549	0.414	0.037
-191.202	9.428	-0.171	0.128
-190.187	70.640	-0.239	-0.244
-189.173	-124.856	0.326	0.050
-188.158	800.000	0.043	-0.131
-187.144	800.000	0.030	0.084
-186.129	68.286	0.150	-0.152
-185.114	-33.578	-0.298	-0.162
-184.100	-36.224	0.109	-0.058
-183.085	-71.715	-0.268	0.099
-182.071	140.963	0.056	-0.073
-181.056	-131.551	0.173	-0.023
-180.042	800.000	-0.024	-0.070
-179.027	-200.000	0.006	0.055
-178.012	-200.000	-0.006	-0.205
-176.998	-94.242	-0.231	0.062
-175.983	104.566	-0.078	0.090
-174.969	-101.903	-0.294	0.070
-173.954	-200.000	0.031	0.205
-172.939	-15.804	0.204	0.128
-171.925	238.008	-0.125	0.205
-170.910	88.659	-0.167	0.183
-169.896	800.000	-0.058	-0.234
-168.881	63.941	-0.145	-0.143
-167.866	-98.485	0.344	0.087
-166.852	26.050	0.322	-0.265
-165.837	-179.951	0.230	0.005
-164.823	-200.000	0.009	0.165
-163.808	22.665	-0.170	-0.137
-162.793	-34.007	0.078	0.042
-161.779	637.830	0.027	-0.069
-160.764	-51.416	0.153	0.071
-159.750	-154.482	-0.062	-0.004
-158.735	180.879	0.312	0.452
-157.720	137.185	0.115	-0.148
-156.706	-36.243	0.229	0.122
-155.691	-20.230	0.099	0.060
-154.677	-115.370	0.210	-0.039
-153.662	3.582	-0.174	0.125
-152.647	-200.000	0.011	0.167
-151.633	-108.476	-0.112	0.024
-150.618	121.578	-0.155	-0.190
-149.604	-165.489	0.153	-0.007
-148.589	-140.924	0.165	0.017
-147.574	-104.884	0.387	-0.088
-146.560	-66.746	-0.096	0.037
-145.545	-33.213	0.121	0.066
-144.531	800.000	-0.178	0.559
-143.516	-115.647	0.189	-0.035
-142.502	467.607	-0.109	-0.240
-141.487	-186.594	-0.122	-0.002
-140.472	18.691	-0.211	-0.166
-139.458	-74.179	-0.451	-0.161
-138.443	-39.390	-0.321	-0.166
-137.429	-70.012	0.176	-0.066
-136.414	130.689	-0.084	0.106
-135.399	-10.778	-0.037	-0.024
-134.385	400.393	-0.100	0.206
-133.370	-119.450	-0.416	-0.071
-132.356	771.696	-0.073	-0.197
-131.341	483.659	-0.061	0.137
-130.326	-69.964	-0.138	-0.052
-129.312	97.181	-0.307	0.347
-128.297	-12.968	0.239	0.153
-127.283	22.758	0.260	-0.209
-126.268	-200.000	0.020	-0.184
-125.253	799.774	-0.022	0.060
-124.239	800.000	-0.106	0.347
-123.224	800.000	0.170	-0.475
-122.210	-200.000	0.027	-0.208
