DTS Sentinel unit serial number:	SN413079Multiplexer serial number:	ORYXHardware model number:	OX4-SRSoftware version number:	ORYX F/W v4.00 Oryx Data Collector v3.7.2.0data status	okinstallation	princeton_trtdifferential loss correction	single-endedforward channel	channel 1reverse channel	N/Adate	2019/09/15time	00:34:35forward acquisition time	60.00reverse acquisition time	0.00gamma	496.2192k internal	0.2320k external	0.2320temperature offset calibration	0.9989default loss term (dB/km)	0.3790temperature slope calibration	1.0000multiplexer offset coefficient	1.0000multiplexer slope coefficient	1.0000fibre end	0.00T internal ref (°C)	32.12T ext. ref 1 (°C)	4.57T ext. ref 2 (°C)	27.16length (m)	temperature (°C)	Stokes	anti-Stokes-747.200	-128.900	0.185	0.026
-746.185	-200.000	-0.046	-0.273
-745.171	-40.707	0.116	0.061
-744.156	-61.515	0.093	0.040
-743.142	152.526	-0.262	0.362
-742.127	69.690	-0.072	-0.075
-741.112	-92.256	0.227	0.065
-740.098	-200.000	-0.070	0.490
-739.083	-35.047	-0.191	-0.105
-738.069	-112.314	-0.344	-0.070
-737.054	-167.078	-0.405	0.017
-736.039	-8.831	-0.318	-0.215
-735.025	104.191	0.251	0.299
-734.010	-30.210	-0.256	-0.147
-732.996	-45.541	-0.211	-0.105
-731.981	-192.016	-0.198	0.002
-730.966	46.658	-0.195	-0.183
-729.952	164.944	0.076	-0.108
-728.937	-80.396	-0.281	-0.095
-727.923	15.502	-0.565	-0.449
-726.908	-24.728	-0.251	-0.151
-725.894	372.517	0.158	-0.325
-724.879	43.775	-0.102	0.094
-723.864	54.038	-0.348	0.338
-722.850	-55.428	-0.344	0.156
-721.835	-90.626	-0.219	0.064
-720.821	63.670	0.157	-0.160
-719.806	280.068	-0.051	0.091
-718.791	22.344	0.043	-0.036
-717.777	-39.543	-0.292	0.155
-716.762	115.341	-0.062	-0.077
-715.748	425.483	0.122	-0.264
-714.733	30.933	0.086	0.074
-713.718	-170.584	0.229	0.008
-712.704	-96.180	-0.173	-0.046
-711.689	800.000	0.095	-0.406
-710.675	-120.517	0.244	-0.042
-709.660	800.000	-0.049	-0.152
-708.645	-200.000	-0.020	0.318
-707.631	-200.000	-0.023	0.101
-706.616	-60.786	-0.382	0.164
-705.602	800.000	0.121	-0.420
-704.587	-200.000	0.034	-0.391
-703.572	-91.156	-0.094	0.027
-702.558	483.622	0.137	-0.314
-701.543	-200.000	-0.002	-0.354
-700.529	800.000	0.032	-0.095
-699.514	694.725	-0.224	-0.593
-698.499	38.795	-0.074	0.067
-697.485	28.120	-0.237	-0.202
-696.470	-62.486	-0.201	-0.084
-695.456	-200.000	0.041	0.223
-694.441	-144.487	-0.287	0.027
-693.426	429.366	-0.035	-0.076
-692.412	70.560	0.208	-0.217
-691.397	-200.000	-0.009	-0.135
-690.383	-2.608	-0.334	-0.236
-689.368	223.650	-0.267	0.434
-688.354	-106.647	0.222	0.050
-687.339	-200.000	-0.025	-0.460
-686.324	-54.449	-0.309	-0.141
-685.310	205.293	-0.180	0.282
-684.295	682.003	-0.076	-0.201
-683.281	-200.000	-0.020	-0.199
-682.266	-45.524	-0.205	0.102
-681.251	-139.713	0.332	0.036
-680.237	-47.508	0.353	-0.173
-679.222	264.979	-0.070	0.123
-678.208	-117.698	0.297	0.054
-677.193	78.145	0.163	0.176
-676.178	415.695	0.121	-0.260
-675.164	-50.790	0.204	-0.097
-674.149	291.852	-0.148	0.273
-673.135	-71.325	0.308	0.116
-672.120	800.000	-0.038	0.133
-671.105	-200.000	0.008	-0.208
-670.091	800.000	-0.070	0.216
-669.076	-189.116	-0.197	-0.002
-668.062	800.000	-0.110	0.313
-667.047	-200.000	-0.015	-0.522
-666.032	800.000	0.066	-0.194
-665.018	800.000	-0.104	0.307
-664.003	334.822	0.063	0.124
-662.989	800.000	-0.037	0.156
-661.974	358.597	-0.032	0.065
-660.959	-91.305	-0.170	-0.049
-659.945	585.328	-0.009	0.023
-658.930	-104.281	0.413	-0.097
-657.916	-66.468	-0.235	-0.094
-656.901	-44.466	0.276	-0.139
-655.886	45.584	-0.174	-0.162
-654.872	136.518	-0.110	0.144
-653.857	10.298	-0.205	0.157
-652.843	-161.534	-0.370	-0.019
-651.828	-135.894	-0.385	-0.046
-650.814	386.566	0.082	-0.170
-649.799	745.955	-0.141	0.384
-648.784	27.288	0.167	-0.141
-647.770	-135.306	-0.381	0.046
-646.755	77.436	-0.110	0.118
-645.741	413.925	0.128	-0.275
-644.726	-150.666	-0.191	-0.015
-643.711	425.532	-0.034	-0.075
-642.697	52.337	-0.219	0.210
-641.682	-160.072	-0.426	0.023
-640.668	800.000	0.044	-0.186
-639.653	-200.000	0.019	-0.156
-638.638	29.389	-0.108	0.092
-637.624	239.690	-0.101	-0.170
-636.609	-4.546	-0.039	0.027
-635.595	-67.313	-0.173	0.069
-634.580	-132.597	-0.255	-0.033
-633.565	-95.270	-0.155	0.042
-632.551	650.437	0.057	-0.147
-631.536	-130.993	0.148	0.020
-630.522	50.418	0.118	-0.112
-629.507	-200.000	0.021	-0.164
-628.492	-56.160	0.202	0.090
-627.478	35.191	0.062	0.054
-626.463	-62.297	0.173	0.072
-625.449	-55.328	0.070	-0.031
-624.434	-69.258	-0.131	0.051
-623.419	383.273	0.086	0.178
-622.405	-176.022	0.251	0.007
-621.390	-56.429	-0.263	0.118
-620.376	437.322	-0.138	0.303
-619.361	800.000	0.020	0.083
-618.346	571.087	0.099	-0.242
-617.332	800.000	-0.116	0.408
-616.317	137.471	-0.156	0.206
-615.303	46.856	-0.073	-0.069
-614.288	42.262	0.080	-0.073
-613.273	800.000	0.020	0.076
-612.259	-26.066	0.223	-0.132
-611.244	-90.820	0.425	0.123
-610.230	-13.796	0.017	0.011
-609.215	-200.000	0.035	-0.214
-608.201	-28.268	0.176	-0.102
-607.186	122.787	0.198	-0.249
-606.171	-30.250	0.207	0.118
-605.157	800.000	-0.117	-0.415
-604.142	800.000	0.117	-0.341
-603.128	-89.354	0.199	0.059
-602.113	100.492	0.119	0.139
-601.098	-200.000	0.005	-0.036
-600.084	-200.000	-0.021	0.222
-599.069	700.395	0.079	-0.208
-598.055	103.424	0.199	0.235
-597.040	800.000	-0.037	-0.156
-596.025	800.000	-0.077	-0.240
-595.011	-200.000	-0.047	0.312
-593.996	264.059	0.218	0.381
-592.982	212.880	0.162	0.257
-591.967	800.000	0.053	0.203
-590.952	-6.722	-0.297	-0.203
-589.938	96.867	-0.037	-0.043
-588.923	57.353	0.237	0.232
-587.909	-200.000	-0.012	0.125
-586.894	167.438	0.169	-0.242
-585.879	8.181	-0.141	-0.106
-584.865	-90.847	-0.124	-0.036
-583.850	-92.665	-0.184	0.052
-582.836	-163.673	0.396	0.019
-581.821	-200.000	0.003	0.063
-580.806	-111.400	0.185	-0.038
-579.792	234.219	0.104	-0.172
-578.777	-95.325	0.043	-0.012
-577.763	-109.413	0.124	-0.026
-576.748	-36.130	0.171	-0.093
-575.733	-90.758	-0.290	-0.084
-574.719	69.389	-0.303	-0.313
-573.704	-200.000	-0.028	-0.171
-572.690	-200.000	0.020	0.172
-571.675	156.635	-0.118	-0.163
-570.661	117.252	0.117	-0.145
-569.646	-169.401	-0.496	0.018
-568.631	367.654	-0.146	0.295
-567.617	-79.554	0.076	0.026
-566.602	101.213	0.178	0.208
-565.588	-2.831	-0.236	0.166
-564.573	93.605	0.273	-0.311
-563.558	240.097	0.136	-0.228
-562.544	-200.000	-0.041	-0.257
-561.529	-83.269	-0.252	0.081
-560.515	-7.936	0.133	0.090
-559.500	268.009	-0.191	-0.336
-558.485	-8.460	0.231	0.156
-557.471	630.146	-0.106	-0.270
-556.456	-34.470	0.140	0.077
-555.442	-45.282	0.192	-0.096
-554.427	-200.000	0.003	-0.019
-553.412	677.917	0.046	-0.119
-552.398	-49.104	-0.423	-0.203
-551.383	-35.898	-0.190	-0.103
-550.369	-200.000	0.023	-0.282
-549.354	800.000	0.052	0.222
-548.339	56.520	0.179	0.174
-547.325	30.075	-0.043	-0.037
-546.310	-200.000	-0.021	0.112
-545.296	-0.829	-0.104	0.074
-544.281	184.327	0.038	0.056
-543.266	800.000	0.083	0.338
-542.252	-126.061	0.118	-0.018
-541.237	-12.320	0.221	0.145
-540.223	-109.788	0.446	0.094
-539.208	139.241	-0.100	-0.132
-538.193	45.476	-0.308	0.285
-537.179	800.000	0.022	0.073
-536.164	234.512	-0.199	-0.329
-535.150	-122.471	-0.338	0.055
-534.135	800.000	0.021	-0.060
-533.121	-128.474	-0.262	0.037
-532.106	800.000	0.025	-0.075
-531.091	-200.000	0.030	-0.254
-530.077	-85.623	0.160	-0.050
-529.062	-171.351	0.257	0.009
-528.048	-105.390	-0.216	-0.049
-527.033	227.432	0.041	0.067
-526.018	-100.095	-0.286	-0.071
-525.004	109.875	0.084	-0.101
-523.989	800.000	-0.079	-0.261
-522.975	800.000	0.039	-0.116
-521.960	609.805	-0.052	-0.131
-520.945	465.283	-0.067	-0.150
-519.931	441.041	-0.103	-0.226
-518.916	800.000	-0.107	0.299
-517.902	556.679	-0.054	0.130
-516.887	-41.309	-0.325	-0.168
-515.872	177.768	0.026	-0.038
-514.858	800.000	0.048	0.175
-513.843	395.940	-0.106	-0.221
-512.829	49.839	-0.069	0.065
-511.814	-20.466	-0.354	0.218
-510.799	-200.000	-0.050	0.278
-509.785	251.666	-0.082	-0.140
-508.770	-23.706	-0.097	-0.058
-507.756	-80.367	-0.242	0.081
-506.741	155.985	0.209	0.289
-505.726	-170.981	-0.046	-0.002
-504.712	-200.000	0.001	-0.212
-503.697	-200.000	-0.006	-0.365
-502.683	-70.433	-0.318	0.121
-501.668	-200.000	0.034	0.231
-500.653	143.364	0.181	-0.242
-499.639	9.230	-0.086	0.065
-498.624	-116.714	-0.158	0.029
-497.610	800.000	0.066	0.250
-496.595	800.000	-0.057	0.171
-495.581	-63.074	-0.137	-0.057
-494.566	117.731	0.182	-0.225
-493.551	-23.805	0.188	0.113
-492.537	-200.000	0.011	0.138
-491.522	198.683	-0.079	0.121
-490.508	-53.077	0.084	0.039
-489.493	-48.857	0.116	-0.055
-488.478	-200.000	0.030	0.174
-487.464	29.305	0.116	-0.098
-486.449	-75.244	0.253	0.090
-485.435	-122.460	0.339	-0.055
-484.420	-159.757	-0.366	0.020
-483.405	-136.322	0.231	0.027
-482.391	-7.668	0.103	-0.069
-481.376	-35.620	-0.181	-0.098
-480.362	-57.611	-0.377	-0.166
-479.347	-200.000	0.011	-0.291
-478.332	6.469	-0.053	-0.039
-477.318	-134.864	0.064	-0.008
-476.303	47.346	0.088	0.082
-475.289	-55.946	0.307	0.137
-474.274	173.328	0.209	0.301
-473.259	-148.156	-0.595	0.049
-472.245	-200.000	-0.002	0.063
-471.230	-114.167	-0.066	0.013
-470.216	22.369	-0.072	-0.059
-469.201	-31.632	-0.184	-0.103
-468.186	-200.000	0.034	-0.174
-467.172	800.000	-0.062	0.176
-466.157	-44.808	-0.105	0.052
-465.143	-200.000	-0.063	0.356
-464.128	-16.843	0.074	0.047
-463.113	-10.305	0.206	0.136
-462.099	139.661	0.146	0.193
-461.084	185.602	-0.156	0.232
-460.070	96.845	-0.105	0.120
-459.055	49.314	0.149	0.140
-458.040	115.343	0.143	0.175
-457.026	-200.000	-0.040	0.237
-456.011	247.806	-0.136	-0.230
-454.997	-200.000	0.000	0.135
-453.982	-71.243	-0.376	-0.141
-452.968	800.000	0.037	-0.113
-451.953	496.775	0.035	-0.080
-450.938	-97.487	0.258	-0.067
-449.924	-59.125	-0.162	0.070
-448.909	-200.000	0.014	0.104
-447.895	169.342	-0.070	-0.100
-446.880	-134.639	-0.107	-0.013
-445.865	1.209	0.113	0.081
-444.851	544.178	-0.119	-0.284
-443.836	142.586	-0.149	-0.198
-442.822	-5.793	0.172	0.118
-441.807	233.030	-0.013	0.022
-440.792	800.000	0.059	-0.171
-439.778	137.705	-0.123	0.161
-438.763	152.173	-0.061	-0.084
-437.749	133.200	0.098	-0.127
-436.734	-200.000	-0.004	0.239
-435.719	558.380	0.077	-0.186
-434.705	-57.187	-0.436	-0.192
-433.690	184.898	-0.133	0.197
-432.676	-37.507	-0.242	0.129
-431.661	245.673	0.015	-0.025
-430.646	800.000	0.017	-0.063
-429.632	-113.892	0.070	0.014
-428.617	177.341	-0.173	-0.251
-427.603	4.224	-0.013	-0.009
-426.588	525.776	0.157	0.368
-425.573	143.321	-0.048	-0.064
-424.559	24.429	0.407	0.336
-423.544	-109.072	0.249	-0.053
-422.530	-4.603	0.112	0.077
-421.515	383.584	0.150	0.307
-420.500	-26.539	0.112	0.066
-419.486	17.218	-0.235	0.186
-418.471	800.000	-0.084	-0.287
-417.457	141.246	0.135	0.178
-416.442	546.813	0.104	-0.248
-415.428	770.402	0.118	-0.320
-414.413	-32.551	-0.113	0.063
-413.398	-111.001	0.225	0.046
-412.384	199.833	-0.170	0.260
-411.369	-97.180	-0.130	0.034
-410.355	16.306	0.163	0.128
-409.340	-200.000	-0.011	0.407
-408.325	800.000	-0.052	0.223
-407.311	694.678	0.022	0.057
-406.296	-96.166	0.160	0.042
-405.282	13.830	-0.183	0.142
-404.267	-200.000	0.053	0.324
-403.252	546.768	-0.077	-0.183
-402.238	-97.177	-0.444	-0.116
-401.223	800.000	0.154	-0.436
-400.209	122.690	-0.036	-0.045
-399.194	-89.960	-0.291	-0.085
-398.179	-116.872	0.188	-0.034
-397.165	324.138	-0.223	-0.424
-396.150	-92.337	-0.448	0.126
-395.136	-109.953	0.122	-0.025
-394.121	-112.553	0.093	0.018
-393.106	-100.459	-0.188	0.046
-392.092	-57.144	-0.141	0.062
-391.077	-200.000	0.033	0.233
-390.063	-92.075	0.202	0.057
-389.048	-94.112	-0.158	-0.043
-388.033	-154.617	-0.207	-0.014
-387.019	-200.000	0.044	-0.322
-386.004	405.289	0.118	-0.247
-384.990	-72.830	0.060	-0.022
-383.975	101.851	0.042	0.049
-382.960	429.616	-0.093	-0.200
-381.946	-6.105	-0.290	-0.198
-380.931	800.000	0.035	-0.131
-379.917	-2.870	-0.160	-0.111
-378.902	-177.113	0.185	-0.005
-377.888	1.289	-0.198	0.142
-376.873	251.337	-0.091	0.155
-375.858	184.132	0.061	0.090
-374.844	-65.733	-0.084	0.033
-373.829	-78.992	-0.090	0.031
-372.815	780.303	-0.016	-0.043
-371.800	110.696	-0.165	0.198
-370.785	-126.482	0.189	-0.028
-369.771	-89.725	-0.069	-0.020
-368.756	-68.658	0.109	0.042
-367.742	-15.886	-0.035	-0.022
-366.727	-105.571	-0.149	0.034
-365.712	-165.735	-0.177	0.008
-364.698	-200.000	0.037	0.395
-363.683	-138.629	-0.096	0.010
-362.669	-146.855	-0.158	0.014
-361.654	47.506	0.169	0.157
-360.639	37.771	0.314	-0.277
-359.625	-21.896	0.028	-0.017
-358.610	166.285	0.110	0.155
-357.596	117.658	0.200	-0.245
-356.581	-200.000	-0.047	-0.287
-355.566	3.131	0.118	-0.086
-354.552	-120.277	-0.239	-0.041
-353.537	-200.000	0.046	-0.223
-352.523	-95.840	-0.096	0.025
-351.508	-163.412	0.425	-0.020
-350.493	462.997	0.085	-0.188
-349.479	70.436	-0.157	-0.162
-348.464	781.020	0.090	0.247
-347.450	-200.000	0.019	-0.111
-346.435	-105.550	0.064	-0.014
-345.420	-146.452	0.367	0.032
-344.406	65.841	0.142	-0.143
-343.391	-44.054	-0.321	0.160
-342.377	800.000	-0.023	0.088
-341.362	712.149	0.028	0.073
-340.348	1.614	0.391	-0.280
-339.333	-200.000	-0.002	-0.118
-338.318	-162.726	0.225	-0.011
-337.304	171.183	-0.240	0.342
-336.289	800.000	0.062	0.246
-335.275	85.009	-0.132	0.144
-334.260	222.907	0.091	-0.146
-333.245	-47.653	0.207	-0.100
-332.231	-138.343	-0.080	-0.009
-331.216	-15.344	0.150	-0.095
-330.202	-157.358	0.388	-0.023
-329.187	800.000	-0.057	-0.196
-328.172	-19.280	-0.264	0.163
-327.158	-200.000	-0.001	-0.086
-326.143	62.383	0.138	0.137
-325.129	274.032	0.126	-0.221
-324.114	-46.905	0.098	0.048
-323.099	-200.000	-0.025	0.442
-322.085	133.262	-0.310	0.399
-321.070	-47.580	0.131	-0.063
-320.056	800.000	0.065	-0.186
-319.041	-169.131	0.111	-0.004
-318.026	-174.318	-0.139	-0.004
-317.012	-84.445	0.101	0.032
-315.997	68.540	-0.070	-0.071
-314.983	-53.044	0.452	-0.207
-313.968	800.000	-0.042	-0.136
-312.953	40.676	-0.067	-0.060
-311.939	-200.000	0.006	-0.289
-310.924	800.000	-0.055	-0.163
-309.910	143.254	0.090	0.120
-308.895	800.000	-0.092	0.308
-307.880	54.633	0.108	0.104
-306.866	-22.179	-0.216	-0.130
-305.851	43.086	-0.258	-0.234
-304.837	-192.895	-0.126	-0.001
-303.822	182.623	0.133	-0.195
-302.807	-33.258	0.117	0.065
-301.793	-200.000	-0.067	-0.309
-300.778	220.066	0.065	-0.103
-299.764	-100.540	0.105	0.026
-298.749	-99.933	-0.351	0.087
-297.735	0.898	-0.154	0.109
-296.720	393.092	0.112	0.232
-295.705	361.512	-0.064	-0.128
-294.691	-46.214	-0.136	-0.067
-293.676	49.387	0.155	-0.145
-292.662	32.409	0.138	0.118
-291.647	-55.850	0.179	0.080
-290.632	239.863	-0.084	-0.139
-289.618	32.486	0.262	-0.225
-288.603	800.000	-0.037	0.104
-287.589	309.186	-0.095	0.177
-286.574	-61.087	-0.242	-0.102
-285.559	560.286	0.156	-0.374
-284.545	-200.000	0.015	-0.171
-283.530	766.191	-0.064	0.172
-282.516	800.000	0.024	-0.068
-281.501	147.402	0.208	-0.278
-280.486	-200.000	-0.019	-0.240
-279.472	-85.188	0.256	-0.080
-278.457	-167.507	-0.275	0.011
-277.443	-59.224	-0.317	0.136
-276.428	139.077	0.052	-0.068
-275.413	-74.410	0.221	0.079
-274.399	231.259	-0.165	0.269
-273.384	7.368	-0.161	0.119
-272.370	466.350	0.096	-0.214
-271.355	213.271	0.262	0.411
-270.340	-149.492	0.448	0.035
-269.326	660.557	-0.030	-0.075
-268.311	-165.841	-0.208	-0.009
-267.297	-200.000	0.056	-0.282
-266.282	-52.603	0.169	0.077
-265.267	-150.069	-0.227	0.018
-264.253	94.654	-0.178	0.201
-263.238	-66.592	-0.287	-0.113
-262.224	129.919	0.172	0.218
-261.209	-123.972	0.083	0.013
-260.195	-24.555	0.105	0.062
-259.180	800.000	0.050	-0.213
-258.165	-32.371	0.159	0.088
-257.151	-200.000	-0.007	-0.252
-256.136	-154.192	-0.235	0.016
-255.122	800.000	-0.137	0.446
-254.107	102.154	-0.089	-0.103
-253.092	-52.746	0.321	0.147
-252.078	-137.052	0.244	0.028
-251.063	51.408	-0.235	0.221
-250.049	46.189	-0.114	0.105
-249.034	-99.568	-0.085	-0.021
-248.019	-61.838	0.234	0.097
-247.005	-200.000	0.012	-0.052
-245.990	-200.000	-0.018	-0.283
-244.976	215.008	0.129	-0.202
-243.961	-200.000	0.071	-0.326
-242.946	20.458	0.170	0.136
-241.932	-66.912	0.254	0.100
-240.917	66.868	-0.224	0.226
-239.903	-10.462	0.286	0.188
-238.888	16.559	-0.305	-0.239
-237.873	-125.659	0.116	0.017
-236.859	365.464	-0.074	-0.147
-235.844	-73.186	0.145	-0.053
-234.830	129.921	-0.167	0.212
-233.815	800.000	0.031	-0.127
-232.800	68.580	-0.182	0.185
-231.786	347.677	-0.273	0.533
-230.771	274.564	0.037	-0.064
-229.757	-200.000	-0.014	-0.370
-228.742	-166.087	-0.321	0.014
-227.727	-141.449	0.383	-0.038
-226.713	-38.644	0.137	0.072
-225.698	785.181	0.056	0.153
-224.684	178.375	-0.102	-0.147
-223.669	83.956	-0.100	-0.108
-222.655	800.000	-0.010	0.040
-221.640	91.409	-0.134	0.149
-220.625	-200.000	-0.012	0.060
-219.611	-200.000	0.017	0.148
-218.596	363.301	-0.083	0.165
-217.582	-22.421	-0.268	-0.161
-216.567	-200.000	-0.024	-0.114
-215.552	-22.497	-0.378	-0.226
-214.538	-6.526	0.118	-0.079
-213.523	-110.363	-0.208	0.043
-212.509	62.473	0.169	0.168
-211.494	5.798	-0.080	-0.059
-210.479	-49.533	0.161	0.076
-209.465	130.504	-0.074	0.094
-208.450	-76.472	0.241	-0.084
-207.436	540.941	0.104	-0.246
-206.421	-0.076	0.153	-0.108
-205.406	69.042	0.088	-0.089
-204.392	6.591	0.125	-0.092
-203.377	273.559	-0.121	-0.211
-202.363	-200.000	0.030	0.168
-201.348	-123.697	0.487	-0.076
-200.333	800.000	-0.023	0.074
-199.319	447.013	-0.016	0.035
-198.304	34.762	0.133	0.115
-197.290	458.863	0.035	-0.076
-196.275	-94.073	0.056	-0.015
-195.260	214.392	-0.100	0.157
-194.246	-37.963	0.368	-0.193
-193.231	-117.701	-0.079	0.014
-192.217	-98.070	0.144	-0.037
-191.202	-86.599	0.211	0.064
-190.187	-6.204	0.201	0.136
-189.173	-200.000	0.004	-0.042
-188.158	136.741	0.115	0.148
-187.144	-69.628	0.131	0.050
-186.129	628.054	0.061	-0.153
-185.114	-200.000	-0.065	0.307
-184.100	-135.944	0.187	0.022
-183.085	-74.893	0.161	0.057
-182.071	126.766	-0.164	-0.205
-181.056	-200.000	0.041	-0.399
-180.042	-200.000	-0.044	-0.266
-179.027	-100.109	0.129	0.032
-178.012	86.020	-0.242	0.264
-176.998	255.648	0.197	-0.334
-175.983	800.000	-0.025	0.096
-174.969	-137.846	-0.167	0.018
-173.954	-6.437	-0.247	-0.167
-172.939	-124.880	0.266	-0.041
-171.925	-200.000	0.004	0.118
-170.910	42.769	-0.229	0.206
-169.896	88.125	-0.154	0.169
-168.881	152.164	-0.181	-0.245
-167.866	713.229	0.106	0.277
-166.852	-168.898	0.266	0.010
-165.837	-200.000	0.017	-0.130
-164.823	-200.000	0.016	0.399
-163.808	278.162	-0.127	-0.223
-162.793	800.000	0.038	0.108
-161.779	73.620	0.201	0.208
-160.764	18.981	-0.183	0.145
-159.750	188.453	0.070	-0.104
-158.735	-40.192	-0.225	0.116
-157.720	426.114	-0.108	0.231
-156.706	800.000	-0.036	0.102
-155.691	-65.521	-0.195	0.077
-154.677	-99.226	0.082	-0.021
-153.662	-29.315	0.273	-0.154
-152.647	687.161	0.081	-0.209
-151.633	369.175	0.111	0.222
-150.618	-200.000	-0.002	0.263
-149.604	-25.579	0.080	-0.047
-148.589	94.803	-0.190	-0.213
-147.574	-156.349	-0.156	0.010
-146.560	-131.450	-0.236	-0.031
-145.545	-200.000	0.020	0.121
-144.531	-135.553	0.088	0.010
-143.516	171.578	-0.048	0.068
-142.502	77.464	0.204	0.215
-141.487	466.043	-0.059	-0.131
-140.472	-4.967	0.302	-0.205
-139.458	297.778	-0.164	-0.298
-138.443	197.612	-0.118	0.178
-137.429	118.380	-0.275	0.335
-136.414	-114.506	0.300	0.057
-135.399	52.676	0.024	0.023
-134.385	-106.693	0.429	-0.094
-133.370	422.851	0.126	0.268
-132.356	196.743	-0.089	0.134
-131.341	800.000	0.149	-0.642
-130.326	-63.907	-0.289	0.117
-129.312	70.571	0.167	-0.171
-128.297	-200.000	0.029	-0.283
-127.283	12.302	0.151	-0.115
-126.268	-166.660	-0.477	-0.020
-125.253	-200.000	-0.062	0.000
-124.239	184.243	0.056	0.082
-123.224	100.768	-0.174	-0.200
-122.210	-114.689	0.339	0.064
-121.195	-41.791	-0.239	-0.121
