DTS Sentinel unit serial number:	SN413079Multiplexer serial number:	ORYXHardware model number:	OX4-SRSoftware version number:	ORYX F/W v4.00 Oryx Data Collector v3.7.2.0data status	okinstallation	princeton_trtdifferential loss correction	single-endedforward channel	channel 1reverse channel	N/Adate	2019/09/15time	23:34:35forward acquisition time	60.00reverse acquisition time	0.00gamma	496.2192k internal	0.2332k external	0.2332temperature offset calibration	0.9972default loss term (dB/km)	0.3790temperature slope calibration	1.0000multiplexer offset coefficient	1.0000multiplexer slope coefficient	1.0000fibre end	0.00T internal ref (°C)	28.12T ext. ref 1 (°C)	9.20T ext. ref 2 (°C)	22.01length (m)	temperature (°C)	Stokes	anti-Stokes-747.200	497.768	-0.034	-0.078
-746.185	-44.167	-0.211	0.106
-745.171	295.194	-0.026	0.048
-744.156	-51.078	-0.088	-0.041
-743.142	309.097	0.203	-0.382
-742.127	47.206	-0.209	0.195
-741.112	69.505	-0.131	0.135
-740.098	61.703	-0.081	-0.081
-739.083	-139.109	0.348	0.038
-738.069	-200.000	0.012	0.063
-737.054	-155.297	-0.184	-0.012
-736.039	-106.052	-0.310	-0.070
-735.025	800.000	0.204	0.610
-734.010	-69.639	-0.271	0.104
-732.996	-92.077	-0.119	0.034
-731.981	-110.689	-0.301	0.063
-730.966	307.599	-0.241	-0.452
-729.952	-145.784	-0.287	0.026
-728.937	-108.092	0.165	0.036
-727.923	108.254	-0.117	-0.141
-726.908	-25.430	0.140	-0.083
-725.894	-183.012	-0.397	-0.007
-724.879	18.527	0.203	0.163
-723.864	-15.449	0.222	-0.142
-722.850	-102.787	-0.304	-0.073
-721.835	-120.861	-0.402	-0.068
-720.821	343.242	-0.088	-0.174
-719.806	115.626	0.085	-0.104
-718.791	-57.967	-0.181	0.080
-717.777	-115.563	0.080	-0.015
-716.762	218.750	-0.214	-0.344
-715.748	-154.909	0.215	-0.014
-714.733	98.234	-0.070	-0.082
-713.718	-196.113	-0.021	0.000
-712.704	800.000	0.046	-0.144
-711.689	-29.833	0.028	0.016
-710.675	-200.000	-0.027	-0.191
-709.660	605.338	-0.031	0.077
-708.645	-67.086	-0.147	0.058
-707.631	800.000	0.132	0.417
-706.616	-6.913	0.053	0.036
-705.602	-141.387	-0.195	-0.020
-704.587	-80.394	-0.317	0.106
-703.572	-86.329	0.413	0.128
-702.558	-2.001	0.017	-0.012
-701.543	46.404	0.210	-0.195
-700.529	132.707	0.055	-0.071
-699.514	-200.000	0.014	-0.367
-698.499	-138.166	0.222	0.025
-697.485	-200.000	-0.000	-0.069
-696.470	53.268	-0.158	0.152
-695.456	193.906	0.238	0.363
-694.441	67.650	0.213	0.219
-693.426	-47.525	-0.184	-0.090
-692.412	-200.000	0.021	-0.242
-691.397	-200.000	0.016	0.165
-690.383	-32.034	-0.250	-0.140
-689.368	-200.000	-0.010	0.066
-688.354	332.142	-0.013	-0.025
-687.339	140.796	-0.201	0.266
-686.324	119.158	-0.088	-0.109
-685.310	-51.204	-0.210	-0.099
-684.295	651.296	0.044	-0.114
-683.281	-200.000	0.026	-0.184
-682.266	282.949	-0.085	-0.153
-681.251	94.866	0.035	-0.040
-680.237	-116.069	-0.416	0.078
-679.222	200.813	0.134	-0.207
-678.208	-49.571	-0.188	-0.090
-677.193	66.296	-0.153	-0.156
-676.178	352.171	-0.057	-0.112
-675.164	-97.126	0.205	-0.054
-674.149	-200.000	-0.003	0.148
-673.135	26.569	-0.242	0.204
-672.120	50.600	-0.305	0.290
-671.105	75.456	0.081	0.086
-670.091	98.942	-0.076	0.089
-669.076	-200.000	-0.069	-0.406
-668.062	-32.335	0.337	0.189
-667.047	92.217	-0.041	0.046
-666.032	-53.110	-0.236	0.109
-665.018	-36.296	0.187	-0.101
-664.003	-200.000	-0.056	-0.271
-662.989	-200.000	-0.026	-0.184
-661.974	-200.000	0.024	0.210
-660.959	-130.669	-0.292	-0.039
-659.945	-50.900	-0.027	0.013
-658.930	-154.983	-0.328	-0.022
-657.916	-57.458	-0.223	-0.098
-656.901	-77.665	0.275	0.095
-655.886	15.946	-0.216	-0.170
-654.872	-200.000	-0.001	-0.250
-653.857	-47.833	0.289	0.140
-652.843	-111.130	-0.256	-0.053
-651.828	-116.262	-0.230	0.043
-650.814	485.343	-0.074	-0.168
-649.799	28.799	-0.129	-0.109
-648.784	186.606	-0.036	-0.053
-647.770	645.372	-0.092	-0.235
-646.755	-30.350	0.153	0.087
-645.741	265.145	0.161	0.282
-644.726	-44.404	0.390	-0.196
-643.711	43.648	0.242	-0.222
-642.697	67.645	0.282	-0.289
-641.682	483.766	0.099	0.227
-640.668	-71.844	-0.271	-0.101
-639.653	-67.281	-0.286	0.113
-638.638	77.325	-0.092	0.098
-637.624	22.990	0.257	-0.211
-636.609	-103.615	-0.103	-0.024
-635.595	-109.527	0.470	0.100
-634.580	-200.000	0.026	0.139
-633.565	599.468	-0.055	0.136
-632.551	90.813	-0.122	-0.137
-631.536	-200.000	0.003	-0.460
-630.522	800.000	-0.113	-0.382
-629.507	174.632	-0.143	-0.208
-628.492	162.011	0.041	-0.057
-627.478	59.840	0.078	0.077
-626.463	800.000	-0.089	-0.264
-625.449	-39.597	-0.121	0.063
-624.434	103.161	-0.107	0.126
-623.419	-27.352	-0.220	-0.128
-622.405	-127.797	0.059	0.008
-621.390	10.095	0.157	-0.119
-620.376	-130.130	0.222	0.030
-619.361	800.000	0.085	0.237
-618.346	115.983	0.109	0.134
-617.332	-120.676	-0.236	-0.040
-616.317	-142.619	-0.111	0.011
-615.303	-112.456	0.371	-0.074
-614.288	-52.290	-0.238	0.110
-613.273	357.412	-0.019	-0.038
-612.259	-200.000	0.074	-0.332
-611.244	41.713	-0.246	0.223
-610.230	21.342	-0.289	-0.235
-609.215	-31.013	-0.414	-0.234
-608.201	49.730	-0.263	0.248
-607.186	800.000	0.096	-0.284
-606.171	276.837	-0.086	-0.153
-605.157	-143.345	-0.187	-0.018
-604.142	307.101	0.121	0.225
-603.128	-200.000	0.034	0.214
-602.113	-9.701	-0.215	0.143
-601.098	-133.174	0.253	-0.032
-600.084	-92.174	-0.313	0.089
-599.069	800.000	-0.037	0.161
-598.055	486.681	-0.087	-0.198
-597.040	146.142	-0.124	-0.167
-596.025	-92.154	0.245	0.069
-595.011	-200.000	-0.025	0.159
-593.996	-151.548	0.062	0.005
-592.982	103.993	-0.098	-0.115
-591.967	800.000	0.033	-0.104
-590.952	160.091	0.032	-0.045
-589.938	-102.508	-0.309	0.074
-588.923	71.497	-0.157	0.163
-587.909	-33.210	0.459	0.255
-586.894	800.000	-0.018	0.054
-585.879	1.644	-0.044	-0.032
-584.865	132.884	0.267	0.345
-583.850	-111.458	0.077	0.016
-582.836	151.296	-0.055	0.075
-581.821	-166.645	0.172	0.007
-580.806	800.000	0.136	-0.394
-579.792	105.178	0.172	-0.202
-578.777	-81.790	0.052	0.017
-577.763	246.712	-0.043	0.073
-576.748	-200.000	-0.002	-0.118
-575.733	-180.417	-0.236	0.005
-574.719	-25.448	0.184	-0.109
-573.704	185.185	-0.135	-0.200
-572.690	800.000	-0.057	-0.161
-571.675	37.260	-0.379	0.336
-570.661	-1.350	0.170	-0.120
-569.646	-68.953	0.180	-0.070
-568.631	484.182	0.079	-0.181
-567.617	70.109	0.175	-0.181
-566.602	-141.569	-0.402	0.040
-565.588	271.033	0.144	0.253
-564.573	-147.884	-0.200	-0.017
-563.558	-128.585	-0.413	0.058
-562.544	-200.000	-0.069	-0.468
-561.529	11.279	0.127	-0.097
-560.515	-20.468	-0.092	-0.056
-559.500	135.989	-0.226	0.294
-558.485	-102.294	0.306	-0.073
-557.471	-50.523	-0.152	0.071
-556.456	-57.365	0.066	0.029
-555.442	-66.717	0.195	-0.077
-554.427	722.261	-0.154	-0.409
-553.412	800.000	0.051	-0.158
-552.398	-200.000	-0.021	-0.097
-551.383	651.005	-0.063	-0.162
-550.369	-165.803	-0.079	0.003
-549.354	66.747	0.149	-0.151
-548.339	204.235	0.059	0.092
-547.325	-109.684	0.269	0.057
-546.310	-29.814	0.220	0.125
-545.296	117.943	-0.042	-0.052
-544.281	31.801	0.144	-0.124
-543.266	-91.503	-0.117	0.033
-542.252	606.820	0.081	-0.201
-541.237	-195.892	-0.460	0.003
-540.223	10.678	-0.232	-0.177
-539.208	78.599	0.071	-0.076
-538.193	-200.000	0.010	0.124
-537.179	30.024	-0.066	0.056
-536.164	110.130	-0.093	-0.112
-535.150	-52.259	0.118	-0.055
-534.135	-170.936	0.235	0.008
-533.121	800.000	0.045	0.161
-532.106	18.593	0.079	-0.063
-531.091	225.582	-0.183	-0.296
-530.077	-67.600	-0.404	0.158
-529.062	-87.204	0.162	-0.049
-528.048	430.939	0.066	-0.143
-527.033	800.000	-0.094	-0.277
-526.018	800.000	-0.056	0.205
-525.004	-26.529	0.107	0.063
-523.989	-70.331	-0.201	0.076
-522.975	224.505	0.144	-0.232
-521.960	-59.936	0.356	-0.152
-520.945	800.000	-0.102	0.437
-519.931	800.000	0.082	0.290
-518.916	46.017	0.289	0.267
-517.902	-104.748	-0.276	-0.063
-516.887	-165.532	-0.266	-0.012
-515.872	-40.031	0.156	0.081
-514.858	188.595	0.137	-0.205
-513.843	-46.622	-0.210	-0.103
-512.829	-105.920	-0.103	0.023
-511.814	-59.169	-0.072	-0.031
-510.799	-50.427	0.260	0.122
-509.785	-152.167	-0.189	0.014
-508.770	115.313	-0.440	-0.536
-507.756	-17.420	0.126	0.079
-506.741	707.683	-0.046	-0.120
-505.726	6.541	0.088	-0.065
-504.712	-200.000	0.043	0.198
-503.697	450.166	-0.091	0.200
-502.683	5.787	0.097	-0.071
-501.668	800.000	0.090	0.337
-500.653	-118.017	-0.509	0.091
-499.639	-65.177	0.384	-0.154
-498.624	800.000	-0.111	-0.398
-497.610	-182.597	0.227	0.004
-496.595	-200.000	0.004	0.033
-495.581	-66.768	0.167	-0.066
-494.566	-102.227	-0.127	0.030
-493.551	53.189	-0.176	0.168
-492.537	18.070	0.053	0.042
-491.522	800.000	-0.094	0.287
-490.508	418.715	-0.146	-0.311
-489.493	-107.641	-0.342	0.074
-488.478	-200.000	0.002	-0.069
-487.464	-200.000	0.221	-0.000
-486.449	280.460	-0.052	-0.093
-485.435	-200.000	0.071	-0.398
-484.420	-187.082	0.434	-0.006
-483.405	-61.085	0.194	0.081
-482.391	8.823	0.199	0.150
-481.376	60.823	0.283	0.280
-480.362	800.000	-0.053	-0.170
-479.347	-95.367	-0.242	-0.065
-478.332	70.490	-0.235	0.242
-477.318	800.000	-0.112	0.330
-476.303	174.709	0.190	0.274
-475.289	-65.807	-0.153	0.061
-474.274	472.429	0.072	-0.161
-473.259	-200.000	-0.002	-0.029
-472.245	-160.769	-0.166	0.009
-471.230	-200.000	-0.006	0.137
-470.216	-200.000	-0.020	0.244
-469.201	707.114	-0.160	0.421
-468.186	-117.876	0.382	0.068
-467.172	-86.442	-0.230	0.070
-466.157	800.000	0.034	0.098
-465.143	-122.539	0.131	0.021
-464.128	185.885	-0.163	0.241
-463.113	53.764	-0.078	0.075
-462.099	800.000	0.083	0.308
-461.084	36.345	0.118	-0.104
-460.070	180.981	-0.073	-0.107
-459.055	-123.831	0.217	-0.034
-458.040	380.272	0.176	-0.359
-457.026	-106.594	0.189	0.042
-456.011	-92.412	0.134	-0.038
-454.997	227.028	0.054	-0.088
-453.982	164.899	0.178	0.250
-452.968	-200.000	0.025	0.216
-451.953	377.447	0.070	-0.142
-450.938	499.346	0.077	-0.177
-449.924	-98.669	0.249	0.063
-448.909	10.384	0.147	0.111
-447.895	-48.585	-0.398	0.190
-446.880	-4.190	-0.114	-0.079
-445.865	-118.884	-0.382	0.067
-444.851	-200.000	-0.007	0.045
-443.836	-145.662	-0.060	0.005
-442.822	-200.000	-0.015	0.198
-441.807	-200.000	-0.037	0.202
-440.792	-200.000	0.013	-0.080
-439.778	-200.000	-0.019	-0.494
-438.763	-200.000	0.021	-0.100
-437.749	778.489	0.134	0.364
-436.734	-34.319	-0.126	-0.069
-435.719	-92.451	0.067	0.019
-434.705	-200.000	-0.008	0.178
-433.690	10.125	-0.251	-0.190
-432.676	-200.000	-0.022	-0.421
-431.661	-93.131	0.299	0.083
-430.646	-59.903	0.165	0.070
-429.632	323.493	-0.170	0.321
-428.617	800.000	-0.033	-0.114
-427.603	358.188	-0.115	-0.229
-426.588	114.350	-0.111	-0.134
-425.573	294.841	0.194	0.352
-424.559	-121.871	0.124	0.020
-423.544	-200.000	-0.019	0.297
-422.530	-130.786	-0.318	-0.042
-421.515	800.000	-0.013	-0.057
-420.500	800.000	0.064	0.202
-419.486	-44.047	-0.240	0.120
-418.471	-106.952	-0.045	0.010
-417.457	74.709	0.132	0.138
-416.442	-135.303	0.312	-0.037
-415.428	222.478	-0.016	0.026
-414.413	-200.000	0.001	0.140
-413.398	-111.599	0.160	-0.032
-412.384	-46.030	0.071	0.035
-411.369	143.968	0.143	-0.190
-410.355	120.776	-0.115	0.143
-409.340	776.118	0.025	0.067
-408.325	800.000	0.063	-0.174
-407.311	-47.108	0.312	0.151
-406.296	-56.310	-0.348	0.154
-405.282	-200.000	0.003	0.512
-404.267	-200.000	-0.008	0.176
-403.252	-200.000	0.051	-0.283
-402.238	-155.208	0.121	0.008
-401.223	320.830	0.120	-0.226
-400.209	34.931	-0.267	-0.232
-399.194	-50.560	0.329	0.154
-398.179	-200.000	-0.011	-0.256
-397.165	77.711	0.073	0.077
-396.150	36.184	0.147	0.129
-395.136	83.066	0.151	0.163
-394.121	19.254	0.149	-0.119
-393.106	-200.000	-0.000	-0.387
-392.092	110.514	0.183	-0.218
-391.077	389.766	0.197	0.405
-390.063	-133.105	-0.325	0.041
-389.048	-52.543	0.175	-0.080
-388.033	738.973	-0.035	-0.092
-387.019	156.561	0.150	0.205
-386.004	-200.000	-0.008	-0.120
-384.990	-200.000	-0.003	-0.145
-383.975	50.115	0.109	0.102
-382.960	-110.157	-0.224	-0.046
-381.946	-35.512	-0.135	0.073
-380.931	776.878	0.093	-0.252
-379.917	9.639	-0.148	-0.111
-378.902	-62.278	-0.150	0.062
-377.888	-200.000	0.009	-0.089
-376.873	21.808	-0.172	0.139
-375.858	747.214	-0.058	-0.155
-374.844	-200.000	0.050	0.320
-373.829	-86.337	-0.033	-0.010
-372.815	-200.000	0.060	-0.405
-371.800	-44.535	0.097	-0.048
-370.785	-49.277	-0.104	0.049
-369.771	-139.531	0.363	-0.038
-368.756	-123.012	0.197	-0.031
-367.742	161.233	-0.094	-0.130
-366.727	800.000	0.086	0.270
-365.712	54.881	-0.329	0.314
-364.698	-36.863	-0.102	0.054
-363.683	155.762	-0.128	-0.175
-362.669	161.974	-0.139	0.193
-361.654	-108.884	0.176	0.037
-360.639	-200.000	0.021	0.218
-359.625	-97.971	0.045	0.012
-358.610	-47.720	-0.291	0.140
-357.596	-67.590	-0.409	0.159
-356.581	41.779	-0.185	-0.167
-355.566	-200.000	0.021	-0.173
-354.552	215.957	-0.029	-0.046
-353.537	-160.726	-0.189	0.010
-352.523	-104.311	-0.326	0.075
-351.508	267.826	-0.045	-0.078
-350.493	-200.000	-0.021	-0.094
-349.479	-101.562	-0.289	-0.070
-348.464	-183.818	-0.177	-0.003
-347.450	-123.891	0.111	-0.017
-346.435	324.870	-0.102	-0.193
-345.420	437.719	-0.052	0.113
-344.406	-88.390	0.202	0.060
-343.391	800.000	0.050	0.213
-342.377	295.187	0.178	-0.322
-341.362	-99.542	-0.236	0.059
-340.348	-61.312	0.273	-0.114
-339.333	-200.000	0.024	0.219
-338.318	-200.000	-0.001	-0.019
-337.304	80.568	-0.190	0.203
-336.289	800.000	-0.071	-0.219
-335.275	-130.950	0.054	0.007
-334.260	-13.212	-0.317	-0.204
-333.245	-200.000	-0.001	-0.095
-332.231	53.934	-0.086	0.082
-331.216	-200.000	-0.007	-0.259
-330.202	117.287	0.129	-0.157
-329.187	-105.283	-0.233	-0.053
-328.172	-200.000	0.008	0.231
-327.158	-96.591	-0.214	0.056
-326.143	-11.852	-0.126	0.082
-325.129	-29.392	0.244	0.138
-324.114	-200.000	0.006	-0.159
-323.099	-200.000	0.025	-0.382
-322.085	-92.188	0.314	-0.088
-321.070	-81.072	-0.399	0.131
-320.056	-200.000	-0.055	0.288
-319.041	16.779	0.246	-0.193
-318.026	126.638	0.213	-0.267
-317.012	-200.000	0.046	-0.316
-315.997	133.599	-0.032	-0.041
-314.983	-155.966	0.466	-0.029
-313.968	-200.000	0.001	0.070
-312.953	110.812	-0.111	-0.132
-311.939	-74.939	0.110	0.039
-310.924	-50.627	0.081	0.038
-309.910	22.790	0.085	0.069
-308.895	-200.000	0.069	0.379
-307.880	109.242	0.130	0.154
-306.866	259.928	-0.066	-0.113
-305.851	-200.000	-0.008	0.167
-304.837	15.550	-0.016	-0.012
-303.822	375.145	-0.016	0.031
-302.807	-200.000	0.001	0.078
-301.793	-73.414	0.376	-0.136
-300.778	103.176	-0.098	-0.113
-299.764	-200.000	-0.049	0.261
-298.749	100.045	-0.049	-0.056
-297.735	-200.000	-0.002	0.311
-296.720	211.844	0.214	-0.333
-295.705	60.822	-0.319	-0.312
-294.691	9.035	0.027	0.020
-293.676	-121.569	-0.227	-0.037
-292.662	-200.000	0.040	-0.390
-291.647	-94.150	0.492	0.133
-290.632	43.820	-0.139	-0.126
-289.618	229.644	-0.085	-0.137
-288.603	-200.000	-0.026	0.199
-287.589	-2.823	0.192	0.132
-286.574	-135.863	0.147	0.017
-285.559	47.399	-0.177	-0.163
-284.545	-89.395	0.248	-0.072
-283.530	800.000	0.081	0.304
-282.516	60.273	0.163	0.160
-281.501	-200.000	0.037	0.228
-280.486	26.813	0.255	0.211
-279.472	-200.000	0.050	-0.318
-278.457	-200.000	0.027	0.123
-277.443	800.000	-0.016	-0.069
-276.428	22.248	0.171	0.138
-275.413	750.311	0.053	0.142
-274.399	800.000	-0.094	0.320
-273.384	-108.267	0.239	0.051
-272.370	110.589	-0.144	-0.171
-271.355	-147.186	0.159	0.013
-270.340	800.000	-0.028	-0.101
-269.326	-200.000	0.025	0.163
-268.311	590.982	0.039	0.094
-267.297	111.838	-0.082	-0.098
-266.282	-81.238	-0.384	-0.125
-265.267	-31.321	-0.236	-0.131
-264.253	117.870	-0.226	-0.274
-263.238	727.417	-0.101	-0.267
-262.224	229.243	0.183	0.294
-261.209	-128.480	0.168	-0.024
-260.195	266.537	0.077	0.133
-259.180	-89.902	0.152	-0.044
-258.165	-51.627	-0.171	-0.079
-257.151	-66.249	-0.206	-0.081
-256.136	-38.631	-0.040	0.021
-255.122	-35.871	0.291	0.155
-254.107	-200.000	-0.012	0.326
-253.092	800.000	-0.044	0.157
-252.078	28.579	-0.088	0.074
-251.063	285.375	-0.109	-0.193
-250.049	452.199	-0.056	0.122
-249.034	-200.000	0.030	-0.558
-248.019	800.000	0.030	0.105
-247.005	395.774	-0.004	-0.008
-245.990	54.250	0.002	0.002
-244.976	268.687	0.195	0.337
-243.961	-21.265	-0.121	0.073
-242.946	186.908	-0.207	0.304
-241.932	139.881	-0.164	0.214
-240.917	-111.075	-0.226	-0.046
-239.903	-200.000	-0.014	-0.247
-238.888	-108.262	-0.061	0.013
-237.873	-165.131	0.438	-0.019
-236.859	37.696	0.231	-0.203
-235.844	-136.218	0.493	-0.057
-234.830	-83.771	0.297	0.093
-233.815	236.630	0.122	0.199
-232.800	66.989	0.229	-0.230
-231.786	-146.052	0.230	0.020
-230.771	437.537	-0.058	-0.125
-229.757	-200.000	0.018	0.203
-228.742	-172.293	0.009	0.000
-227.727	-43.809	0.082	0.040
-226.713	-58.604	0.161	-0.069
-225.698	218.082	0.151	0.237
-224.684	-78.451	-0.256	0.086
-223.669	-86.901	-0.088	0.026
-222.655	-41.570	-0.118	-0.060
-221.640	-200.000	0.059	0.372
-220.625	-101.980	0.422	-0.100
-219.611	539.368	-0.100	-0.233
-218.596	-32.568	0.167	-0.092
-217.582	255.319	-0.142	0.240
-216.567	800.000	0.043	0.174
-215.552	22.750	0.101	0.081
-214.538	-200.000	0.000	0.207
-213.523	-131.921	0.242	0.031
-212.509	50.941	0.062	-0.058
-211.494	34.708	-0.035	-0.031
-210.479	-67.279	-0.200	-0.078
-209.465	-73.581	0.169	-0.061
-208.450	800.000	-0.039	0.129
-207.436	800.000	-0.098	0.273
-206.421	-75.524	0.130	0.046
-205.406	-200.000	0.005	0.187
-204.392	325.396	0.158	0.298
-203.377	114.848	-0.088	-0.105
-202.363	-200.000	0.012	0.062
-201.348	800.000	-0.054	-0.180
-200.333	28.034	-0.238	-0.198
-199.319	-97.675	0.205	0.052
-198.304	-200.000	-0.023	-0.328
-197.290	-123.841	-0.225	0.035
-196.275	-68.325	-0.407	-0.156
-195.260	-200.000	0.035	-0.180
-194.246	-101.135	-0.108	0.026
-193.231	-59.013	-0.158	0.067
-192.217	73.643	-0.173	-0.179
-191.202	234.022	0.132	-0.215
-190.187	401.457	0.111	-0.229
-189.173	87.589	-0.336	-0.366
-188.158	800.000	-0.086	-0.263
-187.144	10.589	0.115	-0.086
-186.129	-142.375	-0.205	0.020
-185.114	-67.570	0.095	-0.037
-184.100	12.634	-0.127	-0.096
-183.085	-151.184	0.199	-0.015
-182.071	-200.000	0.016	0.279
-181.056	-22.970	-0.033	0.020
-180.042	244.832	0.093	0.154
-179.027	52.505	0.282	0.265
-178.012	-143.164	-0.285	0.027
-176.998	-95.222	0.203	0.054
-175.983	-19.857	-0.066	0.040
-174.969	-163.340	-0.215	-0.010
-173.954	-74.220	0.106	0.038
-172.939	800.000	0.011	0.033
-171.925	354.782	0.157	-0.307
-170.910	-33.791	-0.189	0.102
-169.896	-81.468	-0.404	0.131
-168.881	-163.107	0.169	-0.008
-167.866	800.000	-0.042	-0.178
-166.852	479.203	0.061	0.135
-165.837	800.000	0.052	-0.164
-164.823	800.000	-0.028	0.081
-163.808	35.444	0.107	0.092
-162.793	-200.000	-0.005	0.046
-161.779	-200.000	-0.051	0.326
-160.764	-170.381	-0.285	-0.010
-159.750	512.702	0.029	-0.067
-158.735	74.999	0.091	0.095
-157.720	800.000	-0.049	0.157
-156.706	-149.821	-0.096	0.007
-155.691	-200.000	0.028	-0.127
-154.677	281.425	-0.204	-0.359
-153.662	179.914	0.061	-0.087
-152.647	-182.539	-0.207	-0.004
-151.633	800.000	-0.163	0.515
-150.618	82.879	-0.051	0.054
-149.604	800.000	-0.107	0.302
-148.589	17.981	-0.257	0.201
-147.574	-200.000	0.010	-0.218
-146.560	-200.000	0.032	0.154
-145.545	215.616	0.091	0.141
-144.531	800.000	0.054	-0.197
-143.516	-33.235	0.308	-0.168
-142.502	-78.239	0.123	-0.042
-141.487	-142.333	-0.144	-0.014
-140.472	183.235	0.169	0.245
-139.458	401.281	0.183	-0.377
-138.443	-103.060	-0.178	0.042
-137.429	-45.286	0.484	-0.236
-136.414	747.547	-0.018	-0.046
-135.399	-200.000	-0.052	0.364
-134.385	-200.000	0.031	-0.168
-133.370	-81.969	0.202	-0.065
-132.356	800.000	-0.034	0.126
-131.341	-90.977	-0.035	-0.010
-130.326	-72.653	0.229	-0.083
-129.312	-200.000	0.028	0.212
-128.297	304.827	-0.176	0.322
-127.283	-132.701	-0.225	-0.028
-126.268	-200.000	-0.006	0.089
-125.253	-87.829	0.338	0.100
-124.239	-122.339	-0.168	-0.027
-123.224	-200.000	-0.027	-0.131
-122.210	243.842	0.068	0.111
