DTS Sentinel unit serial number:	SN413079Multiplexer serial number:	ORYXHardware model number:	OX4-SRSoftware version number:	ORYX F/W v4.00 Oryx Data Collector v3.7.2.0data status	okinstallation	princeton_trtdifferential loss correction	single-endedforward channel	channel 1reverse channel	N/Adate	2019/09/17time	20:14:35forward acquisition time	60.00reverse acquisition time	0.00gamma	496.2192k internal	0.2328k external	0.2328temperature offset calibration	0.9978default loss term (dB/km)	0.3790temperature slope calibration	1.0000multiplexer offset coefficient	1.0000multiplexer slope coefficient	1.0000fibre end	0.00T internal ref (°C)	31.92T ext. ref 1 (°C)	0.23T ext. ref 2 (°C)	22.18length (m)	temperature (°C)	Stokes	anti-Stokes-747.200	125.404	0.251	0.319
-746.185	46.603	-0.210	-0.196
-745.171	-92.695	-0.165	0.047
-744.156	800.000	-0.057	0.247
-743.142	800.000	-0.039	-0.153
-742.127	-200.000	0.020	0.129
-741.112	329.915	0.058	0.112
-740.098	800.000	-0.104	0.455
-739.083	427.462	0.155	-0.337
-738.069	-83.052	-0.364	0.118
-737.054	-92.896	0.601	0.169
-736.039	-1.802	-0.234	-0.166
-735.025	-200.000	0.042	-0.232
-734.010	-23.316	-0.197	-0.120
-732.996	-200.000	-0.026	-0.217
-731.981	473.346	-0.123	-0.279
-730.966	34.442	0.062	-0.054
-729.952	-200.000	-0.056	0.482
-728.937	109.429	-0.113	-0.136
-727.923	-137.226	-0.157	0.018
-726.908	-174.301	-0.187	-0.005
-725.894	56.392	-0.166	0.162
-724.879	-8.502	-0.253	-0.171
-723.864	-68.334	0.183	-0.071
-722.850	567.113	-0.091	0.223
-721.835	90.669	0.171	0.193
-720.821	234.902	-0.141	-0.234
-719.806	-59.955	0.087	0.037
-718.791	-33.493	-0.063	-0.035
-717.777	-67.175	-0.082	0.033
-716.762	9.912	-0.097	0.074
-715.748	281.089	0.105	-0.189
-714.733	-195.969	-0.174	0.001
-713.718	2.884	-0.189	-0.138
-712.704	419.455	0.116	-0.251
-711.689	-56.934	-0.198	-0.088
-710.675	-136.984	0.138	0.016
-709.660	520.607	0.042	-0.099
-708.645	-42.058	0.127	0.065
-707.631	8.632	-0.072	0.055
-706.616	-173.597	-0.378	-0.011
-705.602	-172.994	-0.379	0.012
-704.587	-134.095	0.330	0.041
-703.572	-200.000	0.016	0.080
-702.558	-19.984	-0.178	-0.110
-701.543	800.000	-0.059	-0.175
-700.529	208.046	0.076	0.120
-699.514	57.660	0.212	0.208
-698.499	472.232	0.072	0.163
-697.485	-152.785	-0.099	-0.007
-696.470	45.483	-0.115	-0.106
-695.456	509.604	0.101	0.236
-694.441	23.420	-0.021	-0.017
-693.426	-136.666	-0.300	-0.035
-692.412	151.588	0.161	0.221
-691.397	43.585	0.217	-0.199
-690.383	210.049	0.085	-0.135
-689.368	-200.000	-0.007	0.207
-688.354	72.062	0.181	-0.190
-687.339	66.631	-0.117	-0.120
-686.324	-200.000	0.026	-0.131
-685.310	-36.517	0.207	0.112
-684.295	-95.127	-0.057	0.015
-683.281	-6.129	-0.158	-0.109
-682.266	448.640	0.111	-0.246
-681.251	193.971	-0.128	0.195
-680.237	-168.742	0.139	-0.005
-679.222	322.672	-0.075	-0.144
-678.208	-200.000	0.070	-0.420
-677.193	-188.696	-0.117	-0.001
-676.178	-200.000	-0.046	0.208
-675.164	-149.978	-0.254	-0.020
-674.149	37.926	0.312	-0.279
-673.135	800.000	-0.040	0.143
-672.120	-200.000	0.034	-0.227
-671.105	-159.615	-0.301	-0.017
-670.091	670.842	-0.135	-0.351
-669.076	39.144	-0.196	0.176
-668.062	-200.000	0.025	-0.146
-667.047	-122.537	0.140	0.023
-666.032	-80.811	-0.255	0.085
-665.018	3.828	-0.130	-0.095
-664.003	97.791	0.145	-0.168
-662.989	19.848	-0.173	0.140
-661.974	800.000	0.056	0.176
-660.959	280.141	0.146	0.262
-659.945	7.070	-0.135	-0.101
-658.930	-200.000	-0.021	-0.282
-657.916	-83.588	0.053	-0.017
-656.901	-51.979	-0.126	-0.059
-655.886	-37.696	0.103	-0.055
-654.872	-82.685	-0.061	0.020
-653.857	-53.192	0.244	0.112
-652.843	12.744	-0.464	0.359
-651.828	800.000	0.030	-0.128
-650.814	-83.499	-0.297	-0.095
-649.799	319.748	-0.129	0.245
-648.784	-67.279	-0.333	-0.132
-647.770	295.438	-0.080	0.147
-646.755	96.175	-0.181	-0.208
-645.741	800.000	-0.135	-0.461
-644.726	-66.547	0.339	-0.135
-643.711	-27.883	0.282	0.164
-642.697	-17.265	0.213	-0.135
-641.682	-55.196	0.094	0.042
-640.668	41.198	-0.116	0.105
-639.653	7.795	-0.204	0.154
-638.638	-200.000	0.097	0.715
-637.624	-200.000	0.013	-0.060
-636.609	550.238	-0.075	-0.180
-635.595	800.000	-0.103	-0.373
-634.580	-200.000	-0.014	0.154
-633.565	9.072	0.206	0.156
-632.551	-108.673	-0.161	0.035
-631.536	-151.149	-0.378	-0.028
-630.522	800.000	-0.070	-0.237
-629.507	521.908	-0.170	-0.399
-628.492	800.000	-0.040	0.129
-627.478	72.734	-0.104	-0.109
-626.463	435.154	-0.118	0.258
-625.449	-130.722	-0.220	-0.030
-624.434	-52.096	-0.335	0.156
-623.419	-0.988	-0.300	-0.213
-622.405	-148.134	-0.352	-0.029
-621.390	477.705	-0.068	-0.154
-620.376	-200.000	-0.054	0.277
-619.361	-29.961	0.219	-0.125
-618.346	67.749	0.302	0.309
-617.332	-200.000	-0.068	0.373
-616.317	96.002	0.064	0.073
-615.303	-37.447	-0.170	-0.091
-614.288	-174.418	-0.297	-0.009
-613.273	69.422	0.164	0.170
-612.259	-34.858	0.247	-0.135
-611.244	370.370	-0.128	-0.259
-610.230	-71.132	0.127	0.048
-609.215	-200.000	-0.002	0.020
-608.201	-110.126	-0.157	-0.033
-607.186	319.440	-0.114	-0.216
-606.171	-79.510	0.182	-0.062
-605.157	650.547	-0.012	0.032
-604.142	-200.000	0.009	-0.220
-603.128	323.828	-0.143	0.273
-602.113	214.008	-0.141	0.224
-601.098	-117.723	-0.082	0.015
-600.084	25.425	-0.130	-0.108
-599.069	-184.546	0.113	0.002
-598.055	17.839	-0.087	0.070
-597.040	-200.000	-0.046	-0.246
-596.025	104.818	0.194	-0.229
-595.011	63.848	0.072	0.072
-593.996	800.000	-0.088	-0.318
-592.982	-200.000	0.029	0.237
-591.967	800.000	-0.121	-0.375
-590.952	102.497	-0.085	0.100
-589.938	-56.997	0.127	0.056
-588.923	620.778	-0.212	-0.535
-587.909	-98.168	-0.070	-0.018
-586.894	-137.388	0.106	-0.012
-585.879	50.751	-0.127	-0.120
-584.865	800.000	-0.039	0.156
-583.850	800.000	-0.066	-0.260
-582.836	-200.000	-0.013	-0.070
-581.821	-40.245	0.122	-0.064
-580.806	800.000	0.025	0.089
-579.792	800.000	-0.194	0.550
-578.777	142.550	-0.151	0.200
-577.763	800.000	0.092	-0.401
-576.748	-164.314	-0.117	0.005
-575.733	40.309	0.062	-0.056
-574.719	594.304	0.131	0.324
-573.704	800.000	0.032	-0.120
-572.690	800.000	-0.048	-0.155
-571.675	-148.677	-0.191	-0.016
-570.661	105.619	0.093	0.110
-569.646	-13.980	-0.303	-0.196
-568.631	800.000	0.013	-0.039
-567.617	800.000	0.102	-0.332
-566.602	-200.000	-0.001	-0.103
-565.588	-200.000	0.017	-0.221
-564.573	283.247	0.256	-0.461
-563.558	-23.693	0.125	-0.075
-562.544	800.000	-0.152	-0.475
-561.529	-2.954	-0.321	0.224
-560.515	46.798	-0.079	0.074
-559.500	210.979	-0.060	-0.094
-558.485	800.000	0.053	0.186
-557.471	-167.539	0.431	-0.017
-556.456	-134.666	-0.313	-0.038
-555.442	-121.395	0.402	-0.067
-554.427	39.869	-0.191	-0.171
-553.412	800.000	0.076	-0.273
-552.398	15.973	-0.044	-0.034
-551.383	-8.323	-0.213	-0.143
-550.369	134.167	-0.144	-0.187
-549.354	-124.167	-0.207	-0.032
-548.339	199.498	-0.102	0.157
-547.325	225.587	0.204	-0.330
-546.310	-200.000	0.013	0.244
-545.296	800.000	0.111	0.343
-544.281	84.982	-0.178	-0.195
-543.266	-138.326	-0.166	0.018
-542.252	10.634	0.090	-0.068
-541.237	-79.318	0.201	-0.068
-540.223	800.000	-0.039	0.155
-539.208	-81.185	-0.259	0.085
-538.193	226.356	-0.064	-0.105
-537.179	-132.653	0.307	-0.039
-536.164	588.687	0.055	-0.136
-535.150	-65.559	0.224	0.090
-534.135	34.907	0.125	-0.109
-533.121	8.207	-0.075	-0.056
-532.106	800.000	0.040	0.110
-531.091	-34.309	-0.142	0.078
-530.077	88.087	-0.306	0.339
-529.062	-35.940	-0.179	0.097
-528.048	80.162	-0.117	-0.126
-527.033	-200.000	-0.012	0.054
-526.018	-200.000	0.052	-0.369
-525.004	136.686	0.096	0.125
-523.989	800.000	-0.078	0.219
-522.975	-107.180	0.236	0.052
-521.960	800.000	-0.131	-0.401
-520.945	800.000	0.043	-0.140
-519.931	123.863	0.134	-0.168
-518.916	-147.141	0.164	0.014
-517.902	243.864	-0.164	-0.275
-516.887	103.089	-0.124	-0.145
-515.872	91.787	-0.217	0.244
-514.858	51.325	-0.105	0.100
-513.843	-55.453	0.147	-0.066
-512.829	-200.000	0.006	0.159
-511.814	101.790	-0.152	0.177
-510.799	-66.621	0.157	-0.062
-509.785	-39.167	-0.216	0.113
-508.770	-12.576	0.293	0.191
-507.756	33.146	-0.165	0.143
-506.741	157.218	0.188	0.260
-505.726	-56.596	-0.189	0.084
-504.712	71.978	0.388	-0.403
-503.697	-200.000	0.042	0.194
-502.683	75.926	0.139	-0.146
-501.668	-13.228	-0.261	-0.169
-500.653	-111.855	0.296	-0.060
-499.639	206.053	-0.141	0.219
-498.624	-114.489	0.134	0.026
-497.610	-36.237	0.337	-0.182
-496.595	-57.268	0.211	0.093
-495.581	72.550	-0.134	-0.140
-494.566	187.653	0.087	0.130
-493.551	-42.853	0.299	0.151
-492.537	-43.552	-0.349	-0.176
-491.522	-74.818	0.274	-0.098
-490.508	7.458	-0.106	0.079
-489.493	-26.293	-0.153	-0.090
-488.478	12.656	-0.229	0.176
-487.464	-200.000	-0.000	0.249
-486.449	67.615	-0.014	-0.014
-485.435	353.351	-0.061	0.121
-484.420	108.365	-0.276	0.328
-483.405	441.667	0.068	-0.148
-482.391	-123.204	0.533	0.085
-481.376	-29.858	-0.217	-0.123
-480.362	800.000	0.019	-0.077
-479.347	-125.280	-0.262	-0.040
-478.332	36.277	-0.163	0.143
-477.318	253.067	0.114	0.195
-476.303	-138.842	-0.255	0.028
-475.289	800.000	-0.003	0.007
-474.274	-200.000	-0.026	-0.322
-473.259	-31.212	0.073	0.041
-472.245	800.000	-0.049	-0.165
-471.230	-24.237	0.098	0.058
-470.216	-60.154	0.108	-0.046
-469.201	226.674	0.136	0.220
-468.186	218.081	-0.013	-0.020
-467.172	118.009	0.147	0.180
-466.157	154.151	-0.108	0.147
-465.143	284.919	-0.078	-0.140
-464.128	358.457	-0.136	0.270
-463.113	-60.045	0.085	-0.036
-462.099	-89.185	0.083	-0.024
-461.084	-177.862	0.097	-0.002
-460.070	-141.992	0.094	-0.009
-459.055	14.927	-0.085	0.067
-458.040	800.000	0.033	-0.105
-457.026	109.225	0.074	0.089
-456.011	-22.697	0.064	0.038
-454.997	-21.246	-0.046	-0.028
-453.982	-200.000	-0.048	-0.210
-452.968	-146.612	0.251	0.022
-451.953	322.386	-0.101	-0.192
-450.938	53.886	-0.150	-0.143
-449.924	-200.000	0.022	-0.144
-448.909	-73.771	0.310	-0.112
-447.895	800.000	0.069	0.220
-446.880	-70.384	0.087	-0.033
-445.865	-200.000	-0.016	0.170
-444.851	44.797	-0.057	-0.052
-443.836	136.188	0.109	-0.142
-442.822	-106.875	0.242	-0.053
-441.807	521.203	-0.117	-0.274
-440.792	178.713	0.127	-0.184
-439.778	600.103	-0.085	0.209
-438.763	16.088	0.221	0.174
-437.749	-200.000	-0.001	-0.191
-436.734	-79.132	-0.266	-0.090
-435.719	-141.044	0.081	-0.008
-434.705	148.319	-0.096	0.129
-433.690	-5.346	0.268	0.183
-432.676	128.527	0.163	0.207
-431.661	37.490	-0.145	0.128
-430.646	-200.000	-0.036	0.205
-429.632	800.000	-0.094	-0.307
-428.617	-19.033	0.159	0.099
-427.603	-110.073	0.066	-0.014
-426.588	-200.000	0.020	0.128
-425.573	184.477	0.151	-0.223
-424.559	-63.733	-0.021	-0.009
-423.544	-200.000	0.076	0.345
-422.530	800.000	0.043	0.178
-421.515	-94.544	-0.092	0.025
-420.500	-86.698	-0.206	0.063
-419.486	-200.000	-0.005	-0.159
-418.471	-97.211	-0.173	0.045
-417.457	800.000	-0.108	-0.342
-416.442	330.431	0.091	0.175
-415.428	594.829	0.110	0.272
-414.413	-138.902	-0.428	-0.046
-413.398	800.000	0.051	-0.221
-412.384	789.836	0.122	-0.334
-411.369	-145.731	0.149	0.013
-410.355	-98.895	-0.278	-0.070
-409.340	-110.662	-0.389	-0.080
-408.325	-118.590	0.128	-0.023
-407.311	776.135	0.028	-0.075
-406.296	61.847	-0.041	0.040
-405.282	-83.003	-0.301	0.097
-404.267	800.000	-0.025	-0.100
-403.252	169.942	0.142	0.202
-402.238	31.178	0.241	-0.206
-401.223	-192.311	-0.044	-0.000
-400.209	114.858	0.141	0.171
-399.194	-169.746	0.080	0.003
-398.179	53.210	-0.393	0.374
-397.165	-22.281	0.108	0.065
-396.150	-200.000	0.020	0.420
-395.136	-50.039	0.094	0.044
-394.121	800.000	-0.040	-0.138
-393.106	800.000	0.059	0.222
-392.092	385.916	0.077	-0.159
-391.077	643.075	0.041	-0.104
-390.063	38.694	0.099	-0.088
-389.048	-30.950	-0.203	0.114
-388.033	511.984	0.076	-0.176
-387.019	43.610	-0.136	0.124
-386.004	-200.000	0.026	0.378
-384.990	318.469	-0.072	0.136
-383.975	141.708	0.209	0.275
-382.960	-200.000	-0.057	0.367
-381.946	-64.601	-0.198	-0.080
-380.931	257.214	-0.104	-0.178
-379.917	-67.751	0.304	-0.118
-378.902	-66.948	-0.258	-0.101
-377.888	-200.000	-0.026	0.318
-376.873	248.212	0.117	0.197
-375.858	-200.000	-0.002	-0.150
-374.844	800.000	-0.089	-0.347
-373.829	-135.275	0.175	0.021
-372.815	800.000	0.086	-0.301
-371.800	-93.564	0.303	0.083
-370.785	800.000	-0.048	0.201
-369.771	-132.985	0.208	-0.026
-368.756	347.412	-0.138	-0.269
-367.742	-200.000	-0.061	-0.391
-366.727	-18.774	-0.175	-0.108
-365.712	42.749	0.232	-0.210
-364.698	99.415	0.252	0.289
-363.683	8.916	-0.402	-0.301
-362.669	13.866	0.245	0.189
-361.654	800.000	-0.037	-0.107
-360.639	70.400	-0.053	0.054
-359.625	177.149	-0.124	-0.179
-358.610	207.802	-0.017	-0.027
-357.596	800.000	0.037	-0.123
-356.581	-200.000	0.033	0.379
-355.566	-200.000	-0.025	0.135
-354.552	-58.324	0.329	0.142
-353.537	-72.907	0.282	-0.103
-352.523	800.000	-0.006	0.018
-351.508	-200.000	0.026	0.302
-350.493	30.805	0.238	-0.202
-349.479	-117.259	0.208	0.037
-348.464	370.517	0.093	-0.186
-347.450	-118.814	0.182	0.032
-346.435	501.734	0.070	0.159
-345.420	-200.000	0.032	0.148
-344.406	-33.041	0.163	-0.090
-343.391	-44.818	0.341	-0.169
-342.377	-200.000	0.074	0.353
-341.362	-200.000	0.003	0.056
-340.348	-35.557	0.257	0.138
-339.333	-86.331	-0.235	-0.072
-338.318	-37.890	-0.075	0.040
-337.304	-200.000	0.006	-0.193
-336.289	17.608	-0.279	-0.220
-335.275	-200.000	-0.004	-0.162
-334.260	-19.715	0.178	0.109
-333.245	-99.317	0.295	0.074
-332.231	-171.844	-0.299	0.010
-331.216	-46.977	0.125	0.060
-330.202	-200.000	0.032	-0.227
-329.187	-127.065	0.133	0.019
-328.172	-151.796	0.265	-0.019
-327.158	41.224	-0.125	-0.112
-326.143	540.491	0.065	-0.154
-325.129	51.884	-0.158	-0.150
-324.114	-0.489	0.225	0.159
-323.099	11.877	0.407	0.310
-322.085	-102.659	0.076	-0.018
-321.070	-137.569	0.151	0.017
-320.056	35.005	0.160	0.139
-319.041	-172.936	-0.118	0.004
-318.026	-200.000	-0.035	0.180
-317.012	800.000	-0.093	-0.393
-315.997	36.640	0.064	0.056
-314.983	777.067	-0.100	-0.271
-313.968	4.766	-0.318	-0.232
-312.953	-120.448	0.300	0.051
-311.939	355.585	-0.077	0.152
-310.924	33.730	0.164	-0.141
-309.910	285.608	0.008	0.015
-308.895	404.279	-0.132	-0.276
-307.880	-200.000	0.018	0.280
-306.866	-33.650	-0.451	0.246
-305.851	150.081	-0.127	-0.171
-304.837	-200.000	-0.035	-0.179
-303.822	800.000	0.065	0.264
-302.807	-200.000	0.005	0.120
-301.793	767.096	0.033	0.090
-300.778	-50.631	0.147	0.069
-299.764	48.370	0.325	0.301
-298.749	-107.383	-0.196	0.043
-297.735	-19.225	-0.294	-0.181
-296.720	-54.311	-0.307	0.138
-295.705	473.973	-0.047	-0.105
-294.691	-43.411	-0.114	-0.057
-293.676	135.654	0.080	0.103
-292.662	656.948	0.039	-0.098
-291.647	-200.000	0.032	0.181
-290.632	225.426	0.229	0.368
-289.618	64.257	0.222	-0.221
-288.603	50.165	0.147	0.137
-287.589	-200.000	-0.062	-0.412
-286.574	-200.000	0.011	0.308
-285.559	-80.777	0.051	-0.017
-284.545	800.000	0.056	0.179
-283.530	143.558	-0.076	-0.101
-282.516	27.206	0.232	0.193
-281.501	-189.990	-0.077	-0.001
-280.486	-57.187	-0.159	-0.069
-279.472	73.423	0.041	-0.042
-278.457	267.163	0.104	-0.180
-277.443	34.330	0.118	0.102
-276.428	-200.000	0.057	-0.254
-275.413	800.000	0.152	-0.453
-274.399	55.067	-0.119	0.114
-273.384	-70.594	0.207	0.078
-272.370	97.769	-0.225	-0.256
-271.355	-117.279	-0.319	-0.057
-270.340	-88.126	0.247	0.073
-269.326	229.074	0.069	0.111
-268.311	45.558	0.157	0.144
-267.297	549.504	0.046	-0.108
-266.282	500.752	-0.132	-0.300
-265.267	73.826	-0.080	-0.083
-264.253	800.000	0.071	0.238
-263.238	-189.505	0.184	0.002
-262.224	-200.000	-0.018	0.125
-261.209	800.000	0.037	-0.107
-260.195	240.742	0.153	0.253
-259.180	671.011	0.048	0.123
-258.165	-200.000	-0.014	-0.076
-257.151	6.313	-0.359	0.263
-256.136	800.000	0.049	0.156
-255.122	6.547	-0.085	0.062
-254.107	-200.000	0.087	0.421
-253.092	-200.000	-0.041	0.204
-252.078	156.941	-0.076	0.104
-251.063	-75.053	-0.295	-0.104
-250.049	140.998	-0.374	-0.488
-249.034	800.000	-0.022	0.081
-248.019	-108.682	0.088	-0.019
-247.005	-132.193	-0.365	-0.047
-245.990	800.000	-0.058	-0.194
-244.976	135.171	0.167	-0.215
-243.961	-194.258	0.050	-0.000
-242.946	81.970	-0.154	-0.164
-241.932	-105.669	0.279	0.062
-240.917	800.000	0.077	0.234
-239.903	572.364	0.076	0.182
-238.888	137.011	0.039	0.050
-237.873	486.249	0.105	-0.237
-236.859	339.207	0.084	0.162
-235.844	-107.528	0.085	0.018
-234.830	576.255	0.113	0.273
-233.815	-113.620	-0.073	0.014
-232.800	-54.264	0.421	-0.189
-231.786	-200.000	0.038	0.371
-230.771	800.000	-0.037	0.123
-229.757	-200.000	-0.041	0.235
-228.742	-165.688	0.143	0.006
-227.727	-99.638	-0.037	-0.009
-226.713	209.204	-0.062	-0.095
-225.698	-92.360	-0.298	-0.083
-224.684	56.469	-0.097	-0.094
-223.669	245.957	0.185	-0.308
-222.655	-1.263	-0.206	0.144
-221.640	-200.000	-0.052	0.577
-220.625	114.477	-0.072	-0.087
-219.611	287.737	-0.211	-0.377
-218.596	-200.000	0.035	-0.289
-217.582	52.406	0.200	-0.189
-216.567	-92.906	-0.478	-0.132
-215.552	-200.000	-0.067	0.357
-214.538	227.656	0.154	0.247
-213.523	143.024	-0.191	0.250
-212.509	-48.653	0.303	-0.144
-211.494	-10.761	-0.139	0.090
-210.479	20.902	0.147	-0.118
-209.465	-61.768	0.170	0.070
-208.450	106.513	0.427	0.500
-207.436	13.643	-0.084	0.064
-206.421	53.271	-0.279	0.264
-205.406	-200.000	0.012	-0.087
-204.392	25.305	-0.137	0.113
-203.377	104.119	0.164	-0.190
-202.363	-171.753	-0.088	0.003
-201.348	117.815	-0.254	-0.309
-200.333	57.582	-0.172	0.166
-199.319	-3.992	-0.334	0.228
-198.304	174.908	0.150	-0.214
-197.290	-118.427	-0.106	-0.019
-196.275	-38.649	-0.160	-0.083
-195.260	-97.767	0.098	-0.025
-194.246	800.000	-0.105	-0.438
-193.231	800.000	0.084	-0.313
-192.217	84.567	-0.200	-0.216
-191.202	-46.144	-0.085	-0.041
-190.187	-200.000	0.006	0.278
-189.173	64.831	0.414	0.412
-188.158	194.697	0.179	-0.267
-187.144	-200.000	-0.003	-0.299
-186.129	213.514	-0.091	0.142
-185.114	106.196	0.063	-0.074
-184.100	-18.180	-0.150	0.093
-183.085	-158.589	0.286	0.016
-182.071	800.000	0.020	-0.083
-181.056	-127.463	0.252	-0.036
-180.042	75.111	-0.114	-0.118
-179.027	426.697	0.025	0.053
-178.012	-35.593	0.198	-0.106
-176.998	139.199	0.042	0.054
-175.983	-200.000	0.040	0.379
-174.969	800.000	0.101	0.392
-173.954	104.416	-0.275	0.319
-172.939	61.107	-0.022	-0.022
-171.925	299.325	0.085	0.154
-170.910	57.709	0.076	0.073
-169.896	229.193	-0.119	-0.191
-168.881	-95.576	0.075	0.020
-167.866	128.489	0.141	0.176
-166.852	-200.000	0.015	0.081
-165.837	-143.331	-0.059	-0.006
-164.823	-200.000	-0.038	-0.349
-163.808	-14.664	0.068	-0.043
-162.793	308.027	-0.059	0.108
-161.779	-200.000	-0.013	0.129
-160.764	-99.112	0.097	0.024
-159.750	21.168	-0.201	-0.161
-158.735	-69.858	0.232	-0.087
-157.720	-22.466	-0.316	-0.188
-156.706	262.362	0.162	0.277
-155.691	800.000	0.027	0.113
-154.677	57.294	-0.280	0.269
-153.662	-18.964	0.143	-0.088
-152.647	800.000	0.102	-0.374
-151.633	-72.886	-0.180	-0.065
-150.618	-108.016	-0.344	-0.073
-149.604	73.784	0.357	-0.369
-148.589	800.000	-0.051	0.216
-147.574	800.000	-0.032	-0.098
-146.560	-164.767	0.088	0.004
-145.545	-120.202	-0.206	0.035
-144.531	125.931	0.128	-0.159
-143.516	93.982	-0.112	-0.125
-142.502	-180.401	-0.266	-0.005
-141.487	-42.709	0.059	0.029
-140.472	-200.000	-0.028	-0.344
-139.458	800.000	0.115	-0.382
-138.443	155.819	-0.181	-0.245
-137.429	33.427	0.165	0.141
-136.414	-80.802	0.248	-0.081
-135.399	548.161	0.123	-0.290
-134.385	-101.380	0.210	-0.050
-133.370	-200.000	0.016	0.144
-132.356	355.935	-0.137	-0.268
-131.341	-9.329	0.237	-0.155
-130.326	-86.329	-0.126	0.038
-129.312	-100.755	-0.203	-0.049
-128.297	39.554	-0.214	0.189
-127.283	-104.492	0.246	0.056
-126.268	-200.000	0.085	0.479
-125.253	399.190	0.082	0.169
-124.239	-101.255	-0.174	0.042
-123.224	10.627	-0.356	0.267
-122.210	67.908	-0.124	-0.125
-121.195	293.687	0.096	-0.172
-120.180	800.000	-0.079	0.306
