DTS Sentinel unit serial number:	SN413079Multiplexer serial number:	ORYXHardware model number:	OX4-SRSoftware version number:	ORYX F/W v4.00 Oryx Data Collector v3.7.2.0data status	okinstallation	princeton_trtdifferential loss correction	single-endedforward channel	channel 1reverse channel	N/Adate	2019/09/16time	21:42:35forward acquisition time	60.00reverse acquisition time	0.00gamma	496.2192k internal	0.2325k external	0.2325temperature offset calibration	0.9954default loss term (dB/km)	0.3790temperature slope calibration	1.0000multiplexer offset coefficient	1.0000multiplexer slope coefficient	1.0000fibre end	0.00T internal ref (°C)	31.31T ext. ref 1 (°C)	0.06T ext. ref 2 (°C)	25.61length (m)	temperature (°C)	Stokes	anti-Stokes-747.200	8.807	0.232	0.177
-746.185	75.652	-0.262	0.280
-745.171	266.573	0.047	-0.083
-744.156	2.107	-0.417	0.304
-743.142	2.446	-0.120	-0.088
-742.127	-142.471	-0.228	-0.023
-741.112	-28.442	-0.047	0.027
-740.098	-52.735	-0.094	0.044
-739.083	293.964	0.167	-0.307
-738.069	166.652	-0.249	0.356
-737.054	513.738	0.153	-0.360
-736.039	-54.119	-0.267	-0.122
-735.025	-22.123	0.186	-0.114
-734.010	800.000	-0.028	-0.079
-732.996	-93.031	-0.264	-0.074
-731.981	-200.000	0.015	0.150
-730.966	-64.036	0.345	-0.142
-729.952	30.805	-0.392	0.339
-728.937	-200.000	0.028	-0.152
-727.923	800.000	-0.021	-0.093
-726.908	-67.855	-0.214	-0.084
-725.894	276.637	-0.172	-0.308
-724.879	-200.000	0.030	-0.369
-723.864	-89.151	0.545	0.162
-722.850	-66.202	-0.290	-0.117
-721.835	750.805	0.082	0.223
-720.821	-103.654	0.152	-0.036
-719.806	-27.401	-0.228	-0.134
-718.791	-7.419	-0.072	-0.049
-717.777	-8.554	0.183	-0.124
-716.762	800.000	-0.010	0.036
-715.748	212.653	0.135	-0.214
-714.733	153.842	-0.069	0.096
-713.718	490.571	0.042	0.096
-712.704	800.000	-0.084	0.323
-711.689	-200.000	0.041	0.193
-710.675	-200.000	0.050	-0.393
-709.660	79.446	0.278	-0.301
-708.645	344.592	-0.043	-0.085
-707.631	118.200	-0.129	0.160
-706.616	-200.000	0.006	-0.076
-705.602	800.000	-0.066	-0.233
-704.587	-158.503	0.137	-0.008
-703.572	3.397	-0.417	0.306
-702.558	-58.371	-0.079	-0.035
-701.543	-80.739	-0.348	0.117
-700.529	14.486	-0.161	-0.127
-699.514	-91.790	-0.172	0.049
-698.499	-37.884	-0.249	-0.133
-697.485	800.000	0.056	-0.236
-696.470	83.877	-0.066	-0.073
-695.456	18.779	0.119	0.096
-694.441	-43.914	-0.149	-0.075
-693.426	-200.000	0.006	-0.143
-692.412	800.000	-0.092	-0.364
-691.397	154.267	0.224	-0.309
-690.383	-56.400	0.225	-0.101
-689.368	-54.040	0.069	-0.032
-688.354	-68.716	0.476	-0.185
-687.339	-161.198	-0.126	-0.007
-686.324	95.043	-0.220	-0.252
-685.310	2.929	-0.153	0.112
-684.295	-30.778	0.105	0.060
-683.281	-200.000	-0.010	-0.068
-682.266	-200.000	0.003	0.333
-681.251	-200.000	-0.021	-0.166
-680.237	-200.000	-0.025	-0.189
-679.222	488.130	0.070	0.161
-678.208	-197.790	0.368	0.002
-677.193	11.981	-0.278	0.215
-676.178	-108.356	0.323	0.070
-675.164	208.194	-0.175	0.275
-674.149	201.040	-0.035	-0.054
-673.135	4.096	-0.051	-0.038
-672.120	-129.827	-0.215	-0.030
-671.105	16.856	0.100	-0.079
-670.091	66.651	0.263	-0.269
-669.076	21.017	-0.146	0.119
-668.062	-200.000	0.067	-0.454
-667.047	635.721	-0.201	0.514
-666.032	-200.000	-0.043	0.209
-665.018	309.780	0.046	-0.087
-664.003	186.732	-0.263	-0.395
-662.989	-141.711	-0.253	0.026
-661.974	-40.769	0.293	-0.152
-660.959	466.243	0.014	0.030
-659.945	-103.216	-0.034	-0.008
-658.930	800.000	0.074	0.276
-657.916	71.297	0.118	-0.124
-656.901	-23.521	-0.136	-0.082
-655.886	142.343	-0.067	-0.089
-654.872	237.282	0.043	-0.072
-653.857	-107.486	-0.129	-0.028
-652.843	-200.000	0.006	0.039
-651.828	-57.708	0.176	0.078
-650.814	-200.000	-0.072	-0.352
-649.799	-135.416	-0.369	0.044
-648.784	800.000	-0.139	-0.402
-647.770	800.000	-0.080	-0.270
-646.755	19.059	0.206	-0.166
-645.741	-200.000	-0.003	0.059
-644.726	-200.000	0.002	0.065
-643.711	-53.153	-0.310	0.143
-642.697	78.713	-0.112	0.121
-641.682	-83.333	-0.373	-0.120
-640.668	449.316	0.135	0.299
-639.653	-82.100	-0.229	-0.075
-638.638	237.706	0.067	0.111
-637.624	-137.289	0.232	0.026
-636.609	-200.000	-0.021	0.138
-635.595	-154.929	-0.323	-0.021
-634.580	800.000	0.096	-0.361
-633.565	800.000	0.056	0.175
-632.551	-200.000	-0.069	-0.390
-631.536	197.320	-0.125	-0.191
-630.522	-34.258	0.154	-0.085
-629.507	-115.669	-0.260	-0.049
-628.492	-76.092	-0.182	-0.065
-627.478	-148.198	0.288	-0.024
-626.463	14.102	0.143	0.112
-625.449	790.536	0.078	0.216
-624.434	-130.859	-0.291	-0.039
-623.419	-82.582	-0.230	-0.075
-622.405	-169.643	-0.283	0.010
-621.390	800.000	0.050	0.217
-620.376	-74.908	-0.115	-0.041
-619.361	800.000	-0.021	-0.065
-618.346	800.000	-0.072	0.264
-617.332	-97.942	-0.257	0.067
-616.317	-136.639	-0.388	-0.045
-615.303	34.639	0.204	0.179
-614.288	-105.185	0.132	-0.030
-613.273	217.173	0.099	-0.158
-612.259	-156.209	-0.090	0.006
-611.244	-142.653	0.241	0.024
-610.230	79.226	0.153	0.165
-609.215	-126.642	-0.215	0.032
-608.201	800.000	-0.079	0.268
-607.186	36.343	-0.483	-0.428
-606.171	2.365	0.131	0.095
-605.157	800.000	0.038	0.154
-604.142	-103.323	0.267	0.063
-603.128	80.663	-0.117	0.127
-602.113	-200.000	-0.082	-0.437
-601.098	187.355	-0.076	-0.114
-600.084	800.000	-0.133	0.412
-599.069	233.390	-0.053	0.087
-598.055	-78.276	0.238	-0.082
-597.040	461.379	0.114	0.254
-596.025	-139.960	-0.459	0.049
-595.011	0.830	0.420	-0.302
-593.996	-117.888	-0.166	-0.030
-592.982	-168.764	-0.058	-0.002
-591.967	454.741	0.059	-0.131
-590.952	76.829	-0.076	-0.081
-589.938	566.374	-0.158	-0.385
-588.923	-200.000	-0.044	0.221
-587.909	-200.000	0.033	0.274
-586.894	169.819	-0.132	-0.189
-585.879	7.176	-0.110	-0.083
-584.865	109.305	-0.267	0.320
-583.850	64.958	0.194	-0.196
-582.836	73.686	-0.077	-0.081
-581.821	87.829	0.186	0.207
-580.806	-108.077	0.378	0.082
-579.792	-200.000	0.010	-0.053
-578.777	-76.441	0.058	-0.020
-577.763	-29.387	-0.115	-0.066
-576.748	126.943	0.202	0.257
-575.733	-48.322	-0.392	-0.189
-574.719	-180.027	-0.119	0.003
-573.704	-200.000	0.018	0.167
-572.690	-29.695	0.170	-0.098
-571.675	-200.000	0.070	0.652
-570.661	800.000	-0.061	0.208
-569.646	-26.338	0.208	0.122
-568.631	186.531	0.070	0.104
-567.617	-5.142	0.409	-0.282
-566.602	-127.908	0.393	0.057
-565.588	-63.493	-0.328	-0.135
-564.573	-35.791	-0.214	-0.116
-563.558	297.935	-0.020	0.037
-562.544	-27.600	-0.146	0.085
-561.529	6.023	-0.028	0.021
-560.515	-152.486	0.263	0.019
-559.500	-64.878	-0.036	0.015
-558.485	-41.580	-0.154	-0.079
-557.471	800.000	-0.042	0.117
-556.456	-5.110	-0.110	0.076
-555.442	642.843	0.038	-0.097
-554.427	108.948	0.215	-0.257
-553.412	-200.000	0.035	-0.158
-552.398	-200.000	-0.046	0.286
-551.383	219.161	0.149	0.239
-550.369	-200.000	0.017	-0.222
-549.354	-100.898	-0.289	0.071
-548.339	800.000	0.023	0.091
-547.325	-132.395	0.266	-0.034
-546.310	1.695	-0.096	-0.069
-545.296	-200.000	-0.012	-0.107
-544.281	392.017	-0.156	-0.324
-543.266	-41.085	0.022	-0.011
-542.252	-200.000	-0.031	0.151
-541.237	-165.122	0.041	0.002
-540.223	69.662	-0.072	-0.074
-539.208	177.207	-0.105	0.154
-538.193	-144.475	0.254	-0.024
-537.179	141.440	-0.078	0.103
-536.164	778.910	0.034	-0.094
-535.150	782.618	0.026	0.071
-534.135	-200.000	-0.039	0.217
-533.121	70.506	0.346	0.358
-532.106	117.377	0.126	-0.155
-531.091	154.776	-0.058	0.080
-530.077	-2.046	-0.325	-0.229
-529.062	-200.000	-0.045	-0.331
-528.048	-59.167	-0.235	-0.102
-527.033	156.241	0.106	0.146
-526.018	75.038	0.180	-0.190
-525.004	-110.010	-0.175	0.037
-523.989	-132.784	-0.049	-0.006
-522.975	1.814	0.057	-0.041
-521.960	800.000	0.065	-0.181
-520.945	-43.355	-0.064	0.032
-519.931	-200.000	-0.002	0.334
-518.916	-200.000	0.004	-0.431
-517.902	104.820	-0.280	-0.331
-516.887	-171.211	0.143	0.005
-515.872	-20.940	-0.220	0.135
-514.858	-116.888	0.383	-0.070
-513.843	213.412	-0.039	-0.062
-512.829	400.290	-0.171	0.359
-511.814	-200.000	-0.001	-0.031
-510.799	800.000	-0.066	0.235
-509.785	800.000	0.010	-0.042
-508.770	-84.274	0.134	-0.043
-507.756	-129.170	-0.081	-0.011
-506.741	-27.600	0.093	0.054
-505.726	97.464	0.151	-0.173
-504.712	24.954	-0.090	0.074
-503.697	-34.725	0.259	-0.142
-502.683	-3.047	-0.173	-0.121
-501.668	-35.094	0.336	-0.183
-500.653	-33.412	-0.107	0.059
-499.639	-88.335	0.061	-0.018
-498.624	-116.689	-0.160	0.029
-497.610	-200.000	-0.009	0.185
-496.595	133.854	-0.030	0.039
-495.581	-200.000	-0.045	0.255
-494.566	17.813	0.150	0.119
-493.551	800.000	-0.041	0.124
-492.537	-54.392	0.301	0.136
-491.522	-42.684	-0.289	0.147
-490.508	-144.714	-0.230	-0.021
-489.493	407.017	-0.064	-0.135
-488.478	800.000	-0.128	-0.392
-487.464	118.694	-0.243	-0.300
-486.449	800.000	0.036	0.112
-485.435	-26.209	-0.042	-0.025
-484.420	-7.123	-0.265	-0.180
-483.405	-2.895	0.107	-0.074
-482.391	-200.000	-0.015	-0.082
-481.376	-5.126	0.263	0.181
-480.362	-200.000	-0.023	0.228
-479.347	94.975	-0.152	-0.173
-478.332	125.932	0.270	-0.341
-477.318	70.760	-0.067	-0.069
-476.303	-99.048	-0.118	-0.030
-475.289	657.453	-0.049	-0.126
-474.274	-157.944	0.200	0.012
-473.259	-200.000	0.000	0.238
-472.245	-164.300	0.151	-0.007
-471.230	-200.000	0.253	-0.000
-470.216	64.448	-0.121	-0.122
-469.201	660.389	-0.085	-0.220
-468.186	-61.366	-0.405	-0.170
-467.172	-18.295	0.088	-0.055
-466.157	204.765	-0.120	0.186
-465.143	139.735	-0.119	0.156
-464.128	164.209	0.306	0.430
-463.113	-200.000	0.007	0.284
-462.099	7.751	0.230	-0.172
-461.084	-25.062	0.151	-0.089
-460.070	578.910	0.154	0.377
-459.055	154.170	0.138	0.189
-458.040	15.338	0.145	-0.113
-457.026	-41.217	0.213	0.110
-456.011	-21.456	-0.097	0.059
-454.997	13.646	-0.391	0.303
-453.982	167.413	-0.112	-0.159
-452.968	-44.687	0.176	-0.088
-451.953	800.000	0.038	-0.135
-450.938	-82.744	0.190	0.061
-449.924	-200.000	0.029	-0.418
-448.909	-200.000	-0.003	0.084
-447.895	-149.757	-0.147	0.011
-446.880	-101.443	0.208	-0.050
-445.865	-113.338	0.181	-0.035
-444.851	131.953	0.069	-0.089
-443.836	-64.604	0.049	0.020
-442.822	-71.383	0.087	-0.032
-441.807	159.913	-0.112	0.156
-440.792	-200.000	0.000	-0.001
-439.778	-69.638	0.209	0.080
-438.763	359.698	0.039	0.077
-437.749	-200.000	-0.072	0.480
-436.734	153.282	0.190	0.259
-435.719	-147.327	0.309	0.026
-434.705	800.000	-0.063	-0.263
-433.690	-31.704	0.223	-0.124
-432.676	347.092	-0.159	0.312
-431.661	800.000	-0.113	0.392
-430.646	114.347	-0.116	-0.141
-429.632	587.799	0.172	-0.423
-428.617	201.027	0.168	-0.258
-427.603	137.489	0.087	-0.113
-426.588	-200.000	0.025	0.272
-425.573	-200.000	0.014	-0.182
-424.559	-122.304	0.465	-0.076
-423.544	-109.383	-0.228	0.048
-422.530	173.371	-0.194	0.279
-421.515	-92.363	-0.199	-0.056
-420.500	-200.000	-0.053	0.296
-419.486	-200.000	-0.001	0.053
-418.471	-105.388	0.264	-0.060
-417.457	-21.183	0.285	0.173
-416.442	-24.982	0.219	0.129
-415.428	-41.231	-0.311	-0.160
-414.413	-105.158	-0.187	0.043
-413.398	-53.445	0.215	0.098
-412.384	-69.412	-0.225	-0.086
-411.369	-55.106	-0.092	0.041
-410.355	-200.000	-0.090	-0.466
-409.340	350.319	-0.195	-0.384
-408.325	503.591	-0.029	0.067
-407.311	48.751	-0.143	0.133
-406.296	302.781	-0.073	-0.134
-405.282	764.856	0.047	0.128
-404.267	26.853	-0.229	-0.191
-403.252	-98.319	-0.193	0.049
-402.238	-28.458	0.374	0.215
-401.223	41.656	0.089	0.080
-400.209	-100.284	0.328	0.081
-399.194	-100.109	0.172	-0.043
-398.179	-200.000	-0.019	-0.291
-397.165	-200.000	-0.043	-0.415
-396.150	56.075	-0.175	-0.169
-395.136	-12.741	0.012	-0.008
-394.121	356.261	-0.079	0.156
-393.106	-5.092	-0.136	-0.093
-392.092	544.713	-0.047	0.111
-391.077	359.276	-0.061	0.121
-390.063	246.845	-0.123	-0.207
-389.048	-109.194	-0.326	-0.069
-388.033	-200.000	-0.043	0.283
-387.019	-108.353	0.080	0.017
-386.004	273.686	-0.069	0.122
-384.990	-200.000	0.064	0.739
-383.975	-200.000	0.000	0.046
-382.960	-97.853	-0.098	-0.025
-381.946	97.438	0.260	-0.297
-380.931	-106.153	-0.074	-0.017
-379.917	-157.738	-0.314	0.019
-378.902	34.679	0.108	0.094
-377.888	24.569	-0.082	0.067
-376.873	-200.000	-0.003	-0.097
-375.858	-6.884	0.313	0.212
-374.844	-195.868	0.176	0.001
-373.829	178.234	-0.049	0.071
-372.815	491.523	-0.138	0.314
-371.800	348.813	0.093	-0.182
-370.785	-3.717	0.201	0.139
-369.771	566.962	0.059	0.143
-368.756	-72.733	0.100	-0.037
-367.742	-200.000	-0.073	0.368
-366.727	-118.162	0.299	-0.053
-365.712	-200.000	-0.020	-0.237
-364.698	-200.000	-0.029	0.184
-363.683	-145.657	-0.205	-0.018
-362.669	-121.112	0.144	-0.024
-361.654	-200.000	0.033	0.248
-360.639	800.000	0.075	-0.312
-359.625	-170.807	0.147	-0.005
-358.610	24.769	0.308	0.254
-357.596	800.000	0.122	-0.486
-356.581	82.913	-0.185	-0.200
-355.566	-200.000	0.006	-0.252
-354.552	-24.368	-0.180	0.106
-353.537	-53.479	0.399	0.182
-352.523	-42.005	-0.050	0.026
-351.508	-27.505	-0.341	0.197
-350.493	-74.808	0.107	-0.038
-349.479	83.523	-0.242	0.262
-348.464	-16.671	-0.239	0.150
-347.450	-132.646	-0.168	0.021
-346.435	-144.572	0.033	0.003
-345.420	-200.000	0.005	0.141
-344.406	-200.000	0.017	-0.263
-343.391	-74.826	-0.240	0.086
-342.377	259.653	-0.102	0.174
-341.362	-200.000	0.001	-0.218
-340.348	64.138	0.144	-0.144
-339.333	16.397	-0.208	-0.163
-338.318	-148.404	0.207	-0.017
-337.304	765.130	0.085	0.229
-336.289	-163.362	0.092	0.004
-335.275	800.000	0.104	-0.326
-334.260	-119.121	0.198	0.034
-333.245	56.541	-0.276	0.267
-332.231	0.923	0.281	-0.200
-331.216	545.641	0.095	0.225
-330.202	-78.492	-0.023	-0.008
-329.187	800.000	0.045	0.149
-328.172	-85.883	-0.198	-0.061
-327.158	-54.697	-0.101	-0.045
-326.143	-66.295	-0.564	0.223
-325.129	45.297	0.250	-0.229
-324.114	-5.912	0.248	0.169
-323.099	81.572	0.147	0.158
-322.085	201.637	-0.129	-0.197
-321.070	-122.546	0.413	-0.067
-320.056	-53.859	0.230	-0.104
-319.041	159.121	-0.144	-0.199
-318.026	-114.555	0.191	0.036
-317.012	800.000	-0.099	-0.398
-315.997	155.672	0.070	0.096
-314.983	-200.000	-0.012	-0.182
-313.968	144.736	0.140	-0.186
-312.953	81.523	0.095	-0.102
-311.939	511.163	0.126	0.292
-310.924	-69.436	0.137	0.052
-309.910	-38.071	0.171	-0.090
-308.895	225.763	0.117	0.189
-307.880	800.000	0.076	0.212
-306.866	402.903	-0.118	0.247
-305.851	-200.000	0.023	-0.113
-304.837	800.000	-0.007	0.026
-303.822	38.382	-0.178	-0.157
-302.807	-27.585	0.216	-0.125
-301.793	800.000	0.023	-0.097
-300.778	-144.657	0.213	-0.019
-299.764	280.484	-0.104	0.185
-298.749	-56.269	-0.069	-0.030
-297.735	212.319	0.106	-0.166
-296.720	71.857	0.247	0.255
-295.705	-80.595	0.063	0.021
-294.691	800.000	0.051	0.173
-293.676	0.980	0.107	-0.076
-292.662	-200.000	-0.002	0.178
-291.647	49.520	-0.223	-0.208
-290.632	-32.868	0.313	0.172
-289.618	-13.643	0.205	0.132
-288.603	-6.428	-0.180	-0.122
-287.589	-200.000	0.041	-0.514
-286.574	473.638	0.022	0.049
-285.559	41.610	-0.242	-0.218
-284.545	800.000	0.093	-0.263
-283.530	-23.108	-0.265	0.158
-282.516	-47.166	0.130	-0.063
-281.501	347.276	-0.137	-0.268
-280.486	329.598	-0.195	0.371
-279.472	-68.806	-0.143	-0.055
-278.457	445.194	0.118	-0.256
-277.443	-93.658	-0.056	-0.015
-276.428	10.329	-0.114	0.086
-275.413	430.192	-0.072	-0.155
-274.399	196.113	0.221	-0.333
-273.384	120.332	-0.213	-0.262
-272.370	-23.486	-0.264	0.157
-271.355	79.829	0.110	-0.117
-270.340	163.584	0.064	0.089
-269.326	26.220	-0.131	-0.108
-268.311	800.000	-0.099	-0.427
-267.297	99.405	0.148	0.170
-266.282	79.001	-0.264	0.280
-265.267	-99.185	-0.358	0.090
-264.253	800.000	-0.044	-0.133
-263.238	800.000	-0.032	-0.114
-262.224	149.053	0.028	-0.038
-261.209	-145.377	-0.037	0.003
-260.195	-111.145	0.173	0.035
-259.180	-200.000	0.020	0.155
-258.165	-185.911	0.133	0.002
-257.151	-200.000	-0.024	0.176
-256.136	88.869	-0.092	-0.102
-255.122	-109.445	0.248	0.052
-254.107	64.788	-0.239	-0.239
-253.092	-200.000	0.017	-0.143
-252.078	-200.000	-0.040	-0.248
-251.063	-168.191	0.179	0.007
-250.049	-132.559	0.214	0.027
-249.034	-111.839	0.359	0.072
-248.019	-7.714	0.149	-0.100
-247.005	148.944	-0.171	0.229
-245.990	98.847	0.151	0.173
-244.976	4.497	0.226	0.164
-243.961	219.151	0.048	0.076
-242.946	-115.244	-0.192	-0.036
-241.932	-21.078	-0.319	0.193
-240.917	386.314	0.150	0.306
-239.903	260.123	-0.038	0.065
-238.888	-200.000	0.036	-0.166
-237.873	336.093	0.131	-0.251
-236.859	-21.683	0.186	0.112
-235.844	139.478	-0.026	-0.033
-234.830	-160.174	-0.123	0.007
-233.815	-108.284	0.094	-0.020
-232.800	-2.361	-0.178	-0.123
-231.786	-200.000	0.112	-0.583
-230.771	722.801	-0.105	-0.277
-229.757	560.319	-0.088	-0.209
-228.742	111.163	0.154	-0.183
-227.727	-34.561	-0.166	0.090
-226.713	196.442	-0.152	0.230
-225.698	-86.428	0.219	-0.066
-224.684	472.118	0.224	-0.499
-223.669	-200.000	-0.001	-0.013
-222.655	-74.157	0.266	-0.095
-221.640	800.000	0.040	0.134
-220.625	-142.836	0.124	0.012
-219.611	220.335	0.125	0.198
-218.596	-15.893	-0.093	-0.058
-217.582	-200.000	-0.052	0.448
-216.567	-117.988	-0.278	-0.049
-215.552	-200.000	-0.010	-0.102
-214.538	12.992	-0.166	-0.127
-213.523	156.912	-0.161	-0.220
-212.509	-128.093	-0.104	-0.015
-211.494	27.908	-0.106	-0.088
-210.479	800.000	0.097	0.311
-209.465	41.305	-0.195	-0.174
-208.450	-200.000	-0.020	0.199
-207.436	-110.840	0.160	-0.032
-206.421	-200.000	-0.006	-0.203
-205.406	-132.565	-0.267	-0.034
-204.392	-132.466	0.125	0.016
-203.377	-122.213	-0.184	-0.030
-202.363	-17.553	-0.110	0.068
-201.348	-76.930	0.310	0.107
-200.333	-81.124	0.157	-0.051
-199.319	213.374	0.197	-0.307
-198.304	-115.028	-0.079	-0.015
-197.290	98.476	-0.220	0.251
-196.275	-200.000	-0.006	-0.280
-195.260	137.377	-0.180	0.233
-194.246	800.000	0.036	0.129
-193.231	34.036	0.327	0.282
-192.217	-36.743	-0.159	0.084
-191.202	31.842	-0.188	-0.160
-190.187	98.713	0.172	0.196
-189.173	-109.261	0.217	0.045
-188.158	800.000	-0.026	-0.102
-187.144	-58.640	-0.036	-0.015
-186.129	273.820	-0.067	0.118
-185.114	240.527	0.216	-0.355
-184.100	-12.221	-0.417	-0.269
-183.085	58.835	0.095	0.093
-182.071	534.044	0.097	0.227
-181.056	-14.885	-0.218	-0.138
-180.042	-26.118	-0.103	0.060
-179.027	-200.000	0.005	0.070
-178.012	405.490	-0.051	0.105
-176.998	377.267	0.132	0.266
-175.983	106.521	0.086	-0.100
-174.969	-45.097	0.065	0.032
-173.954	-64.084	-0.123	-0.049
-172.939	47.432	-0.184	0.169
-171.925	800.000	0.046	-0.178
-170.910	-48.502	-0.109	-0.052
-169.896	-129.535	-0.169	-0.023
-168.881	45.125	0.182	0.165
-167.866	-200.000	0.013	-0.252
-166.852	146.390	0.194	-0.257
-165.837	662.547	0.043	0.108
-164.823	-43.460	-0.232	0.116
-163.808	-35.360	0.273	0.147
-162.793	-102.156	0.073	0.017
-161.779	800.000	0.076	0.246
-160.764	-176.936	-0.084	0.002
-159.750	-68.347	0.108	-0.041
-158.735	-113.806	-0.081	0.016
-157.720	800.000	-0.119	0.337
-156.706	-26.292	-0.040	0.023
-155.691	-200.000	0.012	0.233
-154.677	-114.641	0.256	0.048
-153.662	-87.719	-0.297	-0.088
-152.647	800.000	-0.048	0.131
-151.633	-200.000	0.012	-0.093
-150.618	-200.000	0.064	0.425
-149.604	303.809	0.211	0.386
-148.589	800.000	0.060	0.232
-147.574	800.000	0.195	-0.577
-146.560	-164.416	-0.063	0.003
-145.545	-200.000	0.016	0.223
-144.531	-4.899	0.321	-0.218
-143.516	87.942	0.225	-0.246
-142.502	-200.000	0.066	0.354
-141.487	-101.413	-0.181	0.044
-140.472	381.644	-0.228	-0.461
-139.458	-60.175	0.151	-0.064
-138.443	74.773	0.307	0.318
-137.429	559.781	-0.059	0.141
-136.414	498.850	-0.096	-0.218
-135.399	237.632	0.027	-0.045
-134.385	2.117	-0.198	-0.141
-133.370	213.242	0.066	0.103
-132.356	-28.851	-0.220	-0.124
-131.341	36.076	0.090	0.078
-130.326	196.301	-0.195	-0.293
-129.312	-7.682	-0.130	0.086
-128.297	-49.975	0.322	-0.150
-127.283	428.413	-0.131	-0.280
-126.268	114.511	-0.175	-0.210
-125.253	800.000	0.093	-0.288
-124.239	-200.000	-0.005	-0.102
-123.224	-29.524	0.139	0.078
-122.210	32.980	-0.085	-0.072
-121.195	410.028	-0.056	0.117
