DTS Sentinel unit serial number:	SN413079Multiplexer serial number:	ORYXHardware model number:	OX4-SRSoftware version number:	ORYX F/W v4.00 Oryx Data Collector v3.7.2.0data status	okinstallation	princeton_trtdifferential loss correction	single-endedforward channel	channel 1reverse channel	N/Adate	2019/09/17time	13:30:35forward acquisition time	60.00reverse acquisition time	0.00gamma	496.2192k internal	0.2307k external	0.2307temperature offset calibration	0.9968default loss term (dB/km)	0.3790temperature slope calibration	1.0000multiplexer offset coefficient	1.0000multiplexer slope coefficient	1.0000fibre end	0.00T internal ref (°C)	34.55T ext. ref 1 (°C)	0.41T ext. ref 2 (°C)	31.56length (m)	temperature (°C)	Stokes	anti-Stokes-747.200	-107.206	0.260	0.058
-746.185	-39.597	-0.106	0.057
-745.171	-143.406	-0.204	0.020
-744.156	13.115	0.345	0.271
-743.142	-11.246	0.426	0.285
-742.127	-200.000	-0.046	0.256
-741.112	371.219	-0.056	-0.116
-740.098	-200.000	-0.033	0.371
-739.083	202.355	-0.068	0.107
-738.069	301.238	0.041	0.077
-737.054	-200.000	0.033	-0.327
-736.039	-0.579	-0.176	-0.127
-735.025	477.963	0.016	0.038
-734.010	-200.000	0.033	0.322
-732.996	78.215	0.209	-0.227
-731.981	-46.321	-0.312	0.156
-730.966	373.077	-0.157	0.323
-729.952	-51.032	-0.282	0.134
-728.937	207.267	0.084	-0.133
-727.923	-149.134	-0.391	0.032
-726.908	800.000	-0.011	-0.034
-725.894	301.435	-0.170	-0.319
-724.879	181.872	-0.128	0.192
-723.864	1.845	-0.202	-0.148
-722.850	-67.236	-0.128	0.051
-721.835	800.000	0.104	0.397
-720.821	26.401	-0.217	0.184
-719.806	-49.738	-0.168	0.081
-718.791	-104.133	0.233	0.055
-717.777	-2.715	0.221	-0.157
-716.762	-200.000	0.020	0.187
-715.748	130.070	0.047	-0.061
-714.733	-79.792	0.042	-0.014
-713.718	-127.328	-0.253	-0.038
-712.704	-93.856	-0.251	-0.070
-711.689	-127.493	-0.203	-0.030
-710.675	-9.612	-0.092	-0.063
-709.660	-29.916	0.258	0.149
-708.645	-23.560	-0.202	-0.123
-707.631	38.945	0.047	0.042
-706.616	-200.000	-0.000	0.058
-705.602	13.724	-0.239	-0.189
-704.587	-146.490	0.133	-0.012
-703.572	116.557	0.128	-0.160
-702.558	-200.000	0.054	0.407
-701.543	-33.233	-0.037	-0.021
-700.529	-63.350	-0.154	0.065
-699.514	64.304	-0.121	-0.124
-698.499	139.315	-0.192	-0.257
-697.485	800.000	0.122	-0.380
-696.470	-103.137	0.148	0.035
-695.456	-2.445	0.124	-0.088
-694.441	-126.695	-0.073	-0.011
-693.426	-83.472	0.210	0.068
-692.412	113.780	-0.130	-0.160
-691.397	-66.097	0.181	0.073
-690.383	130.046	0.063	0.081
-689.368	68.232	-0.110	0.114
-688.354	61.803	0.177	-0.179
-687.339	-147.914	0.127	0.011
-686.324	-108.766	-0.450	-0.098
-685.310	-78.527	-0.193	-0.067
-684.295	800.000	-0.091	-0.384
-683.281	-200.000	0.004	-0.185
-682.266	-14.471	-0.291	-0.190
-681.251	-200.000	0.008	-0.154
-680.237	-135.441	-0.108	0.013
-679.222	-8.305	0.086	-0.059
-678.208	428.379	0.133	-0.291
-677.193	-49.832	-0.119	-0.057
-676.178	-35.355	-0.143	0.079
-675.164	-79.404	-0.249	-0.085
-674.149	519.385	0.091	0.216
-673.135	82.450	-0.227	0.250
-672.120	800.000	-0.070	0.218
-671.105	-2.731	0.261	0.185
-670.091	-80.268	-0.202	-0.069
-669.076	488.772	0.060	0.139
-668.062	217.747	0.104	0.169
-667.047	-39.436	-0.105	0.056
-666.032	-15.749	-0.231	-0.149
-665.018	800.000	-0.035	-0.121
-664.003	-111.953	0.104	0.021
-662.989	800.000	0.046	-0.176
-661.974	84.476	-0.165	-0.183
-660.959	253.333	-0.174	0.302
-659.945	-200.000	0.005	0.068
-658.930	151.030	0.214	0.296
-657.916	-150.640	-0.341	0.026
-656.901	-48.572	-0.495	-0.241
-655.886	800.000	0.093	0.276
-654.872	559.065	-0.121	-0.296
-653.857	9.834	-0.178	-0.137
-652.843	-4.839	0.083	-0.058
-651.828	262.610	-0.071	-0.126
-650.814	40.298	-0.286	0.260
-649.799	-200.000	0.010	0.123
-648.784	-200.000	-0.010	-0.106
-647.770	-58.714	0.149	-0.066
-646.755	-200.000	0.009	-0.385
-645.741	534.488	-0.228	-0.548
-644.726	800.000	-0.063	-0.254
-643.711	-65.811	-0.159	0.065
-642.697	-63.668	-0.367	0.153
-641.682	800.000	0.031	0.136
-640.668	-92.183	-0.260	-0.074
-639.653	200.608	0.124	0.193
-638.638	-151.976	0.208	0.015
-637.624	800.000	0.034	-0.124
-636.609	158.001	-0.355	-0.498
-635.595	-200.000	0.044	-0.232
-634.580	-152.566	0.112	0.008
-633.565	-8.504	-0.193	0.131
-632.551	800.000	0.097	-0.280
-631.536	800.000	-0.089	0.277
-630.522	-150.613	0.316	0.024
-629.507	25.789	0.250	-0.211
-628.492	-31.043	0.029	0.017
-627.478	-15.834	0.456	0.294
-626.463	800.000	0.032	-0.126
-625.449	-200.000	-0.083	-0.472
-624.434	-131.594	0.335	0.045
-623.419	55.234	-0.083	-0.081
-622.405	-7.926	0.206	0.140
-621.390	269.185	-0.070	-0.124
-620.376	-3.815	-0.129	0.090
-619.361	39.647	-0.388	0.352
-618.346	373.025	-0.124	-0.255
-617.332	184.300	-0.065	-0.097
-616.317	10.241	0.104	0.080
-615.303	800.000	0.185	-0.571
-614.288	-200.000	0.013	-0.128
-613.273	-43.728	-0.312	0.159
-612.259	-136.419	-0.262	-0.031
-611.244	-200.000	-0.007	0.168
-610.230	-200.000	0.028	0.339
-609.215	-150.291	-0.152	0.012
-608.201	-83.309	-0.250	-0.081
-607.186	50.895	0.158	-0.152
-606.171	-102.883	-0.197	-0.047
-605.157	113.435	-0.259	-0.318
-604.142	800.000	0.034	-0.121
-603.128	-125.814	0.161	-0.025
-602.113	246.193	0.102	0.173
-601.098	-200.000	0.045	-0.211
-600.084	800.000	0.049	-0.186
-599.069	362.799	-0.073	0.149
-598.055	-99.179	-0.247	-0.063
-597.040	582.800	0.074	-0.184
-596.025	-200.000	-0.041	-0.199
-595.011	-22.018	-0.144	0.088
-593.996	-6.782	0.081	0.056
-592.982	-83.488	-0.468	-0.151
-591.967	-200.000	0.036	-0.242
-590.952	304.095	-0.122	0.229
-589.938	-200.000	0.008	0.060
-588.923	800.000	0.055	0.168
-587.909	45.715	-0.112	-0.105
-586.894	72.999	-0.107	0.113
-585.879	-200.000	-0.074	-0.330
-584.865	359.921	0.067	-0.135
-583.850	-200.000	0.026	-0.197
-582.836	-55.914	-0.083	-0.037
-581.821	-82.425	0.204	-0.067
-580.806	598.208	0.046	-0.116
-579.792	-45.008	-0.143	-0.072
-578.777	-71.469	0.173	-0.065
-577.763	21.371	0.425	-0.349
-576.748	-200.000	0.035	-0.223
-575.733	127.508	-0.104	0.134
-574.719	67.573	-0.278	0.287
-573.704	-68.158	-0.378	-0.149
-572.690	-53.792	-0.231	-0.106
-571.675	-60.166	0.255	0.110
-570.661	-200.000	-0.022	-0.124
-569.646	-182.829	-0.372	-0.007
-568.631	-200.000	0.034	-0.249
-567.617	-109.916	0.232	-0.049
-566.602	800.000	0.121	-0.351
-565.588	800.000	-0.072	-0.269
-564.573	165.202	0.075	-0.107
-563.558	44.055	-0.206	0.191
-562.544	5.340	0.217	-0.162
-561.529	800.000	-0.070	0.208
-560.515	-163.269	0.296	-0.014
-559.500	-42.340	-0.168	-0.087
-558.485	-74.564	-0.324	0.118
-557.471	-129.211	0.149	-0.021
-556.456	-83.959	-0.107	-0.034
-555.442	-200.000	-0.004	0.063
-554.427	7.160	0.190	-0.143
-553.412	271.816	0.046	-0.082
-552.398	259.627	0.120	0.209
-551.383	188.999	-0.096	0.145
-550.369	83.201	-0.069	-0.076
-549.354	605.047	0.203	0.511
-548.339	200.313	0.129	-0.200
-547.325	800.000	-0.088	-0.294
-546.310	-50.093	-0.121	0.058
-545.296	-200.000	0.096	-0.000
-544.281	-114.346	-0.092	-0.018
-543.266	268.838	0.089	-0.158
-542.252	12.162	-0.149	-0.116
-541.237	-120.099	0.208	0.036
-540.223	389.778	0.107	-0.225
-539.208	-141.073	-0.110	0.011
-538.193	-200.000	-0.056	0.307
-537.179	-116.870	-0.117	0.022
-536.164	173.623	-0.154	-0.224
-535.150	-38.020	-0.214	-0.115
-534.135	-200.000	-0.035	0.458
-533.121	16.003	0.277	0.220
-532.106	-200.000	0.012	0.109
-531.091	-200.000	0.028	-0.139
-530.077	13.958	0.020	-0.015
-529.062	-175.217	0.371	-0.010
-528.048	340.357	0.082	0.161
-527.033	623.308	-0.174	0.441
-526.018	-83.893	-0.110	-0.035
-525.004	-44.576	-0.107	-0.054
-523.989	-114.367	0.262	0.051
-522.975	90.437	0.108	-0.121
-521.960	225.617	0.128	-0.210
-520.945	-95.559	-0.502	-0.136
-519.931	-165.899	0.112	0.005
-518.916	-154.437	0.076	0.005
-517.902	-195.405	0.285	-0.002
-516.887	-119.596	-0.067	-0.012
-515.872	800.000	0.084	-0.267
-514.858	-200.000	-0.031	-0.535
-513.843	-169.939	0.324	0.012
-512.829	-89.043	0.221	0.066
-511.814	-14.762	-0.229	0.148
-510.799	-110.185	-0.207	0.043
-509.785	76.813	0.136	-0.146
-508.770	25.050	0.223	-0.186
-507.756	800.000	-0.042	-0.156
-506.741	550.006	-0.080	0.193
-505.726	-173.300	0.205	-0.006
-504.712	-107.753	0.246	-0.054
-503.697	119.342	-0.343	-0.428
-502.683	800.000	0.057	-0.187
-501.668	171.440	0.184	-0.266
-500.653	565.423	-0.160	0.391
-499.639	60.140	0.319	0.318
-498.624	-118.384	-0.313	-0.056
-497.610	281.166	0.119	-0.215
-496.595	144.773	-0.127	0.170
-495.581	96.262	-0.175	-0.202
-494.566	20.310	-0.100	0.082
-493.551	-32.994	-0.375	-0.210
-492.537	305.946	-0.053	-0.099
-491.522	-200.000	0.036	0.384
-490.508	-96.088	-0.082	-0.022
-489.493	797.255	0.086	0.239
-488.478	101.396	-0.115	-0.135
-487.464	272.013	0.236	-0.419
-486.449	58.134	0.078	0.077
-485.435	800.000	0.079	0.232
-484.420	-94.628	-0.111	0.031
-483.405	10.266	0.243	0.186
-482.391	143.308	-0.136	0.183
-481.376	-60.241	0.053	0.023
-480.362	800.000	0.036	0.112
-479.347	278.529	-0.117	-0.210
-478.332	-200.000	0.050	0.536
-477.318	215.093	0.117	0.187
-476.303	26.608	-0.092	-0.078
-475.289	-109.233	-0.084	-0.018
-474.274	97.445	0.070	0.081
-473.259	172.134	-0.213	-0.308
-472.245	-39.202	-0.183	0.097
-471.230	-200.000	-0.031	0.156
-470.216	28.738	0.140	-0.120
-469.201	-200.000	-0.050	0.251
-468.186	478.999	-0.226	0.515
-467.172	14.572	0.032	0.025
-466.157	34.932	0.081	-0.071
-465.143	230.511	-0.151	0.249
-464.128	-192.301	-0.274	-0.003
-463.113	800.000	-0.051	-0.145
-462.099	800.000	0.073	0.220
-461.084	-166.163	0.269	-0.011
-460.070	96.444	0.156	-0.179
-459.055	-22.550	0.072	0.044
-458.040	26.238	-0.043	0.036
-457.026	322.007	0.028	-0.053
-456.011	800.000	0.040	-0.127
-454.997	160.012	-0.104	0.146
-453.982	-103.901	-0.219	0.051
-452.968	-200.000	-0.006	0.118
-451.953	196.449	0.141	0.215
-450.938	63.087	0.056	-0.057
-449.924	442.165	0.152	0.334
-448.909	714.705	0.096	0.255
-447.895	800.000	0.017	0.058
-446.880	800.000	0.063	-0.210
-445.865	-179.798	0.161	0.003
-444.851	70.669	0.103	-0.107
-443.836	-115.059	0.093	-0.018
-442.822	-71.499	0.253	-0.095
-441.807	684.431	-0.061	0.160
-440.792	-129.058	-0.064	0.009
-439.778	563.540	0.170	0.414
-438.763	-200.000	-0.001	0.131
-437.749	-146.269	0.383	-0.034
-436.734	800.000	0.046	-0.164
-435.719	-200.000	-0.043	0.265
-434.705	-200.000	-0.056	0.256
-433.690	77.490	-0.176	0.188
-432.676	-16.271	-0.085	0.054
-431.661	776.033	-0.058	0.160
-430.646	-200.000	0.029	0.194
-429.632	206.857	0.148	0.231
-428.617	-92.066	0.106	-0.030
-427.603	67.255	-0.098	-0.101
-426.588	-200.000	-0.023	-0.236
-425.573	234.430	0.078	0.129
-424.559	656.043	0.165	0.425
-423.544	114.090	0.127	-0.155
-422.530	800.000	0.087	0.322
-421.515	767.943	-0.060	-0.164
-420.500	142.770	0.150	-0.200
-419.486	-85.555	0.111	0.035
-418.471	83.350	-0.273	-0.298
-417.457	-81.919	0.251	-0.082
-416.442	53.225	-0.131	0.126
-415.428	-200.000	-0.021	-0.123
-414.413	347.692	-0.141	0.279
-413.398	-200.000	-0.049	0.463
-412.384	18.731	-0.346	0.278
-411.369	-144.942	0.114	-0.010
-410.355	-55.814	-0.024	-0.011
-409.340	-3.055	0.174	-0.122
-408.325	-193.820	0.147	-0.001
-407.311	-68.707	-0.073	-0.028
-406.296	-61.997	-0.191	0.080
-405.282	-42.695	-0.286	-0.146
-404.267	149.735	-0.061	0.083
-403.252	57.187	0.142	0.139
-402.238	21.252	-0.013	-0.010
-401.223	11.642	0.035	-0.027
-400.209	349.594	-0.121	0.240
-399.194	-200.000	0.024	0.280
-398.179	88.245	0.060	0.067
-397.165	800.000	-0.048	-0.145
-396.150	-200.000	-0.025	-0.274
-395.136	-33.770	-0.221	-0.122
-394.121	800.000	-0.099	0.283
-393.106	489.523	-0.111	0.255
-392.092	25.115	-0.113	0.094
-391.077	-14.837	-0.215	-0.139
-390.063	-45.524	0.277	-0.137
-389.048	67.584	0.195	0.200
-388.033	38.068	0.089	0.080
-387.019	-200.000	0.024	-0.119
-386.004	800.000	0.028	0.105
-384.990	27.005	-0.068	0.057
-383.975	-96.981	-0.109	0.029
-382.960	101.573	0.108	0.126
-381.946	800.000	0.045	0.183
-380.931	80.440	0.015	-0.016
-379.917	285.289	-0.094	0.170
-378.902	-27.692	0.116	0.068
-377.888	59.351	-0.083	-0.082
-376.873	333.669	-0.188	-0.364
-375.858	800.000	0.062	-0.246
-374.844	-200.000	0.018	0.170
-373.829	26.584	0.198	0.166
-372.815	-66.728	-0.251	0.100
-371.800	-200.000	0.003	0.348
-370.785	-165.110	-0.195	0.009
-369.771	-113.454	-0.057	0.011
-368.756	-200.000	-0.040	-0.239
-367.742	-38.734	-0.159	-0.084
-366.727	-200.000	0.006	-0.234
-365.712	4.755	-0.229	-0.168
-364.698	449.128	-0.146	-0.322
-363.683	25.017	-0.121	0.101
-362.669	71.621	0.218	0.227
-361.654	-57.266	-0.273	-0.120
-360.639	50.018	0.022	0.021
-359.625	89.563	0.026	-0.029
-358.610	-54.756	0.115	-0.052
-357.596	-200.000	-0.024	-0.405
-356.581	81.603	0.128	-0.139
-355.566	104.113	0.346	0.407
-354.552	560.838	0.022	0.054
-353.537	-5.751	0.160	0.110
-352.523	17.520	-0.273	0.217
-351.508	-34.853	0.231	-0.126
-350.493	-1.112	-0.157	-0.111
-349.479	23.889	-0.166	0.137
-348.464	-162.630	0.203	0.010
-347.450	11.765	0.216	-0.166
-346.435	-76.997	-0.343	-0.120
-345.420	800.000	0.033	0.125
-344.406	88.165	-0.138	0.153
-343.391	73.485	-0.102	-0.107
-342.377	800.000	-0.054	-0.190
-341.362	-148.852	0.119	0.010
-340.348	-130.427	-0.123	-0.017
-339.333	44.673	0.187	0.172
-338.318	-87.449	0.301	-0.091
-337.304	-90.615	-0.135	0.039
-336.289	249.764	0.078	-0.132
-335.275	47.283	0.296	-0.276
-334.260	-26.228	-0.212	-0.125
-333.245	-142.010	-0.422	-0.042
-332.231	-200.000	0.030	0.187
-331.216	-200.000	-0.024	0.116
-330.202	-200.000	0.015	-0.067
-329.187	-200.000	-0.080	0.381
-328.172	-52.561	0.263	-0.121
-327.158	-200.000	0.042	-0.312
-326.143	-4.874	0.176	0.121
-325.129	-118.498	0.086	-0.015
-324.114	-200.000	-0.042	0.424
-323.099	-200.000	0.002	-0.017
-322.085	-200.000	-0.010	0.410
-321.070	800.000	-0.056	-0.209
-320.056	-53.466	-0.234	0.107
-319.041	-160.828	0.390	0.021
-318.026	288.151	0.118	-0.213
-317.012	-99.432	-0.290	0.073
-315.997	800.000	-0.099	0.309
-314.983	-77.931	0.266	-0.092
-313.968	-25.849	-0.455	0.268
-312.953	57.907	0.128	-0.125
-311.939	-162.979	-0.311	-0.015
-310.924	-127.100	-0.392	0.057
-309.910	-200.000	0.000	-0.069
-308.895	-200.000	-0.014	0.133
-307.880	123.019	0.194	-0.243
-306.866	426.985	0.035	0.076
-305.851	147.176	0.157	-0.211
-304.837	754.381	-0.137	-0.370
-303.822	-200.000	-0.030	0.229
-302.807	-11.021	-0.229	-0.151
-301.793	-200.000	0.004	0.056
-300.778	800.000	0.038	0.107
-299.764	130.498	-0.095	0.121
-298.749	-86.082	0.191	-0.059
-297.735	70.690	0.274	-0.283
-296.720	-200.000	-0.007	-0.217
-295.705	314.340	0.061	0.115
-294.691	-29.605	-0.176	-0.100
-293.676	-21.381	0.097	0.059
-292.662	467.029	0.102	0.228
-291.647	-108.717	-0.323	0.069
-290.632	451.399	0.029	0.064
-289.618	-200.000	-0.030	-0.390
-288.603	800.000	-0.068	-0.219
-287.589	-13.446	-0.196	-0.127
-286.574	-70.801	0.360	0.136
-285.559	58.453	-0.140	-0.138
-284.545	-91.049	-0.204	0.058
-283.530	2.122	0.225	0.162
-282.516	-185.832	0.392	-0.006
-281.501	-117.481	-0.439	0.079
-280.486	69.189	0.138	0.141
-279.472	87.411	0.330	-0.364
-278.457	800.000	-0.021	0.086
-277.443	50.783	0.082	-0.077
-276.428	-200.000	0.020	-0.269
-275.413	7.810	-0.286	-0.214
-274.399	-200.000	-0.002	0.211
-273.384	-130.201	0.115	-0.016
-272.370	500.255	0.108	0.250
-271.355	87.299	-0.104	-0.115
-270.340	129.582	0.089	-0.114
-269.326	3.912	0.248	0.181
-268.311	192.405	-0.156	0.234
-267.297	800.000	-0.013	-0.051
-266.282	51.134	0.266	-0.252
-265.267	-159.996	-0.255	-0.014
-264.253	433.009	0.074	0.160
-263.238	25.760	0.267	-0.222
-262.224	-43.665	0.047	-0.024
-261.209	-150.061	-0.183	-0.014
-260.195	-88.809	0.149	-0.044
-259.180	10.148	-0.226	-0.171
-258.165	-8.694	-0.232	0.155
-257.151	-98.488	-0.265	-0.068
-256.136	-200.000	0.022	0.102
-255.122	-141.357	0.150	0.015
-254.107	-200.000	-0.025	0.212
-253.092	648.105	-0.068	0.174
-252.078	271.135	0.084	-0.148
-251.063	-169.355	0.058	0.002
-250.049	-10.240	0.078	0.051
-249.034	-101.870	-0.226	0.054
-248.019	800.000	0.105	0.361
-247.005	-103.521	0.376	0.088
-245.990	31.807	0.066	0.057
-244.976	58.286	0.228	0.223
-243.961	-200.000	0.034	-0.200
-242.946	-51.981	-0.172	0.080
-241.932	-6.162	-0.406	-0.276
-240.917	800.000	-0.068	0.271
-239.903	-149.631	-0.193	-0.015
-238.888	164.886	-0.234	-0.329
-237.873	-147.519	0.176	0.015
-236.859	-200.000	0.017	0.168
-235.844	800.000	-0.033	-0.119
-234.830	-129.838	0.127	0.017
-233.815	-20.419	0.121	0.074
-232.800	229.439	0.195	-0.317
-231.786	800.000	0.033	0.116
-230.771	-200.000	0.030	0.147
-229.757	-115.222	-0.135	-0.025
-228.742	153.945	-0.219	0.300
-227.727	195.870	0.141	0.214
-226.713	-2.748	0.319	-0.222
-225.698	-200.000	-0.038	0.393
-224.684	-152.629	-0.082	0.006
-223.669	-141.482	-0.096	-0.010
-222.655	-89.245	-0.114	-0.033
-221.640	-167.467	-0.217	-0.009
-220.625	-91.569	0.321	0.091
-219.611	-200.000	-0.015	-0.094
-218.596	71.687	0.117	0.122
-217.582	-59.601	-0.243	-0.104
-216.567	-200.000	-0.017	0.248
-215.552	95.269	-0.141	-0.160
-214.538	28.379	0.075	0.063
-213.523	27.419	-0.131	-0.110
-212.509	30.289	0.084	-0.072
-211.494	-21.162	0.211	0.128
-210.479	-200.000	-0.018	0.153
-209.465	-77.276	0.092	-0.032
-208.450	-68.899	-0.076	-0.029
-207.436	59.932	0.199	0.196
-206.421	90.741	-0.081	-0.090
-205.406	-16.419	0.114	0.072
-204.392	64.160	0.365	0.366
-203.377	-130.190	-0.154	0.021
-202.363	-200.000	0.595	-0.001
-201.348	54.983	0.240	-0.231
-200.333	48.327	0.235	-0.219
-199.319	-19.802	-0.378	-0.232
-198.304	174.765	0.034	-0.050
-197.290	234.211	-0.100	0.164
-196.275	-100.354	0.275	-0.068
-195.260	-136.282	0.334	0.039
-194.246	800.000	-0.161	-0.549
-193.231	800.000	0.003	-0.010
-192.217	82.908	0.128	0.139
-191.202	-123.247	0.105	-0.017
-190.187	800.000	0.016	0.050
-189.173	-79.559	0.062	0.021
-188.158	342.338	0.203	0.396
-187.144	615.388	0.090	0.225
-186.129	66.967	-0.221	-0.224
-185.114	-67.971	0.227	-0.088
-184.100	-28.409	0.142	0.081
-183.085	-133.667	-0.346	-0.043
-182.071	-5.251	0.084	0.058
-181.056	-200.000	-0.048	-0.327
-180.042	-91.850	0.069	-0.019
-179.027	-200.000	-0.007	0.110
-178.012	800.000	-0.105	-0.447
-176.998	-78.306	-0.318	-0.108
-175.983	554.834	-0.071	0.170
-174.969	-12.326	-0.199	-0.130
-173.954	800.000	0.108	0.359
-172.939	-59.819	-0.119	-0.051
-171.925	800.000	0.018	-0.054
-170.910	-200.000	-0.004	0.189
-169.896	235.788	0.068	-0.112
-168.881	-174.848	0.290	0.008
-167.866	188.816	-0.115	0.172
-166.852	800.000	-0.126	0.439
-165.837	59.727	-0.179	-0.176
-164.823	533.862	-0.043	-0.100
-163.808	238.646	-0.089	-0.147
-162.793	-60.424	-0.202	0.085
-161.779	-189.784	0.111	0.001
-160.764	784.410	0.009	-0.025
-159.750	-149.895	0.198	-0.015
-158.735	-188.051	-0.259	-0.003
-157.720	42.849	0.194	0.176
-156.706	294.147	0.087	0.158
-155.691	141.406	0.126	-0.166
-154.677	7.092	0.161	0.119
-153.662	-99.875	0.077	-0.019
-152.647	-200.000	-0.016	-0.202
-151.633	-116.449	0.050	-0.009
-150.618	788.101	-0.152	0.414
-149.604	-40.446	0.094	0.048
-148.589	52.672	-0.383	-0.364
-147.574	-26.767	0.270	0.157
-146.560	800.000	-0.047	0.156
-145.545	-73.138	-0.116	-0.042
-144.531	-200.000	-0.051	-0.288
-143.516	-69.851	-0.190	-0.072
-142.502	58.863	0.153	-0.149
-141.487	-200.000	0.054	0.323
-140.472	439.543	-0.131	-0.283
-139.458	603.960	0.134	-0.332
-138.443	105.758	0.148	-0.173
-137.429	-75.524	0.444	-0.157
-136.414	311.950	-0.037	0.069
-135.399	-19.182	-0.266	0.164
-134.385	-200.000	-0.024	0.134
-133.370	-179.972	-0.094	0.002
-132.356	-42.722	0.262	0.132
-131.341	194.885	0.135	-0.204
-130.326	-25.273	0.162	0.095
-129.312	-200.000	0.021	-0.204
-128.297	78.061	0.261	-0.277
-127.283	-161.754	0.063	-0.003
-126.268	-163.598	0.276	-0.013
-125.253	77.343	0.165	0.174
-124.239	641.850	-0.078	0.196
-123.224	72.958	0.230	-0.238
-122.210	-57.938	-0.058	-0.025
-121.195	87.179	-0.089	-0.097
-120.180	-82.541	0.219	-0.071
