DTS Sentinel unit serial number:	SN413079Multiplexer serial number:	ORYXHardware model number:	OX4-SRSoftware version number:	ORYX F/W v4.00 Oryx Data Collector v3.7.2.0data status	okinstallation	princeton_trtdifferential loss correction	single-endedforward channel	channel 1reverse channel	N/Adate	2019/09/19time	00:34:35forward acquisition time	60.00reverse acquisition time	0.00gamma	496.2192k internal	0.2343k external	0.2343temperature offset calibration	1.0024default loss term (dB/km)	0.3790temperature slope calibration	1.0000multiplexer offset coefficient	1.0000multiplexer slope coefficient	1.0000fibre end	0.00T internal ref (°C)	22.37T ext. ref 1 (°C)	0.73T ext. ref 2 (°C)	15.37length (m)	temperature (°C)	Stokes	anti-Stokes-747.200	-200.000	0.005	0.091
-746.185	-5.234	-0.443	0.305
-745.171	212.252	-0.118	-0.186
-744.156	-17.522	-0.244	-0.154
-743.142	144.332	0.143	0.191
-742.127	-148.630	-0.263	0.021
-741.112	540.076	-0.100	0.239
-740.098	-20.199	-0.161	0.100
-739.083	800.000	-0.076	0.306
-738.069	702.635	-0.036	0.094
-737.054	-14.414	-0.133	-0.085
-736.039	-51.205	-0.189	-0.089
-735.025	194.122	0.193	0.293
-734.010	23.500	-0.192	0.158
-732.996	-74.568	-0.480	0.173
-731.981	-104.656	-0.320	-0.074
-730.966	152.701	0.114	-0.155
-729.952	7.520	-0.160	-0.120
-728.937	-200.000	-0.060	-0.282
-727.923	-12.927	0.100	-0.065
-726.908	-48.264	-0.245	-0.118
-725.894	413.712	-0.063	0.133
-724.879	-7.275	-0.097	-0.066
-723.864	85.555	-0.050	-0.055
-722.850	49.665	-0.120	0.114
-721.835	800.000	-0.041	-0.132
-720.821	459.407	-0.084	0.187
-719.806	-74.630	0.124	-0.045
-718.791	-123.483	0.274	0.044
-717.777	79.645	-0.213	0.228
-716.762	241.598	0.112	-0.188
-715.748	800.000	-0.045	0.149
-714.733	800.000	0.141	-0.392
-713.718	-50.740	-0.246	0.116
-712.704	-69.466	0.092	0.035
-711.689	-200.000	0.011	-0.118
-710.675	85.501	0.112	0.123
-709.660	120.618	0.103	0.128
-708.645	653.177	0.033	0.084
-707.631	800.000	-0.038	-0.134
-706.616	183.600	-0.158	-0.234
-705.602	-200.000	0.298	-0.000
-704.587	800.000	-0.038	-0.130
-703.572	-106.921	-0.565	0.125
-702.558	-17.561	-0.151	0.095
-701.543	-200.000	0.036	-0.409
-700.529	194.542	-0.117	0.177
-699.514	519.342	-0.036	-0.085
-698.499	447.397	0.129	-0.284
-697.485	115.564	0.084	-0.102
-696.470	178.048	0.104	-0.152
-695.456	-200.000	0.059	0.396
-694.441	108.165	0.106	0.126
-693.426	-200.000	0.048	-0.282
-692.412	23.265	-0.427	-0.350
-691.397	358.090	-0.219	-0.437
-690.383	143.689	0.056	-0.075
-689.368	342.235	-0.053	-0.104
-688.354	274.016	0.078	0.139
-687.339	111.731	0.042	0.051
-686.324	-144.751	-0.325	0.030
-685.310	-74.512	0.322	-0.116
-684.295	-54.214	0.303	0.137
-683.281	424.952	-0.075	-0.161
-682.266	-146.810	-0.150	0.013
-681.251	800.000	0.112	-0.357
-680.237	-200.000	0.005	0.067
-679.222	20.818	-0.363	-0.293
-678.208	-70.081	-0.277	0.105
-677.193	-68.378	0.164	0.064
-676.178	-10.574	0.080	-0.053
-675.164	54.653	-0.269	-0.259
-674.149	-200.000	-0.045	-0.298
-673.135	-134.196	-0.198	-0.024
-672.120	800.000	0.068	0.196
-671.105	136.106	-0.364	0.474
-670.091	294.141	-0.056	-0.103
-669.076	50.267	-0.214	-0.202
-668.062	739.134	-0.104	0.278
-667.047	-116.976	0.195	0.036
-666.032	-200.000	-0.038	-0.448
-665.018	-2.920	-0.272	-0.189
-664.003	53.568	0.114	-0.110
-662.989	203.255	-0.028	-0.043
-661.974	800.000	0.036	0.144
-660.959	-47.606	-0.072	-0.035
-659.945	800.000	-0.065	-0.213
-658.930	-172.751	-0.139	0.004
-657.916	-57.888	-0.324	0.141
-656.901	103.041	0.076	-0.089
-655.886	23.519	0.063	-0.051
-654.872	-45.993	-0.329	-0.162
-653.857	-200.000	0.115	0.000
-652.843	-200.000	0.056	0.261
-651.828	-175.583	0.032	0.001
-650.814	-200.000	0.006	-0.062
-649.799	-42.633	0.234	0.119
-648.784	87.652	-0.234	-0.258
-647.770	124.017	0.280	-0.351
-646.755	-200.000	-0.014	-0.154
-645.741	146.353	-0.148	0.198
-644.726	-200.000	-0.019	0.172
-643.711	-101.745	0.073	0.018
-642.697	-110.831	-0.173	-0.036
-641.682	-129.651	0.063	-0.009
-640.668	761.140	0.019	-0.050
-639.653	-186.555	-0.197	0.003
-638.638	48.773	0.070	0.065
-637.624	479.218	0.007	0.015
-636.609	401.155	-0.025	0.051
-635.595	44.406	0.257	0.235
-634.580	88.656	-0.201	-0.223
-633.565	-200.000	0.034	-0.227
-632.551	-71.397	-0.147	-0.055
-631.536	-11.285	-0.276	-0.181
-630.522	-73.410	-0.267	-0.097
-629.507	-119.382	-0.136	-0.024
-628.492	-102.866	-0.152	0.036
-627.478	-183.919	0.284	-0.005
-626.463	-37.087	-0.106	-0.056
-625.449	-157.657	-0.442	0.026
-624.434	122.119	0.096	0.120
-623.419	61.393	0.057	-0.056
-622.405	-87.427	-0.089	0.027
-621.390	-200.000	0.005	-0.068
-620.376	345.417	-0.146	0.287
-619.361	-6.788	-0.203	0.138
-618.346	403.746	0.139	-0.291
-617.332	800.000	0.026	-0.080
-616.317	-99.754	-0.226	0.056
-615.303	800.000	-0.097	0.279
-614.288	-87.699	-0.320	0.096
-613.273	-43.346	0.331	0.167
-612.259	-83.317	0.291	0.093
-611.244	-87.856	-0.222	-0.067
-610.230	-85.320	0.141	0.044
-609.215	364.497	0.084	0.168
-608.201	109.427	-0.274	-0.327
-607.186	30.056	0.142	-0.120
-606.171	-147.570	0.011	0.001
-605.157	-103.205	0.247	-0.058
-604.142	95.287	0.144	-0.164
-603.128	-132.216	0.284	0.037
-602.113	185.922	0.055	-0.081
-601.098	187.046	0.065	-0.096
-600.084	-64.835	-0.137	-0.055
-599.069	62.705	0.191	-0.190
-598.055	-122.726	0.223	0.036
-597.040	191.449	0.163	0.244
-596.025	16.624	-0.139	-0.109
-595.011	-200.000	0.007	-0.192
-593.996	138.535	-0.240	0.314
-592.982	-57.963	-0.145	-0.063
-591.967	-74.648	-0.232	0.083
-590.952	800.000	0.035	-0.150
-589.938	725.272	0.145	-0.384
-588.923	800.000	0.057	-0.243
-587.909	3.479	0.072	0.052
-586.894	-200.000	-0.085	-0.714
-585.879	-59.536	0.128	-0.055
-584.865	-200.000	-0.005	0.060
-583.850	215.250	0.117	0.184
-582.836	-200.000	0.024	0.109
-581.821	536.108	-0.135	-0.319
-580.806	194.877	-0.127	0.191
-579.792	111.254	0.079	0.094
-578.777	-100.580	0.241	-0.059
-577.763	77.990	0.059	-0.062
-576.748	765.414	0.077	0.209
-575.733	-200.000	0.012	-0.101
-574.719	79.620	0.171	0.183
-573.704	-73.709	0.155	0.056
-572.690	75.480	0.149	0.156
-571.675	284.058	-0.097	0.174
-570.661	-200.000	-0.015	0.221
-569.646	15.907	-0.294	0.230
-568.631	-109.388	-0.146	0.031
-567.617	-200.000	0.030	0.164
-566.602	211.496	-0.218	-0.342
-565.588	13.297	0.269	-0.207
-564.573	157.422	0.165	0.227
-563.558	-200.000	-0.013	-0.160
-562.544	691.899	0.107	-0.279
-561.529	481.529	0.087	-0.197
-560.515	800.000	0.060	0.232
-559.500	428.350	0.042	-0.090
-558.485	-126.876	-0.110	-0.016
-557.471	30.796	-0.286	0.243
-556.456	40.646	-0.276	-0.247
-555.442	800.000	-0.064	-0.217
-554.427	722.290	-0.125	-0.331
-553.412	800.000	-0.046	0.154
-552.398	-200.000	-0.025	-0.125
-551.383	122.581	-0.146	0.181
-550.369	11.973	-0.309	-0.236
-549.354	-200.000	-0.020	0.244
-548.339	713.355	0.075	0.197
-547.325	77.968	-0.229	0.242
-546.310	-200.000	-0.015	0.159
-545.296	353.455	0.163	-0.322
-544.281	-200.000	0.013	-0.443
-543.266	-34.787	-0.106	0.057
-542.252	-63.887	-0.230	-0.094
-541.237	-111.026	-0.261	0.053
-540.223	800.000	0.118	0.354
-539.208	-187.803	-0.174	0.002
-538.193	307.738	-0.052	0.097
-537.179	58.996	-0.195	0.191
-536.164	800.000	-0.082	0.270
-535.150	-200.000	0.054	-0.280
-534.135	-104.183	-0.210	-0.049
-533.121	800.000	0.083	-0.301
-532.106	-30.659	0.175	-0.098
-531.091	-63.552	0.084	0.034
-530.077	-200.000	0.005	-0.214
-529.062	139.328	0.050	-0.066
-528.048	143.418	0.186	-0.245
-527.033	-33.410	0.145	-0.080
-526.018	250.633	0.091	-0.153
-525.004	-200.000	0.023	0.192
-523.989	-200.000	-0.037	0.242
-522.975	82.765	0.191	0.206
-521.960	25.859	-0.076	0.063
-520.945	800.000	0.032	-0.133
-519.931	11.877	-0.296	-0.225
-518.916	-200.000	-0.005	0.523
-517.902	234.836	0.195	-0.319
-516.887	800.000	-0.087	0.294
-515.872	-117.168	0.070	0.013
-514.858	8.651	0.180	-0.134
-513.843	-44.409	0.117	0.058
-512.829	-200.000	0.023	-0.145
-511.814	-66.085	-0.142	0.056
-510.799	124.518	-0.127	-0.158
-509.785	-68.358	-0.387	0.149
-508.770	-127.047	-0.404	-0.059
-507.756	40.154	-0.243	0.217
-506.741	42.403	-0.086	-0.078
-505.726	-200.000	-0.013	-0.205
-504.712	-85.751	0.032	-0.010
-503.697	5.831	0.008	0.006
-502.683	800.000	-0.079	0.309
-501.668	556.972	-0.058	-0.138
-500.653	27.527	-0.099	0.082
-499.639	-101.626	0.329	0.079
-498.624	64.363	-0.185	0.185
-497.610	446.169	-0.077	-0.168
-496.595	208.008	-0.285	-0.442
-495.581	-102.581	-0.334	-0.079
-494.566	-200.000	-0.067	0.299
-493.551	80.688	-0.061	0.065
-492.537	321.906	-0.224	-0.423
-491.522	-200.000	-0.092	0.433
-490.508	6.164	0.181	-0.133
-489.493	-200.000	0.058	-0.420
-488.478	317.094	0.096	0.179
-487.464	-200.000	0.025	0.245
-486.449	-200.000	0.000	0.044
-485.435	320.108	0.051	0.096
-484.420	800.000	-0.016	0.053
-483.405	-0.644	-0.175	0.123
-482.391	401.940	-0.160	-0.333
-481.376	-56.978	0.498	0.218
-480.362	-90.171	-0.237	-0.068
-479.347	-200.000	0.003	-0.330
-478.332	-69.316	-0.352	0.134
-477.318	-61.178	-0.070	0.029
-476.303	-104.779	-0.440	-0.100
-475.289	-200.000	-0.001	-0.195
-474.274	-88.831	-0.282	-0.083
-473.259	-143.038	0.205	-0.020
-472.245	59.938	-0.211	0.206
-471.230	-21.639	0.140	0.084
-470.216	42.462	-0.202	0.182
-469.201	-21.827	-0.246	-0.149
-468.186	658.626	-0.024	0.060
-467.172	47.478	-0.139	0.128
-466.157	-91.014	0.130	0.037
-465.143	-200.000	0.022	-0.256
-464.128	83.746	-0.094	-0.102
-463.113	800.000	-0.132	-0.416
-462.099	-40.150	-0.122	-0.063
-461.084	-22.111	0.131	0.079
-460.070	-200.000	0.005	-0.115
-459.055	-200.000	-0.005	-0.294
-458.040	-200.000	0.029	-0.372
-457.026	800.000	0.045	-0.177
-456.011	-200.000	-0.004	-0.112
-454.997	-200.000	0.058	0.380
-453.982	46.345	0.174	0.160
-452.968	-200.000	-0.019	-0.087
-451.953	-45.508	-0.140	0.068
-450.938	-200.000	-0.071	0.364
-449.924	234.384	0.047	0.077
-448.909	41.779	0.219	-0.197
-447.895	390.281	-0.116	0.238
-446.880	457.634	-0.202	0.445
-445.865	447.303	0.131	0.285
-444.851	-200.000	0.024	0.235
-443.836	-93.364	0.227	-0.062
-442.822	-127.693	-0.322	0.046
-441.807	7.871	0.220	0.164
-440.792	-200.000	-0.003	-0.195
-439.778	-25.681	-0.208	-0.122
-438.763	90.001	0.175	-0.193
-437.749	44.858	0.120	0.110
-436.734	-125.242	0.106	-0.016
-435.719	-11.723	-0.127	-0.083
-434.705	-200.000	0.034	-0.257
-433.690	-200.000	-0.013	-0.060
-432.676	134.075	-0.156	0.200
-431.661	800.000	0.062	0.225
-430.646	51.740	-0.137	-0.129
-429.632	-90.532	0.198	0.057
-428.617	-40.582	-0.230	-0.118
-427.603	37.624	0.196	0.172
-426.588	687.236	-0.042	-0.109
-425.573	-31.786	0.060	-0.033
-424.559	-112.521	-0.326	0.064
-423.544	-200.000	-0.007	-0.118
-422.530	594.713	0.054	-0.131
-421.515	83.513	-0.257	0.277
-420.500	346.663	-0.205	0.399
-419.486	-200.000	-0.013	-0.072
-418.471	2.487	-0.198	0.142
-417.457	532.989	-0.080	-0.188
-416.442	41.770	0.071	0.064
-415.428	62.094	-0.049	-0.049
-414.413	39.636	0.066	-0.059
-413.398	-83.191	0.102	0.032
-412.384	677.397	0.093	0.239
-411.369	-105.837	0.360	0.080
-410.355	-200.000	-0.013	-0.243
-409.340	572.803	0.058	-0.139
-408.325	60.685	0.265	-0.259
-407.311	-155.503	0.325	-0.021
-406.296	172.221	0.020	-0.029
-405.282	-41.289	0.236	0.120
-404.267	-152.843	-0.293	-0.021
-403.252	-138.436	0.234	0.025
-402.238	800.000	-0.078	-0.322
-401.223	800.000	-0.036	-0.100
-400.209	94.366	-0.131	-0.147
-399.194	-112.212	0.263	-0.052
-398.179	-200.000	-0.015	-0.113
-397.165	-151.492	0.486	-0.036
-396.150	-93.938	0.055	0.015
-395.136	234.901	0.084	0.137
-394.121	-79.876	0.170	0.057
-393.106	-82.942	-0.206	-0.066
-392.092	-82.588	0.226	-0.072
-391.077	-57.319	-0.054	0.024
-390.063	-89.182	-0.143	0.042
-389.048	-69.804	0.206	0.078
-388.033	17.358	0.024	-0.019
-387.019	-200.000	0.010	0.301
-386.004	108.909	-0.084	-0.099
-384.990	-200.000	0.061	-0.276
-383.975	263.218	-0.195	-0.335
-382.960	255.787	-0.135	-0.228
-381.946	116.627	-0.076	0.092
-380.931	180.449	-0.092	-0.134
-379.917	-144.228	-0.408	-0.038
-378.902	-200.000	-0.051	0.254
-377.888	-200.000	-0.007	-0.048
-376.873	101.615	-0.194	0.223
-375.858	785.705	0.084	-0.227
-374.844	-144.162	0.226	-0.021
-373.829	-100.375	-0.089	-0.022
-372.815	10.349	0.294	0.221
-371.800	800.000	-0.054	0.148
-370.785	91.025	-0.055	-0.060
-369.771	-200.000	-0.011	-0.214
-368.756	-110.778	0.081	0.017
-367.742	800.000	0.121	0.431
-366.727	800.000	-0.071	-0.200
-365.712	128.238	0.123	-0.155
-364.698	-128.561	-0.264	0.037
-363.683	2.676	-0.140	0.100
-362.669	-200.000	0.020	-0.168
-361.654	-200.000	0.014	-0.206
-360.639	-6.453	0.211	-0.142
-359.625	294.258	0.174	-0.314
-358.610	93.825	0.173	0.194
-357.596	-0.828	0.310	0.217
-356.581	-57.779	0.148	0.064
-355.566	-1.188	0.215	-0.150
-354.552	36.525	0.108	-0.094
-353.537	152.940	-0.153	0.206
-352.523	-80.501	0.158	-0.052
-351.508	-30.237	-0.082	0.046
-350.493	201.038	-0.061	-0.092
-349.479	2.271	0.153	-0.109
-348.464	-200.000	0.014	0.156
-347.450	-200.000	-0.017	-0.078
-346.435	-97.874	-0.013	0.003
-345.420	552.195	-0.052	0.124
-344.406	-104.685	0.032	-0.007
-343.391	515.634	-0.195	-0.449
-342.377	385.819	0.057	0.115
-341.362	-200.000	-0.020	0.422
-340.348	153.653	-0.202	0.273
-339.333	800.000	-0.012	-0.041
-338.318	-34.549	-0.167	0.090
-337.304	-27.604	-0.521	0.298
-336.289	146.003	-0.062	-0.083
-335.275	654.269	0.049	-0.124
-334.260	134.567	-0.270	0.345
-333.245	-72.160	0.138	0.050
-332.231	-200.000	0.563	-0.000
-331.216	-162.862	-0.096	-0.005
-330.202	277.468	-0.103	0.181
-329.187	-149.906	0.297	-0.023
-328.172	800.000	-0.084	0.279
-327.158	800.000	-0.085	0.240
-326.143	23.269	0.264	-0.214
-325.129	-200.000	0.004	0.095
-324.114	-200.000	0.003	0.024
-323.099	462.266	-0.093	-0.205
-322.085	189.363	-0.087	0.128
-321.070	51.147	-0.186	-0.174
-320.056	-153.468	0.191	-0.013
-319.041	-200.000	-0.003	-0.072
-318.026	-200.000	-0.041	-0.187
-317.012	-200.000	0.049	0.219
-315.997	7.405	-0.278	0.205
-314.983	800.000	-0.107	-0.372
-313.968	800.000	-0.049	0.141
-312.953	-59.186	-0.146	-0.062
-311.939	-25.784	0.184	-0.107
-310.924	-57.058	0.104	-0.045
-309.910	-8.923	0.045	0.030
-308.895	-29.319	-0.214	0.120
-307.880	27.203	0.148	-0.122
-306.866	-141.811	-0.127	-0.012
-305.851	46.621	0.177	-0.162
-304.837	43.918	-0.099	-0.089
-303.822	-87.319	-0.149	-0.044
-302.807	68.627	0.215	0.217
-301.793	6.231	0.205	-0.150
-300.778	-80.472	-0.225	0.074
-299.764	-43.137	0.173	-0.086
-298.749	116.468	-0.199	0.241
-297.735	-186.579	0.135	-0.002
-296.720	308.806	-0.010	-0.018
-295.705	390.774	0.055	-0.112
-294.691	51.786	-0.074	0.069
-293.676	800.000	-0.076	-0.221
-292.662	-42.359	-0.308	-0.155
-291.647	509.703	0.148	-0.339
-290.632	-87.649	0.310	0.092
-289.618	-4.233	-0.186	0.127
-288.603	-56.604	-0.212	0.092
-287.589	800.000	-0.006	0.023
-286.574	265.611	0.043	0.073
-285.559	-114.948	-0.297	0.056
-284.545	211.324	0.100	0.154
-283.530	-200.000	-0.020	0.172
-282.516	-200.000	0.057	0.250
-281.501	-200.000	-0.030	0.299
-280.486	-28.491	0.073	-0.041
-279.472	-114.195	-0.095	0.018
-278.457	800.000	0.036	-0.100
-277.443	-200.000	-0.010	-0.122
-276.428	-100.250	0.373	0.091
-275.413	-200.000	-0.008	-0.179
-274.399	-76.819	-0.065	0.022
-273.384	-200.000	0.063	0.304
-272.370	800.000	0.103	-0.317
-271.355	697.264	0.158	-0.409
-270.340	-200.000	0.250	-0.001
-269.326	368.077	-0.129	0.256
-268.311	800.000	-0.060	-0.195
-267.297	-154.250	-0.183	-0.012
-266.282	-54.134	-0.183	-0.082
-265.267	227.119	0.133	0.213
-264.253	-36.187	0.295	0.156
-263.238	350.338	-0.069	0.134
-262.224	-27.512	-0.221	0.126
-261.209	-85.706	0.164	0.050
-260.195	-28.764	-0.321	0.182
-259.180	-200.000	0.004	0.032
-258.165	-36.443	-0.089	-0.047
-257.151	-200.000	-0.053	-0.287
-256.136	397.478	-0.206	0.423
-255.122	-200.000	-0.029	-0.292
-254.107	-200.000	-0.105	0.475
-253.092	23.693	0.251	0.203
-252.078	-55.893	-0.083	-0.037
-251.063	-87.998	0.068	-0.020
-250.049	-200.000	0.016	-0.275
-249.034	-200.000	-0.023	0.254
-248.019	-200.000	0.011	-0.182
-247.005	-119.243	-0.185	0.032
-245.990	40.377	0.282	-0.249
-244.976	120.808	0.216	-0.264
-243.961	-200.000	0.048	-0.248
-242.946	179.574	0.090	0.130
-241.932	-200.000	0.013	0.139
-240.917	800.000	0.036	-0.128
-239.903	800.000	0.109	0.321
-238.888	17.938	-0.098	0.076
-237.873	-107.383	0.248	-0.053
-236.859	-200.000	-0.056	0.375
-235.844	577.603	-0.071	0.171
-234.830	-65.537	0.292	0.115
-233.815	-140.707	0.126	0.013
-232.800	-26.868	-0.298	-0.171
-231.786	198.075	0.111	0.167
-230.771	23.169	-0.202	-0.163
-229.757	396.801	0.043	0.088
-228.742	8.039	-0.101	0.075
-227.727	800.000	0.019	-0.053
-226.713	72.511	-0.241	0.246
-225.698	99.007	0.178	-0.201
-224.684	-200.000	-0.020	-0.256
-223.669	61.324	0.063	-0.061
-222.655	168.674	0.225	-0.314
-221.640	698.351	0.042	0.109
-220.625	-200.000	-0.058	-0.253
-219.611	-128.103	-0.067	0.009
-218.596	-130.674	0.088	0.012
-217.582	-49.442	0.269	0.126
-216.567	-200.000	-0.039	0.293
-215.552	800.000	-0.055	-0.227
-214.538	-175.319	0.288	0.008
-213.523	-46.014	0.282	-0.136
-212.509	49.909	0.095	-0.088
-211.494	800.000	-0.111	0.415
-210.479	77.289	0.075	0.078
-209.465	-200.000	-0.000	0.023
-208.450	-200.000	0.084	-0.449
-207.436	-74.438	0.388	0.137
-206.421	-31.268	-0.344	-0.190
-205.406	-82.248	0.301	-0.096
-204.392	-7.148	0.148	0.098
-203.377	148.409	0.196	0.259
-202.363	-54.416	-0.041	-0.018
-201.348	-119.438	-0.136	0.023
-200.333	-200.000	-0.037	0.174
-199.319	45.749	0.318	0.288
-198.304	-200.000	-0.063	0.000
-197.290	53.101	0.151	-0.142
-196.275	-43.710	0.186	-0.092
-195.260	-85.568	-0.208	0.064
-194.246	-97.342	0.155	-0.040
-193.231	-96.295	-0.328	-0.085
-192.217	-125.201	0.271	0.041
-191.202	800.000	0.116	0.395
-190.187	-24.512	-0.135	-0.079
-189.173	116.031	-0.169	0.203
-188.158	131.502	0.111	0.140
-187.144	-46.690	0.178	0.085
-186.129	-42.313	-0.283	-0.142
-185.114	800.000	0.040	0.162
-184.100	-63.320	0.308	0.124
-183.085	-200.000	-0.019	-0.085
-182.071	-33.881	0.313	-0.169
-181.056	-23.144	0.076	-0.045
-180.042	-41.825	0.119	0.060
-179.027	-126.285	0.291	-0.043
-178.012	127.767	0.051	-0.064
-176.998	-172.635	0.117	-0.004
-175.983	298.735	0.095	0.172
-174.969	-92.721	-0.130	0.036
-173.954	-65.143	0.252	0.100
-172.939	-109.837	0.198	-0.041
-171.925	-200.000	0.021	-0.111
-170.910	-63.386	-0.572	0.231
-169.896	-113.237	-0.200	0.038
-168.881	254.281	-0.085	0.142
-167.866	3.981	0.141	0.101
-166.852	105.809	0.153	-0.178
-165.837	13.086	0.086	-0.065
-164.823	-107.931	0.438	0.093
-163.808	143.133	0.081	0.105
-162.793	-151.516	0.198	0.014
-161.779	87.345	0.079	-0.086
-160.764	-200.000	0.013	-0.150
-159.750	25.011	0.168	0.136
-158.735	-41.610	-0.326	0.164
-157.720	-90.821	-0.091	-0.026
-156.706	-133.645	-0.088	0.011
-155.691	-5.617	-0.163	-0.109
-154.677	-200.000	0.071	0.329
-153.662	-108.203	0.268	0.057
-152.647	-99.704	0.142	-0.035
-151.633	800.000	-0.144	-0.390
-150.618	-101.114	-0.217	-0.052
-149.604	-58.288	-0.099	-0.042
-148.589	-101.670	0.007	0.002
-147.574	186.422	-0.269	-0.392
-146.560	-151.690	-0.210	-0.015
-145.545	424.516	0.120	-0.252
-144.531	466.653	-0.062	-0.136
-143.516	95.242	0.293	0.326
-142.502	323.233	0.157	-0.294
-141.487	-24.737	-0.142	0.083
-140.472	800.000	-0.037	-0.118
-139.458	-200.000	0.024	-0.139
-138.443	128.771	-0.193	0.240
-137.429	800.000	-0.106	-0.310
-136.414	16.847	0.067	-0.052
-135.399	-40.926	0.206	0.104
-134.385	44.041	0.140	-0.125
-133.370	385.464	0.123	0.249
-132.356	-46.160	-0.222	0.107
-131.341	-200.000	0.093	0.433
-130.326	-34.828	-0.155	0.083
-129.312	-200.000	0.021	-0.161
-128.297	78.518	0.226	0.237
-127.283	148.919	-0.062	-0.083
-126.268	-40.813	0.301	-0.153
-125.253	237.174	0.251	-0.407
-124.239	510.959	0.098	0.222
-123.224	274.637	-0.165	-0.285
-122.210	182.922	0.190	0.273
-121.195	359.545	-0.149	0.292
