DTS Sentinel unit serial number:	SN413079Multiplexer serial number:	ORYXHardware model number:	OX4-SRSoftware version number:	ORYX F/W v4.00 Oryx Data Collector v3.7.2.0data status	okinstallation	princeton_trtdifferential loss correction	single-endedforward channel	channel 1reverse channel	N/Adate	2019/09/13time	05:34:35forward acquisition time	60.00reverse acquisition time	0.00gamma	496.2192k internal	0.2336k external	0.2336temperature offset calibration	1.0158default loss term (dB/km)	0.3790temperature slope calibration	1.0000multiplexer offset coefficient	1.0000multiplexer slope coefficient	1.0000fibre end	0.00T internal ref (°C)	26.25T ext. ref 1 (°C)	4.04T ext. ref 2 (°C)	20.89length (m)	temperature (°C)	Stokes	anti-Stokes-747.200	-135.692	0.091	0.011
-746.185	-156.790	-0.288	0.018
-745.171	-200.000	0.017	0.242
-744.156	245.381	-0.107	0.181
-743.142	0.265	-0.212	-0.152
-742.127	800.000	-0.060	-0.200
-741.112	168.098	-0.052	-0.075
-740.098	3.942	0.304	0.223
-739.083	-108.384	-0.166	0.036
-738.069	-148.462	-0.179	0.015
-737.054	134.727	-0.098	-0.128
-736.039	-113.671	-0.387	-0.076
-735.025	800.000	-0.056	0.173
-734.010	-20.259	-0.182	-0.113
-732.996	23.670	0.218	0.180
-731.981	-200.000	0.009	0.162
-730.966	25.794	-0.148	0.124
-729.952	-194.576	-0.184	-0.001
-728.937	-144.800	-0.115	-0.011
-727.923	-84.062	0.438	-0.140
-726.908	-12.220	-0.232	-0.152
-725.894	50.014	-0.052	-0.049
-724.879	-200.000	0.027	-0.404
-723.864	378.210	-0.055	0.113
-722.850	-200.000	-0.015	0.117
-721.835	-200.000	-0.074	-0.354
-720.821	246.857	0.044	-0.075
-719.806	-24.268	-0.179	-0.107
-718.791	263.671	0.093	-0.162
-717.777	15.016	0.283	-0.222
-716.762	306.865	-0.134	-0.251
-715.748	800.000	-0.035	0.140
-714.733	-200.000	0.005	-0.030
-713.718	380.125	-0.127	-0.261
-712.704	-89.968	-0.214	-0.063
-711.689	353.259	-0.184	-0.367
-710.675	451.963	0.052	-0.115
-709.660	-102.740	0.092	-0.022
-708.645	582.938	-0.081	-0.199
-707.631	122.410	0.225	-0.282
-706.616	-56.428	-0.179	0.080
-705.602	-87.288	-0.316	0.096
-704.587	166.361	-0.112	-0.159
-703.572	331.956	0.050	-0.096
-702.558	-55.313	0.492	-0.221
-701.543	176.672	0.059	-0.087
-700.529	-200.000	0.033	-0.253
-699.514	286.070	0.090	-0.163
-698.499	-200.000	0.022	0.559
-697.485	707.619	-0.115	-0.303
-696.470	229.207	0.083	0.136
-695.456	237.095	0.038	-0.062
-694.441	136.262	-0.111	-0.145
-693.426	-160.767	0.030	-0.002
-692.412	-200.000	-0.012	-0.083
-691.397	5.166	-0.266	-0.196
-690.383	141.062	-0.168	0.223
-689.368	-200.000	0.001	0.075
-688.354	38.876	0.052	-0.046
-687.339	238.793	-0.173	-0.288
-686.324	-73.980	0.020	0.007
-685.310	-110.708	-0.188	-0.039
-684.295	-84.711	-0.189	-0.060
-683.281	-200.000	-0.044	0.202
-682.266	800.000	-0.024	0.103
-681.251	204.044	-0.249	0.387
-680.237	-91.473	0.179	-0.051
-679.222	-20.229	0.256	-0.158
-678.208	-53.613	-0.245	0.112
-677.193	164.132	0.011	-0.015
-676.178	-75.714	-0.461	-0.164
-675.164	-136.972	0.072	-0.008
-674.149	-200.000	0.008	-0.138
-673.135	-140.894	-0.278	-0.029
-672.120	89.981	-0.082	-0.092
-671.105	-68.515	-0.096	0.037
-670.091	66.368	-0.199	0.203
-669.076	-200.000	0.016	0.101
-668.062	-148.068	-0.218	0.018
-667.047	-62.999	0.373	0.154
-666.032	-85.608	-0.201	0.063
-665.018	-200.000	-0.026	0.256
-664.003	150.201	0.136	0.185
-662.989	-87.960	-0.218	-0.066
-661.974	0.354	0.210	-0.150
-660.959	-91.279	0.133	0.038
-659.945	370.286	0.123	-0.249
-658.930	800.000	-0.055	0.235
-657.916	-200.000	-0.009	0.274
-656.901	57.349	-0.101	-0.098
-655.886	-86.077	-0.205	-0.063
-654.872	-147.319	0.177	0.015
-653.857	-30.721	0.215	-0.122
-652.843	108.756	-0.187	-0.224
-651.828	-163.447	-0.128	-0.006
-650.814	-12.084	-0.171	-0.112
-649.799	-133.945	0.028	-0.003
-648.784	-32.834	-0.081	0.045
-647.770	171.192	-0.193	0.277
-646.755	277.836	0.034	0.061
-645.741	-54.271	-0.112	-0.051
-644.726	-200.000	-0.019	-0.107
-643.711	-106.198	-0.382	-0.086
-642.697	-200.000	0.010	-0.126
-641.682	-0.412	-0.304	-0.216
-640.668	30.046	0.276	-0.236
-639.653	30.652	0.205	-0.175
-638.638	72.131	-0.143	0.149
-637.624	-200.000	-0.021	-0.123
-636.609	-171.700	-0.271	0.009
-635.595	306.297	-0.009	-0.017
-634.580	92.017	-0.103	-0.116
-633.565	-43.745	0.334	0.168
-632.551	34.646	-0.089	-0.078
-631.536	-45.780	-0.310	0.153
-630.522	73.948	-0.260	0.273
-629.507	478.742	0.025	0.057
-628.492	110.721	-0.208	-0.250
-627.478	195.549	-0.134	0.204
-626.463	-90.537	-0.207	-0.060
-625.449	-73.454	-0.066	0.024
-624.434	800.000	-0.064	-0.202
-623.419	170.760	-0.127	-0.182
-622.405	-194.700	0.400	0.003
-621.390	472.905	0.020	-0.046
-620.376	-24.843	0.090	-0.053
-619.361	29.662	0.302	-0.257
-618.346	-133.024	-0.250	-0.032
-617.332	9.287	0.354	-0.267
-616.317	-9.702	-0.129	0.086
-615.303	-129.353	0.306	0.042
-614.288	-47.733	-0.394	0.191
-613.273	122.019	0.278	0.347
-612.259	668.926	-0.126	0.325
-611.244	-68.158	-0.235	-0.092
-610.230	800.000	-0.073	-0.254
-609.215	114.837	-0.047	-0.057
-608.201	-93.290	-0.072	-0.020
-607.186	-200.000	0.005	-0.195
-606.171	-74.359	0.280	0.101
-605.157	161.173	0.171	-0.239
-604.142	-127.051	-0.566	-0.083
-603.128	-89.833	-0.269	-0.079
-602.113	-118.099	-0.252	-0.045
-601.098	-200.000	0.056	-0.305
-600.084	201.871	-0.067	-0.104
-599.069	-107.549	0.356	-0.078
-598.055	731.738	0.102	-0.272
-597.040	-94.342	-0.270	-0.074
-596.025	800.000	0.103	-0.286
-595.011	-200.000	-0.002	0.217
-593.996	-63.482	-0.131	-0.054
-592.982	144.395	-0.076	-0.101
-591.967	-200.000	-0.003	0.264
-590.952	-198.380	0.309	0.002
-589.938	-200.000	-0.001	-0.272
-588.923	-96.337	0.312	0.082
-587.909	291.564	-0.158	0.288
-586.894	429.104	0.054	-0.117
-585.879	-15.058	-0.221	0.142
-584.865	-74.165	-0.258	0.093
-583.850	161.960	-0.115	0.161
-582.836	-29.072	-0.108	0.062
-581.821	102.303	-0.031	-0.036
-580.806	-200.000	0.008	-0.176
-579.792	800.000	0.076	-0.214
-578.777	-200.000	0.079	-0.389
-577.763	-200.000	0.037	0.235
-576.748	-200.000	0.038	0.321
-575.733	-123.877	-0.357	0.056
-574.719	17.662	-0.248	0.197
-573.704	-9.541	-0.134	0.089
-572.690	800.000	-0.091	0.269
-571.675	425.651	0.029	-0.063
-570.661	800.000	-0.036	0.157
-569.646	800.000	0.037	0.103
-568.631	-121.505	0.244	0.040
-567.617	408.573	0.032	0.067
-566.602	-160.485	-0.339	-0.018
-565.588	52.278	-0.068	-0.065
-564.573	-107.002	-0.079	0.017
-563.558	-124.125	-0.126	-0.020
-562.544	-118.731	-0.181	0.032
-561.529	-200.000	-0.005	-0.068
-560.515	-200.000	-0.019	0.280
-559.500	155.154	-0.055	-0.075
-558.485	57.150	-0.056	0.055
-557.471	-200.000	0.018	0.201
-556.456	-38.507	0.176	-0.093
-555.442	-96.345	-0.227	-0.060
-554.427	800.000	-0.076	0.231
-553.412	-16.598	-0.288	-0.182
-552.398	800.000	-0.067	-0.232
-551.383	436.952	-0.090	0.197
-550.369	-20.356	-0.026	0.016
-549.354	-136.772	-0.207	-0.024
-548.339	-168.812	-0.269	-0.010
-547.325	-115.029	-0.175	0.033
-546.310	152.937	0.188	0.257
-545.296	479.759	0.146	0.331
-544.281	-8.047	-0.308	0.207
-543.266	-142.976	0.081	-0.008
-542.252	-200.000	-0.024	-0.138
-541.237	93.297	0.057	-0.065
-540.223	28.508	0.124	0.105
-539.208	-200.000	0.008	-0.181
-538.193	357.215	-0.146	0.290
-537.179	143.356	-0.122	-0.162
-536.164	193.481	0.040	0.060
-535.150	800.000	0.038	0.139
-534.135	14.211	0.291	0.226
-533.121	157.278	-0.182	-0.250
-532.106	-200.000	-0.003	-0.392
-531.091	128.781	-0.081	-0.102
-530.077	-15.008	0.111	-0.071
-529.062	163.116	0.153	-0.214
-528.048	31.535	-0.105	0.090
-527.033	-200.000	-0.046	0.248
-526.018	101.898	-0.275	-0.320
-525.004	77.184	0.130	-0.137
-523.989	368.034	0.104	-0.209
-522.975	151.245	0.084	0.114
-521.960	-88.721	-0.125	-0.037
-520.945	-200.000	-0.007	-0.115
-519.931	-200.000	0.026	-0.190
-518.916	800.000	-0.031	0.100
-517.902	-152.013	-0.422	0.031
-516.887	148.264	0.120	0.161
-515.872	-25.077	-0.152	0.090
-514.858	-200.000	0.019	-0.248
-513.843	-119.716	-0.191	-0.033
-512.829	-65.033	-0.430	-0.173
-511.814	37.965	0.041	0.036
-510.799	800.000	-0.083	0.229
-509.785	-200.000	0.004	-0.089
-508.770	309.211	-0.066	-0.124
-507.756	400.790	-0.064	0.134
-506.741	55.691	-0.221	0.213
-505.726	-78.129	-0.458	0.157
-504.712	-34.244	0.168	-0.092
-503.697	269.198	0.158	-0.275
-502.683	152.477	-0.190	0.258
-501.668	44.917	0.091	-0.084
-500.653	-200.000	-0.023	0.332
-499.639	-17.749	-0.176	-0.110
-498.624	768.539	-0.085	-0.230
-497.610	73.246	-0.193	-0.201
-496.595	266.372	0.146	0.253
-495.581	75.590	-0.081	-0.086
-494.566	-37.611	0.122	0.065
-493.551	-54.181	-0.229	-0.104
-492.537	88.524	0.095	-0.105
-491.522	-66.068	0.292	-0.116
-490.508	-91.783	-0.183	0.052
-489.493	422.958	0.107	0.230
-488.478	-200.000	0.029	-0.186
-487.464	774.851	0.099	-0.268
-486.449	-102.797	0.226	-0.054
-485.435	60.730	0.037	-0.037
-484.420	-200.000	-0.014	0.164
-483.405	108.736	0.143	-0.170
-482.391	37.867	0.275	-0.243
-481.376	-200.000	-0.056	0.379
-480.362	-200.000	-0.022	0.189
-479.347	167.848	0.042	-0.060
-478.332	-135.642	0.272	0.032
-477.318	-19.235	0.312	0.192
-476.303	-159.371	-0.430	-0.024
-475.289	424.163	-0.173	0.369
-474.274	-193.313	0.122	0.001
-473.259	0.668	-0.190	-0.135
-472.245	55.268	0.187	-0.179
-471.230	729.681	-0.057	-0.152
-470.216	-71.327	0.345	0.128
-469.201	505.690	0.120	0.277
-468.186	800.000	-0.103	0.307
-467.172	41.895	-0.212	-0.191
-466.157	-200.000	0.006	0.139
-465.143	423.638	0.042	0.090
-464.128	-200.000	0.037	0.343
-463.113	385.842	-0.043	-0.087
-462.099	-154.706	-0.259	0.017
-461.084	552.087	-0.067	0.161
-460.070	-145.686	0.075	-0.007
-459.055	146.065	0.281	0.374
-458.040	800.000	-0.045	-0.133
-457.026	383.511	-0.092	-0.188
-456.011	89.831	-0.166	0.184
-454.997	-31.150	-0.202	-0.113
-453.982	304.025	0.051	-0.095
-452.968	-200.000	0.052	-0.329
-451.953	142.819	0.058	0.076
-450.938	-200.000	-0.011	-0.233
-449.924	-65.917	0.275	0.109
-448.909	51.195	-0.129	0.122
-447.895	131.527	0.028	0.035
-446.880	262.711	0.088	-0.152
-445.865	-200.000	0.055	-0.255
-444.851	60.774	0.233	0.230
-443.836	76.891	0.097	-0.102
-442.822	-196.598	-0.068	-0.000
-441.807	124.144	-0.138	-0.173
-440.792	-200.000	-0.237	-0.001
-439.778	-119.693	0.161	0.028
-438.763	243.296	-0.084	0.140
-437.749	132.654	0.243	0.312
-436.734	145.990	0.010	-0.014
-435.719	-74.661	0.033	-0.012
-434.705	75.927	0.079	-0.083
-433.690	619.548	-0.085	0.213
-432.676	530.519	-0.091	0.214
-431.661	-71.793	0.155	0.057
-430.646	-26.828	-0.133	0.077
-429.632	703.067	-0.084	-0.219
-428.617	-81.902	0.145	-0.047
-427.603	-195.471	0.368	0.003
-426.588	-33.305	0.194	0.106
-425.573	-72.400	0.251	-0.092
-424.559	152.518	0.086	0.116
-423.544	-200.000	-0.015	-0.126
-422.530	-200.000	0.015	-0.077
-421.515	800.000	0.019	0.076
-420.500	-93.525	0.301	-0.083
-419.486	-163.694	-0.118	0.006
-418.471	-200.000	0.052	0.366
-417.457	120.619	0.180	-0.221
-416.442	-200.000	-0.004	-0.178
-415.428	-200.000	0.030	-0.305
-414.413	-67.438	0.248	0.096
-413.398	800.000	-0.026	0.090
-412.384	-45.556	-0.185	0.091
-411.369	-200.000	-0.047	-0.311
-410.355	178.218	-0.013	-0.018
-409.340	168.227	-0.138	-0.195
-408.325	-200.000	-0.013	-0.193
-407.311	-200.000	0.019	-0.463
-406.296	69.769	0.131	0.134
-405.282	-200.000	0.005	0.419
-404.267	-79.893	0.259	0.086
-403.252	-54.776	0.196	-0.088
-402.238	264.077	0.073	0.127
-401.223	-116.894	-0.184	0.033
-400.209	-16.786	0.210	-0.132
-399.194	-129.945	0.123	0.017
-398.179	4.527	-0.104	-0.075
-397.165	149.830	0.082	-0.110
-396.150	-200.000	0.064	0.000
-395.136	-141.066	-0.201	0.020
-394.121	-151.104	-0.207	0.015
-393.106	-200.000	-0.035	0.325
-392.092	-30.888	-0.093	0.052
-391.077	800.000	0.142	-0.422
-390.063	-24.478	0.064	0.038
-389.048	40.686	-0.116	-0.103
-388.033	48.224	-0.361	-0.335
-387.019	-64.502	-0.136	-0.055
-386.004	-95.276	0.134	0.036
-384.990	-101.515	0.165	0.040
-383.975	-76.102	0.420	-0.147
-382.960	-200.000	0.000	0.083
-381.946	800.000	-0.058	0.188
-380.931	-183.667	0.247	0.004
-379.917	-20.843	-0.055	-0.034
-378.902	-200.000	0.025	0.122
-377.888	-200.000	0.079	0.366
-376.873	800.000	0.071	0.205
-375.858	264.833	-0.115	-0.199
-374.844	-169.008	0.229	0.008
-373.829	-14.779	-0.143	-0.091
-372.815	-83.826	-0.077	0.024
-371.800	30.067	0.169	-0.142
-370.785	130.771	-0.093	0.118
-369.771	34.907	0.104	0.090
-368.756	-200.000	0.054	0.265
-367.742	467.198	0.073	-0.162
-366.727	225.092	0.259	0.414
-365.712	35.164	-0.108	0.094
-364.698	-35.407	-0.250	-0.135
-363.683	-195.530	-0.163	0.001
-362.669	85.852	-0.079	0.086
-361.654	303.935	-0.087	0.160
-360.639	-65.641	0.329	0.131
-359.625	213.571	0.206	-0.323
-358.610	800.000	-0.062	-0.266
-357.596	-35.600	-0.260	-0.139
-356.581	800.000	0.019	0.061
-355.566	-147.413	0.168	0.014
-354.552	160.278	-0.160	0.221
-353.537	-0.210	-0.231	-0.162
-352.523	-162.522	0.112	-0.005
-351.508	-79.327	0.223	-0.075
-350.493	21.723	-0.155	-0.124
-349.479	378.887	0.010	0.020
-348.464	-85.111	0.363	-0.112
-347.450	23.703	0.034	-0.028
-346.435	57.902	-0.150	-0.145
-345.420	-60.957	-0.318	0.133
-344.406	-200.000	-0.046	0.210
-343.391	382.588	0.053	0.107
-342.377	-34.312	-0.209	0.114
-341.362	-90.031	-0.038	-0.011
-340.348	-128.276	-0.307	-0.043
-339.333	-200.000	0.041	0.201
-338.318	800.000	-0.052	0.159
-337.304	274.959	-0.036	-0.064
-336.289	67.201	-0.030	-0.031
-335.275	-82.491	0.511	0.164
-334.260	-26.876	0.097	0.056
-333.245	-79.630	0.125	0.042
-332.231	-110.570	0.157	-0.032
-331.216	-24.707	0.176	0.104
-330.202	177.503	0.174	0.251
-329.187	-200.000	0.013	-0.180
-328.172	28.133	-0.132	-0.110
-327.158	64.034	0.113	-0.112
-326.143	536.953	0.086	-0.202
-325.129	-2.116	-0.349	-0.242
-324.114	-200.000	-0.037	0.276
-323.099	402.044	0.142	0.294
-322.085	800.000	0.081	-0.237
-321.070	-74.685	0.272	-0.097
-320.056	-154.912	0.210	-0.014
-319.041	-106.274	-0.321	-0.071
-318.026	27.805	0.271	-0.225
-317.012	149.743	0.129	0.172
-315.997	-57.670	-0.258	0.112
-314.983	5.049	0.392	-0.285
-313.968	-200.000	-0.010	0.090
-312.953	-200.000	0.006	0.063
-311.939	-12.091	0.236	-0.153
-310.924	-72.638	-0.128	-0.046
-309.910	800.000	0.061	-0.229
-308.895	-54.092	-0.301	-0.135
-307.880	171.852	-0.145	0.205
-306.866	-89.966	-0.153	0.044
-305.851	75.277	0.101	-0.105
-304.837	384.988	0.112	-0.228
-303.822	46.156	-0.193	-0.177
-302.807	-98.935	0.123	0.031
-301.793	-152.038	0.046	0.003
-300.778	-87.216	-0.106	-0.032
-299.764	794.821	-0.090	0.246
-298.749	-200.000	0.035	0.192
-297.735	-104.872	0.054	0.012
-296.720	-99.695	-0.298	-0.074
-295.705	800.000	0.112	0.429
-294.691	-134.929	-0.219	0.026
-293.676	274.365	-0.014	0.025
-292.662	-116.278	-0.216	0.040
-291.647	-44.165	0.108	-0.053
-290.632	454.632	-0.121	-0.263
-289.618	303.758	-0.052	-0.095
-288.603	91.604	-0.033	0.037
-287.589	7.643	0.321	-0.237
-286.574	-200.000	0.025	0.242
-285.559	-200.000	0.030	0.273
-284.545	119.098	-0.120	0.146
-283.530	-37.555	0.238	0.125
-282.516	606.072	-0.030	0.074
-281.501	-127.384	0.030	0.004
-280.486	-200.000	-0.031	-0.143
-279.472	-96.961	0.060	-0.015
-278.457	55.302	0.344	-0.328
-277.443	63.222	-0.082	-0.081
-276.428	-200.000	0.040	0.337
-275.413	98.919	0.163	-0.185
-274.399	-143.499	-0.232	-0.022
-273.384	-144.976	0.224	-0.020
-272.370	166.318	-0.104	0.145
-271.355	-191.039	-0.389	-0.004
-270.340	-200.000	0.077	0.351
-269.326	800.000	-0.112	0.324
-268.311	-155.774	-0.285	0.018
-267.297	-42.619	0.172	0.086
-266.282	-4.130	0.139	-0.095
-265.267	800.000	-0.043	0.137
-264.253	-79.680	0.229	0.076
-263.238	296.860	0.050	-0.091
-262.224	19.075	0.161	-0.128
-261.209	-200.000	-0.049	0.242
-260.195	-103.883	0.163	0.038
-259.180	-157.970	0.156	0.009
-258.165	-55.752	-0.042	0.018
-257.151	281.373	0.185	-0.326
-256.136	191.078	0.073	0.109
-255.122	13.852	-0.077	-0.059
-254.107	-200.000	0.035	-0.362
-253.092	86.955	0.067	-0.073
-252.078	-120.403	0.119	-0.020
-251.063	84.839	0.264	0.285
-250.049	-61.440	0.055	0.023
-249.034	-200.000	0.051	-0.250
-248.019	5.904	-0.155	-0.113
-247.005	42.512	0.148	0.133
-245.990	-68.343	-0.169	-0.065
-244.976	-200.000	-0.018	0.193
-243.961	-103.406	-0.413	-0.096
-242.946	492.086	0.111	-0.251
-241.932	-128.222	-0.177	0.025
-240.917	67.803	0.116	0.117
-239.903	-26.003	0.338	0.196
-238.888	800.000	0.055	0.154
-237.873	-147.634	0.118	-0.010
-236.859	-109.085	0.648	0.136
-235.844	-149.435	0.165	-0.013
-234.830	-25.136	-0.329	-0.192
-233.815	-121.560	0.098	0.016
-232.800	-200.000	0.027	-0.188
-231.786	-200.000	-0.010	-0.425
-230.771	-118.203	0.156	0.027
-229.757	106.367	0.130	-0.152
-228.742	-200.000	-0.007	-0.216
-227.727	800.000	-0.115	0.323
-226.713	-94.708	-0.133	-0.036
-225.698	75.520	0.073	0.076
-224.684	278.096	0.109	0.191
-223.669	27.094	-0.200	-0.165
-222.655	-140.252	-0.249	-0.026
-221.640	7.031	-0.098	-0.072
-220.625	-131.438	0.138	-0.018
-219.611	-200.000	-0.003	0.162
-218.596	238.504	-0.097	-0.159
-217.582	-90.263	-0.278	0.080
-216.567	-49.326	0.177	0.083
-215.552	-22.820	-0.162	0.096
-214.538	-60.789	0.277	0.115
-213.523	-80.208	0.133	0.044
-212.509	-200.000	0.029	0.165
-211.494	3.885	-0.154	0.111
-210.479	-200.000	0.003	-0.328
-209.465	48.228	0.203	0.186
-208.450	176.897	0.147	-0.210
-207.436	-108.709	0.612	0.129
-206.421	169.569	-0.184	-0.259
-205.406	392.173	0.090	-0.184
-204.392	-97.469	-0.145	0.037
-203.377	-127.200	0.310	0.045
-202.363	-158.717	0.150	-0.008
-201.348	332.961	0.158	0.301
-200.333	-156.694	0.383	-0.023
-199.319	-58.961	-0.294	0.125
-198.304	428.308	-0.067	-0.141
-197.290	-37.705	0.180	0.094
-196.275	164.664	-0.023	0.031
-195.260	-70.429	-0.170	0.063
-194.246	-102.912	0.179	-0.042
-193.231	-56.141	0.149	0.065
-192.217	-200.000	0.001	0.135
-191.202	86.390	0.186	-0.201
-190.187	489.885	-0.153	-0.343
-189.173	-200.000	-0.007	0.109
-188.158	800.000	0.082	-0.320
-187.144	-200.000	0.062	-0.343
-186.129	-72.603	-0.338	-0.123
-185.114	-87.361	0.219	0.065
-184.100	-105.783	-0.330	-0.073
-183.085	-200.000	-0.043	0.237
-182.071	570.732	-0.080	0.191
-181.056	-200.000	-0.049	0.297
-180.042	402.067	0.089	0.183
-179.027	-200.000	-0.025	0.194
-178.012	173.818	0.165	0.234
-176.998	800.000	-0.046	-0.127
-175.983	-71.546	-0.275	-0.101
-174.969	176.692	-0.075	0.107
-173.954	-49.532	-0.147	-0.069
-172.939	630.183	-0.033	-0.081
-171.925	36.850	-0.085	-0.074
-170.910	-200.000	-0.198	0.001
-169.896	800.000	-0.020	0.076
-168.881	189.167	0.144	-0.212
-167.866	111.697	-0.092	0.109
-166.852	140.399	-0.011	0.015
-165.837	-124.914	0.279	-0.042
-164.823	-69.234	0.125	0.047
-163.808	-200.000	-0.052	0.390
-162.793	190.584	0.067	0.099
-161.779	498.220	-0.042	0.095
-160.764	-59.692	-0.089	-0.038
-159.750	-17.613	-0.187	0.115
-158.735	-63.799	0.363	0.146
-157.720	-200.000	0.017	-0.317
-156.706	-200.000	0.014	-0.103
-155.691	137.974	0.180	-0.232
-154.677	-200.000	0.036	-0.318
-153.662	-117.471	0.179	-0.032
-152.647	416.677	-0.055	-0.116
-151.633	31.907	-0.274	0.232
-150.618	-19.127	-0.135	-0.082
-149.604	-31.444	0.443	0.244
-148.589	-200.000	-0.025	0.352
-147.574	107.336	0.224	0.261
-146.560	418.002	-0.014	-0.030
-145.545	-20.881	0.094	0.057
-144.531	61.555	-0.033	-0.032
-143.516	-6.130	-0.255	0.171
-142.502	-103.112	0.242	0.056
-141.487	193.674	0.054	0.081
-140.472	-8.263	-0.131	0.086
-139.458	-200.000	-0.085	-0.411
-138.443	-26.383	-0.226	0.130
-137.429	800.000	-0.028	-0.092
-136.414	317.955	0.023	0.043
-135.399	-200.000	0.017	0.237
-134.385	121.126	-0.284	0.347
-133.370	-136.355	-0.311	0.036
-132.356	240.590	-0.191	-0.313
-131.341	-200.000	-0.014	0.202
-130.326	800.000	0.095	-0.270
-129.312	82.388	-0.103	-0.110
-128.297	-8.106	0.104	0.068
-127.283	-169.040	-0.374	0.014
-126.268	-200.000	-0.001	-0.043
-125.253	-5.696	-0.248	-0.167
-124.239	80.957	0.078	-0.082
-123.224	-200.000	0.027	0.399
-122.210	800.000	-0.106	0.314
