DTS Sentinel unit serial number:	SN413079Multiplexer serial number:	ORYXHardware model number:	OX4-SRSoftware version number:	ORYX F/W v4.00 Oryx Data Collector v3.7.2.0data status	okinstallation	princeton_trtdifferential loss correction	single-endedforward channel	channel 1reverse channel	N/Adate	2019/09/12time	19:12:34forward acquisition time	15.00reverse acquisition time	0.00gamma	496.2192k internal	0.2320k external	0.2320temperature offset calibration	1.0130default loss term (dB/km)	0.3790temperature slope calibration	1.0000multiplexer offset coefficient	1.0000multiplexer slope coefficient	1.0000fibre end	0.00T internal ref (°C)	32.56T ext. ref 1 (°C)	3.25T ext. ref 2 (°C)	27.18length (m)	temperature (°C)	Stokes	anti-Stokes-747.200	165.291	0.316	-0.452
-746.185	-77.482	0.553	0.194
-745.171	-65.599	1.032	-0.419
-744.156	53.864	0.160	0.156
-743.142	-10.324	0.337	0.226
-742.127	358.367	-0.075	0.152
-741.112	195.128	0.247	0.379
-740.098	24.383	0.238	-0.199
-739.083	-200.000	0.106	-0.488
-738.069	-126.343	0.328	0.049
-737.054	-106.303	-0.102	-0.023
-736.039	163.596	-0.215	0.305
-735.025	-56.029	-0.696	-0.313
-734.010	359.173	-0.103	-0.209
-732.996	-148.572	-0.658	0.054
-731.981	-96.017	0.327	0.088
-730.966	-134.805	-0.703	-0.086
-729.952	800.000	0.077	0.263
-728.937	231.711	-0.450	-0.745
-727.923	81.630	0.195	0.213
-726.908	-200.000	-0.070	0.476
-725.894	185.991	0.254	0.381
-724.879	-200.000	-0.047	0.859
-723.864	-87.723	-0.687	0.209
-722.850	244.898	0.136	-0.231
-721.835	-140.406	0.402	0.042
-720.821	-200.000	-0.063	0.475
-719.806	90.834	-0.493	0.558
-718.791	734.219	0.147	0.397
-717.777	-200.000	0.034	-0.154
-716.762	-200.000	-0.083	0.685
-715.748	-200.000	-0.012	-0.255
-714.733	58.416	0.567	-0.562
-713.718	800.000	-0.158	0.618
-712.704	739.141	0.227	0.616
-711.689	-111.436	-0.515	-0.106
-710.675	18.035	0.604	-0.486
-709.660	158.412	0.214	0.299
-708.645	-200.000	0.060	-0.546
-707.631	-128.967	0.558	-0.079
-706.616	-133.024	0.342	-0.044
-705.602	174.355	-0.063	0.093
-704.587	2.872	0.624	0.458
-703.572	11.479	-0.385	0.298
-702.558	-168.649	0.402	0.015
-701.543	-180.294	-0.381	0.008
-700.529	76.179	-0.251	0.268
-699.514	-200.000	-0.166	0.755
-698.499	181.915	0.218	-0.324
-697.485	244.191	-0.231	0.391
-696.470	154.364	-0.283	0.392
-695.456	-162.366	-0.267	0.013
-694.441	-132.993	-0.099	-0.013
-693.426	-23.922	0.103	0.062
-692.412	437.050	0.108	0.237
-691.397	800.000	-0.231	-0.932
-690.383	102.501	-0.204	-0.241
-689.368	-200.000	-0.044	-0.543
-688.354	-137.408	0.501	0.057
-687.339	296.136	-0.313	-0.579
-686.324	-167.700	0.529	-0.021
-685.310	232.922	-0.279	0.462
-684.295	-200.000	-0.016	-1.096
-683.281	-101.710	0.650	0.159
-682.266	17.797	-0.173	-0.139
-681.251	-200.000	0.039	0.584
-680.237	-127.613	-0.685	0.100
-679.222	-117.752	-0.518	-0.094
-678.208	-133.532	-1.283	-0.162
-677.193	527.442	-0.062	-0.147
-676.178	800.000	-0.136	-0.564
-675.164	54.711	0.416	-0.405
-674.149	-200.000	0.116	0.530
-673.135	-1.665	-0.498	-0.354
-672.120	459.337	-0.454	-1.019
-671.105	-144.335	-1.271	0.119
-670.091	17.306	0.960	-0.768
-669.076	-200.000	0.049	0.492
-668.062	-9.849	0.271	-0.182
-667.047	-200.000	-0.094	0.418
-666.032	-169.382	-0.455	0.017
-665.018	14.825	-0.452	0.356
-664.003	-103.464	0.309	-0.073
-662.989	-151.697	-0.430	-0.032
-661.974	-200.000	-0.102	-1.138
-660.959	72.519	-0.195	-0.205
-659.945	-104.391	-0.279	0.065
-658.930	-30.767	-0.389	-0.222
-657.916	207.164	-0.144	-0.227
-656.901	-57.804	0.307	0.136
-655.886	-150.653	0.193	-0.015
-654.872	430.954	0.216	-0.470
-653.857	-77.404	-0.974	-0.341
-652.843	-16.543	-0.398	0.254
-651.828	101.313	-0.422	-0.495
-650.814	123.870	-0.499	0.631
-649.799	248.323	-0.377	-0.642
-648.784	205.899	-0.377	0.591
-647.770	-38.948	-0.338	0.179
-646.755	314.677	-0.309	0.587
-645.741	-167.084	0.450	-0.018
-644.726	143.049	-0.201	0.269
-643.711	-99.605	-0.811	-0.205
-642.697	-105.978	-0.344	0.078
-641.682	-17.076	0.290	0.184
-640.668	-200.000	0.001	0.244
-639.653	393.498	-0.087	0.183
-638.638	52.726	-0.326	-0.314
-637.624	83.458	-0.904	-0.992
-636.609	-150.686	-0.357	-0.027
-635.595	513.810	0.375	0.880
-634.580	576.566	0.318	-0.781
-633.565	-163.638	0.218	-0.010
-632.551	-117.144	-0.748	0.137
-631.536	51.128	0.196	-0.187
-630.522	800.000	0.178	0.559
-629.507	149.939	-0.602	0.822
-628.492	-199.611	0.892	-0.005
-627.478	-16.471	-0.052	0.033
-626.463	586.636	0.296	-0.734
-625.449	-200.000	-0.011	-0.214
-624.434	-200.000	-0.013	0.322
-623.419	-200.000	0.090	-1.879
-622.405	-143.643	-0.360	-0.034
-621.390	800.000	0.222	-0.794
-620.376	-100.433	-0.793	0.198
-619.361	114.478	-0.247	-0.303
-618.346	326.263	-0.300	-0.578
-617.332	86.475	-0.232	-0.258
-616.317	-125.455	-0.420	0.064
-615.303	23.138	0.176	-0.145
-614.288	-51.434	0.730	0.343
-613.273	-71.517	-0.754	-0.284
-612.259	499.266	-0.382	-0.885
-611.244	-68.660	-0.601	-0.234
-610.230	800.000	-0.088	-0.254
-609.215	-200.000	0.086	0.561
-608.201	757.364	-0.140	0.381
-607.186	800.000	0.048	-0.177
-606.171	800.000	-0.076	0.232
-605.157	-148.702	0.958	0.078
-604.142	-200.000	0.131	0.743
-603.128	213.359	-0.125	0.198
-602.113	-123.448	-0.899	-0.144
-601.098	588.865	0.146	-0.361
-600.084	366.950	-0.246	-0.499
-599.069	-132.038	-0.795	-0.104
-598.055	-153.240	0.511	-0.036
-597.040	-33.233	0.356	-0.199
-596.025	-200.000	-0.044	-0.360
-595.011	800.000	0.188	0.536
-593.996	800.000	-0.097	0.347
-592.982	49.267	-0.296	-0.280
-591.967	-97.357	0.294	0.077
-590.952	156.383	-0.368	0.511
-589.938	124.414	-0.401	-0.506
-588.923	800.000	-0.084	0.309
-587.909	194.203	-0.030	-0.045
-586.894	-108.230	0.517	-0.112
-585.879	-15.555	0.510	-0.327
-584.865	-149.268	-0.590	-0.047
-583.850	-38.002	-0.162	-0.087
-582.836	-40.304	0.208	-0.109
-581.821	800.000	-0.141	-0.609
-580.806	-25.453	-0.246	-0.146
-579.792	231.538	-0.245	0.404
-578.777	-200.000	0.005	-0.454
-577.763	-8.227	-0.452	0.306
-576.748	384.800	-0.073	0.152
-575.733	44.948	0.212	0.196
-574.719	-146.150	-0.404	0.036
-573.704	800.000	-0.325	0.933
-572.690	-25.927	-0.300	0.177
-571.675	303.539	0.257	0.479
-570.661	-200.000	-0.020	-0.399
-569.646	-107.969	-0.123	-0.027
-568.631	20.259	0.717	0.582
-567.617	-93.707	0.660	0.183
-566.602	800.000	0.218	-0.783
-565.588	-200.000	-0.057	-0.422
-564.573	46.223	-0.388	0.361
-563.558	-143.668	0.026	0.002
-562.544	800.000	-0.085	-0.258
-561.529	-45.660	-0.516	0.256
-560.515	-128.362	0.783	0.112
-559.500	800.000	0.281	-0.906
-558.485	-200.000	-0.076	-0.471
-557.471	326.801	0.415	0.799
-556.456	-200.000	0.076	0.647
-555.442	-89.480	0.771	0.228
-554.427	281.442	-0.153	-0.276
-553.412	123.478	-0.160	-0.202
-552.398	-11.788	0.639	0.421
-551.383	-200.000	0.052	0.335
-550.369	-200.000	0.231	1.058
-549.354	88.679	0.207	-0.231
-548.339	-200.000	-0.123	0.666
-547.325	800.000	0.235	-0.733
-546.310	447.143	0.039	-0.085
-545.296	469.432	-0.241	0.544
-544.281	16.396	-0.302	-0.239
-543.266	-96.504	-0.517	-0.137
-542.252	450.096	0.195	-0.431
-541.237	-140.047	-0.213	0.022
-540.223	-192.580	0.390	0.004
-539.208	15.110	-0.886	-0.696
-538.193	467.020	-0.336	-0.755
-537.179	-200.000	-0.090	-0.554
-536.164	758.322	0.109	-0.296
-535.150	-65.849	-0.345	0.138
-534.135	32.552	-0.578	-0.501
-533.121	-142.866	-0.563	-0.055
-532.106	52.373	-0.837	0.801
-531.091	58.229	0.509	-0.500
-530.077	121.410	-0.148	0.185
-529.062	-50.584	0.656	0.310
-528.048	18.740	-0.175	-0.141
-527.033	269.349	-0.325	-0.572
-526.018	-194.629	-0.594	-0.005
-525.004	-30.555	0.344	0.196
-523.989	-17.015	0.210	-0.133
-522.975	49.544	0.107	0.101
-521.960	-186.212	-0.295	0.004
-520.945	36.175	0.832	-0.735
-519.931	-99.671	0.387	0.097
-518.916	66.921	0.585	0.598
-517.902	112.544	-0.309	-0.375
-516.887	800.000	-0.251	0.752
-515.872	291.061	0.649	1.182
-514.858	8.553	-0.491	0.371
-513.843	-129.872	-0.494	-0.068
-512.829	-187.556	0.762	0.010
-511.814	800.000	-0.166	0.718
-510.799	31.556	0.595	-0.513
-509.785	476.326	0.201	-0.455
-508.770	-200.000	0.074	0.696
-507.756	-38.085	-0.761	-0.405
-506.741	800.000	-0.114	-0.373
-505.726	-200.000	-0.020	0.492
-504.712	-200.000	-0.146	-0.745
-503.697	-135.731	-0.505	-0.060
-502.683	-116.289	0.562	-0.104
-501.668	37.737	-0.338	-0.301
-500.653	-200.000	-0.004	0.129
-499.639	-200.000	0.087	-0.403
-498.624	-157.301	0.417	-0.025
-497.610	-96.672	-0.267	0.070
-496.595	-131.626	0.542	0.071
-495.581	789.514	-0.183	-0.503
-494.566	-91.568	-0.261	-0.074
-493.551	-59.400	0.316	-0.136
-492.537	800.000	-0.180	-0.572
-491.522	-192.797	-0.836	0.008
-490.508	800.000	0.104	0.377
-489.493	21.163	0.483	0.393
-488.478	-172.520	-0.637	-0.020
-487.464	-8.346	0.408	-0.275
-486.449	242.645	-0.371	0.622
-485.435	-138.311	-0.192	-0.021
-484.420	219.904	-0.188	-0.302
-483.405	-39.644	0.749	-0.392
-482.391	46.073	0.197	-0.182
-481.376	32.029	0.618	0.533
-480.362	-124.563	-0.333	0.052
-479.347	-88.818	-0.514	0.153
-478.332	-200.000	0.124	-1.071
-477.318	-180.223	0.804	-0.017
-476.303	-74.110	0.496	0.180
-475.289	800.000	-0.335	0.991
-474.274	-98.418	0.584	0.150
-473.259	-54.010	-0.191	0.087
-472.245	588.634	0.271	-0.668
-471.230	-96.518	0.539	0.142
-470.216	7.754	-0.270	-0.202
-469.201	46.764	0.838	0.779
-468.186	-77.208	0.751	0.262
-467.172	27.120	0.426	0.358
-466.157	-63.095	-0.429	0.177
-465.143	-144.181	-0.433	0.041
-464.128	-16.592	-0.369	0.234
-463.113	800.000	0.117	0.480
-462.099	455.678	-0.284	-0.629
-461.084	441.280	-0.290	-0.634
-460.070	-167.586	-0.849	-0.034
-459.055	-22.173	-0.631	-0.383
-458.040	-200.000	-0.006	-0.586
-457.026	392.612	0.336	-0.699
-456.011	-99.873	-0.473	-0.118
-454.997	800.000	0.246	0.778
-453.982	-92.896	-0.773	-0.216
-452.968	-200.000	-0.053	-0.629
-451.953	-0.833	-0.656	-0.465
-450.938	-154.741	0.172	0.011
-449.924	218.968	-0.262	0.418
-448.909	288.016	-0.130	0.236
-447.895	800.000	0.122	-0.474
-446.880	115.172	0.154	0.188
-445.865	-35.360	0.779	-0.424
-444.851	-75.590	0.791	0.281
-443.836	8.394	-0.381	-0.287
-442.822	98.631	0.650	-0.749
-441.807	800.000	-0.137	0.543
-440.792	-86.171	-0.580	-0.179
-439.778	-13.151	0.599	0.389
-438.763	-130.129	0.501	0.068
-437.749	-200.000	-0.007	0.459
-436.734	-200.000	-0.309	0.001
-435.719	-44.098	0.049	0.025
-434.705	-200.000	0.035	0.395
-433.690	200.229	0.228	0.349
-432.676	800.000	-0.305	-0.947
-431.661	-200.000	0.057	0.285
-430.646	494.285	0.427	0.978
-429.632	251.224	-0.132	0.224
-428.617	-200.000	0.140	-0.819
-427.603	-62.680	-0.832	-0.345
-426.588	-63.958	0.857	-0.350
-425.573	-139.330	0.581	0.062
-424.559	-86.364	0.211	-0.065
-423.544	532.750	-0.032	-0.075
-422.530	800.000	-0.112	-0.405
-421.515	183.544	0.204	0.301
-420.500	89.629	0.097	-0.108
-419.486	-80.279	0.465	-0.155
-418.471	137.301	-0.178	-0.233
-417.457	-200.000	0.024	-0.619
-416.442	367.328	-0.117	0.237
-415.428	-103.357	-0.538	0.127
-414.413	-23.891	0.346	0.207
-413.398	-24.328	-0.451	-0.269
-412.384	-63.844	0.290	-0.118
-411.369	97.972	-0.556	0.639
-410.355	-30.757	-0.223	-0.126
-409.340	-42.345	-0.671	0.342
-408.325	465.835	-0.261	-0.583
-407.311	66.177	0.329	0.333
-406.296	129.291	0.546	-0.695
-405.282	23.098	-0.604	-0.495
-404.267	-200.000	0.044	0.391
-403.252	634.847	0.044	0.111
-402.238	-35.891	-0.353	-0.191
-401.223	-120.898	0.373	0.063
-400.209	-139.853	-0.565	0.060
-399.194	214.595	0.445	-0.704
-398.179	3.591	0.552	0.402
-397.165	191.964	-0.258	0.389
-396.150	36.616	0.497	0.437
-395.136	55.946	0.261	-0.252
-394.121	-73.099	0.193	-0.071
-393.106	-4.862	-0.187	-0.129
-392.092	-48.972	0.325	0.155
-391.077	236.137	0.359	-0.592
-390.063	-22.517	0.687	-0.415
-389.048	800.000	-0.098	-0.303
-388.033	-104.562	0.411	0.095
-387.019	-37.370	0.950	0.506
-386.004	254.288	0.466	-0.795
-384.990	-162.743	0.363	-0.018
-383.975	70.750	0.381	0.393
-382.960	-145.777	-0.388	0.034
-381.946	800.000	0.133	-0.412
-380.931	206.072	0.391	0.607
-379.917	-131.910	0.276	0.036
-378.902	737.635	0.226	0.604
-377.888	-65.083	-0.289	-0.116
-376.873	-32.284	0.395	0.220
-375.858	-88.464	0.737	0.219
-374.844	-30.339	-0.917	-0.519
-373.829	55.926	-0.512	-0.495
-372.815	283.214	0.312	-0.559
-371.800	-89.172	-0.697	0.205
-370.785	7.130	0.483	0.359
-369.771	-49.483	0.535	0.254
-368.756	98.920	0.148	0.170
-367.742	-200.000	-0.026	-0.480
-366.727	-24.797	0.433	0.256
-365.712	-200.000	0.140	1.054
-364.698	216.793	-0.497	0.789
-363.683	71.738	0.121	-0.125
-362.669	-200.000	0.015	0.441
-361.654	-105.043	-0.731	0.167
-360.639	31.001	0.246	0.210
-359.625	-46.006	0.257	-0.126
-358.610	51.743	-0.363	0.344
-357.596	-106.224	-0.375	0.084
-356.581	-200.000	0.067	-0.434
-355.566	338.639	0.070	0.136
-354.552	-200.000	-0.050	-0.424
-353.537	-200.000	0.009	0.637
-352.523	-200.000	0.077	1.239
-351.508	-22.624	-0.491	0.296
-350.493	-200.000	0.008	0.335
-349.479	-200.000	0.002	-0.167
-348.464	252.225	0.099	-0.167
-347.450	-200.000	0.039	-0.220
-346.435	45.388	0.608	0.559
-345.420	37.675	0.154	-0.136
-344.406	468.692	0.202	0.452
-343.391	25.729	0.307	0.254
-342.377	489.263	-0.059	0.133
-341.362	100.592	-0.538	-0.622
-340.348	485.572	-0.067	0.153
-339.333	-105.984	0.287	0.064
-338.318	403.408	-0.471	-0.986
-337.304	-72.010	-0.204	-0.075
-336.289	631.601	-0.097	0.245
-335.275	-200.000	-0.088	0.798
-334.260	800.000	-0.208	0.763
-333.245	401.769	-0.251	0.524
-332.231	-103.352	-0.104	0.024
-331.216	-150.789	-0.364	-0.027
-330.202	800.000	0.174	-0.721
-329.187	458.734	0.383	0.848
-328.172	-200.000	-0.102	0.486
-327.158	2.129	0.397	0.285
-326.143	311.218	0.140	0.261
-325.129	-66.482	-0.622	-0.246
-324.114	-81.473	-0.734	-0.240
-323.099	15.403	-0.254	0.198
-322.085	112.128	-0.365	0.438
-321.070	-200.000	0.357	1.742
-320.056	800.000	0.154	-0.548
-319.041	800.000	-0.188	0.645
-318.026	-99.808	-0.541	-0.135
-317.012	19.166	-0.125	-0.100
-315.997	-11.644	0.467	-0.305
-314.983	-13.722	-0.879	-0.566
-313.968	-61.347	0.404	-0.169
-312.953	308.703	0.340	-0.631
-311.939	28.084	-0.757	-0.636
-310.924	159.603	-0.553	0.766
-309.910	-91.647	0.116	0.033
-308.895	486.138	-0.416	0.943
-307.880	29.037	0.548	-0.462
-306.866	79.389	0.511	-0.545
-305.851	-86.965	-0.565	0.171
-304.837	94.631	-0.450	0.509
-303.822	-64.691	0.277	0.111
-302.807	-188.847	-0.006	0.000
-301.793	298.276	0.183	-0.334
-300.778	-200.000	0.091	-0.443
-299.764	-30.936	0.141	0.079
-298.749	-146.113	-0.227	0.020
-297.735	-27.474	-0.253	0.146
-296.720	201.818	-0.029	-0.044
-295.705	-93.806	-0.966	0.264
-294.691	-33.287	0.780	-0.429
-293.676	-200.000	0.078	0.502
-292.662	367.561	-0.328	0.659
-291.647	45.498	0.208	0.191
-290.632	-200.000	0.102	0.475
-289.618	564.254	-0.183	0.440
-288.603	-21.147	0.323	-0.196
-287.589	-1.563	0.361	0.253
-286.574	298.109	0.503	0.919
-285.559	-200.000	-0.050	-0.277
-284.545	-98.544	-0.315	-0.080
-283.530	-72.082	-0.515	0.190
-282.516	-171.361	-0.778	0.026
-281.501	108.603	0.708	0.840
-280.486	-112.719	0.803	0.159
-279.472	51.837	0.876	0.828
-278.457	488.859	-0.166	0.376
-277.443	628.573	0.160	-0.400
-276.428	-132.388	0.747	-0.096
-275.413	-97.928	0.427	-0.109
-274.399	-200.000	0.086	-0.604
-273.384	-19.841	-0.355	0.218
-272.370	-200.000	-0.017	-0.954
-271.355	784.892	-0.213	-0.580
-270.340	-200.000	0.061	0.468
-269.326	-112.426	0.539	0.107
-268.311	195.019	0.204	0.308
-267.297	-95.996	-0.275	-0.073
-266.282	589.649	0.268	-0.655
-265.267	14.125	0.704	-0.544
-264.253	-200.000	-0.032	0.342
-263.238	10.129	-0.521	0.393
-262.224	771.109	0.177	0.478
-261.209	359.153	-0.162	0.322
-260.195	296.408	0.073	0.132
-259.180	-29.363	-0.407	0.231
-258.165	-4.563	-0.217	-0.149
-257.151	-200.000	0.055	-0.383
-256.136	-200.000	-0.020	0.241
-255.122	206.548	-0.121	0.187
-254.107	39.605	-0.486	-0.433
-253.092	-182.198	0.338	0.006
-252.078	800.000	-0.147	0.478
-251.063	255.537	0.299	0.509
-250.049	800.000	0.086	-0.373
-249.034	-17.190	-0.342	0.214
-248.019	-200.000	-0.060	0.415
-247.005	-156.987	0.171	0.010
-245.990	38.377	0.461	0.407
-244.976	25.647	0.148	-0.122
-243.961	-200.000	-0.072	0.888
-242.946	223.328	-0.328	0.524
-241.932	-26.881	1.012	-0.586
-240.917	35.445	0.228	0.199
-239.903	-200.000	-0.127	-1.166
-238.888	107.481	0.240	0.283
-237.873	-165.993	-0.128	0.005
-236.859	105.560	-0.332	-0.389
-235.844	61.329	-0.258	-0.254
-234.830	-106.718	-0.378	-0.083
-233.815	800.000	-0.147	0.563
-232.800	686.806	-0.115	-0.299
-231.786	-167.198	0.156	-0.006
-230.771	38.633	-0.389	-0.344
-229.757	-103.888	-0.764	-0.177
-228.742	-73.418	0.516	0.187
-227.727	274.690	0.132	-0.233
-226.713	281.811	-0.307	-0.545
-225.698	103.425	-0.944	1.098
-224.684	358.130	0.073	-0.144
-223.669	-91.520	0.268	-0.076
-222.655	474.329	0.357	-0.799
-221.640	-38.107	0.629	-0.330
-220.625	-21.735	-0.259	-0.156
-219.611	80.389	-0.236	-0.252
-218.596	780.654	0.267	-0.725
-217.582	-16.002	-0.375	0.236
-216.567	177.268	0.162	-0.234
-215.552	-89.638	0.708	0.206
-214.538	-63.753	0.360	0.146
-213.523	-26.104	-0.768	0.447
-212.509	224.138	0.599	0.958
-211.494	410.195	-0.444	0.931
-210.479	-156.771	0.485	-0.030
-209.465	762.395	-0.103	0.277
-208.450	241.482	0.143	-0.236
-207.436	-74.554	0.645	-0.230
-206.421	291.685	-0.204	-0.367
-205.406	194.117	-0.659	-0.989
-204.392	134.632	0.026	0.034
-203.377	-200.000	0.059	-1.031
-202.363	800.000	-0.165	-0.500
-201.348	230.595	0.086	0.139
-200.333	652.827	-0.030	0.077
-199.319	-37.518	-0.397	-0.209
-198.304	-55.852	-0.395	-0.175
-197.290	-148.379	1.109	0.090
-196.275	68.222	0.651	-0.660
-195.260	-19.262	0.369	-0.227
-194.246	-122.457	0.690	0.111
-193.231	-23.403	-0.690	-0.410
-192.217	800.000	-0.154	-0.479
-191.202	-130.466	1.174	0.157
-190.187	5.319	0.359	0.262
-189.173	553.302	-0.249	0.592
-188.158	-120.054	0.367	-0.062
-187.144	121.279	-0.102	0.126
-186.129	800.000	-0.097	-0.332
-185.114	-50.545	0.129	-0.060
-184.100	-66.755	0.510	-0.200
-183.085	-200.000	0.033	-0.833
-182.071	800.000	-0.278	-0.848
-181.056	-33.529	0.746	-0.407
-180.042	-48.820	0.679	0.322
-179.027	-142.633	-0.750	-0.073
-178.012	800.000	0.147	0.577
-176.998	40.943	0.670	-0.598
-175.983	-200.000	0.067	0.497
-174.969	148.782	0.157	0.209
-173.954	-87.419	-0.616	0.184
-172.939	67.853	-0.191	0.193
-171.925	503.127	-0.229	0.524
-170.910	800.000	-0.311	0.940
-169.896	721.369	0.214	0.564
-168.881	29.901	0.183	0.154
-167.866	678.837	-0.291	-0.748
-166.852	301.325	-0.193	0.353
-165.837	800.000	-0.215	0.707
-164.823	458.567	0.179	-0.394
-163.808	-68.341	-0.549	-0.211
-162.793	51.149	-0.428	0.401
-161.779	800.000	-0.223	-0.668
-160.764	800.000	-0.250	-0.847
-159.750	-58.563	0.343	0.147
-158.735	800.000	-0.118	-0.370
-157.720	-200.000	-0.112	0.800
-156.706	-200.000	-0.073	-0.687
-155.691	51.661	0.555	-0.521
-154.677	296.813	-0.409	-0.742
-153.662	-200.000	-0.084	-0.430
-152.647	-7.704	-0.251	0.168
-151.633	-127.100	-0.204	0.029
-150.618	188.759	-0.398	0.589
-149.604	800.000	-0.074	-0.205
-148.589	-131.926	-0.443	0.057
-147.574	-114.712	-0.954	0.180
-146.560	65.146	-0.221	-0.220
-145.545	585.198	0.147	-0.358
-144.531	-83.482	1.197	-0.378
-143.516	-160.914	0.646	0.034
-142.502	542.623	0.359	0.845
-141.487	11.584	0.343	-0.260
-140.472	21.922	0.467	0.376
-139.458	260.416	-0.595	-1.016
-138.443	-94.579	0.587	-0.158
-137.429	-60.097	-0.607	0.256
-136.414	24.685	0.102	0.083
-135.399	56.715	0.473	0.455
-134.385	-163.656	-0.624	-0.029
-133.370	-96.960	-0.635	-0.164
-132.356	-7.676	-0.630	0.421
-131.341	-49.500	0.294	-0.138
-130.326	64.274	0.190	-0.189
-129.312	-52.891	0.277	0.126
-128.297	-76.997	0.466	0.161
-127.283	-16.092	-0.840	0.527
-126.268	-129.579	0.530	0.072
-125.253	153.929	-0.553	0.748
-124.239	69.966	0.296	-0.301
-123.224	-26.560	-0.284	0.164
-122.210	693.880	0.586	-1.517
-121.195	-118.777	0.392	-0.068
