DTS Sentinel unit serial number:	SN413079Multiplexer serial number:	ORYXHardware model number:	OX4-SRSoftware version number:	ORYX F/W v4.00 Oryx Data Collector v3.7.2.0data status	okinstallation	princeton_trtdifferential loss correction	single-endedforward channel	channel 1reverse channel	N/Adate	2019/09/13time	12:50:35forward acquisition time	60.00reverse acquisition time	0.00gamma	496.2192k internal	0.2306k external	0.2306temperature offset calibration	1.0167default loss term (dB/km)	0.3790temperature slope calibration	1.0000multiplexer offset coefficient	1.0000multiplexer slope coefficient	1.0000fibre end	0.00T internal ref (°C)	34.75T ext. ref 1 (°C)	4.58T ext. ref 2 (°C)	30.38length (m)	temperature (°C)	Stokes	anti-Stokes-747.200	149.703	-0.202	0.278
-746.185	-166.076	0.318	0.014
-745.171	-200.000	0.024	-0.256
-744.156	-1.701	-0.323	0.231
-743.142	292.456	0.112	0.208
-742.127	79.315	0.183	0.199
-741.112	-200.000	-0.040	-0.236
-740.098	-108.303	-0.168	0.037
-739.083	197.544	-0.173	0.269
-738.069	14.140	-0.217	0.172
-737.054	69.939	-0.142	0.149
-736.039	7.900	0.099	0.076
-735.025	85.193	0.098	0.110
-734.010	68.368	-0.218	0.227
-732.996	-93.014	-0.345	-0.098
-731.981	-58.689	0.121	-0.053
-730.966	-15.207	-0.225	0.147
-729.952	82.510	0.114	0.125
-728.937	800.000	-0.070	-0.228
-727.923	-58.520	-0.235	0.104
-726.908	-200.000	0.004	-0.081
-725.894	16.294	-0.246	-0.197
-724.879	-10.688	-0.275	-0.185
-723.864	-200.000	0.008	0.063
-722.850	-53.323	-0.178	0.083
-721.835	-23.376	-0.310	0.190
-720.821	-200.000	-0.010	-0.084
-719.806	-200.000	-0.031	0.248
-718.791	94.033	-0.068	0.079
-717.777	-75.377	-0.273	0.099
-716.762	-26.958	-0.249	0.148
-715.748	51.923	-0.237	-0.230
-714.733	0.814	0.093	-0.068
-713.718	228.608	0.050	-0.082
-712.704	-200.000	-0.005	0.152
-711.689	-200.000	0.022	0.275
-710.675	-143.992	0.278	-0.027
-709.660	283.415	-0.237	-0.433
-708.645	122.813	0.152	-0.193
-707.631	8.436	-0.087	-0.067
-706.616	543.555	0.027	0.064
-705.602	-128.627	-0.203	-0.029
-704.587	-17.845	-0.287	0.183
-703.572	-110.495	0.166	0.035
-702.558	168.081	0.143	-0.206
-701.543	-200.000	-0.010	-0.428
-700.529	166.009	0.147	-0.212
-699.514	-200.000	0.018	0.155
-698.499	-31.765	-0.320	-0.182
-697.485	-4.954	-0.050	-0.035
-696.470	256.482	-0.033	0.058
-695.456	-127.541	-0.339	0.050
-694.441	-200.000	-0.003	0.059
-693.426	7.141	-0.378	0.286
-692.412	653.475	-0.030	-0.077
-691.397	800.000	-0.054	0.206
-690.383	-200.000	-0.016	0.307
-689.368	-92.829	0.183	-0.052
-688.354	41.135	-0.134	0.123
-687.339	171.141	-0.116	-0.170
-686.324	295.564	0.110	0.204
-685.310	257.452	-0.097	0.169
-684.295	58.704	0.225	0.225
-683.281	349.042	0.035	-0.071
-682.266	-88.849	0.348	0.105
-681.251	-200.000	0.028	-0.261
-680.237	269.164	0.077	-0.137
-679.222	22.788	0.309	-0.257
-678.208	-200.000	0.005	0.144
-677.193	258.849	-0.085	-0.149
-676.178	225.799	0.082	0.136
-675.164	-116.521	-0.211	-0.040
-674.149	-119.347	-0.398	0.070
-673.135	-58.656	-0.143	0.063
-672.120	800.000	0.067	-0.215
-671.105	-38.596	-0.220	0.118
-670.091	800.000	-0.016	-0.045
-669.076	4.155	-0.289	-0.215
-668.062	-187.548	0.127	0.002
-667.047	800.000	0.045	0.169
-666.032	342.863	-0.075	0.148
-665.018	800.000	0.139	-0.465
-664.003	-38.939	-0.043	0.023
-662.989	-99.639	-0.172	-0.044
-661.974	-200.000	-0.082	-0.420
-660.959	-21.993	-0.329	0.203
-659.945	-24.881	0.057	0.034
-658.930	-200.000	-0.004	0.287
-657.916	215.399	-0.080	-0.128
-656.901	-94.684	-0.329	-0.091
-655.886	610.452	-0.050	-0.127
-654.872	-58.182	0.408	-0.180
-653.857	301.907	0.111	0.209
-652.843	379.144	-0.125	0.260
-651.828	800.000	-0.049	0.167
-650.814	-116.934	0.133	0.025
-649.799	-129.360	-0.297	0.042
-648.784	-200.000	0.029	-0.237
-647.770	6.881	-0.260	-0.196
-646.755	110.691	-0.087	-0.106
-645.741	-200.000	-0.040	-0.250
-644.726	146.563	0.186	-0.253
-643.711	246.712	-0.241	0.411
-642.697	7.312	-0.164	0.124
-641.682	253.003	0.053	0.091
-640.668	-200.000	-0.040	-0.272
-639.653	171.970	-0.226	-0.329
-638.638	418.633	0.123	0.267
-637.624	252.743	-0.227	0.393
-636.609	-12.963	-0.275	-0.182
-635.595	-46.461	-0.119	-0.059
-634.580	37.682	-0.231	0.207
-633.565	-74.080	-0.179	0.066
-632.551	-78.561	0.056	0.020
-631.536	534.256	0.077	0.185
-630.522	16.644	-0.113	0.091
-629.507	222.982	0.115	0.188
-628.492	320.995	0.015	0.029
-627.478	-26.667	-0.157	-0.093
-626.463	169.012	0.067	0.097
-625.449	-51.098	0.323	0.153
-624.434	-200.000	0.012	0.058
-623.419	-37.340	-0.141	0.076
-622.405	-200.000	0.025	-0.261
-621.390	215.163	0.206	-0.330
-620.376	-118.382	-0.216	0.039
-619.361	170.393	-0.135	0.195
-618.346	121.910	-0.069	0.088
-617.332	227.667	0.107	-0.177
-616.317	-104.446	0.191	0.045
-615.303	-104.447	0.251	-0.059
-614.288	160.224	-0.212	-0.299
-613.273	362.786	0.131	0.267
-612.259	-150.760	-0.153	-0.012
-611.244	83.775	0.422	-0.466
-610.230	452.795	-0.018	-0.040
-609.215	-200.000	0.019	-0.146
-608.201	311.794	0.154	-0.293
-607.186	-200.000	0.042	-0.254
-606.171	-120.623	0.476	0.082
-605.157	-17.690	0.251	-0.159
-604.142	-49.474	-0.211	0.102
-603.128	44.173	-0.059	-0.055
-602.113	800.000	0.064	-0.217
-601.098	-86.024	-0.309	-0.096
-600.084	350.012	-0.103	-0.205
-599.069	-67.037	-0.141	0.056
-598.055	139.439	0.188	0.250
-597.040	-67.568	0.027	0.011
-596.025	800.000	-0.073	-0.232
-595.011	232.313	-0.130	-0.217
-593.996	29.083	0.063	0.054
-592.982	45.780	-0.272	0.255
-591.967	18.541	-0.075	-0.061
-590.952	-200.000	0.040	0.179
-589.938	-200.000	0.029	0.202
-588.923	15.017	-0.186	0.147
-587.909	-99.101	-0.186	0.047
-586.894	63.800	-0.104	-0.106
-585.879	-113.396	0.154	0.031
-584.865	10.114	-0.171	0.131
-583.850	393.849	-0.170	-0.357
-582.836	-200.000	0.022	-0.457
-581.821	272.222	-0.213	0.380
-580.806	-124.427	-0.155	0.024
-579.792	613.448	0.056	-0.141
-578.777	-5.690	0.119	0.083
-577.763	800.000	-0.060	0.175
-576.748	480.434	-0.069	-0.157
-575.733	-200.000	0.067	-0.361
-574.719	-86.758	-0.093	-0.029
-573.704	-200.000	0.022	0.168
-572.690	-29.517	-0.160	-0.093
-571.675	729.176	-0.070	-0.190
-570.661	319.454	0.173	0.332
-569.646	-97.047	-0.133	-0.035
-568.631	-76.810	-0.196	-0.069
-567.617	-36.192	-0.106	0.058
-566.602	-200.000	0.000	-0.088
-565.588	-200.000	-0.014	0.102
-564.573	-97.994	-0.230	-0.060
-563.558	195.367	-0.045	0.069
-562.544	-200.000	-0.000	0.025
-561.529	3.846	0.083	-0.061
-560.515	-200.000	-0.005	-0.152
-559.500	-81.190	-0.112	-0.037
-558.485	-200.000	-0.002	0.195
-557.471	-185.728	0.223	0.003
-556.456	-200.000	0.056	-0.299
-555.442	161.557	0.087	-0.122
-554.427	-86.528	-0.149	-0.046
-553.412	-65.516	-0.157	0.064
-552.398	-200.000	0.040	-0.299
-551.383	59.350	-0.249	-0.248
-550.369	800.000	0.093	0.289
-549.354	-200.000	-0.008	0.044
-548.339	234.788	-0.177	0.295
-547.325	761.306	0.066	-0.179
-546.310	-138.547	0.350	-0.039
-545.296	54.955	0.059	-0.058
-544.281	-63.917	0.309	-0.128
-543.266	-200.000	0.024	0.154
-542.252	-159.515	-0.390	-0.022
-541.237	800.000	0.086	-0.241
-540.223	42.777	0.130	0.119
-539.208	800.000	0.069	-0.222
-538.193	-200.000	-0.025	0.137
-537.179	-108.329	-0.202	-0.044
-536.164	-27.852	-0.150	0.088
-535.150	-5.313	-0.275	0.191
-534.135	-200.000	0.000	0.150
-533.121	298.503	-0.168	-0.311
-532.106	-110.914	-0.095	0.020
-531.091	-156.160	-0.134	-0.009
-530.077	-191.866	0.293	-0.003
-529.062	800.000	0.055	0.215
-528.048	-40.355	0.019	0.010
-527.033	-131.026	0.175	0.024
-526.018	-87.944	0.093	-0.028
-525.004	-200.000	0.062	0.293
-523.989	-200.000	-0.024	-0.125
-522.975	178.880	-0.169	0.250
-521.960	274.455	0.115	0.206
-520.945	-122.620	-0.162	0.027
-519.931	580.329	-0.085	-0.210
-518.916	-200.000	-0.022	-0.303
-517.902	-103.876	-0.042	0.010
-516.887	-200.000	0.008	0.079
-515.872	199.588	-0.154	-0.239
-514.858	124.383	0.173	-0.220
-513.843	210.737	0.023	0.036
-512.829	253.379	0.115	-0.198
-511.814	800.000	-0.099	0.398
-510.799	147.294	-0.060	0.082
-509.785	-61.641	0.242	0.102
-508.770	800.000	-0.035	0.138
-507.756	352.311	0.160	-0.319
-506.741	513.621	-0.061	0.143
-505.726	526.971	0.084	-0.200
-504.712	247.875	-0.150	-0.256
-503.697	5.464	0.233	0.174
-502.683	-6.626	-0.192	-0.132
-501.668	423.907	0.177	-0.383
-500.653	-41.273	-0.238	-0.123
-499.639	78.838	-0.181	-0.195
-498.624	-80.417	0.234	-0.079
-497.610	-16.816	0.242	0.154
-496.595	-56.869	0.114	-0.051
-495.581	-121.173	0.154	-0.026
-494.566	-119.347	-0.553	0.097
-493.551	775.984	-0.081	-0.224
-492.537	-18.098	0.148	0.094
-491.522	-56.193	-0.463	-0.208
-490.508	800.000	-0.072	0.312
-489.493	334.022	0.050	-0.098
-488.478	-25.530	-0.205	-0.122
-487.464	-176.573	-0.507	0.013
-486.449	234.245	-0.105	-0.174
-485.435	442.021	-0.108	-0.238
-484.420	800.000	-0.082	-0.256
-483.405	63.568	0.199	0.202
-482.391	28.054	-0.172	0.146
-481.376	-200.000	0.071	-0.380
-480.362	-44.822	-0.195	0.098
-479.347	41.943	-0.070	-0.064
-478.332	800.000	0.081	0.291
-477.318	15.004	0.146	0.115
-476.303	-73.142	0.071	0.026
-475.289	-153.695	-0.237	-0.016
-474.274	203.188	0.130	-0.202
-473.259	71.223	0.103	0.108
-472.245	109.456	0.211	-0.255
-471.230	-27.156	0.081	0.047
-470.216	800.000	-0.015	0.056
-469.201	-200.000	-0.006	-0.151
-468.186	15.595	-0.195	0.154
-467.172	800.000	-0.013	-0.053
-466.157	196.224	0.129	-0.197
-465.143	-149.767	-0.061	0.005
-464.128	-97.926	0.404	0.105
-463.113	-54.393	0.088	0.040
-462.099	611.516	-0.092	-0.232
-461.084	125.813	0.065	-0.083
-460.070	-121.361	-0.089	0.015
-459.055	261.111	-0.110	0.191
-458.040	-139.463	0.182	0.020
-457.026	-200.000	-0.003	-0.057
-456.011	800.000	-0.017	-0.070
-454.997	-107.104	0.090	0.020
-453.982	-200.000	0.005	0.196
-452.968	-11.791	-0.237	-0.157
-451.953	-159.183	-0.145	-0.008
-450.938	-196.323	0.097	0.001
-449.924	60.965	0.034	0.034
-448.909	-72.158	0.191	-0.071
-447.895	-75.726	0.272	-0.097
-446.880	128.352	0.076	0.097
-445.865	-200.000	0.014	-0.072
-444.851	-61.311	-0.071	0.030
-443.836	78.460	0.191	0.205
-442.822	34.873	-0.127	-0.112
-441.807	-165.641	-0.079	-0.003
-440.792	69.900	0.051	-0.053
-439.778	800.000	-0.067	-0.258
-438.763	-57.700	0.225	-0.099
-437.749	300.630	-0.140	-0.260
-436.734	48.373	0.152	-0.143
-435.719	-10.988	-0.161	-0.107
-434.705	-76.867	-0.378	0.133
-433.690	-200.000	0.033	0.302
-432.676	800.000	0.149	0.423
-431.661	116.095	-0.095	-0.118
-430.646	-99.533	0.307	0.077
-429.632	460.157	-0.059	0.131
-428.617	-66.114	0.223	-0.089
-427.603	-144.810	0.163	-0.015
-426.588	-70.290	0.212	-0.081
-425.573	130.223	-0.197	0.253
-424.559	-109.554	0.206	-0.044
-423.544	265.599	0.103	0.180
-422.530	-200.000	-0.030	0.149
-421.515	108.692	0.230	-0.276
-420.500	800.000	-0.053	-0.223
-419.486	370.788	0.128	-0.260
-418.471	47.155	-0.169	-0.158
-417.457	-129.919	0.338	-0.047
-416.442	42.737	0.069	0.063
-415.428	541.135	0.041	0.097
-414.413	-41.419	0.148	-0.077
-413.398	-200.000	-0.017	-0.268
-412.384	115.366	-0.031	0.038
-411.369	-91.174	0.384	0.110
-410.355	100.713	-0.227	-0.265
-409.340	20.343	-0.182	0.148
-408.325	-124.482	-0.291	-0.046
-407.311	-20.764	-0.029	-0.018
-406.296	422.721	0.076	-0.164
-405.282	5.436	0.248	0.183
-404.267	373.080	0.025	0.051
-403.252	-128.989	-0.258	0.036
-402.238	-19.848	0.145	-0.090
-401.223	-154.151	-0.020	-0.001
-400.209	-0.162	0.213	0.152
-399.194	104.844	-0.155	-0.183
-398.179	523.176	-0.123	0.289
-397.165	5.306	0.161	0.120
-396.150	-72.516	0.148	-0.055
-395.136	800.000	0.010	0.031
-394.121	308.400	0.047	-0.088
-393.106	-187.070	-0.175	-0.002
-392.092	-173.294	0.391	0.012
-391.077	-33.114	0.100	-0.056
-390.063	325.021	0.065	0.126
-389.048	-44.283	-0.292	-0.147
-388.033	119.358	-0.230	0.285
-387.019	-4.487	-0.209	0.145
-386.004	-200.000	0.008	0.220
-384.990	119.371	0.217	0.270
-383.975	106.205	0.255	0.303
-382.960	-200.000	-0.066	0.345
-381.946	-82.811	-0.167	-0.054
-380.931	800.000	-0.040	-0.117
-379.917	344.520	0.042	-0.084
-378.902	-41.832	-0.312	-0.160
-377.888	-200.000	-0.030	0.267
-376.873	-200.000	0.011	0.377
-375.858	-200.000	0.016	-0.196
-374.844	-200.000	0.052	0.372
-373.829	32.507	-0.128	0.111
-372.815	800.000	0.034	-0.147
-371.800	-14.054	0.036	0.023
-370.785	-47.464	-0.127	-0.062
-369.771	-108.059	-0.398	-0.087
-368.756	180.231	0.200	-0.293
-367.742	-12.853	-0.112	-0.073
-366.727	-167.585	-0.140	0.006
-365.712	-146.810	-0.070	0.006
-364.698	77.070	0.163	0.174
-363.683	275.717	0.177	-0.315
-362.669	475.133	-0.138	-0.313
-361.654	-71.122	0.250	0.094
-360.639	64.463	0.186	0.187
-359.625	-17.347	-0.360	-0.227
-358.610	800.000	0.039	-0.143
-357.596	-200.000	0.009	0.127
-356.581	-200.000	0.014	-0.072
-355.566	29.130	-0.250	-0.213
-354.552	139.421	0.131	-0.173
-353.537	-200.000	-0.034	-0.186
-352.523	283.875	0.116	0.210
-351.508	64.145	-0.130	-0.131
-350.493	-31.665	0.182	-0.103
-349.479	-181.621	0.149	-0.003
-348.464	123.162	-0.210	-0.263
-347.450	61.334	0.115	-0.114
-346.435	-93.571	0.135	-0.037
-345.420	161.548	0.124	0.174
-344.406	578.804	-0.068	0.167
-343.391	156.772	0.220	-0.304
-342.377	800.000	-0.055	0.187
-341.362	-64.799	0.221	0.089
-340.348	800.000	0.048	0.207
-339.333	118.139	-0.170	-0.210
-338.318	39.877	0.131	-0.118
-337.304	-200.000	0.047	-0.216
-336.289	800.000	-0.036	0.118
-335.275	27.368	-0.351	-0.296
-334.260	-58.990	0.228	0.099
-333.245	464.061	-0.037	0.084
-332.231	-200.000	-0.009	0.071
-331.216	124.831	-0.020	0.025
-330.202	536.380	-0.106	-0.251
-329.187	-2.244	0.141	0.099
-328.172	-15.377	0.316	0.202
-327.158	143.245	-0.058	-0.077
-326.143	28.862	-0.050	-0.043
-325.129	419.146	0.279	0.597
-324.114	146.655	-0.282	0.379
-323.099	106.607	-0.329	0.390
-322.085	224.453	0.079	-0.128
-321.070	-180.930	-0.232	-0.005
-320.056	180.351	0.014	0.021
-319.041	81.306	0.246	0.266
-318.026	-152.153	0.174	-0.013
-317.012	162.767	-0.141	-0.199
-315.997	-101.353	-0.105	0.026
-314.983	-29.353	0.089	0.051
-313.968	800.000	0.056	0.243
-312.953	-20.262	-0.086	-0.053
-311.939	278.837	0.208	0.370
-310.924	487.106	-0.013	0.029
-309.910	-173.663	0.098	0.003
-308.895	800.000	-0.049	0.157
-307.880	22.572	0.305	0.250
-306.866	-48.221	0.196	-0.095
-305.851	146.484	-0.121	-0.163
-304.837	-200.000	-0.002	-0.178
-303.822	-55.795	-0.146	0.065
-302.807	76.048	-0.223	0.236
-301.793	83.473	-0.028	0.031
-300.778	-165.685	-0.252	-0.011
-299.764	800.000	0.055	0.217
-298.749	800.000	0.041	0.168
-297.735	-116.202	-0.327	0.061
-296.720	-36.120	0.208	-0.113
-295.705	318.609	0.131	-0.247
-294.691	-200.000	0.004	0.157
-293.676	-175.316	-0.191	-0.005
-292.662	-95.765	-0.315	-0.084
-291.647	800.000	0.055	0.194
-290.632	-141.277	0.467	-0.047
-289.618	-5.491	0.162	-0.111
-288.603	71.913	-0.083	-0.087
-287.589	-44.366	0.173	0.087
-286.574	524.983	-0.102	-0.239
-285.559	-3.175	-0.047	0.033
-284.545	-200.000	-0.012	0.077
-283.530	413.283	-0.041	0.086
-282.516	800.000	0.041	0.114
-281.501	-175.224	0.327	0.009
-280.486	-150.024	0.138	0.011
-279.472	131.372	0.146	-0.188
-278.457	188.968	0.136	0.203
-277.443	-81.824	-0.370	0.121
-276.428	73.547	0.076	0.080
-275.413	-200.000	0.096	0.536
-274.399	-39.692	-0.148	-0.077
-273.384	-20.862	-0.061	0.038
-272.370	15.825	-0.143	-0.112
-271.355	-200.000	0.007	0.099
-270.340	-119.645	-0.279	0.048
-269.326	288.864	-0.029	0.052
-268.311	-56.594	-0.159	-0.070
-267.297	-18.940	0.152	0.094
-266.282	212.429	0.073	0.115
-265.267	-45.904	-0.387	0.191
-264.253	153.197	-0.080	-0.110
-263.238	318.367	0.195	-0.369
-262.224	-56.017	-0.110	0.049
-261.209	449.168	-0.039	-0.086
-260.195	-38.272	0.234	0.124
-259.180	-43.906	-0.327	-0.164
-258.165	-172.717	0.259	-0.008
-257.151	13.269	-0.148	0.114
-256.136	-164.874	0.257	-0.012
-255.122	285.224	0.116	-0.208
-254.107	30.645	0.097	0.083
-253.092	-200.000	-0.038	0.266
-252.078	-125.633	-0.091	-0.014
-251.063	22.573	-0.245	0.200
-250.049	-130.443	0.173	-0.023
-249.034	231.390	0.092	0.150
-248.019	47.901	-0.162	0.151
-247.005	42.946	0.208	-0.189
-245.990	-17.465	-0.122	0.077
-244.976	557.893	-0.112	-0.271
-243.961	-200.000	0.001	-0.161
-242.946	42.242	0.186	-0.168
-241.932	218.370	0.062	0.099
-240.917	-128.298	-0.324	-0.046
-239.903	53.941	0.265	0.254
-238.888	-68.176	-0.098	-0.038
-237.873	25.281	0.125	-0.104
-236.859	-62.638	0.078	0.032
-235.844	800.000	-0.053	0.153
-234.830	-200.000	0.011	-0.059
-233.815	311.935	-0.228	0.426
-232.800	24.975	0.262	-0.217
-231.786	-31.987	-0.195	-0.109
-230.771	613.482	-0.109	-0.271
-229.757	-200.000	0.017	-0.124
-228.742	351.130	-0.133	0.263
-227.727	-93.346	-0.310	-0.086
-226.713	216.345	-0.231	0.366
-225.698	68.631	0.219	0.224
-224.684	17.381	-0.087	-0.069
-223.669	-73.566	0.098	-0.036
-222.655	-198.223	0.378	0.002
-221.640	470.006	-0.096	-0.216
-220.625	156.269	0.029	-0.040
-219.611	-200.000	0.047	0.293
-218.596	-93.971	0.082	0.023
-217.582	5.559	-0.350	0.257
-216.567	-200.000	0.058	0.351
-215.552	-67.413	0.018	0.007
-214.538	-99.862	0.194	0.048
-213.523	-200.000	-0.018	0.275
-212.509	-200.000	-0.036	-0.193
-211.494	-152.864	0.167	0.012
-210.479	118.271	-0.088	0.108
-209.465	183.164	-0.138	-0.204
-208.450	-200.000	-0.031	-0.190
-207.436	447.913	-0.048	0.104
-206.421	161.131	0.110	0.153
-205.406	800.000	0.042	-0.127
-204.392	260.039	0.081	-0.139
-203.377	314.498	-0.186	-0.349
-202.363	800.000	0.026	-0.102
-201.348	29.810	-0.110	0.093
-200.333	-200.000	0.040	-0.273
-199.319	362.728	0.129	0.258
-198.304	-200.000	0.056	-0.493
-197.290	-135.289	0.241	-0.029
-196.275	143.522	-0.192	0.254
-195.260	104.221	0.168	0.196
-194.246	70.494	-0.085	0.087
-193.231	409.020	-0.135	-0.284
-192.217	63.690	0.104	-0.104
-191.202	800.000	0.068	0.272
-190.187	10.857	-0.078	-0.059
-189.173	-46.042	-0.435	0.213
-188.158	800.000	0.037	0.121
-187.144	-200.000	0.050	-0.266
-186.129	800.000	-0.020	-0.061
-185.114	-32.421	-0.227	0.126
-184.100	504.758	-0.068	-0.156
-183.085	-200.000	0.010	-0.330
-182.071	-97.035	0.252	0.066
-181.056	209.467	0.068	0.106
-180.042	-155.636	0.260	0.017
-179.027	-2.757	0.269	-0.187
-178.012	611.632	-0.123	0.306
-176.998	135.512	0.120	-0.156
-175.983	-200.000	-0.007	-0.060
-174.969	-60.698	0.484	-0.204
-173.954	-134.823	0.150	0.018
-172.939	-200.000	-0.067	0.311
-171.925	-100.930	0.061	0.015
-170.910	-16.965	0.039	-0.024
-169.896	-109.770	-0.114	0.024
-168.881	-175.388	0.134	0.004
-167.866	-109.153	0.232	0.049
-166.852	-71.726	0.238	0.088
-165.837	48.012	0.172	0.160
-164.823	-200.000	-0.074	0.383
-163.808	-200.000	0.003	0.124
-162.793	-200.000	0.050	0.349
-161.779	93.816	0.036	0.040
-160.764	-200.000	-0.018	0.251
-159.750	65.269	0.172	0.173
-158.735	-50.378	-0.116	0.054
-157.720	292.722	0.063	-0.114
-156.706	493.831	0.111	-0.253
-155.691	-86.300	0.217	-0.066
-154.677	800.000	0.046	-0.173
-153.662	14.381	-0.386	-0.300
-152.647	-174.238	0.342	0.010
-151.633	-2.474	0.290	0.202
-150.618	101.347	0.195	0.225
-149.604	-87.084	-0.110	0.033
-148.589	-200.000	-0.048	0.321
-147.574	-74.166	-0.438	-0.158
-146.560	119.284	-0.109	0.135
-145.545	-200.000	0.033	0.161
-144.531	-103.010	-0.185	0.044
-143.516	-116.272	-0.353	-0.065
-142.502	800.000	-0.122	0.360
-141.487	68.614	-0.301	-0.307
-140.472	-112.766	-0.378	-0.075
-139.458	68.705	0.353	-0.360
-138.443	19.839	0.209	0.167
-137.429	-185.695	-0.226	0.003
-136.414	-200.000	0.072	0.331
-135.399	-167.187	-0.086	-0.003
-134.385	-57.464	0.087	-0.038
-133.370	352.631	-0.226	0.444
-132.356	-35.638	0.194	0.104
-131.341	736.198	0.129	0.343
-130.326	-200.000	-0.010	-0.187
-129.312	-200.000	-0.040	0.273
-128.297	697.913	0.020	-0.053
-127.283	-50.001	0.089	0.042
-126.268	-200.000	0.030	-0.177
-125.253	630.590	0.077	0.193
-124.239	271.767	-0.174	-0.304
-123.224	243.618	-0.144	0.240
-122.210	-127.098	0.170	0.025
-121.195	67.613	-0.248	0.252
-120.180	-109.139	-0.094	0.020
