DTS Sentinel unit serial number:	SN413079Multiplexer serial number:	ORYXHardware model number:	OX4-SRSoftware version number:	ORYX F/W v4.00 Oryx Data Collector v3.7.2.0data status	okinstallation	princeton_trtdifferential loss correction	single-endedforward channel	channel 1reverse channel	N/Adate	2019/09/11time	02:52:11forward acquisition time	60.00reverse acquisition time	0.00gamma	496.2192k internal	0.2332k external	0.2332temperature offset calibration	0.9927default loss term (dB/km)	0.3790temperature slope calibration	1.0000multiplexer offset coefficient	1.0000multiplexer slope coefficient	1.0000fibre end	0.00T internal ref (°C)	29.28T ext. ref 1 (°C)	-0.28T ext. ref 2 (°C)	23.62length (m)	temperature (°C)	Stokes	anti-Stokes-747.200	-144.795	0.032	-0.003
-746.185	41.951	0.293	-0.267
-745.171	281.771	0.099	-0.179
-744.156	800.000	-0.163	0.521
-743.142	-200.000	-0.043	-0.384
-742.127	-79.920	-0.101	0.034
-741.112	11.173	0.335	0.258
-740.098	-81.108	0.044	-0.015
-739.083	-14.855	-0.383	0.247
-738.069	72.423	0.071	-0.074
-737.054	101.216	0.055	0.065
-736.039	47.957	-0.138	-0.129
-735.025	-139.550	0.202	0.022
-734.010	-108.226	-0.316	-0.069
-732.996	272.532	-0.205	-0.365
-731.981	-200.000	-0.043	-0.198
-730.966	800.000	0.089	-0.306
-729.952	-31.609	-0.212	0.120
-728.937	-139.481	-0.276	-0.030
-727.923	-44.412	-0.162	-0.082
-726.908	-67.254	-0.119	-0.047
-725.894	-200.000	0.015	-0.281
-724.879	32.190	-0.305	-0.265
-723.864	-200.000	-0.035	-0.246
-722.850	324.990	-0.178	0.342
-721.835	151.857	-0.100	-0.136
-720.821	-17.149	0.153	-0.097
-719.806	52.089	-0.116	-0.111
-718.791	-39.404	0.095	0.050
-717.777	-103.677	0.092	0.022
-716.762	-200.000	0.041	0.321
-715.748	-168.429	0.132	-0.005
-714.733	800.000	-0.031	-0.130
-713.718	-105.613	-0.216	-0.049
-712.704	-200.000	0.006	0.109
-711.689	-115.652	-0.180	-0.034
-710.675	5.356	-0.113	-0.084
-709.660	-146.012	-0.285	-0.025
-708.645	6.866	0.240	0.179
-707.631	800.000	-0.013	-0.058
-706.616	298.001	0.062	-0.114
-705.602	-93.317	-0.202	-0.056
-704.587	-37.456	0.147	-0.079
-703.572	-149.705	0.060	0.005
-702.558	-55.293	0.258	0.116
-701.543	800.000	-0.120	-0.339
-700.529	800.000	-0.054	-0.169
-699.514	800.000	-0.036	0.154
-698.499	679.635	0.017	0.044
-697.485	-200.000	-0.079	-0.364
-696.470	14.433	0.244	0.191
-695.456	683.531	0.028	0.073
-694.441	28.804	0.281	0.239
-693.426	-82.170	-0.046	-0.015
-692.412	800.000	0.016	-0.067
-691.397	-48.672	-0.445	-0.215
-690.383	269.435	0.103	-0.181
-689.368	77.481	-0.168	-0.179
-688.354	28.441	0.130	-0.110
-687.339	143.246	0.066	-0.088
-686.324	-170.626	-0.346	0.012
-685.310	-200.000	0.011	0.101
-684.295	138.194	0.144	-0.190
-683.281	-79.388	0.050	-0.017
-682.266	-71.340	-0.064	-0.024
-681.251	55.998	-0.324	0.316
-680.237	800.000	0.076	-0.235
-679.222	800.000	-0.059	-0.239
-678.208	-146.489	-0.097	-0.008
-677.193	86.397	-0.142	-0.157
-676.178	130.163	0.109	0.141
-675.164	254.608	-0.118	0.202
-674.149	-101.074	-0.545	0.134
-673.135	195.202	-0.063	-0.096
-672.120	-54.676	-0.263	0.119
-671.105	95.371	0.147	-0.168
-670.091	-156.954	-0.167	0.010
-669.076	-113.195	-0.175	-0.034
-668.062	-128.724	-0.135	0.019
-667.047	443.752	0.158	-0.347
-666.032	-49.629	0.263	0.126
-665.018	800.000	-0.046	-0.160
-664.003	800.000	0.124	-0.364
-662.989	293.159	-0.059	0.107
-661.974	-200.000	0.038	-0.358
-660.959	-200.000	0.003	-0.271
-659.945	280.860	-0.176	0.315
-658.930	301.231	-0.057	0.106
-657.916	-200.000	-0.015	-0.132
-656.901	-200.000	-0.031	0.224
-655.886	-200.000	0.003	-0.132
-654.872	-1.633	0.219	-0.154
-653.857	-152.284	0.353	-0.026
-652.843	45.393	-0.156	-0.145
-651.828	321.327	-0.199	-0.379
-650.814	-200.000	-0.014	0.135
-649.799	800.000	-0.041	-0.163
-648.784	-60.822	-0.210	-0.089
-647.770	50.320	-0.024	0.023
-646.755	351.663	0.136	-0.270
-645.741	-200.000	0.005	-0.050
-644.726	127.417	0.152	-0.194
-643.711	28.944	0.072	-0.061
-642.697	79.362	-0.171	0.184
-641.682	302.029	-0.072	-0.133
-640.668	-45.878	-0.212	0.105
-639.653	63.488	-0.176	0.177
-638.638	-115.801	0.140	-0.026
-637.624	101.766	0.120	0.141
-636.609	253.735	-0.049	-0.084
-635.595	800.000	-0.068	-0.246
-634.580	-192.279	-0.143	-0.001
-633.565	-200.000	0.002	-0.230
-632.551	13.929	0.179	0.140
-631.536	27.460	0.157	-0.132
-630.522	-87.202	0.080	-0.024
-629.507	378.278	0.089	-0.182
-628.492	-138.964	-0.108	-0.012
-627.478	-5.738	0.161	-0.110
-626.463	431.127	0.109	0.236
-625.449	150.707	-0.134	0.182
-624.434	124.283	0.221	0.279
-623.419	-117.867	-0.121	-0.022
-622.405	-128.601	0.219	0.031
-621.390	-88.214	-0.298	-0.089
-620.376	177.600	0.075	0.109
-619.361	800.000	-0.103	-0.315
-618.346	-39.751	0.230	-0.120
-617.332	-130.267	-0.317	-0.043
-616.317	448.112	-0.064	-0.141
-615.303	-200.000	-0.005	-0.156
-614.288	-200.000	0.040	0.216
-613.273	-124.221	0.231	0.036
-612.259	-135.866	0.105	-0.012
-611.244	-123.324	0.244	0.039
-610.230	41.378	0.252	0.228
-609.215	-145.284	-0.284	-0.026
-608.201	-87.353	0.062	-0.019
-607.186	-50.444	-0.150	-0.071
-606.171	574.437	-0.137	0.333
-605.157	-200.000	-0.013	-0.113
-604.142	-139.713	0.169	0.018
-603.128	182.187	-0.037	0.055
-602.113	145.222	-0.295	-0.394
-601.098	45.787	-0.172	-0.159
-600.084	558.391	-0.069	-0.167
-599.069	-58.774	-0.379	0.164
-598.055	-86.320	-0.172	0.053
-597.040	6.677	-0.112	0.084
-596.025	-48.226	0.130	0.063
-595.011	73.304	-0.158	-0.165
-593.996	-51.696	0.156	-0.073
-592.982	97.791	0.151	-0.174
-591.967	800.000	0.050	0.148
-590.952	-200.000	0.018	-0.162
-589.938	-2.230	0.012	0.008
-588.923	404.862	0.039	0.082
-587.909	196.850	-0.095	-0.145
-586.894	113.386	-0.092	-0.112
-585.879	43.183	-0.126	-0.115
-584.865	-16.997	0.074	0.047
-583.850	45.238	0.152	-0.140
-582.836	177.827	-0.042	-0.061
-581.821	-155.396	-0.362	0.023
-580.806	-4.721	-0.346	0.238
-579.792	-146.051	-0.229	-0.020
-578.777	-106.101	0.299	-0.067
-577.763	-17.206	0.172	0.108
-576.748	-58.759	-0.142	-0.062
-575.733	162.623	0.165	-0.232
-574.719	800.000	0.037	-0.145
-573.704	-100.407	-0.196	-0.049
-572.690	150.869	-0.182	-0.248
-571.675	-84.528	0.225	0.071
-570.661	193.387	0.038	0.057
-569.646	166.744	-0.100	-0.142
-568.631	-185.355	0.106	-0.002
-567.617	-109.598	0.186	-0.039
-566.602	-170.397	-0.119	-0.004
-565.588	100.208	0.246	-0.285
-564.573	-62.152	-0.104	-0.043
-563.558	-200.000	-0.018	0.087
-562.544	172.417	0.098	0.141
-561.529	-200.000	-0.003	0.105
-560.515	800.000	-0.142	-0.499
-559.500	164.328	-0.133	-0.187
-558.485	93.263	-0.194	0.219
-557.471	276.762	0.141	-0.251
-556.456	800.000	0.057	0.180
-555.442	9.366	0.057	-0.043
-554.427	800.000	0.090	0.337
-553.412	357.705	0.058	-0.116
-552.398	-118.839	-0.307	0.054
-551.383	-81.330	0.346	0.114
-550.369	327.648	0.135	-0.259
-549.354	-200.000	-0.044	-0.234
-548.339	-57.834	-0.304	-0.133
-547.325	272.581	-0.066	-0.117
-546.310	-200.000	0.067	-0.382
-545.296	125.872	-0.087	0.110
-544.281	-200.000	-0.002	-0.010
-543.266	25.528	0.218	0.181
-542.252	123.945	0.125	-0.156
-541.237	800.000	0.050	-0.211
-540.223	-13.586	0.132	-0.085
-539.208	-76.871	0.273	0.095
-538.193	30.887	-0.138	-0.118
-537.179	48.621	-0.179	-0.168
-536.164	-53.502	0.198	0.090
-535.150	-200.000	-0.008	0.219
-534.135	-200.000	-0.012	-0.172
-533.121	-126.395	-0.314	-0.047
-532.106	1.654	-0.114	0.082
-531.091	-77.151	-0.120	0.042
-530.077	63.112	0.111	-0.111
-529.062	268.485	0.118	0.207
-528.048	-40.619	0.049	-0.026
-527.033	-44.009	-0.155	0.078
-526.018	-34.010	-0.342	0.188
-525.004	-134.080	-0.259	-0.032
-523.989	-113.485	-0.068	-0.013
-522.975	-127.762	0.288	-0.041
-521.960	-82.344	0.229	-0.074
-520.945	-117.049	-0.255	0.046
-519.931	412.654	0.100	0.211
-518.916	-37.806	-0.057	-0.030
-517.902	-65.594	0.127	0.051
-516.887	71.037	-0.289	-0.299
-515.872	330.883	0.045	0.086
-514.858	-200.000	-0.042	0.209
-513.843	-200.000	-0.063	0.293
-512.829	-200.000	-0.016	-0.234
-511.814	800.000	0.072	-0.208
-510.799	-165.955	-0.161	-0.007
-509.785	209.191	0.070	0.109
-508.770	219.630	-0.057	-0.091
-507.756	-90.564	0.297	0.086
-506.741	-88.122	0.076	-0.023
-505.726	-83.886	0.197	0.062
-504.712	-149.542	0.130	-0.010
-503.697	800.000	-0.045	0.169
-502.683	39.590	-0.175	0.156
-501.668	-200.000	-0.017	0.178
-500.653	228.510	0.206	-0.334
-499.639	-44.298	0.053	-0.027
-498.624	800.000	-0.055	0.181
-497.610	-84.676	-0.072	0.023
-496.595	-37.221	-0.267	-0.142
-495.581	-200.000	0.002	-0.636
-494.566	-114.347	-0.266	0.051
-493.551	667.652	-0.073	0.189
-492.537	154.146	-0.105	0.143
-491.522	-28.841	0.300	-0.172
-490.508	-26.441	-0.323	-0.189
-489.493	-132.487	-0.189	0.024
-488.478	247.828	-0.088	-0.149
-487.464	-104.004	-0.273	-0.063
-486.449	82.873	-0.136	0.147
-485.435	359.626	-0.024	-0.047
-484.420	-200.000	0.036	-0.249
-483.405	37.296	0.115	-0.102
-482.391	800.000	-0.040	0.159
-481.376	247.470	0.106	0.178
-480.362	101.968	0.203	-0.236
-479.347	315.032	-0.204	-0.383
-478.332	584.787	-0.019	-0.047
-477.318	63.143	0.265	-0.264
-476.303	-200.000	0.330	-0.001
-475.289	38.825	0.063	-0.056
-474.274	-99.672	0.184	-0.046
-473.259	800.000	0.045	0.171
-472.245	220.566	0.079	-0.127
-471.230	15.105	0.224	0.174
-470.216	-42.859	-0.373	-0.189
-469.201	-34.924	-0.124	0.068
-468.186	200.585	-0.222	0.340
-467.172	-49.564	-0.181	0.086
-466.157	61.100	-0.123	-0.122
-465.143	-116.467	0.150	-0.028
-464.128	-192.588	-0.304	0.003
-463.113	76.924	-0.211	0.223
-462.099	493.996	-0.080	0.182
-461.084	4.118	0.184	0.134
-460.070	-124.042	0.534	0.083
-459.055	246.108	0.156	0.262
-458.040	-13.168	0.168	-0.108
-457.026	800.000	0.119	-0.395
-456.011	17.495	-0.018	0.014
-454.997	552.904	-0.089	-0.213
-453.982	-52.863	-0.017	-0.008
-452.968	87.605	-0.165	-0.181
-451.953	-101.386	0.249	-0.060
-450.938	107.864	0.172	-0.204
-449.924	-50.239	-0.386	-0.182
-448.909	-200.000	-0.010	0.159
-447.895	-144.454	0.405	-0.037
-446.880	-132.944	-0.186	-0.023
-445.865	324.577	0.077	-0.146
-444.851	241.704	-0.128	-0.213
-443.836	-11.088	0.370	0.243
-442.822	142.286	0.067	-0.088
-441.807	347.671	0.051	0.100
-440.792	76.895	-0.175	-0.185
-439.778	800.000	0.082	-0.349
-438.763	-27.265	0.235	-0.136
-437.749	-139.740	-0.308	-0.033
-436.734	185.104	-0.202	-0.297
-435.719	45.411	-0.154	-0.142
-434.705	-133.454	0.026	0.003
-433.690	671.959	0.065	0.167
-432.676	-200.000	-0.038	-0.169
-431.661	171.840	0.091	-0.130
-430.646	31.720	-0.142	-0.122
-429.632	6.777	-0.179	0.133
-428.617	-107.640	-0.286	0.062
-427.603	-133.173	0.101	0.013
-426.588	800.000	-0.071	-0.204
-425.573	-96.359	0.326	-0.086
-424.559	229.593	-0.137	-0.222
-423.544	32.805	0.143	0.123
-422.530	-200.000	0.019	-0.277
-421.515	-140.852	0.197	0.020
-420.500	606.679	0.047	0.117
-419.486	-200.000	0.012	-0.372
-418.471	-88.522	0.058	0.017
-417.457	-68.665	-0.142	-0.055
-416.442	-200.000	0.022	0.387
-415.428	268.539	-0.269	0.469
-414.413	64.441	-0.283	0.283
-413.398	182.553	-0.223	-0.326
-412.384	390.835	-0.031	0.064
-411.369	-158.145	0.061	0.004
-410.355	58.292	0.188	-0.183
-409.340	461.903	-0.144	-0.320
-408.325	-200.000	-0.031	0.212
-407.311	800.000	0.072	0.273
-406.296	77.410	0.068	-0.071
-405.282	-46.475	-0.517	0.252
-404.267	-121.093	-0.264	0.044
-403.252	-117.280	0.151	-0.027
-402.238	-85.923	-0.183	-0.056
-401.223	-200.000	-0.048	0.297
-400.209	800.000	-0.063	0.217
-399.194	-110.640	-0.120	0.025
-398.179	140.955	-0.123	-0.161
-397.165	165.962	-0.163	0.229
-396.150	-200.000	-0.012	0.076
-395.136	98.013	-0.027	-0.031
-394.121	62.883	0.290	0.288
-393.106	-200.000	-0.017	-0.264
-392.092	-200.000	-0.083	0.448
-391.077	-200.000	0.025	0.260
-390.063	86.926	0.351	0.385
-389.048	118.792	-0.169	-0.207
-388.033	-163.154	0.320	-0.015
-387.019	179.041	0.154	-0.223
-386.004	-63.594	-0.140	0.057
-384.990	288.365	-0.135	0.243
-383.975	-88.799	0.087	0.026
-382.960	339.995	0.103	-0.198
-381.946	576.167	0.094	-0.227
-380.931	-5.643	-0.355	-0.241
-379.917	405.395	-0.029	-0.060
-378.902	-91.474	-0.112	0.032
-377.888	-200.000	-0.030	0.274
-376.873	-200.000	0.005	-0.255
-375.858	-112.629	0.240	-0.047
-374.844	-35.940	0.163	0.087
-373.829	-111.596	0.224	-0.045
-372.815	5.476	0.435	-0.318
-371.800	797.378	0.042	-0.116
-370.785	800.000	0.075	-0.282
-369.771	-200.000	0.014	0.163
-368.756	401.119	-0.113	0.236
-367.742	-65.123	-0.087	-0.035
-366.727	89.394	-0.085	0.093
-365.712	-200.000	-0.032	-0.150
-364.698	77.772	-0.220	-0.232
-363.683	340.066	0.127	-0.246
-362.669	-80.879	0.367	0.121
-361.654	-5.247	-0.340	-0.231
-360.639	-181.188	0.182	-0.004
-359.625	165.773	0.093	0.130
-358.610	-26.715	-0.194	-0.112
-357.596	-200.000	0.025	0.267
-356.581	-183.436	0.353	0.006
-355.566	-200.000	-0.017	0.127
-354.552	-89.372	0.365	0.107
-353.537	105.265	0.087	0.102
-352.523	58.746	-0.117	-0.114
-351.508	0.405	0.325	0.230
-350.493	277.960	-0.096	-0.169
-349.479	-200.000	-0.036	-0.346
-348.464	-200.000	0.029	0.255
-347.450	-5.846	-0.366	0.248
-346.435	292.068	-0.083	0.151
-345.420	213.173	0.049	0.077
-344.406	42.308	-0.119	0.107
-343.391	144.109	0.281	0.372
-342.377	-15.270	0.080	0.051
-341.362	-200.000	-0.021	-0.229
-340.348	432.027	0.134	0.288
-339.333	-200.000	-0.021	0.172
-338.318	-59.837	0.238	0.101
-337.304	-3.632	0.133	-0.092
-336.289	-200.000	0.007	0.148
-335.275	168.511	-0.061	0.086
-334.260	-16.159	-0.100	-0.063
-333.245	-94.967	-0.205	0.055
-332.231	-171.079	0.426	-0.014
-331.216	-163.485	0.332	-0.016
-330.202	153.446	0.187	0.254
-329.187	-104.296	-0.170	0.039
-328.172	-58.778	0.233	-0.100
-327.158	485.352	0.051	-0.116
-326.143	-38.722	-0.308	-0.161
-325.129	-116.923	0.135	-0.025
-324.114	-20.532	-0.247	0.150
-323.099	-200.000	0.001	-0.087
-322.085	-20.459	-0.017	-0.010
-321.070	-200.000	0.020	0.135
-320.056	-87.886	0.155	-0.046
-319.041	586.455	0.114	-0.278
-318.026	374.908	-0.054	0.110
-317.012	-136.090	0.138	-0.016
-315.997	-200.000	0.003	0.221
-314.983	548.122	0.081	-0.191
-313.968	-103.471	0.091	-0.021
-312.953	-133.703	0.212	-0.026
-311.939	-24.446	-0.291	0.172
-310.924	775.519	0.188	-0.508
-309.910	91.297	0.203	0.225
-308.895	-164.962	-0.182	-0.008
-307.880	800.000	0.041	-0.150
-306.866	-200.000	-0.038	0.237
-305.851	-112.543	0.235	0.046
-304.837	800.000	0.031	0.131
-303.822	274.028	0.055	-0.095
-302.807	-68.796	-0.154	-0.059
-301.793	-67.123	-0.210	0.082
-300.778	322.512	0.117	0.220
-299.764	228.527	-0.101	0.163
-298.749	-193.313	0.103	0.001
-297.735	47.014	0.194	-0.178
-296.720	-200.000	-0.008	0.223
-295.705	148.811	-0.024	-0.032
-294.691	-68.571	-0.234	-0.089
-293.676	614.176	-0.072	0.178
-292.662	83.724	-0.042	-0.046
-291.647	800.000	-0.094	0.332
-290.632	32.804	0.294	0.252
-289.618	185.923	-0.312	-0.458
-288.603	-200.000	-0.025	-0.183
-287.589	-129.284	-0.084	-0.012
-286.574	277.889	0.071	0.125
-285.559	30.773	-0.123	0.104
-284.545	239.132	0.069	-0.113
-283.530	-114.712	0.172	-0.033
-282.516	-118.014	-0.062	-0.011
-281.501	549.153	0.172	0.406
-280.486	-88.949	-0.393	0.115
-279.472	102.080	0.110	-0.127
-278.457	42.690	0.245	-0.220
-277.443	100.502	0.060	-0.069
-276.428	550.869	-0.091	-0.215
-275.413	132.607	-0.275	-0.351
-274.399	-73.125	0.283	-0.102
-273.384	101.447	0.223	0.256
-272.370	800.000	0.081	0.311
-271.355	424.621	-0.091	0.194
-270.340	-39.384	0.143	0.074
-269.326	48.816	-0.141	-0.131
-268.311	-75.888	-0.255	-0.089
-267.297	58.779	0.250	-0.242
-266.282	-100.489	-0.293	0.072
-265.267	-6.609	-0.108	-0.073
-264.253	623.947	0.025	0.062
-263.238	-79.319	-0.391	0.131
-262.224	44.549	0.127	0.115
-261.209	350.702	-0.167	0.326
-260.195	-52.352	-0.221	0.101
-259.180	-54.076	0.205	0.092
-258.165	-113.867	-0.186	-0.036
-257.151	41.928	0.253	-0.226
-256.136	116.794	0.090	0.109
-255.122	-163.227	-0.169	0.008
-254.107	800.000	0.150	0.461
-253.092	-200.000	-0.015	0.299
-252.078	562.082	0.027	0.064
-251.063	-200.000	-0.012	0.131
-250.049	48.906	-0.086	0.079
-249.034	149.925	-0.088	-0.118
-248.019	-185.049	0.249	-0.004
-247.005	-56.950	-0.164	0.071
-245.990	-103.067	-0.228	0.053
-244.976	-7.094	-0.112	0.075
-243.961	246.504	0.150	-0.250
-242.946	-200.000	0.013	-0.233
-241.932	800.000	-0.015	0.052
-240.917	-200.000	-0.009	0.067
-239.903	-168.209	-0.471	0.018
-238.888	42.274	0.161	0.144
-237.873	-200.000	0.046	-0.360
-236.859	-26.316	-0.120	-0.069
-235.844	86.824	0.178	-0.194
-234.830	-93.949	-0.236	-0.064
-233.815	13.617	0.019	0.014
-232.800	273.838	0.095	0.165
-231.786	199.593	0.076	0.115
-230.771	161.075	-0.380	-0.524
-229.757	-200.000	-0.004	0.070
-228.742	7.716	0.256	0.189
-227.727	-9.210	0.084	0.056
-226.713	-11.693	0.105	0.068
-225.698	91.471	0.049	-0.054
-224.684	-145.736	0.192	0.017
-223.669	-200.000	-0.013	-0.087
-222.655	72.745	0.103	-0.106
-221.640	62.876	0.245	0.242
-220.625	119.562	-0.163	-0.199
-219.611	800.000	0.020	0.063
-218.596	-198.304	-0.238	-0.001
-217.582	-200.000	0.007	0.225
-216.567	44.105	0.324	0.293
-215.552	33.173	-0.233	0.199
-214.538	234.810	0.114	-0.186
-213.523	277.305	0.183	0.320
-212.509	3.064	0.120	0.086
-211.494	564.777	0.049	-0.117
-210.479	-71.298	-0.339	0.125
-209.465	-106.138	0.132	-0.029
-208.450	586.727	-0.167	0.404
-207.436	12.660	0.052	0.040
-206.421	114.276	-0.121	-0.145
-205.406	-200.000	-0.025	0.162
-204.392	-200.000	0.066	0.293
-203.377	-49.628	-0.358	0.168
-202.363	360.075	0.027	0.053
-201.348	-200.000	0.016	-0.138
-200.333	92.713	-0.088	-0.098
-199.319	73.110	0.204	0.210
-198.304	312.388	-0.171	-0.316
-197.290	207.512	-0.018	-0.028
-196.275	-72.022	-0.334	-0.122
-195.260	795.035	0.077	0.210
-194.246	-128.259	-0.097	-0.014
-193.231	-200.000	0.029	0.191
-192.217	409.946	0.091	-0.190
-191.202	27.488	-0.137	-0.114
-190.187	76.333	0.063	-0.066
-189.173	105.543	-0.128	0.148
-188.158	173.066	0.047	-0.067
-187.144	800.000	-0.047	0.186
-186.129	-200.000	-0.003	0.392
-185.114	-86.096	-0.211	-0.064
-184.100	104.749	0.181	0.210
-183.085	-150.670	0.079	0.006
-182.071	-200.000	-0.018	0.441
-181.056	119.265	0.142	0.173
-180.042	-93.715	0.172	-0.047
-179.027	-200.000	-0.013	-0.103
-178.012	6.934	0.249	-0.182
-176.998	-84.841	-0.155	-0.048
-175.983	-39.096	-0.229	0.118
-174.969	-64.288	-0.254	0.102
-173.954	334.949	0.260	0.497
-172.939	25.357	0.388	-0.318
-171.925	800.000	0.053	0.202
-170.910	25.520	0.286	0.234
-169.896	9.324	-0.221	-0.164
-168.881	112.621	0.067	-0.079
-167.866	94.885	-0.155	-0.173
-166.852	24.547	-0.125	-0.102
-165.837	-200.000	-0.016	0.096
-164.823	-57.143	-0.200	0.087
-163.808	-63.058	-0.115	-0.047
-162.793	-44.926	0.040	-0.020
-161.779	-115.054	0.313	0.059
-160.764	-14.069	0.351	0.223
-159.750	131.571	-0.084	-0.107
-158.735	800.000	0.099	0.364
-157.720	-15.363	0.062	0.039
-156.706	131.181	-0.110	-0.140
-155.691	-140.987	0.184	0.019
-154.677	-94.581	0.374	0.100
-153.662	197.084	0.118	-0.178
-152.647	-176.155	-0.270	-0.007
-151.633	-16.900	0.218	-0.136
-150.618	800.000	0.070	0.295
-149.604	-42.884	0.312	0.156
-148.589	-75.498	-0.314	0.110
-147.574	165.855	-0.062	-0.086
-146.560	800.000	0.075	0.233
-145.545	138.738	-0.257	0.332
-144.531	115.840	-0.124	0.149
-143.516	-130.502	-0.244	0.032
-142.502	-124.266	-0.127	0.019
-141.487	-98.343	-0.129	-0.033
-140.472	800.000	0.039	-0.124
-139.458	159.126	-0.148	0.202
-138.443	-101.084	-0.031	-0.007
-137.429	-25.097	0.155	-0.091
-136.414	-141.597	0.117	-0.012
-135.399	322.381	-0.097	0.181
-134.385	-27.523	0.569	0.325
-133.370	81.448	-0.122	-0.130
-132.356	-148.667	-0.138	-0.011
-131.341	-200.000	0.018	0.145
-130.326	-157.473	0.307	-0.018
-129.312	47.534	0.281	0.257
-128.297	678.024	0.092	0.235
-127.283	-200.000	0.006	0.042
-126.268	33.054	0.159	0.135
-125.253	-27.552	0.123	0.070
-124.239	800.000	-0.011	0.031
-123.224	-35.879	0.147	-0.078
-122.210	9.656	0.129	0.096
-121.195	19.406	-0.169	0.133
