DTS Sentinel unit serial number:	SN413079Multiplexer serial number:	ORYXHardware model number:	OX4-SRSoftware version number:	ORYX F/W v4.00 Oryx Data Collector v3.7.2.0data status	okinstallation	princeton_trtdifferential loss correction	single-endedforward channel	channel 1reverse channel	N/Adate	2019/09/14time	03:14:35forward acquisition time	60.00reverse acquisition time	0.00gamma	496.2192k internal	0.2336k external	0.2336temperature offset calibration	1.0074default loss term (dB/km)	0.3790temperature slope calibration	1.0000multiplexer offset coefficient	1.0000multiplexer slope coefficient	1.0000fibre end	0.00T internal ref (°C)	26.61T ext. ref 1 (°C)	3.26T ext. ref 2 (°C)	21.67length (m)	temperature (°C)	Stokes	anti-Stokes-747.200	-200.000	0.024	0.288
-746.185	-200.000	-0.021	0.476
-745.171	800.000	-0.061	-0.264
-744.156	103.092	-0.121	0.142
-743.142	273.463	-0.193	0.343
-742.127	246.781	0.059	-0.099
-741.112	-200.000	0.017	-0.117
-740.098	-27.925	-0.195	0.113
-739.083	-200.000	0.103	0.481
-738.069	-200.000	0.047	0.277
-737.054	-200.000	-0.066	0.333
-736.039	-78.671	-0.084	0.029
-735.025	34.946	0.212	0.187
-734.010	-20.545	-0.253	-0.156
-732.996	122.729	-0.091	0.114
-731.981	-200.000	0.011	0.390
-730.966	-76.548	-0.183	0.065
-729.952	-200.000	0.010	-0.148
-728.937	425.378	-0.234	-0.505
-727.923	1.657	0.255	-0.184
-726.908	800.000	-0.045	-0.198
-725.894	-200.000	0.019	-0.106
-724.879	-65.530	-0.059	-0.024
-723.864	87.985	0.230	-0.256
-722.850	-1.445	-0.111	-0.079
-721.835	-4.202	-0.228	-0.158
-720.821	-154.199	-0.306	0.021
-719.806	-200.000	0.027	0.148
-718.791	469.770	-0.077	0.174
-717.777	-138.872	-0.081	-0.009
-716.762	-200.000	0.013	0.348
-715.748	-94.106	-0.181	-0.050
-714.733	800.000	-0.029	-0.100
-713.718	-92.487	-0.242	-0.068
-712.704	-6.322	-0.243	-0.166
-711.689	-200.000	0.014	0.070
-710.675	-200.000	-0.013	0.237
-709.660	800.000	-0.134	0.536
-708.645	267.999	-0.134	0.235
-707.631	94.825	0.116	0.133
-706.616	-110.389	0.078	-0.016
-705.602	-79.162	0.294	0.100
-704.587	-54.326	-0.025	0.011
-703.572	407.804	-0.046	-0.098
-702.558	284.075	0.089	-0.161
-701.543	198.685	-0.088	-0.135
-700.529	800.000	-0.099	0.282
-699.514	-44.991	0.204	0.102
-698.499	800.000	-0.065	-0.265
-697.485	76.157	0.204	-0.217
-696.470	-67.052	-0.343	-0.136
-695.456	-200.000	-0.010	-0.334
-694.441	-117.093	0.233	-0.043
-693.426	-200.000	-0.013	0.249
-692.412	-103.617	0.243	-0.057
-691.397	350.638	-0.029	-0.058
-690.383	56.921	0.345	-0.337
-689.368	156.230	-0.057	0.079
-688.354	-104.224	0.191	-0.044
-687.339	-75.238	-0.130	-0.047
-686.324	-200.000	0.006	0.239
-685.310	102.941	0.169	0.198
-684.295	63.475	-0.071	-0.071
-683.281	-14.375	0.143	-0.092
-682.266	331.934	-0.130	0.252
-681.251	800.000	0.072	0.208
-680.237	-200.000	0.013	0.168
-679.222	103.081	0.162	0.190
-678.208	-200.000	-0.017	0.162
-677.193	413.613	0.028	0.059
-676.178	-113.638	-0.334	-0.065
-675.164	-91.429	-0.462	0.132
-674.149	-133.927	0.125	0.016
-673.135	98.021	-0.090	0.104
-672.120	-150.760	-0.314	0.024
-671.105	-117.155	0.261	0.048
-670.091	-22.507	0.214	0.130
-669.076	783.402	-0.165	-0.453
-668.062	-43.189	-0.208	0.105
-667.047	80.374	0.034	-0.037
-666.032	-122.531	-0.149	-0.024
-665.018	-200.000	0.046	-0.216
-664.003	239.238	-0.216	-0.360
-662.989	-142.182	-0.128	-0.013
-661.974	-96.983	0.257	-0.067
-660.959	-125.156	0.123	-0.019
-659.945	800.000	-0.021	0.078
-658.930	227.845	-0.078	-0.127
-657.916	130.177	-0.076	-0.098
-656.901	104.050	0.058	-0.068
-655.886	96.950	0.198	-0.227
-654.872	130.482	0.092	0.118
-653.857	-55.833	0.039	-0.017
-652.843	426.219	0.080	-0.172
-651.828	523.208	-0.070	0.164
-650.814	59.131	0.223	-0.220
-649.799	60.786	0.084	0.083
-648.784	-200.000	-0.034	-0.219
-647.770	61.700	-0.204	-0.203
-646.755	800.000	-0.068	-0.202
-645.741	-200.000	-0.047	0.249
-644.726	691.804	0.080	0.210
-643.711	800.000	-0.105	0.292
-642.697	19.694	0.096	0.078
-641.682	-91.256	-0.180	0.052
-640.668	-200.000	-0.009	-0.247
-639.653	388.059	-0.041	0.085
-638.638	482.543	-0.039	0.089
-637.624	800.000	-0.029	-0.091
-636.609	-75.839	-0.076	0.027
-635.595	-110.911	-0.186	0.038
-634.580	-68.269	-0.330	-0.128
-633.565	-155.433	-0.252	0.016
-632.551	306.077	0.129	0.239
-631.536	600.386	-0.101	0.250
-630.522	800.000	0.052	-0.144
-629.507	-40.953	0.141	-0.073
-628.492	-43.411	-0.007	-0.004
-627.478	-90.945	0.095	-0.027
-626.463	5.954	0.314	-0.232
-625.449	-184.831	0.318	0.005
-624.434	800.000	0.068	-0.282
-623.419	-23.053	-0.301	-0.181
-622.405	417.022	-0.108	0.231
-621.390	-200.000	-0.291	0.000
-620.376	-115.374	0.269	-0.051
-619.361	395.986	0.022	-0.046
-618.346	-113.487	0.331	0.065
-617.332	7.762	-0.118	0.088
-616.317	800.000	0.070	-0.216
-615.303	-146.289	-0.369	-0.032
-614.288	-130.218	-0.319	0.043
-613.273	30.725	-0.252	-0.215
-612.259	-63.558	0.074	-0.031
-611.244	55.112	-0.067	-0.064
-610.230	779.175	-0.135	-0.368
-609.215	-110.852	-0.228	-0.047
-608.201	-200.000	-0.053	-0.345
-607.186	-61.063	-0.220	-0.093
-606.171	117.051	-0.243	-0.298
-605.157	152.268	0.100	-0.137
-604.142	107.202	0.206	0.244
-603.128	-190.567	-0.316	-0.003
-602.113	279.967	-0.221	-0.394
-601.098	-200.000	0.005	0.220
-600.084	-103.695	-0.071	0.017
-599.069	-111.376	0.382	-0.078
-598.055	800.000	-0.054	-0.228
-597.040	11.278	-0.029	0.022
-596.025	101.816	-0.223	-0.260
-595.011	51.601	-0.164	0.156
-593.996	-122.835	-0.059	-0.009
-592.982	-41.612	0.172	-0.088
-591.967	800.000	-0.035	-0.099
-590.952	-200.000	-0.006	-0.318
-589.938	800.000	0.020	-0.081
-588.923	-124.546	0.062	0.010
-587.909	-200.000	-0.007	-0.085
-586.894	-116.203	-0.231	-0.043
-585.879	595.197	0.079	0.196
-584.865	96.638	-0.193	-0.220
-583.850	-84.531	0.254	0.080
-582.836	-129.791	0.608	0.083
-581.821	800.000	-0.012	-0.053
-580.806	-120.049	0.062	0.011
-579.792	-57.994	0.323	-0.140
-578.777	539.538	-0.114	-0.270
-577.763	52.896	-0.215	-0.206
-576.748	-17.354	0.263	-0.165
-575.733	-123.277	-0.086	-0.014
-574.719	-157.827	0.221	-0.013
-573.704	-122.582	0.119	0.019
-572.690	800.000	0.029	0.116
-571.675	-140.308	-0.180	-0.019
-570.661	237.179	0.106	0.176
-569.646	-200.000	0.009	-0.063
-568.631	-132.299	0.201	0.026
-567.617	41.293	0.092	-0.083
-566.602	-200.000	0.016	-0.341
-565.588	-29.205	-0.054	0.031
-564.573	-163.190	-0.158	-0.008
-563.558	-103.775	-0.120	0.028
-562.544	800.000	0.028	-0.095
-561.529	-137.405	-0.174	0.020
-560.515	116.253	-0.079	0.097
-559.500	-200.000	-0.009	0.212
-558.485	195.465	0.094	-0.142
-557.471	-16.543	0.132	0.083
-556.456	56.746	-0.174	-0.169
-555.442	-121.710	0.139	0.023
-554.427	-76.293	-0.173	-0.061
-553.412	-190.446	0.112	0.001
-552.398	37.754	-0.094	0.083
-551.383	-113.907	-0.141	0.027
-550.369	800.000	0.050	0.185
-549.354	-85.973	0.315	-0.097
-548.339	-65.618	0.154	-0.062
-547.325	-99.722	0.363	-0.091
-546.310	-110.955	-0.030	0.006
-545.296	83.791	-0.141	0.153
-544.281	-200.000	-0.273	0.001
-543.266	800.000	-0.014	-0.053
-542.252	20.998	-0.081	0.065
-541.237	-200.000	0.031	-0.393
-540.223	-200.000	0.028	0.345
-539.208	-200.000	0.013	0.409
-538.193	-45.188	-0.232	-0.115
-537.179	-64.535	-0.255	-0.103
-536.164	151.579	-0.099	-0.134
-535.150	20.476	0.192	0.154
-534.135	5.238	0.153	0.112
-533.121	-16.605	0.090	-0.057
-532.106	-132.377	-0.325	-0.042
-531.091	-200.000	0.044	-0.443
-530.077	800.000	0.051	-0.174
-529.062	-200.000	0.029	-0.174
-528.048	-200.000	-0.001	0.208
-527.033	517.978	0.158	0.368
-526.018	20.000	0.313	0.251
-525.004	52.695	-0.165	0.157
-523.989	-96.785	-0.197	-0.052
-522.975	-91.266	0.321	0.091
-521.960	633.117	0.007	0.019
-520.945	-162.908	0.166	0.008
-519.931	800.000	-0.018	0.069
-518.916	-172.747	-0.323	-0.010
-517.902	800.000	-0.048	-0.208
-516.887	-174.506	-0.228	-0.007
-515.872	-140.997	0.385	-0.039
-514.858	38.010	-0.141	0.125
-513.843	144.732	0.083	-0.110
-512.829	-123.139	0.302	-0.048
-511.814	-200.000	-0.066	0.480
-510.799	-40.941	0.269	-0.139
-509.785	57.910	-0.258	0.252
-508.770	-136.414	0.114	-0.013
-507.756	800.000	0.090	-0.250
-506.741	-24.731	-0.214	-0.126
-505.726	-92.981	-0.314	0.087
-504.712	78.022	-0.078	0.082
-503.697	-100.835	0.179	0.044
-502.683	21.488	-0.115	0.093
-501.668	-105.208	0.165	0.038
-500.653	-112.404	-0.164	-0.033
-499.639	-67.089	0.436	0.171
-498.624	-107.634	-0.401	0.087
-497.610	-200.000	-0.031	0.318
-496.595	-200.000	-0.029	0.125
-495.581	-200.000	-0.053	0.247
-494.566	800.000	-0.104	-0.378
-493.551	-50.997	-0.215	0.100
-492.537	38.568	0.146	0.130
-491.522	-55.543	0.313	-0.139
-490.508	-58.023	-0.116	-0.050
-489.493	-200.000	-0.030	-0.189
-488.478	-200.000	0.016	0.076
-487.464	-200.000	0.002	0.149
-486.449	101.705	0.241	0.279
-485.435	-46.618	-0.236	-0.115
-484.420	-67.179	0.171	0.067
-483.405	-200.000	-0.011	-0.111
-482.391	42.591	-0.256	-0.231
-481.376	-33.531	0.336	-0.184
-480.362	107.122	-0.112	0.133
-479.347	734.480	0.102	-0.270
-478.332	302.811	0.046	0.084
-477.318	161.857	-0.109	0.152
-476.303	-94.349	-0.207	0.056
-475.289	-101.748	0.104	-0.025
-474.274	-149.794	0.145	0.011
-473.259	-82.603	0.080	0.026
-472.245	-79.909	-0.282	-0.094
-471.230	-200.000	-0.069	-0.332
-470.216	-83.381	0.262	-0.084
-469.201	-73.593	0.303	0.110
-468.186	-187.733	0.157	-0.002
-467.172	-24.304	0.069	0.041
-466.157	683.049	0.131	-0.339
-465.143	-84.642	0.351	0.110
-464.128	719.153	-0.064	0.170
-463.113	-200.000	0.023	0.222
-462.099	-200.000	0.009	0.052
-461.084	-84.016	0.197	0.062
-460.070	-140.631	-0.160	-0.016
-459.055	149.659	-0.209	-0.281
-458.040	-134.346	-0.150	0.018
-457.026	-200.000	-0.015	0.092
-456.011	-18.477	-0.155	0.096
-454.997	-166.546	0.108	0.004
-453.982	523.075	0.106	-0.248
-452.968	800.000	0.025	-0.084
-451.953	800.000	0.034	-0.145
-450.938	-200.000	0.016	-0.103
-449.924	-75.223	0.146	0.052
-448.909	800.000	0.059	-0.190
-447.895	-176.981	0.126	0.003
-446.880	-193.485	0.347	0.003
-445.865	303.529	-0.062	0.114
-444.851	-200.000	0.059	0.270
-443.836	346.631	0.053	-0.103
-442.822	185.338	-0.095	0.140
-441.807	95.759	-0.211	0.239
-440.792	-105.163	0.232	-0.053
-439.778	800.000	0.022	-0.086
-438.763	334.646	-0.117	0.225
-437.749	-113.805	0.259	0.050
-436.734	-42.509	0.173	-0.088
-435.719	-115.204	-0.291	-0.055
-434.705	102.825	-0.046	0.053
-433.690	579.742	0.053	-0.129
-432.676	-36.955	0.281	0.149
-431.661	-102.729	-0.301	0.071
-430.646	-113.913	-0.049	0.009
-429.632	-25.299	-0.294	0.173
-428.617	-200.000	-0.024	0.161
-427.603	-61.547	-0.325	0.135
-426.588	-56.742	0.134	-0.059
-425.573	-79.612	-0.277	0.093
-424.559	-200.000	0.043	-0.214
-423.544	-200.000	-0.018	0.076
-422.530	-134.248	0.326	0.040
-421.515	174.207	0.104	0.149
-420.500	-58.723	0.158	0.068
-419.486	105.312	-0.170	0.199
-418.471	-3.192	0.246	-0.170
-417.457	-147.615	-0.154	-0.013
-416.442	602.610	0.085	-0.210
-415.428	50.146	0.376	-0.352
-414.413	-131.883	-0.173	0.022
-413.398	800.000	0.032	-0.100
-412.384	-30.667	0.055	0.031
-411.369	168.061	0.075	-0.106
-410.355	258.247	-0.052	-0.089
-409.340	800.000	0.093	0.300
-408.325	-75.069	0.154	-0.054
-407.311	45.656	0.297	0.272
-406.296	-10.347	0.136	0.089
-405.282	-60.517	0.079	-0.033
-404.267	21.665	0.165	-0.133
-403.252	-124.114	0.135	0.021
-402.238	87.182	-0.065	0.071
-401.223	335.956	0.083	0.160
-400.209	-200.000	-0.033	0.207
-399.194	118.672	-0.043	-0.053
-398.179	400.836	0.118	-0.245
-397.165	86.295	0.347	-0.379
-396.150	177.163	0.192	-0.277
-395.136	-143.998	-0.219	0.020
-394.121	170.303	-0.205	0.290
-393.106	56.303	0.137	0.132
-392.092	-74.304	-0.099	-0.036
-391.077	268.151	0.098	0.170
-390.063	-37.875	-0.141	0.074
-389.048	229.010	0.100	-0.161
-388.033	-141.721	0.219	0.022
-387.019	-5.937	-0.101	-0.068
-386.004	90.790	0.039	0.043
-384.990	-132.903	-0.076	-0.010
-383.975	-200.000	-0.023	0.436
-382.960	-68.241	-0.297	0.114
-381.946	800.000	-0.053	-0.179
-380.931	800.000	0.046	0.153
-379.917	5.438	-0.074	-0.054
-378.902	281.370	0.104	-0.185
-377.888	302.759	0.059	0.107
-376.873	-7.376	0.167	0.112
-375.858	272.790	-0.126	0.220
-374.844	-39.206	0.263	-0.137
-373.829	50.195	0.140	0.131
-372.815	384.997	-0.094	0.193
-371.800	-77.151	-0.100	-0.035
-370.785	227.911	-0.068	-0.109
-369.771	-21.973	-0.203	-0.122
-368.756	-6.386	0.108	-0.073
-367.742	-200.000	0.022	0.160
-366.727	-171.320	-0.202	0.007
-365.712	-72.555	-0.080	0.029
-364.698	5.619	-0.053	0.039
-363.683	-149.694	0.208	-0.016
-362.669	480.587	0.029	0.066
-361.654	139.111	0.206	0.268
-360.639	-200.000	-0.026	-0.227
-359.625	-180.586	-0.335	-0.007
-358.610	-143.564	0.016	0.002
-357.596	767.853	0.073	0.196
-356.581	36.809	-0.254	-0.222
-355.566	800.000	-0.043	-0.154
-354.552	286.710	0.066	-0.119
-353.537	-49.424	-0.096	-0.045
-352.523	-70.403	0.254	-0.095
-351.508	287.321	-0.119	0.213
-350.493	-14.011	0.183	0.117
-349.479	129.086	0.114	0.144
-348.464	-45.044	-0.232	0.114
-347.450	-200.000	-0.079	0.367
-346.435	-45.131	0.119	0.058
-345.420	-152.699	-0.324	-0.023
-344.406	84.127	0.108	0.117
-343.391	-130.041	0.093	0.013
-342.377	313.423	0.153	-0.285
-341.362	93.424	0.190	-0.213
-340.348	144.802	0.200	-0.264
-339.333	-114.695	0.304	0.057
-338.318	-85.825	0.043	0.013
-337.304	20.745	-0.072	-0.057
-336.289	278.485	0.112	-0.198
-335.275	-22.683	-0.155	-0.093
-334.260	221.786	-0.133	0.212
-333.245	276.678	-0.039	0.068
-332.231	-200.000	0.043	0.239
-331.216	-200.000	0.039	0.206
-330.202	-200.000	-0.064	0.330
-329.187	3.537	-0.239	0.172
-328.172	227.437	-0.135	0.218
-327.158	237.475	0.104	-0.171
-326.143	-175.370	0.083	0.002
-325.129	-200.000	0.020	-0.144
-324.114	-200.000	-0.045	0.227
-323.099	344.994	0.030	0.057
-322.085	-122.771	-0.174	-0.028
-321.070	540.015	0.049	-0.116
-320.056	45.708	-0.030	-0.027
-319.041	-200.000	0.029	-0.170
-318.026	-101.016	0.197	0.048
-317.012	10.636	-0.256	0.192
-315.997	155.342	0.026	-0.035
-314.983	800.000	0.005	0.021
-313.968	-14.533	-0.174	0.111
-312.953	213.979	-0.049	0.076
-311.939	172.293	0.063	-0.089
-310.924	-200.000	-0.001	-0.066
-309.910	800.000	-0.091	-0.273
-308.895	615.235	-0.049	0.122
-307.880	-200.000	0.010	-0.072
-306.866	-200.000	-0.033	-0.244
-305.851	-32.893	-0.248	-0.136
-304.837	-123.844	0.299	-0.047
-303.822	222.465	-0.074	0.117
-302.807	800.000	-0.023	0.068
-301.793	-4.403	-0.145	-0.099
-300.778	75.194	-0.185	0.193
-299.764	-200.000	0.001	0.037
-298.749	216.804	0.095	0.149
-297.735	-83.998	-0.504	0.158
-296.720	449.985	-0.093	0.203
-295.705	649.897	0.122	0.308
-294.691	-41.430	-0.138	0.070
-293.676	-200.000	-0.022	0.298
-292.662	-56.408	-0.247	0.108
-291.647	800.000	-0.071	0.214
-290.632	112.982	0.022	0.026
-289.618	-85.288	0.192	-0.059
-288.603	-200.000	-0.021	-0.227
-287.589	-182.833	0.124	-0.002
-286.574	-33.841	-0.308	-0.167
-285.559	800.000	-0.048	0.185
-284.545	-200.000	-0.001	-0.169
-283.530	-55.392	-0.285	-0.126
-282.516	-12.648	0.314	0.202
-281.501	800.000	-0.031	0.100
-280.486	800.000	0.073	-0.311
-279.472	-200.000	-0.060	0.327
-278.457	72.769	-0.058	-0.060
-277.443	114.351	-0.287	-0.344
-276.428	351.310	-0.067	-0.132
-275.413	34.345	-0.145	0.124
-274.399	107.074	0.252	0.296
-273.384	-200.000	0.013	0.142
-272.370	-26.378	0.133	0.077
-271.355	55.033	0.118	-0.112
-270.340	-177.346	0.434	0.011
-269.326	718.068	0.082	0.216
-268.311	192.655	-0.149	0.221
-267.297	-154.638	-0.285	-0.019
-266.282	200.545	0.164	-0.248
-265.267	-85.787	0.348	-0.106
-264.253	800.000	0.154	-0.642
-263.238	129.190	-0.026	0.033
-262.224	-142.454	-0.285	-0.028
-261.209	86.141	-0.241	0.261
-260.195	13.287	0.187	-0.143
-259.180	800.000	0.141	0.388
-258.165	-200.000	-0.055	-0.236
-257.151	-114.789	-0.171	0.032
-256.136	523.872	-0.237	0.550
-255.122	-200.000	-0.036	-0.277
-254.107	-164.843	-0.229	0.010
-253.092	-41.354	-0.378	0.192
-252.078	39.076	-0.090	-0.080
-251.063	84.922	0.228	0.246
-250.049	137.959	0.121	-0.156
-249.034	-8.502	0.155	0.103
-248.019	-200.000	-0.030	-0.400
-247.005	299.252	-0.099	-0.180
-245.990	391.320	0.086	0.175
-244.976	86.668	-0.190	0.207
-243.961	17.712	0.094	0.073
-242.946	679.165	0.124	-0.319
-241.932	270.711	0.082	-0.142
-240.917	-200.000	-0.039	0.183
-239.903	-68.083	-0.254	0.097
-238.888	-200.000	0.028	-0.217
-237.873	109.321	-0.116	-0.136
-236.859	681.021	-0.069	0.178
-235.844	220.192	-0.129	-0.203
-234.830	165.211	-0.189	0.262
-233.815	-200.000	0.012	-0.171
-232.800	599.628	-0.094	-0.229
-231.786	166.714	0.176	0.245
-230.771	72.602	-0.199	0.205
-229.757	261.963	0.136	0.232
-228.742	-58.271	0.140	-0.060
-227.727	151.716	-0.390	0.524
-226.713	-84.204	-0.326	-0.102
-225.698	-80.609	-0.536	-0.176
-224.684	166.701	0.125	-0.174
-223.669	800.000	-0.052	0.207
-222.655	32.888	0.255	-0.217
-221.640	-75.476	0.404	-0.141
-220.625	44.312	0.154	0.139
-219.611	238.184	0.128	0.208
-218.596	-200.000	-0.018	0.109
-217.582	-200.000	0.006	-0.462
-216.567	-108.358	-0.074	0.016
-215.552	-97.214	0.197	-0.051
-214.538	-6.852	0.245	-0.164
-213.523	800.000	-0.060	0.175
-212.509	-200.000	-0.038	-0.261
-211.494	445.323	0.091	-0.196
-210.479	-183.710	0.193	-0.003
-209.465	117.450	0.034	0.041
-208.450	800.000	0.010	0.032
-207.436	781.608	0.093	-0.250
-206.421	24.903	0.165	-0.135
-205.406	-200.000	-0.050	-0.304
-204.392	-200.000	0.066	0.291
-203.377	293.420	-0.060	0.108
-202.363	-50.089	0.126	-0.059
-201.348	-200.000	-0.036	0.244
-200.333	125.127	0.129	-0.160
-199.319	-18.275	0.169	-0.104
-198.304	-38.735	0.042	0.022
-197.290	8.002	0.098	0.072
-196.275	-92.377	0.199	-0.055
-195.260	800.000	-0.031	0.104
-194.246	81.230	0.049	0.052
-193.231	-200.000	-0.017	-0.236
-192.217	-46.964	-0.188	-0.090
-191.202	-200.000	-0.005	-0.051
-190.187	800.000	-0.039	0.135
-189.173	161.560	-0.049	0.068
-188.158	-75.392	0.061	0.021
-187.144	161.177	-0.087	0.119
-186.129	209.595	0.021	-0.032
-185.114	371.854	-0.081	-0.161
-184.100	139.057	0.042	0.055
-183.085	-200.000	0.006	-0.034
-182.071	-200.000	0.049	0.261
-181.056	800.000	0.119	0.448
-180.042	-96.903	0.166	-0.043
-179.027	-20.718	-0.121	-0.073
-178.012	74.096	0.236	0.244
-176.998	-13.367	-0.114	-0.073
-175.983	40.818	-0.171	-0.151
-174.969	150.374	0.252	-0.335
-173.954	196.476	-0.053	-0.079
-172.939	-96.800	-0.061	-0.016
-171.925	-176.890	-0.178	-0.004
-170.910	800.000	0.062	0.193
-169.896	-70.623	0.168	0.062
-168.881	44.203	-0.155	-0.139
-167.866	-200.000	-0.007	0.081
-166.852	-113.674	-0.204	-0.039
-165.837	33.659	0.325	0.277
-164.823	157.761	0.054	0.073
-163.808	1.911	-0.069	0.049
-162.793	-167.574	-0.198	0.008
-161.779	-200.000	-0.008	-0.155
-160.764	-183.840	-0.028	0.000
-159.750	-79.585	-0.233	-0.077
-158.735	-18.721	-0.311	-0.190
-157.720	-200.000	-0.035	-0.263
-156.706	-83.973	0.102	-0.032
-155.691	-200.000	0.074	-0.340
-154.677	-24.907	-0.190	-0.111
-153.662	-20.146	0.326	0.197
-152.647	7.684	0.152	-0.112
-151.633	-200.000	0.049	0.339
-150.618	-200.000	0.015	0.169
-149.604	-68.460	0.352	-0.134
-148.589	-63.672	0.258	0.104
-147.574	710.581	0.145	0.377
-146.560	631.657	0.056	-0.138
-145.545	-200.000	0.021	-0.400
-144.531	532.798	-0.023	-0.054
-143.516	-200.000	0.021	0.109
-142.502	-111.916	0.548	-0.108
-141.487	-200.000	-0.011	-0.228
-140.472	-132.734	-0.051	0.006
-139.458	800.000	-0.125	-0.347
-138.443	-112.530	-0.082	0.016
-137.429	-34.330	-0.087	-0.047
-136.414	-196.180	0.260	-0.002
-135.399	-108.511	-0.205	0.043
-134.385	-140.218	0.150	0.015
-133.370	212.119	-0.209	0.323
-132.356	-48.449	-0.301	0.142
-131.341	151.335	0.120	0.161
-130.326	-133.754	0.185	0.023
-129.312	302.806	-0.086	-0.157
-128.297	-147.852	0.181	0.015
-127.283	-105.520	0.373	-0.083
-126.268	497.837	0.036	-0.082
-125.253	69.266	-0.142	0.143
-124.239	229.569	0.055	-0.088
-123.224	-12.096	0.104	-0.066
-122.210	-84.923	0.152	0.047
