DTS Sentinel unit serial number:	SN413079Multiplexer serial number:	ORYXHardware model number:	OX4-SRSoftware version number:	ORYX F/W v4.00 Oryx Data Collector v3.7.2.0data status	okinstallation	princeton_trtdifferential loss correction	single-endedforward channel	channel 1reverse channel	N/Adate	2019/09/12time	13:52:11forward acquisition time	60.00reverse acquisition time	0.00gamma	496.2192k internal	0.2292k external	0.2292temperature offset calibration	1.0051default loss term (dB/km)	0.3790temperature slope calibration	1.0000multiplexer offset coefficient	1.0000multiplexer slope coefficient	1.0000fibre end	0.00T internal ref (°C)	40.86T ext. ref 1 (°C)	2.18T ext. ref 2 (°C)	34.87length (m)	temperature (°C)	Stokes	anti-Stokes-747.200	-57.948	0.156	-0.070
-746.185	-41.543	0.040	0.021
-745.171	-200.000	-0.042	0.218
-744.156	572.955	-0.088	0.219
-743.142	800.000	0.124	0.456
-742.127	800.000	0.022	0.088
-741.112	-145.247	0.074	-0.007
-740.098	310.616	0.145	0.279
-739.083	-48.553	-0.149	0.073
-738.069	-200.000	-0.012	0.119
-737.054	-18.416	0.129	0.082
-736.039	430.545	-0.096	0.212
-735.025	-149.760	-0.035	0.003
-734.010	263.112	0.050	-0.089
-732.996	-200.000	-0.061	-0.316
-731.981	-155.727	-0.244	0.016
-730.966	267.179	-0.215	-0.385
-729.952	-67.010	0.402	-0.162
-728.937	800.000	-0.084	-0.292
-727.923	-116.264	-0.452	0.086
-726.908	12.798	-0.092	-0.073
-725.894	140.608	0.109	0.147
-724.879	-200.000	-0.001	0.174
-723.864	274.045	0.195	0.352
-722.850	-78.562	0.245	0.086
-721.835	-115.669	0.143	0.027
-720.821	147.632	-0.052	0.071
-719.806	329.888	-0.143	0.282
-718.791	508.858	-0.078	-0.185
-717.777	14.598	0.073	0.059
-716.762	-200.000	-0.075	-0.444
-715.748	-200.000	-0.027	-0.393
-714.733	72.384	0.167	0.178
-713.718	800.000	-0.039	0.137
-712.704	277.860	0.127	0.231
-711.689	-50.984	0.125	0.060
-710.675	15.129	-0.142	0.114
-709.660	-5.130	0.273	0.192
-708.645	67.901	-0.294	0.307
-707.631	-76.315	-0.352	-0.127
-706.616	-46.978	0.207	0.103
-705.602	-111.032	-0.059	0.012
-704.587	-60.611	-0.011	0.005
-703.572	-104.111	-0.066	-0.016
-702.558	131.694	0.088	-0.116
-701.543	-79.909	-0.065	-0.022
-700.529	30.950	0.360	0.315
-699.514	-168.000	0.168	-0.007
-698.499	134.905	0.352	-0.467
-697.485	-62.454	0.106	-0.045
-696.470	-82.230	0.176	-0.058
-695.456	-159.778	-0.248	0.014
-694.441	-149.403	0.180	-0.015
-693.426	59.151	0.236	0.237
-692.412	800.000	-0.049	0.202
-691.397	390.511	-0.042	0.089
-690.383	-99.117	0.146	0.038
-689.368	-200.000	-0.032	-0.246
-688.354	-159.039	0.216	0.012
-687.339	-63.362	-0.323	0.136
-686.324	-200.000	0.014	0.139
-685.310	-136.525	-0.370	-0.044
-684.295	177.949	-0.156	-0.232
-683.281	184.584	-0.106	-0.161
-682.266	-60.074	-0.182	0.079
-681.251	-39.265	0.295	-0.158
-680.237	594.780	0.065	0.165
-679.222	32.070	0.123	0.109
-678.208	-200.000	-0.057	-0.364
-677.193	800.000	0.077	0.288
-676.178	-200.000	-0.072	-0.376
-675.164	-74.935	0.296	-0.108
-674.149	-76.410	0.572	0.205
-673.135	-4.169	-0.363	0.257
-672.120	206.544	0.162	-0.257
-671.105	63.640	0.132	-0.135
-670.091	-80.960	0.153	-0.052
-669.076	-175.753	-0.107	0.003
-668.062	-200.000	-0.008	0.333
-667.047	-91.839	0.054	-0.016
-666.032	-160.908	0.066	0.004
-665.018	-200.000	-0.008	0.175
-664.003	-8.658	0.086	-0.059
-662.989	-3.734	-0.069	-0.049
-661.974	-200.000	-0.036	-0.296
-660.959	12.872	-0.355	-0.280
-659.945	25.335	0.229	-0.194
-658.930	-200.000	0.054	0.424
-657.916	-200.000	0.036	-0.237
-656.901	-66.903	0.308	0.124
-655.886	90.706	0.096	0.110
-654.872	800.000	0.093	-0.350
-653.857	-200.000	-0.023	-0.106
-652.843	-200.000	-0.012	-0.213
-651.828	97.925	0.031	-0.036
-650.814	154.387	0.071	0.099
-649.799	-200.000	-0.004	0.158
-648.784	-183.855	-0.170	0.003
-647.770	-20.512	-0.410	0.257
-646.755	39.063	-0.118	-0.108
-645.741	281.799	-0.093	-0.170
-644.726	-12.456	-0.142	-0.094
-643.711	114.326	-0.233	-0.289
-642.697	800.000	-0.034	0.152
-641.682	-54.098	0.197	0.091
-640.668	800.000	-0.075	0.320
-639.653	10.681	-0.121	-0.094
-638.638	531.489	-0.037	-0.089
-637.624	-200.000	0.044	-0.269
-636.609	309.497	-0.229	-0.437
-635.595	7.921	-0.194	-0.148
-634.580	-200.000	-0.012	0.422
-633.565	605.926	0.094	-0.240
-632.551	-200.000	0.015	-0.236
-631.536	125.719	-0.188	-0.242
-630.522	-72.514	-0.174	-0.065
-629.507	-131.903	0.192	0.026
-628.492	-174.235	-0.119	0.004
-627.478	-126.457	0.373	0.057
-626.463	-136.573	-0.186	0.022
-625.449	346.007	0.129	0.258
-624.434	15.697	-0.372	-0.298
-623.419	177.463	0.165	-0.244
-622.405	305.374	0.134	0.254
-621.390	714.577	0.066	0.179
-620.376	-56.112	-0.390	0.177
-619.361	-128.452	0.027	0.004
-618.346	-147.170	0.244	0.021
-617.332	-72.708	-0.225	-0.084
-616.317	800.000	-0.047	0.205
-615.303	-14.495	-0.096	0.063
-614.288	79.695	-0.030	-0.032
-613.273	-51.705	-0.446	0.212
-612.259	-64.625	-0.032	-0.013
-611.244	4.413	0.248	-0.185
-610.230	-76.985	0.134	0.048
-609.215	-72.689	0.250	-0.094
-608.201	193.608	0.138	0.213
-607.186	207.462	0.261	0.414
-606.171	706.784	0.130	-0.349
-605.157	-200.000	0.053	-0.536
-604.142	102.440	-0.022	-0.027
-603.128	-200.000	0.000	0.075
-602.113	35.113	-0.275	0.245
-601.098	29.759	-0.128	-0.111
-600.084	800.000	0.129	-0.452
-599.069	322.992	0.024	0.046
-598.055	-200.000	0.037	-0.178
-597.040	-22.181	0.200	-0.123
-596.025	34.850	0.104	0.092
-595.011	-200.000	0.016	0.104
-593.996	26.814	0.363	-0.309
-592.982	110.541	-0.225	0.276
-591.967	800.000	0.090	0.331
-590.952	36.485	0.254	-0.228
-589.938	-98.363	0.197	-0.051
-588.923	44.911	-0.242	-0.227
-587.909	-200.000	0.007	-0.314
-586.894	-28.308	0.188	-0.110
-585.879	-200.000	0.020	0.172
-584.865	-200.000	-0.031	-0.204
-583.850	-200.000	-0.078	-0.374
-582.836	-200.000	0.009	-0.186
-581.821	597.572	0.072	-0.182
-580.806	-61.750	0.132	-0.056
-579.792	-111.706	-0.032	-0.007
-578.777	744.301	-0.152	-0.416
-577.763	800.000	0.058	-0.180
-576.748	562.191	-0.116	0.286
-575.733	435.870	0.112	0.248
-574.719	-85.855	-0.292	0.092
-573.704	-63.593	0.125	-0.052
-572.690	362.486	0.111	0.227
-571.675	-200.000	0.000	-0.033
-570.661	49.154	-0.241	-0.230
-569.646	-95.393	-0.126	0.034
-568.631	112.214	0.070	0.086
-567.617	-7.230	-0.199	0.137
-566.602	-7.896	-0.167	0.114
-565.588	-69.013	-0.408	-0.160
-564.573	-40.696	0.166	0.087
-563.558	-116.880	0.453	-0.084
-562.544	-58.650	-0.357	0.157
-561.529	312.288	0.029	0.055
-560.515	-109.005	0.124	0.027
-559.500	-156.134	0.123	-0.008
-558.485	476.365	-0.190	0.436
-557.471	16.826	-0.200	-0.161
-556.456	-45.891	0.198	-0.099
-555.442	-97.999	-0.258	-0.067
-554.427	79.977	0.121	-0.132
-553.412	-200.000	0.001	-0.070
-552.398	-137.933	-0.120	0.014
-551.383	-117.253	-0.206	-0.038
-550.369	83.581	-0.218	0.241
-549.354	-61.706	0.156	0.066
-548.339	-200.000	0.004	0.200
-547.325	-31.571	-0.162	0.093
-546.310	-103.398	-0.072	0.017
-545.296	58.130	-0.157	-0.156
-544.281	119.902	-0.192	-0.242
-543.266	-200.000	0.008	-0.053
-542.252	-149.658	-0.035	0.003
-541.237	-20.131	-0.297	0.186
-540.223	-131.683	-0.474	-0.063
-539.208	-192.393	0.214	0.002
-538.193	205.570	0.174	0.275
-537.179	79.479	0.188	-0.205
-536.164	-153.648	-0.291	0.020
-535.150	87.251	0.197	0.221
-534.135	35.816	-0.222	-0.198
-533.121	800.000	-0.051	-0.174
-532.106	799.457	0.086	0.241
-531.091	259.804	0.246	0.431
-530.077	-126.321	0.489	-0.074
-529.062	-117.591	-0.162	-0.030
-528.048	215.262	0.029	-0.047
-527.033	-136.322	-0.253	0.030
-526.018	532.856	-0.152	0.365
-525.004	-64.183	-0.080	-0.033
-523.989	30.094	-0.123	-0.107
-522.975	-93.363	-0.150	0.042
-521.960	800.000	-0.021	-0.062
-520.945	-200.000	0.205	-0.001
-519.931	-200.000	-0.013	0.073
-518.916	-175.811	0.187	-0.005
-517.902	91.389	0.158	0.181
-516.887	590.178	-0.074	0.186
-515.872	-124.367	0.258	0.041
-514.858	165.084	-0.267	0.382
-513.843	-200.000	0.044	-0.271
-512.829	-44.567	-0.105	-0.053
-511.814	-17.658	-0.212	-0.135
-510.799	-79.517	0.375	0.128
-509.785	-128.042	-0.032	-0.005
-508.770	-23.591	0.172	-0.104
-507.756	-187.785	-0.055	0.001
-506.741	-110.197	0.256	0.054
-505.726	40.471	0.241	0.220
-504.712	313.903	0.033	-0.063
-503.697	-123.823	0.169	0.027
-502.683	250.096	-0.176	-0.302
-501.668	-4.495	-0.276	0.193
-500.653	291.638	-0.070	0.130
-499.639	-132.174	0.009	-0.001
-498.624	-200.000	-0.020	0.129
-497.610	25.792	-0.085	-0.071
-496.595	-200.000	0.017	-0.143
-495.581	800.000	0.060	-0.248
-494.566	111.833	-0.107	-0.131
-493.551	-41.718	0.179	-0.093
-492.537	125.944	0.086	-0.110
-491.522	-66.586	-0.095	-0.038
-490.508	271.487	0.069	0.123
-489.493	-146.081	0.437	-0.039
-488.478	-113.777	0.434	0.086
-487.464	109.119	0.064	-0.078
-486.449	-42.768	-0.295	0.152
-485.435	-51.624	-0.216	0.102
-484.420	-16.332	-0.195	0.126
-483.405	-59.360	-0.108	-0.047
-482.391	-117.976	-0.100	0.018
-481.376	-128.926	0.398	-0.057
-480.362	-200.000	0.070	-0.533
-479.347	-102.169	-0.242	-0.059
-478.332	-200.000	-0.017	0.136
-477.318	1.970	-0.244	-0.178
-476.303	-200.000	-0.020	-0.301
-475.289	3.052	0.197	0.145
-474.274	-200.000	0.020	0.319
-473.259	-11.129	0.399	-0.267
-472.245	237.289	-0.125	0.210
-471.230	-9.731	-0.249	-0.168
-470.216	-20.332	-0.388	-0.242
-469.201	80.151	-0.184	-0.201
-468.186	800.000	0.035	-0.129
-467.172	-89.957	0.307	0.091
-466.157	-46.583	0.241	-0.120
-465.143	-98.323	0.167	-0.043
-464.128	-78.010	-0.090	-0.031
-463.113	-200.000	-0.009	0.175
-462.099	32.077	0.129	0.113
-461.084	52.294	0.066	0.064
-460.070	-200.000	0.064	-0.482
-459.055	800.000	0.093	0.296
-458.040	143.758	-0.094	-0.127
-457.026	-105.160	-0.312	0.072
-456.011	306.218	-0.203	-0.382
-454.997	104.555	-0.012	0.014
-453.982	-125.983	0.164	-0.025
-452.968	78.612	-0.162	0.176
-451.953	800.000	0.038	0.108
-450.938	-200.000	-0.005	-0.054
-449.924	-155.829	0.050	0.003
-448.909	98.159	0.037	0.044
-447.895	6.048	-0.142	-0.106
-446.880	-200.000	0.056	-0.389
-445.865	-138.731	-0.099	0.011
-444.851	-50.244	-0.154	0.074
-443.836	63.832	0.189	-0.192
-442.822	-39.368	-0.154	-0.082
-441.807	-105.576	0.130	-0.030
-440.792	-200.000	-0.035	0.244
-439.778	8.584	-0.151	-0.115
-438.763	-102.139	-0.101	0.025
-437.749	-79.165	-0.161	-0.055
-436.734	769.418	0.107	-0.296
-435.719	346.401	0.199	0.395
-434.705	-40.296	-0.253	0.133
-433.690	-200.000	0.010	0.162
-432.676	39.545	-0.129	0.117
-431.661	-200.000	0.011	-0.072
-430.646	800.000	-0.068	-0.244
-429.632	-60.224	0.347	-0.150
-428.617	-36.298	-0.322	0.175
-427.603	356.970	0.030	0.060
-426.588	592.559	-0.138	0.346
-425.573	-29.671	0.422	-0.243
-424.559	-200.000	0.001	0.024
-423.544	-45.917	0.053	-0.026
-422.530	-200.000	-0.089	0.558
-421.515	161.359	0.167	0.235
-420.500	-200.000	0.032	-0.201
-419.486	335.387	0.112	0.220
-418.471	72.772	-0.109	0.115
-417.457	-200.000	0.050	0.335
-416.442	145.377	0.124	0.168
-415.428	-200.000	0.021	0.407
-414.413	7.078	0.236	0.178
-413.398	-64.073	0.186	-0.077
-412.384	366.580	-0.050	0.101
-411.369	-177.743	-0.218	0.005
-410.355	4.354	-0.160	-0.118
-409.340	638.450	-0.065	0.167
-408.325	17.781	0.153	0.123
-407.311	800.000	-0.054	-0.155
-406.296	262.306	-0.145	-0.254
-405.282	800.000	0.097	-0.353
-404.267	800.000	0.043	0.176
-403.252	-200.000	0.052	0.395
-402.238	-12.028	0.173	0.114
-401.223	-95.927	0.208	0.056
-400.209	-163.436	0.473	-0.023
-399.194	234.239	0.037	-0.061
-398.179	-97.715	0.194	-0.051
-397.165	-101.752	0.194	0.048
-396.150	110.384	-0.136	-0.164
-395.136	56.264	0.043	0.042
-394.121	89.686	0.040	-0.045
-393.106	62.106	-0.092	0.093
-392.092	-200.000	0.017	0.095
-391.077	-200.000	-0.016	0.243
-390.063	291.945	0.183	0.336
-389.048	-103.995	0.451	-0.106
-388.033	445.175	0.130	0.288
-387.019	186.782	-0.104	-0.156
-386.004	-200.000	0.007	-0.045
-384.990	-1.385	0.194	-0.138
-383.975	-180.291	0.254	-0.005
-382.960	30.524	0.046	0.040
-381.946	-141.078	-0.183	0.019
-380.931	512.278	0.047	-0.110
-379.917	-200.000	0.004	0.177
-378.902	120.520	-0.112	-0.140
-377.888	-74.603	0.248	-0.090
-376.873	386.963	0.041	-0.086
-375.858	-127.065	0.286	-0.042
-374.844	28.153	-0.072	0.061
-373.829	184.323	-0.037	0.056
-372.815	132.967	-0.114	0.148
-371.800	-158.337	-0.147	0.009
-370.785	59.983	-0.117	0.116
-369.771	-143.292	-0.075	0.007
-368.756	-69.656	-0.165	0.064
-367.742	-132.938	0.163	0.021
-366.727	38.669	-0.191	0.172
-365.712	588.157	-0.068	-0.168
-364.698	-200.000	0.039	-0.240
-363.683	561.427	0.029	-0.071
-362.669	-127.222	-0.145	0.021
-361.654	54.215	0.131	-0.127
-360.639	-200.000	0.099	-0.618
-359.625	688.341	0.096	-0.252
-358.610	-126.423	-0.129	-0.019
-357.596	-200.000	0.412	-0.001
-356.581	498.877	-0.027	0.064
-355.566	-200.000	-0.005	-0.341
-354.552	-75.915	0.357	-0.128
-353.537	178.503	-0.199	0.293
-352.523	141.205	-0.134	0.179
-351.508	800.000	-0.029	-0.104
-350.493	513.518	-0.117	0.275
-349.479	-72.217	0.102	-0.038
-348.464	225.938	0.011	0.019
-347.450	34.129	-0.208	-0.183
-346.435	-73.666	0.302	0.111
-345.420	800.000	-0.028	0.079
-344.406	302.037	0.140	0.261
-343.391	800.000	-0.078	0.336
-342.377	56.974	0.108	-0.106
-341.362	-102.996	0.031	-0.007
-340.348	40.557	-0.362	-0.329
-339.333	4.106	-0.314	0.231
-338.318	-25.021	-0.329	0.197
-337.304	285.617	-0.078	-0.141
-336.289	-1.944	-0.365	-0.258
-335.275	800.000	-0.054	-0.160
-334.260	-200.000	-0.031	-0.228
-333.245	800.000	0.016	0.061
-332.231	-200.000	-0.035	0.326
-331.216	-190.642	-0.290	-0.003
-330.202	-151.524	-0.299	-0.022
-329.187	-200.000	0.011	0.400
-328.172	-93.960	0.073	0.020
-327.158	-200.000	-0.021	-0.152
-326.143	-90.927	0.160	-0.046
-325.129	-200.000	-0.047	0.224
-324.114	-57.985	-0.182	0.080
-323.099	422.191	0.108	-0.233
-322.085	-128.576	-0.328	0.047
-321.070	97.116	-0.112	-0.129
-320.056	229.830	-0.061	-0.100
-319.041	61.550	0.292	0.293
-318.026	-200.000	-0.012	-0.082
-317.012	-36.147	-0.061	-0.033
-315.997	-97.948	-0.125	0.033
-314.983	-200.000	0.024	-0.335
-313.968	-200.000	0.012	-0.322
-312.953	-143.875	0.088	0.008
-311.939	-200.000	0.009	0.045
-310.924	-200.000	-0.043	-0.392
-309.910	41.435	0.239	-0.218
-308.895	-170.379	-0.198	-0.007
-307.880	800.000	0.108	0.384
-306.866	-40.452	-0.285	-0.149
-305.851	637.408	0.103	-0.263
-304.837	-120.580	-0.212	-0.036
-303.822	-18.951	0.275	0.172
-302.807	-119.746	-0.134	0.023
-301.793	707.073	-0.115	0.305
-300.778	-166.819	-0.273	-0.011
-299.764	84.048	0.028	-0.031
-298.749	-200.000	0.022	-0.099
-297.735	51.573	-0.049	-0.046
-296.720	-52.498	0.191	-0.089
-295.705	800.000	0.057	0.190
-294.691	800.000	0.039	-0.166
-293.676	-165.203	-0.076	0.003
-292.662	13.994	-0.083	0.065
-291.647	-106.451	-0.333	-0.075
-290.632	-137.111	-0.067	-0.008
-289.618	97.184	0.128	0.148
-288.603	-200.000	0.022	-0.324
-287.589	800.000	0.031	0.124
-286.574	27.767	0.146	-0.123
-285.559	236.042	0.178	0.297
-284.545	562.957	0.128	0.312
-283.530	5.141	0.267	-0.198
-282.516	338.031	-0.197	-0.385
-281.501	395.169	0.052	-0.109
-280.486	746.081	-0.177	0.480
-279.472	-45.522	0.328	0.163
-278.457	-64.396	-0.148	0.060
-277.443	-132.774	-0.401	-0.051
-276.428	-172.400	-0.028	0.001
-275.413	-132.246	-0.421	0.055
-274.399	159.810	-0.095	0.132
-273.384	800.000	-0.058	0.212
-272.370	430.650	0.126	0.274
-271.355	800.000	0.065	0.250
-270.340	-200.000	-0.018	0.128
-269.326	-200.000	0.029	0.143
-268.311	264.056	0.161	0.280
-267.297	-18.275	-0.144	0.090
-266.282	255.268	-0.110	0.190
-265.267	800.000	-0.092	-0.323
-264.253	-100.638	0.446	-0.111
-263.238	430.777	0.069	0.150
-262.224	-87.385	0.062	0.019
-261.209	-34.791	0.291	-0.160
-260.195	-108.621	0.336	0.072
-259.180	259.699	-0.028	-0.049
-258.165	800.000	-0.048	0.209
-257.151	-200.000	0.003	0.067
-256.136	26.721	0.269	-0.226
-255.122	59.546	-0.190	0.188
-254.107	-74.997	0.226	0.081
-253.092	-49.423	-0.199	0.095
-252.078	-66.541	0.185	-0.074
-251.063	-200.000	0.009	-0.161
-250.049	82.405	-0.200	-0.218
-249.034	22.240	-0.202	-0.166
-248.019	-82.913	0.531	-0.172
-247.005	-200.000	-0.005	0.326
-245.990	-200.000	0.007	-0.119
-244.976	339.444	-0.069	0.136
-243.961	-50.001	0.232	0.110
-242.946	27.410	-0.148	-0.125
-241.932	-81.843	0.089	0.029
-240.917	155.887	0.160	0.222
-239.903	-62.060	-0.295	0.124
-238.888	-200.000	0.022	0.160
-237.873	-82.307	-0.256	-0.084
-236.859	773.151	-0.133	-0.364
-235.844	-90.441	-0.287	-0.083
-234.830	102.286	-0.189	0.222
-233.815	-158.322	0.575	0.034
-232.800	-80.408	0.203	-0.068
-231.786	800.000	0.063	-0.251
-230.771	-153.337	-0.139	-0.010
-229.757	-32.317	0.110	-0.062
-228.742	-200.000	0.042	0.298
-227.727	188.964	-0.230	0.345
-226.713	342.052	-0.054	-0.106
-225.698	58.140	-0.099	-0.097
-224.684	-112.212	-0.152	-0.031
-223.669	-18.975	0.186	-0.116
-222.655	-200.000	0.006	-0.048
-221.640	-200.000	-0.038	-0.180
-220.625	161.255	0.125	-0.175
-219.611	-120.424	0.175	-0.030
-218.596	-78.434	0.184	0.063
-217.582	-200.000	0.069	-0.355
-216.567	-130.764	0.338	-0.045
-215.552	-200.000	-0.036	0.275
-214.538	-13.953	0.120	0.078
-213.523	123.921	-0.344	0.433
-212.509	-115.428	0.237	0.045
-211.494	-81.459	0.089	-0.029
-210.479	-104.427	-0.121	-0.028
-209.465	235.437	-0.080	0.132
-208.450	240.357	0.129	0.215
-207.436	113.749	0.202	0.246
-206.421	800.000	-0.108	0.380
-205.406	800.000	-0.031	-0.121
-204.392	-200.000	0.016	-0.246
-203.377	-28.057	0.334	0.194
-202.363	75.947	0.035	-0.037
-201.348	-94.433	-0.303	0.083
-200.333	-200.000	0.028	-0.158
-199.319	245.476	0.080	-0.135
-198.304	-200.000	-0.047	0.217
-197.290	-200.000	0.001	0.063
-196.275	-74.120	0.357	0.130
-195.260	248.877	-0.207	-0.350
-194.246	800.000	0.065	-0.213
-193.231	-147.409	-0.555	-0.047
-192.217	800.000	0.050	0.143
-191.202	-95.234	-0.317	-0.085
-190.187	-137.721	-0.201	0.023
-189.173	456.121	0.073	-0.161
-188.158	111.122	0.027	0.033
-187.144	-82.018	-0.293	0.096
-186.129	36.774	-0.157	0.139
-185.114	193.638	0.210	-0.318
-184.100	800.000	-0.051	-0.202
-183.085	267.376	0.145	0.254
-182.071	-83.364	0.235	0.075
-181.056	800.000	0.072	0.207
-180.042	-86.177	0.170	-0.052
-179.027	34.864	-0.089	0.078
-178.012	246.854	0.179	0.302
-176.998	-200.000	-0.027	-0.174
-175.983	31.148	0.146	-0.126
-174.969	-200.000	0.002	0.105
-173.954	-200.000	-0.021	0.243
-172.939	6.065	-0.100	-0.074
-171.925	73.893	0.216	-0.226
-170.910	-55.653	0.133	0.060
-169.896	-85.188	0.043	-0.013
-168.881	129.361	0.148	0.189
-167.866	-76.071	-0.224	-0.079
-166.852	-138.330	0.245	0.027
-165.837	-200.000	0.063	-0.365
-164.823	-200.000	0.030	0.351
-163.808	-159.992	0.126	-0.007
-162.793	121.075	-0.008	-0.009
-161.779	29.182	-0.210	0.178
-160.764	241.901	0.108	-0.180
-159.750	-200.000	-0.006	-0.089
-158.735	-101.339	0.066	0.016
-157.720	-200.000	0.000	0.020
-156.706	800.000	-0.097	-0.293
-155.691	113.758	0.157	-0.191
-154.677	-2.008	0.280	-0.197
-153.662	-200.000	-0.028	-0.335
-152.647	-200.000	0.007	-0.173
-151.633	-200.000	-0.203	-0.000
-150.618	482.146	-0.073	0.166
-149.604	800.000	0.079	-0.220
-148.589	-169.151	0.217	-0.008
-147.574	-74.057	0.237	0.086
-146.560	-132.777	0.042	0.005
-145.545	46.904	0.105	-0.098
-144.531	236.306	0.145	0.240
-143.516	792.126	-0.032	-0.089
-142.502	-200.000	0.044	-0.234
-141.487	534.367	0.020	-0.046
-140.472	88.719	-0.054	-0.060
-139.458	-178.313	0.437	0.010
-138.443	-72.305	-0.266	0.099
-137.429	34.274	-0.297	0.259
-136.414	35.045	0.334	0.292
-135.399	-108.286	-0.115	0.025
-134.385	-13.583	-0.095	-0.061
-133.370	-200.000	0.013	-0.277
-132.356	706.638	0.181	-0.477
-131.341	-160.538	0.216	0.012
-130.326	438.350	0.114	0.249
-129.312	-62.036	-0.146	0.061
-128.297	369.976	0.052	0.105
-127.283	-181.397	-0.093	-0.002
-126.268	183.835	-0.069	-0.103
-125.253	159.580	0.135	-0.187
-124.239	800.000	0.122	-0.381
-123.224	-128.101	0.303	-0.043
-122.210	-67.510	-0.321	-0.126
-121.195	159.160	-0.085	0.118
