DTS Sentinel unit serial number:	SN413079Multiplexer serial number:	ORYXHardware model number:	OX4-SRSoftware version number:	ORYX F/W v4.00 Oryx Data Collector v3.7.2.0data status	okinstallation	princeton_trtdifferential loss correction	single-endedforward channel	channel 1reverse channel	N/Adate	2019/09/12time	19:21:34forward acquisition time	15.00reverse acquisition time	0.00gamma	496.2192k internal	0.2322k external	0.2322temperature offset calibration	1.0105default loss term (dB/km)	0.3790temperature slope calibration	1.0000multiplexer offset coefficient	1.0000multiplexer slope coefficient	1.0000fibre end	0.00T internal ref (°C)	32.44T ext. ref 1 (°C)	3.19T ext. ref 2 (°C)	26.92length (m)	temperature (°C)	Stokes	anti-Stokes-747.200	-200.000	-0.031	0.248
-746.185	-14.645	-0.485	-0.315
-745.171	-15.293	0.686	-0.443
-744.156	-51.254	0.323	0.153
-743.142	-112.410	-0.467	-0.094
-742.127	-79.416	0.176	0.060
-741.112	244.307	0.061	0.103
-740.098	799.600	-0.226	0.629
-739.083	-114.266	-0.321	-0.063
-738.069	-1.909	-0.180	0.128
-737.054	-200.000	0.054	0.381
-736.039	-200.000	0.029	-0.565
-735.025	296.639	-0.572	1.060
-734.010	50.730	-0.276	-0.264
-732.996	-200.000	0.042	-0.288
-731.981	-81.871	-0.515	-0.170
-730.966	-191.102	-0.415	-0.004
-729.952	-113.130	-0.204	-0.041
-728.937	92.883	-0.227	0.259
-727.923	800.000	-0.247	0.821
-726.908	-151.203	-0.250	-0.019
-725.894	800.000	0.153	-0.492
-724.879	-146.301	-0.322	0.029
-723.864	-200.000	-0.005	-0.509
-722.850	203.817	-0.320	0.500
-721.835	-41.220	-0.557	-0.290
-720.821	29.602	0.104	0.090
-719.806	800.000	0.133	0.553
-718.791	-123.143	0.780	-0.126
-717.777	79.369	-0.324	-0.351
-716.762	800.000	0.139	0.405
-715.748	800.000	-0.102	0.333
-714.733	-111.032	0.768	-0.159
-713.718	-57.263	-0.394	0.175
-712.704	9.895	0.309	0.237
-711.689	88.110	0.463	0.518
-710.675	-51.428	-0.710	-0.335
-709.660	-80.961	-0.740	-0.247
-708.645	-200.000	-0.007	-0.229
-707.631	122.693	0.386	0.487
-706.616	660.459	0.092	0.239
-705.602	-164.315	0.219	0.010
-704.587	-200.000	-0.185	0.992
-703.572	24.214	0.522	-0.435
-702.558	185.698	0.179	0.268
-701.543	800.000	-0.219	0.706
-700.529	256.039	0.293	0.508
-699.514	85.120	-0.272	0.301
-698.499	9.408	-0.038	0.029
-697.485	31.779	-0.153	0.133
-696.470	-25.524	-0.178	0.106
-695.456	-200.000	0.003	0.150
-694.441	-97.806	-0.474	0.124
-693.426	-21.545	0.469	-0.288
-692.412	-200.000	0.080	-0.519
-691.397	74.846	-0.287	-0.305
-690.383	25.130	0.523	-0.437
-689.368	116.577	-0.344	0.425
-688.354	-200.000	0.052	-0.295
-687.339	549.007	0.256	-0.619
-686.324	270.140	0.150	-0.266
-685.310	-160.814	0.422	-0.023
-684.295	-126.911	-0.766	-0.114
-683.281	-129.938	-0.519	0.072
-682.266	-200.000	-0.077	-1.088
-681.251	-191.979	-0.309	-0.003
-680.237	-130.052	-0.403	-0.055
-679.222	-8.637	-0.452	-0.306
-678.208	137.376	0.278	-0.367
-677.193	-21.869	0.521	-0.319
-676.178	-200.000	-0.112	0.496
-675.164	114.621	-0.211	-0.259
-674.149	-148.866	-0.308	0.025
-673.135	-119.973	0.652	-0.113
-672.120	-110.257	0.450	-0.094
-671.105	-47.375	0.266	-0.131
-670.091	487.419	0.160	0.369
-669.076	63.962	0.225	-0.228
-668.062	800.000	0.197	0.596
-667.047	80.107	0.266	0.288
-666.032	800.000	0.064	-0.272
-665.018	189.633	0.346	-0.523
-664.003	-200.000	-0.240	1.268
-662.989	-184.953	-0.834	0.013
-661.974	-200.000	0.040	0.249
-660.959	66.764	-0.444	0.455
-659.945	113.455	-0.249	-0.304
-658.930	-82.575	-0.796	0.260
-657.916	-115.996	0.211	-0.040
-656.901	-50.679	-0.662	0.314
-655.886	202.917	-0.272	0.423
-654.872	72.707	0.480	0.505
-653.857	-78.883	0.430	0.148
-652.843	537.406	-0.293	0.701
-651.828	-22.208	0.643	0.393
-650.814	-200.000	0.131	-0.592
-649.799	800.000	0.032	0.137
-648.784	800.000	0.169	-0.685
-647.770	105.273	0.522	0.620
-646.755	119.162	0.227	0.283
-645.741	800.000	0.167	-0.628
-644.726	-200.000	-0.038	-0.372
-643.711	63.572	-0.641	-0.647
-642.697	-200.000	0.080	-0.634
-641.682	-61.392	-0.413	0.175
-640.668	800.000	0.125	0.436
-639.653	-83.229	-0.791	0.256
-638.638	535.553	0.010	-0.024
-637.624	-151.834	0.791	0.058
-636.609	-28.612	-0.443	0.257
-635.595	-39.132	0.306	0.162
-634.580	17.627	-0.869	0.696
-633.565	39.786	-0.381	-0.344
-632.551	-200.000	0.100	-0.781
-631.536	-92.355	-0.913	-0.259
-630.522	-146.451	0.084	-0.007
-629.507	691.318	0.149	0.392
-628.492	-98.766	-0.520	0.133
-627.478	-200.000	0.027	0.759
-626.463	-0.677	-0.354	-0.252
-625.449	800.000	0.093	-0.318
-624.434	-123.862	-0.393	-0.062
-623.419	55.610	-0.189	-0.184
-622.405	75.115	-0.271	-0.287
-621.390	800.000	-0.109	-0.380
-620.376	-79.709	-0.648	-0.220
-619.361	252.877	-0.073	0.125
-618.346	-137.440	0.390	-0.044
-617.332	-200.000	-0.097	-0.488
-616.317	85.485	0.313	-0.346
-615.303	-68.140	0.194	-0.076
-614.288	-200.000	0.060	0.818
-613.273	662.923	-0.337	0.873
-612.259	106.624	-0.258	-0.307
-611.244	-105.532	-0.285	0.065
-610.230	155.087	-0.075	-0.103
-609.215	-57.944	-0.215	0.094
-608.201	10.072	-0.685	-0.523
-607.186	-126.510	-0.911	-0.136
-606.171	-65.031	-0.641	-0.260
-605.157	118.412	0.190	-0.236
-604.142	17.224	-0.150	-0.120
-603.128	800.000	0.185	0.621
-602.113	29.268	-0.246	0.210
-601.098	800.000	0.118	-0.457
-600.084	-3.684	0.484	0.338
-599.069	19.260	-0.499	-0.403
-598.055	330.319	-0.385	-0.744
-597.040	21.005	-0.452	0.368
-596.025	-56.126	0.673	-0.301
-595.011	97.775	-0.462	0.534
-593.996	115.967	0.604	0.742
-592.982	-106.010	0.587	-0.133
-591.967	800.000	0.076	-0.238
-590.952	-133.791	-0.101	-0.013
-589.938	-200.000	-0.050	-0.500
-588.923	-46.614	0.412	0.203
-587.909	166.518	-0.163	-0.231
-586.894	-200.000	0.083	0.400
-585.879	800.000	0.151	-0.617
-584.865	-200.000	-0.164	0.753
-583.850	68.902	0.278	0.286
-582.836	-0.684	0.426	-0.303
-581.821	-200.000	-0.066	-0.298
-580.806	-38.137	-0.667	0.355
-579.792	-155.751	1.022	0.066
-578.777	-76.697	0.270	-0.095
-577.763	-37.234	-0.228	0.122
-576.748	800.000	-0.227	-0.699
-575.733	203.666	-0.364	-0.565
-574.719	-60.707	0.727	0.309
-573.704	800.000	-0.108	0.432
-572.690	-200.000	0.092	0.609
-571.675	-107.845	0.597	0.130
-570.661	153.532	-0.441	-0.606
-569.646	176.324	0.295	0.430
-568.631	351.742	0.323	0.643
-567.617	-37.118	-0.378	-0.203
-566.602	174.397	-0.201	-0.292
-565.588	-200.000	-0.059	0.355
-564.573	-19.840	-0.332	-0.206
-563.558	800.000	-0.208	-0.840
-562.544	-119.170	-0.581	-0.102
-561.529	-124.885	-0.302	0.047
-560.515	800.000	0.217	-0.730
-559.500	800.000	-0.047	0.172
-558.485	13.039	-0.591	-0.459
-557.471	-163.326	0.702	-0.034
-556.456	-48.414	-0.537	-0.260
-555.442	352.904	-0.308	-0.612
-554.427	-14.733	0.858	0.553
-553.412	49.201	0.245	-0.231
-552.398	-74.768	-0.409	-0.147
-551.383	157.347	-0.290	0.402
-550.369	-118.706	-0.391	-0.069
-549.354	104.368	0.234	0.276
-548.339	-84.794	0.518	0.163
-547.325	46.363	0.781	0.726
-546.310	-200.000	0.065	-0.327
-545.296	39.619	0.355	0.319
-544.281	800.000	-0.224	-0.740
-543.266	130.078	0.247	-0.317
-542.252	181.888	-0.442	0.652
-541.237	800.000	0.339	1.008
-540.223	800.000	0.074	0.238
-539.208	-12.775	-0.764	0.499
-538.193	-200.000	0.041	-0.579
-537.179	32.799	-0.599	-0.519
-536.164	-10.747	-0.439	0.291
-535.150	105.398	-0.580	-0.687
-534.135	113.607	0.300	-0.366
-533.121	100.288	0.229	0.266
-532.106	-116.283	0.586	-0.109
-531.091	125.746	0.461	0.584
-530.077	800.000	0.154	-0.644
-529.062	-200.000	-0.157	-0.816
-528.048	42.077	0.535	0.486
-527.033	250.077	-0.524	-0.892
-526.018	166.683	-0.320	0.454
-525.004	149.569	-0.203	0.276
-523.989	303.527	-0.197	0.366
-522.975	-79.219	0.249	0.085
-521.960	-200.000	0.070	-0.472
-520.945	-133.246	0.281	0.036
-519.931	-126.467	-0.776	0.116
-518.916	-200.000	-0.066	-0.503
-517.902	733.403	0.119	-0.319
-516.887	80.089	0.313	0.337
-515.872	-118.911	0.141	-0.025
-514.858	800.000	0.018	0.058
-513.843	-101.854	-0.569	0.138
-512.829	431.080	-0.102	0.221
-511.814	411.076	0.392	0.833
-510.799	393.108	0.009	-0.018
-509.785	303.566	-0.130	-0.242
-508.770	85.738	-0.061	-0.067
-507.756	311.490	-0.119	0.224
-506.741	-48.785	-0.597	-0.287
-505.726	-200.000	0.004	-0.058
-504.712	800.000	-0.139	-0.464
-503.697	-102.567	-0.397	-0.095
-502.683	-126.344	0.549	0.082
-501.668	-88.060	0.476	0.143
-500.653	-134.814	-0.627	-0.076
-499.639	438.110	-0.353	-0.769
-498.624	412.878	0.193	0.410
-497.610	-107.292	-0.336	-0.074
-496.595	200.167	-0.272	0.419
-495.581	399.205	-0.097	-0.202
-494.566	326.770	0.284	-0.544
-493.551	117.099	-0.133	-0.163
-492.537	-200.000	-0.002	0.179
-491.522	6.993	-0.388	0.289
-490.508	40.469	-0.207	-0.187
-489.493	-200.000	0.019	0.492
-488.478	-200.000	0.068	-0.775
-487.464	101.284	-0.475	0.553
-486.449	563.930	0.228	0.552
-485.435	-100.070	0.541	-0.135
-484.420	-128.199	0.328	-0.047
-483.405	-186.947	-0.265	-0.004
-482.391	-74.455	-0.902	0.325
-481.376	-80.936	-0.649	0.215
-480.362	-200.000	-0.030	0.341
-479.347	-96.406	-0.119	-0.032
-478.332	95.468	0.524	-0.598
-477.318	-41.547	-0.130	-0.067
-476.303	31.170	0.375	0.322
-475.289	-121.952	0.494	0.081
-474.274	-30.785	0.535	0.302
-473.259	800.000	-0.308	-0.897
-472.245	-200.000	0.187	-1.104
-471.230	49.051	-0.555	-0.521
-470.216	-24.372	-0.313	-0.186
-469.201	800.000	-0.282	0.787
-468.186	456.541	0.192	-0.425
-467.172	-63.212	-0.317	-0.130
-466.157	800.000	0.167	-0.664
-465.143	74.550	-0.393	-0.413
-464.128	13.742	-0.401	-0.312
-463.113	-117.273	0.657	0.119
-462.099	-200.000	0.010	-0.260
-461.084	-5.058	-0.655	0.451
-460.070	800.000	-0.091	-0.270
-459.055	-86.806	-0.178	-0.054
-458.040	-200.000	-0.026	0.226
-457.026	-152.408	0.867	0.062
-456.011	60.721	0.124	-0.123
-454.997	191.060	-0.314	0.472
-453.982	531.006	-0.232	0.548
-452.968	278.422	0.113	-0.202
-451.953	-47.962	-0.456	-0.221
-450.938	143.966	0.288	-0.384
-449.924	23.265	-0.054	0.044
-448.909	800.000	-0.128	0.366
-447.895	6.788	-0.555	-0.413
-446.880	81.580	-0.702	0.758
-445.865	334.016	-0.136	0.263
-444.851	-45.290	0.212	0.105
-443.836	-38.445	-0.303	0.160
-442.822	253.751	-0.225	0.383
-441.807	-38.776	0.379	-0.200
-440.792	283.833	0.232	-0.416
-439.778	457.355	0.078	-0.173
-438.763	-80.513	0.459	0.153
-437.749	-82.508	-0.111	-0.036
-436.734	-200.000	-0.141	-0.653
-435.719	91.007	0.427	-0.478
-434.705	-200.000	0.017	-0.291
-433.690	388.328	-0.187	0.387
-432.676	800.000	0.097	0.309
-431.661	-26.148	0.172	-0.101
-430.646	257.773	-0.148	0.255
-429.632	208.237	-0.382	-0.596
-428.617	-200.000	0.024	0.404
-427.603	-200.000	0.090	0.577
-426.588	-200.000	0.166	-0.728
-425.573	159.083	-0.276	-0.383
-424.559	-111.522	-0.573	-0.116
-423.544	48.641	-0.242	0.226
-422.530	53.341	-0.567	-0.542
-421.515	51.104	0.199	0.189
-420.500	-167.930	0.407	-0.016
-419.486	-16.081	0.421	-0.267
-418.471	-125.829	-0.917	-0.138
-417.457	27.234	0.071	0.060
-416.442	-200.000	-0.019	0.220
-415.428	41.374	-0.635	0.573
-414.413	-200.000	0.224	1.120
-413.398	-83.962	0.185	0.059
-412.384	-116.494	0.400	-0.074
-411.369	800.000	0.135	-0.514
-410.355	-200.000	-0.140	-0.674
-409.340	3.598	0.386	-0.281
-408.325	800.000	-0.152	0.469
-407.311	167.106	-0.344	0.487
-406.296	71.282	0.155	0.160
-405.282	81.149	-0.243	0.262
-404.267	-200.000	0.057	0.315
-403.252	13.991	-0.436	0.338
-402.238	-55.328	-0.429	0.192
-401.223	-81.982	0.738	-0.240
-400.209	73.147	0.384	-0.400
-399.194	436.763	-0.173	0.375
-398.179	386.486	0.301	-0.621
-397.165	-200.000	0.078	0.345
-396.150	249.687	0.188	0.317
-395.136	89.797	-0.522	0.581
-394.121	61.911	-0.175	0.174
-393.106	800.000	0.091	0.282
-392.092	-116.931	0.226	0.041
-391.077	-44.976	0.310	0.154
-390.063	23.641	0.566	-0.464
-389.048	-35.219	0.345	0.187
-388.033	49.312	0.351	0.329
-387.019	-165.657	0.681	0.029
-386.004	-14.866	-0.064	-0.041
-384.990	-68.822	-0.395	0.152
-383.975	-121.222	-0.913	0.152
-382.960	-4.903	0.379	-0.261
-381.946	36.827	0.409	-0.360
-380.931	-38.756	-0.500	0.263
-379.917	-97.171	0.403	0.105
-378.902	327.698	0.115	0.220
-377.888	199.118	-0.099	0.152
-376.873	345.682	0.070	-0.136
-375.858	-131.184	-0.485	-0.064
-374.844	800.000	0.169	0.694
-373.829	688.748	0.123	-0.322
-372.815	-39.690	0.769	-0.400
-371.800	19.557	-0.871	-0.698
-370.785	-200.000	-0.081	1.231
-369.771	14.209	0.314	-0.244
-368.756	330.961	-0.364	0.699
-367.742	-107.951	-0.489	-0.106
-366.727	-88.098	-0.684	0.204
-365.712	-164.655	-0.500	0.023
-364.698	163.228	0.397	-0.555
-363.683	-121.026	0.538	-0.090
-362.669	800.000	0.124	-0.464
-361.654	-174.023	0.705	-0.021
-360.639	-200.000	0.089	-0.777
-359.625	196.650	0.231	-0.350
-358.610	800.000	-0.263	0.838
-357.596	-200.000	-0.045	0.454
-356.581	-3.856	-0.496	0.343
-355.566	5.067	0.171	-0.125
-354.552	-17.299	0.275	0.172
-353.537	-124.002	-0.094	0.015
-352.523	5.373	0.355	0.261
-351.508	528.774	-0.209	-0.491
-350.493	-95.836	-0.491	0.130
-349.479	246.751	0.062	-0.104
-348.464	-200.000	0.036	-0.228
-347.450	-126.707	-0.612	0.090
-346.435	-136.340	0.645	-0.075
-345.420	233.537	0.117	-0.191
-344.406	19.614	0.584	-0.467
-343.391	-200.000	-0.136	-0.628
-342.377	-63.103	-0.582	-0.239
-341.362	144.143	0.620	0.822
-340.348	-82.072	1.159	0.376
-339.333	171.896	0.324	-0.463
-338.318	-121.168	0.730	-0.121
-337.304	-56.848	-0.275	0.121
-336.289	231.196	-0.444	0.723
-335.275	-200.000	-0.056	0.345
-334.260	257.884	-0.634	1.085
-333.245	-200.000	0.023	-0.491
-332.231	90.022	-0.265	-0.294
-331.216	-200.000	-0.079	-0.441
-330.202	150.205	0.163	-0.221
-329.187	-112.847	0.594	-0.117
-328.172	-122.963	0.898	0.144
-327.158	145.188	0.435	0.579
-326.143	-200.000	-0.026	-0.209
-325.129	86.683	0.329	0.361
-324.114	-171.571	0.995	-0.033
-323.099	365.354	0.144	0.289
-322.085	-200.000	-0.122	0.775
-321.070	73.054	0.628	0.652
-320.056	10.495	-0.461	0.349
-319.041	114.401	-0.584	0.706
-318.026	-35.953	-0.280	0.151
-317.012	-173.562	1.123	-0.034
-315.997	-200.000	-0.068	-0.493
-314.983	-200.000	-0.096	-0.587
-313.968	-114.098	0.367	-0.071
-312.953	-14.815	-0.487	-0.311
-311.939	-200.000	-0.012	-0.475
-310.924	-70.353	0.981	-0.370
-309.910	-118.628	0.398	0.070
-308.895	-144.590	0.311	-0.029
-307.880	192.470	-0.118	-0.177
-306.866	-80.472	0.543	-0.180
-305.851	800.000	-0.140	0.419
-304.837	-99.772	-0.612	-0.152
-303.822	431.475	0.307	-0.660
-302.807	-43.845	0.371	0.185
-301.793	-200.000	0.053	0.383
-300.778	366.159	-0.313	0.626
-299.764	28.509	-0.409	-0.344
-298.749	752.274	0.179	0.479
-297.735	-58.418	-0.710	0.306
-296.720	-47.538	-0.334	-0.161
-295.705	-20.650	0.733	0.447
-294.691	67.503	-0.557	0.564
-293.676	-101.549	0.770	0.186
-292.662	-19.676	0.288	0.177
-291.647	106.312	-0.271	0.319
-290.632	-200.000	-0.102	-0.647
-289.618	11.328	0.500	-0.380
-288.603	-75.085	0.984	0.350
-287.589	800.000	0.259	0.883
-286.574	372.628	0.328	-0.662
-285.559	800.000	0.079	0.272
-284.545	-156.565	-0.737	-0.045
-283.530	800.000	0.194	-0.745
-282.516	-200.000	0.002	-0.078
-281.501	-140.948	0.304	-0.031
-280.486	-16.080	-0.487	0.308
-279.472	-83.614	0.316	-0.100
-278.457	-37.419	0.757	0.401
-277.443	-103.334	-0.816	0.191
-276.428	800.000	-0.211	-0.641
-275.413	471.770	-0.066	-0.147
-274.399	-4.198	-0.623	0.428
-273.384	291.718	0.126	0.228
-272.370	143.660	-0.277	-0.366
-271.355	-22.246	0.231	0.139
-270.340	15.719	-0.820	-0.640
-269.326	-200.000	-0.005	0.318
-268.311	-200.000	-0.023	0.111
-267.297	16.052	-0.301	0.235
-266.282	259.751	0.356	0.610
-265.267	-78.606	0.739	0.251
-264.253	223.339	0.172	0.275
-263.238	800.000	0.211	-0.776
-262.224	800.000	-0.156	-0.432
-261.209	-80.911	0.725	-0.238
-260.195	-200.000	-0.033	0.623
-259.180	-26.640	0.851	0.494
-258.165	787.773	-0.247	-0.673
-257.151	26.684	-0.514	-0.426
-256.136	291.137	-0.127	0.229
-255.122	-98.639	0.307	0.078
-254.107	12.289	0.257	-0.197
-253.092	-34.014	-0.600	0.327
-252.078	-117.710	0.427	0.076
-251.063	316.848	-0.052	-0.097
-250.049	800.000	0.177	0.643
-249.034	2.120	-0.835	0.598
-248.019	-200.000	-0.010	0.552
-247.005	-83.258	0.125	-0.040
-245.990	800.000	-0.044	-0.163
-244.976	-74.982	0.311	0.110
-243.961	234.091	-0.233	-0.380
-242.946	409.407	-0.272	0.571
-241.932	-70.864	1.021	-0.381
-240.917	-200.000	0.008	-0.553
-239.903	3.545	-0.118	-0.085
-238.888	-173.982	0.539	0.016
-237.873	132.176	0.318	-0.406
-236.859	650.525	0.217	-0.551
-235.844	800.000	0.249	0.847
-234.830	-21.053	0.499	-0.302
-233.815	-200.000	0.043	-0.534
-232.800	-101.851	0.063	-0.015
-231.786	-120.649	0.437	0.073
-230.771	6.345	-0.385	-0.283
-229.757	561.100	0.223	0.534
-228.742	30.470	-0.503	0.426
-227.727	800.000	0.264	-0.863
-226.713	-109.151	-0.543	-0.114
-225.698	-118.264	0.662	-0.117
-224.684	153.594	-0.481	-0.653
-223.669	-139.602	-0.356	-0.038
-222.655	102.329	0.486	0.562
-221.640	-64.697	0.265	-0.107
-220.625	120.065	-0.578	-0.710
-219.611	-25.215	-0.579	0.340
-218.596	149.254	-0.099	0.132
-217.582	-109.810	0.136	0.028
-216.567	134.885	0.248	0.319
-215.552	-139.024	0.932	-0.100
-214.538	-200.000	0.050	0.518
-213.523	638.544	0.172	0.433
-212.509	-39.401	-0.852	0.442
-211.494	290.769	-0.262	0.471
-210.479	269.411	-0.379	0.659
-209.465	-21.053	0.501	0.303
-208.450	-200.000	-0.025	0.367
-207.436	-200.000	-0.220	1.035
-206.421	91.121	-0.486	-0.540
-205.406	22.423	0.509	-0.411
-204.392	-97.789	-0.393	-0.101
-203.377	-200.000	-0.000	-0.495
-202.363	89.322	0.365	0.403
-201.348	-10.042	0.494	-0.324
-200.333	800.000	-0.096	-0.335
-199.319	661.883	-0.091	0.231
-198.304	-200.000	0.015	-0.748
-197.290	676.360	0.106	-0.273
-196.275	75.972	-0.329	-0.344
-195.260	-30.796	0.346	-0.193
-194.246	305.955	-0.351	-0.646
-193.231	-85.552	-0.343	-0.105
-192.217	-54.700	-0.370	0.165
-191.202	129.125	-0.335	-0.423
-190.187	-200.000	0.031	-0.468
-189.173	9.880	0.254	0.191
-188.158	627.110	-0.231	-0.577
-187.144	64.437	0.464	0.463
-186.129	-200.000	0.023	0.107
-185.114	-5.721	0.398	-0.269
-184.100	14.330	0.514	-0.396
-183.085	5.779	0.504	-0.368
-182.071	-200.000	0.070	-0.645
-181.056	137.907	0.106	-0.137
-180.042	-157.733	0.472	-0.028
-179.027	-96.239	-0.519	0.136
-178.012	271.093	0.485	0.843
-176.998	-72.952	-0.241	-0.087
-175.983	-60.017	-0.298	-0.126
-174.969	-38.597	0.491	0.256
-173.954	-200.000	0.197	-0.891
-172.939	-78.941	-0.289	0.097
-171.925	800.000	-0.307	1.269
-170.910	-34.878	0.203	0.110
-169.896	622.326	-0.114	0.284
-168.881	101.270	0.313	0.360
-167.866	73.795	-0.700	0.724
-166.852	-200.000	0.013	0.397
-165.837	-200.000	-0.129	-0.776
-164.823	-133.142	-0.536	0.067
-163.808	283.217	-0.369	0.655
-162.793	486.643	-0.122	-0.275
-161.779	109.301	0.056	0.067
-160.764	80.671	0.785	-0.836
-159.750	-200.000	-0.043	-0.209
-158.735	-30.410	-0.219	0.123
-157.720	101.576	-0.409	0.471
-156.706	-140.898	0.487	0.049
-155.691	139.750	-0.087	-0.114
-154.677	-128.865	-0.211	0.029
-153.662	-64.573	0.620	-0.249
-152.647	295.291	-0.048	-0.086
-151.633	-115.048	0.769	0.144
-150.618	310.035	-0.183	-0.338
-149.604	78.724	0.487	0.514
-148.589	-83.966	0.872	-0.274
-147.574	800.000	0.115	-0.463
-146.560	-89.338	-0.872	0.254
-145.545	-61.768	-0.507	-0.210
-144.531	-8.735	0.107	0.071
-143.516	45.559	-0.349	0.318
-142.502	132.453	-0.453	0.576
-141.487	-106.495	-0.643	-0.142
-140.472	289.609	0.214	-0.383
-139.458	-143.349	0.706	-0.067
-138.443	-48.591	-0.492	0.233
-137.429	-93.816	0.366	-0.099
-136.414	-36.241	-0.433	0.231
-135.399	-43.708	0.200	0.099
-134.385	800.000	-0.274	1.061
-133.370	-154.676	0.559	-0.037
-132.356	228.046	-0.186	0.298
-131.341	208.026	0.465	0.717
-130.326	257.087	-0.236	0.400
-129.312	-114.533	0.684	-0.129
-128.297	-154.200	-0.418	0.028
-127.283	-83.321	-0.149	0.047
-126.268	17.319	-0.551	0.432
-125.253	800.000	-0.112	0.311
-124.239	-200.000	-0.057	-0.385
-123.224	520.615	-0.219	0.507
-122.210	715.846	0.075	0.197
-121.195	332.507	-0.091	-0.174
