DTS Sentinel unit serial number:	SN413079Multiplexer serial number:	ORYXHardware model number:	OX4-SRSoftware version number:	ORYX F/W v4.00 Oryx Data Collector v3.7.2.0data status	okinstallation	princeton_trtdifferential loss correction	single-endedforward channel	channel 1reverse channel	N/Adate	2019/09/16time	12:30:35forward acquisition time	60.00reverse acquisition time	0.00gamma	496.2192k internal	0.2295k external	0.2295temperature offset calibration	0.9961default loss term (dB/km)	0.3790temperature slope calibration	1.0000multiplexer offset coefficient	1.0000multiplexer slope coefficient	1.0000fibre end	0.00T internal ref (°C)	39.61T ext. ref 1 (°C)	13.39T ext. ref 2 (°C)	37.12length (m)	temperature (°C)	Stokes	anti-Stokes-747.200	-159.638	0.223	-0.013
-746.185	-200.000	0.073	0.408
-745.171	-108.974	0.248	0.054
-744.156	800.000	-0.086	0.281
-743.142	-200.000	0.021	0.389
-742.127	-20.261	-0.240	0.151
-741.112	63.898	-0.148	0.152
-740.098	165.035	-0.254	0.367
-739.083	-20.748	0.289	0.181
-738.069	170.987	0.029	0.042
-737.054	188.543	0.161	0.246
-736.039	-106.291	0.110	0.025
-735.025	202.808	0.223	0.352
-734.010	-149.617	0.106	0.009
-732.996	-22.556	-0.061	-0.038
-731.981	-200.000	0.003	-0.128
-730.966	135.421	-0.168	-0.224
-729.952	800.000	0.040	-0.131
-728.937	-200.000	0.027	-0.222
-727.923	-97.809	-0.402	-0.106
-726.908	439.276	-0.049	-0.110
-725.894	45.639	0.203	-0.192
-724.879	67.995	0.171	0.179
-723.864	584.652	-0.082	0.206
-722.850	-200.000	-0.071	0.394
-721.835	46.738	-0.075	-0.071
-720.821	800.000	-0.077	0.298
-719.806	-175.619	-0.200	-0.006
-718.791	-39.787	-0.365	-0.195
-717.777	0.825	0.146	0.107
-716.762	-79.011	0.147	0.051
-715.748	83.257	0.071	0.079
-714.733	-111.057	-0.271	-0.057
-713.718	-200.000	0.007	0.117
-712.704	800.000	-0.084	-0.327
-711.689	-65.346	-0.267	-0.110
-710.675	103.165	0.212	-0.253
-709.660	-120.001	-0.331	-0.058
-708.645	-120.065	0.102	0.018
-707.631	-109.633	0.117	-0.025
-706.616	-112.459	0.259	-0.053
-705.602	512.745	0.098	0.233
-704.587	177.111	-0.064	-0.096
-703.572	-47.693	0.238	-0.118
-702.558	284.609	-0.047	-0.086
-701.543	-102.068	0.123	-0.030
-700.529	800.000	0.069	0.228
-699.514	-4.226	0.183	-0.129
-698.499	302.738	0.051	-0.097
-697.485	-200.000	-0.069	-0.318
-696.470	-144.752	-0.139	0.013
-695.456	216.532	-0.107	0.173
-694.441	-158.175	-0.498	-0.030
-693.426	-11.284	0.049	-0.033
-692.412	37.405	0.100	-0.091
-691.397	457.040	-0.157	-0.355
-690.383	-33.682	-0.241	-0.136
-689.368	64.702	0.065	0.067
-688.354	-67.222	-0.157	0.063
-687.339	265.846	-0.054	-0.097
-686.324	-152.991	0.095	-0.007
-685.310	21.059	-0.142	0.118
-684.295	-200.000	0.041	0.480
-683.281	-81.236	0.210	0.071
-682.266	-73.157	0.313	-0.117
-681.251	30.042	-0.222	-0.193
-680.237	-29.627	0.125	0.073
-679.222	-200.000	-0.049	0.311
-678.208	104.597	-0.233	-0.280
-677.193	-200.000	-0.027	-0.175
-676.178	6.390	0.136	0.103
-675.164	-45.979	0.278	0.140
-674.149	-200.000	-0.004	0.582
-673.135	442.929	-0.148	0.332
-672.120	-65.646	0.280	0.114
-671.105	-18.517	-0.321	-0.205
-670.091	137.601	0.031	-0.042
-669.076	-161.036	0.376	-0.020
-668.062	326.972	0.174	-0.339
-667.047	-71.156	-0.249	-0.095
-666.032	-58.071	-0.269	-0.120
-665.018	-68.104	0.257	-0.102
-664.003	55.253	-0.123	-0.122
-662.989	-160.782	-0.052	0.003
-661.974	-200.000	0.011	0.149
-660.959	91.188	0.113	-0.129
-659.945	-200.000	0.008	0.123
-658.930	539.992	0.083	-0.202
-657.916	-200.000	0.003	0.171
-656.901	193.794	-0.197	0.304
-655.886	39.575	-0.131	0.120
-654.872	-107.674	-0.247	0.055
-653.857	-142.836	-0.215	0.021
-652.843	62.497	0.090	0.092
-651.828	-200.000	0.000	-0.092
-650.814	-200.000	0.004	0.067
-649.799	29.179	0.020	-0.018
-648.784	800.000	0.186	0.530
-647.770	179.866	0.055	0.082
-646.755	266.200	0.100	-0.177
-645.741	45.394	0.253	-0.238
-644.726	-200.000	0.008	-0.275
-643.711	182.250	-0.060	-0.091
-642.697	-110.639	-0.227	-0.048
-641.682	106.827	-0.090	-0.108
-640.668	-55.135	0.247	0.113
-639.653	-44.167	0.087	-0.044
-638.638	-17.914	0.201	0.128
-637.624	179.623	-0.076	0.113
-636.609	76.940	-0.060	0.065
-635.595	188.760	-0.182	-0.277
-634.580	-106.069	-0.494	0.113
-633.565	144.846	0.216	-0.294
-632.551	800.000	-0.094	-0.264
-631.536	431.994	-0.146	-0.323
-630.522	254.752	0.076	0.133
-629.507	57.392	0.374	-0.371
-628.492	462.592	0.039	-0.089
-627.478	611.005	0.071	0.180
-626.463	-125.034	0.297	0.046
-625.449	359.597	-0.089	0.182
-624.434	-9.358	-0.358	0.243
-623.419	800.000	-0.062	-0.213
-622.405	-200.000	-0.040	-0.234
-621.390	102.561	0.090	-0.107
-620.376	-200.000	0.035	-0.194
-619.361	338.128	0.012	0.024
-618.346	594.334	0.124	0.311
-617.332	16.611	-0.091	0.073
-616.317	326.853	-0.113	-0.221
-615.303	-72.983	0.159	0.059
-614.288	10.867	0.170	0.132
-613.273	148.811	0.129	-0.178
-612.259	-132.936	-0.108	0.014
-611.244	-14.830	-0.072	0.047
-610.230	-200.000	0.081	-0.370
-609.215	142.546	-0.162	-0.219
-608.201	-14.316	-0.297	-0.195
-607.186	-193.843	-0.118	0.001
-606.171	106.983	-0.235	-0.284
-605.157	385.516	-0.114	-0.239
-604.142	155.738	-0.202	0.283
-603.128	800.000	-0.061	0.189
-602.113	-32.218	-0.233	-0.132
-601.098	-200.000	0.059	0.415
-600.084	-193.163	-0.234	-0.002
-599.069	-200.000	0.014	-0.084
-598.055	382.479	-0.125	-0.261
-597.040	231.514	-0.187	0.312
-596.025	196.326	0.167	-0.258
-595.011	89.905	0.057	0.065
-593.996	-200.000	-0.001	0.174
-592.982	-200.000	-0.216	-0.000
-591.967	71.420	0.394	0.416
-590.952	246.351	0.023	-0.040
-589.938	162.533	0.097	0.139
-588.923	-48.859	-0.052	-0.025
-587.909	-200.000	0.003	-0.028
-586.894	-200.000	-0.005	0.256
-585.879	-100.718	0.177	0.044
-584.865	-138.121	-0.346	-0.039
-583.850	-114.845	-0.213	-0.041
-582.836	800.000	0.033	-0.097
-581.821	-200.000	-0.003	-0.324
-580.806	800.000	0.100	0.291
-579.792	-200.000	-0.021	-0.167
-578.777	-62.281	0.111	0.047
-577.763	-96.994	0.322	-0.086
-576.748	-115.335	0.292	0.056
-575.733	-48.720	-0.419	-0.205
-574.719	-200.000	0.048	-0.263
-573.704	24.045	0.342	0.286
-572.690	227.437	0.019	-0.032
-571.675	710.409	-0.062	-0.167
-570.661	321.451	0.102	-0.197
-569.646	28.212	-0.112	0.096
-568.631	-200.000	-0.026	0.288
-567.617	-11.171	0.100	-0.067
-566.602	-158.160	-0.245	-0.015
-565.588	-200.000	-0.011	0.209
-564.573	-63.343	0.270	-0.113
-563.558	-100.793	0.204	-0.051
-562.544	-57.450	-0.195	0.087
-561.529	-200.000	0.014	-0.137
-560.515	-200.000	-0.013	0.200
-559.500	94.871	0.095	-0.110
-558.485	46.234	0.109	0.103
-557.471	-1.727	-0.097	-0.069
-556.456	-27.242	-0.404	-0.239
-555.442	-67.498	-0.362	0.144
-554.427	118.632	-0.109	0.136
-553.412	-106.088	-0.344	0.078
-552.398	800.000	0.074	0.302
-551.383	561.499	0.022	-0.055
-550.369	5.988	0.126	0.095
-549.354	-76.009	-0.145	-0.052
-548.339	-200.000	-0.011	-0.128
-547.325	-200.000	0.003	0.067
-546.310	800.000	0.031	-0.136
-545.296	698.013	0.041	0.110
-544.281	-200.000	-0.025	0.271
-543.266	95.516	-0.082	-0.094
-542.252	396.855	0.091	-0.192
-541.237	-200.000	-0.060	-0.317
-540.223	800.000	-0.067	0.213
-539.208	-43.135	-0.154	0.079
-538.193	-200.000	0.115	0.544
-537.179	350.219	0.088	0.177
-536.164	218.520	-0.135	-0.219
-535.150	-200.000	-0.042	-0.280
-534.135	673.547	-0.046	0.122
-533.121	89.685	0.142	-0.161
-532.106	379.453	-0.033	0.069
-531.091	-200.000	0.022	-0.216
-530.077	-200.000	-0.016	-0.121
-529.062	14.221	-0.142	0.112
-528.048	796.615	-0.141	0.393
-527.033	-72.128	0.134	-0.050
-526.018	-200.000	-0.052	0.264
-525.004	-2.686	-0.186	-0.132
-523.989	-200.000	-0.010	0.282
-522.975	156.204	0.057	-0.080
-521.960	-79.099	-0.097	-0.033
-520.945	27.933	-0.026	-0.022
-519.931	-80.374	-0.251	0.085
-518.916	-75.846	0.228	-0.082
-517.902	-129.441	-0.245	0.034
-516.887	468.493	0.043	-0.099
-515.872	85.490	0.207	-0.230
-514.858	188.102	-0.164	0.248
-513.843	-200.000	-0.055	-0.392
-512.829	-200.000	0.037	-0.198
-511.814	788.960	-0.068	-0.189
-510.799	-200.000	0.038	0.178
-509.785	-2.338	-0.242	-0.172
-508.770	747.705	-0.064	-0.173
-507.756	-200.000	-0.001	0.005
-506.741	-17.474	0.216	-0.138
-505.726	-145.008	-0.396	-0.037
-504.712	80.778	-0.043	0.047
-503.697	-200.000	-0.016	0.208
-502.683	22.918	-0.161	-0.133
-501.668	-90.779	-0.201	0.059
-500.653	800.000	0.070	-0.284
-499.639	-200.000	-0.020	0.295
-498.624	482.429	0.135	0.310
-497.610	32.704	0.362	0.317
-496.595	245.426	-0.140	0.239
-495.581	281.356	0.109	0.198
-494.566	-71.727	0.107	-0.040
-493.551	25.818	0.064	-0.054
-492.537	-8.899	0.210	-0.142
-491.522	-200.000	-0.081	-0.370
-490.508	800.000	0.016	0.047
-489.493	58.746	0.052	0.052
-488.478	-80.362	-0.079	-0.027
-487.464	451.467	-0.055	-0.122
-486.449	-26.091	-0.058	0.035
-485.435	143.978	0.148	-0.200
-484.420	-200.000	0.092	0.505
-483.405	-101.409	-0.328	0.081
-482.391	-200.000	0.083	-0.431
-481.376	163.268	-0.131	0.186
-480.362	-200.000	0.021	0.146
-479.347	-185.514	-0.085	0.001
-478.332	472.486	0.189	-0.430
-477.318	63.535	-0.121	0.123
-476.303	-56.724	-0.394	0.177
-475.289	67.391	0.129	0.133
-474.274	-48.853	-0.197	-0.096
-473.259	-182.949	-0.212	0.004
-472.245	-68.750	0.238	-0.093
-471.230	320.509	0.031	0.060
-470.216	26.940	-0.185	0.157
-469.201	233.455	0.057	-0.095
-468.186	-53.851	-0.115	0.053
-467.172	-200.000	-0.027	-0.425
-466.157	-98.454	-0.278	-0.072
-465.143	-200.000	-0.004	0.071
-464.128	-200.000	0.087	-0.414
-463.113	-38.556	0.347	0.186
-462.099	-200.000	0.017	-0.099
-461.084	160.307	0.062	-0.087
-460.070	25.527	-0.175	0.147
-459.055	-82.672	0.149	-0.049
-458.040	678.673	0.060	0.157
-457.026	800.000	0.064	0.187
-456.011	-133.104	-0.082	0.011
-454.997	-30.076	-0.199	0.114
-453.982	510.024	-0.055	0.129
-452.968	89.742	0.046	-0.052
-451.953	260.368	0.142	-0.248
-450.938	61.052	-0.133	-0.134
-449.924	120.114	0.244	-0.307
-448.909	-100.447	0.205	0.051
-447.895	-200.000	0.011	-0.428
-446.880	-17.895	-0.321	-0.204
-445.865	800.000	0.014	0.047
-444.851	-9.559	-0.275	-0.186
-443.836	-1.721	0.251	-0.179
-442.822	0.595	0.118	0.085
-441.807	-177.588	0.150	0.004
-440.792	-9.867	-0.521	-0.350
-439.778	800.000	-0.027	0.088
-438.763	68.765	0.077	0.079
-437.749	-12.902	0.222	0.146
-436.734	352.606	0.096	-0.192
-435.719	102.241	0.023	-0.027
-434.705	11.378	0.130	-0.100
-433.690	169.829	0.225	0.324
-432.676	-64.785	0.363	0.148
-431.661	800.000	-0.023	0.099
-430.646	-200.000	0.050	-0.276
-429.632	209.461	-0.101	-0.160
-428.617	-155.807	-0.373	-0.024
-427.603	300.157	0.186	0.347
-426.588	226.825	0.063	-0.103
-425.573	-79.886	-0.273	-0.093
-424.559	800.000	-0.058	-0.174
-423.544	-121.574	0.233	0.039
-422.530	800.000	0.058	0.202
-421.515	-200.000	-0.015	0.330
-420.500	127.873	-0.117	0.150
-419.486	131.543	0.263	-0.341
-418.471	-29.480	0.347	-0.200
-417.457	-113.456	-0.309	-0.061
-416.442	111.607	0.136	0.166
-415.428	78.752	-0.256	-0.276
-414.413	104.094	-0.280	-0.332
-413.398	-200.000	-0.026	-0.198
-412.384	-55.726	-0.114	0.051
-411.369	-102.333	-0.083	0.020
-410.355	196.334	0.169	-0.260
-409.340	5.545	0.294	0.219
-408.325	11.673	-0.150	0.116
-407.311	115.103	0.068	0.084
-406.296	-18.680	-0.378	-0.238
-405.282	-25.370	-0.255	0.152
-404.267	-3.061	-0.094	-0.066
-403.252	-17.894	0.133	-0.084
-402.238	-168.202	-0.187	-0.007
-401.223	800.000	0.137	0.419
-400.209	125.969	-0.045	0.057
-399.194	6.979	-0.096	0.072
-398.179	-85.971	0.283	0.088
-397.165	800.000	0.043	-0.165
-396.150	73.756	-0.190	-0.201
-395.136	46.582	-0.102	-0.095
-394.121	64.568	0.040	-0.041
-393.106	286.161	0.064	-0.117
-392.092	-114.137	0.299	-0.058
-391.077	-29.677	0.105	0.060
-390.063	-200.000	0.088	-0.445
-389.048	469.394	-0.088	-0.199
-388.033	674.582	-0.102	0.268
-387.019	35.335	0.064	0.057
-386.004	46.218	-0.331	-0.309
-384.990	-200.000	-0.067	-0.398
-383.975	268.035	0.161	0.285
-382.960	-200.000	0.007	-0.031
-381.946	405.829	-0.036	-0.076
-380.931	-200.000	0.008	0.100
-379.917	4.281	0.306	0.226
-378.902	-90.745	-0.263	0.077
-377.888	800.000	-0.028	-0.106
-376.873	800.000	-0.083	0.328
-375.858	-200.000	0.020	0.142
-374.844	160.502	0.114	-0.161
-373.829	212.286	-0.091	-0.145
-372.815	-167.206	0.450	0.018
-371.800	-101.779	-0.186	0.045
-370.785	-39.634	0.205	-0.108
-369.771	-200.000	0.010	-0.052
-368.756	-200.000	0.022	0.161
-367.742	-200.000	-0.048	0.229
-366.727	201.030	0.067	-0.104
-365.712	129.980	0.013	0.017
-364.698	-200.000	-0.010	0.199
-363.683	69.901	-0.137	-0.143
-362.669	260.220	0.270	0.470
-361.654	-39.775	0.199	-0.105
-360.639	158.283	0.274	0.383
-359.625	49.530	-0.192	-0.182
-358.610	-78.380	-0.254	0.088
-357.596	-9.848	0.256	-0.171
-356.581	-108.256	0.128	-0.028
-355.566	-36.122	-0.165	-0.090
-354.552	-11.077	-0.249	0.166
-353.537	-21.701	0.275	0.169
-352.523	9.831	0.104	0.080
-351.508	6.619	-0.161	-0.121
-350.493	800.000	-0.009	0.026
-349.479	563.945	-0.080	-0.196
-348.464	-187.106	0.181	0.002
-347.450	-54.257	0.256	-0.117
-346.435	-200.000	0.002	0.197
-345.420	-129.230	0.110	0.015
-344.406	-92.302	0.190	0.054
-343.391	312.896	-0.065	0.123
-342.377	561.622	-0.044	-0.107
-341.362	-103.676	0.268	0.063
-340.348	-47.700	-0.209	-0.102
-339.333	800.000	-0.018	0.066
-338.318	520.733	-0.093	-0.220
-337.304	-200.000	0.009	-0.065
-336.289	800.000	0.048	0.164
-335.275	469.084	0.132	0.299
-334.260	264.908	-0.192	0.337
-333.245	1.300	0.228	-0.165
-332.231	-200.000	0.090	0.449
-331.216	-200.000	-0.002	0.170
-330.202	-100.880	-0.168	-0.042
-329.187	307.810	0.098	0.183
-328.172	3.967	0.096	0.071
-327.158	-127.252	-0.090	-0.013
-326.143	800.000	0.029	0.097
-325.129	110.562	-0.115	-0.139
-324.114	-105.743	0.349	-0.079
-323.099	-60.751	-0.095	0.040
-322.085	-200.000	-0.025	0.188
-321.070	-73.176	-0.303	-0.112
-320.056	186.258	-0.083	-0.124
-319.041	51.624	-0.112	-0.107
-318.026	-171.404	-0.217	-0.007
-317.012	375.833	0.089	0.182
-315.997	-118.454	0.238	-0.042
-314.983	582.646	-0.089	0.219
-313.968	443.617	0.071	-0.155
-312.953	-19.274	0.223	0.139
-311.939	-129.992	-0.280	-0.038
-310.924	-95.520	0.198	0.053
-309.910	156.571	0.237	-0.329
-308.895	1.765	0.255	-0.185
-307.880	73.993	0.182	0.192
-306.866	-66.667	0.174	0.069
-305.851	-69.316	-0.069	0.027
-304.837	-88.753	0.346	-0.103
-303.822	582.430	-0.051	0.127
-302.807	-126.650	-0.118	-0.018
-301.793	-40.721	-0.153	-0.079
-300.778	-95.118	0.176	0.048
-299.764	-200.000	-0.034	0.180
-298.749	-68.593	-0.207	0.081
-297.735	-67.338	0.331	-0.131
-296.720	-153.817	0.149	-0.010
-295.705	-200.000	-0.028	-0.171
-294.691	103.922	-0.041	0.048
-293.676	413.600	0.135	0.289
-292.662	83.608	0.066	0.072
-291.647	-200.000	0.022	0.271
-290.632	-24.096	-0.068	-0.041
-289.618	132.166	0.046	0.059
-288.603	32.977	0.170	0.148
-287.589	77.294	0.115	0.123
-286.574	-185.776	-0.150	-0.002
-285.559	-128.697	-0.227	-0.032
-284.545	30.314	0.056	-0.048
-283.530	173.036	0.213	-0.309
-282.516	-41.201	0.144	0.075
-281.501	800.000	-0.112	-0.342
-280.486	-98.053	-0.294	0.076
-279.472	2.689	0.313	-0.228
-278.457	-200.000	-0.029	-0.176
-277.443	213.286	0.070	0.112
-276.428	18.829	0.115	-0.093
-275.413	473.102	-0.110	-0.248
-274.399	800.000	0.049	0.141
-273.384	-7.074	-0.090	0.062
-272.370	-200.000	-0.007	0.138
-271.355	-131.112	-0.330	0.044
-270.340	738.914	0.095	-0.257
-269.326	26.574	-0.144	0.121
-268.311	239.496	-0.158	-0.263
-267.297	-66.193	-0.137	-0.055
-266.282	-200.000	-0.032	0.301
-265.267	-200.000	0.024	-0.116
-264.253	-200.000	-0.017	-0.209
-263.238	800.000	-0.025	0.089
-262.224	646.903	0.081	0.207
-261.209	-200.000	0.020	0.219
-260.195	20.574	0.242	-0.197
-259.180	-200.000	0.043	-0.211
-258.165	-168.905	0.273	-0.010
-257.151	27.893	0.034	0.029
-256.136	-200.000	0.046	-0.205
-255.122	-200.000	-0.039	-0.215
-254.107	-64.662	-0.104	0.042
-253.092	-200.000	0.008	0.075
-252.078	247.584	-0.119	0.202
-251.063	-95.720	-0.069	-0.019
-250.049	248.656	0.169	-0.288
-249.034	-200.000	0.016	-0.186
-248.019	-200.000	-0.014	0.139
-247.005	-200.000	0.021	0.127
-245.990	-111.083	-0.089	-0.018
-244.976	-200.000	-0.001	0.280
-243.961	800.000	0.051	0.198
-242.946	19.678	-0.241	0.195
-241.932	800.000	0.078	-0.260
-240.917	124.910	0.121	-0.153
-239.903	34.694	-0.088	-0.077
-238.888	345.783	-0.109	0.215
-237.873	800.000	-0.042	0.185
-236.859	-3.926	-0.179	0.125
-235.844	11.868	-0.082	0.063
-234.830	-91.738	-0.153	0.043
-233.815	255.471	-0.148	-0.255
-232.800	-108.769	-0.183	-0.039
-231.786	800.000	0.034	0.107
-230.771	-45.691	-0.159	-0.079
-229.757	241.973	0.060	0.101
-228.742	-15.707	0.244	-0.156
-227.727	-185.227	0.093	0.001
-226.713	-147.189	0.307	0.026
-225.698	-4.201	0.346	0.240
-224.684	-200.000	0.007	-0.142
-223.669	661.923	0.048	-0.124
-222.655	159.806	0.131	0.182
-221.640	-200.000	0.012	0.202
-220.625	-123.411	-0.116	0.019
-219.611	24.816	0.062	-0.051
-218.596	227.667	0.059	0.097
-217.582	-34.317	0.195	0.107
-216.567	-102.738	0.214	0.051
-215.552	-77.111	0.127	0.044
-214.538	667.100	0.044	-0.113
-213.523	-68.835	0.203	-0.078
-212.509	-109.760	-0.238	0.050
-211.494	61.349	0.295	-0.294
-210.479	800.000	0.052	0.199
-209.465	-154.125	-0.208	-0.014
-208.450	-20.158	0.137	-0.085
-207.436	-176.249	-0.251	-0.007
-206.421	138.313	-0.116	-0.153
-205.406	790.542	-0.046	0.126
-204.392	50.530	-0.147	-0.139
-203.377	185.340	-0.118	0.175
-202.363	23.973	-0.119	0.098
-201.348	800.000	0.020	0.069
-200.333	70.646	0.124	0.129
-199.319	800.000	0.090	0.342
-198.304	-200.000	-0.007	-0.138
-197.290	152.439	0.042	-0.057
-196.275	22.596	0.152	-0.124
-195.260	-200.000	0.027	0.301
-194.246	-125.595	-0.274	0.042
-193.231	175.731	-0.051	-0.074
-192.217	110.329	-0.096	-0.116
-191.202	14.541	0.145	0.113
-190.187	-28.373	-0.142	-0.082
-189.173	-88.766	-0.168	0.050
-188.158	-178.708	-0.141	0.003
-187.144	-119.339	0.337	-0.059
-186.129	-182.692	0.116	-0.002
-185.114	-200.000	0.018	-0.310
-184.100	-90.274	0.152	-0.044
-183.085	-200.000	0.020	0.395
-182.071	77.935	0.297	0.317
-181.056	445.310	0.050	0.110
-180.042	357.546	0.149	-0.297
-179.027	31.369	-0.083	-0.071
-178.012	-169.123	0.247	0.009
-176.998	-60.357	0.134	-0.057
-175.983	800.000	-0.181	-0.527
-174.969	-200.000	0.016	0.133
-173.954	-200.000	-0.045	0.282
-172.939	-116.337	-0.163	-0.030
-171.925	-154.224	-0.229	-0.015
-170.910	132.455	0.041	-0.053
-169.896	175.586	-0.102	-0.148
-168.881	-41.256	0.129	-0.066
-167.866	-80.774	0.021	-0.007
-166.852	31.987	-0.278	-0.240
-165.837	546.019	-0.212	0.506
-164.823	-6.541	0.088	-0.060
-163.808	-200.000	0.002	-0.100
-162.793	-168.393	-0.289	0.011
-161.779	800.000	-0.027	0.113
-160.764	800.000	-0.045	0.144
-159.750	27.634	0.130	0.109
-158.735	-121.930	0.229	0.038
-157.720	800.000	-0.046	-0.154
-156.706	-112.588	-0.208	0.041
-155.691	218.040	-0.205	0.327
-154.677	598.512	-0.058	0.144
-153.662	-200.000	0.035	0.347
-152.647	364.145	0.005	0.011
-151.633	18.020	0.221	0.176
-150.618	231.837	0.071	-0.117
-149.604	-61.618	-0.228	-0.096
-148.589	32.454	0.082	0.071
-147.574	579.244	-0.098	-0.238
-146.560	-41.110	-0.201	0.104
-145.545	-200.000	-0.066	0.570
-144.531	-76.682	0.142	-0.050
-143.516	800.000	-0.109	0.342
-142.502	-200.000	-0.011	0.118
-141.487	-80.487	0.229	0.076
-140.472	144.781	0.155	-0.206
-139.458	-31.929	0.101	-0.056
-138.443	-200.000	0.004	-0.075
-137.429	-200.000	0.014	-0.234
-136.414	-174.499	-0.318	-0.009
-135.399	-88.169	0.241	0.072
-134.385	-30.251	-0.350	-0.198
-133.370	-83.062	0.390	-0.125
-132.356	453.602	0.062	0.137
-131.341	783.925	0.149	0.408
-130.326	-100.910	0.177	0.043
-129.312	-200.000	-0.002	0.240
-128.297	800.000	-0.039	0.120
-127.283	-167.499	0.085	0.003
-126.268	-131.058	-0.311	-0.041
-125.253	180.663	0.059	-0.087
-124.239	-97.286	-0.415	0.108
-123.224	-200.000	-0.005	0.109
-122.210	529.382	0.078	0.183
-121.195	-79.278	-0.099	-0.034
