DTS Sentinel unit serial number:	SN413079Multiplexer serial number:	ORYXHardware model number:	OX4-SRSoftware version number:	ORYX F/W v4.00 Oryx Data Collector v3.7.2.0data status	okinstallation	princeton_trtdifferential loss correction	single-endedforward channel	channel 1reverse channel	N/Adate	2019/09/14time	19:22:35forward acquisition time	60.00reverse acquisition time	0.00gamma	496.2192k internal	0.2312k external	0.2312temperature offset calibration	1.0025default loss term (dB/km)	0.3790temperature slope calibration	1.0000multiplexer offset coefficient	1.0000multiplexer slope coefficient	1.0000fibre end	0.00T internal ref (°C)	34.98T ext. ref 1 (°C)	4.88T ext. ref 2 (°C)	29.06length (m)	temperature (°C)	Stokes	anti-Stokes-747.200	684.128	-0.079	-0.210
-746.185	-120.859	-0.288	0.049
-745.171	-39.616	0.126	0.067
-744.156	-80.039	0.112	-0.038
-743.142	25.624	-0.152	-0.128
-742.127	-41.276	-0.094	-0.049
-741.112	24.095	-0.041	-0.034
-740.098	286.280	-0.074	0.135
-739.083	800.000	-0.047	0.144
-738.069	-200.000	0.000	0.180
-737.054	75.885	0.108	0.116
-736.039	-50.088	-0.207	0.100
-735.025	-25.934	0.074	-0.044
-734.010	-23.012	-0.431	-0.263
-732.996	-146.617	-0.230	0.020
-731.981	-200.000	-0.016	0.122
-730.966	4.171	-0.269	0.200
-729.952	-200.000	-0.059	0.282
-728.937	8.212	-0.216	-0.164
-727.923	800.000	0.027	-0.119
-726.908	714.266	0.063	-0.169
-725.894	32.691	-0.271	0.238
-724.879	-103.087	-0.170	0.041
-723.864	-200.000	-0.019	-0.153
-722.850	800.000	-0.070	0.243
-721.835	306.363	0.168	0.317
-720.821	-13.314	0.190	0.125
-719.806	90.266	-0.051	-0.058
-718.791	-138.204	0.081	0.009
-717.777	255.754	0.086	-0.150
-716.762	470.317	0.085	-0.194
-715.748	133.021	0.052	-0.068
-714.733	-139.474	-0.102	0.011
-713.718	33.687	-0.035	-0.030
-712.704	83.647	0.132	-0.146
-711.689	178.487	0.245	0.362
-710.675	-200.000	0.018	-0.204
-709.660	655.759	-0.195	-0.508
-708.645	31.855	-0.199	-0.174
-707.631	139.078	-0.111	-0.148
-706.616	627.253	0.126	0.321
-705.602	346.655	-0.120	-0.239
-704.587	-172.882	-0.114	0.004
-703.572	-87.507	0.410	-0.126
-702.558	129.834	-0.170	-0.221
-701.543	-200.000	-0.020	-0.165
-700.529	226.971	-0.125	0.206
-699.514	-165.323	-0.204	0.009
-698.499	-200.000	-0.030	-0.153
-697.485	-200.000	-0.046	-0.240
-696.470	583.717	-0.127	0.315
-695.456	-31.431	-0.246	0.140
-694.441	-200.000	-0.032	0.302
-693.426	129.776	0.061	0.079
-692.412	-200.000	-0.031	0.154
-691.397	206.467	0.038	0.060
-690.383	-135.192	-0.309	0.038
-689.368	-157.740	-0.091	-0.005
-688.354	-67.833	-0.360	-0.142
-687.339	89.270	-0.044	-0.050
-686.324	67.652	-0.143	-0.148
-685.310	-46.863	0.140	0.070
-684.295	226.682	0.124	-0.204
-683.281	-25.094	0.278	-0.167
-682.266	-37.840	0.209	0.112
-681.251	-75.988	0.226	0.081
-680.237	-102.798	-0.323	0.078
-679.222	185.120	0.081	-0.121
-678.208	-36.985	-0.325	-0.176
-677.193	742.038	0.052	0.141
-676.178	36.818	-0.305	-0.273
-675.164	710.536	0.143	0.382
-674.149	136.319	-0.195	-0.257
-673.135	-64.428	-0.341	-0.140
-672.120	472.885	0.048	-0.110
-671.105	-42.503	0.077	-0.039
-670.091	-71.408	-0.193	-0.073
-669.076	106.608	-0.203	-0.243
-668.062	-89.606	-0.041	-0.012
-667.047	-49.450	-0.123	0.059
-666.032	185.952	-0.174	-0.262
-665.018	121.429	-0.125	0.158
-664.003	212.422	0.115	0.183
-662.989	-200.000	-0.056	-0.260
-661.974	599.301	-0.086	0.215
-660.959	-134.463	0.241	0.030
-659.945	-200.000	-0.068	0.000
-658.930	-200.000	-0.048	0.327
-657.916	243.432	0.088	0.149
-656.901	-75.627	0.314	0.113
-655.886	124.258	0.104	-0.132
-654.872	-66.447	0.198	0.080
-653.857	-138.777	0.230	0.025
-652.843	3.641	0.300	0.221
-651.828	58.870	0.087	-0.087
-650.814	-114.058	-0.042	0.008
-649.799	34.842	0.115	-0.102
-648.784	-200.000	-0.016	0.175
-647.770	388.749	-0.046	-0.095
-646.755	-200.000	-0.016	-0.087
-645.741	370.149	-0.233	-0.478
-644.726	-68.330	0.155	0.061
-643.711	-174.580	-0.145	0.004
-642.697	-200.000	-0.015	-0.155
-641.682	-161.037	-0.210	-0.011
-640.668	-20.629	0.072	0.045
-639.653	800.000	0.046	0.162
-638.638	78.796	0.085	0.092
-637.624	-165.726	-0.231	-0.010
-636.609	20.119	0.128	0.105
-635.595	427.989	-0.068	-0.149
-634.580	-21.986	-0.153	-0.094
-633.565	109.297	-0.060	-0.072
-632.551	154.038	-0.134	0.186
-631.536	332.879	-0.245	0.479
-630.522	-76.717	-0.117	0.041
-629.507	800.000	-0.162	-0.581
-628.492	123.213	-0.132	0.167
-627.478	-103.270	-0.240	-0.057
-626.463	-2.604	0.237	-0.168
-625.449	-33.304	-0.317	0.177
-624.434	259.976	0.241	0.420
-623.419	-84.149	-0.246	0.079
-622.405	-122.544	-0.112	0.018
-621.390	800.000	-0.194	0.557
-620.376	53.615	-0.223	0.217
-619.361	774.622	0.068	-0.186
-618.346	40.590	0.154	-0.140
-617.332	298.677	-0.159	0.295
-616.317	77.967	0.272	-0.293
-615.303	-116.803	0.296	-0.055
-614.288	-200.000	0.145	0.000
-613.273	-93.285	-0.305	-0.085
-612.259	162.995	-0.055	-0.078
-611.244	658.582	-0.070	-0.182
-610.230	-9.537	-0.205	-0.138
-609.215	-132.326	0.062	-0.008
-608.201	-200.000	-0.010	-0.078
-607.186	-200.000	-0.013	0.172
-606.171	-184.550	0.362	-0.006
-605.157	-200.000	0.032	-0.217
-604.142	397.653	0.008	-0.016
-603.128	176.112	-0.101	-0.148
-602.113	104.886	0.121	0.144
-601.098	288.822	0.182	0.334
-600.084	-200.000	0.035	0.181
-599.069	800.000	0.101	0.396
-598.055	-86.536	0.033	-0.010
-597.040	146.020	0.176	-0.238
-596.025	-159.325	-0.218	-0.012
-595.011	-200.000	0.052	-0.257
-593.996	-200.000	-0.015	-0.307
-592.982	68.080	0.113	0.117
-591.967	-200.000	0.035	0.234
-590.952	-128.917	0.307	0.044
-589.938	-144.285	0.540	-0.051
-588.923	-84.481	-0.231	-0.074
-587.909	-87.786	-0.177	0.054
-586.894	-29.000	0.022	0.012
-585.879	-59.934	-0.120	0.052
-584.865	800.000	-0.058	-0.211
-583.850	-109.117	-0.382	0.082
-582.836	800.000	0.060	-0.192
-581.821	240.219	-0.178	-0.299
-580.806	-55.092	0.325	-0.147
-579.792	271.673	-0.152	-0.270
-578.777	119.607	-0.224	-0.280
-577.763	569.466	0.042	0.103
-576.748	-17.000	0.346	-0.220
-575.733	-200.000	-0.009	-0.067
-574.719	13.461	-0.170	0.133
-573.704	-83.358	0.263	0.085
-572.690	800.000	-0.058	-0.196
-571.675	-154.672	-0.255	-0.017
-570.661	-72.176	0.127	-0.047
-569.646	800.000	-0.050	-0.143
-568.631	479.320	0.061	0.139
-567.617	723.138	-0.058	-0.157
-566.602	-200.000	-0.002	-0.264
-565.588	800.000	0.066	-0.260
-564.573	800.000	-0.019	-0.079
-563.558	-82.517	0.265	0.087
-562.544	16.070	0.085	-0.068
-561.529	-200.000	0.015	0.126
-560.515	-27.317	-0.283	-0.166
-559.500	800.000	0.093	0.266
-558.485	-53.453	0.418	0.193
-557.471	655.576	0.066	-0.170
-556.456	93.572	0.081	-0.092
-555.442	7.961	-0.076	-0.058
-554.427	15.767	-0.028	-0.023
-553.412	39.052	0.161	-0.145
-552.398	-34.185	0.132	0.073
-551.383	10.585	-0.178	0.137
-550.369	800.000	-0.025	-0.093
-549.354	485.511	-0.085	0.195
-548.339	-135.411	-0.325	-0.039
-547.325	-144.582	-0.254	-0.024
-546.310	-9.273	-0.183	-0.123
-545.296	373.126	0.090	-0.185
-544.281	-63.316	-0.214	-0.089
-543.266	-141.331	-0.343	-0.035
-542.252	32.050	-0.215	-0.186
-541.237	-200.000	-0.001	0.198
-540.223	96.868	-0.244	0.281
-539.208	800.000	-0.076	-0.243
-538.193	800.000	0.035	0.117
-537.179	616.526	-0.006	0.014
-536.164	251.858	-0.058	-0.099
-535.150	-29.693	0.094	0.054
-534.135	-200.000	0.013	0.079
-533.121	-31.531	-0.203	-0.115
-532.106	-41.344	0.124	0.064
-531.091	-166.370	-0.168	-0.007
-530.077	35.912	-0.266	0.236
-529.062	285.309	-0.010	-0.017
-528.048	67.605	-0.136	0.140
-527.033	-26.324	0.332	-0.196
-526.018	800.000	0.050	-0.145
-525.004	70.577	0.064	0.067
-523.989	-138.283	-0.091	-0.010
-522.975	523.663	-0.063	-0.150
-521.960	182.605	0.076	-0.112
-520.945	-200.000	0.012	0.153
-519.931	-62.011	-0.150	0.063
-518.916	-79.113	0.126	-0.043
-517.902	477.910	0.059	-0.135
-516.887	-200.000	0.056	0.277
-515.872	282.184	-0.066	-0.119
-514.858	69.241	0.139	-0.144
-513.843	800.000	0.094	0.304
-512.829	633.448	-0.055	-0.141
-511.814	376.680	0.049	0.100
-510.799	269.347	-0.064	0.113
-509.785	800.000	0.018	0.068
-508.770	-200.000	-0.012	-0.205
-507.756	138.025	0.099	0.131
-506.741	-22.564	0.069	-0.042
-505.726	34.610	0.121	0.107
-504.712	-115.842	0.185	-0.035
-503.697	-200.000	-0.072	0.398
-502.683	52.290	-0.124	0.119
-501.668	179.571	0.152	-0.223
-500.653	334.567	-0.131	-0.255
-499.639	-200.000	0.035	-0.177
-498.624	-93.261	0.233	-0.065
-497.610	800.000	-0.065	0.181
-496.595	-200.000	-0.022	0.313
-495.581	-165.664	-0.246	0.011
-494.566	-200.000	0.033	0.220
-493.551	37.012	-0.110	0.098
-492.537	-120.859	-0.275	0.047
-491.522	335.845	-0.153	-0.299
-490.508	169.656	-0.106	0.153
-489.493	11.556	0.271	0.209
-488.478	-200.000	0.027	0.500
-487.464	-137.777	0.055	-0.006
-486.449	-116.735	0.199	-0.037
-485.435	679.638	0.068	0.178
-484.420	-33.216	0.117	0.065
-483.405	-69.202	0.212	0.082
-482.391	-80.405	0.175	-0.059
-481.376	-36.355	-0.098	0.053
-480.362	-73.843	-0.251	-0.091
-479.347	-81.584	-0.122	0.040
-478.332	-200.000	0.028	-0.293
-477.318	800.000	0.048	0.166
-476.303	-125.832	0.169	0.026
-475.289	304.757	-0.028	-0.052
-474.274	340.995	-0.133	0.262
-473.259	800.000	-0.070	-0.259
-472.245	451.949	-0.132	-0.293
-471.230	-200.000	0.008	0.217
-470.216	350.989	0.077	0.152
-469.201	323.541	-0.067	0.128
-468.186	-110.972	0.156	0.032
-467.172	800.000	0.032	0.132
-466.157	-18.950	0.173	0.108
-465.143	104.841	0.315	0.372
-464.128	800.000	-0.042	0.144
-463.113	290.338	-0.034	0.061
-462.099	800.000	-0.025	0.109
-461.084	373.069	0.071	0.146
-460.070	-200.000	-0.016	0.203
-459.055	125.734	-0.116	0.147
-458.040	386.333	0.116	0.240
-457.026	-5.969	-0.166	0.114
-456.011	136.496	-0.227	-0.298
-454.997	100.320	0.112	0.130
-453.982	800.000	-0.022	0.071
-452.968	231.380	-0.098	0.161
-451.953	800.000	-0.060	-0.184
-450.938	-200.000	0.063	-0.369
-449.924	-118.595	-0.158	-0.028
-448.909	-109.489	0.288	-0.061
-447.895	-74.611	0.281	-0.101
-446.880	-91.455	0.205	-0.059
-445.865	75.238	-0.122	-0.129
-444.851	-112.240	-0.275	0.055
-443.836	175.354	-0.035	-0.050
-442.822	-200.000	-0.029	-0.222
-441.807	153.131	0.194	-0.266
-440.792	-122.591	-0.338	-0.055
-439.778	176.703	-0.054	-0.079
-438.763	-93.886	0.273	-0.075
-437.749	59.548	-0.192	-0.189
-436.734	52.543	-0.117	0.112
-435.719	-84.301	-0.059	0.019
-434.705	-92.135	0.122	-0.034
-433.690	800.000	0.018	0.066
-432.676	-24.437	-0.284	0.170
-431.661	-131.984	-0.310	0.041
-430.646	-200.000	0.004	-0.163
-429.632	60.712	-0.054	0.054
-428.617	-25.427	0.239	-0.141
-427.603	10.113	0.160	-0.122
-426.588	78.163	0.157	-0.168
-425.573	13.706	-0.091	0.071
-424.559	49.529	-0.160	-0.151
-423.544	-142.208	0.274	-0.027
-422.530	6.101	0.116	-0.086
-421.515	-200.000	-0.016	-0.138
-420.500	-6.307	-0.151	-0.103
-419.486	-36.693	0.293	0.158
-418.471	800.000	-0.081	-0.238
-417.457	-158.425	0.054	0.003
-416.442	-28.779	0.166	-0.096
-415.428	-200.000	0.027	0.212
-414.413	101.809	-0.183	-0.214
-413.398	-200.000	0.014	-0.210
-412.384	-63.557	0.340	-0.140
-411.369	343.958	-0.054	-0.106
-410.355	187.266	0.065	-0.097
-409.340	66.531	0.084	-0.085
-408.325	-78.341	0.025	0.008
-407.311	793.884	-0.026	0.071
-406.296	-33.535	0.158	-0.087
-405.282	-1.994	-0.072	0.051
-404.267	-200.000	0.016	0.243
-403.252	-200.000	0.073	0.356
-402.238	-96.882	-0.199	-0.052
-401.223	-25.975	-0.404	0.238
-400.209	9.559	-0.048	0.036
-399.194	434.717	0.056	0.121
-398.179	108.486	0.094	-0.112
-397.165	771.849	0.044	-0.119
-396.150	-120.145	-0.094	0.016
-395.136	-200.000	-0.001	-0.374
-394.121	-123.009	-0.064	-0.010
-393.106	-81.770	-0.386	-0.127
-392.092	-200.000	-0.006	0.069
-391.077	238.098	-0.009	0.015
-390.063	132.397	-0.192	0.248
-389.048	-153.655	0.226	0.016
-388.033	-2.840	0.095	0.066
-387.019	-200.000	0.015	-0.240
-386.004	-200.000	0.022	0.299
-384.990	-28.761	0.167	0.096
-383.975	-200.000	-0.012	0.109
-382.960	-200.000	-0.047	-0.368
-381.946	373.356	-0.096	-0.196
-380.931	87.980	-0.094	-0.105
-379.917	800.000	-0.053	0.206
-378.902	-42.577	0.197	-0.100
-377.888	-200.000	-0.011	-0.226
-376.873	-200.000	0.005	-0.164
-375.858	89.653	0.064	0.071
-374.844	-19.552	-0.180	0.111
-373.829	-3.099	-0.101	-0.070
-372.815	359.361	-0.035	-0.070
-371.800	-200.000	-0.001	0.194
-370.785	210.518	0.122	-0.191
-369.771	-200.000	0.031	-0.167
-368.756	800.000	-0.067	-0.225
-367.742	-200.000	-0.005	0.107
-366.727	389.918	-0.090	0.186
-365.712	400.301	0.034	0.072
-364.698	-161.122	0.111	-0.006
-363.683	-15.101	-0.214	0.137
-362.669	-121.413	0.140	-0.023
-361.654	-200.000	-0.018	0.116
-360.639	65.087	-0.139	-0.140
-359.625	-200.000	-0.010	-0.062
-358.610	49.842	0.195	0.183
-357.596	465.996	-0.057	0.127
-356.581	677.294	0.098	0.254
-355.566	-13.762	-0.036	0.023
-354.552	108.028	0.099	-0.118
-353.537	-55.092	0.116	0.052
-352.523	-147.713	0.156	-0.013
-351.508	-126.109	-0.343	0.051
-350.493	319.851	0.168	0.318
-349.479	6.122	-0.037	0.027
-348.464	49.072	0.238	0.224
-347.450	42.071	0.114	-0.104
-346.435	295.012	-0.077	-0.140
-345.420	-150.106	0.128	-0.010
-344.406	-9.934	-0.188	-0.125
-343.391	-200.000	-0.056	-0.318
-342.377	28.637	0.092	0.078
-341.362	242.567	0.086	-0.143
-340.348	-200.000	-0.008	-0.087
-339.333	340.772	-0.061	-0.119
-338.318	-88.566	-0.254	0.075
-337.304	-178.880	-0.408	0.009
-336.289	-99.423	-0.096	0.024
-335.275	-88.286	0.197	0.059
-334.260	-80.332	0.100	0.033
-333.245	-97.737	-0.191	-0.049
-332.231	-117.093	0.048	-0.009
-331.216	-200.000	-0.018	0.318
-330.202	800.000	0.019	-0.059
-329.187	85.486	-0.225	-0.246
-328.172	-142.610	0.312	0.030
-327.158	417.462	0.179	-0.383
-326.143	-112.220	0.255	0.051
-325.129	184.863	-0.112	0.166
-324.114	-64.755	-0.358	-0.145
-323.099	-115.202	0.177	0.033
-322.085	66.065	-0.051	-0.052
-321.070	800.000	-0.072	-0.213
-320.056	-200.000	0.030	0.209
-319.041	98.230	-0.107	-0.124
-318.026	-16.071	0.299	-0.189
-317.012	108.675	0.066	0.079
-315.997	46.243	0.076	-0.071
-314.983	-25.920	-0.157	-0.092
-313.968	4.193	-0.191	-0.140
-312.953	-23.678	-0.144	-0.086
-311.939	-53.998	-0.203	0.092
-310.924	637.069	0.038	0.095
-309.910	-200.000	-0.050	-0.325
-308.895	187.405	0.060	-0.089
-307.880	-119.517	-0.246	0.042
-306.866	101.666	-0.115	0.134
-305.851	-200.000	-0.005	-0.099
-304.837	800.000	0.079	-0.227
-303.822	-119.835	-0.121	-0.021
-302.807	-174.141	0.295	-0.009
-301.793	-182.904	0.099	-0.002
-300.778	8.986	-0.172	0.130
-299.764	-34.530	0.417	-0.228
-298.749	-122.135	-0.375	0.061
-297.735	800.000	0.113	-0.334
-296.720	-200.000	-0.002	0.171
-295.705	-28.535	0.244	-0.140
-294.691	-200.000	-0.003	-0.034
-293.676	81.251	-0.187	-0.202
-292.662	230.472	0.131	-0.213
-291.647	800.000	-0.099	0.315
-290.632	-200.000	0.007	-0.277
-289.618	800.000	0.044	0.158
-288.603	89.106	-0.049	0.055
-287.589	-175.802	0.212	0.006
-286.574	263.348	-0.084	0.146
-285.559	760.912	0.029	0.078
-284.545	206.404	0.085	-0.133
-283.530	-130.123	-0.534	-0.073
-282.516	800.000	0.015	0.044
-281.501	0.481	0.341	0.243
-280.486	-162.261	-0.266	0.013
-279.472	86.456	-0.106	0.117
-278.457	11.268	0.405	0.309
-277.443	-102.105	0.085	0.021
-276.428	223.808	-0.097	0.156
-275.413	130.115	-0.044	0.056
-274.399	21.952	-0.081	-0.065
-273.384	5.219	0.099	-0.073
-272.370	275.858	0.041	-0.072
-271.355	-200.000	0.052	0.375
-270.340	-200.000	0.008	0.052
-269.326	-91.519	0.291	0.083
-268.311	800.000	-0.010	-0.032
-267.297	46.249	0.140	0.129
-266.282	-89.373	0.184	0.054
-265.267	-200.000	-0.001	-0.029
-264.253	568.814	-0.082	-0.198
-263.238	800.000	-0.036	-0.154
-262.224	-114.947	0.117	-0.022
-261.209	273.383	-0.009	-0.015
-260.195	-43.833	-0.063	-0.031
-259.180	73.585	-0.134	0.139
-258.165	99.390	0.219	-0.252
-257.151	-183.636	-0.192	0.003
-256.136	-165.519	-0.226	0.010
-255.122	800.000	0.021	-0.059
-254.107	96.102	-0.114	-0.130
-253.092	-100.001	-0.179	0.045
-252.078	-200.000	-0.009	-0.334
-251.063	-104.887	-0.150	-0.034
-250.049	800.000	-0.097	0.295
-249.034	-86.091	-0.456	-0.140
-248.019	-48.725	0.272	0.130
-247.005	25.846	-0.174	-0.144
-245.990	800.000	-0.089	0.255
-244.976	203.856	0.042	-0.065
-243.961	15.451	-0.152	0.119
-242.946	154.586	0.229	0.312
-241.932	21.779	0.131	-0.106
-240.917	-42.241	0.117	-0.060
-239.903	-76.243	0.205	0.072
-238.888	-200.000	0.044	0.342
-237.873	-200.000	0.044	0.239
-236.859	137.253	-0.242	0.314
-235.844	-96.728	-0.341	-0.089
-234.830	-92.059	-0.168	0.047
-233.815	76.658	0.137	0.145
-232.800	-109.639	0.214	0.045
-231.786	-183.749	-0.077	-0.001
-230.771	-200.000	0.063	-0.397
-229.757	197.654	0.147	-0.224
-228.742	-200.000	-0.030	0.142
-227.727	-87.306	0.257	-0.077
-226.713	800.000	0.040	0.149
-225.698	-200.000	-0.063	0.299
-224.684	-123.291	0.125	-0.020
-223.669	800.000	0.071	0.266
-222.655	518.213	-0.069	-0.162
-221.640	41.604	0.076	0.069
-220.625	101.683	-0.220	0.255
-219.611	-200.000	0.036	0.260
-218.596	-7.124	-0.118	-0.080
-217.582	44.591	0.004	-0.004
-216.567	-200.000	0.009	0.269
-215.552	134.974	-0.121	0.156
-214.538	164.482	-0.104	-0.146
-213.523	800.000	0.016	0.067
-212.509	126.980	0.110	-0.138
-211.494	-200.000	0.192	0.000
-210.479	-80.415	-0.025	-0.008
-209.465	121.104	-0.178	-0.220
-208.450	55.009	0.486	0.467
-207.436	-156.620	0.185	-0.011
-206.421	400.256	0.053	-0.110
-205.406	-123.987	-0.112	-0.017
-204.392	1.808	-0.198	0.142
-203.377	123.263	0.147	-0.183
-202.363	-102.546	0.036	-0.008
-201.348	-41.000	0.243	0.125
-200.333	-73.196	-0.233	-0.085
-199.319	102.514	0.068	0.079
-198.304	-200.000	-0.011	-0.084
-197.290	-17.819	0.303	0.189
-196.275	-7.689	-0.273	0.184
-195.260	-145.807	0.359	-0.032
-194.246	510.519	0.074	-0.170
-193.231	-76.851	-0.088	-0.030
-192.217	147.965	-0.089	-0.119
-191.202	-127.370	0.246	0.036
-190.187	-200.000	0.016	0.126
-189.173	82.614	0.191	0.206
-188.158	90.903	0.147	-0.164
-187.144	-4.376	0.049	0.034
-186.129	-84.359	-0.414	0.130
-185.114	490.939	0.128	0.292
-184.100	-200.000	0.021	-0.198
-183.085	88.511	0.301	0.332
-182.071	377.836	-0.036	0.073
-181.056	68.230	0.209	-0.213
-180.042	91.107	0.219	0.244
-179.027	-124.995	0.403	0.062
-178.012	-192.365	-0.157	-0.001
-176.998	195.645	-0.061	0.093
-175.983	-147.623	0.267	-0.022
-174.969	-200.000	0.029	0.126
-173.954	-200.000	0.053	-0.317
-172.939	106.856	-0.178	-0.209
-171.925	800.000	-0.071	-0.269
-170.910	-200.000	-0.004	-0.023
-169.896	111.196	-0.101	0.120
-168.881	-18.532	-0.082	-0.051
-167.866	133.262	0.053	-0.068
-166.852	-154.326	0.209	-0.014
-165.837	-122.875	0.108	-0.017
-164.823	-200.000	-0.007	-0.354
-163.808	-116.949	-0.274	0.050
-162.793	-18.568	0.188	0.116
-161.779	-200.000	-0.011	-0.105
-160.764	95.577	0.063	0.071
-159.750	-9.997	-0.175	0.115
-158.735	-200.000	0.000	0.049
-157.720	-200.000	-0.016	0.231
-156.706	-56.116	0.236	-0.104
-155.691	43.398	-0.254	0.230
-154.677	-76.632	-0.378	-0.132
-153.662	142.777	0.078	-0.103
-152.647	40.783	0.283	-0.253
-151.633	-57.639	0.305	0.133
-150.618	-196.235	-0.300	-0.002
-149.604	-123.599	-0.096	-0.015
-148.589	34.608	0.058	0.050
-147.574	-128.590	-0.331	0.047
-146.560	254.878	-0.208	0.353
-145.545	267.345	-0.122	-0.212
-144.531	800.000	-0.036	-0.151
-143.516	-67.133	-0.261	0.102
-142.502	800.000	0.055	-0.156
-141.487	-40.961	0.198	-0.102
-140.472	463.102	-0.111	0.245
-139.458	39.400	0.044	-0.039
-138.443	800.000	-0.078	-0.270
-137.429	-200.000	-0.052	-0.282
-136.414	65.852	-0.298	-0.299
-135.399	107.788	-0.152	-0.179
-134.385	104.733	0.231	-0.269
-133.370	217.858	-0.083	0.131
-132.356	320.233	-0.035	0.066
-131.341	231.727	-0.112	0.182
-130.326	-48.200	-0.119	-0.057
-129.312	-50.186	-0.223	-0.105
-128.297	-132.222	0.102	-0.013
-127.283	165.031	0.099	-0.138
-126.268	-47.186	0.221	0.107
-125.253	-73.754	0.301	-0.108
-124.239	-108.833	-0.330	0.070
-123.224	788.478	-0.116	0.316
-122.210	-10.892	-0.198	-0.129
