DTS Sentinel unit serial number:	SN413079Multiplexer serial number:	ORYXHardware model number:	OX4-SRSoftware version number:	ORYX F/W v4.00 Oryx Data Collector v3.7.2.0data status	okinstallation	princeton_trtdifferential loss correction	single-endedforward channel	channel 1reverse channel	N/Adate	2019/09/15time	01:46:35forward acquisition time	60.00reverse acquisition time	0.00gamma	496.2192k internal	0.2322k external	0.2322temperature offset calibration	0.9979default loss term (dB/km)	0.3790temperature slope calibration	1.0000multiplexer offset coefficient	1.0000multiplexer slope coefficient	1.0000fibre end	0.00T internal ref (°C)	31.81T ext. ref 1 (°C)	4.50T ext. ref 2 (°C)	26.71length (m)	temperature (°C)	Stokes	anti-Stokes-747.200	-200.000	-0.007	-0.099
-746.185	-65.269	0.119	0.048
-745.171	135.801	0.109	0.143
-744.156	276.960	-0.130	0.233
-743.142	318.159	0.116	0.222
-742.127	-200.000	0.006	0.214
-741.112	-200.000	-0.004	0.032
-740.098	245.527	0.064	0.109
-739.083	-107.533	0.088	-0.020
-738.069	800.000	0.027	0.110
-737.054	-200.000	-0.008	-0.058
-736.039	-161.331	-0.134	0.007
-735.025	-49.784	0.342	-0.164
-734.010	-148.709	-0.468	-0.038
-732.996	539.354	0.086	-0.206
-731.981	-32.995	0.201	-0.113
-730.966	-83.017	0.249	0.081
-729.952	-50.919	-0.156	-0.074
-728.937	42.837	-0.142	-0.131
-727.923	800.000	0.014	-0.045
-726.908	-44.677	-0.075	0.038
-725.894	-52.785	0.246	0.114
-724.879	14.196	-0.188	-0.148
-723.864	3.171	0.119	-0.088
-722.850	31.738	0.251	0.218
-721.835	62.049	-0.217	0.218
-720.821	-120.519	-0.143	-0.025
-719.806	9.641	-0.122	0.093
-718.791	-75.418	0.360	-0.129
-717.777	30.260	-0.183	-0.158
-716.762	-114.363	-0.136	0.027
-715.748	-200.000	0.056	-0.297
-714.733	29.215	0.063	0.054
-713.718	-151.168	0.249	0.019
-712.704	234.440	-0.074	-0.123
-711.689	-150.965	0.105	-0.008
-710.675	-200.000	-0.011	0.099
-709.660	800.000	-0.069	0.252
-708.645	484.152	0.177	0.406
-707.631	-150.813	0.118	-0.009
-706.616	-200.000	0.037	-0.281
-705.602	-200.000	0.026	0.168
-704.587	-79.476	-0.276	0.094
-703.572	-110.546	0.289	-0.060
-702.558	-200.000	0.005	-0.310
-701.543	87.877	-0.093	0.104
-700.529	112.729	0.022	0.027
-699.514	-162.224	-0.141	-0.007
-698.499	-153.179	0.119	0.008
-697.485	-188.201	-0.349	0.004
-696.470	539.443	-0.084	-0.200
-695.456	-119.095	-0.141	-0.025
-694.441	-110.689	0.126	0.026
-693.426	231.503	0.062	0.102
-692.412	-8.359	-0.132	0.090
-691.397	169.805	0.134	-0.193
-690.383	-1.801	-0.324	-0.230
-689.368	-121.684	-0.379	-0.063
-688.354	-87.797	0.480	-0.146
-687.339	-130.555	-0.087	-0.012
-686.324	-190.072	-0.073	0.001
-685.310	107.220	-0.050	-0.060
-684.295	-142.758	-0.180	-0.018
-683.281	4.370	-0.401	0.296
-682.266	561.545	-0.087	-0.211
-681.251	31.901	-0.115	0.100
-680.237	-134.868	-0.210	-0.026
-679.222	27.785	0.222	-0.189
-678.208	800.000	0.052	-0.161
-677.193	-0.881	0.015	0.011
-676.178	185.992	-0.018	-0.027
-675.164	24.226	0.170	-0.141
-674.149	-132.872	0.256	-0.033
-673.135	102.737	0.162	-0.192
-672.120	-200.000	-0.033	0.210
-671.105	35.481	0.218	-0.193
-670.091	-53.716	-0.228	-0.105
-669.076	800.000	0.103	-0.351
-668.062	-24.741	-0.368	-0.220
-667.047	38.116	-0.012	-0.011
-666.032	379.458	0.084	-0.173
-665.018	0.380	0.040	0.029
-664.003	64.960	0.063	0.064
-662.989	10.441	0.301	0.231
-661.974	-111.434	0.174	0.036
-660.959	-48.911	0.283	-0.137
-659.945	-200.000	-0.025	0.120
-658.930	-113.641	0.165	0.032
-657.916	78.203	-0.180	-0.193
-656.901	128.871	-0.035	-0.045
-655.886	725.530	-0.092	-0.246
-654.872	800.000	0.050	0.158
-653.857	800.000	-0.078	-0.322
-652.843	-200.000	-0.075	0.422
-651.828	-37.180	-0.348	0.187
-650.814	-200.000	0.043	0.196
-649.799	-200.000	-0.025	-0.124
-648.784	-30.812	-0.160	0.091
-647.770	-75.872	0.341	-0.122
-646.755	-200.000	-0.004	-0.161
-645.741	-89.005	0.266	-0.079
-644.726	109.478	-0.110	-0.133
-643.711	85.514	0.155	0.171
-642.697	-127.121	0.307	0.045
-641.682	93.595	-0.129	-0.147
-640.668	51.035	0.106	-0.101
-639.653	800.000	-0.043	-0.144
-638.638	80.153	-0.181	0.196
-637.624	-45.814	-0.219	0.109
-636.609	-200.000	0.072	-0.399
-635.595	473.118	0.154	-0.350
-634.580	421.937	-0.128	-0.276
-633.565	242.903	0.081	0.136
-632.551	171.887	0.130	0.188
-631.536	-200.000	0.020	-0.255
-630.522	-57.363	-0.059	0.026
-629.507	-53.955	0.084	0.038
-628.492	45.327	0.182	0.169
-627.478	-9.563	0.238	-0.160
-626.463	752.973	-0.074	-0.201
-625.449	122.055	-0.095	0.119
-624.434	-200.000	0.059	-0.540
-623.419	63.080	-0.096	0.097
-622.405	59.140	-0.136	0.134
-621.390	-106.863	-0.187	-0.042
-620.376	-147.677	0.161	-0.014
-619.361	-200.000	-0.001	0.138
-618.346	-200.000	-0.054	0.344
-617.332	-84.983	0.117	0.037
-616.317	-174.075	0.110	-0.003
-615.303	-200.000	-0.033	-0.307
-614.288	-200.000	-0.007	-0.075
-613.273	502.240	-0.084	0.194
-612.259	112.907	-0.214	0.261
-611.244	-62.931	-0.255	-0.106
-610.230	-131.941	-0.087	0.011
-609.215	-71.682	0.129	-0.048
-608.201	-200.000	-0.026	0.231
-607.186	-67.632	-0.176	0.069
-606.171	-200.000	0.024	-0.326
-605.157	148.389	-0.070	-0.095
-604.142	100.951	-0.266	-0.311
-603.128	-129.297	-0.145	-0.020
-602.113	612.357	-0.154	-0.387
-601.098	-200.000	-0.037	0.229
-600.084	-17.946	-0.072	0.045
-599.069	92.498	0.115	0.130
-598.055	216.523	0.123	-0.196
-597.040	-200.000	-0.001	-0.086
-596.025	-89.174	0.265	-0.079
-595.011	65.432	0.271	-0.275
-593.996	-166.182	0.227	0.010
-592.982	137.267	0.153	-0.201
-591.967	188.055	-0.465	0.698
-590.952	-33.042	0.351	0.196
-589.938	691.094	-0.081	0.214
-588.923	166.260	-0.105	-0.149
-587.909	-200.000	0.009	0.190
-586.894	-115.067	0.073	-0.014
-585.879	-2.292	0.316	-0.223
-584.865	-200.000	0.010	-0.269
-583.850	-103.676	-0.298	-0.070
-582.836	7.053	0.133	0.100
-581.821	251.560	-0.031	-0.052
-580.806	-152.566	-0.323	-0.023
-579.792	-200.000	-0.010	0.179
-578.777	800.000	-0.027	0.082
-577.763	17.696	-0.222	-0.178
-576.748	179.743	-0.104	-0.153
-575.733	250.372	0.057	-0.097
-574.719	-9.999	-0.063	-0.042
-573.704	-115.937	0.284	0.053
-572.690	167.640	0.089	0.127
-571.675	-200.000	0.049	0.335
-570.661	-200.000	-0.092	0.413
-569.646	-94.987	0.221	0.060
-568.631	-97.704	-0.198	-0.052
-567.617	-31.547	0.188	0.106
-566.602	800.000	-0.040	-0.124
-565.588	-182.262	-0.232	0.004
-564.573	408.230	-0.028	0.059
-563.558	-83.791	0.229	-0.073
-562.544	-200.000	-0.013	-0.306
-561.529	68.477	-0.019	0.020
-560.515	-22.843	0.098	0.059
-559.500	-92.545	0.313	-0.088
-558.485	20.991	-0.302	-0.246
-557.471	-30.739	0.541	-0.307
-556.456	219.351	-0.176	-0.283
-555.442	365.622	-0.086	0.174
-554.427	-200.000	-0.024	-0.181
-553.412	-25.491	0.232	0.137
-552.398	-100.879	0.185	0.046
-551.383	-103.573	-0.510	0.120
-550.369	-108.397	0.155	0.033
-549.354	191.756	-0.093	0.140
-548.339	-200.000	-0.064	0.351
-547.325	69.086	0.166	-0.171
-546.310	-172.022	0.108	0.003
-545.296	-2.700	0.119	0.083
-544.281	-200.000	-0.025	0.199
-543.266	39.612	-0.184	0.165
-542.252	-14.674	-0.284	-0.183
-541.237	100.339	0.072	0.084
-540.223	-200.000	0.027	0.391
-539.208	-50.788	0.290	0.137
-538.193	-76.539	0.175	-0.062
-537.179	49.207	-0.174	-0.164
-536.164	-200.000	0.010	0.124
-535.150	-104.244	-0.219	-0.051
-534.135	800.000	0.065	0.257
-533.121	24.550	0.125	0.103
-532.106	-78.829	-0.189	-0.065
-531.091	-200.000	-0.046	0.403
-530.077	-151.749	-0.055	-0.004
-529.062	-200.000	0.009	0.245
-528.048	-99.542	-0.340	-0.086
-527.033	-200.000	-0.023	0.138
-526.018	-119.162	0.173	0.030
-525.004	-200.000	-0.002	0.125
-523.989	-144.482	-0.167	-0.016
-522.975	713.018	0.111	-0.296
-521.960	800.000	0.027	0.092
-520.945	-90.081	-0.263	0.077
-519.931	-85.510	0.048	-0.015
-518.916	310.894	-0.092	-0.172
-517.902	-200.000	-0.007	0.296
-516.887	800.000	-0.134	-0.410
-515.872	-200.000	0.002	-0.267
-514.858	3.085	-0.120	-0.087
-513.843	73.649	-0.123	-0.129
-512.829	163.973	0.196	0.276
-511.814	350.710	-0.168	0.332
-510.799	-43.893	-0.277	0.140
-509.785	94.953	-0.028	0.032
-508.770	-200.000	0.025	-0.214
-507.756	800.000	-0.010	-0.029
-506.741	-73.877	-0.286	-0.104
-505.726	-84.548	-0.224	0.071
-504.712	141.240	0.065	-0.086
-503.697	-6.661	0.044	0.030
-502.683	41.022	-0.101	0.091
-501.668	-101.394	-0.141	-0.034
-500.653	-78.566	-0.230	0.079
-499.639	21.933	-0.141	-0.115
-498.624	-200.000	-0.077	-0.488
-497.610	800.000	0.057	-0.210
-496.595	82.140	0.202	-0.219
-495.581	-200.000	-0.013	-0.086
-494.566	-200.000	0.078	0.594
-493.551	-31.537	0.259	-0.146
-492.537	760.135	0.113	0.307
-491.522	-72.132	0.332	-0.123
-490.508	800.000	-0.046	0.162
-489.493	31.471	0.252	0.216
-488.478	-73.446	0.133	0.049
-487.464	-200.000	0.001	-0.142
-486.449	-200.000	0.025	-0.176
-485.435	-102.494	-0.193	0.046
-484.420	-64.085	0.162	-0.066
-483.405	-109.935	-0.293	-0.061
-482.391	17.143	0.131	0.104
-481.376	-81.371	-0.175	0.058
-480.362	-141.155	0.157	0.016
-479.347	51.711	-0.238	0.227
-478.332	-181.995	0.226	-0.004
-477.318	18.693	-0.082	0.066
-476.303	253.322	0.112	-0.191
-475.289	-36.456	-0.126	0.068
-474.274	259.324	-0.020	-0.034
-473.259	302.764	0.104	-0.192
-472.245	-22.441	-0.109	0.066
-471.230	-50.861	-0.289	-0.136
-470.216	-107.776	-0.211	-0.046
-469.201	-122.771	0.434	0.070
-468.186	-89.962	-0.233	-0.068
-467.172	-47.576	0.291	-0.141
-466.157	279.374	-0.065	-0.117
-465.143	-33.754	-0.056	0.031
-464.128	-29.749	0.204	0.116
-463.113	-27.833	-0.030	-0.017
-462.099	85.625	-0.111	-0.122
-461.084	-200.000	-0.001	-0.061
-460.070	-200.000	-0.026	0.367
-459.055	-200.000	-0.088	-0.432
-458.040	-200.000	0.068	0.350
-457.026	800.000	0.073	0.225
-456.011	-87.783	-0.107	-0.032
-454.997	-46.417	0.287	0.141
-453.982	0.102	-0.264	-0.188
-452.968	-96.187	-0.662	0.175
-451.953	-104.835	0.349	-0.080
-450.938	-147.057	-0.355	-0.030
-449.924	163.770	0.113	0.159
-448.909	206.236	-0.016	0.025
-447.895	-2.200	0.235	0.165
-446.880	-14.608	-0.125	-0.080
-445.865	800.000	0.032	0.094
-444.851	-172.961	0.113	-0.003
-443.836	-76.709	0.223	-0.078
-442.822	105.897	0.340	0.402
-441.807	-45.977	0.199	0.098
-440.792	800.000	-0.092	-0.267
-439.778	800.000	0.114	-0.338
-438.763	-8.583	0.450	0.301
-437.749	-66.900	0.044	0.018
-436.734	-48.043	-0.251	-0.121
-435.719	800.000	0.078	-0.334
-434.705	190.458	-0.218	0.328
-433.690	-76.797	-0.178	-0.062
-432.676	231.818	-0.305	-0.499
-431.661	-128.643	0.106	-0.015
-430.646	-62.740	0.146	-0.060
-429.632	-78.685	-0.151	0.051
-428.617	65.326	-0.215	0.217
-427.603	-200.000	0.011	0.142
-426.588	138.336	0.182	-0.239
-425.573	-14.927	0.161	-0.103
-424.559	-88.476	0.197	0.059
-423.544	-153.599	0.312	-0.022
-422.530	161.237	-0.166	0.232
-421.515	-200.000	-0.015	0.100
-420.500	-127.637	-0.134	0.019
-419.486	409.725	-0.034	0.072
-418.471	154.462	0.141	0.193
-417.457	-200.000	0.034	0.297
-416.442	773.356	-0.096	-0.260
-415.428	-200.000	0.013	-0.104
-414.413	-26.258	-0.145	0.085
-413.398	-200.000	-0.058	0.301
-412.384	19.719	0.148	0.119
-411.369	-59.059	0.326	0.140
-410.355	71.018	-0.291	-0.300
-409.340	800.000	-0.049	-0.199
-408.325	384.548	-0.013	-0.027
-407.311	210.405	-0.089	0.139
-406.296	710.235	-0.053	0.139
-405.282	-67.574	0.155	0.060
-404.267	-175.462	-0.216	-0.006
-403.252	800.000	0.103	0.292
-402.238	363.528	0.041	0.082
-401.223	178.864	-0.083	-0.121
-400.209	-35.530	0.149	0.081
-399.194	87.044	-0.092	0.101
-398.179	-157.137	-0.344	-0.021
-397.165	12.237	-0.162	-0.124
-396.150	642.340	-0.039	-0.099
-395.136	446.818	-0.168	0.369
-394.121	147.672	0.119	-0.159
-393.106	25.966	0.210	-0.175
-392.092	312.149	0.131	-0.245
-391.077	-46.551	-0.266	0.130
-390.063	58.142	0.162	-0.159
-389.048	74.756	0.248	0.260
-388.033	143.782	0.138	-0.183
-387.019	800.000	-0.005	0.015
-386.004	-200.000	-0.005	-0.234
-384.990	63.614	-0.332	0.332
-383.975	-36.655	0.282	0.151
-382.960	157.172	-0.052	0.071
-381.946	-83.357	-0.435	0.139
-380.931	-200.000	-0.004	-0.128
-379.917	-119.703	-0.233	0.040
-378.902	-4.909	0.370	0.254
-377.888	-200.000	0.129	0.000
-376.873	227.021	-0.065	-0.106
-375.858	-69.800	0.077	-0.029
-374.844	-32.291	-0.301	-0.167
-373.829	-76.449	-0.216	-0.076
-372.815	53.958	0.326	-0.312
-371.800	-99.089	0.061	-0.016
-370.785	259.453	-0.044	-0.075
-369.771	40.237	0.095	0.085
-368.756	-200.000	0.030	0.217
-367.742	271.510	-0.136	0.239
-366.727	598.389	0.079	0.196
-365.712	-11.256	0.286	0.187
-364.698	143.593	-0.009	0.012
-363.683	-200.000	-0.005	-0.446
-362.669	-45.320	-0.285	-0.141
-361.654	163.023	-0.183	0.255
-360.639	-15.811	0.147	0.093
-359.625	-53.533	-0.397	0.181
-358.610	423.972	-0.100	0.213
-357.596	508.798	0.045	-0.103
-356.581	26.709	-0.100	-0.084
-355.566	591.154	0.167	-0.411
-354.552	-97.223	0.229	0.059
-353.537	800.000	0.012	0.039
-352.523	-200.000	-0.006	-0.106
-351.508	106.726	0.150	-0.178
-350.493	96.881	-0.372	-0.425
-349.479	9.403	-0.223	-0.168
-348.464	-189.436	-0.087	-0.001
-347.450	-200.000	-0.031	0.255
-346.435	-200.000	-0.002	0.032
-345.420	-46.141	0.287	0.140
-344.406	-110.974	0.317	0.065
-343.391	-62.563	0.037	0.015
-342.377	800.000	-0.082	-0.315
-341.362	-200.000	-0.003	-0.155
-340.348	-4.920	0.275	-0.188
-339.333	69.649	-0.100	0.103
-338.318	-111.445	0.386	0.078
-337.304	91.332	0.134	0.149
-336.289	709.273	0.042	0.111
-335.275	-97.019	-0.399	-0.104
-334.260	-115.226	-0.100	0.019
-333.245	-133.261	0.280	-0.035
-332.231	541.728	-0.105	0.249
-331.216	-190.332	0.144	0.002
-330.202	519.811	0.108	0.251
-329.187	800.000	0.024	0.097
-328.172	-200.000	-0.020	-0.280
-327.158	800.000	-0.075	0.305
-326.143	607.314	-0.088	-0.218
-325.129	-66.359	0.095	-0.038
-324.114	800.000	-0.115	-0.466
-323.099	-98.552	0.339	0.086
-322.085	8.231	0.058	-0.044
-321.070	40.237	-0.119	0.107
-320.056	-35.382	-0.192	0.104
-319.041	-123.802	0.041	0.006
-318.026	800.000	-0.070	-0.227
-317.012	-126.181	-0.363	-0.054
-315.997	800.000	-0.054	-0.216
-314.983	524.273	0.054	-0.126
-313.968	800.000	-0.082	0.250
-312.953	800.000	0.074	-0.221
-311.939	-12.179	-0.052	0.034
-310.924	232.148	0.079	0.128
-309.910	485.431	-0.095	0.215
-308.895	36.188	-0.034	-0.029
-307.880	-81.054	0.065	0.021
-306.866	-66.647	0.273	-0.108
-305.851	-162.248	-0.243	0.012
-304.837	171.550	0.053	0.075
-303.822	585.917	-0.139	0.340
-302.807	74.776	-0.107	-0.112
-301.793	76.720	-0.146	0.154
-300.778	-152.357	-0.065	0.005
-299.764	-186.598	0.265	0.004
-298.749	-128.904	-0.281	-0.039
-297.735	-200.000	-0.009	-0.270
-296.720	66.719	-0.167	-0.169
-295.705	181.989	0.079	-0.115
-294.691	-22.410	0.142	0.085
-293.676	-42.431	0.142	-0.072
-292.662	65.524	0.125	-0.126
-291.647	-137.679	-0.098	-0.011
-290.632	12.561	-0.157	-0.121
-289.618	-200.000	0.032	0.273
-288.603	-200.000	0.002	-0.039
-287.589	183.109	-0.058	-0.085
-286.574	-118.004	-0.261	-0.046
-285.559	-107.212	-0.094	-0.020
-284.545	91.405	0.216	-0.241
-283.530	-58.183	-0.150	0.065
-282.516	319.790	0.137	0.258
-281.501	203.286	0.329	-0.505
-280.486	800.000	-0.117	0.351
-279.472	-124.029	-0.103	0.016
-278.457	-4.855	0.253	0.173
-277.443	231.905	0.005	-0.009
-276.428	108.920	-0.170	0.202
-275.413	-200.000	0.014	0.094
-274.399	574.899	-0.039	0.096
-273.384	800.000	0.086	-0.319
-272.370	-42.231	0.257	0.130
-271.355	800.000	0.028	-0.079
-270.340	-24.905	-0.191	0.112
-269.326	-107.619	-0.042	-0.009
-268.311	293.245	0.072	0.131
-267.297	85.416	0.126	0.137
-266.282	-200.000	-0.040	0.284
-265.267	-131.621	-0.158	-0.021
-264.253	16.111	-0.023	0.018
-263.238	-200.000	0.045	-0.320
-262.224	93.638	0.212	-0.239
-261.209	-90.531	0.449	0.129
-260.195	800.000	-0.082	0.304
-259.180	800.000	-0.021	0.088
-258.165	800.000	-0.088	-0.344
-257.151	-138.695	-0.073	0.008
-256.136	-198.199	-0.217	-0.001
-255.122	-95.495	0.288	-0.077
-254.107	324.711	-0.144	0.273
-253.092	-138.846	0.193	0.021
-252.078	-200.000	-0.018	0.281
-251.063	-200.000	-0.087	-0.556
-250.049	178.659	-0.168	0.243
-249.034	-70.718	-0.025	0.010
-248.019	374.990	0.091	-0.185
-247.005	104.549	0.154	0.180
-245.990	768.198	-0.036	-0.096
-244.976	-46.817	-0.239	0.116
-243.961	-40.465	-0.022	0.011
-242.946	800.000	0.022	0.087
-241.932	62.828	0.302	0.300
-240.917	444.163	-0.056	-0.122
-239.903	-175.196	0.117	0.003
-238.888	-200.000	-0.052	-0.240
-237.873	-101.199	-0.282	-0.068
-236.859	-96.275	-0.032	-0.008
-235.844	-192.971	0.159	0.001
-234.830	-80.672	-0.077	0.025
-233.815	-141.657	0.224	0.022
-232.800	-12.549	-0.072	-0.047
-231.786	-101.216	-0.056	-0.014
-230.771	206.670	0.106	-0.163
-229.757	-137.424	0.059	0.007
-228.742	-55.524	0.454	-0.201
-227.727	-50.427	0.318	-0.149
-226.713	-83.967	-0.358	0.113
-225.698	800.000	-0.057	-0.230
-224.684	146.202	-0.166	0.220
-223.669	-200.000	-0.040	-0.355
-222.655	800.000	-0.128	-0.351
-221.640	-75.145	-0.245	0.087
-220.625	51.208	-0.173	-0.163
-219.611	800.000	-0.049	-0.158
-218.596	-200.000	-0.004	-0.072
-217.582	800.000	0.036	-0.106
-216.567	478.261	0.222	0.498
-215.552	87.000	0.221	0.242
-214.538	18.316	0.196	0.155
-213.523	-200.000	0.051	-0.232
-212.509	-200.000	0.018	0.338
-211.494	128.527	-0.168	0.212
-210.479	-56.065	0.450	-0.198
-209.465	-76.751	0.226	0.078
-208.450	-16.546	-0.155	-0.097
-207.436	800.000	0.049	0.144
-206.421	-200.000	-0.025	0.263
-205.406	101.808	0.159	0.184
-204.392	25.512	-0.232	0.191
-203.377	640.901	0.157	0.395
-202.363	38.826	-0.110	0.097
-201.348	-115.753	-0.045	0.008
-200.333	184.805	0.156	-0.229
-199.319	-154.933	0.165	-0.011
-198.304	-137.218	-0.501	-0.056
-197.290	23.355	-0.074	-0.060
-196.275	-200.000	0.025	0.138
-195.260	-200.000	-0.017	-0.261
-194.246	-134.328	-0.387	-0.047
-193.231	-88.079	0.210	0.062
-192.217	-200.000	-0.001	0.079
-191.202	-12.417	-0.103	0.066
-190.187	-200.000	-0.006	-0.043
-189.173	-131.872	-0.187	0.024
-188.158	-174.521	0.025	-0.001
-187.144	33.536	0.295	0.253
-186.129	0.231	-0.183	0.129
-185.114	-62.970	0.306	-0.125
-184.100	-66.496	-0.213	-0.083
-183.085	-96.222	0.066	-0.017
-182.071	103.277	-0.291	-0.338
-181.056	-70.545	-0.176	0.066
-180.042	51.321	-0.047	0.044
-179.027	-23.249	0.066	0.039
-178.012	184.937	0.255	0.374
-176.998	139.317	0.167	-0.217
-175.983	800.000	0.150	-0.454
-174.969	91.710	-0.189	-0.210
-173.954	-61.950	-0.317	-0.131
-172.939	-106.175	0.108	-0.024
-171.925	-200.000	0.031	0.191
-170.910	102.511	0.258	-0.298
-169.896	-146.560	-0.282	0.024
-168.881	190.887	0.125	-0.185
-167.866	-12.305	-0.166	0.107
-166.852	800.000	0.081	-0.287
-165.837	118.018	-0.164	0.200
-164.823	-133.977	0.144	0.018
-163.808	350.958	0.131	-0.256
-162.793	-94.355	-0.487	-0.131
-161.779	-49.564	0.217	-0.102
-160.764	-200.000	-0.004	0.374
-159.750	-125.521	0.230	0.034
-158.735	-11.909	0.278	-0.180
-157.720	207.600	0.115	-0.177
-156.706	-58.383	0.238	0.102
-155.691	-146.312	0.223	-0.019
-154.677	-200.000	0.012	0.426
-153.662	-128.139	-0.413	0.058
-152.647	319.147	0.142	0.267
-151.633	621.311	-0.097	-0.240
-150.618	7.680	0.247	0.182
-149.604	-98.544	-0.185	0.047
-148.589	-200.000	-0.002	-0.071
-147.574	-200.000	-0.002	0.077
-146.560	308.228	-0.099	-0.182
-145.545	58.288	-0.040	-0.039
-144.531	800.000	-0.019	0.065
-143.516	-178.465	0.128	-0.003
-142.502	-200.000	0.005	-0.294
-141.487	-30.170	0.198	0.111
-140.472	22.683	0.095	0.077
-139.458	324.308	0.133	-0.250
-138.443	-156.489	-0.136	-0.008
-137.429	357.305	0.102	0.200
-136.414	-120.617	-0.114	-0.019
-135.399	800.000	0.022	0.066
-134.385	-108.235	-0.341	0.073
-133.370	70.834	0.107	0.110
-132.356	-41.037	0.175	0.089
-131.341	-114.875	-0.155	0.029
-130.326	120.503	0.029	-0.036
-129.312	46.315	-0.143	0.131
-128.297	-119.532	0.301	0.051
-127.283	-1.289	-0.085	0.059
-126.268	-200.000	0.010	-0.447
-125.253	-186.416	-0.170	0.002
-124.239	25.395	-0.440	-0.361
-123.224	-105.681	0.103	-0.023
-122.210	-99.107	-0.215	-0.054
