DTS Sentinel unit serial number:	SN413079Multiplexer serial number:	ORYXHardware model number:	OX4-SRSoftware version number:	ORYX F/W v4.00 Oryx Data Collector v3.7.2.0data status	okinstallation	princeton_trtdifferential loss correction	single-endedforward channel	channel 1reverse channel	N/Adate	2019/09/13time	18:10:35forward acquisition time	60.00reverse acquisition time	0.00gamma	496.2192k internal	0.2311k external	0.2311temperature offset calibration	1.0137default loss term (dB/km)	0.3790temperature slope calibration	1.0000multiplexer offset coefficient	1.0000multiplexer slope coefficient	1.0000fibre end	0.00T internal ref (°C)	34.44T ext. ref 1 (°C)	4.52T ext. ref 2 (°C)	27.32length (m)	temperature (°C)	Stokes	anti-Stokes-747.200	-145.108	-0.161	-0.015
-746.185	-118.056	0.302	0.055
-745.171	19.120	-0.086	-0.070
-744.156	-53.966	0.035	-0.016
-743.142	-8.154	0.024	-0.016
-742.127	-60.002	0.269	0.117
-741.112	-40.053	0.246	0.130
-740.098	54.468	-0.291	0.285
-739.083	567.456	0.036	0.089
-738.069	7.889	-0.207	0.158
-737.054	56.175	0.135	-0.133
-736.039	449.849	-0.070	0.157
-735.025	-154.988	-0.170	0.011
-734.010	-200.000	0.007	-0.208
-732.996	800.000	-0.064	0.217
-731.981	-200.000	-0.399	-0.001
-730.966	-78.229	0.076	0.026
-729.952	-200.000	-0.019	-0.195
-728.937	800.000	-0.081	0.278
-727.923	12.497	0.084	-0.066
-726.908	-129.982	-0.106	-0.015
-725.894	-181.539	-0.369	-0.007
-724.879	-200.000	0.068	-0.351
-723.864	146.141	0.095	-0.129
-722.850	-0.639	0.227	0.164
-721.835	-85.634	-0.173	0.054
-720.821	-15.948	0.271	-0.175
-719.806	-142.187	-0.192	0.019
-718.791	-200.000	-0.001	0.305
-717.777	1.775	0.030	-0.022
-716.762	-3.306	-0.230	0.162
-715.748	-44.131	-0.085	-0.043
-714.733	169.876	-0.172	-0.250
-713.718	145.486	-0.309	-0.420
-712.704	14.614	-0.045	0.036
-711.689	800.000	0.035	0.120
-710.675	37.907	-0.363	0.328
-709.660	-200.000	0.038	-0.316
-708.645	-37.490	0.059	0.032
-707.631	10.839	-0.013	0.010
-706.616	383.497	-0.085	-0.177
-705.602	-200.000	0.008	0.122
-704.587	-118.895	-0.309	-0.055
-703.572	-126.249	-0.584	-0.088
-702.558	-59.797	0.017	-0.007
-701.543	800.000	-0.092	-0.390
-700.529	-200.000	0.048	-0.238
-699.514	87.330	-0.238	-0.267
-698.499	-136.044	-0.430	0.051
-697.485	-87.651	-0.133	-0.041
-696.470	174.023	-0.119	0.175
-695.456	-200.000	0.002	0.110
-694.441	-107.827	-0.117	-0.026
-693.426	800.000	-0.060	-0.170
-692.412	-86.170	-0.269	-0.084
-691.397	-157.681	-0.233	0.014
-690.383	-59.151	0.132	-0.058
-689.368	44.243	-0.150	0.139
-688.354	83.303	-0.105	-0.116
-687.339	216.504	0.257	0.414
-686.324	775.032	0.057	0.157
-685.310	-18.563	0.262	0.165
-684.295	69.278	0.152	-0.158
-683.281	800.000	0.081	-0.247
-682.266	185.812	0.216	-0.326
-681.251	273.418	-0.093	0.167
-680.237	4.430	-0.331	0.246
-679.222	-200.000	0.026	0.262
-678.208	381.571	-0.130	-0.270
-677.193	472.256	-0.109	-0.249
-676.178	562.215	-0.147	-0.359
-675.164	103.744	0.221	-0.262
-674.149	-82.832	0.203	0.066
-673.135	-10.412	-0.072	-0.048
-672.120	174.470	-0.140	-0.205
-671.105	153.468	0.046	-0.064
-670.091	156.732	-0.254	0.355
-669.076	-86.655	-0.086	0.027
-668.062	-92.411	-0.274	0.078
-667.047	-34.211	0.109	-0.061
-666.032	-166.440	-0.275	0.012
-665.018	-62.910	-0.251	-0.105
-664.003	159.529	-0.164	-0.231
-662.989	800.000	0.030	-0.115
-661.974	-2.079	0.119	0.084
-660.959	-200.000	-0.062	-0.445
-659.945	-39.988	-0.101	0.053
-658.930	-29.689	-0.263	-0.152
-657.916	-200.000	0.024	-0.246
-656.901	-85.552	0.057	0.018
-655.886	71.820	-0.123	0.130
-654.872	310.308	0.077	-0.145
-653.857	800.000	-0.064	0.259
-652.843	-99.389	-0.169	0.043
-651.828	-80.650	0.191	-0.064
-650.814	103.394	0.157	0.186
-649.799	-200.000	-0.029	-0.183
-648.784	-16.766	0.163	-0.104
-647.770	-200.000	-0.032	0.153
-646.755	215.641	0.128	-0.205
-645.741	299.206	0.133	-0.248
-644.726	-71.774	-0.277	0.104
-643.711	-200.000	0.001	-0.110
-642.697	-77.284	0.408	0.143
-641.682	-14.913	0.106	-0.069
-640.668	-132.652	0.161	0.021
-639.653	-200.000	-0.017	-0.267
-638.638	-200.000	0.001	-0.071
-637.624	-200.000	0.008	0.289
-636.609	55.282	-0.181	0.177
-635.595	-71.952	0.045	-0.017
-634.580	281.596	0.221	-0.400
-633.565	800.000	-0.111	-0.462
-632.551	52.273	0.247	-0.238
-631.536	-200.000	0.050	0.448
-630.522	147.460	-0.232	-0.316
-629.507	368.808	0.093	0.189
-628.492	-4.590	-0.164	0.115
-627.478	-41.174	-0.181	-0.094
-626.463	386.739	0.183	-0.383
-625.449	225.956	0.084	-0.138
-624.434	-88.370	-0.377	0.114
-623.419	-83.614	-0.117	0.038
-622.405	42.721	-0.212	0.195
-621.390	-72.590	0.128	0.048
-620.376	-200.000	0.015	-0.238
-619.361	24.538	0.205	0.172
-618.346	156.403	0.052	0.072
-617.332	-149.641	-0.303	-0.024
-616.317	800.000	0.034	0.140
-615.303	6.818	0.054	0.041
-614.288	-32.888	0.080	-0.045
-613.273	-35.260	0.245	0.135
-612.259	21.102	-0.066	0.054
-611.244	-200.000	0.011	-0.270
-610.230	-68.167	-0.110	-0.043
-609.215	-39.680	0.152	0.080
-608.201	-161.114	-0.203	-0.011
-607.186	38.111	0.109	0.098
-606.171	-53.564	-0.170	-0.079
-605.157	800.000	0.142	-0.398
-604.142	750.885	-0.093	-0.253
-603.128	86.164	0.244	0.272
-602.113	8.116	-0.088	-0.066
-601.098	343.157	-0.082	0.162
-600.084	-200.000	-0.023	0.135
-599.069	51.823	-0.068	0.065
-598.055	4.806	-0.178	-0.132
-597.040	-65.544	-0.143	0.058
-596.025	-200.000	0.044	0.230
-595.011	67.693	-0.143	0.147
-593.996	-200.000	0.029	0.149
-592.982	-147.431	0.102	0.009
-591.967	58.745	-0.317	0.315
-590.952	-200.000	-0.012	-0.317
-589.938	-55.859	0.294	-0.133
-588.923	54.114	-0.360	-0.349
-587.909	-124.934	-0.084	-0.013
-586.894	-88.757	-0.329	-0.099
-585.879	-200.000	-0.073	0.367
-584.865	-70.214	0.137	-0.053
-583.850	666.046	-0.018	-0.048
-582.836	217.870	-0.124	0.200
-581.821	-65.516	-0.265	0.107
-580.806	-26.169	-0.228	-0.135
-579.792	-200.000	-0.060	0.296
-578.777	-47.594	-0.038	0.019
-577.763	-33.859	0.170	0.095
-576.748	232.423	0.186	0.308
-575.733	-200.000	-0.034	-0.236
-574.719	7.448	0.201	-0.151
-573.704	800.000	-0.084	-0.262
-572.690	-25.578	0.086	0.051
-571.675	-148.902	-0.368	0.030
-570.661	-200.000	0.014	-0.154
-569.646	-200.000	-0.063	0.334
-568.631	124.405	0.162	0.206
-567.617	328.942	0.122	0.236
-566.602	800.000	0.028	-0.086
-565.588	-200.000	-0.007	0.166
-564.573	-42.261	0.071	-0.036
-563.558	-200.000	0.013	-0.158
-562.544	-200.000	0.008	-0.148
-561.529	-61.629	0.147	-0.062
-560.515	361.986	-0.157	-0.318
-559.500	-200.000	-0.017	-0.098
-558.485	-73.038	-0.207	0.077
-557.471	-99.378	0.143	0.036
-556.456	503.861	-0.134	-0.313
-555.442	169.840	-0.045	-0.064
-554.427	-41.651	0.079	0.041
-553.412	27.154	-0.223	-0.189
-552.398	-77.216	-0.451	0.158
-551.383	-200.000	0.004	0.035
-550.369	26.140	-0.083	0.070
-549.354	70.279	0.215	-0.224
-548.339	-200.000	-0.053	-0.265
-547.325	800.000	0.041	0.167
-546.310	483.357	0.083	0.190
-545.296	38.543	0.210	-0.189
-544.281	-144.093	-0.319	0.030
-543.266	292.388	-0.179	-0.329
-542.252	-200.000	-0.023	-0.444
-541.237	259.561	0.149	-0.260
-540.223	-40.178	0.042	0.022
-539.208	800.000	-0.070	0.210
-538.193	32.802	0.299	0.261
-537.179	114.364	0.177	-0.217
-536.164	737.590	0.058	0.158
-535.150	-173.870	0.110	-0.003
-534.135	-168.282	0.262	0.010
-533.121	-80.476	-0.206	-0.069
-532.106	8.447	0.292	0.221
-531.091	-67.854	0.060	-0.024
-530.077	-200.000	-0.021	-0.213
-529.062	334.001	0.171	-0.334
-528.048	-17.854	-0.194	-0.123
-527.033	752.568	0.100	-0.273
-526.018	-4.668	-0.217	-0.151
-525.004	35.693	0.148	0.131
-523.989	-62.386	-0.230	0.096
-522.975	271.223	0.039	0.068
-521.960	-31.314	0.087	0.049
-520.945	-31.734	0.308	-0.174
-519.931	-200.000	0.022	0.153
-518.916	-33.441	0.166	-0.092
-517.902	-136.096	0.267	-0.032
-516.887	-86.200	0.208	0.065
-515.872	206.883	-0.054	0.085
-514.858	-136.348	-0.138	-0.016
-513.843	-176.376	0.121	-0.003
-512.829	-132.512	0.194	0.025
-511.814	398.282	-0.108	-0.227
-510.799	226.925	0.054	0.088
-509.785	-64.175	-0.443	-0.182
-508.770	193.601	-0.044	-0.068
-507.756	-143.893	0.339	0.032
-506.741	-4.968	0.270	0.187
-505.726	-42.212	-0.332	0.171
-504.712	800.000	-0.036	0.143
-503.697	-70.351	-0.050	-0.019
-502.683	227.347	-0.121	0.198
-501.668	-200.000	0.028	0.315
-500.653	-98.114	0.197	0.051
-499.639	-12.817	-0.238	0.156
-498.624	-176.525	0.389	0.010
-497.610	-90.039	0.391	0.115
-496.595	800.000	0.072	-0.248
-495.581	-64.198	0.187	-0.076
-494.566	-95.476	-0.085	-0.023
-493.551	-200.000	0.014	-0.074
-492.537	800.000	-0.055	0.194
-491.522	7.639	-0.031	-0.023
-490.508	-200.000	-0.041	-0.250
-489.493	88.760	0.234	0.262
-488.478	164.430	0.041	0.057
-487.464	-200.000	0.009	0.286
-486.449	42.668	-0.157	-0.144
-485.435	292.231	0.035	0.063
-484.420	190.202	0.170	0.257
-483.405	-79.174	-0.190	-0.065
-482.391	-101.830	-0.322	0.078
-481.376	800.000	0.053	0.161
-480.362	11.781	-0.276	-0.213
-479.347	-200.000	-0.002	-0.207
-478.332	800.000	0.083	-0.304
-477.318	-200.000	-0.014	-0.084
-476.303	-200.000	0.018	-0.133
-475.289	-200.000	-0.010	0.109
-474.274	-78.294	0.136	0.047
-473.259	-200.000	-0.044	0.319
-472.245	-89.344	0.306	-0.091
-471.230	-66.658	-0.165	0.066
-470.216	162.803	-0.180	-0.254
-469.201	-200.000	0.014	0.236
-468.186	-20.321	-0.136	-0.084
-467.172	59.583	0.199	0.197
-466.157	-12.008	-0.135	-0.089
-465.143	-48.995	-0.139	-0.067
-464.128	-200.000	0.012	0.117
-463.113	-175.227	-0.185	0.005
-462.099	-71.895	0.046	-0.017
-461.084	-200.000	-0.028	-0.275
-460.070	1.518	0.018	0.013
-459.055	-112.913	0.065	-0.013
-458.040	208.209	0.111	-0.174
-457.026	66.851	-0.122	0.124
-456.011	-75.624	-0.275	0.098
-454.997	-133.696	0.157	0.020
-453.982	9.102	-0.189	0.143
-452.968	-200.000	-0.002	-0.093
-451.953	-53.806	-0.169	-0.077
-450.938	-122.025	-0.081	0.013
-449.924	-200.000	-0.022	-0.221
-448.909	-103.853	-0.245	-0.057
-447.895	-200.000	0.009	-0.168
-446.880	-115.177	0.167	-0.032
-445.865	-103.331	-0.366	0.087
-444.851	177.271	0.071	0.104
-443.836	-200.000	0.030	-0.245
-442.822	-34.175	-0.118	-0.065
-441.807	131.196	-0.137	0.177
-440.792	-200.000	0.006	-0.266
-439.778	36.818	0.182	-0.161
-438.763	-200.000	0.030	-0.199
-437.749	-110.277	0.036	-0.007
-436.734	800.000	0.103	0.300
-435.719	-102.577	0.306	-0.073
-434.705	800.000	-0.098	-0.290
-433.690	329.528	-0.138	0.267
-432.676	-200.000	0.074	0.452
-431.661	-200.000	0.011	-0.217
-430.646	10.951	0.048	-0.037
-429.632	64.072	-0.319	0.322
-428.617	-64.761	-0.087	0.035
-427.603	171.472	0.200	-0.288
-426.588	-37.056	0.061	-0.033
-425.573	-113.518	-0.139	0.027
-424.559	-200.000	-0.011	-0.192
-423.544	-12.164	0.177	0.116
-422.530	-34.583	-0.371	-0.204
-421.515	-147.292	-0.235	0.020
-420.500	236.528	0.120	-0.199
-419.486	-83.835	0.385	0.123
-418.471	526.916	0.022	-0.052
-417.457	-23.134	0.258	-0.156
-416.442	-152.525	-0.226	-0.016
-415.428	371.630	-0.113	0.229
-414.413	-111.051	-0.018	-0.004
-413.398	-64.859	-0.210	-0.085
-412.384	-10.767	-0.014	0.009
-411.369	-63.822	-0.213	0.087
-410.355	527.512	0.116	0.274
-409.340	-6.709	-0.037	-0.025
-408.325	524.440	0.086	-0.203
-407.311	56.203	-0.100	0.097
-406.296	800.000	0.070	0.228
-405.282	-114.109	-0.276	-0.053
-404.267	-103.910	-0.226	-0.053
-403.252	13.791	0.090	-0.070
-402.238	-77.170	-0.242	0.084
-401.223	-200.000	0.008	-0.116
-400.209	170.258	-0.047	-0.067
-399.194	-124.137	0.283	0.045
-398.179	-68.825	0.292	0.113
-397.165	-155.520	0.326	0.021
-396.150	-55.322	0.189	0.085
-395.136	-200.000	0.062	0.290
-394.121	78.317	-0.214	0.229
-393.106	-31.697	-0.237	-0.133
-392.092	8.397	0.174	-0.131
-391.077	-41.582	0.168	-0.086
-390.063	-70.470	-0.111	0.042
-389.048	32.465	0.061	-0.053
-388.033	354.836	-0.121	-0.241
-387.019	-200.000	0.129	-0.001
-386.004	0.120	-0.324	0.231
-384.990	346.826	-0.094	-0.185
-383.975	-156.269	-0.254	0.016
-382.960	-85.374	-0.137	-0.043
-381.946	322.463	0.077	-0.147
-380.931	-126.559	0.137	-0.020
-379.917	-200.000	0.007	-0.130
-378.902	433.795	0.094	0.204
-377.888	-110.313	-0.387	-0.081
-376.873	-200.000	-0.199	-0.000
-375.858	800.000	-0.068	0.194
-374.844	-125.335	-0.118	-0.018
-373.829	-115.138	-0.382	-0.072
-372.815	-137.776	0.454	0.051
-371.800	-50.768	-0.277	0.131
-370.785	-90.881	-0.188	-0.054
-369.771	-72.569	0.208	-0.077
-368.756	-131.484	-0.254	-0.034
-367.742	-200.000	0.036	0.326
-366.727	159.777	0.125	0.175
-365.712	-59.963	0.073	-0.031
-364.698	317.520	0.121	0.229
-363.683	544.542	0.071	0.169
-362.669	-61.910	0.039	0.016
-361.654	-149.893	0.118	-0.009
-360.639	345.894	0.053	0.104
-359.625	181.933	0.183	0.269
-358.610	-200.000	-0.017	0.419
-357.596	-122.634	0.127	-0.021
-356.581	-37.242	0.107	-0.057
-355.566	-77.021	0.277	-0.097
-354.552	-93.755	-0.134	0.037
-353.537	-109.944	0.243	-0.051
-352.523	196.072	-0.060	-0.091
-351.508	-26.652	0.069	-0.040
-350.493	-28.152	0.116	-0.067
-349.479	-200.000	-0.002	-0.335
-348.464	159.395	0.093	0.129
-347.450	216.835	-0.096	-0.152
-346.435	-165.632	-0.376	0.016
-345.420	99.267	0.193	-0.223
-344.406	-200.000	0.002	0.317
-343.391	147.679	0.364	0.490
-342.377	-200.000	0.028	0.279
-341.362	-114.330	-0.090	-0.017
-340.348	38.735	0.088	0.079
-339.333	800.000	-0.040	0.131
-338.318	22.431	-0.209	-0.171
-337.304	-200.000	0.001	0.169
-336.289	-81.175	0.239	0.079
-335.275	-74.581	-0.108	0.039
-334.260	-19.235	0.170	0.105
-333.245	800.000	-0.097	-0.319
-332.231	-200.000	0.044	-0.206
-331.216	416.014	-0.240	0.510
-330.202	-200.000	-0.021	0.158
-329.187	-150.488	0.200	-0.015
-328.172	-15.863	-0.122	0.078
-327.158	800.000	0.115	-0.438
-326.143	646.389	0.035	-0.089
-325.129	-59.117	-0.324	-0.140
-324.114	-109.719	-0.063	0.013
-323.099	-180.891	-0.166	0.003
-322.085	-11.261	0.161	-0.106
-321.070	36.399	-0.145	-0.127
-320.056	263.048	-0.127	-0.221
-319.041	-40.774	-0.263	0.136
-318.026	-66.784	0.354	0.140
-317.012	-191.405	-0.123	-0.001
-315.997	-73.688	-0.321	0.117
-314.983	800.000	-0.076	0.235
-313.968	-200.000	-0.019	0.555
-312.953	468.239	0.177	0.396
-311.939	150.389	0.141	0.191
-310.924	387.207	-0.109	-0.225
-309.910	1.500	-0.106	-0.076
-308.895	-115.293	0.348	0.066
-307.880	-144.022	-0.151	-0.014
-306.866	-70.510	0.287	-0.108
-305.851	-200.000	-0.013	0.216
-304.837	429.198	0.108	-0.233
-303.822	104.964	-0.060	-0.070
-302.807	800.000	0.019	-0.079
-301.793	168.490	-0.213	0.302
-300.778	800.000	0.080	0.225
-299.764	800.000	0.087	-0.267
-298.749	74.374	0.283	0.296
-297.735	4.205	-0.153	-0.112
-296.720	800.000	0.074	-0.221
-295.705	554.378	-0.164	0.393
-294.691	-103.975	-0.173	0.040
-293.676	133.928	0.202	-0.260
-292.662	-57.236	0.137	-0.060
-291.647	37.856	-0.100	-0.089
-290.632	-14.561	-0.071	0.045
-289.618	-50.039	0.107	0.050
-288.603	465.169	0.147	0.329
-287.589	-3.878	0.276	0.191
-286.574	800.000	0.050	0.186
-285.559	756.086	0.059	-0.159
-284.545	-200.000	0.025	0.151
-283.530	-143.114	-0.032	0.003
-282.516	800.000	-0.033	-0.137
-281.501	-200.000	-0.002	0.035
-280.486	800.000	0.041	0.124
-279.472	800.000	-0.037	-0.145
-278.457	85.706	0.147	0.161
-277.443	-58.630	-0.094	0.041
-276.428	-200.000	0.003	-0.135
-275.413	88.407	-0.139	-0.154
-274.399	-124.459	0.305	-0.047
-273.384	69.575	-0.234	0.240
-272.370	-200.000	-0.020	-0.143
-271.355	215.117	0.088	0.139
-270.340	-163.234	0.135	0.006
-269.326	800.000	0.026	0.093
-268.311	-200.000	-0.048	0.292
-267.297	80.634	-0.175	0.187
-266.282	-78.006	-0.210	-0.072
-265.267	128.415	0.044	0.056
-264.253	414.657	-0.065	0.138
-263.238	-200.000	-0.034	0.230
-262.224	-5.201	0.089	-0.061
-261.209	14.250	-0.114	-0.089
-260.195	-144.125	0.359	-0.033
-259.180	-200.000	0.014	-0.217
-258.165	341.517	-0.035	-0.069
-257.151	-200.000	0.032	-0.384
-256.136	0.038	-0.065	0.046
-255.122	-200.000	-0.056	-0.331
-254.107	-58.600	-0.018	0.008
-253.092	242.559	-0.147	-0.244
-252.078	-66.021	-0.197	-0.078
-251.063	130.176	0.097	0.124
-250.049	-147.205	-0.121	-0.010
-249.034	800.000	0.094	0.260
-248.019	160.643	0.104	-0.145
-247.005	113.973	0.142	-0.171
-245.990	3.494	-0.060	-0.043
-244.976	-200.000	-0.026	-0.240
-243.961	396.968	-0.082	-0.171
-242.946	-161.932	0.409	0.021
-241.932	107.241	0.209	0.247
-240.917	238.929	-0.074	0.122
-239.903	141.854	-0.148	-0.196
-238.888	-200.000	0.048	-0.229
-237.873	-12.410	0.289	-0.188
-236.859	-10.821	0.115	-0.076
-235.844	75.053	0.143	-0.150
-234.830	-8.886	-0.311	-0.207
-233.815	-200.000	0.010	0.079
-232.800	207.242	0.121	0.187
-231.786	49.899	-0.142	0.133
-230.771	-64.383	0.122	-0.049
-229.757	-200.000	0.014	0.169
-228.742	-40.206	0.170	-0.088
-227.727	-57.740	0.150	0.065
-226.713	-200.000	-0.024	-0.311
-225.698	-35.335	0.210	0.113
-224.684	505.479	0.065	0.149
-223.669	800.000	-0.004	-0.010
-222.655	-200.000	0.025	-0.205
-221.640	-20.915	0.092	-0.056
-220.625	-132.426	-0.382	0.049
-219.611	-28.872	0.236	-0.135
-218.596	291.285	-0.149	-0.270
-217.582	-112.605	-0.247	-0.049
-216.567	800.000	-0.076	-0.308
-215.552	-64.254	-0.221	0.089
-214.538	-190.192	-0.245	-0.003
-213.523	800.000	-0.104	-0.317
-212.509	-200.000	-0.032	-0.174
-211.494	-200.000	0.003	-0.099
-210.479	-200.000	0.025	0.110
-209.465	-47.381	-0.129	0.062
-208.450	-200.000	-0.005	-0.189
-207.436	-55.455	-0.234	-0.104
-206.421	-164.623	-0.185	-0.008
-205.406	-125.883	0.315	-0.047
-204.392	-200.000	-0.001	0.070
-203.377	439.565	0.070	-0.152
-202.363	-83.495	-0.106	0.034
-201.348	57.671	0.152	0.147
-200.333	-200.000	0.049	0.321
-199.319	-108.609	-0.336	0.072
-198.304	589.095	0.066	0.162
-197.290	-104.857	-0.128	0.029
-196.275	-132.834	-0.178	-0.023
-195.260	20.011	0.100	0.080
-194.246	451.524	-0.090	0.197
-193.231	307.307	-0.131	0.242
-192.217	4.100	0.175	0.127
-191.202	145.470	-0.086	-0.115
-190.187	613.652	0.056	0.139
-189.173	17.029	-0.270	0.213
-188.158	-86.503	0.296	0.090
-187.144	-132.061	-0.328	0.042
-186.129	252.650	0.114	0.193
-185.114	150.258	0.171	-0.231
-184.100	-25.625	0.286	0.167
-183.085	-77.320	0.259	-0.089
-182.071	-139.869	-0.206	-0.022
-181.056	-127.722	-0.141	-0.020
-180.042	-129.413	0.156	-0.022
-179.027	-200.000	-0.086	-0.380
-178.012	-19.649	0.291	-0.179
-176.998	339.172	0.053	0.103
-175.983	-200.000	-0.001	-0.305
-174.969	56.785	-0.086	-0.083
-173.954	89.865	-0.202	0.224
-172.939	75.304	0.202	0.211
-171.925	336.009	-0.066	-0.127
-170.910	167.716	0.093	-0.131
-169.896	-122.753	-0.299	-0.048
-168.881	-116.784	-0.115	-0.021
-167.866	137.064	0.178	0.231
-166.852	-9.642	0.010	0.007
-165.837	800.000	-0.070	0.255
-164.823	21.384	0.094	-0.076
-163.808	-92.178	-0.136	-0.038
-162.793	149.658	0.104	0.140
-161.779	-200.000	-0.009	0.351
-160.764	-112.310	0.188	-0.037
-159.750	-50.275	-0.134	-0.063
-158.735	800.000	0.120	-0.334
-157.720	-138.116	0.304	0.034
-156.706	208.509	0.074	-0.114
-155.691	-48.873	0.193	0.092
-154.677	292.663	0.101	0.183
-153.662	-60.026	0.236	0.100
-152.647	-200.000	-0.017	-0.256
-151.633	800.000	-0.095	0.312
-150.618	55.859	-0.190	0.183
-149.604	-142.924	-0.085	-0.008
-148.589	149.226	0.045	-0.060
-147.574	226.745	0.185	-0.298
-146.560	-14.049	-0.135	0.086
-145.545	-158.112	-0.469	0.027
-144.531	159.331	0.231	-0.318
-143.516	-103.526	-0.214	0.050
-142.502	223.630	-0.138	0.220
-141.487	-0.368	0.199	0.140
-140.472	800.000	0.046	-0.135
-139.458	666.104	-0.029	0.074
-138.443	-121.530	-0.463	0.076
-137.429	-60.964	0.247	0.103
-136.414	-56.108	0.303	-0.134
-135.399	800.000	-0.102	-0.326
-134.385	107.498	-0.148	-0.174
-133.370	380.172	-0.125	-0.255
-132.356	640.217	-0.023	-0.059
-131.341	-134.650	0.243	0.029
-130.326	-3.282	-0.184	-0.127
-129.312	-94.247	-0.356	0.096
-128.297	24.492	-0.137	0.112
-127.283	800.000	0.019	0.054
-126.268	159.382	0.115	0.158
-125.253	800.000	-0.035	0.138
-124.239	-47.237	-0.219	-0.106
-123.224	-61.714	0.492	0.204
-122.210	-180.693	0.281	-0.006
