DTS Sentinel unit serial number:	SN413079Multiplexer serial number:	ORYXHardware model number:	OX4-SRSoftware version number:	ORYX F/W v4.00 Oryx Data Collector v3.7.2.0data status	okinstallation	princeton_trtdifferential loss correction	single-endedforward channel	channel 1reverse channel	N/Adate	2019/09/11time	21:08:11forward acquisition time	60.00reverse acquisition time	0.00gamma	496.2192k internal	0.2307k external	0.2307temperature offset calibration	1.0049default loss term (dB/km)	0.3790temperature slope calibration	1.0000multiplexer offset coefficient	1.0000multiplexer slope coefficient	1.0000fibre end	0.00T internal ref (°C)	36.50T ext. ref 1 (°C)	1.62T ext. ref 2 (°C)	30.52length (m)	temperature (°C)	Stokes	anti-Stokes-747.200	800.000	0.073	0.263
-746.185	-109.876	0.356	0.076
-745.171	-1.349	0.130	0.093
-744.156	61.021	-0.170	-0.172
-743.142	-99.429	0.372	-0.095
-742.127	800.000	0.125	0.543
-741.112	462.221	0.221	0.502
-740.098	163.672	-0.138	0.198
-739.083	346.438	0.174	-0.349
-738.069	185.842	0.078	0.118
-737.054	-42.082	0.212	-0.110
-736.039	144.084	-0.011	-0.015
-735.025	47.433	0.041	-0.039
-734.010	-52.850	-0.494	-0.231
-732.996	800.000	-0.042	-0.164
-731.981	76.379	-0.134	0.145
-730.966	-51.676	0.234	-0.111
-729.952	-200.000	-0.049	-0.379
-728.937	79.540	-0.146	-0.159
-727.923	325.843	0.059	0.115
-726.908	-200.000	-0.049	0.357
-725.894	297.408	0.116	-0.217
-724.879	800.000	-0.079	-0.229
-723.864	-129.059	0.235	-0.033
-722.850	406.751	0.095	0.205
-721.835	800.000	-0.086	-0.344
-720.821	-90.274	-0.275	-0.081
-719.806	272.851	0.105	-0.188
-718.791	-106.392	0.248	-0.056
-717.777	-118.823	-0.185	0.033
-716.762	62.363	-0.041	-0.041
-715.748	-74.762	-0.131	0.048
-714.733	644.436	0.038	-0.098
-713.718	447.828	-0.145	-0.325
-712.704	-83.805	-0.106	0.034
-711.689	-37.557	-0.386	-0.209
-710.675	24.536	-0.088	-0.074
-709.660	800.000	0.031	-0.106
-708.645	-144.601	-0.052	-0.005
-707.631	-50.549	0.180	0.086
-706.616	-26.992	0.079	-0.047
-705.602	-200.000	-0.023	0.259
-704.587	-200.000	0.137	-0.000
-703.572	629.096	0.176	0.452
-702.558	-59.539	-0.323	-0.141
-701.543	-63.568	-0.257	-0.107
-700.529	42.180	-0.145	-0.134
-699.514	-35.027	-0.255	-0.141
-698.499	-79.510	0.256	-0.088
-697.485	-124.816	-0.103	-0.016
-696.470	134.040	-0.063	-0.082
-695.456	-44.807	-0.284	0.144
-694.441	-200.000	-0.005	0.161
-693.426	-81.934	-0.116	-0.039
-692.412	-66.899	0.153	-0.062
-691.397	359.482	-0.168	0.340
-690.383	-200.000	0.058	-0.324
-689.368	-84.531	-0.476	0.153
-688.354	-23.879	-0.261	0.158
-687.339	433.084	0.032	-0.070
-686.324	-200.000	-0.040	-0.186
-685.310	-19.456	0.163	-0.102
-684.295	-36.916	0.252	-0.137
-683.281	-115.473	-0.177	-0.034
-682.266	-200.000	-0.221	0.001
-681.251	-43.582	-0.326	-0.167
-680.237	-9.712	0.208	-0.141
-679.222	137.682	0.047	0.062
-678.208	-135.956	0.114	0.014
-677.193	-108.129	-0.285	-0.063
-676.178	-97.533	-0.242	-0.064
-675.164	-97.115	-0.146	0.039
-674.149	673.199	0.060	-0.158
-673.135	144.690	-0.108	0.146
-672.120	622.087	0.050	-0.129
-671.105	204.180	0.098	0.154
-670.091	120.609	-0.168	0.211
-669.076	-187.518	0.220	-0.003
-668.062	-49.309	-0.373	0.180
-667.047	223.248	-0.058	0.095
-666.032	44.369	-0.080	0.075
-665.018	-86.835	-0.149	-0.046
-664.003	249.402	-0.073	-0.125
-662.989	-10.073	-0.101	0.068
-661.974	183.703	0.092	0.138
-660.959	-200.000	0.034	-0.488
-659.945	136.596	0.041	-0.054
-658.930	23.844	-0.312	-0.261
-657.916	-101.021	0.212	-0.053
-656.901	-122.848	-0.254	-0.042
-655.886	-200.000	0.017	0.115
-654.872	49.740	-0.173	-0.165
-653.857	414.986	-0.120	-0.260
-652.843	-167.375	0.226	0.009
-651.828	297.467	0.194	0.362
-650.814	107.538	0.064	0.077
-649.799	-0.628	-0.155	-0.112
-648.784	-26.983	0.231	0.136
-647.770	-137.464	0.271	0.031
-646.755	-59.059	0.070	0.031
-645.741	37.944	-0.056	0.050
-644.726	-64.163	-0.151	-0.062
-643.711	185.619	-0.138	-0.207
-642.697	122.533	0.059	-0.075
-641.682	-79.122	-0.058	0.020
-640.668	-24.116	-0.284	-0.172
-639.653	-64.865	-0.261	-0.107
-638.638	-200.000	0.028	-0.149
-637.624	36.599	-0.032	-0.029
-636.609	-200.000	0.004	-0.336
-635.595	89.670	-0.173	0.196
-634.580	800.000	0.076	-0.238
-633.565	-200.000	0.001	0.181
-632.551	210.627	0.087	0.138
-631.536	11.731	-0.260	0.202
-630.522	26.797	-0.233	0.198
-629.507	-200.000	-0.006	-0.099
-628.492	-96.377	-0.003	-0.001
-627.478	-53.505	-0.091	-0.042
-626.463	78.055	-0.102	0.110
-625.449	800.000	0.056	0.164
-624.434	800.000	0.171	0.529
-623.419	-50.532	0.356	0.170
-622.405	-200.000	0.015	-0.293
-621.390	800.000	-0.112	-0.337
-620.376	-40.437	-0.282	0.148
-619.361	-90.187	-0.091	-0.027
-618.346	94.845	0.140	-0.161
-617.332	-172.839	0.127	0.004
-616.317	-200.000	0.018	0.230
-615.303	800.000	0.053	0.223
-614.288	259.945	0.077	-0.135
-613.273	-108.195	0.091	0.020
-612.259	-200.000	-0.015	-0.113
-611.244	-200.000	0.048	-0.307
-610.230	800.000	0.061	0.201
-609.215	88.212	0.173	-0.194
-608.201	800.000	-0.054	-0.177
-607.186	800.000	-0.037	0.128
-606.171	800.000	0.048	-0.138
-605.157	-27.104	0.100	0.059
-604.142	48.181	0.084	0.079
-603.128	800.000	0.092	0.397
-602.113	-200.000	0.004	-0.087
-601.098	51.116	-0.128	0.123
-600.084	-105.896	0.457	0.104
-599.069	15.211	-0.198	-0.157
-598.055	-142.909	0.085	0.008
-597.040	165.636	-0.205	-0.294
-596.025	-200.000	-0.040	0.282
-595.011	102.484	-0.140	-0.166
-593.996	-79.626	0.334	-0.114
-592.982	-103.914	-0.065	0.015
-591.967	233.273	0.087	0.145
-590.952	5.250	-0.405	0.302
-589.938	65.059	-0.180	0.183
-588.923	-82.080	-0.042	-0.014
-587.909	800.000	-0.071	0.226
-586.894	27.592	-0.111	0.094
-585.879	-128.305	0.219	-0.031
-584.865	-12.999	-0.049	-0.032
-583.850	800.000	0.063	0.198
-582.836	-200.000	0.029	0.198
-581.821	0.331	0.241	0.174
-580.806	-49.594	0.061	-0.029
-579.792	154.249	0.178	-0.247
-578.777	98.822	-0.224	-0.261
-577.763	-200.000	0.014	-0.439
-576.748	173.859	-0.123	-0.179
-575.733	800.000	-0.023	-0.098
-574.719	10.277	0.197	-0.152
-573.704	-28.053	-0.138	-0.081
-572.690	170.532	-0.157	0.228
-571.675	134.063	0.172	0.225
-570.661	-110.638	0.275	-0.057
-569.646	-111.475	0.114	0.023
-568.631	800.000	-0.061	0.238
-567.617	-104.019	-0.123	0.029
-566.602	204.232	-0.039	0.061
-565.588	31.626	-0.111	-0.097
-564.573	-105.806	0.330	-0.075
-563.558	-200.000	0.007	0.216
-562.544	181.737	0.193	0.288
-561.529	-136.223	0.235	0.028
-560.515	-38.333	0.210	-0.112
-559.500	-15.043	-0.147	-0.095
-558.485	-40.821	-0.190	0.099
-557.471	-46.707	0.190	0.094
-556.456	-57.839	0.037	-0.017
-555.442	-200.000	0.001	-0.003
-554.427	-127.844	0.436	-0.063
-553.412	800.000	-0.003	0.009
-552.398	774.422	-0.081	-0.223
-551.383	21.450	0.193	-0.158
-550.369	22.312	0.112	-0.093
-549.354	-94.280	-0.184	0.051
-548.339	-200.000	0.001	0.077
-547.325	56.862	-0.143	0.141
-546.310	-6.294	0.371	-0.255
-545.296	-119.747	-0.115	0.020
-544.281	-8.546	-0.094	-0.063
-543.266	-35.090	-0.286	0.157
-542.252	-200.000	-0.018	0.116
-541.237	481.741	-0.157	0.359
-540.223	89.112	0.163	0.183
-539.208	-10.691	0.272	-0.181
-538.193	-59.181	0.135	0.059
-537.179	-27.693	0.040	0.023
-536.164	-200.000	0.002	-0.257
-535.150	-13.531	-0.015	-0.010
-534.135	15.291	-0.090	0.072
-533.121	-142.536	-0.434	-0.043
-532.106	235.354	0.014	-0.023
-531.091	206.593	0.057	0.090
-530.077	95.477	0.098	-0.112
-529.062	800.000	-0.083	0.280
-528.048	87.675	-0.137	-0.153
-527.033	-200.000	-0.031	-0.156
-526.018	94.937	-0.184	-0.212
-525.004	800.000	-0.069	-0.202
-523.989	38.025	-0.207	0.186
-522.975	296.438	0.044	0.081
-521.960	-63.168	-0.115	-0.048
-520.945	800.000	0.054	-0.216
-519.931	-22.169	-0.299	0.183
-518.916	105.912	0.053	0.063
-517.902	-98.828	-0.054	-0.014
-516.887	-200.000	0.004	-0.572
-515.872	372.570	0.142	-0.292
-514.858	-200.000	0.038	-0.398
-513.843	119.671	-0.132	-0.165
-512.829	215.479	-0.114	0.183
-511.814	-130.097	-0.158	-0.022
-510.799	30.939	-0.335	0.290
-509.785	-64.198	0.036	-0.015
-508.770	-200.000	0.001	-0.020
-507.756	-125.969	0.604	-0.092
-506.741	-52.360	-0.189	0.088
-505.726	326.418	0.022	-0.042
-504.712	248.473	-0.018	-0.030
-503.697	800.000	0.067	-0.238
-502.683	32.298	-0.076	0.066
-501.668	-102.191	-0.170	0.041
-500.653	65.563	-0.109	-0.112
-499.639	-19.166	-0.101	-0.063
-498.624	224.751	0.147	-0.239
-497.610	800.000	0.086	-0.312
-496.595	511.946	-0.161	0.378
-495.581	78.648	0.146	-0.157
-494.566	-166.935	0.076	-0.003
-493.551	188.848	-0.147	0.221
-492.537	29.107	-0.128	0.109
-491.522	800.000	0.061	-0.241
-490.508	20.225	0.258	-0.210
-489.493	-119.784	-0.390	0.068
-488.478	47.405	0.219	-0.206
-487.464	164.522	-0.195	0.277
-486.449	-35.279	-0.314	-0.172
-485.435	-54.160	-0.082	-0.038
-484.420	380.215	-0.231	-0.478
-483.405	54.655	0.094	-0.091
-482.391	-84.877	-0.412	0.130
-481.376	-122.162	0.247	-0.041
-480.362	-20.726	-0.051	0.032
-479.347	-138.978	0.272	0.030
-478.332	91.932	0.160	-0.181
-477.318	51.572	-0.113	-0.108
-476.303	68.254	-0.245	-0.253
-475.289	800.000	-0.018	-0.066
-474.274	243.797	0.193	-0.326
-473.259	-13.339	0.244	-0.159
-472.245	184.522	0.091	0.136
-471.230	82.387	0.125	0.136
-470.216	620.403	0.084	0.214
-469.201	-31.597	-0.126	-0.071
-468.186	-71.681	-0.260	-0.097
-467.172	304.330	-0.065	0.121
-466.157	312.280	-0.175	-0.331
-465.143	130.903	0.111	-0.143
-464.128	35.689	0.149	-0.131
-463.113	-200.000	0.085	-0.405
-462.099	-14.222	-0.262	0.170
-461.084	-200.000	0.042	-0.323
-460.070	329.723	0.079	0.154
-459.055	-86.443	-0.442	0.137
-458.040	491.879	0.156	-0.359
-457.026	173.196	0.092	-0.134
-456.011	-169.266	-0.244	-0.009
-454.997	580.399	0.120	-0.294
-453.982	-34.725	-0.278	0.153
-452.968	135.422	0.081	0.106
-451.953	242.050	0.135	0.227
-450.938	684.041	-0.066	-0.173
-449.924	43.259	0.310	0.285
-448.909	-71.277	-0.079	0.030
-447.895	800.000	-0.058	-0.234
-446.880	-121.703	0.343	0.057
-445.865	-36.788	-0.029	-0.016
-444.851	-200.000	0.007	-0.087
-443.836	-42.506	0.450	-0.230
-442.822	88.005	-0.124	0.138
-441.807	-41.366	0.269	-0.139
-440.792	-200.000	0.034	-0.285
-439.778	39.524	0.163	-0.147
-438.763	-200.000	-0.013	0.137
-437.749	548.343	0.150	0.361
-436.734	-178.865	-0.279	0.006
-435.719	-78.851	0.294	-0.101
-434.705	163.832	-0.023	-0.032
-433.690	-195.496	-0.120	0.001
-432.676	-9.971	-0.047	0.031
-431.661	-37.745	-0.048	0.026
-430.646	-3.854	0.138	-0.096
-429.632	-110.850	-0.223	-0.046
-428.617	-173.616	-0.119	-0.004
-427.603	443.451	-0.093	0.206
-426.588	-22.941	0.215	-0.130
-425.573	-200.000	0.000	0.277
-424.559	111.960	-0.202	-0.245
-423.544	599.254	0.087	-0.216
-422.530	-164.786	0.269	0.012
-421.515	41.559	0.261	0.237
-420.500	110.859	-0.072	-0.087
-419.486	-200.000	-0.036	0.246
-418.471	236.972	-0.140	0.232
-417.457	-130.374	-0.169	0.023
-416.442	-45.238	-0.232	0.116
-415.428	-13.260	0.235	-0.153
-414.413	-200.000	0.006	0.054
-413.398	-1.085	-0.238	-0.169
-412.384	-200.000	-0.033	0.179
-411.369	-200.000	-0.017	-0.210
-410.355	-80.919	0.174	0.058
-409.340	474.391	0.144	0.326
-408.325	-70.165	0.117	0.045
-407.311	-87.394	-0.167	-0.051
-406.296	140.909	0.231	-0.306
-405.282	-15.118	0.242	0.156
-404.267	97.511	-0.120	0.139
-403.252	-200.000	-0.011	0.090
-402.238	-200.000	-0.007	0.044
-401.223	-200.000	-0.003	-0.300
-400.209	240.060	-0.138	0.231
-399.194	672.064	-0.033	0.086
-398.179	800.000	0.133	-0.372
-397.165	-173.072	0.303	-0.009
-396.150	211.185	-0.143	0.225
-395.136	619.876	0.061	0.154
-394.121	-200.000	0.050	0.341
-393.106	-52.949	-0.250	-0.115
-392.092	-150.720	0.591	0.045
-391.077	273.310	-0.128	-0.228
-390.063	-144.985	0.102	-0.009
-389.048	-4.146	-0.350	-0.243
-388.033	-200.000	0.023	-0.108
-387.019	-124.949	-0.260	0.040
-386.004	1.072	0.089	-0.064
-384.990	-5.172	0.253	-0.175
-383.975	107.152	0.118	0.141
-382.960	-28.726	0.165	0.095
-381.946	-3.918	0.203	-0.141
-380.931	-134.337	0.065	0.008
-379.917	-102.871	-0.158	-0.038
-378.902	-24.553	0.184	-0.110
-377.888	315.066	-0.105	-0.198
-376.873	350.103	0.070	0.138
-375.858	800.000	0.032	-0.102
-374.844	-32.196	0.138	0.077
-373.829	97.064	0.107	-0.123
-372.815	-71.088	-0.153	0.058
-371.800	800.000	0.045	-0.177
-370.785	800.000	0.202	-0.704
-369.771	-65.293	-0.335	0.135
-368.756	558.790	-0.018	0.043
-367.742	-31.547	-0.180	0.101
-366.727	119.100	-0.096	0.119
-365.712	59.946	0.352	-0.348
-364.698	800.000	-0.058	0.194
-363.683	-78.907	-0.168	0.057
-362.669	-152.542	0.149	-0.011
-361.654	-8.368	0.163	0.110
-360.639	54.074	0.176	0.170
-359.625	-42.227	-0.504	-0.258
-358.610	-57.357	0.193	-0.085
-357.596	40.458	-0.112	0.101
-356.581	241.758	-0.146	-0.245
-355.566	652.553	-0.081	0.209
-354.552	50.205	0.103	0.097
-353.537	72.390	0.361	0.377
-352.523	-129.398	-0.145	-0.020
-351.508	-11.211	0.159	0.105
-350.493	800.000	0.131	-0.371
-349.479	-39.217	-0.172	-0.090
-348.464	-94.452	0.160	0.044
-347.450	-119.580	0.145	-0.025
-346.435	-55.242	0.171	0.077
-345.420	-100.195	0.184	-0.046
-344.406	-200.000	0.021	-0.174
-343.391	-142.161	0.096	-0.010
-342.377	800.000	0.078	0.236
-341.362	64.176	-0.099	-0.100
-340.348	137.358	-0.230	-0.302
-339.333	-130.270	-0.087	0.012
-338.318	-200.000	0.005	0.025
-337.304	-200.000	0.007	0.123
-336.289	-125.943	-0.217	-0.033
-335.275	-200.000	0.010	-0.111
-334.260	-140.362	-0.269	-0.028
-333.245	-101.828	-0.088	-0.021
-332.231	9.113	-0.178	-0.135
-331.216	-58.672	0.117	-0.051
-330.202	345.358	-0.166	-0.327
-329.187	-87.743	-0.276	-0.083
-328.172	-74.623	-0.071	0.026
-327.158	800.000	0.094	0.266
-326.143	157.445	0.144	0.200
-325.129	-125.564	0.105	0.016
-324.114	-173.372	0.074	-0.002
-323.099	-84.997	-0.308	-0.097
-322.085	-6.315	0.183	-0.125
-321.070	284.810	0.213	-0.384
-320.056	-200.000	-0.016	-0.178
-319.041	-141.804	0.158	0.016
-318.026	-200.000	0.000	0.371
-317.012	-200.000	0.023	0.285
-315.997	674.782	0.051	0.132
-314.983	-167.266	0.147	0.006
-313.968	-31.595	0.254	0.143
-312.953	283.728	-0.057	-0.102
-311.939	321.659	0.158	-0.300
-310.924	-174.838	0.195	0.005
-309.910	52.434	0.209	0.199
-308.895	-120.954	-0.130	-0.022
-307.880	22.096	0.096	0.079
-306.866	209.126	-0.137	-0.215
-305.851	-200.000	-0.025	0.134
-304.837	-71.642	-0.266	-0.099
-303.822	641.016	0.072	0.184
-302.807	-99.477	0.344	-0.087
-301.793	-200.000	0.009	-0.060
-300.778	-175.563	-0.421	0.011
-299.764	92.101	-0.113	0.127
-298.749	-17.482	0.213	0.134
-297.735	-200.000	-0.070	-0.384
-296.720	-21.772	-0.253	-0.154
-295.705	224.463	0.044	0.070
-294.691	-171.960	-0.100	0.003
-293.676	97.090	-0.110	0.127
-292.662	-200.000	0.007	0.144
-291.647	545.541	0.138	0.329
-290.632	138.452	0.155	0.204
-289.618	116.232	0.192	0.234
-288.603	800.000	-0.060	-0.209
-287.589	-200.000	-0.038	-0.361
-286.574	19.046	0.089	-0.071
-285.559	-200.000	-0.003	0.036
-284.545	800.000	0.053	-0.156
-283.530	-128.304	0.217	0.031
-282.516	-200.000	-0.006	0.156
-281.501	8.024	-0.187	-0.140
-280.486	-31.366	0.164	0.092
-279.472	800.000	0.044	0.124
-278.457	-55.221	0.068	0.031
-277.443	256.006	-0.134	0.229
-276.428	-118.422	0.217	-0.038
-275.413	6.162	-0.275	0.203
-274.399	-200.000	-0.039	0.283
-273.384	-132.435	0.190	0.025
-272.370	253.993	-0.112	0.191
-271.355	-24.523	-0.156	0.093
-270.340	-73.661	0.241	0.088
-269.326	-56.662	-0.174	-0.077
-268.311	199.716	0.185	0.283
-267.297	-83.972	0.287	-0.091
-266.282	279.375	0.117	-0.208
-265.267	84.511	0.025	0.027
-264.253	-200.000	0.018	0.232
-263.238	-47.120	-0.237	-0.115
-262.224	126.453	0.221	-0.279
-261.209	61.162	-0.155	-0.153
-260.195	133.608	0.241	0.311
-259.180	422.605	-0.179	0.385
-258.165	-74.034	-0.205	0.074
-257.151	-200.000	-0.044	-0.258
-256.136	-40.911	-0.337	0.174
-255.122	-200.000	-0.049	0.307
-254.107	83.269	0.276	0.300
-253.092	-200.000	-0.007	0.107
-252.078	-173.821	-0.091	-0.003
-251.063	93.214	-0.225	-0.254
-250.049	800.000	-0.100	-0.292
-249.034	22.226	-0.231	-0.188
-248.019	800.000	-0.010	-0.040
-247.005	-18.248	-0.175	-0.109
-245.990	-9.410	0.093	0.062
-244.976	-200.000	-0.008	-0.171
-243.961	-140.037	-0.129	0.014
-242.946	-200.000	0.086	0.420
-241.932	107.372	-0.221	-0.262
-240.917	232.461	-0.115	0.188
-239.903	-73.780	-0.187	0.068
-238.888	33.002	0.139	0.120
-237.873	-82.231	0.215	-0.070
-236.859	-175.382	-0.511	0.014
-235.844	-49.379	0.065	-0.031
-234.830	397.325	0.119	-0.249
-233.815	244.543	-0.128	0.214
-232.800	184.861	-0.056	0.082
-231.786	295.255	0.166	0.303
-230.771	-101.574	-0.207	0.050
-229.757	-200.000	-0.036	0.334
-228.742	-119.630	0.238	0.041
-227.727	-200.000	-0.003	0.085
-226.713	306.788	-0.163	-0.303
-225.698	-186.205	-0.112	0.002
-224.684	-117.399	-0.232	0.042
-223.669	423.805	-0.081	0.173
-222.655	-200.000	0.053	0.244
-221.640	194.128	-0.088	0.132
-220.625	-200.000	0.127	0.582
-219.611	454.005	-0.085	-0.187
-218.596	459.697	-0.031	-0.070
-217.582	-20.755	-0.336	-0.205
-216.567	-40.540	-0.221	0.114
-215.552	655.930	-0.079	0.201
-214.538	193.806	-0.138	-0.208
-213.523	-124.413	0.118	0.018
-212.509	-87.934	0.097	0.029
-211.494	-200.000	0.003	0.214
-210.479	-200.000	-0.058	-0.314
-209.465	-200.000	-0.004	0.030
-208.450	-67.456	0.173	0.068
-207.436	-109.074	-0.291	0.062
-206.421	-100.751	-0.218	0.053
-205.406	-200.000	-0.009	-0.225
-204.392	-1.885	-0.302	-0.212
-203.377	-120.235	-0.114	0.019
-202.363	30.177	-0.259	-0.220
-201.348	451.016	-0.114	0.250
-200.333	-94.160	0.214	-0.058
-199.319	-89.457	-0.077	-0.022
-198.304	-200.000	-0.014	0.178
-197.290	154.466	-0.102	-0.139
-196.275	-200.000	0.017	0.125
-195.260	8.804	-0.124	0.093
-194.246	235.889	0.076	-0.125
-193.231	-51.269	0.069	0.032
-192.217	-200.000	0.011	-0.081
-191.202	244.429	-0.125	-0.209
-190.187	-121.282	0.419	-0.070
-189.173	-92.248	0.208	-0.058
-188.158	2.146	-0.044	0.031
-187.144	2.340	0.087	-0.062
-186.129	12.549	-0.075	0.058
-185.114	-200.000	0.003	0.017
-184.100	-10.821	0.171	0.113
-183.085	-7.272	-0.245	0.165
-182.071	-200.000	-0.010	0.361
-181.056	-200.000	0.028	0.378
-180.042	800.000	-0.075	0.306
-179.027	800.000	-0.092	0.323
-178.012	-200.000	-0.010	0.274
-176.998	-84.356	0.465	0.146
-175.983	-81.023	0.140	0.046
-174.969	-136.884	0.172	-0.020
-173.954	-115.293	0.068	0.013
-172.939	-164.653	0.116	-0.005
-171.925	-64.395	-0.468	-0.189
-170.910	76.174	-0.085	-0.089
-169.896	-10.170	0.273	0.180
-168.881	193.137	-0.184	0.277
-167.866	-132.908	-0.178	0.023
-166.852	-200.000	-0.021	-0.244
-165.837	-200.000	0.049	-0.596
-164.823	-196.438	0.486	-0.003
-163.808	143.768	0.079	-0.105
-162.793	691.112	-0.079	0.205
-161.779	53.915	0.214	0.204
-160.764	-113.538	-0.452	0.088
-159.750	167.972	0.059	0.083
-158.735	-12.770	0.218	-0.141
-157.720	-200.000	-0.016	0.128
-156.706	-200.000	0.035	0.305
-155.691	195.782	0.170	0.258
-154.677	-134.451	-0.268	-0.033
-153.662	-126.511	0.336	-0.050
-152.647	-12.982	0.308	-0.199
-151.633	-122.586	0.052	-0.008
-150.618	-39.341	-0.063	-0.033
-149.604	-200.000	-0.026	-0.187
-148.589	5.977	-0.187	0.137
-147.574	199.993	0.216	0.329
-146.560	234.776	0.164	-0.268
-145.545	211.454	0.037	0.058
-144.531	-131.829	0.438	0.057
-143.516	338.985	0.186	0.360
-142.502	-170.197	-0.212	-0.007
-141.487	-143.999	0.061	-0.006
-140.472	716.215	0.038	0.100
-139.458	-200.000	-0.000	-0.265
-138.443	800.000	0.020	-0.060
-137.429	-144.739	-0.120	0.011
-136.414	537.021	-0.055	-0.131
-135.399	110.154	-0.113	0.134
-134.385	800.000	0.025	-0.072
-133.370	111.025	0.155	-0.185
-132.356	-104.858	-0.107	0.024
-131.341	-200.000	0.022	-0.127
-130.326	-200.000	-0.000	-0.217
-129.312	-41.232	0.341	-0.174
-128.297	-200.000	0.025	0.113
-127.283	711.120	-0.185	0.487
-126.268	-29.254	-0.171	-0.097
-125.253	90.717	-0.083	-0.092
-124.239	-84.512	0.147	-0.046
-123.224	-60.908	-0.205	0.086
-122.210	671.230	0.141	0.363
