DTS Sentinel unit serial number:	SN413079Multiplexer serial number:	ORYXHardware model number:	OX4-SRSoftware version number:	ORYX F/W v4.00 Oryx Data Collector v3.7.2.0data status	okinstallation	princeton_trtdifferential loss correction	single-endedforward channel	channel 1reverse channel	N/Adate	2019/09/11time	04:32:11forward acquisition time	60.00reverse acquisition time	0.00gamma	496.2192k internal	0.2331k external	0.2331temperature offset calibration	0.9921default loss term (dB/km)	0.3790temperature slope calibration	1.0000multiplexer offset coefficient	1.0000multiplexer slope coefficient	1.0000fibre end	0.00T internal ref (°C)	29.55T ext. ref 1 (°C)	-0.30T ext. ref 2 (°C)	23.31length (m)	temperature (°C)	Stokes	anti-Stokes-747.200	800.000	-0.044	-0.166
-746.185	309.610	0.072	-0.136
-745.171	164.651	-0.220	0.313
-744.156	-83.069	0.106	-0.034
-743.142	800.000	-0.088	-0.319
-742.127	-123.682	-0.043	0.007
-741.112	-33.996	-0.343	-0.190
-740.098	-121.843	-0.153	-0.025
-739.083	-200.000	-0.015	-0.091
-738.069	-130.539	0.355	-0.048
-737.054	-200.000	0.033	0.244
-736.039	-200.000	-0.036	-0.192
-735.025	10.457	0.237	0.182
-734.010	-97.900	0.210	-0.054
-732.996	363.803	-0.164	-0.331
-731.981	15.202	-0.085	-0.067
-730.966	-51.839	-0.241	-0.113
-729.952	-90.315	-0.213	0.062
-728.937	47.636	0.275	-0.258
-727.923	-200.000	0.007	-0.173
-726.908	-127.149	0.096	-0.014
-725.894	-76.484	-0.268	0.095
-724.879	14.815	-0.088	0.069
-723.864	-144.056	-0.096	0.009
-722.850	-48.936	0.056	-0.027
-721.835	800.000	0.040	-0.170
-720.821	-155.994	-0.106	0.007
-719.806	-97.122	-0.280	0.074
-718.791	47.799	0.129	-0.121
-717.777	800.000	-0.063	0.232
-716.762	126.218	0.089	0.113
-715.748	-37.101	-0.225	0.121
-714.733	-7.048	0.262	-0.179
-713.718	297.053	0.105	-0.193
-712.704	72.458	0.201	-0.211
-711.689	432.261	0.189	0.411
-710.675	-118.496	-0.356	-0.063
-709.660	-104.751	0.206	-0.048
-708.645	107.938	0.180	0.215
-707.631	-200.000	-0.023	0.125
-706.616	224.693	0.051	0.083
-705.602	-88.599	-0.348	0.104
-704.587	-130.041	0.050	-0.007
-703.572	343.250	-0.155	-0.306
-702.558	195.908	0.112	0.171
-701.543	-133.577	0.214	-0.027
-700.529	31.938	0.160	-0.139
-699.514	53.901	-0.121	-0.117
-698.499	270.053	-0.063	-0.111
-697.485	-54.462	0.235	0.107
-696.470	-200.000	0.028	-0.286
-695.456	-200.000	-0.088	-0.000
-694.441	253.253	-0.234	-0.401
-693.426	545.198	-0.031	-0.075
-692.412	325.601	0.168	0.323
-691.397	-200.000	-0.074	-0.331
-690.383	579.404	0.092	-0.227
-689.368	-200.000	-0.027	0.225
-688.354	-56.644	0.573	0.255
-687.339	-200.000	0.032	0.297
-686.324	373.336	0.050	-0.102
-685.310	283.181	-0.200	-0.361
-684.295	518.330	-0.143	-0.337
-683.281	0.893	-0.082	-0.059
-682.266	14.125	-0.150	-0.117
-681.251	-117.660	0.068	0.012
-680.237	-65.871	0.307	0.123
-679.222	-103.970	-0.140	-0.033
-678.208	519.534	-0.157	-0.369
-677.193	800.000	0.037	-0.105
-676.178	-33.286	0.206	-0.114
-675.164	551.548	-0.109	-0.263
-674.149	-200.000	0.005	0.058
-673.135	39.665	0.148	-0.133
-672.120	-16.108	0.126	0.080
-671.105	-200.000	-0.012	-0.337
-670.091	103.333	0.178	-0.209
-669.076	-51.259	-0.360	-0.169
-668.062	-44.543	-0.246	0.124
-667.047	29.813	-0.204	-0.174
-666.032	-143.546	0.229	-0.022
-665.018	-82.271	-0.233	-0.076
-664.003	0.452	-0.049	-0.035
-662.989	-43.316	-0.105	0.053
-661.974	800.000	0.086	-0.265
-660.959	68.094	-0.152	0.156
-659.945	800.000	-0.136	-0.431
-658.930	-21.401	-0.151	-0.092
-657.916	84.371	0.069	0.075
-656.901	800.000	0.060	-0.169
-655.886	-37.064	0.089	0.048
-654.872	4.542	0.062	0.046
-653.857	-200.000	-0.074	-0.326
-652.843	-56.698	-0.101	-0.045
-651.828	-27.772	0.165	0.096
-650.814	18.796	-0.189	0.152
-649.799	-11.894	0.145	-0.096
-648.784	180.074	0.133	0.196
-647.770	-63.456	-0.214	0.088
-646.755	3.903	-0.238	0.174
-645.741	-176.448	0.238	-0.006
-644.726	-200.000	-0.019	-0.147
-643.711	-24.536	-0.301	0.180
-642.697	-95.319	-0.094	0.025
-641.682	-168.447	-0.207	-0.008
-640.668	-200.000	-0.009	-0.337
-639.653	233.152	-0.129	0.213
-638.638	194.383	0.215	0.326
-637.624	-125.008	0.260	-0.040
-636.609	-200.000	0.006	-0.107
-635.595	-48.847	0.236	0.114
-634.580	-200.000	0.089	0.415
-633.565	-173.899	0.188	-0.006
-632.551	27.239	0.163	-0.137
-631.536	800.000	-0.082	-0.253
-630.522	-200.000	0.001	0.011
-629.507	412.297	-0.214	-0.455
-628.492	-59.748	-0.214	-0.092
-627.478	4.795	-0.077	0.056
-626.463	-200.000	0.011	-0.336
-625.449	95.343	-0.082	-0.094
-624.434	-75.999	-0.450	0.159
-623.419	40.600	-0.416	-0.376
-622.405	-200.000	0.022	-0.163
-621.390	332.388	0.076	0.147
-620.376	-90.702	-0.190	0.055
-619.361	800.000	-0.042	0.166
-618.346	-37.237	-0.110	-0.059
-617.332	-151.287	-0.202	-0.015
-616.317	-200.000	0.019	-0.268
-615.303	-41.753	-0.078	0.040
-614.288	63.799	-0.168	-0.169
-613.273	88.811	0.215	-0.240
-612.259	-200.000	-0.012	0.065
-611.244	-52.842	0.199	0.092
-610.230	800.000	-0.115	0.344
-609.215	-118.763	-0.246	0.043
-608.201	-39.540	-0.033	-0.017
-607.186	-149.331	-0.318	0.025
-606.171	400.022	0.096	0.202
-605.157	-10.297	0.183	-0.121
-604.142	171.883	0.126	0.181
-603.128	109.152	0.053	-0.064
-602.113	177.782	0.221	-0.323
-601.098	-66.673	0.219	-0.087
-600.084	208.656	0.075	-0.118
-599.069	-14.934	-0.219	-0.140
-598.055	363.717	0.051	0.103
-597.040	-200.000	-0.040	-0.325
-596.025	200.438	0.149	-0.228
-595.011	-200.000	0.029	0.443
-593.996	-129.150	-0.104	0.015
-592.982	-30.731	0.162	-0.092
-591.967	800.000	-0.053	0.157
-590.952	-95.012	-0.220	-0.059
-589.938	488.000	-0.034	0.077
-588.923	-43.856	0.118	-0.059
-587.909	-129.200	0.297	0.041
-586.894	21.191	0.096	0.078
-585.879	-200.000	0.014	0.191
-584.865	-86.576	-0.133	0.041
-583.850	-32.549	0.289	0.161
-582.836	631.709	-0.069	0.176
-581.821	-200.000	-0.025	0.115
-580.806	-101.155	0.153	0.037
-579.792	193.087	-0.153	0.232
-578.777	95.056	0.187	-0.212
-577.763	27.133	0.174	0.146
-576.748	-200.000	-0.059	-0.283
-575.733	-103.049	-0.176	0.042
-574.719	-72.089	0.290	0.108
-573.704	-79.568	0.086	-0.029
-572.690	-110.845	0.275	-0.057
-571.675	603.472	0.067	-0.167
-570.661	-78.106	0.338	0.116
-569.646	-25.721	-0.231	-0.136
-568.631	151.165	0.065	0.088
-567.617	192.141	-0.146	0.220
-566.602	-32.962	0.089	0.049
-565.588	-146.519	0.113	0.010
-564.573	46.108	0.271	-0.251
-563.558	-5.794	0.180	-0.123
-562.544	800.000	0.038	-0.110
-561.529	-200.000	-0.020	0.210
-560.515	111.852	-0.246	0.297
-559.500	-109.934	-0.276	-0.058
-558.485	-200.000	0.053	-0.357
-557.471	-107.682	-0.171	-0.037
-556.456	71.350	-0.223	-0.231
-555.442	171.723	-0.049	0.071
-554.427	40.749	0.141	0.127
-553.412	800.000	-0.067	0.259
-552.398	-60.895	0.128	0.054
-551.383	-200.000	-0.057	-0.262
-550.369	-200.000	0.037	0.325
-549.354	-119.610	-0.258	-0.045
-548.339	589.986	0.050	-0.124
-547.325	47.153	0.335	0.311
-546.310	-200.000	-0.025	0.244
-545.296	-106.662	0.234	0.052
-544.281	-82.824	0.043	0.014
-543.266	107.517	-0.184	0.219
-542.252	-200.000	-0.059	-0.334
-541.237	775.329	0.066	-0.181
-540.223	-200.000	-0.140	-0.662
-539.208	-26.193	-0.066	-0.039
-538.193	-200.000	-0.003	-0.157
-537.179	800.000	0.026	-0.095
-536.164	42.938	-0.068	-0.061
-535.150	-63.769	0.177	0.072
-534.135	-61.485	0.342	0.143
-533.121	3.838	0.057	-0.042
-532.106	-83.261	0.253	0.081
-531.091	87.555	-0.330	-0.364
-530.077	-33.965	0.186	0.102
-529.062	-58.233	0.260	-0.113
-528.048	-126.415	-0.483	-0.072
-527.033	-200.000	0.022	0.215
-526.018	136.603	-0.193	0.251
-525.004	-109.177	-0.230	0.049
-523.989	-84.673	-0.311	-0.098
-522.975	-200.000	-0.001	-0.061
-521.960	-91.971	0.279	0.079
-520.945	-87.274	0.029	-0.009
-519.931	-52.655	0.084	0.039
-518.916	82.086	0.126	-0.136
-517.902	71.367	-0.317	0.328
-516.887	257.455	0.207	0.355
-515.872	-200.000	-0.002	-0.070
-514.858	-71.979	0.327	-0.121
-513.843	-115.830	0.126	-0.023
-512.829	188.778	-0.094	0.140
-511.814	800.000	0.083	0.238
-510.799	50.496	0.191	0.180
-509.785	-40.098	0.187	-0.097
-508.770	-200.000	0.020	0.326
-507.756	-53.757	0.176	-0.080
-506.741	-193.690	0.337	0.003
-505.726	800.000	0.093	0.260
-504.712	72.322	-0.221	-0.230
-503.697	59.826	-0.121	-0.120
-502.683	-63.918	-0.313	-0.128
-501.668	63.384	0.148	0.148
-500.653	182.448	-0.175	-0.257
-499.639	-76.553	-0.416	-0.146
-498.624	-120.562	-0.100	0.017
-497.610	-200.000	-0.007	0.243
-496.595	-155.914	-0.363	-0.023
-495.581	278.485	0.100	-0.177
-494.566	-200.000	0.017	-0.210
-493.551	240.071	-0.019	0.031
-492.537	-200.000	-0.023	0.212
-491.522	68.703	-0.126	-0.129
-490.508	99.928	-0.088	-0.102
-489.493	-163.956	-0.418	0.019
-488.478	211.650	-0.129	0.203
-487.464	-96.748	0.275	0.072
-486.449	-106.869	0.270	-0.060
-485.435	800.000	0.048	-0.136
-484.420	196.057	-0.087	0.132
-483.405	-34.185	-0.017	0.009
-482.391	498.998	0.052	0.120
-481.376	-98.377	-0.218	0.056
-480.362	800.000	-0.014	0.046
-479.347	-200.000	-0.028	-0.160
-478.332	429.739	-0.100	-0.216
-477.318	-200.000	-0.004	-0.225
-476.303	660.348	0.071	-0.183
-475.289	-171.590	-0.232	0.008
-474.274	361.086	0.065	0.129
-473.259	800.000	0.033	-0.121
-472.245	-125.751	-0.269	0.040
-471.230	381.934	-0.218	0.446
-470.216	-200.000	0.022	-0.218
-469.201	-200.000	0.017	0.112
-468.186	-27.449	-0.289	0.167
-467.172	-200.000	-0.027	0.275
-466.157	-87.548	0.322	0.097
-465.143	800.000	-0.050	0.197
-464.128	220.339	0.187	-0.299
-463.113	-125.040	0.287	0.044
-462.099	230.932	0.186	-0.304
-461.084	-79.280	-0.315	-0.106
-460.070	-63.468	-0.102	-0.042
-459.055	165.143	0.121	-0.170
-458.040	350.957	-0.063	-0.123
-457.026	-58.061	0.071	0.031
-456.011	697.896	-0.071	0.185
-454.997	-84.124	0.153	0.048
-453.982	59.426	0.225	-0.220
-452.968	-200.000	0.019	-0.161
-451.953	800.000	0.062	0.173
-450.938	600.797	0.041	0.102
-449.924	-200.000	-0.020	0.347
-448.909	15.612	0.115	0.090
-447.895	-58.909	0.106	-0.045
-446.880	-200.000	0.003	0.017
-445.865	800.000	0.114	0.316
-444.851	65.496	0.149	-0.150
-443.836	-200.000	0.006	0.110
-442.822	29.065	-0.169	0.143
-441.807	-200.000	0.055	0.301
-440.792	348.820	0.133	-0.261
-439.778	91.090	-0.109	-0.122
-438.763	-31.493	-0.113	-0.063
-437.749	-3.250	0.085	-0.059
-436.734	-65.906	-0.431	0.171
-435.719	443.253	-0.061	0.132
-434.705	-26.427	-0.110	0.064
-433.690	64.715	0.084	-0.084
-432.676	793.712	-0.064	0.175
-431.661	250.508	0.184	-0.310
-430.646	800.000	0.045	0.169
-429.632	319.513	-0.123	0.232
-428.617	397.177	0.100	0.208
-427.603	800.000	0.040	0.110
-426.588	85.320	0.103	-0.112
-425.573	54.035	0.141	0.134
-424.559	-31.742	0.235	-0.131
-423.544	-4.084	0.243	-0.167
-422.530	-200.000	0.001	0.008
-421.515	-117.663	0.295	0.053
-420.500	-116.206	-0.154	0.028
-419.486	-34.460	-0.191	-0.104
-418.471	87.079	0.095	0.105
-417.457	527.840	-0.055	-0.129
-416.442	-141.133	-0.333	0.034
-415.428	48.173	0.070	-0.065
-414.413	-104.934	-0.108	-0.025
-413.398	-200.000	-0.030	-0.268
-412.384	154.074	-0.037	0.051
-411.369	404.333	0.131	-0.274
-410.355	-200.000	-0.006	-0.217
-409.340	-200.000	0.057	-0.332
-408.325	-200.000	-0.008	-0.074
-407.311	65.963	-0.207	0.209
-406.296	177.870	0.210	0.304
-405.282	800.000	0.177	0.576
-404.267	-161.010	-0.321	-0.017
-403.252	404.527	-0.037	-0.077
-402.238	79.357	-0.097	0.103
-401.223	144.188	-0.231	0.306
-400.209	800.000	0.086	0.283
-399.194	-26.497	0.086	0.050
-398.179	-200.000	-0.009	0.150
-397.165	-80.199	0.091	-0.030
-396.150	-106.918	0.163	-0.036
-395.136	-77.378	0.130	-0.045
-394.121	-35.697	0.246	-0.132
-393.106	800.000	0.078	0.249
-392.092	55.572	-0.207	0.199
-391.077	-65.939	0.274	0.109
-390.063	126.098	0.187	-0.235
-389.048	-49.006	-0.193	-0.092
-388.033	-13.457	0.053	0.034
-387.019	-3.131	-0.265	0.184
-386.004	-4.025	0.103	-0.071
-384.990	-139.530	-0.260	-0.028
-383.975	-26.492	0.128	-0.074
-382.960	29.927	0.305	-0.258
-381.946	-20.290	-0.373	0.228
-380.931	52.790	0.312	0.296
-379.917	55.336	0.089	0.086
-378.902	143.246	-0.125	0.165
-377.888	196.644	-0.038	-0.057
-376.873	-54.581	0.116	0.052
-375.858	59.897	0.250	0.245
-374.844	23.243	-0.262	0.214
-373.829	-200.000	0.017	-0.132
-372.815	183.981	-0.100	-0.146
-371.800	-8.526	0.117	-0.078
-370.785	-11.299	-0.248	0.162
-369.771	48.649	-0.082	0.076
-368.756	-76.665	0.174	0.061
-367.742	-200.000	0.045	-0.306
-366.727	-138.840	0.336	0.036
-365.712	52.290	-0.106	-0.101
-364.698	-200.000	0.017	-0.111
-363.683	-200.000	-0.026	-0.130
-362.669	90.171	0.231	-0.256
-361.654	-200.000	0.000	0.126
-360.639	-200.000	0.016	0.119
-359.625	22.833	-0.108	0.087
-358.610	579.689	0.153	-0.371
-357.596	-200.000	-0.029	0.222
-356.581	667.704	-0.087	-0.223
-355.566	103.229	-0.079	0.092
-354.552	-118.422	-0.180	0.032
-353.537	148.220	-0.093	-0.125
-352.523	106.015	0.124	-0.146
-351.508	-200.000	-0.016	-0.076
-350.493	-134.011	0.084	0.010
-349.479	44.960	0.070	0.064
-348.464	-69.413	0.029	-0.011
-347.450	8.859	-0.085	0.063
-346.435	800.000	-0.072	-0.239
-345.420	-176.108	-0.253	0.007
-344.406	-200.000	-0.020	0.461
-343.391	-200.000	0.019	-0.132
-342.377	-144.836	-0.301	0.027
-341.362	-200.000	0.047	0.258
-340.348	28.592	0.098	-0.082
-339.333	17.703	-0.177	-0.140
-338.318	-107.405	-0.092	-0.020
-337.304	86.020	-0.109	0.119
-336.289	-56.631	0.231	-0.101
-335.275	699.625	0.047	0.122
-334.260	-200.000	-0.010	0.244
-333.245	390.240	-0.008	0.016
-332.231	89.119	-0.147	-0.162
-331.216	-154.994	-0.170	0.011
-330.202	-82.249	0.405	-0.131
-329.187	-121.686	0.415	-0.068
-328.172	-105.999	-0.434	-0.097
-327.158	-26.056	0.041	-0.024
-326.143	-200.000	-0.002	0.090
-325.129	-52.297	-0.170	-0.078
-324.114	-200.000	0.016	-0.437
-323.099	-45.205	0.106	-0.052
-322.085	-200.000	0.009	-0.184
-321.070	-200.000	-0.026	-0.238
-320.056	1.836	-0.180	0.128
-319.041	-122.102	0.274	0.044
-318.026	-125.526	-0.186	-0.028
-317.012	16.775	-0.280	-0.219
-315.997	-115.526	-0.374	0.070
-314.983	-111.017	-0.065	0.013
-313.968	-193.077	0.071	0.001
-312.953	-158.135	-0.191	0.011
-311.939	800.000	0.072	0.235
-310.924	12.961	0.139	-0.106
-309.910	52.879	-0.130	-0.123
-308.895	-102.420	0.411	0.097
-307.880	800.000	0.068	0.190
-306.866	-105.314	-0.232	0.052
-305.851	82.841	0.177	0.191
-304.837	246.995	0.201	0.336
-303.822	405.522	-0.052	-0.108
-302.807	-103.311	-0.322	0.075
-301.793	-123.121	-0.361	0.057
-300.778	86.065	-0.179	0.195
-299.764	121.030	0.187	-0.230
-298.749	59.671	0.111	0.109
-297.735	1.012	0.117	0.083
-296.720	800.000	-0.077	0.250
-295.705	157.563	0.029	0.040
-294.691	203.644	-0.139	0.213
-293.676	458.012	-0.117	-0.257
-292.662	198.763	0.231	0.350
-291.647	-200.000	0.043	0.219
-290.632	-80.952	0.203	0.066
-289.618	-200.000	-0.008	-0.160
-288.603	252.680	-0.143	-0.242
-287.589	-200.000	-0.067	0.390
-286.574	38.408	-0.187	-0.165
-285.559	-43.333	0.475	-0.238
-284.545	-46.744	0.270	-0.131
-283.530	-200.000	-0.027	0.159
-282.516	186.357	-0.112	-0.165
-281.501	33.768	-0.073	0.063
-280.486	-60.996	0.252	0.105
-279.472	-80.318	0.078	-0.026
-278.457	-200.000	0.014	-0.090
-277.443	175.619	-0.087	0.125
-276.428	349.412	-0.053	0.102
-275.413	205.751	0.232	-0.357
-274.399	-82.231	0.160	0.052
-273.384	193.178	-0.050	-0.074
-272.370	328.927	0.039	0.075
-271.355	654.861	0.019	-0.048
-270.340	-9.195	-0.277	-0.183
-269.326	-200.000	-0.054	-0.252
-268.311	31.392	-0.138	0.117
-267.297	553.358	0.148	0.351
-266.282	-161.652	0.228	0.012
-265.267	-62.053	-0.098	-0.040
-264.253	-113.888	0.214	0.041
-263.238	-200.000	-0.013	0.130
-262.224	-200.000	0.002	0.119
-261.209	77.572	-0.179	-0.188
-260.195	-74.899	0.176	-0.062
-259.180	-200.000	0.047	0.203
-258.165	-141.400	-0.069	0.007
-257.151	-200.000	-0.072	-0.373
-256.136	180.622	0.153	-0.221
-255.122	-200.000	-0.031	-0.248
-254.107	42.568	0.306	-0.275
-253.092	-61.026	0.071	-0.030
-252.078	-25.669	-0.243	-0.142
-251.063	-200.000	0.009	0.047
-250.049	800.000	0.074	-0.247
-249.034	-36.344	0.008	-0.004
-248.019	-162.393	-0.381	-0.019
-247.005	17.213	0.130	0.102
-245.990	-200.000	0.024	0.134
-244.976	273.776	-0.134	0.234
-243.961	164.904	-0.119	-0.165
-242.946	-95.472	-0.103	-0.027
-241.932	800.000	0.065	-0.216
-240.917	-200.000	0.037	0.433
-239.903	-111.346	0.479	0.096
-238.888	-171.825	0.225	-0.007
-237.873	-200.000	-0.015	-0.284
-236.859	-4.583	-0.441	0.301
-235.844	64.551	-0.160	0.159
-234.830	-132.977	-0.241	-0.030
-233.815	373.763	-0.098	-0.196
-232.800	486.180	-0.055	-0.124
-231.786	168.276	0.133	0.187
-230.771	302.195	0.023	-0.042
-229.757	-88.195	-0.032	-0.010
-228.742	-200.000	0.010	-0.059
-227.727	-18.923	-0.153	0.094
-226.713	20.724	-0.235	0.188
-225.698	617.140	-0.064	0.159
-224.684	-66.019	0.165	0.065
-223.669	104.126	-0.076	-0.089
-222.655	553.944	-0.033	0.078
-221.640	-200.000	0.015	-0.084
-220.625	45.021	-0.117	-0.106
-219.611	800.000	-0.114	0.321
-218.596	-200.000	0.003	0.093
-217.582	-200.000	-0.003	0.242
-216.567	-140.772	0.180	0.018
-215.552	142.706	0.004	-0.006
-214.538	173.169	-0.071	0.100
-213.523	335.199	0.039	-0.075
-212.509	39.855	0.081	0.072
-211.494	-200.000	0.031	-0.179
-210.479	40.158	-0.141	0.125
-209.465	64.068	-0.102	0.101
-208.450	800.000	0.070	0.232
-207.436	800.000	0.065	-0.214
-206.421	-187.812	-0.164	0.002
-205.406	800.000	-0.042	-0.164
-204.392	71.497	0.158	-0.162
-203.377	-102.818	-0.108	-0.025
-202.363	52.622	-0.197	-0.186
-201.348	-176.543	0.138	-0.003
-200.333	-62.006	0.170	-0.070
-199.319	-36.197	-0.147	-0.078
-198.304	198.888	0.044	0.067
-197.290	-92.773	-0.172	0.047
-196.275	2.919	-0.148	0.106
-195.260	-34.807	0.380	0.205
-194.246	-24.487	-0.232	-0.136
-193.231	4.229	-0.099	0.071
-192.217	-200.000	-0.003	-0.135
-191.202	-139.687	0.368	-0.039
-190.187	800.000	0.050	-0.178
-189.173	574.406	-0.076	0.181
-188.158	242.338	0.036	0.060
-187.144	-200.000	0.001	0.078
-186.129	-200.000	-0.001	-0.310
-185.114	64.251	-0.049	0.049
-184.100	-200.000	-0.016	-0.340
-183.085	49.572	-0.165	-0.153
-182.071	227.971	-0.285	-0.456
-181.056	-200.000	-0.006	0.048
-180.042	-0.521	0.048	-0.034
-179.027	-87.425	-0.024	-0.007
-178.012	-200.000	-0.003	-0.019
-176.998	257.699	0.197	-0.334
-175.983	-200.000	0.000	-0.104
-174.969	-7.027	-0.147	0.098
-173.954	399.645	0.146	-0.302
-172.939	-200.000	-0.003	-0.027
-171.925	800.000	0.126	-0.350
-170.910	-103.368	0.057	-0.013
-169.896	31.278	-0.069	0.058
-168.881	-146.739	-0.155	-0.013
-167.866	258.823	-0.144	0.244
-166.852	-90.139	-0.364	0.104
-165.837	-200.000	0.025	-0.272
-164.823	-116.424	0.183	-0.033
-163.808	800.000	0.022	-0.079
-162.793	64.755	-0.098	0.097
-161.779	-53.759	0.119	-0.053
-160.764	-60.826	0.114	0.048
-159.750	-200.000	-0.082	0.368
-158.735	-130.227	0.458	0.061
-157.720	-200.000	0.013	-0.292
-156.706	728.177	-0.169	-0.443
-155.691	800.000	0.062	0.200
-154.677	-122.739	0.074	0.012
-153.662	-200.000	-0.007	0.284
-152.647	-169.915	0.196	0.007
-151.633	-56.878	0.339	-0.147
-150.618	800.000	0.074	0.227
-149.604	42.806	-0.326	0.292
-148.589	800.000	0.155	0.425
-147.574	-59.398	0.047	-0.020
-146.560	-74.225	-0.047	0.017
-145.545	240.906	0.160	0.262
-144.531	193.926	-0.126	-0.188
-143.516	-11.405	-0.252	0.163
-142.502	84.258	-0.090	0.097
-141.487	-117.383	0.097	-0.017
-140.472	-121.630	-0.263	-0.043
-139.458	-200.000	0.015	-0.180
-138.443	-50.695	0.129	-0.060
-137.429	-107.804	0.031	-0.007
-136.414	800.000	0.041	-0.171
-135.399	36.518	-0.093	0.080
-134.385	-200.000	-0.030	-0.139
-133.370	800.000	-0.036	0.117
-132.356	274.685	0.079	-0.137
-131.341	-115.724	-0.116	0.021
-130.326	48.636	-0.017	0.015
-129.312	409.981	-0.143	-0.298
-128.297	-72.776	0.289	-0.105
-127.283	-200.000	-0.038	-0.312
-126.268	800.000	0.071	-0.250
-125.253	-22.602	0.110	-0.065
-124.239	-10.904	-0.039	-0.025
-123.224	-200.000	0.074	0.414
-122.210	-200.000	-0.001	0.243
