DTS Sentinel unit serial number:	SN413079Multiplexer serial number:	ORYXHardware model number:	OX4-SRSoftware version number:	ORYX F/W v4.00 Oryx Data Collector v3.7.2.0data status	okinstallation	princeton_trtdifferential loss correction	single-endedforward channel	channel 1reverse channel	N/Adate	2019/09/16time	06:34:35forward acquisition time	60.00reverse acquisition time	0.00gamma	496.2192k internal	0.2331k external	0.2331temperature offset calibration	0.9985default loss term (dB/km)	0.3790temperature slope calibration	1.0000multiplexer offset coefficient	1.0000multiplexer slope coefficient	1.0000fibre end	0.00T internal ref (°C)	27.37T ext. ref 1 (°C)	11.40T ext. ref 2 (°C)	21.84length (m)	temperature (°C)	Stokes	anti-Stokes-747.200	19.491	-0.178	-0.144
-746.185	-200.000	-0.012	0.148
-745.171	52.043	0.211	0.202
-744.156	-200.000	0.038	0.309
-743.142	-200.000	-0.032	0.348
-742.127	567.771	0.011	-0.028
-741.112	-79.003	0.307	0.105
-740.098	-183.483	-0.204	0.004
-739.083	-200.000	0.011	0.187
-738.069	-3.842	0.134	0.093
-737.054	800.000	-0.044	-0.156
-736.039	-75.351	-0.133	-0.048
-735.025	84.131	0.175	0.192
-734.010	800.000	-0.135	0.405
-732.996	17.020	-0.187	-0.149
-731.981	377.452	-0.128	-0.264
-730.966	327.097	0.082	-0.158
-729.952	800.000	0.047	-0.152
-728.937	90.396	0.247	-0.278
-727.923	125.780	-0.112	0.142
-726.908	-11.348	-0.241	0.160
-725.894	50.007	0.090	-0.086
-724.879	76.662	0.040	-0.042
-723.864	27.704	0.179	0.151
-722.850	800.000	0.055	0.157
-721.835	800.000	-0.040	-0.157
-720.821	64.992	-0.344	0.350
-719.806	-113.181	-0.529	0.105
-718.791	-200.000	-0.001	-0.090
-717.777	136.007	0.163	0.213
-716.762	-140.617	0.373	0.039
-715.748	800.000	-0.030	-0.095
-714.733	10.136	0.272	0.208
-713.718	-200.000	0.010	-0.141
-712.704	-200.000	0.047	0.368
-711.689	-200.000	0.037	0.231
-710.675	-200.000	0.023	-0.265
-709.660	55.258	-0.143	0.139
-708.645	21.291	0.265	0.216
-707.631	10.076	-0.185	0.141
-706.616	-83.795	0.278	0.089
-705.602	-179.706	0.130	-0.003
-704.587	-22.009	0.144	0.088
-703.572	-164.097	0.185	0.009
-702.558	555.336	-0.040	0.097
-701.543	-200.000	0.005	-0.205
-700.529	349.887	0.076	0.151
-699.514	800.000	0.060	-0.223
-698.499	292.882	0.081	0.148
-697.485	-58.433	-0.099	0.043
-696.470	-36.313	0.199	0.108
-695.456	-132.219	-0.297	-0.039
-694.441	244.549	-0.153	-0.259
-693.426	86.086	0.213	0.236
-692.412	-200.000	0.009	0.085
-691.397	-106.850	-0.181	0.040
-690.383	66.754	-0.129	0.131
-689.368	-87.433	-0.049	-0.015
-688.354	253.330	-0.106	-0.182
-687.339	-200.000	-0.041	-0.257
-686.324	-200.000	-0.004	0.090
-685.310	800.000	0.009	-0.035
-684.295	-200.000	-0.023	-0.326
-683.281	800.000	-0.045	-0.189
-682.266	-200.000	0.003	-0.400
-681.251	-174.097	0.228	-0.007
-680.237	-110.021	-0.449	-0.094
-679.222	-176.081	0.264	-0.007
-678.208	-200.000	-0.023	-0.260
-677.193	546.458	-0.053	-0.128
-676.178	800.000	0.058	0.246
-675.164	-98.426	0.064	-0.016
-674.149	172.400	-0.169	0.244
-673.135	123.219	0.055	0.070
-672.120	-173.091	0.068	-0.002
-671.105	509.327	-0.064	0.148
-670.091	800.000	-0.106	-0.322
-669.076	214.897	0.047	-0.075
-668.062	-200.000	-0.028	0.188
-667.047	413.492	-0.048	-0.102
-666.032	-156.233	-0.346	-0.022
-665.018	-200.000	0.000	0.028
-664.003	-200.000	-0.004	-0.119
-662.989	-103.552	-0.506	-0.119
-661.974	-200.000	0.019	-0.147
-660.959	543.858	0.144	0.344
-659.945	-200.000	0.031	0.278
-658.930	46.936	-0.174	0.162
-657.916	-200.000	0.060	0.314
-656.901	65.946	-0.121	0.123
-655.886	370.519	0.065	0.132
-654.872	24.539	-0.115	-0.096
-653.857	54.561	0.323	0.312
-652.843	-152.406	0.051	0.004
-651.828	-63.790	-0.358	-0.147
-650.814	130.013	-0.085	-0.108
-649.799	205.045	0.060	0.094
-648.784	-77.817	-0.156	0.054
-647.770	36.202	0.381	-0.337
-646.755	-87.792	-0.284	0.086
-645.741	226.113	-0.066	0.107
-644.726	-98.388	0.164	-0.042
-643.711	-175.280	-0.236	0.007
-642.697	-68.445	-0.286	0.111
-641.682	-71.740	0.280	-0.105
-640.668	-59.519	-0.155	-0.067
-639.653	389.299	0.055	-0.115
-638.638	-186.051	-0.262	0.004
-637.624	273.363	0.180	-0.319
-636.609	-83.974	0.278	-0.089
-635.595	-37.757	0.309	-0.165
-634.580	768.202	0.112	-0.304
-633.565	-200.000	-0.020	-0.176
-632.551	-200.000	-0.017	0.310
-631.536	64.601	-0.117	0.119
-630.522	553.056	0.157	-0.378
-629.507	-145.097	-0.362	0.033
-628.492	-200.000	-0.040	-0.274
-627.478	234.259	0.208	-0.344
-626.463	67.993	-0.208	0.214
-625.449	-170.491	0.200	0.007
-624.434	-32.828	-0.135	-0.075
-623.419	75.556	-0.175	0.186
-622.405	800.000	-0.049	0.153
-621.390	-149.749	-0.226	0.018
-620.376	182.637	0.087	0.129
-619.361	401.414	-0.044	-0.093
-618.346	36.539	-0.089	-0.079
-617.332	-57.367	-0.329	-0.145
-616.317	270.696	0.142	0.251
-615.303	-116.787	-0.193	-0.036
-614.288	23.360	-0.162	-0.133
-613.273	-95.147	0.303	-0.082
-612.259	800.000	-0.058	-0.229
-611.244	88.452	0.068	0.076
-610.230	79.979	-0.156	-0.168
-609.215	-200.000	-0.024	0.147
-608.201	36.825	0.164	-0.145
-607.186	110.554	-0.342	0.412
-606.171	-200.000	0.002	-0.185
-605.157	-71.233	-0.288	0.108
-604.142	36.773	0.108	-0.096
-603.128	124.396	0.162	0.204
-602.113	-13.886	-0.179	-0.116
-601.098	422.483	0.014	-0.029
-600.084	187.464	-0.050	-0.075
-599.069	800.000	0.059	0.219
-598.055	191.126	0.301	-0.453
-597.040	559.384	-0.048	0.115
-596.025	36.050	-0.136	0.120
-595.011	-200.000	-0.023	0.152
-593.996	800.000	0.120	-0.355
-592.982	-200.000	0.016	-0.341
-591.967	296.500	-0.098	0.179
-590.952	-16.292	-0.351	0.223
-589.938	87.485	0.156	0.173
-588.923	-152.066	-0.190	0.014
-587.909	-200.000	0.014	-0.128
-586.894	-200.000	0.037	-0.274
-585.879	-103.633	0.138	-0.032
-584.865	123.199	0.111	0.139
-583.850	-200.000	-0.003	0.110
-582.836	800.000	-0.062	0.178
-581.821	-131.053	0.302	-0.040
-580.806	235.825	-0.139	-0.230
-579.792	800.000	0.033	-0.126
-578.777	-62.396	0.115	-0.048
-577.763	800.000	0.019	-0.082
-576.748	379.972	-0.019	0.039
-575.733	0.416	0.071	-0.051
-574.719	-17.641	-0.341	0.214
-573.704	539.420	-0.025	0.059
-572.690	-200.000	0.009	-0.063
-571.675	-16.978	0.084	-0.053
-570.661	-115.353	-0.366	0.069
-569.646	59.756	0.167	-0.165
-568.631	-200.000	-0.014	0.087
-567.617	133.288	0.054	0.070
-566.602	-106.763	-0.070	0.016
-565.588	-200.000	-0.004	-0.036
-564.573	-200.000	0.005	-0.264
-563.558	428.269	-0.173	0.373
-562.544	505.500	-0.112	-0.259
-561.529	52.998	-0.312	0.299
-560.515	67.646	0.176	0.179
-559.500	88.737	-0.279	0.310
-558.485	-77.121	-0.285	0.099
-557.471	7.335	-0.069	0.052
-556.456	-200.000	0.001	-0.112
-555.442	800.000	0.057	-0.201
-554.427	-101.422	0.134	-0.033
-553.412	-28.256	-0.033	-0.019
-552.398	-104.328	0.090	0.021
-551.383	-41.598	0.215	0.110
-550.369	800.000	0.113	0.378
-549.354	-123.505	0.092	-0.015
-548.339	-18.759	-0.150	-0.093
-547.325	-80.152	0.080	-0.027
-546.310	-200.000	0.025	-0.300
-545.296	399.992	0.068	0.142
-544.281	-38.658	-0.142	0.075
-543.266	78.930	0.181	-0.193
-542.252	-128.205	0.448	0.064
-541.237	218.998	-0.090	0.143
-540.223	182.524	-0.155	0.228
-539.208	129.658	-0.098	-0.126
-538.193	-200.000	0.001	0.022
-537.179	-52.694	0.106	0.049
-536.164	190.312	0.111	0.167
-535.150	-112.384	-0.173	-0.035
-534.135	-200.000	-0.001	-0.190
-533.121	-122.190	0.109	0.018
-532.106	-39.700	-0.216	0.113
-531.091	-200.000	0.001	-0.080
-530.077	147.878	0.123	0.166
-529.062	185.167	-0.113	0.167
-528.048	-134.186	0.184	-0.023
-527.033	-168.482	-0.623	-0.024
-526.018	-200.000	-0.011	-0.094
-525.004	-146.756	0.048	-0.004
-523.989	-116.447	-0.301	0.055
-522.975	-164.677	-0.234	-0.011
-521.960	85.841	-0.142	0.156
-520.945	-200.000	0.008	-0.040
-519.931	217.691	-0.030	0.048
-518.916	296.152	-0.108	-0.197
-517.902	-60.137	0.071	0.030
-516.887	-200.000	-0.025	0.376
-515.872	274.856	0.122	0.216
-514.858	-118.827	-0.142	-0.025
-513.843	-168.418	-0.078	-0.003
-512.829	-200.000	-0.030	0.208
-511.814	149.572	-0.271	-0.366
-510.799	-24.665	0.284	-0.169
-509.785	-200.000	-0.050	0.260
-508.770	-200.000	0.013	-0.376
-507.756	106.137	-0.109	-0.129
-506.741	-200.000	0.033	-0.313
-505.726	-162.968	0.153	0.007
-504.712	48.634	0.066	0.062
-503.697	364.615	-0.172	-0.345
-502.683	-157.105	0.086	-0.005
-501.668	-46.036	-0.040	-0.019
-500.653	800.000	0.035	0.140
-499.639	49.757	-0.262	0.246
-498.624	429.260	0.097	-0.208
-497.610	-16.381	0.036	-0.023
-496.595	-200.000	-0.011	0.110
-495.581	-46.293	-0.089	0.044
-494.566	261.890	-0.171	0.295
-493.551	-43.527	0.157	0.079
-492.537	-200.000	0.032	0.179
-491.522	29.110	-0.320	0.271
-490.508	-200.000	0.033	0.382
-489.493	800.000	0.029	0.128
-488.478	88.786	-0.104	-0.116
-487.464	334.228	-0.145	-0.279
-486.449	20.650	0.157	-0.126
-485.435	800.000	0.089	-0.359
-484.420	433.766	-0.078	0.169
-483.405	-19.762	0.153	0.094
-482.391	751.322	0.039	0.106
-481.376	-110.792	0.386	0.079
-480.362	200.248	0.213	0.327
-479.347	-200.000	-0.025	-0.191
-478.332	202.708	0.063	-0.098
-477.318	140.775	-0.213	0.280
-476.303	489.499	0.066	0.151
-475.289	-200.000	0.024	0.177
-474.274	79.459	-0.446	0.477
-473.259	-35.190	0.146	-0.079
-472.245	178.935	0.086	-0.126
-471.230	-32.748	-0.099	0.055
-470.216	69.697	-0.069	0.070
-469.201	-19.605	-0.111	-0.069
-468.186	-7.749	-0.302	0.203
-467.172	800.000	0.045	0.158
-466.157	-99.187	0.232	0.058
-465.143	584.934	0.160	-0.391
-464.128	-110.313	0.338	-0.070
-463.113	-110.611	0.076	0.016
-462.099	-200.000	-0.001	0.190
-461.084	-111.916	0.230	-0.046
-460.070	-200.000	-0.035	-0.246
-459.055	-200.000	0.022	-0.168
-458.040	800.000	0.102	0.310
-457.026	-123.678	0.085	0.013
-456.011	-20.381	-0.087	0.053
-454.997	182.341	0.120	-0.176
-453.982	-47.401	-0.233	0.113
-452.968	-200.000	0.007	-0.295
-451.953	-200.000	-0.004	-0.180
-450.938	25.812	-0.066	0.055
-449.924	251.502	-0.116	-0.196
-448.909	322.603	0.085	0.160
-447.895	66.563	-0.231	-0.234
-446.880	-200.000	0.012	-0.120
-445.865	226.494	-0.168	-0.270
-444.851	-200.000	-0.034	0.210
-443.836	-200.000	0.004	-0.182
-442.822	-41.245	-0.187	-0.096
-441.807	333.207	0.133	-0.255
-440.792	-17.715	0.183	0.115
-439.778	568.876	0.080	-0.194
-438.763	25.403	-0.161	-0.133
-437.749	33.347	-0.194	0.168
-436.734	-101.914	-0.349	-0.084
-435.719	-200.000	0.050	-0.240
-434.705	-200.000	-0.015	0.170
-433.690	-11.269	-0.259	0.169
-432.676	-70.002	-0.300	0.114
-431.661	32.179	-0.161	-0.138
-430.646	-145.502	0.328	0.029
-429.632	-200.000	0.048	-0.337
-428.617	-200.000	-0.015	-0.331
-427.603	184.966	0.091	-0.134
-426.588	-200.000	0.036	0.299
-425.573	-103.599	0.054	0.013
-424.559	-114.641	0.168	-0.032
-423.544	112.144	-0.211	0.254
-422.530	37.517	0.074	0.066
-421.515	8.511	0.149	0.112
-420.500	800.000	0.122	-0.339
-419.486	72.652	0.249	0.258
-418.471	800.000	-0.028	0.095
-417.457	6.033	0.095	0.070
-416.442	-31.755	0.176	0.098
-415.428	-158.344	0.131	0.008
-414.413	367.937	0.125	0.251
-413.398	679.460	0.166	-0.429
-412.384	-16.250	-0.268	0.169
-411.369	-42.617	-0.195	-0.098
-410.355	78.352	0.026	0.028
-409.340	-155.544	-0.200	-0.013
-408.325	-120.637	-0.296	0.050
-407.311	104.943	0.048	-0.057
-406.296	90.342	-0.213	-0.236
-405.282	-66.729	-0.110	0.043
-404.267	800.000	0.108	0.311
-403.252	-153.337	0.238	-0.016
-402.238	7.486	0.534	-0.396
-401.223	-58.079	-0.188	0.081
-400.209	-72.883	-0.166	-0.060
-399.194	-67.497	-0.132	0.051
-398.179	469.566	0.011	0.024
-397.165	-61.317	0.154	0.064
-396.150	-103.976	-0.169	0.039
-395.136	-57.189	-0.093	-0.041
-394.121	-200.000	-0.030	0.401
-393.106	-41.361	-0.334	0.171
-392.092	-136.681	0.096	-0.011
-391.077	241.698	-0.178	-0.295
-390.063	1.109	0.039	-0.028
-389.048	800.000	-0.028	0.080
-388.033	253.249	0.094	0.159
-387.019	104.696	-0.031	0.036
-386.004	388.543	-0.155	-0.318
-384.990	-20.006	-0.162	-0.099
-383.975	-200.000	-0.101	0.601
-382.960	-108.123	0.303	-0.065
-381.946	-97.503	-0.211	-0.054
-380.931	-101.641	-0.271	-0.065
-379.917	115.301	-0.092	-0.112
-378.902	-107.588	0.188	-0.041
-377.888	800.000	0.010	0.032
-376.873	-110.708	0.599	0.123
-375.858	-21.485	0.166	0.101
-374.844	214.852	-0.090	0.141
-373.829	-200.000	-0.046	0.335
-372.815	-84.456	-0.272	-0.085
-371.800	197.589	0.388	-0.587
-370.785	-200.000	-0.016	0.349
-369.771	-200.000	-0.006	0.085
-368.756	-56.598	0.233	0.102
-367.742	351.898	0.199	-0.390
-366.727	-129.115	-0.093	-0.013
-365.712	-53.835	0.466	0.211
-364.698	-200.000	-0.002	-0.108
-363.683	-116.274	-0.415	0.076
-362.669	-200.000	-0.018	-0.135
-361.654	26.948	-0.094	0.078
-360.639	-200.000	-0.021	-0.163
-359.625	53.958	0.121	0.115
-358.610	-200.000	0.018	0.377
-357.596	-200.000	-0.113	0.578
-356.581	-34.054	-0.214	0.117
-355.566	800.000	0.143	-0.462
-354.552	108.420	0.053	0.062
-353.537	338.612	-0.079	-0.153
-352.523	156.062	0.073	0.100
-351.508	-121.706	0.034	-0.006
-350.493	229.584	-0.079	-0.128
-349.479	800.000	0.058	-0.172
-348.464	-104.832	0.104	0.024
-347.450	110.595	-0.193	0.230
-346.435	800.000	-0.049	0.156
-345.420	-200.000	-0.003	-0.025
-344.406	800.000	-0.027	0.082
-343.391	13.775	0.219	-0.169
-342.377	77.189	-0.095	-0.101
-341.362	-200.000	0.060	-0.271
-340.348	-4.880	0.097	0.067
-339.333	350.246	-0.080	0.157
-338.318	-106.764	0.455	0.100
-337.304	28.860	-0.036	-0.030
-336.289	647.658	-0.168	-0.426
-335.275	800.000	0.067	-0.245
-334.260	-72.777	-0.076	0.028
-333.245	43.100	-0.098	0.089
-332.231	800.000	0.044	0.126
-331.216	-200.000	0.295	0.001
-330.202	-93.255	-0.138	0.038
-329.187	-33.311	-0.099	-0.055
-328.172	6.524	-0.104	-0.077
-327.158	-54.829	0.471	0.210
-326.143	689.734	0.052	-0.136
-325.129	360.078	0.069	0.136
-324.114	92.930	-0.203	-0.227
-323.099	25.492	-0.051	-0.042
-322.085	-200.000	-0.063	0.335
-321.070	209.087	-0.137	0.213
-320.056	105.358	0.227	0.266
-319.041	-92.172	0.123	-0.034
-318.026	-54.442	-0.127	-0.057
-317.012	-200.000	0.054	-0.319
-315.997	-200.000	-0.044	0.360
-314.983	-10.856	0.269	-0.176
-313.968	-200.000	-0.008	0.063
-312.953	-200.000	-0.001	-0.085
-311.939	451.097	-0.105	-0.230
-310.924	66.428	-0.162	0.163
-309.910	-75.940	0.165	-0.058
-308.895	800.000	0.092	-0.271
-307.880	-162.768	-0.138	-0.007
-306.866	21.166	0.034	0.027
-305.851	-200.000	-0.035	0.203
-304.837	86.776	-0.050	0.055
-303.822	100.501	-0.190	-0.218
-302.807	-100.841	0.165	0.040
-301.793	-82.443	0.370	-0.119
-300.778	-51.657	0.537	-0.248
-299.764	-41.912	-0.216	0.109
-298.749	258.247	0.210	-0.358
-297.735	-200.000	-0.008	0.060
-296.720	-132.068	0.146	-0.019
-295.705	800.000	-0.113	-0.384
-294.691	-8.047	0.421	-0.281
-293.676	-86.012	0.354	0.108
-292.662	-200.000	0.028	-0.293
-291.647	-200.000	-0.051	-0.236
-290.632	-144.537	-0.367	0.034
-289.618	239.017	-0.034	-0.055
-288.603	-5.778	-0.273	-0.185
-287.589	-200.000	0.023	0.191
-286.574	800.000	-0.079	-0.292
-285.559	247.561	-0.079	-0.131
-284.545	-200.000	-0.002	0.110
-283.530	39.023	-0.171	0.151
-282.516	-10.366	-0.199	-0.130
-281.501	96.113	-0.064	-0.073
-280.486	-156.835	-0.298	0.018
-279.472	387.291	-0.133	-0.271
-278.457	-114.206	-0.131	-0.025
-277.443	-137.152	0.079	0.009
-276.428	72.602	0.056	0.058
-275.413	-5.942	0.326	0.220
-274.399	7.967	-0.185	0.137
-273.384	-37.796	0.230	0.121
-272.370	800.000	-0.059	0.187
-271.355	-200.000	0.030	-0.150
-270.340	393.470	0.091	-0.187
-269.326	-16.248	0.132	-0.083
-268.311	800.000	-0.022	-0.071
-267.297	-53.904	-0.359	0.162
-266.282	-84.335	-0.061	-0.019
-265.267	5.878	0.401	0.293
-264.253	-61.007	-0.105	0.044
-263.238	-21.812	-0.205	-0.123
-262.224	75.719	0.142	0.148
-261.209	-200.000	0.046	0.244
-260.195	-49.890	-0.199	-0.093
-259.180	56.971	0.147	0.142
-258.165	-200.000	-0.022	0.285
-257.151	52.856	0.142	-0.134
-256.136	231.384	-0.093	0.150
-255.122	-78.386	-0.068	-0.023
-254.107	-73.809	0.253	-0.091
-253.092	-64.551	0.276	-0.111
-252.078	-132.215	0.185	0.024
-251.063	-46.640	-0.260	-0.126
-250.049	-133.670	-0.037	0.005
-249.034	43.989	-0.145	0.131
-248.019	-165.109	-0.044	-0.002
-247.005	-106.346	0.077	0.017
-245.990	94.644	-0.375	0.421
-244.976	196.195	-0.192	0.288
-243.961	800.000	-0.125	-0.408
-242.946	-161.107	0.256	-0.013
-241.932	654.707	0.076	-0.193
-240.917	-200.000	-0.012	-0.135
-239.903	163.810	-0.171	-0.238
-238.888	105.743	0.140	0.164
-237.873	230.242	0.097	0.157
-236.859	271.622	0.249	-0.433
-235.844	-200.000	0.050	0.240
-234.830	-93.014	-0.156	0.043
-233.815	-200.000	0.047	-0.398
-232.800	-200.000	-0.018	-0.121
-231.786	-200.000	0.017	0.080
-230.771	-78.266	0.217	0.073
-229.757	455.783	-0.007	0.015
-228.742	261.633	0.063	-0.107
-227.727	267.863	0.179	-0.310
-226.713	92.294	0.042	-0.047
-225.698	-131.443	0.273	-0.036
-224.684	-97.159	0.223	-0.057
-223.669	-124.429	0.150	0.023
-222.655	-200.000	0.085	0.410
-221.640	436.435	-0.081	-0.175
-220.625	63.661	0.410	0.406
-219.611	-41.044	-0.096	0.049
-218.596	229.596	0.203	0.326
-217.582	-24.028	0.139	-0.082
-216.567	-183.708	-0.291	0.005
-215.552	-200.000	0.018	0.236
-214.538	-200.000	0.005	0.344
-213.523	111.005	0.121	0.143
-212.509	26.609	-0.019	-0.015
-211.494	-200.000	-0.016	-0.143
-210.479	-184.028	-0.270	0.004
-209.465	-13.598	-0.209	-0.133
-208.450	-90.787	0.201	0.057
-207.436	-200.000	0.005	-0.038
-206.421	-200.000	-0.029	-0.143
-205.406	-126.067	0.218	0.032
-204.392	800.000	0.033	-0.131
-203.377	39.266	-0.345	0.304
-202.363	202.179	-0.094	0.142
-201.348	121.650	0.118	0.145
-200.333	-200.000	-0.028	-0.191
-199.319	96.578	0.106	0.120
-198.304	-8.770	0.318	-0.210
-197.290	32.683	-0.105	-0.090
-196.275	800.000	-0.060	0.211
-195.260	-16.697	-0.169	0.105
-194.246	800.000	-0.087	0.368
-193.231	-25.089	0.144	0.084
-192.217	-0.763	-0.349	-0.244
-191.202	-133.348	0.165	-0.021
-190.187	-145.043	-0.093	0.008
-189.173	800.000	0.124	0.341
-188.158	-200.000	0.025	-0.152
-187.144	63.567	0.133	0.131
-186.129	-40.424	0.120	0.061
-185.114	-200.000	0.006	-0.028
-184.100	500.017	0.141	-0.320
-183.085	-82.622	0.090	-0.029
-182.071	-120.752	-0.164	-0.027
-181.056	307.993	-0.068	0.125
-180.042	-152.750	-0.163	0.011
-179.027	594.709	-0.097	-0.236
-178.012	-33.488	0.170	0.093
-176.998	-200.000	-0.008	-0.346
-175.983	-132.944	0.363	0.045
-174.969	304.170	-0.093	0.169
-173.954	-200.000	-0.001	0.212
-172.939	-73.147	0.014	0.005
-171.925	-30.986	0.193	0.107
-170.910	-200.000	0.024	0.226
-169.896	-52.535	-0.251	0.114
-168.881	-91.442	0.197	0.055
-167.866	576.649	0.056	-0.136
-166.852	-53.428	-0.078	0.035
-165.837	156.369	0.222	0.302
-164.823	-40.294	-0.271	0.139
-163.808	-200.000	0.003	-0.096
-162.793	78.656	-0.175	-0.184
-161.779	501.705	0.049	-0.111
-160.764	89.323	0.311	0.341
-159.750	-104.801	-0.418	-0.095
-158.735	410.487	-0.110	0.229
-157.720	-6.427	0.235	-0.157
-156.706	800.000	-0.082	-0.293
-155.691	-200.000	-0.003	-0.200
-154.677	169.464	-0.101	0.141
-153.662	-200.000	0.077	-0.343
-152.647	-57.774	0.349	0.150
-151.633	15.343	0.179	-0.138
-150.618	16.225	-0.150	0.116
-149.604	-60.292	-0.281	0.118
-148.589	-46.948	0.089	0.043
-147.574	1.108	0.233	0.164
-146.560	-144.478	0.359	-0.033
-145.545	178.683	0.019	-0.027
-144.531	-10.607	0.234	-0.152
-143.516	-200.000	0.012	-0.329
-142.502	-104.825	-0.355	-0.080
-141.487	-138.917	-0.275	0.029
-140.472	435.265	0.035	0.075
-139.458	-27.187	0.091	-0.052
-138.443	78.990	-0.205	0.216
-137.429	-136.375	-0.099	0.011
-136.414	30.045	-0.168	-0.141
-135.399	493.813	-0.022	0.050
-134.385	-200.000	0.005	-0.426
-133.370	-83.125	-0.233	-0.074
-132.356	-72.448	0.163	0.059
-131.341	104.435	0.212	0.245
-130.326	364.024	-0.239	0.472
-129.312	155.101	0.133	0.180
-128.297	-137.724	0.125	0.014
-127.283	485.121	-0.121	0.272
-126.268	-81.987	0.155	0.050
-125.253	-200.000	0.016	0.122
-124.239	-200.000	0.056	-0.274
-123.224	291.901	-0.073	0.130
-122.210	208.680	0.120	-0.184
-121.195	800.000	-0.038	0.144
