DTS Sentinel unit serial number:	SN413079Multiplexer serial number:	ORYXHardware model number:	OX4-SRSoftware version number:	ORYX F/W v4.00 Oryx Data Collector v3.7.2.0data status	okinstallation	princeton_trtdifferential loss correction	single-endedforward channel	channel 1reverse channel	N/Adate	2019/09/15time	11:38:35forward acquisition time	60.00reverse acquisition time	0.00gamma	496.2192k internal	0.2308k external	0.2308temperature offset calibration	0.9987default loss term (dB/km)	0.3790temperature slope calibration	1.0000multiplexer offset coefficient	1.0000multiplexer slope coefficient	1.0000fibre end	0.00T internal ref (°C)	34.31T ext. ref 1 (°C)	4.99T ext. ref 2 (°C)	29.80length (m)	temperature (°C)	Stokes	anti-Stokes-747.200	119.300	0.079	0.099
-746.185	800.000	0.127	0.415
-745.171	120.902	-0.197	0.249
-744.156	800.000	-0.064	0.252
-743.142	2.082	-0.096	0.071
-742.127	-102.165	-0.461	0.113
-741.112	51.447	-0.098	0.095
-740.098	-103.289	-0.223	0.053
-739.083	-200.000	-0.011	-0.106
-738.069	-69.179	0.205	0.080
-737.054	219.483	0.099	-0.162
-736.039	-48.555	-0.116	-0.057
-735.025	403.924	0.159	-0.340
-734.010	2.076	0.202	-0.148
-732.996	-159.761	-0.412	-0.023
-731.981	-136.837	-0.253	-0.030
-730.966	-195.856	-0.126	-0.001
-729.952	52.364	-0.344	-0.333
-728.937	275.521	0.210	0.379
-727.923	66.255	0.158	0.163
-726.908	-200.000	-0.016	0.432
-725.894	347.214	-0.138	0.276
-724.879	-200.000	-0.372	0.001
-723.864	45.707	-0.157	-0.148
-722.850	155.678	0.186	0.261
-721.835	-73.455	-0.215	-0.080
-720.821	-127.974	0.166	0.024
-719.806	-50.900	0.291	-0.139
-718.791	800.000	-0.035	-0.116
-717.777	402.762	-0.076	-0.162
-716.762	800.000	-0.054	-0.193
-715.748	280.043	-0.157	-0.285
-714.733	-114.115	-0.356	-0.070
-713.718	-127.466	0.071	-0.010
-712.704	241.910	0.147	-0.250
-711.689	-20.346	0.147	-0.092
-710.675	405.533	0.125	0.268
-709.660	740.638	0.057	-0.154
-708.645	-78.342	-0.125	-0.044
-707.631	-17.110	-0.310	-0.199
-706.616	110.924	-0.131	0.161
-705.602	-200.000	-0.003	-0.346
-704.587	218.042	0.104	-0.168
-703.572	-113.115	0.285	-0.057
-702.558	800.000	0.043	-0.155
-701.543	-37.097	0.124	0.067
-700.529	-150.423	-0.346	0.027
-699.514	210.816	-0.084	0.133
-698.499	-76.245	-0.095	0.034
-697.485	-33.074	-0.116	0.065
-696.470	-200.000	0.001	0.084
-695.456	-200.000	0.076	-0.380
-694.441	-143.695	0.110	-0.011
-693.426	148.234	-0.245	-0.336
-692.412	8.200	-0.216	0.165
-691.397	194.975	-0.235	0.362
-690.383	-114.536	-0.148	-0.029
-689.368	-200.000	0.021	0.284
-688.354	113.565	0.057	-0.070
-687.339	25.144	0.365	-0.307
-686.324	15.218	0.199	-0.158
-685.310	-69.823	-0.244	0.094
-684.295	19.484	-0.211	0.172
-683.281	-157.064	0.099	-0.006
-682.266	39.440	-0.197	-0.179
-681.251	-115.810	0.014	-0.003
-680.237	-72.638	0.108	0.041
-679.222	-77.379	-0.248	-0.087
-678.208	-1.375	0.179	-0.128
-677.193	-80.207	-0.252	-0.086
-676.178	-78.610	0.153	-0.053
-675.164	41.860	0.336	0.309
-674.149	210.179	-0.020	0.033
-673.135	-9.811	0.141	-0.095
-672.120	800.000	-0.148	-0.454
-671.105	-79.474	0.273	-0.093
-670.091	9.379	0.037	0.029
-669.076	-119.756	0.129	-0.022
-668.062	45.113	0.159	0.149
-667.047	101.711	-0.099	-0.117
-666.032	800.000	-0.093	-0.341
-665.018	313.379	0.058	0.111
-664.003	-130.342	-0.344	0.047
-662.989	-91.794	0.120	-0.035
-661.974	-66.331	0.109	0.044
-660.959	-200.000	0.018	-0.162
-659.945	-130.474	-0.196	0.027
-658.930	34.333	-0.235	-0.208
-657.916	-6.009	-0.300	0.208
-656.901	800.000	-0.044	0.168
-655.886	77.262	-0.164	0.177
-654.872	-200.000	0.001	-0.035
-653.857	-113.637	-0.322	-0.064
-652.843	-17.140	0.233	-0.149
-651.828	-200.000	-0.020	0.260
-650.814	-42.009	0.343	-0.178
-649.799	382.225	-0.069	-0.145
-648.784	112.499	-0.135	0.165
-647.770	185.541	0.120	-0.181
-646.755	800.000	0.035	-0.124
-645.741	-82.277	-0.123	-0.040
-644.726	65.978	0.047	-0.048
-643.711	480.086	-0.071	0.162
-642.697	275.307	0.016	-0.029
-641.682	189.017	0.213	0.322
-640.668	800.000	-0.007	0.024
-639.653	-200.000	0.017	-0.352
-638.638	202.076	-0.130	0.203
-637.624	-62.476	-0.059	0.025
-636.609	-13.392	0.200	-0.131
-635.595	800.000	0.040	0.175
-634.580	-165.560	-0.164	0.007
-633.565	22.779	-0.041	-0.034
-632.551	528.172	0.067	-0.160
-631.536	91.297	-0.160	0.182
-630.522	-24.506	0.224	0.135
-629.507	-154.003	-0.052	-0.004
-628.492	-200.000	0.033	-0.193
-627.478	-111.935	0.190	0.039
-626.463	658.224	0.071	-0.184
-625.449	-172.036	0.394	0.013
-624.434	-138.118	0.223	-0.025
-623.419	177.935	-0.050	-0.074
-622.405	-63.916	-0.282	0.117
-621.390	-200.000	0.003	0.048
-620.376	174.673	-0.230	0.336
-619.361	104.167	-0.159	0.189
-618.346	48.490	-0.150	-0.142
-617.332	800.000	-0.029	0.100
-616.317	-200.000	-0.013	0.068
-615.303	25.236	-0.233	-0.196
-614.288	333.298	-0.203	-0.397
-613.273	-122.521	-0.148	-0.024
-612.259	-186.004	-0.362	-0.005
-611.244	-33.165	-0.252	-0.141
-610.230	13.830	0.135	-0.106
-609.215	-60.166	-0.157	0.068
-608.201	-13.201	-0.137	-0.090
-607.186	220.017	-0.101	-0.163
-606.171	-110.932	0.150	-0.031
-605.157	-200.000	0.017	0.127
-604.142	52.282	0.117	0.113
-603.128	163.603	-0.145	0.206
-602.113	800.000	0.070	0.201
-601.098	-7.204	0.115	0.079
-600.084	-173.125	-0.203	-0.006
-599.069	-112.439	0.093	-0.019
-598.055	-181.389	-0.207	0.004
-597.040	307.994	-0.157	-0.296
-596.025	-79.240	0.340	-0.117
-595.011	-109.318	-0.088	-0.019
-593.996	113.520	0.193	0.237
-592.982	-200.000	-0.024	-0.162
-591.967	-16.403	0.250	0.160
-590.952	-93.346	-0.287	0.080
-589.938	102.959	-0.100	-0.118
-588.923	-35.458	0.250	-0.137
-587.909	192.509	0.129	0.197
-586.894	441.816	0.168	0.371
-585.879	-200.000	0.017	0.138
-584.865	184.831	0.041	-0.062
-583.850	-200.000	0.004	0.024
-582.836	800.000	-0.049	-0.183
-581.821	-97.507	-0.203	-0.053
-580.806	327.573	0.080	-0.156
-579.792	-165.598	0.171	-0.007
-578.777	-93.731	-0.245	-0.068
-577.763	431.223	0.156	-0.342
-576.748	800.000	-0.121	-0.369
-575.733	-200.000	-0.008	0.163
-574.719	-4.967	-0.158	-0.110
-573.704	-200.000	0.006	0.217
-572.690	184.909	-0.041	-0.062
-571.675	-53.775	-0.308	-0.142
-570.661	800.000	0.065	-0.251
-569.646	639.144	-0.074	0.189
-568.631	-33.847	0.230	0.128
-567.617	100.782	-0.430	-0.505
-566.602	-82.452	0.226	-0.074
-565.588	-200.000	0.044	-0.303
-564.573	-190.993	-0.228	-0.002
-563.558	-75.626	0.424	0.152
-562.544	800.000	-0.010	-0.034
-561.529	36.393	-0.100	-0.089
-560.515	634.470	0.063	-0.162
-559.500	800.000	0.093	0.296
-558.485	517.699	0.091	-0.215
-557.471	-195.000	-0.204	0.002
-556.456	17.611	0.192	-0.154
-555.442	32.601	-0.177	0.154
-554.427	800.000	-0.049	-0.188
-553.412	-19.691	-0.172	0.107
-552.398	-86.954	0.205	-0.063
-551.383	-38.636	0.246	0.131
-550.369	121.666	-0.205	-0.258
-549.354	125.538	-0.077	0.099
-548.339	303.222	-0.147	0.276
-547.325	737.613	-0.019	-0.051
-546.310	-71.676	-0.162	0.061
-545.296	-110.398	0.090	-0.019
-544.281	44.075	0.076	-0.070
-543.266	-36.027	-0.255	0.139
-542.252	800.000	0.153	-0.506
-541.237	800.000	0.111	0.315
-540.223	341.606	-0.093	-0.183
-539.208	-200.000	-0.067	0.597
-538.193	-106.552	-0.153	0.034
-537.179	800.000	-0.065	-0.264
-536.164	-195.587	0.265	-0.002
-535.150	101.773	-0.154	0.181
-534.135	-200.000	0.016	0.077
-533.121	-69.931	0.356	0.137
-532.106	-200.000	-0.007	-0.122
-531.091	800.000	-0.035	-0.119
-530.077	800.000	0.043	-0.130
-529.062	-36.549	-0.132	0.071
-528.048	-101.283	0.115	-0.028
-527.033	-78.090	-0.105	-0.036
-526.018	-42.861	0.191	-0.098
-525.004	267.098	-0.112	0.198
-523.989	110.779	0.102	0.124
-522.975	-113.947	-0.313	-0.061
-521.960	626.205	0.045	-0.114
-520.945	164.175	-0.259	0.367
-519.931	18.577	0.185	0.149
-518.916	-200.000	0.047	0.359
-517.902	-69.483	-0.392	0.151
-516.887	117.410	0.160	0.198
-515.872	134.922	-0.215	0.282
-514.858	27.356	-0.005	0.005
-513.843	-200.000	0.036	0.230
-512.829	16.356	0.137	0.109
-511.814	-29.793	-0.324	-0.186
-510.799	-84.083	0.187	0.060
-509.785	-200.000	-0.003	-0.136
-508.770	-149.567	0.314	-0.025
-507.756	84.200	-0.142	0.156
-506.741	270.060	0.119	0.211
-505.726	100.328	-0.076	0.089
-504.712	354.874	0.178	0.357
-503.697	85.711	-0.064	0.071
-502.683	-200.000	0.031	-0.203
-501.668	600.299	0.040	-0.101
-500.653	62.922	-0.046	0.047
-499.639	800.000	-0.122	-0.409
-498.624	-116.163	-0.522	-0.098
-497.610	-16.537	-0.149	0.095
-496.595	-110.913	0.381	0.079
-495.581	156.595	-0.274	-0.381
-494.566	-168.753	0.154	-0.006
-493.551	-108.234	-0.090	-0.019
-492.537	-117.400	-0.308	0.056
-491.522	46.996	0.022	0.021
-490.508	114.323	-0.155	-0.190
-489.493	-8.209	-0.257	-0.174
-488.478	-200.000	-0.012	-0.078
-487.464	42.485	0.168	0.154
-486.449	-12.271	-0.339	-0.223
-485.435	416.826	-0.036	0.077
-484.420	800.000	-0.011	-0.030
-483.405	-107.952	-0.511	0.112
-482.391	-163.941	0.351	0.016
-481.376	-72.100	-0.127	-0.047
-480.362	-26.062	0.175	-0.103
-479.347	-10.693	0.243	-0.162
-478.332	800.000	-0.094	-0.372
-477.318	603.769	0.069	-0.172
-476.303	-46.077	0.317	0.157
-475.289	415.011	0.072	0.153
-474.274	-151.675	0.101	0.008
-473.259	-143.291	0.094	-0.009
-472.245	129.251	-0.123	-0.159
-471.230	-200.000	-0.019	-0.456
-470.216	-119.512	-0.156	0.027
-469.201	311.988	-0.132	0.249
-468.186	590.475	0.255	-0.632
-467.172	-91.379	0.315	0.090
-466.157	451.090	-0.094	-0.209
-465.143	-200.000	0.022	0.100
-464.128	-2.605	0.107	0.075
-463.113	99.254	0.149	0.173
-462.099	800.000	-0.027	0.077
-461.084	800.000	0.086	0.312
-460.070	-96.574	-0.047	-0.013
-459.055	-108.413	0.227	-0.049
-458.040	-79.721	0.288	0.097
-457.026	72.987	-0.067	-0.070
-456.011	-105.972	0.090	-0.020
-454.997	800.000	0.096	-0.381
-453.982	800.000	-0.046	0.167
-452.968	-200.000	-0.007	-0.060
-451.953	-116.127	0.031	0.006
-450.938	87.282	-0.106	0.117
-449.924	-37.513	0.036	0.019
-448.909	129.760	0.149	-0.191
-447.895	151.198	-0.194	-0.265
-446.880	223.241	-0.123	0.199
-445.865	-69.494	-0.198	-0.076
-444.851	1.966	0.167	0.121
-443.836	-67.546	-0.130	0.051
-442.822	184.911	-0.096	0.143
-441.807	-24.531	-0.127	-0.076
-440.792	84.171	0.165	0.181
-439.778	-84.197	-0.038	0.012
-438.763	323.494	-0.062	0.119
-437.749	72.877	0.150	-0.158
-436.734	800.000	-0.119	0.379
-435.719	-161.826	-0.340	0.017
-434.705	8.794	-0.192	-0.146
-433.690	800.000	0.056	0.232
-432.676	-95.107	0.145	-0.039
-431.661	-173.395	-0.309	-0.009
-430.646	50.868	-0.020	-0.019
-429.632	-91.957	0.230	0.065
-428.617	213.795	0.040	-0.063
-427.603	260.923	-0.161	0.280
-426.588	-68.415	0.119	-0.047
-425.573	-200.000	0.018	0.088
-424.559	-66.378	-0.199	0.080
-423.544	19.015	0.034	-0.027
-422.530	63.329	-0.233	0.234
-421.515	65.934	-0.158	-0.161
-420.500	156.072	-0.053	-0.073
-419.486	-74.548	-0.186	0.067
-418.471	-129.616	-0.283	-0.039
-417.457	-17.286	-0.187	0.118
-416.442	74.117	0.184	0.194
-415.428	-115.147	0.158	-0.030
-414.413	16.347	0.203	-0.161
-413.398	-200.000	0.013	-0.167
-412.384	-117.366	-0.323	-0.059
-411.369	-200.000	0.035	-0.232
-410.355	9.758	0.123	-0.093
-409.340	629.892	-0.019	-0.049
-408.325	-94.918	-0.209	0.057
-407.311	77.263	0.295	-0.315
-406.296	91.381	-0.091	0.102
-405.282	90.089	0.246	0.276
-404.267	-200.000	-0.002	0.328
-403.252	-200.000	0.018	0.172
-402.238	247.217	-0.148	-0.250
-401.223	-36.395	0.227	0.123
-400.209	-144.082	0.134	0.013
-399.194	-104.245	0.065	0.015
-398.179	-3.544	-0.378	0.263
-397.165	98.708	0.028	0.033
-396.150	235.488	-0.064	-0.107
-395.136	-134.511	0.091	-0.011
-394.121	-70.350	0.114	-0.043
-393.106	63.291	0.128	-0.129
-392.092	-140.930	0.256	0.026
-391.077	62.385	0.227	0.227
-390.063	800.000	-0.106	0.416
-389.048	616.199	0.104	0.261
-388.033	-186.278	-0.101	0.001
-387.019	-33.690	-0.080	0.044
-386.004	-200.000	-0.025	0.305
-384.990	-126.405	-0.129	0.019
-383.975	-200.000	0.011	-0.217
-382.960	-51.905	-0.105	0.049
-381.946	-181.811	0.092	0.002
-380.931	-40.875	0.224	-0.116
-379.917	398.464	0.056	0.118
-378.902	800.000	0.051	0.156
-377.888	-108.853	-0.316	-0.068
-376.873	430.223	-0.107	-0.231
-375.858	-104.821	-0.254	-0.059
-374.844	62.996	0.129	0.129
-373.829	-112.289	-0.027	0.005
-372.815	-156.195	0.249	0.016
-371.800	-123.469	0.256	0.041
-370.785	800.000	-0.056	0.160
-369.771	271.585	0.073	0.130
-368.756	100.490	-0.137	0.159
-367.742	-200.000	0.054	0.635
-366.727	398.734	-0.156	-0.327
-365.712	43.781	0.094	-0.086
-364.698	-66.063	0.215	0.086
-363.683	-162.881	0.435	0.021
-362.669	470.761	-0.132	0.298
-361.654	4.327	-0.237	-0.174
-360.639	-31.100	-0.159	-0.090
-359.625	241.668	0.081	0.135
-358.610	800.000	-0.096	-0.321
-357.596	-69.482	0.033	-0.013
-356.581	-150.383	-0.263	0.020
-355.566	340.947	0.083	-0.162
-354.552	328.737	-0.091	-0.176
-353.537	465.916	0.021	0.047
-352.523	-54.953	0.188	-0.085
-351.508	299.238	0.140	-0.258
-350.493	-19.262	-0.233	0.145
-349.479	-141.871	0.531	0.053
-348.464	253.342	0.113	-0.194
-347.450	-81.658	-0.366	-0.120
-346.435	800.000	0.043	-0.167
-345.420	-122.468	-0.243	0.040
-344.406	120.012	-0.167	0.207
-343.391	-160.096	0.161	0.009
-342.377	207.646	-0.169	-0.263
-341.362	800.000	-0.071	-0.280
-340.348	7.833	-0.220	-0.165
-339.333	-29.920	-0.244	-0.139
-338.318	-200.000	0.059	0.297
-337.304	-200.000	0.027	-0.175
-336.289	-85.081	-0.347	0.109
-335.275	63.665	0.173	0.174
-334.260	241.581	-0.080	0.133
-333.245	240.212	0.090	-0.150
-332.231	-200.000	-0.029	-0.235
-331.216	170.738	0.086	0.124
-330.202	10.852	-0.352	0.269
-329.187	46.909	0.236	-0.219
-328.172	-36.966	0.145	0.078
-327.158	-55.088	0.193	-0.087
-326.143	-91.111	-0.088	-0.025
-325.129	-192.266	0.174	-0.002
-324.114	-200.000	0.005	0.061
-323.099	800.000	-0.098	-0.274
-322.085	-76.842	0.205	-0.072
-321.070	509.145	0.093	0.216
-320.056	598.153	-0.120	-0.297
-319.041	-31.080	-0.167	-0.094
-318.026	-92.968	-0.231	0.065
-317.012	733.718	-0.064	-0.171
-315.997	-200.000	0.013	-0.237
-314.983	80.689	-0.129	-0.140
-313.968	800.000	0.090	0.266
-312.953	800.000	-0.024	0.078
-311.939	-159.035	0.200	-0.011
-310.924	259.523	0.096	0.165
-309.910	-60.420	-0.089	0.038
-308.895	0.668	-0.034	0.024
-307.880	800.000	-0.101	0.313
-306.866	-65.974	-0.155	-0.062
-305.851	800.000	0.046	-0.158
-304.837	729.477	-0.022	-0.058
-303.822	-200.000	0.025	0.150
-302.807	-160.435	-0.247	-0.013
-301.793	331.416	-0.115	-0.222
-300.778	-64.817	-0.095	0.039
-299.764	-92.256	-0.307	0.086
-298.749	-51.345	0.250	0.117
-297.735	124.108	-0.054	0.068
-296.720	43.036	-0.232	0.211
-295.705	-101.032	0.378	0.092
-294.691	-17.119	-0.107	-0.067
-293.676	-102.560	-0.104	-0.025
-292.662	-44.167	0.080	0.040
-291.647	-0.782	-0.250	-0.177
-290.632	540.750	-0.120	0.286
-289.618	142.292	0.176	0.233
-288.603	-51.506	-0.311	0.145
-287.589	139.428	0.045	-0.059
-286.574	178.926	0.087	-0.127
-285.559	257.742	0.113	-0.195
-284.545	-200.000	-0.002	0.180
-283.530	678.414	0.059	-0.154
-282.516	-42.868	0.253	0.128
-281.501	8.737	0.206	-0.155
-280.486	120.604	0.288	-0.358
-279.472	-109.099	-0.388	-0.083
-278.457	55.881	0.114	0.111
-277.443	-167.496	-0.072	-0.003
-276.428	-200.000	-0.001	0.154
-275.413	800.000	0.036	-0.122
-274.399	-68.028	-0.195	0.076
-273.384	86.547	0.103	-0.113
-272.370	60.902	0.247	0.245
-271.355	276.162	-0.111	-0.196
-270.340	-43.982	-0.221	-0.111
-269.326	-155.049	0.126	-0.008
-268.311	36.282	0.344	0.302
-267.297	-72.009	0.365	0.135
-266.282	-81.145	0.197	-0.065
-265.267	-200.000	0.034	0.392
-264.253	76.770	0.219	0.232
-263.238	-200.000	0.029	-0.322
-262.224	130.415	-0.203	0.259
-261.209	585.449	0.032	-0.078
-260.195	5.516	0.183	0.134
-259.180	351.009	0.079	0.156
-258.165	598.854	0.019	0.046
-257.151	800.000	-0.031	0.122
-256.136	-200.000	0.026	0.156
-255.122	-200.000	0.015	-0.350
-254.107	800.000	0.049	-0.148
-253.092	80.604	-0.031	0.033
-252.078	-96.426	0.185	0.049
-251.063	-104.769	0.341	-0.078
-250.049	86.105	0.172	0.189
-249.034	174.206	0.049	-0.070
-248.019	-43.554	0.425	0.214
-247.005	-62.871	-0.160	0.066
-245.990	17.336	0.145	0.115
-244.976	-69.406	0.084	0.032
-243.961	800.000	-0.049	0.158
-242.946	-200.000	-0.006	0.052
-241.932	-33.300	0.190	0.105
-240.917	271.349	-0.080	-0.140
-239.903	-109.994	-0.209	0.044
-238.888	611.533	-0.108	-0.269
-237.873	34.835	-0.188	-0.164
-236.859	800.000	-0.048	0.142
-235.844	-200.000	-0.021	-0.175
-234.830	-200.000	-0.003	-0.039
-233.815	-43.617	-0.135	-0.068
-232.800	120.111	0.042	0.052
-231.786	-171.235	0.315	-0.011
-230.771	-124.121	-0.101	0.016
-229.757	800.000	0.068	0.284
-228.742	-178.121	0.179	-0.004
-227.727	-32.030	-0.328	-0.183
-226.713	-95.744	-0.225	-0.060
-225.698	321.178	0.018	-0.034
-224.684	-34.248	-0.122	0.067
-223.669	-118.301	-0.288	-0.051
-222.655	-131.507	0.036	0.005
-221.640	-136.450	-0.121	-0.014
-220.625	-200.000	0.013	-0.161
-219.611	-115.902	0.286	0.053
-218.596	-10.608	-0.308	0.203
-217.582	96.053	-0.097	0.111
-216.567	104.375	-0.228	0.268
-215.552	-25.614	0.243	0.143
-214.538	-200.000	0.036	-0.167
-213.523	-113.514	0.042	0.008
-212.509	87.682	0.238	0.263
-211.494	-62.692	0.453	0.187
-210.479	-57.868	0.353	0.153
-209.465	771.700	0.077	0.209
-208.450	59.071	-0.047	0.046
-207.436	-200.000	0.012	0.351
-206.421	-200.000	0.018	-0.148
-205.406	687.808	-0.053	0.138
-204.392	-78.771	-0.188	0.064
-203.377	-177.835	-0.217	0.005
-202.363	-113.797	-0.119	0.023
-201.348	-45.020	0.203	0.101
-200.333	278.497	-0.074	0.131
-199.319	-15.994	-0.394	-0.249
-198.304	57.863	0.139	-0.135
-197.290	24.008	0.193	-0.159
-196.275	-109.872	-0.135	-0.028
-195.260	-200.000	-0.035	-0.157
-194.246	-127.454	0.209	0.030
-193.231	330.176	0.157	-0.301
-192.217	800.000	0.054	-0.213
-191.202	25.531	-0.214	-0.177
-190.187	800.000	0.030	0.127
-189.173	94.835	-0.226	-0.256
-188.158	-151.332	-0.041	0.003
-187.144	-105.674	-0.040	-0.009
-186.129	103.647	-0.242	-0.282
-185.114	608.997	0.083	-0.207
-184.100	-156.734	0.226	-0.014
-183.085	65.092	0.203	-0.204
-182.071	-127.057	0.102	-0.015
-181.056	84.334	0.126	0.138
-180.042	800.000	-0.052	0.221
-179.027	-200.000	-0.043	-0.435
-178.012	27.976	0.061	0.051
-176.998	69.961	-0.055	-0.057
-175.983	-176.245	-0.173	-0.005
-174.969	-114.932	0.350	-0.066
-173.954	-55.412	0.288	0.129
-172.939	-3.177	0.078	-0.054
-171.925	-70.610	-0.011	0.004
-170.910	-200.000	-0.053	0.317
-169.896	-159.168	0.100	0.006
-168.881	260.072	-0.157	-0.270
-167.866	-95.418	0.334	-0.089
-166.852	196.309	-0.185	0.280
-165.837	-85.560	0.257	-0.080
-164.823	-169.683	0.170	-0.006
-163.808	800.000	-0.173	-0.568
-162.793	-131.434	0.197	-0.026
-161.779	17.030	0.165	-0.130
-160.764	-13.752	-0.211	0.135
-159.750	-40.752	0.116	-0.060
-158.735	-32.923	0.059	0.033
-157.720	-165.693	0.267	-0.011
-156.706	-200.000	0.017	0.112
-155.691	800.000	0.071	-0.205
-154.677	-59.375	0.166	-0.071
-153.662	-5.165	0.342	-0.233
-152.647	-56.682	-0.202	-0.089
-151.633	15.815	-0.068	0.053
-150.618	-200.000	-0.041	0.349
-149.604	355.581	0.129	-0.255
-148.589	69.505	0.140	0.143
-147.574	522.374	-0.170	-0.395
-146.560	-163.023	0.234	0.011
-145.545	59.569	-0.149	-0.146
-144.531	-200.000	0.009	0.121
-143.516	482.944	-0.062	-0.140
-142.502	37.217	-0.077	-0.068
-141.487	-40.677	0.187	-0.096
-140.472	-51.650	0.096	0.044
-139.458	119.516	0.179	0.220
-138.443	163.651	0.128	0.179
-137.429	-24.724	-0.192	0.113
-136.414	800.000	0.076	0.265
-135.399	-138.431	-0.293	0.032
-134.385	-20.544	-0.268	0.163
-133.370	-94.375	-0.400	-0.109
-132.356	-109.126	-0.120	0.025
-131.341	370.860	-0.063	0.126
-130.326	140.934	-0.168	-0.221
-129.312	73.093	0.102	-0.105
-128.297	-137.258	0.308	0.035
-127.283	800.000	0.078	-0.238
-126.268	392.285	0.065	-0.133
-125.253	-67.965	-0.218	-0.084
-124.239	800.000	0.068	-0.271
-123.224	-123.725	0.387	-0.061
-122.210	-98.072	0.204	0.052
-121.195	800.000	0.146	0.447
