DTS Sentinel unit serial number:	SN413079Multiplexer serial number:	ORYXHardware model number:	OX4-SRSoftware version number:	ORYX F/W v4.00 Oryx Data Collector v3.7.2.0data status	okinstallation	princeton_trtdifferential loss correction	single-endedforward channel	channel 1reverse channel	N/Adate	2019/09/15time	09:06:35forward acquisition time	60.00reverse acquisition time	0.00gamma	496.2192k internal	0.2313k external	0.2313temperature offset calibration	0.9986default loss term (dB/km)	0.3790temperature slope calibration	1.0000multiplexer offset coefficient	1.0000multiplexer slope coefficient	1.0000fibre end	0.00T internal ref (°C)	32.98T ext. ref 1 (°C)	4.97T ext. ref 2 (°C)	30.20length (m)	temperature (°C)	Stokes	anti-Stokes-747.200	9.052	-0.295	0.226
-746.185	99.592	0.119	0.140
-745.171	-200.000	-0.033	0.187
-744.156	93.092	0.079	0.090
-743.142	-167.313	0.149	-0.006
-742.127	-200.000	-0.032	0.336
-741.112	-75.978	-0.297	-0.107
-740.098	-124.094	0.244	0.039
-739.083	-100.521	0.220	-0.055
-738.069	800.000	0.047	0.159
-737.054	279.877	0.224	0.405
-736.039	-155.246	-0.508	-0.034
-735.025	-26.198	0.094	-0.056
-734.010	232.701	0.130	-0.217
-732.996	-200.000	0.046	-0.210
-731.981	287.212	-0.083	-0.152
-730.966	-118.895	-0.371	-0.066
-729.952	-59.576	-0.139	0.060
-728.937	-173.664	0.167	0.005
-727.923	358.220	-0.196	-0.397
-726.908	13.698	-0.267	-0.210
-725.894	7.468	-0.257	-0.195
-724.879	-93.988	-0.180	-0.050
-723.864	-71.232	0.134	-0.051
-722.850	6.243	0.179	0.135
-721.835	-200.000	0.050	-0.277
-720.821	-129.760	-0.255	-0.035
-719.806	-200.000	0.003	-0.348
-718.791	-142.886	0.263	-0.026
-717.777	800.000	-0.059	0.219
-716.762	-61.707	-0.372	-0.158
-715.748	-200.000	-0.044	-0.333
-714.733	-200.000	0.010	-0.255
-713.718	8.442	-0.062	-0.047
-712.704	685.252	0.144	-0.381
-711.689	81.461	-0.229	-0.251
-710.675	-97.135	0.158	0.042
-709.660	-38.715	0.186	0.100
-708.645	-78.664	0.253	-0.087
-707.631	-147.721	-0.390	-0.033
-706.616	800.000	-0.051	-0.191
-705.602	-164.801	-0.418	0.019
-704.587	310.888	-0.204	-0.387
-703.572	377.442	-0.013	-0.028
-702.558	52.530	0.006	0.005
-701.543	-88.636	0.300	0.090
-700.529	-200.000	-0.006	0.404
-699.514	91.593	-0.070	-0.079
-698.499	218.936	0.013	0.020
-697.485	-200.000	-0.007	-0.088
-696.470	82.678	-0.166	-0.182
-695.456	-65.885	0.263	-0.106
-694.441	-51.393	0.342	0.162
-693.426	-136.200	-0.304	-0.036
-692.412	-97.017	0.414	-0.110
-691.397	-200.000	-0.013	-0.067
-690.383	800.000	-0.102	-0.284
-689.368	4.378	0.217	0.161
-688.354	180.324	0.052	0.077
-687.339	486.520	-0.089	0.204
-686.324	-105.073	0.099	0.023
-685.310	-66.375	-0.135	-0.054
-684.295	-200.000	0.035	-0.208
-683.281	248.297	-0.216	-0.369
-682.266	-200.000	0.026	0.222
-681.251	-113.640	-0.017	0.003
-680.237	463.832	-0.069	0.155
-679.222	-200.000	0.027	0.227
-678.208	798.868	0.150	0.420
-677.193	-26.361	-0.268	0.159
-676.178	-200.000	0.071	0.344
-675.164	99.068	-0.090	0.105
-674.149	-200.000	0.028	0.144
-673.135	-200.000	0.027	0.142
-672.120	122.422	-0.087	0.110
-671.105	-65.524	-0.031	-0.013
-670.091	85.575	0.278	-0.309
-669.076	316.436	0.156	-0.299
-668.062	167.408	0.262	-0.376
-667.047	150.375	-0.183	-0.251
-666.032	87.577	-0.075	-0.084
-665.018	239.407	0.034	-0.058
-664.003	77.053	-0.139	0.149
-662.989	160.498	-0.209	-0.294
-661.974	-5.105	-0.184	0.128
-660.959	-7.718	0.287	0.196
-659.945	10.444	-0.228	0.176
-658.930	-7.413	0.063	0.043
-657.916	-133.814	0.202	-0.025
-656.901	-43.538	-0.202	-0.103
-655.886	-23.706	0.239	0.145
-654.872	-68.717	0.147	-0.058
-653.857	402.648	-0.157	0.333
-652.843	19.485	-0.131	-0.106
-651.828	77.885	0.136	0.147
-650.814	-51.860	0.323	-0.152
-649.799	-200.000	-0.034	-0.371
-648.784	202.025	0.218	-0.339
-647.770	-101.096	0.242	-0.060
-646.755	40.742	-0.218	0.198
-645.741	561.776	-0.056	0.136
-644.726	-103.624	0.191	0.045
-643.711	-72.059	-0.274	0.103
-642.697	20.699	0.113	-0.092
-641.682	368.478	0.184	-0.375
-640.668	-49.137	-0.067	0.033
-639.653	-104.527	-0.133	-0.031
-638.638	-200.000	-0.341	0.000
-637.624	655.802	0.082	-0.212
-636.609	-90.015	0.297	0.087
-635.595	-70.653	0.135	0.052
-634.580	800.000	-0.016	0.048
-633.565	12.018	-0.224	-0.174
-632.551	-108.015	0.202	-0.044
-631.536	227.313	-0.050	0.082
-630.522	-20.869	0.100	-0.062
-629.507	31.218	-0.124	-0.108
-628.492	-24.519	0.331	-0.199
-627.478	49.802	-0.033	-0.031
-626.463	99.981	-0.257	-0.300
-625.449	-24.325	0.221	0.133
-624.434	332.288	0.134	0.261
-623.419	8.182	-0.217	-0.165
-622.405	-200.000	0.067	-0.392
-621.390	-131.898	0.269	0.036
-620.376	-58.473	-0.133	-0.058
-619.361	137.233	-0.105	0.138
-618.346	-136.114	0.107	-0.013
-617.332	-200.000	-0.013	-0.251
-616.317	-200.000	0.015	-0.232
-615.303	-200.000	-0.020	-0.092
-614.288	800.000	0.010	-0.031
-613.273	82.125	-0.178	0.195
-612.259	54.501	-0.077	-0.075
-611.244	-37.471	0.177	-0.095
-610.230	-13.476	-0.229	-0.150
-609.215	-200.000	-0.005	-0.073
-608.201	-200.000	-0.011	0.082
-607.186	20.135	0.299	-0.243
-606.171	-42.810	-0.098	-0.050
-605.157	149.946	0.054	0.074
-604.142	5.507	0.434	-0.323
-603.128	239.212	-0.091	-0.153
-602.113	70.191	0.102	0.106
-601.098	66.730	0.072	-0.074
-600.084	0.441	-0.194	-0.139
-599.069	-44.708	-0.246	-0.124
-598.055	-59.993	-0.298	0.128
-597.040	18.735	-0.123	0.099
-596.025	6.095	-0.289	0.216
-595.011	100.562	-0.190	-0.222
-593.996	-200.000	-0.044	0.200
-592.982	-94.174	-0.143	-0.039
-591.967	11.996	-0.149	0.115
-590.952	706.205	0.177	0.471
-589.938	207.908	0.113	-0.178
-588.923	-120.626	-0.124	-0.021
-587.909	30.519	0.428	-0.369
-586.894	-48.527	-0.146	-0.071
-585.879	95.874	0.165	0.190
-584.865	-108.846	0.368	0.079
-583.850	-2.832	-0.073	0.051
-582.836	-17.217	-0.201	-0.128
-581.821	-107.496	0.063	0.014
-580.806	5.661	-0.257	-0.191
-579.792	-148.208	0.134	-0.011
-578.777	-13.241	-0.021	0.014
-577.763	-20.529	0.029	0.018
-576.748	-5.067	0.378	-0.262
-575.733	224.685	-0.066	-0.108
-574.719	-200.000	-0.008	-0.252
-573.704	-200.000	-0.028	0.154
-572.690	77.098	-0.102	0.109
-571.675	105.607	-0.210	-0.250
-570.661	-50.858	-0.125	0.059
-569.646	-64.988	0.377	0.153
-568.631	583.289	-0.023	0.056
-567.617	-131.174	-0.176	-0.024
-566.602	-200.000	-0.003	0.093
-565.588	-104.787	0.155	0.036
-564.573	-200.000	0.021	-0.365
-563.558	-88.499	0.047	0.014
-562.544	-85.115	-0.100	0.031
-561.529	-137.665	-0.176	-0.020
-560.515	413.119	0.093	-0.199
-559.500	47.407	0.432	-0.405
-558.485	800.000	-0.043	-0.154
-557.471	800.000	0.149	-0.417
-556.456	-141.107	-0.395	0.041
-555.442	800.000	0.022	0.086
-554.427	-200.000	-0.032	0.284
-553.412	-141.445	0.087	0.009
-552.398	19.893	-0.203	-0.165
-551.383	-200.000	-0.311	-0.000
-550.369	-200.000	-0.035	0.160
-549.354	145.273	0.106	0.143
-548.339	298.237	0.099	0.183
-547.325	198.735	-0.102	-0.157
-546.310	136.462	-0.148	0.194
-545.296	66.249	-0.316	0.323
-544.281	296.375	-0.145	-0.267
-543.266	2.383	0.349	-0.254
-542.252	-133.690	-0.277	-0.035
-541.237	347.666	-0.182	-0.361
-540.223	48.526	-0.136	-0.129
-539.208	42.755	-0.043	-0.040
-538.193	800.000	0.058	0.161
-537.179	-140.974	0.104	-0.011
-536.164	-4.792	0.131	0.091
-535.150	85.201	0.170	0.187
-534.135	730.278	-0.038	-0.102
-533.121	651.838	0.104	-0.267
-532.106	38.600	-0.226	-0.203
-531.091	40.592	-0.051	0.046
-530.077	-39.562	-0.226	-0.119
-529.062	-9.639	0.271	-0.181
-528.048	-163.562	-0.056	0.003
-527.033	280.194	-0.172	-0.309
-526.018	800.000	0.066	-0.227
-525.004	-75.393	0.227	-0.081
-523.989	621.394	-0.004	0.010
-522.975	-163.952	-0.374	-0.018
-521.960	0.043	0.346	0.248
-520.945	601.337	0.094	0.235
-519.931	800.000	0.035	-0.131
-518.916	-81.078	0.106	-0.035
-517.902	-139.559	0.275	0.030
-516.887	124.371	0.310	-0.391
-515.872	477.400	-0.122	0.277
-514.858	-157.059	0.065	-0.004
-513.843	19.448	-0.211	0.170
-512.829	-200.000	-0.010	0.146
-511.814	299.842	0.093	0.172
-510.799	-79.624	-0.241	0.082
-509.785	-200.000	0.073	0.358
-508.770	800.000	-0.152	0.525
-507.756	1.868	0.098	0.071
-506.741	79.730	0.091	0.098
-505.726	580.226	0.047	0.115
-504.712	469.602	-0.109	0.247
-503.697	-117.957	0.445	0.080
-502.683	140.643	-0.172	-0.229
-501.668	223.668	-0.234	-0.379
-500.653	-200.000	-0.008	-0.131
-499.639	-35.361	0.209	0.114
-498.624	-106.038	0.115	-0.026
-497.610	-60.592	-0.205	-0.087
-496.595	800.000	0.081	-0.242
-495.581	-200.000	0.001	0.021
-494.566	800.000	-0.083	-0.261
-493.551	185.120	0.097	0.144
-492.537	-200.000	0.004	-0.128
-491.522	-70.158	-0.379	0.145
-490.508	44.361	0.294	0.271
-489.493	-200.000	0.013	0.140
-488.478	-76.972	0.233	0.082
-487.464	-66.781	0.238	-0.095
-486.449	-118.028	-0.121	-0.022
-485.435	688.237	-0.082	0.216
-484.420	800.000	0.061	-0.216
-483.405	330.273	-0.164	0.317
-482.391	367.900	-0.164	-0.334
-481.376	800.000	-0.021	-0.090
-480.362	49.316	-0.062	0.059
-479.347	-115.150	0.107	0.020
-478.332	99.815	-0.153	-0.178
-477.318	800.000	0.077	0.229
-476.303	104.334	0.042	0.050
-475.289	-106.463	0.445	0.100
-474.274	-200.000	0.059	0.394
-473.259	-46.967	-0.179	-0.088
-472.245	-120.904	-0.152	-0.026
-471.230	-169.437	-0.283	0.010
-470.216	-200.000	0.029	0.409
-469.201	800.000	-0.022	0.061
-468.186	20.223	0.073	-0.059
-467.172	197.648	0.058	-0.089
-466.157	-200.000	0.013	0.156
-465.143	71.941	0.146	0.152
-464.128	-145.163	-0.086	-0.008
-463.113	155.534	0.090	0.124
-462.099	-156.603	0.380	0.024
-461.084	560.947	0.078	-0.189
-460.070	-6.571	0.306	0.209
-459.055	39.976	-0.215	-0.194
-458.040	-97.726	0.279	-0.072
-457.026	523.509	0.060	-0.143
-456.011	97.980	-0.032	0.037
-454.997	-200.000	0.006	0.168
-453.982	-142.326	-0.293	-0.029
-452.968	412.618	-0.078	0.166
-451.953	76.731	-0.085	0.091
-450.938	163.856	0.139	-0.196
-449.924	212.290	0.126	-0.200
-448.909	38.443	0.430	-0.384
-447.895	800.000	-0.091	-0.258
-446.880	-80.421	0.025	-0.008
-445.865	5.548	-0.131	-0.097
-444.851	39.728	0.258	0.232
-443.836	-161.424	-0.158	-0.008
-442.822	-111.191	0.119	-0.025
-441.807	41.061	0.081	0.073
-440.792	800.000	0.075	0.230
-439.778	-190.651	0.041	0.000
-438.763	-103.163	-0.222	-0.053
-437.749	-63.583	0.146	-0.060
-436.734	-144.892	-0.379	0.035
-435.719	112.639	0.050	0.061
-434.705	-74.101	-0.217	0.079
-433.690	104.018	-0.189	-0.223
-432.676	800.000	0.049	0.187
-431.661	-95.061	0.221	-0.060
-430.646	-200.000	-0.024	0.247
-429.632	-78.197	0.263	0.090
-428.617	406.738	0.093	0.197
-427.603	0.838	-0.253	0.181
-426.588	-66.704	0.168	-0.067
-425.573	-9.369	0.331	0.221
-424.559	206.368	-0.181	0.282
-423.544	-181.567	-0.115	-0.002
-422.530	800.000	-0.082	0.260
-421.515	800.000	-0.044	-0.125
-420.500	778.767	0.073	-0.200
-419.486	-200.000	-0.004	-0.120
-418.471	-31.062	0.177	0.100
-417.457	315.568	0.034	0.064
-416.442	-2.148	0.343	0.241
-415.428	160.095	-0.104	0.145
-414.413	-200.000	0.004	-0.027
-413.398	227.107	-0.148	-0.240
-412.384	296.042	0.158	-0.291
-411.369	-99.761	0.074	-0.019
-410.355	50.600	0.096	-0.091
-409.340	-200.000	-0.077	-0.349
-408.325	-132.658	0.305	-0.039
-407.311	-94.375	-0.207	-0.057
-406.296	-150.036	0.238	-0.019
-405.282	403.729	0.062	-0.131
-404.267	-200.000	-0.071	0.318
-403.252	-200.000	-0.045	0.361
-402.238	-28.660	0.100	0.058
-401.223	127.056	0.259	-0.329
-400.209	355.020	-0.065	-0.129
-399.194	41.327	-0.060	-0.054
-398.179	-186.124	-0.406	-0.006
-397.165	-200.000	-0.053	-0.359
-396.150	208.116	-0.060	-0.093
-395.136	83.732	0.046	0.050
-394.121	-137.569	-0.167	-0.019
-393.106	62.809	-0.127	0.127
-392.092	-200.000	0.001	-0.071
-391.077	307.972	0.156	0.292
-390.063	391.732	-0.045	0.094
-389.048	114.950	-0.091	0.111
-388.033	800.000	-0.037	0.156
-387.019	-131.566	0.387	-0.051
-386.004	-50.161	-0.281	-0.133
-384.990	-122.596	-0.243	-0.040
-383.975	-30.182	0.154	0.087
-382.960	-130.918	0.292	0.039
-381.946	-200.000	0.012	0.144
-380.931	-200.000	-0.030	0.175
-379.917	-105.356	0.117	-0.027
-378.902	132.966	0.109	-0.141
-377.888	800.000	0.080	0.241
-376.873	800.000	-0.083	0.279
-375.858	59.270	0.099	-0.097
-374.844	-200.000	-0.059	-0.353
-373.829	7.998	-0.355	-0.266
-372.815	-134.497	0.540	0.066
-371.800	105.422	0.120	0.141
-370.785	-200.000	0.065	-0.337
-369.771	26.252	-0.328	0.274
-368.756	-68.500	0.304	0.118
-367.742	487.244	-0.107	0.245
-366.727	-200.000	0.028	0.169
-365.712	107.593	-0.128	0.152
-364.698	117.814	-0.287	0.353
-363.683	-18.133	0.183	0.115
-362.669	333.096	0.158	0.304
-361.654	-200.000	-0.002	-0.155
-360.639	800.000	-0.040	0.126
-359.625	-97.094	0.285	0.075
-358.610	1.405	-0.367	-0.264
-357.596	-178.478	0.090	-0.002
-356.581	-21.996	0.018	0.011
-355.566	126.426	-0.075	0.095
-354.552	-85.313	-0.026	0.008
-353.537	280.434	0.097	0.173
-352.523	800.000	-0.082	0.332
-351.508	-169.676	-0.197	0.007
-350.493	-71.605	-0.194	0.072
-349.479	183.108	0.196	0.289
-348.464	-200.000	0.022	0.211
-347.450	490.436	-0.129	0.295
-346.435	-46.832	-0.207	0.101
-345.420	-13.739	0.152	0.098
-344.406	32.974	-0.286	0.248
-343.391	18.085	-0.142	0.113
-342.377	-136.326	0.234	-0.027
-341.362	800.000	-0.027	-0.093
-340.348	-17.576	0.174	-0.109
-339.333	359.572	-0.102	-0.203
-338.318	-32.579	-0.428	-0.238
-337.304	800.000	0.080	0.329
-336.289	58.838	-0.339	0.333
-335.275	430.090	-0.094	-0.202
-334.260	-95.415	-0.317	0.085
-333.245	208.989	0.113	-0.177
-332.231	-84.151	0.339	-0.107
-331.216	800.000	0.083	0.295
-330.202	800.000	-0.088	-0.295
-329.187	-200.000	-0.056	-0.258
-328.172	-35.105	-0.285	-0.155
-327.158	605.623	-0.023	-0.058
-326.143	-200.000	0.031	0.198
-325.129	-79.359	0.290	0.098
-324.114	201.881	-0.164	0.252
-323.099	-129.573	-0.032	0.004
-322.085	267.693	-0.096	0.167
-321.070	712.573	-0.073	-0.194
-320.056	325.130	-0.091	-0.173
-319.041	18.461	0.145	-0.116
-318.026	191.572	0.130	0.196
-317.012	-113.940	-0.453	-0.088
-315.997	-99.287	0.284	0.072
-314.983	-200.000	-0.041	-0.254
-313.968	-69.585	0.140	0.054
-312.953	-200.000	-0.019	0.136
-311.939	-185.747	0.199	0.003
-310.924	-25.075	0.124	-0.073
-309.910	-22.093	-0.207	-0.125
-308.895	349.728	0.125	-0.246
-307.880	-7.744	0.230	0.155
-306.866	48.535	-0.074	0.069
-305.851	-100.982	-0.184	0.045
-304.837	47.176	0.258	-0.240
-303.822	-57.324	0.114	0.050
-302.807	271.720	-0.116	0.203
-301.793	278.498	0.142	0.253
-300.778	518.864	-0.082	0.191
-299.764	252.824	-0.141	0.240
-298.749	146.566	0.135	0.181
-297.735	12.572	0.130	-0.100
-296.720	-125.276	0.168	0.026
-295.705	-200.000	0.021	0.187
-294.691	1.007	-0.182	-0.130
-293.676	-23.198	-0.175	-0.105
-292.662	-72.062	0.152	0.056
-291.647	-62.954	0.122	-0.050
-290.632	105.607	-0.147	-0.173
-289.618	-200.000	0.021	0.359
-288.603	-200.000	0.013	-0.155
-287.589	800.000	0.098	-0.314
-286.574	519.809	-0.223	0.521
-285.559	42.773	-0.135	0.123
-284.545	-96.297	-0.323	0.085
-283.530	-200.000	-0.020	-0.535
-282.516	-78.061	0.188	-0.065
-281.501	61.530	-0.103	0.102
-280.486	104.716	-0.135	-0.158
-279.472	-103.556	-0.093	-0.022
-278.457	-200.000	0.036	-0.177
-277.443	6.166	-0.138	0.102
-276.428	157.442	0.079	-0.109
-275.413	-98.183	-0.237	-0.061
-274.399	-147.276	0.116	-0.010
-273.384	33.703	0.074	0.064
-272.370	-74.701	-0.182	-0.065
-271.355	-200.000	-0.025	0.291
-270.340	-141.689	-0.347	-0.035
-269.326	-137.752	-0.412	0.046
-268.311	800.000	0.064	-0.273
-267.297	-200.000	-0.045	0.340
-266.282	-142.432	0.243	-0.024
-265.267	42.433	-0.201	-0.182
-264.253	123.150	0.122	-0.152
-263.238	16.139	-0.439	0.345
-262.224	-75.607	0.254	-0.090
-261.209	-134.023	-0.146	-0.018
-260.195	98.805	-0.072	-0.083
-259.180	-160.541	-0.240	-0.013
-258.165	-200.000	-0.028	-0.171
-257.151	-134.683	0.112	-0.014
-256.136	399.800	0.117	-0.244
-255.122	-66.184	-0.265	0.105
-254.107	-200.000	-0.036	0.292
-253.092	141.243	-0.161	-0.212
-252.078	-200.000	0.001	0.102
-251.063	800.000	-0.035	0.125
-250.049	-147.675	0.064	0.005
-249.034	-107.999	0.112	0.024
-248.019	240.979	0.072	-0.120
-247.005	411.035	0.046	-0.096
-245.990	-106.580	0.344	-0.076
-244.976	-200.000	0.006	0.133
-243.961	-59.472	-0.117	-0.050
-242.946	-110.678	-0.171	0.035
-241.932	145.540	-0.320	-0.426
-240.917	450.773	0.107	0.235
-239.903	69.326	0.127	-0.130
-238.888	-200.000	-0.023	-0.307
-237.873	-52.782	0.357	0.164
-236.859	21.272	-0.112	0.091
-235.844	-200.000	0.002	-0.324
-234.830	-200.000	-0.031	0.470
-233.815	-93.777	-0.120	-0.033
-232.800	-9.710	0.013	-0.009
-231.786	705.399	0.169	0.444
-230.771	-113.313	0.086	-0.017
-229.757	-200.000	-0.001	-0.264
-228.742	-32.657	-0.321	-0.177
-227.727	-41.391	-0.178	-0.091
-226.713	-136.604	0.120	0.014
-225.698	398.100	-0.106	0.221
-224.684	23.212	0.230	-0.188
-223.669	-78.981	-0.253	-0.086
-222.655	-200.000	0.008	-0.080
-221.640	800.000	0.068	-0.246
-220.625	59.617	0.183	0.179
-219.611	59.131	0.216	0.211
-218.596	194.564	-0.109	-0.164
-217.582	-148.960	0.160	0.013
-216.567	-183.633	0.236	-0.004
-215.552	173.753	0.103	0.148
-214.538	-200.000	0.019	-0.186
-213.523	-79.447	0.286	-0.096
-212.509	-200.000	-0.011	0.087
-211.494	-200.000	0.041	0.261
-210.479	-74.236	0.160	-0.057
-209.465	-5.314	-0.316	-0.216
-208.450	213.081	0.107	0.167
-207.436	-180.077	0.071	0.001
-206.421	129.363	0.122	-0.155
-205.406	-106.707	0.205	-0.045
-204.392	-99.499	0.272	0.068
-203.377	-6.983	0.029	0.019
-202.363	129.587	0.214	-0.272
-201.348	-152.584	-0.508	-0.036
-200.333	73.968	-0.145	-0.151
-199.319	-110.872	0.107	0.022
-198.304	-109.497	0.313	0.066
-197.290	-16.991	0.135	-0.085
-196.275	192.717	-0.179	-0.269
-195.260	-200.000	-0.008	-0.124
-194.246	106.823	0.046	0.054
-193.231	50.253	-0.237	-0.222
-192.217	360.858	-0.060	0.119
-191.202	86.400	-0.061	-0.066
-190.187	-112.258	-0.375	0.075
-189.173	74.456	-0.211	-0.220
-188.158	-139.950	0.162	0.017
-187.144	111.056	-0.166	0.199
-186.129	-200.000	0.007	0.393
-185.114	800.000	-0.058	0.215
-184.100	19.586	0.503	0.401
-183.085	-118.112	-0.233	-0.041
-182.071	-7.871	0.216	-0.145
-181.056	-8.718	0.250	0.166
-180.042	30.393	-0.045	0.038
-179.027	-140.928	0.391	-0.040
-178.012	800.000	0.096	-0.343
-176.998	228.428	-0.155	0.250
-175.983	-200.000	-0.007	0.216
-174.969	800.000	-0.100	0.376
-173.954	-109.408	-0.324	0.068
-172.939	-67.204	-0.245	0.096
-171.925	116.106	-0.090	0.109
-170.910	-114.924	0.142	-0.027
-169.896	78.024	-0.125	0.133
-168.881	519.688	0.213	-0.494
-167.866	-200.000	0.019	-0.106
-166.852	474.289	0.146	0.328
-165.837	29.071	0.245	0.206
-164.823	-47.103	-0.135	-0.065
-163.808	-122.574	-0.377	-0.061
-162.793	-182.838	0.233	-0.004
-161.779	-200.000	-0.036	-0.336
-160.764	731.847	-0.027	-0.072
-159.750	-169.154	0.154	-0.006
-158.735	244.155	0.087	0.145
-157.720	-181.470	-0.291	-0.006
-156.706	-94.983	-0.373	0.100
-155.691	-200.000	-0.020	-0.104
-154.677	-74.010	0.163	-0.059
-153.662	3.343	-0.123	-0.089
-152.647	-8.009	0.339	-0.226
-151.633	800.000	-0.082	0.270
-150.618	-110.658	0.122	0.025
-149.604	-73.686	0.401	0.145
-148.589	-106.583	0.156	0.034
-147.574	111.920	0.042	0.050
-146.560	-109.541	0.142	-0.030
-145.545	2.840	-0.150	-0.108
-144.531	-200.000	0.038	0.259
-143.516	800.000	-0.045	0.186
-142.502	-112.175	-0.109	-0.022
-141.487	-120.348	0.258	0.044
-140.472	-105.808	0.319	0.071
-139.458	12.252	-0.274	0.209
-138.443	47.549	0.092	0.085
-137.429	95.857	0.134	-0.152
-136.414	800.000	0.034	0.143
-135.399	293.867	-0.107	-0.193
-134.385	800.000	-0.102	-0.292
-133.370	-62.873	0.198	-0.081
-132.356	-27.830	-0.213	0.122
-131.341	181.868	-0.139	0.203
-130.326	143.760	0.169	-0.222
-129.312	151.674	0.033	-0.045
-128.297	-122.499	-0.090	0.014
-127.283	48.646	0.121	0.112
-126.268	31.288	-0.214	-0.182
-125.253	-37.794	-0.233	-0.123
-124.239	-200.000	-0.024	-0.216
-123.224	475.620	-0.106	0.237
-122.210	48.163	0.097	-0.089
-121.195	-88.107	0.474	-0.141
