DTS Sentinel unit serial number:	SN413079Multiplexer serial number:	ORYXHardware model number:	OX4-SRSoftware version number:	ORYX F/W v4.00 Oryx Data Collector v3.7.2.0data status	okinstallation	princeton_trtdifferential loss correction	single-endedforward channel	channel 1reverse channel	N/Adate	2019/09/12time	11:08:11forward acquisition time	60.00reverse acquisition time	0.00gamma	496.2192k internal	0.2296k external	0.2296temperature offset calibration	1.0048default loss term (dB/km)	0.3790temperature slope calibration	1.0000multiplexer offset coefficient	1.0000multiplexer slope coefficient	1.0000fibre end	0.00T internal ref (°C)	38.69T ext. ref 1 (°C)	1.94T ext. ref 2 (°C)	35.55length (m)	temperature (°C)	Stokes	anti-Stokes-747.200	2.947	0.012	-0.009
-746.185	-23.311	0.119	-0.073
-745.171	373.599	-0.103	0.214
-744.156	13.098	0.123	0.097
-743.142	132.972	-0.177	-0.234
-742.127	39.041	-0.236	0.216
-741.112	800.000	0.075	-0.263
-740.098	-4.681	-0.242	0.171
-739.083	89.153	-0.154	0.175
-738.069	-116.635	-0.129	-0.024
-737.054	800.000	-0.059	-0.256
-736.039	-105.765	-0.196	-0.045
-735.025	-200.000	0.028	-0.208
-734.010	-26.742	0.022	-0.013
-732.996	-200.000	0.028	0.182
-731.981	250.245	0.151	0.262
-730.966	-154.795	-0.193	-0.013
-729.952	-200.000	0.025	-0.276
-728.937	-155.504	0.293	-0.019
-727.923	-200.000	0.001	-0.317
-726.908	-16.912	0.205	0.132
-725.894	-24.985	-0.117	-0.071
-724.879	348.932	-0.098	-0.197
-723.864	-43.465	-0.044	-0.023
-722.850	-22.510	0.212	0.131
-721.835	111.402	0.077	-0.095
-720.821	-3.142	0.193	-0.137
-719.806	-200.000	-0.034	0.156
-718.791	-76.496	-0.284	-0.102
-717.777	660.483	0.095	-0.249
-716.762	-200.000	-0.127	0.001
-715.748	-156.985	-0.322	0.020
-714.733	-200.000	0.017	-0.292
-713.718	187.219	-0.321	-0.488
-712.704	-200.000	-0.009	-0.204
-711.689	-112.537	0.054	0.011
-710.675	-118.479	0.313	-0.057
-709.660	-51.418	-0.260	-0.124
-708.645	564.286	-0.024	-0.059
-707.631	-200.000	-0.053	-0.269
-706.616	10.006	-0.186	0.144
-705.602	-125.294	-0.119	0.018
-704.587	-26.114	-0.190	0.114
-703.572	-114.154	0.334	0.066
-702.558	41.479	0.296	-0.274
-701.543	-84.905	-0.318	-0.102
-700.529	-139.061	0.084	0.009
-699.514	106.369	-0.141	-0.171
-698.499	-80.606	-0.063	0.021
-697.485	458.285	-0.185	-0.419
-696.470	729.285	-0.088	-0.240
-695.456	353.851	0.054	-0.109
-694.441	144.578	0.239	-0.326
-693.426	145.904	0.162	-0.222
-692.412	551.923	0.023	0.057
-691.397	-1.365	-0.100	-0.072
-690.383	-143.072	0.300	0.029
-689.368	-145.213	-0.304	0.028
-688.354	228.367	0.053	0.089
-687.339	800.000	0.091	-0.326
-686.324	800.000	-0.056	-0.249
-685.310	127.858	-0.188	-0.244
-684.295	-37.467	-0.416	-0.226
-683.281	800.000	0.081	0.318
-682.266	-200.000	-0.020	0.282
-681.251	24.704	0.090	0.076
-680.237	-46.608	-0.273	-0.137
-679.222	2.904	0.139	-0.103
-678.208	-200.000	0.028	0.128
-677.193	74.609	-0.122	0.131
-676.178	12.275	0.373	-0.293
-675.164	626.720	0.107	-0.275
-674.149	-53.507	-0.148	-0.069
-673.135	70.930	-0.115	0.122
-672.120	-178.360	0.144	-0.003
-671.105	80.392	-0.153	0.168
-670.091	37.843	-0.448	0.405
-669.076	149.856	-0.121	0.167
-668.062	9.074	0.202	-0.155
-667.047	-62.199	-0.079	-0.034
-666.032	-1.163	0.105	0.075
-665.018	68.397	-0.078	0.082
-664.003	-115.096	-0.543	0.105
-662.989	260.094	0.075	-0.133
-661.974	-67.981	-0.228	0.090
-660.959	142.516	-0.022	0.029
-659.945	-200.000	-0.018	0.158
-658.930	59.053	0.151	0.151
-657.916	57.261	0.036	0.035
-656.901	-105.373	0.309	-0.072
-655.886	-200.000	-0.053	0.265
-654.872	24.196	-0.160	0.135
-653.857	-200.000	-0.017	0.166
-652.843	148.596	-0.062	0.086
-651.828	-200.000	-0.022	-0.184
-650.814	-20.196	0.153	-0.096
-649.799	-200.000	-0.008	0.109
-648.784	145.059	-0.055	0.074
-647.770	-200.000	-0.016	0.490
-646.755	-52.103	-0.133	0.063
-645.741	-99.388	0.388	-0.100
-644.726	391.437	0.079	0.166
-643.711	136.583	-0.133	-0.177
-642.697	507.845	-0.154	-0.364
-641.682	78.411	-0.128	0.139
-640.668	66.464	-0.276	-0.285
-639.653	-200.000	0.004	-0.124
-638.638	-194.565	0.103	0.001
-637.624	29.562	0.085	-0.074
-636.609	-49.588	0.040	0.019
-635.595	-200.000	-0.034	0.214
-634.580	-200.000	0.004	-0.036
-633.565	-200.000	-0.025	0.185
-632.551	-36.072	0.212	-0.117
-631.536	1.275	-0.094	0.068
-630.522	-34.126	-0.083	0.046
-629.507	185.216	-0.140	-0.211
-628.492	800.000	0.029	-0.096
-627.478	-40.940	0.374	-0.197
-626.463	359.555	-0.125	0.254
-625.449	41.704	0.157	-0.145
-624.434	-6.200	0.120	0.083
-623.419	50.896	-0.105	0.101
-622.405	-11.208	-0.284	-0.190
-621.390	30.934	-0.214	0.187
-620.376	538.397	-0.093	-0.224
-619.361	-50.325	-0.059	-0.028
-618.346	134.529	-0.305	-0.403
-617.332	800.000	0.057	-0.184
-616.317	-61.771	0.121	-0.052
-615.303	99.819	0.268	0.315
-614.288	-144.891	-0.054	0.005
-613.273	262.746	0.130	-0.229
-612.259	-64.715	0.233	0.096
-611.244	-200.000	0.002	0.085
-610.230	67.741	-0.161	0.168
-609.215	-35.608	-0.096	-0.053
-608.201	6.141	0.198	-0.149
-607.186	591.216	0.040	-0.101
-606.171	-200.000	0.022	0.415
-605.157	63.812	0.061	-0.063
-604.142	79.306	-0.123	0.134
-603.128	-109.225	0.073	0.016
-602.113	-86.253	-0.139	-0.044
-601.098	254.012	0.071	-0.123
-600.084	-200.000	0.016	-0.139
-599.069	620.947	-0.134	-0.344
-598.055	-200.000	0.018	0.167
-597.040	-20.137	-0.130	-0.081
-596.025	-200.000	-0.094	-0.556
-595.011	-200.000	0.015	0.116
-593.996	-68.439	0.289	-0.114
-592.982	-200.000	0.031	0.491
-591.967	-200.000	0.046	0.292
-590.952	-134.263	-0.257	-0.032
-589.938	0.271	0.132	0.095
-588.923	-13.885	0.054	-0.036
-587.909	-200.000	0.044	-0.200
-586.894	-71.728	0.267	-0.101
-585.879	118.796	-0.233	0.293
-584.865	67.147	-0.132	0.136
-583.850	-57.618	-0.136	-0.060
-582.836	-130.397	0.091	-0.012
-581.821	-57.812	0.143	-0.064
-580.806	-56.321	-0.087	-0.039
-579.792	-76.606	0.256	-0.091
-578.777	299.204	0.076	0.142
-577.763	-14.950	0.064	0.042
-576.748	92.175	0.119	-0.136
-575.733	800.000	-0.038	-0.121
-574.719	22.846	-0.247	-0.205
-573.704	-200.000	-0.024	-0.270
-572.690	800.000	-0.032	-0.127
-571.675	143.361	0.166	-0.225
-570.661	9.787	0.034	0.027
-569.646	-200.000	-0.079	0.361
-568.631	33.870	0.191	0.169
-567.617	-200.000	-0.044	0.353
-566.602	292.391	0.181	0.334
-565.588	-34.382	-0.127	0.071
-564.573	22.991	0.237	0.198
-563.558	-143.684	-0.227	-0.022
-562.544	-54.385	0.395	0.182
-561.529	126.480	-0.130	0.166
-560.515	-86.033	-0.182	-0.057
-559.500	722.135	0.155	-0.418
-558.485	-96.079	-0.071	0.019
-557.471	509.981	0.152	0.357
-556.456	-17.984	0.084	-0.053
-555.442	-94.997	-0.126	-0.034
-554.427	-121.802	-0.177	0.030
-553.412	-154.635	-0.227	-0.015
-552.398	-129.359	0.245	0.035
-551.383	-200.000	0.014	0.073
-550.369	-91.692	-0.066	-0.019
-549.354	-200.000	-0.021	-0.127
-548.339	42.149	0.167	-0.154
-547.325	-49.021	0.099	0.048
-546.310	-200.000	-0.055	-0.273
-545.296	240.644	0.050	0.084
-544.281	-4.584	-0.237	0.166
-543.266	13.074	0.072	0.057
-542.252	-94.374	0.267	-0.074
-541.237	-14.897	-0.083	-0.054
-540.223	6.850	0.200	-0.151
-539.208	127.297	-0.207	-0.266
-538.193	4.836	0.028	0.021
-537.179	-200.000	-0.009	0.323
-536.164	800.000	-0.059	0.183
-535.150	-51.430	0.060	0.029
-534.135	424.018	-0.146	0.318
-533.121	-100.282	0.406	-0.102
-532.106	-108.090	0.297	0.065
-531.091	-37.635	-0.072	0.039
-530.077	-114.125	0.374	-0.073
-529.062	337.815	-0.108	-0.213
-528.048	200.360	-0.166	0.258
-527.033	-7.905	0.266	0.182
-526.018	85.334	-0.062	-0.068
-525.004	800.000	0.082	0.269
-523.989	-138.136	-0.474	-0.053
-522.975	-53.351	-0.045	-0.021
-521.960	-93.018	0.120	-0.034
-520.945	-167.422	-0.031	-0.001
-519.931	201.743	0.172	0.269
-518.916	-200.000	-0.080	0.397
-517.902	195.895	0.101	-0.155
-516.887	-76.804	-0.294	-0.104
-515.872	69.536	-0.126	-0.131
-514.858	-200.000	-0.057	-0.347
-513.843	574.211	-0.148	-0.365
-512.829	159.194	-0.163	-0.230
-511.814	-200.000	-0.005	-0.036
-510.799	-42.905	-0.128	-0.066
-509.785	-85.863	-0.246	-0.077
-508.770	313.312	0.141	-0.269
-507.756	-200.000	0.041	-0.227
-506.741	-200.000	-0.038	0.265
-505.726	-129.414	-0.302	-0.042
-504.712	-13.258	-0.239	-0.157
-503.697	515.776	-0.095	0.225
-502.683	-88.209	0.222	-0.067
-501.668	239.047	0.038	0.065
-500.653	162.616	0.082	-0.116
-499.639	-41.779	-0.185	0.096
-498.624	182.586	-0.151	0.225
-497.610	81.360	0.124	0.136
-496.595	-200.000	0.019	0.087
-495.581	-200.000	-0.026	0.286
-494.566	-55.656	-0.040	0.018
-493.551	800.000	-0.118	-0.371
-492.537	231.728	0.099	-0.164
-491.522	-200.000	0.039	-0.223
-490.508	-102.893	-0.200	-0.048
-489.493	800.000	0.061	-0.192
-488.478	-106.240	0.322	0.073
-487.464	-109.832	0.077	0.016
-486.449	-35.269	-0.171	-0.094
-485.435	302.605	0.077	-0.144
-484.420	-200.000	-0.005	-0.049
-483.405	110.110	-0.119	-0.144
-482.391	-98.929	0.076	-0.019
-481.376	-200.000	0.010	-0.188
-480.362	-48.458	-0.063	0.031
-479.347	74.814	-0.067	0.071
-478.332	435.695	0.017	0.038
-477.318	-190.875	0.179	0.002
-476.303	-145.916	-0.281	0.025
-475.289	-0.070	-0.217	-0.156
-474.274	52.783	0.032	-0.031
-473.259	-200.000	0.003	0.017
-472.245	199.874	-0.075	0.116
-471.230	-61.548	-0.253	-0.107
-470.216	41.203	0.105	-0.096
-469.201	-131.971	-0.086	-0.011
-468.186	-200.000	0.031	0.191
-467.172	57.317	-0.084	-0.083
-466.157	492.198	0.111	-0.257
-465.143	285.822	0.184	0.335
-464.128	35.791	-0.177	-0.157
-463.113	-115.527	0.216	0.041
-462.099	-66.207	-0.420	0.169
-461.084	-122.131	0.112	-0.019
-460.070	64.158	-0.142	0.145
-459.055	-200.000	0.093	0.495
-458.040	-200.000	0.063	-0.361
-457.026	141.257	-0.070	0.094
-456.011	434.428	-0.040	0.088
-454.997	-28.306	0.019	-0.011
-453.982	-27.573	0.390	-0.229
-452.968	172.986	-0.047	0.068
-451.953	66.726	-0.033	0.034
-450.938	800.000	-0.056	0.187
-449.924	-15.071	-0.100	-0.065
-448.909	-145.524	-0.383	0.035
-447.895	-15.701	-0.231	0.149
-446.880	-100.433	-0.429	-0.107
-445.865	-37.076	0.276	-0.149
-444.851	46.903	0.181	0.170
-443.836	116.360	-0.180	0.223
-442.822	-111.145	0.161	-0.033
-441.807	-200.000	-0.021	-0.191
-440.792	129.832	-0.171	0.221
-439.778	-130.545	0.121	0.017
-438.763	-59.231	0.160	-0.069
-437.749	-146.270	-0.168	-0.015
-436.734	133.650	-0.161	-0.210
-435.719	-56.978	0.170	-0.076
-434.705	800.000	0.027	-0.077
-433.690	246.250	-0.141	0.239
-432.676	23.850	-0.235	0.196
-431.661	-100.729	0.279	0.070
-430.646	-200.000	0.013	0.165
-429.632	2.473	-0.055	-0.040
-428.617	-174.497	0.575	-0.017
-427.603	48.079	0.131	0.124
-426.588	156.845	-0.077	0.107
-425.573	-81.337	-0.097	-0.032
-424.559	49.050	0.143	0.136
-423.544	411.051	0.124	-0.266
-422.530	257.572	-0.068	0.117
-421.515	-95.614	-0.320	0.086
-420.500	216.112	-0.109	-0.175
-419.486	152.206	0.099	-0.136
-418.471	23.504	0.155	0.128
-417.457	21.037	-0.048	0.039
-416.442	-60.954	0.200	-0.085
-415.428	-200.000	0.007	-0.274
-414.413	-122.250	-0.133	0.022
-413.398	57.727	0.068	-0.067
-412.384	16.750	0.163	0.130
-411.369	-150.558	0.201	0.016
-410.355	-191.272	0.372	0.004
-409.340	48.090	0.366	0.345
-408.325	102.044	0.238	-0.280
-407.311	800.000	-0.056	-0.230
-406.296	-200.000	-0.027	-0.339
-405.282	-40.770	-0.086	0.045
-404.267	402.552	-0.157	-0.333
-403.252	-131.626	-0.151	0.020
-402.238	-185.282	-0.037	0.001
-401.223	800.000	-0.030	0.114
-400.209	-79.055	-0.127	0.044
-399.194	-120.064	0.109	-0.019
-398.179	-67.123	-0.073	-0.029
-397.165	-35.771	0.192	0.105
-396.150	277.838	-0.129	0.231
-395.136	305.556	0.103	0.193
-394.121	-26.282	-0.216	-0.128
-393.106	800.000	0.150	0.491
-392.092	175.223	-0.199	0.291
-391.077	-200.000	0.027	0.158
-390.063	-165.854	0.196	-0.008
-389.048	800.000	0.066	-0.233
-388.033	-91.014	0.178	0.052
-387.019	-43.660	0.163	0.083
-386.004	-106.967	0.148	0.033
-384.990	-71.584	0.113	0.042
-383.975	800.000	-0.061	0.180
-382.960	-99.033	0.082	0.021
-381.946	100.357	0.072	-0.084
-380.931	-72.832	0.138	0.051
-379.917	-56.916	-0.241	-0.107
-378.902	-200.000	0.015	-0.344
-377.888	-200.000	0.030	0.170
-376.873	82.182	0.128	-0.140
-375.858	800.000	0.038	0.152
-374.844	-200.000	0.020	0.171
-373.829	-200.000	-0.024	0.119
-372.815	-58.623	-0.195	0.085
-371.800	-33.460	-0.085	0.047
-370.785	-105.797	-0.357	0.081
-369.771	461.724	0.106	0.239
-368.756	800.000	0.030	-0.095
-367.742	340.273	0.151	0.296
-366.727	-89.899	0.084	-0.025
-365.712	-200.000	-0.012	-0.195
-364.698	140.510	0.124	-0.165
-363.683	-28.361	0.323	0.187
-362.669	-200.000	-0.004	0.022
-361.654	800.000	0.063	0.191
-360.639	693.817	0.084	0.222
-359.625	-200.000	0.026	0.193
-358.610	7.603	0.090	0.068
-357.596	800.000	-0.049	-0.171
-356.581	-57.674	-0.270	-0.119
-355.566	20.906	-0.193	-0.157
-354.552	50.745	-0.065	0.062
-353.537	228.451	-0.109	0.178
-352.523	320.494	-0.109	0.208
-351.508	-177.060	-0.182	0.005
-350.493	487.132	-0.060	0.137
-349.479	116.135	-0.320	-0.394
-348.464	339.128	-0.013	-0.025
-347.450	-200.000	0.008	0.046
-346.435	-64.041	0.177	0.073
-345.420	-112.554	0.113	-0.023
-344.406	800.000	0.104	-0.332
-343.391	-93.551	-0.012	0.003
-342.377	-19.703	0.318	-0.198
-341.362	-5.627	0.220	0.151
-340.348	420.046	0.068	0.146
-339.333	-200.000	0.008	0.570
-338.318	-32.385	-0.369	0.207
-337.304	800.000	0.068	0.215
-336.289	-200.000	-0.009	-0.084
-335.275	-124.220	-0.263	0.041
-334.260	-73.935	0.142	0.052
-333.245	2.377	0.130	0.094
-332.231	122.821	-0.016	0.020
-331.216	-170.896	-0.297	0.010
-330.202	-44.673	-0.051	-0.025
-329.187	-200.000	0.071	-0.417
-328.172	26.062	0.251	-0.210
-327.158	229.671	0.010	0.017
-326.143	-122.705	0.307	0.050
-325.129	-81.143	-0.330	0.110
-324.114	131.167	-0.151	-0.196
-323.099	19.008	0.266	0.214
-322.085	-2.908	-0.197	0.138
-321.070	7.100	-0.240	0.180
-320.056	-97.811	-0.426	0.111
-319.041	-150.711	0.074	-0.006
-318.026	-200.000	-0.001	0.364
-317.012	-200.000	0.001	-0.034
-315.997	242.356	-0.117	0.197
-314.983	-14.178	-0.172	-0.111
-313.968	-152.664	-0.229	0.016
-312.953	800.000	-0.062	-0.242
-311.939	-200.000	-0.012	-0.375
-310.924	-200.000	0.029	0.275
-309.910	122.138	0.179	-0.225
-308.895	662.954	-0.069	0.179
-307.880	140.044	-0.069	-0.091
-306.866	-35.036	0.142	0.078
-305.851	293.413	-0.042	0.077
-304.837	-200.000	0.010	-0.274
-303.822	-17.583	-0.251	0.158
-302.807	28.386	-0.236	0.201
-301.793	-200.000	0.021	0.103
-300.778	187.597	0.051	-0.076
-299.764	800.000	-0.105	0.299
-298.749	-142.381	-0.077	-0.008
-297.735	-102.049	0.220	-0.053
-296.720	-68.269	-0.148	-0.058
-295.705	-28.117	-0.328	-0.190
-294.691	133.909	0.064	0.083
-293.676	73.625	-0.201	0.212
-292.662	225.522	-0.147	0.240
-291.647	-21.322	-0.147	0.090
-290.632	195.101	0.077	-0.117
-289.618	435.866	0.162	-0.353
-288.603	-112.977	-0.422	-0.084
-287.589	-200.000	0.002	-0.247
-286.574	-55.280	-0.161	0.073
-285.559	373.700	0.054	0.111
-284.545	-200.000	-0.021	-0.125
-283.530	463.800	0.066	0.149
-282.516	-200.000	0.015	0.113
-281.501	800.000	0.071	0.237
-280.486	143.607	0.191	-0.255
-279.472	147.726	-0.069	0.093
-278.457	-200.000	-0.003	0.059
-277.443	-103.503	-0.097	0.023
-276.428	800.000	0.040	0.122
-275.413	78.485	0.160	-0.172
-274.399	51.932	0.084	-0.080
-273.384	-200.000	0.031	-0.281
-272.370	-200.000	0.030	-0.276
-271.355	-200.000	0.039	0.230
-270.340	800.000	-0.102	0.344
-269.326	-154.450	-0.107	0.007
-268.311	800.000	-0.045	-0.167
-267.297	-162.702	0.119	0.006
-266.282	65.434	0.238	-0.241
-265.267	423.755	0.094	-0.203
-264.253	25.532	0.237	0.198
-263.238	-200.000	0.003	-0.103
-262.224	110.090	0.116	0.140
-261.209	13.361	-0.208	-0.162
-260.195	733.885	0.025	0.067
-259.180	-147.956	-0.141	-0.012
-258.165	800.000	0.098	-0.286
-257.151	-200.000	0.054	-0.383
-256.136	-200.000	-0.006	-0.309
-255.122	800.000	-0.042	-0.139
-254.107	21.593	-0.162	0.132
-253.092	-159.660	0.453	-0.025
-252.078	598.524	0.051	0.128
-251.063	-88.123	0.172	0.052
-250.049	-60.740	0.315	-0.134
-249.034	135.205	0.156	-0.203
-248.019	1.223	0.100	0.072
-247.005	486.647	0.032	0.074
-245.990	347.456	-0.115	0.228
-244.976	56.720	-0.289	0.282
-243.961	-200.000	0.059	0.348
-242.946	-165.531	0.307	-0.013
-241.932	800.000	0.060	0.184
-240.917	24.553	-0.141	-0.116
-239.903	58.995	-0.140	0.138
-238.888	-69.300	0.229	-0.088
-237.873	-200.000	0.029	-0.179
-236.859	-69.253	0.325	-0.125
-235.844	235.061	0.211	-0.348
-234.830	708.697	0.132	-0.351
-233.815	800.000	-0.071	-0.270
-232.800	800.000	-0.014	-0.042
-231.786	-45.470	-0.109	-0.054
-230.771	50.117	-0.114	0.107
-229.757	113.904	0.038	-0.046
-228.742	61.660	0.046	0.046
-227.727	800.000	-0.012	0.036
-226.713	800.000	0.067	0.230
-225.698	-200.000	0.003	-0.156
-224.684	44.274	0.127	-0.116
-223.669	-93.622	0.104	-0.029
-222.655	69.612	0.303	0.312
-221.640	-65.715	0.246	-0.099
-220.625	-153.753	0.178	-0.012
-219.611	67.117	-0.191	0.195
-218.596	-47.869	0.142	0.069
-217.582	-0.607	0.127	-0.090
-216.567	101.296	0.129	-0.150
-215.552	-15.068	0.045	0.029
-214.538	-200.000	-0.064	0.593
-213.523	-200.000	-0.016	0.119
-212.509	-200.000	-0.020	-0.277
-211.494	800.000	0.055	0.162
-210.479	800.000	0.027	-0.101
-209.465	252.763	0.128	0.219
-208.450	800.000	-0.078	0.264
-207.436	-186.231	-0.172	0.003
-206.421	-14.247	0.176	0.113
-205.406	-134.174	0.015	0.002
-204.392	800.000	0.038	-0.163
-203.377	-200.000	0.069	-0.461
-202.363	-101.989	-0.275	-0.066
-201.348	800.000	0.028	-0.116
-200.333	-200.000	0.025	-0.235
-199.319	-140.672	-0.030	0.003
-198.304	20.350	0.038	-0.031
-197.290	-146.851	-0.234	0.020
-196.275	800.000	0.078	-0.249
-195.260	212.292	0.197	-0.311
-194.246	165.397	0.072	0.102
-193.231	-200.000	-0.058	-0.299
-192.217	376.723	0.076	0.155
-191.202	-82.195	-0.088	-0.029
-190.187	163.711	-0.189	0.266
-189.173	120.348	-0.141	-0.175
-188.158	-200.000	-0.003	0.030
-187.144	58.167	-0.208	-0.204
-186.129	-0.321	-0.168	-0.119
-185.114	27.255	-0.185	-0.155
-184.100	0.404	-0.153	-0.109
-183.085	-52.518	-0.294	-0.136
-182.071	800.000	0.064	0.203
-181.056	143.712	0.104	-0.139
-180.042	302.027	-0.102	-0.188
-179.027	216.263	-0.105	-0.166
-178.012	34.858	-0.271	0.237
-176.998	70.752	0.205	-0.213
-175.983	90.683	0.239	0.268
-174.969	336.224	-0.108	-0.210
-173.954	-53.242	-0.136	0.062
-172.939	800.000	0.030	-0.105
-171.925	45.172	0.143	-0.132
-170.910	171.185	0.055	0.078
-169.896	-75.238	-0.166	0.059
-168.881	135.880	0.137	-0.179
-167.866	206.155	0.053	-0.082
-166.852	-200.000	0.031	0.319
-165.837	-200.000	-0.023	0.118
-164.823	800.000	-0.075	-0.306
-163.808	530.098	-0.022	-0.051
-162.793	92.504	-0.026	0.029
-161.779	800.000	-0.026	0.086
-160.764	-63.205	0.316	-0.130
-159.750	186.921	-0.040	-0.059
-158.735	-101.258	0.196	-0.048
-157.720	-133.613	-0.276	-0.034
-156.706	-160.965	-0.337	-0.018
-155.691	214.296	0.088	0.140
-154.677	31.415	-0.129	0.111
-153.662	44.607	0.332	0.305
-152.647	-55.846	0.019	-0.009
-151.633	-112.090	-0.300	0.060
-150.618	-20.468	0.134	-0.082
-149.604	60.029	-0.186	-0.184
-148.589	-183.217	-0.159	0.003
-147.574	800.000	-0.023	0.067
-146.560	800.000	0.064	0.192
-145.545	122.656	0.040	0.050
-144.531	800.000	0.093	-0.297
-143.516	102.534	-0.114	-0.134
-142.502	700.207	-0.227	0.597
-141.487	-200.000	0.039	0.219
-140.472	271.103	0.195	0.342
-139.458	-56.106	-0.263	0.117
-138.443	800.000	0.051	0.157
-137.429	-200.000	-0.230	0.000
-136.414	31.860	-0.052	0.045
-135.399	-94.427	0.250	0.068
-134.385	-200.000	0.013	-0.325
-133.370	-200.000	-0.010	0.087
-132.356	800.000	-0.068	0.230
-131.341	-200.000	0.019	0.119
-130.326	-200.000	-0.015	-0.144
-129.312	-53.469	-0.212	0.097
-128.297	509.105	-0.110	0.255
-127.283	-68.789	-0.255	-0.098
-126.268	21.910	-0.043	-0.035
-125.253	-125.279	0.148	-0.023
-124.239	414.513	0.057	0.120
-123.224	-200.000	0.020	0.260
-122.210	-200.000	-0.029	0.488
-121.195	80.657	-0.022	0.024
