DTS Sentinel unit serial number:	SN413079Multiplexer serial number:	ORYXHardware model number:	OX4-SRSoftware version number:	ORYX F/W v4.00 Oryx Data Collector v3.7.2.0data status	okinstallation	princeton_trtdifferential loss correction	single-endedforward channel	channel 1reverse channel	N/Adate	2019/09/16time	11:54:35forward acquisition time	60.00reverse acquisition time	0.00gamma	496.2192k internal	0.2296k external	0.2296temperature offset calibration	0.9967default loss term (dB/km)	0.3790temperature slope calibration	1.0000multiplexer offset coefficient	1.0000multiplexer slope coefficient	1.0000fibre end	0.00T internal ref (°C)	38.45T ext. ref 1 (°C)	13.12T ext. ref 2 (°C)	35.79length (m)	temperature (°C)	Stokes	anti-Stokes-747.200	57.632	-0.185	-0.184
-746.185	380.082	-0.134	0.281
-745.171	-200.000	-0.009	0.133
-744.156	800.000	0.095	0.290
-743.142	106.566	-0.161	0.196
-742.127	356.999	-0.067	0.136
-741.112	-27.105	0.187	-0.112
-740.098	497.432	-0.104	0.243
-739.083	-200.000	0.051	0.269
-738.069	-47.527	0.086	-0.043
-737.054	-105.464	0.238	-0.055
-736.039	-98.696	-0.337	0.088
-735.025	288.736	0.065	-0.119
-734.010	42.913	-0.077	-0.072
-732.996	800.000	-0.047	0.177
-731.981	132.024	0.473	0.622
-730.966	-100.089	-0.210	-0.053
-729.952	98.082	-0.086	-0.101
-728.937	-200.000	-0.008	0.169
-727.923	454.672	0.078	0.176
-726.908	175.247	0.169	-0.251
-725.894	-200.000	0.025	-0.270
-724.879	-42.829	-0.088	-0.046
-723.864	-122.311	-0.096	0.016
-722.850	-19.729	0.178	-0.113
-721.835	-48.037	0.143	0.070
-720.821	42.068	0.230	0.213
-719.806	275.261	-0.025	-0.045
-718.791	-200.000	0.045	-0.235
-717.777	430.726	-0.067	-0.147
-716.762	-49.994	0.085	-0.041
-715.748	-43.139	0.064	-0.033
-714.733	100.472	-0.083	0.098
-713.718	118.462	0.090	-0.113
-712.704	-200.000	-0.022	-0.097
-711.689	171.942	0.148	-0.217
-710.675	-200.000	0.017	-0.348
-709.660	-167.741	0.072	0.003
-708.645	-159.825	-0.256	-0.014
-707.631	204.280	-0.126	0.199
-706.616	181.988	-0.152	0.228
-705.602	-200.000	0.030	0.159
-704.587	-85.359	-0.262	-0.083
-703.572	-44.537	-0.069	0.035
-702.558	-105.668	-0.396	0.091
-701.543	-138.781	0.128	0.014
-700.529	358.030	0.181	-0.369
-699.514	-123.422	-0.228	-0.037
-698.499	-89.242	-0.049	-0.015
-697.485	286.811	0.106	-0.195
-696.470	142.112	0.083	0.112
-695.456	-63.834	-0.149	0.062
-694.441	800.000	0.051	0.204
-693.426	642.973	0.078	-0.204
-692.412	-111.000	0.222	0.047
-691.397	495.982	-0.032	-0.074
-690.383	477.852	-0.119	0.275
-689.368	79.625	0.234	-0.256
-688.354	365.347	0.100	-0.205
-687.339	-200.000	-0.055	-0.349
-686.324	-72.891	0.340	-0.128
-685.310	89.137	-0.117	0.133
-684.295	800.000	0.045	-0.135
-683.281	-200.000	-0.023	0.171
-682.266	-27.175	-0.300	-0.178
-681.251	106.615	0.171	0.207
-680.237	196.487	-0.146	0.227
-679.222	-200.000	0.012	0.156
-678.208	191.665	0.199	-0.306
-677.193	222.697	-0.050	-0.081
-676.178	-23.922	-0.147	0.090
-675.164	292.910	-0.044	0.083
-674.149	-200.000	-0.032	0.143
-673.135	-67.312	0.069	0.028
-672.120	-70.376	-0.054	0.021
-671.105	-79.119	0.372	-0.129
-670.091	38.791	-0.178	-0.162
-669.076	389.571	0.073	-0.154
-668.062	-61.306	0.077	0.033
-667.047	-151.214	0.308	-0.024
-666.032	800.000	0.038	-0.138
-665.018	-105.999	-0.282	0.065
-664.003	-92.625	-0.376	-0.107
-662.989	-55.449	-0.082	0.037
-661.974	54.988	-0.098	0.096
-660.959	-81.241	0.225	-0.075
-659.945	-16.538	-0.377	0.244
-658.930	282.818	0.088	0.161
-657.916	36.021	-0.044	-0.039
-656.901	-99.489	0.038	-0.010
-655.886	-18.212	0.040	0.025
-654.872	-200.000	-0.035	0.484
-653.857	218.251	-0.175	0.284
-652.843	-200.000	-0.007	0.314
-651.828	-58.058	-0.323	0.144
-650.814	-102.900	-0.316	0.076
-649.799	-200.000	-0.049	0.233
-648.784	-200.000	0.006	-0.097
-647.770	5.665	0.100	-0.075
-646.755	-200.000	0.003	-0.303
-645.741	-102.200	0.146	0.036
-644.726	30.349	-0.165	-0.143
-643.711	154.788	-0.124	-0.173
-642.697	-45.643	0.264	0.133
-641.682	344.549	-0.044	0.088
-640.668	-105.324	0.069	-0.016
-639.653	-12.246	0.042	0.028
-638.638	222.607	-0.099	-0.163
-637.624	672.738	-0.091	0.239
-636.609	-35.224	-0.166	-0.092
-635.595	-40.208	0.272	0.144
-634.580	21.625	-0.219	-0.181
-633.565	33.069	-0.260	-0.230
-632.551	800.000	-0.017	-0.069
-631.536	451.675	-0.129	-0.289
-630.522	-59.342	-0.202	-0.088
-629.507	800.000	-0.042	-0.142
-628.492	-200.000	-0.034	-0.162
-627.478	-200.000	0.034	-0.338
-626.463	-117.864	0.246	0.045
-625.449	-74.914	-0.158	-0.058
-624.434	-19.910	0.049	-0.030
-623.419	129.085	-0.171	0.222
-622.405	-200.000	-0.014	-0.242
-621.390	-200.000	0.030	-0.158
-620.376	668.683	-0.105	-0.276
-619.361	15.495	0.153	0.122
-618.346	411.034	0.057	-0.123
-617.332	-200.000	0.001	0.087
-616.317	800.000	0.007	-0.025
-615.303	11.574	-0.150	0.117
-614.288	306.706	0.105	-0.198
-613.273	800.000	-0.104	0.297
-612.259	11.682	-0.174	0.136
-611.244	21.357	-0.219	-0.181
-610.230	800.000	-0.080	-0.297
-609.215	-174.506	0.192	-0.006
-608.201	53.529	-0.170	-0.166
-607.186	-200.000	0.093	-0.415
-606.171	-200.000	-0.004	-0.046
-605.157	-90.662	-0.422	0.124
-604.142	33.036	0.134	-0.118
-603.128	159.575	0.044	-0.063
-602.113	-200.000	0.063	0.287
-601.098	-200.000	-0.043	-0.288
-600.084	-14.095	-0.290	0.190
-599.069	-126.275	0.340	-0.052
-598.055	102.473	0.115	-0.137
-597.040	800.000	0.092	-0.299
-596.025	-200.000	0.007	0.099
-595.011	-53.006	0.186	0.087
-593.996	800.000	-0.011	0.043
-592.982	-200.000	0.002	-0.223
-591.967	2.237	0.138	-0.101
-590.952	-97.403	-0.222	-0.059
-589.938	-93.112	-0.313	0.088
-588.923	583.664	-0.080	0.199
-587.909	-200.000	-0.053	-0.283
-586.894	-127.069	0.136	-0.020
-585.879	-146.825	0.397	-0.035
-584.865	-157.452	-0.328	-0.020
-583.850	89.694	-0.186	0.211
-582.836	-87.046	0.388	0.120
-581.821	186.884	0.103	0.155
-580.806	179.369	-0.067	0.099
-579.792	270.602	0.071	-0.127
-578.777	-4.758	0.232	0.162
-577.763	-25.743	0.246	-0.147
-576.748	12.151	-0.216	0.169
-575.733	-104.877	0.309	0.072
-574.719	15.687	-0.099	-0.079
-573.704	800.000	0.074	0.210
-572.690	-200.000	0.008	0.080
-571.675	548.713	-0.091	-0.222
-570.661	-119.880	-0.257	-0.045
-569.646	65.729	-0.249	-0.256
-568.631	800.000	0.081	-0.325
-567.617	44.250	-0.046	0.043
-566.602	32.287	0.261	-0.228
-565.588	468.343	0.073	0.166
-564.573	-200.000	0.001	-0.028
-563.558	654.111	0.061	-0.159
-562.544	287.152	-0.033	-0.061
-561.529	7.416	-0.162	0.123
-560.515	23.418	-0.147	0.123
-559.500	800.000	-0.082	-0.348
-558.485	-81.734	-0.230	0.076
-557.471	266.279	0.069	-0.123
-556.456	-101.895	-0.215	-0.053
-555.442	-106.209	-0.209	0.048
-554.427	-140.511	-0.246	-0.026
-553.412	-200.000	0.013	0.149
-552.398	-62.520	0.153	0.064
-551.383	14.480	-0.219	0.173
-550.369	-48.125	-0.353	-0.173
-549.354	800.000	0.065	-0.187
-548.339	-149.143	-0.056	-0.005
-547.325	-114.725	0.203	-0.039
-546.310	-100.520	0.161	0.040
-545.296	-200.000	0.068	-0.301
-544.281	109.119	-0.231	-0.280
-543.266	323.389	-0.129	-0.249
-542.252	-108.559	0.164	-0.036
-541.237	-133.331	0.141	-0.018
-540.223	800.000	0.112	-0.356
-539.208	-104.366	-0.369	0.087
-538.193	230.936	-0.145	-0.241
-537.179	800.000	-0.127	-0.406
-536.164	-30.238	-0.022	0.013
-535.150	-3.934	0.426	0.299
-534.135	800.000	-0.051	0.207
-533.121	-195.649	0.289	-0.002
-532.106	-103.759	0.264	-0.063
-531.091	-161.688	0.326	0.017
-530.077	-200.000	-0.038	0.355
-529.062	192.678	-0.085	0.130
-528.048	-165.861	-0.230	0.010
-527.033	261.720	-0.145	-0.254
-526.018	-36.829	-0.104	-0.057
-525.004	-110.196	0.105	0.022
-523.989	147.583	-0.254	-0.347
-522.975	-200.000	-0.047	0.267
-521.960	424.773	0.099	0.215
-520.945	173.699	-0.207	-0.303
-519.931	4.512	-0.077	-0.057
-518.916	98.590	0.050	0.059
-517.902	-61.726	-0.186	-0.079
-516.887	-171.354	0.034	0.001
-515.872	-21.873	0.124	0.076
-514.858	-200.000	-0.011	-0.156
-513.843	-200.000	0.033	-0.413
-512.829	-72.763	-0.218	-0.081
-511.814	800.000	-0.036	-0.130
-510.799	229.830	-0.189	0.312
-509.785	800.000	-0.046	0.174
-508.770	800.000	-0.063	0.232
-507.756	666.479	0.083	0.217
-506.741	124.972	0.115	-0.147
-505.726	800.000	-0.051	-0.168
-504.712	3.817	-0.181	0.134
-503.697	-23.686	-0.314	-0.190
-502.683	742.298	-0.028	-0.076
-501.668	-45.683	0.218	-0.109
-500.653	31.987	0.199	-0.174
-499.639	-18.043	-0.126	0.080
-498.624	800.000	-0.087	0.301
-497.610	779.530	0.091	-0.251
-496.595	55.109	-0.112	-0.109
-495.581	-106.314	-0.308	0.070
-494.566	247.249	0.093	0.159
-493.551	-69.065	0.208	-0.081
-492.537	800.000	0.046	0.144
-491.522	-41.244	0.177	-0.092
-490.508	-200.000	-0.000	-0.205
-489.493	340.166	-0.118	0.232
-488.478	-78.211	-0.118	0.041
-487.464	-200.000	-0.013	-0.256
-486.449	-112.386	0.363	-0.074
-485.435	-200.000	0.038	0.328
-484.420	800.000	-0.063	0.181
-483.405	-200.000	-0.026	0.263
-482.391	0.565	-0.173	0.125
-481.376	14.433	-0.062	-0.049
-480.362	333.563	0.114	0.224
-479.347	800.000	0.125	-0.413
-478.332	-6.950	-0.054	0.037
-477.318	607.057	0.081	-0.204
-476.303	48.874	-0.326	0.309
-475.289	-58.199	-0.206	0.091
-474.274	800.000	0.032	-0.103
-473.259	800.000	-0.024	0.097
-472.245	227.681	0.176	0.289
-471.230	505.241	0.016	0.038
-470.216	19.419	-0.030	0.024
-469.201	326.105	0.083	0.161
-468.186	-200.000	-0.026	-0.221
-467.172	-200.000	0.038	0.244
-466.157	230.109	0.043	0.071
-465.143	-117.373	-0.273	0.050
-464.128	262.661	-0.032	0.057
-463.113	-200.000	0.021	0.125
-462.099	-200.000	-0.001	0.130
-461.084	-176.407	0.279	0.007
-460.070	800.000	-0.023	-0.077
-459.055	47.049	-0.185	0.174
-458.040	185.289	-0.154	-0.231
-457.026	189.114	-0.125	-0.189
-456.011	118.993	0.304	-0.380
-454.997	-200.000	-0.013	0.127
-453.982	-200.000	0.011	0.205
-452.968	-200.000	-0.016	-0.198
-451.953	319.264	0.138	-0.264
-450.938	355.506	0.143	0.286
-449.924	-41.245	-0.033	0.017
-448.909	278.879	0.192	-0.346
-447.895	84.103	-0.146	-0.161
-446.880	-167.844	-0.027	0.001
-445.865	112.629	0.118	-0.145
-444.851	211.878	-0.112	-0.177
-443.836	171.734	-0.248	0.359
-442.822	-86.619	0.337	0.104
-441.807	-90.774	0.077	0.023
-440.792	800.000	0.089	-0.299
-439.778	-125.371	-0.305	-0.047
-438.763	-73.607	0.302	-0.111
-437.749	800.000	0.084	0.271
-436.734	-41.183	0.202	0.105
-435.719	-69.215	0.342	0.133
-434.705	-109.538	-0.274	-0.058
-433.690	-94.931	0.168	0.046
-432.676	346.484	0.220	0.437
-431.661	417.893	-0.176	0.379
-430.646	-123.684	-0.174	-0.028
-429.632	-174.453	0.086	0.002
-428.617	165.629	-0.130	-0.186
-427.603	420.819	-0.163	0.352
-426.588	-73.685	0.220	-0.081
-425.573	39.903	-0.262	-0.237
-424.559	-125.907	0.248	-0.038
-423.544	98.286	0.288	-0.334
-422.530	111.751	0.243	-0.296
-421.515	-200.000	-0.044	-0.302
-420.500	-200.000	0.026	-0.144
-419.486	-86.481	-0.151	0.047
-418.471	153.903	0.218	-0.302
-417.457	800.000	-0.029	-0.083
-416.442	-7.343	-0.144	0.099
-415.428	-200.000	-0.044	-0.227
-414.413	-118.284	0.199	-0.036
-413.398	6.394	0.222	-0.166
-412.384	-41.416	-0.203	0.105
-411.369	-128.462	0.195	0.028
-410.355	-41.675	-0.125	-0.065
-409.340	-78.961	-0.085	-0.029
-408.325	-28.897	-0.151	0.088
-407.311	-77.496	0.247	0.087
-406.296	-25.867	-0.322	0.191
-405.282	478.719	0.147	0.336
-404.267	-62.658	0.089	0.037
-403.252	-132.737	0.460	0.059
-402.238	-72.157	-0.319	0.119
-401.223	-200.000	0.016	-0.116
-400.209	-53.912	-0.162	0.074
-399.194	139.481	0.152	-0.202
-398.179	18.204	-0.119	-0.095
-397.165	800.000	-0.059	-0.172
-396.150	-158.021	-0.188	0.011
-395.136	-200.000	-0.012	-0.207
-394.121	-55.217	0.366	0.166
-393.106	800.000	0.075	-0.225
-392.092	-128.928	-0.250	0.035
-391.077	-151.219	-0.230	0.017
-390.063	-136.984	-0.223	-0.026
-389.048	800.000	0.063	0.241
-388.033	44.163	0.303	0.280
-387.019	-198.875	-0.287	0.002
-386.004	-29.237	-0.211	-0.122
-384.990	-200.000	0.014	-0.122
-383.975	-132.434	0.138	-0.018
-382.960	800.000	0.020	-0.058
-381.946	204.012	-0.143	0.224
-380.931	-121.703	-0.397	-0.066
-379.917	-200.000	-0.058	-0.352
-378.902	800.000	-0.083	0.310
-377.888	-200.000	-0.005	0.056
-376.873	-2.968	-0.196	0.138
-375.858	559.373	-0.131	0.318
-374.844	-109.476	0.184	-0.039
-373.829	171.732	-0.072	0.104
-372.815	-200.000	-0.006	-0.334
-371.800	-162.075	-0.248	-0.013
-370.785	-66.428	0.326	-0.130
-369.771	72.501	0.288	-0.303
-368.756	-132.152	-0.083	-0.011
-367.742	-137.799	-0.256	0.029
-366.727	-200.000	-0.061	0.461
-365.712	-63.157	0.144	-0.060
-364.698	800.000	-0.154	0.463
-363.683	-200.000	-0.012	-0.058
-362.669	-200.000	-0.056	0.323
-361.654	-52.547	-0.267	0.124
-360.639	-200.000	-0.036	0.238
-359.625	416.009	0.129	-0.276
-358.610	112.172	0.205	-0.249
-357.596	697.349	0.074	0.196
-356.581	-65.539	-0.130	0.052
-355.566	-127.848	0.204	0.030
-354.552	-12.383	0.161	0.106
-353.537	257.318	0.064	0.110
-352.523	21.556	0.104	-0.085
-351.508	28.651	0.039	-0.033
-350.493	800.000	0.042	-0.154
-349.479	-90.996	-0.287	-0.083
-348.464	-64.069	-0.187	-0.077
-347.450	519.358	-0.035	-0.082
-346.435	-3.763	-0.181	-0.127
-345.420	-179.824	-0.414	0.009
-344.406	-200.000	-0.019	-0.177
-343.391	-105.158	0.325	0.075
-342.377	-5.310	-0.107	0.074
-341.362	-200.000	-0.039	-0.330
-340.348	343.263	0.165	0.325
-339.333	-84.268	0.440	-0.140
-338.318	0.528	-0.229	-0.164
-337.304	281.960	0.070	0.127
-336.289	149.573	-0.075	0.103
-335.275	-120.028	-0.226	0.039
-334.260	-200.000	-0.000	0.066
-333.245	-3.895	-0.185	0.129
-332.231	45.122	0.188	0.175
-331.216	-200.000	0.029	-0.241
-330.202	-200.000	0.061	-0.277
-329.187	-64.756	0.177	-0.072
-328.172	-79.333	0.077	-0.026
-327.158	800.000	0.057	-0.187
-326.143	47.722	-0.217	0.203
-325.129	-44.890	-0.114	-0.057
-324.114	164.914	-0.161	-0.229
-323.099	-200.000	-0.015	0.108
-322.085	29.048	0.119	-0.102
-321.070	-157.001	-0.014	-0.001
-320.056	71.686	-0.281	0.293
-319.041	800.000	-0.104	0.338
-318.026	-11.935	0.148	0.098
-317.012	58.963	0.258	0.255
-315.997	210.388	-0.080	0.126
-314.983	61.848	0.147	-0.148
-313.968	19.208	-0.137	0.110
-312.953	800.000	0.015	0.056
-311.939	-200.000	-0.003	-0.143
-310.924	800.000	0.050	-0.141
-309.910	-9.203	0.273	0.183
-308.895	-53.228	0.109	0.050
-307.880	-12.297	-0.314	0.206
-306.866	-131.704	-0.156	0.021
-305.851	90.299	0.074	-0.083
-304.837	-200.000	0.132	0.000
-303.822	-4.019	-0.307	0.213
-302.807	-200.000	0.010	-0.113
-301.793	-87.550	0.162	-0.049
-300.778	800.000	-0.056	-0.173
-299.764	269.720	-0.221	-0.390
-298.749	-22.190	-0.102	-0.062
-297.735	87.639	0.115	-0.127
-296.720	88.436	0.208	0.232
-295.705	-200.000	0.040	-0.270
-294.691	-162.635	0.175	0.009
-293.676	161.233	-0.287	0.403
-292.662	511.006	0.088	0.205
-291.647	18.020	-0.458	-0.367
-290.632	-200.000	0.008	0.090
-289.618	46.528	0.148	0.137
-288.603	-200.000	-0.017	-0.135
-287.589	800.000	-0.024	0.101
-286.574	-33.672	0.259	0.144
-285.559	147.429	-0.186	-0.251
-284.545	-59.474	0.187	-0.081
-283.530	-200.000	-0.038	0.189
-282.516	684.150	0.039	0.102
-281.501	661.295	0.145	-0.374
-280.486	21.896	0.115	0.094
-279.472	800.000	-0.040	0.132
-278.457	-200.000	-0.010	0.106
-277.443	800.000	-0.100	-0.304
-276.428	-200.000	-0.025	0.183
-275.413	-106.699	0.406	-0.091
-274.399	86.917	-0.053	-0.059
-273.384	170.956	0.066	-0.095
-272.370	109.921	0.263	0.316
-271.355	47.653	0.133	-0.125
-270.340	718.062	-0.069	0.184
-269.326	-72.222	-0.256	-0.095
-268.311	632.863	-0.047	-0.119
-267.297	800.000	0.074	0.276
-266.282	27.384	0.122	0.103
-265.267	-18.976	0.269	-0.168
-264.253	293.319	-0.085	0.155
-263.238	99.398	-0.040	0.046
-262.224	-66.755	-0.064	0.026
-261.209	800.000	-0.063	-0.212
-260.195	128.938	-0.136	-0.174
-259.180	-167.722	0.257	0.010
-258.165	505.606	-0.196	-0.456
-257.151	504.439	-0.097	-0.224
-256.136	-89.121	0.053	-0.016
-255.122	248.741	0.105	0.177
-254.107	-21.078	0.186	0.114
-253.092	61.407	-0.268	0.267
-252.078	263.007	0.106	-0.184
-251.063	-200.000	-0.032	0.379
-250.049	68.394	0.186	-0.191
-249.034	-38.262	0.226	0.120
-248.019	9.660	-0.127	-0.097
-247.005	-81.331	-0.134	0.044
-245.990	74.232	-0.056	-0.059
-244.976	81.799	-0.222	0.241
-243.961	800.000	0.037	0.124
-242.946	-99.806	0.166	-0.042
-241.932	-109.532	0.079	0.017
-240.917	-200.000	0.018	-0.134
-239.903	800.000	0.058	0.164
-238.888	-67.467	0.168	0.066
-237.873	210.224	0.057	0.090
-236.859	1.203	-0.085	0.061
-235.844	60.106	-0.117	0.116
-234.830	-78.155	0.139	0.048
-233.815	-15.333	-0.130	0.083
-232.800	-200.000	0.013	0.276
-231.786	78.411	0.118	0.126
-230.771	-1.545	-0.215	0.152
-229.757	217.760	0.086	-0.137
-228.742	352.446	-0.086	-0.171
-227.727	800.000	0.046	-0.130
-226.713	-28.261	0.136	0.079
-225.698	-200.000	0.016	0.128
-224.684	800.000	-0.081	0.233
-223.669	800.000	0.035	0.102
-222.655	-147.882	0.163	0.014
-221.640	93.573	0.168	0.191
-220.625	-106.180	0.177	0.040
-219.611	232.894	0.075	0.123
-218.596	-88.592	-0.273	-0.081
-217.582	276.499	-0.118	-0.210
-216.567	-200.000	-0.056	0.487
-215.552	-30.371	0.235	-0.134
-214.538	-200.000	0.077	0.363
-213.523	-19.982	-0.360	0.222
-212.509	-200.000	-0.015	0.081
-211.494	-75.380	0.284	0.101
-210.479	-35.568	0.139	0.075
-209.465	-200.000	0.012	0.060
-208.450	56.322	0.098	0.095
-207.436	17.437	0.118	-0.094
-206.421	-61.857	0.120	0.050
-205.406	-47.143	-0.308	0.150
-204.392	-200.000	-0.009	0.058
-203.377	134.185	0.220	0.285
-202.363	-200.000	0.005	0.245
-201.348	73.313	-0.247	0.258
-200.333	-200.000	-0.009	-0.094
-199.319	-200.000	-0.024	0.531
-198.304	1.737	-0.233	0.168
-197.290	-171.941	0.163	-0.005
-196.275	800.000	0.095	-0.333
-195.260	452.134	0.163	-0.360
-194.246	173.867	-0.123	0.177
-193.231	221.423	0.131	0.211
-192.217	142.351	0.117	0.156
-191.202	-141.722	0.291	-0.029
-190.187	35.890	0.054	-0.047
-189.173	-93.874	0.111	-0.031
-188.158	-109.040	0.271	-0.058
-187.144	-135.016	-0.016	0.002
-186.129	321.162	0.123	0.233
-185.114	-115.428	-0.186	-0.035
-184.100	-200.000	-0.022	0.199
-183.085	800.000	0.095	-0.367
-182.071	-80.825	0.291	-0.097
-181.056	-156.548	0.201	0.013
-180.042	-89.406	-0.184	-0.054
-179.027	-93.530	0.239	0.066
-178.012	-115.727	-0.108	0.020
-176.998	-200.000	-0.027	-0.118
-175.983	-200.000	-0.089	0.000
-174.969	-200.000	-0.002	-0.010
-173.954	202.434	0.130	-0.200
-172.939	117.507	0.138	0.169
-171.925	-72.129	0.215	0.080
-170.910	-171.529	-0.324	0.011
-169.896	179.809	0.291	0.426
-168.881	19.421	0.161	-0.129
-167.866	-200.000	0.017	-0.206
-166.852	800.000	-0.155	0.479
-165.837	95.597	0.030	0.034
-164.823	-80.065	0.302	0.101
-163.808	-76.827	0.132	0.046
-162.793	343.838	0.035	-0.069
-161.779	28.803	0.349	-0.295
-160.764	-97.616	-0.332	-0.086
-159.750	-126.494	-0.057	-0.009
-158.735	-200.000	-0.023	0.130
-157.720	316.065	-0.011	0.020
-156.706	-200.000	0.012	0.325
-155.691	-113.275	-0.143	0.028
-154.677	-200.000	0.006	0.187
-153.662	800.000	-0.078	-0.288
-152.647	84.687	-0.224	-0.245
-151.633	-88.698	-0.128	-0.038
-150.618	-200.000	0.027	-0.122
-149.604	-200.000	-0.065	-0.387
-148.589	-200.000	0.087	-0.385
-147.574	447.800	0.056	0.122
-146.560	517.378	0.083	-0.193
-145.545	-64.908	-0.395	0.159
-144.531	136.366	0.105	0.136
-143.516	800.000	-0.072	0.267
-142.502	-41.186	0.098	-0.050
-141.487	-150.930	0.219	-0.017
-140.472	-200.000	-0.047	0.315
-139.458	158.253	-0.095	0.131
-138.443	21.177	-0.062	0.051
-137.429	135.843	0.220	0.285
-136.414	800.000	0.077	0.223
-135.399	88.331	0.080	0.088
-134.385	-50.210	0.189	0.089
-133.370	-136.893	0.237	0.027
-132.356	234.472	-0.168	-0.276
-131.341	26.177	0.154	-0.128
-130.326	88.449	0.194	0.215
-129.312	800.000	-0.073	0.222
-128.297	-73.886	-0.130	-0.047
-127.283	173.394	0.090	0.129
-126.268	-98.825	0.132	-0.034
-125.253	772.381	0.030	0.082
-124.239	800.000	0.076	0.291
-123.224	-200.000	-0.037	-0.180
-122.210	275.730	0.097	0.171
-121.195	18.748	-0.189	0.151
