DTS Sentinel unit serial number:	SN413079Multiplexer serial number:	ORYXHardware model number:	OX4-SRSoftware version number:	ORYX F/W v4.00 Oryx Data Collector v3.7.2.0data status	okinstallation	princeton_trtdifferential loss correction	single-endedforward channel	channel 1reverse channel	N/Adate	2019/09/15time	00:42:35forward acquisition time	60.00reverse acquisition time	0.00gamma	496.2192k internal	0.2320k external	0.2320temperature offset calibration	0.9994default loss term (dB/km)	0.3790temperature slope calibration	1.0000multiplexer offset coefficient	1.0000multiplexer slope coefficient	1.0000fibre end	0.00T internal ref (°C)	32.06T ext. ref 1 (°C)	4.58T ext. ref 2 (°C)	27.03length (m)	temperature (°C)	Stokes	anti-Stokes-747.200	-18.465	-0.185	-0.117
-746.185	800.000	-0.072	0.280
-745.171	662.499	0.139	0.362
-744.156	169.044	-0.104	0.149
-743.142	123.204	0.156	0.197
-742.127	800.000	0.183	0.547
-741.112	-94.015	-0.147	0.041
-740.098	800.000	0.037	0.114
-739.083	-118.822	0.214	0.038
-738.069	-200.000	-0.006	0.075
-737.054	800.000	-0.073	0.209
-736.039	-0.868	-0.301	0.216
-735.025	57.526	0.175	-0.173
-734.010	-21.879	-0.272	0.167
-732.996	-153.456	-0.456	0.032
-731.981	-200.000	-0.023	-0.171
-730.966	-19.945	0.031	-0.020
-729.952	105.983	-0.234	-0.280
-728.937	-200.000	-0.034	-0.187
-727.923	-200.000	-0.033	-0.315
-726.908	-62.100	0.127	-0.054
-725.894	-13.232	-0.217	0.142
-724.879	-130.136	-0.182	-0.025
-723.864	-36.704	0.062	-0.034
-722.850	800.000	-0.052	0.188
-721.835	-85.975	0.221	-0.069
-720.821	-165.814	0.067	-0.003
-719.806	-200.000	-0.011	-0.188
-718.791	-47.105	-0.056	0.028
-717.777	800.000	0.044	-0.167
-716.762	800.000	0.084	-0.323
-715.748	33.013	-0.084	0.073
-714.733	550.682	0.081	-0.198
-713.718	-124.676	0.396	-0.062
-712.704	15.760	-0.045	0.036
-711.689	-114.110	-0.141	0.027
-710.675	77.563	-0.184	0.198
-709.660	-75.406	-0.090	0.032
-708.645	-68.768	0.244	-0.095
-707.631	-114.424	-0.194	-0.038
-706.616	-83.824	-0.160	0.051
-705.602	42.620	0.092	-0.084
-704.587	800.000	0.149	0.430
-703.572	83.024	0.047	-0.052
-702.558	43.190	-0.178	0.164
-701.543	800.000	-0.064	0.190
-700.529	48.547	-0.142	0.135
-699.514	-77.208	0.057	-0.020
-698.499	112.291	0.269	0.328
-697.485	56.596	-0.328	0.322
-696.470	-200.000	-0.001	0.240
-695.456	166.594	-0.065	-0.093
-694.441	-96.403	-0.300	0.080
-693.426	-200.000	-0.012	0.224
-692.412	40.327	0.218	0.198
-691.397	-200.000	-0.050	-0.328
-690.383	43.404	-0.121	-0.111
-689.368	800.000	0.044	-0.181
-688.354	14.104	0.018	-0.014
-687.339	-99.706	0.047	-0.012
-686.324	-143.735	-0.080	-0.008
-685.310	-109.859	-0.420	-0.089
-684.295	310.915	-0.035	0.066
-683.281	-200.000	0.010	0.206
-682.266	736.946	0.065	0.177
-681.251	800.000	-0.091	0.275
-680.237	-200.000	-0.023	0.136
-679.222	-83.593	0.266	-0.086
-678.208	662.519	0.065	0.169
-677.193	800.000	-0.079	-0.245
-676.178	6.282	0.351	-0.263
-675.164	-139.621	-0.193	0.021
-674.149	626.012	0.088	-0.223
-673.135	800.000	-0.086	-0.277
-672.120	-79.220	0.188	-0.064
-671.105	25.159	0.207	0.173
-670.091	800.000	-0.025	-0.102
-669.076	800.000	0.027	0.114
-668.062	147.525	-0.121	0.164
-667.047	-48.195	0.173	-0.084
-666.032	-86.947	-0.194	0.060
-665.018	-123.265	-0.250	-0.040
-664.003	591.248	0.136	0.339
-662.989	800.000	0.056	0.161
-661.974	124.197	-0.124	-0.157
-660.959	-142.328	-0.079	-0.008
-659.945	-138.312	-0.078	-0.009
-658.930	800.000	0.056	0.212
-657.916	-200.000	-0.020	-0.333
-656.901	-200.000	-0.018	-0.141
-655.886	274.990	-0.005	0.008
-654.872	-75.758	-0.323	0.116
-653.857	-23.865	0.093	0.056
-652.843	800.000	-0.074	-0.213
-651.828	-44.050	0.219	-0.111
-650.814	-4.135	-0.222	0.155
-649.799	84.502	-0.338	0.372
-648.784	199.718	-0.150	-0.231
-647.770	800.000	0.033	0.108
-646.755	800.000	-0.117	-0.332
-645.741	-122.970	-0.207	-0.033
-644.726	224.070	0.200	-0.326
-643.711	800.000	-0.079	-0.255
-642.697	-200.000	-0.035	0.175
-641.682	94.552	0.170	0.195
-640.668	472.581	0.142	-0.323
-639.653	542.520	-0.058	-0.139
-638.638	614.422	0.081	-0.204
-637.624	365.081	0.080	0.163
-636.609	-113.847	-0.158	-0.031
-635.595	-15.572	-0.236	-0.151
-634.580	41.274	-0.065	0.059
-633.565	-5.487	-0.065	0.045
-632.551	-77.152	0.135	-0.047
-631.536	-8.314	-0.246	0.167
-630.522	-86.076	0.126	-0.039
-629.507	241.430	0.135	0.227
-628.492	25.298	0.310	-0.260
-627.478	-148.227	0.215	0.018
-626.463	144.662	0.054	-0.073
-625.449	205.737	-0.152	-0.238
-624.434	-200.000	-0.018	0.119
-623.419	108.621	-0.035	0.042
-622.405	-118.185	-0.147	0.026
-621.390	-122.725	-0.177	0.029
-620.376	4.368	-0.159	-0.118
-619.361	92.312	-0.039	-0.045
-618.346	800.000	-0.054	-0.236
-617.332	581.404	0.197	0.485
-616.317	217.049	0.101	-0.161
-615.303	-200.000	0.003	-0.164
-614.288	63.306	0.141	0.143
-613.273	3.647	0.237	-0.174
-612.259	-200.000	0.011	0.246
-611.244	-175.924	-0.096	0.003
-610.230	88.943	0.092	-0.103
-609.215	-200.000	-0.000	-0.027
-608.201	-29.428	0.269	-0.155
-607.186	92.671	-0.268	0.304
-606.171	253.645	-0.113	-0.194
-605.157	-150.999	-0.115	-0.009
-604.142	-200.000	0.017	0.306
-603.128	30.428	0.112	0.096
-602.113	-60.117	-0.202	0.087
-601.098	-70.232	0.363	-0.139
-600.084	53.919	-0.140	-0.135
-599.069	423.885	-0.027	0.058
-598.055	-81.788	-0.440	-0.145
-597.040	800.000	0.037	0.125
-596.025	-180.267	0.233	0.005
-595.011	800.000	0.072	-0.237
-593.996	-200.000	-0.011	-0.237
-592.982	39.928	-0.281	0.254
-591.967	-147.948	0.302	0.025
-590.952	-200.000	-0.007	-0.194
-589.938	-200.000	0.043	-0.202
-588.923	-84.283	-0.164	-0.052
-587.909	-200.000	0.022	0.101
-586.894	33.329	-0.060	0.052
-585.879	-125.542	0.263	-0.040
-584.865	-200.000	-0.012	-0.070
-583.850	139.935	0.139	-0.184
-582.836	-66.623	0.313	-0.125
-581.821	187.315	0.123	0.184
-580.806	-29.903	0.146	0.083
-579.792	13.060	0.164	-0.128
-578.777	177.718	-0.151	-0.221
-577.763	-40.016	-0.296	0.155
-576.748	32.668	0.121	0.105
-575.733	-84.325	-0.258	0.082
-574.719	-200.000	-0.261	-0.001
-573.704	577.358	-0.018	0.044
-572.690	-200.000	0.113	-0.572
-571.675	-200.000	-0.021	0.106
-570.661	-55.021	0.331	-0.150
-569.646	778.264	-0.094	-0.258
-568.631	110.248	-0.152	0.183
-567.617	87.897	0.053	0.059
-566.602	-0.940	-0.114	0.081
-565.588	-32.281	-0.133	0.075
-564.573	715.375	0.039	-0.103
-563.558	-107.877	-0.124	0.027
-562.544	320.844	-0.127	-0.242
-561.529	11.676	-0.229	-0.177
-560.515	-131.002	0.123	0.017
-559.500	-85.737	0.141	-0.044
-558.485	280.008	0.078	0.141
-557.471	103.350	0.161	0.189
-556.456	-200.000	0.021	0.190
-555.442	800.000	-0.088	-0.306
-554.427	-200.000	-0.007	0.102
-553.412	-117.252	-0.186	0.034
-552.398	-200.000	-0.034	-0.268
-551.383	-73.828	0.517	-0.188
-550.369	391.783	-0.172	-0.358
-549.354	-53.696	-0.212	0.097
-548.339	-94.570	0.134	-0.037
-547.325	701.556	-0.061	-0.162
-546.310	571.410	0.031	-0.077
-545.296	195.429	-0.067	-0.103
-544.281	139.204	-0.213	-0.281
-543.266	147.998	-0.111	0.150
-542.252	-200.000	-0.005	0.124
-541.237	-130.689	0.151	0.020
-540.223	-200.000	0.010	0.127
-539.208	118.667	0.239	-0.296
-538.193	-110.263	-0.264	-0.055
-537.179	-100.076	0.176	0.044
-536.164	426.193	-0.118	0.254
-535.150	-81.009	-0.209	-0.069
-534.135	-7.753	0.194	-0.132
-533.121	-42.506	0.242	0.124
-532.106	-119.192	0.107	-0.019
-531.091	-64.489	-0.146	0.060
-530.077	-33.326	0.189	-0.105
-529.062	450.310	-0.108	0.238
-528.048	-200.000	-0.000	0.309
-527.033	-200.000	0.021	0.292
-526.018	-19.306	-0.092	-0.057
-525.004	8.850	0.284	-0.215
-523.989	-4.635	-0.221	0.153
-522.975	224.083	-0.073	0.118
-521.960	-43.190	-0.073	0.037
-520.945	273.987	-0.103	0.183
-519.931	189.896	0.022	-0.033
-518.916	-200.000	-0.011	0.077
-517.902	-200.000	0.001	-0.059
-516.887	-200.000	-0.012	-0.101
-515.872	800.000	0.059	0.193
-514.858	-200.000	-0.007	-0.192
-513.843	563.550	-0.048	-0.117
-512.829	800.000	0.047	-0.182
-511.814	88.715	-0.131	-0.146
-510.799	57.984	-0.051	-0.050
-509.785	90.616	-0.203	0.228
-508.770	514.890	0.131	-0.308
-507.756	-84.627	0.056	-0.018
-506.741	332.215	0.114	-0.221
-505.726	33.947	0.131	-0.114
-504.712	-200.000	-0.001	-0.083
-503.697	-33.401	-0.230	0.127
-502.683	-200.000	-0.017	-0.099
-501.668	-162.235	-0.275	-0.014
-500.653	800.000	-0.093	0.336
-499.639	-70.430	-0.168	-0.064
-498.624	239.603	0.168	-0.280
-497.610	302.716	-0.167	-0.310
-496.595	48.864	-0.038	0.035
-495.581	614.082	0.096	-0.241
-494.566	-91.928	-0.274	-0.078
-493.551	59.187	-0.066	-0.065
-492.537	-77.797	0.175	-0.061
-491.522	38.565	0.070	-0.062
-490.508	-52.019	-0.136	-0.063
-489.493	-57.879	0.354	0.155
-488.478	-200.000	-0.048	-0.214
-487.464	800.000	-0.082	-0.239
-486.449	-200.000	0.004	-0.094
-485.435	-159.140	-0.157	-0.009
-484.420	-110.482	0.131	-0.027
-483.405	131.077	0.117	0.150
-482.391	-200.000	0.074	0.331
-481.376	-200.000	-0.004	0.124
-480.362	-78.590	0.176	-0.060
-479.347	-200.000	-0.018	-0.162
-478.332	-85.632	-0.099	-0.031
-477.318	800.000	0.095	-0.375
-476.303	219.166	0.070	0.113
-475.289	-74.199	-0.319	-0.115
-474.274	729.779	-0.063	-0.169
-473.259	421.891	-0.065	0.139
-472.245	27.592	0.276	-0.233
-471.230	140.829	-0.130	-0.172
-470.216	-41.747	-0.371	0.191
-469.201	800.000	-0.131	-0.418
-468.186	13.965	0.111	-0.087
-467.172	372.555	-0.076	-0.154
-466.157	353.763	-0.182	0.361
-465.143	29.044	0.112	-0.095
-464.128	-95.098	0.331	-0.089
-463.113	-200.000	0.007	0.117
-462.099	-74.788	0.333	-0.119
-461.084	50.679	0.239	0.227
-460.070	-23.388	0.193	0.116
-459.055	-111.985	-0.302	-0.061
-458.040	-200.000	0.019	-0.088
-457.026	326.359	0.055	-0.105
-456.011	-47.698	-0.162	-0.078
-454.997	-3.824	-0.225	0.156
-453.982	-111.160	0.323	0.066
-452.968	-148.053	-0.115	0.010
-451.953	-109.624	-0.117	0.025
-450.938	-118.954	0.057	-0.010
-449.924	-104.519	0.190	0.044
-448.909	-66.255	0.266	-0.106
-447.895	-85.883	-0.229	0.071
-446.880	800.000	-0.099	-0.330
-445.865	-136.046	-0.191	0.022
-444.851	-200.000	-0.013	-0.075
-443.836	123.065	-0.218	0.273
-442.822	147.256	0.061	0.082
-441.807	164.268	0.217	0.306
-440.792	92.694	-0.096	-0.108
-439.778	311.121	0.179	-0.336
-438.763	-200.000	0.026	0.253
-437.749	521.246	0.113	0.264
-436.734	-200.000	-0.022	-0.313
-435.719	120.600	-0.019	-0.023
-434.705	237.304	-0.094	0.156
-433.690	183.211	0.241	-0.356
-432.676	212.011	0.109	0.172
-431.661	-22.772	0.132	0.080
-430.646	317.077	-0.121	-0.229
-429.632	88.121	-0.058	-0.065
-428.617	-21.504	0.167	0.102
-427.603	800.000	-0.064	-0.240
-426.588	-86.569	0.084	0.026
-425.573	1.157	-0.229	0.164
-424.559	135.316	0.043	0.056
-423.544	-23.721	0.264	-0.158
-422.530	-52.822	0.089	-0.041
-421.515	198.308	-0.111	0.170
-420.500	-130.494	-0.098	-0.013
-419.486	-51.037	0.361	-0.169
-418.471	-200.000	0.001	-0.413
-417.457	-158.731	0.402	-0.023
-416.442	-78.368	0.282	-0.097
-415.428	-17.927	-0.130	-0.082
-414.413	128.341	0.187	-0.238
-413.398	633.884	-0.083	-0.210
-412.384	-119.237	-0.208	-0.036
-411.369	19.915	0.234	0.189
-410.355	395.731	0.161	0.336
-409.340	800.000	0.030	-0.129
-408.325	201.942	-0.133	0.204
-407.311	403.446	0.069	0.145
-406.296	-200.000	-0.022	0.113
-405.282	184.498	0.127	-0.188
-404.267	-200.000	-0.001	0.090
-403.252	-43.298	-0.113	-0.057
-402.238	235.115	0.159	0.261
-401.223	-200.000	0.138	0.605
-400.209	516.682	0.186	-0.434
-399.194	67.609	0.063	-0.065
-398.179	-31.345	-0.190	0.107
-397.165	-200.000	0.176	0.000
-396.150	800.000	-0.083	-0.243
-395.136	-87.009	-0.214	-0.065
-394.121	-174.381	0.239	0.007
-393.106	-19.923	0.338	0.208
-392.092	-57.786	0.259	0.113
-391.077	80.231	0.135	0.144
-390.063	216.186	0.248	-0.393
-389.048	34.284	0.141	0.123
-388.033	81.296	-0.092	0.099
-387.019	-14.879	-0.186	-0.119
-386.004	-121.930	0.209	-0.034
-384.990	424.992	-0.104	-0.224
-383.975	-121.495	-0.206	-0.034
-382.960	1.036	-0.163	0.116
-381.946	-46.582	0.164	0.080
-380.931	-200.000	-0.048	-0.446
-379.917	-20.793	-0.146	-0.089
-378.902	69.933	-0.217	0.224
-377.888	48.953	-0.063	-0.059
-376.873	-62.709	-0.426	-0.176
-375.858	33.960	0.121	0.105
-374.844	232.916	0.035	0.057
-373.829	-200.000	-0.005	0.337
-372.815	160.813	0.146	0.203
-371.800	-48.126	0.302	-0.146
-370.785	560.077	-0.052	-0.126
-369.771	314.150	-0.233	0.437
-368.756	489.386	-0.098	0.224
-367.742	-200.000	0.020	-0.154
-366.727	-35.369	0.227	0.123
-365.712	-159.289	0.673	0.038
-364.698	-142.285	-0.186	0.018
-363.683	-103.716	-0.150	-0.035
-362.669	-2.272	-0.272	-0.190
-361.654	273.452	0.136	0.239
-360.639	742.351	0.204	-0.547
-359.625	-200.000	0.027	0.124
-358.610	-200.000	-0.135	-0.000
-357.596	414.528	-0.192	-0.407
-356.581	-97.574	-0.061	0.016
-355.566	-153.314	-0.308	0.021
-354.552	-200.000	0.045	0.250
-353.537	16.957	0.334	-0.263
-352.523	-200.000	-0.011	0.085
-351.508	-150.251	0.164	0.013
-350.493	800.000	0.021	-0.080
-349.479	189.174	0.161	-0.240
-348.464	196.195	0.141	0.214
-347.450	-33.254	-0.210	-0.116
-346.435	-35.250	0.178	0.096
-345.420	646.973	-0.050	-0.126
-344.406	800.000	-0.111	0.322
-343.391	-56.429	-0.175	-0.077
-342.377	513.980	0.073	-0.169
-341.362	-200.000	-0.006	-0.095
-340.348	39.270	-0.077	-0.069
-339.333	190.853	0.169	-0.253
-338.318	48.364	-0.315	-0.294
-337.304	-122.751	0.227	0.037
-336.289	3.217	-0.167	0.121
-335.275	-200.000	-0.022	-0.266
-334.260	-185.067	-0.230	0.004
-333.245	-70.096	-0.008	0.003
-332.231	-46.989	0.143	-0.070
-331.216	40.292	0.120	-0.107
-330.202	-34.631	-0.298	0.162
-329.187	800.000	-0.051	0.208
-328.172	-200.000	-0.023	-0.120
-327.158	23.917	-0.082	0.068
-326.143	59.465	0.037	-0.036
-325.129	110.665	0.104	0.124
-324.114	198.862	0.124	0.189
-323.099	-42.776	0.084	0.043
-322.085	11.822	0.159	-0.122
-321.070	-13.978	0.201	0.129
-320.056	37.671	0.230	-0.203
-319.041	674.672	0.037	0.094
-318.026	83.179	-0.105	-0.114
-317.012	-200.000	-0.033	0.231
-315.997	800.000	0.070	-0.195
-314.983	-34.595	0.136	0.074
-313.968	589.084	-0.072	0.175
-312.953	-171.225	-0.101	-0.003
-311.939	138.911	-0.046	-0.060
-310.924	42.970	0.356	0.323
-309.910	81.930	-0.173	0.186
-308.895	-200.000	-0.016	0.225
-307.880	-200.000	-0.007	0.183
-306.866	-174.339	0.133	-0.004
-305.851	-92.389	0.142	-0.040
-304.837	-144.386	-0.124	0.011
-303.822	570.385	-0.108	-0.261
-302.807	800.000	-0.076	-0.233
-301.793	176.336	-0.203	0.293
-300.778	-200.000	-0.043	0.518
-299.764	-200.000	-0.005	-0.109
-298.749	-103.617	0.141	0.033
-297.735	51.128	-0.084	-0.079
-296.720	-131.963	0.094	0.012
-295.705	-113.275	0.339	-0.066
-294.691	-45.252	0.087	-0.043
-293.676	800.000	0.064	0.264
-292.662	-62.894	0.323	-0.133
-291.647	-200.000	-0.019	0.160
-290.632	167.618	0.083	-0.117
-289.618	-108.102	0.193	-0.042
-288.603	-15.139	0.167	-0.106
-287.589	211.866	-0.077	0.120
-286.574	122.055	-0.244	0.303
-285.559	138.332	-0.074	-0.096
-284.545	800.000	0.012	-0.039
-283.530	-73.303	-0.336	0.122
-282.516	-106.233	0.138	0.031
-281.501	-200.000	0.039	0.358
-280.486	-115.028	-0.080	-0.015
-279.472	-200.000	-0.033	0.328
-278.457	-85.843	0.021	-0.006
-277.443	-14.651	-0.097	-0.062
-276.428	124.640	0.098	-0.122
-275.413	3.757	-0.120	-0.087
-274.399	-45.012	0.057	0.028
-273.384	354.312	0.074	-0.145
-272.370	37.924	-0.228	0.202
-271.355	24.585	-0.109	-0.090
-270.340	-53.046	0.236	-0.108
-269.326	-200.000	-0.017	0.305
-268.311	94.341	0.080	0.090
-267.297	-200.000	0.029	0.189
-266.282	177.709	-0.085	-0.122
-265.267	-7.045	-0.103	-0.069
-264.253	-119.019	-0.355	-0.062
-263.238	-120.190	-0.321	0.054
-262.224	98.489	-0.151	0.172
-261.209	-200.000	-0.012	0.143
-260.195	-51.802	-0.191	-0.088
-259.180	800.000	0.083	-0.258
-258.165	-64.638	0.195	-0.079
-257.151	800.000	-0.054	0.208
-256.136	800.000	-0.045	0.144
-255.122	469.405	0.165	0.369
-254.107	59.110	-0.052	-0.051
-253.092	63.779	-0.148	0.148
-252.078	-109.700	-0.201	-0.042
-251.063	-160.582	-0.288	-0.015
-250.049	158.051	-0.267	0.367
-249.034	333.161	0.090	0.173
-248.019	-29.770	-0.196	-0.111
-247.005	-69.979	-0.165	-0.062
-245.990	-200.000	-0.031	-0.223
-244.976	405.036	0.101	0.211
-243.961	-8.802	-0.270	0.180
-242.946	-157.479	0.078	0.005
-241.932	-200.000	0.042	-0.271
-240.917	-16.304	-0.072	-0.045
-239.903	-84.892	0.198	0.062
-238.888	800.000	-0.091	0.322
-237.873	41.000	-0.273	0.244
-236.859	-200.000	0.005	-0.237
-235.844	-73.125	-0.251	-0.091
-234.830	-102.382	0.064	-0.015
-233.815	800.000	0.041	-0.142
-232.800	-97.382	0.201	-0.052
-231.786	-200.000	0.017	-0.087
-230.771	-75.429	-0.183	0.065
-229.757	176.417	0.183	0.264
-228.742	800.000	-0.055	-0.193
-227.727	-132.520	-0.290	0.037
-226.713	-137.972	-0.412	0.046
-225.698	-150.947	-0.231	-0.017
-224.684	205.975	-0.141	-0.217
-223.669	343.138	-0.170	0.330
-222.655	259.304	0.259	0.443
-221.640	-200.000	0.010	0.090
-220.625	242.982	-0.317	0.527
-219.611	16.718	0.062	0.048
-218.596	-49.713	0.205	-0.097
-217.582	-95.651	-0.308	-0.082
-216.567	-34.559	0.145	-0.079
-215.552	-79.772	0.198	0.066
-214.538	-24.314	-0.113	-0.067
-213.523	-139.535	-0.064	0.007
-212.509	607.654	0.104	-0.256
-211.494	-32.104	-0.196	0.109
-210.479	800.000	-0.067	0.212
-209.465	66.591	0.115	-0.116
-208.450	-67.545	-0.137	-0.053
-207.436	58.109	0.238	0.231
-206.421	-133.574	-0.303	0.038
-205.406	471.840	-0.137	-0.304
-204.392	-165.759	-0.438	0.019
-203.377	800.000	0.037	-0.109
-202.363	-149.041	0.143	-0.011
-201.348	-104.877	-0.205	-0.047
-200.333	-100.278	0.226	0.056
-199.319	117.219	0.067	0.082
-198.304	-148.671	-0.230	-0.019
-197.290	-200.000	-0.021	-0.146
-196.275	-22.023	0.309	0.186
-195.260	-200.000	-0.005	0.068
-194.246	280.425	-0.032	-0.057
-193.231	-200.000	0.021	0.132
-192.217	374.209	0.134	-0.269
-191.202	174.575	0.121	-0.174
-190.187	-200.000	-0.008	-0.158
-189.173	-108.774	0.246	0.052
-188.158	1.853	0.298	0.213
-187.144	-27.165	0.166	-0.096
-186.129	800.000	-0.124	0.353
-185.114	206.736	-0.149	0.230
-184.100	101.117	-0.174	-0.200
-183.085	-121.079	0.141	0.023
-182.071	-165.531	-0.196	-0.008
-181.056	697.289	-0.196	0.510
-180.042	-167.187	0.118	-0.005
-179.027	-43.547	0.047	0.023
-178.012	-200.000	-0.016	0.162
-176.998	-48.902	-0.136	0.064
-175.983	-200.000	-0.079	-0.000
-174.969	-200.000	0.054	0.463
-173.954	-110.841	0.268	0.055
-172.939	48.002	0.105	0.097
-171.925	800.000	-0.037	0.106
-170.910	-124.427	0.141	-0.022
-169.896	22.329	-0.232	0.188
-168.881	655.270	0.031	0.079
-167.866	59.494	0.139	0.135
-166.852	-25.646	-0.209	-0.122
-165.837	8.671	0.361	0.269
-164.823	-64.246	0.214	0.086
-163.808	-23.573	0.304	0.180
-162.793	-140.406	0.197	-0.020
-161.779	-63.418	-0.140	0.057
-160.764	-29.515	0.171	0.096
-159.750	-68.703	0.125	-0.048
-158.735	-24.806	0.113	-0.067
-157.720	-169.770	-0.303	-0.011
-156.706	-200.000	0.023	-0.172
-155.691	38.695	-0.054	0.048
-154.677	-152.591	-0.041	-0.003
-153.662	225.566	0.114	-0.182
-152.647	193.847	0.174	0.261
-151.633	-80.265	-0.331	-0.110
-150.618	-200.000	0.010	0.088
-149.604	-200.000	0.006	0.210
-148.589	-27.350	0.123	0.071
-147.574	165.815	0.119	-0.166
-146.560	800.000	0.033	-0.117
-145.545	-43.579	0.193	-0.096
-144.531	-47.537	0.468	-0.225
-143.516	139.150	-0.030	-0.039
-142.502	-43.500	-0.221	-0.110
-141.487	-186.959	0.389	-0.005
-140.472	210.798	-0.104	-0.162
-139.458	-59.490	0.306	-0.130
-138.443	273.657	-0.051	-0.089
-137.429	-89.061	0.084	0.025
-136.414	-134.230	-0.369	0.045
-135.399	-141.208	0.326	0.033
-134.385	440.910	0.097	-0.210
-133.370	800.000	-0.022	-0.070
-132.356	87.691	-0.219	0.239
-131.341	800.000	0.081	0.239
-130.326	-105.345	-0.270	0.061
-129.312	-200.000	0.006	-0.450
-128.297	127.845	-0.164	0.205
-127.283	16.021	-0.165	-0.129
-126.268	511.371	0.069	0.159
-125.253	9.024	-0.184	0.137
-124.239	-3.794	0.163	0.112
-123.224	-68.314	-0.129	0.049
-122.210	-66.431	0.158	0.062
