DTS Sentinel unit serial number:	SN413079Multiplexer serial number:	ORYXHardware model number:	OX4-SRSoftware version number:	ORYX F/W v4.00 Oryx Data Collector v3.7.2.0data status	okinstallation	princeton_trtdifferential loss correction	single-endedforward channel	channel 1reverse channel	N/Adate	2019/09/12time	16:40:11forward acquisition time	60.00reverse acquisition time	0.00gamma	496.2192k internal	0.2307k external	0.2307temperature offset calibration	1.0100default loss term (dB/km)	0.3790temperature slope calibration	1.0000multiplexer offset coefficient	1.0000multiplexer slope coefficient	1.0000fibre end	0.00T internal ref (°C)	36.75T ext. ref 1 (°C)	2.73T ext. ref 2 (°C)	29.70length (m)	temperature (°C)	Stokes	anti-Stokes-747.200	-200.000	0.002	0.129
-746.185	-200.000	0.021	0.159
-745.171	-160.150	0.092	0.005
-744.156	543.968	-0.192	0.466
-743.142	76.664	0.193	0.209
-742.127	568.447	-0.175	0.432
-741.112	-115.138	0.341	0.066
-740.098	-58.231	-0.204	0.090
-739.083	-101.795	-0.279	0.069
-738.069	-76.876	0.241	0.086
-737.054	-54.416	0.098	0.045
-736.039	-49.872	-0.211	-0.102
-735.025	3.449	0.085	-0.063
-734.010	38.781	-0.186	-0.169
-732.996	107.655	-0.016	0.019
-731.981	311.175	-0.079	-0.150
-730.966	45.559	-0.204	-0.192
-729.952	800.000	-0.096	-0.287
-728.937	-200.000	0.025	0.251
-727.923	-122.521	0.172	-0.028
-726.908	-117.257	-0.075	-0.014
-725.894	345.422	-0.053	0.106
-724.879	-37.010	0.290	0.158
-723.864	146.605	0.046	-0.062
-722.850	800.000	-0.166	-0.494
-721.835	800.000	-0.071	0.214
-720.821	800.000	0.046	0.178
-719.806	-200.000	0.009	0.142
-718.791	-200.000	0.045	0.232
-717.777	-200.000	0.004	0.032
-716.762	-200.000	0.035	-0.169
-715.748	180.007	-0.082	0.123
-714.733	189.333	0.117	-0.178
-713.718	-200.000	0.053	-0.256
-712.704	-119.044	-0.251	-0.045
-711.689	161.014	-0.132	-0.188
-710.675	58.225	0.090	-0.089
-709.660	-8.278	0.113	0.077
-708.645	-200.000	0.068	-0.349
-707.631	412.281	0.192	-0.414
-706.616	26.690	-0.300	0.255
-705.602	800.000	0.080	0.224
-704.587	151.703	0.186	-0.258
-703.572	-101.826	0.374	0.092
-702.558	-200.000	0.096	-0.461
-701.543	0.635	0.240	-0.174
-700.529	-156.965	0.287	0.018
-699.514	244.639	-0.045	0.076
-698.499	179.710	-0.097	-0.144
-697.485	264.174	-0.140	-0.247
-696.470	81.764	-0.102	-0.112
-695.456	-128.468	0.317	-0.046
-694.441	-134.445	0.178	0.022
-693.426	19.962	0.054	0.044
-692.412	-54.452	-0.170	0.078
-691.397	114.293	-0.061	-0.075
-690.383	-141.141	0.014	-0.001
-689.368	89.881	-0.153	-0.173
-688.354	-200.000	-0.043	-0.363
-687.339	-165.375	-0.659	0.029
-686.324	146.486	0.124	0.169
-685.310	96.546	0.143	0.166
-684.295	-29.287	0.212	-0.123
-683.281	-134.408	-0.479	-0.060
-682.266	127.108	0.036	0.047
-681.251	71.499	-0.145	0.153
-680.237	-6.461	0.212	-0.147
-679.222	-96.081	-0.149	-0.040
-678.208	-200.000	-0.007	-0.126
-677.193	-200.000	0.022	-0.305
-676.178	-179.548	-0.241	-0.005
-675.164	96.965	-0.189	0.220
-674.149	-200.000	-0.050	-0.358
-673.135	-49.555	0.233	-0.112
-672.120	20.144	-0.114	-0.093
-671.105	-161.585	-0.267	0.014
-670.091	209.550	-0.105	-0.168
-669.076	55.323	0.171	0.167
-668.062	116.511	-0.145	0.180
-667.047	117.740	0.142	-0.177
-666.032	122.583	-0.115	0.145
-665.018	-149.101	-0.131	-0.011
-664.003	38.779	0.143	0.130
-662.989	78.758	0.153	0.166
-661.974	427.747	0.052	0.114
-660.959	288.523	-0.176	0.322
-659.945	548.947	-0.151	-0.368
-658.930	-44.703	-0.069	0.035
-657.916	34.863	0.302	0.268
-656.901	55.904	-0.086	0.085
-655.886	-200.000	0.027	0.123
-654.872	-200.000	-0.009	-0.078
-653.857	127.633	0.103	0.132
-652.843	-11.215	-0.260	-0.174
-651.828	-107.575	0.180	0.040
-650.814	-29.376	0.280	0.162
-649.799	378.549	0.127	0.264
-648.784	7.891	-0.042	0.032
-647.770	800.000	-0.092	-0.361
-646.755	800.000	0.070	-0.292
-645.741	-27.948	0.201	-0.118
-644.726	709.505	0.185	-0.495
-643.711	-42.203	0.027	0.014
-642.697	133.747	0.085	-0.112
-641.682	368.473	-0.076	0.155
-640.668	-178.201	0.339	-0.008
-639.653	-200.000	0.006	0.050
-638.638	452.949	0.110	0.247
-637.624	309.329	-0.019	-0.036
-636.609	14.614	-0.301	-0.238
-635.595	787.790	-0.104	-0.288
-634.580	-29.489	-0.258	-0.150
-633.565	573.253	-0.169	-0.417
-632.551	-200.000	-0.018	0.128
-631.536	78.063	-0.107	-0.115
-630.522	99.420	0.286	-0.334
-629.507	-15.059	0.143	0.092
-628.492	-28.938	0.174	-0.101
-627.478	61.758	0.193	0.195
-626.463	800.000	-0.032	-0.135
-625.449	-200.000	0.038	-0.174
-624.434	3.379	0.169	-0.125
-623.419	-96.586	0.418	-0.111
-622.405	95.508	-0.059	-0.068
-621.390	-200.000	0.028	0.176
-620.376	-97.341	0.162	-0.043
-619.361	-91.828	-0.202	-0.058
-618.346	32.578	0.186	0.163
-617.332	-72.951	0.587	0.218
-616.317	-101.829	-0.396	-0.097
-615.303	800.000	-0.033	0.100
-614.288	-57.898	0.107	0.047
-613.273	343.350	0.093	0.185
-612.259	195.644	0.143	-0.220
-611.244	-200.000	0.018	0.171
-610.230	-27.023	0.047	0.028
-609.215	180.214	0.135	-0.201
-608.201	-94.635	0.158	-0.043
-607.186	-200.000	0.001	-0.131
-606.171	233.863	-0.057	-0.095
-605.157	-200.000	0.010	-0.046
-604.142	4.148	-0.329	0.243
-603.128	-102.849	0.235	0.057
-602.113	-4.853	-0.102	0.071
-601.098	122.302	-0.211	-0.267
-600.084	-197.530	0.226	-0.001
-599.069	-200.000	-0.034	0.237
-598.055	-89.851	0.122	0.036
-597.040	-22.930	0.260	-0.159
-596.025	38.945	0.048	-0.043
-595.011	-53.919	0.105	-0.049
-593.996	-200.000	-0.002	-0.062
-592.982	61.792	0.053	0.053
-591.967	-200.000	0.063	0.384
-590.952	155.158	0.088	-0.122
-589.938	-45.505	-0.150	0.075
-588.923	673.185	-0.083	-0.218
-587.909	232.584	0.086	-0.143
-586.894	32.139	-0.088	-0.077
-585.879	-200.000	-0.051	-0.237
-584.865	73.336	0.138	-0.146
-583.850	189.306	-0.067	-0.101
-582.836	88.046	0.074	-0.083
-581.821	-200.000	-0.004	-0.177
-580.806	800.000	0.015	0.058
-579.792	800.000	-0.075	0.230
-578.777	-128.713	0.255	-0.036
-577.763	-200.000	-0.007	-0.134
-576.748	-200.000	-0.011	-0.318
-575.733	-13.912	-0.090	-0.059
-574.719	-144.476	0.223	-0.021
-573.704	800.000	0.051	0.171
-572.690	-49.642	0.065	-0.031
-571.675	-17.844	-0.207	-0.131
-570.661	-7.268	0.172	-0.118
-569.646	239.022	-0.083	-0.139
-568.631	32.229	0.195	-0.170
-567.617	-200.000	0.056	-0.339
-566.602	-96.029	0.255	-0.068
-565.588	326.170	0.070	-0.136
-564.573	8.033	-0.155	-0.117
-563.558	16.270	-0.098	0.078
-562.544	-132.386	0.161	-0.021
-561.529	559.173	-0.076	-0.184
-560.515	44.562	-0.254	-0.236
-559.500	-87.933	-0.298	0.090
-558.485	-200.000	-0.019	-0.116
-557.471	264.675	0.209	0.368
-556.456	-76.922	-0.175	0.062
-555.442	85.524	-0.017	-0.018
-554.427	-88.155	-0.292	0.088
-553.412	118.970	-0.092	-0.115
-552.398	-18.330	0.085	-0.054
-551.383	-117.286	0.296	0.054
-550.369	-146.811	-0.135	0.012
-549.354	-59.187	0.167	-0.073
-548.339	83.877	-0.222	0.244
-547.325	800.000	-0.025	-0.087
-546.310	58.783	-0.218	-0.216
-545.296	-117.445	-0.285	0.052
-544.281	133.571	0.055	0.072
-543.266	10.688	0.239	0.184
-542.252	510.068	-0.013	-0.031
-541.237	365.157	0.133	0.269
-540.223	-5.516	-0.187	0.130
-539.208	-102.026	-0.007	-0.002
-538.193	66.244	-0.108	0.111
-537.179	8.758	-0.176	0.134
-536.164	128.780	0.179	0.230
-535.150	-200.000	-0.021	-0.272
-534.135	800.000	-0.028	-0.119
-533.121	-200.000	0.030	-0.222
-532.106	-186.058	0.462	0.007
-531.091	10.894	0.168	-0.129
-530.077	130.384	-0.194	0.250
-529.062	-200.000	0.063	0.523
-528.048	-7.215	-0.093	-0.064
-527.033	152.446	0.132	-0.182
-526.018	19.841	0.213	0.173
-525.004	165.223	0.116	0.166
-523.989	-200.000	0.045	-0.256
-522.975	-136.415	-0.061	0.007
-521.960	37.098	-0.114	-0.101
-520.945	-117.821	-0.146	0.026
-519.931	-200.000	0.038	-0.323
-518.916	-200.000	-0.020	0.131
-517.902	-82.040	-0.108	0.035
-516.887	-123.566	0.292	0.047
-515.872	-100.346	0.094	-0.024
-514.858	-115.402	0.195	0.037
-513.843	-133.741	-0.067	0.008
-512.829	-200.000	-0.014	-0.067
-511.814	84.527	-0.102	-0.112
-510.799	235.165	-0.052	-0.086
-509.785	-35.396	-0.147	-0.081
-508.770	-57.275	0.198	-0.088
-507.756	800.000	-0.109	-0.320
-506.741	-157.589	-0.302	-0.018
-505.726	334.697	0.114	-0.223
-504.712	-200.000	0.020	0.139
-503.697	800.000	0.048	0.181
-502.683	-158.697	-0.140	0.008
-501.668	-93.570	-0.269	0.075
-500.653	800.000	-0.080	0.311
-499.639	-120.069	-0.093	-0.016
-498.624	-200.000	-0.049	-0.265
-497.610	375.611	-0.095	-0.194
-496.595	89.149	0.094	0.105
-495.581	-200.000	0.003	0.077
-494.566	761.527	0.101	0.277
-493.551	130.700	-0.177	0.228
-492.537	-102.706	-0.172	-0.041
-491.522	-141.587	0.257	-0.026
-490.508	-200.000	-0.009	-0.142
-489.493	69.563	0.042	0.043
-488.478	-44.066	-0.193	-0.097
-487.464	586.735	0.028	-0.068
-486.449	268.638	0.071	-0.126
-485.435	800.000	-0.035	0.111
-484.420	241.217	0.047	0.079
-483.405	-9.594	-0.373	0.250
-482.391	622.702	-0.090	-0.229
-481.376	-41.956	-0.194	0.100
-480.362	-200.000	0.009	-0.062
-479.347	-48.292	0.035	-0.017
-478.332	-63.311	0.160	-0.066
-477.318	800.000	-0.022	0.075
-476.303	-20.596	0.186	0.115
-475.289	-118.220	-0.339	-0.061
-474.274	-59.375	0.048	0.021
-473.259	-105.794	-0.250	0.057
-472.245	35.023	-0.173	-0.153
-471.230	-111.295	0.075	-0.015
-470.216	-200.000	0.076	0.376
-469.201	800.000	0.095	0.375
-468.186	-87.096	-0.234	-0.072
-467.172	-200.000	0.016	0.597
-466.157	290.375	0.055	0.100
-465.143	-80.150	0.220	-0.074
-464.128	-43.496	-0.118	0.060
-463.113	32.454	0.156	-0.135
-462.099	-200.000	0.004	0.079
-461.084	-40.122	-0.206	-0.108
-460.070	-200.000	0.005	-0.245
-459.055	-112.461	-0.307	0.062
-458.040	-200.000	0.057	-0.288
-457.026	-119.738	-0.207	0.036
-456.011	272.286	-0.173	0.307
-454.997	-18.152	0.141	-0.089
-453.982	-76.657	-0.057	0.020
-452.968	247.030	-0.092	0.157
-451.953	0.598	0.133	0.095
-450.938	-49.676	-0.211	0.101
-449.924	800.000	-0.078	0.292
-448.909	-39.952	-0.257	0.135
-447.895	-41.363	-0.362	0.187
-446.880	111.494	-0.294	0.357
-445.865	-200.000	-0.028	0.150
-444.851	-9.355	-0.104	0.069
-443.836	303.146	0.095	0.177
-442.822	-200.000	0.053	-0.291
-441.807	-200.000	0.021	-0.359
-440.792	155.177	-0.087	-0.121
-439.778	-109.096	0.180	-0.039
-438.763	260.603	0.187	-0.325
-437.749	-200.000	-0.002	-0.062
-436.734	800.000	0.065	-0.273
-435.719	-142.963	-0.228	0.022
-434.705	-62.257	-0.241	0.101
-433.690	203.002	-0.076	-0.118
-432.676	800.000	-0.106	-0.341
-431.661	-32.069	0.282	0.158
-430.646	-200.000	-0.004	-0.197
-429.632	51.540	-0.075	-0.071
-428.617	-53.817	0.048	-0.022
-427.603	800.000	0.029	-0.100
-426.588	800.000	-0.032	-0.094
-425.573	-23.512	-0.259	0.156
-424.559	243.543	0.112	0.189
-423.544	-79.911	0.320	0.108
-422.530	-12.197	-0.211	-0.139
-421.515	251.424	-0.081	-0.139
-420.500	-100.408	-0.393	-0.098
-419.486	555.946	-0.226	0.546
-418.471	208.240	-0.170	0.267
-417.457	-111.120	-0.120	-0.025
-416.442	-42.691	-0.047	0.024
-415.428	277.067	-0.110	0.196
-414.413	-108.507	-0.238	-0.051
-413.398	183.381	0.119	-0.177
-412.384	-109.646	0.222	-0.047
-411.369	298.040	0.147	-0.271
-410.355	-200.000	0.024	0.225
-409.340	4.880	0.149	-0.110
-408.325	-37.530	-0.077	-0.041
-407.311	348.110	-0.160	0.317
-406.296	152.861	0.199	0.272
-405.282	-122.517	-0.245	-0.040
-404.267	800.000	0.053	-0.180
-403.252	12.155	0.087	0.067
-402.238	783.511	0.090	-0.249
-401.223	-152.413	-0.254	-0.018
-400.209	-200.000	-0.009	-0.058
-399.194	49.187	-0.117	-0.110
-398.179	-107.053	0.174	0.039
-397.165	64.511	-0.215	0.217
-396.150	-200.000	-0.002	0.225
-395.136	-66.083	-0.284	0.114
-394.121	40.215	0.248	-0.224
-393.106	-48.251	0.178	0.086
-392.092	-155.803	-0.241	0.015
-391.077	-95.934	-0.243	-0.065
-390.063	-18.973	-0.077	0.048
-389.048	-25.871	0.103	-0.061
-388.033	-50.299	0.134	-0.064
-387.019	-26.036	0.033	-0.019
-386.004	-200.000	-0.000	0.267
-384.990	-141.853	-0.218	-0.022
-383.975	-139.739	0.081	-0.009
-382.960	800.000	-0.120	0.501
-381.946	-88.696	-0.432	0.129
-380.931	286.646	-0.120	-0.217
-379.917	-81.066	-0.049	-0.016
-378.902	-58.323	0.198	-0.086
-377.888	-71.073	-0.182	0.068
-376.873	61.065	-0.149	0.149
-375.858	94.394	0.283	0.323
-374.844	113.139	0.030	0.037
-373.829	-200.000	-0.020	-0.116
-372.815	-200.000	-0.014	-0.219
-371.800	181.107	-0.268	0.395
-370.785	-31.375	-0.200	-0.113
-369.771	-87.086	-0.316	0.096
-368.756	800.000	-0.004	0.014
-367.742	42.980	-0.066	-0.060
-366.727	-200.000	-0.002	0.205
-365.712	-1.889	-0.125	-0.088
-364.698	282.827	0.114	-0.205
-363.683	-156.220	-0.490	0.031
-362.669	149.156	-0.124	-0.169
-361.654	26.047	-0.116	0.097
-360.639	-119.678	-0.351	-0.061
-359.625	17.622	0.062	-0.049
-358.610	-200.000	0.006	-0.273
-357.596	-200.000	-0.014	-0.209
-356.581	497.853	0.017	-0.040
-355.566	-200.000	-0.019	-0.251
-354.552	-34.109	0.317	-0.174
-353.537	-116.735	0.374	-0.069
-352.523	-200.000	-0.001	0.133
-351.508	-143.157	-0.086	0.008
-350.493	800.000	0.023	-0.078
-349.479	389.930	-0.077	-0.159
-348.464	-106.248	0.375	0.084
-347.450	-122.885	0.270	0.044
-346.435	-200.000	0.025	-0.127
-345.420	161.525	0.111	0.155
-344.406	-67.521	0.228	0.090
-343.391	800.000	0.044	0.184
-342.377	-150.298	-0.128	0.010
-341.362	179.301	-0.080	-0.118
-340.348	-12.573	0.201	0.131
-339.333	-200.000	0.004	0.029
-338.318	171.053	0.111	-0.159
-337.304	-200.000	0.006	-0.153
-336.289	-121.746	-0.084	-0.014
-335.275	166.265	-0.136	0.192
-334.260	-200.000	-0.008	0.165
-333.245	197.076	-0.156	0.238
-332.231	150.878	-0.038	0.052
-331.216	-176.193	0.248	-0.007
-330.202	97.664	-0.058	-0.066
-329.187	-50.426	0.104	-0.049
-328.172	-137.752	-0.243	0.027
-327.158	-138.512	-0.215	-0.024
-326.143	86.887	-0.217	-0.240
-325.129	384.614	-0.156	0.321
-324.114	-191.225	-0.296	0.003
-323.099	-70.674	-0.230	-0.087
-322.085	-55.507	0.186	-0.083
-321.070	-42.950	0.131	0.067
-320.056	-200.000	0.016	-0.402
-319.041	85.365	0.285	-0.313
-318.026	54.393	-0.246	-0.237
-317.012	228.270	0.071	-0.116
-315.997	115.916	-0.133	-0.163
-314.983	-200.000	0.014	-0.358
-313.968	-200.000	0.024	0.233
-312.953	-31.468	0.118	0.066
-311.939	-200.000	0.018	0.201
-310.924	130.065	-0.169	0.216
-309.910	800.000	0.043	0.154
-308.895	-135.675	-0.065	0.008
-307.880	-131.210	0.210	0.028
-306.866	-78.233	0.223	0.077
-305.851	359.091	-0.021	-0.043
-304.837	37.661	-0.073	0.065
-303.822	-39.709	-0.221	-0.116
-302.807	408.313	0.092	0.194
-301.793	-97.591	0.176	0.046
-300.778	-200.000	0.052	0.229
-299.764	78.497	0.210	0.224
-298.749	-200.000	0.041	0.210
-297.735	800.000	-0.068	0.258
-296.720	-80.530	0.410	0.137
-295.705	3.597	0.309	-0.225
-294.691	800.000	0.141	-0.486
-293.676	5.860	-0.099	0.073
-292.662	110.482	0.053	-0.064
-291.647	291.372	-0.066	-0.120
-290.632	-118.599	0.240	-0.042
-289.618	-200.000	0.006	0.211
-288.603	-17.079	0.287	-0.181
-287.589	-95.793	0.112	0.030
-286.574	143.337	0.117	-0.155
-285.559	-96.092	0.327	0.087
-284.545	366.220	-0.045	-0.091
-283.530	-38.655	-0.132	0.070
-282.516	-200.000	0.010	0.117
-281.501	57.848	-0.149	0.146
-280.486	-142.993	-0.203	0.020
-279.472	-200.000	-0.030	0.134
-278.457	359.767	-0.097	0.193
-277.443	-148.853	-0.062	0.005
-276.428	-200.000	-0.011	0.100
-275.413	-12.672	-0.115	0.075
-274.399	36.903	0.176	0.155
-273.384	9.217	0.302	-0.228
-272.370	-5.273	0.122	0.084
-271.355	-12.736	-0.454	-0.295
-270.340	-156.398	-0.052	-0.003
-269.326	57.931	0.091	-0.089
-268.311	-150.383	-0.353	-0.027
-267.297	92.865	0.020	0.022
-266.282	-74.917	0.414	-0.148
-265.267	-88.705	0.183	0.054
-264.253	800.000	-0.040	0.153
-263.238	-92.009	-0.285	-0.081
-262.224	-78.186	-0.129	-0.044
-261.209	-22.667	-0.235	0.142
-260.195	80.722	-0.043	0.046
-259.180	144.787	-0.133	0.177
-258.165	305.389	0.196	0.363
-257.151	-200.000	-0.018	0.177
-256.136	506.289	0.060	-0.139
-255.122	651.909	0.111	-0.283
-254.107	800.000	-0.014	0.057
-253.092	10.981	0.149	0.113
-252.078	800.000	0.057	-0.186
-251.063	154.340	0.143	0.195
-250.049	122.317	-0.078	-0.097
-249.034	800.000	0.040	-0.150
-248.019	-117.589	-0.285	-0.051
-247.005	-18.626	0.139	-0.086
-245.990	-126.014	0.162	0.024
-244.976	800.000	0.018	-0.052
-243.961	-24.877	-0.276	-0.163
-242.946	123.968	0.050	-0.063
-241.932	66.938	0.185	0.188
-240.917	-200.000	0.078	0.351
-239.903	-5.778	0.070	0.048
-238.888	84.343	0.156	-0.170
-237.873	-186.895	0.440	0.006
-236.859	-200.000	-0.034	-0.280
-235.844	9.100	-0.034	-0.026
-234.830	-106.127	0.421	0.094
-233.815	-50.495	-0.315	0.148
-232.800	-28.629	0.266	0.153
-231.786	-200.000	-0.092	0.602
-230.771	-200.000	-0.134	0.000
-229.757	-103.316	-0.308	-0.072
-228.742	535.187	-0.039	0.091
-227.727	128.608	0.214	0.271
-226.713	-113.822	-0.117	0.023
-225.698	263.307	-0.181	0.313
-224.684	34.816	0.019	0.016
-223.669	-200.000	0.040	-0.211
-222.655	66.300	-0.248	0.251
-221.640	-76.812	-0.148	0.052
-220.625	-49.324	0.360	-0.171
-219.611	196.755	-0.177	-0.268
-218.596	-200.000	0.043	0.194
-217.582	-200.000	0.063	0.448
-216.567	5.878	0.115	-0.085
-215.552	7.037	-0.074	0.055
-214.538	48.677	0.162	-0.151
-213.523	-174.535	0.271	0.008
-212.509	800.000	0.080	-0.235
-211.494	-29.403	0.121	-0.069
-210.479	-200.000	-0.002	-0.243
-209.465	-31.042	-0.110	-0.062
-208.450	125.411	0.269	0.338
-207.436	104.213	-0.188	-0.221
-206.421	-85.310	-0.316	-0.098
-205.406	296.225	0.163	0.298
-204.392	218.325	0.168	0.266
-203.377	-200.000	-0.032	-0.338
-202.363	-136.519	0.336	0.039
-201.348	322.737	0.060	-0.113
-200.333	146.245	-0.032	0.043
-199.319	800.000	0.035	0.149
-198.304	28.387	-0.091	-0.076
-197.290	800.000	-0.067	-0.221
-196.275	27.875	-0.110	0.093
-195.260	-86.065	0.213	-0.066
-194.246	94.725	0.146	0.166
-193.231	-18.990	0.150	-0.093
-192.217	-110.807	-0.105	-0.022
-191.202	800.000	0.056	-0.206
-190.187	201.139	-0.117	0.179
-189.173	70.881	0.089	0.092
-188.158	399.936	0.008	-0.016
-187.144	-200.000	-0.002	0.136
-186.129	-65.924	0.186	0.074
-185.114	181.071	-0.041	0.060
-184.100	-5.030	-0.376	0.257
-183.085	169.164	0.173	-0.245
-182.071	13.841	-0.191	0.147
-181.056	416.429	-0.150	0.318
-180.042	134.491	-0.226	-0.292
-179.027	126.576	-0.093	0.117
-178.012	-200.000	-0.015	-0.131
-176.998	-72.244	0.198	-0.073
-175.983	28.574	-0.062	-0.052
-174.969	-64.205	0.178	0.072
-173.954	800.000	0.095	-0.320
-172.939	-126.842	0.297	0.044
-171.925	-104.222	-0.209	0.048
-170.910	-105.940	0.162	-0.036
-169.896	745.557	-0.095	-0.254
-168.881	800.000	-0.052	-0.144
-167.866	-63.707	0.280	0.114
-166.852	107.774	-0.347	0.410
-165.837	145.192	0.113	0.151
-164.823	-64.785	0.247	0.099
-163.808	130.469	0.126	-0.161
-162.793	37.125	-0.035	0.031
-161.779	-64.682	0.062	0.025
-160.764	55.300	0.356	-0.342
-159.750	368.873	0.088	0.177
-158.735	382.082	0.129	-0.264
-157.720	73.722	0.193	0.201
-156.706	-87.793	-0.466	0.139
-155.691	-200.000	-0.001	-0.195
-154.677	-64.479	0.237	-0.096
-153.662	-29.402	-0.141	0.080
-152.647	345.002	-0.032	0.062
-151.633	800.000	-0.110	0.365
-150.618	248.881	-0.036	0.060
-149.604	-186.804	-0.251	0.003
-148.589	800.000	-0.138	-0.417
-147.574	-200.000	0.014	-0.215
-146.560	-85.299	0.249	-0.077
-145.545	-48.698	-0.095	-0.045
-144.531	-120.588	0.519	-0.087
-143.516	-157.828	-0.397	-0.023
-142.502	-200.000	-0.005	0.114
-141.487	-65.417	-0.447	-0.179
-140.472	800.000	0.086	-0.238
-139.458	436.039	-0.025	-0.053
-138.443	-125.344	-0.398	0.060
-137.429	34.418	0.019	0.017
-136.414	-148.877	-0.082	0.007
-135.399	-144.048	0.192	-0.018
-134.385	338.693	0.083	0.161
-133.370	-112.079	0.281	-0.056
-132.356	-200.000	0.051	0.237
-131.341	800.000	-0.025	-0.108
-130.326	-200.000	0.007	-0.126
-129.312	-134.690	-0.267	0.032
-128.297	32.224	-0.150	0.129
-127.283	72.888	-0.126	0.130
-126.268	31.562	-0.099	0.085
-125.253	800.000	-0.021	-0.088
-124.239	-72.669	-0.352	0.129
-123.224	-22.536	-0.032	-0.019
-122.210	-57.783	0.190	0.083
-121.195	-100.072	0.061	-0.015
