DTS Sentinel unit serial number:	SN413079Multiplexer serial number:	ORYXHardware model number:	OX4-SRSoftware version number:	ORYX F/W v4.00 Oryx Data Collector v3.7.2.0data status	okinstallation	princeton_trtdifferential loss correction	single-endedforward channel	channel 1reverse channel	N/Adate	2019/09/15time	15:34:35forward acquisition time	60.00reverse acquisition time	0.00gamma	496.2192k internal	0.2292k external	0.2292temperature offset calibration	0.9947default loss term (dB/km)	0.3790temperature slope calibration	1.0000multiplexer offset coefficient	1.0000multiplexer slope coefficient	1.0000fibre end	0.00T internal ref (°C)	41.39T ext. ref 1 (°C)	5.14T ext. ref 2 (°C)	38.84length (m)	temperature (°C)	Stokes	anti-Stokes-747.200	-182.514	0.298	-0.006
-746.185	-85.068	-0.425	0.136
-745.171	-23.997	-0.162	-0.099
-744.156	-200.000	-0.007	0.251
-743.142	-200.000	0.009	-0.178
-742.127	800.000	-0.089	0.339
-741.112	777.363	-0.141	0.393
-740.098	194.374	-0.110	0.170
-739.083	554.401	0.072	0.176
-738.069	330.055	0.223	0.440
-737.054	188.071	0.146	0.224
-736.039	-10.734	-0.033	-0.022
-735.025	800.000	-0.014	-0.061
-734.010	62.360	0.071	-0.072
-732.996	75.066	0.084	-0.091
-731.981	800.000	0.061	0.183
-730.966	22.294	0.332	-0.278
-729.952	-30.402	-0.115	-0.067
-728.937	-105.122	0.329	-0.077
-727.923	-137.430	-0.125	0.015
-726.908	-147.047	-0.204	0.018
-725.894	201.105	-0.105	-0.165
-724.879	-200.000	-0.023	-0.218
-723.864	768.499	0.098	0.274
-722.850	-25.076	-0.219	0.133
-721.835	-200.000	0.028	-0.473
-720.821	-4.352	0.248	0.175
-719.806	-200.000	0.004	0.136
-718.791	226.041	-0.220	0.366
-717.777	-27.449	0.059	-0.035
-716.762	252.478	0.091	-0.158
-715.748	217.121	-0.127	-0.207
-714.733	-20.411	-0.285	0.179
-713.718	-146.063	0.081	-0.007
-712.704	8.986	0.104	0.080
-711.689	-42.777	0.260	0.135
-710.675	-37.162	0.106	-0.058
-709.660	-105.184	0.064	0.015
-708.645	1.441	-0.145	0.106
-707.631	44.199	0.064	-0.060
-706.616	185.637	-0.084	-0.127
-705.602	-82.304	-0.335	-0.111
-704.587	800.000	-0.082	0.278
-703.572	278.228	-0.086	-0.156
-702.558	-63.597	0.187	-0.078
-701.543	-200.000	-0.001	-0.076
-700.529	18.571	0.021	0.017
-699.514	-200.000	0.015	0.086
-698.499	-121.897	0.203	0.034
-697.485	242.805	0.052	-0.089
-696.470	79.024	0.255	0.279
-695.456	1.318	0.137	-0.101
-694.441	-200.000	0.011	-0.179
-693.426	-61.826	-0.083	-0.035
-692.412	142.960	-0.302	-0.410
-691.397	-200.000	-0.002	-0.148
-690.383	-109.166	0.296	-0.064
-689.368	800.000	0.034	-0.132
-688.354	-68.652	-0.080	0.032
-687.339	-94.294	-0.086	-0.024
-686.324	206.276	-0.107	-0.170
-685.310	367.280	-0.063	-0.130
-684.295	-94.717	0.331	0.092
-683.281	-200.000	-0.013	-0.154
-682.266	-36.572	0.208	-0.114
-681.251	-200.000	-0.003	0.422
-680.237	800.000	-0.021	-0.060
-679.222	-181.206	-0.167	0.003
-678.208	-200.000	0.037	-0.172
-677.193	95.740	-0.170	-0.198
-676.178	-200.000	0.001	-0.108
-675.164	-200.000	0.017	-0.267
-674.149	800.000	-0.071	-0.215
-673.135	425.431	-0.124	0.272
-672.120	20.793	-0.118	-0.098
-671.105	-127.609	0.281	0.042
-670.091	373.373	-0.097	-0.202
-669.076	-76.728	-0.167	0.060
-668.062	-86.415	0.116	-0.036
-667.047	189.310	-0.160	-0.245
-666.032	-89.383	0.074	-0.022
-665.018	-35.600	0.110	0.061
-664.003	-59.460	-0.254	0.111
-662.989	276.457	0.154	-0.279
-661.974	-166.672	0.266	-0.011
-660.959	-111.255	0.087	-0.018
-659.945	-81.277	-0.250	-0.084
-658.930	800.000	-0.028	-0.106
-657.916	-200.000	0.001	0.057
-656.901	-23.292	-0.116	-0.071
-655.886	-93.753	-0.232	0.065
-654.872	-200.000	0.021	-0.223
-653.857	27.702	0.201	-0.173
-652.843	90.432	-0.095	-0.108
-651.828	-133.155	-0.018	0.002
-650.814	-156.411	-0.077	-0.005
-649.799	47.661	-0.358	0.341
-648.784	123.403	-0.038	0.049
-647.770	369.054	-0.098	-0.202
-646.755	-45.073	-0.252	-0.128
-645.741	-3.929	0.209	-0.148
-644.726	-119.773	0.134	-0.023
-643.711	800.000	0.011	-0.038
-642.697	-200.000	-0.002	-0.139
-641.682	123.073	0.184	0.234
-640.668	-200.000	-0.013	0.084
-639.653	-6.857	-0.285	-0.198
-638.638	-143.755	-0.102	-0.010
-637.624	-200.000	0.027	-0.126
-636.609	-178.885	-0.089	0.002
-635.595	-0.145	-0.128	0.093
-634.580	-87.886	0.120	0.037
-633.565	-73.234	-0.229	0.086
-632.551	89.443	0.299	0.339
-631.536	-200.000	0.009	-0.118
-630.522	420.085	-0.100	0.218
-629.507	-200.000	-0.019	-0.087
-628.492	361.102	0.080	-0.162
-627.478	-92.603	0.245	-0.070
-626.463	800.000	-0.064	-0.210
-625.449	-200.000	0.022	-0.168
-624.434	-200.000	-0.038	0.254
-623.419	92.627	0.091	-0.104
-622.405	-147.951	0.189	-0.016
-621.390	-112.527	-0.083	0.017
-620.376	0.354	0.114	-0.083
-619.361	-143.531	-0.099	-0.010
-618.346	280.024	0.014	-0.025
-617.332	-200.000	-0.005	-0.143
-616.317	-34.689	0.079	0.044
-615.303	251.509	-0.087	0.150
-614.288	38.326	0.126	0.115
-613.273	20.394	-0.046	0.037
-612.259	473.529	-0.016	0.038
-611.244	-141.544	0.302	-0.031
-610.230	1.021	-0.376	-0.274
-609.215	800.000	-0.094	0.320
-608.201	69.369	0.202	0.212
-607.186	-111.652	0.243	0.050
-606.171	42.564	-0.068	-0.063
-605.157	-200.000	-0.023	-0.157
-604.142	-54.493	0.253	-0.116
-603.128	-93.890	0.339	-0.095
-602.113	-3.115	0.156	0.111
-601.098	20.819	0.186	-0.153
-600.084	151.546	-0.174	-0.241
-599.069	147.490	-0.123	0.168
-598.055	-42.919	0.149	-0.077
-597.040	-5.206	-0.151	0.106
-596.025	762.658	-0.097	-0.268
-595.011	-25.206	-0.182	-0.110
-593.996	800.000	0.062	0.216
-592.982	800.000	0.084	-0.301
-591.967	168.960	-0.016	-0.023
-590.952	-26.342	-0.178	-0.106
-589.938	33.708	0.138	0.122
-588.923	-36.314	0.166	-0.091
-587.909	-103.760	-0.273	-0.065
-586.894	144.862	0.055	-0.075
-585.879	-35.373	-0.128	-0.071
-584.865	-200.000	-0.042	-0.267
-583.850	-161.640	-0.099	0.005
-582.836	-142.947	0.139	0.014
-581.821	-200.000	-0.044	0.294
-580.806	53.377	-0.135	-0.132
-579.792	-19.286	0.164	-0.104
-578.777	-88.865	0.330	0.100
-577.763	-131.267	0.146	-0.020
-576.748	66.974	-0.485	0.503
-575.733	66.851	0.081	-0.084
-574.719	-15.863	-0.132	-0.085
-573.704	-200.000	-0.001	-0.359
-572.690	-16.974	-0.259	-0.166
-571.675	74.192	0.150	0.160
-570.661	118.884	0.288	0.362
-569.646	-136.710	-0.261	-0.031
-568.631	301.555	0.036	0.067
-567.617	-186.957	-0.392	-0.006
-566.602	-107.480	-0.136	0.030
-565.588	-113.798	-0.138	-0.027
-564.573	51.889	-0.084	0.081
-563.558	-111.517	0.337	-0.070
-562.544	-84.315	0.366	0.118
-561.529	-38.196	-0.235	-0.126
-560.515	204.137	0.092	-0.145
-559.500	-124.260	-0.166	-0.026
-558.485	-89.092	-0.201	0.060
-557.471	125.570	0.167	0.214
-556.456	129.754	-0.035	-0.046
-555.442	-45.173	0.189	-0.095
-554.427	528.902	-0.134	0.322
-553.412	425.051	-0.110	0.240
-552.398	800.000	0.034	-0.133
-551.383	800.000	0.063	-0.201
-550.369	112.708	0.067	-0.082
-549.354	-123.470	-0.119	0.019
-548.339	30.795	-0.138	-0.120
-547.325	800.000	-0.050	-0.190
-546.310	-141.429	-0.174	0.018
-545.296	11.452	-0.217	-0.169
-544.281	131.297	0.119	0.156
-543.266	-114.742	0.233	0.045
-542.252	1.865	-0.094	-0.069
-541.237	-97.626	-0.132	0.035
-540.223	-70.572	-0.337	0.129
-539.208	800.000	-0.040	0.141
-538.193	-200.000	-0.036	-0.260
-537.179	-24.169	-0.206	0.125
-536.164	-36.151	0.120	-0.066
-535.150	-39.419	-0.068	-0.036
-534.135	17.102	0.158	0.127
-533.121	61.960	0.151	0.153
-532.106	-75.018	-0.174	-0.063
-531.091	357.827	0.133	0.270
-530.077	-101.905	0.087	0.021
-529.062	-30.476	0.369	-0.212
-528.048	276.045	-0.166	0.299
-527.033	166.518	-0.186	-0.268
-526.018	-142.346	-0.214	0.021
-525.004	21.556	-0.187	0.154
-523.989	-200.000	0.016	-0.319
-522.975	-134.097	0.296	0.037
-521.960	-200.000	0.033	-0.253
-520.945	211.822	-0.139	-0.222
-519.931	800.000	-0.096	0.281
-518.916	-88.329	0.226	-0.069
-517.902	64.703	-0.167	-0.170
-516.887	478.671	0.099	0.227
-515.872	-200.000	0.020	0.140
-514.858	128.489	-0.084	0.109
-513.843	-182.923	-0.117	0.002
-512.829	-66.774	0.201	0.081
-511.814	205.429	0.117	-0.185
-510.799	549.992	0.146	-0.356
-509.785	247.374	-0.214	-0.366
-508.770	-200.000	-0.044	-0.221
-507.756	603.992	0.183	-0.462
-506.741	-12.641	0.152	-0.100
-505.726	-200.000	0.008	0.106
-504.712	-98.600	0.254	0.066
-503.697	800.000	-0.076	0.213
-502.683	262.225	0.034	0.060
-501.668	63.899	0.054	0.055
-500.653	800.000	0.036	0.110
-499.639	-131.287	-0.075	-0.010
-498.624	293.071	0.206	0.380
-497.610	43.776	-0.074	-0.069
-496.595	150.940	-0.071	0.098
-495.581	712.406	-0.031	0.083
-494.566	32.944	-0.075	-0.066
-493.551	800.000	-0.049	-0.192
-492.537	-200.000	-0.032	-0.422
-491.522	178.578	0.190	-0.282
-490.508	-40.788	0.050	0.026
-489.493	89.972	-0.144	0.163
-488.478	292.462	-0.187	0.345
-487.464	239.321	0.081	0.136
-486.449	-200.000	-0.036	0.172
-485.435	-167.051	-0.163	0.007
-484.420	8.539	-0.123	0.094
-483.405	-70.320	-0.203	-0.078
-482.391	800.000	-0.078	0.240
-481.376	-77.483	-0.291	0.102
-480.362	-56.784	0.252	-0.113
-479.347	800.000	-0.036	-0.104
-478.332	-200.000	0.019	0.166
-477.318	9.069	0.220	-0.168
-476.303	17.957	0.078	0.063
-475.289	-200.000	-0.290	0.000
-474.274	157.351	-0.189	-0.265
-473.259	156.304	0.140	0.195
-472.245	-67.939	0.207	0.082
-471.230	-200.000	0.020	0.095
-470.216	-151.782	0.207	0.015
-469.201	-200.000	0.003	0.115
-468.186	-26.185	0.115	-0.068
-467.172	-200.000	0.104	-0.715
-466.157	-200.000	0.017	-0.172
-465.143	67.033	0.025	-0.026
-464.128	175.811	-0.182	-0.267
-463.113	88.063	0.149	0.167
-462.099	-133.827	0.233	0.029
-461.084	-60.988	-0.184	0.079
-460.070	800.000	0.084	0.254
-459.055	27.868	0.157	0.134
-458.040	-200.000	-0.015	-0.193
-457.026	-25.175	-0.125	0.075
-456.011	-25.340	-0.175	-0.105
-454.997	-26.274	0.198	0.118
-453.982	11.241	-0.166	0.129
-452.968	40.321	0.275	0.251
-451.953	97.958	-0.030	-0.035
-450.938	-60.219	0.332	0.143
-449.924	-89.516	0.093	-0.028
-448.909	255.185	-0.025	-0.044
-447.895	-200.000	0.008	0.061
-446.880	5.133	0.276	-0.206
-445.865	25.468	-0.320	0.269
-444.851	13.308	0.194	-0.152
-443.836	79.015	-0.240	-0.260
-442.822	-25.663	0.234	-0.140
-441.807	-88.112	-0.187	-0.057
-440.792	177.046	-0.040	0.059
-439.778	103.784	0.007	-0.009
-438.763	-48.450	0.247	0.120
-437.749	171.820	0.191	-0.277
-436.734	-52.175	-0.392	-0.184
-435.719	124.632	-0.101	0.128
-434.705	175.818	0.105	-0.154
-433.690	118.767	0.040	-0.050
-432.676	145.406	-0.038	-0.051
-431.661	-6.691	0.112	0.077
-430.646	203.512	-0.031	0.048
-429.632	-28.817	-0.129	0.075
-428.617	206.105	-0.068	0.107
-427.603	68.865	0.179	0.186
-426.588	46.226	-0.213	-0.199
-425.573	163.203	0.153	-0.218
-424.559	-15.460	0.070	0.045
-423.544	-19.937	0.202	0.126
-422.530	44.887	-0.094	0.088
-421.515	-200.000	0.058	-0.268
-420.500	-152.952	0.321	0.023
-419.486	-100.795	-0.205	0.051
-418.471	-149.628	0.282	0.022
-417.457	-68.197	-0.198	-0.078
-416.442	110.768	-0.220	-0.268
-415.428	166.882	0.249	0.357
-414.413	-59.253	-0.124	-0.054
-413.398	-106.563	-0.326	0.073
-412.384	-200.000	0.061	0.454
-411.369	140.023	0.142	-0.190
-410.355	-74.228	-0.267	0.097
-409.340	355.047	0.122	-0.244
-408.325	-89.175	-0.128	-0.038
-407.311	60.970	0.080	-0.080
-406.296	696.368	0.084	0.223
-405.282	-39.716	0.181	0.096
-404.267	-200.000	-0.061	-0.308
-403.252	-71.653	0.289	0.109
-402.238	-200.000	0.037	0.262
-401.223	-164.300	0.190	-0.009
-400.209	104.722	-0.178	0.212
-399.194	-120.849	0.163	0.028
-398.179	-200.000	-0.054	0.333
-397.165	800.000	0.115	0.344
-396.150	-53.574	-0.126	0.058
-395.136	335.906	-0.150	-0.293
-394.121	-17.422	-0.214	-0.136
-393.106	112.963	-0.061	-0.074
-392.092	-200.000	-0.025	0.296
-391.077	5.306	-0.123	0.091
-390.063	452.642	-0.035	-0.079
-389.048	800.000	-0.029	0.084
-388.033	-143.796	0.351	-0.034
-387.019	-109.296	-0.125	-0.027
-386.004	-200.000	0.106	0.549
-384.990	55.624	-0.146	0.143
-383.975	-145.614	-0.116	-0.010
-382.960	-200.000	0.030	0.161
-381.946	407.264	-0.054	-0.116
-380.931	-16.404	-0.090	0.058
-379.917	-103.387	-0.287	-0.068
-378.902	760.461	-0.117	0.321
-377.888	-8.629	-0.181	0.122
-376.873	178.278	-0.239	0.352
-375.858	-124.914	0.087	-0.013
-374.844	364.856	0.147	-0.298
-373.829	-174.380	-0.157	-0.005
-372.815	-88.854	-0.143	-0.043
-371.800	-78.659	-0.138	-0.048
-370.785	-12.601	-0.220	-0.145
-369.771	800.000	-0.090	-0.334
-368.756	44.458	0.044	-0.041
-367.742	275.408	-0.112	-0.200
-366.727	-61.941	-0.140	-0.059
-365.712	-200.000	-0.016	0.230
-364.698	30.284	-0.143	-0.123
-363.683	202.436	0.119	-0.185
-362.669	-50.069	-0.121	0.058
-361.654	-200.000	-0.029	-0.195
-360.639	-87.977	0.198	0.060
-359.625	236.583	0.101	0.169
-358.610	66.565	0.131	-0.135
-357.596	800.000	0.089	-0.250
-356.581	-150.333	0.260	0.020
-355.566	246.331	0.055	0.093
-354.552	-1.138	0.123	0.087
-353.537	-81.495	-0.162	0.054
-352.523	-200.000	-0.002	0.110
-351.508	85.640	-0.165	0.183
-350.493	-32.183	-0.211	-0.119
-349.479	-133.495	-0.284	-0.036
-348.464	101.298	0.178	-0.209
-347.450	-200.000	-0.004	0.158
-346.435	-87.277	0.183	-0.056
-345.420	800.000	0.132	0.373
-344.406	547.424	0.006	0.015
-343.391	215.714	0.159	-0.254
-342.377	-173.612	0.230	0.007
-341.362	40.578	0.104	-0.094
-340.348	-119.970	-0.090	0.016
-339.333	-200.000	-0.036	0.367
-338.318	800.000	-0.026	0.073
-337.304	543.239	0.148	0.356
-336.289	-65.194	-0.370	-0.150
-335.275	532.344	0.085	0.204
-334.260	238.259	0.276	0.461
-333.245	-136.189	0.051	-0.006
-332.231	800.000	0.096	-0.367
-331.216	0.112	0.145	0.104
-330.202	-119.053	-0.080	-0.014
-329.187	-95.698	0.342	-0.092
-328.172	-52.079	-0.136	-0.064
-327.158	237.759	-0.053	-0.089
-326.143	-200.000	0.007	0.324
-325.129	56.779	0.031	0.030
-324.114	800.000	0.037	-0.112
-323.099	-79.132	-0.184	-0.063
-322.085	323.500	0.106	0.204
-321.070	-200.000	-0.049	0.345
-320.056	9.732	0.182	-0.139
-319.041	-200.000	-0.013	-0.220
-318.026	-98.226	0.229	0.059
-317.012	-33.204	-0.228	0.127
-315.997	-24.209	0.043	0.026
-314.983	502.255	-0.040	0.092
-313.968	-96.336	-0.186	0.050
-312.953	-200.000	0.087	-0.481
-311.939	-200.000	-0.012	0.143
-310.924	-79.611	-0.100	-0.034
-309.910	800.000	0.038	0.114
-308.895	67.509	0.158	0.162
-307.880	800.000	-0.108	-0.377
-306.866	499.829	-0.002	0.004
-305.851	-200.000	-0.034	0.161
-304.837	195.057	-0.056	0.086
-303.822	181.546	0.184	-0.272
-302.807	411.237	-0.105	0.224
-301.793	-148.261	0.226	-0.019
-300.778	-45.256	0.138	-0.069
-299.764	-81.225	-0.099	-0.033
-298.749	-200.000	-0.022	-0.273
-297.735	38.539	0.095	0.085
-296.720	800.000	0.036	-0.107
-295.705	-41.677	-0.159	-0.082
-294.691	-85.419	0.281	-0.088
-293.676	246.820	0.089	0.150
-292.662	140.626	-0.144	0.191
-291.647	732.512	0.139	-0.374
-290.632	-200.000	0.009	-0.178
-289.618	50.132	-0.113	-0.108
-288.603	165.822	-0.036	-0.051
-287.589	-200.000	-0.025	-0.155
-286.574	-200.000	-0.015	0.133
-285.559	262.706	-0.132	0.231
-284.545	36.410	0.058	0.051
-283.530	15.532	-0.271	0.214
-282.516	800.000	0.075	-0.238
-281.501	64.817	0.199	-0.202
-280.486	79.220	0.126	-0.136
-279.472	-200.000	0.027	-0.166
-278.457	800.000	-0.088	0.283
-277.443	489.042	-0.169	0.388
-276.428	143.903	0.113	0.151
-275.413	-200.000	0.006	-0.030
-274.399	282.449	0.185	-0.333
-273.384	44.118	-0.179	-0.165
-272.370	-96.591	-0.107	-0.028
-271.355	266.927	-0.134	0.236
-270.340	285.529	-0.111	-0.201
-269.326	-17.040	0.244	-0.155
-268.311	-200.000	0.006	0.219
-267.297	-200.000	-0.005	0.180
-266.282	5.631	0.319	0.237
-265.267	-164.993	-0.318	0.014
-264.253	143.861	0.191	0.256
-263.238	-200.000	0.002	0.121
-262.224	-136.726	0.178	-0.021
-261.209	-200.000	-0.004	0.162
-260.195	-98.460	0.149	0.038
-259.180	-11.740	-0.231	0.152
-258.165	424.830	-0.111	-0.240
-257.151	-167.541	-0.134	-0.005
-256.136	304.820	-0.146	-0.273
-255.122	202.049	0.039	-0.060
-254.107	-53.729	-0.193	-0.088
-253.092	-50.471	-0.256	-0.122
-252.078	33.590	0.125	-0.109
-251.063	28.136	0.212	-0.179
-250.049	-200.000	0.038	0.221
-249.034	418.290	0.033	-0.070
-248.019	199.793	-0.236	0.363
-247.005	410.139	-0.174	-0.370
-245.990	-122.067	-0.329	-0.054
-244.976	67.420	-0.227	-0.233
-243.961	131.839	-0.135	-0.174
-242.946	219.282	0.057	-0.092
-241.932	-200.000	0.025	-0.189
-240.917	-138.440	-0.180	0.020
-239.903	397.551	0.138	-0.289
-238.888	561.169	-0.100	0.243
-237.873	-69.848	0.091	-0.035
-236.859	-200.000	0.036	0.202
-235.844	27.442	-0.188	0.159
-234.830	52.541	-0.321	-0.307
-233.815	-200.000	0.008	-0.204
-232.800	-76.652	0.329	0.116
-231.786	-200.000	0.007	-0.150
-230.771	16.739	0.127	0.101
-229.757	800.000	-0.039	0.116
-228.742	112.159	-0.287	0.347
-227.727	-200.000	-0.030	-0.164
-226.713	-156.636	-0.127	-0.008
-225.698	53.209	-0.175	0.168
-224.684	-31.446	0.300	-0.169
-223.669	-99.869	0.362	0.091
-222.655	-152.996	0.245	0.017
-221.640	-97.771	-0.209	-0.054
-220.625	454.957	-0.041	-0.091
-219.611	800.000	-0.055	0.193
-218.596	-58.509	-0.227	-0.099
-217.582	391.983	-0.204	0.424
-216.567	27.439	0.127	0.107
-215.552	-157.719	0.558	0.033
-214.538	144.255	-0.128	-0.171
-213.523	56.470	0.082	0.080
-212.509	140.579	0.150	-0.198
-211.494	-200.000	-0.024	-0.190
-210.479	-200.000	-0.035	-0.162
-209.465	636.461	-0.113	0.288
-208.450	166.382	0.042	0.060
-207.436	-115.489	0.233	-0.044
-206.421	-8.082	-0.180	-0.121
-205.406	800.000	0.062	-0.214
-204.392	-200.000	0.050	0.312
-203.377	-76.867	-0.344	-0.120
-202.363	175.006	0.074	0.108
-201.348	149.756	0.118	-0.160
-200.333	-3.768	0.166	0.116
-199.319	572.881	0.032	0.078
-198.304	-200.000	-0.015	-0.067
-197.290	-200.000	0.001	0.018
-196.275	-200.000	-0.059	-0.267
-195.260	-2.964	0.170	-0.119
-194.246	-65.454	0.179	-0.072
-193.231	-142.748	0.046	0.005
-192.217	-136.127	0.188	0.022
-191.202	-80.906	0.377	-0.125
-190.187	-200.000	-0.004	-0.117
-189.173	-76.430	0.159	0.056
-188.158	-126.576	-0.190	-0.028
-187.144	-200.000	-0.039	0.259
-186.129	1.987	0.243	0.175
-185.114	519.363	0.014	0.032
-184.100	-17.396	0.044	-0.028
-183.085	28.965	-0.081	0.069
-182.071	-69.645	0.390	0.150
-181.056	173.549	-0.086	0.124
-180.042	6.757	0.189	-0.141
-179.027	83.078	-0.200	-0.218
-178.012	344.923	-0.127	-0.250
-176.998	326.474	-0.061	0.117
-175.983	-29.781	-0.340	0.194
-174.969	2.755	0.309	0.224
-173.954	-200.000	-0.006	-0.047
-172.939	-165.542	-0.268	-0.012
-171.925	492.249	-0.106	0.244
-170.910	-56.122	0.217	0.097
-169.896	198.620	-0.209	0.320
-168.881	-92.931	0.457	0.128
-167.866	-80.219	0.079	0.027
-166.852	-200.000	0.017	0.126
-165.837	-175.825	0.027	0.001
-164.823	341.890	-0.097	-0.190
-163.808	-37.076	-0.225	-0.121
-162.793	32.090	0.073	-0.063
-161.779	406.026	0.114	-0.241
-160.764	-200.000	0.075	-0.365
-159.750	-125.659	0.093	-0.014
-158.735	707.454	0.134	0.353
-157.720	79.180	-0.189	-0.202
-156.706	145.660	0.166	-0.222
-155.691	-200.000	0.045	0.411
-154.677	800.000	-0.037	-0.145
-153.662	384.972	-0.103	0.213
-152.647	198.786	-0.140	-0.214
-151.633	-149.832	-0.356	0.028
-150.618	76.318	0.123	0.130
-149.604	-26.603	-0.182	-0.107
-148.589	-200.000	0.066	-0.308
-147.574	-90.293	0.275	0.080
-146.560	-43.346	0.138	0.070
-145.545	55.641	-0.319	-0.309
-144.531	-200.000	0.035	0.283
-143.516	177.320	0.247	-0.360
-142.502	25.977	-0.249	0.207
-141.487	-0.491	0.139	0.098
-140.472	800.000	-0.063	0.199
-139.458	-159.047	0.278	0.016
-138.443	-5.459	0.195	0.134
-137.429	800.000	0.033	0.127
-136.414	-200.000	-0.068	-0.300
-135.399	-167.949	0.420	0.016
-134.385	-51.288	0.096	0.045
-133.370	-155.799	0.205	-0.013
-132.356	-26.072	0.140	0.082
-131.341	19.722	-0.240	0.193
-130.326	800.000	-0.111	0.360
-129.312	-89.237	0.430	-0.127
-128.297	706.632	0.034	-0.090
-127.283	-200.000	0.011	-0.091
-126.268	-85.246	-0.260	0.081
-125.253	800.000	0.016	0.054
-124.239	-200.000	0.014	0.133
-123.224	153.168	-0.059	-0.080
-122.210	800.000	0.035	0.137
-121.195	-200.000	-0.001	0.329
