DTS Sentinel unit serial number:	SN413079Multiplexer serial number:	ORYXHardware model number:	OX4-SRSoftware version number:	ORYX F/W v4.00 Oryx Data Collector v3.7.2.0data status	okinstallation	princeton_trtdifferential loss correction	single-endedforward channel	channel 1reverse channel	N/Adate	2019/09/14time	06:38:35forward acquisition time	60.00reverse acquisition time	0.00gamma	496.2192k internal	0.2337k external	0.2337temperature offset calibration	1.0081default loss term (dB/km)	0.3790temperature slope calibration	1.0000multiplexer offset coefficient	1.0000multiplexer slope coefficient	1.0000fibre end	0.00T internal ref (°C)	26.37T ext. ref 1 (°C)	3.43T ext. ref 2 (°C)	20.43length (m)	temperature (°C)	Stokes	anti-Stokes-747.200	52.366	0.130	-0.124
-746.185	20.825	-0.117	0.095
-745.171	37.868	-0.167	0.149
-744.156	0.058	-0.285	0.204
-743.142	361.958	0.184	0.370
-742.127	175.712	-0.116	0.169
-741.112	-200.000	-0.005	0.121
-740.098	-108.372	0.283	-0.061
-739.083	287.394	-0.139	-0.253
-738.069	-16.301	0.241	0.153
-737.054	-108.524	-0.083	0.018
-736.039	-77.517	-0.206	-0.072
-735.025	-141.559	0.185	-0.019
-734.010	0.687	-0.114	0.082
-732.996	446.127	-0.103	0.227
-731.981	-55.299	-0.307	-0.138
-730.966	-129.566	-0.161	0.022
-729.952	-41.778	0.012	-0.006
-728.937	-200.000	0.027	0.139
-727.923	800.000	0.069	-0.227
-726.908	-200.000	0.023	0.104
-725.894	589.853	0.055	-0.136
-724.879	429.744	0.045	0.097
-723.864	378.271	0.079	-0.162
-722.850	800.000	-0.041	0.169
-721.835	-158.203	0.210	0.012
-720.821	-30.064	-0.089	0.051
-719.806	-129.064	-0.068	0.009
-718.791	-153.483	-0.238	0.017
-717.777	297.890	-0.126	0.232
-716.762	800.000	-0.133	0.416
-715.748	52.728	0.156	-0.149
-714.733	49.524	0.098	-0.092
-713.718	468.568	0.045	0.101
-712.704	151.014	0.178	-0.242
-711.689	-10.272	-0.300	0.199
-710.675	18.660	-0.289	0.232
-709.660	-200.000	0.038	0.200
-708.645	252.633	-0.117	-0.200
-707.631	411.258	-0.087	-0.186
-706.616	307.366	-0.056	-0.105
-705.602	323.126	0.086	-0.164
-704.587	-129.562	0.227	0.032
-703.572	301.246	0.097	-0.180
-702.558	375.996	0.105	-0.214
-701.543	41.501	-0.167	-0.151
-700.529	366.221	-0.075	0.152
-699.514	-98.346	0.360	-0.093
-698.499	-160.313	-0.288	-0.016
-697.485	431.502	-0.122	-0.265
-696.470	-94.718	-0.113	0.031
-695.456	213.223	-0.069	-0.109
-694.441	-200.000	0.003	-0.128
-693.426	284.053	-0.289	-0.521
-692.412	-200.000	-0.051	-0.390
-691.397	800.000	0.028	0.087
-690.383	528.736	0.127	0.301
-689.368	-106.206	-0.065	0.015
-688.354	33.921	0.126	-0.110
-687.339	-198.203	-0.257	-0.002
-686.324	85.765	-0.092	0.101
-685.310	201.277	-0.064	0.099
-684.295	-53.118	-0.080	0.037
-683.281	-153.346	0.077	-0.005
-682.266	-123.372	0.177	-0.028
-681.251	-127.275	0.172	-0.025
-680.237	-140.562	-0.195	-0.020
-679.222	320.791	0.077	-0.147
-678.208	-41.640	0.196	-0.101
-677.193	-200.000	-0.005	-0.249
-676.178	800.000	-0.134	0.394
-675.164	-175.040	-0.063	0.002
-674.149	-80.110	0.087	-0.029
-673.135	-56.986	0.250	0.110
-672.120	357.684	-0.030	0.059
-671.105	-21.667	-0.262	0.160
-670.091	-108.745	-0.197	0.042
-669.076	170.464	0.064	0.091
-668.062	8.877	0.217	0.164
-667.047	-163.133	-0.351	0.017
-666.032	-72.209	0.280	0.104
-665.018	-200.000	0.020	-0.141
-664.003	-122.844	-0.280	0.045
-662.989	273.221	-0.012	-0.022
-661.974	-137.566	0.162	-0.018
-660.959	-103.551	-0.455	-0.107
-659.945	-46.354	0.137	0.067
-658.930	-153.771	-0.117	-0.008
-657.916	-200.000	-0.080	0.417
-656.901	800.000	-0.044	-0.184
-655.886	-81.254	0.445	-0.147
-654.872	68.558	-0.103	-0.105
-653.857	-77.360	0.315	-0.110
-652.843	-100.239	0.134	0.033
-651.828	-165.338	-0.186	0.008
-650.814	-200.000	0.034	-0.281
-649.799	-152.577	0.145	-0.010
-648.784	-2.356	0.319	-0.224
-647.770	-36.933	-0.299	0.160
-646.755	-124.834	-0.377	0.058
-645.741	-87.474	0.102	-0.031
-644.726	797.283	0.199	0.550
-643.711	-88.328	0.219	-0.065
-642.697	477.145	-0.147	0.332
-641.682	-200.000	-0.046	-0.525
-640.668	-145.179	-0.302	-0.027
-639.653	75.194	0.138	-0.145
-638.638	-95.012	0.397	-0.107
-637.624	-200.000	0.001	-0.076
-636.609	800.000	-0.007	0.027
-635.595	-15.603	0.084	0.053
-634.580	83.621	0.159	-0.173
-633.565	300.123	0.064	-0.118
-632.551	-112.100	-0.207	0.042
-631.536	0.487	0.074	0.053
-630.522	-1.637	-0.279	-0.196
-629.507	-200.000	-0.004	-0.302
-628.492	-200.000	0.034	0.188
-627.478	464.101	-0.083	-0.186
-626.463	131.057	-0.182	-0.233
-625.449	274.917	-0.106	0.187
-624.434	-52.147	0.191	-0.089
-623.419	-157.801	-0.101	0.006
-622.405	-158.985	0.290	0.016
-621.390	196.366	0.131	-0.199
-620.376	800.000	0.074	0.261
-619.361	326.415	0.076	0.145
-618.346	132.342	0.097	-0.125
-617.332	138.679	-0.126	0.165
-616.317	-58.001	-0.328	0.143
-615.303	-125.184	-0.102	0.016
-614.288	94.488	0.259	-0.294
-613.273	-39.625	0.259	-0.135
-612.259	-90.985	-0.210	0.060
-611.244	-151.444	0.233	0.017
-610.230	472.104	-0.009	-0.020
-609.215	24.526	-0.095	-0.079
-608.201	-42.236	-0.146	-0.074
-607.186	-110.349	0.232	-0.048
-606.171	-200.000	-0.012	-0.352
-605.157	181.191	-0.233	-0.341
-604.142	-80.962	0.187	-0.062
-603.128	66.768	-0.211	0.214
-602.113	-130.509	-0.389	-0.052
-601.098	-76.287	-0.073	0.026
-600.084	-200.000	0.027	0.200
-599.069	-200.000	-0.015	-0.112
-598.055	86.521	0.272	0.299
-597.040	-200.000	-0.013	0.112
-596.025	-14.186	-0.182	0.117
-595.011	-114.293	-0.231	-0.044
-593.996	-128.945	-0.053	0.007
-592.982	-142.687	-0.288	-0.028
-591.967	363.909	0.166	0.334
-590.952	-100.631	-0.040	-0.010
-589.938	534.554	0.059	0.140
-588.923	-200.000	-0.009	0.400
-587.909	-138.937	-0.340	0.037
-586.894	-157.261	0.310	0.019
-585.879	-122.029	-0.094	-0.015
-584.865	800.000	-0.109	-0.315
-583.850	-136.631	0.086	-0.010
-582.836	-96.617	-0.084	0.022
-581.821	383.255	0.097	0.200
-580.806	-80.983	-0.099	-0.033
-579.792	-42.204	0.121	0.062
-578.777	-16.298	0.200	-0.127
-577.763	2.242	-0.277	-0.200
-576.748	800.000	-0.012	0.041
-575.733	-66.897	-0.376	-0.148
-574.719	-82.208	-0.370	0.120
-573.704	45.424	0.212	0.195
-572.690	34.686	-0.122	0.106
-571.675	-63.739	-0.243	-0.099
-570.661	800.000	0.075	0.276
-569.646	-80.677	-0.133	0.044
-568.631	-27.251	-0.183	-0.106
-567.617	-139.634	0.037	-0.004
-566.602	396.021	0.079	0.164
-565.588	800.000	0.105	0.357
-564.573	37.966	0.291	0.258
-563.558	-0.466	-0.124	0.088
-562.544	-7.175	0.223	-0.151
-561.529	-39.854	-0.119	-0.062
-560.515	-112.085	-0.215	-0.043
-559.500	13.869	-0.215	-0.166
-558.485	-173.862	0.273	0.008
-557.471	115.266	-0.096	-0.117
-556.456	252.126	-0.159	0.271
-555.442	675.645	0.119	0.307
-554.427	-174.335	0.035	-0.001
-553.412	101.748	-0.155	-0.180
-552.398	-134.407	-0.168	0.021
-551.383	-101.839	0.299	0.072
-550.369	-7.757	0.245	-0.165
-549.354	-52.914	0.057	-0.026
-548.339	-173.996	-0.194	0.006
-547.325	-104.320	0.199	-0.046
-546.310	-200.000	0.004	-0.136
-545.296	354.316	0.060	-0.120
-544.281	41.225	0.106	-0.095
-543.266	-64.258	-0.135	-0.055
-542.252	-145.323	-0.134	0.012
-541.237	-12.783	-0.315	-0.204
-540.223	-164.773	-0.155	-0.007
-539.208	-54.035	0.079	-0.036
-538.193	178.125	0.168	-0.244
-537.179	428.868	0.050	0.108
-536.164	-32.512	-0.184	0.102
-535.150	-45.276	0.329	0.163
-534.135	800.000	0.064	0.190
-533.121	-134.217	-0.276	-0.034
-532.106	-200.000	0.012	-0.128
-531.091	-6.127	-0.027	0.018
-530.077	-200.000	-0.002	0.246
-529.062	98.704	0.079	0.091
-528.048	-150.218	-0.191	-0.015
-527.033	150.708	-0.161	0.218
-526.018	-133.785	0.185	0.023
-525.004	53.719	-0.235	0.225
-523.989	-153.606	-0.182	0.012
-522.975	-200.000	0.005	0.102
-521.960	24.688	0.054	0.045
-520.945	49.755	-0.177	0.166
-519.931	-82.765	-0.098	0.032
-518.916	-200.000	0.025	-0.364
-517.902	-122.519	-0.167	0.027
-516.887	-159.278	-0.111	0.006
-515.872	800.000	0.016	-0.065
-514.858	-76.981	0.200	0.069
-513.843	136.809	-0.201	-0.261
-512.829	-200.000	0.003	-0.172
-511.814	0.141	0.250	0.177
-510.799	393.119	0.146	0.301
-509.785	-103.634	0.370	0.086
-508.770	388.212	-0.127	0.260
-507.756	128.013	-0.131	0.166
-506.741	-65.285	0.207	-0.083
-505.726	144.837	-0.242	0.322
-504.712	-133.955	0.142	-0.018
-503.697	800.000	-0.065	-0.282
-502.683	-116.258	0.110	-0.020
-501.668	-67.555	-0.289	0.113
-500.653	-20.142	0.226	0.138
-499.639	800.000	-0.165	0.486
-498.624	172.366	-0.185	-0.264
-497.610	-98.146	0.111	0.028
-496.595	-200.000	-0.009	0.214
-495.581	18.227	-0.395	-0.313
-494.566	6.437	0.261	0.193
-493.551	107.261	-0.119	-0.140
-492.537	360.726	-0.070	-0.140
-491.522	558.405	-0.110	0.264
-490.508	-200.000	-0.047	0.425
-489.493	-200.000	0.005	0.136
-488.478	-200.000	-0.019	0.140
-487.464	107.830	-0.154	-0.182
-486.449	-200.000	0.008	-0.156
-485.435	567.896	0.042	-0.101
-484.420	57.499	-0.073	0.071
-483.405	14.904	0.239	-0.186
-482.391	56.716	0.208	0.202
-481.376	-6.715	-0.057	-0.039
-480.362	800.000	-0.050	-0.182
-479.347	800.000	-0.010	-0.039
-478.332	-158.007	-0.327	0.019
-477.318	63.334	-0.160	0.159
-476.303	4.584	0.032	0.023
-475.289	-32.549	0.207	0.114
-474.274	-92.165	-0.236	-0.066
-473.259	-111.465	0.288	-0.058
-472.245	629.833	-0.038	-0.096
-471.230	-70.482	0.120	0.045
-470.216	-200.000	0.008	0.212
-469.201	-200.000	0.038	0.279
-468.186	605.496	0.143	-0.355
-467.172	-14.710	0.113	-0.072
-466.157	-72.708	-0.215	0.079
-465.143	-57.966	0.081	0.035
-464.128	-133.335	-0.211	0.026
-463.113	187.086	0.193	0.285
-462.099	371.015	-0.030	-0.060
-461.084	-200.000	-0.022	-0.107
-460.070	285.923	-0.173	-0.309
-459.055	-103.555	-0.154	0.036
-458.040	114.913	0.138	-0.167
-457.026	19.724	-0.071	-0.056
-456.011	283.969	-0.053	-0.095
-454.997	70.195	-0.112	0.115
-453.982	35.353	-0.298	0.259
-452.968	-72.634	-0.521	0.191
-451.953	181.217	0.114	-0.167
-450.938	-61.999	-0.276	-0.115
-449.924	-200.000	-0.003	-0.133
-448.909	-200.000	0.006	-0.031
-447.895	-38.930	-0.409	0.214
-446.880	-48.396	-0.167	-0.080
-445.865	146.882	-0.174	-0.232
-444.851	231.606	0.143	-0.233
-443.836	-133.134	-0.140	-0.018
-442.822	-41.960	0.133	0.067
-441.807	800.000	-0.075	-0.309
-440.792	-143.423	-0.293	-0.028
-439.778	-200.000	-0.037	0.288
-438.763	569.731	-0.065	-0.157
-437.749	244.768	0.196	-0.326
-436.734	-200.000	0.026	0.126
-435.719	-124.993	-0.307	-0.047
-434.705	-76.964	0.121	0.042
-433.690	66.005	-0.091	0.091
-432.676	328.403	0.063	-0.120
-431.661	-109.450	-0.308	-0.065
-430.646	254.680	0.109	0.186
-429.632	-35.741	0.139	0.075
-428.617	110.142	-0.134	0.160
-427.603	-53.843	0.281	0.127
-426.588	28.261	-0.198	-0.166
-425.573	663.532	0.080	-0.205
-424.559	252.806	0.271	0.458
-423.544	84.319	0.147	-0.160
-422.530	36.766	-0.135	0.119
-421.515	228.354	-0.292	-0.471
-420.500	189.903	0.184	-0.273
-419.486	90.445	0.298	-0.330
-418.471	-155.810	-0.183	-0.012
-417.457	215.452	0.059	-0.093
-416.442	-118.236	-0.262	-0.046
-415.428	-14.741	0.041	0.026
-414.413	-86.023	0.249	-0.076
-413.398	137.727	0.161	0.208
-412.384	-184.505	-0.094	0.002
-411.369	315.041	-0.194	-0.363
-410.355	105.082	0.144	-0.169
-409.340	-118.656	-0.302	0.053
-408.325	-32.649	-0.167	0.092
-407.311	-200.000	-0.006	-0.114
-406.296	107.068	-0.143	-0.168
-405.282	677.899	-0.115	-0.297
-404.267	2.137	0.150	-0.107
-403.252	-200.000	0.018	-0.147
-402.238	536.537	0.106	0.249
-401.223	-86.770	-0.111	0.034
-400.209	800.000	0.188	-0.533
-399.194	179.137	0.163	0.236
-398.179	584.450	0.089	-0.217
-397.165	-200.000	-0.012	0.054
-396.150	-99.115	0.204	-0.051
-395.136	-114.869	0.554	-0.105
-394.121	-29.234	0.122	0.069
-393.106	-43.374	-0.078	0.039
-392.092	34.489	0.154	0.133
-391.077	800.000	0.117	0.446
-390.063	-5.918	0.185	0.125
-389.048	-151.803	0.272	0.020
-388.033	148.230	-0.255	0.341
-387.019	-106.026	0.214	-0.048
-386.004	182.180	0.103	-0.150
-384.990	-185.651	-0.088	0.001
-383.975	-75.785	-0.197	0.069
-382.960	-79.781	0.166	-0.055
-381.946	72.727	0.258	-0.266
-380.931	-200.000	0.011	0.238
-379.917	-148.236	-0.208	0.017
-378.902	-132.907	-0.085	-0.011
-377.888	301.557	-0.107	0.196
-376.873	174.351	-0.100	0.143
-375.858	767.056	0.068	-0.184
-374.844	193.453	0.051	-0.076
-373.829	-92.160	0.269	-0.075
-372.815	95.373	-0.190	0.215
-371.800	800.000	-0.018	-0.065
-370.785	-200.000	0.012	-0.161
-369.771	490.621	-0.113	-0.257
-368.756	-200.000	0.009	0.234
-367.742	-78.623	0.288	-0.097
-366.727	-26.306	0.247	-0.144
-365.712	-70.586	-0.140	0.052
-364.698	-171.618	0.313	0.010
-363.683	-39.593	0.153	0.079
-362.669	-200.000	0.011	0.108
-361.654	-200.000	0.024	-0.175
-360.639	-65.144	0.196	-0.078
-359.625	-82.949	-0.192	-0.061
-358.610	-29.635	0.123	-0.070
-357.596	-95.979	-0.275	-0.072
-356.581	171.074	-0.084	0.119
-355.566	-124.161	-0.176	0.027
-354.552	73.371	0.198	0.205
-353.537	-200.000	0.004	-0.077
-352.523	423.508	0.116	0.246
-351.508	26.664	0.271	0.224
-350.493	-99.271	-0.238	0.059
-349.479	-42.221	-0.159	0.081
-348.464	-200.000	0.013	0.087
-347.450	-200.000	-0.005	-0.140
-346.435	-101.703	0.202	-0.048
-345.420	-103.782	0.318	-0.073
-344.406	607.390	-0.022	0.053
-343.391	-200.000	-0.056	0.326
-342.377	-17.999	-0.325	0.202
-341.362	-200.000	0.032	-0.187
-340.348	-200.000	0.039	-0.214
-339.333	-116.289	-0.297	0.054
-338.318	800.000	-0.023	0.095
-337.304	17.522	-0.213	-0.167
-336.289	-151.636	0.190	-0.014
-335.275	141.629	-0.044	0.057
-334.260	-40.311	0.228	-0.117
-333.245	39.615	0.067	0.059
-332.231	-108.456	-0.108	-0.023
-331.216	52.715	-0.203	-0.191
-330.202	-60.668	-0.486	-0.203
-329.187	-188.141	0.280	-0.004
-328.172	447.361	0.042	-0.090
-327.158	-200.000	0.016	0.089
-326.143	-102.689	0.185	0.043
-325.129	112.832	-0.059	0.070
-324.114	-200.000	-0.007	-0.042
-323.099	-79.772	-0.158	-0.053
-322.085	-88.535	-0.049	0.014
-321.070	-200.000	-0.030	0.165
-320.056	238.976	-0.076	0.125
-319.041	-78.343	-0.057	-0.019
-318.026	-49.876	-0.085	-0.040
-317.012	366.399	-0.108	0.216
-315.997	-200.000	0.008	0.065
-314.983	-200.000	0.004	-0.144
-313.968	-136.974	0.318	0.036
-312.953	105.045	0.194	0.226
-311.939	112.729	-0.119	-0.142
-310.924	-137.164	0.174	0.020
-309.910	-97.229	0.087	0.022
-308.895	-137.256	0.249	0.028
-307.880	-200.000	-0.007	-0.051
-306.866	-85.003	0.050	-0.015
-305.851	27.019	0.208	0.172
-304.837	74.810	-0.168	0.175
-303.822	46.799	0.283	-0.260
-302.807	-200.000	0.004	-0.145
-301.793	5.878	0.146	-0.107
-300.778	-200.000	0.061	-0.509
-299.764	165.961	-0.040	0.056
-298.749	39.410	0.199	-0.176
-297.735	255.209	-0.116	-0.196
-296.720	-64.727	0.051	0.021
-295.705	37.230	-0.065	-0.057
-294.691	-33.498	0.299	0.163
-293.676	-41.554	0.150	-0.076
-292.662	420.948	-0.037	0.078
-291.647	171.756	0.027	-0.038
-290.632	800.000	-0.074	0.316
-289.618	-200.000	-0.010	0.357
-288.603	-161.660	-0.079	-0.004
-287.589	32.581	-0.180	0.154
-286.574	-125.191	-0.116	-0.018
-285.559	-200.000	0.013	0.193
-284.545	-139.932	-0.121	-0.013
-283.530	46.622	-0.335	-0.307
-282.516	415.468	-0.098	-0.207
-281.501	-200.000	0.031	0.148
-280.486	262.704	0.170	-0.291
-279.472	-40.774	0.186	-0.095
-278.457	-36.223	0.228	-0.121
-277.443	-200.000	-0.044	-0.318
-276.428	-135.617	0.180	-0.021
-275.413	-105.063	-0.112	-0.025
-274.399	262.704	0.080	0.137
-273.384	-200.000	0.187	0.000
-272.370	-200.000	0.024	-0.115
-271.355	162.117	0.061	0.084
-270.340	-63.031	-0.231	-0.094
-269.326	-48.341	-0.114	0.054
-268.311	-200.000	0.015	0.094
-267.297	-80.437	0.220	0.072
-266.282	496.255	0.148	-0.336
-265.267	38.354	-0.092	-0.081
-264.253	554.692	0.254	0.603
-263.238	-200.000	0.002	-0.093
-262.224	-72.354	-0.106	-0.039
-261.209	-111.193	-0.266	0.054
-260.195	418.318	-0.078	0.164
-259.180	-137.961	0.092	0.010
-258.165	-158.002	0.079	-0.005
-257.151	800.000	-0.153	0.419
-256.136	-145.302	-0.329	0.029
-255.122	-200.000	-0.005	-0.465
-254.107	-135.151	0.222	-0.026
-253.092	-200.000	0.029	0.247
-252.078	722.780	-0.058	0.153
-251.063	224.242	-0.043	-0.068
-250.049	46.000	0.132	-0.120
-249.034	-73.451	0.153	0.055
-248.019	-79.276	0.282	-0.094
-247.005	12.883	-0.134	0.102
-245.990	-162.502	0.360	-0.018
-244.976	800.000	0.099	0.293
-243.961	-200.000	0.034	0.270
-242.946	729.103	-0.076	0.200
-241.932	123.540	-0.161	0.199
-240.917	27.357	-0.302	0.250
-239.903	-194.109	0.144	-0.001
-238.888	16.117	-0.157	0.122
-237.873	59.313	0.280	-0.272
-236.859	-200.000	0.007	0.053
-235.844	-200.000	-0.006	-0.039
-234.830	-111.427	0.287	-0.057
-233.815	-59.576	-0.367	-0.155
-232.800	-87.067	0.219	-0.066
-231.786	137.881	0.142	-0.184
-230.771	-104.008	0.351	-0.081
-229.757	-57.851	0.204	0.088
-228.742	250.230	0.050	0.084
-227.727	62.100	-0.247	-0.243
-226.713	-39.143	-0.070	-0.036
-225.698	137.057	-0.268	-0.345
-224.684	578.184	0.109	-0.263
-223.669	371.980	-0.096	-0.192
-222.655	800.000	-0.060	-0.165
-221.640	469.400	0.079	-0.173
-220.625	28.563	-0.140	-0.116
-219.611	125.176	0.248	-0.308
-218.596	-18.934	0.135	0.083
-217.582	88.077	0.175	-0.191
-216.567	110.749	-0.213	-0.251
-215.552	251.101	-0.099	0.165
-214.538	-117.393	0.151	-0.027
-213.523	-34.864	-0.186	-0.100
-212.509	-75.346	0.106	0.037
-211.494	-103.006	0.139	0.032
-210.479	4.738	0.227	-0.164
-209.465	-14.896	0.222	0.140
-208.450	-59.590	-0.067	0.028
-207.436	293.108	0.044	0.079
-206.421	13.666	0.251	0.192
-205.406	310.512	0.020	0.036
-204.392	-122.923	-0.404	0.064
-203.377	-200.000	0.024	-0.179
-202.363	-97.156	0.353	-0.091
-201.348	800.000	-0.028	0.100
-200.333	6.582	0.187	-0.137
-199.319	-139.358	-0.230	0.024
-198.304	800.000	-0.052	-0.160
-197.290	-90.404	0.204	-0.058
-196.275	84.856	0.179	-0.193
-195.260	157.005	0.039	-0.054
-194.246	-98.054	-0.053	0.013
-193.231	-200.000	0.016	0.186
-192.217	800.000	0.073	-0.232
-191.202	324.275	-0.177	-0.332
-190.187	-200.000	0.022	0.191
-189.173	554.321	0.043	0.102
-188.158	-142.567	0.270	-0.026
-187.144	-128.671	-0.374	-0.052
-186.129	-200.000	-0.053	0.237
-185.114	800.000	0.048	0.179
-184.100	358.345	-0.059	0.117
-183.085	252.099	-0.046	0.076
-182.071	-200.000	-0.009	-0.226
-181.056	-200.000	-0.042	0.304
-180.042	-63.030	-0.064	-0.026
-179.027	76.768	0.133	0.138
-178.012	413.543	0.114	0.239
-176.998	-200.000	-0.012	0.239
-175.983	-200.000	-0.051	-0.332
-174.969	188.138	-0.339	-0.497
-173.954	800.000	-0.061	-0.233
-172.939	33.673	0.082	0.070
-171.925	76.898	0.166	0.173
-170.910	376.972	-0.137	0.275
-169.896	-137.743	-0.073	-0.008
-168.881	-70.710	-0.314	-0.117
-167.866	-96.734	0.538	-0.139
-166.852	-200.000	0.031	0.319
-165.837	-120.111	-0.262	0.044
-164.823	800.000	0.124	0.405
-163.808	7.921	-0.138	-0.102
-162.793	-200.000	-0.027	0.350
-161.779	391.313	-0.069	0.141
-160.764	-51.205	0.538	0.247
-159.750	24.776	0.255	-0.207
-158.735	-82.791	-0.006	-0.002
-157.720	-92.054	-0.320	0.089
-156.706	396.169	0.058	0.119
-155.691	-154.269	-0.572	0.038
-154.677	-107.198	0.294	-0.064
-153.662	552.630	0.110	-0.259
-152.647	-97.520	-0.047	-0.012
-151.633	-8.749	0.192	0.126
-150.618	-23.371	-0.123	-0.073
-149.604	-14.683	0.298	0.188
-148.589	-78.930	0.169	-0.056
-147.574	594.008	-0.088	0.213
-146.560	800.000	-0.040	0.124
-145.545	31.528	-0.024	0.020
-144.531	-200.000	0.055	-0.255
-143.516	-77.323	0.200	-0.068
-142.502	473.699	0.140	0.310
-141.487	800.000	-0.115	0.388
-140.472	693.028	-0.024	-0.062
-139.458	-120.193	-0.518	0.087
-138.443	800.000	0.025	-0.081
-137.429	800.000	-0.100	0.375
-136.414	147.344	-0.061	-0.081
-135.399	223.031	-0.167	0.264
-134.385	-200.000	0.026	0.129
-133.370	-47.769	0.017	-0.008
-132.356	388.418	-0.048	-0.097
-131.341	-200.000	0.001	-0.205
-130.326	-19.483	0.177	0.108
-129.312	320.694	-0.161	-0.299
-128.297	237.517	0.092	0.150
-127.283	232.411	0.129	0.208
-126.268	-40.663	-0.059	-0.030
-125.253	260.515	-0.114	0.194
-124.239	-200.000	-0.016	0.138
-123.224	183.945	-0.170	0.246
-122.210	190.833	0.129	0.191
