DTS Sentinel unit serial number:	SN413079Multiplexer serial number:	ORYXHardware model number:	OX4-SRSoftware version number:	ORYX F/W v4.00 Oryx Data Collector v3.7.2.0data status	okinstallation	princeton_trtdifferential loss correction	single-endedforward channel	channel 1reverse channel	N/Adate	2019/09/12time	09:32:11forward acquisition time	60.00reverse acquisition time	0.00gamma	496.2192k internal	0.2301k external	0.2301temperature offset calibration	1.0045default loss term (dB/km)	0.3790temperature slope calibration	1.0000multiplexer offset coefficient	1.0000multiplexer slope coefficient	1.0000fibre end	0.00T internal ref (°C)	35.56T ext. ref 1 (°C)	1.83T ext. ref 2 (°C)	32.82length (m)	temperature (°C)	Stokes	anti-Stokes-747.200	135.674	-0.204	0.270
-746.185	109.243	-0.300	0.366
-745.171	-59.914	0.371	-0.162
-744.156	-200.000	0.008	0.142
-743.142	-200.000	0.020	0.303
-742.127	-172.010	-0.205	0.007
-741.112	19.206	-0.075	-0.061
-740.098	800.000	0.065	0.234
-739.083	-106.977	-0.159	0.036
-738.069	-83.355	0.246	-0.080
-737.054	-64.496	-0.354	-0.147
-736.039	-73.532	-0.075	0.028
-735.025	-9.494	0.183	0.124
-734.010	34.069	-0.122	-0.108
-732.996	799.210	0.048	0.136
-731.981	-200.000	0.009	0.217
-730.966	-10.683	-0.120	0.081
-729.952	800.000	-0.095	-0.368
-728.937	74.129	0.120	-0.129
-727.923	-49.345	-0.149	-0.072
-726.908	431.976	-0.075	-0.165
-725.894	453.687	0.122	0.274
-724.879	155.075	0.211	-0.296
-723.864	800.000	0.078	-0.275
-722.850	-200.000	-0.007	0.133
-721.835	19.899	0.225	-0.185
-720.821	610.419	0.036	-0.091
-719.806	562.531	-0.083	0.204
-718.791	-51.988	-0.219	0.103
-717.777	-115.811	0.091	0.017
-716.762	199.774	-0.155	-0.242
-715.748	800.000	-0.039	-0.157
-714.733	-200.000	0.022	0.211
-713.718	11.926	-0.161	-0.126
-712.704	-153.459	-0.196	-0.014
-711.689	260.566	0.097	-0.172
-710.675	-200.000	0.026	-0.391
-709.660	-4.773	-0.056	-0.040
-708.645	-131.846	-0.295	0.039
-707.631	-100.441	0.020	0.005
-706.616	-74.921	-0.312	-0.114
-705.602	-6.400	0.284	0.197
-704.587	160.952	-0.034	0.049
-703.572	-151.116	-0.190	0.015
-702.558	-19.678	0.160	0.101
-701.543	-64.790	-0.126	0.052
-700.529	319.959	0.139	-0.269
-699.514	-60.398	-0.271	-0.117
-698.499	-148.769	0.241	-0.020
-697.485	-200.000	0.036	0.216
-696.470	-66.698	-0.190	-0.076
-695.456	185.720	0.052	-0.078
-694.441	-200.000	-0.002	-0.087
-693.426	800.000	0.073	-0.209
-692.412	800.000	-0.050	0.166
-691.397	208.116	0.304	-0.483
-690.383	-151.434	0.086	0.007
-689.368	141.426	-0.081	-0.110
-688.354	-200.000	-0.002	0.056
-687.339	8.053	-0.301	-0.230
-686.324	-200.000	0.009	0.179
-685.310	-200.000	-0.009	0.340
-684.295	71.501	0.062	-0.065
-683.281	-39.871	0.303	0.161
-682.266	123.111	0.110	0.140
-681.251	274.981	-0.122	0.220
-680.237	-92.642	-0.260	-0.074
-679.222	39.289	0.053	0.048
-678.208	550.242	-0.048	-0.118
-677.193	2.082	0.135	-0.099
-676.178	8.645	0.145	-0.111
-675.164	-136.284	0.172	0.020
-674.149	246.737	0.006	-0.010
-673.135	-176.618	-0.093	-0.002
-672.120	-200.000	-0.001	0.150
-671.105	-10.820	0.128	-0.086
-670.091	96.684	0.173	-0.201
-669.076	-43.270	0.320	-0.165
-668.062	-180.241	-0.291	0.006
-667.047	131.124	0.219	-0.285
-666.032	115.108	-0.153	0.190
-665.018	114.329	0.175	0.217
-664.003	-200.000	-0.026	0.178
-662.989	-64.867	0.241	-0.099
-661.974	-42.208	-0.469	-0.243
-660.959	800.000	-0.072	-0.264
-659.945	-64.834	-0.261	-0.107
-658.930	-200.000	0.032	0.152
-657.916	-96.440	-0.343	-0.092
-656.901	4.472	-0.251	-0.187
-655.886	68.477	-0.163	0.170
-654.872	-56.844	-0.178	-0.080
-653.857	81.043	-0.135	0.148
-652.843	-150.911	-0.204	0.016
-651.828	85.303	0.066	0.074
-650.814	-200.000	-0.012	-0.070
-649.799	177.905	0.082	-0.122
-648.784	-47.348	-0.360	-0.178
-647.770	-86.466	-0.022	-0.007
-646.755	-200.000	-0.016	0.226
-645.741	-82.173	0.308	0.102
-644.726	-200.000	-0.029	0.346
-643.711	56.315	-0.038	0.038
-642.697	-27.725	0.211	0.124
-641.682	102.365	-0.075	-0.090
-640.668	286.433	0.046	0.084
-639.653	315.838	-0.242	-0.463
-638.638	200.526	-0.150	0.233
-637.624	62.271	0.117	-0.119
-636.609	-60.311	0.064	0.028
-635.595	575.440	-0.014	-0.034
-634.580	89.096	0.102	-0.115
-633.565	-200.000	0.010	-0.201
-632.551	6.850	-0.033	0.025
-631.536	-86.461	0.092	-0.029
-630.522	33.024	-0.149	-0.131
-629.507	-122.235	-0.116	-0.019
-628.492	495.540	-0.119	-0.278
-627.478	50.666	-0.087	-0.083
-626.463	-98.598	0.177	0.046
-625.449	-200.000	0.059	-0.270
-624.434	390.916	-0.096	0.201
-623.419	744.802	0.070	0.192
-622.405	-154.256	0.095	0.006
-621.390	-114.179	0.171	-0.033
-620.376	389.308	-0.039	-0.082
-619.361	-72.345	0.374	-0.140
-618.346	-0.121	-0.241	-0.174
-617.332	800.000	0.084	-0.292
-616.317	64.917	-0.101	0.104
-615.303	-200.000	-0.009	0.084
-614.288	-11.418	-0.151	-0.101
-613.273	-30.792	-0.288	0.165
-612.259	-116.408	-0.456	-0.085
-611.244	-141.749	-0.125	0.013
-610.230	655.851	-0.078	-0.204
-609.215	-14.255	-0.060	-0.040
-608.201	42.298	-0.183	0.168
-607.186	-42.182	-0.159	0.083
-606.171	336.503	0.122	0.240
-605.157	-147.517	-0.215	-0.018
-604.142	-200.000	0.041	-0.311
-603.128	-81.174	-0.186	0.062
-602.113	-58.383	-0.214	0.094
-601.098	76.304	0.208	-0.224
-600.084	800.000	-0.116	0.358
-599.069	70.880	-0.195	0.205
-598.055	217.411	-0.117	-0.188
-597.040	333.657	-0.140	-0.274
-596.025	98.828	0.276	-0.323
-595.011	-200.000	-0.017	-0.180
-593.996	117.287	-0.067	0.083
-592.982	-200.000	-0.098	-0.441
-591.967	800.000	-0.110	0.378
-590.952	-200.000	0.025	0.170
-589.938	-200.000	0.054	-0.359
-588.923	298.128	-0.153	0.285
-587.909	-152.307	-0.137	-0.010
-586.894	-200.000	-0.005	0.039
-585.879	800.000	-0.070	-0.252
-584.865	-44.834	-0.204	-0.103
-583.850	-192.351	0.035	-0.000
-582.836	516.365	-0.057	0.136
-581.821	-108.934	-0.176	-0.038
-580.806	-200.000	0.032	-0.242
-579.792	-117.504	0.123	0.023
-578.777	105.311	0.164	-0.196
-577.763	707.775	-0.087	0.232
-576.748	55.063	-0.297	-0.291
-575.733	-200.000	0.024	0.229
-574.719	-42.576	0.268	0.138
-573.704	-11.486	-0.265	0.176
-572.690	-38.719	0.055	-0.030
-571.675	-55.783	0.289	-0.131
-570.661	8.746	0.173	0.132
-569.646	-200.000	-0.001	0.244
-568.631	-100.398	0.144	0.036
-567.617	-200.000	0.002	0.047
-566.602	-200.000	-0.024	-0.196
-565.588	123.700	0.122	0.156
-564.573	227.102	0.053	0.087
-563.558	-95.698	-0.197	-0.053
-562.544	-200.000	-0.048	0.324
-561.529	-200.000	-0.018	0.092
-560.515	119.496	0.239	0.299
-559.500	-106.892	0.250	-0.056
-558.485	800.000	0.061	-0.224
-557.471	-189.694	-0.426	-0.005
-556.456	-200.000	-0.036	0.331
-555.442	509.832	0.159	0.374
-554.427	-200.000	-0.247	-0.001
-553.412	-53.607	-0.239	0.111
-552.398	-28.239	0.142	0.083
-551.383	239.924	-0.139	-0.235
-550.369	-152.653	0.274	-0.020
-549.354	63.154	0.126	-0.127
-548.339	-138.210	0.379	-0.042
-547.325	148.549	0.126	0.172
-546.310	582.941	-0.083	0.207
-545.296	-120.712	-0.139	0.024
-544.281	275.648	-0.145	-0.259
-543.266	-69.301	-0.253	-0.098
-542.252	334.813	0.059	-0.117
-541.237	-123.599	-0.261	0.042
-540.223	-127.233	-0.112	-0.017
-539.208	294.699	-0.138	-0.255
-538.193	-113.509	-0.310	-0.061
-537.179	124.819	-0.069	0.088
-536.164	-200.000	-0.002	0.161
-535.150	-39.349	0.087	-0.046
-534.135	35.337	-0.100	0.089
-533.121	89.270	0.171	0.193
-532.106	87.983	-0.147	-0.165
-531.091	-138.759	0.181	-0.020
-530.077	-200.000	0.019	0.411
-529.062	-200.000	0.043	-0.194
-528.048	-200.000	-0.014	-0.190
-527.033	-147.686	-0.107	-0.009
-526.018	-27.711	0.082	-0.048
-525.004	25.362	-0.143	0.120
-523.989	-95.079	0.276	0.075
-522.975	-132.852	0.177	0.023
-521.960	-39.093	-0.275	0.146
-520.945	449.710	-0.044	-0.098
-519.931	150.399	-0.185	0.253
-518.916	186.554	0.122	-0.184
-517.902	290.040	0.154	-0.283
-516.887	150.628	0.175	-0.241
-515.872	48.897	0.320	-0.304
-514.858	180.833	-0.121	-0.179
-513.843	82.593	-0.214	-0.234
-512.829	340.708	0.123	0.242
-511.814	1.345	-0.225	0.163
-510.799	-200.000	-0.044	0.328
-509.785	177.824	0.131	-0.193
-508.770	-200.000	-0.036	-0.248
-507.756	93.890	-0.094	0.107
-506.741	800.000	0.033	-0.119
-505.726	91.854	-0.322	0.366
-504.712	-139.033	0.216	-0.024
-503.697	82.831	0.125	-0.137
-502.683	141.703	0.205	-0.274
-501.668	-157.647	-0.108	0.007
-500.653	76.991	-0.192	0.205
-499.639	227.568	-0.040	0.066
-498.624	800.000	0.047	0.158
-497.610	800.000	-0.031	-0.086
-496.595	251.993	-0.061	0.104
-495.581	-200.000	0.007	-0.045
-494.566	-58.732	0.275	0.120
-493.551	-2.744	-0.132	-0.093
-492.537	27.209	0.046	0.039
-491.522	309.678	0.018	0.034
-490.508	55.172	0.094	-0.092
-489.493	-47.324	-0.230	-0.113
-488.478	31.925	0.278	-0.242
-487.464	-85.493	0.016	-0.005
-486.449	451.492	0.125	-0.278
-485.435	-122.992	0.067	-0.011
-484.420	-200.000	-0.017	0.221
-483.405	-200.000	0.002	-0.308
-482.391	165.258	0.074	0.105
-481.376	345.343	-0.063	0.125
-480.362	-20.510	-0.101	0.063
-479.347	-200.000	0.002	0.162
-478.332	-70.739	0.107	-0.041
-477.318	-45.836	0.211	0.105
-476.303	-171.421	-0.083	0.003
-475.289	434.215	-0.209	-0.458
-474.274	416.714	-0.066	0.143
-473.259	-26.249	-0.149	0.088
-472.245	185.499	0.176	0.264
-471.230	800.000	0.129	0.404
-470.216	4.590	-0.018	-0.013
-469.201	23.579	-0.236	-0.196
-468.186	-39.675	0.193	-0.102
-467.172	800.000	-0.005	-0.018
-466.157	-200.000	-0.014	0.452
-465.143	-186.916	-0.136	0.002
-464.128	-169.803	-0.381	-0.014
-463.113	-49.315	-0.393	-0.189
-462.099	-200.000	0.011	-0.066
-461.084	-200.000	-0.054	-0.293
-460.070	32.418	-0.345	-0.300
-459.055	-64.092	0.113	0.047
-458.040	10.749	0.073	0.056
-457.026	-200.000	0.039	-0.184
-456.011	-176.061	0.381	-0.010
-454.997	-200.000	-0.037	0.495
-453.982	376.545	0.090	-0.184
-452.968	343.920	0.101	-0.200
-451.953	-110.585	0.229	-0.048
-450.938	42.991	-0.131	0.120
-449.924	-97.131	-0.174	-0.046
-448.909	158.901	0.158	0.221
-447.895	-200.000	-0.028	0.147
-446.880	736.029	0.036	-0.098
-445.865	-7.514	-0.330	0.225
-444.851	-200.000	-0.029	-0.433
-443.836	-83.761	-0.083	0.027
-442.822	59.856	0.187	-0.186
-441.807	624.856	-0.132	-0.334
-440.792	-38.886	-0.146	0.077
-439.778	42.619	0.191	0.175
-438.763	122.354	-0.069	0.086
-437.749	-200.000	-0.021	0.197
-436.734	-131.775	-0.086	-0.011
-435.719	-155.111	-0.320	-0.021
-434.705	-77.026	0.250	-0.088
-433.690	185.958	-0.231	0.346
-432.676	-200.000	0.013	0.202
-431.661	128.190	-0.107	0.137
-430.646	-66.382	-0.151	0.060
-429.632	621.645	-0.110	0.278
-428.617	-13.469	0.288	0.188
-427.603	358.081	-0.136	0.273
-426.588	-111.035	0.165	-0.034
-425.573	14.945	0.108	-0.085
-424.559	800.000	0.084	0.252
-423.544	-32.991	0.129	-0.072
-422.530	724.674	-0.061	-0.163
-421.515	155.890	0.158	-0.219
-420.500	800.000	0.129	-0.429
-419.486	-115.385	0.503	-0.095
-418.471	139.025	0.275	0.364
-417.457	-95.608	0.225	-0.061
-416.442	94.949	-0.179	0.205
-415.428	-200.000	-0.066	-0.448
-414.413	238.949	0.216	-0.361
-413.398	-200.000	0.025	0.219
-412.384	-127.980	-0.193	-0.028
-411.369	578.310	-0.027	0.066
-410.355	-154.928	-0.309	0.020
-409.340	800.000	0.081	0.232
-408.325	266.765	-0.151	0.266
-407.311	-34.238	-0.280	-0.154
-406.296	-146.359	0.349	-0.031
-405.282	-21.116	0.110	0.068
-404.267	-39.362	-0.105	0.056
-403.252	58.055	0.065	-0.064
-402.238	-90.994	0.182	0.053
-401.223	244.863	0.019	0.032
-400.209	248.122	0.212	0.361
-399.194	93.352	-0.125	0.143
-398.179	-196.163	-0.102	0.001
-397.165	-6.330	-0.255	-0.175
-396.150	120.103	0.310	-0.386
-395.136	-200.000	-0.016	-0.186
-394.121	-200.000	-0.031	0.427
-393.106	317.799	0.077	-0.146
-392.092	55.531	-0.163	-0.159
-391.077	17.928	-0.042	-0.034
-390.063	199.747	0.085	-0.132
-389.048	446.886	-0.203	-0.448
-388.033	3.379	-0.079	-0.058
-387.019	243.003	-0.222	0.374
-386.004	-200.000	0.052	0.427
-384.990	384.247	0.067	-0.139
-383.975	-61.200	0.063	0.027
-382.960	-200.000	0.014	-0.213
-381.946	-186.444	-0.163	0.002
-380.931	54.735	0.158	-0.153
-379.917	-175.334	0.076	-0.002
-378.902	245.697	-0.132	0.223
-377.888	800.000	-0.026	0.091
-376.873	-40.284	0.035	0.018
-375.858	500.638	-0.115	0.267
-374.844	157.610	-0.254	0.353
-373.829	800.000	-0.021	0.067
-372.815	11.991	0.137	-0.106
-371.800	-40.257	-0.148	0.077
-370.785	-74.015	-0.210	-0.077
-369.771	49.817	-0.053	-0.051
-368.756	25.616	-0.140	0.117
-367.742	-168.021	0.175	-0.007
-366.727	68.154	0.254	-0.261
-365.712	-174.423	0.217	-0.006
-364.698	-35.692	0.305	0.166
-363.683	94.753	0.217	0.248
-362.669	539.486	0.070	-0.167
-361.654	49.541	0.130	-0.122
-360.639	25.574	-0.157	0.131
-359.625	-103.752	0.053	-0.012
-358.610	37.788	-0.258	0.230
-357.596	187.280	-0.153	0.229
-356.581	-200.000	0.031	0.249
-355.566	-13.590	-0.221	-0.144
-354.552	-103.608	0.289	-0.068
-353.537	323.413	0.156	0.299
-352.523	-200.000	0.019	-0.320
-351.508	458.206	-0.109	-0.244
-350.493	444.334	0.150	0.331
-349.479	-200.000	-0.005	-0.028
-348.464	214.961	0.125	-0.200
-347.450	-200.000	0.037	0.221
-346.435	235.639	-0.127	-0.211
-345.420	-200.000	0.025	-0.201
-344.406	270.511	-0.152	-0.268
-343.391	185.423	0.171	0.254
-342.377	-200.000	-0.040	-0.203
-341.362	407.377	0.023	-0.049
-340.348	8.876	0.293	-0.222
-339.333	2.458	0.176	-0.128
-338.318	-16.869	0.186	0.118
-337.304	-200.000	0.005	0.165
-336.289	32.769	0.101	-0.087
-335.275	-90.968	0.186	0.054
-334.260	104.922	-0.169	-0.200
-333.245	800.000	-0.054	-0.165
-332.231	800.000	-0.026	0.104
-331.216	800.000	0.040	-0.147
-330.202	84.071	-0.258	0.283
-329.187	-43.127	-0.289	-0.147
-328.172	-149.714	-0.078	-0.006
-327.158	-72.106	-0.349	-0.130
-326.143	-68.333	0.195	0.076
-325.129	-200.000	0.011	-0.287
-324.114	-200.000	0.007	0.191
-323.099	-200.000	0.011	0.187
-322.085	504.990	-0.068	0.159
-321.070	-146.816	0.174	-0.015
-320.056	-63.663	0.350	-0.144
-319.041	114.071	-0.142	0.173
-318.026	67.706	0.351	0.360
-317.012	679.844	-0.133	0.348
-315.997	172.797	-0.289	0.417
-314.983	-154.754	-0.260	-0.017
-313.968	800.000	-0.068	-0.198
-312.953	-200.000	0.028	0.151
-311.939	44.034	0.212	0.195
-310.924	-52.256	-0.123	0.057
-309.910	7.616	0.341	-0.256
-308.895	614.381	0.088	-0.221
-307.880	-140.882	-0.043	0.004
-306.866	52.922	0.189	-0.181
-305.851	-200.000	0.071	0.440
-304.837	-200.000	-0.021	-0.405
-303.822	-14.704	0.212	-0.137
-302.807	-57.587	0.034	-0.015
-301.793	-104.543	0.414	0.096
-300.778	-200.000	0.008	-0.134
-299.764	-82.658	-0.119	-0.039
-298.749	-76.265	-0.264	0.093
-297.735	649.042	0.075	-0.193
-296.720	27.866	0.107	-0.091
-295.705	44.745	-0.301	0.278
-294.691	0.075	0.194	0.138
-293.676	-44.537	-0.120	-0.060
-292.662	-28.680	-0.181	-0.104
-291.647	67.129	-0.192	-0.196
-290.632	92.726	-0.217	0.245
-289.618	-83.102	-0.195	-0.063
-288.603	-56.410	0.187	-0.083
-287.589	-6.548	-0.060	0.041
-286.574	800.000	-0.061	-0.200
-285.559	800.000	-0.036	-0.099
-284.545	63.322	-0.148	-0.149
-283.530	-56.821	0.057	0.025
-282.516	-200.000	-0.014	0.122
-281.501	133.273	-0.263	0.340
-280.486	800.000	0.106	0.333
-279.472	64.242	0.114	0.115
-278.457	462.865	0.041	0.091
-277.443	81.882	0.276	-0.300
-276.428	-134.389	-0.612	0.075
-275.413	177.619	-0.076	0.111
-274.399	-131.463	0.428	-0.057
-273.384	-184.576	0.177	-0.003
-272.370	-69.936	0.135	0.052
-271.355	88.900	-0.160	0.178
-270.340	6.879	0.231	0.172
-269.326	-128.001	0.285	-0.041
-268.311	250.316	-0.075	-0.128
-267.297	-66.321	0.212	0.084
-266.282	-104.132	0.404	-0.094
-265.267	-56.946	0.157	-0.069
-264.253	100.732	0.185	-0.215
-263.238	800.000	0.041	0.177
-262.224	-65.639	-0.229	0.092
-261.209	-26.017	-0.083	0.049
-260.195	260.304	-0.114	0.197
-259.180	-33.265	-0.170	-0.094
-258.165	-93.237	0.145	-0.040
-257.151	-200.000	0.029	0.541
-256.136	800.000	-0.039	-0.164
-255.122	195.440	0.042	-0.064
-254.107	43.020	-0.212	0.193
-253.092	361.863	0.072	-0.144
-252.078	273.919	0.138	-0.245
-251.063	800.000	-0.038	-0.132
-250.049	-92.431	-0.097	-0.027
-249.034	-32.914	0.081	0.045
-248.019	-200.000	-0.003	0.224
-247.005	163.330	0.345	-0.485
-245.990	-34.895	0.228	-0.124
-244.976	27.657	-0.220	0.185
-243.961	-18.501	0.252	0.157
-242.946	-113.430	0.349	-0.068
-241.932	-175.276	0.204	0.006
-240.917	-200.000	0.005	-0.126
-239.903	-89.601	0.093	0.027
-238.888	-30.296	-0.330	-0.187
-237.873	800.000	0.107	0.363
-236.859	24.952	-0.207	0.171
-235.844	-114.931	-0.244	-0.046
-234.830	158.119	-0.118	-0.164
-233.815	-200.000	0.024	0.105
-232.800	-97.094	0.266	-0.070
-231.786	-9.875	0.301	0.200
-230.771	-112.110	-0.201	0.040
-229.757	-172.743	-0.246	0.008
-228.742	-85.900	0.417	-0.129
-227.727	45.176	-0.068	-0.062
-226.713	800.000	-0.041	-0.149
-225.698	-157.372	0.157	0.009
-224.684	-43.098	-0.358	-0.181
-223.669	54.124	-0.328	0.315
-222.655	-200.000	-0.002	0.027
-221.640	-38.552	-0.096	-0.051
-220.625	-19.425	0.083	-0.051
-219.611	800.000	0.103	-0.284
-218.596	318.616	0.126	0.238
-217.582	-11.318	-0.186	-0.122
-216.567	-12.276	0.180	-0.118
-215.552	-121.823	0.233	0.038
-214.538	114.636	-0.277	-0.337
-213.523	-148.912	0.184	-0.015
-212.509	-131.097	0.497	-0.066
-211.494	-129.199	-0.287	0.040
-210.479	-43.973	0.147	0.074
-209.465	84.786	0.139	-0.152
-208.450	1.700	0.303	-0.218
-207.436	-140.169	-0.135	-0.014
-206.421	-200.000	-0.049	0.264
-205.406	-200.000	-0.025	0.198
-204.392	481.372	0.157	-0.355
-203.377	-24.962	0.384	-0.227
-202.363	-73.988	-0.498	-0.180
-201.348	198.385	0.188	0.287
-200.333	-38.778	0.374	0.197
-199.319	35.172	-0.055	-0.048
-198.304	212.779	-0.090	0.142
-197.290	113.184	-0.089	0.107
-196.275	-200.000	0.016	-0.372
-195.260	214.335	0.236	0.373
-194.246	577.854	0.153	0.373
-193.231	-136.168	-0.288	0.034
-192.217	69.803	-0.083	-0.086
-191.202	-200.000	0.009	0.080
-190.187	89.341	0.167	-0.185
-189.173	139.875	-0.133	0.175
-188.158	224.619	-0.139	-0.225
-187.144	-200.000	0.076	-0.358
-186.129	161.934	-0.131	-0.183
-185.114	-200.000	0.002	0.110
-184.100	-200.000	0.009	0.081
-183.085	-200.000	0.006	0.425
-182.071	-200.000	-0.000	0.148
-181.056	72.301	-0.143	0.149
-180.042	-80.332	-0.043	0.014
-179.027	800.000	0.046	-0.148
-178.012	425.832	0.039	0.084
-176.998	77.895	-0.276	-0.294
-175.983	354.255	-0.002	-0.003
-174.969	-200.000	-0.033	-0.302
-173.954	36.960	-0.229	0.202
-172.939	-79.063	0.406	-0.137
-171.925	67.579	0.333	-0.339
-170.910	-114.416	0.317	0.061
-169.896	-126.549	-0.421	-0.062
-168.881	-46.698	0.165	-0.081
-167.866	-200.000	-0.028	-0.277
-166.852	-40.143	-0.060	0.031
-165.837	154.976	0.185	0.254
-164.823	-94.955	0.205	0.055
-163.808	800.000	-0.097	0.345
-162.793	800.000	-0.044	0.127
-161.779	266.188	0.147	-0.256
-160.764	796.959	-0.138	-0.380
-159.750	-61.744	-0.207	-0.086
-158.735	-125.243	-0.387	0.059
-157.720	-31.342	-0.199	-0.112
-156.706	55.418	0.215	0.207
-155.691	-135.868	0.107	0.013
-154.677	-28.807	-0.081	-0.046
-153.662	55.449	0.105	-0.102
-152.647	-119.360	-0.135	-0.023
-151.633	-200.000	-0.014	0.078
-150.618	800.000	0.063	0.175
-149.604	-29.135	0.269	0.154
-148.589	-145.307	-0.108	-0.010
-147.574	-52.956	0.282	-0.129
-146.560	-160.158	0.149	-0.008
-145.545	35.742	0.197	-0.172
-144.531	181.185	-0.123	0.180
-143.516	-17.456	0.131	0.082
-142.502	357.599	0.063	0.124
-141.487	129.312	-0.220	0.279
-140.472	34.055	0.063	-0.055
-139.458	-55.722	0.140	0.062
-138.443	-118.753	0.112	-0.020
-137.429	800.000	0.073	-0.247
-136.414	117.626	-0.049	0.060
-135.399	70.309	-0.297	-0.306
-134.385	-200.000	0.022	-0.161
-133.370	-86.994	-0.425	-0.129
-132.356	-200.000	0.041	0.207
-131.341	-51.855	0.132	0.061
-130.326	-200.000	-0.010	0.064
-129.312	109.925	-0.293	0.350
-128.297	-5.576	0.209	0.143
-127.283	800.000	0.100	0.403
-126.268	86.414	0.258	0.283
-125.253	-52.518	-0.287	-0.132
-124.239	-68.614	-0.015	-0.006
-123.224	-200.000	0.023	0.192
-122.210	-109.244	0.101	-0.021
-121.195	-162.833	0.302	0.015
