DTS Sentinel unit serial number:	SN413079Multiplexer serial number:	ORYXHardware model number:	OX4-SRSoftware version number:	ORYX F/W v4.00 Oryx Data Collector v3.7.2.0data status	okinstallation	princeton_trtdifferential loss correction	single-endedforward channel	channel 1reverse channel	N/Adate	2019/09/18time	17:38:35forward acquisition time	60.00reverse acquisition time	0.00gamma	496.2192k internal	0.2291k external	0.2291temperature offset calibration	1.0002default loss term (dB/km)	0.3790temperature slope calibration	1.0000multiplexer offset coefficient	1.0000multiplexer slope coefficient	1.0000fibre end	0.00T internal ref (°C)	40.25T ext. ref 1 (°C)	0.90T ext. ref 2 (°C)	35.18length (m)	temperature (°C)	Stokes	anti-Stokes-747.200	-77.225	-0.265	-0.095
-746.185	-200.000	0.057	0.277
-745.171	116.866	-0.199	-0.250
-744.156	308.059	-0.218	0.416
-743.142	43.281	0.045	0.042
-742.127	-90.716	0.074	0.022
-741.112	146.514	-0.129	-0.178
-740.098	-200.000	-0.001	-0.053
-739.083	-200.000	-0.054	0.410
-738.069	-200.000	-0.339	-0.001
-737.054	82.024	0.013	0.014
-736.039	-200.000	-0.001	0.018
-735.025	-200.000	0.009	0.180
-734.010	249.357	0.134	-0.232
-732.996	-102.776	-0.345	-0.084
-731.981	-7.155	-0.179	-0.125
-730.966	-200.000	-0.016	0.096
-729.952	-16.975	-0.154	0.100
-728.937	-108.665	-0.313	-0.069
-727.923	3.097	0.336	0.250
-726.908	-187.813	0.289	-0.004
-725.894	141.188	0.077	-0.105
-724.879	112.593	0.128	-0.159
-723.864	-79.220	-0.265	-0.092
-722.850	-180.453	-0.161	-0.003
-721.835	-148.515	0.232	0.019
-720.821	55.611	-0.190	-0.189
-719.806	-37.016	0.211	-0.115
-718.791	-69.376	-0.155	0.061
-717.777	-94.587	-0.159	-0.044
-716.762	-5.974	-0.282	0.197
-715.748	-200.000	-0.007	0.130
-714.733	103.512	-0.094	0.113
-713.718	27.465	-0.309	0.266
-712.704	-200.000	0.016	-0.422
-711.689	-4.568	-0.073	-0.052
-710.675	-25.838	0.120	-0.072
-709.660	-200.000	0.037	0.276
-708.645	-95.381	-0.159	-0.044
-707.631	-148.031	-0.262	-0.022
-706.616	-130.723	-0.372	0.051
-705.602	673.081	-0.032	0.085
-704.587	800.000	-0.080	0.312
-703.572	-1.816	0.074	-0.053
-702.558	529.236	0.028	0.066
-701.543	97.860	-0.174	-0.204
-700.529	-200.000	0.014	-0.315
-699.514	-67.433	0.135	0.054
-698.499	-39.774	0.267	-0.143
-697.485	18.751	-0.064	0.052
-696.470	66.151	-0.227	-0.235
-695.456	-200.000	-0.038	-0.273
-694.441	312.844	-0.185	-0.355
-693.426	800.000	-0.018	0.059
-692.412	-150.242	-0.285	-0.023
-691.397	-51.830	0.267	-0.127
-690.383	236.521	0.108	-0.183
-689.368	-78.991	0.112	0.039
-688.354	-200.000	-0.007	-0.226
-687.339	-81.038	-0.305	-0.103
-686.324	-91.910	0.255	0.074
-685.310	800.000	-0.083	0.295
-684.295	-27.614	-0.148	-0.088
-683.281	412.582	0.091	-0.198
-682.266	-177.734	-0.312	0.008
-681.251	7.723	-0.153	0.117
-680.237	118.962	0.013	-0.017
-679.222	-200.000	-0.074	0.383
-678.208	800.000	-0.075	0.258
-677.193	-173.713	-0.219	0.007
-676.178	-200.000	0.002	-0.149
-675.164	-99.366	0.460	-0.119
-674.149	-111.384	-0.269	-0.056
-673.135	212.031	-0.031	-0.049
-672.120	443.280	-0.104	0.232
-671.105	36.533	-0.016	-0.014
-670.091	-200.000	-0.007	0.079
-669.076	-124.455	-0.097	-0.015
-668.062	22.432	-0.080	0.067
-667.047	-200.000	-0.021	0.108
-666.032	64.824	0.109	-0.113
-665.018	-200.000	0.035	-0.502
-664.003	800.000	-0.068	-0.245
-662.989	174.568	-0.101	0.148
-661.974	-200.000	0.012	-0.126
-660.959	800.000	0.066	0.192
-659.945	20.944	-0.116	0.096
-658.930	102.185	0.195	-0.232
-657.916	-149.108	0.081	0.007
-656.901	-200.000	0.041	0.201
-655.886	615.069	-0.074	-0.189
-654.872	-83.633	-0.305	-0.099
-653.857	-173.338	0.149	-0.005
-652.843	-152.312	-0.091	-0.007
-651.828	-122.119	-0.524	-0.088
-650.814	-200.000	0.012	0.200
-649.799	-8.294	-0.200	0.137
-648.784	-200.000	0.007	0.143
-647.770	-200.000	-0.007	-0.098
-646.755	331.037	-0.232	-0.456
-645.741	-26.908	0.191	-0.114
-644.726	-95.718	-0.238	0.065
-643.711	-57.246	0.177	0.079
-642.697	-200.000	0.026	-0.290
-641.682	234.164	-0.032	-0.053
-640.668	58.602	0.153	0.154
-639.653	-200.000	-0.011	-0.290
-638.638	800.000	-0.091	-0.339
-637.624	105.002	0.384	0.461
-636.609	-79.684	-0.192	-0.066
-635.595	-12.615	-0.189	0.125
-634.580	179.550	-0.181	0.270
-633.565	-87.766	-0.142	0.044
-632.551	-185.980	0.139	-0.002
-631.536	-200.000	0.059	-0.273
-630.522	-144.626	0.148	0.014
-629.507	9.803	0.066	-0.051
-628.492	-167.929	0.129	0.005
-627.478	-200.000	0.003	-0.403
-626.463	142.600	0.132	0.178
-625.449	-46.429	0.284	0.142
-624.434	48.605	-0.236	0.226
-623.419	-36.463	-0.123	0.068
-622.405	-200.000	0.007	-0.197
-621.390	104.393	-0.088	-0.106
-620.376	-134.154	-0.204	-0.026
-619.361	-85.547	0.235	-0.075
-618.346	-115.965	-0.075	-0.014
-617.332	-35.438	-0.403	-0.223
-616.317	-51.129	0.467	-0.223
-615.303	17.310	0.250	-0.202
-614.288	-177.871	0.128	-0.003
-613.273	272.691	-0.013	0.024
-612.259	-74.639	-0.334	-0.122
-611.244	436.084	-0.014	0.032
-610.230	167.776	-0.081	-0.117
-609.215	-121.722	-0.136	-0.023
-608.201	250.954	-0.127	-0.220
-607.186	-122.931	0.318	-0.052
-606.171	-40.290	0.146	-0.077
-605.157	-114.353	0.324	-0.063
-604.142	167.791	0.015	-0.022
-603.128	543.082	-0.138	0.336
-602.113	95.704	0.199	-0.231
-601.098	135.862	0.145	-0.192
-600.084	-170.432	-0.354	0.013
-599.069	71.549	0.107	-0.113
-598.055	790.866	0.070	0.196
-597.040	-200.000	0.012	-0.289
-596.025	26.941	0.112	0.096
-595.011	119.199	0.122	-0.154
-593.996	-55.823	0.108	0.049
-592.982	-110.787	-0.259	-0.054
-591.967	-200.000	-0.017	-0.122
-590.952	3.532	-0.191	-0.142
-589.938	-177.244	0.194	-0.005
-588.923	-43.796	-0.143	0.074
-587.909	7.350	-0.107	-0.081
-586.894	-9.471	-0.109	0.074
-585.879	800.000	0.103	0.312
-584.865	374.731	-0.117	0.243
-583.850	-200.000	-0.039	0.386
-582.836	350.478	0.129	0.259
-581.821	-10.942	0.210	-0.141
-580.806	-123.736	-0.127	-0.020
-579.792	34.599	-0.370	-0.329
-578.777	-81.859	0.218	0.073
-577.763	161.719	-0.268	0.382
-576.748	475.170	-0.052	-0.119
-575.733	13.400	-0.109	-0.086
-574.719	-67.778	-0.065	-0.026
-573.704	111.953	-0.254	-0.312
-572.690	-43.343	-0.022	0.012
-571.675	-104.709	0.084	-0.020
-570.661	107.159	0.093	0.113
-569.646	48.766	-0.109	-0.104
-568.631	-87.824	0.298	0.091
-567.617	-200.000	0.034	-0.426
-566.602	-107.370	0.248	-0.055
-565.588	-127.641	-0.477	-0.070
-564.573	418.641	-0.191	0.415
-563.558	180.603	0.058	-0.086
-562.544	-74.934	0.361	-0.132
-561.529	221.813	-0.105	-0.172
-560.515	75.247	-0.157	-0.168
-559.500	-200.000	-0.027	0.176
-558.485	118.321	-0.114	-0.143
-557.471	-200.000	0.041	0.222
-556.456	-36.913	0.151	0.082
-555.442	8.447	0.210	0.161
-554.427	176.674	-0.120	-0.177
-553.412	84.576	-0.091	-0.102
-552.398	-67.012	-0.088	-0.035
-551.383	800.000	-0.106	-0.343
-550.369	-173.025	0.288	0.009
-549.354	185.785	-0.032	0.048
-548.339	207.365	-0.033	0.053
-547.325	-142.598	-0.125	0.012
-546.310	156.641	0.112	0.158
-545.296	-200.000	-0.034	-0.166
-544.281	-104.353	-0.181	-0.043
-543.266	800.000	-0.090	0.340
-542.252	197.493	0.205	0.319
-541.237	15.018	-0.161	-0.128
-540.223	-200.000	-0.005	-0.089
-539.208	800.000	-0.041	-0.167
-538.193	-75.539	-0.216	-0.078
-537.179	-158.114	-0.209	0.012
-536.164	38.918	0.110	-0.100
-535.150	-154.706	-0.251	-0.017
-534.135	250.679	0.106	0.182
-533.121	265.365	-0.072	-0.128
-532.106	222.878	-0.153	0.250
-531.091	-200.000	-0.040	-0.191
-530.077	38.336	-0.086	-0.078
-529.062	-200.000	0.024	-0.344
-528.048	160.397	-0.039	-0.056
-527.033	-86.411	-0.255	-0.080
-526.018	-200.000	0.027	-0.259
-525.004	438.773	-0.035	0.078
-523.989	-120.516	-0.205	-0.035
-522.975	-200.000	0.031	0.190
-521.960	-143.916	0.615	0.059
-520.945	307.255	0.054	0.103
-519.931	-200.000	0.051	0.300
-518.916	259.721	-0.139	0.244
-517.902	167.338	-0.242	0.349
-516.887	800.000	-0.103	0.324
-515.872	800.000	0.064	0.256
-514.858	133.468	0.100	-0.131
-513.843	-19.098	-0.252	0.159
-512.829	99.044	0.152	0.178
-511.814	-122.136	0.242	-0.040
-510.799	-200.000	0.056	-0.647
-509.785	-38.250	0.118	0.064
-508.770	-107.543	0.348	0.077
-507.756	101.503	0.093	-0.110
-506.741	385.677	-0.110	-0.231
-505.726	177.971	0.107	0.158
-504.712	169.798	-0.268	0.388
-503.697	54.864	0.227	0.223
-502.683	800.000	0.049	-0.149
-501.668	-200.000	0.037	-0.355
-500.653	-135.844	0.363	0.043
-499.639	800.000	0.065	-0.275
-498.624	-200.000	-0.024	0.206
-497.610	228.681	-0.113	-0.187
-496.595	-75.939	-0.108	0.039
-495.581	11.173	-0.087	-0.068
-494.566	-114.296	0.243	0.048
-493.551	5.810	-0.227	-0.170
-492.537	-127.542	-0.180	0.027
-491.522	-165.548	0.319	-0.014
-490.508	-53.121	0.231	-0.107
-489.493	102.927	-0.173	0.205
-488.478	238.161	-0.152	-0.255
-487.464	-200.000	0.009	0.135
-486.449	27.701	0.199	-0.170
-485.435	-36.449	-0.432	-0.236
-484.420	-200.000	-0.054	0.318
-483.405	-73.040	-0.274	-0.102
-482.391	41.594	-0.315	0.289
-481.376	-99.147	-0.188	-0.048
-480.362	800.000	0.049	-0.200
-479.347	-25.318	-0.240	-0.144
-478.332	789.529	-0.089	-0.247
-477.318	386.555	-0.188	-0.393
-476.303	107.476	-0.121	0.146
-475.289	-92.939	-0.033	-0.009
-474.274	14.076	0.209	0.165
-473.259	16.022	-0.043	-0.034
-472.245	-96.112	0.330	-0.089
-471.230	-91.356	-0.130	0.038
-470.216	221.769	0.311	0.507
-469.201	-41.538	0.115	-0.060
-468.186	262.274	-0.072	0.127
-467.172	260.066	0.131	0.230
-466.157	26.094	0.122	-0.103
-465.143	-91.405	-0.158	-0.046
-464.128	124.061	-0.143	-0.182
-463.113	800.000	0.066	0.199
-462.099	-200.000	0.007	-0.284
-461.084	800.000	-0.086	0.270
-460.070	-139.855	-0.153	0.016
-459.055	-123.385	0.366	-0.059
-458.040	116.775	0.074	-0.092
-457.026	232.399	0.046	-0.077
-456.011	83.189	-0.090	-0.100
-454.997	-178.859	-0.065	-0.001
-453.982	492.767	0.104	0.240
-452.968	-200.000	-0.004	-0.026
-451.953	-75.286	-0.441	0.159
-450.938	258.936	0.188	-0.328
-449.924	-131.668	-0.534	0.071
-448.909	-200.000	0.015	-0.134
-447.895	76.079	-0.044	-0.048
-446.880	-200.000	0.021	-0.098
-445.865	-200.000	-0.001	-0.262
-444.851	-30.476	0.086	-0.049
-443.836	-200.000	-0.006	-0.216
-442.822	152.543	0.113	-0.156
-441.807	800.000	0.069	0.260
-440.792	800.000	0.012	0.043
-439.778	-3.493	0.128	0.090
-438.763	-140.279	0.319	-0.034
-437.749	-50.955	0.054	-0.026
-436.734	800.000	0.059	0.193
-435.719	800.000	-0.076	0.223
-434.705	-70.022	0.082	0.032
-433.690	-200.000	0.023	-0.299
-432.676	800.000	0.089	0.371
-431.661	-81.832	-0.261	-0.086
-430.646	450.040	-0.040	0.090
-429.632	-200.000	-0.408	-0.000
-428.617	-200.000	0.009	-0.090
-427.603	96.188	0.133	0.154
-426.588	-2.166	0.327	0.232
-425.573	-13.050	-0.190	-0.125
-424.559	-200.000	-0.011	-0.179
-423.544	-102.128	0.278	0.068
-422.530	-134.948	-0.026	-0.003
-421.515	-123.799	0.161	-0.026
-420.500	-157.674	0.224	-0.014
-419.486	389.171	-0.113	0.237
-418.471	237.609	-0.038	-0.063
-417.457	-200.000	-0.101	0.494
-416.442	800.000	0.074	0.292
-415.428	-65.355	-0.189	-0.077
-414.413	-88.167	0.214	-0.065
-413.398	-83.429	-0.185	0.060
-412.384	313.321	-0.095	-0.181
-411.369	243.391	-0.094	-0.159
-410.355	800.000	-0.037	0.117
-409.340	43.858	0.039	0.036
-408.325	-51.620	-0.145	0.068
-407.311	-154.159	0.284	-0.019
-406.296	800.000	0.102	0.439
-405.282	-136.845	0.293	0.034
-404.267	78.534	-0.116	-0.125
-403.252	-10.732	-0.142	-0.095
-402.238	-133.260	-0.348	0.044
-401.223	-20.491	0.149	0.093
-400.209	-37.505	-0.105	0.057
-399.194	186.740	-0.051	0.077
-398.179	761.722	-0.117	0.321
-397.165	-200.000	-0.012	0.221
-396.150	-117.453	0.164	0.030
-395.136	-106.829	-0.253	0.057
-394.121	800.000	-0.012	-0.043
-393.106	70.261	0.159	-0.166
-392.092	33.753	0.042	0.037
-391.077	107.518	0.263	0.316
-390.063	-42.410	0.176	0.091
-389.048	-200.000	0.045	0.324
-388.033	23.156	0.219	0.181
-387.019	-200.000	-0.010	-0.216
-386.004	340.825	0.092	0.181
-384.990	-164.591	0.227	-0.010
-383.975	-113.829	-0.051	-0.010
-382.960	137.783	0.333	0.440
-381.946	800.000	0.025	-0.094
-380.931	25.223	-0.151	0.126
-379.917	143.303	-0.091	-0.122
-378.902	-37.564	0.239	0.129
-377.888	186.848	-0.084	-0.126
-376.873	31.634	0.148	0.129
-375.858	428.028	-0.082	0.178
-374.844	-113.922	0.147	-0.029
-373.829	-111.708	-0.447	-0.091
-372.815	197.505	-0.156	0.240
-371.800	-112.744	-0.325	-0.065
-370.785	-200.000	-0.010	0.154
-369.771	96.599	-0.089	-0.103
-368.756	-101.996	0.296	-0.072
-367.742	438.647	0.059	0.131
-366.727	190.593	0.144	-0.218
-365.712	277.960	-0.149	-0.268
-364.698	-153.549	-0.257	-0.018
-363.683	18.169	-0.357	-0.287
-362.669	-5.585	-0.087	-0.061
-361.654	-200.000	0.007	-0.036
-360.639	-179.404	-0.348	-0.008
-359.625	70.466	-0.139	0.145
-358.610	-38.496	0.239	-0.128
-357.596	221.019	-0.021	-0.034
-356.581	-46.916	0.048	0.024
-355.566	-200.000	-0.009	0.208
-354.552	-11.835	0.414	0.274
-353.537	800.000	0.054	0.171
-352.523	800.000	-0.013	-0.054
-351.508	-48.026	0.074	-0.036
-350.493	-81.522	0.261	0.086
-349.479	331.419	-0.091	0.178
-348.464	274.171	0.095	0.169
-347.450	29.937	0.154	-0.132
-346.435	-200.000	-0.025	0.394
-345.420	-200.000	0.018	0.083
-344.406	-51.644	0.263	0.124
-343.391	-70.718	-0.033	-0.013
-342.377	656.964	-0.139	-0.361
-341.362	-126.722	-0.357	0.053
-340.348	30.710	0.127	-0.109
-339.333	800.000	-0.147	-0.510
-338.318	109.263	0.040	-0.048
-337.304	-187.431	0.339	0.005
-336.289	-0.254	-0.034	-0.025
-335.275	-32.354	0.343	0.193
-334.260	-40.174	-0.273	-0.143
-333.245	409.220	0.073	0.155
-332.231	-53.605	-0.152	-0.070
-331.216	44.996	-0.050	-0.047
-330.202	-114.544	0.186	0.036
-329.187	680.940	0.117	-0.308
-328.172	133.747	0.353	0.461
-327.158	190.835	-0.091	-0.139
-326.143	74.461	0.082	-0.087
-325.129	-28.190	-0.428	-0.249
-324.114	-22.995	-0.289	0.175
-323.099	800.000	-0.012	0.052
-322.085	-200.000	0.001	0.094
-321.070	702.055	-0.099	0.263
-320.056	17.068	-0.125	-0.100
-319.041	-82.938	0.034	0.011
-318.026	-200.000	-0.018	-0.172
-317.012	160.308	0.291	-0.409
-315.997	149.082	0.118	0.160
-314.983	-103.613	0.285	0.067
-313.968	28.202	-0.036	-0.031
-312.953	-88.677	0.117	0.035
-311.939	-200.000	-0.023	0.190
-310.924	-90.540	0.180	-0.052
-309.910	-200.000	-0.003	-0.151
-308.895	37.783	0.069	-0.062
-307.880	210.204	-0.252	-0.398
-306.866	-66.280	-0.348	0.139
-305.851	51.638	0.109	0.104
-304.837	-128.133	-0.234	-0.034
-303.822	-99.507	0.199	-0.050
-302.807	56.519	0.287	-0.281
-301.793	67.947	-0.187	-0.192
-300.778	-162.971	-0.294	0.014
-299.764	88.566	0.165	-0.184
-298.749	800.000	0.084	0.275
-297.735	355.781	-0.068	-0.137
-296.720	-200.000	-0.079	0.383
-295.705	-0.384	0.134	0.096
-294.691	-158.552	-0.263	-0.015
-293.676	84.569	-0.082	0.090
-292.662	203.000	0.127	0.197
-291.647	21.377	0.106	-0.087
-290.632	-71.426	-0.227	0.086
-289.618	46.534	0.065	-0.061
-288.603	-147.199	0.252	0.022
-287.589	-200.000	0.029	0.373
-286.574	800.000	-0.029	0.088
-285.559	-141.801	0.308	-0.031
-284.545	-200.000	0.054	0.266
-283.530	46.306	0.036	0.034
-282.516	-87.202	0.281	-0.086
-281.501	-200.000	-0.016	-0.130
-280.486	69.123	0.076	-0.079
-279.472	-200.000	0.029	0.164
-278.457	-38.270	-0.204	0.109
-277.443	-188.756	-0.471	-0.006
-276.428	800.000	-0.120	-0.347
-275.413	51.764	-0.164	0.157
-274.399	-153.120	-0.301	-0.021
-273.384	800.000	-0.041	-0.157
-272.370	127.916	0.133	0.170
-271.355	-108.520	-0.228	-0.049
-270.340	-200.000	0.001	0.026
-269.326	-95.887	-0.283	-0.076
-268.311	275.569	0.194	-0.345
-267.297	-200.000	-0.087	0.479
-266.282	-54.452	0.295	0.134
-265.267	-69.093	-0.273	-0.106
-264.253	1.114	-0.230	-0.166
-263.238	141.920	0.196	0.261
-262.224	-31.043	-0.162	0.092
-261.209	-200.000	-0.005	-0.302
-260.195	-104.595	0.179	-0.041
-259.180	800.000	-0.028	0.082
-258.165	-58.894	0.046	0.020
-257.151	800.000	0.048	-0.179
-256.136	800.000	-0.043	0.155
-255.122	-200.000	-0.015	0.122
-254.107	-200.000	0.007	0.072
-253.092	-15.800	-0.149	-0.096
-252.078	5.745	-0.146	0.108
-251.063	-200.000	0.013	-0.059
-250.049	-191.016	-0.084	0.001
-249.034	-200.000	-0.025	-0.202
-248.019	800.000	-0.010	-0.044
-247.005	-36.026	0.297	-0.161
-245.990	15.817	-0.026	-0.020
-244.976	-0.119	0.134	0.096
-243.961	744.869	-0.119	0.321
-242.946	-178.767	-0.130	-0.003
-241.932	229.686	-0.109	-0.178
-240.917	698.987	-0.108	-0.285
-239.903	438.497	-0.038	-0.084
-238.888	-123.259	0.264	0.042
-237.873	366.079	0.078	0.158
-236.859	318.666	0.124	0.236
-235.844	800.000	-0.029	0.101
-234.830	800.000	0.054	0.174
-233.815	621.743	-0.060	0.152
-232.800	710.268	0.145	-0.385
-231.786	202.591	-0.136	-0.211
-230.771	-25.067	0.014	0.009
-229.757	-200.000	-0.073	-0.436
-228.742	-10.044	-0.018	0.012
-227.727	89.101	-0.258	-0.288
-226.713	579.058	0.102	0.251
-225.698	201.715	0.128	-0.198
-224.684	800.000	0.134	0.437
-223.669	266.863	0.076	0.133
-222.655	800.000	0.052	-0.190
-221.640	-200.000	-0.033	-0.263
-220.625	-200.000	0.011	0.143
-219.611	-40.959	-0.038	-0.020
-218.596	-200.000	-0.005	0.191
-217.582	-200.000	-0.013	0.219
-216.567	244.809	0.050	-0.084
-215.552	497.978	0.051	0.117
-214.538	-78.772	0.407	0.139
-213.523	-200.000	0.040	-0.179
-212.509	367.880	-0.142	-0.287
-211.494	-200.000	0.004	0.044
-210.479	-103.558	0.410	-0.097
-209.465	-126.619	0.241	-0.036
-208.450	229.429	0.100	0.164
-207.436	-67.301	-0.153	-0.060
-206.421	-1.643	0.238	-0.168
-205.406	54.186	0.053	0.052
-204.392	-200.000	0.010	-0.330
-203.377	-20.801	-0.127	0.078
-202.363	-121.027	-0.245	0.041
-201.348	130.637	0.054	-0.069
-200.333	337.568	0.064	0.124
-199.319	508.274	-0.046	-0.108
-198.304	-200.000	-0.015	-0.222
-197.290	-67.691	-0.199	0.078
-196.275	52.780	-0.262	-0.251
-195.260	-200.000	-0.044	-0.383
-194.246	-77.231	-0.263	0.092
-193.231	37.025	-0.041	-0.037
-192.217	-200.000	0.033	-0.321
-191.202	-200.000	0.038	0.202
-190.187	-98.175	0.429	-0.111
-189.173	-113.432	-0.125	0.025
-188.158	-118.291	-0.113	-0.020
-187.144	-200.000	-0.015	-0.125
-186.129	16.595	0.290	-0.230
-185.114	20.636	0.207	-0.168
-184.100	13.696	0.203	0.158
-183.085	760.110	0.064	-0.174
-182.071	-34.421	0.129	0.071
-181.056	-71.393	0.295	-0.111
-180.042	-18.329	0.313	0.196
-179.027	-99.209	-0.241	-0.061
-178.012	-15.385	-0.156	-0.100
-176.998	303.855	0.108	0.201
-175.983	-108.197	-0.092	0.020
-174.969	-200.000	-0.008	-0.486
-173.954	-113.988	-0.192	0.037
-172.939	800.000	0.056	0.235
-171.925	800.000	0.181	0.500
-170.910	192.834	-0.232	0.351
-169.896	-200.000	-0.026	0.234
-168.881	-200.000	0.014	0.125
-167.866	139.337	-0.071	-0.094
-166.852	48.477	0.157	0.147
-165.837	800.000	0.058	-0.223
-164.823	-138.609	0.270	0.030
-163.808	-168.002	0.291	0.011
-162.793	-34.276	-0.273	0.150
-161.779	-200.000	0.013	-0.175
-160.764	-181.720	-0.199	0.004
-159.750	-180.008	-0.516	-0.011
-158.735	14.178	0.218	0.170
-157.720	243.744	-0.152	0.255
-156.706	-0.466	-0.084	0.060
-155.691	800.000	-0.115	-0.343
-154.677	-200.000	0.032	0.226
-153.662	-173.319	0.235	-0.007
-152.647	-65.973	0.080	-0.032
-151.633	157.185	0.100	0.138
-150.618	800.000	0.028	-0.096
-149.604	115.250	-0.180	0.221
-148.589	156.020	-0.081	0.112
-147.574	226.577	0.056	0.090
-146.560	-75.038	-0.068	0.024
-145.545	11.535	0.168	-0.129
-144.531	512.911	0.065	0.152
-143.516	-3.500	-0.076	0.053
-142.502	800.000	-0.074	0.279
-141.487	-96.626	0.137	-0.036
-140.472	148.405	-0.098	-0.132
-139.458	-40.197	0.180	0.094
-138.443	-19.929	-0.237	0.146
-137.429	-56.889	0.199	0.088
-136.414	-54.172	-0.179	0.081
-135.399	-71.792	0.181	-0.067
-134.385	-189.418	0.253	0.003
-133.370	800.000	-0.104	0.378
-132.356	-200.000	0.002	0.271
-131.341	44.181	0.153	-0.140
-130.326	-200.000	0.016	0.256
-129.312	-154.761	-0.233	0.015
-128.297	-49.166	0.336	0.161
-127.283	253.431	0.176	-0.300
-126.268	-142.627	0.377	0.037
-125.253	372.601	-0.073	0.148
-124.239	-98.190	0.139	-0.036
-123.224	340.133	-0.210	0.410
