DTS Sentinel unit serial number:	SN413079Multiplexer serial number:	ORYXHardware model number:	OX4-SRSoftware version number:	ORYX F/W v4.00 Oryx Data Collector v3.7.2.0data status	okinstallation	princeton_trtdifferential loss correction	single-endedforward channel	channel 1reverse channel	N/Adate	2019/09/11time	22:16:11forward acquisition time	60.00reverse acquisition time	0.00gamma	496.2192k internal	0.2313k external	0.2313temperature offset calibration	1.0055default loss term (dB/km)	0.3790temperature slope calibration	1.0000multiplexer offset coefficient	1.0000multiplexer slope coefficient	1.0000fibre end	0.00T internal ref (°C)	35.30T ext. ref 1 (°C)	1.77T ext. ref 2 (°C)	29.63length (m)	temperature (°C)	Stokes	anti-Stokes-747.200	-200.000	0.023	0.183
-746.185	800.000	0.067	0.253
-745.171	-200.000	-0.046	0.288
-744.156	-200.000	0.025	0.208
-743.142	-92.303	-0.300	-0.086
-742.127	86.568	-0.116	0.130
-741.112	800.000	-0.038	0.114
-740.098	434.837	-0.037	0.082
-739.083	51.743	0.348	0.336
-738.069	-200.000	-0.030	0.146
-737.054	-40.098	0.300	-0.159
-736.039	-15.224	-0.197	0.128
-735.025	64.057	-0.188	0.191
-734.010	6.173	-0.203	0.152
-732.996	-73.562	-0.094	0.035
-731.981	81.094	0.085	0.093
-730.966	39.391	-0.235	-0.213
-729.952	-118.759	-0.194	0.035
-728.937	64.790	-0.132	-0.135
-727.923	328.693	0.106	0.207
-726.908	110.310	-0.197	-0.239
-725.894	-99.156	-0.336	0.086
-724.879	-76.063	0.263	0.094
-723.864	-178.348	-0.165	-0.004
-722.850	-74.618	0.414	-0.151
-721.835	59.402	-0.084	-0.084
-720.821	-136.370	-0.168	-0.020
-719.806	-200.000	-0.006	0.060
-718.791	-37.506	0.473	0.256
-717.777	-59.298	-0.221	0.097
-716.762	-19.696	0.171	-0.107
-715.748	170.716	-0.022	0.031
-714.733	20.160	0.016	0.013
-713.718	-22.790	-0.156	0.096
-712.704	333.430	-0.123	0.241
-711.689	-115.483	-0.222	0.042
-710.675	-200.000	-0.095	-0.425
-709.660	395.201	0.032	0.067
-708.645	281.597	0.073	-0.133
-707.631	73.119	-0.165	-0.174
-706.616	117.422	0.201	-0.250
-705.602	800.000	0.072	-0.284
-704.587	-9.784	0.024	-0.016
-703.572	-43.240	-0.281	-0.144
-702.558	-179.357	-0.122	0.003
-701.543	-140.178	0.148	0.016
-700.529	51.574	0.075	-0.072
-699.514	-35.503	-0.332	-0.182
-698.499	140.801	0.243	-0.326
-697.485	12.908	0.143	0.112
-696.470	-141.346	-0.185	0.019
-695.456	-43.300	-0.161	0.083
-694.441	250.814	0.107	-0.184
-693.426	-28.491	-0.317	0.185
-692.412	11.151	-0.135	-0.105
-691.397	-88.857	0.094	-0.028
-690.383	-71.229	-0.108	0.041
-689.368	-200.000	-0.059	-0.367
-688.354	-131.366	-0.174	0.023
-687.339	-5.437	-0.020	-0.014
-686.324	800.000	0.066	-0.287
-685.310	-149.671	-0.176	-0.014
-684.295	1.008	-0.130	-0.094
-683.281	800.000	-0.051	0.221
-682.266	357.103	-0.084	-0.170
-681.251	-140.083	0.389	-0.041
-680.237	11.909	-0.159	-0.123
-679.222	127.409	-0.162	0.208
-678.208	215.611	-0.187	-0.301
-677.193	-65.235	0.206	-0.084
-676.178	800.000	0.032	-0.100
-675.164	-134.578	-0.208	-0.026
-674.149	-200.000	-0.046	-0.309
-673.135	-55.933	-0.115	0.052
-672.120	-13.433	0.201	-0.132
-671.105	-86.577	-0.219	-0.068
-670.091	-73.461	0.066	0.024
-669.076	-145.206	0.200	0.018
-668.062	175.486	-0.120	0.176
-667.047	43.188	-0.101	0.093
-666.032	-138.491	-0.216	-0.024
-665.018	637.540	-0.172	-0.441
-664.003	-200.000	-0.005	-0.151
-662.989	-44.856	-0.192	0.097
-661.974	493.430	0.098	-0.227
-660.959	-3.128	-0.211	-0.149
-659.945	800.000	0.045	0.145
-658.930	-200.000	-0.031	0.207
-657.916	-166.968	0.163	0.007
-656.901	-139.875	0.184	-0.020
-655.886	83.208	0.037	0.040
-654.872	-89.699	0.221	-0.065
-653.857	800.000	-0.036	0.146
-652.843	-123.337	-0.116	0.019
-651.828	187.602	0.092	0.138
-650.814	133.553	-0.195	-0.255
-649.799	-200.000	-0.080	-0.358
-648.784	159.400	-0.204	-0.286
-647.770	91.822	0.056	-0.064
-646.755	-85.407	-0.221	-0.070
-645.741	-19.708	0.116	-0.073
-644.726	-107.319	0.217	-0.048
-643.711	-143.408	-0.246	0.024
-642.697	-93.119	0.390	0.110
-641.682	473.386	-0.064	0.145
-640.668	251.140	-0.062	-0.107
-639.653	234.832	-0.030	-0.050
-638.638	-77.479	-0.103	-0.036
-637.624	181.632	-0.209	-0.311
-636.609	0.230	0.179	-0.129
-635.595	800.000	0.060	0.186
-634.580	293.197	-0.163	0.301
-633.565	347.410	-0.148	-0.295
-632.551	-113.934	0.241	-0.047
-631.536	219.991	-0.153	-0.247
-630.522	800.000	0.062	-0.229
-629.507	153.857	-0.090	-0.125
-628.492	239.264	0.153	-0.256
-627.478	1.079	-0.291	0.210
-626.463	-174.657	0.205	0.006
-625.449	-135.109	0.517	-0.063
-624.434	-97.475	-0.100	0.026
-623.419	-44.931	0.192	0.096
-622.405	-129.184	0.292	-0.041
-621.390	-200.000	-0.001	-0.243
-620.376	765.207	0.208	0.571
-619.361	-39.818	-0.072	0.038
-618.346	800.000	-0.088	-0.295
-617.332	25.975	-0.091	-0.076
-616.317	9.956	-0.014	0.011
-615.303	-62.612	-0.195	0.082
-614.288	-173.079	-0.150	-0.005
-613.273	39.464	-0.143	-0.130
-612.259	-167.565	0.261	0.010
-611.244	-145.305	0.263	0.024
-610.230	692.449	0.078	-0.206
-609.215	-127.577	-0.212	-0.031
-608.201	564.945	-0.032	0.078
-607.186	-77.716	0.088	0.031
-606.171	-200.000	-0.011	0.193
-605.157	337.589	-0.177	0.348
-604.142	-17.158	-0.125	0.079
-603.128	120.618	0.107	-0.134
-602.113	800.000	0.099	-0.359
-601.098	12.429	-0.275	0.214
-600.084	-63.740	0.098	-0.041
-599.069	231.437	-0.091	0.151
-598.055	-148.030	-0.296	-0.025
-597.040	-123.866	0.219	-0.035
-596.025	53.501	-0.083	0.081
-595.011	800.000	0.023	-0.071
-593.996	97.889	0.125	-0.145
-592.982	800.000	0.084	-0.324
-591.967	493.050	-0.077	0.179
-590.952	-40.262	0.040	0.021
-589.938	-153.806	0.048	-0.003
-588.923	-200.000	-0.073	-0.391
-587.909	464.552	-0.070	-0.158
-586.894	-118.967	-0.118	0.021
-585.879	-135.803	0.074	-0.009
-584.865	-143.322	-0.257	-0.025
-583.850	800.000	-0.024	0.098
-582.836	11.519	-0.224	0.173
-581.821	-140.151	-0.183	-0.019
-580.806	-164.857	-0.257	0.012
-579.792	62.988	-0.260	0.263
-578.777	-200.000	-0.050	-0.310
-577.763	-4.175	0.262	0.183
-576.748	-154.853	-0.131	-0.009
-575.733	547.059	-0.012	-0.029
-574.719	-1.033	-0.069	0.049
-573.704	-150.803	0.164	0.013
-572.690	-89.161	-0.061	0.018
-571.675	-74.244	-0.318	-0.116
-570.661	-183.807	0.316	0.005
-569.646	-97.307	-0.253	0.066
-568.631	-200.000	-0.001	-0.184
-567.617	-13.182	0.039	-0.025
-566.602	-200.000	-0.014	-0.201
-565.588	-117.213	0.032	0.006
-564.573	299.554	0.106	0.197
-563.558	-200.000	-0.005	-0.067
-562.544	-82.432	-0.081	0.026
-561.529	-200.000	-0.011	0.059
-560.515	-41.622	-0.189	0.098
-559.500	14.394	0.161	-0.126
-558.485	-117.620	0.414	-0.075
-557.471	-73.457	0.143	-0.053
-556.456	27.049	0.220	0.186
-555.442	76.396	0.211	0.225
-554.427	-200.000	-0.000	-0.099
-553.412	30.774	-0.071	0.062
-552.398	170.115	-0.060	-0.087
-551.383	-200.000	-0.028	-0.299
-550.369	14.234	0.117	-0.092
-549.354	-68.288	-0.462	-0.181
-548.339	-200.000	0.012	0.094
-547.325	162.813	-0.047	0.066
-546.310	-19.730	0.131	-0.081
-545.296	-20.495	-0.252	0.156
-544.281	72.502	-0.090	0.095
-543.266	-53.008	0.238	-0.110
-542.252	140.342	0.218	-0.290
-541.237	547.057	0.136	0.327
-540.223	-24.589	0.163	-0.098
-539.208	-32.337	-0.238	-0.134
-538.193	-48.116	-0.156	0.076
-537.179	5.512	0.265	0.197
-536.164	426.611	-0.068	0.148
-535.150	-111.913	-0.188	0.038
-534.135	131.438	0.273	0.353
-533.121	233.395	-0.132	-0.218
-532.106	130.116	0.165	0.213
-531.091	-200.000	0.028	-0.200
-530.077	-78.583	0.110	0.038
-529.062	531.928	0.015	0.035
-528.048	-200.000	-0.012	0.126
-527.033	446.185	0.056	-0.124
-526.018	-73.644	-0.379	0.139
-525.004	34.525	0.327	0.287
-523.989	44.483	0.212	0.196
-522.975	82.121	-0.034	0.037
-521.960	-200.000	0.114	-0.588
-520.945	-200.000	-0.019	0.147
-519.931	453.379	0.100	0.222
-518.916	-94.274	0.265	0.073
-517.902	-80.448	-0.115	0.039
-516.887	-200.000	0.011	-0.207
-515.872	-121.114	0.380	-0.064
-514.858	-120.813	0.148	-0.025
-513.843	-6.573	0.210	0.144
-512.829	395.067	0.090	0.189
-511.814	-34.559	-0.203	-0.112
-510.799	-83.790	0.117	0.038
-509.785	-131.323	-0.092	-0.012
-508.770	123.532	0.115	0.144
-507.756	-67.481	-0.162	-0.064
-506.741	-171.287	0.249	0.008
-505.726	-200.000	0.029	0.386
-504.712	-25.424	0.102	0.061
-503.697	-200.000	0.010	-0.096
-502.683	-31.503	-0.103	0.058
-501.668	388.272	-0.071	0.147
-500.653	348.575	0.098	-0.195
-499.639	407.144	-0.114	0.241
-498.624	-200.000	-0.018	0.179
-497.610	-200.000	-0.047	0.321
-496.595	455.930	-0.189	-0.422
-495.581	615.687	-0.127	0.319
-494.566	-36.552	0.218	0.118
-493.551	-200.000	-0.166	0.000
-492.537	216.198	-0.222	0.355
-491.522	-4.799	-0.203	-0.141
-490.508	800.000	-0.133	-0.380
-489.493	246.437	0.015	-0.025
-488.478	800.000	-0.052	0.216
-487.464	-147.000	-0.070	-0.006
-486.449	-86.871	0.099	0.030
-485.435	-36.083	0.192	-0.104
-484.420	-200.000	0.006	0.061
-483.405	148.898	-0.136	-0.185
-482.391	-200.000	0.090	0.403
-481.376	-101.241	-0.282	0.069
-480.362	-173.834	-0.226	-0.007
-479.347	-200.000	-0.011	-0.108
-478.332	800.000	-0.054	0.161
-477.318	800.000	-0.022	-0.077
-476.303	677.184	0.120	-0.313
-475.289	-63.517	-0.274	0.113
-474.274	75.811	-0.303	-0.322
-473.259	438.548	-0.097	-0.212
-472.245	-106.175	-0.259	0.058
-471.230	-83.646	-0.157	-0.050
-470.216	-200.000	-0.076	-0.417
-469.201	41.123	-0.049	0.045
-468.186	41.588	-0.098	0.089
-467.172	-200.000	0.018	0.250
-466.157	-200.000	0.054	-0.262
-465.143	-200.000	0.026	0.329
-464.128	800.000	-0.056	0.228
-463.113	-200.000	0.022	-0.247
-462.099	800.000	-0.023	-0.064
-461.084	34.739	-0.178	-0.156
-460.070	528.474	-0.004	0.010
-459.055	-200.000	-0.035	-0.223
-458.040	-132.103	0.184	-0.024
-457.026	123.621	-0.145	0.182
-456.011	800.000	-0.052	0.194
-454.997	-200.000	-0.008	0.048
-453.982	-112.306	0.023	0.005
-452.968	-200.000	0.032	0.336
-451.953	-13.144	0.071	-0.046
-450.938	93.393	0.050	-0.056
-449.924	800.000	-0.085	-0.349
-448.909	-16.410	-0.180	-0.114
-447.895	258.781	-0.080	-0.138
-446.880	-200.000	-0.024	-0.489
-445.865	-6.005	0.046	-0.031
-444.851	532.341	0.096	0.228
-443.836	82.924	-0.098	-0.106
-442.822	-30.586	-0.109	0.062
-441.807	303.499	-0.072	0.135
-440.792	-84.915	-0.209	0.066
-439.778	-62.505	0.157	0.066
-438.763	-112.892	0.173	-0.034
-437.749	-200.000	0.023	-0.296
-436.734	221.870	-0.094	-0.151
-435.719	800.000	0.103	-0.363
-434.705	82.577	0.288	-0.313
-433.690	57.240	0.061	0.059
-432.676	-55.683	-0.216	0.097
-431.661	374.992	-0.068	-0.138
-430.646	-88.182	0.354	-0.106
-429.632	-55.544	-0.078	0.035
-428.617	-12.553	-0.088	-0.058
-427.603	85.410	0.172	0.189
-426.588	144.238	-0.187	0.250
-425.573	-32.740	-0.264	0.147
-424.559	15.698	-0.115	-0.091
-423.544	-151.376	0.116	-0.009
-422.530	-65.048	-0.202	0.082
-421.515	213.397	-0.068	-0.107
-420.500	-134.406	0.048	-0.006
-419.486	-96.315	-0.307	0.081
-418.471	25.680	0.089	0.075
-417.457	40.244	0.361	0.325
-416.442	-92.900	-0.327	0.091
-415.428	33.436	-0.036	-0.032
-414.413	800.000	-0.081	0.307
-413.398	55.564	-0.031	0.031
-412.384	-101.939	0.238	0.058
-411.369	-87.014	0.153	0.047
-410.355	121.053	0.089	-0.111
-409.340	137.789	-0.179	0.235
-408.325	67.211	-0.239	-0.244
-407.311	800.000	0.052	-0.209
-406.296	-10.492	0.086	-0.057
-405.282	800.000	-0.110	-0.382
-404.267	207.340	-0.158	0.247
-403.252	-140.615	-0.353	0.037
-402.238	104.589	0.253	0.298
-401.223	-200.000	-0.030	0.328
-400.209	227.628	0.051	-0.083
-399.194	-130.160	0.094	-0.013
-398.179	125.091	0.140	-0.176
-397.165	800.000	0.059	-0.249
-396.150	-68.302	-0.373	-0.145
-395.136	21.970	-0.118	0.096
-394.121	-57.343	0.293	0.129
-393.106	3.176	-0.308	-0.224
-392.092	33.041	0.218	-0.189
-391.077	79.449	0.192	-0.206
-390.063	246.897	0.052	0.088
-389.048	366.247	-0.035	-0.070
-388.033	-200.000	-0.011	-0.159
-387.019	351.871	0.101	0.199
-386.004	-65.483	0.240	-0.097
-384.990	-161.321	-0.308	0.016
-383.975	59.580	-0.297	-0.293
-382.960	-128.075	0.226	-0.032
-381.946	-95.472	-0.214	-0.058
-380.931	-17.624	-0.283	0.178
-379.917	800.000	-0.064	-0.213
-378.902	92.643	-0.121	-0.136
-377.888	97.065	-0.090	-0.104
-376.873	-200.000	-0.067	-0.351
-375.858	34.606	0.211	0.184
-374.844	-93.927	-0.037	-0.010
-373.829	756.196	-0.056	0.152
-372.815	-200.000	-0.067	0.381
-371.800	284.859	0.128	0.230
-370.785	800.000	-0.094	0.259
-369.771	54.974	0.022	0.021
-368.756	-200.000	-0.024	0.201
-367.742	-72.224	0.189	-0.070
-366.727	133.254	0.101	-0.130
-365.712	-65.136	-0.151	0.061
-364.698	-69.368	-0.153	-0.059
-363.683	48.235	0.128	0.120
-362.669	315.307	0.066	0.125
-361.654	220.916	-0.110	-0.176
-360.639	-35.186	0.446	0.243
-359.625	-200.000	0.059	-0.260
-358.610	-200.000	0.001	0.274
-357.596	-200.000	-0.038	0.349
-356.581	624.035	0.015	-0.038
-355.566	-109.634	0.208	0.044
-354.552	159.916	0.127	0.176
-353.537	73.560	-0.171	0.179
-352.523	799.587	0.029	-0.080
-351.508	-51.284	0.163	-0.076
-350.493	800.000	-0.019	0.079
-349.479	109.163	0.260	-0.311
-348.464	-108.514	-0.149	0.032
-347.450	155.865	0.117	-0.161
-346.435	-132.307	-0.156	-0.020
-345.420	-200.000	0.008	-0.157
-344.406	800.000	0.029	0.084
-343.391	134.151	-0.174	0.225
-342.377	34.714	-0.123	0.107
-341.362	132.983	-0.289	0.372
-340.348	109.488	-0.118	0.141
-339.333	209.567	0.130	0.203
-338.318	800.000	-0.070	0.198
-337.304	-200.000	0.032	-0.175
-336.289	-153.582	0.156	-0.011
-335.275	-36.338	-0.144	-0.078
-334.260	-61.474	0.317	0.133
-333.245	-141.603	0.243	0.024
-332.231	-0.420	0.071	0.050
-331.216	524.615	0.098	-0.229
-330.202	800.000	-0.095	-0.292
-329.187	236.286	0.143	-0.235
-328.172	-19.175	-0.015	0.009
-327.158	-187.845	0.235	-0.003
-326.143	180.204	0.223	-0.326
-325.129	-50.879	-0.144	0.068
-324.114	-48.882	-0.057	0.027
-323.099	89.721	0.144	0.160
-322.085	49.646	-0.204	-0.191
-321.070	210.588	0.134	0.210
-320.056	-115.285	0.123	0.023
-319.041	-33.581	-0.102	-0.056
-318.026	397.998	0.179	0.373
-317.012	184.689	0.116	0.172
-315.997	-200.000	-0.033	-0.218
-314.983	289.961	-0.076	-0.138
-313.968	60.911	0.209	0.207
-312.953	41.110	-0.268	0.241
-311.939	345.779	0.077	0.151
-310.924	-200.000	0.014	0.064
-309.910	56.203	0.209	-0.202
-308.895	-200.000	-0.062	-0.470
-307.880	-57.929	-0.108	0.047
-306.866	125.175	-0.161	0.202
-305.851	42.601	-0.055	0.050
-304.837	126.968	0.048	0.060
-303.822	-5.187	0.085	-0.058
-302.807	-31.200	-0.295	0.166
-301.793	-87.357	-0.293	-0.088
-300.778	-175.964	0.177	-0.005
-299.764	-200.000	-0.007	-0.083
-298.749	-90.218	0.283	0.082
-297.735	-200.000	0.043	-0.194
-296.720	41.786	0.137	-0.123
-295.705	-66.650	0.117	0.046
-294.691	800.000	0.107	0.379
-293.676	82.288	0.080	-0.086
-292.662	-41.756	0.121	-0.062
-291.647	-14.002	0.167	-0.107
-290.632	-128.028	-0.216	0.031
-289.618	507.169	-0.050	-0.116
-288.603	259.845	0.210	0.361
-287.589	-44.466	-0.179	0.089
-286.574	141.902	0.243	0.321
-285.559	-43.850	0.033	0.017
-284.545	-165.731	0.188	0.008
-283.530	265.655	0.076	-0.132
-282.516	-51.956	0.139	-0.064
-281.501	800.000	-0.001	-0.004
-280.486	-28.059	-0.099	0.057
-279.472	-140.867	-0.254	0.026
-278.457	8.994	0.270	0.203
-277.443	800.000	0.165	-0.467
-276.428	234.999	-0.121	-0.198
-275.413	14.499	-0.294	0.229
-274.399	-120.297	0.126	0.021
-273.384	2.670	-0.167	0.120
-272.370	-64.172	0.074	-0.030
-271.355	10.782	-0.116	-0.088
-270.340	32.911	0.255	-0.220
-269.326	-200.000	0.002	-0.169
-268.311	71.904	-0.202	-0.209
-267.297	-66.635	-0.288	0.113
-266.282	800.000	-0.127	0.506
-265.267	800.000	0.067	0.212
-264.253	-131.562	0.228	0.030
-263.238	233.840	0.152	0.249
-262.224	-24.140	0.233	0.138
-261.209	210.717	0.109	0.171
-260.195	-143.456	-0.252	-0.024
-259.180	-200.000	-0.040	0.201
-258.165	-200.000	-0.038	0.208
-257.151	-129.733	-0.051	-0.007
-256.136	164.586	-0.047	-0.066
-255.122	0.018	0.254	-0.180
-254.107	-128.752	0.244	0.034
-253.092	-17.239	0.309	0.194
-252.078	-68.002	0.259	-0.100
-251.063	393.670	0.031	-0.064
-250.049	30.558	-0.076	-0.065
-249.034	-107.742	0.326	0.071
-248.019	5.845	0.141	0.103
-247.005	-23.323	-0.291	-0.174
-245.990	-56.179	-0.342	0.151
-244.976	-41.309	0.159	-0.081
-243.961	1.202	0.070	-0.050
-242.946	2.394	0.130	0.094
-241.932	-59.344	0.268	-0.114
-240.917	7.303	0.134	0.099
-239.903	-59.461	-0.387	0.165
-238.888	-200.000	-0.045	-0.232
-237.873	-165.062	0.116	0.005
-236.859	-200.000	-0.025	0.247
-235.844	-200.000	0.039	-0.174
-234.830	-121.209	-0.173	0.029
-233.815	-200.000	-0.029	-0.190
-232.800	119.483	0.092	-0.114
-231.786	-200.000	0.020	0.128
-230.771	416.164	-0.153	-0.324
-229.757	800.000	-0.139	0.413
-228.742	800.000	-0.055	0.172
-227.727	-200.000	0.002	-0.038
-226.713	-49.532	0.054	0.026
-225.698	-14.696	0.378	0.241
-224.684	-85.622	-0.213	-0.066
-223.669	666.892	0.089	-0.230
-222.655	41.310	0.138	-0.124
-221.640	-91.016	0.142	0.041
-220.625	800.000	0.077	0.254
-219.611	658.893	-0.067	-0.172
-218.596	266.379	0.088	0.153
-217.582	-43.574	0.502	-0.251
-216.567	203.122	-0.027	0.041
-215.552	800.000	-0.129	-0.359
-214.538	-91.524	0.353	0.100
-213.523	-11.104	-0.302	0.198
-212.509	-65.388	-0.147	-0.059
-211.494	-46.782	-0.299	-0.145
-210.479	206.724	-0.132	-0.204
-209.465	99.768	0.158	-0.182
-208.450	190.042	-0.055	-0.082
-207.436	32.030	0.186	-0.160
-206.421	4.936	-0.252	-0.184
-205.406	5.173	0.105	0.077
-204.392	-54.066	-0.290	0.131
-203.377	498.301	-0.083	-0.189
-202.363	2.028	0.103	-0.074
-201.348	546.878	0.165	0.393
-200.333	-200.000	-0.024	-0.160
-199.319	-4.812	0.104	-0.071
-198.304	-137.332	-0.252	-0.028
-197.290	-122.461	0.233	0.038
-196.275	78.364	-0.216	0.229
-195.260	-45.738	0.082	-0.040
-194.246	-0.609	-0.292	-0.206
-193.231	-119.699	-0.074	-0.013
-192.217	155.176	-0.095	-0.129
-191.202	123.806	-0.068	-0.084
-190.187	15.924	0.122	-0.095
-189.173	-200.000	0.001	-0.116
-188.158	-75.449	-0.200	0.071
-187.144	-116.059	-0.131	-0.024
-186.129	159.979	0.133	0.184
-185.114	-200.000	0.034	-0.170
-184.100	369.438	-0.165	0.332
-183.085	800.000	-0.076	-0.243
-182.071	-120.869	-0.112	0.019
-181.056	-200.000	-0.022	0.270
-180.042	-57.727	-0.087	0.038
-179.027	-25.527	-0.163	0.095
-178.012	88.600	0.154	-0.170
-176.998	800.000	0.021	-0.089
-175.983	13.288	0.114	0.088
-174.969	-171.535	0.228	-0.008
-173.954	800.000	0.113	-0.403
-172.939	18.895	0.110	-0.088
-171.925	-182.152	0.324	0.006
-170.910	289.891	-0.152	0.273
-169.896	-200.000	-0.036	0.601
-168.881	-21.158	-0.045	-0.027
-167.866	-124.459	0.455	-0.070
-166.852	-16.762	-0.272	-0.170
-165.837	68.844	-0.198	-0.202
-164.823	-200.000	-0.024	0.121
-163.808	48.487	0.036	0.033
-162.793	258.950	0.166	0.283
-161.779	333.817	-0.025	0.047
-160.764	292.048	-0.076	0.137
-159.750	-134.718	0.046	0.006
-158.735	4.887	0.120	-0.088
-157.720	-138.552	-0.006	0.001
-156.706	-200.000	-0.110	-0.556
-155.691	-186.090	0.207	-0.003
-154.677	76.519	-0.159	-0.167
-153.662	-37.418	0.183	0.097
-152.647	46.150	-0.264	0.242
-151.633	-76.277	-0.205	-0.072
-150.618	214.807	0.329	0.517
-149.604	-72.998	-0.248	0.090
-148.589	48.580	-0.098	0.091
-147.574	-162.462	0.108	0.005
-146.560	171.958	0.129	-0.183
-145.545	180.420	0.099	0.144
-144.531	479.687	0.069	0.155
-143.516	-149.655	0.342	0.027
-142.502	12.228	0.225	0.171
-141.487	237.742	-0.218	0.358
-140.472	-54.947	0.122	0.054
-139.458	216.396	0.032	-0.050
-138.443	-89.143	-0.012	0.004
-137.429	-161.399	0.192	-0.010
-136.414	346.396	-0.098	0.191
-135.399	-48.968	-0.438	-0.208
-134.385	-154.531	0.286	-0.019
-133.370	-119.068	0.181	0.031
-132.356	800.000	0.118	0.345
-131.341	-120.728	0.217	0.036
-130.326	166.804	0.123	0.173
-129.312	104.916	-0.101	-0.118
-128.297	-200.000	-0.057	0.479
-127.283	331.998	0.127	0.243
-126.268	-151.680	-0.310	-0.023
-125.253	-43.237	-0.369	0.185
-124.239	277.016	-0.088	-0.155
-123.224	-29.850	-0.283	0.160
-122.210	-200.000	-0.025	0.169
-121.195	800.000	-0.051	0.199
