DTS Sentinel unit serial number:	SN413079Multiplexer serial number:	ORYXHardware model number:	OX4-SRSoftware version number:	ORYX F/W v4.00 Oryx Data Collector v3.7.2.0data status	okinstallation	princeton_trtdifferential loss correction	single-endedforward channel	channel 1reverse channel	N/Adate	2019/09/17time	11:22:35forward acquisition time	60.00reverse acquisition time	0.00gamma	496.2192k internal	0.2323k external	0.2323temperature offset calibration	0.9973default loss term (dB/km)	0.3790temperature slope calibration	1.0000multiplexer offset coefficient	1.0000multiplexer slope coefficient	1.0000fibre end	0.00T internal ref (°C)	30.56T ext. ref 1 (°C)	0.34T ext. ref 2 (°C)	26.31length (m)	temperature (°C)	Stokes	anti-Stokes-747.200	-198.025	0.277	-0.002
-746.185	230.726	-0.129	0.213
-745.171	157.597	0.086	0.120
-744.156	-200.000	-0.064	0.419
-743.142	59.710	-0.248	0.247
-742.127	98.420	-0.133	0.155
-741.112	-118.739	-0.174	-0.031
-740.098	-200.000	0.000	0.316
-739.083	800.000	0.059	0.219
-738.069	262.976	0.104	0.183
-737.054	-63.737	-0.345	0.143
-736.039	164.774	-0.125	-0.178
-735.025	800.000	0.043	0.127
-734.010	41.280	-0.113	0.103
-732.996	-108.415	-0.470	-0.102
-731.981	-200.000	-0.005	-0.079
-730.966	130.459	0.153	0.198
-729.952	-200.000	0.030	-0.367
-728.937	282.986	0.119	-0.216
-727.923	271.214	0.116	0.206
-726.908	-200.000	-0.008	-0.146
-725.894	139.100	-0.143	-0.190
-724.879	-144.388	-0.651	-0.061
-723.864	47.849	-0.070	0.066
-722.850	-80.200	-0.209	0.070
-721.835	60.550	-0.076	0.076
-720.821	-66.337	-0.284	0.114
-719.806	788.109	0.036	0.100
-718.791	800.000	0.022	-0.070
-717.777	37.830	0.090	0.081
-716.762	60.633	-0.149	-0.149
-715.748	800.000	-0.039	0.126
-714.733	247.919	-0.226	-0.385
-713.718	800.000	0.035	0.115
-712.704	216.060	0.209	0.336
-711.689	-43.616	-0.156	-0.079
-710.675	-14.818	-0.057	0.037
-709.660	-91.615	0.210	-0.060
-708.645	372.871	-0.077	0.157
-707.631	-29.671	0.186	0.107
-706.616	-116.952	-0.310	0.057
-705.602	-70.035	-0.218	-0.084
-704.587	124.301	0.140	-0.177
-703.572	9.640	-0.162	-0.124
-702.558	461.976	0.141	0.316
-701.543	-200.000	0.052	-0.401
-700.529	-59.523	0.270	0.117
-699.514	-36.782	0.257	0.139
-698.499	-200.000	-0.015	-0.110
-697.485	-200.000	0.010	0.050
-696.470	19.243	0.155	0.125
-695.456	421.222	0.062	0.134
-694.441	45.798	-0.060	0.056
-693.426	-200.000	0.062	-0.389
-692.412	800.000	-0.046	0.200
-691.397	-75.321	-0.096	0.034
-690.383	207.835	-0.049	0.078
-689.368	390.233	0.044	-0.092
-688.354	-30.402	-0.213	0.122
-687.339	-200.000	-0.313	0.001
-686.324	1.310	-0.097	-0.070
-685.310	-119.709	-0.081	-0.014
-684.295	-32.088	0.077	-0.043
-683.281	-27.040	-0.150	-0.088
-682.266	-158.325	-0.302	-0.018
-681.251	-112.265	-0.194	-0.039
-680.237	46.754	0.254	-0.237
-679.222	173.203	0.120	0.175
-678.208	52.723	0.289	-0.279
-677.193	-17.639	-0.162	0.102
-676.178	48.317	-0.214	-0.202
-675.164	69.736	-0.066	-0.068
-674.149	225.974	0.177	0.288
-673.135	-64.349	0.148	0.061
-672.120	-200.000	-0.010	0.122
-671.105	-73.165	0.269	-0.099
-670.091	-200.000	-0.007	0.127
-669.076	-146.300	-0.119	-0.010
-668.062	-143.330	-0.304	0.029
-667.047	800.000	0.031	-0.131
-666.032	-200.000	-0.022	-0.142
-665.018	-83.666	-0.086	0.028
-664.003	298.068	0.089	-0.164
-662.989	-88.544	-0.351	-0.105
-661.974	-113.528	0.133	0.026
-660.959	-110.667	-0.420	0.087
-659.945	-31.619	-0.201	-0.114
-658.930	-117.655	0.104	-0.019
-657.916	119.843	-0.163	-0.204
-656.901	-200.000	-0.008	-0.239
-655.886	-49.879	-0.151	-0.072
-654.872	-110.702	-0.234	-0.049
-653.857	-38.529	-0.190	-0.101
-652.843	185.982	0.167	-0.250
-651.828	-151.409	0.240	-0.018
-650.814	137.542	0.078	0.102
-649.799	331.431	-0.127	-0.246
-648.784	481.329	0.043	0.097
-647.770	411.572	0.077	-0.165
-646.755	800.000	-0.080	-0.224
-645.741	-33.884	-0.195	0.108
-644.726	-103.745	-0.323	-0.076
-643.711	-200.000	0.050	-0.223
-642.697	41.663	0.345	0.314
-641.682	800.000	0.025	0.071
-640.668	-20.962	0.255	0.157
-639.653	-93.907	0.267	0.074
-638.638	261.035	-0.044	0.077
-637.624	167.106	0.059	0.084
-636.609	-64.315	0.185	-0.076
-635.595	67.748	0.231	-0.238
-634.580	-200.000	0.036	-0.298
-633.565	92.712	0.150	0.170
-632.551	-93.501	0.280	0.078
-631.536	761.198	-0.070	-0.192
-630.522	-200.000	0.023	-0.432
-629.507	375.250	-0.067	-0.137
-628.492	-65.019	-0.350	-0.142
-627.478	-171.681	-0.102	0.003
-626.463	-110.533	0.152	0.032
-625.449	-200.000	-0.035	-0.187
-624.434	595.798	-0.087	0.216
-623.419	60.074	-0.052	-0.052
-622.405	-200.000	-0.012	-0.196
-621.390	-12.094	0.216	0.142
-620.376	-70.325	-0.265	0.101
-619.361	-89.401	-0.323	-0.096
-618.346	-200.000	-0.034	0.516
-617.332	32.515	-0.286	0.249
-616.317	-26.857	0.149	-0.088
-615.303	31.624	-0.156	0.135
-614.288	223.154	0.044	0.072
-613.273	71.862	0.034	0.035
-612.259	-44.450	-0.083	0.042
-611.244	-116.772	-0.370	0.068
-610.230	-14.420	-0.039	-0.025
-609.215	-9.787	-0.227	-0.152
-608.201	399.593	0.093	-0.195
-607.186	-90.063	0.369	0.108
-606.171	800.000	0.084	0.367
-605.157	-200.000	0.005	0.239
-604.142	-13.316	0.183	0.120
-603.128	-122.342	0.176	-0.029
-602.113	800.000	-0.065	0.182
-601.098	5.395	0.177	0.131
-600.084	-42.095	-0.030	-0.015
-599.069	-100.220	-0.113	0.028
-598.055	-49.318	0.141	-0.068
-597.040	-116.821	-0.174	-0.032
-596.025	-23.216	-0.021	-0.013
-595.011	-200.000	-0.013	0.096
-593.996	136.855	-0.122	0.160
-592.982	413.794	-0.105	-0.224
-591.967	800.000	0.045	0.167
-590.952	-81.493	-0.197	0.065
-589.938	-87.736	-0.242	-0.073
-588.923	-200.000	-0.013	0.323
-587.909	59.020	0.071	0.070
-586.894	100.469	0.088	-0.103
-585.879	384.224	-0.193	0.400
-584.865	-68.870	0.156	-0.060
-583.850	-200.000	-0.004	0.058
-582.836	-200.000	-0.007	0.304
-581.821	-200.000	-0.021	0.193
-580.806	-33.745	-0.359	0.199
-579.792	-108.521	0.183	-0.039
-578.777	21.100	-0.122	-0.100
-577.763	-200.000	-0.008	-0.207
-576.748	800.000	0.119	-0.329
-575.733	-9.349	0.461	-0.309
-574.719	3.671	-0.276	-0.202
-573.704	-124.958	-0.309	0.048
-572.690	35.174	0.096	-0.085
-571.675	-54.023	0.329	-0.150
-570.661	800.000	-0.048	-0.177
-569.646	426.464	-0.130	0.280
-568.631	294.501	-0.152	-0.280
-567.617	21.822	0.092	0.075
-566.602	800.000	-0.070	0.278
-565.588	-99.501	-0.237	-0.060
-564.573	-93.230	0.088	-0.025
-563.558	800.000	-0.058	0.191
-562.544	-99.155	0.201	-0.051
-561.529	-46.768	-0.198	-0.097
-560.515	414.254	-0.091	0.195
-559.500	-175.990	-0.344	-0.009
-558.485	-142.331	-0.316	0.031
-557.471	-200.000	-0.035	-0.273
-556.456	509.893	-0.034	0.079
-555.442	-25.165	0.144	-0.085
-554.427	800.000	-0.020	-0.078
-553.412	2.384	-0.087	-0.063
-552.398	-66.489	0.082	-0.033
-551.383	-141.248	0.420	-0.043
-550.369	260.502	-0.092	0.160
-549.354	-94.494	-0.291	-0.079
-548.339	80.282	0.098	0.106
-547.325	-200.000	0.046	-0.275
-546.310	-200.000	0.044	-0.599
-545.296	-3.792	-0.241	-0.168
-544.281	-122.081	-0.184	0.030
-543.266	-200.000	-0.007	-0.067
-542.252	-200.000	-0.020	-0.111
-541.237	-57.466	-0.276	0.122
-540.223	26.170	0.112	0.094
-539.208	-53.434	0.365	-0.167
-538.193	-200.000	-0.001	-0.037
-537.179	800.000	-0.054	0.178
-536.164	-31.534	0.094	-0.053
-535.150	800.000	0.045	-0.163
-534.135	-156.858	0.012	0.001
-533.121	72.846	0.219	0.229
-532.106	150.683	-0.053	-0.072
-531.091	-20.338	0.088	-0.054
-530.077	-124.495	0.086	-0.013
-529.062	-200.000	-0.006	0.091
-528.048	800.000	0.054	0.187
-527.033	-22.065	0.055	0.033
-526.018	-32.718	-0.212	-0.118
-525.004	-63.944	0.247	0.101
-523.989	-121.502	-0.042	-0.007
-522.975	-64.043	0.300	-0.123
-521.960	137.540	-0.295	-0.386
-520.945	-164.928	-0.151	0.007
-519.931	-200.000	-0.039	0.295
-518.916	-83.970	0.254	-0.081
-517.902	-146.463	-0.226	0.020
-516.887	-200.000	0.040	0.511
-515.872	-200.000	-0.001	-0.038
-514.858	-111.189	-0.246	0.050
-513.843	-91.887	-0.375	0.107
-512.829	17.053	-0.216	0.172
-511.814	558.212	-0.064	0.154
-510.799	-112.703	-0.347	0.069
-509.785	5.119	-0.320	-0.236
-508.770	-150.574	0.288	-0.022
-507.756	800.000	0.132	0.430
-506.741	800.000	-0.042	-0.124
-505.726	116.964	0.189	0.233
-504.712	78.556	-0.068	-0.073
-503.697	15.744	-0.229	-0.180
-502.683	46.949	-0.136	-0.127
-501.668	-123.896	-0.423	0.067
-500.653	-108.438	-0.330	-0.071
-499.639	160.963	0.158	-0.221
-498.624	516.124	0.031	0.072
-497.610	63.824	-0.322	0.324
-496.595	-200.000	0.029	-0.139
-495.581	303.793	0.168	-0.312
-494.566	-200.000	0.010	0.091
-493.551	430.406	-0.143	-0.310
-492.537	-76.222	-0.164	-0.058
-491.522	-32.448	0.277	0.154
-490.508	307.042	0.128	-0.239
-489.493	286.555	-0.076	0.136
-488.478	-171.187	-0.121	0.004
-487.464	115.821	0.054	-0.065
-486.449	-141.675	-0.169	0.017
-485.435	-10.680	-0.186	-0.123
-484.420	-200.000	-0.026	-0.156
-483.405	-200.000	0.005	-0.123
-482.391	-16.524	-0.235	-0.149
-481.376	800.000	-0.114	-0.363
-480.362	-58.985	0.197	0.085
-479.347	62.963	0.114	-0.114
-478.332	-200.000	-0.033	-0.149
-477.318	-23.377	0.103	0.062
-476.303	-38.694	-0.249	-0.131
-475.289	-200.000	0.033	-0.242
-474.274	-92.272	-0.405	0.114
-473.259	161.668	0.126	0.177
-472.245	104.261	0.064	0.075
-471.230	19.909	0.060	0.048
-470.216	6.573	-0.425	-0.316
-469.201	-87.282	-0.186	-0.056
-468.186	464.702	-0.089	-0.198
-467.172	-55.626	-0.367	0.164
-466.157	-82.274	-0.140	-0.046
-465.143	-4.687	0.170	-0.117
-464.128	705.606	0.037	-0.096
-463.113	-33.532	-0.110	0.061
-462.099	35.495	-0.164	-0.144
-461.084	-105.907	-0.180	0.040
-460.070	60.865	0.128	0.127
-459.055	-53.281	0.106	0.049
-458.040	382.417	0.100	0.205
-457.026	-50.655	-0.311	0.146
-456.011	-106.537	0.280	-0.062
-454.997	-133.044	0.220	-0.028
-453.982	-89.620	0.299	-0.087
-452.968	-33.501	0.192	-0.106
-451.953	2.477	-0.094	-0.068
-450.938	-129.145	0.266	-0.037
-449.924	-103.814	-0.246	0.057
-448.909	20.887	-0.102	0.082
-447.895	117.233	-0.177	0.217
-446.880	329.422	0.109	-0.210
-445.865	-88.185	0.037	-0.011
-444.851	325.140	0.156	0.298
-443.836	196.838	0.061	-0.094
-442.822	-200.000	0.195	-0.000
-441.807	-150.812	0.354	-0.027
-440.792	136.981	0.223	-0.291
-439.778	-200.000	-0.034	-0.362
-438.763	-120.171	-0.171	-0.029
-437.749	-200.000	-0.003	0.216
-436.734	-200.000	0.003	-0.029
-435.719	-0.147	0.030	-0.021
-434.705	-42.721	-0.126	-0.064
-433.690	-124.456	0.265	0.041
-432.676	-200.000	0.033	-0.172
-431.661	-41.959	-0.148	0.076
-430.646	466.943	-0.101	-0.227
-429.632	-189.340	0.410	0.005
-428.617	13.937	-0.067	0.052
-427.603	253.463	0.165	0.281
-426.588	246.123	0.119	0.200
-425.573	-44.503	0.322	0.160
-424.559	-116.405	0.151	-0.028
-423.544	104.690	-0.317	-0.373
-422.530	-200.000	0.013	0.162
-421.515	800.000	-0.016	-0.055
-420.500	71.625	-0.162	0.168
-419.486	-79.432	-0.345	0.116
-418.471	800.000	-0.072	0.299
-417.457	119.734	0.047	0.058
-416.442	258.782	0.177	0.304
-415.428	-200.000	0.063	-0.299
-414.413	800.000	-0.060	-0.203
-413.398	451.700	-0.136	-0.300
-412.384	391.543	0.027	-0.056
-411.369	-120.344	0.095	-0.016
-410.355	-200.000	-0.047	0.308
-409.340	-200.000	-0.025	-0.178
-408.325	56.944	-0.048	-0.047
-407.311	-200.000	-0.023	0.476
-406.296	-16.523	0.152	0.096
-405.282	535.029	-0.083	0.196
-404.267	320.920	-0.225	0.426
-403.252	-20.687	0.131	-0.080
-402.238	-60.697	0.153	0.065
-401.223	800.000	-0.043	-0.153
-400.209	800.000	-0.037	0.117
-399.194	-95.592	-0.204	0.054
-398.179	-48.531	-0.126	-0.061
-397.165	413.701	0.051	-0.107
-396.150	-139.910	-0.189	-0.020
-395.136	-3.646	-0.104	-0.072
-394.121	-200.000	-0.001	0.049
-393.106	155.076	0.130	0.178
-392.092	327.523	0.078	-0.150
-391.077	-49.340	-0.334	-0.159
-390.063	800.000	0.120	-0.359
-389.048	-110.464	0.354	0.073
-388.033	166.251	0.107	0.150
-387.019	139.379	-0.095	0.124
-386.004	-200.000	-0.052	0.517
-384.990	89.036	-0.067	-0.074
-383.975	-55.462	0.125	0.056
-382.960	-200.000	0.032	0.264
-381.946	169.427	0.274	-0.390
-380.931	-73.176	-0.054	0.020
-379.917	-36.610	-0.279	0.149
-378.902	-103.381	-0.298	-0.070
-377.888	285.246	0.145	0.260
-376.873	-200.000	-0.016	0.160
-375.858	-32.216	0.083	-0.046
-374.844	-125.424	-0.061	-0.009
-373.829	-14.076	-0.240	0.154
-372.815	-57.430	0.224	-0.098
-371.800	73.011	-0.286	0.297
-370.785	61.721	0.146	-0.145
-369.771	-200.000	0.000	-0.145
-368.756	121.982	0.079	-0.098
-367.742	-7.029	0.235	-0.159
-366.727	121.757	0.117	-0.145
-365.712	79.889	-0.286	-0.306
-364.698	2.918	-0.296	0.214
-363.683	800.000	-0.091	0.285
-362.669	677.657	0.051	0.132
-361.654	-104.490	0.130	-0.030
-360.639	-79.302	-0.251	-0.085
-359.625	143.799	-0.036	-0.048
-358.610	-56.867	-0.166	0.073
-357.596	-127.735	0.065	-0.009
-356.581	226.009	-0.102	0.164
-355.566	112.687	0.242	0.291
-354.552	-200.000	-0.059	-0.371
-353.537	134.311	-0.154	-0.199
-352.523	144.471	0.195	-0.259
-351.508	-64.186	-0.023	0.009
-350.493	-43.862	-0.172	0.086
-349.479	508.849	0.120	-0.278
-348.464	108.594	-0.133	-0.159
-347.450	3.606	0.035	-0.025
-346.435	678.340	-0.005	0.013
-345.420	-200.000	-0.001	-0.072
-344.406	-79.566	0.060	0.020
-343.391	501.588	0.063	0.146
-342.377	-17.043	0.137	0.086
-341.362	280.181	-0.191	-0.339
-340.348	86.235	-0.151	-0.166
-339.333	-120.163	-0.442	0.075
-338.318	632.621	0.061	-0.153
-337.304	-53.552	0.301	0.137
-336.289	-70.485	0.374	0.141
-335.275	-100.920	-0.390	-0.095
-334.260	-4.858	-0.340	0.233
-333.245	-146.153	-0.472	-0.041
-332.231	462.802	-0.104	0.232
-331.216	-101.900	0.143	-0.034
-330.202	228.064	0.084	0.136
-329.187	-41.620	0.084	0.043
-328.172	74.932	-0.149	0.156
-327.158	-52.816	-0.008	0.004
-326.143	7.911	0.173	0.129
-325.129	-113.093	-0.199	0.039
-324.114	223.806	0.127	0.203
-323.099	800.000	-0.102	0.312
-322.085	-200.000	0.015	0.181
-321.070	300.209	0.106	-0.194
-320.056	-188.527	-0.187	-0.002
-319.041	800.000	0.070	-0.296
-318.026	213.889	0.330	0.519
-317.012	800.000	0.038	0.151
-315.997	-27.353	0.111	-0.064
-314.983	-200.000	0.016	0.201
-313.968	-123.463	0.272	0.043
-312.953	230.569	-0.055	-0.090
-311.939	-200.000	-0.054	-0.297
-310.924	266.253	0.102	-0.177
-309.910	-91.720	-0.249	0.070
-308.895	154.314	-0.053	0.073
-307.880	800.000	-0.125	-0.350
-306.866	800.000	0.060	-0.218
-305.851	-72.933	-0.190	0.070
-304.837	-115.628	-0.284	0.053
-303.822	-200.000	0.084	0.375
-302.807	49.307	0.211	-0.197
-301.793	800.000	-0.066	-0.188
-300.778	-200.000	-0.084	0.370
-299.764	6.646	-0.094	-0.069
-298.749	163.961	-0.065	-0.091
-297.735	-200.000	-0.003	-0.274
-296.720	-200.000	-0.043	-0.306
-295.705	-32.517	0.295	0.163
-294.691	-102.617	0.230	-0.054
-293.676	257.430	-0.125	-0.214
-292.662	63.446	0.126	0.125
-291.647	-113.681	0.253	-0.049
-290.632	-56.380	0.372	-0.164
-289.618	-128.078	0.135	0.019
-288.603	-156.532	0.211	0.013
-287.589	-200.000	0.048	-0.261
-286.574	486.708	0.183	0.414
-285.559	456.899	-0.061	0.134
-284.545	143.456	0.167	0.221
-283.530	-200.000	0.014	0.110
-282.516	405.133	0.042	-0.088
-281.501	451.431	-0.092	0.202
-280.486	-105.043	0.487	0.111
-279.472	-106.322	-0.242	0.054
-278.457	-133.141	0.123	-0.015
-277.443	-200.000	-0.005	0.126
-276.428	5.557	-0.290	0.213
-275.413	275.832	0.139	-0.244
-274.399	225.513	-0.092	0.148
-273.384	120.966	-0.097	-0.120
-272.370	-90.123	0.193	0.056
-271.355	-195.727	-0.258	0.002
-270.340	138.901	-0.145	-0.189
-269.326	800.000	-0.108	-0.308
-268.311	374.329	-0.159	0.320
-267.297	-173.030	-0.255	-0.008
-266.282	800.000	-0.025	0.069
-265.267	187.845	0.190	0.282
-264.253	610.221	0.027	-0.068
-263.238	800.000	-0.045	0.179
-262.224	8.435	-0.022	-0.016
-261.209	32.261	0.161	0.138
-260.195	504.369	-0.011	0.024
-259.180	-35.437	-0.072	-0.039
-258.165	213.493	0.127	-0.199
-257.151	-129.839	0.203	0.028
-256.136	7.047	0.098	0.073
-255.122	7.252	0.170	-0.126
-254.107	608.296	-0.039	0.097
-253.092	214.435	-0.111	-0.174
-252.078	800.000	0.074	0.230
-251.063	28.342	0.281	-0.235
-250.049	19.136	-0.155	-0.123
-249.034	70.231	0.370	0.379
-248.019	-200.000	-0.058	-0.403
-247.005	-200.000	0.049	-0.281
-245.990	-96.806	-0.025	0.007
-244.976	576.105	0.026	-0.064
-243.961	-133.092	-0.131	-0.016
-242.946	-5.592	0.163	0.111
-241.932	-37.328	0.256	-0.136
-240.917	-200.000	-0.105	-0.496
-239.903	-200.000	0.010	0.236
-238.888	-200.000	-0.016	0.127
-237.873	-77.936	0.445	0.152
-236.859	70.108	-0.260	-0.266
-235.844	107.565	0.177	0.208
-234.830	-58.238	0.149	0.064
-233.815	-144.119	-0.141	0.013
-232.800	88.289	-0.109	-0.120
-231.786	200.672	-0.185	0.282
-230.771	35.948	0.161	-0.140
-229.757	-86.325	0.264	-0.080
-228.742	-200.000	-0.014	0.148
-227.727	59.988	0.239	-0.233
-226.713	430.282	0.156	0.335
-225.698	800.000	-0.018	-0.076
-224.684	-82.310	-0.256	0.082
-223.669	-51.750	0.290	0.134
-222.655	-120.280	0.382	-0.064
-221.640	79.252	0.251	-0.266
-220.625	800.000	0.015	-0.044
-219.611	-88.324	0.269	-0.080
-218.596	-74.491	-0.178	-0.064
-217.582	4.369	-0.085	-0.062
-216.567	-200.000	0.021	-0.127
-215.552	25.753	-0.211	-0.174
-214.538	246.285	0.118	0.198
-213.523	43.517	0.161	-0.145
-212.509	-90.694	0.257	0.074
-211.494	33.620	0.167	-0.143
-210.479	121.000	0.105	-0.129
-209.465	-58.265	0.226	0.097
-208.450	-11.756	-0.031	0.020
-207.436	-16.632	0.109	-0.068
-206.421	800.000	-0.072	0.207
-205.406	-19.880	-0.023	-0.014
-204.392	799.918	0.078	0.213
-203.377	-200.000	-0.088	-0.535
-202.363	58.078	0.198	-0.192
-201.348	140.598	0.221	-0.289
-200.333	-158.418	0.172	0.010
-199.319	-88.870	0.080	0.024
-198.304	60.076	-0.145	0.141
-197.290	-84.030	0.328	-0.103
-196.275	-183.144	0.063	0.001
-195.260	303.201	0.113	0.207
-194.246	-115.859	-0.283	-0.052
-193.231	800.000	-0.037	0.125
-192.217	-200.000	-0.013	0.186
-191.202	800.000	0.038	0.162
-190.187	-136.759	0.120	0.014
-189.173	-73.646	0.207	0.075
-188.158	-81.073	0.036	-0.012
-187.144	782.749	-0.045	0.121
-186.129	140.265	0.178	0.232
-185.114	-14.924	-0.178	-0.113
-184.100	-12.873	0.017	-0.011
-183.085	-73.661	-0.151	-0.054
-182.071	800.000	0.041	-0.162
-181.056	156.747	0.021	-0.028
-180.042	37.276	0.248	0.217
-179.027	-49.350	-0.221	-0.104
-178.012	-40.399	0.137	-0.070
-176.998	58.315	0.032	0.031
-175.983	-0.646	-0.257	-0.180
-174.969	800.000	0.097	-0.299
-173.954	230.175	0.094	-0.151
-172.939	-81.418	0.241	-0.078
-171.925	-3.129	-0.094	-0.065
-170.910	-121.404	0.209	-0.034
-169.896	800.000	0.061	0.241
-168.881	665.072	-0.047	0.120
-167.866	11.599	-0.113	0.085
-166.852	28.570	-0.196	-0.164
-165.837	187.683	0.074	-0.109
-164.823	43.857	0.046	-0.041
-163.808	38.682	-0.202	0.178
-162.793	-200.000	0.003	0.096
-161.779	800.000	-0.051	-0.165
-160.764	325.470	-0.223	0.422
-159.750	511.954	0.100	-0.229
-158.735	538.360	0.100	0.236
-157.720	-135.618	0.122	0.014
-156.706	29.761	-0.185	0.155
-155.691	-200.000	-0.027	-0.313
-154.677	11.181	0.129	-0.097
-153.662	147.033	-0.263	0.349
-152.647	800.000	0.052	0.177
-151.633	454.319	0.036	0.080
-150.618	-62.644	-0.181	0.074
-149.604	-96.475	0.091	0.024
-148.589	-200.000	0.033	-0.253
-147.574	800.000	-0.074	-0.311
-146.560	25.976	-0.105	0.087
-145.545	-66.258	0.189	0.074
-144.531	75.973	0.104	-0.109
-143.516	98.967	0.181	0.206
-142.502	302.392	-0.076	0.138
-141.487	-87.214	-0.112	-0.033
-140.472	-99.980	-0.195	0.048
-139.458	125.397	0.082	0.102
-138.443	-126.059	0.143	-0.021
-137.429	47.411	0.185	0.170
-136.414	71.879	0.136	-0.139
-135.399	-200.000	0.057	-0.258
-134.385	-0.221	0.151	0.106
-133.370	800.000	-0.079	0.246
-132.356	-200.000	-0.050	0.272
-131.341	31.017	-0.164	0.139
-130.326	-200.000	-0.449	0.001
-129.312	800.000	-0.032	0.099
-128.297	251.044	-0.112	0.188
-127.283	-78.426	-0.370	-0.125
-126.268	693.957	-0.031	0.079
-125.253	0.847	0.113	0.080
-124.239	626.406	0.134	0.333
-123.224	516.501	0.062	0.142
-122.210	85.389	0.118	0.127
-121.195	102.792	-0.184	0.212
