DTS Sentinel unit serial number:	SN413079Multiplexer serial number:	ORYXHardware model number:	OX4-SRSoftware version number:	ORYX F/W v4.00 Oryx Data Collector v3.7.2.0data status	okinstallation	princeton_trtdifferential loss correction	single-endedforward channel	channel 1reverse channel	N/Adate	2019/09/16time	00:50:35forward acquisition time	60.00reverse acquisition time	0.00gamma	496.2192k internal	0.2334k external	0.2334temperature offset calibration	0.9976default loss term (dB/km)	0.3790temperature slope calibration	1.0000multiplexer offset coefficient	1.0000multiplexer slope coefficient	1.0000fibre end	0.00T internal ref (°C)	27.41T ext. ref 1 (°C)	9.69T ext. ref 2 (°C)	21.46length (m)	temperature (°C)	Stokes	anti-Stokes-747.200	267.088	0.092	0.161
-746.185	447.616	-0.115	0.253
-745.171	38.884	0.111	0.100
-744.156	-200.000	-0.030	0.198
-743.142	-200.000	-0.013	-0.061
-742.127	-0.567	-0.456	0.325
-741.112	-200.000	0.028	-0.173
-740.098	-200.000	-0.028	-0.131
-739.083	95.542	0.160	0.183
-738.069	-200.000	0.044	0.308
-737.054	-140.598	-0.133	-0.014
-736.039	-35.742	-0.201	0.110
-735.025	-200.000	-0.320	-0.001
-734.010	-24.218	0.100	-0.060
-732.996	51.766	0.193	-0.184
-731.981	133.801	0.142	-0.184
-730.966	800.000	-0.060	-0.216
-729.952	-163.628	-0.220	-0.010
-728.937	-200.000	-0.059	0.300
-727.923	-21.316	-0.081	0.050
-726.908	99.316	-0.070	-0.081
-725.894	161.497	-0.211	-0.297
-724.879	221.411	0.161	0.259
-723.864	800.000	0.042	-0.125
-722.850	-130.711	0.065	0.009
-721.835	-200.000	0.040	-0.382
-720.821	-143.763	-0.094	0.009
-719.806	560.662	0.047	-0.115
-718.791	800.000	-0.138	-0.423
-717.777	5.429	0.263	-0.195
-716.762	172.276	0.238	-0.344
-715.748	-200.000	0.023	-0.386
-714.733	-128.313	-0.132	-0.019
-713.718	-39.005	0.273	-0.144
-712.704	-156.865	0.211	-0.013
-711.689	800.000	0.080	0.256
-710.675	-200.000	-0.005	-0.156
-709.660	-109.754	-0.386	-0.081
-708.645	-200.000	0.004	0.132
-707.631	21.611	-0.189	-0.154
-706.616	649.081	-0.037	-0.094
-705.602	43.301	-0.114	0.105
-704.587	-85.379	-0.048	0.015
-703.572	800.000	0.018	0.059
-702.558	800.000	-0.047	-0.135
-701.543	-80.737	0.211	-0.071
-700.529	1.170	-0.104	-0.075
-699.514	-14.021	0.153	-0.099
-698.499	158.122	0.085	-0.118
-697.485	-200.000	-0.015	-0.409
-696.470	288.893	-0.056	0.101
-695.456	-66.537	0.414	-0.165
-694.441	254.317	-0.241	-0.413
-693.426	71.723	0.137	-0.142
-692.412	-126.506	-0.222	0.033
-691.397	335.400	-0.011	0.021
-690.383	-110.683	0.370	0.077
-689.368	-49.070	0.050	0.024
-688.354	-119.296	0.243	0.042
-687.339	-160.375	-0.113	-0.006
-686.324	-142.813	-0.081	-0.008
-685.310	-200.000	0.003	-0.151
-684.295	800.000	-0.058	0.163
-683.281	155.452	-0.217	-0.300
-682.266	194.099	-0.036	-0.055
-681.251	-148.281	-0.215	0.018
-680.237	112.035	-0.198	0.240
-679.222	41.409	-0.255	-0.231
-678.208	-8.547	-0.316	-0.213
-677.193	-200.000	0.047	0.281
-676.178	-10.253	0.061	0.041
-675.164	-160.772	-0.294	-0.016
-674.149	-61.974	0.361	0.151
-673.135	-200.000	-0.001	0.185
-672.120	18.979	0.166	-0.133
-671.105	468.423	0.101	-0.228
-670.091	-200.000	0.008	-0.136
-669.076	10.657	-0.056	-0.043
-668.062	-141.390	-0.096	0.010
-667.047	-200.000	0.045	-0.463
-666.032	425.011	0.036	-0.078
-665.018	800.000	0.038	-0.135
-664.003	-200.000	0.003	-0.306
-662.989	-94.006	0.260	-0.072
-661.974	-200.000	-0.038	-0.300
-660.959	202.211	0.087	-0.134
-659.945	-116.563	-0.157	0.029
-658.930	-34.567	-0.404	-0.222
-657.916	-38.376	0.277	0.147
-656.901	26.005	-0.057	-0.048
-655.886	7.038	-0.235	-0.175
-654.872	656.154	-0.027	-0.068
-653.857	-200.000	0.042	0.345
-652.843	33.848	0.236	0.206
-651.828	612.711	0.035	-0.087
-650.814	-163.456	-0.182	-0.009
-649.799	-93.539	-0.038	0.011
-648.784	-62.025	-0.219	0.092
-647.770	-92.479	-0.183	0.051
-646.755	-61.052	-0.254	0.107
-645.741	69.994	0.137	-0.141
-644.726	-93.452	0.169	-0.047
-643.711	454.120	-0.048	0.107
-642.697	-13.472	0.025	0.016
-641.682	-98.871	-0.377	0.096
-640.668	-200.000	0.015	0.148
-639.653	10.490	-0.244	-0.186
-638.638	-200.000	-0.019	-0.188
-637.624	-74.975	-0.092	-0.033
-636.609	-200.000	-0.028	0.290
-635.595	-80.223	-0.383	0.128
-634.580	-105.861	0.342	0.077
-633.565	209.906	-0.126	-0.198
-632.551	77.372	0.325	-0.346
-631.536	-120.327	0.209	0.036
-630.522	-17.387	-0.123	-0.077
-629.507	-29.847	0.101	0.058
-628.492	-200.000	-0.067	0.352
-627.478	-200.000	0.037	0.226
-626.463	29.455	-0.105	0.090
-625.449	-91.040	0.307	-0.088
-624.434	-200.000	-0.015	0.094
-623.419	-48.298	0.264	-0.127
-622.405	-200.000	0.004	0.096
-621.390	733.029	-0.072	-0.193
-620.376	158.427	-0.103	-0.143
-619.361	-38.630	0.319	-0.168
-618.346	708.906	0.066	0.176
-617.332	82.592	-0.027	0.029
-616.317	-83.826	-0.269	0.086
-615.303	-16.392	0.212	-0.134
-614.288	240.368	0.156	-0.261
-613.273	-200.000	-0.057	0.369
-612.259	-200.000	-0.023	-0.106
-611.244	83.984	-0.062	-0.068
-610.230	-104.604	0.173	-0.040
-609.215	-161.815	0.042	0.002
-608.201	-138.316	0.121	-0.013
-607.186	-200.000	0.006	0.228
-606.171	19.493	-0.204	0.164
-605.157	185.856	-0.083	0.124
-604.142	-8.497	0.075	-0.050
-603.128	116.580	-0.230	-0.282
-602.113	95.750	-0.183	-0.208
-601.098	-104.696	-0.185	-0.043
-600.084	-3.323	-0.169	0.117
-599.069	153.514	-0.161	0.220
-598.055	118.572	-0.167	-0.206
-597.040	25.839	-0.191	0.159
-596.025	800.000	0.065	0.239
-595.011	-40.652	0.185	-0.096
-593.996	29.822	-0.435	-0.370
-592.982	-112.445	-0.339	-0.068
-591.967	139.448	0.085	-0.112
-590.952	-200.000	0.009	0.111
-589.938	-33.816	-0.231	0.127
-588.923	-91.561	-0.145	0.041
-587.909	-200.000	-0.063	-0.441
-586.894	-200.000	0.018	-0.563
-585.879	-88.467	0.147	-0.044
-584.865	-200.000	-0.019	0.114
-583.850	284.910	0.035	-0.062
-582.836	-83.832	-0.330	0.105
-581.821	-51.452	-0.157	0.073
-580.806	-145.328	-0.195	-0.018
-579.792	800.000	0.037	0.120
-578.777	126.341	-0.121	0.153
-577.763	-200.000	0.013	0.240
-576.748	-89.840	0.159	0.046
-575.733	-166.923	0.115	0.005
-574.719	-121.006	-0.089	0.015
-573.704	17.584	0.257	-0.204
-572.690	205.781	-0.121	-0.188
-571.675	-200.000	0.027	0.194
-570.661	-5.914	0.112	0.077
-569.646	-64.083	-0.199	0.081
-568.631	-94.238	0.465	0.127
-567.617	136.694	-0.201	-0.262
-566.602	-92.857	-0.397	-0.111
-565.588	764.677	-0.080	-0.216
-564.573	-110.793	0.267	0.055
-563.558	-200.000	0.002	-0.433
-562.544	-0.296	0.063	0.044
-561.529	112.949	-0.220	0.266
-560.515	-61.031	-0.107	-0.045
-559.500	-9.031	-0.017	0.011
-558.485	11.047	-0.170	-0.130
-557.471	168.053	-0.142	-0.201
-556.456	-21.966	-0.123	-0.075
-555.442	-200.000	-0.010	0.109
-554.427	800.000	0.057	0.224
-553.412	-6.924	0.173	0.117
-552.398	398.953	-0.090	-0.187
-551.383	-21.908	0.158	0.096
-550.369	-127.334	0.082	-0.012
-549.354	311.357	-0.128	-0.240
-548.339	587.435	-0.112	-0.274
-547.325	-70.992	0.141	-0.053
-546.310	-54.295	0.375	0.170
-545.296	432.921	0.210	0.454
-544.281	285.661	-0.095	-0.171
-543.266	-200.000	-0.473	-0.000
-542.252	358.398	0.130	-0.260
-541.237	180.875	0.150	-0.220
-540.223	66.551	-0.211	-0.214
-539.208	10.458	0.113	-0.086
-538.193	-56.824	0.084	-0.037
-537.179	-200.000	0.005	-0.400
-536.164	-110.816	-0.348	0.072
-535.150	-200.000	-0.008	-0.066
-534.135	375.579	0.111	-0.226
-533.121	-61.868	-0.236	0.098
-532.106	-107.306	-0.209	-0.046
-531.091	109.115	-0.058	0.069
-530.077	800.000	-0.038	0.115
-529.062	138.019	0.109	-0.142
-528.048	-200.000	-0.022	-0.177
-527.033	169.522	-0.185	0.263
-526.018	505.083	0.044	-0.102
-525.004	411.304	0.048	-0.101
-523.989	-182.115	-0.305	-0.006
-522.975	-83.440	-0.104	0.033
-521.960	-200.000	0.037	-0.234
-520.945	-200.000	-0.036	-0.187
-519.931	-193.737	0.183	0.002
-518.916	94.652	0.166	0.188
-517.902	-200.000	0.051	-0.313
-516.887	55.167	0.101	0.098
-515.872	-147.264	-0.339	0.029
-514.858	-200.000	0.001	0.138
-513.843	-90.628	0.254	-0.073
-512.829	-122.580	-0.220	0.036
-511.814	405.171	-0.248	-0.521
-510.799	-200.000	-0.041	-0.304
-509.785	-41.782	-0.196	0.100
-508.770	22.637	0.155	0.127
-507.756	800.000	0.025	0.072
-506.741	-118.348	-0.234	-0.041
-505.726	333.701	0.146	0.281
-504.712	-200.000	-0.016	0.312
-503.697	138.515	0.122	0.159
-502.683	-200.000	-0.002	-0.212
-501.668	269.447	-0.113	-0.198
-500.653	-3.054	-0.145	0.101
-499.639	-124.795	-0.280	-0.043
-498.624	-14.446	0.239	-0.153
-497.610	800.000	-0.067	-0.211
-496.595	-60.408	-0.084	-0.035
-495.581	615.948	0.079	0.197
-494.566	81.583	0.043	-0.046
-493.551	-139.286	0.331	-0.035
-492.537	-104.101	-0.274	0.063
-491.522	94.563	-0.146	0.165
-490.508	-82.980	0.132	-0.042
-489.493	236.208	-0.180	0.295
-488.478	-133.633	-0.087	-0.011
-487.464	280.426	0.072	-0.127
-486.449	-0.878	-0.279	-0.197
-485.435	-60.442	0.185	0.078
-484.420	96.989	-0.262	-0.299
-483.405	-200.000	0.042	-0.246
-482.391	-200.000	0.008	0.108
-481.376	-200.000	0.046	0.286
-480.362	-48.289	0.196	0.094
-479.347	108.304	0.255	-0.302
-478.332	-72.486	0.191	0.070
-477.318	800.000	-0.002	-0.006
-476.303	-140.171	0.218	-0.023
-475.289	-200.000	-0.024	0.289
-474.274	-123.162	0.378	-0.060
-473.259	-200.000	-0.039	0.185
-472.245	-0.240	-0.085	0.060
-471.230	45.690	-0.167	-0.154
-470.216	-93.566	0.235	-0.065
-469.201	-58.532	0.299	0.129
-468.186	-137.066	0.193	0.022
-467.172	0.447	0.454	0.322
-466.157	800.000	0.065	0.198
-465.143	800.000	-0.014	-0.044
-464.128	800.000	0.113	-0.320
-463.113	156.291	0.202	0.277
-462.099	-75.764	-0.248	0.087
-461.084	-200.000	-0.000	-0.209
-460.070	317.849	0.097	-0.183
-459.055	37.404	-0.090	0.080
-458.040	-13.237	-0.070	-0.045
-457.026	57.693	0.186	-0.181
-456.011	-200.000	-0.013	-0.069
-454.997	-200.000	-0.008	-0.159
-453.982	-135.721	0.206	-0.024
-452.968	-200.000	0.004	-0.105
-451.953	-147.297	0.223	0.019
-450.938	-158.526	0.195	-0.011
-449.924	-59.839	-0.005	-0.002
-448.909	341.805	0.056	-0.108
-447.895	-89.128	0.173	0.051
-446.880	800.000	-0.026	0.095
-445.865	-200.000	-0.011	-0.066
-444.851	-189.803	0.111	0.001
-443.836	-182.919	0.286	-0.005
-442.822	-89.755	-0.188	-0.055
-441.807	207.890	-0.185	-0.287
-440.792	-15.823	-0.260	0.164
-439.778	-125.858	-0.034	0.005
-438.763	-131.676	0.142	0.018
-437.749	341.737	0.109	-0.211
-436.734	-152.463	0.348	0.025
-435.719	-110.779	-0.225	-0.046
-434.705	172.970	-0.028	-0.041
-433.690	-200.000	0.044	-0.456
-432.676	-105.845	0.288	0.065
-431.661	-75.992	0.206	0.072
-430.646	-77.403	0.023	0.008
-429.632	-54.485	-0.121	-0.055
-428.617	336.076	-0.118	0.227
-427.603	585.940	0.243	-0.594
-426.588	369.487	0.023	-0.045
-425.573	-200.000	0.050	0.281
-424.559	193.296	0.126	0.189
-423.544	32.241	0.210	-0.180
-422.530	-69.592	0.077	0.029
-421.515	301.909	-0.250	-0.459
-420.500	-4.329	-0.313	-0.215
-419.486	800.000	-0.032	0.126
-418.471	800.000	-0.086	-0.261
-417.457	-12.612	-0.192	-0.124
-416.442	160.114	0.027	0.037
-415.428	172.027	-0.240	-0.342
-414.413	37.099	0.121	0.107
-413.398	-143.511	-0.232	0.022
-412.384	800.000	-0.047	-0.145
-411.369	-140.006	0.159	-0.017
-410.355	441.037	-0.174	0.379
-409.340	67.005	0.226	-0.228
-408.325	237.209	-0.061	-0.099
-407.311	449.129	0.058	0.126
-406.296	84.708	-0.125	0.136
-405.282	654.691	0.063	-0.161
-404.267	276.756	0.069	0.121
-403.252	-89.034	0.263	0.077
-402.238	332.906	-0.054	0.103
-401.223	-200.000	0.014	0.098
-400.209	312.286	0.083	-0.155
-399.194	-100.094	0.259	-0.064
-398.179	166.320	0.181	-0.255
-397.165	-62.723	0.465	0.191
-396.150	89.124	0.227	-0.251
-395.136	-24.080	0.063	-0.037
-394.121	-110.684	0.305	-0.063
-393.106	-2.430	0.130	-0.090
-392.092	-119.664	0.179	0.031
-391.077	-118.974	-0.193	-0.034
-390.063	85.741	-0.321	0.350
-389.048	354.339	0.046	0.091
-388.033	-173.689	-0.163	-0.005
-387.019	46.608	0.336	0.309
-386.004	-200.000	-0.012	0.148
-384.990	149.419	-0.283	-0.380
-383.975	-40.344	-0.186	-0.096
-382.960	-40.446	0.410	-0.211
-381.946	30.923	-0.083	-0.070
-380.931	20.717	-0.147	0.118
-379.917	306.858	0.115	-0.212
-378.902	112.828	-0.367	0.440
-377.888	164.776	0.111	-0.155
-376.873	18.554	0.332	-0.263
-375.858	-69.046	0.081	-0.031
-374.844	143.449	0.018	0.024
-373.829	427.283	0.019	-0.040
-372.815	800.000	0.102	-0.377
-371.800	-200.000	-0.001	0.194
-370.785	160.340	-0.050	-0.068
-369.771	-76.155	0.175	0.061
-368.756	-28.032	0.196	0.112
-367.742	14.242	-0.312	-0.241
-366.727	-166.191	-0.158	0.007
-365.712	-160.319	-0.262	0.014
-364.698	54.187	0.069	-0.065
-363.683	590.512	-0.113	-0.276
-362.669	-51.098	-0.213	-0.099
-361.654	800.000	0.128	-0.439
-360.639	-101.998	-0.146	-0.035
-359.625	192.303	-0.115	-0.172
-358.610	-46.102	0.160	0.078
-357.596	800.000	-0.055	0.230
-356.581	-69.953	-0.109	-0.041
-355.566	800.000	0.035	0.144
-354.552	2.929	-0.260	-0.187
-353.537	-200.000	0.023	0.165
-352.523	-200.000	0.057	0.263
-351.508	81.069	-0.114	0.122
-350.493	-144.512	0.338	0.031
-349.479	237.229	-0.056	-0.091
-348.464	800.000	0.126	0.397
-347.450	103.281	-0.117	0.136
-346.435	-147.117	0.159	0.013
-345.420	-145.970	-0.101	-0.009
-344.406	70.262	0.206	0.210
-343.391	-169.656	0.271	-0.010
-342.377	62.230	0.144	0.142
-341.362	138.692	-0.238	-0.310
-340.348	-49.460	-0.171	-0.080
-339.333	-6.198	0.153	-0.104
-338.318	-200.000	0.005	-0.157
-337.304	-75.448	-0.105	0.037
-336.289	-61.145	0.357	0.149
-335.275	3.512	-0.375	0.270
-334.260	-70.507	-0.323	0.121
-333.245	800.000	0.054	0.201
-332.231	-200.000	-0.102	0.000
-331.216	-115.763	-0.375	0.069
-330.202	-53.557	0.206	-0.093
-329.187	-79.490	-0.164	-0.055
-328.172	800.000	-0.024	0.091
-327.158	70.373	0.173	-0.177
-326.143	-144.351	-0.303	0.028
-325.129	-92.688	0.088	-0.024
-324.114	132.446	-0.107	-0.136
-323.099	800.000	0.061	0.182
-322.085	278.502	-0.052	-0.092
-321.070	-113.971	0.058	-0.011
-320.056	102.751	-0.144	0.167
-319.041	-72.235	0.092	-0.034
-318.026	16.888	-0.314	0.246
-317.012	-84.820	0.236	-0.073
-315.997	47.435	0.021	0.020
-314.983	-43.149	0.088	0.044
-313.968	-158.433	-0.109	-0.006
-312.953	800.000	-0.077	-0.282
-311.939	-1.394	-0.231	0.161
-310.924	261.241	0.107	0.182
-309.910	-106.592	0.275	-0.061
-308.895	-59.152	0.075	-0.032
-307.880	158.501	-0.117	0.160
-306.866	48.933	0.179	-0.166
-305.851	30.332	-0.219	0.185
-304.837	-82.788	-0.057	-0.018
-303.822	-47.257	0.066	0.032
-302.807	-45.509	-0.229	-0.112
-301.793	-113.717	0.205	0.040
-300.778	236.639	-0.165	0.270
-299.764	179.448	0.107	-0.154
-298.749	214.013	0.170	0.265
-297.735	404.127	-0.112	-0.234
-296.720	-200.000	0.022	-0.188
-295.705	52.913	-0.169	0.160
-294.691	-200.000	-0.012	-0.086
-293.676	-40.744	-0.081	0.041
-292.662	34.558	-0.115	-0.099
-291.647	800.000	0.031	0.108
-290.632	-200.000	-0.012	0.236
-289.618	-158.744	-0.120	0.007
-288.603	-78.389	-0.023	0.008
-287.589	3.459	-0.288	-0.207
-286.574	800.000	0.120	0.423
-285.559	-75.803	0.167	0.058
-284.545	-200.000	0.018	-0.112
-283.530	-41.731	0.214	0.109
-282.516	-200.000	0.012	-0.188
-281.501	150.936	-0.240	0.322
-280.486	-132.000	0.209	0.027
-279.472	86.895	-0.050	-0.055
-278.457	-121.411	-0.308	0.051
-277.443	60.908	0.059	0.058
-276.428	-28.744	0.496	-0.282
-275.413	-173.492	0.158	0.005
-274.399	-37.127	-0.124	-0.066
-273.384	-163.620	-0.092	0.004
-272.370	150.165	-0.059	0.079
-271.355	119.112	0.107	-0.131
-270.340	113.910	-0.159	-0.191
-269.326	-84.253	-0.212	-0.066
-268.311	50.272	-0.121	-0.113
-267.297	800.000	-0.012	0.037
-266.282	-33.526	0.030	-0.016
-265.267	-14.850	0.235	0.148
-264.253	113.396	0.222	0.265
-263.238	248.608	0.113	0.189
-262.224	-113.631	0.056	0.011
-261.209	-27.498	0.255	0.146
-260.195	-141.337	-0.134	0.013
-259.180	-200.000	-0.008	0.047
-258.165	57.680	-0.109	-0.105
-257.151	-22.300	-0.126	0.075
-256.136	65.406	-0.096	0.095
-255.122	553.085	-0.108	0.255
-254.107	220.943	-0.078	0.124
-253.092	174.858	-0.067	0.096
-252.078	570.196	-0.007	-0.017
-251.063	166.387	-0.089	0.125
-250.049	-64.205	0.098	0.040
-249.034	345.595	0.072	0.139
-248.019	-200.000	-0.002	0.118
-247.005	-123.491	-0.129	-0.020
-245.990	-51.051	0.427	0.197
-244.976	682.606	0.023	-0.060
-243.961	-38.321	0.318	-0.166
-242.946	52.212	0.274	0.257
-241.932	-98.456	0.321	0.081
-240.917	-52.188	0.262	0.120
-239.903	-10.772	0.231	0.150
-238.888	-200.000	-0.033	-0.157
-237.873	-200.000	0.009	0.145
-236.859	-137.433	0.065	0.007
-235.844	-53.567	-0.316	-0.143
-234.830	-52.432	0.323	-0.147
-233.815	-186.158	-0.200	0.003
-232.800	-200.000	-0.015	0.103
-231.786	-200.000	0.121	0.595
-230.771	315.505	-0.050	0.093
-229.757	-34.427	0.226	0.122
-228.742	366.630	0.040	0.079
-227.727	-4.498	-0.165	0.112
-226.713	227.549	0.159	0.255
-225.698	132.825	-0.221	-0.281
-224.684	-106.925	0.195	0.043
-223.669	-73.576	-0.203	0.073
-222.655	21.729	-0.057	-0.046
-221.640	-200.000	0.029	0.333
-220.625	-200.000	0.002	0.127
-219.611	-200.000	0.005	0.226
-218.596	800.000	-0.085	-0.278
-217.582	124.596	0.158	-0.196
-216.567	-90.486	-0.171	0.049
-215.552	-23.457	0.119	0.070
-214.538	209.872	0.162	-0.250
-213.523	-200.000	-0.032	0.269
-212.509	195.726	-0.098	0.146
-211.494	800.000	0.136	0.382
-210.479	-136.109	0.251	-0.029
-209.465	800.000	0.051	-0.174
-208.450	-118.833	-0.331	-0.057
-207.436	201.819	0.153	-0.232
-206.421	-164.371	-0.203	0.009
-205.406	359.884	-0.045	0.089
-204.392	-41.407	-0.129	0.065
-203.377	-28.595	-0.049	-0.028
-202.363	800.000	0.059	-0.226
-201.348	374.316	-0.165	-0.330
-200.333	139.771	-0.083	0.108
-199.319	-200.000	-0.055	0.295
-198.304	-181.345	0.255	-0.005
-197.290	187.910	0.146	0.214
-196.275	-96.763	-0.206	0.053
-195.260	63.834	-0.056	-0.056
-194.246	221.998	0.022	0.035
-193.231	-200.000	-0.027	0.269
-192.217	800.000	-0.043	0.116
-191.202	-15.118	0.188	0.118
-190.187	-24.652	0.205	0.120
-189.173	-95.670	0.189	0.050
-188.158	-72.934	-0.144	-0.052
-187.144	-200.000	0.002	-0.054
-186.129	70.529	-0.170	-0.173
-185.114	52.284	-0.118	0.111
-184.100	800.000	-0.013	0.044
-183.085	-37.954	0.079	0.041
-182.071	-102.933	-0.262	-0.061
-181.056	35.008	-0.215	-0.185
-180.042	36.663	-0.256	0.222
-179.027	95.526	-0.155	-0.174
-178.012	-200.000	-0.032	-0.217
-176.998	800.000	0.023	0.081
-175.983	123.958	-0.182	-0.225
-174.969	800.000	-0.088	0.280
-173.954	-39.409	-0.128	0.066
-172.939	-97.967	0.178	0.045
-171.925	80.649	0.225	0.238
-170.910	-33.100	0.103	-0.056
-169.896	264.496	-0.098	0.168
-168.881	618.394	-0.131	-0.322
-167.866	465.601	0.098	-0.216
-166.852	-200.000	-0.013	0.148
-165.837	-200.000	-0.025	0.125
-164.823	-169.476	0.184	0.007
-163.808	71.432	0.277	-0.283
-162.793	100.677	-0.113	-0.129
-161.779	107.139	0.181	0.212
-160.764	37.323	0.183	0.159
-159.750	800.000	0.040	-0.113
-158.735	438.054	0.063	-0.135
-157.720	-146.878	0.219	0.019
-156.706	283.534	0.139	-0.246
-155.691	-200.000	-0.086	0.400
-154.677	-200.000	0.007	-0.116
-153.662	153.115	-0.209	0.280
-152.647	-117.498	0.152	0.027
-151.633	52.725	-0.362	0.340
-150.618	-42.143	0.553	-0.278
-149.604	9.853	-0.233	-0.173
-148.589	800.000	-0.056	-0.219
-147.574	-81.617	-0.105	-0.034
-146.560	-177.770	0.261	-0.006
-145.545	329.173	-0.071	0.134
-144.531	-117.989	0.097	0.017
-143.516	82.512	-0.097	0.103
-142.502	-200.000	-0.019	-0.248
-141.487	725.385	-0.044	0.116
-140.472	765.381	0.075	0.199
-139.458	-200.000	-0.061	0.326
-138.443	-200.000	0.026	-0.124
-137.429	-18.222	-0.298	-0.183
-136.414	11.346	-0.149	-0.112
-135.399	30.601	-0.198	0.166
-134.385	613.012	-0.016	-0.040
-133.370	-8.975	-0.065	0.043
-132.356	800.000	0.089	-0.287
-131.341	-72.355	0.411	0.149
-130.326	80.681	-0.174	-0.184
-129.312	173.706	0.084	-0.119
-128.297	-25.627	0.261	-0.151
-127.283	121.251	0.100	-0.122
-126.268	800.000	0.017	-0.049
-125.253	-200.000	0.008	0.150
-124.239	800.000	0.084	0.263
-123.224	-54.883	-0.127	0.056
-122.210	136.545	-0.242	-0.310
