DTS Sentinel unit serial number:	SN413079Multiplexer serial number:	ORYXHardware model number:	OX4-SRSoftware version number:	ORYX F/W v4.00 Oryx Data Collector v3.7.2.0data status	okinstallation	princeton_trtdifferential loss correction	single-endedforward channel	channel 1reverse channel	N/Adate	2019/09/18time	22:38:35forward acquisition time	60.00reverse acquisition time	0.00gamma	496.2192k internal	0.2341k external	0.2341temperature offset calibration	1.0012default loss term (dB/km)	0.3790temperature slope calibration	1.0000multiplexer offset coefficient	1.0000multiplexer slope coefficient	1.0000fibre end	0.00T internal ref (°C)	24.16T ext. ref 1 (°C)	0.78T ext. ref 2 (°C)	17.98length (m)	temperature (°C)	Stokes	anti-Stokes-747.200	721.949	-0.005	-0.013
-746.185	5.851	0.173	0.129
-745.171	17.901	-0.144	0.115
-744.156	-200.000	0.067	0.388
-743.142	-200.000	-0.013	-0.156
-742.127	-141.087	-0.428	-0.044
-741.112	-182.562	0.091	-0.002
-740.098	-24.689	-0.190	0.113
-739.083	-50.556	0.313	0.148
-738.069	440.508	-0.068	0.149
-737.054	-200.000	-0.009	-0.459
-736.039	-56.377	0.152	-0.068
-735.025	-200.000	0.040	0.247
-734.010	800.000	-0.061	-0.233
-732.996	-140.144	-0.320	0.034
-731.981	417.430	0.162	-0.347
-730.966	-75.233	0.268	-0.096
-729.952	423.993	-0.070	-0.151
-728.937	-128.136	-0.109	-0.016
-727.923	-200.000	0.005	-0.031
-726.908	-65.302	-0.171	-0.069
-725.894	-19.569	-0.360	-0.223
-724.879	-200.000	-0.006	-0.057
-723.864	168.555	-0.253	0.361
-722.850	-86.624	-0.339	-0.104
-721.835	107.222	-0.165	0.196
-720.821	-43.471	0.177	-0.089
-719.806	-15.757	0.339	0.217
-718.791	-83.027	0.079	-0.026
-717.777	800.000	-0.062	-0.180
-716.762	181.494	-0.243	-0.357
-715.748	55.021	-0.071	-0.069
-714.733	-25.108	-0.219	-0.130
-713.718	217.961	-0.042	0.066
-712.704	342.089	-0.077	0.150
-711.689	283.071	0.047	-0.084
-710.675	-192.372	-0.216	0.002
-709.660	-194.147	0.101	0.001
-708.645	800.000	0.037	0.160
-707.631	-126.879	0.214	-0.032
-706.616	-97.863	-0.102	-0.026
-705.602	213.756	0.151	-0.238
-704.587	-153.505	0.342	0.024
-703.572	6.476	-0.289	-0.215
-702.558	-110.447	0.052	-0.011
-701.543	104.449	-0.109	-0.128
-700.529	-59.237	0.163	0.070
-699.514	-151.042	-0.265	-0.020
-698.499	-78.893	-0.289	-0.098
-697.485	-124.461	0.405	-0.063
-696.470	363.530	-0.008	-0.017
-695.456	382.453	-0.162	0.333
-694.441	222.398	-0.065	-0.104
-693.426	-160.260	0.150	0.008
-692.412	578.944	0.071	-0.174
-691.397	51.947	-0.199	-0.189
-690.383	-102.852	0.167	-0.040
-689.368	-23.639	-0.248	-0.149
-688.354	-21.854	-0.142	-0.086
-687.339	27.568	0.216	-0.182
-686.324	199.577	-0.277	-0.425
-685.310	-139.411	0.248	-0.027
-684.295	-200.000	-0.014	0.143
-683.281	648.246	0.140	0.358
-682.266	800.000	0.127	-0.427
-681.251	7.928	0.093	-0.070
-680.237	800.000	0.016	-0.054
-679.222	512.076	-0.042	0.099
-678.208	-126.405	-0.145	-0.022
-677.193	19.735	0.138	-0.111
-676.178	103.375	-0.121	0.142
-675.164	19.222	-0.050	0.040
-674.149	-200.000	0.019	0.357
-673.135	-200.000	-0.018	0.300
-672.120	-200.000	0.046	0.216
-671.105	27.867	-0.115	-0.097
-670.091	13.017	0.230	-0.178
-669.076	800.000	-0.045	0.192
-668.062	289.590	-0.121	0.219
-667.047	-8.558	-0.183	0.123
-666.032	-200.000	0.054	0.295
-665.018	311.489	0.097	0.181
-664.003	-29.608	-0.128	0.073
-662.989	-200.000	0.087	0.485
-661.974	800.000	0.032	0.104
-660.959	-135.812	0.243	-0.029
-659.945	-200.000	0.017	0.090
-658.930	-200.000	-0.026	0.114
-657.916	125.017	-0.149	0.187
-656.901	-200.000	0.002	-0.432
-655.886	-81.557	0.178	-0.059
-654.872	-61.702	-0.126	-0.053
-653.857	511.624	0.036	-0.083
-652.843	-83.543	0.209	0.067
-651.828	105.471	-0.108	-0.127
-650.814	199.605	0.092	-0.141
-649.799	-2.803	-0.055	0.038
-648.784	-200.000	-0.004	-0.084
-647.770	137.733	-0.159	-0.208
-646.755	33.210	-0.064	0.055
-645.741	116.658	-0.117	0.144
-644.726	-200.000	0.001	-0.189
-643.711	-200.000	-0.033	-0.190
-642.697	800.000	0.019	0.062
-641.682	-27.710	-0.386	-0.224
-640.668	-107.429	0.362	0.079
-639.653	32.356	-0.046	0.040
-638.638	80.922	-0.259	-0.279
-637.624	-55.408	-0.624	-0.280
-636.609	231.430	-0.014	-0.022
-635.595	800.000	0.029	0.102
-634.580	800.000	-0.081	0.330
-633.565	79.297	0.145	-0.156
-632.551	85.670	-0.180	0.198
-631.536	800.000	-0.027	0.081
-630.522	-98.535	-0.061	0.016
-629.507	-27.202	-0.055	0.032
-628.492	9.050	0.066	-0.049
-627.478	-78.380	0.045	0.016
-626.463	-200.000	-0.041	-0.187
-625.449	108.312	0.138	-0.165
-624.434	57.420	-0.118	0.115
-623.419	-200.000	0.030	0.185
-622.405	225.552	-0.103	0.167
-621.390	-24.945	-0.185	0.109
-620.376	-1.041	0.062	0.044
-619.361	800.000	0.024	0.082
-618.346	750.029	0.089	-0.239
-617.332	-69.243	0.134	-0.052
-616.317	-184.701	-0.182	0.003
-615.303	80.689	-0.160	-0.172
-614.288	800.000	-0.046	-0.161
-613.273	-46.417	0.034	0.016
-612.259	107.151	-0.227	-0.269
-611.244	-31.427	0.112	-0.063
-610.230	326.101	0.079	-0.151
-609.215	-131.485	-0.450	-0.059
-608.201	34.111	-0.021	-0.019
-607.186	22.020	-0.121	-0.098
-606.171	76.287	0.168	0.178
-605.157	42.111	-0.264	0.239
-604.142	-25.055	0.221	-0.131
-603.128	644.323	0.017	-0.044
-602.113	-200.000	-0.007	0.196
-601.098	-200.000	0.017	-0.175
-600.084	-86.512	-0.152	0.046
-599.069	-84.903	-0.100	0.031
-598.055	-42.246	0.120	0.061
-597.040	-1.521	0.138	0.097
-596.025	387.487	0.080	0.166
-595.011	-22.031	-0.029	0.018
-593.996	100.425	0.101	0.116
-592.982	800.000	0.086	-0.259
-591.967	-156.367	0.094	0.006
-590.952	-13.570	-0.136	-0.088
-589.938	-94.298	0.063	0.017
-588.923	287.350	0.189	0.340
-587.909	-22.572	-0.050	-0.030
-586.894	380.229	0.067	-0.138
-585.879	-34.410	-0.232	0.127
-584.865	-61.715	0.293	-0.122
-583.850	-200.000	-0.041	0.577
-582.836	-56.355	0.217	-0.096
-581.821	30.796	-0.258	-0.220
-580.806	-200.000	0.038	-0.325
-579.792	139.714	-0.046	-0.060
-578.777	121.218	0.194	0.241
-577.763	727.565	0.139	-0.369
-576.748	44.475	0.236	-0.216
-575.733	-125.123	0.122	0.019
-574.719	-50.526	-0.045	0.021
-573.704	-97.194	0.164	-0.043
-572.690	-191.539	0.353	0.004
-571.675	612.119	-0.084	0.208
-570.661	-187.680	-0.388	-0.005
-569.646	-200.000	-0.034	0.235
-568.631	-200.000	-0.007	-0.250
-567.617	49.390	0.333	-0.312
-566.602	800.000	0.059	0.229
-565.588	-51.186	-0.144	-0.067
-564.573	-8.389	0.198	0.132
-563.558	-108.287	0.277	-0.060
-562.544	324.024	0.186	0.354
-561.529	-81.970	0.151	0.049
-560.515	-200.000	-0.020	0.267
-559.500	-200.000	0.011	0.169
-558.485	-157.049	0.112	0.007
-557.471	-185.955	0.558	-0.008
-556.456	-200.000	-0.013	0.229
-555.442	277.672	-0.105	0.187
-554.427	800.000	0.057	0.159
-553.412	239.889	-0.220	-0.364
-552.398	-106.907	0.099	-0.022
-551.383	-144.658	-0.174	0.016
-550.369	-157.134	-0.237	0.014
-549.354	72.045	-0.077	-0.079
-548.339	27.074	0.243	0.203
-547.325	800.000	-0.102	-0.303
-546.310	148.734	-0.148	-0.199
-545.296	-16.288	0.293	0.185
-544.281	-200.000	-0.074	0.408
-543.266	-133.601	0.146	0.018
-542.252	29.350	0.197	-0.166
-541.237	-20.549	-0.211	0.129
-540.223	-200.000	0.031	-0.214
-539.208	-200.000	0.036	-0.244
-538.193	259.227	0.047	-0.081
-537.179	-148.865	0.520	-0.042
-536.164	201.081	-0.131	-0.200
-535.150	-92.989	-0.252	0.070
-534.135	-31.549	-0.064	0.036
-533.121	-200.000	-0.045	0.241
-532.106	-44.964	0.025	0.012
-531.091	81.183	0.296	0.317
-530.077	0.315	-0.197	0.139
-529.062	357.973	0.122	0.242
-528.048	-37.665	0.153	0.081
-527.033	-200.000	0.002	0.019
-526.018	-106.380	-0.181	-0.040
-525.004	210.733	-0.040	0.063
-523.989	159.943	0.132	0.183
-522.975	-137.564	-0.056	0.006
-521.960	241.654	0.095	0.157
-520.945	99.662	-0.158	-0.182
-519.931	312.424	-0.204	-0.380
-518.916	-200.000	-0.067	-0.309
-517.902	271.364	-0.123	-0.216
-516.887	-200.000	-0.019	-0.445
-515.872	-57.223	-0.254	0.111
-514.858	-72.314	-0.218	-0.080
-513.843	-87.544	0.131	-0.039
-512.829	800.000	0.056	-0.183
-511.814	-124.632	-0.143	-0.022
-510.799	102.754	-0.272	0.316
-509.785	-122.498	0.127	0.021
-508.770	243.999	0.017	-0.029
-507.756	-176.489	-0.245	-0.006
-506.741	393.749	-0.064	0.132
-505.726	44.680	0.190	0.173
-504.712	-137.542	0.325	0.036
-503.697	-52.621	0.040	-0.018
-502.683	-200.000	-0.007	0.206
-501.668	-111.014	-0.324	0.066
-500.653	-125.123	0.365	0.056
-499.639	415.447	0.030	-0.063
-498.624	479.503	-0.117	-0.262
-497.610	-4.509	-0.235	0.161
-496.595	-200.000	0.042	0.377
-495.581	-200.000	0.020	0.121
-494.566	152.614	0.126	-0.171
-493.551	-84.241	-0.256	-0.080
-492.537	800.000	-0.065	-0.226
-491.522	-108.837	0.162	0.034
-490.508	-160.880	-0.070	0.004
-489.493	800.000	-0.117	-0.323
-488.478	-170.513	0.149	0.005
-487.464	-93.636	-0.147	0.040
-486.449	160.725	0.072	0.100
-485.435	397.064	-0.117	-0.243
-484.420	-83.492	-0.271	0.086
-483.405	-124.571	0.138	-0.021
-482.391	600.871	-0.113	-0.278
-481.376	-137.178	-0.204	0.023
-480.362	-126.717	0.290	-0.042
-479.347	4.168	-0.214	-0.155
-478.332	800.000	0.027	-0.094
-477.318	-76.691	-0.358	-0.124
-476.303	-200.000	0.024	-0.140
-475.289	-41.492	0.296	-0.151
-474.274	57.201	0.197	-0.190
-473.259	763.619	-0.042	0.113
-472.245	23.792	-0.128	0.104
-471.230	452.024	-0.099	0.216
-470.216	105.643	0.111	0.130
-469.201	345.238	0.052	0.101
-468.186	-130.152	0.222	-0.030
-467.172	-200.000	-0.019	-0.087
-466.157	-200.000	-0.003	-0.214
-465.143	-50.295	-0.112	-0.052
-464.128	-142.414	-0.113	-0.011
-463.113	-58.659	-0.074	-0.032
-462.099	-52.916	0.159	-0.073
-461.084	-97.051	-0.076	-0.020
-460.070	-56.671	0.225	-0.099
-459.055	20.552	-0.232	-0.186
-458.040	-18.698	0.127	0.078
-457.026	-39.893	-0.333	0.172
-456.011	-97.298	0.155	0.040
-454.997	98.359	-0.222	0.253
-453.982	297.106	0.028	-0.050
-452.968	-64.658	0.108	0.043
-451.953	-75.830	0.226	0.079
-450.938	-82.600	-0.387	-0.124
-449.924	108.888	-0.089	-0.105
-448.909	198.575	0.154	0.234
-447.895	615.613	-0.051	0.127
-446.880	-121.604	-0.258	0.042
-445.865	-30.109	-0.161	-0.091
-444.851	53.502	-0.061	-0.058
-443.836	411.133	-0.076	-0.159
-442.822	219.826	-0.126	-0.200
-441.807	800.000	-0.026	0.074
-440.792	-200.000	0.060	-0.364
-439.778	107.600	0.056	0.067
-438.763	-100.045	-0.152	0.037
-437.749	66.531	-0.117	0.118
-436.734	800.000	0.089	-0.314
-435.719	-68.522	0.475	0.182
-434.705	-150.321	0.244	-0.019
-433.690	-2.180	0.268	-0.186
-432.676	203.879	0.091	0.139
-431.661	598.142	-0.148	-0.364
-430.646	-127.452	0.281	0.040
-429.632	130.266	-0.113	0.144
-428.617	168.618	0.130	-0.183
-427.603	-200.000	0.010	0.161
-426.588	187.328	-0.140	-0.206
-425.573	-94.067	-0.266	-0.072
-424.559	-68.792	-0.275	0.105
-423.544	-161.110	-0.348	-0.018
-422.530	-36.408	-0.374	0.199
-421.515	800.000	-0.013	0.038
-420.500	-48.640	0.153	-0.073
-419.486	55.796	-0.101	0.097
-418.471	-110.816	-0.368	-0.075
-417.457	-38.704	-0.119	-0.062
-416.442	-55.931	0.179	-0.079
-415.428	-136.492	-0.367	0.042
-414.413	-71.575	0.209	-0.077
-413.398	-200.000	0.033	0.143
-412.384	-200.000	0.052	0.476
-411.369	800.000	0.162	0.468
-410.355	-64.720	-0.033	0.013
-409.340	-63.626	-0.079	0.032
-408.325	541.757	0.061	0.143
-407.311	154.205	0.024	0.032
-406.296	800.000	-0.066	-0.272
-405.282	23.297	-0.433	0.351
-404.267	75.037	-0.155	0.162
-403.252	463.984	-0.030	-0.067
-402.238	800.000	0.102	0.315
-401.223	-17.276	-0.079	-0.049
-400.209	9.032	-0.172	0.128
-399.194	-105.823	-0.228	-0.051
-398.179	23.267	0.125	0.102
-397.165	800.000	0.102	0.368
-396.150	-200.000	-0.038	-0.169
-395.136	-200.000	0.028	-0.153
-394.121	106.147	-0.080	-0.094
-393.106	-108.841	-0.397	0.084
-392.092	263.605	-0.178	0.306
-391.077	-83.853	-0.223	0.070
-390.063	-116.931	-0.133	0.024
-389.048	270.868	-0.083	0.144
-388.033	67.870	0.277	0.280
-387.019	758.444	-0.107	0.286
-386.004	104.291	0.186	0.216
-384.990	378.899	0.107	0.217
-383.975	-55.782	0.086	0.038
-382.960	-122.605	0.267	0.043
-381.946	12.008	0.124	0.094
-380.931	395.095	-0.133	0.275
-379.917	-95.219	-0.193	0.051
-378.902	-200.000	-0.055	0.282
-377.888	112.018	0.073	0.088
-376.873	78.670	0.143	0.151
-375.858	-121.915	0.252	0.041
-374.844	145.617	-0.182	-0.241
-373.829	-200.000	-0.019	0.250
-372.815	-200.000	0.017	-0.098
-371.800	-200.000	-0.021	-0.119
-370.785	-200.000	0.013	0.144
-369.771	800.000	0.061	-0.197
-368.756	-47.442	-0.206	0.099
-367.742	-51.825	-0.065	0.030
-366.727	-65.982	-0.166	0.065
-365.712	-73.383	0.047	0.017
-364.698	-54.437	-0.094	-0.042
-363.683	-13.881	0.113	-0.072
-362.669	-26.780	-0.077	0.044
-361.654	-116.261	-0.051	-0.009
-360.639	-200.000	-0.050	-0.265
-359.625	-200.000	-0.046	-0.289
-358.610	-171.761	0.081	0.003
-357.596	800.000	0.068	0.222
-356.581	-200.000	-0.034	0.149
-355.566	-200.000	0.038	0.301
-354.552	550.325	-0.078	0.186
-353.537	-3.868	-0.166	-0.114
-352.523	-21.798	0.268	0.161
-351.508	355.667	-0.113	-0.222
-350.493	17.227	-0.101	-0.079
-349.479	-200.000	-0.010	-0.257
-348.464	-28.709	0.141	0.080
-347.450	-106.427	0.267	-0.059
-346.435	-54.980	0.093	0.041
-345.420	424.025	0.103	0.219
-344.406	-58.056	-0.164	-0.070
-343.391	-65.587	0.173	0.069
-342.377	-119.966	-0.365	-0.062
-341.362	78.330	-0.117	0.123
-340.348	587.423	-0.125	0.304
-339.333	-87.897	-0.116	-0.034
-338.318	641.970	0.094	0.236
-337.304	-170.135	0.256	-0.009
-336.289	90.517	0.087	-0.096
-335.275	-200.000	-0.059	-0.293
-334.260	120.950	-0.121	-0.149
-333.245	249.666	0.148	-0.248
-332.231	800.000	0.077	-0.211
-331.216	-100.268	0.328	0.080
-330.202	155.572	-0.068	0.092
-329.187	800.000	-0.024	-0.097
-328.172	-34.983	0.060	0.032
-327.158	-200.000	0.020	0.229
-326.143	800.000	0.055	-0.211
-325.129	590.777	0.117	0.284
-324.114	135.931	0.045	0.058
-323.099	-3.123	-0.292	-0.201
-322.085	87.598	0.170	-0.186
-321.070	478.300	-0.112	0.251
-320.056	-200.000	0.004	0.198
-319.041	345.529	0.113	0.219
-318.026	-46.429	0.053	0.025
-317.012	-8.316	-0.282	-0.187
-315.997	43.180	0.127	0.114
-314.983	-200.000	0.001	0.265
-313.968	-81.430	-0.170	0.055
-312.953	-200.000	-0.053	-0.313
-311.939	800.000	-0.093	0.269
-310.924	-200.000	-0.011	-0.206
-309.910	232.048	0.131	0.212
-308.895	800.000	-0.064	0.193
-307.880	481.170	0.068	-0.152
-306.866	48.070	0.080	0.073
-305.851	17.517	-0.246	-0.193
-304.837	102.366	0.174	0.201
-303.822	309.897	-0.036	-0.067
-302.807	-200.000	-0.013	0.198
-301.793	-69.721	0.399	0.150
-300.778	-200.000	0.023	0.576
-299.764	145.209	0.041	0.054
-298.749	136.110	-0.072	-0.092
-297.735	800.000	-0.090	0.364
-296.720	89.236	0.080	-0.087
-295.705	42.040	-0.148	-0.132
-294.691	-200.000	0.026	-0.231
-293.676	-200.000	-0.091	0.413
-292.662	142.194	-0.126	0.165
-291.647	5.685	-0.141	-0.102
-290.632	19.823	0.118	-0.094
-289.618	-35.628	0.258	-0.138
-288.603	-9.124	0.128	0.084
-287.589	-11.379	0.223	0.144
-286.574	2.758	0.109	0.078
-285.559	-59.350	-0.159	0.067
-284.545	199.244	0.159	0.240
-283.530	230.691	-0.102	-0.164
-282.516	-93.045	-0.110	0.030
-281.501	-110.067	-0.233	-0.048
-280.486	-200.000	-0.020	0.133
-279.472	-37.033	0.192	-0.101
-278.457	-200.000	0.004	-0.371
-277.443	357.867	0.143	-0.280
-276.428	478.914	0.177	-0.394
-275.413	-98.707	-0.011	-0.003
-274.399	-144.609	0.444	0.040
-273.384	447.922	-0.044	-0.096
-272.370	-134.887	-0.295	0.035
-271.355	800.000	-0.027	0.090
-270.340	263.493	0.089	-0.152
-269.326	-200.000	0.007	-0.060
-268.311	-200.000	0.007	-0.175
-267.297	800.000	-0.041	-0.176
-266.282	-128.901	-0.167	-0.023
-265.267	-200.000	0.032	-0.226
-264.253	800.000	0.038	-0.133
-263.238	130.073	-0.206	-0.259
-262.224	147.003	-0.226	0.299
-261.209	-160.084	0.478	-0.026
-260.195	70.670	0.175	0.178
-259.180	630.060	0.069	0.171
-258.165	800.000	0.023	0.073
-257.151	293.042	0.082	0.146
-256.136	800.000	0.111	0.424
-255.122	-81.168	0.220	0.072
-254.107	358.158	-0.037	-0.073
-253.092	-200.000	0.060	-0.285
-252.078	-109.031	-0.222	-0.046
-251.063	-200.000	-0.026	0.199
-250.049	31.783	0.093	-0.079
-249.034	800.000	0.040	-0.156
-248.019	-33.604	-0.160	0.087
-247.005	595.794	0.073	-0.178
-245.990	800.000	0.039	0.107
-244.976	-149.349	0.225	-0.018
-243.961	-200.000	0.030	-0.143
-242.946	800.000	-0.084	-0.283
-241.932	-136.031	0.264	0.031
-240.917	616.306	-0.114	-0.281
-239.903	87.937	0.070	-0.076
-238.888	215.680	0.129	0.202
-237.873	146.538	-0.084	0.110
-236.859	-29.928	0.198	-0.111
-235.844	30.333	0.233	0.195
-234.830	800.000	0.143	-0.420
-233.815	100.169	-0.165	-0.188
-232.800	-200.000	-0.000	0.150
-231.786	99.839	-0.069	-0.079
-230.771	-200.000	0.045	0.215
-229.757	37.355	-0.064	-0.055
-228.742	64.329	-0.121	-0.119
-227.727	-38.896	-0.148	0.077
-226.713	-89.400	0.251	0.072
-225.698	122.666	-0.178	-0.219
-224.684	94.644	-0.142	-0.158
-223.669	17.774	-0.328	-0.257
-222.655	-28.568	-0.127	-0.072
-221.640	-90.779	-0.103	-0.029
-220.625	-200.000	0.030	0.169
-219.611	583.552	0.046	-0.110
-218.596	-50.386	-0.304	0.141
-217.582	-37.128	0.214	0.112
-216.567	-97.943	-0.390	-0.099
-215.552	7.979	0.097	-0.072
-214.538	535.134	0.126	0.292
-213.523	-8.026	-0.148	-0.098
-212.509	-200.000	-0.006	-0.191
-211.494	-88.069	0.171	0.050
-210.479	-65.308	0.055	0.022
-209.465	800.000	-0.056	0.198
-208.450	-200.000	0.010	0.055
-207.436	-13.681	0.370	-0.235
-206.421	800.000	0.065	-0.227
-205.406	800.000	-0.043	-0.118
-204.392	-113.479	-0.024	-0.005
-203.377	-200.000	0.010	-0.066
-202.363	-172.361	-0.253	-0.008
-201.348	447.835	0.077	0.165
-200.333	-76.376	-0.237	-0.082
-199.319	52.673	0.189	-0.177
-198.304	488.644	0.095	-0.213
-197.290	488.767	0.093	0.209
-196.275	53.188	0.172	-0.161
-195.260	270.794	-0.126	0.218
-194.246	213.851	-0.107	-0.166
-193.231	31.621	-0.047	0.039
-192.217	800.000	-0.125	-0.365
-191.202	800.000	0.012	0.042
-190.187	108.634	0.195	-0.228
-189.173	-74.028	0.170	0.060
-188.158	54.021	-0.038	0.036
-187.144	-143.937	0.249	0.023
-186.129	-200.000	0.003	-0.181
-185.114	374.799	0.213	-0.425
-184.100	-14.303	-0.060	-0.038
-183.085	29.532	0.284	-0.237
-182.071	-37.809	-0.060	-0.031
-181.056	-78.539	0.237	0.080
-180.042	23.268	0.099	-0.080
-179.027	-40.964	0.182	-0.092
-178.012	123.624	-0.120	-0.148
-176.998	244.274	-0.083	0.137
-175.983	36.196	0.050	-0.043
-174.969	-21.489	-0.054	-0.033
-173.954	-79.875	0.160	-0.053
-172.939	800.000	0.042	-0.162
-171.925	-200.000	0.030	0.175
-170.910	800.000	0.051	-0.152
-169.896	577.790	0.127	0.305
-168.881	800.000	0.123	0.343
-167.866	629.042	-0.075	0.185
-166.852	-123.951	0.145	-0.022
-165.837	211.204	-0.138	0.213
-164.823	-68.252	0.206	0.078
-163.808	205.549	-0.067	0.103
-162.793	-63.450	0.301	-0.121
-161.779	19.554	-0.168	-0.132
-160.764	-142.553	0.360	0.035
-159.750	-106.433	0.170	-0.037
-158.735	-200.000	-0.047	-0.251
-157.720	-200.000	0.022	-0.201
-156.706	-60.248	0.042	-0.017
-155.691	-200.000	0.070	0.345
-154.677	22.125	-0.222	-0.178
-153.662	-110.238	0.025	0.005
-152.647	800.000	0.006	-0.024
-151.633	-200.000	0.009	-0.433
-150.618	158.854	-0.081	0.110
-149.604	-200.000	0.035	0.237
-148.589	348.483	-0.069	0.132
-147.574	-171.530	-0.248	-0.008
-146.560	-65.032	0.143	-0.056
-145.545	800.000	0.097	-0.408
-144.531	-67.312	-0.268	0.103
-143.516	214.742	0.016	0.025
-142.502	383.584	-0.027	-0.053
-141.487	239.079	-0.088	-0.144
-140.472	-85.743	-0.190	-0.058
-139.458	-200.000	-0.060	-0.261
-138.443	800.000	-0.057	-0.158
-137.429	-24.085	-0.126	-0.074
-136.414	-174.127	0.220	-0.006
-135.399	-200.000	0.044	0.240
-134.385	-100.078	0.276	0.067
-133.370	-200.000	-0.002	0.132
-132.356	83.367	-0.089	-0.095
-131.341	-101.372	-0.356	0.085
-130.326	-200.000	-0.002	0.270
-129.312	-65.724	-0.068	-0.027
-128.297	-200.000	-0.049	0.252
-127.283	149.744	0.082	0.109
-126.268	800.000	0.132	0.468
-125.253	95.590	-0.014	-0.016
-124.239	-200.000	-0.037	-0.386
-123.224	-136.470	-0.223	-0.025
-122.210	525.878	0.064	0.148
