DTS Sentinel unit serial number:	SN413079Multiplexer serial number:	ORYXHardware model number:	OX4-SRSoftware version number:	ORYX F/W v4.00 Oryx Data Collector v3.7.2.0data status	okinstallation	princeton_trtdifferential loss correction	single-endedforward channel	channel 1reverse channel	N/Adate	2019/09/17time	23:06:35forward acquisition time	60.00reverse acquisition time	0.00gamma	496.2192k internal	0.2340k external	0.2340temperature offset calibration	0.9978default loss term (dB/km)	0.3790temperature slope calibration	1.0000multiplexer offset coefficient	1.0000multiplexer slope coefficient	1.0000fibre end	0.00T internal ref (°C)	24.66T ext. ref 1 (°C)	0.17T ext. ref 2 (°C)	17.82length (m)	temperature (°C)	Stokes	anti-Stokes-747.200	-3.080	-0.275	0.192
-746.185	38.652	-0.157	0.140
-745.171	-200.000	-0.012	-0.142
-744.156	-6.753	0.145	0.099
-743.142	132.728	0.266	0.343
-742.127	-100.025	-0.242	-0.060
-741.112	65.945	0.062	0.063
-740.098	-200.000	0.012	0.281
-739.083	-31.432	0.136	0.077
-738.069	424.496	-0.090	0.195
-737.054	320.587	0.017	0.032
-736.039	170.014	0.098	-0.141
-735.025	-132.725	0.419	0.054
-734.010	297.191	-0.090	0.165
-732.996	376.266	-0.147	-0.301
-731.981	-11.730	0.113	0.074
-730.966	289.126	-0.060	0.110
-729.952	-72.878	-0.239	-0.088
-728.937	25.155	-0.207	-0.172
-727.923	-52.861	-0.176	0.081
-726.908	38.184	0.315	-0.281
-725.894	-72.649	-0.068	0.025
-724.879	149.500	0.115	0.156
-723.864	137.105	0.043	-0.057
-722.850	-200.000	-0.032	-0.275
-721.835	-35.724	0.159	-0.087
-720.821	178.025	-0.100	-0.146
-719.806	-200.000	-0.005	-0.157
-718.791	182.658	-0.218	0.322
-717.777	-123.849	-0.208	-0.033
-716.762	-78.714	0.090	-0.031
-715.748	539.528	-0.156	0.372
-714.733	47.321	0.230	0.215
-713.718	58.759	0.266	-0.262
-712.704	5.053	-0.283	0.208
-711.689	-200.000	-0.005	-0.181
-710.675	-30.873	-0.339	0.192
-709.660	-200.000	0.027	-0.354
-708.645	-188.211	-0.173	0.002
-707.631	-74.970	-0.318	-0.114
-706.616	800.000	0.103	0.322
-705.602	800.000	0.095	-0.358
-704.587	-200.000	-0.013	-0.110
-703.572	285.927	-0.119	-0.215
-702.558	-59.583	-0.172	-0.074
-701.543	525.451	-0.086	0.202
-700.529	74.840	-0.087	0.092
-699.514	94.743	0.012	-0.014
-698.499	231.135	-0.026	-0.042
-697.485	316.228	0.190	-0.359
-696.470	-200.000	-0.033	-0.257
-695.456	-142.401	-0.256	-0.025
-694.441	-186.832	0.062	0.001
-693.426	-101.336	-0.487	0.119
-692.412	-10.541	-0.083	-0.055
-691.397	86.115	-0.171	0.188
-690.383	-110.084	-0.203	0.042
-689.368	285.018	0.133	-0.240
-688.354	235.075	-0.100	0.165
-687.339	0.434	0.225	-0.161
-686.324	6.913	-0.205	0.153
-685.310	47.998	-0.126	0.118
-684.295	-200.000	-0.097	0.444
-683.281	-200.000	-0.010	-0.207
-682.266	97.219	0.154	0.176
-681.251	-130.582	-0.440	-0.059
-680.237	-81.668	0.317	0.104
-679.222	800.000	-0.065	-0.182
-678.208	-200.000	-0.011	0.126
-677.193	-50.424	-0.152	0.072
-676.178	605.978	-0.054	0.134
-675.164	52.033	0.174	-0.166
-674.149	800.000	0.017	-0.072
-673.135	20.638	-0.414	-0.335
-672.120	162.849	0.245	-0.345
-671.105	712.557	0.085	0.226
-670.091	-7.083	0.233	0.158
-669.076	313.410	0.149	-0.279
-668.062	-200.000	0.045	-0.448
-667.047	62.602	-0.216	0.215
-666.032	42.942	0.152	-0.138
-665.018	-144.687	-0.293	-0.027
-664.003	-200.000	0.067	0.357
-662.989	-39.924	-0.229	0.120
-661.974	335.767	0.200	0.388
-660.959	800.000	0.034	-0.138
-659.945	-172.463	-0.201	0.006
-658.930	800.000	0.077	-0.287
-657.916	-7.403	0.350	-0.237
-656.901	-179.673	0.362	-0.008
-655.886	502.778	-0.057	0.132
-654.872	-137.420	-0.316	-0.036
-653.857	114.319	-0.205	-0.250
-652.843	-11.308	-0.479	-0.315
-651.828	-153.120	0.543	-0.038
-650.814	-198.853	0.185	-0.001
-649.799	-115.293	0.362	0.068
-648.784	10.371	0.227	-0.172
-647.770	181.118	-0.140	-0.205
-646.755	800.000	0.047	0.151
-645.741	-49.227	-0.021	0.010
-644.726	285.938	0.119	-0.215
-643.711	-29.492	0.080	0.046
-642.697	-200.000	0.133	-0.000
-641.682	106.685	0.047	0.056
-640.668	-40.053	-0.174	-0.091
-639.653	-47.717	0.153	-0.074
-638.638	800.000	0.022	-0.089
-637.624	800.000	0.084	0.247
-636.609	-200.000	-0.054	-0.355
-635.595	800.000	-0.035	0.126
-634.580	-131.146	-0.217	-0.029
-633.565	-43.329	-0.216	-0.109
-632.551	-72.823	0.087	0.032
-631.536	301.574	-0.054	0.099
-630.522	800.000	-0.050	0.141
-629.507	-79.132	0.280	0.095
-628.492	356.545	0.133	0.264
-627.478	75.145	-0.147	0.155
-626.463	-148.314	0.228	-0.019
-625.449	-157.874	-0.435	-0.026
-624.434	19.823	0.031	-0.025
-623.419	800.000	0.024	-0.097
-622.405	-200.000	0.046	-0.230
-621.390	21.680	-0.311	0.253
-620.376	-83.094	-0.199	-0.064
-619.361	10.976	-0.211	-0.161
-618.346	-200.000	-0.018	-0.179
-617.332	-200.000	-0.007	-0.107
-616.317	-40.178	0.086	0.045
-615.303	130.178	0.113	0.144
-614.288	764.764	-0.114	-0.308
-613.273	-200.000	-0.010	-0.280
-612.259	-133.426	-0.077	-0.010
-611.244	-64.344	-0.058	-0.024
-610.230	193.664	-0.054	0.082
-609.215	-20.857	0.050	-0.031
-608.201	-92.928	0.225	0.063
-607.186	-48.025	0.350	0.169
-606.171	145.766	0.095	-0.126
-605.157	321.684	-0.121	0.229
-604.142	-49.060	-0.152	-0.073
-603.128	-100.836	0.287	-0.070
-602.113	800.000	0.053	0.223
-601.098	-24.602	0.043	-0.026
-600.084	-134.981	-0.155	-0.019
-599.069	154.644	0.081	0.111
-598.055	187.514	-0.105	-0.156
-597.040	-97.082	-0.473	-0.123
-596.025	-78.280	-0.199	0.068
-595.011	61.786	-0.060	-0.060
-593.996	138.949	0.123	-0.161
-592.982	476.725	-0.028	-0.063
-591.967	-200.000	0.032	0.209
-590.952	-200.000	0.012	0.085
-589.938	800.000	-0.071	-0.195
-588.923	737.304	0.148	-0.395
-587.909	-60.605	-0.109	0.046
-586.894	147.415	-0.017	0.023
-585.879	13.511	-0.157	-0.121
-584.865	80.538	0.067	0.072
-583.850	-62.575	0.125	0.052
-582.836	800.000	0.013	-0.037
-581.821	-200.000	-0.020	0.271
-580.806	447.366	-0.154	-0.337
-579.792	187.822	-0.219	-0.325
-578.777	-5.763	-0.218	0.149
-577.763	-87.990	0.166	-0.050
-576.748	-200.000	-0.011	0.117
-575.733	-46.031	0.365	0.179
-574.719	-33.711	-0.128	-0.070
-573.704	45.367	-0.263	-0.242
-572.690	-17.090	0.223	-0.140
-571.675	6.044	-0.207	0.153
-570.661	-174.371	-0.139	0.004
-569.646	-31.859	0.239	0.133
-568.631	-85.545	-0.237	-0.073
-567.617	-8.930	-0.336	0.224
-566.602	399.380	-0.139	0.290
-565.588	-108.986	-0.295	0.063
-564.573	-127.448	-0.146	-0.021
-563.558	-56.053	-0.291	-0.129
-562.544	-15.391	-0.214	0.136
-561.529	136.195	-0.219	0.285
-560.515	145.985	0.117	-0.156
-559.500	-7.161	-0.491	-0.331
-558.485	683.865	-0.090	0.233
-557.471	104.076	0.105	0.123
-556.456	295.968	0.136	0.249
-555.442	130.962	-0.406	-0.518
-554.427	30.197	0.164	0.139
-553.412	-17.428	-0.166	0.104
-552.398	-45.272	-0.182	0.090
-551.383	-200.000	-0.028	-0.153
-550.369	69.422	-0.208	-0.213
-549.354	127.368	-0.130	0.164
-548.339	-22.003	-0.184	0.111
-547.325	535.397	-0.178	0.419
-546.310	632.665	-0.021	-0.052
-545.296	800.000	-0.092	-0.267
-544.281	202.366	-0.089	0.137
-543.266	-40.472	0.191	0.098
-542.252	42.097	0.228	-0.206
-541.237	-174.649	-0.258	0.007
-540.223	85.296	-0.198	-0.216
-539.208	-184.917	-0.320	-0.005
-538.193	800.000	0.091	0.314
-537.179	-4.353	0.271	0.186
-536.164	-200.000	0.019	-0.085
-535.150	168.954	-0.108	0.153
-534.135	23.130	0.106	-0.087
-533.121	-18.306	-0.040	-0.025
-532.106	-64.603	-0.142	-0.057
-531.091	48.615	-0.086	0.080
-530.077	152.777	-0.190	-0.258
-529.062	-136.338	0.224	0.026
-528.048	68.162	0.110	-0.112
-527.033	440.214	0.038	0.082
-526.018	-37.277	0.137	0.073
-525.004	-99.075	-0.331	-0.083
-523.989	668.277	-0.088	-0.227
-522.975	-172.757	0.449	-0.014
-521.960	-23.115	-0.176	-0.105
-520.945	186.424	0.199	0.295
-519.931	-93.286	-0.195	-0.054
-518.916	800.000	-0.088	-0.339
-517.902	243.433	0.127	-0.211
-516.887	-87.624	-0.350	-0.105
-515.872	245.114	-0.249	-0.416
-514.858	-102.853	0.400	0.095
-513.843	-32.375	-0.358	-0.198
-512.829	800.000	0.052	0.203
-511.814	-22.880	-0.120	0.072
-510.799	800.000	0.055	0.151
-509.785	-124.206	-0.083	0.013
-508.770	47.680	0.284	-0.263
-507.756	-200.000	0.039	0.241
-506.741	-51.393	0.273	-0.127
-505.726	97.119	0.074	-0.084
-504.712	-109.192	0.493	-0.104
-503.697	-200.000	0.090	0.437
-502.683	246.353	0.197	-0.330
-501.668	234.530	0.054	0.088
-500.653	-200.000	-0.059	-0.274
-499.639	-200.000	0.064	-0.302
-498.624	291.059	-0.119	0.215
-497.610	-123.609	0.120	0.019
-496.595	706.900	-0.144	-0.377
-495.581	-8.658	0.062	0.041
-494.566	-200.000	0.003	-0.351
-493.551	141.704	0.143	-0.188
-492.537	-200.000	0.010	-0.056
-491.522	800.000	0.009	0.029
-490.508	354.724	0.075	-0.147
-489.493	158.352	-0.074	0.102
-488.478	94.937	0.125	0.142
-487.464	16.439	-0.126	0.099
-486.449	-53.361	-0.059	-0.027
-485.435	-71.401	-0.158	-0.059
-484.420	1.325	0.233	-0.166
-483.405	0.132	-0.162	-0.115
-482.391	85.958	0.315	-0.344
-481.376	534.585	-0.038	-0.089
-480.362	-12.640	0.147	0.095
-479.347	-21.193	-0.367	-0.223
-478.332	594.318	0.041	0.101
-477.318	493.147	0.034	-0.077
-476.303	-16.044	0.022	-0.014
-475.289	752.277	-0.036	0.098
-474.274	800.000	0.030	-0.115
-473.259	-75.370	-0.103	0.037
-472.245	376.786	0.137	-0.277
-471.230	-200.000	-0.042	0.294
-470.216	-76.671	-0.501	-0.174
-469.201	61.941	0.307	-0.303
-468.186	-200.000	-0.027	0.423
-467.172	-138.305	0.103	-0.011
-466.157	798.507	-0.122	0.333
-465.143	268.621	0.204	-0.356
-464.128	110.803	0.288	-0.344
-463.113	571.572	0.083	0.201
-462.099	0.400	-0.018	-0.012
-461.084	-200.000	-0.042	-0.262
-460.070	70.607	0.124	0.127
-459.055	800.000	0.012	0.043
-458.040	138.140	0.069	-0.090
-457.026	-20.774	-0.433	-0.263
-456.011	62.051	0.096	0.095
-454.997	95.847	0.089	-0.101
-453.982	45.604	-0.253	-0.232
-452.968	-29.043	-0.341	-0.194
-451.953	-111.067	0.300	-0.061
-450.938	-98.089	0.184	0.047
-449.924	-200.000	-0.020	-0.158
-448.909	24.882	0.079	-0.065
-447.895	-200.000	-0.022	-0.345
-446.880	800.000	0.038	-0.146
-445.865	-87.176	-0.148	-0.045
-444.851	-118.431	-0.295	-0.052
-443.836	-80.367	-0.123	-0.041
-442.822	800.000	-0.043	-0.134
-441.807	111.364	-0.080	0.096
-440.792	35.808	-0.302	0.263
-439.778	800.000	-0.053	0.213
-438.763	-125.185	0.275	-0.042
-437.749	800.000	-0.091	-0.390
-436.734	213.992	-0.145	0.227
-435.719	-65.868	0.135	0.054
-434.705	-41.744	0.394	0.200
-433.690	-200.000	0.005	0.111
-432.676	20.540	-0.219	-0.175
-431.661	-103.445	-0.284	0.066
-430.646	132.964	0.224	0.287
-429.632	800.000	-0.157	0.438
-428.617	379.546	-0.082	-0.166
-427.603	212.231	-0.122	0.190
-426.588	-200.000	-0.002	0.361
-425.573	-62.844	-0.252	0.103
-424.559	-30.544	0.166	0.093
-423.544	-200.000	-0.004	0.167
-422.530	163.063	-0.145	0.202
-421.515	6.250	0.185	0.136
-420.500	-200.000	-0.028	0.266
-419.486	750.493	0.070	0.188
-418.471	-23.451	0.151	-0.090
-417.457	457.532	0.127	0.278
-416.442	800.000	0.043	-0.132
-415.428	800.000	-0.142	0.417
-414.413	-102.540	-0.488	0.115
-413.398	800.000	-0.145	-0.539
-412.384	712.810	0.049	-0.128
-411.369	241.132	-0.126	0.209
-410.355	784.980	0.060	0.164
-409.340	-39.130	-0.295	-0.153
-408.325	800.000	-0.022	0.085
-407.311	63.021	-0.284	-0.282
-406.296	-179.289	0.324	0.007
-405.282	-91.138	0.289	-0.082
-404.267	-93.132	-0.169	0.046
-403.252	-94.706	-0.238	-0.064
-402.238	-123.656	0.221	-0.035
-401.223	-135.801	0.103	-0.012
-400.209	444.533	0.079	-0.171
-399.194	-80.535	0.351	-0.116
-398.179	-200.000	-0.086	-0.387
-397.165	-141.646	-0.231	-0.023
-396.150	-127.462	0.232	0.033
-395.136	-107.840	0.282	0.061
-394.121	-200.000	0.008	-0.158
-393.106	243.800	0.105	0.174
-392.092	743.481	-0.032	0.085
-391.077	208.392	0.049	0.076
-390.063	-124.864	0.089	0.014
-389.048	-100.345	0.346	0.085
-388.033	-26.899	0.077	0.045
-387.019	-33.055	0.199	0.109
-386.004	723.800	-0.046	0.120
-384.990	236.397	-0.025	-0.041
-383.975	402.460	0.143	-0.298
-382.960	-143.089	-0.439	0.042
-381.946	53.514	-0.209	-0.198
-380.931	-143.586	-0.104	-0.010
-379.917	-24.589	0.280	0.165
-378.902	800.000	-0.123	0.367
-377.888	164.281	-0.207	-0.289
-376.873	800.000	-0.069	0.255
-375.858	143.282	-0.148	0.195
-374.844	-169.675	0.208	0.007
-373.829	-119.238	0.264	0.045
-372.815	43.882	0.165	0.149
-371.800	-200.000	-0.009	-0.051
-370.785	-200.000	-0.043	0.226
-369.771	-125.056	0.332	0.050
-368.756	193.132	0.237	0.353
-367.742	513.353	-0.117	0.269
-366.727	-132.832	-0.062	-0.008
-365.712	118.179	0.153	-0.186
-364.698	-144.812	0.136	0.012
-363.683	461.884	0.144	-0.317
-362.669	-200.000	0.016	0.130
-361.654	198.878	0.087	-0.131
-360.639	105.094	-0.045	0.052
-359.625	346.624	0.072	-0.140
-358.610	-200.000	-0.036	-0.217
-357.596	-200.000	0.028	0.189
-356.581	148.143	-0.132	0.176
-355.566	-36.226	-0.169	0.090
-354.552	-150.643	0.205	-0.015
-353.537	304.428	-0.040	0.074
-352.523	-127.013	0.347	-0.050
-351.508	-0.955	0.184	-0.129
-350.493	-200.000	-0.002	-0.233
-349.479	-3.155	0.185	0.128
-348.464	57.994	0.265	0.256
-347.450	188.000	-0.056	-0.083
-346.435	79.920	0.155	0.165
-345.420	-22.656	0.380	0.227
-344.406	-184.661	0.132	0.002
-343.391	-37.232	0.376	0.198
-342.377	170.639	0.051	0.072
-341.362	124.366	-0.014	0.017
-340.348	91.639	-0.036	-0.040
-339.333	199.991	0.117	-0.177
-338.318	29.252	-0.160	-0.134
-337.304	109.319	0.156	-0.184
-336.289	-200.000	-0.074	0.338
-335.275	65.454	0.177	-0.177
-334.260	-29.740	0.248	-0.140
-333.245	86.533	-0.064	0.069
-332.231	247.790	-0.173	0.288
-331.216	-66.612	-0.051	0.020
-330.202	100.994	0.106	0.122
-329.187	68.678	0.194	0.196
-328.172	-200.000	-0.043	0.268
-327.158	800.000	0.054	0.184
-326.143	-53.989	-0.096	-0.043
-325.129	800.000	0.075	0.268
-324.114	-120.590	-0.236	0.039
-323.099	656.297	-0.106	0.268
-322.085	79.122	0.149	0.157
-321.070	-23.892	0.293	-0.173
-320.056	-154.223	-0.225	-0.015
-319.041	800.000	0.075	0.231
-318.026	-200.000	-0.020	0.213
-317.012	-169.100	-0.149	0.005
-315.997	506.433	-0.119	-0.273
-314.983	63.625	0.103	0.102
-313.968	-200.000	0.004	-0.257
-312.953	-99.406	0.277	-0.069
-311.939	266.447	0.046	0.079
-310.924	314.449	-0.040	-0.075
-309.910	-74.234	0.383	-0.137
-308.895	-63.347	-0.264	-0.107
-307.880	-200.000	-0.005	0.233
-306.866	369.225	-0.068	0.135
-305.851	-73.942	-0.171	-0.061
-304.837	-200.000	-0.163	0.001
-303.822	97.169	0.106	-0.120
-302.807	19.445	-0.102	0.081
-301.793	-20.960	-0.159	-0.096
-300.778	800.000	-0.070	0.302
-299.764	22.135	0.139	-0.112
-298.749	-200.000	-0.069	0.494
-297.735	800.000	-0.024	-0.071
-296.720	-63.284	0.293	-0.119
-295.705	-200.000	-0.031	0.325
-294.691	297.445	0.109	0.197
-293.676	40.406	-0.073	0.064
-292.662	-49.364	-0.214	0.101
-291.647	166.939	0.108	0.151
-290.632	137.255	0.107	-0.138
-289.618	522.574	-0.140	0.323
-288.603	-200.000	0.001	-0.148
-287.589	0.622	-0.035	0.025
-286.574	-200.000	0.002	-0.113
-285.559	329.967	-0.127	0.241
-284.545	-9.388	-0.085	-0.056
-283.530	800.000	0.091	-0.345
-282.516	800.000	0.068	0.284
-281.501	-29.145	-0.033	0.019
-280.486	-200.000	-0.033	-0.183
-279.472	-115.850	0.100	0.018
-278.457	94.411	-0.154	-0.173
-277.443	235.462	0.058	-0.094
-276.428	800.000	0.036	0.146
-275.413	-57.611	0.177	-0.076
-274.399	136.536	0.147	-0.189
-273.384	198.359	-0.164	-0.246
-272.370	-33.050	-0.032	0.017
-271.355	55.579	-0.093	0.089
-270.340	-200.000	0.032	0.199
-269.326	800.000	0.039	0.111
-268.311	800.000	0.071	0.292
-267.297	610.073	0.090	-0.221
-266.282	-200.000	-0.005	0.090
-265.267	110.676	-0.096	-0.113
-264.253	-200.000	-0.012	-0.144
-263.238	800.000	-0.047	0.170
-262.224	800.000	0.063	-0.205
-261.209	187.059	0.080	-0.117
-260.195	800.000	0.095	0.331
-259.180	118.549	-0.180	0.218
-258.165	-32.117	-0.254	0.140
-257.151	188.942	0.206	0.303
-256.136	-101.790	0.212	0.050
-255.122	-200.000	-0.033	-0.157
-254.107	-200.000	0.051	-0.280
-253.092	-74.554	-0.251	-0.089
-252.078	800.000	-0.048	-0.142
-251.063	379.708	-0.089	-0.178
-250.049	-116.740	-0.214	-0.039
-249.034	-75.640	-0.143	-0.050
-248.019	-42.829	0.115	-0.058
-247.005	800.000	-0.020	0.079
-245.990	-53.051	-0.215	-0.097
-244.976	-156.971	-0.249	-0.015
-243.961	-7.597	0.145	-0.097
-242.946	284.133	-0.103	-0.181
-241.932	289.310	0.084	-0.151
-240.917	-200.000	-0.005	0.069
-239.903	121.382	-0.029	-0.036
-238.888	32.359	0.316	-0.268
-237.873	-58.152	-0.124	-0.053
-236.859	181.308	0.138	-0.200
-235.844	78.296	0.264	0.277
-234.830	-52.732	-0.073	-0.033
-233.815	-200.000	0.027	0.135
-232.800	-200.000	-0.017	0.301
-231.786	-172.207	-0.067	-0.002
-230.771	-200.000	-0.051	-0.279
-229.757	252.512	-0.208	-0.348
-228.742	151.889	-0.146	0.196
-227.727	-112.936	-0.298	-0.058
-226.713	-200.000	0.000	0.162
-225.698	716.232	-0.047	-0.122
-224.684	-41.209	-0.042	0.021
-223.669	-200.000	0.011	-0.104
-222.655	-200.000	0.009	0.069
-221.640	-47.928	0.237	-0.113
-220.625	-200.000	0.020	-0.361
-219.611	-200.000	0.015	-0.274
-218.596	30.981	-0.044	-0.037
-217.582	408.355	0.071	-0.148
-216.567	-200.000	0.002	-0.151
-215.552	-200.000	-0.081	0.414
-214.538	-145.729	0.078	-0.007
-213.523	-200.000	0.014	0.095
-212.509	12.871	-0.156	-0.119
-211.494	-70.337	0.337	0.125
-210.479	-113.333	0.179	0.034
-209.465	-85.952	0.052	-0.016
-208.450	-33.282	0.143	0.078
-207.436	-53.847	-0.111	0.050
-206.421	-118.388	0.090	-0.016
-205.406	-200.000	-0.045	0.424
-204.392	35.964	0.347	-0.299
-203.377	320.647	-0.139	0.259
-202.363	-200.000	0.007	0.090
-201.348	496.154	-0.106	-0.240
-200.333	132.207	0.338	-0.428
-199.319	232.980	-0.074	0.119
-198.304	389.356	0.030	-0.061
-197.290	-96.394	0.281	0.073
-196.275	73.553	-0.168	-0.173
-195.260	104.266	-0.245	-0.283
-194.246	-150.019	0.179	0.014
-193.231	800.000	0.062	0.208
-192.217	120.323	-0.139	0.170
-191.202	123.484	-0.139	0.171
-190.187	639.012	0.041	0.103
-189.173	1.195	0.210	0.148
-188.158	-32.846	0.144	0.079
-187.144	-90.817	-0.136	-0.038
-186.129	28.157	-0.281	-0.233
-185.114	27.849	0.415	-0.343
-184.100	190.583	0.244	-0.360
-183.085	59.281	-0.268	0.259
-182.071	-131.838	-0.031	-0.004
-181.056	235.424	0.225	0.364
-180.042	-95.999	0.016	-0.004
-179.027	193.135	-0.037	0.055
-178.012	-75.906	-0.168	-0.058
-176.998	140.446	0.146	-0.190
-175.983	310.959	0.140	0.257
-174.969	758.826	0.160	-0.425
-173.954	21.674	-0.106	-0.085
-172.939	-146.055	-0.284	0.025
-171.925	-107.475	-0.147	-0.032
-170.910	-200.000	0.020	0.158
-169.896	-76.495	-0.169	0.058
-168.881	-18.013	-0.118	-0.072
-167.866	-59.679	-0.145	0.061
-166.852	-69.981	-0.036	-0.014
-165.837	-23.448	0.162	-0.095
-164.823	-1.637	-0.096	0.066
-163.808	585.171	-0.219	0.529
-162.793	-129.864	0.184	0.025
-161.779	-3.007	-0.189	0.129
-160.764	-92.595	0.273	0.075
-159.750	800.000	-0.082	0.333
-158.735	-119.999	-0.181	0.030
-157.720	-77.318	0.167	0.057
-156.706	-49.423	-0.110	0.051
-155.691	-19.829	0.229	0.139
-154.677	-100.674	0.092	0.022
-153.662	-39.736	0.429	0.220
-152.647	-200.000	-0.024	-0.299
-151.633	48.299	0.282	-0.258
-150.618	262.925	0.078	-0.133
-149.604	-103.338	-0.230	0.053
-148.589	554.261	0.066	0.155
-147.574	400.688	-0.117	0.240
-146.560	-29.621	0.355	0.199
-145.545	-90.341	0.404	0.115
-144.531	-200.000	-0.039	0.358
-143.516	-200.000	-0.019	-0.088
-142.502	-76.965	0.163	-0.056
-141.487	-200.000	0.010	0.064
-140.472	-107.883	0.238	-0.051
-139.458	87.740	-0.167	-0.181
-138.443	517.157	0.041	0.093
-137.429	-200.000	-0.051	-0.233
-136.414	-0.201	0.196	-0.136
-135.399	-200.000	0.074	0.405
-134.385	800.000	0.045	0.128
-133.370	628.147	0.174	-0.430
-132.356	163.879	-0.183	0.252
-131.341	83.430	-0.092	-0.099
-130.326	-135.267	0.155	0.018
-129.312	192.656	0.106	0.157
-128.297	405.931	0.147	-0.303
-127.283	99.429	0.096	-0.109
-126.268	37.882	-0.073	-0.063
-125.253	0.743	0.195	0.136
-124.239	-110.750	-0.072	-0.015
-123.224	22.521	-0.180	0.144
-122.210	-115.042	0.158	-0.029
-121.195	249.260	-0.087	0.145
