DTS Sentinel unit serial number:	SN413079Multiplexer serial number:	ORYXHardware model number:	OX4-SRSoftware version number:	ORYX F/W v4.00 Oryx Data Collector v3.7.2.0data status	okinstallation	princeton_trtdifferential loss correction	single-endedforward channel	channel 1reverse channel	N/Adate	2019/09/13time	04:26:35forward acquisition time	60.00reverse acquisition time	0.00gamma	496.2192k internal	0.2334k external	0.2334temperature offset calibration	1.0156default loss term (dB/km)	0.3790temperature slope calibration	1.0000multiplexer offset coefficient	1.0000multiplexer slope coefficient	1.0000fibre end	0.00T internal ref (°C)	26.75T ext. ref 1 (°C)	4.04T ext. ref 2 (°C)	21.17length (m)	temperature (°C)	Stokes	anti-Stokes-747.200	800.000	-0.041	0.147
-746.185	-127.760	0.333	-0.048
-745.171	-46.450	0.223	0.110
-744.156	-5.453	0.201	0.139
-743.142	79.778	-0.141	0.152
-742.127	281.475	-0.077	0.139
-741.112	-119.658	0.304	0.053
-740.098	-200.000	0.069	-0.324
-739.083	293.022	-0.100	0.183
-738.069	113.207	0.095	-0.115
-737.054	345.363	0.090	0.178
-736.039	152.908	-0.103	0.141
-735.025	115.503	0.186	-0.228
-734.010	800.000	-0.044	-0.175
-732.996	78.204	0.280	-0.300
-731.981	47.966	-0.140	-0.131
-730.966	-51.656	-0.178	-0.084
-729.952	24.873	0.365	-0.304
-728.937	5.672	-0.387	-0.287
-727.923	800.000	0.020	0.056
-726.908	-200.000	-0.050	-0.351
-725.894	-36.233	-0.303	-0.164
-724.879	-104.841	0.103	0.024
-723.864	-200.000	-0.000	-0.227
-722.850	-200.000	-0.047	0.353
-721.835	782.439	-0.062	-0.171
-720.821	-200.000	-0.055	0.270
-719.806	-200.000	0.001	-0.267
-718.791	606.285	-0.020	-0.050
-717.777	800.000	-0.045	0.168
-716.762	133.128	-0.047	-0.061
-715.748	313.112	0.054	0.102
-714.733	800.000	-0.031	-0.095
-713.718	-59.257	0.138	-0.060
-712.704	-36.801	-0.308	0.166
-711.689	0.935	0.246	0.177
-710.675	-131.768	0.150	-0.020
-709.660	-200.000	-0.022	-0.164
-708.645	-83.382	0.382	0.123
-707.631	-171.455	0.185	0.006
-706.616	422.704	-0.170	-0.365
-705.602	-200.000	0.003	-0.164
-704.587	-200.000	0.031	0.181
-703.572	-200.000	0.004	0.026
-702.558	-120.962	0.148	0.025
-701.543	426.646	0.097	0.210
-700.529	223.665	0.220	0.356
-699.514	-54.887	0.049	0.022
-698.499	199.726	0.111	-0.170
-697.485	-108.860	0.526	0.113
-696.470	-200.000	0.005	-0.115
-695.456	29.872	0.131	-0.112
-694.441	-64.250	0.120	0.049
-693.426	40.889	0.163	-0.148
-692.412	800.000	-0.025	-0.102
-691.397	174.967	-0.218	0.317
-690.383	648.963	-0.062	0.159
-689.368	110.302	0.188	0.226
-688.354	140.078	-0.061	-0.080
-687.339	-200.000	0.055	-0.494
-686.324	-121.891	0.119	0.020
-685.310	-32.369	0.097	-0.054
-684.295	-19.279	-0.258	-0.161
-683.281	494.448	0.101	-0.232
-682.266	20.712	-0.087	0.071
-681.251	800.000	-0.056	-0.195
-680.237	-89.387	-0.337	0.099
-679.222	490.304	0.045	-0.104
-678.208	57.284	-0.235	-0.230
-677.193	-70.627	-0.293	0.111
-676.178	33.526	0.074	-0.064
-675.164	-8.330	0.211	-0.142
-674.149	-89.029	-0.375	0.111
-673.135	-200.000	0.033	-0.156
-672.120	-116.375	0.147	0.027
-671.105	-200.000	0.009	0.120
-670.091	185.385	0.059	0.088
-669.076	-91.897	0.218	-0.062
-668.062	-110.302	-0.335	0.070
-667.047	164.185	0.164	-0.231
-666.032	-163.380	0.277	-0.013
-665.018	221.397	-0.094	-0.151
-664.003	356.856	0.215	-0.430
-662.989	-64.233	0.359	-0.147
-661.974	-109.736	-0.241	-0.051
-660.959	-98.328	-0.122	0.031
-659.945	402.530	-0.054	0.114
-658.930	-101.554	0.224	-0.055
-657.916	29.183	-0.245	0.208
-656.901	-200.000	-0.010	0.170
-655.886	-53.402	0.234	0.107
-654.872	-146.355	-0.226	0.020
-653.857	-25.091	-0.159	-0.095
-652.843	-88.079	0.131	-0.039
-651.828	-200.000	0.013	0.290
-650.814	10.658	0.090	0.069
-649.799	110.163	0.155	0.186
-648.784	-117.803	-0.235	-0.042
-647.770	-112.402	0.174	0.035
-646.755	-9.489	-0.106	-0.071
-645.741	-111.370	-0.367	-0.075
-644.726	-93.033	-0.268	-0.075
-643.711	358.970	-0.021	-0.042
-642.697	-53.098	-0.188	-0.086
-641.682	531.889	-0.070	0.167
-640.668	-120.108	0.287	-0.049
-639.653	29.988	-0.141	-0.120
-638.638	-95.769	-0.326	0.087
-637.624	-200.000	0.074	-0.396
-636.609	800.000	0.015	-0.063
-635.595	290.273	-0.115	-0.208
-634.580	127.557	0.155	0.197
-633.565	461.941	-0.107	0.239
-632.551	-48.694	-0.108	-0.052
-631.536	205.265	0.090	-0.140
-630.522	-200.000	0.023	-0.118
-629.507	3.827	-0.117	-0.086
-628.492	-200.000	-0.001	0.110
-627.478	250.901	-0.146	-0.248
-626.463	800.000	0.036	0.125
-625.449	-77.173	0.157	0.055
-624.434	800.000	-0.122	-0.361
-623.419	-200.000	0.014	0.114
-622.405	800.000	-0.045	0.153
-621.390	63.526	0.175	0.175
-620.376	186.000	0.114	-0.169
-619.361	10.461	0.271	0.207
-618.346	279.249	-0.096	-0.172
-617.332	24.832	0.143	0.118
-616.317	-102.837	-0.209	-0.050
-615.303	-200.000	0.026	-0.142
-614.288	223.682	0.230	-0.371
-613.273	620.659	-0.151	0.380
-612.259	-92.168	0.247	0.070
-611.244	-148.428	-0.324	0.027
-610.230	157.708	0.043	-0.060
-609.215	-37.424	0.141	-0.075
-608.201	3.646	0.181	0.132
-607.186	280.857	-0.143	-0.256
-606.171	10.004	-0.134	0.102
-605.157	-195.582	0.279	0.002
-604.142	-200.000	0.043	0.194
-603.128	153.603	-0.094	-0.128
-602.113	800.000	0.029	-0.117
-601.098	37.266	0.069	-0.061
-600.084	16.967	-0.070	-0.055
-599.069	11.656	0.299	-0.229
-598.055	-200.000	0.028	-0.149
-597.040	511.515	-0.057	-0.133
-596.025	31.434	0.117	-0.100
-595.011	-200.000	-0.006	-0.044
-593.996	-154.698	0.200	0.013
-592.982	-192.223	0.191	-0.002
-591.967	-200.000	0.008	-0.080
-590.952	-200.000	-0.014	0.110
-589.938	25.346	0.342	-0.284
-588.923	800.000	0.020	-0.074
-587.909	-165.115	0.243	0.011
-586.894	-18.238	0.136	-0.085
-585.879	66.812	-0.207	-0.210
-584.865	-92.968	0.209	-0.058
-583.850	-18.395	-0.064	-0.040
-582.836	58.457	0.079	0.077
-581.821	-200.000	0.009	-0.107
-580.806	241.904	-0.066	-0.111
-579.792	-200.000	-0.015	-0.153
-578.777	93.380	0.214	-0.241
-577.763	186.927	0.221	0.329
-576.748	113.490	-0.113	0.137
-575.733	-200.000	0.026	0.154
-574.719	-98.286	-0.117	0.030
-573.704	800.000	0.084	0.342
-572.690	-35.251	-0.206	-0.112
-571.675	307.872	0.037	-0.069
-570.661	549.466	-0.049	0.118
-569.646	-10.533	0.130	0.086
-568.631	-8.161	0.296	0.199
-567.617	129.277	0.067	-0.086
-566.602	-82.596	0.158	-0.051
-565.588	49.546	0.118	0.111
-564.573	30.062	-0.131	0.112
-563.558	-200.000	-0.014	0.279
-562.544	391.331	0.099	0.205
-561.529	48.830	0.108	-0.101
-560.515	-145.479	-0.170	0.015
-559.500	21.447	-0.305	0.247
-558.485	98.318	0.205	-0.236
-557.471	-102.462	-0.118	0.028
-556.456	43.263	0.079	0.072
-555.442	-107.597	-0.370	0.081
-554.427	-200.000	-0.005	0.046
-553.412	139.578	-0.133	0.174
-552.398	-200.000	0.011	-0.080
-551.383	-200.000	0.016	0.253
-550.369	68.452	0.141	0.145
-549.354	-29.159	0.123	0.071
-548.339	151.307	0.212	0.288
-547.325	-184.425	-0.188	0.003
-546.310	23.279	0.184	0.150
-545.296	-31.349	-0.316	0.178
-544.281	2.987	0.353	-0.256
-543.266	627.699	0.040	0.100
-542.252	17.097	0.164	0.130
-541.237	-200.000	0.005	-0.176
-540.223	-200.000	-0.007	-0.096
-539.208	-200.000	-0.026	-0.219
-538.193	-122.688	0.382	-0.062
-537.179	-200.000	-0.013	0.130
-536.164	426.649	-0.033	-0.071
-535.150	348.118	-0.076	-0.149
-534.135	151.061	-0.134	0.182
-533.121	-77.736	0.123	0.042
-532.106	391.371	-0.078	0.161
-531.091	34.311	-0.043	0.037
-530.077	-145.049	-0.224	-0.020
-529.062	281.819	-0.028	-0.049
-528.048	53.696	-0.133	0.127
-527.033	-200.000	0.054	0.400
-526.018	-200.000	-0.018	-0.305
-525.004	800.000	-0.073	0.208
-523.989	-200.000	-0.014	-0.098
-522.975	-43.056	0.164	0.083
-521.960	140.944	-0.080	-0.106
-520.945	103.240	0.154	-0.180
-519.931	-119.529	-0.078	0.013
-518.916	-90.944	0.146	0.042
-517.902	-200.000	0.012	-0.285
-516.887	311.450	-0.152	0.284
-515.872	-117.599	-0.245	0.044
-514.858	-200.000	-0.008	0.038
-513.843	12.992	-0.024	-0.019
-512.829	-131.972	0.227	-0.029
-511.814	-111.752	0.161	-0.032
-510.799	-55.044	-0.206	0.092
-509.785	5.731	-0.243	0.179
-508.770	-57.399	-0.168	-0.073
-507.756	123.059	-0.158	0.196
-506.741	-200.000	0.005	-0.441
-505.726	161.413	0.062	-0.086
-504.712	-61.926	-0.159	-0.066
-503.697	-200.000	0.000	-0.245
-502.683	-93.879	0.333	-0.091
-501.668	-200.000	-0.081	0.402
-500.653	800.000	-0.061	0.222
-499.639	56.821	-0.116	0.112
-498.624	-200.000	0.011	0.083
-497.610	-20.912	-0.184	0.112
-496.595	59.621	0.196	0.193
-495.581	375.501	-0.107	-0.218
-494.566	-200.000	-0.013	-0.079
-493.551	177.547	0.132	-0.191
-492.537	800.000	-0.030	0.109
-491.522	36.231	-0.099	0.086
-490.508	800.000	-0.105	0.338
-489.493	-88.242	0.189	-0.056
-488.478	-0.806	-0.211	-0.148
-487.464	-90.893	-0.081	-0.023
-486.449	110.043	-0.117	0.139
-485.435	340.802	0.103	0.201
-484.420	-62.275	-0.146	0.061
-483.405	-176.439	-0.053	-0.001
-482.391	514.860	0.035	-0.081
-481.376	-103.656	-0.309	-0.072
-480.362	-133.652	0.234	-0.029
-479.347	371.371	-0.104	0.209
-478.332	296.920	-0.244	0.445
-477.318	-4.853	-0.394	0.270
-476.303	-179.640	0.325	-0.007
-475.289	-200.000	-0.003	0.023
-474.274	800.000	-0.079	0.222
-473.259	118.955	-0.125	-0.154
-472.245	199.258	0.021	0.031
-471.230	-200.000	0.022	0.296
-470.216	-103.122	0.229	-0.054
-469.201	-200.000	-0.018	0.266
-468.186	104.146	-0.195	-0.228
-467.172	-21.113	0.211	-0.129
-466.157	495.175	0.084	0.192
-465.143	135.500	0.192	-0.249
-464.128	-81.648	-0.193	0.063
-463.113	203.158	-0.135	-0.208
-462.099	-121.650	0.081	-0.013
-461.084	-200.000	-0.044	-0.267
-460.070	-81.756	0.151	0.049
-459.055	-112.197	-0.142	-0.028
-458.040	-86.031	-0.343	0.105
-457.026	-200.000	0.006	0.190
-456.011	-200.000	-0.075	-0.338
-454.997	-109.024	-0.298	0.063
-453.982	-200.000	-0.019	0.150
-452.968	522.882	0.068	-0.158
-451.953	-139.114	0.067	0.007
-450.938	52.209	-0.238	0.226
-449.924	68.899	-0.053	-0.054
-448.909	22.188	0.359	0.291
-447.895	24.337	0.209	0.172
-446.880	-115.355	-0.237	0.044
-445.865	-87.539	-0.122	0.037
-444.851	317.492	-0.121	-0.227
-443.836	22.034	0.169	-0.137
-442.822	369.769	0.025	0.051
-441.807	-89.178	-0.156	-0.046
-440.792	39.399	0.284	0.253
-439.778	130.178	0.198	0.251
-438.763	334.739	0.080	0.153
-437.749	-200.000	-0.016	0.144
-436.734	480.263	0.114	0.256
-435.719	211.710	0.056	0.087
-434.705	356.521	0.181	-0.357
-433.690	-150.434	-0.341	-0.026
-432.676	-165.466	0.264	-0.011
-431.661	-90.111	-0.287	0.083
-430.646	800.000	-0.026	-0.086
-429.632	-65.793	-0.067	0.027
-428.617	638.399	-0.062	-0.156
-427.603	-30.426	0.379	-0.213
-426.588	-63.934	-0.118	-0.048
-425.573	-12.368	0.166	-0.108
-424.559	-200.000	0.038	0.238
-423.544	138.931	-0.098	-0.127
-422.530	578.736	0.018	-0.044
-421.515	800.000	-0.067	0.213
-420.500	431.778	-0.068	-0.146
-419.486	800.000	0.162	-0.591
-418.471	-120.110	-0.107	0.018
-417.457	-12.970	0.138	0.089
-416.442	64.565	0.263	0.263
-415.428	39.330	-0.108	0.096
-414.413	235.773	0.080	0.131
-413.398	-200.000	0.084	-0.397
-412.384	-111.777	0.320	0.064
-411.369	527.483	-0.096	-0.225
-410.355	443.440	-0.106	-0.231
-409.340	324.517	-0.019	0.036
-408.325	-200.000	-0.011	-0.239
-407.311	257.846	-0.074	-0.127
-406.296	254.153	0.019	0.032
-405.282	-149.108	0.223	0.018
-404.267	-200.000	-0.008	-0.091
-403.252	-77.717	0.170	-0.058
-402.238	-99.338	0.231	0.058
-401.223	800.000	-0.071	-0.256
-400.209	-200.000	-0.034	-0.212
-399.194	97.012	-0.123	0.140
-398.179	800.000	-0.084	0.230
-397.165	-44.187	-0.291	-0.145
-396.150	-200.000	-0.051	0.257
-395.136	-16.107	-0.095	0.060
-394.121	-200.000	0.094	-0.435
-393.106	66.321	-0.027	-0.027
-392.092	-93.385	-0.198	-0.055
-391.077	235.578	-0.086	0.140
-390.063	-185.839	0.113	-0.002
-389.048	-166.807	-0.201	-0.008
-388.033	-200.000	0.005	0.034
-387.019	100.234	0.229	-0.263
-386.004	393.247	-0.050	-0.104
-384.990	-9.771	0.057	0.037
-383.975	221.305	0.209	0.332
-382.960	-200.000	-0.009	-0.054
-381.946	-109.940	-0.360	0.075
-380.931	-200.000	0.004	-0.032
-379.917	-13.081	0.196	0.126
-378.902	-200.000	-0.044	0.304
-377.888	-200.000	-0.043	-0.225
-376.873	142.630	-0.073	0.096
-375.858	-106.158	0.084	-0.019
-374.844	-200.000	-0.018	-0.310
-373.829	-200.000	0.013	-0.100
-372.815	171.956	0.098	-0.139
-371.800	-82.513	-0.165	-0.053
-370.785	-52.284	-0.122	0.056
-369.771	-200.000	0.029	0.389
-368.756	-141.955	0.180	0.018
-367.742	800.000	-0.045	0.194
-366.727	800.000	0.038	0.137
-365.712	-200.000	-0.023	0.129
-364.698	-200.000	0.002	-0.082
-363.683	-160.644	-0.275	0.015
-362.669	-69.400	0.232	0.088
-361.654	-122.622	-0.345	0.055
-360.639	-200.000	0.011	-0.068
-359.625	-200.000	0.024	-0.125
-358.610	-155.757	-0.081	0.005
-357.596	-88.962	0.198	-0.058
-356.581	-67.534	0.234	-0.091
-355.566	-200.000	-0.011	-0.063
-354.552	-44.697	0.317	-0.157
-353.537	58.152	0.060	-0.058
-352.523	102.614	-0.240	-0.278
-351.508	240.818	-0.113	-0.186
-350.493	-200.000	-0.032	0.297
-349.479	-97.411	-0.274	0.070
-348.464	800.000	0.032	-0.133
-347.450	38.472	-0.140	-0.124
-346.435	163.844	-0.121	0.169
-345.420	47.371	0.112	-0.103
-344.406	8.650	0.017	-0.012
-343.391	172.251	0.084	-0.120
-342.377	800.000	-0.067	-0.239
-341.362	186.043	0.148	0.218
-340.348	8.927	0.202	0.151
-339.333	-194.348	0.162	0.001
-338.318	-114.786	-0.279	0.053
-337.304	-179.441	0.340	0.007
-336.289	780.179	-0.072	0.196
-335.275	520.424	-0.144	-0.335
-334.260	-95.704	-0.458	-0.121
-333.245	-200.000	-0.049	0.330
-332.231	-115.627	0.212	0.039
-331.216	-86.218	-0.099	0.030
-330.202	17.038	-0.073	0.057
-329.187	-200.000	0.028	0.125
-328.172	-200.000	0.019	-0.139
-327.158	-151.486	0.322	-0.024
-326.143	207.215	0.075	-0.115
-325.129	7.168	-0.165	0.122
-324.114	800.000	-0.096	0.367
-323.099	-109.232	-0.362	0.076
-322.085	-24.779	0.123	0.073
-321.070	-73.857	0.157	0.056
-320.056	52.850	0.053	-0.050
-319.041	-157.764	0.367	-0.022
-318.026	695.990	0.071	-0.185
-317.012	-2.476	0.144	-0.100
-315.997	13.387	0.309	0.237
-314.983	115.709	-0.100	0.121
-313.968	392.053	0.080	0.165
-312.953	-133.944	-0.340	0.042
-311.939	-83.255	-0.391	-0.124
-310.924	-119.943	0.145	0.025
-309.910	-106.192	-0.166	-0.037
-308.895	-159.551	-0.208	0.011
-307.880	-3.507	-0.158	-0.109
-306.866	800.000	0.028	0.116
-305.851	-154.067	-0.220	-0.015
-304.837	800.000	-0.057	-0.164
-303.822	-200.000	-0.007	-0.153
-302.807	-200.000	-0.013	0.073
-301.793	-49.475	-0.271	0.128
-300.778	-59.185	-0.101	-0.043
-299.764	148.468	0.173	-0.230
-298.749	113.674	-0.029	-0.035
-297.735	-7.118	-0.257	0.172
-296.720	-54.907	-0.326	0.145
-295.705	97.637	-0.195	-0.221
-294.691	-129.866	0.269	-0.036
-293.676	510.299	0.076	-0.175
-292.662	-174.815	-0.289	-0.008
-291.647	604.087	0.055	-0.135
-290.632	102.240	-0.173	-0.199
-289.618	-87.279	-0.085	0.026
-288.603	-54.723	0.109	-0.048
-287.589	82.570	0.283	-0.304
-286.574	213.192	-0.089	0.138
-285.559	800.000	0.126	-0.395
-284.545	104.915	-0.099	0.115
-283.530	-32.799	-0.139	0.076
-282.516	-157.044	0.205	-0.012
-281.501	-103.406	0.572	-0.133
-280.486	-64.503	0.249	-0.100
-279.472	-200.000	-0.013	-0.183
-278.457	332.611	0.142	0.271
-277.443	-200.000	-0.041	-0.230
-276.428	481.971	0.077	0.172
-275.413	76.220	0.178	-0.186
-274.399	360.480	0.046	-0.090
-273.384	-117.008	-0.202	-0.036
-272.370	-15.506	-0.261	0.165
-271.355	-200.000	-0.006	0.044
-270.340	-31.493	0.176	-0.097
-269.326	-200.000	0.032	-0.297
-268.311	800.000	0.012	0.050
-267.297	193.521	-0.128	0.190
-266.282	-200.000	0.022	-0.139
-265.267	553.373	-0.073	0.172
-264.253	-73.244	-0.207	-0.075
-263.238	-200.000	0.002	-0.321
-262.224	250.740	-0.177	-0.297
-261.209	-200.000	-0.021	-0.167
-260.195	-200.000	0.048	0.351
-259.180	-8.700	0.144	-0.095
-258.165	-21.355	-0.142	0.086
-257.151	-200.000	-0.026	0.174
-256.136	70.277	-0.274	0.279
-255.122	757.925	-0.131	0.349
-254.107	-200.000	0.031	-0.314
-253.092	38.884	-0.225	-0.198
-252.078	-53.822	-0.137	-0.062
-251.063	-200.000	-0.021	0.156
-250.049	-38.404	-0.151	-0.079
-249.034	469.567	-0.142	0.315
-248.019	-92.637	0.210	0.058
-247.005	800.000	0.124	0.400
-245.990	318.770	0.022	-0.041
-244.976	15.563	0.069	-0.053
-243.961	-92.479	-0.307	-0.085
-242.946	327.141	0.138	0.261
-241.932	-195.573	0.180	0.001
-240.917	-200.000	-0.003	-0.288
-239.903	-200.000	0.001	-0.339
-238.888	76.946	-0.139	-0.145
-237.873	-15.774	0.228	-0.143
-236.859	-159.252	0.248	0.014
-235.844	405.806	0.103	-0.214
-234.830	770.581	-0.063	-0.170
-233.815	-200.000	-0.066	-0.489
-232.800	366.550	0.039	-0.077
-231.786	-90.079	0.245	-0.070
-230.771	800.000	-0.090	0.335
-229.757	-28.877	0.209	-0.118
-228.742	800.000	-0.153	-0.451
-227.727	-116.474	-0.337	-0.061
-226.713	-137.609	0.099	0.011
-225.698	-111.674	-0.124	-0.025
-224.684	-137.169	0.292	0.033
-223.669	-66.648	-0.391	0.153
-222.655	-64.354	-0.248	-0.099
-221.640	222.551	0.195	0.309
-220.625	800.000	-0.080	-0.225
-219.611	-24.145	0.190	0.112
-218.596	5.679	0.191	0.139
-217.582	800.000	0.078	-0.267
-216.567	163.478	-0.192	-0.265
-215.552	800.000	-0.074	0.211
-214.538	5.226	-0.060	-0.044
-213.523	-19.446	0.230	0.140
-212.509	-178.113	-0.251	-0.006
-211.494	-39.323	-0.242	0.125
-210.479	-57.494	-0.115	-0.050
-209.465	100.006	-0.185	-0.211
-208.450	-95.772	0.241	0.063
-207.436	-200.000	0.019	0.196
-206.421	800.000	0.087	0.242
-205.406	-200.000	0.027	-0.161
-204.392	-89.570	-0.062	-0.018
-203.377	-22.742	0.072	-0.043
-202.363	254.417	-0.152	0.257
-201.348	157.711	-0.161	-0.220
-200.333	-106.871	0.257	-0.056
-199.319	-96.144	0.190	0.050
-198.304	138.839	-0.152	0.196
-197.290	429.510	-0.141	0.299
-196.275	156.010	0.027	-0.037
-195.260	348.432	0.042	0.082
-194.246	3.803	0.392	-0.282
-193.231	-130.006	0.333	-0.045
-192.217	336.851	0.093	-0.178
-191.202	469.997	0.030	0.067
-190.187	767.546	-0.030	0.080
-189.173	204.671	0.104	-0.159
-188.158	22.726	-0.130	-0.105
-187.144	64.780	0.079	-0.078
-186.129	-83.049	0.133	-0.042
-185.114	-200.000	0.024	0.273
-184.100	288.509	-0.089	-0.159
-183.085	224.635	0.219	-0.348
-182.071	-42.333	0.137	0.069
-181.056	-200.000	0.063	-0.343
-180.042	125.421	-0.258	0.320
-179.027	-4.161	-0.286	-0.195
-178.012	68.232	0.122	-0.123
-176.998	-121.849	-0.119	-0.019
-175.983	21.273	0.319	0.254
-174.969	800.000	-0.017	0.053
-173.954	-43.926	0.105	-0.052
-172.939	37.848	-0.138	0.120
-171.925	-200.000	0.035	0.213
-170.910	-53.385	0.056	-0.025
-169.896	-200.000	-0.001	0.236
-168.881	-153.522	-0.218	0.015
-167.866	800.000	-0.100	0.320
-166.852	-200.000	0.039	-0.232
-165.837	76.419	0.136	-0.141
-164.823	-60.387	0.244	0.102
-163.808	343.043	0.135	0.259
-162.793	800.000	0.016	0.062
-161.779	-75.445	0.300	0.105
-160.764	-200.000	0.052	0.259
-159.750	589.507	0.093	-0.225
-158.735	-9.810	0.251	-0.164
-157.720	-200.000	0.004	0.208
-156.706	800.000	0.066	0.246
-155.691	-200.000	0.002	0.195
-154.677	-11.493	-0.241	-0.156
-153.662	140.490	0.120	0.156
-152.647	-200.000	-0.048	0.358
-151.633	-56.680	-0.212	0.092
-150.618	-200.000	0.006	-0.082
-149.604	216.662	0.127	-0.198
-148.589	-82.256	-0.137	-0.044
-147.574	16.166	-0.232	-0.179
-146.560	542.556	-0.067	-0.158
-145.545	275.885	0.022	-0.038
-144.531	366.738	-0.072	0.143
-143.516	38.491	0.168	-0.147
-142.502	-48.659	0.097	0.046
-141.487	-109.237	0.178	-0.037
-140.472	800.000	0.082	0.233
-139.458	-88.735	0.230	-0.067
-138.443	-139.429	0.558	-0.059
-137.429	-77.416	-0.252	0.086
-136.414	-55.596	-0.049	-0.022
-135.399	-117.628	-0.056	-0.010
-134.385	-121.607	0.111	-0.018
-133.370	-89.522	0.065	-0.019
-132.356	-16.958	-0.347	-0.215
-131.341	-125.349	0.156	0.023
-130.326	800.000	-0.036	-0.152
-129.312	-15.888	0.295	-0.184
-128.297	-1.181	0.114	0.079
-127.283	84.098	0.130	0.139
-126.268	-146.139	0.370	-0.032
-125.253	479.538	-0.118	-0.262
-124.239	147.262	0.161	-0.213
-123.224	-161.530	0.179	0.009
-122.210	23.456	-0.104	-0.084
