DTS Sentinel unit serial number:	SN413079Multiplexer serial number:	ORYXHardware model number:	OX4-SRSoftware version number:	ORYX F/W v4.00 Oryx Data Collector v3.7.2.0data status	okinstallation	princeton_trtdifferential loss correction	single-endedforward channel	channel 1reverse channel	N/Adate	2019/09/14time	21:54:35forward acquisition time	60.00reverse acquisition time	0.00gamma	496.2192k internal	0.2318k external	0.2318temperature offset calibration	1.0008default loss term (dB/km)	0.3790temperature slope calibration	1.0000multiplexer offset coefficient	1.0000multiplexer slope coefficient	1.0000fibre end	0.00T internal ref (°C)	32.72T ext. ref 1 (°C)	4.70T ext. ref 2 (°C)	27.70length (m)	temperature (°C)	Stokes	anti-Stokes-747.200	-39.166	-0.201	0.107
-746.185	-200.000	0.023	0.169
-745.171	-200.000	0.024	-0.114
-744.156	-66.014	-0.351	-0.142
-743.142	149.444	-0.134	-0.184
-742.127	-151.784	-0.265	0.020
-741.112	-45.948	-0.288	-0.144
-740.098	157.192	-0.259	0.363
-739.083	83.944	-0.104	-0.115
-738.069	549.677	-0.069	-0.166
-737.054	-200.000	0.007	-0.065
-736.039	99.476	-0.210	-0.245
-735.025	800.000	0.116	0.332
-734.010	106.053	0.089	0.106
-732.996	-41.268	-0.127	-0.066
-731.981	281.778	-0.162	-0.294
-730.966	-36.448	-0.101	-0.055
-729.952	-145.323	-0.144	0.013
-728.937	-52.709	-0.301	-0.140
-727.923	-200.000	0.029	-0.154
-726.908	150.966	0.055	0.076
-725.894	181.646	0.114	0.170
-724.879	-68.437	-0.275	0.108
-723.864	-200.000	0.006	0.136
-722.850	-139.393	-0.286	-0.031
-721.835	35.067	0.112	0.099
-720.821	-169.507	-0.231	0.009
-719.806	-200.000	-0.063	0.283
-718.791	69.079	-0.292	0.303
-717.777	-75.316	-0.075	0.027
-716.762	-62.169	0.268	0.113
-715.748	-3.552	-0.285	0.201
-714.733	800.000	-0.028	-0.095
-713.718	-200.000	0.096	0.448
-712.704	-50.424	0.064	0.030
-711.689	119.115	0.174	0.218
-710.675	-80.813	-0.386	-0.130
-709.660	800.000	-0.059	-0.189
-708.645	-74.602	-0.374	-0.136
-707.631	-80.968	-0.077	-0.026
-706.616	-95.866	0.166	0.045
-705.602	47.224	-0.147	0.138
-704.587	124.236	-0.116	-0.147
-703.572	-134.089	-0.243	0.030
-702.558	468.045	0.132	0.298
-701.543	184.867	0.055	0.082
-700.529	11.696	-0.102	0.079
-699.514	800.000	0.036	0.102
-698.499	53.883	-0.227	-0.221
-697.485	-134.979	0.227	-0.028
-696.470	-56.740	-0.198	0.089
-695.456	-200.000	0.017	-0.303
-694.441	-200.000	-0.024	-0.402
-693.426	3.406	-0.128	0.094
-692.412	-48.835	0.302	0.146
-691.397	-200.000	-0.030	0.143
-690.383	-22.497	-0.263	0.161
-689.368	800.000	0.049	-0.150
-688.354	-200.000	0.029	-0.209
-687.339	-58.018	0.190	-0.084
-686.324	-30.628	0.309	0.177
-685.310	-6.848	-0.255	0.175
-684.295	52.190	-0.095	-0.091
-683.281	23.502	0.202	0.168
-682.266	197.416	0.072	-0.110
-681.251	71.551	-0.115	0.120
-680.237	-20.969	0.323	0.200
-679.222	800.000	0.110	0.310
-678.208	-54.885	0.437	-0.199
-677.193	-10.414	0.061	-0.041
-676.178	-74.978	0.510	-0.184
-675.164	-136.693	0.355	0.041
-674.149	-200.000	0.044	0.384
-673.135	58.760	0.127	0.126
-672.120	60.701	0.099	0.099
-671.105	733.576	-0.095	-0.256
-670.091	289.361	0.044	0.080
-669.076	-200.000	0.036	-0.272
-668.062	-200.000	-0.011	0.131
-667.047	800.000	-0.070	0.274
-666.032	-93.225	0.230	-0.065
-665.018	800.000	-0.112	0.357
-664.003	-39.792	0.402	-0.212
-662.989	-200.000	-0.000	-0.270
-661.974	-200.000	0.004	-0.133
-660.959	-200.000	0.061	-0.353
-659.945	-151.574	-0.196	0.015
-658.930	435.152	0.128	-0.281
-657.916	-200.000	0.001	-0.088
-656.901	54.310	0.145	0.140
-655.886	-143.974	-0.201	0.019
-654.872	-131.843	-0.167	0.022
-653.857	480.749	0.103	-0.236
-652.843	5.504	-0.372	0.277
-651.828	-144.659	-0.267	-0.025
-650.814	-93.931	0.208	0.058
-649.799	-170.306	0.120	-0.004
-648.784	-131.441	-0.273	0.036
-647.770	235.476	-0.039	0.066
-646.755	315.360	-0.151	0.287
-645.741	-200.000	0.023	0.112
-644.726	-88.671	-0.359	-0.108
-643.711	334.720	0.020	0.038
-642.697	162.892	0.133	0.188
-641.682	-53.420	0.417	0.192
-640.668	-85.925	0.056	0.017
-639.653	42.596	-0.047	-0.043
-638.638	64.625	-0.049	-0.050
-637.624	507.112	-0.180	0.420
-636.609	-41.447	-0.342	-0.177
-635.595	-71.369	-0.230	0.087
-634.580	-115.254	0.067	-0.013
-633.565	-200.000	-0.000	0.054
-632.551	228.965	-0.058	-0.095
-631.536	267.028	0.023	0.041
-630.522	-200.000	-0.024	0.349
-629.507	-200.000	-0.004	-0.046
-628.492	-21.281	0.262	0.161
-627.478	5.176	0.215	-0.160
-626.463	-49.808	0.276	-0.132
-625.449	-92.017	-0.102	-0.029
-624.434	741.481	0.046	0.126
-623.419	41.004	-0.169	0.154
-622.405	-5.494	-0.270	-0.186
-621.390	-157.888	-0.141	-0.008
-620.376	800.000	0.111	-0.316
-619.361	317.842	-0.091	-0.173
-618.346	-3.457	-0.192	-0.135
-617.332	387.002	-0.107	0.223
-616.317	97.956	0.136	-0.157
-615.303	-94.104	-0.180	-0.050
-614.288	-7.124	-0.112	-0.076
-613.273	46.194	-0.281	0.262
-612.259	26.301	0.152	-0.128
-611.244	-200.000	0.006	0.295
-610.230	-84.405	-0.267	0.085
-609.215	76.112	0.317	0.337
-608.201	644.455	0.122	-0.314
-607.186	-129.256	0.134	0.019
-606.171	30.845	0.155	0.134
-605.157	-200.000	0.032	-0.160
-604.142	800.000	0.150	-0.437
-603.128	155.931	0.047	-0.065
-602.113	-200.000	0.051	-0.245
-601.098	-118.518	-0.282	-0.050
-600.084	-116.438	-0.392	-0.073
-599.069	158.181	-0.354	-0.494
-598.055	97.988	0.061	-0.070
-597.040	-133.390	0.508	-0.064
-596.025	416.047	0.093	0.199
-595.011	-35.425	-0.069	0.037
-593.996	-10.997	0.078	-0.051
-592.982	69.854	-0.151	-0.157
-591.967	-151.689	-0.358	-0.027
-590.952	-63.421	0.173	0.071
-589.938	800.000	-0.100	-0.289
-588.923	295.366	-0.036	-0.067
-587.909	-200.000	-0.040	-0.287
-586.894	134.126	-0.119	-0.155
-585.879	199.700	0.115	0.178
-584.865	-8.452	-0.239	0.162
-583.850	800.000	-0.044	-0.137
-582.836	-46.326	0.291	0.144
-581.821	3.970	-0.096	-0.071
-580.806	2.794	0.160	-0.117
-579.792	800.000	-0.065	0.215
-578.777	-172.620	0.458	-0.015
-577.763	-45.159	0.196	0.098
-576.748	-66.805	0.147	-0.059
-575.733	197.027	0.060	-0.091
-574.719	82.285	-0.154	0.168
-573.704	-200.000	0.044	-0.244
-572.690	-25.780	-0.142	-0.084
-571.675	168.345	0.059	0.084
-570.661	-200.000	-0.025	0.184
-569.646	-160.279	0.144	0.008
-568.631	24.278	-0.090	0.075
-567.617	59.498	0.116	0.115
-566.602	-168.309	0.189	0.007
-565.588	170.516	-0.195	0.280
-564.573	-76.785	0.322	0.113
-563.558	112.535	-0.123	0.150
-562.544	800.000	-0.042	0.116
-561.529	-200.000	-0.033	0.206
-560.515	-200.000	-0.013	-0.067
-559.500	-42.521	-0.242	-0.124
-558.485	52.185	-0.141	-0.135
-557.471	-65.023	0.394	0.160
-556.456	-5.150	-0.267	0.184
-555.442	-200.000	-0.004	-0.154
-554.427	800.000	0.040	0.177
-553.412	472.159	-0.089	0.202
-552.398	-200.000	-0.027	-0.199
-551.383	229.802	0.094	0.155
-550.369	-124.256	-0.342	0.054
-549.354	-147.666	-0.166	-0.014
-548.339	231.732	-0.135	-0.222
-547.325	-174.941	0.093	0.003
-546.310	94.872	-0.153	-0.175
-545.296	-73.212	-0.421	-0.155
-544.281	475.205	0.061	-0.139
-543.266	41.440	0.268	-0.244
-542.252	32.899	-0.055	0.048
-541.237	-103.203	-0.208	0.049
-540.223	-51.915	0.250	0.117
-539.208	-93.839	-0.201	-0.056
-538.193	800.000	0.072	-0.227
-537.179	-26.715	0.426	-0.250
-536.164	-130.516	0.111	-0.015
-535.150	167.539	-0.068	-0.097
-534.135	-65.556	0.069	-0.028
-533.121	800.000	-0.091	0.349
-532.106	336.470	0.124	-0.241
-531.091	-47.825	-0.183	-0.089
-530.077	-99.491	0.337	0.085
-529.062	-200.000	-0.433	0.001
-528.048	66.955	0.156	0.159
-527.033	262.562	0.127	0.221
-526.018	-58.004	0.326	0.143
-525.004	-74.564	-0.318	-0.115
-523.989	800.000	-0.126	-0.354
-522.975	-142.387	-0.386	0.038
-521.960	56.571	0.238	-0.233
-520.945	-21.396	-0.019	-0.012
-519.931	258.554	-0.047	-0.081
-518.916	-200.000	0.053	-0.321
-517.902	-62.259	0.132	-0.055
-516.887	267.605	0.091	0.160
-515.872	-52.909	0.170	0.079
-514.858	59.647	-0.217	0.215
-513.843	-61.478	0.124	-0.052
-512.829	-200.000	0.011	0.091
-511.814	-200.000	0.042	0.386
-510.799	-50.809	0.130	-0.061
-509.785	-49.592	0.123	0.059
-508.770	-200.000	-0.010	-0.216
-507.756	-200.000	0.055	0.611
-506.741	-124.136	-0.121	-0.019
-505.726	26.016	0.147	0.123
-504.712	-200.000	0.005	0.202
-503.697	251.179	-0.169	-0.289
-502.683	15.286	0.098	0.077
-501.668	61.630	-0.259	0.259
-500.653	-28.144	0.172	0.100
-499.639	800.000	0.017	0.053
-498.624	-85.072	0.393	-0.123
-497.610	-200.000	0.044	0.264
-496.595	-4.479	-0.130	-0.090
-495.581	800.000	0.054	-0.202
-494.566	-86.286	-0.438	0.135
-493.551	99.415	0.114	-0.132
-492.537	800.000	0.068	-0.240
-491.522	656.641	0.033	0.085
-490.508	-108.441	-0.159	0.034
-489.493	-43.538	0.045	0.023
-488.478	1.266	0.105	-0.075
-487.464	-155.090	0.300	0.020
-486.449	314.964	-0.265	0.500
-485.435	71.722	0.065	0.068
-484.420	-164.014	0.037	-0.002
-483.405	-200.000	-0.002	0.139
-482.391	52.762	0.151	-0.145
-481.376	-200.000	0.063	-0.459
-480.362	-39.791	0.153	-0.080
-479.347	-58.958	-0.205	-0.088
-478.332	-74.803	0.237	-0.085
-477.318	8.407	-0.346	0.260
-476.303	-128.026	-0.225	-0.032
-475.289	348.719	0.024	-0.048
-474.274	13.249	-0.135	0.105
-473.259	-123.763	0.159	-0.025
-472.245	-54.927	-0.098	-0.044
-471.230	-143.603	0.283	0.027
-470.216	52.680	0.011	-0.011
-469.201	-192.332	-0.226	0.002
-468.186	184.770	-0.101	-0.150
-467.172	9.335	-0.226	-0.171
-466.157	27.012	-0.233	0.196
-465.143	67.508	-0.079	0.081
-464.128	198.004	0.124	0.190
-463.113	68.030	-0.141	-0.145
-462.099	13.127	-0.210	-0.163
-461.084	388.706	0.120	-0.249
-460.070	800.000	-0.077	0.261
-459.055	529.182	0.073	-0.172
-458.040	281.790	-0.009	-0.017
-457.026	-200.000	0.057	0.454
-456.011	-3.697	0.172	-0.119
-454.997	-200.000	0.006	0.269
-453.982	-200.000	0.024	-0.177
-452.968	419.330	0.039	-0.083
-451.953	-91.201	0.088	0.025
-450.938	-32.050	0.231	0.129
-449.924	-28.172	0.337	0.195
-448.909	-200.000	0.002	-0.069
-447.895	121.864	-0.280	-0.349
-446.880	244.314	0.115	0.194
-445.865	-19.719	0.193	-0.119
-444.851	85.533	0.157	-0.173
-443.836	666.628	0.126	-0.325
-442.822	-47.426	0.158	-0.077
-441.807	-90.758	0.191	-0.055
-440.792	-148.908	-0.148	-0.012
-439.778	-200.000	0.021	0.169
-438.763	-133.889	0.122	0.015
-437.749	115.136	-0.159	0.194
-436.734	-200.000	0.006	-0.140
-435.719	-18.490	-0.173	-0.108
-434.705	23.968	-0.055	-0.045
-433.690	-200.000	-0.015	-0.137
-432.676	-126.302	-0.105	-0.016
-431.661	-200.000	-0.004	-0.141
-430.646	-200.000	-0.005	-0.059
-429.632	-101.076	0.181	0.044
-428.617	-200.000	0.026	0.292
-427.603	-88.145	0.339	0.102
-426.588	800.000	-0.025	-0.079
-425.573	125.507	-0.226	-0.285
-424.559	-200.000	0.000	0.167
-423.544	167.731	-0.076	0.109
-422.530	-128.192	-0.309	-0.044
-421.515	197.481	0.101	0.154
-420.500	-72.993	0.391	-0.144
-419.486	-116.360	0.157	0.029
-418.471	78.132	-0.299	-0.319
-417.457	-84.430	0.108	0.034
-416.442	-99.775	-0.205	-0.051
-415.428	619.437	0.092	0.232
-414.413	443.327	-0.120	0.262
-413.398	284.898	-0.124	-0.223
-412.384	800.000	-0.063	0.246
-411.369	283.345	0.152	-0.273
-410.355	596.042	-0.110	0.273
-409.340	-81.358	0.100	-0.033
-408.325	101.894	-0.204	-0.238
-407.311	-200.000	-0.002	0.202
-406.296	800.000	-0.038	0.139
-405.282	-200.000	0.051	-0.237
-404.267	3.809	0.194	0.142
-403.252	434.319	0.152	0.329
-402.238	-36.912	-0.342	0.183
-401.223	106.943	0.042	0.050
-400.209	800.000	0.029	-0.118
-399.194	-129.459	0.030	0.004
-398.179	-114.724	0.351	0.067
-397.165	73.178	0.267	0.279
-396.150	-200.000	0.034	0.306
-395.136	-150.294	0.144	-0.011
-394.121	-129.316	0.555	-0.077
-393.106	214.056	0.063	0.100
-392.092	-139.434	0.344	0.037
-391.077	-175.863	-0.097	-0.003
-390.063	-149.525	-0.396	-0.031
-389.048	370.098	-0.186	-0.376
-388.033	-137.131	0.169	0.019
-387.019	-200.000	0.030	0.456
-386.004	-36.143	-0.115	0.062
-384.990	-200.000	-0.008	0.090
-383.975	-137.960	-0.295	0.033
-382.960	800.000	-0.138	0.399
-381.946	800.000	0.048	-0.156
-380.931	-101.523	-0.126	0.031
-379.917	175.062	0.086	0.125
-378.902	69.687	0.051	-0.053
-377.888	-200.000	0.017	0.122
-376.873	39.347	0.042	-0.038
-375.858	-200.000	-0.439	-0.002
-374.844	-24.085	0.282	-0.168
-373.829	-30.394	-0.254	-0.144
-372.815	-60.804	0.053	0.023
-371.800	567.350	0.089	0.217
-370.785	548.067	-0.058	0.137
-369.771	145.613	0.226	0.301
-368.756	-200.000	0.042	-0.419
-367.742	-49.871	-0.149	-0.071
-366.727	-28.422	-0.424	0.244
-365.712	-12.958	-0.068	-0.044
-364.698	-83.432	0.176	-0.056
-363.683	713.376	-0.019	-0.050
-362.669	-61.286	-0.178	-0.075
-361.654	435.497	-0.100	0.216
-360.639	-200.000	-0.011	0.235
-359.625	168.974	-0.291	-0.414
-358.610	-112.369	-0.207	-0.041
-357.596	-200.000	-0.012	-0.150
-356.581	-91.797	0.351	0.099
-355.566	261.095	0.019	-0.033
-354.552	439.572	0.091	0.198
-353.537	231.916	-0.100	0.163
-352.523	150.750	0.033	-0.045
-351.508	440.128	-0.071	-0.154
-350.493	-146.816	-0.279	0.024
-349.479	99.247	-0.105	-0.121
-348.464	349.373	-0.040	0.079
-347.450	203.241	0.110	0.169
-346.435	-150.581	0.251	-0.019
-345.420	-123.861	-0.125	-0.020
-344.406	-101.827	0.087	-0.021
-343.391	-200.000	0.023	-0.107
-342.377	-200.000	-0.010	-0.103
-341.362	354.610	-0.197	-0.390
-340.348	165.842	0.102	0.144
-339.333	-93.506	0.185	0.051
-338.318	800.000	-0.097	0.352
-337.304	-200.000	0.013	-0.358
-336.289	-126.860	0.155	0.023
-335.275	-200.000	0.031	-0.344
-334.260	522.556	-0.113	-0.265
-333.245	-84.606	0.082	0.026
-332.231	37.827	-0.207	-0.183
-331.216	740.910	-0.086	-0.229
-330.202	-44.982	-0.107	0.053
-329.187	49.811	0.159	-0.149
-328.172	118.578	-0.322	0.396
-327.158	800.000	-0.110	0.350
-326.143	-54.789	0.200	0.090
-325.129	-200.000	-0.008	0.244
-324.114	800.000	0.082	0.239
-323.099	-25.249	-0.161	0.095
-322.085	-200.000	-0.040	0.304
-321.070	90.655	0.133	0.149
-320.056	492.342	0.101	0.229
-319.041	-18.201	-0.481	-0.300
-318.026	-91.589	0.099	-0.028
-317.012	-200.000	0.003	-0.195
-315.997	-84.662	0.347	0.109
-314.983	800.000	0.138	0.465
-313.968	800.000	0.048	0.142
-312.953	800.000	0.116	-0.327
-311.939	-15.668	-0.294	-0.187
-310.924	-200.000	0.017	0.141
-309.910	-101.651	0.437	-0.106
-308.895	-63.088	-0.125	-0.051
-307.880	-53.620	-0.050	-0.023
-306.866	-200.000	0.033	0.146
-305.851	132.592	0.172	-0.220
-304.837	800.000	0.050	-0.201
-303.822	9.596	0.185	0.140
-302.807	-200.000	-0.007	-0.081
-301.793	-119.606	-0.118	-0.020
-300.778	-200.000	-0.019	0.127
-299.764	-200.000	0.025	0.194
-298.749	800.000	0.068	-0.192
-297.735	-47.711	0.367	0.177
-296.720	95.894	0.044	-0.050
-295.705	-143.593	0.114	0.011
-294.691	-131.728	0.071	0.009
-293.676	-112.027	0.299	-0.060
-292.662	58.325	0.087	-0.085
-291.647	-43.246	-0.184	0.093
-290.632	105.869	-0.120	-0.141
-289.618	-71.429	-0.094	0.035
-288.603	76.124	-0.197	-0.207
-287.589	-67.487	0.066	0.026
-286.574	800.000	0.054	0.180
-285.559	800.000	-0.068	0.237
-284.545	-200.000	-0.045	-0.286
-283.530	-200.000	-0.043	0.277
-282.516	-31.817	0.127	-0.071
-281.501	-57.453	-0.246	-0.107
-280.486	-67.326	-0.190	0.074
-279.472	800.000	-0.057	-0.192
-278.457	473.516	-0.120	0.269
-277.443	-100.508	0.122	-0.030
-276.428	678.619	0.083	-0.215
-275.413	-200.000	0.099	0.590
-274.399	-200.000	-0.003	0.137
-273.384	-105.155	0.303	0.069
-272.370	-81.840	-0.153	-0.050
-271.355	-200.000	-0.009	0.138
-270.340	-106.780	0.238	-0.052
-269.326	-57.980	-0.250	-0.108
-268.311	-112.434	-0.235	0.047
-267.297	94.877	-0.046	0.052
-266.282	166.820	-0.120	-0.169
-265.267	-200.000	-0.002	0.110
-264.253	104.113	0.117	-0.137
-263.238	29.210	0.282	-0.238
-262.224	83.712	-0.225	-0.244
-261.209	-153.979	0.219	-0.015
-260.195	-200.000	0.024	0.296
-259.180	-51.379	0.185	-0.086
-258.165	-130.167	0.255	-0.035
-257.151	494.232	-0.105	0.238
-256.136	347.363	-0.065	-0.128
-255.122	-200.000	0.016	-0.191
-254.107	1.651	-0.186	-0.133
-253.092	14.985	-0.226	-0.176
-252.078	-41.049	0.270	0.139
-251.063	-39.787	0.076	0.040
-250.049	168.273	0.079	-0.112
-249.034	-46.665	0.344	-0.167
-248.019	11.508	-0.070	0.054
-247.005	-12.230	0.142	0.092
-245.990	111.460	0.135	0.162
-244.976	-200.000	0.037	0.211
-243.961	537.569	0.036	-0.085
-242.946	-103.028	-0.239	0.056
-241.932	800.000	0.124	-0.345
-240.917	-34.523	0.298	-0.162
-239.903	128.076	0.114	-0.143
-238.888	-137.029	0.206	0.023
-237.873	678.386	0.166	0.427
-236.859	42.426	0.034	0.031
-235.844	-31.984	-0.252	-0.140
-234.830	208.169	0.042	0.066
-233.815	-126.886	-0.246	-0.036
-232.800	800.000	0.079	-0.286
-231.786	785.362	0.030	-0.083
-230.771	-129.573	-0.405	0.055
-229.757	-200.000	0.019	-0.149
-228.742	129.697	0.239	-0.304
-227.727	62.074	0.212	0.210
-226.713	-200.000	0.067	-0.592
-225.698	-200.000	0.035	-0.184
-224.684	-200.000	0.002	-0.245
-223.669	164.620	0.103	0.143
-222.655	-46.679	-0.141	0.068
-221.640	154.583	-0.121	0.165
-220.625	-44.347	0.193	-0.096
-219.611	9.757	0.197	0.148
-218.596	-113.452	0.115	0.022
-217.582	-104.072	-0.045	-0.010
-216.567	-200.000	-0.002	-0.105
-215.552	-143.036	0.054	-0.005
-214.538	315.602	-0.091	-0.170
-213.523	489.296	-0.084	-0.191
-212.509	102.033	-0.080	0.092
-211.494	-68.588	-0.052	-0.020
-210.479	-39.380	-0.149	-0.078
-209.465	-200.000	-0.053	-0.342
-208.450	268.352	-0.156	-0.270
-207.436	800.000	0.041	0.136
-206.421	566.482	-0.088	-0.210
-205.406	-13.492	0.151	0.097
-204.392	800.000	0.035	0.102
-203.377	-90.981	-0.310	-0.088
-202.363	-200.000	0.002	0.022
-201.348	-91.619	-0.198	0.056
-200.333	130.024	-0.291	0.368
-199.319	-169.945	-0.246	-0.009
-198.304	27.515	0.178	-0.148
-197.290	800.000	0.059	-0.179
-196.275	15.166	-0.170	-0.132
-195.260	-9.926	0.274	-0.181
-194.246	-113.886	-0.207	-0.040
-193.231	-16.822	0.400	-0.251
-192.217	800.000	0.142	0.425
-191.202	380.077	-0.209	0.425
-190.187	-57.887	-0.182	-0.079
-189.173	88.809	0.107	0.118
-188.158	26.521	-0.093	-0.077
-187.144	-50.223	-0.190	0.089
-186.129	7.455	0.215	0.159
-185.114	-15.617	0.194	0.123
-184.100	-67.666	0.244	0.095
-183.085	172.548	-0.127	-0.181
-182.071	-200.000	0.035	-0.224
-181.056	-71.212	0.280	0.104
-180.042	-197.871	-0.212	-0.001
-179.027	106.965	-0.100	0.117
-178.012	58.425	0.063	0.061
-176.998	-10.227	-0.133	0.087
-175.983	-78.077	0.179	-0.061
-174.969	-4.069	-0.129	0.088
-173.954	-23.878	0.227	0.135
-172.939	-200.000	-0.018	-0.223
-171.925	128.591	0.201	0.253
-170.910	-104.956	0.300	-0.068
-169.896	-200.000	0.007	-0.146
-168.881	-106.707	-0.263	0.058
-167.866	179.549	-0.246	-0.357
-166.852	-15.902	-0.171	-0.108
-165.837	78.355	-0.206	-0.218
-164.823	-47.138	0.053	0.026
-163.808	147.734	-0.043	0.057
-162.793	563.332	0.173	-0.415
-161.779	-200.000	-0.037	-0.338
-160.764	-200.000	-0.011	0.085
-159.750	-114.500	-0.257	0.049
-158.735	-41.039	-0.143	0.073
-157.720	-145.363	0.159	0.014
-156.706	800.000	-0.035	0.128
-155.691	280.883	-0.206	0.364
-154.677	-200.000	0.013	0.271
-153.662	79.601	-0.013	0.014
-152.647	-135.616	-0.070	-0.008
-151.633	-68.038	-0.314	-0.121
-150.618	57.927	-0.194	-0.187
-149.604	-146.101	-0.303	0.026
-148.589	800.000	-0.018	0.051
-147.574	800.000	-0.011	0.044
-146.560	230.452	0.106	0.171
-145.545	173.206	0.085	0.120
-144.531	-44.448	-0.124	0.061
-143.516	-25.667	-0.288	-0.168
-142.502	53.198	-0.167	-0.158
-141.487	704.841	-0.062	-0.163
-140.472	-87.576	-0.151	0.045
-139.458	-200.000	0.015	0.144
-138.443	-96.331	0.080	-0.021
-137.429	-19.099	-0.135	-0.083
-136.414	-96.711	-0.144	-0.037
-135.399	-78.822	-0.144	-0.049
-134.385	193.237	-0.010	-0.014
-133.370	90.875	-0.105	-0.117
-132.356	-64.982	0.018	-0.007
-131.341	34.004	-0.149	-0.128
-130.326	-102.994	-0.311	0.073
-129.312	449.873	0.029	0.063
-128.297	72.849	-0.079	0.081
-127.283	10.638	-0.402	-0.303
-126.268	722.568	0.058	0.151
-125.253	-76.418	0.231	-0.080
-124.239	-200.000	-0.032	0.232
-123.224	61.768	0.236	0.232
-122.210	-23.121	0.140	0.083
-121.195	278.798	-0.105	0.185
