DTS Sentinel unit serial number:	SN413079Multiplexer serial number:	ORYXHardware model number:	OX4-SRSoftware version number:	ORYX F/W v4.00 Oryx Data Collector v3.7.2.0data status	okinstallation	princeton_trtdifferential loss correction	single-endedforward channel	channel 1reverse channel	N/Adate	2019/09/19time	00:02:35forward acquisition time	60.00reverse acquisition time	0.00gamma	496.2192k internal	0.2342k external	0.2342temperature offset calibration	1.0022default loss term (dB/km)	0.3790temperature slope calibration	1.0000multiplexer offset coefficient	1.0000multiplexer slope coefficient	1.0000fibre end	0.00T internal ref (°C)	23.02T ext. ref 1 (°C)	0.75T ext. ref 2 (°C)	15.92length (m)	temperature (°C)	Stokes	anti-Stokes-747.200	-200.000	0.018	0.232
-746.185	-1.704	-0.134	0.095
-745.171	406.445	-0.038	-0.081
-744.156	5.836	-0.269	0.199
-743.142	-117.314	0.225	0.041
-742.127	63.059	-0.184	-0.184
-741.112	-93.618	0.162	0.045
-740.098	13.289	0.211	0.164
-739.083	-200.000	0.020	-0.222
-738.069	-118.518	-0.185	-0.033
-737.054	-55.120	-0.226	-0.102
-736.039	229.282	-0.084	-0.137
-735.025	-40.083	0.143	-0.075
-734.010	-27.580	-0.218	0.127
-732.996	-88.458	-0.327	-0.098
-731.981	-200.000	0.167	-0.000
-730.966	-164.852	-0.191	-0.009
-729.952	-200.000	-0.006	-0.065
-728.937	-108.256	-0.051	-0.011
-727.923	800.000	-0.108	-0.329
-726.908	-91.944	-0.117	0.033
-725.894	6.908	0.309	-0.231
-724.879	100.714	0.053	-0.062
-723.864	-53.412	0.260	-0.119
-722.850	-200.000	0.006	-0.033
-721.835	-32.703	-0.431	0.240
-720.821	-94.195	-0.115	-0.032
-719.806	-108.982	0.212	-0.045
-718.791	166.177	0.036	-0.051
-717.777	-102.922	-0.057	-0.014
-716.762	-200.000	-0.011	0.159
-715.748	-200.000	-0.026	-0.355
-714.733	71.034	0.054	-0.056
-713.718	-200.000	0.012	0.063
-712.704	53.606	-0.185	-0.178
-711.689	373.535	-0.083	0.168
-710.675	800.000	0.035	-0.129
-709.660	231.807	-0.222	-0.365
-708.645	283.335	-0.103	-0.184
-707.631	8.174	-0.253	-0.190
-706.616	-200.000	0.052	0.426
-705.602	36.069	-0.215	-0.190
-704.587	-200.000	-0.061	-0.363
-703.572	490.329	0.086	0.198
-702.558	798.005	0.025	-0.070
-701.543	-200.000	-0.004	-0.351
-700.529	-139.629	-0.159	-0.017
-699.514	-200.000	-0.018	-0.171
-698.499	395.021	0.088	0.184
-697.485	277.324	-0.096	-0.170
-696.470	46.993	0.240	0.223
-695.456	-200.000	-0.030	-0.148
-694.441	238.154	-0.243	0.403
-693.426	28.038	0.158	0.133
-692.412	-76.972	0.160	-0.056
-691.397	-72.653	-0.098	0.036
-690.383	91.148	-0.278	0.312
-689.368	-60.764	0.101	-0.043
-688.354	-25.062	-0.090	0.053
-687.339	-200.000	-0.052	-0.458
-686.324	396.607	-0.218	0.455
-685.310	-112.990	-0.169	0.033
-684.295	-87.597	-0.084	-0.025
-683.281	12.680	-0.126	0.097
-682.266	-200.000	-0.052	0.258
-681.251	-111.190	-0.187	0.038
-680.237	145.451	0.083	0.112
-679.222	-11.288	0.270	0.178
-678.208	-68.989	0.036	0.014
-677.193	-200.000	-0.017	0.283
-676.178	21.811	-0.071	0.057
-675.164	-18.283	0.324	-0.203
-674.149	-45.339	0.136	-0.068
-673.135	-119.516	-0.066	0.011
-672.120	-130.338	-0.154	0.021
-671.105	-17.587	0.200	-0.125
-670.091	-200.000	-0.024	0.511
-669.076	800.000	0.035	-0.115
-668.062	409.493	0.090	-0.190
-667.047	-131.866	0.193	0.025
-666.032	85.239	-0.259	0.283
-665.018	122.262	-0.041	-0.052
-664.003	-200.000	-0.019	0.165
-662.989	316.550	-0.093	-0.175
-661.974	-86.488	-0.107	0.033
-660.959	-13.464	-0.113	-0.073
-659.945	578.392	0.155	0.379
-658.930	-200.000	0.006	0.031
-657.916	649.281	-0.152	-0.387
-656.901	-99.527	0.133	-0.033
-655.886	-19.889	0.145	0.090
-654.872	-79.111	0.100	-0.034
-653.857	-66.619	-0.276	0.109
-652.843	-200.000	-0.009	-0.134
-651.828	-14.923	-0.165	-0.106
-650.814	-129.779	0.344	-0.047
-649.799	-200.000	0.024	0.200
-648.784	800.000	-0.053	0.221
-647.770	-131.913	0.252	-0.033
-646.755	-80.429	-0.331	-0.110
-645.741	232.866	0.043	-0.070
-644.726	566.908	-0.077	-0.186
-643.711	-179.602	-0.118	0.003
-642.697	96.427	0.166	-0.190
-641.682	294.824	0.151	-0.276
-640.668	-24.447	-0.070	0.041
-639.653	-33.980	-0.182	-0.100
-638.638	52.968	-0.023	-0.022
-637.624	-94.560	0.196	-0.053
-636.609	-200.000	0.019	0.192
-635.595	34.915	-0.213	0.186
-634.580	514.100	0.186	0.433
-633.565	-86.045	0.387	-0.119
-632.551	-88.840	-0.235	-0.069
-631.536	-66.755	-0.061	0.024
-630.522	-20.106	-0.197	-0.121
-629.507	-186.227	-0.582	-0.008
-628.492	523.106	0.127	0.297
-627.478	105.352	-0.090	-0.106
-626.463	-200.000	0.003	-0.074
-625.449	-200.000	-0.012	-0.069
-624.434	-186.655	-0.275	-0.004
-623.419	65.487	-0.233	-0.235
-622.405	48.090	0.159	-0.148
-621.390	47.023	0.122	-0.113
-620.376	-89.528	0.215	-0.063
-619.361	178.670	0.110	-0.161
-618.346	-105.144	0.093	-0.021
-617.332	104.661	0.197	-0.231
-616.317	-123.846	-0.659	0.104
-615.303	-5.591	-0.123	0.084
-614.288	-99.190	-0.191	-0.048
-613.273	-87.591	0.134	-0.040
-612.259	9.925	-0.148	0.112
-611.244	-34.261	0.164	0.090
-610.230	165.919	0.030	0.042
-609.215	-200.000	-0.002	0.178
-608.201	800.000	-0.064	0.188
-607.186	-45.398	-0.177	0.087
-606.171	-34.994	0.168	0.091
-605.157	0.955	-0.056	-0.040
-604.142	-9.729	0.156	0.103
-603.128	-123.104	0.309	0.049
-602.113	-20.108	-0.037	-0.023
-601.098	72.828	-0.199	0.207
-600.084	-39.078	0.303	-0.159
-599.069	708.894	-0.025	-0.066
-598.055	-15.749	-0.328	0.208
-597.040	7.470	-0.359	-0.268
-596.025	-92.339	0.168	0.047
-595.011	442.896	-0.144	-0.315
-593.996	-180.086	-0.394	0.008
-592.982	-123.575	-0.194	-0.031
-591.967	-177.837	-0.211	0.005
-590.952	136.873	0.101	-0.131
-589.938	-104.727	0.241	0.055
-588.923	-96.239	-0.283	-0.075
-587.909	178.012	-0.081	0.117
-586.894	337.464	-0.103	0.199
-585.879	33.071	-0.378	-0.326
-584.865	800.000	0.041	0.163
-583.850	-84.107	0.163	0.051
-582.836	423.798	0.116	-0.247
-581.821	138.013	-0.044	-0.058
-580.806	-17.812	0.143	-0.089
-579.792	-200.000	0.092	0.476
-578.777	486.687	-0.189	0.428
-577.763	-31.697	0.147	-0.082
-576.748	-183.255	-0.075	-0.001
-575.733	-103.161	0.323	0.076
-574.719	-169.758	0.276	-0.010
-573.704	90.674	0.270	0.301
-572.690	-139.833	0.072	-0.008
-571.675	-124.826	-0.191	0.029
-570.661	800.000	-0.012	0.049
-569.646	-16.866	-0.382	0.240
-568.631	31.508	-0.072	-0.061
-567.617	447.071	-0.083	-0.182
-566.602	-200.000	-0.005	-0.041
-565.588	-118.660	0.094	-0.017
-564.573	-8.273	0.203	-0.136
-563.558	-17.487	0.154	-0.096
-562.544	46.528	0.040	-0.037
-561.529	108.603	-0.036	0.043
-560.515	336.364	0.109	-0.211
-559.500	136.269	0.161	-0.209
-558.485	-200.000	0.005	0.180
-557.471	-200.000	0.005	0.182
-556.456	46.781	-0.233	0.215
-555.442	744.512	0.179	0.479
-554.427	800.000	-0.121	-0.503
-553.412	-47.120	-0.180	0.087
-552.398	12.116	-0.219	-0.168
-551.383	121.995	0.200	-0.248
-550.369	106.976	0.150	0.177
-549.354	-200.000	-0.009	0.342
-548.339	385.999	-0.057	-0.116
-547.325	-87.451	0.363	-0.109
-546.310	-200.000	-0.058	-0.263
-545.296	-56.378	0.083	-0.037
-544.281	-12.642	-0.213	0.138
-543.266	-200.000	0.077	-0.383
-542.252	-68.060	-0.182	-0.071
-541.237	81.479	-0.199	0.214
-540.223	-103.028	-0.123	0.029
-539.208	800.000	-0.071	0.222
-538.193	-16.061	0.200	-0.126
-537.179	800.000	-0.008	-0.027
-536.164	57.798	-0.057	-0.056
-535.150	-8.511	0.071	0.047
-534.135	-102.287	0.296	-0.071
-533.121	29.170	0.079	-0.067
-532.106	-93.126	-0.245	0.068
-531.091	-178.567	0.136	0.003
-530.077	800.000	-0.023	-0.098
-529.062	195.795	0.130	0.196
-528.048	-200.000	-0.005	-0.059
-527.033	293.019	-0.081	-0.146
-526.018	-200.000	-0.024	-0.139
-525.004	-62.064	-0.306	-0.127
-523.989	82.834	0.193	-0.208
-522.975	-200.000	-0.023	0.131
-521.960	172.438	-0.138	-0.197
-520.945	-24.810	0.079	0.046
-519.931	800.000	-0.129	0.483
-518.916	-141.839	-0.183	-0.018
-517.902	-118.411	-0.416	0.073
-516.887	34.209	0.129	0.112
-515.872	-106.167	0.286	-0.064
-514.858	-200.000	-0.035	-0.196
-513.843	-53.223	0.176	0.080
-512.829	-10.350	0.137	-0.090
-511.814	-8.214	0.338	-0.226
-510.799	-17.618	-0.305	0.190
-509.785	-33.091	0.170	0.093
-508.770	-200.000	-0.000	0.120
-507.756	9.496	0.144	0.108
-506.741	62.352	0.337	0.334
-505.726	141.923	-0.210	0.277
-504.712	340.927	0.152	0.295
-503.697	312.481	0.073	-0.136
-502.683	87.599	0.121	-0.133
-501.668	-200.000	0.003	-0.275
-500.653	156.756	0.030	0.041
-499.639	8.351	0.022	0.016
-498.624	-130.112	-0.172	-0.023
-497.610	-200.000	-0.018	-0.158
-496.595	78.930	0.133	0.141
-495.581	0.736	-0.020	0.014
-494.566	65.700	0.216	0.217
-493.551	-121.749	-0.628	-0.103
-492.537	-27.727	0.231	-0.133
-491.522	250.994	-0.106	0.180
-490.508	-29.337	0.136	0.077
-489.493	-31.885	-0.346	-0.192
-488.478	-78.103	-0.243	-0.083
-487.464	115.971	-0.329	-0.399
-486.449	-200.000	0.077	-0.362
-485.435	81.037	-0.062	-0.066
-484.420	-141.513	0.114	0.011
-483.405	2.751	-0.237	-0.170
-482.391	-200.000	-0.050	0.242
-481.376	-129.542	-0.249	0.034
-480.362	-53.910	0.209	-0.094
-479.347	-56.101	-0.342	0.151
-478.332	273.304	0.189	-0.331
-477.318	76.279	0.223	0.234
-476.303	47.756	0.146	-0.136
-475.289	-79.313	0.026	0.009
-474.274	800.000	-0.017	0.061
-473.259	-200.000	0.056	0.247
-472.245	-200.000	-0.076	0.371
-471.230	45.245	0.428	0.391
-470.216	800.000	-0.048	0.140
-469.201	264.847	0.049	-0.085
-468.186	800.000	-0.056	-0.210
-467.172	-73.113	-0.085	-0.031
-466.157	800.000	-0.080	-0.302
-465.143	-88.992	0.282	-0.083
-464.128	-33.021	-0.112	-0.062
-463.113	-135.401	-0.024	-0.003
-462.099	-69.929	0.146	0.055
-461.084	-200.000	-0.026	-0.213
-460.070	-144.540	0.066	0.006
-459.055	-173.466	-0.140	0.004
-458.040	435.442	-0.211	-0.455
-457.026	43.850	0.116	0.105
-456.011	217.983	0.138	0.218
-454.997	-200.000	-0.018	-0.277
-453.982	655.900	-0.085	-0.216
-452.968	-97.945	0.199	0.051
-451.953	-118.373	-0.204	-0.036
-450.938	-81.458	0.142	-0.046
-449.924	13.369	0.135	0.104
-448.909	626.332	0.060	0.149
-447.895	-151.948	0.168	0.012
-446.880	-200.000	0.029	0.228
-445.865	800.000	-0.013	-0.038
-444.851	-47.994	0.203	0.097
-443.836	-200.000	-0.026	0.135
-442.822	71.656	-0.116	-0.119
-441.807	-200.000	0.070	-0.335
-440.792	-31.103	0.228	0.127
-439.778	4.745	0.312	0.227
-438.763	800.000	0.073	0.261
-437.749	310.884	0.032	0.060
-436.734	-122.300	0.310	-0.050
-435.719	449.830	-0.136	0.297
-434.705	-156.804	-0.251	-0.015
-433.690	-200.000	0.009	-0.177
-432.676	-130.217	0.281	-0.038
-431.661	800.000	0.070	0.206
-430.646	-118.626	-0.135	-0.024
-429.632	800.000	-0.011	0.036
-428.617	233.218	-0.204	0.332
-427.603	16.574	0.188	0.147
-426.588	574.009	0.019	-0.045
-425.573	176.858	0.073	-0.105
-424.559	36.441	0.112	-0.097
-423.544	800.000	0.057	0.244
-422.530	-200.000	-0.025	0.326
-421.515	355.203	-0.157	-0.309
-420.500	800.000	0.044	-0.190
-419.486	-70.960	-0.116	0.043
-418.471	-45.817	-0.362	-0.177
-417.457	-200.000	0.017	0.080
-416.442	511.466	-0.175	-0.404
-415.428	-143.313	0.421	0.040
-414.413	340.749	-0.049	0.095
-413.398	-100.749	-0.137	0.033
-412.384	486.527	-0.068	-0.154
-411.369	1.848	-0.167	-0.119
-410.355	127.158	0.051	0.064
-409.340	3.696	0.131	0.095
-408.325	-200.000	-0.030	0.150
-407.311	-67.216	-0.129	-0.050
-406.296	-16.982	-0.216	0.135
-405.282	379.071	-0.183	0.371
-404.267	5.097	-0.129	-0.094
-403.252	7.649	0.184	0.136
-402.238	117.348	-0.319	0.387
-401.223	92.803	-0.318	-0.354
-400.209	-83.194	0.359	-0.114
-399.194	135.591	-0.209	-0.269
-398.179	800.000	-0.069	-0.189
-397.165	43.804	-0.030	-0.027
-396.150	99.610	0.273	0.312
-395.136	-162.644	0.125	0.006
-394.121	73.395	-0.197	-0.204
-393.106	-117.133	0.463	-0.083
-392.092	-200.000	-0.003	0.043
-391.077	10.116	-0.166	0.125
-390.063	-176.690	-0.269	-0.007
-389.048	-80.973	0.139	0.046
-388.033	302.641	0.096	0.175
-387.019	-105.858	-0.178	-0.040
-386.004	-138.990	0.115	-0.012
-384.990	657.304	-0.130	-0.329
-383.975	-200.000	-0.035	-0.150
-382.960	-200.000	0.033	0.286
-381.946	-139.695	0.236	-0.025
-380.931	800.000	0.119	0.361
-379.917	172.208	0.123	0.175
-378.902	-10.496	-0.098	0.064
-377.888	183.200	-0.120	0.175
-376.873	-59.170	-0.094	-0.040
-375.858	-200.000	-0.014	-0.110
-374.844	-95.761	-0.211	-0.056
-373.829	-200.000	0.012	0.119
-372.815	-19.342	-0.137	-0.084
-371.800	141.370	-0.224	-0.293
-370.785	800.000	-0.128	-0.388
-369.771	238.684	-0.112	-0.184
-368.756	138.745	0.105	0.137
-367.742	800.000	-0.044	0.162
-366.727	-119.430	-0.111	-0.019
-365.712	75.860	-0.242	0.252
-364.698	-200.000	-0.015	-0.397
-363.683	-52.870	-0.155	0.071
-362.669	195.301	0.124	0.187
-361.654	-151.187	0.350	0.026
-360.639	-36.334	-0.172	-0.092
-359.625	-200.000	0.053	0.426
-358.610	-200.000	-0.002	-0.146
-357.596	288.651	0.087	-0.156
-356.581	29.773	0.043	0.036
-355.566	-200.000	0.036	-0.181
-354.552	453.571	-0.064	-0.141
-353.537	-69.117	0.222	-0.084
-352.523	-200.000	0.062	-0.511
-351.508	765.736	-0.009	0.023
-350.493	-139.667	-0.150	-0.016
-349.479	-15.298	-0.277	0.174
-348.464	-200.000	0.013	-0.204
-347.450	-20.932	-0.171	-0.103
-346.435	-200.000	0.033	-0.211
-345.420	94.523	-0.097	0.109
-344.406	232.393	-0.161	0.261
-343.391	359.176	-0.195	0.385
-342.377	270.240	-0.109	0.188
-341.362	72.144	-0.409	-0.420
-340.348	-81.957	-0.501	-0.162
-339.333	243.116	0.077	0.128
-338.318	-162.495	-0.342	-0.017
-337.304	-41.931	0.044	0.022
-336.289	-102.902	0.255	-0.060
-335.275	-200.000	0.002	-0.148
-334.260	42.639	0.163	-0.146
-333.245	-101.870	-0.129	-0.031
-332.231	-88.635	-0.413	0.121
-331.216	196.988	0.126	0.189
-330.202	-72.065	0.186	0.068
-329.187	-77.065	0.120	0.041
-328.172	-81.763	0.219	-0.071
-327.158	80.544	-0.119	-0.126
-326.143	117.061	-0.006	0.007
-325.129	-171.643	0.364	-0.012
-324.114	128.967	-0.065	-0.082
-323.099	443.699	0.199	0.430
-322.085	266.036	-0.078	0.134
-321.070	-84.757	0.088	0.027
-320.056	-136.014	-0.213	-0.025
-319.041	800.000	0.076	0.220
-318.026	800.000	-0.133	-0.438
-317.012	-200.000	0.037	-0.211
-315.997	34.276	0.186	0.159
-314.983	146.613	0.135	0.178
-313.968	-37.713	-0.290	0.152
-312.953	800.000	-0.057	-0.167
-311.939	800.000	-0.044	-0.151
-310.924	-200.000	0.037	-0.413
-309.910	102.122	-0.122	0.141
-308.895	-200.000	-0.074	0.417
-307.880	210.553	-0.134	-0.208
-306.866	111.671	0.143	0.170
-305.851	-132.334	0.232	0.030
-304.837	-200.000	0.017	0.127
-303.822	-62.883	-0.166	0.068
-302.807	45.648	-0.123	-0.112
-301.793	27.389	0.223	0.185
-300.778	-40.738	0.097	-0.049
-299.764	24.924	0.394	0.322
-298.749	101.979	-0.059	-0.068
-297.735	-110.996	0.198	-0.040
-296.720	-105.296	-0.111	0.025
-295.705	-147.487	0.368	-0.031
-294.691	623.829	-0.045	-0.113
-293.676	181.866	0.155	0.225
-292.662	618.904	-0.022	-0.054
-291.647	-200.000	-0.050	0.322
-290.632	-9.862	0.013	0.009
-289.618	-129.497	-0.219	0.030
-288.603	-200.000	-0.037	-0.265
-287.589	-50.635	0.144	-0.067
-286.574	9.862	-0.229	0.171
-285.559	40.706	-0.120	0.107
-284.545	-171.988	0.178	0.006
-283.530	-98.507	-0.060	0.015
-282.516	-22.580	-0.116	-0.069
-281.501	-200.000	0.009	-0.203
-280.486	55.276	0.258	-0.246
-279.472	446.264	-0.099	-0.215
-278.457	259.411	0.257	0.436
-277.443	-194.272	-0.315	0.003
-276.428	-29.990	-0.053	-0.030
-275.413	-20.240	0.243	-0.147
-274.399	-115.454	-0.539	0.100
-273.384	111.819	0.204	-0.242
-272.370	382.986	-0.064	-0.129
-271.355	1.920	0.157	0.111
-270.340	-96.387	0.245	0.064
-269.326	467.904	-0.094	0.207
-268.311	-200.000	-0.002	-0.189
-267.297	-58.687	-0.183	0.078
-266.282	-200.000	0.007	0.122
-265.267	-4.169	0.296	-0.202
-264.253	-200.000	-0.008	0.059
-263.238	-97.980	-0.076	-0.019
-262.224	-200.000	-0.004	-0.100
-261.209	-200.000	-0.035	-0.233
-260.195	-200.000	0.025	0.236
-259.180	800.000	-0.031	-0.094
-258.165	-200.000	0.052	-0.328
-257.151	-110.142	-0.054	0.011
-256.136	157.011	0.066	-0.089
-255.122	612.470	-0.208	0.511
-254.107	27.066	-0.057	-0.047
-253.092	-83.093	0.595	-0.188
-252.078	362.394	0.097	-0.190
-251.063	298.561	0.182	0.328
-250.049	-200.000	-0.083	-0.494
-249.034	-200.000	-0.033	0.174
-248.019	-130.761	0.132	0.017
-247.005	135.069	-0.075	-0.095
-245.990	-109.913	-0.049	0.010
-244.976	357.352	-0.089	-0.174
-243.961	-42.063	-0.110	-0.056
-242.946	-132.587	0.236	-0.030
-241.932	-200.000	-0.019	-0.286
-240.917	800.000	0.046	0.168
-239.903	-200.000	0.011	0.260
-238.888	-55.878	0.455	-0.199
-237.873	57.323	-0.181	0.173
-236.859	800.000	-0.096	-0.341
-235.844	-200.000	0.023	-0.100
-234.830	-200.000	-0.041	-0.301
-233.815	34.971	0.119	-0.102
-232.800	0.102	-0.091	-0.063
-231.786	-2.573	-0.145	0.100
-230.771	369.655	-0.066	-0.131
-229.757	-200.000	-0.009	0.173
-228.742	-136.433	-0.173	-0.020
-227.727	48.471	-0.111	0.102
-226.713	-140.472	-0.162	-0.017
-225.698	87.040	0.104	-0.113
-224.684	-200.000	0.005	0.072
-223.669	-196.076	-0.232	-0.002
-222.655	-138.077	0.097	0.011
-221.640	-88.978	0.308	-0.089
-220.625	51.147	-0.141	0.131
-219.611	59.765	0.176	0.170
-218.596	321.349	-0.015	0.028
-217.582	356.531	0.102	0.199
-216.567	800.000	0.020	0.082
-215.552	-122.581	0.103	-0.016
-214.538	-53.873	-0.080	-0.036
-213.523	681.782	-0.119	0.305
-212.509	-45.554	0.130	0.063
-211.494	136.474	0.402	0.515
-210.479	47.115	0.138	-0.126
-209.465	242.296	-0.126	-0.206
-208.450	-16.925	0.116	-0.072
-207.436	751.463	-0.028	0.074
-206.421	7.022	-0.100	-0.073
-205.406	217.594	0.107	0.167
-204.392	141.834	0.165	-0.215
-203.377	105.193	0.049	0.057
-202.363	505.084	-0.060	-0.136
-201.348	-31.832	0.178	-0.098
-200.333	-55.835	0.165	0.072
-199.319	144.300	0.291	0.380
-198.304	-128.065	0.264	-0.037
-197.290	47.595	-0.188	0.172
-196.275	-14.772	-0.221	-0.139
-195.260	-135.696	-0.103	0.012
-194.246	267.012	-0.061	-0.104
-193.231	512.513	0.166	-0.379
-192.217	643.695	-0.075	-0.187
-191.202	-138.955	0.305	-0.033
-190.187	82.768	-0.125	-0.133
-189.173	-39.931	0.290	0.148
-188.158	-200.000	0.012	0.296
-187.144	-70.533	0.157	0.058
-186.129	58.806	-0.058	0.056
-185.114	-71.830	-0.113	-0.041
-184.100	-200.000	-0.006	-0.085
-183.085	191.944	-0.174	-0.257
-182.071	-10.774	0.185	-0.120
-181.056	-26.773	-0.193	0.110
-180.042	-126.574	-0.271	0.039
-179.027	156.021	-0.150	-0.203
-178.012	714.417	0.083	-0.215
-176.998	-155.184	0.270	0.017
-175.983	127.598	0.181	-0.226
-174.969	-49.029	-0.029	-0.013
-173.954	-59.552	-0.223	-0.094
-172.939	-163.649	0.345	0.016
-171.925	800.000	-0.103	-0.284
-170.910	800.000	-0.038	-0.162
-169.896	102.895	0.076	-0.087
-168.881	165.136	0.197	0.272
-167.866	-92.979	-0.152	-0.042
-166.852	58.332	-0.265	-0.255
-165.837	800.000	0.127	0.390
-164.823	487.282	0.036	0.080
-163.808	800.000	-0.018	0.059
-162.793	-200.000	-0.025	-0.149
-161.779	-41.559	-0.231	0.116
-160.764	-166.797	0.325	0.013
-159.750	-200.000	-0.025	0.145
-158.735	-200.000	-0.022	0.264
-157.720	-200.000	0.051	0.430
-156.706	800.000	0.166	0.518
-155.691	-66.992	0.105	0.040
-154.677	-102.394	0.182	-0.043
-153.662	-97.870	0.178	-0.045
-152.647	-103.062	0.231	0.054
-151.633	-81.651	-0.280	-0.090
-150.618	-200.000	0.048	-0.250
-149.604	-30.504	0.170	-0.094
-148.589	63.803	-0.189	0.186
-147.574	143.629	0.151	-0.197
-146.560	36.518	-0.103	-0.089
-145.545	165.000	-0.048	0.067
-144.531	-25.538	0.071	-0.041
-143.516	58.676	-0.088	-0.085
-142.502	50.390	-0.103	0.096
-141.487	87.580	-0.282	-0.305
-140.472	-121.837	-0.244	-0.039
-139.458	13.339	0.176	0.133
-138.443	-68.781	0.088	0.033
-137.429	140.139	0.164	0.212
-136.414	800.000	-0.132	0.379
-135.399	-200.000	0.094	0.410
-134.385	-93.949	0.161	-0.043
-133.370	-117.189	-0.064	-0.011
-132.356	-140.355	0.260	-0.027
-131.341	800.000	-0.063	-0.183
-130.326	-29.374	0.250	0.140
-129.312	760.589	-0.129	0.341
-128.297	-42.148	0.095	0.048
-127.283	79.405	-0.094	0.098
-126.268	800.000	-0.038	-0.126
-125.253	284.665	0.123	-0.216
-124.239	40.750	-0.147	-0.129
-123.224	-20.586	-0.037	-0.022
-122.210	71.973	0.272	-0.277
