DTS Sentinel unit serial number:	SN413079Multiplexer serial number:	ORYXHardware model number:	OX4-SRSoftware version number:	ORYX F/W v4.00 Oryx Data Collector v3.7.2.0data status	okinstallation	princeton_trtdifferential loss correction	single-endedforward channel	channel 1reverse channel	N/Adate	2019/09/18time	22:22:35forward acquisition time	60.00reverse acquisition time	0.00gamma	496.2192k internal	0.2341k external	0.2341temperature offset calibration	1.0018default loss term (dB/km)	0.3790temperature slope calibration	1.0000multiplexer offset coefficient	1.0000multiplexer slope coefficient	1.0000fibre end	0.00T internal ref (°C)	24.31T ext. ref 1 (°C)	0.79T ext. ref 2 (°C)	17.97length (m)	temperature (°C)	Stokes	anti-Stokes-747.200	-34.281	-0.194	0.107
-746.185	-66.147	0.201	-0.080
-745.171	433.866	-0.071	0.154
-744.156	800.000	-0.046	-0.143
-743.142	-125.515	-0.141	0.022
-742.127	28.273	-0.255	0.216
-741.112	-200.000	-0.002	0.194
-740.098	475.800	-0.108	0.245
-739.083	-16.836	-0.353	-0.224
-738.069	-66.129	-0.119	-0.048
-737.054	6.842	0.280	-0.209
-736.039	31.410	-0.148	0.128
-735.025	727.777	0.108	-0.289
-734.010	120.116	-0.167	0.208
-732.996	98.195	0.198	0.229
-731.981	12.370	-0.313	-0.242
-730.966	-84.722	-0.130	-0.041
-729.952	56.521	-0.218	-0.212
-728.937	-200.000	0.192	0.001
-727.923	80.113	-0.131	0.141
-726.908	-29.716	0.192	-0.110
-725.894	-149.013	-0.364	0.029
-724.879	-153.013	0.240	0.017
-723.864	-64.968	-0.134	-0.054
-722.850	-54.885	0.266	-0.120
-721.835	-80.551	-0.161	0.054
-720.821	66.565	0.039	0.039
-719.806	88.462	-0.114	0.127
-718.791	-129.342	-0.403	-0.056
-717.777	23.039	0.176	-0.145
-716.762	6.879	-0.312	-0.233
-715.748	-200.000	0.012	-0.260
-714.733	-23.816	0.246	-0.147
-713.718	-86.735	-0.159	0.049
-712.704	144.143	-0.102	-0.136
-711.689	329.402	-0.048	0.093
-710.675	257.910	-0.099	-0.171
-709.660	-56.453	-0.370	-0.164
-708.645	107.135	-0.089	-0.106
-707.631	-200.000	-0.047	0.307
-706.616	-79.891	-0.255	-0.086
-705.602	-82.848	-0.176	0.057
-704.587	-200.000	-0.005	0.242
-703.572	19.516	0.355	-0.286
-702.558	24.945	-0.165	-0.137
-701.543	-44.564	-0.328	0.164
-700.529	-111.547	0.408	0.083
-699.514	21.327	-0.143	0.116
-698.499	194.857	0.079	0.120
-697.485	455.533	-0.047	-0.104
-696.470	212.016	-0.082	0.130
-695.456	-20.989	0.053	-0.032
-694.441	-108.741	-0.178	0.038
-693.426	77.005	0.365	-0.388
-692.412	-67.425	-0.326	0.128
-691.397	-200.000	-0.038	-0.398
-690.383	800.000	0.093	0.292
-689.368	-93.051	-0.063	-0.018
-688.354	-10.287	-0.200	-0.133
-687.339	166.028	0.089	0.127
-686.324	142.436	0.111	-0.148
-685.310	-74.881	-0.247	0.088
-684.295	800.000	0.081	-0.348
-683.281	588.334	-0.056	0.138
-682.266	-92.618	0.301	-0.084
-681.251	28.333	0.197	0.166
-680.237	-107.774	-0.297	0.065
-679.222	-131.561	0.293	-0.039
-678.208	-144.611	0.128	-0.012
-677.193	119.024	0.108	-0.133
-676.178	-19.426	0.080	-0.049
-675.164	-19.304	0.136	-0.085
-674.149	6.537	0.087	-0.064
-673.135	800.000	0.112	0.427
-672.120	30.802	0.236	0.202
-671.105	-124.282	-0.176	-0.027
-670.091	586.303	-0.048	0.119
-669.076	41.891	-0.157	0.142
-668.062	-200.000	-0.034	0.470
-667.047	-200.000	-0.005	-0.414
-666.032	-86.084	0.300	-0.093
-665.018	-181.581	-0.210	0.004
-664.003	800.000	0.046	0.156
-662.989	800.000	0.040	-0.114
-661.974	-200.000	0.001	-0.053
-660.959	-200.000	0.004	0.296
-659.945	30.635	-0.065	0.056
-658.930	800.000	0.062	0.201
-657.916	70.658	-0.040	0.041
-656.901	800.000	-0.128	-0.373
-655.886	-114.359	0.076	0.015
-654.872	571.064	0.172	0.418
-653.857	64.772	0.053	0.053
-652.843	800.000	0.102	0.303
-651.828	-66.467	-0.608	0.241
-650.814	-77.333	-0.407	0.141
-649.799	-140.104	-0.201	-0.021
-648.784	-200.000	-0.014	-0.147
-647.770	65.389	-0.074	0.075
-646.755	-118.948	-0.147	0.026
-645.741	-132.866	0.030	0.004
-644.726	36.015	-0.064	0.056
-643.711	-200.000	0.012	0.255
-642.697	-200.000	-0.030	-0.327
-641.682	-140.078	0.125	-0.013
-640.668	-96.119	0.343	-0.091
-639.653	-34.396	-0.264	0.145
-638.638	156.124	0.084	-0.116
-637.624	-106.176	-0.064	-0.014
-636.609	-200.000	0.008	-0.282
-635.595	-103.595	-0.237	-0.055
-634.580	132.947	-0.112	-0.145
-633.565	-48.410	0.038	-0.018
-632.551	317.570	-0.163	0.307
-631.536	-33.291	0.262	-0.144
-630.522	-30.943	0.065	-0.037
-629.507	20.176	-0.216	0.174
-628.492	128.956	0.253	0.322
-627.478	-39.037	-0.437	-0.230
-626.463	191.780	-0.104	0.156
-625.449	-45.385	0.351	-0.173
-624.434	-130.046	-0.274	0.037
-623.419	-101.648	-0.119	0.029
-622.405	-71.486	0.277	0.103
-621.390	-136.972	-0.076	-0.009
-620.376	-13.846	-0.179	0.116
-619.361	576.058	0.099	0.240
-618.346	-51.976	-0.176	0.082
-617.332	-200.000	0.026	-0.125
-616.317	94.300	-0.205	0.232
-615.303	-31.369	0.234	-0.131
-614.288	-48.319	-0.064	0.031
-613.273	-85.840	-0.043	-0.013
-612.259	20.332	-0.201	0.162
-611.244	-138.603	0.349	0.038
-610.230	-200.000	0.006	-0.080
-609.215	-86.261	-0.286	0.088
-608.201	239.523	-0.044	-0.073
-607.186	7.107	0.148	-0.110
-606.171	16.096	0.088	0.069
-605.157	79.603	0.177	-0.189
-604.142	-22.797	-0.069	0.042
-603.128	-47.414	0.349	-0.169
-602.113	628.885	-0.092	0.233
-601.098	30.537	-0.249	0.212
-600.084	-137.785	0.259	-0.029
-599.069	61.558	-0.218	-0.216
-598.055	-37.743	0.211	-0.112
-597.040	-155.496	0.145	0.009
-596.025	60.300	0.022	0.021
-595.011	-96.004	0.175	0.046
-593.996	24.445	0.110	0.090
-592.982	-171.714	-0.091	-0.003
-591.967	-52.380	-0.160	0.074
-590.952	-200.000	0.050	-0.263
-589.938	-200.000	-0.006	0.213
-588.923	11.051	-0.068	0.052
-587.909	355.176	0.163	0.323
-586.894	28.144	-0.206	0.173
-585.879	-22.241	0.259	-0.157
-584.865	6.085	0.394	-0.291
-583.850	-23.096	-0.088	-0.053
-582.836	26.763	0.237	-0.198
-581.821	543.463	-0.026	-0.062
-580.806	-140.350	0.120	-0.013
-579.792	-200.000	0.020	0.197
-578.777	-51.197	0.259	-0.121
-577.763	251.534	-0.307	-0.520
-576.748	-200.000	0.025	-0.153
-575.733	169.481	0.156	0.222
-574.719	-200.000	-0.005	0.107
-573.704	-43.917	-0.163	0.082
-572.690	800.000	-0.041	0.113
-571.675	800.000	-0.036	-0.107
-570.661	-187.353	0.153	0.002
-569.646	-41.920	-0.382	-0.195
-568.631	-200.000	0.039	0.258
-567.617	-25.649	-0.083	-0.049
-566.602	-100.541	-0.155	0.038
-565.588	454.856	0.028	0.063
-564.573	580.410	-0.054	-0.131
-563.558	-45.668	0.082	0.040
-562.544	-200.000	-0.012	-0.090
-561.529	-200.000	-0.029	-0.283
-560.515	-17.081	0.199	-0.125
-559.500	-55.811	-0.442	-0.197
-558.485	424.781	-0.076	-0.163
-557.471	-162.254	-0.169	-0.008
-556.456	61.656	-0.166	0.164
-555.442	-28.079	0.196	0.113
-554.427	-131.743	-0.292	0.038
-553.412	468.656	0.051	0.115
-552.398	-35.922	-0.185	0.100
-551.383	-5.276	0.142	-0.097
-550.369	94.426	-0.186	0.210
-549.354	337.806	0.205	0.396
-548.339	-200.000	0.012	0.105
-547.325	333.489	-0.120	0.232
-546.310	-80.045	-0.148	0.049
-545.296	-122.961	0.143	-0.023
-544.281	-158.938	-0.295	-0.017
-543.266	-200.000	0.007	0.269
-542.252	115.351	0.130	-0.158
-541.237	69.683	-0.086	-0.088
-540.223	375.956	0.050	0.102
-539.208	-200.000	0.016	0.344
-538.193	-176.715	-0.100	-0.003
-537.179	-200.000	-0.036	-0.318
-536.164	-99.975	-0.507	-0.126
-535.150	-8.493	0.050	0.034
-534.135	155.791	0.405	0.554
-533.121	-200.000	0.354	-0.001
-532.106	-136.898	-0.489	-0.056
-531.091	-200.000	0.009	-0.074
-530.077	332.107	-0.155	-0.297
-529.062	786.114	-0.106	-0.289
-528.048	-28.059	0.063	0.036
-527.033	-103.558	0.144	-0.034
-526.018	800.000	-0.047	0.160
-525.004	54.073	-0.127	0.121
-523.989	12.885	0.056	-0.043
-522.975	-158.877	-0.159	-0.009
-521.960	73.899	-0.076	-0.079
-520.945	-24.761	0.190	0.112
-519.931	698.518	0.041	-0.108
-518.916	-49.331	0.200	0.095
-517.902	-155.165	0.145	-0.009
-516.887	597.681	0.158	0.390
-515.872	-167.543	-0.229	-0.009
-514.858	-200.000	0.012	-0.084
-513.843	-200.000	0.063	-0.321
-512.829	-59.556	0.275	-0.117
-511.814	93.140	-0.119	0.133
-510.799	800.000	-0.060	0.223
-509.785	-200.000	-0.016	0.260
-508.770	800.000	0.042	0.121
-507.756	-136.513	-0.124	-0.014
-506.741	226.068	0.044	0.071
-505.726	-54.243	0.056	-0.025
-504.712	-148.091	0.257	-0.021
-503.697	419.535	-0.059	-0.125
-502.683	-58.299	-0.271	0.117
-501.668	-120.005	0.352	-0.060
-500.653	-68.902	-0.181	-0.069
-499.639	800.000	0.079	0.320
-498.624	-200.000	0.006	-0.109
-497.610	547.196	0.089	-0.213
-496.595	-143.523	0.302	-0.029
-495.581	44.052	0.113	0.102
-494.566	509.179	0.115	0.265
-493.551	800.000	-0.068	-0.289
-492.537	99.285	0.207	-0.237
-491.522	800.000	0.061	0.198
-490.508	778.090	-0.073	-0.197
-489.493	243.739	0.103	-0.172
-488.478	-25.887	0.033	0.019
-487.464	-178.870	0.322	0.007
-486.449	11.530	-0.285	0.217
-485.435	-200.000	-0.026	0.235
-484.420	-142.989	-0.514	-0.049
-483.405	-14.119	0.050	0.032
-482.391	-109.556	0.223	0.047
-481.376	-34.651	-0.236	-0.128
-480.362	-200.000	0.006	-0.180
-479.347	13.392	0.123	-0.095
-478.332	261.966	-0.126	0.216
-477.318	800.000	0.018	-0.076
-476.303	-164.707	0.357	-0.016
-475.289	17.221	0.109	-0.086
-474.274	-200.000	-0.068	-0.387
-473.259	-113.189	-0.181	0.035
-472.245	-11.020	-0.202	-0.132
-471.230	-101.811	-0.064	-0.015
-470.216	20.139	0.060	0.048
-469.201	-200.000	0.031	0.136
-468.186	-102.449	-0.140	0.033
-467.172	1.790	-0.324	0.231
-466.157	56.303	0.190	0.183
-465.143	-154.509	0.381	-0.025
-464.128	506.089	-0.085	0.196
-463.113	34.600	0.125	0.108
-462.099	40.418	-0.226	-0.202
-461.084	-200.000	-0.012	-0.058
-460.070	82.244	0.103	0.111
-459.055	800.000	-0.133	0.449
-458.040	229.753	-0.084	-0.136
-457.026	800.000	-0.055	0.159
-456.011	-200.000	-0.045	0.239
-454.997	800.000	-0.011	0.038
-453.982	-24.464	0.139	0.082
-452.968	-105.791	0.106	0.024
-451.953	96.278	0.147	0.167
-450.938	-75.658	-0.213	0.075
-449.924	-7.882	-0.194	0.129
-448.909	160.335	0.241	0.333
-447.895	19.829	-0.107	0.086
-446.880	400.159	0.081	-0.168
-445.865	-90.750	0.050	0.014
-444.851	-200.000	-0.003	0.053
-443.836	26.892	-0.056	-0.046
-442.822	266.978	0.114	-0.198
-441.807	-80.812	-0.342	0.112
-440.792	-137.420	0.200	-0.022
-439.778	-200.000	0.080	-0.676
-438.763	-29.271	-0.091	-0.052
-437.749	177.041	-0.094	0.135
-436.734	-200.000	0.004	-0.230
-435.719	-200.000	-0.116	0.650
-434.705	-95.182	0.418	-0.112
-433.690	-38.561	-0.242	0.127
-432.676	-45.032	-0.113	0.056
-431.661	-200.000	-0.022	0.294
-430.646	82.451	0.180	-0.193
-429.632	-155.438	0.270	0.017
-428.617	60.984	0.050	-0.050
-427.603	-46.524	-0.074	-0.036
-426.588	-103.365	0.248	-0.058
-425.573	101.821	0.107	0.123
-424.559	800.000	0.095	-0.300
-423.544	361.660	-0.070	-0.139
-422.530	-105.370	0.164	-0.037
-421.515	-98.409	0.387	0.098
-420.500	266.443	0.167	0.289
-419.486	140.483	-0.222	-0.290
-418.471	129.118	-0.189	-0.238
-417.457	800.000	0.069	0.265
-416.442	-19.912	-0.379	-0.231
-415.428	-87.843	0.237	-0.071
-414.413	33.052	0.217	0.186
-413.398	30.417	-0.084	0.071
-412.384	146.721	-0.187	-0.249
-411.369	-200.000	0.010	-0.091
-410.355	584.142	-0.044	-0.107
-409.340	156.404	0.208	0.283
-408.325	23.484	0.176	0.143
-407.311	-200.000	0.021	-0.109
-406.296	-4.122	0.118	-0.081
-405.282	-76.787	-0.351	-0.122
-404.267	800.000	0.122	0.349
-403.252	711.792	-0.060	0.158
-402.238	-146.033	-0.182	0.016
-401.223	27.727	-0.020	0.016
-400.209	-160.293	-0.156	0.008
-399.194	-35.362	-0.075	-0.040
-398.179	-40.686	-0.215	0.110
-397.165	-157.998	0.412	0.024
-396.150	800.000	-0.075	-0.228
-395.136	107.577	-0.091	-0.107
-394.121	-200.000	0.027	0.192
-393.106	-200.000	0.058	0.405
-392.092	-107.286	-0.060	-0.013
-391.077	-180.289	0.449	-0.009
-390.063	62.229	-0.094	-0.092
-389.048	-98.845	-0.109	-0.027
-388.033	-48.617	0.186	0.088
-387.019	295.105	-0.213	-0.384
-386.004	705.335	-0.043	-0.112
-384.990	-8.463	-0.285	0.190
-383.975	-75.172	-0.453	0.160
-382.960	-10.368	0.199	-0.131
-381.946	-200.000	-0.015	0.089
-380.931	150.412	-0.144	-0.194
-379.917	-136.108	-0.111	0.013
-378.902	231.183	0.114	0.184
-377.888	-95.400	0.249	-0.066
-376.873	187.224	-0.119	-0.175
-375.858	800.000	0.087	0.243
-374.844	-104.302	0.152	0.035
-373.829	-140.347	-0.041	-0.004
-372.815	39.243	-0.289	-0.256
-371.800	-200.000	-0.008	-0.091
-370.785	-98.427	0.246	-0.062
-369.771	-93.398	-0.289	-0.079
-368.756	-90.076	-0.258	-0.074
-367.742	-23.628	0.431	-0.255
-366.727	10.442	-0.192	0.145
-365.712	-200.000	-0.021	-0.169
-364.698	176.151	-0.117	-0.168
-363.683	349.119	0.059	-0.114
-362.669	-177.718	0.208	0.005
-361.654	143.191	0.093	0.122
-360.639	5.516	-0.246	0.179
-359.625	-200.000	0.022	-0.217
-358.610	-126.469	0.116	0.017
-357.596	-72.270	-0.053	-0.019
-356.581	88.964	0.164	0.180
-355.566	-129.257	-0.193	0.027
-354.552	466.079	0.042	0.093
-353.537	48.700	-0.074	0.068
-352.523	94.781	-0.143	0.161
-351.508	-136.322	-0.259	0.030
-350.493	-200.000	0.240	0.000
-349.479	219.308	-0.039	-0.061
-348.464	800.000	0.039	-0.124
-347.450	221.593	-0.184	0.292
-346.435	-97.395	0.132	0.034
-345.420	-143.347	0.192	0.018
-344.406	195.815	-0.244	0.366
-343.391	-112.422	0.148	0.029
-342.377	-123.874	-0.277	0.043
-341.362	-110.239	-0.048	-0.010
-340.348	-32.611	-0.215	0.118
-339.333	-144.300	0.332	-0.030
-338.318	-142.730	-0.106	0.010
-337.304	-139.439	0.292	0.031
-336.289	-15.419	-0.138	0.087
-335.275	36.486	0.171	0.149
-334.260	-200.000	0.246	0.000
-333.245	-200.000	-0.001	0.023
-332.231	800.000	0.056	-0.193
-331.216	-33.062	-0.189	-0.103
-330.202	140.701	-0.150	-0.195
-329.187	-200.000	0.043	0.419
-328.172	-112.315	-0.085	0.017
-327.158	-182.967	0.195	-0.003
-326.143	-109.591	0.238	-0.049
-325.129	-15.462	-0.145	0.091
-324.114	-100.392	0.103	0.025
-323.099	800.000	-0.096	0.272
-322.085	8.786	0.264	-0.196
-321.070	-200.000	0.011	-0.298
-320.056	39.376	-0.132	-0.116
-319.041	-200.000	0.020	-0.301
-318.026	469.400	0.053	0.118
-317.012	-25.576	-0.357	-0.208
-315.997	224.927	0.078	-0.125
-314.983	-128.318	-0.409	0.057
-313.968	248.024	-0.203	-0.338
-312.953	98.157	-0.197	0.223
-311.939	-200.000	-0.042	0.275
-310.924	117.746	0.042	0.050
-309.910	-116.755	0.617	0.112
-308.895	112.427	-0.045	-0.054
-307.880	-102.671	-0.249	0.058
-306.866	716.912	-0.057	0.148
-305.851	540.782	-0.072	-0.169
-304.837	59.875	0.234	-0.228
-303.822	-125.399	0.275	-0.041
-302.807	584.617	0.017	0.041
-301.793	-84.575	0.210	0.065
-300.778	-112.281	0.206	0.041
-299.764	-150.835	0.220	-0.016
-298.749	-200.000	0.014	0.107
-297.735	228.612	0.089	0.142
-296.720	604.276	0.084	0.205
-295.705	-200.000	0.012	-0.238
-294.691	1.253	0.219	0.155
-293.676	-114.780	0.221	0.042
-292.662	-85.516	-0.166	0.051
-291.647	-8.362	-0.069	-0.046
-290.632	-13.538	0.208	-0.133
-289.618	-163.537	0.247	-0.012
-288.603	435.544	0.072	0.154
-287.589	209.972	0.131	0.203
-286.574	-76.757	0.324	0.112
-285.559	527.908	-0.109	-0.254
-284.545	-107.560	0.311	-0.067
-283.530	-176.447	0.102	-0.003
-282.516	-75.186	0.226	0.079
-281.501	81.388	0.051	0.054
-280.486	195.096	0.107	-0.159
-279.472	-200.000	0.021	-0.207
-278.457	-173.036	-0.038	0.001
-277.443	-33.480	0.109	0.059
-276.428	-108.124	-0.336	-0.072
-275.413	347.634	-0.066	0.128
-274.399	56.035	0.214	-0.204
-273.384	-60.004	0.235	0.099
-272.370	136.584	-0.120	0.155
-271.355	15.001	-0.432	0.333
-270.340	-200.000	0.002	0.214
-269.326	394.189	-0.162	-0.333
-268.311	13.320	-0.093	-0.071
-267.297	-118.013	-0.233	0.041
-266.282	-200.000	0.009	0.177
-265.267	800.000	0.037	0.126
-264.253	-82.180	0.077	-0.025
-263.238	118.057	-0.315	0.382
-262.224	-63.641	-0.201	-0.081
-261.209	-141.866	-0.325	0.032
-260.195	800.000	-0.104	-0.292
-259.180	-200.000	-0.041	-0.290
-258.165	-101.939	-0.223	-0.053
-257.151	-155.921	0.137	-0.009
-256.136	12.464	0.083	-0.063
-255.122	-200.000	-0.039	0.393
-254.107	198.645	0.076	-0.114
-253.092	-117.139	-0.283	-0.051
-252.078	800.000	0.047	-0.159
-251.063	208.916	-0.150	-0.230
-250.049	341.864	0.052	0.101
-249.034	800.000	-0.056	0.160
-248.019	487.198	0.106	0.239
-247.005	-97.213	0.149	0.038
-245.990	-25.871	-0.207	0.120
-244.976	-24.299	0.255	-0.149
-243.961	-200.000	0.026	0.256
-242.946	128.227	-0.237	-0.297
-241.932	259.898	-0.179	-0.304
-240.917	144.664	0.171	-0.224
-239.903	-78.913	0.016	0.005
-238.888	-105.966	0.088	0.019
-237.873	-200.000	-0.035	0.444
-236.859	111.463	-0.056	-0.067
-235.844	-1.507	0.114	-0.079
-234.830	8.489	-0.202	-0.149
-233.815	-52.785	0.214	-0.097
-232.800	-21.622	0.208	0.125
-231.786	208.186	0.138	0.212
-230.771	-54.615	0.142	0.063
-229.757	-200.000	0.019	0.119
-228.742	173.615	-0.208	0.294
-227.727	534.190	-0.093	-0.217
-226.713	-88.020	0.149	-0.044
-225.698	-139.417	-0.267	-0.028
-224.684	800.000	0.093	-0.321
-223.669	-51.008	-0.054	-0.025
-222.655	296.483	0.058	-0.104
-221.640	800.000	-0.022	-0.074
-220.625	-200.000	0.057	-0.257
-219.611	-96.848	-0.165	0.042
-218.596	493.091	0.046	-0.105
-217.582	36.073	-0.283	-0.245
-216.567	-20.229	0.280	-0.169
-215.552	-178.510	-0.315	-0.007
-214.538	512.983	-0.040	0.092
-213.523	-63.423	-0.213	-0.086
-212.509	144.439	-0.133	0.175
-211.494	-133.736	-0.260	-0.032
-210.479	162.032	0.166	-0.228
-209.465	693.288	0.048	0.122
-208.450	-84.927	-0.129	0.040
-207.436	-120.049	0.338	0.057
-206.421	-200.000	-0.036	-0.465
-205.406	-117.647	-0.271	-0.048
-204.392	536.762	-0.089	-0.206
-203.377	211.567	-0.154	0.238
-202.363	-122.570	-0.187	0.030
-201.348	229.060	-0.048	0.076
-200.333	48.075	0.095	-0.087
-199.319	-114.927	-0.312	-0.058
-198.304	-90.719	0.412	-0.117
-197.290	281.682	0.037	0.065
-196.275	-6.473	-0.046	-0.031
-195.260	800.000	-0.068	0.244
-194.246	106.288	0.226	-0.263
-193.231	-99.066	0.159	-0.039
-192.217	399.621	-0.055	0.114
-191.202	62.795	0.078	-0.077
-190.187	-200.000	0.066	-0.314
-189.173	773.001	-0.103	-0.274
-188.158	399.422	0.138	0.283
-187.144	-75.679	0.229	0.080
-186.129	119.360	-0.234	-0.284
-185.114	-200.000	0.017	-0.106
-184.100	113.595	0.112	0.134
-183.085	-146.340	0.347	-0.030
-182.071	-145.947	-0.295	0.026
-181.056	-200.000	0.058	0.605
-180.042	-118.457	-0.077	-0.013
-179.027	-96.721	0.176	-0.045
-178.012	260.312	-0.220	0.372
-176.998	111.406	0.105	0.124
-175.983	-73.197	-0.193	0.069
-174.969	95.113	0.406	-0.453
-173.954	232.107	0.023	-0.037
-172.939	110.765	-0.079	0.093
-171.925	250.161	0.095	-0.158
-170.910	800.000	-0.051	0.158
-169.896	496.870	0.047	0.106
-168.881	-200.000	-0.053	-0.315
-167.866	-125.295	0.265	-0.040
-166.852	707.177	-0.055	0.141
-165.837	-200.000	-0.018	-0.160
-164.823	51.879	0.032	0.029
-163.808	409.608	-0.106	0.220
-162.793	-108.852	0.217	-0.045
-161.779	384.161	0.072	-0.145
-160.764	52.340	-0.294	-0.275
-159.750	120.240	0.307	-0.373
-158.735	-200.000	0.036	-0.164
-157.720	800.000	-0.050	0.195
-156.706	-29.920	-0.113	-0.063
-155.691	172.455	-0.251	-0.354
-154.677	-152.696	0.076	0.005
-153.662	-200.000	-0.011	-0.116
-152.647	-90.157	-0.049	-0.014
-151.633	800.000	-0.076	-0.300
-150.618	-3.775	-0.037	-0.025
-149.604	98.722	-0.171	0.193
-148.589	-152.949	-0.522	0.036
-147.574	-200.000	-0.086	-0.609
-146.560	800.000	-0.095	-0.407
-145.545	34.604	-0.069	-0.059
-144.531	418.412	0.102	-0.214
-143.516	-168.318	-0.282	-0.011
-142.502	564.892	0.086	0.203
-141.487	-200.000	-0.020	0.197
-140.472	-43.064	0.154	-0.077
-139.458	-125.066	-0.424	0.064
-138.443	-200.000	0.016	-0.252
-137.429	-151.165	0.380	0.028
-136.414	335.700	-0.081	-0.153
-135.399	134.418	0.085	-0.108
-134.385	265.123	-0.070	0.119
-133.370	282.918	0.099	0.173
-132.356	26.939	0.197	-0.162
-131.341	-44.822	-0.224	0.109
-130.326	165.583	0.078	0.108
-129.312	29.208	-0.097	-0.081
-128.297	125.680	-0.012	-0.014
-127.283	322.591	-0.071	0.133
-126.268	19.720	0.279	-0.220
-125.253	298.151	0.058	0.104
-124.239	-31.663	0.389	-0.214
-123.224	101.275	-0.117	0.133
-122.210	-91.102	0.187	0.052
