DTS Sentinel unit serial number:	SN413079Multiplexer serial number:	ORYXHardware model number:	OX4-SRSoftware version number:	ORYX F/W v4.00 Oryx Data Collector v3.7.2.0data status	okinstallation	princeton_trtdifferential loss correction	single-endedforward channel	channel 1reverse channel	N/Adate	2019/09/14time	22:58:35forward acquisition time	60.00reverse acquisition time	0.00gamma	496.2192k internal	0.2319k external	0.2319temperature offset calibration	1.0004default loss term (dB/km)	0.3790temperature slope calibration	1.0000multiplexer offset coefficient	1.0000multiplexer slope coefficient	1.0000fibre end	0.00T internal ref (°C)	32.44T ext. ref 1 (°C)	4.66T ext. ref 2 (°C)	27.46length (m)	temperature (°C)	Stokes	anti-Stokes-747.200	-139.351	-0.178	-0.019
-746.185	141.557	0.251	0.336
-745.171	98.346	0.122	0.143
-744.156	-84.975	-0.119	-0.038
-743.142	23.057	0.054	0.045
-742.127	-200.000	-0.029	0.244
-741.112	-33.005	-0.116	0.065
-740.098	-10.333	-0.126	0.084
-739.083	-200.000	0.008	-0.100
-738.069	119.145	0.111	0.138
-737.054	-27.955	0.065	0.038
-736.039	-96.683	0.052	0.014
-735.025	691.977	0.117	0.309
-734.010	-151.942	-0.228	-0.017
-732.996	-66.519	0.192	0.077
-731.981	800.000	0.048	0.170
-730.966	-34.318	-0.249	0.138
-729.952	-16.425	-0.363	-0.233
-728.937	190.993	0.050	0.077
-727.923	529.376	0.091	-0.217
-726.908	-200.000	-0.025	0.230
-725.894	119.314	0.067	-0.084
-724.879	384.346	0.074	0.155
-723.864	175.778	0.017	0.024
-722.850	33.023	-0.132	-0.115
-721.835	-200.000	0.022	-0.234
-720.821	324.959	0.065	0.125
-719.806	339.765	-0.063	-0.123
-718.791	-49.696	-0.125	0.060
-717.777	234.541	0.083	0.138
-716.762	-85.933	0.187	-0.058
-715.748	-127.409	0.318	0.047
-714.733	-6.044	-0.154	0.106
-713.718	61.462	-0.287	0.288
-712.704	-200.000	0.024	-0.187
-711.689	-40.146	0.202	0.106
-710.675	800.000	-0.045	0.200
-709.660	56.004	-0.170	-0.166
-708.645	269.156	0.128	-0.227
-707.631	-149.362	-0.160	-0.013
-706.616	-43.869	-0.148	-0.075
-705.602	674.648	-0.125	0.329
-704.587	-2.244	-0.197	0.140
-703.572	93.537	-0.351	0.401
-702.558	237.006	0.197	0.330
-701.543	-13.152	0.181	0.119
-700.529	159.838	0.088	0.124
-699.514	-200.000	0.007	-0.102
-698.499	16.917	-0.225	-0.180
-697.485	-200.000	0.005	-0.078
-696.470	46.253	0.268	-0.251
-695.456	266.727	0.285	0.503
-694.441	-100.487	-0.284	0.071
-693.426	-200.000	-0.013	-0.184
-692.412	-200.000	-0.067	-0.461
-691.397	-92.858	-0.229	-0.065
-690.383	26.078	-0.150	0.126
-689.368	10.572	-0.177	-0.136
-688.354	-82.101	-0.231	0.076
-687.339	94.299	-0.123	-0.141
-686.324	175.309	0.145	-0.211
-685.310	214.483	0.117	0.187
-684.295	-189.014	-0.202	-0.002
-683.281	-200.000	-0.010	0.130
-682.266	-94.079	0.129	0.036
-681.251	73.335	0.091	-0.096
-680.237	-200.000	-0.039	-0.236
-679.222	-101.076	0.168	-0.042
-678.208	-59.642	-0.154	0.067
-677.193	800.000	-0.031	0.123
-676.178	-134.739	-0.343	-0.042
-675.164	281.973	0.151	-0.273
-674.149	-27.247	-0.242	0.142
-673.135	-40.982	-0.073	0.038
-672.120	348.140	-0.116	0.230
-671.105	138.884	-0.025	-0.034
-670.091	-44.578	0.483	-0.244
-669.076	-142.541	0.275	-0.027
-668.062	-122.556	0.106	-0.017
-667.047	342.499	-0.139	0.273
-666.032	116.067	-0.062	0.076
-665.018	-82.236	-0.230	0.075
-664.003	84.879	0.159	-0.176
-662.989	-200.000	0.009	-0.120
-661.974	-200.000	-0.011	-0.146
-660.959	-110.248	0.098	-0.021
-659.945	800.000	-0.022	-0.087
-658.930	39.125	0.087	-0.079
-657.916	408.277	0.069	-0.146
-656.901	800.000	0.081	-0.343
-655.886	675.757	-0.143	-0.375
-654.872	197.172	-0.081	0.124
-653.857	-25.362	0.134	-0.080
-652.843	13.926	-0.249	0.195
-651.828	-27.984	0.186	0.108
-650.814	-200.000	0.035	0.296
-649.799	295.601	0.084	0.156
-648.784	-107.936	-0.274	-0.060
-647.770	-110.121	-0.305	0.064
-646.755	-105.389	-0.090	-0.021
-645.741	-55.876	-0.057	-0.026
-644.726	223.673	-0.296	0.481
-643.711	-2.344	-0.197	0.139
-642.697	-158.803	0.205	-0.012
-641.682	-65.543	0.025	-0.010
-640.668	240.511	-0.181	0.304
-639.653	146.110	-0.031	-0.042
-638.638	-64.600	-0.277	-0.113
-637.624	272.681	-0.106	0.189
-636.609	52.971	-0.208	-0.200
-635.595	93.382	0.258	0.295
-634.580	90.959	0.076	0.086
-633.565	800.000	0.098	-0.278
-632.551	-133.239	-0.522	0.066
-631.536	312.915	0.056	0.106
-630.522	800.000	0.074	0.232
-629.507	-117.338	-0.122	0.022
-628.492	4.323	0.107	-0.079
-627.478	800.000	0.104	-0.409
-626.463	-29.187	0.460	-0.265
-625.449	90.859	0.102	0.115
-624.434	242.805	-0.102	-0.173
-623.419	70.804	-0.188	-0.196
-622.405	-15.283	0.024	0.015
-621.390	-200.000	0.003	-0.150
-620.376	-200.000	0.003	-0.272
-619.361	95.597	-0.176	-0.202
-618.346	-18.247	-0.105	-0.066
-617.332	800.000	-0.025	0.096
-616.317	442.628	-0.146	0.322
-615.303	-123.037	-0.313	0.051
-614.288	214.888	0.055	-0.087
-613.273	-29.617	-0.146	-0.084
-612.259	34.196	-0.396	-0.347
-611.244	-25.474	0.201	0.120
-610.230	219.432	-0.124	-0.199
-609.215	-200.000	0.002	-0.048
-608.201	405.322	-0.155	-0.329
-607.186	-1.426	0.113	0.080
-606.171	-133.336	-0.223	0.028
-605.157	-134.844	-0.189	0.023
-604.142	249.963	-0.100	0.170
-603.128	-200.000	-0.030	-0.475
-602.113	-87.411	-0.204	-0.062
-601.098	-16.169	0.204	0.130
-600.084	321.205	-0.043	0.082
-599.069	58.494	-0.059	0.059
-598.055	800.000	-0.029	-0.093
-597.040	-71.739	0.290	-0.109
-596.025	258.513	-0.122	-0.211
-595.011	34.068	0.013	-0.012
-593.996	-22.474	-0.296	-0.180
-592.982	-53.431	0.191	0.088
-591.967	-1.000	0.034	0.024
-590.952	196.817	-0.043	0.067
-589.938	157.470	-0.121	0.168
-588.923	-116.041	0.122	-0.023
-587.909	46.001	0.169	-0.157
-586.894	-59.204	0.155	0.067
-585.879	-200.000	-0.182	0.001
-584.865	-87.072	0.118	0.036
-583.850	447.681	-0.104	0.229
-582.836	501.712	0.080	0.186
-581.821	317.771	-0.193	-0.367
-580.806	800.000	-0.072	-0.278
-579.792	-99.215	0.290	-0.074
-578.777	800.000	0.092	-0.302
-577.763	-95.098	-0.256	0.069
-576.748	-200.000	0.022	0.136
-575.733	83.922	-0.222	0.244
-574.719	-37.382	0.191	-0.102
-573.704	-93.562	0.042	0.012
-572.690	800.000	-0.055	0.223
-571.675	-200.000	0.010	0.142
-570.661	34.070	-0.153	-0.134
-569.646	800.000	0.084	0.267
-568.631	223.609	-0.133	-0.216
-567.617	800.000	-0.045	0.173
-566.602	-69.527	-0.152	-0.058
-565.588	800.000	-0.085	-0.243
-564.573	148.716	0.084	-0.114
-563.558	-58.737	-0.424	0.184
-562.544	179.495	-0.093	0.137
-561.529	-94.626	0.223	-0.061
-560.515	800.000	-0.042	0.124
-559.500	129.145	0.294	0.377
-558.485	-8.174	-0.127	0.086
-557.471	-81.290	0.117	0.039
-556.456	-30.617	0.163	-0.093
-555.442	164.417	0.207	0.293
-554.427	-117.881	-0.299	-0.054
-553.412	199.643	0.127	0.196
-552.398	-200.000	0.005	-0.212
-551.383	-67.128	-0.280	0.111
-550.369	-26.553	0.085	-0.050
-549.354	-62.477	-0.149	0.062
-548.339	-200.000	0.039	-0.311
-547.325	746.095	0.131	-0.355
-546.310	40.814	-0.097	-0.088
-545.296	-19.350	0.134	-0.083
-544.281	-170.486	-0.320	0.011
-543.266	-129.538	-0.083	-0.011
-542.252	-154.702	0.186	0.012
-541.237	438.909	-0.130	-0.286
-540.223	-72.521	-0.259	-0.096
-539.208	151.246	0.033	-0.045
-538.193	67.043	0.131	-0.134
-537.179	18.689	-0.325	-0.261
-536.164	800.000	0.032	-0.107
-535.150	2.747	0.107	-0.078
-534.135	574.453	-0.077	-0.188
-533.121	-200.000	-0.054	-0.360
-532.106	3.838	0.144	-0.106
-531.091	-148.930	0.179	-0.014
-530.077	17.657	-0.196	0.157
-529.062	-26.053	0.063	-0.037
-528.048	138.049	0.064	0.085
-527.033	17.174	-0.248	-0.197
-526.018	800.000	-0.063	0.203
-525.004	274.545	-0.011	-0.020
-523.989	-101.317	0.252	-0.062
-522.975	103.796	0.206	0.242
-521.960	202.222	0.076	0.117
-520.945	-104.566	-0.078	0.018
-519.931	34.286	-0.137	-0.120
-518.916	-200.000	0.009	-0.331
-517.902	-43.857	-0.232	-0.117
-516.887	17.574	-0.214	0.171
-515.872	152.375	-0.136	0.187
-514.858	39.521	0.118	-0.106
-513.843	-145.892	-0.051	-0.005
-512.829	-200.000	-0.063	0.317
-511.814	800.000	-0.162	0.457
-510.799	800.000	-0.040	0.137
-509.785	-160.680	0.194	-0.010
-508.770	-135.270	0.283	0.034
-507.756	68.565	0.264	-0.271
-506.741	-85.358	-0.195	0.061
-505.726	800.000	0.079	-0.273
-504.712	-200.000	0.016	0.141
-503.697	2.009	-0.226	0.164
-502.683	211.879	0.074	-0.117
-501.668	722.183	-0.084	0.224
-500.653	123.475	-0.049	0.061
-499.639	0.006	0.297	-0.212
-498.624	105.304	-0.203	-0.240
-497.610	-79.971	0.176	-0.059
-496.595	205.919	0.144	-0.225
-495.581	-64.937	0.060	0.024
-494.566	-200.000	0.050	-0.274
-493.551	15.205	0.175	0.137
-492.537	-58.715	-0.044	0.019
-491.522	-138.453	0.147	-0.016
-490.508	20.175	0.283	-0.229
-489.493	528.881	-0.196	0.464
-488.478	800.000	-0.075	-0.302
-487.464	635.321	0.060	-0.151
-486.449	118.957	0.136	0.168
-485.435	150.492	-0.112	0.153
-484.420	21.301	0.450	0.366
-483.405	-97.242	0.209	-0.055
-482.391	31.158	0.190	0.164
-481.376	800.000	-0.031	0.127
-480.362	65.087	-0.197	0.199
-479.347	-50.117	-0.010	0.005
-478.332	360.914	-0.045	-0.090
-477.318	102.919	-0.209	0.245
-476.303	-20.075	0.316	0.195
-475.289	-200.000	-0.007	0.132
-474.274	-10.931	0.240	0.159
-473.259	-180.919	0.370	0.007
-472.245	241.759	-0.099	-0.165
-471.230	-155.781	-0.256	-0.016
-470.216	-200.000	0.008	0.054
-469.201	-62.032	0.106	-0.044
-468.186	102.027	0.133	0.156
-467.172	-73.694	-0.086	0.031
-466.157	-92.511	-0.146	-0.041
-465.143	800.000	-0.024	0.083
-464.128	25.286	-0.138	-0.114
-463.113	165.927	0.072	0.102
-462.099	-41.877	-0.052	0.027
-461.084	-161.128	-0.223	-0.012
-460.070	-173.796	0.212	-0.006
-459.055	198.347	-0.182	-0.278
-458.040	382.306	-0.118	0.243
-457.026	146.041	-0.221	-0.296
-456.011	750.623	0.216	-0.584
-454.997	-188.461	-0.527	0.007
-453.982	-117.427	-0.470	-0.085
-452.968	-85.907	0.380	0.118
-451.953	-61.115	0.192	0.081
-450.938	462.132	0.055	0.122
-449.924	-125.034	0.157	0.024
-448.909	24.019	-0.244	-0.202
-447.895	98.684	0.210	-0.242
-446.880	-52.952	-0.384	0.177
-445.865	157.014	-0.145	0.200
-444.851	-112.417	0.154	0.031
-443.836	68.122	-0.192	-0.197
-442.822	281.551	-0.085	-0.152
-441.807	96.590	0.349	0.399
-440.792	29.645	-0.209	0.178
-439.778	245.739	-0.185	-0.311
-438.763	800.000	-0.024	-0.083
-437.749	4.543	-0.193	0.142
-436.734	-70.571	0.145	0.055
-435.719	-18.036	0.182	0.114
-434.705	-200.000	0.014	-0.095
-433.690	-117.823	0.027	0.005
-432.676	-76.740	-0.242	-0.085
-431.661	-200.000	-0.005	-0.109
-430.646	200.453	-0.065	-0.100
-429.632	-200.000	0.017	-0.131
-428.617	-83.757	0.292	-0.093
-427.603	10.054	-0.122	0.093
-426.588	-99.297	0.249	-0.063
-425.573	-32.768	0.084	-0.047
-424.559	-10.328	0.255	-0.169
-423.544	-144.980	0.159	-0.014
-422.530	-200.000	0.014	-0.217
-421.515	800.000	-0.090	0.310
-420.500	68.524	0.146	-0.149
-419.486	-5.840	0.066	0.045
-418.471	-200.000	-0.014	0.090
-417.457	-23.923	0.208	-0.124
-416.442	101.097	0.035	-0.040
-415.428	-22.349	-0.286	-0.173
-414.413	277.973	0.197	0.350
-413.398	-200.000	-0.019	-0.188
-412.384	221.076	-0.112	-0.179
-411.369	428.524	0.106	-0.228
-410.355	72.117	-0.191	0.198
-409.340	83.680	0.075	-0.082
-408.325	274.869	0.138	-0.245
-407.311	-132.901	-0.156	0.020
-406.296	-101.339	0.355	-0.086
-405.282	185.523	0.176	0.261
-404.267	-200.000	-0.006	0.224
-403.252	-77.181	0.245	0.085
-402.238	304.556	-0.106	0.196
-401.223	-11.295	-0.179	0.118
-400.209	800.000	0.125	-0.352
-399.194	-137.589	0.125	0.014
-398.179	483.531	-0.016	-0.037
-397.165	-200.000	0.016	-0.305
-396.150	-35.044	0.156	-0.085
-395.136	-71.352	0.379	0.142
-394.121	-73.953	-0.163	-0.059
-393.106	-200.000	0.007	-0.047
-392.092	800.000	-0.067	0.232
-391.077	236.706	0.107	-0.177
-390.063	800.000	-0.028	0.104
-389.048	770.533	0.099	-0.269
-388.033	445.272	-0.059	0.130
-387.019	800.000	-0.108	0.308
-386.004	-133.256	-0.120	-0.015
-384.990	152.618	-0.136	-0.185
-383.975	249.652	0.098	-0.166
-382.960	26.772	-0.320	-0.267
-381.946	-200.000	-0.011	-0.308
-380.931	-10.907	-0.197	0.130
-379.917	-200.000	-0.053	-0.344
-378.902	87.469	-0.027	0.029
-377.888	-200.000	-0.006	-0.165
-376.873	286.314	0.032	0.057
-375.858	-87.412	-0.241	0.073
-374.844	-49.371	-0.076	-0.036
-373.829	459.204	0.027	0.061
-372.815	-146.415	-0.393	0.034
-371.800	-82.513	-0.178	0.058
-370.785	-200.000	0.006	-0.216
-369.771	9.016	-0.224	0.168
-368.756	-81.721	-0.159	0.052
-367.742	161.242	0.162	0.226
-366.727	-200.000	0.031	-0.271
-365.712	-59.141	-0.059	0.025
-364.698	415.103	-0.020	0.043
-363.683	800.000	0.082	0.308
-362.669	-84.768	-0.200	0.063
-361.654	465.481	0.158	0.353
-360.639	-200.000	-0.070	0.330
-359.625	800.000	-0.021	-0.074
-358.610	-171.666	0.278	0.009
-357.596	-113.661	0.256	0.050
-356.581	-85.041	-0.090	-0.028
-355.566	-112.305	0.118	0.024
-354.552	-200.000	-0.025	-0.166
-353.537	-3.024	0.136	0.095
-352.523	36.336	-0.208	0.183
-351.508	81.380	-0.233	0.251
-350.493	-41.421	-0.230	-0.118
-349.479	800.000	-0.044	-0.141
-348.464	180.216	0.102	0.149
-347.450	611.504	-0.063	0.158
-346.435	81.992	0.176	0.190
-345.420	35.683	-0.194	0.170
-344.406	99.385	-0.231	-0.266
-343.391	-51.082	-0.317	-0.148
-342.377	83.789	0.153	-0.166
-341.362	156.766	0.038	-0.052
-340.348	-127.861	0.094	0.013
-339.333	592.461	-0.084	0.207
-338.318	86.989	0.041	0.045
-337.304	264.086	-0.053	-0.093
-336.289	122.119	-0.162	0.201
-335.275	45.345	0.192	0.176
-334.260	383.680	0.153	0.314
-333.245	-200.000	0.046	0.315
-332.231	259.251	-0.114	-0.195
-331.216	146.187	-0.164	-0.219
-330.202	800.000	-0.059	-0.175
-329.187	-65.104	-0.112	0.045
-328.172	335.091	-0.076	0.146
-327.158	72.352	-0.103	0.107
-326.143	-200.000	-0.015	-0.138
-325.129	-200.000	0.011	-0.137
-324.114	-112.125	0.351	-0.070
-323.099	-163.907	0.165	-0.008
-322.085	484.986	-0.024	-0.054
-321.070	-200.000	0.034	0.417
-320.056	-15.542	0.378	0.240
-319.041	267.602	-0.135	-0.236
-318.026	-150.993	-0.149	-0.011
-317.012	360.082	-0.095	0.190
-315.997	-5.009	0.076	0.052
-314.983	-13.584	-0.030	0.020
-313.968	800.000	0.095	0.278
-312.953	-200.000	0.040	-0.321
-311.939	-200.000	-0.020	0.273
-310.924	101.353	0.183	0.212
-309.910	-85.495	0.225	-0.070
-308.895	-200.000	0.037	-0.170
-307.880	-64.412	0.452	0.183
-306.866	-110.469	-0.226	-0.047
-305.851	-120.238	0.242	-0.041
-304.837	252.224	0.210	0.356
-303.822	-10.990	-0.151	-0.099
-302.807	-162.651	-0.157	-0.008
-301.793	77.610	0.152	0.161
-300.778	-192.003	0.225	-0.002
-299.764	-200.000	0.010	-0.051
-298.749	-140.122	-0.043	-0.005
-297.735	-102.462	-0.151	-0.036
-296.720	-96.401	-0.166	-0.044
-295.705	-104.917	0.127	0.029
-294.691	-61.839	0.221	0.092
-293.676	800.000	0.115	-0.444
-292.662	-200.000	0.008	-0.062
-291.647	-30.440	0.265	-0.149
-290.632	331.871	-0.057	0.109
-289.618	110.273	-0.113	0.135
-288.603	358.665	0.140	0.279
-287.589	-200.000	-0.030	0.156
-286.574	-200.000	-0.033	-0.204
-285.559	450.796	0.093	-0.203
-284.545	-134.312	0.140	-0.017
-283.530	-9.140	0.145	0.097
-282.516	114.035	-0.169	0.204
-281.501	-88.509	0.189	0.056
-280.486	-98.982	-0.148	0.037
-279.472	-40.162	0.276	0.143
-278.457	485.280	0.097	-0.219
-277.443	-200.000	-0.042	0.215
-276.428	-63.913	-0.122	-0.050
-275.413	-165.887	-0.277	-0.012
-274.399	-200.000	0.004	-0.121
-273.384	-200.000	0.035	-0.161
-272.370	-50.236	0.184	0.086
-271.355	316.650	0.134	0.252
-270.340	800.000	-0.105	0.319
-269.326	-1.427	-0.207	0.145
-268.311	10.434	-0.335	0.254
-267.297	53.181	0.093	0.088
-266.282	-130.248	-0.254	-0.034
-265.267	70.290	-0.113	-0.115
-264.253	37.421	-0.262	-0.230
-263.238	-65.516	-0.139	0.055
-262.224	-86.642	-0.072	-0.022
-261.209	-85.885	-0.043	-0.013
-260.195	64.043	0.219	0.219
-259.180	-76.405	-0.123	0.043
-258.165	-9.872	0.132	-0.087
-257.151	-10.611	0.189	0.124
-256.136	-17.425	-0.228	-0.142
-255.122	800.000	-0.045	0.130
-254.107	-99.369	-0.217	0.054
-253.092	-92.719	-0.154	-0.043
-252.078	-95.202	-0.090	0.024
-251.063	-147.882	0.137	0.011
-250.049	8.370	0.085	0.063
-249.034	33.390	0.074	-0.063
-248.019	-200.000	0.002	0.145
-247.005	615.349	0.175	-0.435
-245.990	-0.014	0.229	-0.162
-244.976	-129.845	0.147	-0.020
-243.961	-41.679	0.313	0.159
-242.946	-31.004	0.274	0.153
-241.932	-20.879	-0.168	0.102
-240.917	122.956	0.092	0.114
-239.903	-61.689	0.234	-0.097
-238.888	-161.947	0.392	-0.020
-237.873	5.160	-0.225	0.165
-236.859	-10.455	0.073	0.048
-235.844	16.654	0.321	0.251
-234.830	-101.126	-0.232	-0.056
-233.815	-146.697	-0.260	-0.022
-232.800	-200.000	0.013	0.065
-231.786	-184.718	0.415	0.007
-230.771	24.807	-0.250	-0.205
-229.757	-19.577	-0.229	0.141
-228.742	-31.422	-0.026	0.014
-227.727	218.853	0.135	0.214
-226.713	800.000	-0.114	-0.414
-225.698	734.247	0.108	-0.286
-224.684	325.472	-0.070	0.133
-223.669	23.907	-0.111	0.091
-222.655	-200.000	0.042	-0.199
-221.640	-94.818	0.302	-0.081
-220.625	365.347	-0.097	0.193
-219.611	800.000	-0.032	-0.094
-218.596	52.614	-0.294	0.278
-217.582	-200.000	0.005	-0.050
-216.567	-200.000	0.007	-0.038
-215.552	-1.640	0.178	-0.124
-214.538	-157.896	0.310	-0.018
-213.523	-3.246	0.304	0.210
-212.509	-3.193	-0.185	-0.128
-211.494	168.678	0.088	0.125
-210.479	-200.000	-0.013	0.333
-209.465	-57.280	0.133	0.058
-208.450	726.388	0.115	-0.303
-207.436	639.277	0.227	-0.573
-206.421	-94.692	0.335	0.090
-205.406	-200.000	-0.022	-0.124
-204.392	-200.000	0.049	0.452
-203.377	-0.827	-0.126	0.088
-202.363	178.769	-0.023	-0.034
-201.348	89.653	0.172	-0.190
-200.333	-169.957	-0.249	0.009
-199.319	762.034	0.047	0.125
-198.304	-158.803	-0.387	-0.022
-197.290	183.931	-0.089	-0.130
-196.275	-144.160	0.099	0.009
-195.260	-16.932	0.243	0.152
-194.246	331.615	-0.112	-0.215
-193.231	-108.392	0.178	0.038
-192.217	-2.045	-0.224	0.156
-191.202	800.000	-0.107	-0.338
-190.187	-200.000	0.034	0.220
-189.173	-200.000	-0.034	0.201
-188.158	-65.383	0.158	-0.063
-187.144	800.000	-0.087	0.361
-186.129	242.439	0.031	0.052
-185.114	-144.863	-0.168	-0.015
-184.100	149.044	-0.090	0.120
-183.085	144.798	-0.075	0.100
-182.071	18.507	0.243	0.192
-181.056	-23.282	-0.126	0.075
-180.042	800.000	0.021	0.068
-179.027	-76.560	0.267	-0.093
-178.012	-171.568	0.301	0.010
-176.998	24.953	0.158	0.130
-175.983	-13.509	0.152	0.097
-174.969	-107.259	0.444	0.097
-173.954	90.522	0.189	0.209
-172.939	800.000	-0.151	-0.502
-171.925	426.657	0.071	-0.152
-170.910	-137.329	-0.192	-0.022
-169.896	-21.377	-0.178	-0.108
-168.881	95.178	0.131	-0.148
-167.866	-31.639	0.139	0.077
-166.852	800.000	-0.064	-0.215
-165.837	556.373	-0.077	-0.184
-164.823	800.000	-0.119	-0.471
-163.808	-200.000	0.008	0.167
-162.793	-200.000	-0.004	-0.140
-161.779	-110.719	0.425	0.087
-160.764	3.803	0.211	-0.153
-159.750	-50.558	-0.264	-0.123
-158.735	-85.147	-0.058	0.018
-157.720	150.163	0.134	-0.180
-156.706	-76.061	0.277	0.097
-155.691	-180.378	0.148	0.003
-154.677	-163.930	-0.288	-0.013
-153.662	800.000	-0.026	0.084
-152.647	27.383	-0.052	0.043
-151.633	75.001	-0.199	-0.207
-150.618	-26.525	-0.169	-0.098
-149.604	619.621	0.109	-0.272
-148.589	800.000	0.017	-0.067
-147.574	-12.803	0.147	0.095
-146.560	-200.000	-0.031	-0.305
-145.545	44.363	0.193	-0.176
-144.531	-200.000	-0.043	0.186
-143.516	800.000	-0.062	0.172
-142.502	-200.000	-0.048	0.227
-141.487	-111.488	-0.127	0.026
-140.472	-7.674	-0.053	0.035
-139.458	800.000	0.072	-0.212
-138.443	290.093	0.076	0.136
-137.429	-145.556	-0.324	-0.029
-136.414	-0.777	0.184	0.129
-135.399	136.439	0.204	0.263
-134.385	24.671	0.103	-0.085
-133.370	103.872	-0.066	0.077
-132.356	-200.000	0.021	-0.344
-131.341	800.000	0.131	0.450
-130.326	227.584	-0.237	0.381
-129.312	-63.623	0.141	-0.057
-128.297	-70.107	-0.125	0.047
-127.283	-64.406	0.270	-0.109
-126.268	-33.380	-0.316	0.173
-125.253	-133.107	0.242	-0.030
-124.239	-162.644	0.151	0.007
-123.224	68.723	-0.151	0.153
-122.210	-200.000	-0.003	0.165
-121.195	121.032	-0.176	0.216
-120.180	800.000	0.074	0.234
