DTS Sentinel unit serial number:	SN413079Multiplexer serial number:	ORYXHardware model number:	OX4-SRSoftware version number:	ORYX F/W v4.00 Oryx Data Collector v3.7.2.0data status	okinstallation	princeton_trtdifferential loss correction	single-endedforward channel	channel 1reverse channel	N/Adate	2019/09/17time	06:22:36forward acquisition time	60.00reverse acquisition time	0.00gamma	496.2192k internal	0.2327k external	0.2327temperature offset calibration	0.9971default loss term (dB/km)	0.3790temperature slope calibration	1.0000multiplexer offset coefficient	1.0000multiplexer slope coefficient	1.0000fibre end	0.00T internal ref (°C)	28.31T ext. ref 1 (°C)	0.13T ext. ref 2 (°C)	21.73length (m)	temperature (°C)	Stokes	anti-Stokes-747.200	-10.821	-0.161	-0.107
-746.185	-200.000	0.042	0.378
-745.171	86.167	-0.084	0.093
-744.156	19.021	-0.200	0.161
-743.142	-68.459	0.091	0.036
-742.127	307.694	-0.121	0.227
-741.112	-200.000	-0.064	0.295
-740.098	-200.000	-0.022	0.454
-739.083	273.553	0.021	0.037
-738.069	-140.938	-0.360	-0.037
-737.054	171.835	0.165	0.238
-736.039	-90.026	-0.250	-0.074
-735.025	-112.785	0.354	0.071
-734.010	-145.057	0.165	-0.015
-732.996	-41.499	0.161	-0.083
-731.981	3.031	0.223	-0.163
-730.966	-43.926	0.197	-0.100
-729.952	456.653	0.100	-0.224
-728.937	-106.206	-0.244	0.055
-727.923	-106.486	-0.386	0.087
-726.908	351.517	0.022	-0.043
-725.894	-65.798	-0.157	0.063
-724.879	-200.000	-0.018	-0.347
-723.864	-22.263	-0.181	-0.111
-722.850	223.757	0.070	0.114
-721.835	-200.000	0.066	-0.306
-720.821	-119.425	0.191	0.033
-719.806	-200.000	-0.047	-0.257
-718.791	-56.057	0.296	0.133
-717.777	48.244	-0.121	0.114
-716.762	-55.003	0.074	-0.034
-715.748	-15.695	0.205	0.131
-714.733	120.570	-0.105	0.132
-713.718	22.859	0.106	0.087
-712.704	26.065	0.231	-0.194
-711.689	-200.000	0.041	-0.402
-710.675	-133.108	-0.158	-0.020
-709.660	82.210	0.214	-0.233
-708.645	-97.181	-0.137	-0.036
-707.631	56.852	-0.165	-0.162
-706.616	756.685	0.042	-0.115
-705.602	13.126	0.188	-0.146
-704.587	118.144	-0.093	0.116
-703.572	-3.255	-0.199	-0.140
-702.558	80.247	-0.064	-0.069
-701.543	-105.051	0.353	-0.081
-700.529	-120.883	-0.171	0.029
-699.514	-4.598	0.219	-0.153
-698.499	681.214	0.027	0.070
-697.485	-134.104	-0.203	0.025
-696.470	19.067	0.224	0.181
-695.456	84.184	-0.268	-0.294
-694.441	196.423	-0.066	-0.102
-693.426	105.774	0.043	-0.051
-692.412	-200.000	-0.009	0.070
-691.397	-26.223	0.415	-0.245
-690.383	144.893	-0.206	-0.278
-689.368	5.539	0.240	-0.178
-688.354	54.261	0.243	-0.235
-687.339	440.468	0.033	-0.074
-686.324	738.316	0.094	0.252
-685.310	71.043	-0.155	-0.162
-684.295	-21.759	-0.336	0.206
-683.281	6.035	0.098	-0.073
-682.266	14.549	0.088	0.069
-681.251	-149.368	0.277	-0.022
-680.237	155.790	-0.077	0.106
-679.222	-130.020	-0.193	0.027
-678.208	-86.101	-0.109	0.034
-677.193	174.410	0.099	0.144
-676.178	313.607	0.132	-0.249
-675.164	153.728	-0.218	-0.301
-674.149	315.344	0.147	0.278
-673.135	-163.847	-0.240	-0.011
-672.120	138.727	0.039	0.052
-671.105	-200.000	0.063	0.288
-670.091	800.000	-0.067	-0.265
-669.076	800.000	-0.039	-0.150
-668.062	-40.210	-0.247	0.129
-667.047	-200.000	0.041	-0.237
-666.032	125.331	-0.114	0.144
-665.018	-66.499	0.255	0.102
-664.003	49.565	-0.261	-0.247
-662.989	35.650	-0.231	-0.204
-661.974	530.380	0.065	0.153
-660.959	800.000	0.107	0.300
-659.945	-88.138	-0.267	-0.080
-658.930	-178.968	-0.425	0.010
-657.916	535.954	0.121	0.287
-656.901	-98.970	0.305	-0.078
-655.886	-200.000	0.070	0.448
-654.872	-200.000	0.007	-0.321
-653.857	-149.220	-0.431	0.035
-652.843	79.334	0.060	-0.064
-651.828	-200.000	0.001	-0.217
-650.814	438.941	-0.094	0.207
-649.799	-127.611	-0.016	-0.002
-648.784	116.746	-0.151	0.187
-647.770	-115.257	-0.189	0.036
-646.755	-8.478	-0.071	-0.048
-645.741	71.332	0.140	0.146
-644.726	-200.000	-0.041	-0.240
-643.711	-12.221	0.169	-0.111
-642.697	-13.793	-0.271	0.176
-641.682	28.921	-0.172	0.147
-640.668	81.872	0.100	-0.109
-639.653	-80.784	-0.364	-0.121
-638.638	-57.337	0.130	-0.057
-637.624	65.524	-0.092	0.093
-636.609	58.460	-0.029	0.028
-635.595	800.000	-0.076	-0.251
-634.580	9.591	0.146	0.111
-633.565	94.736	-0.119	0.135
-632.551	-200.000	-0.006	0.099
-631.536	-103.952	-0.251	0.059
-630.522	16.441	-0.038	-0.030
-629.507	178.725	0.086	0.126
-628.492	-105.676	0.092	-0.021
-627.478	-71.729	-0.121	0.045
-626.463	2.197	-0.446	0.323
-625.449	-111.922	-0.131	0.026
-624.434	-200.000	-0.027	-0.130
-623.419	3.403	0.105	0.077
-622.405	-62.907	0.113	-0.047
-621.390	-200.000	0.050	-0.472
-620.376	141.055	-0.107	0.142
-619.361	41.525	-0.204	0.185
-618.346	5.703	-0.189	0.140
-617.332	51.863	0.125	-0.119
-616.317	554.333	-0.130	0.313
-615.303	183.941	0.167	-0.248
-614.288	-8.078	0.149	-0.101
-613.273	76.971	-0.210	0.224
-612.259	-107.254	0.169	0.037
-611.244	-78.304	0.145	0.050
-610.230	-17.706	0.388	-0.244
-609.215	234.186	0.053	-0.088
-608.201	568.504	-0.097	-0.236
-607.186	800.000	0.058	0.238
-606.171	-64.058	0.222	0.091
-605.157	479.454	0.116	-0.264
-604.142	-200.000	-0.077	0.452
-603.128	800.000	0.090	0.263
-602.113	-139.666	-0.164	-0.018
-601.098	-83.028	-0.105	-0.034
-600.084	-200.000	0.007	-0.149
-599.069	184.591	-0.057	-0.085
-598.055	403.814	0.118	-0.250
-597.040	-200.000	-0.011	0.119
-596.025	-200.000	-0.005	-0.113
-595.011	116.249	-0.151	0.186
-593.996	-84.436	-0.352	-0.111
-592.982	81.651	-0.050	-0.054
-591.967	800.000	0.059	-0.196
-590.952	51.534	0.181	-0.172
-589.938	-20.799	0.164	-0.101
-588.923	-65.125	-0.337	0.136
-587.909	301.263	0.055	0.102
-586.894	-200.000	-0.020	-0.202
-585.879	-153.988	0.267	0.018
-584.865	-61.613	0.110	0.046
-583.850	-0.194	-0.197	-0.140
-582.836	394.740	-0.047	0.098
-581.821	286.185	-0.057	-0.102
-580.806	-51.034	-0.274	-0.129
-579.792	-12.093	-0.376	0.246
-578.777	-112.228	-0.077	-0.015
-577.763	-42.086	0.174	-0.089
-576.748	800.000	0.086	-0.280
-575.733	-112.915	-0.287	0.057
-574.719	-99.382	-0.465	0.117
-573.704	-43.633	0.292	0.147
-572.690	-60.998	0.381	-0.161
-571.675	800.000	0.204	-0.644
-570.661	156.784	-0.126	-0.174
-569.646	-72.918	-0.155	0.057
-568.631	51.356	-0.096	0.091
-567.617	-109.101	-0.398	-0.085
-566.602	742.944	-0.005	-0.013
-565.588	-200.000	0.033	0.191
-564.573	-172.565	-0.095	0.003
-563.558	10.811	0.153	-0.117
-562.544	276.122	-0.083	-0.148
-561.529	54.787	-0.241	-0.233
-560.515	800.000	-0.051	0.179
-559.500	-85.163	0.123	0.039
-558.485	115.755	-0.096	-0.118
-557.471	-200.000	0.053	0.259
-556.456	-52.668	-0.071	0.033
-555.442	158.160	-0.153	-0.213
-554.427	220.213	-0.037	0.060
-553.412	-200.000	-0.064	0.302
-552.398	245.551	-0.045	-0.077
-551.383	184.285	-0.247	-0.366
-550.369	-200.000	0.001	-0.142
-549.354	800.000	0.042	-0.129
-548.339	-19.386	0.073	0.045
-547.325	-71.252	-0.031	-0.012
-546.310	800.000	0.043	-0.155
-545.296	275.034	0.159	-0.283
-544.281	-107.326	0.179	-0.039
-543.266	144.380	0.204	0.272
-542.252	-120.177	0.125	-0.021
-541.237	188.619	0.045	-0.067
-540.223	116.220	-0.075	-0.092
-539.208	109.051	0.073	-0.088
-538.193	800.000	-0.054	-0.149
-537.179	-66.440	-0.465	0.185
-536.164	99.467	0.219	-0.253
-535.150	80.576	-0.204	-0.220
-534.135	-158.869	-0.014	0.001
-533.121	-26.896	-0.150	0.088
-532.106	-92.343	0.233	-0.066
-531.091	-133.473	-0.081	-0.010
-530.077	280.457	0.125	-0.223
-529.062	-152.808	0.235	-0.017
-528.048	205.853	-0.240	0.373
-527.033	-200.000	0.002	0.217
-526.018	-28.283	-0.110	0.063
-525.004	67.295	0.173	0.176
-523.989	61.730	0.136	0.135
-522.975	-193.656	-0.368	-0.003
-521.960	496.825	0.107	-0.246
-520.945	-127.957	-0.329	-0.047
-519.931	98.751	-0.080	-0.092
-518.916	694.056	0.085	0.222
-517.902	337.905	-0.143	0.277
-516.887	233.694	-0.132	-0.217
-515.872	416.882	0.101	-0.215
-514.858	-200.000	-0.060	0.278
-513.843	-55.935	-0.253	-0.113
-512.829	-200.000	0.034	-0.156
-511.814	-39.965	0.244	-0.127
-510.799	-200.000	-0.008	-0.107
-509.785	-14.201	-0.049	-0.031
-508.770	-56.146	-0.296	-0.132
-507.756	621.386	0.055	0.139
-506.741	493.882	0.136	0.311
-505.726	-104.011	-0.268	-0.062
-504.712	145.472	-0.066	0.088
-503.697	-100.671	-0.380	-0.094
-502.683	323.166	-0.081	-0.154
-501.668	-124.822	0.120	0.018
-500.653	-96.077	-0.120	0.032
-499.639	269.976	-0.060	0.105
-498.624	-134.839	0.513	-0.062
-497.610	-41.078	-0.344	0.177
-496.595	-38.551	0.085	0.045
-495.581	-200.000	-0.013	-0.137
-494.566	26.155	-0.072	0.060
-493.551	-200.000	0.049	-0.224
-492.537	-67.582	-0.021	0.008
-491.522	-117.225	0.410	0.074
-490.508	-55.207	-0.210	0.094
-489.493	-100.469	0.476	-0.118
-488.478	-106.038	-0.178	-0.040
-487.464	-90.589	0.342	-0.099
-486.449	147.012	0.087	-0.116
-485.435	263.829	0.062	0.107
-484.420	52.728	-0.220	-0.210
-483.405	-80.147	-0.212	-0.071
-482.391	800.000	0.034	-0.146
-481.376	-61.704	0.195	0.081
-480.362	38.192	0.399	-0.355
-479.347	-200.000	-0.003	0.090
-478.332	-200.000	-0.087	-0.442
-477.318	-157.913	0.454	0.027
-476.303	145.472	0.192	0.256
-475.289	787.864	0.104	0.284
-474.274	-89.464	-0.171	-0.050
-473.259	218.556	0.008	0.013
-472.245	91.608	0.237	0.266
-471.230	-7.681	0.152	-0.103
-470.216	-58.747	-0.212	0.092
-469.201	319.384	0.278	-0.526
-468.186	-18.897	-0.157	0.097
-467.172	-42.376	-0.305	0.155
-466.157	147.758	-0.056	-0.076
-465.143	18.660	0.203	-0.162
-464.128	-91.074	0.265	0.076
-463.113	188.961	-0.135	0.202
-462.099	95.601	-0.247	-0.281
-461.084	-84.507	-0.134	0.042
-460.070	-200.000	-0.003	0.175
-459.055	-28.453	0.220	0.126
-458.040	-79.286	-0.065	0.022
-457.026	216.463	-0.051	0.081
-456.011	-200.000	0.027	0.197
-454.997	164.604	0.098	0.137
-453.982	268.058	0.113	-0.198
-452.968	464.380	-0.041	-0.092
-451.953	-200.000	-0.001	0.203
-450.938	800.000	0.021	-0.084
-449.924	-134.628	0.022	-0.003
-448.909	800.000	-0.082	0.237
-447.895	-200.000	-0.049	-0.263
-446.880	-102.602	-0.158	-0.038
-445.865	-150.196	0.065	0.005
-444.851	269.095	0.157	-0.274
-443.836	525.203	-0.169	-0.396
-442.822	800.000	-0.147	-0.636
-441.807	-172.273	0.363	0.012
-440.792	-118.643	-0.507	0.089
-439.778	211.858	0.131	-0.206
-438.763	445.449	0.149	-0.327
-437.749	43.001	0.269	-0.244
-436.734	-33.958	0.325	-0.178
-435.719	-136.229	-0.263	0.031
-434.705	766.363	-0.019	-0.051
-433.690	3.112	0.252	-0.182
-432.676	-200.000	-0.009	0.271
-431.661	-44.684	0.118	0.058
-430.646	107.387	0.017	-0.020
-429.632	800.000	0.081	0.317
-428.617	800.000	0.027	-0.096
-427.603	86.764	-0.168	0.185
-426.588	-13.150	-0.142	0.092
-425.573	-200.000	-0.000	0.146
-424.559	152.833	-0.213	-0.290
-423.544	-200.000	0.028	0.251
-422.530	-47.492	-0.173	0.083
-421.515	333.761	-0.182	-0.351
-420.500	-200.000	-0.057	0.269
-419.486	-124.013	0.065	-0.010
-418.471	-200.000	0.009	0.268
-417.457	298.876	-0.179	0.327
-416.442	339.273	-0.020	0.039
-415.428	-19.013	0.134	0.083
-414.413	189.234	0.186	-0.277
-413.398	124.876	-0.105	-0.132
-412.384	72.408	0.192	-0.199
-411.369	-87.894	-0.189	-0.056
-410.355	69.991	0.106	-0.109
-409.340	165.786	-0.149	-0.210
-408.325	133.654	0.129	-0.166
-407.311	-200.000	0.028	-0.207
-406.296	-200.000	0.016	0.175
-405.282	-21.978	-0.300	0.181
-404.267	-53.365	0.076	-0.035
-403.252	-200.000	-0.076	-0.415
-402.238	-9.196	0.194	-0.129
-401.223	-39.154	-0.241	0.126
-400.209	-121.365	0.196	0.033
-399.194	-14.958	-0.299	-0.191
-398.179	-130.762	-0.138	0.018
-397.165	-162.167	0.120	-0.006
-396.150	263.235	0.103	0.178
-395.136	-60.537	0.372	-0.157
-394.121	43.295	0.220	-0.200
-393.106	253.000	0.142	-0.240
-392.092	-108.444	-0.247	-0.053
-391.077	-102.922	0.245	0.058
-390.063	38.112	-0.181	-0.160
-389.048	-45.799	0.388	0.191
-388.033	-55.666	-0.204	0.091
-387.019	172.494	-0.122	-0.174
-386.004	-51.617	0.035	0.016
-384.990	-200.000	-0.025	0.184
-383.975	-23.759	-0.200	0.119
-382.960	800.000	-0.119	0.360
-381.946	292.785	-0.112	0.202
-380.931	561.887	0.068	-0.164
-379.917	561.712	0.013	-0.032
-378.902	-102.889	0.280	0.066
-377.888	-145.058	0.150	0.014
-376.873	-121.207	-0.302	-0.050
-375.858	-124.222	0.114	0.018
-374.844	-113.463	0.237	-0.046
-373.829	39.941	-0.207	-0.185
-372.815	135.251	0.056	0.072
-371.800	79.717	-0.288	-0.307
-370.785	-200.000	-0.036	-0.172
-369.771	17.011	-0.381	-0.300
-368.756	106.779	0.181	0.213
-367.742	-129.417	-0.131	-0.018
-366.727	562.982	0.023	0.054
-365.712	87.108	-0.260	0.285
-364.698	456.670	0.174	-0.383
-363.683	8.476	0.256	-0.191
-362.669	347.966	0.138	0.269
-361.654	-200.000	0.008	-0.111
-360.639	761.360	-0.081	-0.219
-359.625	-97.307	0.370	-0.096
-358.610	93.981	0.091	-0.102
-357.596	102.901	0.219	-0.255
-356.581	-78.346	0.327	-0.112
-355.566	-114.947	0.360	-0.068
-354.552	800.000	-0.084	-0.291
-353.537	188.107	0.093	0.138
-352.523	124.399	0.133	-0.166
-351.508	288.383	-0.092	0.165
-350.493	800.000	0.032	0.100
-349.479	352.813	0.051	-0.100
-348.464	35.566	-0.047	0.041
-347.450	34.496	0.212	-0.183
-346.435	-188.277	0.235	0.003
-345.420	-80.754	0.314	-0.104
-344.406	-97.731	-0.255	-0.066
-343.391	-54.383	0.205	0.092
-342.377	-11.710	0.236	0.154
-341.362	33.909	-0.042	0.037
-340.348	93.889	-0.213	0.239
-339.333	-200.000	0.049	0.379
-338.318	189.781	0.075	0.112
-337.304	-200.000	-0.005	0.351
-336.289	-78.271	-0.181	0.062
-335.275	-200.000	-0.020	-0.241
-334.260	-160.024	0.324	0.018
-333.245	-200.000	0.015	-0.180
-332.231	-49.471	-0.261	-0.123
-331.216	28.141	-0.310	-0.259
-330.202	-113.340	-0.179	0.035
-329.187	-72.152	0.337	0.124
-328.172	-200.000	0.020	-0.282
-327.158	-28.703	-0.337	0.192
-326.143	49.586	0.162	-0.151
-325.129	-1.918	0.089	0.062
-324.114	779.610	-0.056	0.152
-323.099	-169.735	-0.190	-0.007
-322.085	-135.974	0.154	-0.018
-321.070	559.833	-0.143	0.341
-320.056	-200.000	0.004	0.130
-319.041	800.000	0.091	0.370
-318.026	-0.402	0.078	0.055
-317.012	-50.942	-0.420	0.196
-315.997	-70.566	0.410	0.154
-314.983	219.507	-0.098	-0.155
-313.968	-200.000	-0.021	0.188
-312.953	6.802	-0.241	0.178
-311.939	133.129	-0.048	0.062
-310.924	-121.892	-0.123	0.020
-309.910	-200.000	0.046	-0.210
-308.895	800.000	0.128	-0.461
-307.880	800.000	0.098	-0.366
-306.866	800.000	-0.084	-0.355
-305.851	-107.911	-0.314	-0.068
-304.837	-200.000	-0.056	0.262
-303.822	-81.163	0.419	-0.137
-302.807	66.926	0.212	-0.214
-301.793	319.337	-0.187	0.351
-300.778	-87.670	0.179	0.053
-299.764	-180.699	-0.131	0.003
-298.749	-66.349	0.075	0.030
-297.735	731.302	0.056	0.149
-296.720	-175.697	0.324	0.009
-295.705	30.023	-0.063	-0.053
-294.691	800.000	-0.060	-0.173
-293.676	800.000	-0.067	-0.219
-292.662	-163.954	0.110	0.005
-291.647	732.125	-0.150	-0.398
-290.632	-99.620	0.234	0.058
-289.618	-173.687	0.317	-0.009
-288.603	800.000	-0.093	0.285
-287.589	-60.509	-0.321	0.135
-286.574	-62.828	0.038	0.016
-285.559	68.034	0.064	0.065
-284.545	-90.749	-0.067	-0.019
-283.530	94.894	-0.033	0.037
-282.516	-138.053	0.255	0.028
-281.501	99.421	0.199	0.228
-280.486	30.110	-0.085	0.072
-279.472	163.702	0.028	-0.039
-278.457	-200.000	0.054	0.409
-277.443	-79.497	0.227	-0.076
-276.428	-3.320	0.069	-0.047
-275.413	-18.401	-0.133	0.082
-274.399	800.000	-0.067	-0.197
-273.384	171.199	-0.233	0.331
-272.370	-73.244	0.302	-0.109
-271.355	-160.582	-0.275	0.015
-270.340	443.793	0.141	0.306
-269.326	788.993	-0.073	0.199
-268.311	-1.905	-0.162	-0.113
-267.297	59.420	-0.159	-0.155
-266.282	103.599	0.046	0.054
-265.267	-136.371	-0.130	0.015
-264.253	268.759	0.146	0.254
-263.238	-200.000	-0.018	-0.110
-262.224	-22.331	0.152	0.091
-261.209	-200.000	-0.030	0.167
-260.195	-121.660	-0.196	0.032
-259.180	42.812	0.281	-0.253
-258.165	284.196	0.151	0.269
-257.151	-179.498	-0.186	-0.004
-256.136	0.110	0.087	0.061
-255.122	-102.720	0.230	0.054
-254.107	800.000	0.076	0.273
-253.092	-200.000	-0.057	-0.335
-252.078	702.376	-0.064	0.168
-251.063	-200.000	-0.014	0.324
-250.049	86.488	-0.174	-0.189
-249.034	-96.903	0.159	-0.041
-248.019	283.948	-0.143	-0.254
-247.005	-200.000	-0.001	-0.182
-245.990	-200.000	-0.041	0.223
-244.976	-116.746	0.076	-0.014
-243.961	800.000	0.101	-0.303
-242.946	800.000	0.113	0.377
-241.932	353.889	0.063	-0.124
-240.917	363.084	0.086	0.171
-239.903	-200.000	-0.076	-0.509
-238.888	-188.241	0.058	0.001
-237.873	-35.160	0.211	-0.114
-236.859	-200.000	0.035	-0.267
-235.844	718.223	0.118	0.309
-234.830	-59.346	0.266	0.113
-233.815	-15.069	-0.094	-0.060
-232.800	82.838	0.258	0.277
-231.786	-200.000	-0.065	0.303
-230.771	105.037	-0.339	0.395
-229.757	329.917	0.110	0.209
-228.742	185.880	-0.200	0.293
-227.727	-93.410	-0.409	0.112
-226.713	-49.421	-0.082	0.039
-225.698	149.335	-0.212	0.284
-224.684	197.489	-0.208	0.314
-223.669	80.273	-0.241	0.256
-222.655	16.278	0.236	-0.184
-221.640	103.149	0.049	0.056
-220.625	95.181	-0.102	0.115
-219.611	153.510	0.099	-0.134
-218.596	-66.092	-0.191	0.075
-217.582	130.674	-0.055	0.069
-216.567	162.830	0.145	0.201
-215.552	-200.000	-0.037	-0.194
-214.538	-35.435	-0.127	-0.068
-213.523	11.449	-0.108	-0.082
-212.509	-164.240	-0.059	-0.003
-211.494	-145.176	0.136	-0.012
-210.479	-99.196	-0.114	-0.029
-209.465	-174.043	-0.112	-0.003
-208.450	-200.000	0.048	0.214
-207.436	-16.884	0.421	-0.262
-206.421	-48.990	-0.196	0.093
-205.406	769.776	-0.048	0.128
-204.392	-33.037	0.251	-0.138
-203.377	-200.000	-0.041	0.276
-202.363	74.698	-0.132	0.137
-201.348	-15.273	0.122	-0.077
-200.333	130.383	-0.215	-0.272
-199.319	800.000	0.081	0.265
-198.304	369.252	-0.123	-0.246
-197.290	-105.453	-0.088	0.020
-196.275	246.701	0.093	0.155
-195.260	-200.000	0.076	0.400
-194.246	800.000	-0.062	-0.223
-193.231	-200.000	-0.047	0.323
-192.217	-146.336	0.067	0.006
-191.202	38.761	-0.123	0.108
-190.187	-128.652	-0.191	-0.027
-189.173	-12.192	0.125	0.081
-188.158	-200.000	0.018	0.312
-187.144	19.604	0.171	0.136
-186.129	-26.856	0.207	0.119
-185.114	-5.403	-0.388	-0.263
-184.100	20.709	-0.130	0.103
-183.085	66.355	0.155	-0.155
-182.071	-90.335	0.411	-0.118
-181.056	-200.000	-0.049	0.328
-180.042	-200.000	0.012	0.129
-179.027	172.575	0.166	0.236
-178.012	-113.285	-0.089	0.017
-176.998	2.642	0.149	-0.107
-175.983	81.574	0.158	0.169
-174.969	-200.000	0.029	-0.131
-173.954	800.000	-0.039	-0.157
-172.939	-96.125	-0.310	0.081
-171.925	-42.117	-0.247	0.124
-170.910	72.514	0.016	-0.016
-169.896	120.933	0.267	0.328
-168.881	-86.741	-0.130	0.039
-167.866	91.106	0.310	0.342
-166.852	-87.738	-0.122	-0.036
-165.837	171.519	0.102	0.144
-164.823	-51.088	0.128	-0.059
-163.808	-160.971	0.101	-0.005
-162.793	-64.027	-0.058	0.023
-161.779	-200.000	0.051	-0.270
-160.764	10.850	-0.103	0.078
-159.750	174.029	-0.091	0.129
-158.735	405.062	-0.163	-0.338
-157.720	-200.000	0.013	-0.234
-156.706	-200.000	0.025	0.148
-155.691	-51.276	0.265	-0.122
-154.677	800.000	0.017	-0.062
-153.662	-200.000	0.003	0.201
-152.647	227.761	0.147	0.236
-151.633	-200.000	-0.009	-0.292
-150.618	-200.000	-0.053	-0.000
-149.604	207.414	-0.267	-0.410
-148.589	209.943	0.204	0.315
-147.574	-200.000	0.000	-0.181
-146.560	800.000	0.088	0.256
-145.545	636.258	-0.071	-0.177
-144.531	619.715	0.093	-0.230
-143.516	-200.000	0.008	-0.237
-142.502	-69.710	0.160	-0.060
-141.487	-200.000	-0.035	-0.284
-140.472	-200.000	0.056	0.485
-139.458	-200.000	0.010	0.291
-138.443	202.455	-0.148	-0.224
-137.429	70.076	-0.215	-0.219
-136.414	135.109	-0.168	-0.215
-135.399	101.875	-0.110	-0.127
-134.385	-146.758	0.247	0.021
-133.370	14.287	0.184	0.141
-132.356	800.000	0.144	0.425
-131.341	2.293	0.100	-0.071
-130.326	181.214	0.125	0.181
-129.312	53.291	0.068	-0.064
-128.297	-50.557	-0.131	0.061
-127.283	-54.816	0.120	-0.053
-126.268	-69.352	0.277	-0.105
-125.253	92.286	0.094	-0.104
-124.239	130.506	0.197	0.249
-123.224	-200.000	-0.006	0.084
-122.210	-200.000	0.000	-0.220
-121.195	-19.351	0.264	-0.161
-120.180	8.495	0.259	0.191
