DTS Sentinel unit serial number:	SN413079Multiplexer serial number:	ORYXHardware model number:	OX4-SRSoftware version number:	ORYX F/W v4.00 Oryx Data Collector v3.7.2.0data status	okinstallation	princeton_trtdifferential loss correction	single-endedforward channel	channel 1reverse channel	N/Adate	2019/09/11time	07:16:11forward acquisition time	60.00reverse acquisition time	0.00gamma	496.2192k internal	0.2328k external	0.2328temperature offset calibration	0.9913default loss term (dB/km)	0.3790temperature slope calibration	1.0000multiplexer offset coefficient	1.0000multiplexer slope coefficient	1.0000fibre end	0.00T internal ref (°C)	30.56T ext. ref 1 (°C)	-0.09T ext. ref 2 (°C)	26.99length (m)	temperature (°C)	Stokes	anti-Stokes-747.200	800.000	-0.087	-0.372
-746.185	-200.000	0.011	0.192
-745.171	245.028	-0.155	0.263
-744.156	-53.313	-0.122	0.057
-743.142	-95.295	0.224	0.061
-742.127	-71.859	-0.070	0.026
-741.112	800.000	0.034	0.132
-740.098	319.368	-0.161	0.308
-739.083	203.049	-0.175	0.272
-738.069	-123.914	0.186	0.030
-737.054	800.000	-0.042	0.144
-736.039	234.171	0.243	-0.404
-735.025	70.622	-0.262	0.273
-734.010	-64.375	-0.338	-0.139
-732.996	113.920	-0.105	-0.129
-731.981	57.128	-0.114	-0.112
-730.966	712.048	-0.171	-0.457
-729.952	-200.000	0.066	-0.358
-728.937	-41.979	-0.153	0.079
-727.923	-129.463	-0.638	0.089
-726.908	225.566	-0.085	0.138
-725.894	57.245	0.062	-0.061
-724.879	800.000	0.054	-0.215
-723.864	-20.944	0.331	-0.204
-722.850	-94.862	-0.105	0.029
-721.835	-67.008	0.234	-0.093
-720.821	341.314	0.103	-0.202
-719.806	57.839	-0.340	-0.335
-718.791	-35.026	0.228	0.125
-717.777	-44.049	-0.203	0.103
-716.762	-200.000	-0.003	-0.238
-715.748	-81.208	0.169	-0.056
-714.733	-200.000	0.015	-0.104
-713.718	-200.000	-0.006	0.340
-712.704	-200.000	-0.004	0.107
-711.689	-28.778	-0.280	-0.162
-710.675	655.670	-0.046	-0.119
-709.660	335.655	-0.105	-0.204
-708.645	-116.947	0.151	-0.028
-707.631	-200.000	-0.351	0.001
-706.616	-21.634	-0.228	-0.140
-705.602	-91.108	-0.249	-0.072
-704.587	-47.295	0.241	0.118
-703.572	-119.045	0.130	0.023
-702.558	62.269	0.185	-0.186
-701.543	-130.323	0.095	-0.013
-700.529	507.834	0.103	0.240
-699.514	800.000	0.023	-0.082
-698.499	559.418	-0.015	-0.037
-697.485	340.345	-0.041	-0.081
-696.470	-44.841	-0.111	-0.056
-695.456	800.000	0.049	-0.157
-694.441	-14.243	0.178	0.115
-693.426	-200.000	-0.021	-0.283
-692.412	-151.014	-0.248	-0.019
-691.397	114.069	0.114	-0.139
-690.383	5.848	0.245	0.183
-689.368	-78.989	-0.116	-0.040
-688.354	-94.577	0.086	0.023
-687.339	33.243	-0.145	-0.126
-686.324	49.354	0.216	0.205
-685.310	-200.000	-0.018	-0.166
-684.295	-145.076	-0.091	0.008
-683.281	-13.712	-0.199	0.130
-682.266	193.923	-0.007	0.010
-681.251	-196.447	0.327	-0.002
-680.237	-5.041	-0.166	-0.115
-679.222	-155.500	-0.078	0.005
-678.208	404.043	0.023	-0.049
-677.193	-122.438	-0.337	-0.055
-676.178	-99.287	-0.176	-0.045
-675.164	390.334	0.082	0.170
-674.149	-123.693	-0.207	0.033
-673.135	-200.000	0.030	0.214
-672.120	263.604	-0.202	-0.354
-671.105	184.075	-0.155	-0.230
-670.091	-200.000	0.013	0.175
-669.076	-17.910	-0.118	0.074
-668.062	206.928	-0.133	-0.208
-667.047	-200.000	-0.014	-0.269
-666.032	800.000	-0.059	0.227
-665.018	-200.000	-0.020	0.091
-664.003	-200.000	0.001	-0.020
-662.989	-80.689	-0.384	-0.128
-661.974	-63.704	0.155	0.064
-660.959	-94.259	-0.419	-0.115
-659.945	224.469	-0.137	-0.222
-658.930	207.725	-0.213	-0.334
-657.916	-4.350	-0.278	-0.193
-656.901	-5.949	0.133	0.091
-655.886	-200.000	-0.056	0.282
-654.872	45.612	-0.104	-0.096
-653.857	248.746	0.186	-0.316
-652.843	-62.163	-0.305	-0.128
-651.828	176.188	0.075	0.109
-650.814	-107.202	-0.301	0.066
-649.799	-44.457	-0.390	-0.196
-648.784	-58.849	-0.132	0.057
-647.770	47.189	-0.223	0.209
-646.755	-153.792	-0.427	0.029
-645.741	203.769	0.191	-0.296
-644.726	800.000	0.040	0.155
-643.711	-200.000	-0.022	-0.131
-642.697	-93.489	-0.321	0.089
-641.682	-200.000	0.030	-0.176
-640.668	60.965	-0.092	-0.092
-639.653	11.166	0.102	-0.078
-638.638	256.632	-0.028	0.047
-637.624	-60.802	0.107	0.045
-636.609	-200.000	0.010	-0.079
-635.595	26.274	0.247	-0.207
-634.580	800.000	-0.019	0.056
-633.565	-200.000	0.001	-0.165
-632.551	-200.000	-0.023	-0.280
-631.536	21.112	-0.232	-0.189
-630.522	-200.000	0.040	-0.282
-629.507	-74.176	-0.337	-0.122
-628.492	-114.696	0.165	0.032
-627.478	-200.000	0.000	0.018
-626.463	-54.005	0.212	-0.097
-625.449	-67.511	0.208	0.082
-624.434	156.873	0.138	-0.192
-623.419	34.089	-0.178	-0.156
-622.405	115.407	0.147	0.181
-621.390	343.001	0.163	-0.319
-620.376	-136.558	0.542	-0.063
-619.361	-72.140	-0.287	0.107
-618.346	800.000	0.068	-0.227
-617.332	9.080	-0.124	0.094
-616.317	-94.777	-0.087	-0.024
-615.303	400.188	-0.105	-0.221
-614.288	-101.565	0.392	0.096
-613.273	-34.001	-0.545	-0.300
-612.259	171.199	-0.086	0.123
-611.244	800.000	-0.019	-0.085
-610.230	-37.986	-0.145	-0.077
-609.215	353.849	0.104	-0.208
-608.201	-163.025	-0.404	-0.020
-607.186	-85.766	0.346	0.108
-606.171	33.108	-0.216	0.187
-605.157	3.990	0.191	0.140
-604.142	-111.086	0.324	-0.067
-603.128	6.263	-0.147	0.110
-602.113	-117.419	0.291	0.053
-601.098	-124.932	0.278	0.043
-600.084	800.000	0.069	0.192
-599.069	-200.000	0.049	0.295
-598.055	-40.245	-0.123	-0.064
-597.040	-87.651	-0.426	0.129
-596.025	4.031	0.224	0.164
-595.011	0.131	-0.344	0.245
-593.996	-91.670	0.311	-0.089
-592.982	134.968	-0.096	-0.125
-591.967	-200.000	0.107	0.507
-590.952	-200.000	-0.009	0.214
-589.938	-181.083	-0.348	-0.007
-588.923	-200.000	-0.052	-0.321
-587.909	220.439	-0.062	-0.099
-586.894	101.508	-0.209	0.244
-585.879	74.325	-0.027	-0.028
-584.865	-139.384	0.325	0.035
-583.850	-55.535	-0.249	0.112
-582.836	114.700	0.177	0.217
-581.821	-200.000	-0.020	-0.504
-580.806	-91.088	-0.104	-0.030
-579.792	-156.548	0.351	-0.022
-578.777	-50.055	0.236	-0.112
-577.763	-200.000	0.001	-0.013
-576.748	-77.541	-0.130	0.045
-575.733	800.000	0.154	0.435
-574.719	641.418	-0.059	-0.151
-573.704	-101.452	-0.146	0.036
-572.690	10.648	0.051	0.039
-571.675	0.581	0.235	-0.168
-570.661	-122.511	-0.157	-0.026
-569.646	186.277	-0.074	0.110
-568.631	93.812	0.241	0.273
-567.617	-16.619	0.361	-0.229
-566.602	43.639	-0.255	-0.234
-565.588	-36.745	-0.233	-0.125
-564.573	-103.625	0.178	0.042
-563.558	409.764	0.033	0.069
-562.544	-142.405	-0.198	-0.020
-561.529	-111.060	0.203	-0.042
-560.515	78.928	-0.202	0.216
-559.500	91.420	0.118	-0.133
-558.485	-82.756	-0.116	0.038
-557.471	-117.744	-0.410	0.074
-556.456	800.000	0.114	-0.424
-555.442	800.000	-0.073	0.208
-554.427	-200.000	0.031	0.206
-553.412	304.518	-0.141	0.261
-552.398	44.538	0.269	-0.247
-551.383	152.602	0.085	-0.116
-550.369	44.424	0.156	-0.144
-549.354	-200.000	0.030	0.173
-548.339	-120.839	0.054	-0.009
-547.325	800.000	-0.021	-0.085
-546.310	-59.334	0.122	0.053
-545.296	-52.803	0.063	0.029
-544.281	-74.669	-0.222	-0.080
-543.266	161.307	0.054	-0.076
-542.252	-105.960	-0.261	-0.059
-541.237	232.303	0.063	0.103
-540.223	417.413	0.113	-0.242
-539.208	186.912	-0.187	-0.279
-538.193	93.126	0.027	-0.031
-537.179	-83.314	-0.073	-0.023
-536.164	124.274	-0.336	0.422
-535.150	129.935	-0.142	0.182
-534.135	155.124	-0.190	0.261
-533.121	15.439	-0.099	0.078
-532.106	-78.309	0.098	-0.034
-531.091	800.000	-0.039	0.153
-530.077	-43.555	0.175	0.088
-529.062	-67.508	0.065	-0.025
-528.048	489.420	0.079	0.180
-527.033	-53.483	-0.241	0.110
-526.018	133.680	0.204	-0.264
-525.004	-29.127	0.089	-0.051
-523.989	736.173	-0.064	0.171
-522.975	-53.730	-0.214	0.097
-521.960	139.702	-0.078	0.102
-520.945	57.149	-0.102	0.099
-519.931	271.516	0.035	0.061
-518.916	-183.003	-0.342	-0.006
-517.902	800.000	-0.065	0.190
-516.887	-79.746	-0.255	-0.086
-515.872	-173.000	0.335	-0.010
-514.858	-200.000	0.036	0.677
-513.843	278.115	0.134	0.238
-512.829	-200.000	0.019	-0.173
-511.814	-14.848	0.256	-0.164
-510.799	-101.044	-0.309	-0.076
-509.785	78.677	-0.251	0.268
-508.770	800.000	0.015	-0.062
-507.756	-89.713	0.277	0.081
-506.741	-110.910	0.148	-0.030
-505.726	28.129	-0.363	-0.306
-504.712	-43.669	-0.169	0.085
-503.697	-132.722	0.186	0.024
-502.683	39.688	0.073	-0.065
-501.668	-19.901	0.183	-0.113
-500.653	-55.955	0.157	-0.070
-499.639	42.736	-0.089	0.081
-498.624	-84.651	-0.159	0.050
-497.610	800.000	-0.027	-0.088
-496.595	-67.969	-0.334	0.130
-495.581	202.573	-0.062	0.096
-494.566	-101.562	0.214	-0.052
-493.551	-200.000	-0.009	0.113
-492.537	-200.000	-0.017	-0.088
-491.522	-200.000	0.012	0.134
-490.508	197.871	-0.202	-0.308
-489.493	-200.000	-0.092	0.000
-488.478	-27.960	0.212	0.122
-487.464	471.203	-0.102	0.228
-486.449	699.228	0.105	-0.275
-485.435	106.176	0.166	-0.196
-484.420	-150.430	0.271	-0.021
-483.405	-81.105	0.338	-0.111
-482.391	678.000	0.091	0.236
-481.376	800.000	0.101	-0.423
-480.362	-42.084	-0.300	-0.153
-479.347	-119.164	0.427	-0.074
-478.332	-47.131	0.234	-0.114
-477.318	326.465	-0.223	0.427
-476.303	273.383	0.226	0.399
-475.289	367.332	-0.079	0.158
-474.274	392.093	-0.034	-0.071
-473.259	113.122	-0.080	-0.097
-472.245	44.589	-0.377	0.345
-471.230	172.094	-0.165	0.236
-470.216	126.698	0.201	0.254
-469.201	326.802	-0.101	0.192
-468.186	639.593	-0.068	-0.172
-467.172	357.825	0.057	0.113
-466.157	-200.000	0.004	-0.105
-465.143	800.000	0.038	-0.148
-464.128	-93.725	-0.279	-0.077
-463.113	180.857	0.197	0.289
-462.099	-59.686	-0.264	0.113
-461.084	-136.497	0.197	-0.023
-460.070	-200.000	-0.045	0.287
-459.055	-151.899	-0.136	-0.010
-458.040	-74.846	0.175	0.063
-457.026	-107.637	-0.425	0.093
-456.011	800.000	-0.056	-0.183
-454.997	193.320	0.146	-0.221
-453.982	-200.000	-0.004	-0.127
-452.968	-102.932	-0.409	-0.097
-451.953	-17.031	-0.293	-0.184
-450.938	-115.030	0.174	0.033
-449.924	183.717	-0.063	0.093
-448.909	-21.233	0.114	0.069
-447.895	-138.788	0.183	0.020
-446.880	-85.997	-0.053	0.016
-445.865	800.000	-0.072	-0.234
-444.851	-122.593	0.458	-0.074
-443.836	25.812	-0.202	-0.168
-442.822	-184.372	-0.313	0.005
-441.807	-138.978	-0.490	-0.053
-440.792	37.532	-0.104	0.092
-439.778	-63.614	-0.166	-0.068
-438.763	84.893	0.197	0.215
-437.749	-127.366	-0.314	0.046
-436.734	-15.563	-0.104	-0.066
-435.719	-67.169	-0.091	-0.036
-434.705	9.226	0.218	0.164
-433.690	71.550	-0.177	-0.183
-432.676	72.161	-0.185	-0.192
-431.661	112.228	-0.242	-0.291
-430.646	-25.494	0.149	-0.087
-429.632	92.160	0.038	0.042
-428.617	-86.269	0.099	-0.030
-427.603	48.336	-0.144	0.135
-426.588	14.888	-0.145	-0.113
-425.573	800.000	-0.047	0.165
-424.559	186.978	-0.093	-0.137
-423.544	-200.000	-0.010	0.270
-422.530	47.171	-0.038	0.035
-421.515	-124.780	0.203	0.031
-420.500	581.283	0.104	0.255
-419.486	-200.000	0.013	0.144
-418.471	329.637	-0.115	0.220
-417.457	-164.194	-0.061	0.003
-416.442	32.902	-0.157	0.135
-415.428	-200.000	0.042	0.253
-414.413	800.000	-0.016	0.065
-413.398	-35.971	0.125	-0.067
-412.384	-9.826	-0.111	-0.074
-411.369	18.078	-0.236	0.187
-410.355	800.000	0.078	0.246
-409.340	552.084	-0.101	0.242
-408.325	148.122	-0.120	-0.160
-407.311	-200.000	0.008	0.040
-406.296	-200.000	0.010	-0.267
-405.282	800.000	-0.142	0.494
-404.267	188.073	0.111	0.164
-403.252	125.163	0.175	-0.219
-402.238	800.000	-0.031	-0.117
-401.223	-2.538	-0.251	0.175
-400.209	800.000	0.045	0.135
-399.194	7.751	0.141	0.105
-398.179	-81.432	-0.403	0.132
-397.165	800.000	-0.103	0.351
-396.150	800.000	0.036	-0.155
-395.136	-200.000	-0.035	0.271
-394.121	345.800	0.169	0.330
-393.106	39.015	0.327	-0.291
-392.092	-115.510	-0.129	0.024
-391.077	-200.000	0.073	-0.548
-390.063	121.080	-0.049	-0.060
-389.048	91.963	-0.243	-0.272
-388.033	93.893	-0.171	-0.192
-387.019	2.296	0.083	-0.060
-386.004	121.777	-0.166	-0.206
-384.990	-74.315	-0.111	0.040
-383.975	-19.134	-0.245	-0.151
-382.960	-200.000	-0.004	0.132
-381.946	259.434	0.073	0.125
-380.931	-36.605	-0.157	0.084
-379.917	-81.948	0.270	0.088
-378.902	7.424	0.145	0.108
-377.888	-141.066	-0.074	-0.008
-376.873	800.000	0.119	-0.334
-375.858	24.171	-0.045	-0.037
-374.844	686.701	-0.086	0.222
-373.829	-53.491	0.157	-0.071
-372.815	-126.152	0.070	0.010
-371.800	800.000	0.040	-0.130
-370.785	-200.000	0.005	-0.209
-369.771	14.481	-0.261	0.202
-368.756	33.521	0.223	0.192
-367.742	531.930	0.047	-0.110
-366.727	-200.000	-0.009	-0.113
-365.712	-41.457	-0.106	0.054
-364.698	175.443	-0.120	0.173
-363.683	95.858	0.291	-0.330
-362.669	76.744	-0.129	-0.136
-361.654	249.411	-0.164	-0.275
-360.639	-42.305	0.280	0.142
-359.625	212.636	-0.090	0.141
-358.610	382.639	-0.076	-0.155
-357.596	-200.000	0.019	0.110
-356.581	-83.611	0.071	-0.023
-355.566	-133.295	0.051	-0.006
-354.552	-200.000	0.002	0.070
-353.537	208.009	-0.073	0.113
-352.523	800.000	-0.153	0.485
-351.508	-200.000	0.018	0.211
-350.493	21.250	0.096	0.078
-349.479	8.217	-0.078	-0.058
-348.464	-168.387	0.132	0.005
-347.450	-162.595	-0.065	0.003
-346.435	-16.062	0.227	-0.143
-345.420	-200.000	0.075	-0.451
-344.406	83.910	-0.106	-0.115
-343.391	74.480	-0.067	0.069
-342.377	-200.000	0.009	-0.304
-341.362	27.571	0.198	0.166
-340.348	287.409	0.051	0.091
-339.333	-200.000	0.319	-0.001
-338.318	800.000	0.033	-0.095
-337.304	-38.969	0.106	-0.055
-336.289	-58.784	0.168	0.072
-335.275	-200.000	-0.006	-0.176
-334.260	-101.069	0.197	-0.048
-333.245	-200.000	0.039	0.326
-332.231	-83.001	-0.078	-0.025
-331.216	-150.181	0.131	-0.010
-330.202	-118.006	-0.065	0.012
-329.187	459.434	0.039	0.085
-328.172	800.000	0.070	-0.212
-327.158	800.000	0.043	-0.154
-326.143	-200.000	-0.065	0.323
-325.129	-51.905	-0.261	-0.120
-324.114	-32.450	0.263	0.145
-323.099	52.354	-0.043	0.041
-322.085	800.000	-0.100	-0.342
-321.070	-125.926	0.261	-0.039
-320.056	7.395	0.140	-0.103
-319.041	800.000	-0.007	-0.031
-318.026	-44.655	-0.141	0.070
-317.012	62.608	0.329	0.326
-315.997	-54.941	0.110	-0.049
-314.983	800.000	0.020	-0.074
-313.968	126.027	0.170	-0.213
-312.953	-9.598	-0.051	0.034
-311.939	13.509	-0.012	-0.009
-310.924	-31.122	0.252	-0.141
-309.910	47.649	0.298	-0.275
-308.895	-200.000	0.005	0.083
-307.880	-125.253	0.173	0.026
-306.866	800.000	0.068	0.197
-305.851	800.000	-0.018	-0.065
-304.837	-118.051	-0.071	-0.013
-303.822	216.536	0.119	-0.187
-302.807	216.589	-0.133	0.210
-301.793	-200.000	-0.016	-0.250
-300.778	282.467	-0.066	0.118
-299.764	-200.000	-0.047	0.321
-298.749	-127.564	0.081	0.012
-297.735	800.000	0.078	0.278
-296.720	-200.000	-0.014	-0.342
-295.705	-200.000	-0.031	0.250
-294.691	-75.365	-0.350	-0.124
-293.676	-200.000	0.001	-0.101
-292.662	-81.653	0.117	0.038
-291.647	-200.000	-0.030	-0.165
-290.632	-6.307	0.042	-0.028
-289.618	800.000	0.065	-0.198
-288.603	-200.000	0.005	-0.064
-287.589	98.275	0.123	-0.140
-286.574	-200.000	-0.010	0.288
-285.559	800.000	0.026	0.081
-284.545	-112.657	0.257	-0.051
-283.530	678.066	-0.015	0.038
-282.516	162.368	-0.249	-0.346
-281.501	-110.616	0.086	0.018
-280.486	90.186	0.143	0.158
-279.472	-200.000	-0.006	0.231
-278.457	800.000	0.025	-0.077
-277.443	99.184	-0.245	0.280
-276.428	-21.438	-0.139	0.084
-275.413	800.000	0.058	0.161
-274.399	800.000	-0.059	0.167
-273.384	-104.516	-0.156	-0.036
-272.370	-200.000	-0.034	0.185
-271.355	-89.097	0.340	0.099
-270.340	800.000	0.078	0.296
-269.326	79.641	0.288	0.306
-268.311	-98.567	0.052	0.013
-267.297	-200.000	-0.004	-0.099
-266.282	-84.010	-0.120	0.038
-265.267	-200.000	0.036	-0.164
-264.253	361.355	-0.025	0.050
-263.238	108.655	0.123	-0.146
-262.224	563.373	0.041	0.097
-261.209	52.723	0.243	-0.230
-260.195	41.057	-0.068	0.060
-259.180	-140.320	-0.214	0.022
-258.165	-153.444	-0.237	-0.016
-257.151	599.021	-0.050	-0.123
-256.136	332.565	-0.138	-0.264
-255.122	-53.879	0.102	-0.046
-254.107	-50.460	0.247	-0.115
-253.092	551.654	-0.071	0.170
-252.078	-200.000	-0.037	0.333
-251.063	60.734	-0.158	-0.155
-250.049	-200.000	-0.037	-0.200
-249.034	124.012	-0.172	0.214
-248.019	-156.384	0.290	-0.018
-247.005	800.000	0.084	0.266
-245.990	31.297	0.089	0.076
-244.976	-78.808	-0.227	-0.076
-243.961	-42.271	-0.129	-0.065
-242.946	-59.319	-0.204	-0.087
-241.932	-200.000	0.021	0.206
-240.917	-90.014	0.467	0.134
-239.903	69.911	-0.160	-0.163
-238.888	-200.000	0.031	-0.161
-237.873	-155.921	0.294	-0.018
-236.859	-68.895	-0.047	0.018
-235.844	-14.046	-0.252	0.161
-234.830	-1.820	-0.230	-0.160
-233.815	800.000	-0.038	-0.162
-232.800	-0.952	0.170	0.119
-231.786	19.685	0.313	-0.249
-230.771	41.865	-0.187	-0.167
-229.757	791.609	0.096	0.261
-228.742	-33.909	0.047	0.026
-227.727	-15.528	0.156	-0.098
-226.713	-124.158	0.236	0.036
-225.698	-200.000	-0.030	-0.186
-224.684	177.486	-0.127	-0.183
-223.669	146.293	0.091	0.120
-222.655	-112.216	0.066	-0.013
-221.640	284.075	-0.101	0.179
-220.625	122.395	-0.157	0.194
-219.611	-10.185	-0.212	-0.139
-218.596	-200.000	0.058	-0.306
-217.582	80.671	0.166	0.177
-216.567	-40.360	-0.274	0.141
-215.552	671.040	-0.150	-0.382
-214.538	800.000	-0.038	0.108
-213.523	-68.051	0.091	0.035
-212.509	107.206	0.208	0.244
-211.494	476.794	-0.110	0.245
-210.479	200.919	-0.087	0.131
-209.465	273.448	0.062	0.107
-208.450	-103.956	-0.072	-0.017
-207.436	87.685	0.165	-0.180
-206.421	800.000	-0.047	0.173
-205.406	-135.415	-0.275	-0.032
-204.392	800.000	0.012	0.042
-203.377	-49.441	-0.051	0.024
-202.363	140.930	0.249	-0.324
-201.348	511.591	0.113	-0.260
-200.333	444.328	0.041	0.089
-199.319	-91.651	-0.161	-0.045
-198.304	13.550	-0.184	0.141
-197.290	32.493	0.149	0.127
-196.275	-200.000	-0.018	-0.133
-195.260	-200.000	-0.004	-0.355
-194.246	99.679	0.295	-0.337
-193.231	79.339	0.095	0.100
-192.217	342.649	0.092	0.178
-191.202	219.609	0.170	-0.268
-190.187	-200.000	0.001	-0.118
-189.173	-76.103	0.114	0.040
-188.158	-67.128	0.240	0.093
-187.144	-115.758	0.124	-0.023
-186.129	-65.362	0.066	0.026
-185.114	-103.971	-0.271	-0.062
-184.100	135.473	-0.265	-0.340
-183.085	558.842	-0.070	-0.167
-182.071	-165.283	-0.106	0.005
-181.056	65.990	0.070	-0.070
-180.042	-200.000	-0.003	0.212
-179.027	285.582	-0.142	0.253
-178.012	-28.405	0.192	0.109
-176.998	-77.151	-0.206	-0.071
-175.983	-140.941	0.177	0.018
-174.969	21.406	0.279	0.223
-173.954	-200.000	0.002	-0.252
-172.939	18.361	-0.041	0.032
-171.925	163.209	0.128	-0.178
-170.910	-200.000	-0.038	-0.278
-169.896	-200.000	-0.065	-0.394
-168.881	-14.220	-0.131	-0.083
-167.866	136.438	-0.124	0.159
-166.852	61.656	0.056	0.055
-165.837	-200.000	-0.072	-0.377
-164.823	-200.000	0.024	0.407
-163.808	800.000	0.009	-0.035
-162.793	367.264	0.101	-0.201
-161.779	-92.627	0.021	-0.006
-160.764	800.000	0.087	-0.249
-159.750	36.277	0.034	-0.030
-158.735	-0.813	0.394	0.275
-157.720	-95.738	0.151	0.040
-156.706	5.722	0.200	-0.146
-155.691	68.362	0.228	-0.230
-154.677	-89.437	-0.055	-0.016
-153.662	-83.757	0.144	-0.045
-152.647	-131.549	-0.117	0.015
-151.633	102.933	0.113	-0.131
-150.618	37.625	-0.063	-0.055
-149.604	65.335	0.146	-0.146
-148.589	136.753	0.029	-0.037
-147.574	546.617	0.070	0.165
-146.560	21.269	0.095	-0.076
-145.545	800.000	-0.100	-0.387
-144.531	-83.281	-0.055	0.017
-143.516	-200.000	-0.065	-0.308
-142.502	-111.617	0.263	0.053
-141.487	47.720	0.115	-0.106
-140.472	102.028	0.131	-0.150
-139.458	-7.778	-0.128	0.085
-138.443	-7.164	-0.042	0.028
-137.429	-200.000	0.022	0.234
-136.414	-90.855	0.183	-0.052
-135.399	435.576	0.045	-0.096
-134.385	-105.861	-0.178	-0.040
-133.370	800.000	0.032	-0.103
-132.356	800.000	0.026	-0.073
-131.341	2.711	0.072	-0.051
-130.326	-200.000	0.029	0.218
-129.312	-174.188	0.052	-0.001
-128.297	533.226	0.119	0.277
-127.283	-200.000	-0.024	0.250
-126.268	170.402	0.091	-0.128
-125.253	669.340	0.147	0.374
-124.239	26.566	-0.326	0.268
-123.224	100.984	0.128	0.146
-122.210	47.962	-0.206	0.189
-121.195	-117.149	-0.101	-0.018
