DTS Sentinel unit serial number:	SN413079Multiplexer serial number:	ORYXHardware model number:	OX4-SRSoftware version number:	ORYX F/W v4.00 Oryx Data Collector v3.7.2.0data status	okinstallation	princeton_trtdifferential loss correction	single-endedforward channel	channel 1reverse channel	N/Adate	2019/09/13time	07:26:35forward acquisition time	60.00reverse acquisition time	0.00gamma	496.2192k internal	0.2335k external	0.2335temperature offset calibration	1.0161default loss term (dB/km)	0.3790temperature slope calibration	1.0000multiplexer offset coefficient	1.0000multiplexer slope coefficient	1.0000fibre end	0.00T internal ref (°C)	26.17T ext. ref 1 (°C)	4.19T ext. ref 2 (°C)	21.87length (m)	temperature (°C)	Stokes	anti-Stokes-747.200	-100.825	0.140	0.035
-746.185	224.483	-0.150	0.244
-745.171	-72.473	-0.290	0.108
-744.156	-200.000	0.051	0.243
-743.142	164.404	0.168	0.237
-742.127	-59.656	-0.268	0.115
-741.112	-200.000	-0.023	0.239
-740.098	-29.948	-0.180	-0.103
-739.083	-56.101	0.399	-0.179
-738.069	-98.411	-0.058	-0.015
-737.054	800.000	0.058	-0.221
-736.039	86.750	-0.057	-0.063
-735.025	-79.633	0.485	0.164
-734.010	40.450	-0.233	-0.211
-732.996	-82.251	0.311	0.102
-731.981	-200.000	0.024	0.249
-730.966	-67.051	-0.099	0.039
-729.952	-102.977	-0.313	0.075
-728.937	-200.000	0.020	-0.102
-727.923	-60.775	-0.233	-0.099
-726.908	-87.550	-0.136	0.041
-725.894	-174.958	0.188	0.005
-724.879	800.000	0.074	-0.295
-723.864	441.359	0.085	0.187
-722.850	68.022	0.276	-0.284
-721.835	-100.880	-0.184	-0.045
-720.821	144.624	0.016	-0.021
-719.806	16.339	-0.299	0.237
-718.791	-200.000	0.018	-0.325
-717.777	31.319	-0.142	0.123
-716.762	189.077	0.236	-0.355
-715.748	-69.393	-0.333	-0.128
-714.733	79.025	-0.189	-0.203
-713.718	-200.000	-0.015	0.134
-712.704	374.909	-0.057	0.117
-711.689	-36.491	-0.320	-0.173
-710.675	234.871	0.093	0.154
-709.660	304.515	-0.152	-0.283
-708.645	164.073	0.147	-0.208
-707.631	800.000	-0.049	0.190
-706.616	-106.398	-0.221	0.049
-705.602	-157.005	-0.108	0.007
-704.587	52.425	0.151	0.145
-703.572	37.817	-0.242	-0.216
-702.558	153.139	-0.123	0.169
-701.543	-6.713	0.182	-0.125
-700.529	-104.263	0.257	-0.060
-699.514	147.477	0.121	-0.164
-698.499	-79.655	0.160	-0.054
-697.485	-35.797	0.181	-0.099
-696.470	-200.000	-0.038	0.193
-695.456	62.766	0.148	-0.148
-694.441	106.513	0.102	-0.121
-693.426	-146.113	-0.249	0.022
-692.412	575.019	0.054	-0.131
-691.397	-62.736	0.053	0.022
-690.383	-42.704	0.219	-0.112
-689.368	-66.557	0.220	-0.087
-688.354	-56.859	-0.147	0.065
-687.339	-177.065	0.151	0.004
-686.324	-47.622	0.173	-0.084
-685.310	-200.000	-0.013	0.207
-684.295	49.373	0.110	-0.104
-683.281	-184.178	-0.183	-0.003
-682.266	-150.499	0.346	0.027
-681.251	197.465	0.084	0.128
-680.237	104.548	0.269	0.317
-679.222	-30.344	-0.295	-0.168
-678.208	-139.448	-0.118	-0.013
-677.193	-200.000	-0.009	0.050
-676.178	-200.000	-0.011	0.151
-675.164	-200.000	-0.530	0.001
-674.149	683.081	0.041	-0.107
-673.135	-142.987	0.391	0.038
-672.120	-15.539	-0.271	-0.173
-671.105	336.197	-0.120	-0.234
-670.091	-39.040	0.237	0.125
-669.076	-200.000	-0.011	0.099
-668.062	-155.938	0.238	0.015
-667.047	163.447	-0.084	0.118
-666.032	-70.329	-0.326	-0.124
-665.018	102.577	-0.162	-0.189
-664.003	800.000	-0.075	-0.292
-662.989	88.298	-0.095	0.106
-661.974	-200.000	0.021	-0.140
-660.959	-42.221	-0.159	0.081
-659.945	-164.840	0.208	-0.009
-658.930	196.614	0.023	-0.035
-657.916	800.000	0.083	-0.331
-656.901	12.502	0.051	-0.040
-655.886	-174.839	0.095	0.003
-654.872	-200.000	0.027	-0.214
-653.857	69.954	-0.311	-0.321
-652.843	7.902	0.121	0.091
-651.828	-163.691	-0.265	0.012
-650.814	-5.349	0.082	0.056
-649.799	301.780	-0.037	-0.068
-648.784	-104.895	0.063	0.014
-647.770	210.711	0.168	0.265
-646.755	-200.000	0.020	0.143
-645.741	-26.801	-0.362	0.212
-644.726	-32.729	0.330	0.184
-643.711	13.617	0.149	0.116
-642.697	-200.000	0.042	0.245
-641.682	-200.000	0.045	-0.278
-640.668	-200.000	-0.007	-0.129
-639.653	-152.566	-0.141	0.010
-638.638	242.574	-0.110	0.184
-637.624	83.781	-0.220	-0.240
-636.609	-93.472	-0.413	-0.114
-635.595	-27.518	-0.117	0.068
-634.580	-200.000	-0.011	-0.068
-633.565	125.483	-0.093	-0.118
-632.551	49.334	0.085	0.080
-631.536	115.261	-0.178	-0.218
-630.522	-136.869	0.194	0.022
-629.507	-163.231	-0.167	0.008
-628.492	-200.000	-0.007	0.058
-627.478	105.484	0.210	-0.249
-626.463	-200.000	-0.044	-0.215
-625.449	-126.238	-0.076	-0.011
-624.434	-109.106	0.130	0.028
-623.419	-200.000	0.018	-0.126
-622.405	15.635	0.014	-0.011
-621.390	63.094	-0.269	0.269
-620.376	800.000	0.016	0.057
-619.361	-61.084	0.238	0.100
-618.346	-73.348	-0.115	-0.042
-617.332	-177.461	-0.242	-0.006
-616.317	129.148	0.103	-0.131
-615.303	243.521	-0.072	0.121
-614.288	-200.000	-0.009	0.163
-613.273	800.000	-0.039	0.152
-612.259	148.157	-0.186	-0.251
-611.244	208.084	0.093	-0.145
-610.230	99.840	-0.062	0.072
-609.215	800.000	-0.050	0.206
-608.201	-117.834	0.387	-0.069
-607.186	-0.645	0.137	-0.097
-606.171	-116.380	0.197	0.036
-605.157	-187.728	0.181	0.002
-604.142	295.374	0.073	0.134
-603.128	-34.417	0.284	0.156
-602.113	627.201	0.046	0.115
-601.098	338.335	-0.045	0.088
-600.084	-33.387	-0.195	0.108
-599.069	-59.868	0.305	0.130
-598.055	797.359	-0.099	0.272
-597.040	39.669	-0.083	0.074
-596.025	800.000	-0.093	-0.258
-595.011	516.494	0.059	-0.138
-593.996	-200.000	0.033	0.162
-592.982	800.000	-0.044	-0.135
-591.967	800.000	-0.053	0.195
-590.952	192.806	0.240	-0.362
-589.938	191.286	-0.104	0.156
-588.923	-9.332	0.068	0.046
-587.909	-26.924	-0.131	0.076
-586.894	121.090	-0.112	-0.139
-585.879	-12.249	0.152	-0.099
-584.865	112.483	-0.225	0.272
-583.850	-200.000	0.047	0.277
-582.836	185.647	-0.156	0.232
-581.821	-200.000	-0.080	0.426
-580.806	-200.000	-0.000	-0.185
-579.792	-200.000	-0.020	-0.171
-578.777	55.812	-0.129	0.125
-577.763	-141.155	0.299	-0.031
-576.748	-200.000	0.008	-0.259
-575.733	32.501	0.168	-0.145
-574.719	-94.829	-0.164	0.044
-573.704	800.000	-0.099	0.294
-572.690	-200.000	-0.022	0.177
-571.675	34.226	0.150	-0.130
-570.661	-200.000	0.012	-0.076
-569.646	-166.945	-0.245	-0.010
-568.631	-13.699	0.167	0.108
-567.617	-9.365	-0.215	-0.143
-566.602	-42.597	-0.402	-0.204
-565.588	10.419	-0.214	-0.163
-564.573	425.657	-0.098	-0.210
-563.558	-200.000	0.013	-0.094
-562.544	-182.516	-0.227	-0.004
-561.529	136.310	-0.079	0.103
-560.515	69.086	0.133	-0.137
-559.500	-94.540	-0.071	0.019
-558.485	800.000	-0.090	0.264
-557.471	-105.303	0.449	-0.102
-556.456	531.516	-0.138	-0.326
-555.442	-200.000	-0.002	0.081
-554.427	81.823	-0.206	0.223
-553.412	800.000	0.048	-0.164
-552.398	-200.000	-0.016	-0.161
-551.383	32.404	-0.068	-0.058
-550.369	-69.985	-0.392	-0.149
-549.354	655.890	0.054	0.137
-548.339	315.853	0.056	0.105
-547.325	167.117	0.280	-0.396
-546.310	-200.000	0.028	-0.203
-545.296	-200.000	0.014	-0.357
-544.281	-65.943	0.135	0.054
-543.266	-51.738	-0.280	0.130
-542.252	-175.744	-0.471	-0.013
-541.237	-111.567	0.175	0.035
-540.223	800.000	0.049	-0.148
-539.208	-128.453	0.241	0.034
-538.193	-22.570	0.224	-0.135
-537.179	-187.370	-0.061	-0.001
-536.164	369.952	-0.033	0.067
-535.150	-48.142	0.228	0.110
-534.135	-31.010	0.083	0.047
-533.121	-144.321	-0.385	-0.036
-532.106	-56.871	0.371	0.163
-531.091	349.854	0.087	0.171
-530.077	-200.000	-0.096	-0.466
-529.062	57.832	0.082	0.080
-528.048	18.747	0.192	-0.153
-527.033	53.602	0.291	-0.278
-526.018	800.000	0.086	-0.348
-525.004	-200.000	-0.021	0.388
-523.989	514.537	-0.054	0.126
-522.975	169.597	-0.087	-0.124
-521.960	-9.324	0.178	0.119
-520.945	4.241	-0.249	-0.182
-519.931	800.000	-0.018	-0.054
-518.916	-200.000	0.012	0.060
-517.902	-153.507	0.407	0.028
-516.887	-45.373	0.029	0.014
-515.872	54.153	0.253	0.242
-514.858	-130.110	0.357	-0.048
-513.843	800.000	-0.053	-0.167
-512.829	800.000	0.080	-0.249
-511.814	79.533	0.340	0.364
-510.799	-46.308	0.420	0.206
-509.785	-15.283	0.188	0.120
-508.770	-98.519	-0.184	0.047
-507.756	-200.000	0.037	0.283
-506.741	219.162	-0.207	0.330
-505.726	707.890	-0.046	0.122
-504.712	473.674	-0.156	-0.351
-503.697	-167.700	-0.200	-0.008
-502.683	58.263	-0.050	-0.049
-501.668	-51.517	-0.194	0.090
-500.653	-200.000	-0.005	-0.132
-499.639	-56.550	0.263	-0.116
-498.624	-60.200	-0.260	-0.110
-497.610	-78.171	0.038	0.013
-496.595	800.000	0.073	0.301
-495.581	32.476	0.249	-0.214
-494.566	-39.541	0.065	-0.034
-493.551	-200.000	-0.018	-0.304
-492.537	-123.236	0.349	-0.056
-491.522	-200.000	0.006	-0.275
-490.508	-42.335	-0.116	-0.059
-489.493	37.121	0.026	-0.023
-488.478	-200.000	0.026	-0.226
-487.464	29.207	-0.206	-0.174
-486.449	43.819	-0.072	-0.066
-485.435	-166.437	-0.274	-0.011
-484.420	-85.926	0.114	0.035
-483.405	484.525	0.086	0.196
-482.391	-22.880	-0.166	0.100
-481.376	0.233	0.120	-0.085
-480.362	391.942	-0.038	-0.079
-479.347	800.000	0.014	-0.044
-478.332	14.284	0.126	0.098
-477.318	45.359	-0.183	-0.168
-476.303	-111.673	-0.194	-0.039
-475.289	65.556	0.107	-0.108
-474.274	-133.395	0.186	-0.023
-473.259	800.000	0.071	-0.268
-472.245	119.942	-0.165	-0.204
-471.230	-56.694	0.141	0.062
-470.216	-200.000	0.021	0.339
-469.201	-138.257	-0.149	-0.016
-468.186	-200.000	0.007	0.172
-467.172	365.647	0.134	0.269
-466.157	800.000	-0.071	-0.240
-465.143	-200.000	0.005	0.138
-464.128	-109.997	-0.288	-0.060
-463.113	146.177	-0.075	0.100
-462.099	729.336	-0.012	0.031
-461.084	-200.000	0.057	0.364
-460.070	-50.519	0.383	0.180
-459.055	-143.642	0.275	0.026
-458.040	-123.724	-0.260	-0.041
-457.026	98.810	0.219	-0.252
-456.011	-50.635	-0.053	-0.025
-454.997	800.000	-0.062	-0.236
-453.982	217.122	-0.085	0.134
-452.968	800.000	0.055	0.228
-451.953	676.824	0.018	0.045
-450.938	-200.000	-0.004	0.119
-449.924	-174.037	-0.390	0.011
-448.909	800.000	0.072	-0.263
-447.895	-71.856	0.110	0.041
-446.880	740.349	-0.088	-0.234
-445.865	-32.497	0.227	-0.126
-444.851	-200.000	0.100	0.473
-443.836	-110.948	0.207	0.042
-442.822	800.000	-0.096	-0.390
-441.807	-200.000	-0.011	0.363
-440.792	-67.126	-0.384	-0.150
-439.778	-99.297	0.102	-0.026
-438.763	-200.000	-0.002	-0.067
-437.749	20.725	0.198	0.159
-436.734	-200.000	-0.027	-0.155
-435.719	433.285	0.179	-0.386
-434.705	-200.000	0.007	-0.121
-433.690	-146.130	0.262	-0.023
-432.676	-105.810	-0.052	0.012
-431.661	-123.282	-0.188	-0.030
-430.646	800.000	0.045	-0.137
-429.632	270.933	-0.086	0.151
-428.617	247.163	0.100	0.168
-427.603	-200.000	0.039	0.419
-426.588	78.230	-0.100	0.106
-425.573	201.871	0.231	0.353
-424.559	-145.110	0.214	0.019
-423.544	-147.057	-0.132	-0.011
-422.530	627.960	-0.104	0.261
-421.515	800.000	-0.072	-0.311
-420.500	-200.000	0.014	-0.088
-419.486	286.206	0.132	0.236
-418.471	44.831	-0.077	-0.070
-417.457	22.760	-0.063	-0.051
-416.442	-200.000	-0.020	0.192
-415.428	-46.425	-0.218	-0.106
-414.413	129.125	0.217	0.274
-413.398	61.566	-0.263	0.260
-412.384	-200.000	-0.017	-0.215
-411.369	-200.000	0.028	0.180
-410.355	-188.266	-0.130	-0.002
-409.340	42.353	-0.233	-0.210
-408.325	-92.618	0.175	-0.049
-407.311	-60.362	0.104	0.044
-406.296	210.605	0.368	-0.573
-405.282	229.362	-0.211	-0.342
-404.267	3.114	-0.060	-0.043
-403.252	196.125	-0.195	0.294
-402.238	-53.015	0.179	-0.082
-401.223	-2.277	0.241	0.168
-400.209	142.477	0.119	-0.156
-399.194	-36.568	-0.369	-0.197
-398.179	-200.000	-0.064	0.387
-397.165	-200.000	0.047	-0.216
-396.150	-65.015	0.148	0.059
-395.136	-36.467	-0.190	0.102
-394.121	148.563	-0.100	0.134
-393.106	-200.000	-0.004	0.035
-392.092	745.620	0.090	-0.241
-391.077	-51.184	0.253	-0.117
-390.063	-182.910	0.251	0.004
-389.048	615.825	0.096	-0.239
-388.033	-164.491	0.464	-0.021
-387.019	37.443	-0.047	-0.041
-386.004	200.678	-0.115	-0.175
-384.990	800.000	0.025	0.090
-383.975	-8.889	0.187	0.124
-382.960	182.226	-0.164	0.239
-381.946	-0.998	0.086	0.060
-380.931	-39.005	0.110	-0.057
-379.917	67.284	-0.058	0.059
-378.902	-133.716	-0.350	0.043
-377.888	147.391	0.052	0.069
-376.873	192.131	-0.136	0.203
-375.858	-28.665	0.079	0.045
-374.844	128.677	0.203	0.257
-373.829	800.000	-0.048	0.157
-372.815	78.630	-0.255	-0.270
-371.800	800.000	-0.046	0.181
-370.785	481.862	-0.037	0.083
-369.771	153.825	-0.289	0.392
-368.756	130.154	-0.175	0.222
-367.742	-200.000	-0.053	0.236
-366.727	-166.629	0.027	-0.001
-365.712	415.593	-0.063	0.134
-364.698	-135.081	-0.099	-0.012
-363.683	144.542	-0.191	-0.253
-362.669	-105.376	-0.060	0.013
-361.654	-200.000	0.018	-0.129
-360.639	584.225	-0.158	-0.383
-359.625	-42.548	0.275	-0.139
-358.610	260.569	0.109	-0.186
-357.596	800.000	-0.105	-0.401
-356.581	422.495	-0.128	-0.273
-355.566	138.582	-0.154	0.200
-354.552	-82.791	-0.133	0.043
-353.537	-85.645	-0.210	-0.065
-352.523	-187.206	-0.369	-0.005
-351.508	710.245	-0.125	0.326
-350.493	-0.360	0.182	-0.128
-349.479	800.000	-0.162	-0.504
-348.464	257.851	-0.096	-0.163
-347.450	9.105	0.268	0.200
-346.435	-15.591	0.083	0.052
-345.420	-106.089	0.430	-0.096
-344.406	-108.316	0.344	-0.073
-343.391	-10.472	-0.153	-0.100
-342.377	399.661	-0.136	-0.283
-341.362	-200.000	0.005	0.084
-340.348	-200.000	-0.020	0.208
-339.333	8.141	-0.168	0.125
-338.318	-56.666	0.201	-0.088
-337.304	112.068	-0.256	0.306
-336.289	-10.308	0.219	0.144
-335.275	-28.108	-0.110	-0.063
-334.260	-200.000	0.037	0.299
-333.245	5.740	-0.175	-0.128
-332.231	2.001	0.117	-0.083
-331.216	61.946	-0.131	-0.129
-330.202	-168.507	-0.309	-0.012
-329.187	132.223	-0.079	-0.101
-328.172	55.463	0.289	-0.277
-327.158	532.466	0.195	-0.456
-326.143	104.944	-0.291	-0.339
-325.129	-21.722	0.090	-0.054
-324.114	-127.475	-0.159	0.023
-323.099	306.971	0.089	0.164
-322.085	-89.839	0.050	0.014
-321.070	12.245	-0.198	0.151
-320.056	-143.129	0.336	-0.032
-319.041	53.737	0.219	0.208
-318.026	91.050	-0.235	-0.260
-317.012	800.000	0.113	0.409
-315.997	-200.000	0.010	0.208
-314.983	-140.700	-0.401	0.041
-313.968	59.087	0.112	0.109
-312.953	191.886	-0.165	-0.246
-311.939	-23.483	0.196	-0.116
-310.924	24.750	0.052	-0.043
-309.910	-27.022	-0.226	-0.130
-308.895	533.345	-0.070	0.164
-307.880	129.374	-0.164	0.207
-306.866	-14.329	-0.067	0.042
-305.851	0.263	-0.218	-0.154
-304.837	-100.256	-0.400	-0.098
-303.822	-62.197	0.052	0.022
-302.807	-159.879	-0.247	-0.013
-301.793	-27.261	0.307	-0.177
-300.778	550.433	-0.106	0.250
-299.764	47.909	0.266	0.245
-298.749	-50.683	0.151	0.070
-297.735	-15.939	0.113	0.071
-296.720	-200.000	0.059	-0.309
-295.705	658.298	-0.072	-0.184
-294.691	-107.505	-0.137	0.030
-293.676	184.714	0.196	-0.287
-292.662	99.170	0.066	-0.076
-291.647	94.143	-0.189	0.211
-290.632	261.816	0.016	0.027
-289.618	-96.193	0.173	0.045
-288.603	189.365	-0.117	-0.173
-287.589	-79.338	0.226	-0.076
-286.574	800.000	0.040	-0.111
-285.559	548.085	-0.069	0.162
-284.545	159.626	0.247	0.339
-283.530	-106.364	0.165	-0.036
-282.516	39.356	0.045	0.040
-281.501	-15.208	0.117	0.074
-280.486	24.976	0.273	-0.223
-279.472	1.106	-0.058	-0.041
-278.457	266.216	0.001	-0.002
-277.443	-200.000	-0.004	0.049
-276.428	800.000	0.043	0.184
-275.413	327.794	0.059	0.111
-274.399	10.529	-0.133	0.100
-273.384	180.196	0.024	-0.034
-272.370	-2.141	0.319	0.221
-271.355	800.000	0.019	-0.074
-270.340	-21.301	-0.201	0.121
-269.326	46.591	0.151	0.138
-268.311	800.000	0.072	0.220
-267.297	-4.670	0.133	-0.091
-266.282	184.111	0.097	0.142
-265.267	-200.000	-0.019	-0.194
-264.253	-59.783	-0.207	0.087
-263.238	-167.177	-0.158	0.006
-262.224	34.602	0.158	0.136
-261.209	-6.975	0.239	-0.160
-260.195	-162.957	-0.062	0.003
-259.180	-44.799	0.174	0.086
-258.165	-21.392	0.297	0.179
-257.151	202.786	-0.165	-0.252
-256.136	691.748	-0.121	-0.311
-255.122	247.014	-0.107	-0.178
-254.107	46.270	0.090	-0.082
-253.092	-200.000	0.021	0.228
-252.078	800.000	-0.044	-0.140
-251.063	26.266	0.084	0.069
-250.049	800.000	0.046	-0.134
-249.034	800.000	-0.035	-0.150
-248.019	-120.149	0.219	-0.037
-247.005	204.910	-0.215	-0.329
-245.990	-61.832	-0.124	-0.051
-244.976	55.232	0.232	-0.221
-243.961	387.302	-0.279	0.569
-242.946	800.000	-0.014	0.052
-241.932	-200.000	0.003	0.211
-240.917	248.572	0.085	-0.141
-239.903	178.054	0.169	-0.243
-238.888	-57.811	0.113	0.049
-237.873	800.000	0.095	0.359
-236.859	176.224	-0.153	0.219
-235.844	-49.542	-0.144	0.068
-234.830	-94.152	-0.328	-0.088
-233.815	129.388	-0.054	-0.067
-232.800	-200.000	-0.007	0.086
-231.786	-69.690	-0.134	0.051
-230.771	-4.342	-0.187	-0.127
-229.757	-30.750	0.430	0.240
-228.742	295.957	0.079	-0.143
-227.727	548.987	0.100	0.236
-226.713	-72.826	0.160	-0.058
-225.698	623.376	0.029	-0.073
-224.684	162.234	0.172	0.238
-223.669	-68.612	-0.101	-0.039
-222.655	-53.215	-0.157	-0.071
-221.640	-156.175	-0.156	0.010
-220.625	166.115	0.304	-0.424
-219.611	76.037	-0.319	-0.332
-218.596	800.000	-0.102	0.292
-217.582	-86.655	-0.245	0.074
-216.567	113.466	0.080	-0.096
-215.552	-110.362	0.334	0.068
-214.538	-94.614	0.115	0.031
-213.523	-49.567	-0.203	-0.095
-212.509	225.339	-0.155	-0.246
-211.494	185.766	0.100	-0.146
-210.479	22.914	-0.173	-0.140
-209.465	800.000	-0.083	-0.260
-208.450	-99.692	-0.224	-0.055
-207.436	-36.399	0.157	0.083
-206.421	96.712	-0.044	0.050
-205.406	-19.573	0.184	-0.112
-204.392	182.488	0.100	0.144
-203.377	-200.000	0.010	-0.072
-202.363	-7.608	-0.273	-0.181
-201.348	101.912	-0.342	0.393
-200.333	177.268	0.108	0.154
-199.319	291.200	-0.073	0.131
-198.304	226.025	0.142	0.227
-197.290	100.229	-0.182	0.208
-196.275	800.000	-0.048	0.201
-195.260	-135.272	0.268	-0.032
-194.246	269.056	-0.109	0.189
-193.231	800.000	-0.048	0.165
-192.217	190.206	-0.134	-0.197
-191.202	-138.499	-0.143	0.015
-190.187	-59.187	-0.038	-0.016
-189.173	682.172	-0.134	0.344
-188.158	9.821	-0.240	-0.179
-187.144	215.463	-0.051	-0.079
-186.129	273.097	-0.131	0.228
-185.114	-200.000	0.002	-0.019
-184.100	29.293	0.139	0.116
-183.085	-115.314	0.100	-0.019
-182.071	17.317	-0.239	0.186
-181.056	86.311	0.028	-0.031
-180.042	-200.000	-0.021	-0.443
-179.027	-149.474	0.229	-0.018
-178.012	431.272	-0.057	-0.120
-176.998	110.960	0.177	0.209
-175.983	-65.749	0.033	0.013
-174.969	-33.346	0.117	-0.064
-173.954	-200.000	0.015	-0.198
-172.939	159.181	-0.094	-0.128
-171.925	-200.000	0.003	0.044
-170.910	-200.000	-0.008	-0.179
-169.896	203.892	-0.094	0.143
-168.881	20.758	-0.278	-0.221
-167.866	389.400	0.070	0.143
-166.852	-166.609	0.189	-0.008
-165.837	-200.000	0.006	-0.255
-164.823	-101.974	-0.230	-0.055
-163.808	177.484	0.248	0.355
-162.793	-120.733	-0.099	0.016
-161.779	30.590	-0.283	0.237
-160.764	-200.000	-0.017	-0.076
-159.750	-188.459	0.333	0.004
-158.735	800.000	-0.148	-0.409
-157.720	125.609	-0.121	0.150
-156.706	800.000	0.081	0.226
-155.691	-98.448	0.363	0.091
-154.677	144.673	0.076	-0.099
-153.662	301.045	0.102	0.185
-152.647	-74.723	0.281	0.099
-151.633	-83.899	-0.198	-0.062
-150.618	60.919	-0.148	-0.144
-149.604	40.379	0.327	-0.289
-148.589	-74.510	0.368	0.130
-147.574	715.731	-0.117	0.304
-146.560	-143.821	0.168	0.016
-145.545	-200.000	0.006	0.116
-144.531	79.232	-0.163	-0.172
-143.516	800.000	0.091	-0.266
-142.502	169.308	0.029	0.040
-141.487	43.354	0.238	0.214
-140.472	66.479	-0.054	-0.053
-139.458	185.246	0.139	0.202
-138.443	129.770	-0.111	0.140
-137.429	627.983	-0.165	-0.408
-136.414	800.000	0.058	-0.240
-135.399	-200.000	0.019	-0.266
-134.385	-200.000	0.086	-0.438
-133.370	-0.870	0.277	0.193
-132.356	-90.473	-0.336	-0.095
-131.341	206.503	0.134	-0.205
-130.326	-200.000	-0.011	-0.055
-129.312	-101.336	-0.211	0.051
-128.297	-200.000	-0.024	0.488
-127.283	354.377	-0.189	0.369
-126.268	16.561	-0.209	0.162
-125.253	41.012	0.195	0.172
-124.239	-124.343	0.219	-0.034
-123.224	-200.000	-0.021	0.159
-122.210	-200.000	-0.013	0.304
-121.195	-128.162	-0.017	-0.002
