DTS Sentinel unit serial number:	SN413079Multiplexer serial number:	ORYXHardware model number:	OX4-SRSoftware version number:	ORYX F/W v4.00 Oryx Data Collector v3.7.2.0data status	okinstallation	princeton_trtdifferential loss correction	single-endedforward channel	channel 1reverse channel	N/Adate	2019/09/14time	05:34:35forward acquisition time	60.00reverse acquisition time	0.00gamma	496.2192k internal	0.2334k external	0.2334temperature offset calibration	1.0081default loss term (dB/km)	0.3790temperature slope calibration	1.0000multiplexer offset coefficient	1.0000multiplexer slope coefficient	1.0000fibre end	0.00T internal ref (°C)	26.94T ext. ref 1 (°C)	3.40T ext. ref 2 (°C)	21.80length (m)	temperature (°C)	Stokes	anti-Stokes-747.200	110.086	-0.110	0.132
-746.185	-15.505	-0.166	0.106
-745.171	-69.621	-0.304	-0.117
-744.156	-106.506	0.261	-0.059
-743.142	-195.450	0.269	-0.002
-742.127	-17.769	-0.244	0.154
-741.112	580.267	0.107	0.264
-740.098	411.817	-0.072	0.153
-739.083	-82.568	-0.180	0.059
-738.069	152.357	-0.285	0.391
-737.054	-200.000	0.061	0.414
-736.039	-90.701	-0.130	-0.038
-735.025	264.597	-0.081	0.141
-734.010	-24.067	-0.285	-0.171
-732.996	-81.007	-0.265	0.088
-731.981	-200.000	-0.031	0.181
-730.966	15.997	-0.145	0.115
-729.952	-197.706	-0.357	0.002
-728.937	5.124	-0.045	0.033
-727.923	473.037	-0.086	-0.194
-726.908	-70.524	-0.097	-0.037
-725.894	-165.221	-0.396	-0.018
-724.879	-31.784	-0.191	0.107
-723.864	-51.264	0.411	0.193
-722.850	274.412	-0.155	0.276
-721.835	565.140	-0.134	-0.326
-720.821	-154.822	0.477	-0.032
-719.806	268.835	0.084	0.147
-718.791	-144.340	-0.276	-0.026
-717.777	-0.819	0.061	-0.043
-716.762	800.000	-0.075	0.281
-715.748	-200.000	-0.012	-0.070
-714.733	-200.000	0.003	-0.085
-713.718	13.049	0.147	-0.114
-712.704	578.991	0.047	0.114
-711.689	103.802	-0.106	-0.125
-710.675	-200.000	-0.048	-0.281
-709.660	699.882	0.051	-0.134
-708.645	-185.038	-0.147	0.002
-707.631	-76.735	-0.404	-0.142
-706.616	-125.898	-0.162	0.024
-705.602	-66.147	-0.134	-0.054
-704.587	800.000	0.086	-0.344
-703.572	-71.702	-0.240	0.090
-702.558	360.048	-0.104	-0.208
-701.543	-130.551	0.183	0.025
-700.529	97.178	0.192	-0.221
-699.514	7.281	-0.229	-0.171
-698.499	-54.211	-0.030	-0.014
-697.485	267.239	-0.106	-0.186
-696.470	77.063	0.098	0.104
-695.456	401.519	0.082	-0.174
-694.441	-163.251	0.168	0.008
-693.426	-133.715	0.260	0.032
-692.412	-61.967	-0.193	-0.081
-691.397	-200.000	-0.019	-0.131
-690.383	-55.518	0.145	-0.065
-689.368	-30.836	-0.034	0.019
-688.354	-122.627	-0.283	-0.046
-687.339	654.295	0.081	-0.208
-686.324	-200.000	0.028	-0.372
-685.310	64.056	-0.216	-0.218
-684.295	395.205	0.127	0.266
-683.281	-39.118	-0.136	-0.072
-682.266	-55.728	-0.167	-0.075
-681.251	429.089	-0.067	-0.145
-680.237	-69.262	-0.126	-0.049
-679.222	-200.000	-0.016	0.129
-678.208	130.413	0.210	-0.270
-677.193	31.584	0.198	0.171
-676.178	-200.000	0.010	-0.142
-675.164	204.300	-0.270	-0.420
-674.149	800.000	0.073	-0.246
-673.135	534.242	0.096	0.228
-672.120	-68.134	-0.265	0.104
-671.105	-200.000	-0.038	0.260
-670.091	-200.000	-0.004	0.168
-669.076	61.868	-0.276	0.276
-668.062	416.675	-0.141	0.302
-667.047	288.363	-0.099	-0.180
-666.032	3.105	-0.141	-0.103
-665.018	180.147	0.096	-0.142
-664.003	96.582	-0.105	-0.120
-662.989	-200.000	0.099	-0.000
-661.974	-200.000	-0.016	0.186
-660.959	-97.543	0.042	0.011
-659.945	-200.000	-0.011	-0.251
-658.930	-172.332	0.336	-0.011
-657.916	-55.106	-0.292	-0.131
-656.901	55.938	-0.059	-0.057
-655.886	-2.488	0.226	0.159
-654.872	146.220	-0.018	0.024
-653.857	-115.006	-0.144	-0.027
-652.843	49.733	0.104	-0.098
-651.828	17.349	-0.352	-0.280
-650.814	71.228	0.130	-0.135
-649.799	35.025	0.070	-0.061
-648.784	193.971	-0.079	0.120
-647.770	-82.816	-0.189	0.061
-646.755	25.399	0.168	-0.140
-645.741	421.827	0.153	0.329
-644.726	53.386	-0.096	0.092
-643.711	24.864	0.070	0.058
-642.697	134.329	0.100	-0.129
-641.682	-73.810	0.223	-0.081
-640.668	-53.820	-0.235	0.107
-639.653	78.362	0.125	-0.134
-638.638	-32.060	-0.272	0.152
-637.624	-47.811	-0.182	-0.088
-636.609	172.496	-0.123	0.178
-635.595	-200.000	-0.017	-0.200
-634.580	-16.667	-0.234	-0.148
-633.565	320.921	0.098	-0.187
-632.551	-12.852	0.155	0.101
-631.536	240.701	-0.164	-0.273
-630.522	-5.655	-0.344	0.236
-629.507	-200.000	0.020	-0.197
-628.492	96.395	-0.125	-0.143
-627.478	-155.453	0.203	-0.013
-626.463	21.138	0.312	0.253
-625.449	37.676	-0.274	0.243
-624.434	-5.598	-0.199	0.137
-623.419	-16.898	-0.412	-0.261
-622.405	800.000	-0.026	-0.083
-621.390	66.139	0.070	-0.071
-620.376	-200.000	-0.315	0.001
-619.361	-200.000	0.001	0.004
-618.346	-110.939	0.360	-0.074
-617.332	800.000	-0.045	0.159
-616.317	296.323	0.164	0.301
-615.303	180.917	0.076	0.111
-614.288	407.730	0.002	0.005
-613.273	800.000	-0.017	0.059
-612.259	-43.531	-0.202	-0.102
-611.244	-54.979	-0.302	0.136
-610.230	155.658	0.112	-0.155
-609.215	-200.000	0.119	-0.000
-608.201	-159.951	-0.157	0.009
-607.186	409.011	0.083	0.176
-606.171	-108.173	0.299	-0.065
-605.157	120.705	-0.202	0.251
-604.142	-200.000	-0.049	0.389
-603.128	107.379	0.081	0.097
-602.113	-49.171	-0.104	0.050
-601.098	800.000	-0.093	0.296
-600.084	165.203	-0.082	0.116
-599.069	404.743	0.130	-0.274
-598.055	104.566	-0.040	-0.047
-597.040	-63.173	0.390	0.161
-596.025	-26.816	0.219	0.128
-595.011	31.649	-0.259	-0.222
-593.996	159.116	-0.081	0.112
-592.982	-142.795	-0.133	-0.013
-591.967	800.000	0.086	-0.357
-590.952	-38.542	-0.381	0.201
-589.938	-6.675	0.249	0.169
-588.923	-200.000	0.002	-0.137
-587.909	-200.000	-0.041	-0.187
-586.894	-91.601	0.101	0.029
-585.879	179.269	0.023	0.034
-584.865	12.373	0.264	-0.204
-583.850	704.304	0.061	0.160
-582.836	800.000	0.038	-0.110
-581.821	-200.000	0.017	-0.098
-580.806	-76.935	-0.432	-0.151
-579.792	-111.832	0.279	0.056
-578.777	-18.248	0.065	-0.040
-577.763	-200.000	-0.000	-0.006
-576.748	-174.670	-0.243	-0.007
-575.733	-46.913	-0.111	-0.054
-574.719	598.318	0.079	0.196
-573.704	101.551	0.097	-0.113
-572.690	-200.000	-0.002	-0.024
-571.675	-200.000	0.013	0.261
-570.661	-79.249	0.224	-0.076
-569.646	-21.234	0.263	-0.160
-568.631	-15.228	-0.185	-0.118
-567.617	88.592	-0.197	0.218
-566.602	572.385	0.043	-0.104
-565.588	138.734	-0.127	-0.167
-564.573	48.422	-0.096	-0.090
-563.558	800.000	0.071	0.275
-562.544	182.828	-0.146	0.215
-561.529	-80.985	0.079	0.026
-560.515	-200.000	-0.010	-0.190
-559.500	26.013	-0.159	0.133
-558.485	90.059	-0.074	-0.083
-557.471	-62.375	0.169	-0.070
-556.456	660.226	0.068	-0.174
-555.442	-21.436	-0.120	-0.073
-554.427	-200.000	-0.004	-0.124
-553.412	-109.198	0.209	-0.044
-552.398	800.000	-0.084	-0.245
-551.383	-78.244	-0.151	0.052
-550.369	-96.436	0.263	0.069
-549.354	-99.980	-0.294	-0.073
-548.339	-200.000	0.041	-0.199
-547.325	120.428	-0.046	0.056
-546.310	74.330	-0.129	-0.135
-545.296	79.446	-0.333	-0.357
-544.281	516.897	0.030	-0.070
-543.266	345.389	0.119	-0.232
-542.252	-54.731	-0.243	-0.110
-541.237	121.855	0.198	0.247
-540.223	131.750	0.158	-0.203
-539.208	777.629	-0.131	-0.357
-538.193	93.782	-0.124	-0.140
-537.179	-36.606	0.288	-0.154
-536.164	-12.004	0.262	0.171
-535.150	-200.000	0.013	-0.271
-534.135	298.354	-0.164	-0.301
-533.121	-200.000	-0.023	-0.188
-532.106	-60.724	0.223	-0.094
-531.091	16.360	-0.164	-0.129
-530.077	-200.000	0.060	-0.308
-529.062	101.183	0.227	-0.263
-528.048	72.305	-0.107	-0.111
-527.033	800.000	0.110	0.339
-526.018	800.000	0.064	-0.186
-525.004	131.822	0.071	-0.091
-523.989	-41.728	0.185	0.095
-522.975	-200.000	0.015	-0.196
-521.960	156.828	0.073	0.100
-520.945	-200.000	0.008	0.384
-519.931	-113.526	-0.154	0.030
-518.916	800.000	0.027	0.096
-517.902	-200.000	0.011	0.220
-516.887	-34.618	0.194	-0.106
-515.872	75.472	0.110	-0.116
-514.858	-73.109	0.232	0.085
-513.843	800.000	0.040	-0.112
-512.829	-91.708	0.409	0.116
-511.814	130.964	0.114	-0.145
-510.799	17.505	-0.090	0.071
-509.785	-200.000	-0.089	0.000
-508.770	-88.311	-0.408	0.121
-507.756	125.454	0.273	-0.343
-506.741	298.914	0.102	0.188
-505.726	15.624	0.190	0.148
-504.712	87.058	-0.213	-0.234
-503.697	-137.596	-0.108	0.012
-502.683	-160.559	-0.301	0.016
-501.668	-146.979	0.166	0.014
-500.653	-41.897	0.136	0.070
-499.639	800.000	0.172	-0.553
-498.624	-174.287	0.138	0.004
-497.610	163.778	0.152	0.213
-496.595	-34.168	-0.233	-0.127
-495.581	-46.258	0.095	-0.046
-494.566	63.101	-0.144	0.143
-493.551	65.586	-0.258	0.260
-492.537	336.612	-0.070	-0.136
-491.522	128.480	0.087	0.110
-490.508	-85.489	0.106	0.033
-489.493	-200.000	0.047	-0.252
-488.478	62.340	0.109	0.108
-487.464	-86.573	-0.107	0.033
-486.449	-79.842	-0.273	0.091
-485.435	-87.396	-0.039	0.012
-484.420	454.897	-0.099	-0.219
-483.405	103.599	0.152	0.177
-482.391	335.180	0.107	-0.206
-481.376	800.000	0.012	0.035
-480.362	303.878	-0.109	-0.201
-479.347	159.494	-0.058	-0.081
-478.332	-200.000	0.007	0.319
-477.318	-54.849	-0.288	-0.129
-476.303	-52.333	-0.136	-0.063
-475.289	-200.000	0.057	-0.305
-474.274	-59.622	-0.310	-0.132
-473.259	146.389	-0.177	0.237
-472.245	800.000	-0.048	0.183
-471.230	-200.000	-0.034	-0.157
-470.216	-40.038	-0.108	0.056
-469.201	-75.378	-0.243	-0.086
-468.186	112.903	0.149	0.179
-467.172	612.381	0.042	-0.105
-466.157	125.062	0.094	-0.118
-465.143	-31.940	0.186	0.103
-464.128	-200.000	-0.003	-0.029
-463.113	580.925	-0.034	0.083
-462.099	425.100	-0.110	-0.236
-461.084	192.375	-0.183	-0.275
-460.070	130.794	-0.144	0.183
-459.055	-166.198	0.090	0.004
-458.040	159.321	-0.062	-0.086
-457.026	-200.000	-0.051	0.372
-456.011	496.464	-0.032	-0.073
-454.997	-50.278	0.183	0.086
-453.982	-31.788	0.096	0.053
-452.968	-200.000	0.042	0.360
-451.953	79.576	0.107	-0.114
-450.938	314.422	-0.152	0.285
-449.924	631.213	0.050	-0.125
-448.909	-117.741	-0.055	-0.010
-447.895	-114.327	-0.418	-0.080
-446.880	399.201	0.068	-0.141
-445.865	21.424	0.076	-0.061
-444.851	-59.769	-0.269	0.114
-443.836	-200.000	0.024	-0.207
-442.822	119.964	0.151	0.186
-441.807	85.966	0.133	0.145
-440.792	-1.264	0.077	-0.054
-439.778	-200.000	0.008	-0.097
-438.763	-44.246	0.418	-0.208
-437.749	-83.681	0.188	-0.060
-436.734	-34.447	-0.257	0.140
-435.719	-17.887	-0.382	0.238
-434.705	142.314	0.210	0.277
-433.690	-200.000	0.019	0.177
-432.676	-66.824	-0.063	-0.025
-431.661	56.221	0.241	0.233
-430.646	-101.841	0.221	-0.053
-429.632	800.000	0.057	-0.173
-428.617	-40.361	0.123	-0.063
-427.603	49.824	-0.121	-0.113
-426.588	75.294	0.152	0.160
-425.573	-127.579	-0.356	0.051
-424.559	-200.000	0.034	0.234
-423.544	-11.761	-0.112	-0.073
-422.530	367.232	-0.109	0.218
-421.515	-200.000	-0.005	0.150
-420.500	-56.778	-0.189	0.083
-419.486	-110.145	-0.166	-0.034
-418.471	-22.588	0.149	-0.089
-417.457	16.871	0.190	-0.149
-416.442	177.026	0.107	-0.155
-415.428	47.553	-0.089	0.083
-414.413	567.404	0.056	0.136
-413.398	-200.000	-0.046	0.247
-412.384	-2.966	-0.106	0.073
-411.369	-59.236	0.372	-0.159
-410.355	800.000	0.074	-0.203
-409.340	562.581	0.130	-0.312
-408.325	-200.000	0.075	-0.339
-407.311	-164.762	-0.171	-0.008
-406.296	800.000	-0.087	0.267
-405.282	-56.101	0.285	0.126
-404.267	-138.018	0.243	-0.027
-403.252	83.796	0.195	0.211
-402.238	-200.000	-0.029	0.226
-401.223	722.022	-0.035	-0.093
-400.209	-156.703	0.420	-0.026
-399.194	462.999	-0.036	-0.080
-398.179	-200.000	0.008	0.138
-397.165	-55.295	-0.042	-0.019
-396.150	6.845	0.181	-0.134
-395.136	-200.000	0.042	0.213
-394.121	-5.954	-0.131	-0.089
-393.106	60.523	0.031	0.030
-392.092	83.541	-0.178	-0.192
-391.077	64.428	-0.158	-0.158
-390.063	-87.768	-0.122	-0.037
-389.048	65.985	-0.290	-0.291
-388.033	-200.000	0.041	-0.480
-387.019	-114.987	0.201	-0.038
-386.004	-29.326	-0.332	-0.189
-384.990	-200.000	-0.014	0.138
-383.975	-40.946	0.101	0.052
-382.960	156.952	0.129	0.177
-381.946	-143.023	0.300	0.029
-380.931	430.598	-0.097	-0.209
-379.917	677.339	-0.027	0.070
-378.902	800.000	0.131	0.554
-377.888	-200.000	-0.034	0.169
-376.873	-145.485	0.241	-0.021
-375.858	-25.355	-0.314	0.184
-374.844	-95.820	-0.042	0.011
-373.829	-92.661	0.221	0.061
-372.815	196.968	0.029	-0.044
-371.800	-89.436	0.315	0.092
-370.785	-49.405	-0.148	-0.070
-369.771	-108.522	-0.404	-0.086
-368.756	85.594	0.136	-0.148
-367.742	145.656	0.130	-0.173
-366.727	-37.856	0.378	0.199
-365.712	800.000	0.037	0.127
-364.698	-34.941	0.211	-0.114
-363.683	68.242	0.221	-0.224
-362.669	88.665	0.317	-0.349
-361.654	78.167	-0.117	-0.123
-360.639	479.051	0.147	-0.331
-359.625	786.325	0.058	-0.158
-358.610	77.747	0.101	0.106
-357.596	297.817	0.172	0.313
-356.581	-47.231	0.337	0.163
-355.566	171.064	0.072	0.103
-354.552	611.066	-0.141	-0.350
-353.537	-85.532	0.347	0.107
-352.523	133.261	0.096	-0.123
-351.508	-69.489	-0.201	-0.076
-350.493	-85.281	0.150	0.046
-349.479	-18.422	-0.202	-0.125
-348.464	192.391	-0.095	0.142
-347.450	-82.637	-0.121	0.039
-346.435	336.721	-0.038	-0.072
-345.420	264.070	0.039	0.068
-344.406	584.307	-0.122	0.295
-343.391	355.641	0.038	0.075
-342.377	800.000	-0.054	-0.201
-341.362	169.136	0.152	0.215
-340.348	717.005	-0.079	-0.208
-339.333	-95.361	0.502	0.133
-338.318	76.943	-0.136	0.143
-337.304	557.087	-0.041	0.097
-336.289	-200.000	0.010	-0.161
-335.275	-91.930	0.048	-0.014
-334.260	-55.800	0.189	-0.084
-333.245	-200.000	0.027	0.117
-332.231	184.157	0.226	-0.332
-331.216	-96.421	-0.162	-0.042
-330.202	800.000	-0.019	-0.080
-329.187	48.123	-0.080	-0.074
-328.172	-77.603	0.143	0.049
-327.158	-200.000	-0.069	0.368
-326.143	64.401	-0.110	0.109
-325.129	-200.000	0.031	-0.173
-324.114	800.000	-0.047	0.181
-323.099	800.000	-0.058	0.159
-322.085	52.941	0.386	0.365
-321.070	59.150	0.126	-0.122
-320.056	-29.878	-0.058	0.033
-319.041	3.277	-0.231	-0.166
-318.026	272.110	-0.123	0.215
-317.012	-200.000	-0.085	0.368
-315.997	-79.408	0.157	-0.052
-314.983	-82.789	-0.278	-0.089
-313.968	-92.899	-0.226	-0.062
-312.953	-200.000	-0.037	0.492
-311.939	-200.000	-0.009	0.309
-310.924	-136.677	0.474	-0.054
-309.910	-49.981	0.206	-0.096
-308.895	508.574	0.084	0.192
-307.880	-150.062	-0.044	0.003
-306.866	-200.000	0.021	0.131
-305.851	-200.000	-0.060	-0.341
-304.837	319.367	-0.112	-0.210
-303.822	760.051	0.053	-0.141
-302.807	800.000	-0.043	0.165
-301.793	113.006	-0.175	0.210
-300.778	-105.512	0.133	-0.030
-299.764	-69.012	-0.152	0.058
-298.749	27.738	-0.165	-0.137
-297.735	-26.141	0.301	-0.175
-296.720	-62.391	0.016	-0.007
-295.705	246.832	-0.175	0.292
-294.691	-196.027	-0.268	0.002
-293.676	-51.868	-0.077	-0.035
-292.662	-200.000	0.029	-0.203
-291.647	109.572	-0.074	-0.088
-290.632	-48.116	-0.055	-0.026
-289.618	-129.555	-0.218	-0.030
-288.603	-200.000	-0.009	0.040
-287.589	-4.459	-0.386	0.264
-286.574	39.346	0.251	0.222
-285.559	65.862	-0.283	-0.284
-284.545	-200.000	0.009	-0.200
-283.530	201.286	0.075	0.113
-282.516	-64.568	0.221	0.089
-281.501	800.000	-0.060	0.199
-280.486	-30.530	-0.207	-0.116
-279.472	-200.000	0.036	-0.285
-278.457	-21.373	0.111	-0.067
-277.443	800.000	-0.044	-0.183
-276.428	-200.000	-0.025	-0.143
-275.413	111.587	0.232	0.277
-274.399	278.607	-0.053	-0.092
-273.384	-137.866	0.268	-0.030
-272.370	-89.942	-0.375	-0.108
-271.355	190.617	-0.181	0.268
-270.340	-186.001	-0.036	0.001
-269.326	-84.736	0.086	-0.027
-268.311	800.000	0.057	0.218
-267.297	-20.622	-0.076	0.046
-266.282	-80.967	-0.340	0.111
-265.267	18.108	-0.241	-0.190
-264.253	-200.000	-0.055	0.253
-263.238	-200.000	-0.014	0.188
-262.224	109.916	-0.118	0.140
-261.209	-55.535	0.228	0.101
-260.195	-130.410	0.289	-0.039
-259.180	-94.622	0.125	0.034
-258.165	800.000	-0.090	-0.325
-257.151	54.255	-0.162	-0.153
-256.136	-200.000	-0.027	0.167
-255.122	99.556	-0.242	-0.276
-254.107	-105.963	-0.212	-0.047
-253.092	-100.127	0.169	0.042
-252.078	407.048	0.036	-0.075
-251.063	-31.529	0.259	0.144
-250.049	-168.930	0.432	0.016
-249.034	-41.768	0.551	0.279
-248.019	689.729	-0.130	0.335
-247.005	-200.000	-0.017	-0.123
-245.990	800.000	0.045	-0.147
-244.976	-159.113	-0.237	0.013
-243.961	434.188	0.098	-0.209
-242.946	268.902	-0.109	0.189
-241.932	-12.913	0.137	0.088
-240.917	-98.734	-0.118	0.030
-239.903	-200.000	-0.008	0.166
-238.888	800.000	0.034	-0.103
-237.873	-142.134	0.140	-0.014
-236.859	800.000	0.088	0.263
-235.844	199.242	-0.128	0.193
-234.830	-53.084	0.282	0.128
-233.815	-98.280	0.113	-0.029
-232.800	185.630	-0.372	-0.545
-231.786	-200.000	-0.011	-0.183
-230.771	-38.507	0.199	0.104
-229.757	800.000	0.048	-0.180
-228.742	544.773	0.012	0.028
-227.727	12.880	-0.151	0.115
-226.713	81.586	0.044	0.046
-225.698	34.357	0.186	0.160
-224.684	800.000	-0.023	-0.077
-223.669	-52.507	-0.068	0.031
-222.655	201.099	0.157	-0.238
-221.640	-200.000	-0.032	0.268
-220.625	331.440	-0.061	0.115
-219.611	80.516	0.172	0.182
-218.596	304.215	-0.173	0.315
-217.582	231.751	0.063	0.102
-216.567	-52.202	-0.276	0.126
-215.552	140.166	0.129	-0.167
-214.538	-81.936	-0.333	0.107
-213.523	241.567	-0.118	-0.195
-212.509	4.822	-0.228	-0.165
-211.494	-110.522	0.192	-0.039
-210.479	12.840	0.311	0.237
-209.465	-34.879	-0.098	0.053
-208.450	-107.462	-0.113	0.024
-207.436	77.794	-0.045	-0.047
-206.421	-115.035	0.189	-0.035
-205.406	800.000	-0.093	0.308
-204.392	788.605	-0.005	0.015
-203.377	-200.000	-0.018	-0.171
-202.363	91.436	0.155	-0.171
-201.348	63.611	0.279	-0.276
-200.333	-23.917	0.207	-0.122
-199.319	400.082	-0.106	0.218
-198.304	454.655	-0.038	-0.083
-197.290	-137.077	-0.053	-0.006
-196.275	-101.097	-0.164	0.039
-195.260	-20.514	-0.135	0.082
-194.246	-7.032	0.076	-0.051
-193.231	-131.135	-0.212	0.028
-192.217	235.254	0.038	-0.061
-191.202	319.918	-0.091	-0.169
-190.187	-23.642	-0.021	0.012
-189.173	-84.062	0.191	-0.060
-188.158	39.729	-0.121	0.107
-187.144	-127.040	-0.188	-0.027
-186.129	27.506	-0.165	-0.137
-185.114	-106.724	0.091	0.020
-184.100	473.863	-0.113	-0.250
-183.085	-84.093	-0.171	0.054
-182.071	-78.368	-0.122	0.041
-181.056	72.187	-0.240	0.246
-180.042	-200.000	-0.006	0.453
-179.027	-31.791	-0.381	-0.210
-178.012	185.783	0.122	0.178
-176.998	246.538	0.065	-0.108
-175.983	-200.000	-0.013	-0.110
-174.969	120.411	0.090	0.110
-173.954	-115.687	-0.114	-0.021
-172.939	238.631	-0.166	0.271
-171.925	-200.000	-0.013	0.070
-170.910	800.000	-0.037	-0.133
-169.896	-131.835	-0.176	-0.023
-168.881	800.000	0.098	0.296
-167.866	51.651	-0.309	-0.289
-166.852	-200.000	0.048	-0.298
-165.837	-17.041	0.091	-0.056
-164.823	290.029	0.170	0.303
-163.808	15.072	0.152	-0.117
-162.793	35.069	-0.314	-0.270
-161.779	339.712	0.047	-0.090
-160.764	-75.232	-0.260	0.091
-159.750	800.000	-0.039	-0.108
-158.735	353.016	-0.050	-0.097
-157.720	241.819	-0.220	0.361
-156.706	800.000	0.092	0.261
-155.691	-89.067	0.375	-0.109
-154.677	300.116	-0.083	-0.150
-153.662	800.000	0.060	-0.226
-152.647	800.000	-0.081	0.314
-151.633	-72.133	0.345	0.126
-150.618	40.242	-0.017	0.015
-149.604	69.803	0.205	0.207
-148.589	143.593	0.165	-0.216
-147.574	66.033	-0.072	0.072
-146.560	-64.052	-0.412	0.165
-145.545	-107.959	-0.444	-0.095
-144.531	-122.913	-0.220	-0.035
-143.516	35.686	-0.322	0.278
-142.502	-3.842	0.122	0.083
-141.487	-61.677	-0.070	0.029
-140.472	-73.930	-0.291	-0.104
-139.458	206.741	0.225	-0.344
-138.443	248.260	-0.225	0.374
-137.429	-43.516	0.065	-0.032
-136.414	-3.930	0.335	0.228
-135.399	75.424	-0.186	-0.192
-134.385	-200.000	-0.009	-0.293
-133.370	-200.000	0.001	0.092
-132.356	-54.850	-0.097	-0.043
-131.341	-17.102	0.110	0.068
-130.326	41.148	-0.200	-0.177
-129.312	800.000	-0.048	0.137
-128.297	109.532	0.070	-0.083
-127.283	800.000	0.031	0.096
-126.268	-200.000	-0.046	-0.293
-125.253	172.500	-0.137	-0.194
-124.239	800.000	0.069	-0.215
-123.224	48.657	-0.177	0.163
-122.210	-33.464	-0.151	-0.082
-121.195	469.401	0.031	0.067
