DTS Sentinel unit serial number:	SN413079Multiplexer serial number:	ORYXHardware model number:	OX4-SRSoftware version number:	ORYX F/W v4.00 Oryx Data Collector v3.7.2.0data status	okinstallation	princeton_trtdifferential loss correction	single-endedforward channel	channel 1reverse channel	N/Adate	2019/09/11time	19:04:11forward acquisition time	60.00reverse acquisition time	0.00gamma	496.2192k internal	0.2292k external	0.2292temperature offset calibration	1.0017default loss term (dB/km)	0.3790temperature slope calibration	1.0000multiplexer offset coefficient	1.0000multiplexer slope coefficient	1.0000fibre end	0.00T internal ref (°C)	42.05T ext. ref 1 (°C)	1.27T ext. ref 2 (°C)	34.37length (m)	temperature (°C)	Stokes	anti-Stokes-747.200	-200.000	-0.113	0.589
-746.185	800.000	-0.039	0.140
-745.171	-146.600	0.303	-0.027
-744.156	69.219	-0.186	0.195
-743.142	-37.328	-0.183	0.100
-742.127	248.420	0.183	0.317
-741.112	-30.227	-0.338	-0.196
-740.098	85.045	-0.218	0.244
-739.083	-9.466	0.265	0.181
-738.069	168.580	-0.080	-0.117
-737.054	800.000	-0.055	-0.241
-736.039	-89.623	0.259	-0.078
-735.025	-200.000	-0.014	-0.089
-734.010	800.000	-0.070	0.200
-732.996	275.782	0.085	0.155
-731.981	68.592	0.239	-0.251
-730.966	200.526	0.004	0.006
-729.952	322.116	-0.219	-0.426
-728.937	173.740	-0.100	0.147
-727.923	59.630	-0.152	-0.153
-726.908	-91.959	-0.376	0.109
-725.894	-100.976	-0.185	-0.046
-724.879	37.470	-0.280	0.254
-723.864	223.324	0.174	-0.287
-722.850	183.992	-0.107	-0.162
-721.835	476.441	-0.206	0.477
-720.821	318.150	0.096	0.185
-719.806	-45.066	-0.152	-0.077
-718.791	-170.752	-0.222	0.008
-717.777	-10.125	0.192	-0.130
-716.762	-36.527	-0.199	-0.109
-715.748	140.262	0.267	-0.360
-714.733	-200.000	-0.011	-0.057
-713.718	-14.592	0.072	-0.047
-712.704	-107.374	0.357	0.080
-711.689	-200.000	-0.003	-0.076
-710.675	32.920	0.083	0.073
-709.660	-144.976	0.337	0.031
-708.645	22.092	-0.099	-0.082
-707.631	-82.712	-0.107	0.035
-706.616	800.000	-0.073	-0.231
-705.602	800.000	0.043	-0.190
-704.587	288.837	0.194	-0.359
-703.572	-200.000	-0.017	-0.184
-702.558	65.781	-0.037	-0.038
-701.543	92.404	0.134	0.154
-700.529	-200.000	-0.014	-0.098
-699.514	-1.399	-0.129	-0.093
-698.499	-81.075	0.125	-0.042
-697.485	-63.214	0.087	-0.036
-696.470	-160.072	-0.423	-0.024
-695.456	554.212	0.144	0.355
-694.441	27.979	-0.111	0.096
-693.426	-200.000	-0.004	-0.430
-692.412	223.617	-0.092	0.151
-691.397	-110.648	-0.021	-0.004
-690.383	-177.577	-0.332	0.008
-689.368	190.813	-0.137	0.211
-688.354	303.005	-0.068	0.128
-687.339	349.712	-0.113	0.229
-686.324	139.185	0.029	-0.038
-685.310	152.141	0.214	0.298
-684.295	-47.666	-0.427	0.212
-683.281	200.485	0.081	0.127
-682.266	177.372	0.123	-0.182
-681.251	-24.278	0.186	-0.113
-680.237	362.879	0.102	-0.210
-679.222	800.000	-0.046	0.175
-678.208	-2.301	-0.219	0.157
-677.193	800.000	0.100	-0.308
-676.178	50.013	-0.388	-0.373
-675.164	-162.538	-0.318	-0.016
-674.149	-8.510	0.212	0.145
-673.135	-157.023	0.475	0.030
-672.120	394.793	-0.037	0.078
-671.105	-160.728	0.256	0.014
-670.091	-200.000	0.010	-0.105
-669.076	18.906	-0.160	-0.131
-668.062	63.125	-0.199	-0.204
-667.047	210.681	-0.100	-0.160
-666.032	-99.729	-0.321	-0.082
-665.018	432.318	0.163	-0.360
-664.003	800.000	-0.109	-0.366
-662.989	732.112	-0.113	-0.308
-661.974	223.915	0.137	0.225
-660.959	-31.418	0.062	-0.036
-659.945	57.217	-0.195	-0.194
-658.930	-29.640	-0.119	0.069
-657.916	-116.217	-0.193	0.036
-656.901	-49.008	0.109	-0.053
-655.886	242.525	0.167	-0.285
-654.872	800.000	-0.088	0.277
-653.857	581.845	-0.086	0.216
-652.843	-130.434	0.383	0.053
-651.828	10.663	-0.334	0.260
-650.814	50.583	-0.177	-0.171
-649.799	-200.000	-0.050	0.268
-648.784	-200.000	-0.049	-0.262
-647.770	-145.763	0.316	0.029
-646.755	392.769	-0.167	-0.354
-645.741	-101.041	0.342	0.086
-644.726	219.408	0.042	-0.068
-643.711	-200.000	-0.006	-0.090
-642.697	-39.848	0.201	-0.107
-641.682	-59.633	-0.237	0.104
-640.668	114.288	-0.088	0.109
-639.653	-96.163	0.356	-0.096
-638.638	31.349	-0.230	0.202
-637.624	402.639	-0.120	-0.257
-636.609	755.638	0.128	0.352
-635.595	-56.112	-0.336	0.152
-634.580	-124.867	-0.277	0.044
-633.565	800.000	-0.048	-0.182
-632.551	280.186	0.108	0.196
-631.536	-117.437	-0.187	0.034
-630.522	-169.153	0.223	-0.008
-629.507	199.953	0.161	0.252
-628.492	-125.159	-0.043	-0.007
-627.478	-158.761	0.205	0.012
-626.463	800.000	0.114	0.383
-625.449	20.923	0.164	0.135
-624.434	-11.262	0.058	-0.039
-623.419	-70.808	0.028	0.011
-622.405	-25.000	-0.315	0.190
-621.390	-200.000	-0.016	-0.200
-620.376	-100.120	0.096	-0.024
-619.361	800.000	0.069	-0.226
-618.346	231.114	0.135	0.225
-617.332	98.064	0.236	0.277
-616.317	-200.000	0.033	0.184
-615.303	-27.368	0.088	-0.052
-614.288	-200.000	0.005	-0.030
-613.273	33.353	0.139	-0.123
-612.259	-200.000	-0.023	-0.122
-611.244	-69.695	0.227	0.088
-610.230	-200.000	-0.069	0.374
-609.215	105.247	-0.057	-0.068
-608.201	-24.578	0.276	0.167
-607.186	-109.239	0.478	-0.103
-606.171	-35.465	-0.157	-0.087
-605.157	69.674	-0.067	0.070
-604.142	-200.000	-0.014	0.090
-603.128	-138.582	-0.380	-0.042
-602.113	-200.000	-0.006	-0.362
-601.098	718.672	-0.086	-0.232
-600.084	308.478	-0.072	-0.137
-599.069	390.637	-0.092	0.195
-598.055	-200.000	0.001	-0.122
-597.040	-26.170	-0.122	-0.073
-596.025	-200.000	0.087	-0.438
-595.011	50.016	-0.253	0.243
-593.996	-87.264	-0.175	-0.054
-592.982	-166.815	-0.168	-0.007
-591.967	9.101	0.203	0.156
-590.952	-105.452	-0.201	-0.047
-589.938	203.803	-0.240	-0.377
-588.923	206.886	-0.059	0.093
-587.909	165.556	0.115	-0.166
-586.894	203.839	0.075	0.118
-585.879	-200.000	-0.001	-0.111
-584.865	-200.000	0.017	0.256
-583.850	19.673	0.216	0.177
-582.836	64.895	0.073	0.075
-581.821	114.829	-0.075	0.093
-580.806	155.402	-0.034	0.047
-579.792	386.136	0.090	-0.188
-578.777	-99.464	0.293	0.075
-577.763	-17.144	0.205	-0.131
-576.748	-96.286	0.256	0.069
-575.733	-49.006	0.287	0.140
-574.719	29.027	0.195	-0.168
-573.704	-200.000	0.017	0.138
-572.690	197.060	0.172	0.266
-571.675	183.030	-0.144	0.216
-570.661	800.000	-0.038	-0.138
-569.646	-40.778	0.275	-0.145
-568.631	251.289	0.043	-0.074
-567.617	-200.000	0.069	0.377
-566.602	-55.484	-0.135	-0.062
-565.588	-10.498	0.068	0.046
-564.573	-175.697	-0.188	0.005
-563.558	308.208	-0.107	-0.203
-562.544	800.000	0.084	-0.266
-561.529	800.000	-0.036	-0.141
-560.515	-19.563	0.064	-0.040
-559.500	-185.057	-0.087	0.001
-558.485	137.727	0.204	0.271
-557.471	-200.000	-0.001	-0.456
-556.456	800.000	-0.128	-0.400
-555.442	-200.000	-0.049	-0.237
-554.427	-11.506	0.028	0.019
-553.412	102.332	0.202	0.240
-552.398	-112.649	0.065	-0.013
-551.383	111.523	-0.159	-0.195
-550.369	-31.632	0.109	-0.062
-549.354	-129.574	-0.238	0.033
-548.339	-86.324	-0.026	0.008
-547.325	87.333	0.111	0.124
-546.310	-153.151	0.398	0.028
-545.296	-105.388	-0.277	0.064
-544.281	482.647	-0.055	0.126
-543.266	121.868	0.052	-0.066
-542.252	26.694	0.048	0.041
-541.237	-51.170	0.034	-0.016
-540.223	-77.282	-0.114	-0.040
-539.208	-128.580	0.394	-0.057
-538.193	800.000	0.044	0.129
-537.179	108.497	0.052	0.063
-536.164	178.677	0.175	-0.259
-535.150	-26.543	0.194	0.115
-534.135	86.008	-0.189	-0.211
-533.121	-37.687	-0.095	-0.051
-532.106	-1.100	0.203	-0.146
-531.091	-16.942	-0.041	-0.026
-530.077	483.012	0.092	-0.213
-529.062	415.858	0.085	0.183
-528.048	-200.000	0.028	-0.319
-527.033	-200.000	-0.036	0.447
-526.018	241.713	0.078	0.133
-525.004	-143.313	0.169	-0.016
-523.989	-40.489	-0.109	0.058
-522.975	748.076	0.074	0.204
-521.960	-200.000	-0.011	-0.196
-520.945	486.969	0.119	-0.276
-519.931	253.163	0.134	-0.231
-518.916	-200.000	-0.004	-0.083
-517.902	87.545	-0.035	0.039
-516.887	97.511	0.089	-0.104
-515.872	737.648	-0.018	0.048
-514.858	-71.789	-0.325	-0.123
-513.843	139.910	0.335	-0.448
-512.829	226.363	0.173	0.285
-511.814	-71.435	0.116	-0.044
-510.799	60.531	0.131	0.132
-509.785	-52.852	-0.185	-0.086
-508.770	13.252	0.048	-0.038
-507.756	-200.000	-0.010	-0.192
-506.741	-26.877	0.234	-0.139
-505.726	-200.000	-0.053	-0.296
-504.712	-18.737	0.351	-0.221
-503.697	16.301	0.101	0.081
-502.683	492.820	-0.097	-0.225
-501.668	-107.893	-0.240	0.053
-500.653	800.000	-0.069	-0.217
-499.639	62.251	-0.153	0.155
-498.624	-40.461	-0.185	0.097
-497.610	-112.968	0.135	0.027
-496.595	578.266	0.082	0.204
-495.581	-200.000	0.026	-0.408
-494.566	-67.477	-0.225	0.089
-493.551	-200.000	0.013	-0.328
-492.537	-129.565	-0.310	-0.043
-491.522	86.193	-0.200	0.223
-490.508	273.274	-0.218	0.391
-489.493	-96.493	0.145	0.039
-488.478	387.518	-0.081	-0.169
-487.464	-92.025	-0.260	-0.074
-486.449	-109.606	-0.205	-0.044
-485.435	-200.000	-0.002	0.319
-484.420	-200.000	-0.058	-0.401
-483.405	214.931	-0.080	0.129
-482.391	-200.000	-0.040	0.284
-481.376	187.098	0.065	0.098
-480.362	29.078	-0.236	0.203
-479.347	-13.147	-0.126	0.083
-478.332	-98.471	0.162	0.042
-477.318	800.000	0.085	-0.333
-476.303	-99.830	-0.068	-0.017
-475.289	-134.547	-0.409	-0.051
-474.274	-98.800	0.200	-0.052
-473.259	-37.706	0.103	0.056
-472.245	-60.628	0.218	-0.094
-471.230	105.320	-0.058	-0.070
-470.216	-73.288	0.098	-0.036
-469.201	800.000	0.034	-0.121
-468.186	-145.875	0.040	0.004
-467.172	160.970	-0.067	0.095
-466.157	-200.000	-0.010	-0.120
-465.143	228.010	-0.077	0.128
-464.128	49.157	-0.166	0.158
-463.113	-116.516	0.306	-0.057
-462.099	-200.000	0.035	-0.620
-461.084	-123.778	-0.312	-0.050
-460.070	-30.145	0.013	0.007
-459.055	-97.839	-0.180	-0.047
-458.040	-200.000	0.018	-0.166
-457.026	354.309	0.160	0.322
-456.011	-200.000	0.007	-0.111
-454.997	-115.839	0.215	-0.041
-453.982	-21.092	-0.004	0.003
-452.968	-200.000	-0.015	0.151
-451.953	398.474	0.076	0.162
-450.938	-145.052	-0.336	-0.031
-449.924	-200.000	0.004	-0.195
-448.909	-200.000	-0.071	-0.411
-447.895	178.742	-0.063	-0.093
-446.880	-200.000	0.016	0.162
-445.865	-200.000	0.044	0.477
-444.851	-77.758	-0.218	0.076
-443.836	800.000	0.129	0.449
-442.822	93.296	-0.211	0.242
-441.807	264.072	-0.154	0.272
-440.792	800.000	-0.086	0.243
-439.778	-55.740	0.135	0.061
-438.763	-11.442	0.098	-0.065
-437.749	-45.451	0.189	0.095
-436.734	582.468	0.021	-0.051
-435.719	-200.000	-0.016	-0.234
-434.705	55.963	0.015	0.014
-433.690	-153.688	0.268	-0.019
-432.676	800.000	0.078	0.327
-431.661	800.000	-0.064	-0.253
-430.646	142.075	0.237	0.317
-429.632	789.651	-0.087	-0.241
-428.617	87.220	0.111	0.124
-427.603	-111.384	-0.456	0.094
-426.588	795.325	-0.080	-0.222
-425.573	-112.879	0.403	-0.081
-424.559	-145.626	-0.329	0.030
-423.544	788.071	-0.039	0.109
-422.530	800.000	0.089	0.295
-421.515	21.447	-0.232	0.190
-420.500	-29.162	-0.283	-0.164
-419.486	498.817	-0.059	-0.136
-418.471	800.000	-0.025	-0.074
-417.457	373.314	0.112	0.230
-416.442	-25.641	0.236	0.141
-415.428	123.271	-0.142	-0.180
-414.413	0.741	-0.239	0.173
-413.398	101.650	0.014	-0.016
-412.384	243.958	-0.072	0.121
-411.369	-149.871	-0.179	0.014
-410.355	-123.139	0.085	0.014
-409.340	-125.651	-0.446	-0.068
-408.325	187.034	0.011	0.016
-407.311	-114.536	0.139	-0.027
-406.296	-200.000	0.050	-0.386
-405.282	-200.000	0.064	-0.329
-404.267	249.159	0.051	-0.088
-403.252	-55.658	-0.336	-0.152
-402.238	1.491	0.400	0.290
-401.223	-84.682	0.069	-0.022
-400.209	-200.000	-0.015	0.135
-399.194	-62.608	0.112	0.047
-398.179	9.499	-0.183	0.140
-397.165	753.781	0.080	-0.219
-396.150	-200.000	0.014	0.158
-395.136	-200.000	-0.018	0.275
-394.121	800.000	-0.048	0.155
-393.106	2.708	0.148	-0.108
-392.092	-200.000	0.006	0.135
-391.077	800.000	0.022	0.071
-390.063	218.474	0.146	-0.236
-389.048	-117.402	-0.031	0.006
-388.033	-16.569	-0.162	0.104
-387.019	-162.503	-0.150	0.007
-386.004	-85.518	-0.186	-0.058
-384.990	-90.162	0.312	0.092
-383.975	14.629	-0.129	0.102
-382.960	-24.862	-0.167	0.100
-381.946	800.000	-0.033	-0.115
-380.931	-119.443	0.133	-0.023
-379.917	-200.000	-0.001	-0.110
-378.902	-3.468	0.157	0.110
-377.888	-2.185	0.144	-0.102
-376.873	152.066	0.177	0.244
-375.858	-200.000	-0.014	0.319
-374.844	-131.882	0.068	-0.009
-373.829	78.905	0.118	0.127
-372.815	800.000	-0.025	0.094
-371.800	-126.730	0.232	0.035
-370.785	-200.000	-0.001	0.033
-369.771	252.222	0.055	-0.094
-368.756	-200.000	0.024	0.145
-367.742	-200.000	0.052	0.342
-366.727	-163.358	0.263	0.013
-365.712	-200.000	-0.002	-0.135
-364.698	-21.567	-0.131	-0.080
-363.683	-66.654	-0.247	0.099
-362.669	-143.476	0.160	-0.015
-361.654	567.040	-0.041	0.099
-360.639	-53.819	-0.237	0.109
-359.625	9.121	-0.039	-0.029
-358.610	-69.404	-0.293	0.113
-357.596	285.941	0.031	0.055
-356.581	800.000	-0.018	-0.068
-355.566	-31.498	-0.325	-0.184
-354.552	35.507	0.104	-0.092
-353.537	-102.990	0.330	-0.079
-352.523	111.020	-0.054	-0.066
-351.508	-92.409	0.160	0.045
-350.493	-200.000	0.003	-0.018
-349.479	86.439	-0.186	0.207
-348.464	-36.893	-0.362	-0.196
-347.450	310.016	-0.067	0.126
-346.435	488.658	-0.154	0.355
-345.420	458.199	-0.058	-0.129
-344.406	-200.000	0.048	0.271
-343.391	800.000	-0.061	-0.187
-342.377	-77.019	0.256	-0.090
-341.362	680.381	-0.016	-0.043
-340.348	10.697	-0.191	-0.147
-339.333	107.593	0.235	0.282
-338.318	-26.124	0.305	0.181
-337.304	123.276	0.232	0.292
-336.289	-75.461	0.249	0.089
-335.275	24.469	0.245	0.204
-334.260	366.764	-0.182	-0.370
-333.245	321.600	-0.014	-0.026
-332.231	-68.343	-0.077	-0.030
-331.216	-79.588	-0.258	0.088
-330.202	-200.000	0.041	-0.347
-329.187	76.976	0.242	-0.259
-328.172	157.666	-0.149	0.207
-327.158	-55.071	-0.200	0.091
-326.143	-200.000	-0.021	-0.180
-325.129	19.616	-0.252	-0.204
-324.114	-18.796	0.426	0.267
-323.099	800.000	-0.115	-0.374
-322.085	26.773	-0.180	0.152
-321.070	-96.197	0.303	-0.081
-320.056	63.353	-0.206	-0.208
-319.041	-91.437	0.211	0.061
-318.026	-58.294	0.273	0.119
-317.012	800.000	0.049	-0.158
-315.997	-30.952	-0.311	-0.177
-314.983	-122.359	-0.334	-0.055
-313.968	-89.635	-0.316	0.093
-312.953	98.604	-0.169	-0.196
-311.939	429.581	0.151	0.329
-310.924	-168.108	0.332	0.013
-309.910	-200.000	-0.025	0.340
-308.895	72.252	-0.136	-0.142
-307.880	-54.113	-0.310	-0.142
-306.866	-51.467	-0.232	-0.109
-305.851	-143.191	-0.255	0.025
-304.837	-48.013	-0.267	-0.130
-303.822	-200.000	0.008	-0.179
-302.807	72.002	0.328	0.343
-301.793	515.223	-0.061	0.142
-300.778	39.408	0.136	-0.123
-299.764	-11.892	0.181	-0.119
-298.749	412.876	0.147	0.315
-297.735	-92.599	0.334	0.094
-296.720	95.162	0.028	0.032
-295.705	-6.159	0.218	-0.150
-294.691	-200.000	0.057	0.303
-293.676	-200.000	0.022	0.210
-292.662	-173.074	-0.021	-0.001
-291.647	-35.617	0.119	-0.065
-290.632	49.149	0.245	0.231
-289.618	-15.166	0.357	0.230
-288.603	27.215	0.145	0.122
-287.589	344.919	-0.161	-0.317
-286.574	-62.506	0.445	-0.186
-285.559	22.522	0.167	0.138
-284.545	-163.883	0.096	-0.005
-283.530	800.000	-0.129	0.398
-282.516	-80.330	-0.136	0.046
-281.501	-200.000	-0.023	-0.297
-280.486	800.000	-0.110	-0.374
-279.472	-200.000	-0.035	-0.206
-278.457	281.664	-0.077	-0.139
-277.443	-166.573	-0.329	-0.014
-276.428	18.053	-0.256	-0.205
-275.413	-165.316	-0.152	0.007
-274.399	498.827	0.167	0.386
-273.384	-200.000	0.001	-0.352
-272.370	541.711	0.051	0.123
-271.355	293.663	-0.163	0.299
-270.340	-27.756	-0.230	0.134
-269.326	75.892	0.232	-0.247
-268.311	800.000	-0.086	0.264
-267.297	-200.000	-0.017	0.131
-266.282	37.232	0.315	0.280
-265.267	-54.663	-0.230	-0.105
-264.253	-81.025	0.070	-0.023
-263.238	-124.162	0.039	0.006
-262.224	72.728	-0.055	-0.058
-261.209	665.808	0.071	0.183
-260.195	-51.845	-0.297	0.139
-259.180	-59.426	0.302	0.130
-258.165	-129.166	-0.386	-0.054
-257.151	-3.766	0.128	0.089
-256.136	158.574	0.158	0.221
-255.122	48.851	-0.151	-0.143
-254.107	108.236	-0.319	-0.382
-253.092	112.459	0.215	0.261
-252.078	713.649	-0.047	0.126
-251.063	-144.157	-0.320	0.030
-250.049	800.000	0.080	0.266
-249.034	-101.749	-0.229	-0.056
-248.019	-89.422	0.181	0.053
-247.005	128.181	0.155	0.198
-245.990	581.942	-0.118	0.289
-244.976	800.000	-0.099	-0.288
-243.961	-85.845	-0.212	0.066
-242.946	151.297	0.270	-0.369
-241.932	800.000	-0.082	-0.239
-240.917	-63.098	-0.131	0.054
-239.903	-200.000	0.025	-0.222
-238.888	-79.419	0.249	-0.085
-237.873	306.061	-0.062	0.116
-236.859	-200.000	-0.256	0.000
-235.844	151.151	0.168	-0.229
-234.830	800.000	0.040	-0.132
-233.815	232.195	0.070	0.116
-232.800	-49.498	0.189	-0.091
-231.786	-200.000	-0.056	0.265
-230.771	-25.368	-0.213	-0.127
-229.757	-200.000	0.074	-0.337
-228.742	-119.223	0.103	0.018
-227.727	-138.985	0.118	-0.013
-226.713	-34.533	0.145	0.080
-225.698	233.483	-0.149	-0.246
-224.684	10.517	0.230	-0.176
-223.669	-86.025	-0.262	-0.081
-222.655	-10.476	-0.133	-0.088
-221.640	290.440	-0.074	0.134
-220.625	8.168	-0.341	-0.257
-219.611	800.000	-0.095	-0.327
-218.596	356.706	-0.201	-0.402
-217.582	-200.000	0.029	-0.133
-216.567	-15.748	-0.074	-0.047
-215.552	-69.669	0.302	-0.116
-214.538	-3.515	0.327	0.228
-213.523	-113.039	-0.237	0.047
-212.509	-29.058	-0.181	0.104
-211.494	282.402	0.009	-0.016
-210.479	-79.314	-0.219	0.074
-209.465	-49.429	-0.213	0.102
-208.450	-35.878	0.040	-0.022
-207.436	222.808	-0.093	-0.150
-206.421	-82.205	0.287	-0.094
-205.406	323.110	0.122	0.232
-204.392	-28.790	-0.059	-0.034
-203.377	202.033	-0.133	-0.206
-202.363	-60.281	0.119	-0.051
-201.348	-30.182	0.346	0.197
-200.333	-109.319	0.091	-0.019
-199.319	-102.954	0.096	-0.023
-198.304	800.000	0.041	-0.113
-197.290	97.433	-0.184	-0.212
-196.275	-162.913	-0.099	0.005
-195.260	572.322	0.079	-0.193
-194.246	-52.057	0.239	0.111
-193.231	-135.014	-0.036	0.004
-192.217	-91.186	0.083	0.024
-191.202	-76.248	-0.399	-0.141
-190.187	-45.401	-0.227	-0.113
-189.173	-21.359	-0.166	0.101
-188.158	41.511	0.125	-0.113
-187.144	-194.499	0.364	0.003
-186.129	136.566	-0.130	-0.170
-185.114	22.965	-0.188	-0.154
-184.100	323.092	0.156	0.297
-183.085	121.135	-0.175	0.218
-182.071	-200.000	-0.043	-0.252
-181.056	-200.000	-0.014	-0.098
-180.042	117.320	0.031	0.038
-179.027	-200.000	-0.001	-0.011
-178.012	-54.391	0.375	0.170
-176.998	800.000	-0.065	0.235
-175.983	123.208	-0.237	0.297
-174.969	-139.746	0.160	-0.017
-173.954	503.547	0.103	0.238
-172.939	-120.061	-0.004	0.001
-171.925	-112.210	-0.364	-0.073
-170.910	800.000	0.150	-0.495
-169.896	-116.586	-0.100	0.018
-168.881	313.465	-0.132	-0.248
-167.866	29.605	0.221	0.188
-166.852	-200.000	-0.024	0.184
-165.837	-200.000	-0.013	0.233
-164.823	519.310	-0.069	0.162
-163.808	-84.710	0.106	0.033
-162.793	-200.000	0.030	-0.303
-161.779	214.315	0.072	-0.114
-160.764	378.515	-0.099	0.204
-159.750	-82.805	-0.392	-0.127
-158.735	-86.322	-0.314	0.097
-157.720	-200.000	-0.009	0.190
-156.706	800.000	0.081	-0.255
-155.691	222.605	-0.142	0.228
-154.677	-25.678	0.133	0.078
-153.662	30.045	-0.263	-0.225
-152.647	-126.842	0.242	-0.036
-151.633	5.758	-0.158	0.117
-150.618	-89.479	0.162	0.048
-149.604	121.955	0.120	0.150
-148.589	67.733	0.027	-0.028
-147.574	-165.986	0.307	0.013
-146.560	-200.000	0.058	0.378
-145.545	-145.377	0.386	0.035
-144.531	-10.269	0.247	-0.164
-143.516	-200.000	0.055	0.246
-142.502	-200.000	0.005	-0.183
-141.487	477.505	0.032	-0.073
-140.472	112.146	0.158	-0.191
-139.458	800.000	0.050	-0.152
-138.443	-200.000	0.034	0.208
-137.429	39.025	-0.084	0.075
-136.414	-80.532	-0.458	-0.153
-135.399	800.000	0.076	-0.270
-134.385	-79.269	-0.130	0.044
-133.370	-119.886	-0.277	0.048
-132.356	81.721	-0.087	0.095
-131.341	574.523	-0.086	-0.210
-130.326	-115.812	0.174	0.032
-129.312	-200.000	0.057	-0.000
-128.297	45.829	-0.133	-0.123
-127.283	-200.000	-0.028	0.284
-126.268	-200.000	0.050	0.280
-125.253	-63.635	-0.234	0.096
-124.239	-1.620	0.307	-0.216
-123.224	90.825	0.081	0.090
-122.210	-26.774	0.266	-0.156
