DTS Sentinel unit serial number:	SN413079Multiplexer serial number:	ORYXHardware model number:	OX4-SRSoftware version number:	ORYX F/W v4.00 Oryx Data Collector v3.7.2.0data status	okinstallation	princeton_trtdifferential loss correction	single-endedforward channel	channel 1reverse channel	N/Adate	2019/09/16time	10:18:35forward acquisition time	60.00reverse acquisition time	0.00gamma	496.2192k internal	0.2310k external	0.2310temperature offset calibration	0.9967default loss term (dB/km)	0.3790temperature slope calibration	1.0000multiplexer offset coefficient	1.0000multiplexer slope coefficient	1.0000fibre end	0.00T internal ref (°C)	34.58T ext. ref 1 (°C)	12.50T ext. ref 2 (°C)	33.23length (m)	temperature (°C)	Stokes	anti-Stokes-747.200	138.378	-0.215	0.287
-746.185	-24.057	-0.185	0.112
-745.171	-141.009	-0.365	0.038
-744.156	-83.953	-0.279	0.090
-743.142	800.000	0.078	0.316
-742.127	-200.000	0.041	0.262
-741.112	219.802	-0.156	0.254
-740.098	-200.000	-0.014	0.476
-739.083	-200.000	-0.015	-0.187
-738.069	183.573	-0.191	0.287
-737.054	324.732	0.045	-0.087
-736.039	800.000	0.054	0.239
-735.025	-97.069	0.169	0.045
-734.010	93.373	0.084	-0.097
-732.996	29.342	-0.159	-0.137
-731.981	-194.196	0.115	0.001
-730.966	0.495	-0.118	0.086
-729.952	-82.174	-0.268	-0.089
-728.937	800.000	-0.086	-0.282
-727.923	-182.723	-0.366	0.007
-726.908	309.102	0.097	0.185
-725.894	-69.211	-0.118	0.046
-724.879	119.215	0.096	0.121
-723.864	-74.892	0.301	0.110
-722.850	-108.927	0.083	0.018
-721.835	-15.060	0.272	0.177
-720.821	200.033	0.121	-0.188
-719.806	-200.000	-0.002	-0.234
-718.791	26.936	-0.079	-0.067
-717.777	-149.509	0.328	0.026
-716.762	-200.000	0.005	-0.050
-715.748	134.698	0.087	0.114
-714.733	-200.000	0.000	0.058
-713.718	-59.045	-0.261	0.114
-712.704	-129.361	0.272	-0.038
-711.689	19.332	-0.230	-0.188
-710.675	-79.447	0.357	0.122
-709.660	-152.173	-0.100	0.007
-708.645	-129.415	0.102	0.014
-707.631	800.000	0.052	0.203
-706.616	192.822	-0.111	0.170
-705.602	246.736	0.111	0.190
-704.587	339.186	-0.098	0.194
-703.572	263.318	-0.187	-0.329
-702.558	432.905	-0.111	-0.245
-701.543	269.611	-0.075	-0.133
-700.529	45.849	0.080	0.075
-699.514	17.558	0.367	-0.296
-698.499	-64.774	-0.341	-0.140
-697.485	-171.344	0.032	0.001
-696.470	-121.201	0.122	-0.021
-695.456	-29.063	-0.129	0.075
-694.441	-69.419	-0.089	0.035
-693.426	-105.575	0.225	-0.052
-692.412	26.504	-0.079	-0.067
-691.397	-1.991	0.199	0.142
-690.383	61.746	0.132	-0.133
-689.368	-200.000	-0.059	0.275
-688.354	12.324	-0.186	0.145
-687.339	467.470	-0.039	-0.088
-686.324	-200.000	-0.010	0.139
-685.310	-62.774	0.219	-0.092
-684.295	-52.596	-0.160	-0.075
-683.281	61.763	-0.127	-0.128
-682.266	270.186	0.062	0.110
-681.251	17.240	-0.178	0.143
-680.237	-200.000	-0.011	-0.161
-679.222	-91.587	0.201	0.058
-678.208	-68.043	0.085	-0.034
-677.193	-60.022	-0.184	0.080
-676.178	39.303	0.146	0.132
-675.164	-156.846	-0.094	-0.006
-674.149	-5.720	-0.273	-0.189
-673.135	-31.533	0.086	-0.049
-672.120	-85.319	0.161	-0.051
-671.105	-51.110	-0.246	0.117
-670.091	-74.899	-0.044	-0.016
-669.076	-169.025	-0.261	0.010
-668.062	-106.057	-0.289	0.066
-667.047	17.253	-0.045	-0.036
-666.032	23.126	-0.310	-0.258
-665.018	-17.067	-0.047	-0.030
-664.003	800.000	-0.015	-0.059
-662.989	-19.650	-0.059	0.037
-661.974	319.135	0.160	-0.307
-660.959	-103.954	-0.030	0.007
-659.945	12.343	-0.125	0.098
-658.930	16.886	0.113	0.090
-657.916	136.182	-0.248	-0.327
-656.901	-182.151	0.294	-0.006
-655.886	474.785	-0.081	-0.185
-654.872	-122.452	0.161	-0.027
-653.857	-200.000	0.011	0.092
-652.843	-200.000	0.036	0.247
-651.828	-48.108	0.290	-0.142
-650.814	-67.608	0.071	0.028
-649.799	-26.192	0.047	0.028
-648.784	-88.547	-0.203	-0.061
-647.770	-0.595	-0.325	0.233
-646.755	35.952	0.174	-0.155
-645.741	-47.612	-0.192	-0.094
-644.726	173.237	0.210	0.307
-643.711	-200.000	-0.009	-0.135
-642.697	-26.672	0.105	0.062
-641.682	-158.186	-0.232	-0.014
-640.668	-200.000	0.010	0.349
-639.653	357.558	-0.132	0.267
-638.638	-200.000	0.037	-0.351
-637.624	61.056	-0.245	-0.246
-636.609	440.951	-0.082	0.181
-635.595	-62.678	-0.191	-0.080
-634.580	-200.000	-0.002	0.144
-633.565	-112.047	-0.109	-0.022
-632.551	-200.000	0.007	-0.059
-631.536	-32.880	-0.316	0.177
-630.522	-77.466	-0.147	0.052
-629.507	-14.204	-0.028	-0.018
-628.492	-110.209	0.157	-0.033
-627.478	-167.643	-0.090	-0.004
-626.463	26.950	-0.185	0.157
-625.449	537.323	-0.099	0.238
-624.434	-83.010	-0.038	0.012
-623.419	-75.642	0.299	0.107
-622.405	13.428	0.270	-0.212
-621.390	-200.000	0.042	-0.408
-620.376	101.497	0.212	0.249
-619.361	402.102	0.082	0.174
-618.346	-200.000	-0.006	0.091
-617.332	800.000	-0.026	0.095
-616.317	5.134	0.210	0.156
-615.303	12.136	0.199	0.155
-614.288	800.000	-0.126	-0.416
-613.273	-49.248	0.288	0.139
-612.259	-68.967	0.230	0.090
-611.244	35.004	0.288	0.255
-610.230	-92.100	0.081	0.023
-609.215	-30.656	0.111	-0.063
-608.201	447.369	0.151	-0.336
-607.186	-119.726	0.246	-0.043
-606.171	746.562	0.108	0.295
-605.157	-177.029	0.161	-0.004
-604.142	418.379	0.057	-0.123
-603.128	37.901	-0.310	-0.278
-602.113	56.216	0.115	0.112
-601.098	-200.000	-0.023	0.312
-600.084	-11.562	-0.252	-0.167
-599.069	-92.113	-0.290	-0.083
-598.055	754.274	-0.075	-0.206
-597.040	-200.000	0.013	0.186
-596.025	-200.000	0.004	-0.072
-595.011	7.045	0.047	0.036
-593.996	-117.271	0.264	0.048
-592.982	140.596	-0.182	-0.242
-591.967	-200.000	-0.001	-0.147
-590.952	-200.000	0.022	-0.109
-589.938	800.000	-0.026	-0.105
-588.923	-140.289	0.084	0.009
-587.909	-52.754	-0.243	-0.113
-586.894	434.380	0.084	-0.183
-585.879	-21.524	-0.234	0.144
-584.865	365.466	0.098	-0.198
-583.850	-53.123	0.114	-0.053
-582.836	599.986	-0.058	-0.145
-581.821	44.949	-0.139	-0.129
-580.806	-200.000	-0.005	0.103
-579.792	-2.602	-0.192	-0.136
-578.777	333.470	-0.089	-0.173
-577.763	-73.258	0.182	-0.067
-576.748	370.087	-0.074	0.152
-575.733	-200.000	-0.030	0.280
-574.719	-85.749	-0.352	-0.110
-573.704	-93.660	0.424	-0.118
-572.690	139.705	-0.143	-0.189
-571.675	-140.422	0.167	0.018
-570.661	-17.227	-0.050	-0.032
-569.646	248.470	0.014	-0.024
-568.631	661.119	-0.042	0.110
-567.617	30.048	-0.057	0.049
-566.602	-200.000	0.075	0.342
-565.588	-78.750	-0.260	-0.089
-564.573	-200.000	0.006	0.236
-563.558	-58.607	-0.189	0.082
-562.544	34.411	-0.102	-0.090
-561.529	-200.000	-0.006	-0.037
-560.515	38.545	-0.019	0.017
-559.500	606.382	0.033	-0.083
-558.485	-86.393	0.403	0.125
-557.471	-200.000	-0.066	0.485
-556.456	-35.226	0.173	0.095
-555.442	-138.767	0.194	-0.021
-554.427	134.993	0.288	0.378
-553.412	309.447	-0.087	0.164
-552.398	164.744	0.093	-0.132
-551.383	599.213	0.140	0.350
-550.369	-200.000	-0.006	0.141
-549.354	67.377	-0.216	0.222
-548.339	-97.881	-0.380	0.099
-547.325	-200.000	-0.056	-0.256
-546.310	284.468	0.131	-0.237
-545.296	547.617	-0.183	-0.440
-544.281	-43.297	-0.041	0.021
-543.266	-78.806	-0.264	-0.091
-542.252	-200.000	-0.034	0.291
-541.237	-200.000	-0.001	0.190
-540.223	-157.049	0.124	-0.008
-539.208	236.226	0.085	0.142
-538.193	53.418	-0.347	-0.335
-537.179	28.074	0.187	0.159
-536.164	-31.465	-0.154	0.087
-535.150	-143.298	-0.248	0.024
-534.135	-200.000	0.085	0.385
-533.121	-200.000	0.038	-0.237
-532.106	-200.000	-0.008	-0.122
-531.091	-146.405	-0.391	-0.034
-530.077	-200.000	-0.072	-0.317
-529.062	575.854	-0.120	0.294
-528.048	205.523	0.068	-0.106
-527.033	295.625	-0.046	0.085
-526.018	620.395	0.075	-0.191
-525.004	280.084	-0.305	-0.549
-523.989	-166.553	-0.048	0.002
-522.975	-179.544	0.105	-0.002
-521.960	49.214	0.163	-0.154
-520.945	-19.840	-0.388	0.241
-519.931	582.101	-0.084	0.208
-518.916	382.923	-0.134	-0.278
-517.902	-40.684	0.214	0.112
-516.887	-150.375	0.104	0.008
-515.872	356.963	-0.155	0.311
-514.858	-139.885	0.096	-0.010
-513.843	-200.000	0.020	-0.129
-512.829	-75.686	0.171	0.061
-511.814	-84.036	-0.102	0.033
-510.799	-200.000	0.015	-0.091
-509.785	378.141	-0.153	0.315
-508.770	-38.856	0.239	0.127
-507.756	39.057	0.164	0.147
-506.741	800.000	-0.047	0.134
-505.726	800.000	-0.060	0.257
-504.712	-90.323	-0.390	0.114
-503.697	-65.635	0.322	0.130
-502.683	-129.838	-0.352	0.049
-501.668	-200.000	-0.086	-0.446
-500.653	-158.103	-0.295	0.017
-499.639	147.094	0.054	0.073
-498.624	71.257	-0.084	0.087
-497.610	200.472	0.049	-0.075
-496.595	-76.962	-0.176	-0.062
-495.581	9.040	0.334	0.254
-494.566	-102.283	0.377	0.091
-493.551	-6.609	0.439	0.301
-492.537	77.672	-0.191	0.205
-491.522	-58.347	0.240	-0.105
-490.508	-200.000	-0.023	0.393
-489.493	110.450	-0.231	-0.279
-488.478	49.910	-0.263	-0.249
-487.464	-200.000	-0.065	0.358
-486.449	-58.030	0.208	0.091
-485.435	-22.473	0.116	0.070
-484.420	568.584	-0.134	0.328
-483.405	-200.000	-0.028	-0.128
-482.391	610.648	0.029	-0.072
-481.376	126.418	-0.262	-0.333
-480.362	314.031	0.079	-0.149
-479.347	114.233	0.121	0.148
-478.332	800.000	0.015	-0.050
-477.318	-175.709	0.150	-0.004
-476.303	-73.951	0.263	-0.096
-475.289	-121.236	-0.090	-0.015
-474.274	242.166	-0.117	-0.197
-473.259	-200.000	-0.015	0.184
-472.245	65.774	0.182	-0.185
-471.230	800.000	0.083	-0.269
-470.216	-120.416	-0.213	0.036
-469.201	-94.739	0.243	0.066
-468.186	81.881	0.232	-0.252
-467.172	98.873	-0.057	0.067
-466.157	207.527	-0.085	-0.133
-465.143	41.621	-0.226	0.206
-464.128	-200.000	0.012	0.205
-463.113	147.665	0.152	-0.206
-462.099	-200.000	0.024	-0.422
-461.084	-13.329	-0.211	-0.138
-460.070	-183.915	0.286	-0.005
-459.055	-12.160	0.268	-0.176
-458.040	-135.463	-0.302	-0.036
-457.026	122.794	0.096	0.120
-456.011	-67.285	-0.071	-0.028
-454.997	49.283	-0.070	0.066
-453.982	59.807	0.097	0.096
-452.968	-41.257	0.078	-0.040
-451.953	63.906	0.008	-0.008
-450.938	-200.000	-0.008	0.259
-449.924	162.232	-0.143	0.202
-448.909	-146.887	-0.118	0.010
-447.895	-93.918	0.176	0.049
-446.880	-200.000	0.019	-0.246
-445.865	-132.249	-0.229	0.030
-444.851	30.963	-0.168	-0.145
-443.836	-200.000	-0.056	-0.344
-442.822	-200.000	0.039	-0.323
-441.807	-143.125	-0.550	-0.053
-440.792	-100.956	0.207	0.051
-439.778	-178.483	-0.379	0.009
-438.763	134.748	0.302	-0.394
-437.749	-34.831	0.430	0.236
-436.734	800.000	-0.047	0.181
-435.719	269.204	0.020	-0.035
-434.705	-29.475	-0.183	0.105
-433.690	-120.387	0.118	-0.020
-432.676	-152.682	-0.099	0.007
-431.661	-200.000	-0.005	-0.179
-430.646	-166.445	-0.125	-0.005
-429.632	38.241	-0.225	0.201
-428.617	48.507	-0.206	-0.193
-427.603	800.000	0.066	-0.285
-426.588	-26.249	-0.199	0.117
-425.573	-30.420	-0.172	-0.098
-424.559	-200.000	-0.028	-0.477
-423.544	663.838	0.112	-0.291
-422.530	-36.757	-0.168	0.091
-421.515	182.888	0.049	-0.073
-420.500	-200.000	0.030	0.164
-419.486	416.000	0.104	0.223
-418.471	127.982	-0.136	0.173
-417.457	-75.921	0.116	-0.041
-416.442	-95.583	0.067	-0.018
-415.428	-85.095	0.091	0.029
-414.413	581.468	-0.092	0.226
-413.398	-20.695	0.290	-0.178
-412.384	800.000	0.018	-0.056
-411.369	800.000	-0.064	0.267
-410.355	-200.000	-0.014	-0.168
-409.340	376.056	0.103	0.210
-408.325	-200.000	-0.007	-0.373
-407.311	-87.611	-0.038	0.012
-406.296	-200.000	-0.016	0.309
-405.282	-108.610	-0.135	0.029
-404.267	-36.648	0.159	0.086
-403.252	19.838	0.202	-0.163
-402.238	-97.780	-0.179	0.046
-401.223	-94.011	0.030	-0.008
-400.209	-179.843	0.065	-0.001
-399.194	-138.573	0.148	0.016
-398.179	82.747	-0.237	0.258
-397.165	-163.704	-0.112	0.005
-396.150	51.479	0.172	0.164
-395.136	73.686	-0.166	-0.174
-394.121	210.127	0.117	-0.185
-393.106	800.000	0.088	0.269
-392.092	-16.101	0.408	0.260
-391.077	-109.201	0.060	0.013
-390.063	5.547	-0.191	-0.142
-389.048	-49.395	0.191	0.091
-388.033	113.520	-0.133	-0.162
-387.019	182.817	-0.088	0.130
-386.004	624.192	-0.145	0.365
-384.990	3.651	-0.127	0.093
-383.975	-45.767	-0.154	0.076
-382.960	61.162	-0.232	0.231
-381.946	800.000	0.055	0.236
-380.931	59.543	0.275	-0.271
-379.917	-200.000	-0.032	-0.465
-378.902	369.865	-0.207	-0.419
-377.888	-88.279	0.219	0.066
-376.873	-31.528	0.319	-0.179
-375.858	318.189	0.152	0.287
-374.844	-120.404	0.213	0.036
-373.829	223.557	-0.160	-0.259
-372.815	181.934	-0.202	-0.298
-371.800	-200.000	0.016	0.353
-370.785	-5.790	0.139	-0.095
-369.771	-200.000	-0.001	-0.017
-368.756	138.071	0.117	-0.154
-367.742	-90.002	-0.096	-0.028
-366.727	800.000	0.085	-0.273
-365.712	12.832	-0.083	0.064
-364.698	699.551	0.091	-0.240
-363.683	-142.157	-0.053	-0.005
-362.669	-70.672	0.137	-0.052
-361.654	206.435	-0.026	0.040
-360.639	-200.000	0.028	0.223
-359.625	12.586	0.156	0.121
-358.610	-130.951	0.185	0.025
-357.596	-165.867	0.320	0.014
-356.581	800.000	0.039	0.153
-355.566	-56.891	0.201	0.089
-354.552	-200.000	-0.009	0.168
-353.537	800.000	0.067	0.189
-352.523	719.181	0.094	0.249
-351.508	18.494	-0.208	-0.166
-350.493	-142.011	-0.114	0.011
-349.479	-161.625	0.123	-0.006
-348.464	-60.769	0.130	0.055
-347.450	-200.000	0.054	-0.285
-346.435	-200.000	0.005	-0.461
-345.420	98.486	0.029	0.033
-344.406	20.928	-0.054	-0.044
-343.391	-83.898	0.231	-0.073
-342.377	800.000	-0.045	-0.131
-341.362	174.674	-0.209	-0.302
-340.348	14.490	-0.101	-0.079
-339.333	7.518	-0.139	0.104
-338.318	-91.328	-0.358	-0.102
-337.304	-69.623	-0.232	0.089
-336.289	-22.304	-0.078	0.047
-335.275	363.896	-0.062	0.124
-334.260	23.507	0.293	-0.241
-333.245	86.427	-0.099	0.109
-332.231	36.121	-0.408	0.359
-331.216	6.451	-0.218	0.162
-330.202	20.685	0.234	-0.190
-329.187	-82.651	0.209	-0.068
-328.172	457.765	-0.093	-0.207
-327.158	124.930	-0.169	-0.213
-326.143	-105.787	0.086	0.020
-325.129	233.734	-0.067	-0.110
-324.114	-148.202	0.118	-0.010
-323.099	-200.000	0.017	0.108
-322.085	800.000	-0.076	0.323
-321.070	-34.213	0.039	-0.021
-320.056	50.378	-0.087	0.082
-319.041	52.460	0.175	-0.167
-318.026	21.076	-0.047	0.038
-317.012	7.601	0.029	-0.021
-315.997	800.000	0.061	-0.192
-314.983	10.601	0.055	-0.042
-313.968	504.467	0.088	0.203
-312.953	655.769	0.072	-0.184
-311.939	-55.343	-0.131	0.059
-310.924	-115.035	-0.178	0.034
-309.910	-119.384	-0.296	0.051
-308.895	177.866	0.173	0.252
-307.880	-200.000	-0.013	0.298
-306.866	800.000	-0.084	-0.354
-305.851	318.771	0.047	-0.090
-304.837	-81.596	0.292	0.096
-303.822	66.808	0.250	0.254
-302.807	800.000	-0.067	-0.214
-301.793	-127.776	0.455	-0.066
-300.778	-200.000	0.050	0.252
-299.764	-200.000	-0.030	0.257
-298.749	-117.534	-0.203	-0.037
-297.735	-73.300	0.272	-0.099
-296.720	464.710	0.147	0.327
-295.705	-145.582	0.124	0.011
-294.691	-200.000	0.000	-0.347
-293.676	-149.392	-0.173	0.014
-292.662	65.035	0.114	-0.115
-291.647	-158.394	0.286	-0.017
-290.632	-42.092	-0.262	-0.134
-289.618	-182.906	0.420	-0.008
-288.603	-200.000	-0.049	-0.230
-287.589	211.469	-0.147	-0.230
-286.574	198.519	0.073	-0.112
-285.559	-122.141	-0.331	0.054
-284.545	196.317	0.234	0.355
-283.530	-200.000	-0.003	-0.207
-282.516	-70.629	0.077	-0.029
-281.501	19.258	0.214	-0.171
-280.486	402.434	0.034	-0.071
-279.472	-200.000	-0.027	-0.196
-278.457	-21.062	0.167	-0.102
-277.443	800.000	-0.029	-0.083
-276.428	631.676	0.156	-0.395
-275.413	-97.321	0.336	-0.087
-274.399	591.158	0.108	0.265
-273.384	-81.363	0.083	0.027
-272.370	-0.380	0.182	0.129
-271.355	-135.754	-0.210	-0.025
-270.340	800.000	-0.116	-0.350
-269.326	653.978	0.094	0.241
-268.311	278.890	0.061	0.108
-267.297	-29.617	-0.262	0.149
-266.282	105.118	0.242	0.285
-265.267	2.299	0.125	-0.090
-264.253	503.369	0.097	-0.224
-263.238	372.370	-0.041	-0.082
-262.224	-100.118	0.139	0.034
-261.209	55.454	0.203	-0.196
-260.195	-74.272	-0.223	0.080
-259.180	-175.185	0.433	0.012
-258.165	-65.953	-0.135	-0.054
-257.151	39.321	0.081	-0.072
-256.136	-114.284	-0.425	-0.082
-255.122	72.837	-0.161	-0.167
-254.107	9.967	0.172	0.130
-253.092	-121.764	0.260	-0.043
-252.078	-98.463	-0.270	0.069
-251.063	195.887	-0.113	-0.171
-250.049	-24.633	0.274	-0.163
-249.034	-4.167	-0.346	0.239
-248.019	800.000	0.042	-0.147
-247.005	20.259	-0.139	0.111
-245.990	42.885	0.096	0.087
-244.976	-147.856	0.088	0.007
-243.961	180.447	0.231	-0.337
-242.946	80.186	-0.164	-0.175
-241.932	-107.137	-0.489	0.107
-240.917	15.828	0.096	-0.076
-239.903	466.849	-0.039	0.087
-238.888	236.860	-0.005	-0.009
-237.873	-200.000	0.050	-0.393
-236.859	10.133	-0.079	-0.060
-235.844	-200.000	0.031	0.173
-234.830	9.093	0.142	0.107
-233.815	-5.118	-0.129	-0.088
-232.800	174.395	-0.213	-0.306
-231.786	118.332	-0.088	0.109
-230.771	-145.588	0.262	0.023
-229.757	449.410	0.082	-0.181
-228.742	578.450	-0.125	0.305
-227.727	-200.000	0.022	-0.195
-226.713	800.000	-0.028	-0.086
-225.698	-82.881	-0.218	0.070
-224.684	196.223	0.034	-0.052
-223.669	87.705	-0.204	-0.225
-222.655	-200.000	-0.037	0.275
-221.640	657.606	0.041	0.104
-220.625	769.085	-0.035	0.096
-219.611	393.292	-0.040	0.083
-218.596	-58.175	-0.058	-0.025
-217.582	599.126	0.035	0.086
-216.567	800.000	-0.057	-0.177
-215.552	59.694	-0.171	0.168
-214.538	-200.000	0.004	-0.041
-213.523	27.749	0.013	-0.011
-212.509	-68.214	0.287	-0.111
-211.494	800.000	0.183	-0.525
-210.479	-200.000	-0.013	0.080
-209.465	139.937	-0.053	-0.069
-208.450	-78.272	0.182	0.062
-207.436	-27.968	-0.394	-0.227
-206.421	-4.495	0.038	-0.026
-205.406	-200.000	-0.066	-0.344
-204.392	228.453	0.131	0.213
-203.377	-64.333	-0.091	-0.037
-202.363	54.068	-0.178	0.171
-201.348	-200.000	-0.007	-0.595
-200.333	-37.171	0.056	-0.030
-199.319	-184.900	0.117	-0.002
-198.304	86.462	0.101	0.111
-197.290	-106.293	0.182	-0.041
-196.275	-200.000	0.001	-0.009
-195.260	703.125	0.096	-0.252
-194.246	-200.000	0.055	0.321
-193.231	196.233	0.104	0.157
-192.217	-14.220	-0.290	0.186
-191.202	71.465	0.211	0.218
-190.187	800.000	-0.032	0.134
-189.173	-162.290	-0.058	-0.003
-188.158	187.152	-0.053	0.078
-187.144	42.698	-0.214	0.194
-186.129	800.000	-0.089	-0.313
-185.114	-136.716	0.199	-0.023
-184.100	-144.158	-0.391	-0.036
-183.085	541.916	0.176	-0.417
-182.071	800.000	0.079	-0.241
-181.056	-93.753	-0.121	-0.033
-180.042	83.342	0.070	-0.075
-179.027	338.061	0.152	0.294
-178.012	800.000	-0.072	0.287
-176.998	197.839	0.078	0.118
-175.983	-84.888	-0.376	0.117
-174.969	-200.000	-0.050	0.220
-173.954	-200.000	0.023	-0.176
-172.939	-43.529	0.270	0.135
-171.925	444.002	0.014	0.029
-170.910	257.461	0.034	-0.057
-169.896	312.846	0.104	-0.193
-168.881	-200.000	0.012	0.313
-167.866	102.332	-0.072	-0.083
-166.852	-6.088	0.374	0.254
-165.837	800.000	0.072	0.303
-164.823	65.633	-0.044	-0.044
-163.808	800.000	-0.035	0.100
-162.793	543.946	-0.056	0.132
-161.779	-48.358	-0.221	0.106
-160.764	-106.453	0.167	-0.037
-159.750	-200.000	-0.028	0.136
-158.735	-46.461	-0.274	-0.133
-157.720	-84.587	0.508	0.159
-156.706	-200.000	0.031	0.208
-155.691	-200.000	0.038	0.239
-154.677	-150.046	-0.370	0.029
-153.662	257.962	-0.080	0.137
-152.647	354.983	-0.174	0.343
-151.633	-121.435	-0.203	0.033
-150.618	800.000	-0.003	-0.011
-149.604	-200.000	0.007	0.291
-148.589	-136.655	0.247	0.028
-147.574	171.572	-0.219	-0.312
-146.560	-200.000	0.027	-0.131
-145.545	386.479	-0.069	-0.142
-144.531	800.000	0.057	0.185
-143.516	-200.000	0.046	-0.204
-142.502	217.685	-0.083	0.131
-141.487	800.000	-0.057	0.244
-140.472	55.308	0.215	0.206
-139.458	765.081	0.202	-0.545
-138.443	-200.000	0.000	-0.044
-137.429	-62.598	0.239	0.098
-136.414	12.363	0.353	0.269
-135.399	-111.253	0.054	0.011
-134.385	-67.392	-0.079	-0.031
-133.370	786.215	0.016	0.044
-132.356	-200.000	-0.009	-0.166
-131.341	153.525	-0.039	0.053
-130.326	24.708	-0.395	0.325
-129.312	631.602	-0.054	-0.136
-128.297	482.335	-0.026	-0.058
-127.283	166.721	0.112	-0.158
-126.268	76.275	-0.083	0.087
-125.253	99.149	0.091	-0.105
-124.239	102.253	0.155	0.180
-123.224	35.467	-0.162	0.141
-122.210	124.280	-0.079	-0.098
-121.195	532.896	-0.175	0.410
