DTS Sentinel unit serial number:	SN413079Multiplexer serial number:	ORYXHardware model number:	OX4-SRSoftware version number:	ORYX F/W v4.00 Oryx Data Collector v3.7.2.0data status	okinstallation	princeton_trtdifferential loss correction	single-endedforward channel	channel 1reverse channel	N/Adate	2019/09/17time	21:06:35forward acquisition time	60.00reverse acquisition time	0.00gamma	496.2192k internal	0.2335k external	0.2335temperature offset calibration	0.9978default loss term (dB/km)	0.3790temperature slope calibration	1.0000multiplexer offset coefficient	1.0000multiplexer slope coefficient	1.0000fibre end	0.00T internal ref (°C)	28.30T ext. ref 1 (°C)	0.19T ext. ref 2 (°C)	19.88length (m)	temperature (°C)	Stokes	anti-Stokes-747.200	-13.661	-0.136	0.089
-746.185	69.461	-0.388	0.402
-745.171	-123.642	-0.266	0.042
-744.156	-200.000	-0.019	0.193
-743.142	18.472	0.133	0.107
-742.127	-17.243	0.094	-0.060
-741.112	-36.637	-0.137	-0.074
-740.098	-115.749	0.050	-0.009
-739.083	50.055	0.274	0.260
-738.069	284.530	-0.299	0.540
-737.054	-9.711	-0.231	0.155
-736.039	208.541	-0.243	-0.382
-735.025	-94.830	0.204	0.055
-734.010	49.649	0.183	-0.173
-732.996	-146.645	-0.311	0.027
-731.981	-11.749	-0.120	-0.079
-730.966	-200.000	-0.014	0.234
-729.952	-78.415	-0.116	-0.040
-728.937	233.423	0.225	0.372
-727.923	-200.000	-0.059	0.266
-726.908	233.993	-0.102	0.169
-725.894	62.440	-0.227	-0.227
-724.879	-148.120	-0.387	0.032
-723.864	-200.000	-0.022	-0.180
-722.850	309.586	0.188	0.353
-721.835	-116.274	0.448	0.083
-720.821	-200.000	-0.039	-0.302
-719.806	131.537	-0.157	0.203
-718.791	160.826	-0.070	-0.099
-717.777	-103.063	-0.352	-0.084
-716.762	-73.263	-0.484	-0.178
-715.748	38.476	0.200	0.179
-714.733	-12.281	0.246	0.161
-713.718	-140.437	-0.094	0.010
-712.704	-171.980	0.067	-0.002
-711.689	-200.000	-0.003	-0.084
-710.675	-26.427	0.162	0.095
-709.660	-61.344	0.084	0.035
-708.645	800.000	0.022	-0.074
-707.631	-33.711	-0.295	-0.163
-706.616	800.000	-0.020	0.071
-705.602	132.947	-0.061	0.079
-704.587	800.000	-0.125	-0.369
-703.572	-200.000	0.004	-0.289
-702.558	-118.144	0.071	-0.013
-701.543	-200.000	-0.006	0.129
-700.529	-149.296	0.250	0.020
-699.514	434.921	0.050	0.109
-698.499	53.117	0.388	-0.372
-697.485	114.158	-0.165	0.202
-696.470	-18.905	0.109	-0.068
-695.456	-200.000	-0.003	-0.220
-694.441	-91.902	-0.199	0.057
-693.426	5.074	0.376	0.277
-692.412	-36.342	0.143	-0.077
-691.397	-200.000	0.011	-0.072
-690.383	37.820	-0.266	0.237
-689.368	-14.234	0.138	-0.089
-688.354	-125.514	-0.229	-0.035
-687.339	91.479	-0.175	-0.198
-686.324	-200.000	0.003	-0.205
-685.310	-54.699	-0.147	-0.067
-684.295	21.845	-0.135	-0.110
-683.281	-128.474	-0.284	0.040
-682.266	-18.671	0.434	-0.271
-681.251	84.008	-0.165	0.180
-680.237	-125.993	-0.014	0.002
-679.222	173.917	-0.103	-0.149
-678.208	800.000	0.068	0.204
-677.193	213.617	-0.052	0.083
-676.178	-142.343	-0.341	-0.034
-675.164	800.000	-0.061	0.208
-674.149	-38.949	0.257	0.135
-673.135	142.286	0.112	-0.149
-672.120	70.004	-0.296	-0.306
-671.105	565.583	-0.056	0.136
-670.091	9.338	-0.309	-0.234
-669.076	-85.541	-0.442	0.138
-668.062	-62.699	-0.210	0.087
-667.047	222.668	0.110	-0.178
-666.032	-164.243	0.021	-0.001
-665.018	443.280	-0.120	-0.263
-664.003	-200.000	0.023	0.128
-662.989	-115.678	-0.580	0.109
-661.974	118.044	-0.142	-0.176
-660.959	800.000	-0.035	-0.152
-659.945	194.596	-0.067	-0.101
-658.930	178.050	0.050	0.073
-657.916	-116.825	-0.371	-0.068
-656.901	208.817	0.097	-0.152
-655.886	-100.532	-0.092	-0.023
-654.872	-200.000	-0.222	-0.000
-653.857	-19.924	-0.211	0.130
-652.843	-200.000	0.023	-0.116
-651.828	19.660	0.225	0.181
-650.814	4.613	0.212	-0.156
-649.799	146.883	0.096	0.129
-648.784	473.475	-0.031	0.070
-647.770	-200.000	0.041	-0.225
-646.755	-45.605	0.145	-0.072
-645.741	33.907	0.244	-0.213
-644.726	-199.142	0.092	0.000
-643.711	-74.840	-0.130	0.047
-642.697	254.532	0.130	0.222
-641.682	-27.556	0.217	-0.126
-640.668	-67.703	0.140	0.055
-639.653	800.000	0.103	0.310
-638.638	12.280	0.227	0.175
-637.624	-48.177	0.069	0.033
-636.609	-200.000	-0.006	-0.200
-635.595	-92.920	-0.177	-0.050
-634.580	358.756	0.020	-0.040
-633.565	-158.159	0.174	-0.010
-632.551	-200.000	0.044	-0.268
-631.536	-131.850	-0.197	-0.026
-630.522	239.525	0.185	0.308
-629.507	280.753	-0.123	0.220
-628.492	12.555	0.040	0.031
-627.478	667.797	-0.121	-0.313
-626.463	-200.000	0.039	-0.342
-625.449	-200.000	-0.039	-0.389
-624.434	-106.083	-0.137	0.031
-623.419	-105.151	0.142	-0.032
-622.405	15.879	-0.289	-0.228
-621.390	122.840	-0.219	0.274
-620.376	-200.000	-0.020	0.095
-619.361	-40.937	-0.139	-0.072
-618.346	800.000	0.021	0.065
-617.332	424.072	-0.110	0.236
-616.317	-200.000	-0.011	0.288
-615.303	413.831	0.068	0.145
-614.288	-200.000	0.008	0.209
-613.273	-1.835	0.193	-0.136
-612.259	-200.000	0.018	-0.086
-611.244	-44.368	0.247	-0.124
-610.230	-154.243	-0.272	0.018
-609.215	609.205	-0.048	-0.120
-608.201	-16.778	0.166	0.105
-607.186	-200.000	0.050	-0.365
-606.171	-50.214	-0.080	-0.038
-605.157	-7.185	-0.200	0.135
-604.142	-200.000	-0.021	-0.372
-603.128	323.281	0.186	0.354
-602.113	150.234	-0.164	-0.223
-601.098	-48.974	0.238	0.114
-600.084	53.474	-0.124	-0.119
-599.069	-43.217	-0.127	-0.064
-598.055	800.000	0.069	-0.241
-597.040	104.495	-0.190	0.223
-596.025	-33.962	0.266	-0.146
-595.011	-54.916	0.197	0.089
-593.996	479.346	-0.121	-0.273
-592.982	-60.449	0.116	-0.049
-591.967	-100.114	0.049	-0.012
-590.952	177.358	-0.094	0.136
-589.938	203.311	-0.079	0.122
-588.923	77.834	0.158	-0.168
-587.909	-14.400	0.243	0.156
-586.894	-71.516	0.321	-0.120
-585.879	-91.544	-0.035	0.010
-584.865	-168.389	0.405	-0.016
-583.850	338.252	0.138	-0.269
-582.836	-83.341	-0.414	0.133
-581.821	780.482	-0.089	0.242
-580.806	-200.000	-0.009	0.092
-579.792	-52.841	0.476	-0.219
-578.777	-56.386	-0.087	0.039
-577.763	-200.000	0.010	-0.057
-576.748	-28.440	-0.189	-0.109
-575.733	338.310	-0.144	0.280
-574.719	79.326	0.089	0.095
-573.704	-200.000	-0.005	-0.099
-572.690	183.740	0.164	-0.242
-571.675	-40.250	0.073	-0.038
-570.661	-200.000	0.011	-0.446
-569.646	-200.000	-0.035	-0.284
-568.631	58.165	-0.146	-0.142
-567.617	-148.244	0.275	0.023
-566.602	-38.938	0.297	-0.156
-565.588	-73.912	-0.100	0.036
-564.573	-59.358	0.200	0.086
-563.558	598.740	-0.032	0.079
-562.544	-200.000	-0.019	0.139
-561.529	52.746	-0.259	0.247
-560.515	297.465	-0.036	-0.067
-559.500	64.870	-0.213	0.214
-558.485	219.327	0.146	0.234
-557.471	13.934	0.183	-0.142
-556.456	-200.000	-0.004	0.023
-555.442	-92.466	-0.189	0.053
-554.427	396.106	0.161	-0.335
-553.412	-81.373	-0.330	0.109
-552.398	-84.741	-0.237	-0.074
-551.383	149.465	0.121	-0.163
-550.369	38.711	0.039	-0.035
-549.354	47.046	-0.082	0.076
-548.339	-86.370	-0.262	-0.080
-547.325	-120.377	-0.175	0.030
-546.310	-154.432	0.310	0.021
-545.296	-200.000	0.001	0.066
-544.281	-113.021	-0.123	0.024
-543.266	800.000	-0.056	0.163
-542.252	16.517	0.185	0.146
-541.237	800.000	-0.043	0.172
-540.223	-1.497	-0.222	0.156
-539.208	-200.000	0.014	0.082
-538.193	112.300	-0.030	0.036
-537.179	204.163	-0.150	0.232
-536.164	-200.000	0.027	-0.274
-535.150	508.461	-0.105	-0.244
-534.135	-200.000	0.012	-0.146
-533.121	-60.860	-0.266	0.112
-532.106	11.145	-0.139	-0.106
-531.091	800.000	-0.110	-0.422
-530.077	-58.124	0.326	-0.142
-529.062	-200.000	0.042	-0.217
-528.048	-94.446	-0.046	-0.013
-527.033	42.156	0.259	0.234
-526.018	224.931	-0.105	0.170
-525.004	-200.000	-0.038	-0.206
-523.989	-95.457	-0.175	-0.047
-522.975	-200.000	0.017	-0.310
-521.960	-150.664	-0.387	-0.029
-520.945	-165.118	0.089	0.004
-519.931	195.094	-0.134	-0.202
-518.916	-146.391	0.497	0.043
-517.902	181.403	0.281	-0.412
-516.887	161.962	-0.151	-0.210
-515.872	-71.967	0.275	0.102
-514.858	-74.841	0.012	-0.004
-513.843	502.049	0.087	-0.201
-512.829	-200.000	0.051	0.272
-511.814	256.293	-0.169	0.288
-510.799	-7.929	0.061	-0.041
-509.785	-111.017	-0.071	0.014
-508.770	0.443	-0.325	-0.231
-507.756	800.000	-0.072	-0.289
-506.741	35.943	0.301	-0.264
-505.726	800.000	0.071	0.224
-504.712	-92.218	0.295	0.083
-503.697	-200.000	-0.036	0.292
-502.683	105.752	0.098	-0.116
-501.668	112.818	-0.061	-0.073
-500.653	365.611	0.142	-0.286
-499.639	-15.470	0.284	-0.180
-498.624	800.000	0.015	0.048
-497.610	-130.150	-0.159	-0.022
-496.595	462.054	-0.051	-0.113
-495.581	800.000	0.081	-0.288
-494.566	37.195	-0.356	0.314
-493.551	-200.000	-0.001	-0.210
-492.537	-125.088	-0.338	0.052
-491.522	437.094	-0.139	-0.302
-490.508	-200.000	0.024	0.185
-489.493	-61.378	-0.233	0.098
-488.478	283.015	-0.116	-0.207
-487.464	215.973	0.044	0.069
-486.449	800.000	-0.049	-0.212
-485.435	-82.964	0.037	0.012
-484.420	-75.019	-0.051	0.018
-483.405	-73.598	-0.162	-0.059
-482.391	37.084	-0.311	0.274
-481.376	70.388	-0.064	0.066
-480.362	-179.648	-0.135	-0.003
-479.347	-200.000	-0.016	-0.094
-478.332	401.892	-0.034	0.071
-477.318	-200.000	0.315	-0.001
-476.303	-152.716	0.274	0.019
-475.289	54.494	-0.059	-0.057
-474.274	650.468	0.063	0.161
-473.259	800.000	-0.115	0.336
-472.245	-121.503	0.238	-0.039
-471.230	-200.000	-0.019	-0.288
-470.216	800.000	-0.092	-0.333
-469.201	60.291	-0.116	0.114
-468.186	27.132	-0.202	-0.168
-467.172	-200.000	-0.012	0.117
-466.157	800.000	-0.068	0.273
-465.143	-200.000	-0.009	0.264
-464.128	-41.491	-0.137	-0.070
-463.113	-62.118	-0.162	0.067
-462.099	-81.357	0.071	0.023
-461.084	140.299	0.171	-0.224
-460.070	-200.000	0.035	-0.249
-459.055	187.582	0.139	-0.206
-458.040	800.000	-0.050	-0.189
-457.026	59.510	0.116	0.114
-456.011	-200.000	0.043	-0.252
-454.997	-91.451	0.331	0.094
-453.982	-50.955	0.381	-0.178
-452.968	-18.779	-0.332	-0.205
-451.953	588.778	-0.134	-0.328
-450.938	-70.507	-0.144	0.054
-449.924	255.769	-0.059	0.100
-448.909	-165.982	0.163	-0.007
-447.895	120.442	0.108	-0.133
-446.880	-200.000	-0.006	0.325
-445.865	-183.871	-0.304	0.005
-444.851	335.282	-0.017	0.032
-443.836	800.000	0.039	0.154
-442.822	-81.140	-0.306	-0.100
-441.807	-105.446	-0.325	0.073
-440.792	-200.000	-0.029	0.158
-439.778	76.737	-0.270	0.284
-438.763	94.386	-0.219	0.247
-437.749	-200.000	-0.013	0.376
-436.734	-35.357	0.133	0.072
-435.719	122.349	0.216	0.268
-434.705	-48.825	-0.293	-0.139
-433.690	161.225	0.040	-0.055
-432.676	424.521	-0.194	0.414
-431.661	-3.775	0.141	-0.097
-430.646	63.838	0.158	-0.158
-429.632	-155.328	-0.194	0.013
-428.617	-200.000	0.041	-0.197
-427.603	292.573	0.062	0.113
-426.588	-188.119	-0.180	0.002
-425.573	-112.864	-0.100	-0.020
-424.559	-200.000	0.047	0.274
-423.544	-115.897	0.267	0.050
-422.530	7.365	0.110	0.081
-421.515	-146.748	-0.176	-0.015
-420.500	-141.602	-0.237	-0.024
-419.486	19.316	-0.209	0.167
-418.471	-4.282	0.110	-0.075
-417.457	656.701	-0.155	0.396
-416.442	-200.000	-0.048	-0.256
-415.428	-24.839	0.110	0.065
-414.413	-166.185	-0.151	-0.006
-413.398	-13.781	0.286	0.183
-412.384	19.417	0.375	0.299
-411.369	143.343	-0.142	-0.187
-410.355	4.564	-0.135	0.098
-409.340	-200.000	-0.001	-0.128
-408.325	-116.432	-0.013	0.002
-407.311	-18.627	-0.120	0.074
-406.296	-20.925	-0.219	0.133
-405.282	137.418	0.259	0.337
-404.267	-78.072	-0.470	0.160
-403.252	-73.591	-0.089	-0.032
-402.238	30.811	-0.122	-0.103
-401.223	-200.000	0.044	-0.383
-400.209	-156.323	0.229	-0.014
-399.194	-21.619	0.432	0.261
-398.179	-63.127	-0.383	-0.157
-397.165	-200.000	-0.012	0.061
-396.150	800.000	-0.062	-0.258
-395.136	-44.488	-0.109	-0.054
-394.121	174.448	0.122	-0.175
-393.106	-75.946	0.210	-0.074
-392.092	502.728	0.155	-0.356
-391.077	-115.790	-0.397	0.074
-390.063	-200.000	-0.049	0.262
-389.048	-81.644	0.249	-0.081
-388.033	-174.876	-0.093	0.003
-387.019	-92.702	0.320	0.089
-386.004	-139.153	-0.235	0.025
-384.990	44.671	0.147	0.134
-383.975	-137.175	-0.037	0.004
-382.960	-58.267	0.228	-0.098
-381.946	163.102	0.175	0.243
-380.931	74.025	-0.279	0.290
-379.917	466.894	-0.165	0.366
-378.902	-200.000	-0.046	-0.214
-377.888	-9.750	0.250	0.165
-376.873	448.696	0.142	0.309
-375.858	6.945	-0.312	0.230
-374.844	-200.000	0.005	0.133
-373.829	54.097	-0.131	0.125
-372.815	56.653	-0.008	-0.008
-371.800	-79.183	0.107	0.036
-370.785	43.446	0.154	-0.140
-369.771	800.000	-0.101	-0.394
-368.756	-200.000	-0.023	-0.310
-367.742	-200.000	-0.029	-0.271
-366.727	-200.000	0.007	-0.140
-365.712	-143.367	0.340	-0.032
-364.698	-84.919	-0.336	-0.104
-363.683	-81.403	0.113	-0.037
-362.669	-9.505	0.240	-0.159
-361.654	-200.000	0.026	-0.161
-360.639	-108.731	0.377	-0.080
-359.625	329.160	0.097	0.184
-358.610	529.647	-0.041	-0.095
-357.596	-20.020	-0.301	0.184
-356.581	260.601	-0.070	-0.120
-355.566	128.654	-0.065	-0.082
-354.552	-19.694	-0.145	-0.089
-353.537	-108.962	0.106	-0.022
-352.523	800.000	0.054	-0.148
-351.508	-163.784	0.043	0.002
-350.493	-200.000	-0.065	0.337
-349.479	-200.000	-0.038	0.274
-348.464	646.924	0.063	-0.159
-347.450	-200.000	-0.001	-0.465
-346.435	-200.000	-0.002	-0.192
-345.420	-200.000	-0.021	0.425
-344.406	-200.000	0.070	0.402
-343.391	-80.002	-0.477	0.158
-342.377	15.141	0.293	0.227
-341.362	-126.756	-0.220	-0.032
-340.348	-72.392	-0.291	-0.107
-339.333	-58.507	0.123	0.053
-338.318	-81.145	0.179	0.058
-337.304	-200.000	-0.023	0.181
-336.289	-200.000	0.019	-0.165
-335.275	-200.000	-0.009	-0.134
-334.260	142.248	-0.063	-0.083
-333.245	-15.802	0.292	0.184
-332.231	62.755	-0.131	-0.129
-331.216	800.000	0.066	0.253
-330.202	-200.000	0.027	-0.182
-329.187	-20.422	0.169	0.103
-328.172	100.949	0.115	0.132
-327.158	-156.244	-0.346	-0.021
-326.143	-54.374	-0.222	0.100
-325.129	276.051	0.203	0.356
-324.114	-148.444	-0.420	-0.034
-323.099	-97.290	0.121	-0.031
-322.085	78.401	0.129	-0.136
-321.070	449.727	-0.071	0.154
-320.056	1.842	0.248	-0.177
-319.041	304.015	0.015	0.027
-318.026	-68.064	0.234	0.090
-317.012	571.589	0.080	-0.192
-315.997	800.000	-0.155	-0.513
-314.983	-200.000	0.034	-0.166
-313.968	-169.799	0.299	-0.011
-312.953	800.000	0.055	-0.183
-311.939	72.317	0.180	-0.185
-310.924	491.004	-0.142	-0.322
-309.910	134.609	0.048	0.062
-308.895	-37.360	0.246	0.130
-307.880	769.005	0.073	0.197
-306.866	145.728	-0.161	-0.213
-305.851	800.000	-0.073	0.288
-304.837	359.716	-0.086	-0.171
-303.822	-166.507	0.168	-0.007
-302.807	-200.000	0.054	-0.245
-301.793	-40.855	0.205	0.105
-300.778	28.010	0.143	0.119
-299.764	-36.483	0.142	0.076
-298.749	-49.739	-0.315	-0.148
-297.735	163.704	0.238	0.331
-296.720	-200.000	-0.003	-0.024
-295.705	-50.981	-0.238	0.110
-294.691	-200.000	0.001	-0.255
-293.676	-153.577	-0.094	0.006
-292.662	-200.000	0.008	-0.437
-291.647	-5.964	0.071	0.048
-290.632	800.000	0.043	0.156
-289.618	-28.526	0.091	0.052
-288.603	-47.293	-0.108	-0.052
-287.589	-200.000	0.041	0.364
-286.574	-200.000	0.020	0.440
-285.559	-119.595	-0.190	0.032
-284.545	-200.000	0.014	0.202
-283.530	64.727	-0.126	-0.125
-282.516	-200.000	-0.014	0.186
-281.501	800.000	-0.062	-0.239
-280.486	-200.000	0.035	-0.241
-279.472	58.624	-0.132	-0.128
-278.457	264.383	0.017	0.029
-277.443	147.708	-0.254	-0.337
-276.428	-200.000	-0.013	0.239
-275.413	-161.483	0.365	-0.019
-274.399	-71.894	0.137	-0.050
-273.384	800.000	0.038	0.108
-272.370	-76.638	-0.124	-0.043
-271.355	-104.566	-0.243	-0.055
-270.340	-78.816	0.364	-0.122
-269.326	-200.000	-0.015	0.241
-268.311	-9.048	-0.132	0.087
-267.297	9.439	-0.357	0.266
-266.282	440.319	-0.055	0.119
-265.267	-38.508	-0.104	-0.054
-264.253	-156.416	0.073	0.005
-263.238	-105.643	-0.165	0.037
-262.224	-200.000	0.000	-0.164
-261.209	-49.460	-0.375	0.176
-260.195	-42.117	0.391	0.197
-259.180	398.646	-0.135	-0.278
-258.165	-46.294	0.171	-0.083
-257.151	-111.579	0.156	0.031
-256.136	-145.702	0.149	0.013
-255.122	305.665	-0.107	0.196
-254.107	152.138	-0.116	0.156
-253.092	-34.222	0.117	-0.063
-252.078	-28.069	-0.210	0.120
-251.063	-200.000	0.015	-0.084
-250.049	-93.345	0.261	0.071
-249.034	62.873	-0.127	-0.125
-248.019	178.287	-0.081	0.117
-247.005	-200.000	-0.009	-0.230
-245.990	800.000	-0.047	0.165
-244.976	253.876	-0.132	-0.222
-243.961	800.000	-0.098	0.334
-242.946	800.000	0.063	0.219
-241.932	-72.601	0.156	-0.057
-240.917	800.000	0.042	-0.132
-239.903	-200.000	0.086	0.507
-238.888	281.002	0.134	0.236
-237.873	16.785	0.370	0.289
-236.859	-200.000	-0.009	-0.093
-235.844	-108.716	-0.211	0.044
-234.830	122.298	0.135	0.167
-233.815	-200.000	-0.013	0.130
-232.800	487.396	-0.022	0.050
-231.786	-200.000	0.052	-0.233
-230.771	-114.793	0.211	0.040
-229.757	723.990	-0.137	-0.358
-228.742	-200.000	0.022	0.328
-227.727	788.840	0.083	-0.224
-226.713	-200.000	-0.036	0.166
-225.698	152.274	-0.164	-0.221
-224.684	800.000	-0.105	-0.325
-223.669	66.877	0.069	-0.070
-222.655	-157.433	0.119	0.007
-221.640	-10.852	0.380	-0.247
-220.625	-56.276	0.081	-0.035
-219.611	-200.000	0.000	0.370
-218.596	118.312	-0.090	0.109
-217.582	205.756	-0.241	0.369
-216.567	236.867	-0.139	-0.227
-215.552	-68.962	0.228	-0.086
-214.538	101.954	-0.219	0.251
-213.523	-106.691	0.199	0.043
-212.509	704.516	0.038	-0.100
-211.494	-148.402	-0.233	0.019
-210.479	-65.316	-0.121	0.048
-209.465	-145.161	0.256	-0.023
-208.450	-17.225	0.109	-0.068
-207.436	-94.861	-0.139	-0.037
-206.421	-200.000	-0.005	-0.029
-205.406	-154.908	-0.159	-0.010
-204.392	-19.491	0.239	0.146
-203.377	10.166	0.359	-0.268
-202.363	186.460	-0.077	-0.113
-201.348	-139.936	0.431	-0.045
-200.333	213.862	0.132	0.205
-199.319	800.000	0.102	-0.390
-198.304	31.549	-0.129	0.109
-197.290	107.817	-0.199	0.233
-196.275	22.213	-0.284	0.228
-195.260	-200.000	-0.057	0.449
-194.246	-150.093	0.129	0.010
-193.231	-155.006	0.242	0.016
-192.217	-200.000	-0.019	-0.138
-191.202	-79.134	-0.040	-0.013
-190.187	521.231	-0.079	0.182
-189.173	-49.173	-0.361	-0.170
-188.158	87.854	-0.150	-0.163
-187.144	-162.667	-0.294	0.014
-186.129	-142.055	0.067	0.007
-185.114	-148.748	0.111	0.009
-184.100	11.256	0.185	-0.139
-183.085	-106.684	-0.208	0.045
-182.071	-200.000	-0.031	0.139
-181.056	-200.000	-0.026	-0.131
-180.042	-116.548	0.161	-0.029
-179.027	-63.237	0.258	0.104
-178.012	-95.157	-0.235	0.062
-176.998	709.439	0.047	-0.123
-175.983	63.365	0.139	-0.137
-174.969	-4.293	-0.094	-0.064
-173.954	110.507	0.168	0.199
-172.939	-200.000	0.011	0.142
-171.925	40.870	0.136	-0.120
-170.910	-200.000	0.045	0.290
-169.896	-200.000	-0.063	0.336
-168.881	-56.544	-0.215	-0.094
-167.866	604.386	0.059	-0.144
-166.852	-200.000	0.002	0.120
-165.837	-153.402	-0.108	-0.007
-164.823	-158.068	-0.195	-0.011
-163.808	50.572	0.105	0.098
-162.793	-30.712	-0.232	0.129
-161.779	58.321	-0.117	0.113
-160.764	123.845	0.151	-0.187
-159.750	-200.000	-0.008	0.178
-158.735	-188.767	-0.144	-0.002
-157.720	-169.354	-0.167	-0.006
-156.706	-54.564	0.138	-0.061
-155.691	109.290	0.023	-0.027
-154.677	800.000	-0.058	-0.190
-153.662	-200.000	0.004	-0.091
-152.647	-46.788	0.334	-0.160
-151.633	-97.867	0.065	-0.016
-150.618	499.676	0.045	0.101
-149.604	-93.157	-0.469	0.128
-148.589	800.000	0.091	0.267
-147.574	158.541	-0.104	0.141
-146.560	253.734	0.094	-0.158
-145.545	128.036	-0.047	-0.058
-144.531	-35.282	0.044	0.024
-143.516	491.681	0.071	-0.159
-142.502	-78.044	-0.190	0.064
-141.487	303.906	0.035	0.064
-140.472	53.348	0.247	-0.232
-139.458	107.411	0.214	-0.249
-138.443	-200.000	-0.065	0.282
-137.429	168.483	-0.175	-0.244
-136.414	225.728	-0.133	0.211
-135.399	-117.769	-0.262	0.046
-134.385	800.000	-0.089	-0.330
-133.370	-174.615	0.115	-0.003
-132.356	293.510	0.171	-0.306
-131.341	-88.023	-0.326	-0.096
-130.326	-200.000	0.002	-0.045
-129.312	-62.357	-0.290	0.118
-128.297	-12.419	0.379	0.243
-127.283	-200.000	0.047	-0.209
-126.268	256.342	0.132	-0.223
-125.253	-13.716	-0.217	-0.138
-124.239	-120.715	0.420	0.070
-123.224	286.634	0.157	-0.278
