DTS Sentinel unit serial number:	SN413079Multiplexer serial number:	ORYXHardware model number:	OX4-SRSoftware version number:	ORYX F/W v4.00 Oryx Data Collector v3.7.2.0data status	okinstallation	princeton_trtdifferential loss correction	single-endedforward channel	channel 1reverse channel	N/Adate	2019/09/18time	04:42:35forward acquisition time	60.00reverse acquisition time	0.00gamma	496.2192k internal	0.2339k external	0.2339temperature offset calibration	0.9977default loss term (dB/km)	0.3790temperature slope calibration	1.0000multiplexer offset coefficient	1.0000multiplexer slope coefficient	1.0000fibre end	0.00T internal ref (°C)	23.44T ext. ref 1 (°C)	0.19T ext. ref 2 (°C)	17.76length (m)	temperature (°C)	Stokes	anti-Stokes-747.200	800.000	0.042	0.137
-746.185	214.034	-0.133	0.211
-745.171	-36.904	0.280	-0.150
-744.156	-122.592	-0.275	0.045
-743.142	-126.148	0.225	0.034
-742.127	-70.061	-0.314	-0.120
-741.112	-101.726	0.135	-0.033
-740.098	10.485	-0.295	0.226
-739.083	-129.148	0.234	-0.033
-738.069	-110.995	-0.448	-0.092
-737.054	58.278	-0.047	0.046
-736.039	-78.246	-0.081	0.028
-735.025	66.494	0.243	0.248
-734.010	-132.487	-0.197	-0.025
-732.996	-45.007	0.321	-0.160
-731.981	127.833	-0.089	-0.114
-730.966	411.320	0.131	-0.278
-729.952	-90.818	-0.183	-0.053
-728.937	800.000	-0.107	-0.333
-727.923	-23.808	-0.419	-0.252
-726.908	-71.833	-0.016	0.006
-725.894	-164.765	-0.274	-0.012
-724.879	71.903	-0.212	0.221
-723.864	192.983	-0.182	0.275
-722.850	238.251	-0.152	-0.253
-721.835	435.327	-0.037	-0.081
-720.821	28.560	0.198	0.167
-719.806	-162.495	0.203	0.010
-718.791	-200.000	0.015	-0.178
-717.777	-123.498	-0.097	0.015
-716.762	10.696	-0.366	-0.279
-715.748	6.149	0.081	-0.060
-714.733	185.079	0.144	-0.214
-713.718	-48.026	-0.235	-0.114
-712.704	-80.345	-0.099	0.033
-711.689	-66.931	-0.247	-0.098
-710.675	312.246	-0.074	0.138
-709.660	-72.849	0.230	0.085
-708.645	-80.944	0.090	0.030
-707.631	-200.000	-0.086	0.434
-706.616	154.935	0.044	0.060
-705.602	800.000	0.050	-0.214
-704.587	-127.788	-0.431	-0.062
-703.572	-96.870	-0.098	0.026
-702.558	89.101	0.137	-0.153
-701.543	-68.366	-0.308	-0.120
-700.529	-22.260	-0.329	0.200
-699.514	-123.299	-0.487	-0.078
-698.499	78.709	-0.146	0.157
-697.485	48.665	-0.291	0.273
-696.470	80.267	0.320	0.345
-695.456	800.000	0.091	0.320
-694.441	333.620	-0.228	0.442
-693.426	-22.415	0.247	0.150
-692.412	-35.252	-0.189	-0.103
-691.397	-200.000	0.096	-0.527
-690.383	-129.834	-0.252	-0.035
-689.368	-13.615	-0.288	0.186
-688.354	-142.499	-0.082	0.008
-687.339	-152.866	-0.198	-0.014
-686.324	-72.341	0.400	-0.148
-685.310	-200.000	-0.013	-0.461
-684.295	97.591	-0.032	0.037
-683.281	-200.000	-0.068	-0.356
-682.266	234.290	0.137	-0.225
-681.251	-133.680	0.299	-0.037
-680.237	15.450	-0.240	0.189
-679.222	186.604	0.131	-0.195
-678.208	800.000	-0.071	0.211
-677.193	-200.000	0.035	0.246
-676.178	400.279	-0.135	-0.283
-675.164	65.279	-0.241	0.244
-674.149	130.445	-0.114	-0.146
-673.135	-200.000	0.029	-0.167
-672.120	-86.065	-0.090	-0.028
-671.105	19.951	-0.062	-0.050
-670.091	-112.479	0.140	0.028
-669.076	800.000	-0.042	0.161
-668.062	129.058	0.045	-0.057
-667.047	138.296	0.237	0.311
-666.032	124.956	0.085	-0.108
-665.018	373.986	0.038	0.077
-664.003	86.385	-0.066	-0.073
-662.989	-67.077	0.283	-0.111
-661.974	142.335	-0.040	-0.053
-660.959	800.000	-0.071	0.258
-659.945	800.000	0.092	0.316
-658.930	-176.857	0.259	-0.007
-657.916	-79.326	-0.150	0.051
-656.901	800.000	0.093	-0.271
-655.886	-27.504	0.227	-0.132
-654.872	-104.064	0.164	-0.038
-653.857	-200.000	0.052	-0.430
-652.843	-75.303	0.069	0.025
-651.828	77.065	0.285	-0.302
-650.814	-12.472	-0.363	-0.237
-649.799	-200.000	-0.005	-0.098
-648.784	157.347	-0.238	-0.330
-647.770	163.815	-0.151	0.213
-646.755	-131.996	-0.322	-0.042
-645.741	157.681	0.161	-0.223
-644.726	382.499	0.097	0.198
-643.711	-200.000	0.001	-0.162
-642.697	-200.000	0.042	-0.219
-641.682	-48.160	0.261	-0.126
-640.668	800.000	0.081	-0.325
-639.653	-48.445	0.362	0.174
-638.638	13.552	-0.163	0.126
-637.624	-22.324	0.368	-0.223
-636.609	800.000	-0.051	0.168
-635.595	-200.000	-0.012	-0.324
-634.580	-200.000	-0.027	-0.307
-633.565	-200.000	-0.010	-0.217
-632.551	-173.094	-0.209	-0.006
-631.536	-21.521	-0.192	-0.117
-630.522	-167.638	0.141	0.006
-629.507	-7.192	0.251	-0.170
-628.492	-147.325	-0.122	0.010
-627.478	-120.456	0.295	-0.050
-626.463	-85.192	-0.558	0.174
-625.449	-136.229	-0.068	0.008
-624.434	-55.580	0.284	0.127
-623.419	-18.191	-0.187	-0.117
-622.405	460.173	-0.177	-0.394
-621.390	135.402	0.056	-0.073
-620.376	-154.428	-0.093	0.006
-619.361	-28.206	-0.150	-0.087
-618.346	102.740	0.158	-0.185
-617.332	-159.848	-0.072	-0.004
-616.317	-200.000	0.030	-0.239
-615.303	-58.030	0.282	0.123
-614.288	130.586	-0.047	0.060
-613.273	26.029	0.212	0.177
-612.259	800.000	-0.089	-0.302
-611.244	40.626	0.101	0.091
-610.230	800.000	0.079	-0.254
-609.215	-103.911	-0.274	-0.064
-608.201	-122.032	-0.333	0.055
-607.186	400.856	0.074	-0.154
-606.171	-46.986	-0.102	-0.050
-605.157	-119.836	-0.201	0.035
-604.142	-52.527	-0.379	-0.175
-603.128	-4.620	0.193	0.133
-602.113	-63.195	-0.280	0.115
-601.098	-166.034	-0.312	-0.013
-600.084	175.053	-0.097	-0.140
-599.069	-68.616	0.161	-0.062
-598.055	-65.598	-0.376	0.150
-597.040	-7.170	-0.213	0.144
-596.025	195.637	-0.173	0.263
-595.011	510.823	0.150	0.347
-593.996	13.500	0.212	0.164
-592.982	-16.634	-0.110	-0.069
-591.967	537.276	0.149	0.352
-590.952	-101.287	0.107	0.026
-589.938	-200.000	-0.004	-0.104
-588.923	-36.155	0.319	0.171
-587.909	49.826	0.061	-0.057
-586.894	-200.000	0.012	-0.066
-585.879	635.165	-0.013	-0.033
-584.865	421.527	-0.020	0.043
-583.850	-139.262	0.290	0.031
-582.836	-151.494	0.266	0.020
-581.821	800.000	-0.115	-0.319
-580.806	-71.859	-0.155	0.058
-579.792	142.076	0.074	0.098
-578.777	137.751	-0.213	-0.277
-577.763	421.809	0.135	-0.289
-576.748	-134.813	-0.271	0.033
-575.733	193.634	0.016	-0.024
-574.719	472.250	0.182	0.408
-573.704	-27.517	-0.079	-0.046
-572.690	-8.206	-0.224	0.150
-571.675	294.560	-0.073	0.132
-570.661	184.371	-0.215	-0.317
-569.646	14.673	-0.112	0.087
-568.631	80.410	0.087	0.093
-567.617	192.896	-0.200	-0.301
-566.602	23.925	0.070	0.058
-565.588	-200.000	-0.005	-0.205
-564.573	75.489	-0.326	-0.342
-563.558	24.390	-0.239	0.197
-562.544	-109.588	-0.229	-0.048
-561.529	-52.136	-0.111	0.051
-560.515	-89.902	-0.102	0.030
-559.500	-200.000	0.047	0.329
-558.485	-23.144	0.224	-0.134
-557.471	-44.907	-0.182	-0.090
-556.456	-109.667	-0.216	-0.045
-555.442	-200.000	-0.023	0.120
-554.427	-41.882	0.208	0.106
-553.412	-24.023	-0.308	-0.183
-552.398	-50.749	-0.287	0.134
-551.383	183.910	0.110	-0.162
-550.369	-200.000	0.012	0.149
-549.354	-175.572	0.205	-0.006
-548.339	-200.000	-0.005	0.152
-547.325	305.175	-0.092	-0.171
-546.310	157.436	0.081	-0.111
-545.296	-200.000	0.001	0.442
-544.281	5.879	-0.081	0.060
-543.266	146.436	0.061	0.081
-542.252	-125.958	0.107	0.016
-541.237	-200.000	0.060	-0.475
-540.223	-75.439	-0.119	-0.042
-539.208	96.102	0.166	-0.189
-538.193	-44.342	-0.274	-0.137
-537.179	673.482	0.120	-0.310
-536.164	140.725	-0.244	0.321
-535.150	-104.399	-0.155	-0.036
-534.135	116.432	0.097	-0.118
-533.121	107.352	0.042	-0.050
-532.106	800.000	0.055	-0.177
-531.091	343.453	-0.053	0.104
-530.077	-94.349	-0.295	-0.080
-529.062	95.428	-0.320	-0.362
-528.048	-200.000	0.010	0.139
-527.033	208.067	0.084	-0.130
-526.018	-200.000	0.070	0.336
-525.004	-42.772	0.156	0.079
-523.989	-166.672	-0.340	-0.014
-522.975	56.535	0.012	-0.012
-521.960	-44.461	-0.297	-0.148
-520.945	-168.573	-0.109	0.004
-519.931	-200.000	0.032	0.253
-518.916	116.562	-0.141	0.172
-517.902	-37.489	0.249	0.132
-516.887	-109.324	-0.069	0.015
-515.872	-151.340	-0.109	-0.008
-514.858	-89.612	0.250	-0.073
-513.843	-93.453	0.207	-0.057
-512.829	-141.416	0.267	0.027
-511.814	-100.315	-0.108	0.027
-510.799	-135.336	0.278	-0.033
-509.785	-29.415	-0.116	0.066
-508.770	-32.805	0.099	0.054
-507.756	263.388	-0.060	-0.104
-506.741	-50.254	-0.347	-0.163
-505.726	-200.000	-0.021	0.250
-504.712	165.781	-0.123	0.172
-503.697	76.828	-0.064	-0.068
-502.683	-200.000	0.005	-0.036
-501.668	-200.000	0.020	0.181
-500.653	-146.994	0.068	0.006
-499.639	34.820	0.094	0.081
-498.624	-60.526	0.140	-0.059
-497.610	480.289	-0.052	-0.116
-496.595	441.084	0.130	-0.283
-495.581	-17.892	-0.177	-0.110
-494.566	99.993	0.128	0.147
-493.551	254.568	-0.089	-0.151
-492.537	378.148	-0.169	0.344
-491.522	249.149	0.046	-0.077
-490.508	-200.000	-0.059	-0.301
-489.493	-83.889	-0.059	0.018
-488.478	31.841	-0.139	-0.119
-487.464	-115.801	0.304	-0.057
-486.449	-109.234	-0.193	-0.041
-485.435	-53.358	-0.411	0.187
-484.420	-8.972	0.255	-0.170
-483.405	55.379	-0.096	-0.092
-482.391	5.646	-0.114	-0.084
-481.376	-18.392	0.143	-0.088
-480.362	-200.000	-0.035	0.163
-479.347	223.158	-0.142	0.228
-478.332	-200.000	0.011	-0.090
-477.318	88.543	0.042	-0.047
-476.303	800.000	-0.003	0.010
-475.289	-7.298	0.186	-0.125
-474.274	-103.572	-0.108	0.025
-473.259	-200.000	-0.008	0.037
-472.245	77.826	0.124	0.131
-471.230	-65.588	-0.112	0.045
-470.216	108.743	-0.160	-0.190
-469.201	82.111	-0.098	0.105
-468.186	403.472	0.050	-0.104
-467.172	90.997	0.230	-0.256
-466.157	-200.000	0.040	-0.193
-465.143	800.000	-0.075	0.245
-464.128	-84.131	0.262	-0.083
-463.113	606.770	-0.073	0.180
-462.099	-49.777	0.315	0.148
-461.084	10.956	0.127	0.096
-460.070	-200.000	-0.381	0.001
-459.055	-200.000	0.010	0.244
-458.040	178.117	-0.111	0.160
-457.026	-113.255	-0.298	0.058
-456.011	-38.769	0.202	0.105
-454.997	800.000	0.082	0.246
-453.982	-136.351	-0.247	-0.029
-452.968	23.720	-0.136	0.111
-451.953	106.511	0.044	0.052
-450.938	-27.236	-0.327	-0.189
-449.924	-99.513	-0.113	0.028
-448.909	640.920	0.072	0.182
-447.895	356.239	-0.072	0.143
-446.880	5.016	0.237	-0.173
-445.865	-200.000	0.008	0.226
-444.851	-200.000	-0.464	-0.001
-443.836	428.622	0.024	0.052
-442.822	-118.000	-0.147	0.026
-441.807	184.438	0.066	-0.097
-440.792	-113.840	0.307	-0.059
-439.778	506.291	0.100	0.229
-438.763	-200.000	0.024	0.306
-437.749	-32.820	0.221	-0.122
-436.734	6.988	0.066	0.049
-435.719	-54.828	-0.336	-0.150
-434.705	7.442	0.116	0.086
-433.690	582.090	0.096	-0.234
-432.676	800.000	0.083	-0.321
-431.661	-200.000	-0.046	0.304
-430.646	-124.861	-0.302	-0.046
-429.632	71.581	0.209	0.215
-428.617	-61.919	-0.341	-0.141
-427.603	-85.242	0.222	0.069
-426.588	800.000	-0.030	-0.121
-425.573	367.105	-0.109	0.217
-424.559	-3.566	-0.056	0.038
-423.544	424.964	0.137	-0.291
-422.530	-29.048	-0.167	-0.095
-421.515	-106.952	-0.249	0.055
-420.500	-200.000	0.033	0.205
-419.486	259.448	0.076	-0.130
-418.471	19.120	-0.336	-0.267
-417.457	-200.000	0.008	-0.252
-416.442	-200.000	-0.034	-0.182
-415.428	212.224	-0.110	0.172
-414.413	-69.001	-0.142	-0.054
-413.398	659.907	0.176	0.450
-412.384	-131.459	0.236	-0.031
-411.369	-57.223	-0.235	-0.103
-410.355	-6.069	-0.102	-0.069
-409.340	52.358	-0.219	-0.207
-408.325	210.368	-0.129	-0.201
-407.311	-71.554	-0.164	0.061
-406.296	29.758	-0.239	-0.201
-405.282	143.733	0.211	0.278
-404.267	800.000	-0.104	0.298
-403.252	-83.775	-0.295	0.093
-402.238	-57.782	-0.113	-0.049
-401.223	800.000	-0.012	-0.036
-400.209	282.958	-0.056	0.099
-399.194	800.000	-0.080	-0.297
-398.179	74.903	0.118	0.123
-397.165	-200.000	0.022	-0.267
-396.150	226.053	-0.068	-0.110
-395.136	-2.020	-0.264	-0.184
-394.121	-200.000	0.006	0.236
-393.106	-41.242	0.019	0.010
-392.092	800.000	0.037	0.134
-391.077	800.000	-0.090	0.338
-390.063	99.210	-0.133	0.152
-389.048	-138.870	0.124	0.013
-388.033	-200.000	0.007	0.217
-387.019	-78.679	0.339	-0.115
-386.004	-200.000	0.031	0.292
-384.990	-129.110	-0.399	0.055
-383.975	-200.000	0.040	-0.382
-382.960	-120.387	0.132	0.022
-381.946	-25.531	-0.140	-0.082
-380.931	-1.963	0.103	0.072
-379.917	800.000	-0.166	0.562
-378.902	-200.000	-0.001	0.221
-377.888	-30.458	0.191	0.107
-376.873	83.605	-0.270	0.291
-375.858	-43.521	0.257	-0.128
-374.844	-134.224	-0.474	-0.058
-373.829	-80.703	0.284	0.093
-372.815	-105.272	-0.193	-0.044
-371.800	-141.990	0.097	0.010
-370.785	-81.648	0.243	-0.079
-369.771	-42.353	0.131	-0.066
-368.756	800.000	-0.031	0.097
-367.742	-200.000	0.009	0.142
-366.727	800.000	0.143	0.410
-365.712	-74.375	-0.296	0.106
-364.698	-92.954	-0.189	-0.052
-363.683	407.739	-0.173	0.361
-362.669	-200.000	0.002	0.076
-361.654	-200.000	0.024	-0.248
-360.639	626.867	0.172	0.429
-359.625	133.716	0.150	-0.192
-358.610	-63.702	-0.379	0.153
-357.596	-200.000	0.004	0.153
-356.581	-171.483	-0.521	-0.017
-355.566	30.110	0.101	-0.085
-354.552	26.056	-0.302	-0.249
-353.537	258.866	-0.120	0.205
-352.523	-59.079	0.232	0.099
-351.508	258.571	-0.069	0.117
-350.493	195.397	-0.142	0.214
-349.479	371.377	-0.186	0.372
-348.464	-135.583	-0.246	0.029
-347.450	800.000	0.068	-0.210
-346.435	-147.811	0.397	0.033
-345.420	-68.078	0.242	0.093
-344.406	-148.371	-0.232	0.019
-343.391	172.611	0.051	-0.073
-342.377	103.960	-0.052	0.060
-341.362	34.205	0.199	-0.171
-340.348	13.128	-0.183	-0.140
-339.333	-84.564	0.351	-0.109
-338.318	-200.000	-0.004	0.094
-337.304	256.500	0.058	-0.098
-336.289	-35.091	0.228	0.123
-335.275	-200.000	-0.054	0.364
-334.260	296.280	-0.053	-0.096
-333.245	-200.000	0.020	-0.167
-332.231	800.000	0.141	0.419
-331.216	442.106	-0.094	0.203
-330.202	-200.000	-0.003	0.204
-329.187	-90.179	0.175	0.050
-328.172	-73.262	0.337	0.122
-327.158	14.338	0.117	-0.090
-326.143	-50.175	0.179	0.083
-325.129	-83.923	-0.088	0.028
-324.114	-123.398	0.329	-0.052
-323.099	-43.386	0.339	0.169
-322.085	-200.000	-0.022	0.118
-321.070	-72.852	-0.237	0.086
-320.056	282.087	0.114	-0.201
-319.041	109.564	-0.239	-0.282
-318.026	-150.700	-0.367	0.028
-317.012	-72.730	0.198	-0.072
-315.997	-100.785	0.281	-0.068
-314.983	800.000	-0.066	0.277
-313.968	42.028	-0.126	0.113
-312.953	-200.000	0.022	-0.126
-311.939	205.314	0.046	-0.071
-310.924	61.271	0.313	0.307
-309.910	93.096	-0.232	-0.259
-308.895	51.610	0.172	-0.162
-307.880	-21.914	0.401	0.240
-306.866	-121.669	-0.222	0.036
-305.851	-85.940	0.136	0.041
-304.837	800.000	0.101	0.318
-303.822	-60.421	0.228	-0.096
-302.807	4.095	-0.195	0.140
-301.793	-200.000	-0.021	-0.122
-300.778	-200.000	-0.038	0.259
-299.764	-63.556	-0.218	0.088
-298.749	-120.165	0.121	0.020
-297.735	14.262	0.269	0.206
-296.720	153.541	-0.075	0.102
-295.705	124.404	-0.096	0.119
-294.691	800.000	0.044	-0.157
-293.676	415.178	-0.104	-0.219
-292.662	-109.257	-0.282	-0.059
-291.647	108.999	0.177	0.209
-290.632	216.150	-0.169	-0.265
-289.618	233.931	0.114	0.185
-288.603	95.804	0.225	-0.253
-287.589	-200.000	-0.009	-0.140
-286.574	153.649	0.174	0.235
-285.559	378.116	-0.071	-0.143
-284.545	-200.000	-0.011	-0.265
-283.530	-20.339	0.163	-0.099
-282.516	-21.797	-0.161	-0.096
-281.501	391.703	-0.060	0.123
-280.486	-23.006	0.280	-0.166
-279.472	79.117	0.056	0.059
-278.457	41.688	-0.092	-0.082
-277.443	-75.985	-0.199	0.069
-276.428	8.777	-0.056	0.041
-275.413	800.000	-0.063	0.202
-274.399	800.000	0.066	-0.217
-273.384	-97.388	0.013	0.003
-272.370	-200.000	-0.024	-0.243
-271.355	159.543	0.104	0.142
-270.340	50.235	0.093	-0.086
-269.326	83.714	-0.227	-0.244
-268.311	-60.888	0.335	0.140
-267.297	37.522	-0.071	-0.062
-266.282	137.992	0.114	0.148
-265.267	463.804	-0.089	0.196
-264.253	200.448	-0.149	-0.225
-263.238	-4.405	-0.175	0.119
-262.224	-200.000	-0.062	0.296
-261.209	-57.324	0.311	0.134
-260.195	-200.000	0.002	0.181
-259.180	-40.147	0.622	-0.319
-258.165	-47.024	0.046	0.022
-257.151	72.555	0.233	-0.240
-256.136	-170.964	-0.122	0.004
-255.122	-200.000	0.032	0.165
-254.107	-6.216	-0.257	0.173
-253.092	-157.648	0.564	0.033
-252.078	-159.737	-0.398	0.022
-251.063	-200.000	0.372	0.001
-250.049	-200.000	0.024	-0.238
-249.034	-200.000	0.362	0.001
-248.019	-200.000	0.042	-0.313
-247.005	-60.916	-0.357	0.148
-245.990	-18.363	0.154	-0.095
-244.976	-44.250	0.360	0.178
-243.961	-110.874	0.146	-0.029
-242.946	133.976	-0.267	-0.340
-241.932	-200.000	-0.018	0.170
-240.917	-89.315	0.315	0.091
-239.903	25.089	0.131	-0.107
-238.888	38.969	0.036	-0.032
-237.873	800.000	-0.049	0.190
-236.859	-200.000	-0.012	0.128
-235.844	-134.414	0.088	-0.011
-234.830	-200.000	0.016	0.210
-233.815	92.873	-0.178	-0.198
-232.800	-141.936	0.300	-0.029
-231.786	182.571	0.270	0.391
-230.771	-87.920	0.187	0.055
-229.757	-200.000	-0.014	0.085
-228.742	329.823	0.127	-0.239
-227.727	165.346	-0.053	0.073
-226.713	163.026	0.153	-0.211
-225.698	213.842	0.020	-0.031
-224.684	-23.864	0.223	0.131
-223.669	800.000	0.081	0.330
-222.655	311.625	0.096	0.176
-221.640	-200.000	0.015	0.192
-220.625	-103.542	0.111	-0.026
-219.611	139.854	0.137	0.178
-218.596	-124.422	0.153	-0.023
-217.582	-64.237	0.226	0.090
-216.567	520.614	-0.171	-0.394
-215.552	800.000	0.055	-0.238
-214.538	-200.000	0.013	0.081
-213.523	-19.312	0.090	0.055
-212.509	-22.034	-0.238	-0.142
-211.494	82.811	0.174	-0.186
-210.479	-42.498	0.297	-0.149
-209.465	-192.952	-0.260	-0.002
-208.450	-118.768	0.195	-0.034
-207.436	76.494	0.132	-0.137
-206.421	800.000	0.059	0.197
-205.406	646.243	0.041	0.104
-204.392	-135.271	-0.150	-0.018
-203.377	-200.000	-0.011	-0.097
-202.363	-58.146	0.308	-0.132
-201.348	-46.534	-0.125	-0.060
-200.333	-92.327	-0.188	0.052
-199.319	-200.000	0.201	-0.001
-198.304	-21.206	-0.106	0.063
-197.290	-127.700	0.219	-0.031
-196.275	140.962	0.059	-0.076
-195.260	376.129	-0.132	-0.265
-194.246	146.469	-0.071	-0.094
-193.231	645.259	0.032	-0.080
-192.217	800.000	0.101	0.338
-191.202	-200.000	-0.043	-0.415
-190.187	-161.118	-0.112	0.006
-189.173	-86.876	0.150	0.045
-188.158	-150.741	-0.545	0.041
-187.144	800.000	-0.041	-0.145
-186.129	-140.173	0.197	0.020
-185.114	-4.317	0.354	-0.240
-184.100	800.000	-0.021	-0.088
-183.085	249.726	0.270	0.449
-182.071	-31.252	-0.312	-0.172
-181.056	-148.458	0.186	-0.015
-180.042	800.000	0.088	-0.289
-179.027	-86.328	0.083	-0.025
-178.012	-98.816	0.229	0.057
-176.998	32.748	-0.185	-0.157
-175.983	15.041	0.461	0.355
-174.969	-84.961	-0.424	-0.130
-173.954	800.000	0.021	-0.075
-172.939	-200.000	-0.003	-0.056
-171.925	96.075	-0.157	0.176
-170.910	-38.122	0.252	-0.131
-169.896	10.371	0.160	-0.119
-168.881	324.086	0.154	-0.288
-167.866	-18.874	-0.113	0.069
-166.852	-200.000	0.017	-0.539
-165.837	-41.450	0.186	0.094
-164.823	759.006	-0.147	0.389
-163.808	-200.000	-0.049	-0.309
-162.793	-200.000	0.034	-0.333
-161.779	-3.627	-0.059	-0.040
-160.764	-129.671	0.247	-0.033
-159.750	-31.680	0.236	0.130
-158.735	-200.000	-0.006	-0.049
-157.720	-133.831	0.019	-0.002
-156.706	-44.599	0.118	-0.058
-155.691	95.546	0.138	-0.154
-154.677	119.107	0.113	-0.137
-153.662	-86.290	-0.134	0.041
-152.647	93.620	-0.053	-0.059
-151.633	-200.000	-0.004	0.136
-150.618	-14.797	0.086	0.054
-149.604	16.773	0.276	0.214
-148.589	-16.908	-0.244	0.151
-147.574	389.541	-0.086	0.175
-146.560	800.000	-0.074	-0.254
-145.545	800.000	0.031	0.122
-144.531	-200.000	0.006	-0.076
-143.516	-73.204	0.139	0.050
-142.502	236.012	-0.106	-0.171
-141.487	-28.112	-0.129	0.073
-140.472	257.464	0.024	-0.041
-139.458	16.033	0.112	0.086
-138.443	-200.000	0.028	-0.266
-137.429	-168.536	0.216	-0.008
-136.414	-135.085	-0.087	-0.010
-135.399	106.821	0.061	-0.070
-134.385	-200.000	0.066	0.324
-133.370	165.237	-0.099	-0.137
-132.356	69.647	-0.126	-0.127
-131.341	75.444	-0.145	0.150
-130.326	142.999	0.146	-0.190
-129.312	70.861	0.052	0.052
-128.297	-66.059	0.253	0.099
-127.283	800.000	-0.013	0.043
-126.268	116.324	0.114	0.137
-125.253	215.620	-0.151	-0.235
-124.239	169.608	-0.039	-0.054
-123.224	149.857	0.154	0.205
-122.210	350.563	0.029	-0.057
-121.195	-193.996	-0.288	0.002
