DTS Sentinel unit serial number:	SN413079Multiplexer serial number:	ORYXHardware model number:	OX4-SRSoftware version number:	ORYX F/W v4.00 Oryx Data Collector v3.7.2.0data status	okinstallation	princeton_trtdifferential loss correction	single-endedforward channel	channel 1reverse channel	N/Adate	2019/09/15time	18:10:35forward acquisition time	60.00reverse acquisition time	0.00gamma	496.2192k internal	0.2290k external	0.2290temperature offset calibration	0.9934default loss term (dB/km)	0.3790temperature slope calibration	1.0000multiplexer offset coefficient	1.0000multiplexer slope coefficient	1.0000fibre end	0.00T internal ref (°C)	44.56T ext. ref 1 (°C)	6.55T ext. ref 2 (°C)	39.00length (m)	temperature (°C)	Stokes	anti-Stokes-747.200	800.000	0.068	-0.239
-746.185	472.459	-0.014	-0.032
-745.171	73.654	0.152	0.164
-744.156	-88.552	0.093	-0.028
-743.142	-120.613	0.066	-0.012
-742.127	-200.000	-0.002	-0.142
-741.112	31.867	-0.164	-0.145
-740.098	8.708	0.345	0.266
-739.083	315.504	0.101	0.195
-738.069	-200.000	-0.039	0.195
-737.054	-200.000	0.062	0.291
-736.039	42.030	-0.373	-0.346
-735.025	-200.000	0.033	-0.234
-734.010	-131.080	-0.092	0.013
-732.996	226.757	-0.223	-0.370
-731.981	47.630	-0.139	-0.133
-730.966	670.908	-0.049	0.131
-729.952	800.000	0.063	-0.250
-728.937	178.451	-0.109	-0.164
-727.923	-200.000	-0.029	-0.186
-726.908	800.000	0.074	0.294
-725.894	-200.000	-0.052	-0.236
-724.879	-63.626	-0.154	0.065
-723.864	-31.672	0.099	0.057
-722.850	107.018	0.195	-0.237
-721.835	-2.065	0.318	-0.229
-720.821	14.982	-0.229	-0.183
-719.806	-33.358	-0.147	0.083
-718.791	-54.125	-0.285	-0.133
-717.777	-200.000	0.066	-0.480
-716.762	90.560	0.124	-0.142
-715.748	800.000	0.134	-0.443
-714.733	-38.076	-0.275	-0.149
-713.718	276.342	-0.035	0.063
-712.704	775.996	0.113	0.317
-711.689	609.402	0.093	0.236
-710.675	800.000	-0.081	-0.268
-709.660	6.879	0.125	0.095
-708.645	800.000	-0.046	-0.140
-707.631	-81.237	0.104	0.035
-706.616	-184.402	0.102	-0.002
-705.602	-151.384	-0.266	-0.020
-704.587	26.293	0.093	-0.080
-703.572	-83.109	-0.112	-0.037
-702.558	3.458	-0.394	0.293
-701.543	-200.000	-0.014	0.208
-700.529	102.188	0.333	0.398
-699.514	-3.736	-0.121	-0.086
-698.499	617.752	0.036	0.094
-697.485	-200.000	-0.038	-0.232
-696.470	-66.322	-0.070	0.029
-695.456	24.340	-0.147	-0.125
-694.441	13.254	-0.111	0.088
-693.426	-75.174	-0.103	-0.038
-692.412	-200.000	0.025	-0.117
-691.397	-199.356	-0.257	-0.001
-690.383	800.000	0.086	-0.249
-689.368	408.855	-0.174	0.376
-688.354	-186.221	0.285	-0.004
-687.339	-100.465	-0.363	-0.092
-686.324	656.738	-0.107	0.281
-685.310	800.000	0.010	0.039
-684.295	800.000	0.101	-0.321
-683.281	-50.355	-0.373	0.180
-682.266	-128.420	-0.125	0.018
-681.251	52.321	-0.284	-0.277
-680.237	-159.370	-0.300	0.017
-679.222	-80.524	-0.235	0.080
-678.208	800.000	-0.036	0.120
-677.193	64.743	0.310	-0.319
-676.178	4.985	0.140	-0.105
-675.164	105.326	0.171	-0.207
-674.149	-43.474	0.111	0.057
-673.135	-4.470	-0.217	0.153
-672.120	539.609	-0.121	-0.293
-671.105	176.688	-0.129	-0.191
-670.091	255.395	-0.258	-0.451
-669.076	-200.000	0.003	0.193
-668.062	65.651	-0.173	-0.179
-667.047	-168.619	0.117	0.005
-666.032	122.136	-0.193	-0.246
-665.018	-137.905	0.275	0.031
-664.003	-44.371	-0.375	-0.192
-662.989	382.865	-0.038	-0.080
-661.974	60.453	0.288	0.292
-660.959	-38.990	-0.207	0.111
-659.945	8.658	-0.243	0.187
-658.930	800.000	-0.118	0.421
-657.916	-41.891	-0.053	0.028
-656.901	723.237	0.024	-0.066
-655.886	-130.370	0.187	0.026
-654.872	-97.313	0.048	0.013
-653.857	-181.928	0.217	0.004
-652.843	-94.891	-0.125	-0.034
-651.828	-156.145	-0.148	0.010
-650.814	-120.004	-0.372	0.065
-649.799	-57.803	-0.262	-0.117
-648.784	-200.000	-0.019	-0.285
-647.770	-113.379	0.178	-0.036
-646.755	82.044	-0.164	0.182
-645.741	-96.036	0.030	-0.008
-644.726	800.000	0.043	0.168
-643.711	800.000	0.108	0.344
-642.697	-200.000	0.008	-0.059
-641.682	187.590	0.032	0.049
-640.668	-144.596	-0.316	0.030
-639.653	52.330	0.220	0.214
-638.638	-69.026	-0.110	0.043
-637.624	429.625	0.036	0.079
-636.609	-110.985	0.298	0.063
-635.595	800.000	0.110	-0.349
-634.580	115.995	0.165	-0.207
-633.565	-200.000	-0.006	0.115
-632.551	-66.047	-0.312	0.127
-631.536	-89.515	0.271	-0.081
-630.522	800.000	0.040	-0.143
-629.507	-166.087	0.114	0.005
-628.492	-74.394	-0.213	0.078
-627.478	-200.000	0.018	-0.346
-626.463	-120.803	0.329	-0.057
-625.449	-38.106	-0.233	-0.126
-624.434	-140.746	-0.248	-0.026
-623.419	414.382	0.028	-0.061
-622.405	245.838	0.181	-0.311
-621.390	104.965	-0.078	0.094
-620.376	-2.166	-0.332	-0.238
-619.361	87.656	-0.191	-0.216
-618.346	91.813	-0.177	0.203
-617.332	800.000	-0.098	-0.318
-616.317	-84.613	-0.174	0.056
-615.303	-89.763	0.135	-0.040
-614.288	-200.000	-0.069	0.360
-613.273	-200.000	-0.015	0.235
-612.259	-83.911	0.148	-0.048
-611.244	-126.843	0.233	-0.035
-610.230	-87.291	-0.270	-0.084
-609.215	-105.882	0.110	-0.025
-608.201	800.000	0.100	-0.378
-607.186	77.932	-0.095	-0.103
-606.171	74.423	-0.084	0.090
-605.157	259.545	0.198	-0.348
-604.142	-24.501	0.024	-0.015
-603.128	146.180	0.040	0.055
-602.113	114.282	-0.137	0.169
-601.098	-99.051	0.104	0.027
-600.084	-63.955	0.296	0.123
-599.069	-82.319	-0.402	-0.133
-598.055	-200.000	-0.029	-0.137
-597.040	1.494	-0.055	0.040
-596.025	-200.000	-0.023	-0.199
-595.011	-200.000	-0.031	0.309
-593.996	379.889	0.129	0.270
-592.982	59.091	0.236	0.236
-591.967	800.000	-0.048	-0.152
-590.952	51.711	-0.073	-0.071
-589.938	800.000	-0.034	0.125
-588.923	10.053	0.297	0.230
-587.909	-109.429	-0.158	0.034
-586.894	-57.265	-0.298	-0.133
-585.879	427.289	0.037	-0.081
-584.865	-67.987	-0.186	-0.074
-583.850	354.970	-0.071	-0.143
-582.836	-38.833	0.317	0.170
-581.821	53.453	0.225	0.220
-580.806	800.000	-0.143	0.473
-579.792	82.173	-0.215	0.237
-578.777	1.931	-0.132	0.097
-577.763	64.359	0.198	-0.203
-576.748	-200.000	0.039	-0.189
-575.733	-199.829	0.154	-0.001
-574.719	-200.000	0.000	-0.067
-573.704	-200.000	-0.019	0.229
-572.690	-200.000	0.018	0.567
-571.675	20.742	-0.233	0.192
-570.661	-200.000	-0.033	-0.255
-569.646	421.670	0.087	-0.189
-568.631	-116.944	-0.275	0.051
-567.617	601.400	-0.043	-0.108
-566.602	-200.000	0.000	0.106
-565.588	-134.824	0.208	0.026
-564.573	690.706	-0.014	-0.037
-563.558	-152.126	-0.093	-0.007
-562.544	416.998	0.064	0.140
-561.529	-200.000	-0.011	-0.370
-560.515	-176.811	-0.049	0.001
-559.500	800.000	-0.076	-0.213
-558.485	-88.763	-0.126	-0.038
-557.471	581.156	-0.127	-0.318
-556.456	326.346	-0.053	0.103
-555.442	191.766	0.010	-0.016
-554.427	-96.171	0.307	-0.083
-553.412	215.948	-0.009	0.015
-552.398	-200.000	-0.024	0.196
-551.383	-200.000	0.032	0.258
-550.369	616.561	0.020	-0.050
-549.354	-139.652	-0.241	0.026
-548.339	181.554	0.103	-0.154
-547.325	2.353	-0.142	-0.105
-546.310	198.338	-0.139	0.215
-545.296	-120.208	-0.094	-0.016
-544.281	-55.700	0.319	-0.145
-543.266	353.474	0.078	0.158
-542.252	140.702	-0.117	-0.158
-541.237	-200.000	0.002	-0.079
-540.223	-72.179	-0.221	-0.083
-539.208	800.000	-0.070	0.213
-538.193	260.295	-0.260	0.457
-537.179	501.391	0.084	0.196
-536.164	-45.563	0.046	0.023
-535.150	46.391	0.087	0.082
-534.135	-5.395	-0.107	-0.075
-533.121	-71.969	0.142	0.054
-532.106	-122.806	0.293	0.048
-531.091	-81.451	0.187	0.063
-530.077	800.000	-0.013	0.052
-529.062	115.739	-0.097	-0.121
-528.048	-51.136	-0.019	-0.009
-527.033	36.403	-0.236	0.212
-526.018	97.700	0.093	0.109
-525.004	-47.964	0.244	0.120
-523.989	17.511	-0.130	-0.105
-522.975	98.615	-0.231	0.271
-521.960	-34.853	0.069	0.038
-520.945	-200.000	0.008	-0.109
-519.931	-51.885	0.156	-0.074
-518.916	62.046	0.079	-0.080
-517.902	36.465	0.081	0.072
-516.887	287.630	0.103	-0.188
-515.872	-14.784	-0.025	-0.016
-514.858	-143.906	-0.038	-0.004
-513.843	135.889	-0.057	-0.076
-512.829	70.167	0.129	0.135
-511.814	405.457	-0.170	0.363
-510.799	-200.000	-0.042	-0.289
-509.785	719.455	0.033	-0.089
-508.770	-69.472	-0.229	-0.089
-507.756	9.506	0.356	0.274
-506.741	-136.753	-0.137	0.016
-505.726	6.980	0.190	-0.144
-504.712	-200.000	-0.003	-0.058
-503.697	800.000	-0.027	-0.087
-502.683	217.927	0.017	0.028
-501.668	258.771	0.056	0.098
-500.653	560.218	0.023	0.057
-499.639	141.277	-0.107	-0.144
-498.624	65.809	-0.177	-0.182
-497.610	58.366	0.108	0.108
-496.595	3.611	-0.122	-0.090
-495.581	-128.397	0.334	0.048
-494.566	272.091	-0.128	-0.228
-493.551	-50.884	-0.294	0.140
-492.537	99.246	0.144	-0.169
-491.522	217.724	-0.172	-0.278
-490.508	-200.000	0.012	0.408
-489.493	-110.108	-0.188	0.040
-488.478	195.107	0.159	0.245
-487.464	-200.000	-0.044	0.424
-486.449	318.721	0.112	-0.215
-485.435	-35.667	0.281	-0.154
-484.420	-150.931	-0.409	-0.031
-483.405	-98.322	0.182	-0.047
-482.391	21.022	0.152	-0.125
-481.376	157.725	0.056	0.079
-480.362	-164.463	0.085	-0.004
-479.347	-200.000	-0.048	0.349
-478.332	393.255	0.042	-0.088
-477.318	-42.806	-0.175	-0.090
-476.303	-200.000	0.006	-0.032
-475.289	-50.971	-0.093	0.044
-474.274	-105.305	0.318	0.074
-473.259	134.842	-0.112	-0.147
-472.245	30.034	-0.245	-0.212
-471.230	115.247	-0.087	0.108
-470.216	126.981	-0.145	-0.186
-469.201	800.000	-0.035	0.156
-468.186	24.939	0.144	0.121
-467.172	131.619	-0.094	0.122
-466.157	-160.175	-0.392	-0.022
-465.143	51.627	-0.165	0.159
-464.128	-200.000	-0.009	0.041
-463.113	264.928	-0.104	0.183
-462.099	-187.258	-0.245	0.003
-461.084	86.337	-0.208	0.232
-460.070	-200.000	0.104	0.478
-459.055	-200.000	0.070	-0.361
-458.040	499.365	-0.174	-0.406
-457.026	367.793	-0.113	-0.230
-456.011	268.831	0.103	-0.183
-454.997	-185.080	0.192	-0.003
-453.982	254.981	0.233	0.404
-452.968	-118.392	0.169	-0.030
-451.953	-138.885	0.458	-0.050
-450.938	-51.677	-0.211	-0.099
-449.924	271.111	0.191	0.340
-448.909	36.402	0.096	-0.086
-447.895	203.461	-0.132	0.206
-446.880	19.026	0.124	-0.101
-445.865	800.000	0.114	0.364
-444.851	-192.792	0.329	0.003
-443.836	-18.837	0.048	-0.030
-442.822	312.636	0.097	0.185
-441.807	-34.804	0.155	-0.086
-440.792	128.713	-0.104	-0.135
-439.778	-30.684	0.065	0.037
-438.763	103.794	-0.026	-0.031
-437.749	73.735	-0.064	0.068
-436.734	-25.819	-0.229	0.137
-435.719	64.245	-0.078	-0.080
-434.705	386.524	0.042	-0.088
-433.690	-76.128	0.159	0.057
-432.676	136.521	-0.116	-0.154
-431.661	179.415	0.145	-0.215
-430.646	-200.000	-0.003	-0.247
-429.632	73.182	0.099	0.105
-428.617	-116.497	0.499	0.093
-427.603	-200.000	-0.024	0.172
-426.588	-124.601	0.114	0.018
-425.573	91.397	-0.168	0.191
-424.559	-14.402	-0.018	-0.012
-423.544	800.000	0.063	-0.188
-422.530	-200.000	-0.017	-0.120
-421.515	-56.534	0.101	0.045
-420.500	-94.958	-0.194	-0.053
-419.486	-96.293	-0.140	-0.038
-418.471	-200.000	-0.026	-0.156
-417.457	-96.832	-0.123	-0.033
-416.442	115.388	0.027	-0.034
-415.428	120.808	0.126	-0.158
-414.413	65.845	-0.155	0.159
-413.398	-41.024	-0.077	-0.040
-412.384	11.857	0.189	0.146
-411.369	-200.000	0.000	-0.178
-410.355	74.211	0.128	-0.136
-409.340	-12.749	-0.178	0.117
-408.325	-86.080	0.094	-0.029
-407.311	800.000	-0.111	-0.345
-406.296	-67.379	-0.201	-0.080
-405.282	-32.492	0.183	0.103
-404.267	-96.151	0.100	0.027
-403.252	198.507	-0.084	0.131
-402.238	-200.000	-0.010	0.145
-401.223	-171.908	-0.017	0.001
-400.209	-200.000	0.027	-0.610
-399.194	-0.545	0.294	0.211
-398.179	-114.854	-0.147	-0.028
-397.165	-200.000	-0.018	0.209
-396.150	800.000	-0.075	0.314
-395.136	-112.761	-0.138	-0.028
-394.121	-73.582	-0.087	-0.032
-393.106	-75.668	-0.331	0.119
-392.092	800.000	0.070	-0.236
-391.077	-57.077	-0.194	0.087
-390.063	200.577	0.100	0.156
-389.048	-133.670	-0.221	-0.028
-388.033	88.187	0.139	-0.156
-387.019	75.836	-0.088	0.094
-386.004	-55.843	-0.065	-0.029
-384.990	-144.631	0.066	-0.006
-383.975	92.245	-0.128	-0.146
-382.960	433.716	-0.193	-0.423
-381.946	-200.000	-0.012	-0.119
-380.931	-140.003	0.157	0.017
-379.917	-176.931	0.417	-0.011
-378.902	-1.258	0.197	-0.141
-377.888	-200.000	-0.062	0.285
-376.873	31.646	0.121	-0.105
-375.858	-200.000	-0.050	-0.286
-374.844	20.408	0.265	0.217
-373.829	-123.275	-0.304	0.049
-372.815	2.959	0.058	-0.042
-371.800	-124.159	-0.379	-0.060
-370.785	800.000	-0.068	-0.285
-369.771	800.000	-0.010	0.037
-368.756	-38.274	0.118	0.063
-367.742	105.471	0.130	0.156
-366.727	166.528	-0.084	-0.120
-365.712	50.964	-0.297	-0.284
-364.698	-200.000	-0.003	0.126
-363.683	232.465	-0.054	0.090
-362.669	-47.021	0.093	-0.046
-361.654	-20.043	0.087	0.054
-360.639	-200.000	0.052	-0.256
-359.625	348.227	-0.124	-0.248
-358.610	128.203	-0.082	-0.105
-357.596	-29.798	-0.155	-0.089
-356.581	800.000	0.048	0.140
-355.566	177.990	-0.034	-0.051
-354.552	525.008	-0.182	0.432
-353.537	-19.431	-0.262	0.164
-352.523	205.120	0.188	-0.295
-351.508	-200.000	-0.004	0.057
-350.493	-114.887	-0.117	-0.022
-349.479	-200.000	0.010	0.064
-348.464	552.530	-0.058	-0.141
-347.450	-200.000	-0.001	-0.061
-346.435	-90.743	-0.179	0.052
-345.420	-144.933	0.181	0.017
-344.406	-115.930	-0.266	-0.050
-343.391	-36.106	0.310	-0.169
-342.377	139.608	-0.059	0.078
-341.362	57.855	-0.107	-0.106
-340.348	45.774	0.046	0.043
-339.333	-1.111	-0.407	-0.290
-338.318	111.835	0.204	-0.248
-337.304	241.483	0.187	-0.316
-336.289	-186.867	-0.204	-0.003
-335.275	300.273	0.080	0.148
-334.260	29.307	-0.209	0.179
-333.245	229.418	0.157	0.259
-332.231	-10.044	-0.079	0.053
-331.216	199.551	0.140	-0.217
-330.202	-59.354	0.145	0.063
-329.187	-138.229	0.185	-0.021
-328.172	-90.231	0.121	-0.036
-327.158	26.552	0.189	-0.159
-326.143	-96.522	0.393	0.105
-325.129	212.992	0.158	0.251
-324.114	-41.944	-0.215	-0.111
-323.099	33.070	0.209	-0.183
-322.085	-146.349	0.349	0.031
-321.070	180.920	0.136	0.201
-320.056	-34.779	0.166	0.092
-319.041	-171.466	-0.104	0.003
-318.026	-63.445	-0.289	-0.120
-317.012	382.748	-0.164	-0.340
-315.997	227.618	0.056	-0.092
-314.983	-200.000	0.062	-0.292
-313.968	-139.972	-0.291	0.031
-312.953	-200.000	0.009	-0.221
-311.939	298.076	-0.202	-0.374
-310.924	58.460	-0.110	0.109
-309.910	-53.120	0.406	-0.188
-308.895	-29.375	0.108	0.062
-307.880	-10.761	0.160	0.107
-306.866	-55.238	0.227	-0.103
-305.851	-145.495	-0.176	-0.016
-304.837	-115.347	-0.117	0.022
-303.822	332.269	-0.122	0.237
-302.807	131.612	0.072	-0.094
-301.793	-125.595	-0.256	-0.039
-300.778	-200.000	0.038	-0.224
-299.764	20.103	0.033	-0.027
-298.749	-200.000	0.005	0.091
-297.735	206.230	0.154	-0.241
-296.720	-64.149	-0.175	-0.072
-295.705	-46.313	-0.111	-0.055
-294.691	58.954	-0.066	-0.066
-293.676	-77.498	-0.186	0.065
-292.662	-86.204	0.267	0.083
-291.647	-124.337	-0.097	0.015
-290.632	-93.892	0.033	0.009
-289.618	-46.482	-0.221	0.109
-288.603	-200.000	-0.071	0.442
-287.589	-85.251	0.177	0.056
-286.574	-179.548	-0.206	-0.005
-285.559	6.999	0.470	-0.353
-284.545	-21.600	0.267	0.164
-283.530	-80.348	-0.168	-0.056
-282.516	800.000	0.014	0.059
-281.501	-142.841	0.206	0.020
-280.486	-20.022	-0.174	-0.108
-279.472	800.000	0.024	0.100
-278.457	-89.720	0.203	-0.060
-277.443	-200.000	-0.005	0.128
-276.428	-40.230	0.340	0.178
-275.413	50.291	-0.141	-0.134
-274.399	-200.000	-0.053	0.488
-273.384	587.432	0.056	0.138
-272.370	-200.000	0.033	0.267
-271.355	-63.407	-0.213	-0.088
-270.340	52.746	0.526	-0.506
-269.326	-43.790	0.262	0.133
-268.311	-88.236	0.080	-0.024
-267.297	-200.000	-0.109	0.496
-266.282	-200.000	0.038	0.293
-265.267	302.569	-0.096	0.178
-264.253	-68.497	-0.109	0.042
-263.238	-200.000	-0.009	-0.060
-262.224	-72.083	-0.101	-0.038
-261.209	-83.448	-0.155	-0.050
-260.195	-200.000	-0.036	-0.379
-259.180	-101.156	0.217	-0.053
-258.165	-200.000	-0.103	0.488
-257.151	800.000	0.054	0.161
-256.136	-200.000	-0.040	-0.350
-255.122	-130.116	-0.058	0.008
-254.107	142.834	0.126	0.168
-253.092	266.759	0.134	0.236
-252.078	31.469	-0.227	0.196
-251.063	14.245	-0.185	0.145
-250.049	60.833	-0.325	-0.324
-249.034	-35.207	0.110	0.060
-248.019	82.755	0.096	-0.105
-247.005	-200.000	0.009	0.104
-245.990	-200.000	-0.004	0.060
-244.976	-62.588	0.235	-0.098
-243.961	-54.722	-0.250	0.114
-242.946	-200.000	0.017	-0.080
-241.932	800.000	0.040	0.170
-240.917	442.638	0.090	0.199
-239.903	-109.027	-0.133	0.029
-238.888	-0.734	-0.036	0.026
-237.873	-174.033	-0.173	0.005
-236.859	-200.000	-0.088	0.407
-235.844	-164.958	-0.243	0.011
-234.830	-200.000	0.063	-0.354
-233.815	104.176	0.131	-0.155
-232.800	800.000	-0.055	-0.218
-231.786	-21.211	0.130	-0.080
-230.771	34.623	0.262	-0.230
-229.757	800.000	-0.026	-0.087
-228.742	667.316	0.060	0.155
-227.727	800.000	-0.030	-0.104
-226.713	800.000	0.083	-0.286
-225.698	800.000	-0.035	0.113
-224.684	148.480	0.192	-0.260
-223.669	-73.863	0.191	0.070
-222.655	4.968	-0.257	-0.189
-221.640	-119.519	0.150	-0.026
-220.625	800.000	-0.025	-0.107
-219.611	-34.250	-0.405	0.223
-218.596	-166.757	-0.223	-0.009
-217.582	83.219	0.067	-0.073
-216.567	100.938	0.174	-0.203
-215.552	47.882	0.074	-0.070
-214.538	201.531	0.023	0.036
-213.523	-200.000	-0.002	0.090
-212.509	-84.668	0.185	-0.058
-211.494	-120.719	-0.287	0.049
-210.479	-123.020	-0.333	-0.054
-209.465	188.860	-0.159	-0.238
-208.450	615.964	-0.061	-0.155
-207.436	139.506	0.149	-0.197
-206.421	82.411	0.242	0.264
-205.406	-77.638	-0.054	0.019
-204.392	-14.897	0.109	0.070
-203.377	-200.000	0.004	0.089
-202.363	800.000	0.041	0.129
-201.348	323.577	-0.200	-0.382
-200.333	-200.000	-0.007	-0.061
-199.319	-200.000	-0.025	0.134
-198.304	85.172	-0.079	-0.086
-197.290	-78.472	-0.179	-0.061
-196.275	349.507	0.061	-0.120
-195.260	33.881	-0.290	0.253
-194.246	-43.875	0.191	0.097
-193.231	-169.816	0.355	0.013
-192.217	-141.997	0.234	-0.023
-191.202	70.670	-0.204	0.211
-190.187	44.714	0.190	0.176
-189.173	9.838	0.370	-0.281
-188.158	133.278	0.056	-0.073
-187.144	-200.000	-0.031	0.232
-186.129	-167.916	-0.295	-0.012
-185.114	-147.227	-0.270	0.023
-184.100	135.358	-0.206	-0.268
-183.085	-33.766	0.103	0.057
-182.071	-200.000	0.035	0.163
-181.056	-143.351	0.161	0.015
-180.042	-137.305	0.314	0.036
-179.027	128.959	-0.115	0.147
-178.012	-162.340	0.260	-0.013
-176.998	189.345	0.058	-0.086
-175.983	-107.885	-0.517	-0.113
-174.969	234.945	0.112	0.186
-173.954	-89.020	-0.194	0.058
-172.939	-58.944	-0.312	-0.135
-171.925	-37.065	-0.057	0.031
-170.910	515.814	-0.073	-0.171
-169.896	476.762	0.108	-0.245
-168.881	800.000	-0.145	-0.400
-167.866	393.312	0.089	-0.186
-166.852	498.811	-0.054	0.125
-165.837	65.481	0.442	0.448
-164.823	-113.173	0.158	-0.031
-163.808	423.933	-0.107	0.231
-162.793	-62.876	0.186	0.077
-161.779	-119.622	0.296	-0.051
-160.764	212.414	-0.185	0.293
-159.750	-125.411	-0.131	-0.020
-158.735	-89.053	-0.300	-0.089
-157.720	29.011	-0.130	0.111
-156.706	-73.973	0.094	-0.034
-155.691	35.183	0.314	0.275
-154.677	-200.000	-0.049	0.281
-153.662	612.454	0.181	0.454
-152.647	-57.318	0.400	0.176
-151.633	587.639	-0.077	-0.190
-150.618	-200.000	0.039	0.292
-149.604	-144.149	-0.509	-0.048
-148.589	-144.363	0.304	-0.028
-147.574	189.108	-0.129	0.193
-146.560	146.363	-0.064	-0.086
-145.545	-200.000	-0.025	0.341
-144.531	800.000	-0.018	0.060
-143.516	-96.336	-0.320	-0.085
-142.502	201.349	-0.056	0.086
-141.487	-82.872	0.114	-0.037
-140.472	-63.849	0.287	-0.117
-139.458	-58.500	-0.275	0.119
-138.443	-129.500	0.226	0.031
-137.429	-113.570	-0.119	-0.023
-136.414	134.040	-0.154	-0.200
-135.399	-47.860	-0.079	-0.038
-134.385	131.621	0.165	0.212
-133.370	-73.492	-0.213	0.078
-132.356	47.776	-0.104	0.098
-131.341	800.000	-0.072	0.287
-130.326	-101.230	-0.276	0.068
-129.312	-200.000	-0.038	0.464
-128.297	-200.000	-0.007	0.103
-127.283	-92.387	0.280	0.079
-126.268	-189.971	0.086	-0.001
-125.253	-200.000	-0.027	0.155
-124.239	24.249	-0.080	0.066
-123.224	800.000	-0.063	0.239
-122.210	335.411	-0.083	-0.162
