DTS Sentinel unit serial number:	SN413079Multiplexer serial number:	ORYXHardware model number:	OX4-SRSoftware version number:	ORYX F/W v4.00 Oryx Data Collector v3.7.2.0data status	okinstallation	princeton_trtdifferential loss correction	single-endedforward channel	channel 1reverse channel	N/Adate	2019/09/12time	10:40:11forward acquisition time	60.00reverse acquisition time	0.00gamma	496.2192k internal	0.2296k external	0.2296temperature offset calibration	1.0045default loss term (dB/km)	0.3790temperature slope calibration	1.0000multiplexer offset coefficient	1.0000multiplexer slope coefficient	1.0000fibre end	0.00T internal ref (°C)	37.48T ext. ref 1 (°C)	1.89T ext. ref 2 (°C)	35.86length (m)	temperature (°C)	Stokes	anti-Stokes-747.200	800.000	0.014	0.051
-746.185	740.908	-0.065	0.180
-745.171	-80.876	0.400	0.136
-744.156	197.214	0.172	0.268
-743.142	-17.724	0.190	0.122
-742.127	-117.852	-0.019	-0.003
-741.112	-200.000	0.001	-0.221
-740.098	-39.304	-0.226	-0.121
-739.083	117.438	0.101	-0.127
-738.069	35.587	-0.052	0.046
-737.054	-200.000	-0.008	0.061
-736.039	800.000	-0.039	-0.155
-735.025	132.640	0.126	0.165
-734.010	-32.083	-0.115	0.066
-732.996	29.622	-0.460	-0.400
-731.981	81.596	0.147	0.162
-730.966	138.720	-0.242	0.324
-729.952	117.241	-0.157	-0.197
-728.937	-131.931	-0.194	-0.026
-727.923	227.753	-0.155	0.257
-726.908	16.252	-0.268	-0.216
-725.894	-49.964	0.237	-0.115
-724.879	-150.094	-0.203	0.016
-723.864	40.794	0.209	-0.192
-722.850	227.131	0.019	0.031
-721.835	-200.000	-0.067	-0.369
-720.821	161.268	0.147	0.211
-719.806	116.388	0.122	-0.152
-718.791	22.699	-0.094	0.079
-717.777	187.360	0.264	0.402
-716.762	800.000	-0.027	-0.120
-715.748	-0.590	-0.035	0.026
-714.733	-200.000	-0.010	-0.161
-713.718	-56.552	-0.071	-0.032
-712.704	609.183	0.126	0.322
-711.689	800.000	0.017	-0.073
-710.675	800.000	0.103	0.290
-709.660	-151.028	0.216	0.017
-708.645	50.605	-0.349	0.336
-707.631	594.681	0.240	-0.607
-706.616	-160.882	0.034	0.002
-705.602	55.685	0.107	0.106
-704.587	-200.000	0.022	-0.293
-703.572	-12.279	0.042	0.028
-702.558	128.540	0.094	-0.122
-701.543	800.000	0.083	-0.293
-700.529	800.000	0.055	-0.196
-699.514	277.334	-0.054	0.098
-698.499	-39.768	-0.037	0.019
-697.485	800.000	-0.019	-0.081
-696.470	-200.000	0.013	0.151
-695.456	736.399	0.136	0.371
-694.441	-8.459	-0.365	0.250
-693.426	132.927	-0.053	-0.070
-692.412	307.759	-0.188	-0.358
-691.397	-119.343	-0.322	0.057
-690.383	800.000	-0.119	-0.343
-689.368	237.780	-0.162	-0.273
-688.354	408.825	-0.033	-0.072
-687.339	0.067	0.158	0.115
-686.324	-123.893	-0.477	0.077
-685.310	26.128	0.130	0.111
-684.295	-200.000	-0.016	-0.136
-683.281	14.534	0.336	0.267
-682.266	-65.728	-0.228	-0.093
-681.251	139.160	0.069	0.093
-680.237	-200.000	-0.031	0.298
-679.222	800.000	0.059	-0.252
-678.208	84.038	-0.055	0.062
-677.193	-116.129	-0.216	0.041
-676.178	183.389	-0.091	-0.136
-675.164	-98.057	-0.155	0.041
-674.149	184.268	0.180	0.271
-673.135	-200.000	0.017	0.382
-672.120	-2.996	0.078	-0.056
-671.105	94.552	-0.079	0.092
-670.091	11.589	-0.286	-0.223
-669.076	60.801	0.187	-0.189
-668.062	564.756	-0.093	-0.230
-667.047	279.898	-0.127	0.231
-666.032	430.022	-0.216	-0.476
-665.018	91.342	0.075	0.086
-664.003	139.486	0.091	-0.122
-662.989	-100.073	-0.205	0.052
-661.974	-200.000	0.111	-0.000
-660.959	-136.927	-0.362	-0.042
-659.945	800.000	-0.057	-0.195
-658.930	44.927	-0.290	-0.272
-657.916	-200.000	-0.108	-0.492
-656.901	-26.795	-0.201	0.120
-655.886	-37.355	0.260	0.141
-654.872	-200.000	-0.005	-0.231
-653.857	29.160	-0.198	-0.171
-652.843	248.160	0.089	-0.154
-651.828	800.000	-0.049	-0.206
-650.814	5.985	0.062	-0.047
-649.799	-58.270	-0.312	0.138
-648.784	90.130	-0.300	-0.342
-647.770	141.269	0.124	0.167
-646.755	-200.000	-0.035	-0.408
-645.741	-126.880	-0.043	0.006
-644.726	-200.000	0.014	-0.208
-643.711	212.265	0.231	0.370
-642.697	-185.811	-0.420	0.006
-641.682	800.000	-0.007	0.029
-640.668	282.494	-0.253	0.461
-639.653	-120.703	0.046	-0.008
-638.638	-66.175	-0.139	-0.056
-637.624	-148.646	0.061	-0.005
-636.609	335.675	0.097	0.192
-635.595	800.000	-0.055	-0.185
-634.580	581.029	0.105	-0.262
-633.565	-49.026	-0.188	0.091
-632.551	217.638	-0.140	0.228
-631.536	28.024	-0.106	0.091
-630.522	8.150	-0.202	-0.154
-629.507	-127.296	0.040	0.006
-628.492	194.540	0.212	-0.327
-627.478	378.877	-0.249	-0.518
-626.463	-97.922	0.197	0.052
-625.449	152.180	-0.138	0.191
-624.434	-65.971	0.219	-0.089
-623.419	153.210	-0.161	0.224
-622.405	-65.380	0.218	-0.089
-621.390	-32.860	0.060	0.034
-620.376	-200.000	-0.006	0.214
-619.361	-8.806	-0.296	0.202
-618.346	-30.329	0.163	0.094
-617.332	235.683	0.052	-0.087
-616.317	-92.490	0.172	0.049
-615.303	103.168	-0.163	-0.194
-614.288	61.205	-0.351	-0.354
-613.273	291.292	0.107	0.198
-612.259	-52.245	-0.036	0.017
-611.244	800.000	-0.075	-0.315
-610.230	103.841	0.154	-0.183
-609.215	-6.747	-0.158	-0.109
-608.201	800.000	-0.076	-0.243
-607.186	752.028	0.040	0.111
-606.171	-200.000	0.003	0.087
-605.157	-200.000	0.007	0.383
-604.142	-78.965	-0.064	0.022
-603.128	-98.315	-0.109	-0.028
-602.113	-200.000	-0.074	-0.422
-601.098	-75.399	0.240	-0.087
-600.084	272.489	-0.054	0.096
-599.069	-38.119	-0.090	-0.049
-598.055	-112.500	-0.186	-0.038
-597.040	28.607	0.277	-0.239
-596.025	-167.624	0.158	-0.006
-595.011	499.485	-0.087	0.204
-593.996	51.587	0.122	0.118
-592.982	800.000	-0.075	-0.270
-591.967	469.046	0.053	0.121
-590.952	680.689	-0.021	0.057
-589.938	-79.439	-0.093	0.032
-588.923	800.000	-0.064	0.197
-587.909	-46.502	0.270	-0.134
-586.894	-100.234	0.083	-0.021
-585.879	800.000	-0.017	0.069
-584.865	-126.324	0.224	0.034
-583.850	-116.425	0.219	0.041
-582.836	50.341	-0.317	-0.304
-581.821	47.362	0.305	-0.289
-580.806	10.131	-0.240	-0.186
-579.792	-122.832	0.328	-0.054
-578.777	-200.000	-0.015	-0.095
-577.763	800.000	-0.049	0.181
-576.748	-22.875	-0.118	0.073
-575.733	126.409	-0.134	-0.172
-574.719	-6.840	-0.106	-0.073
-573.704	-200.000	-0.054	-0.248
-572.690	1.617	-0.213	-0.155
-571.675	-41.515	0.127	0.066
-570.661	-152.220	0.205	0.015
-569.646	-126.852	0.142	-0.021
-568.631	523.973	-0.024	-0.057
-567.617	321.421	0.179	0.346
-566.602	-72.968	-0.072	0.027
-565.588	-20.548	0.228	0.142
-564.573	-32.939	0.343	-0.193
-563.558	-200.000	0.069	-0.388
-562.544	-27.478	0.136	-0.080
-561.529	102.071	0.221	-0.262
-560.515	800.000	-0.071	0.258
-559.500	405.866	-0.140	0.300
-558.485	800.000	-0.117	-0.396
-557.471	114.431	-0.100	0.123
-556.456	308.710	0.067	-0.128
-555.442	-2.277	0.252	-0.180
-554.427	31.971	0.081	0.071
-553.412	51.685	0.068	0.066
-552.398	730.141	0.069	-0.187
-551.383	148.917	-0.207	-0.284
-550.369	-200.000	-0.007	-0.120
-549.354	800.000	-0.063	-0.200
-548.339	720.043	-0.047	-0.126
-547.325	-200.000	0.065	0.290
-546.310	-100.911	0.219	0.055
-545.296	29.894	-0.030	0.026
-544.281	-200.000	-0.005	0.172
-543.266	-200.000	-0.031	0.276
-542.252	-200.000	0.010	-0.185
-541.237	-33.817	0.035	-0.020
-540.223	13.623	-0.066	-0.052
-539.208	391.867	0.114	-0.241
-538.193	800.000	-0.040	-0.154
-537.179	-163.840	-0.160	-0.008
-536.164	-21.031	-0.239	0.149
-535.150	606.555	-0.076	0.192
-534.135	-9.197	0.215	-0.146
-533.121	4.166	-0.112	0.083
-532.106	2.495	-0.140	-0.103
-531.091	105.557	-0.178	0.213
-530.077	-200.000	-0.010	-0.133
-529.062	-200.000	0.029	0.204
-528.048	-80.902	-0.305	0.103
-527.033	145.297	-0.116	0.158
-526.018	48.014	-0.276	0.262
-525.004	75.918	-0.067	0.072
-523.989	498.764	0.034	0.080
-522.975	198.134	0.047	-0.072
-521.960	508.574	0.135	0.317
-520.945	800.000	-0.083	0.296
-519.931	800.000	-0.066	-0.201
-518.916	-197.368	0.188	-0.001
-517.902	26.527	0.105	-0.089
-516.887	-84.142	-0.161	0.052
-515.872	-200.000	0.042	0.269
-514.858	-81.638	0.208	0.069
-513.843	800.000	0.061	-0.218
-512.829	-6.874	0.022	-0.015
-511.814	-30.310	-0.194	0.111
-510.799	557.165	-0.171	0.418
-509.785	117.978	-0.139	-0.173
-508.770	-45.243	-0.114	-0.057
-507.756	345.805	-0.088	0.174
-506.741	-94.814	-0.167	0.046
-505.726	378.740	0.029	-0.060
-504.712	25.535	0.071	-0.060
-503.697	-135.402	0.179	-0.022
-502.683	-200.000	-0.013	0.295
-501.668	-44.457	0.052	0.026
-500.653	575.585	-0.046	-0.115
-499.639	9.809	0.099	-0.076
-498.624	-118.756	-0.372	0.066
-497.610	37.573	0.284	-0.255
-496.595	-64.264	0.210	0.087
-495.581	-4.046	-0.068	0.047
-494.566	-64.736	-0.221	0.091
-493.551	238.494	-0.004	0.006
-492.537	800.000	0.085	-0.293
-491.522	-145.656	-0.493	0.045
-490.508	743.659	-0.063	0.172
-489.493	181.954	0.178	0.265
-488.478	-200.000	0.063	-0.383
-487.464	254.019	0.188	-0.324
-486.449	2.431	-0.223	-0.164
-485.435	-49.400	0.125	0.060
-484.420	117.634	-0.222	-0.277
-483.405	-200.000	-0.021	-0.119
-482.391	800.000	-0.048	-0.144
-481.376	-22.991	0.368	0.224
-480.362	77.527	-0.189	-0.204
-479.347	-106.142	0.086	0.019
-478.332	-83.290	-0.285	0.093
-477.318	31.615	0.065	0.056
-476.303	-158.991	-0.124	-0.007
-475.289	-51.873	0.174	-0.082
-474.274	-103.896	0.233	-0.055
-473.259	-84.852	-0.198	-0.063
-472.245	-200.000	-0.054	0.313
-471.230	-129.075	0.322	0.045
-470.216	-99.861	0.255	-0.064
-469.201	38.348	-0.143	0.129
-468.186	-200.000	-0.028	-0.190
-467.172	305.852	-0.030	-0.057
-466.157	4.521	0.147	-0.109
-465.143	26.035	-0.070	-0.059
-464.128	446.980	-0.123	-0.274
-463.113	-38.347	0.096	0.052
-462.099	9.334	0.106	0.081
-461.084	-200.000	-0.045	-0.251
-460.070	482.810	0.051	0.117
-459.055	-86.528	-0.254	-0.079
-458.040	-92.086	-0.260	0.074
-457.026	800.000	-0.023	0.077
-456.011	28.343	0.072	0.062
-454.997	616.553	0.041	0.104
-453.982	612.034	0.126	0.318
-452.968	64.020	0.142	0.144
-451.953	-15.537	-0.165	-0.106
-450.938	201.735	0.061	0.095
-449.924	140.841	0.138	-0.185
-448.909	-200.000	0.022	0.371
-447.895	-2.541	-0.108	0.076
-446.880	200.100	-0.079	-0.123
-445.865	51.833	0.104	-0.100
-444.851	-76.177	0.122	0.044
-443.836	-200.000	-0.267	0.000
-442.822	52.366	-0.211	0.203
-441.807	-200.000	0.021	0.267
-440.792	-40.846	0.459	-0.240
-439.778	-23.317	-0.185	-0.112
-438.763	-15.715	0.335	0.215
-437.749	-124.686	-0.314	-0.049
-436.734	84.071	0.154	-0.170
-435.719	651.740	0.054	0.139
-434.705	-172.445	-0.038	0.001
-433.690	55.087	0.200	-0.195
-432.676	41.045	-0.284	0.259
-431.661	338.223	0.105	-0.207
-430.646	-200.000	-0.072	0.372
-429.632	5.738	-0.067	0.050
-428.617	800.000	0.039	0.132
-427.603	403.401	0.070	0.149
-426.588	-11.565	-0.220	0.146
-425.573	202.466	0.105	0.163
-424.559	-44.404	-0.021	-0.011
-423.544	800.000	0.122	0.362
-422.530	-200.000	-0.084	-0.466
-421.515	32.561	0.169	-0.147
-420.500	-70.825	0.198	-0.075
-419.486	-124.834	0.086	-0.013
-418.471	208.994	0.106	-0.167
-417.457	44.155	0.141	-0.131
-416.442	287.385	0.171	-0.312
-415.428	48.893	0.056	-0.053
-414.413	-200.000	-0.037	0.314
-413.398	-61.513	-0.119	-0.050
-412.384	-22.805	0.255	0.156
-411.369	-200.000	0.073	-0.351
-410.355	-73.286	-0.408	-0.151
-409.340	154.183	0.085	0.117
-408.325	-78.408	0.114	-0.039
-407.311	800.000	0.064	-0.205
-406.296	84.073	0.340	0.375
-405.282	267.631	-0.039	-0.069
-404.267	-200.000	-0.234	-0.000
-403.252	-112.711	0.233	0.047
-402.238	247.357	0.143	0.243
-401.223	800.000	0.020	-0.067
-400.209	86.781	-0.156	-0.174
-399.194	800.000	-0.038	-0.154
-398.179	-20.553	0.083	-0.052
-397.165	-200.000	0.012	-0.092
-396.150	-115.428	-0.045	0.008
-395.136	-139.062	-0.208	-0.023
-394.121	-200.000	0.030	-0.151
-393.106	800.000	-0.043	-0.155
-392.092	239.873	-0.111	-0.187
-391.077	-163.570	0.464	-0.022
-390.063	186.790	0.057	-0.085
-389.048	-192.168	-0.184	0.002
-388.033	773.707	-0.050	-0.137
-387.019	-27.370	0.158	0.093
-386.004	24.655	0.236	-0.197
-384.990	108.441	-0.043	0.052
-383.975	-115.048	0.384	0.073
-382.960	408.376	0.018	-0.038
-381.946	-144.004	-0.145	0.014
-380.931	-159.207	0.095	-0.005
-379.917	-200.000	0.019	0.260
-378.902	207.903	0.059	-0.093
-377.888	-89.065	-0.087	0.026
-376.873	315.845	-0.069	-0.132
-375.858	-200.000	-0.004	0.065
-374.844	-200.000	-0.028	0.347
-373.829	70.827	0.206	0.215
-372.815	800.000	0.135	0.413
-371.800	-86.290	-0.108	-0.033
-370.785	355.767	0.051	0.102
-369.771	-40.200	-0.151	0.079
-368.756	-93.119	-0.110	-0.031
-367.742	459.182	0.065	-0.147
-366.727	-123.809	-0.232	0.037
-365.712	-42.728	-0.168	0.086
-364.698	197.577	-0.232	0.357
-363.683	-200.000	0.067	0.347
-362.669	32.865	-0.070	-0.061
-361.654	40.427	-0.123	0.112
-360.639	219.104	0.380	-0.612
-359.625	794.933	-0.124	0.344
-358.610	-200.000	0.072	-0.497
-357.596	-25.442	0.149	0.089
-356.581	-13.474	0.068	0.044
-355.566	-200.000	-0.019	-0.241
-354.552	-200.000	-0.001	-0.058
-353.537	-96.403	0.117	0.031
-352.523	54.029	0.522	-0.506
-351.508	800.000	0.105	0.321
-350.493	415.142	0.028	-0.059
-349.479	-11.973	-0.108	-0.071
-348.464	163.538	-0.244	0.346
-347.450	-3.309	0.117	-0.082
-346.435	800.000	0.087	0.285
-345.420	-177.274	0.142	-0.004
-344.406	-199.572	0.170	0.001
-343.391	-60.297	0.231	-0.099
-342.377	-200.000	-0.005	0.241
-341.362	-106.343	0.138	-0.031
-340.348	51.245	0.236	-0.225
-339.333	-133.360	-0.294	0.037
-338.318	455.941	-0.032	0.072
-337.304	-19.053	-0.117	-0.073
-336.289	-200.000	0.045	-0.200
-335.275	800.000	0.053	-0.184
-334.260	-55.835	0.140	-0.063
-333.245	-164.932	-0.582	0.026
-332.231	-133.041	0.080	0.010
-331.216	-125.409	0.356	-0.054
-330.202	754.748	0.050	0.136
-329.187	376.747	-0.104	0.213
-328.172	800.000	0.029	-0.126
-327.158	-79.010	0.264	-0.090
-326.143	89.936	0.285	0.320
-325.129	-200.000	0.032	0.400
-324.114	1.868	-0.189	-0.137
-323.099	238.892	-0.090	-0.150
-322.085	-181.266	0.172	-0.003
-321.070	-106.599	0.139	-0.031
-320.056	-89.619	-0.379	-0.112
-319.041	-200.000	-0.019	-0.364
-318.026	-200.000	0.002	-0.064
-317.012	-149.809	-0.135	-0.011
-315.997	9.971	-0.270	-0.206
-314.983	32.577	-0.213	-0.185
-313.968	-76.205	0.194	0.069
-312.953	-200.000	0.201	-0.000
-311.939	52.696	0.116	-0.111
-310.924	-79.121	0.226	0.077
-309.910	-148.518	0.226	0.019
-308.895	215.967	0.110	-0.175
-307.880	373.221	-0.117	-0.238
-306.866	-103.875	0.310	0.073
-305.851	-199.451	-0.087	-0.000
-304.837	-69.839	-0.184	0.070
-303.822	173.327	0.225	0.326
-302.807	-73.678	-0.169	0.062
-301.793	283.292	-0.019	0.035
-300.778	189.106	0.163	-0.245
-299.764	-90.865	-0.340	0.098
-298.749	-107.749	0.072	0.016
-297.735	-200.000	0.046	0.292
-296.720	44.536	0.109	0.100
-295.705	-86.657	0.250	0.077
-294.691	-16.170	0.114	0.073
-293.676	-67.206	-0.151	0.060
-292.662	-200.000	-0.070	0.369
-291.647	483.296	0.093	-0.212
-290.632	800.000	0.025	0.105
-289.618	-189.454	-0.217	-0.003
-288.603	-200.000	-0.005	-0.349
-287.589	-139.123	-0.421	-0.046
-286.574	-144.498	0.056	0.005
-285.559	-69.875	0.099	-0.038
-284.545	17.832	0.272	-0.217
-283.530	41.823	-0.189	-0.172
-282.516	-158.747	-0.223	0.013
-281.501	800.000	0.065	0.227
-280.486	-200.000	0.028	0.285
-279.472	800.000	0.110	-0.309
-278.457	800.000	-0.071	0.200
-277.443	178.247	-0.141	0.206
-276.428	-26.146	0.317	-0.187
-275.413	-94.319	0.218	0.060
-274.399	-87.616	0.125	0.038
-273.384	-200.000	-0.033	0.242
-272.370	800.000	-0.051	-0.150
-271.355	-200.000	-0.009	0.317
-270.340	-200.000	-0.012	-0.081
-269.326	-72.461	0.216	-0.080
-268.311	500.444	-0.085	-0.197
-267.297	-65.824	-0.272	-0.109
-266.282	-99.807	0.298	0.075
-265.267	107.384	-0.149	-0.178
-264.253	28.727	-0.164	0.140
-263.238	-200.000	0.010	-0.236
-262.224	-121.136	-0.100	0.017
-261.209	738.815	0.071	0.191
-260.195	-96.386	-0.304	0.081
-259.180	134.525	0.025	-0.033
-258.165	-185.023	0.215	-0.003
-257.151	346.345	0.097	0.192
-256.136	184.870	0.183	-0.273
-255.122	-17.284	-0.131	0.083
-254.107	117.428	0.044	-0.054
-253.092	29.064	0.157	0.134
-252.078	412.004	-0.151	0.322
-251.063	-200.000	0.104	-0.490
-250.049	-57.697	-0.156	0.069
-249.034	126.315	0.032	-0.040
-248.019	12.406	-0.092	-0.071
-247.005	169.749	-0.231	0.331
-245.990	-13.893	-0.155	0.100
-244.976	-108.695	-0.324	0.070
-243.961	-17.997	-0.026	0.017
-242.946	66.832	0.385	-0.392
-241.932	800.000	0.101	0.319
-240.917	-37.274	0.104	0.056
-239.903	-2.099	-0.176	0.124
-238.888	4.036	-0.094	0.069
-237.873	54.160	0.173	-0.166
-236.859	-50.008	-0.097	-0.046
-235.844	-200.000	0.005	0.233
-234.830	-12.421	-0.166	-0.109
-233.815	-109.335	-0.182	0.039
-232.800	210.479	-0.220	-0.346
-231.786	211.276	-0.219	-0.344
-230.771	598.266	0.167	0.414
-229.757	3.942	-0.084	0.061
-228.742	-96.042	0.118	-0.032
-227.727	602.669	0.050	-0.125
-226.713	21.342	-0.269	0.219
-225.698	800.000	-0.067	-0.204
-224.684	-155.995	-0.133	0.008
-223.669	-49.708	-0.216	-0.103
-222.655	120.567	-0.068	0.085
-221.640	-119.520	0.090	-0.016
-220.625	-200.000	-0.010	-0.066
-219.611	-134.307	0.329	0.040
-218.596	800.000	-0.098	0.332
-217.582	39.009	0.026	-0.023
-216.567	65.557	-0.079	0.080
-215.552	72.396	0.044	-0.046
-214.538	-159.785	-0.238	-0.013
-213.523	-147.474	0.226	-0.019
-212.509	-190.877	-0.211	0.002
-211.494	-146.645	-0.109	-0.009
-210.479	-121.028	0.285	-0.048
-209.465	225.981	-0.084	0.136
-208.450	-25.618	0.193	-0.114
-207.436	-113.751	0.111	-0.022
-206.421	800.000	0.065	-0.223
-205.406	-41.266	-0.176	-0.091
-204.392	-127.520	-0.124	0.018
-203.377	3.767	0.129	0.094
-202.363	191.265	0.158	0.237
-201.348	-3.197	-0.242	0.169
-200.333	-39.951	0.324	0.169
-199.319	57.277	-0.243	0.237
-198.304	65.095	-0.074	-0.074
-197.290	-162.988	-0.344	0.017
-196.275	122.110	0.227	-0.283
-195.260	92.290	0.242	-0.273
-194.246	39.650	0.133	0.119
-193.231	268.169	0.055	-0.097
-192.217	471.371	0.047	0.105
-191.202	175.339	-0.041	0.059
-190.187	108.454	-0.302	0.360
-189.173	-67.182	0.176	0.069
-188.158	12.313	0.043	-0.033
-187.144	-99.901	-0.059	0.015
-186.129	-200.000	0.015	-0.194
-185.114	384.475	0.095	-0.195
-184.100	349.443	0.094	0.186
-183.085	-118.363	-0.256	0.045
-182.071	-105.703	-0.071	-0.016
-181.056	-126.383	-0.054	-0.008
-180.042	66.499	0.221	-0.224
-179.027	-105.044	0.147	-0.034
-178.012	-167.270	0.246	0.010
-176.998	-200.000	-0.006	0.200
-175.983	-200.000	-0.003	0.133
-174.969	-200.000	-0.061	-0.267
-173.954	46.955	-0.182	0.169
-172.939	-162.239	0.155	0.008
-171.925	19.097	0.011	-0.008
-170.910	-161.364	0.057	-0.003
-169.896	-26.172	0.319	0.187
-168.881	-200.000	0.012	-0.055
-167.866	36.678	0.101	-0.089
-166.852	144.039	-0.263	-0.350
-165.837	-200.000	-0.047	0.228
-164.823	-71.260	-0.115	0.043
-163.808	-15.779	-0.283	-0.180
-162.793	-120.849	-0.152	0.026
-161.779	241.353	0.136	-0.227
-160.764	278.859	-0.027	-0.048
-159.750	-66.589	-0.324	0.128
-158.735	572.399	-0.144	0.350
-157.720	139.430	-0.246	0.323
-156.706	98.553	0.122	0.140
-155.691	-98.361	-0.290	0.074
-154.677	329.424	-0.172	-0.330
-153.662	228.244	-0.264	0.429
-152.647	-138.065	0.350	-0.039
-151.633	794.180	-0.076	0.210
-150.618	-200.000	0.004	0.138
-149.604	-88.105	0.214	0.064
-148.589	-200.000	0.069	-0.313
-147.574	-200.000	-0.045	-0.200
-146.560	-136.434	-0.306	-0.035
-145.545	-112.877	0.128	0.025
-144.531	-194.823	-0.245	-0.002
-143.516	389.379	-0.136	0.282
-142.502	28.640	0.027	-0.023
-141.487	-106.061	0.238	-0.053
-140.472	800.000	-0.042	-0.131
-139.458	251.032	0.098	-0.166
-138.443	-176.834	-0.330	0.008
-137.429	22.225	0.317	0.258
-136.414	58.393	0.305	0.299
-135.399	800.000	-0.022	0.079
-134.385	-193.914	-0.050	-0.000
-133.370	452.875	-0.089	0.197
-132.356	146.625	-0.035	-0.047
-131.341	-149.624	0.081	-0.006
-130.326	-200.000	-0.046	0.386
-129.312	303.610	0.067	-0.124
-128.297	199.501	-0.146	0.223
-127.283	-58.224	-0.166	0.072
-126.268	-75.427	-0.287	-0.102
-125.253	164.330	0.143	0.201
-124.239	-30.665	-0.171	0.096
-123.224	318.942	0.002	-0.003
-122.210	95.534	-0.269	0.306
-121.195	-48.377	0.343	0.165
-120.180	747.262	-0.115	-0.310
