DTS Sentinel unit serial number:	SN413079Multiplexer serial number:	ORYXHardware model number:	OX4-SRSoftware version number:	ORYX F/W v4.00 Oryx Data Collector v3.7.2.0data status	okinstallation	princeton_trtdifferential loss correction	single-endedforward channel	channel 1reverse channel	N/Adate	2019/09/11time	21:48:11forward acquisition time	60.00reverse acquisition time	0.00gamma	496.2192k internal	0.2311k external	0.2311temperature offset calibration	1.0047default loss term (dB/km)	0.3790temperature slope calibration	1.0000multiplexer offset coefficient	1.0000multiplexer slope coefficient	1.0000fibre end	0.00T internal ref (°C)	35.73T ext. ref 1 (°C)	1.71T ext. ref 2 (°C)	30.03length (m)	temperature (°C)	Stokes	anti-Stokes-747.200	-200.000	-0.058	-0.328
-746.185	745.781	0.065	0.177
-745.171	35.970	-0.218	0.195
-744.156	236.400	0.052	0.088
-743.142	316.736	0.039	0.074
-742.127	800.000	0.041	0.159
-741.112	124.851	-0.188	-0.240
-740.098	139.564	-0.164	-0.219
-739.083	-43.932	0.201	0.103
-738.069	-74.156	0.185	-0.068
-737.054	800.000	0.037	0.111
-736.039	192.271	-0.076	0.116
-735.025	-137.480	-0.125	-0.014
-734.010	4.772	-0.326	-0.243
-732.996	-200.000	-0.030	-0.179
-731.981	68.744	-0.079	0.083
-730.966	-83.763	0.146	-0.047
-729.952	192.185	-0.224	-0.342
-728.937	233.630	-0.122	-0.204
-727.923	-200.000	0.026	0.190
-726.908	-194.826	0.372	0.003
-725.894	-200.000	0.030	0.229
-724.879	11.277	-0.152	0.118
-723.864	137.674	0.096	-0.127
-722.850	-33.833	-0.340	0.190
-721.835	255.203	-0.051	0.089
-720.821	-7.242	0.148	0.102
-719.806	-160.842	0.060	0.003
-718.791	107.837	-0.238	0.287
-717.777	-18.809	-0.020	-0.013
-716.762	330.586	0.076	-0.148
-715.748	76.998	-0.123	-0.133
-714.733	-200.000	-0.009	-0.150
-713.718	500.974	-0.171	-0.399
-712.704	-83.034	0.028	-0.009
-711.689	-20.778	-0.222	-0.138
-710.675	395.549	-0.099	-0.210
-709.660	-132.999	0.307	0.039
-708.645	-165.780	-0.271	0.012
-707.631	-34.976	0.291	-0.161
-706.616	-109.743	0.159	0.034
-705.602	800.000	0.077	-0.253
-704.587	-200.000	0.018	-0.542
-703.572	-120.682	-0.177	0.030
-702.558	-8.782	-0.071	0.048
-701.543	179.975	-0.142	-0.210
-700.529	-95.509	-0.088	-0.024
-699.514	-200.000	0.037	-0.268
-698.499	-105.796	-0.159	0.036
-697.485	-48.001	0.160	-0.078
-696.470	415.694	-0.063	-0.136
-695.456	48.630	0.090	0.086
-694.441	800.000	-0.046	-0.203
-693.426	53.704	0.087	-0.084
-692.412	-149.533	0.254	-0.020
-691.397	-200.000	0.029	0.178
-690.383	-42.936	-0.117	-0.060
-689.368	157.030	0.180	-0.252
-688.354	549.181	-0.128	-0.310
-687.339	-200.000	0.037	-0.371
-686.324	-181.390	0.192	0.004
-685.310	120.391	0.161	0.203
-684.295	0.148	-0.155	0.112
-683.281	23.068	0.184	0.153
-682.266	252.322	0.016	-0.027
-681.251	158.731	0.093	-0.131
-680.237	-53.700	0.276	-0.128
-679.222	114.147	-0.183	0.225
-678.208	60.022	-0.181	0.182
-677.193	-187.127	0.168	0.002
-676.178	-167.253	0.317	-0.013
-675.164	-200.000	0.007	0.428
-674.149	2.788	0.140	0.103
-673.135	86.373	-0.242	0.270
-672.120	-61.915	0.205	-0.087
-671.105	159.919	0.099	0.139
-670.091	-13.936	-0.352	0.230
-669.076	-200.000	0.058	-0.408
-668.062	-200.000	-0.071	-0.000
-667.047	-47.050	0.094	-0.047
-666.032	52.438	0.045	-0.043
-665.018	-200.000	-0.029	0.361
-664.003	-190.774	0.267	-0.003
-662.989	720.381	0.044	-0.120
-661.974	-12.726	0.243	-0.160
-660.959	478.469	-0.150	-0.344
-659.945	-105.101	0.389	-0.090
-658.930	-124.373	-0.126	-0.020
-657.916	800.000	-0.026	0.096
-656.901	94.814	-0.109	0.125
-655.886	-200.000	-0.024	-0.320
-654.872	223.011	-0.293	-0.478
-653.857	-49.006	-0.160	-0.077
-652.843	515.675	0.095	-0.224
-651.828	70.362	0.093	0.097
-650.814	-26.891	-0.287	-0.169
-649.799	-146.272	0.036	-0.003
-648.784	800.000	-0.048	-0.183
-647.770	45.423	-0.148	0.138
-646.755	-130.295	0.558	0.077
-645.741	-200.000	0.035	0.259
-644.726	-105.713	-0.183	0.042
-643.711	400.096	-0.068	-0.143
-642.697	-49.363	-0.060	0.029
-641.682	183.498	-0.085	-0.127
-640.668	-23.057	-0.388	-0.236
-639.653	-200.000	0.065	-0.368
-638.638	-56.995	0.262	0.117
-637.624	248.682	-0.043	0.073
-636.609	86.654	0.093	-0.104
-635.595	-152.386	0.317	-0.023
-634.580	94.810	0.070	-0.081
-633.565	118.753	-0.147	0.184
-632.551	188.987	-0.140	-0.211
-631.536	-200.000	-0.055	-0.285
-630.522	-74.209	-0.040	-0.015
-629.507	-137.125	-0.433	-0.050
-628.492	-92.331	0.171	0.049
-627.478	-200.000	0.047	-0.223
-626.463	-29.167	-0.119	-0.069
-625.449	130.065	0.226	0.293
-624.434	110.423	0.165	0.200
-623.419	-91.675	-0.088	-0.025
-622.405	-70.647	-0.267	-0.102
-621.390	277.504	0.156	0.280
-620.376	-3.283	0.225	0.158
-619.361	-13.508	-0.123	-0.080
-618.346	800.000	0.023	-0.073
-617.332	-100.785	0.046	0.012
-616.317	104.715	-0.127	0.152
-615.303	800.000	-0.041	0.143
-614.288	-200.000	0.028	0.215
-613.273	800.000	-0.052	0.172
-612.259	462.701	-0.026	0.058
-611.244	-41.587	0.082	-0.042
-610.230	597.642	0.165	-0.414
-609.215	338.205	0.071	-0.140
-608.201	141.227	-0.095	0.127
-607.186	-24.609	0.201	0.120
-606.171	-200.000	0.009	-0.393
-605.157	389.551	-0.091	-0.191
-604.142	-200.000	-0.023	-0.170
-603.128	249.039	0.164	0.280
-602.113	169.944	0.224	0.323
-601.098	800.000	-0.039	0.111
-600.084	800.000	0.107	0.383
-599.069	-162.782	0.278	-0.014
-598.055	-163.965	0.246	0.012
-597.040	-182.071	-0.209	0.004
-596.025	41.772	-0.145	-0.133
-595.011	-132.676	0.054	-0.007
-593.996	-200.000	0.045	-0.409
-592.982	800.000	-0.016	-0.061
-591.967	-132.567	0.248	0.032
-590.952	800.000	0.025	-0.083
-589.938	-99.536	0.457	0.116
-588.923	-76.945	0.053	0.019
-587.909	-200.000	0.036	0.236
-586.894	17.575	0.058	-0.047
-585.879	-124.794	-0.172	-0.027
-584.865	-132.093	0.217	0.028
-583.850	271.226	0.099	-0.176
-582.836	-122.570	-0.312	-0.051
-581.821	-26.178	0.046	0.027
-580.806	-139.953	-0.215	-0.023
-579.792	-200.000	0.031	0.196
-578.777	-66.237	-0.183	-0.073
-577.763	-69.651	-0.062	0.024
-576.748	366.820	-0.270	0.549
-575.733	-2.021	0.258	0.183
-574.719	58.302	0.174	-0.172
-573.704	378.841	-0.014	-0.029
-572.690	-135.194	-0.125	0.015
-571.675	4.459	0.384	-0.284
-570.661	-200.000	-0.007	-0.140
-569.646	-108.991	-0.320	0.069
-568.631	229.700	0.169	-0.279
-567.617	-200.000	-0.027	0.164
-566.602	-16.448	0.214	0.137
-565.588	-179.575	-0.293	-0.006
-564.573	800.000	0.110	-0.320
-563.558	-12.410	0.317	-0.209
-562.544	-200.000	-0.007	0.058
-561.529	4.976	0.128	0.095
-560.515	120.508	-0.110	-0.137
-559.500	514.301	0.091	0.215
-558.485	-126.383	0.353	0.053
-557.471	-195.924	0.098	0.001
-556.456	-163.001	0.054	0.003
-555.442	161.648	0.137	-0.193
-554.427	800.000	-0.088	0.275
-553.412	288.325	0.070	0.128
-552.398	-103.071	-0.142	0.034
-551.383	-42.988	0.249	0.127
-550.369	-162.262	0.122	-0.006
-549.354	-12.027	-0.264	0.174
-548.339	431.197	-0.069	0.150
-547.325	-10.469	-0.138	0.092
-546.310	800.000	0.019	0.058
-545.296	332.503	0.101	-0.196
-544.281	800.000	0.020	0.068
-543.266	582.711	-0.051	0.126
-542.252	97.067	0.156	0.180
-541.237	-200.000	-0.048	-0.265
-540.223	398.236	0.079	-0.167
-539.208	170.990	0.093	0.134
-538.193	-140.252	0.298	-0.031
-537.179	-48.726	-0.211	-0.102
-536.164	620.149	0.042	0.105
-535.150	54.186	0.226	0.219
-534.135	-170.028	0.088	-0.003
-533.121	-160.688	-0.145	-0.008
-532.106	800.000	-0.074	-0.257
-531.091	-61.743	-0.090	-0.038
-530.077	-39.418	0.211	-0.111
-529.062	-200.000	-0.005	-0.141
-528.048	95.803	0.112	0.128
-527.033	38.207	-0.147	0.132
-526.018	-115.064	-0.344	0.066
-525.004	653.020	0.069	-0.179
-523.989	800.000	-0.068	-0.211
-522.975	-200.000	-0.040	0.289
-521.960	-27.161	-0.157	0.092
-520.945	113.986	0.208	0.254
-519.931	75.136	-0.146	0.155
-518.916	174.325	0.061	-0.088
-517.902	-200.000	-0.001	-0.055
-516.887	553.841	-0.115	-0.279
-515.872	-200.000	-0.018	-0.192
-514.858	-131.329	-0.096	-0.013
-513.843	-92.173	-0.159	0.045
-512.829	-200.000	0.044	0.231
-511.814	-38.918	0.269	-0.143
-510.799	18.667	-0.247	-0.199
-509.785	-95.890	-0.208	0.056
-508.770	537.294	0.044	0.104
-507.756	80.117	-0.235	-0.254
-506.741	-48.684	0.270	-0.130
-505.726	76.087	-0.131	0.139
-504.712	-139.131	-0.167	-0.018
-503.697	18.274	-0.105	0.084
-502.683	-200.000	0.031	0.000
-501.668	-67.763	-0.179	-0.070
-500.653	99.506	0.121	0.141
-499.639	382.198	-0.027	0.056
-498.624	800.000	0.109	-0.365
-497.610	365.289	0.079	-0.159
-496.595	-179.533	-0.329	0.007
-495.581	-200.000	-0.027	0.179
-494.566	-29.167	0.266	0.153
-493.551	428.590	-0.078	0.169
-492.537	-13.106	-0.303	0.198
-491.522	-161.001	-0.256	0.013
-490.508	344.049	0.052	-0.103
-489.493	-140.496	0.368	0.038
-488.478	314.697	0.024	-0.046
-487.464	-27.091	-0.160	0.094
-486.449	-88.507	-0.262	0.079
-485.435	69.574	-0.085	-0.088
-484.420	174.160	0.121	-0.175
-483.405	486.923	0.052	0.120
-482.391	-3.560	-0.215	-0.150
-481.376	-200.000	-0.013	0.183
-480.362	800.000	0.064	-0.178
-479.347	1.556	-0.114	0.082
-478.332	-171.741	0.317	-0.010
-477.318	-200.000	-0.018	-0.185
-476.303	173.677	0.104	0.151
-475.289	188.880	-0.182	0.274
-474.274	450.353	-0.039	0.086
-473.259	-157.638	0.261	-0.016
-472.245	-200.000	-0.004	0.315
-471.230	463.760	0.107	0.240
-470.216	110.879	0.235	0.284
-469.201	40.139	0.133	0.120
-468.186	-104.318	0.376	0.088
-467.172	-200.000	-0.003	0.016
-466.157	-139.751	0.183	-0.020
-465.143	-28.681	-0.035	0.020
-464.128	-200.000	-0.020	0.182
-463.113	30.355	-0.086	-0.073
-462.099	154.282	-0.267	0.368
-461.084	-25.256	0.269	-0.160
-460.070	-200.000	0.009	0.124
-459.055	25.999	-0.183	-0.153
-458.040	-55.132	-0.042	-0.019
-457.026	800.000	0.117	0.331
-456.011	270.266	0.202	0.356
-454.997	199.459	-0.118	0.181
-453.982	126.971	-0.160	0.204
-452.968	-35.918	-0.097	-0.053
-451.953	-200.000	-0.004	-0.378
-450.938	-94.660	0.110	-0.030
-449.924	-128.936	0.099	0.014
-448.909	-200.000	0.004	0.115
-447.895	-200.000	0.083	0.403
-446.880	-96.269	0.338	0.090
-445.865	143.414	-0.093	-0.125
-444.851	53.060	0.078	0.075
-443.836	144.337	0.110	-0.147
-442.822	439.855	-0.053	0.116
-441.807	10.312	0.082	-0.062
-440.792	800.000	-0.051	-0.142
-439.778	89.702	-0.072	-0.080
-438.763	-126.175	0.374	-0.056
-437.749	720.591	-0.114	-0.304
-436.734	-72.950	-0.196	-0.072
-435.719	-33.700	0.062	-0.034
-434.705	-200.000	0.164	0.000
-433.690	429.440	0.068	0.148
-432.676	-88.193	0.196	0.059
-431.661	787.240	-0.054	-0.149
-430.646	-96.109	-0.147	0.039
-429.632	336.527	0.073	-0.143
-428.617	-97.710	0.129	-0.033
-427.603	-128.123	0.096	-0.014
-426.588	800.000	-0.038	-0.157
-425.573	-181.838	-0.111	-0.002
-424.559	129.979	0.109	0.140
-423.544	373.553	-0.097	0.198
-422.530	344.099	0.067	0.131
-421.515	800.000	0.065	0.230
-420.500	-23.095	-0.291	-0.175
-419.486	-49.329	0.362	-0.173
-418.471	-0.100	-0.259	0.185
-417.457	-200.000	0.007	-0.038
-416.442	-18.007	-0.332	-0.208
-415.428	-37.265	0.127	0.068
-414.413	363.846	0.231	0.465
-413.398	484.807	0.074	-0.170
-412.384	57.089	0.067	-0.065
-411.369	-90.697	0.152	0.044
-410.355	547.267	0.114	-0.273
-409.340	86.318	-0.148	-0.164
-408.325	-200.000	-0.038	-0.427
-407.311	-200.000	-0.011	-0.194
-406.296	-14.414	0.202	0.130
-405.282	311.235	-0.121	-0.228
-404.267	-200.000	0.020	0.093
-403.252	600.327	-0.037	-0.091
-402.238	-137.605	0.143	-0.016
-401.223	493.400	0.036	-0.082
-400.209	-101.909	-0.450	-0.109
-399.194	-100.723	-0.333	-0.082
-398.179	800.000	0.076	-0.280
-397.165	-99.030	-0.190	-0.048
-396.150	108.100	0.211	-0.251
-395.136	404.057	0.045	-0.094
-394.121	-200.000	-0.013	-0.094
-393.106	224.070	-0.150	0.242
-392.092	-26.956	0.030	-0.017
-391.077	91.581	-0.076	0.086
-390.063	-133.009	0.151	-0.019
-389.048	7.818	-0.131	0.098
-388.033	-161.576	0.101	0.005
-387.019	406.663	-0.145	-0.307
-386.004	-58.766	-0.213	0.092
-384.990	27.552	0.052	-0.044
-383.975	0.785	0.103	0.074
-382.960	800.000	0.076	-0.226
-381.946	-127.516	-0.254	0.037
-380.931	-85.465	0.302	0.094
-379.917	-105.045	0.412	0.094
-378.902	127.659	0.192	-0.244
-377.888	47.431	-0.348	-0.324
-376.873	-82.393	-0.387	-0.126
-375.858	-115.458	-0.137	-0.026
-374.844	441.997	0.117	0.257
-373.829	800.000	-0.027	0.093
-372.815	114.831	0.122	0.149
-371.800	118.989	-0.085	-0.105
-370.785	-160.183	0.144	0.008
-369.771	-77.635	0.249	-0.086
-368.756	-100.723	-0.198	-0.049
-367.742	-68.719	0.443	0.171
-366.727	250.964	0.036	0.061
-365.712	-96.153	0.303	0.080
-364.698	286.606	0.076	-0.137
-363.683	-31.501	0.190	-0.107
-362.669	189.516	-0.043	0.065
-361.654	-110.957	0.159	-0.033
-360.639	39.890	-0.219	0.197
-359.625	67.579	0.033	-0.033
-358.610	800.000	0.067	0.187
-357.596	416.446	-0.165	0.353
-356.581	46.964	0.061	-0.057
-355.566	-70.155	-0.113	0.043
-354.552	800.000	-0.045	-0.173
-353.537	-112.970	0.051	0.010
-352.523	145.996	-0.210	0.282
-351.508	58.814	-0.097	0.096
-350.493	90.044	-0.167	-0.187
-349.479	800.000	-0.055	-0.198
-348.464	800.000	-0.024	0.069
-347.450	-168.349	-0.246	0.009
-346.435	611.447	-0.093	-0.232
-345.420	563.825	-0.169	0.410
-344.406	-40.778	-0.110	-0.057
-343.391	-69.786	0.320	0.122
-342.377	-151.368	-0.350	-0.026
-341.362	-33.276	-0.130	0.072
-340.348	-200.000	-0.050	-0.230
-339.333	-200.000	-0.079	-0.437
-338.318	-200.000	-0.029	0.315
-337.304	-60.815	-0.056	0.024
-336.289	-62.092	0.393	0.164
-335.275	-76.627	-0.010	-0.003
-334.260	570.608	0.100	0.242
-333.245	-74.027	0.099	0.036
-332.231	-28.922	-0.106	0.061
-331.216	-37.148	-0.237	-0.127
-330.202	-125.141	0.258	0.039
-329.187	-200.000	0.262	-0.001
-328.172	-132.138	-0.484	0.063
-327.158	-200.000	0.009	-0.263
-326.143	339.484	0.137	-0.266
-325.129	3.468	0.335	-0.243
-324.114	-179.252	-0.102	-0.002
-323.099	-200.000	0.024	-0.314
-322.085	190.632	-0.063	0.095
-321.070	-121.341	0.131	-0.022
-320.056	-200.000	-0.038	0.313
-319.041	564.245	0.031	-0.074
-318.026	63.096	-0.300	-0.300
-317.012	-45.696	0.071	0.035
-315.997	-18.593	-0.271	-0.169
-314.983	58.772	0.061	0.059
-313.968	-200.000	-0.015	0.096
-312.953	411.527	-0.090	0.191
-311.939	325.136	-0.172	-0.329
-310.924	-44.005	-0.158	0.079
-309.910	-108.463	-0.340	0.073
-308.895	-200.000	-0.009	-0.100
-307.880	53.159	0.200	-0.192
-306.866	-200.000	-0.025	-0.281
-305.851	800.000	-0.074	-0.223
-304.837	91.666	-0.127	-0.142
-303.822	800.000	0.021	0.077
-302.807	57.840	-0.336	-0.328
-301.793	522.368	0.107	-0.250
-300.778	-82.428	-0.635	0.206
-299.764	-200.000	-0.006	0.117
-298.749	-53.121	-0.258	-0.118
-297.735	-69.831	0.116	-0.044
-296.720	-16.040	-0.068	0.043
-295.705	15.612	0.093	-0.073
-294.691	-200.000	0.008	-0.238
-293.676	-70.138	-0.298	0.113
-292.662	307.085	0.088	-0.163
-291.647	45.138	-0.177	-0.162
-290.632	-200.000	-0.002	-0.057
-289.618	-200.000	-0.001	0.420
-288.603	70.962	0.199	0.206
-287.589	69.645	-0.473	-0.486
-286.574	30.416	-0.166	0.142
-285.559	14.120	0.281	0.218
-284.545	46.791	0.029	-0.027
-283.530	-155.482	-0.343	0.022
-282.516	-200.000	0.002	-0.220
-281.501	82.475	-0.168	-0.182
-280.486	78.048	-0.072	0.076
-279.472	800.000	0.027	-0.082
-278.457	800.000	-0.080	-0.317
-277.443	-200.000	0.031	-0.166
-276.428	-100.578	-0.407	-0.100
-275.413	-124.298	0.113	0.018
-274.399	800.000	0.071	-0.196
-273.384	-155.067	0.139	-0.009
-272.370	-27.628	0.273	-0.158
-271.355	-106.849	-0.111	0.024
-270.340	416.149	0.050	0.107
-269.326	-153.962	-0.352	0.024
-268.311	77.807	0.184	0.195
-267.297	-49.382	-0.216	-0.103
-266.282	575.897	0.128	0.312
-265.267	-125.103	0.214	0.033
-264.253	-115.464	0.434	0.081
-263.238	-200.000	0.030	0.341
-262.224	-67.989	-0.285	-0.111
-261.209	-26.808	0.116	0.067
-260.195	336.135	0.043	0.083
-259.180	100.299	-0.075	-0.087
-258.165	254.321	-0.113	0.193
-257.151	448.951	-0.164	0.361
-256.136	-200.000	-0.025	-0.248
-255.122	-76.541	-0.173	-0.061
-254.107	91.117	-0.030	0.033
-253.092	800.000	-0.072	0.287
-252.078	-40.133	0.103	0.053
-251.063	-63.120	0.220	0.090
-250.049	800.000	-0.020	-0.060
-249.034	-25.650	0.098	0.057
-248.019	-73.800	0.152	0.055
-247.005	3.306	0.114	-0.083
-245.990	-78.924	-0.302	0.102
-244.976	189.370	-0.094	0.140
-243.961	-200.000	-0.010	0.140
-242.946	-160.287	0.297	-0.016
-241.932	281.735	0.032	-0.057
-240.917	800.000	-0.061	0.221
-239.903	-29.444	-0.248	-0.141
-238.888	218.439	-0.139	0.221
-237.873	173.052	0.024	0.034
-236.859	-200.000	-0.012	-0.059
-235.844	551.703	0.022	-0.052
-234.830	199.797	-0.085	-0.130
-233.815	-155.436	-0.248	-0.016
-232.800	-97.611	-0.181	0.047
-231.786	234.668	0.093	0.152
-230.771	-200.000	0.023	-0.221
-229.757	-200.000	-0.024	0.204
-228.742	628.298	0.088	-0.222
-227.727	39.756	0.138	0.123
-226.713	-48.982	0.242	0.115
-225.698	7.024	-0.105	0.078
-224.684	647.151	-0.126	-0.320
-223.669	-169.778	-0.057	0.002
-222.655	-139.489	0.069	-0.007
-221.640	-200.000	-0.007	-0.115
-220.625	800.000	0.052	-0.184
-219.611	-61.328	-0.221	0.092
-218.596	-51.411	-0.138	0.064
-217.582	115.546	0.300	0.365
-216.567	-142.678	0.173	-0.017
-215.552	75.852	-0.291	-0.306
-214.538	-21.857	-0.305	0.184
-213.523	224.335	0.229	0.367
-212.509	-169.724	0.249	-0.009
-211.494	-200.000	0.013	0.079
-210.479	-200.000	-0.037	0.189
-209.465	-200.000	0.017	0.112
-208.450	39.418	-0.111	0.099
-207.436	-200.000	-0.010	0.050
-206.421	-55.467	0.090	-0.040
-205.406	107.635	0.059	0.070
-204.392	-39.351	-0.225	0.117
-203.377	-129.672	0.175	-0.024
-202.363	-11.409	0.239	0.156
-201.348	460.811	0.133	0.294
-200.333	125.757	0.133	-0.167
-199.319	-24.809	0.356	-0.210
-198.304	-38.933	-0.099	-0.052
-197.290	140.969	-0.043	0.056
-196.275	-200.000	-0.090	0.419
-195.260	-48.699	0.017	-0.008
-194.246	-60.455	-0.070	-0.029
-193.231	-49.080	-0.147	0.070
-192.217	-200.000	0.047	0.428
-191.202	190.151	-0.165	-0.246
-190.187	-200.000	0.005	-0.062
-189.173	671.751	0.008	0.022
-188.158	-200.000	-0.046	-0.385
-187.144	-7.592	0.141	0.095
-186.129	-111.640	-0.273	-0.055
-185.114	-200.000	0.018	-0.254
-184.100	-8.850	-0.064	-0.043
-183.085	-200.000	-0.013	-0.096
-182.071	-200.000	-0.031	0.137
-181.056	629.460	-0.083	-0.208
-180.042	-129.102	-0.098	0.014
-179.027	-58.779	-0.150	0.064
-178.012	-80.478	0.209	-0.069
-176.998	800.000	0.095	0.378
-175.983	-79.063	0.121	0.041
-174.969	-200.000	0.047	0.336
-173.954	-200.000	-0.062	0.329
-172.939	800.000	0.108	-0.318
-171.925	33.376	0.282	-0.243
-170.910	-23.361	0.081	-0.048
-169.896	800.000	-0.104	-0.392
-168.881	786.036	-0.165	-0.450
-167.866	11.492	0.168	-0.128
-166.852	-200.000	-0.033	0.211
-165.837	-60.388	0.552	-0.233
-164.823	-163.998	-0.288	-0.013
-163.808	35.089	-0.089	-0.077
-162.793	-86.337	-0.255	-0.078
-161.779	800.000	-0.034	0.097
-160.764	-167.401	0.290	0.012
-159.750	13.606	0.166	-0.128
-158.735	109.687	0.078	-0.092
-157.720	6.006	-0.150	-0.110
-156.706	218.182	-0.075	-0.118
-155.691	800.000	-0.096	0.337
-154.677	393.797	0.127	0.262
-153.662	-200.000	0.006	-0.245
-152.647	-3.908	0.038	-0.026
-151.633	316.212	0.009	0.017
-150.618	406.533	0.090	0.187
-149.604	763.353	0.083	-0.223
-148.589	-40.889	0.251	-0.129
-147.574	314.544	0.173	0.322
-146.560	-138.494	-0.198	-0.022
-145.545	676.605	0.152	0.391
-144.531	412.587	-0.047	0.100
-143.516	90.193	0.244	0.271
-142.502	376.318	-0.026	0.052
-141.487	357.097	0.116	-0.230
-140.472	-93.845	-0.116	0.032
-139.458	-200.000	-0.011	-0.183
-138.443	-145.088	-0.170	-0.015
-137.429	141.690	-0.082	-0.108
-136.414	-9.584	-0.038	0.025
-135.399	-200.000	0.044	0.254
-134.385	53.387	0.221	-0.210
-133.370	-135.472	0.164	0.019
-132.356	199.575	-0.155	-0.235
-131.341	-200.000	0.060	-0.264
-130.326	-200.000	0.010	-0.283
-129.312	-101.552	0.546	0.132
-128.297	-142.096	0.184	0.018
-127.283	26.665	0.208	0.172
-126.268	-200.000	0.011	-0.254
-125.253	-200.000	0.043	-0.260
-124.239	800.000	-0.079	-0.228
-123.224	-11.460	-0.020	0.013
-122.210	615.946	0.118	0.293
