DTS Sentinel unit serial number:	SN413079Multiplexer serial number:	ORYXHardware model number:	OX4-SRSoftware version number:	ORYX F/W v4.00 Oryx Data Collector v3.7.2.0data status	okinstallation	princeton_trtdifferential loss correction	single-endedforward channel	channel 1reverse channel	N/Adate	2019/09/13time	12:58:35forward acquisition time	60.00reverse acquisition time	0.00gamma	496.2192k internal	0.2306k external	0.2306temperature offset calibration	1.0162default loss term (dB/km)	0.3790temperature slope calibration	1.0000multiplexer offset coefficient	1.0000multiplexer slope coefficient	1.0000fibre end	0.00T internal ref (°C)	34.80T ext. ref 1 (°C)	4.57T ext. ref 2 (°C)	30.78length (m)	temperature (°C)	Stokes	anti-Stokes-747.200	59.649	0.046	-0.046
-746.185	389.176	-0.145	0.306
-745.171	-115.282	0.138	0.027
-744.156	800.000	-0.040	0.113
-743.142	173.151	0.148	-0.217
-742.127	-200.000	0.019	-0.196
-741.112	-159.410	-0.290	-0.016
-740.098	-200.000	0.071	0.360
-739.083	-200.000	-0.051	-0.267
-738.069	-71.243	-0.074	0.028
-737.054	24.493	-0.332	-0.280
-736.039	97.026	-0.244	-0.284
-735.025	488.039	-0.234	-0.542
-734.010	-25.154	-0.142	-0.085
-732.996	-200.000	-0.018	-0.099
-731.981	-200.000	-0.013	-0.189
-730.966	-1.625	-0.268	-0.192
-729.952	-13.019	-0.228	-0.150
-728.937	300.705	0.170	-0.319
-727.923	356.000	0.048	0.097
-726.908	87.325	-0.124	0.139
-725.894	-87.203	-0.495	0.153
-724.879	28.549	-0.306	-0.263
-723.864	-200.000	0.230	-0.001
-722.850	-178.126	-0.147	-0.004
-721.835	107.040	-0.076	0.092
-720.821	-19.134	-0.500	-0.315
-719.806	-130.565	-0.093	-0.013
-718.791	95.181	-0.094	-0.108
-717.777	45.745	-0.091	-0.085
-716.762	420.035	-0.115	0.250
-715.748	165.297	-0.098	0.141
-714.733	800.000	-0.026	-0.108
-713.718	-140.522	0.136	0.014
-712.704	-200.000	0.025	-0.294
-711.689	800.000	-0.070	-0.237
-710.675	-103.653	0.168	0.040
-709.660	126.266	-0.071	0.092
-708.645	-75.632	-0.269	-0.097
-707.631	-14.213	0.131	-0.086
-706.616	-48.670	0.169	0.083
-705.602	783.448	0.050	0.140
-704.587	197.925	0.093	-0.145
-703.572	240.808	0.053	-0.090
-702.558	-110.941	0.139	-0.029
-701.543	-200.000	0.117	0.553
-700.529	387.029	0.111	-0.232
-699.514	-150.904	-0.192	0.015
-698.499	113.141	0.060	-0.074
-697.485	-13.347	0.184	-0.121
-696.470	-97.804	-0.331	-0.087
-695.456	800.000	0.044	0.156
-694.441	81.526	-0.044	0.048
-693.426	-136.649	-0.020	0.002
-692.412	-200.000	-0.020	-0.323
-691.397	-200.000	-0.033	-0.454
-690.383	-81.438	0.423	-0.141
-689.368	205.164	-0.061	0.097
-688.354	-69.958	0.091	0.035
-687.339	-200.000	0.051	-0.450
-686.324	-200.000	-0.009	0.211
-685.310	800.000	-0.111	-0.365
-684.295	-200.000	-0.004	-0.052
-683.281	-200.000	0.020	0.116
-682.266	35.645	-0.261	-0.232
-681.251	5.994	0.373	-0.281
-680.237	-105.949	-0.038	-0.009
-679.222	-87.185	0.394	-0.122
-678.208	135.902	0.124	-0.164
-677.193	-101.084	-0.129	0.032
-676.178	680.313	0.145	0.384
-675.164	-163.870	-0.274	-0.013
-674.149	-174.300	0.055	-0.002
-673.135	125.175	0.053	-0.068
-672.120	-153.150	0.175	-0.012
-671.105	-139.887	-0.417	-0.045
-670.091	-200.000	-0.015	-0.219
-669.076	35.274	0.192	0.170
-668.062	-200.000	-0.002	0.221
-667.047	448.592	0.096	0.215
-666.032	-176.741	0.168	0.004
-665.018	-60.028	0.409	-0.177
-664.003	410.306	-0.137	-0.294
-662.989	-140.580	0.205	0.022
-661.974	-84.958	-0.324	0.103
-660.959	-200.000	-0.032	0.181
-659.945	-62.350	0.147	-0.062
-658.930	800.000	0.079	-0.317
-657.916	-156.069	-0.278	0.018
-656.901	119.484	-0.062	-0.078
-655.886	109.722	0.140	0.170
-654.872	-148.131	-0.448	0.038
-653.857	-200.000	-0.002	-0.079
-652.843	-160.891	0.090	0.005
-651.828	-200.000	0.028	0.302
-650.814	51.353	0.312	-0.300
-649.799	-200.000	0.002	0.167
-648.784	-107.011	0.329	-0.074
-647.770	-152.741	-0.239	0.017
-646.755	800.000	-0.027	0.084
-645.741	63.735	0.183	-0.187
-644.726	611.611	-0.132	0.334
-643.711	-125.640	-0.406	0.062
-642.697	-71.869	0.126	0.048
-641.682	123.377	-0.165	-0.210
-640.668	-1.417	0.111	-0.079
-639.653	158.252	-0.118	-0.165
-638.638	-200.000	-0.017	-0.163
-637.624	38.863	-0.415	0.376
-636.609	294.182	-0.144	-0.267
-635.595	-76.918	-0.204	0.072
-634.580	-61.756	-0.047	-0.020
-633.565	800.000	0.042	0.175
-632.551	-97.163	0.143	0.038
-631.536	1.426	0.153	-0.112
-630.522	788.580	-0.080	-0.223
-629.507	800.000	-0.029	-0.105
-628.492	-200.000	-0.023	0.201
-627.478	117.349	0.093	-0.116
-626.463	151.364	-0.072	-0.099
-625.449	-62.785	-0.238	0.100
-624.434	264.679	-0.170	-0.300
-623.419	267.981	0.083	0.147
-622.405	-80.797	0.307	0.103
-621.390	1.925	0.357	0.260
-620.376	-1.414	0.076	-0.054
-619.361	268.743	-0.057	-0.102
-618.346	1.078	-0.242	-0.176
-617.332	-5.287	0.075	0.052
-616.317	554.913	0.060	0.146
-615.303	236.145	-0.087	-0.146
-614.288	64.325	-0.337	0.343
-613.273	63.284	0.117	0.118
-612.259	-152.098	-0.033	0.002
-611.244	36.386	0.059	-0.053
-610.230	-19.490	-0.124	-0.078
-609.215	-191.923	-0.193	-0.002
-608.201	-200.000	0.018	0.131
-607.186	800.000	0.087	0.295
-606.171	216.900	-0.084	0.135
-605.157	582.447	-0.117	-0.290
-604.142	-156.099	-0.224	-0.014
-603.128	11.633	-0.161	-0.125
-602.113	-200.000	0.037	0.268
-601.098	-101.839	-0.194	0.048
-600.084	-4.876	-0.336	0.234
-599.069	800.000	0.029	-0.105
-598.055	549.236	0.063	0.153
-597.040	657.925	-0.091	0.237
-596.025	155.178	0.050	-0.069
-595.011	-142.805	0.090	-0.009
-593.996	674.158	0.047	-0.123
-592.982	-187.366	0.314	-0.004
-591.967	-169.156	-0.232	-0.009
-590.952	505.774	0.104	-0.243
-589.938	-200.000	-0.009	-0.229
-588.923	-57.533	-0.070	0.031
-587.909	-200.000	-0.314	0.002
-586.894	-118.583	0.136	-0.024
-585.879	89.305	-0.035	-0.039
-584.865	73.701	0.163	-0.172
-583.850	62.232	-0.218	-0.220
-582.836	-88.212	0.055	-0.017
-581.821	-192.413	-0.164	0.002
-580.806	-47.585	-0.078	-0.038
-579.792	354.021	0.076	-0.153
-578.777	608.790	-0.115	0.291
-577.763	-200.000	-0.044	-0.209
-576.748	144.718	-0.067	0.090
-575.733	-15.701	-0.182	0.117
-574.719	2.156	-0.315	0.230
-573.704	-76.059	-0.320	0.114
-572.690	7.297	0.154	-0.116
-571.675	-90.743	0.201	-0.059
-570.661	-97.876	0.350	-0.091
-569.646	800.000	-0.013	0.056
-568.631	-5.706	0.087	0.060
-567.617	176.197	0.172	-0.252
-566.602	-134.590	-0.083	0.010
-565.588	3.450	-0.401	0.295
-564.573	739.197	0.083	-0.226
-563.558	-192.678	0.247	0.002
-562.544	-139.353	0.220	-0.024
-561.529	409.998	-0.128	0.274
-560.515	-113.324	0.109	0.022
-559.500	-36.881	0.357	-0.193
-558.485	-200.000	-0.013	-0.104
-557.471	-75.630	0.160	-0.057
-556.456	-26.030	-0.159	-0.094
-555.442	-200.000	-0.013	0.281
-554.427	-200.000	0.045	-0.286
-553.412	-59.572	-0.308	0.134
-552.398	158.922	0.180	0.252
-551.383	-66.565	-0.221	0.088
-550.369	156.932	0.200	-0.279
-549.354	-27.470	-0.287	-0.169
-548.339	479.292	0.133	-0.304
-547.325	609.894	-0.095	-0.239
-546.310	-16.608	-0.143	0.091
-545.296	13.877	-0.203	0.159
-544.281	39.760	-0.273	-0.247
-543.266	-144.020	0.239	-0.023
-542.252	110.337	0.164	-0.198
-541.237	32.093	0.092	-0.080
-540.223	-153.143	-0.191	0.014
-539.208	-75.370	0.126	0.045
-538.193	139.725	0.114	-0.151
-537.179	-28.523	0.211	0.123
-536.164	-166.003	-0.359	0.015
-535.150	-57.266	0.220	0.098
-534.135	-134.597	0.106	-0.013
-533.121	116.687	0.109	-0.135
-532.106	800.000	-0.046	0.129
-531.091	-72.141	-0.146	-0.055
-530.077	29.079	-0.190	0.162
-529.062	12.289	0.094	-0.073
-528.048	53.567	-0.051	0.050
-527.033	-172.247	-0.149	0.005
-526.018	-83.295	0.136	0.044
-525.004	233.321	0.084	-0.139
-523.989	-74.200	0.400	-0.146
-522.975	800.000	-0.087	0.257
-521.960	-156.395	-0.097	0.006
-520.945	-29.618	0.070	0.040
-519.931	123.645	0.057	0.072
-518.916	800.000	0.055	-0.192
-517.902	30.753	-0.231	-0.199
-516.887	41.352	-0.140	-0.128
-515.872	-15.250	-0.279	0.180
-514.858	-163.916	0.093	0.004
-513.843	800.000	0.066	-0.276
-512.829	-200.000	0.031	-0.293
-511.814	800.000	0.095	0.278
-510.799	-48.525	0.070	-0.034
-509.785	-92.448	0.298	-0.084
-508.770	7.336	-0.275	0.207
-507.756	476.393	0.066	-0.151
-506.741	-200.000	0.001	0.010
-505.726	241.134	-0.347	-0.583
-504.712	-30.675	0.405	0.231
-503.697	360.027	0.087	0.176
-502.683	132.087	0.219	-0.284
-501.668	222.508	0.105	-0.171
-500.653	-48.171	0.111	-0.054
-499.639	180.619	0.094	-0.139
-498.624	-200.000	-0.022	0.143
-497.610	800.000	-0.039	0.115
-496.595	-200.000	0.026	-0.193
-495.581	4.963	-0.078	0.057
-494.566	-97.255	0.114	0.030
-493.551	-15.229	0.125	-0.081
-492.537	263.854	0.071	0.125
-491.522	-68.546	0.273	-0.107
-490.508	-94.837	-0.134	0.037
-489.493	-200.000	0.025	0.347
-488.478	31.326	0.060	-0.052
-487.464	-200.000	-0.068	0.355
-486.449	-33.273	0.273	0.152
-485.435	-10.220	-0.278	0.186
-484.420	-156.448	-0.254	0.016
-483.405	-200.000	-0.165	-0.000
-482.391	-152.039	-0.370	-0.027
-481.376	120.850	0.057	0.071
-480.362	-59.297	-0.149	-0.065
-479.347	141.178	0.040	0.054
-478.332	800.000	0.024	0.070
-477.318	-120.590	0.178	-0.030
-476.303	-200.000	-0.036	-0.158
-475.289	-200.000	-0.011	0.081
-474.274	659.694	0.078	-0.202
-473.259	-154.460	0.210	0.014
-472.245	-13.198	0.213	0.139
-471.230	-57.442	-0.191	0.084
-470.216	10.086	0.161	-0.123
-469.201	-51.730	0.189	-0.089
-468.186	21.529	0.101	-0.083
-467.172	0.439	0.049	0.036
-466.157	-104.186	0.299	-0.070
-465.143	-130.941	0.211	0.028
-464.128	198.021	0.051	-0.079
-463.113	83.563	0.207	-0.227
-462.099	29.391	-0.218	0.187
-461.084	-151.541	0.231	-0.017
-460.070	-200.000	-0.336	-0.002
-459.055	-121.357	0.127	-0.021
-458.040	-64.094	0.069	0.028
-457.026	289.659	-0.203	0.371
-456.011	2.114	0.185	-0.134
-454.997	-200.000	0.032	0.252
-453.982	74.864	-0.145	0.154
-452.968	-49.680	-0.292	0.140
-451.953	-120.685	0.170	0.029
-450.938	-63.710	0.191	-0.079
-449.924	-163.633	0.299	0.014
-448.909	-70.094	-0.269	0.103
-447.895	230.212	-0.115	-0.190
-446.880	-115.910	0.231	-0.043
-445.865	-200.000	0.001	0.038
-444.851	51.523	-0.044	0.042
-443.836	18.383	-0.063	0.050
-442.822	-129.680	-0.166	0.023
-441.807	-91.934	0.281	0.080
-440.792	-24.709	0.328	0.196
-439.778	86.473	-0.245	0.272
-438.763	-200.000	0.023	-0.159
-437.749	800.000	0.071	-0.215
-436.734	-76.273	0.327	-0.116
-435.719	187.504	-0.039	0.059
-434.705	522.864	-0.113	0.268
-433.690	30.763	0.157	0.135
-432.676	7.119	0.040	0.030
-431.661	800.000	-0.030	-0.095
-430.646	-99.126	-0.317	-0.081
-429.632	369.543	-0.109	-0.222
-428.617	168.301	0.219	-0.313
-427.603	-20.946	0.065	-0.040
-426.588	343.427	-0.097	0.191
-425.573	-113.040	0.175	0.035
-424.559	-161.977	-0.270	0.014
-423.544	-138.399	-0.400	-0.044
-422.530	-200.000	-0.004	0.227
-421.515	125.831	-0.216	0.274
-420.500	-200.000	-0.021	0.285
-419.486	-1.943	-0.309	0.218
-418.471	-136.136	-0.128	-0.015
-417.457	-28.925	-0.237	0.136
-416.442	179.585	0.140	-0.206
-415.428	-111.950	-0.115	-0.023
-414.413	-178.060	-0.163	0.004
-413.398	-200.000	0.053	-0.250
-412.384	-24.196	0.197	0.118
-411.369	-94.924	-0.308	0.084
-410.355	-27.913	0.049	0.028
-409.340	-200.000	-0.028	0.356
-408.325	30.463	0.167	0.143
-407.311	84.853	-0.077	-0.085
-406.296	-67.118	-0.348	-0.138
-405.282	151.082	-0.093	0.127
-404.267	772.641	-0.065	-0.178
-403.252	-113.522	0.243	0.048
-402.238	60.038	0.120	0.119
-401.223	-12.184	-0.089	-0.059
-400.209	800.000	0.014	-0.044
-399.194	465.369	0.193	-0.434
-398.179	-113.160	0.078	0.015
-397.165	171.409	-0.151	-0.218
-396.150	800.000	-0.046	0.156
-395.136	140.126	0.159	0.211
-394.121	-62.864	-0.127	0.053
-393.106	-144.616	-0.100	-0.009
-392.092	-200.000	-0.005	-0.079
-391.077	31.490	-0.195	-0.168
-390.063	-112.595	-0.354	-0.071
-389.048	800.000	-0.045	0.147
-388.033	113.823	0.012	-0.015
-387.019	-108.805	0.040	0.009
-386.004	-200.000	-0.034	-0.187
-384.990	156.273	0.138	-0.191
-383.975	-81.924	0.086	0.028
-382.960	-116.345	0.190	0.035
-381.946	469.506	-0.100	0.226
-380.931	-36.182	0.201	-0.109
-379.917	79.608	-0.170	-0.183
-378.902	-200.000	-0.003	-0.198
-377.888	-11.058	0.058	-0.038
-376.873	-200.000	0.078	0.376
-375.858	-200.000	-0.017	-0.121
-374.844	-85.553	-0.114	0.036
-373.829	-129.971	-0.282	0.039
-372.815	220.644	-0.213	0.342
-371.800	353.478	0.038	-0.075
-370.785	-112.497	-0.137	0.027
-369.771	100.829	-0.179	-0.209
-368.756	96.354	0.226	0.259
-367.742	-200.000	0.006	-0.320
-366.727	-55.118	-0.068	-0.031
-365.712	-200.000	-0.016	-0.093
-364.698	-89.267	-0.253	0.075
-363.683	-76.756	-0.143	0.050
-362.669	-155.778	0.335	0.021
-361.654	179.855	-0.110	0.161
-360.639	-41.541	-0.084	-0.043
-359.625	297.279	0.048	0.089
-358.610	360.631	-0.046	0.092
-357.596	-90.280	-0.376	0.109
-356.581	-154.697	-0.300	-0.020
-355.566	4.061	-0.028	-0.020
-354.552	-171.559	-0.118	0.004
-353.537	-83.414	-0.234	0.075
-352.523	-200.000	0.001	-0.029
-351.508	-95.107	-0.203	0.055
-350.493	-43.236	-0.214	-0.109
-349.479	235.064	0.073	0.121
-348.464	170.188	-0.119	-0.170
-347.450	378.542	-0.181	0.372
-346.435	79.676	-0.074	0.080
-345.420	86.544	-0.062	-0.068
-344.406	117.658	0.142	-0.176
-343.391	-30.917	0.188	0.106
-342.377	128.288	-0.138	-0.176
-341.362	800.000	0.086	0.237
-340.348	655.466	0.134	-0.344
-339.333	-200.000	-0.037	0.342
-338.318	100.466	-0.130	0.151
-337.304	72.378	-0.302	-0.316
-336.289	800.000	0.027	-0.098
-335.275	-126.281	-0.191	-0.029
-334.260	-200.000	0.034	0.298
-333.245	-139.267	-0.112	0.012
-332.231	-123.298	-0.147	0.024
-331.216	-110.728	-0.101	0.021
-330.202	-50.506	0.449	0.212
-329.187	-67.587	-0.243	0.095
-328.172	-200.000	-0.013	-0.257
-327.158	-200.000	0.022	-0.385
-326.143	-1.979	-0.080	-0.056
-325.129	38.738	-0.003	-0.003
-324.114	303.197	-0.146	-0.270
-323.099	-76.974	0.101	0.035
-322.085	800.000	-0.108	0.410
-321.070	293.502	0.136	0.249
-320.056	-200.000	-0.038	-0.263
-319.041	129.011	0.126	-0.161
-318.026	-62.293	-0.039	0.016
-317.012	60.109	-0.100	-0.099
-315.997	-196.504	0.251	0.002
-314.983	565.564	-0.146	-0.354
-313.968	-117.424	0.217	0.039
-312.953	122.921	0.319	0.399
-311.939	-54.488	0.429	-0.194
-310.924	-39.901	-0.226	-0.118
-309.910	800.000	-0.016	-0.066
-308.895	-150.129	0.300	-0.023
-307.880	-173.187	0.337	-0.010
-306.866	47.925	-0.246	0.230
-305.851	63.415	0.103	0.104
-304.837	-200.000	0.047	-0.330
-303.822	394.241	0.141	0.294
-302.807	135.800	-0.128	-0.166
-301.793	69.306	0.079	-0.081
-300.778	-57.358	0.237	0.104
-299.764	-27.789	-0.257	0.149
-298.749	1.777	-0.079	-0.057
-297.735	-40.626	0.337	-0.175
-296.720	54.617	-0.100	-0.097
-295.705	57.593	0.135	0.131
-294.691	-182.906	0.181	-0.003
-293.676	-52.075	0.106	0.049
-292.662	-107.620	0.249	0.054
-291.647	347.012	0.037	0.073
-290.632	-200.000	0.022	0.235
-289.618	-121.589	0.232	0.039
-288.603	800.000	-0.099	0.401
-287.589	-63.129	-0.124	-0.051
-286.574	-200.000	-0.015	0.091
-285.559	513.449	-0.127	-0.297
-284.545	-81.265	-0.218	0.072
-283.530	800.000	0.026	0.099
-282.516	-200.000	0.000	0.009
-281.501	-57.643	0.254	0.111
-280.486	28.193	-0.043	0.036
-279.472	404.026	-0.056	0.118
-278.457	-200.000	0.061	-0.421
-277.443	-104.402	0.430	0.100
-276.428	70.850	0.166	0.172
-275.413	800.000	-0.070	0.222
-274.399	800.000	-0.018	-0.079
-273.384	693.534	-0.034	-0.089
-272.370	-74.247	-0.248	-0.090
-271.355	190.570	0.299	-0.449
-270.340	101.060	-0.103	-0.120
-269.326	237.756	-0.150	-0.249
-268.311	-200.000	0.024	-0.342
-267.297	-25.115	0.260	-0.154
-266.282	115.953	-0.128	0.156
-265.267	-122.154	0.397	0.065
-264.253	-92.611	-0.309	0.087
-263.238	-200.000	-0.021	-0.113
-262.224	540.887	-0.065	0.155
-261.209	-57.066	-0.014	-0.006
-260.195	514.760	-0.010	0.023
-259.180	-68.161	-0.093	-0.036
-258.165	367.131	-0.032	-0.064
-257.151	85.870	-0.229	-0.251
-256.136	-159.273	-0.263	0.015
-255.122	-67.445	0.240	-0.094
-254.107	-200.000	-0.011	-0.055
-253.092	-200.000	-0.076	0.387
-252.078	376.083	0.051	-0.104
-251.063	-57.286	-0.285	-0.125
-250.049	-32.367	0.153	0.085
-249.034	-76.161	0.253	0.089
-248.019	-45.830	-0.232	-0.114
-247.005	-42.705	0.461	-0.234
-245.990	-200.000	-0.002	0.082
-244.976	-111.813	0.343	-0.069
-243.961	95.863	0.298	0.340
-242.946	-5.260	-0.122	0.084
-241.932	127.765	0.112	0.142
-240.917	699.540	-0.017	-0.045
-239.903	800.000	0.077	-0.277
-238.888	-67.538	-0.234	-0.092
-237.873	-54.423	0.177	-0.080
-236.859	-200.000	-0.025	0.394
-235.844	458.494	0.048	0.106
-234.830	800.000	0.071	0.310
-233.815	-51.056	0.446	0.209
-232.800	419.902	-0.105	0.225
-231.786	-200.000	-0.018	0.092
-230.771	63.300	-0.087	0.087
-229.757	-49.886	-0.208	0.098
-228.742	127.504	-0.071	-0.090
-227.727	800.000	0.024	0.100
-226.713	-132.917	-0.249	-0.032
-225.698	288.277	-0.071	-0.127
-224.684	26.480	0.203	0.170
-223.669	-36.685	-0.133	0.071
-222.655	-34.644	0.196	-0.107
-221.640	-200.000	-0.000	-0.212
-220.625	800.000	-0.058	0.165
-219.611	800.000	-0.033	0.126
-218.596	800.000	0.050	-0.178
-217.582	800.000	-0.047	0.144
-216.567	800.000	0.080	-0.320
-215.552	76.823	0.246	0.260
-214.538	317.445	0.221	0.417
-213.523	-200.000	0.029	-0.236
-212.509	-13.283	0.090	0.058
-211.494	-64.926	0.241	0.097
-210.479	161.548	-0.123	-0.172
-209.465	7.446	-0.172	-0.128
-208.450	800.000	-0.138	0.480
-207.436	65.656	0.233	-0.235
-206.421	-200.000	0.004	-0.155
-205.406	-200.000	0.027	-0.243
-204.392	-182.153	-0.456	0.009
-203.377	800.000	0.006	-0.024
-202.363	132.746	-0.218	-0.280
-201.348	-200.000	0.026	-0.311
-200.333	-109.920	0.160	0.033
-199.319	-121.872	0.184	0.030
-198.304	-70.076	-0.241	-0.091
-197.290	10.543	0.308	-0.233
-196.275	-73.098	-0.185	-0.067
-195.260	718.404	-0.045	0.120
-194.246	94.270	0.148	-0.168
-193.231	-200.000	-0.022	-0.372
-192.217	36.377	0.096	-0.084
-191.202	-160.907	-0.110	-0.006
-190.187	377.289	0.170	0.345
-189.173	-200.000	-0.032	0.303
-188.158	11.501	-0.333	-0.254
-187.144	-164.785	0.318	-0.014
-186.129	83.688	0.073	-0.080
-185.114	-106.726	0.378	0.084
-184.100	135.209	0.218	-0.282
-183.085	36.358	0.211	-0.185
-182.071	-133.662	-0.167	0.021
-181.056	-119.806	0.348	0.060
-180.042	800.000	-0.074	0.259
-179.027	425.132	-0.140	0.301
-178.012	21.734	-0.226	0.183
-176.998	-40.771	0.095	0.049
-175.983	115.787	0.034	-0.042
-174.969	232.380	-0.115	-0.188
-173.954	1.711	0.204	-0.146
-172.939	-200.000	0.030	0.306
-171.925	-123.840	0.187	0.029
-170.910	197.357	0.050	0.076
-169.896	-200.000	0.014	-0.098
-168.881	476.323	0.118	-0.265
-167.866	-13.705	0.327	0.211
-166.852	68.694	0.104	0.107
-165.837	228.467	-0.038	0.061
-164.823	800.000	-0.120	-0.405
-163.808	-200.000	-0.015	0.189
-162.793	-200.000	-0.034	0.209
-161.779	194.940	-0.008	-0.013
-160.764	-6.231	0.280	0.190
-159.750	-49.227	0.129	0.061
-158.735	-78.360	0.385	-0.131
-157.720	-58.923	0.195	0.084
-156.706	-146.715	-0.095	-0.008
-155.691	-58.541	-0.118	-0.051
-154.677	-200.000	-0.006	0.052
-153.662	-141.266	-0.421	-0.043
-152.647	495.426	-0.127	-0.291
-151.633	210.706	-0.067	-0.105
-150.618	800.000	0.015	-0.045
-149.604	-72.581	0.245	0.090
-148.589	-31.184	-0.114	-0.064
-147.574	800.000	0.057	-0.157
-146.560	24.461	0.141	0.116
-145.545	180.320	0.084	0.123
-144.531	458.943	0.082	0.180
-143.516	212.494	0.079	-0.123
-142.502	113.101	-0.185	0.223
-141.487	361.305	-0.049	-0.097
-140.472	-168.015	-0.261	0.010
-139.458	437.276	-0.032	0.068
-138.443	-52.067	0.248	-0.114
-137.429	38.985	0.169	0.150
-136.414	36.203	-0.177	0.155
-135.399	466.479	-0.069	-0.153
-134.385	-58.420	-0.381	-0.164
-133.370	54.216	0.154	-0.147
-132.356	416.793	-0.081	0.172
-131.341	-200.000	0.044	0.434
-130.326	-32.878	0.047	0.026
-129.312	81.257	-0.073	0.078
-128.297	257.780	-0.093	0.158
-127.283	-62.004	-0.105	0.044
-126.268	-57.723	0.233	-0.101
-125.253	-58.688	0.041	0.018
-124.239	800.000	-0.077	-0.288
-123.224	10.512	0.207	-0.157
-122.210	27.441	-0.042	0.035
-121.195	-191.454	0.275	-0.003
