DTS Sentinel unit serial number:	SN413079Multiplexer serial number:	ORYXHardware model number:	OX4-SRSoftware version number:	ORYX F/W v4.00 Oryx Data Collector v3.7.2.0data status	okinstallation	princeton_trtdifferential loss correction	single-endedforward channel	channel 1reverse channel	N/Adate	2019/09/13time	13:02:35forward acquisition time	60.00reverse acquisition time	0.00gamma	496.2192k internal	0.2306k external	0.2306temperature offset calibration	1.0165default loss term (dB/km)	0.3790temperature slope calibration	1.0000multiplexer offset coefficient	1.0000multiplexer slope coefficient	1.0000fibre end	0.00T internal ref (°C)	34.81T ext. ref 1 (°C)	4.57T ext. ref 2 (°C)	31.21length (m)	temperature (°C)	Stokes	anti-Stokes-747.200	-127.523	0.170	0.025
-746.185	82.696	-0.047	-0.052
-745.171	-18.756	0.285	-0.181
-744.156	-138.045	-0.378	0.043
-743.142	31.250	-0.037	0.033
-742.127	250.654	0.080	0.138
-741.112	-85.498	0.021	-0.007
-740.098	-136.254	0.280	0.033
-739.083	-16.506	-0.153	-0.099
-738.069	233.673	-0.084	0.141
-737.054	-94.267	0.085	0.024
-736.039	657.807	0.096	-0.250
-735.025	198.303	-0.078	0.121
-734.010	-102.196	-0.306	-0.075
-732.996	-69.818	-0.215	0.083
-731.981	13.301	-0.139	-0.109
-730.966	498.353	-0.027	-0.063
-729.952	-23.949	-0.141	0.086
-728.937	-149.062	-0.195	-0.016
-727.923	-98.270	0.097	-0.025
-726.908	218.289	-0.241	0.391
-725.894	-200.000	0.030	-0.279
-724.879	62.483	0.141	-0.143
-723.864	-92.378	0.064	0.018
-722.850	-200.000	-0.031	0.292
-721.835	-143.996	-0.126	-0.012
-720.821	-40.165	-0.144	-0.076
-719.806	-54.996	-0.329	0.151
-718.791	-134.784	-0.069	0.008
-717.777	8.239	-0.149	-0.114
-716.762	237.416	0.028	0.047
-715.748	265.759	-0.106	-0.188
-714.733	113.859	-0.134	-0.165
-713.718	27.320	-0.250	0.213
-712.704	58.608	-0.266	-0.265
-711.689	-105.473	0.131	0.030
-710.675	241.040	-0.103	-0.175
-709.660	59.456	-0.121	-0.121
-708.645	-200.000	-0.031	0.180
-707.631	800.000	0.049	-0.167
-706.616	-17.479	-0.171	-0.109
-705.602	-85.825	0.209	-0.066
-704.587	151.368	-0.273	-0.378
-703.572	-84.450	-0.131	0.042
-702.558	-111.595	0.362	-0.075
-701.543	236.908	-0.041	-0.070
-700.529	75.993	0.088	0.094
-699.514	800.000	-0.105	0.399
-698.499	344.224	0.024	0.047
-697.485	-116.361	-0.330	-0.062
-696.470	-18.165	0.158	-0.101
-695.456	343.079	0.047	0.093
-694.441	-200.000	0.010	-0.123
-693.426	-166.122	-0.310	-0.013
-692.412	127.481	-0.404	0.521
-691.397	800.000	-0.080	0.309
-690.383	668.348	0.109	0.288
-689.368	-45.689	0.027	-0.013
-688.354	201.051	0.187	-0.292
-687.339	-120.900	-0.229	-0.039
-686.324	-200.000	-0.066	-0.462
-685.310	-52.824	-0.085	0.040
-684.295	147.528	-0.038	0.053
-683.281	800.000	0.073	0.263
-682.266	-200.000	-0.044	0.198
-681.251	-200.000	-0.023	-0.124
-680.237	-102.053	0.036	0.009
-679.222	800.000	-0.125	0.356
-678.208	42.924	-0.121	-0.112
-677.193	-77.609	0.193	-0.068
-676.178	-93.632	0.114	0.032
-675.164	97.454	-0.406	-0.473
-674.149	-32.224	0.320	-0.181
-673.135	-9.764	-0.331	0.224
-672.120	-200.000	0.015	-0.115
-671.105	250.709	0.159	0.273
-670.091	-27.827	0.221	-0.130
-669.076	-85.248	0.191	-0.061
-668.062	800.000	0.048	-0.164
-667.047	-65.424	0.201	0.082
-666.032	-124.803	-0.100	0.016
-665.018	81.269	0.046	0.051
-664.003	-30.795	0.161	0.093
-662.989	416.138	0.070	0.152
-661.974	490.596	-0.083	0.193
-660.959	-200.000	-0.016	0.254
-659.945	-88.469	-0.393	0.119
-658.930	272.966	0.077	-0.138
-657.916	-95.805	0.116	-0.031
-656.901	-200.000	-0.024	0.266
-655.886	-200.000	-0.011	0.102
-654.872	-117.125	-0.374	0.069
-653.857	-93.011	0.394	-0.111
-652.843	800.000	0.070	-0.284
-651.828	106.296	0.098	-0.118
-650.814	-144.739	-0.363	-0.034
-649.799	-56.472	-0.151	-0.068
-648.784	489.679	-0.048	0.112
-647.770	351.532	0.164	-0.330
-646.755	455.859	0.056	0.127
-645.741	711.792	-0.079	-0.212
-644.726	571.219	-0.102	0.253
-643.711	-136.241	-0.245	-0.029
-642.697	-146.559	-0.125	-0.011
-641.682	-200.000	0.025	0.177
-640.668	-113.827	-0.154	0.030
-639.653	-200.000	0.045	0.313
-638.638	-44.708	-0.295	0.149
-637.624	87.704	0.253	0.284
-636.609	81.170	-0.240	-0.262
-635.595	52.974	-0.306	0.296
-634.580	64.512	-0.325	0.332
-633.565	-200.000	-0.019	-0.224
-632.551	105.929	0.093	0.112
-631.536	215.546	0.183	-0.294
-630.522	-200.000	-0.015	-0.248
-629.507	-41.085	-0.145	-0.076
-628.492	-200.000	-0.000	0.119
-627.478	-36.083	-0.378	-0.207
-626.463	-63.087	0.163	0.068
-625.449	-123.991	0.227	0.036
-624.434	582.067	-0.083	0.205
-623.419	-50.448	-0.304	-0.145
-622.405	-144.613	-0.285	0.027
-621.390	-0.421	0.091	-0.066
-620.376	45.559	-0.109	0.102
-619.361	-200.000	0.010	0.058
-618.346	-134.639	0.478	-0.059
-617.332	130.782	0.041	0.053
-616.317	20.107	-0.199	-0.163
-615.303	-90.319	-0.191	0.056
-614.288	294.575	-0.084	-0.156
-613.273	469.579	0.113	0.256
-612.259	800.000	-0.045	0.149
-611.244	-24.933	0.144	-0.087
-610.230	-200.000	-0.026	-0.258
-609.215	602.532	-0.088	0.222
-608.201	59.795	0.039	-0.038
-607.186	49.670	0.051	0.049
-606.171	-102.572	0.114	0.028
-605.157	-187.682	-0.189	0.003
-604.142	-28.669	0.195	-0.114
-603.128	60.062	-0.219	0.219
-602.113	103.538	-0.212	-0.251
-601.098	218.976	0.075	-0.121
-600.084	-200.000	-0.010	-0.200
-599.069	72.958	-0.425	-0.450
-598.055	55.277	-0.060	-0.059
-597.040	-128.114	-0.142	0.020
-596.025	800.000	0.089	0.318
-595.011	-94.654	-0.231	-0.063
-593.996	-165.125	-0.162	-0.007
-592.982	107.763	0.259	0.312
-591.967	-200.000	0.002	0.008
-590.952	-104.433	-0.190	0.045
-589.938	-55.336	0.251	-0.114
-588.923	-200.000	0.017	0.231
-587.909	208.896	-0.221	0.350
-586.894	74.726	-0.056	-0.059
-585.879	-56.229	-0.250	0.112
-584.865	-200.000	-0.012	0.149
-583.850	-200.000	0.002	-0.123
-582.836	-200.000	-0.018	-0.471
-581.821	-159.371	-0.363	-0.020
-580.806	724.587	0.092	-0.249
-579.792	-200.000	-0.015	0.278
-578.777	-93.022	0.126	-0.036
-577.763	-151.112	-0.090	0.007
-576.748	254.083	-0.126	-0.218
-575.733	-99.433	0.292	0.074
-574.719	33.474	-0.182	-0.160
-573.704	-70.853	-0.064	-0.024
-572.690	106.954	-0.160	-0.191
-571.675	74.434	0.126	-0.134
-570.661	33.629	-0.105	-0.092
-569.646	-76.216	-0.233	-0.083
-568.631	91.426	0.205	-0.233
-567.617	-19.893	0.187	-0.116
-566.602	67.809	-0.365	-0.377
-565.588	227.648	-0.250	-0.410
-564.573	-200.000	0.002	0.192
-563.558	84.783	0.181	-0.200
-562.544	126.788	0.332	-0.426
-561.529	107.976	-0.122	-0.147
-560.515	99.896	0.131	-0.154
-559.500	336.625	-0.064	-0.126
-558.485	800.000	-0.059	-0.198
-557.471	50.730	0.317	-0.303
-556.456	-134.215	0.159	-0.020
-555.442	417.130	0.150	-0.324
-554.427	304.040	0.194	0.363
-553.412	264.489	0.091	-0.159
-552.398	-200.000	0.101	-0.450
-551.383	52.446	0.227	0.219
-550.369	85.967	0.168	0.187
-549.354	147.832	-0.037	0.051
-548.339	-200.000	-0.005	0.270
-547.325	216.435	-0.115	0.185
-546.310	-117.589	0.190	-0.035
-545.296	30.542	-0.121	-0.105
-544.281	724.607	-0.084	0.225
-543.266	-152.273	-0.065	-0.005
-542.252	-200.000	-0.087	0.453
-541.237	-123.151	0.328	0.053
-540.223	-173.552	0.201	0.006
-539.208	-200.000	0.357	0.000
-538.193	-200.000	0.026	-0.145
-537.179	18.522	0.234	0.189
-536.164	-149.420	0.043	-0.003
-535.150	452.135	-0.169	-0.378
-534.135	-29.430	0.300	0.173
-533.121	-187.304	0.413	0.006
-532.106	456.698	-0.092	0.205
-531.091	-178.271	0.082	0.002
-530.077	-20.612	0.215	-0.133
-529.062	-123.391	-0.410	0.066
-528.048	352.056	0.032	-0.063
-527.033	-99.287	-0.225	-0.057
-526.018	-200.000	-0.061	-0.364
-525.004	-107.938	-0.065	-0.014
-523.989	30.613	-0.236	0.204
-522.975	166.074	0.164	0.234
-521.960	138.866	0.140	-0.186
-520.945	-200.000	0.049	-0.305
-519.931	-200.000	0.024	-0.199
-518.916	-16.426	-0.312	0.199
-517.902	-200.000	0.020	-0.190
-516.887	257.390	0.179	0.310
-515.872	-19.882	-0.258	0.160
-514.858	641.833	-0.133	-0.341
-513.843	280.959	0.081	-0.146
-512.829	-149.348	0.328	0.026
-511.814	-200.000	-0.048	0.345
-510.799	-200.000	-0.067	0.304
-509.785	148.788	-0.108	0.147
-508.770	203.229	-0.139	-0.216
-507.756	71.364	-0.209	-0.219
-506.741	800.000	-0.112	-0.336
-505.726	469.905	-0.079	-0.178
-504.712	-200.000	-0.045	-0.237
-503.697	-130.452	0.050	0.007
-502.683	282.443	-0.027	-0.048
-501.668	19.426	0.403	-0.327
-500.653	800.000	0.019	0.062
-499.639	-63.114	0.300	0.125
-498.624	232.910	-0.071	0.118
-497.610	-200.000	0.017	0.177
-496.595	-85.809	0.071	0.022
-495.581	-200.000	0.047	-0.209
-494.566	45.614	0.112	-0.104
-493.551	101.597	-0.038	-0.044
-492.537	-64.127	0.069	0.028
-491.522	35.284	0.157	-0.139
-490.508	-124.473	-0.233	0.037
-489.493	22.723	0.061	-0.051
-488.478	5.770	0.081	-0.060
-487.464	114.333	-0.173	0.212
-486.449	-200.000	-0.005	0.046
-485.435	477.550	-0.084	0.191
-484.420	315.183	0.054	0.102
-483.405	-179.148	-0.125	0.003
-482.391	203.495	-0.357	0.557
-481.376	-3.999	-0.149	0.104
-480.362	12.050	0.065	0.051
-479.347	-200.000	0.026	0.228
-478.332	-200.000	0.040	0.209
-477.318	432.992	-0.087	0.190
-476.303	-61.470	-0.693	0.293
-475.289	800.000	-0.075	-0.225
-474.274	300.006	0.101	0.187
-473.259	-66.231	-0.132	0.053
-472.245	-16.216	-0.288	-0.184
-471.230	169.841	0.032	0.046
-470.216	-133.258	-0.155	0.020
-469.201	271.663	0.078	0.138
-468.186	-200.000	0.012	-0.395
-467.172	800.000	0.033	0.132
-466.157	-100.904	-0.249	0.061
-465.143	800.000	0.059	-0.235
-464.128	-129.553	0.483	-0.067
-463.113	-200.000	0.007	-0.223
-462.099	430.533	0.218	0.474
-461.084	-125.562	0.138	0.021
-460.070	165.377	-0.035	0.049
-459.055	105.702	-0.027	0.033
-458.040	468.333	-0.178	0.403
-457.026	23.944	-0.214	-0.177
-456.011	21.885	0.129	-0.106
-454.997	154.766	0.052	-0.072
-453.982	246.969	-0.161	0.273
-452.968	800.000	-0.041	-0.127
-451.953	-85.166	0.125	-0.039
-450.938	238.196	0.049	0.081
-449.924	2.685	0.155	0.113
-448.909	188.143	-0.129	-0.194
-447.895	-200.000	-0.040	-0.181
-446.880	-66.495	-0.205	0.082
-445.865	-14.406	-0.099	-0.064
-444.851	-200.000	-0.050	-0.235
-443.836	-67.391	0.221	0.087
-442.822	20.370	0.297	0.242
-441.807	-32.587	0.225	-0.126
-440.792	-74.895	0.236	-0.085
-439.778	-33.002	-0.376	-0.210
-438.763	414.972	-0.098	-0.209
-437.749	-1.452	0.274	0.194
-436.734	-60.230	-0.075	0.032
-435.719	-175.609	0.251	-0.007
-434.705	2.607	0.337	0.246
-433.690	51.916	-0.110	-0.105
-432.676	-104.236	0.302	-0.070
-431.661	2.074	-0.191	0.139
-430.646	-104.353	-0.531	0.124
-429.632	-129.432	0.255	0.035
-428.617	-80.686	0.098	0.033
-427.603	93.518	-0.234	-0.266
-426.588	-122.240	-0.179	-0.029
-425.573	31.502	-0.307	-0.265
-424.559	-56.033	-0.208	0.093
-423.544	309.234	0.065	-0.122
-422.530	-88.179	-0.149	-0.045
-421.515	-100.127	-0.069	0.017
-420.500	-200.000	-0.031	0.151
-419.486	-61.495	-0.163	-0.069
-418.471	72.275	-0.179	-0.187
-417.457	800.000	-0.016	-0.068
-416.442	356.686	-0.094	0.188
-415.428	47.521	-0.105	0.098
-414.413	722.412	-0.070	-0.188
-413.398	77.125	-0.256	0.274
-412.384	-200.000	0.036	-0.308
-411.369	-200.000	0.008	0.074
-410.355	97.159	0.163	0.188
-409.340	-200.000	0.027	-0.158
-408.325	202.273	-0.091	0.140
-407.311	296.464	-0.080	0.147
-406.296	-105.373	-0.204	0.047
-405.282	154.420	-0.111	0.153
-404.267	800.000	-0.062	-0.187
-403.252	1.471	-0.178	0.128
-402.238	69.894	-0.101	0.104
-401.223	137.359	0.099	-0.130
-400.209	-200.000	0.013	-0.069
-399.194	-104.554	-0.346	-0.080
-398.179	133.386	-0.190	0.247
-397.165	-200.000	-0.032	0.153
-396.150	-82.328	-0.181	-0.059
-395.136	-200.000	-0.015	-0.219
-394.121	88.241	-0.073	0.081
-393.106	522.108	0.083	0.195
-392.092	230.856	-0.149	0.244
-391.077	-14.353	-0.065	0.042
-390.063	-1.808	-0.172	-0.121
-389.048	-40.169	0.101	-0.053
-388.033	2.961	-0.175	-0.127
-387.019	-12.393	0.239	-0.157
-386.004	-28.815	0.170	-0.098
-384.990	155.302	0.119	0.165
-383.975	249.837	-0.132	0.225
-382.960	24.389	-0.230	-0.190
-381.946	-200.000	-0.033	0.344
-380.931	-115.635	0.260	0.049
-379.917	-200.000	0.259	0.001
-378.902	196.742	0.261	-0.400
-377.888	210.743	-0.051	-0.081
-376.873	645.123	0.071	-0.183
-375.858	-200.000	0.053	-0.290
-374.844	493.360	0.065	0.150
-373.829	123.556	-0.115	0.145
-372.815	-129.852	0.277	-0.038
-371.800	-64.667	-0.186	-0.076
-370.785	92.668	-0.084	0.095
-369.771	8.041	0.328	0.246
-368.756	-179.261	0.260	-0.006
-367.742	-108.062	0.333	-0.072
-366.727	-44.167	0.115	0.058
-365.712	468.846	-0.122	-0.274
-364.698	800.000	0.043	-0.127
-363.683	800.000	-0.033	-0.104
-362.669	-85.511	0.159	0.049
-361.654	-153.316	-0.191	0.013
-360.639	-38.592	0.065	-0.034
-359.625	382.912	-0.095	0.196
-358.610	207.242	0.115	0.180
-357.596	-67.338	0.517	0.204
-356.581	45.146	0.205	-0.189
-355.566	26.577	0.199	-0.167
-354.552	122.492	-0.139	-0.174
-353.537	-111.768	0.114	-0.023
-352.523	-103.376	0.199	-0.047
-351.508	109.034	-0.160	-0.191
-350.493	-200.000	-0.067	-0.327
-349.479	-49.677	0.162	0.077
-348.464	-85.607	0.217	-0.068
-347.450	-200.000	0.070	0.406
-346.435	-94.371	-0.149	0.041
-345.420	360.713	-0.098	0.197
-344.406	-15.449	-0.295	-0.189
-343.391	-200.000	0.022	-0.119
-342.377	-126.720	-0.215	0.032
-341.362	48.429	0.151	-0.142
-340.348	18.148	-0.193	0.154
-339.333	323.849	-0.083	0.159
-338.318	-28.049	0.396	0.229
-337.304	34.643	0.133	-0.117
-336.289	-200.000	0.007	-0.149
-335.275	148.968	-0.037	0.049
-334.260	-200.000	-0.028	0.280
-333.245	170.637	-0.203	0.291
-332.231	250.382	-0.088	-0.150
-331.216	-68.605	-0.099	0.038
-330.202	-37.562	0.292	0.156
-329.187	-61.786	-0.116	-0.049
-328.172	69.247	0.089	-0.091
-327.158	378.352	0.061	-0.126
-326.143	126.119	-0.114	-0.145
-325.129	-7.165	-0.174	-0.118
-324.114	-80.096	0.152	-0.051
-323.099	66.252	0.098	0.100
-322.085	-200.000	0.015	0.086
-321.070	-20.295	0.121	-0.074
-320.056	-200.000	-0.008	0.130
-319.041	-104.432	0.081	0.019
-318.026	-54.162	0.388	-0.177
-317.012	-93.943	0.215	0.059
-315.997	28.727	0.201	-0.170
-314.983	185.709	0.215	0.319
-313.968	-136.752	0.403	0.046
-312.953	754.387	0.113	0.307
-311.939	435.122	0.081	0.176
-310.924	-200.000	-0.003	-0.019
-309.910	285.422	-0.012	0.021
-308.895	-200.000	-0.023	0.405
-307.880	146.196	-0.154	0.207
-306.866	199.943	-0.162	-0.249
-305.851	-24.624	-0.081	0.048
-304.837	-18.693	-0.300	-0.187
-303.822	-200.000	-0.018	-0.106
-302.807	-200.000	0.027	0.182
-301.793	-42.436	0.377	0.192
-300.778	-58.556	-0.129	-0.056
-299.764	-200.000	0.002	-0.207
-298.749	103.341	0.123	0.144
-297.735	-77.297	-0.221	0.077
-296.720	-107.214	0.332	0.073
-295.705	44.638	0.304	-0.279
-294.691	87.706	0.177	-0.196
-293.676	-7.180	-0.267	-0.181
-292.662	-200.000	0.021	-0.178
-291.647	19.335	-0.294	-0.236
-290.632	39.262	0.172	-0.154
-289.618	125.770	0.092	-0.116
-288.603	-39.249	0.074	0.039
-287.589	64.449	-0.173	-0.174
-286.574	35.862	0.316	-0.277
-285.559	-200.000	0.026	-0.186
-284.545	-87.554	0.115	0.035
-283.530	0.752	0.110	-0.079
-282.516	96.724	0.223	-0.255
-281.501	-200.000	0.004	-0.078
-280.486	800.000	0.091	0.289
-279.472	-200.000	0.031	0.807
-278.457	-200.000	-0.044	0.332
-277.443	50.168	0.200	-0.189
-276.428	207.621	-0.037	-0.057
-275.413	7.622	0.134	0.100
-274.399	79.685	0.088	0.094
-273.384	-144.544	-0.291	0.027
-272.370	-90.254	-0.139	0.040
-271.355	243.502	0.277	0.464
-270.340	-170.735	-0.505	-0.017
-269.326	-145.920	-0.443	0.039
-268.311	800.000	-0.118	-0.332
-267.297	-107.231	-0.153	-0.034
-266.282	154.367	-0.145	0.198
-265.267	530.820	-0.062	0.145
-264.253	-61.527	0.417	-0.175
-263.238	-81.044	0.233	-0.077
-262.224	-200.000	0.045	0.580
-261.209	77.741	0.223	-0.238
-260.195	-117.457	0.197	0.035
-259.180	-200.000	0.010	-0.228
-258.165	-200.000	0.148	-0.000
-257.151	228.307	0.119	0.193
-256.136	404.028	-0.104	0.218
-255.122	800.000	-0.060	0.226
-254.107	161.790	0.119	0.167
-253.092	156.266	-0.364	-0.501
-252.078	226.885	0.114	-0.184
-251.063	-73.682	-0.237	0.086
-250.049	180.008	-0.061	-0.090
-249.034	-103.315	0.136	0.032
-248.019	35.275	0.117	0.102
-247.005	-141.176	-0.142	-0.014
-245.990	-18.423	0.157	-0.098
-244.976	-130.455	0.283	-0.038
-243.961	-42.172	-0.457	-0.233
-242.946	-64.567	0.264	0.107
-241.932	-164.695	0.528	0.024
-240.917	-4.482	0.188	-0.130
-239.903	570.059	0.081	-0.196
-238.888	278.704	0.145	0.257
-237.873	234.921	-0.096	-0.159
-236.859	800.000	0.055	0.175
-235.844	-126.372	-0.270	-0.040
-234.830	-149.856	0.251	-0.020
-233.815	-112.647	-0.140	0.028
-232.800	261.356	-0.080	0.138
-231.786	-123.375	0.089	0.014
-230.771	-21.366	-0.280	-0.170
-229.757	-85.416	-0.301	0.094
-228.742	800.000	-0.081	-0.309
-227.727	49.376	0.209	0.196
-226.713	-101.087	0.099	0.024
-225.698	-130.420	-0.135	-0.018
-224.684	80.001	-0.104	0.111
-223.669	-16.729	-0.156	-0.098
-222.655	304.599	0.107	-0.198
-221.640	33.055	0.091	0.078
-220.625	-67.404	-0.221	-0.087
-219.611	713.860	-0.086	-0.228
-218.596	-105.686	0.270	0.061
-217.582	283.845	0.107	-0.191
-216.567	-180.483	-0.389	-0.008
-215.552	-26.641	0.011	0.007
-214.538	-177.377	0.133	0.003
-213.523	-50.077	0.424	0.200
-212.509	383.967	-0.087	-0.179
-211.494	-19.108	0.250	-0.155
-210.479	-180.427	0.301	-0.006
-209.465	88.201	0.136	0.150
-208.450	385.418	0.074	0.152
-207.436	800.000	0.034	0.135
-206.421	-85.316	-0.108	0.034
-205.406	-78.701	-0.289	0.098
-204.392	-45.563	-0.141	-0.070
-203.377	467.300	-0.131	-0.292
-202.363	-165.972	-0.251	0.011
-201.348	800.000	0.052	0.189
-200.333	-90.872	-0.253	0.073
-199.319	266.455	0.203	0.353
-198.304	59.880	0.246	0.242
-197.290	-200.000	0.017	0.210
-196.275	143.055	-0.170	-0.225
-195.260	81.508	-0.168	-0.181
-194.246	-188.830	-0.233	-0.003
-193.231	88.652	0.111	0.123
-192.217	-58.320	-0.290	0.126
-191.202	-200.000	0.067	0.359
-190.187	-36.483	0.078	0.042
-189.173	800.000	0.018	-0.070
-188.158	-84.643	0.154	0.048
-187.144	-200.000	0.008	-0.321
-186.129	-200.000	0.023	0.161
-185.114	-17.445	0.030	0.019
-184.100	170.171	-0.088	0.126
-183.085	-39.547	-0.338	-0.176
-182.071	571.908	0.051	-0.124
-181.056	185.431	-0.242	-0.357
-180.042	249.133	0.125	0.210
-179.027	800.000	0.079	0.247
-178.012	-134.111	0.260	0.032
-176.998	9.452	0.155	-0.117
-175.983	-67.643	0.171	0.067
-174.969	125.925	-0.103	-0.129
-173.954	-142.823	0.187	0.018
-172.939	228.943	0.253	0.411
-171.925	79.219	0.141	0.150
-170.910	-22.399	0.067	-0.040
-169.896	-68.465	-0.255	-0.098
-168.881	-200.000	-0.039	0.205
-167.866	-118.607	0.070	-0.012
-166.852	247.397	-0.174	0.292
-165.837	227.964	-0.063	0.103
-164.823	68.819	0.293	-0.299
-163.808	800.000	0.030	-0.096
-162.793	264.462	-0.164	0.283
-161.779	77.456	0.193	0.204
-160.764	-200.000	0.017	-0.139
-159.750	-22.373	0.213	0.128
-158.735	134.653	-0.158	0.204
-157.720	226.904	0.101	-0.164
-156.706	-200.000	0.045	-0.397
-155.691	-92.097	-0.270	-0.076
-154.677	698.952	-0.055	-0.143
-153.662	-118.940	-0.157	-0.027
-152.647	800.000	0.058	0.192
-151.633	-13.487	-0.103	0.067
-150.618	-200.000	0.053	0.330
-149.604	78.568	0.175	-0.186
-148.589	-58.771	-0.114	-0.049
-147.574	-65.446	-0.084	-0.034
-146.560	223.493	0.208	-0.333
-145.545	-26.510	0.118	0.069
-144.531	304.730	-0.083	0.154
-143.516	-200.000	-0.029	0.223
-142.502	54.037	-0.107	0.102
-141.487	-74.247	0.308	-0.111
-140.472	800.000	-0.043	0.157
-139.458	106.248	-0.214	-0.252
-138.443	245.979	0.070	0.118
-137.429	-87.581	-0.139	0.042
-136.414	-200.000	0.003	0.157
-135.399	-131.837	-0.263	0.034
-134.385	269.403	0.122	0.212
-133.370	93.156	0.224	0.251
-132.356	-148.976	0.191	-0.015
-131.341	-165.848	0.191	-0.008
-130.326	272.145	-0.199	0.349
-129.312	-164.272	-0.325	0.015
-128.297	-167.758	0.299	0.012
-127.283	-14.529	-0.193	-0.123
-126.268	-200.000	-0.056	-0.247
-125.253	172.323	0.217	0.310
-124.239	451.036	0.096	0.210
-123.224	-57.348	0.148	0.064
-122.210	23.949	-0.076	-0.062
-121.195	-64.529	-0.250	0.101
