DTS Sentinel unit serial number:	SN413079Multiplexer serial number:	ORYXHardware model number:	OX4-SRSoftware version number:	ORYX F/W v4.00 Oryx Data Collector v3.7.2.0data status	okinstallation	princeton_trtdifferential loss correction	single-endedforward channel	channel 1reverse channel	N/Adate	2019/09/17time	04:34:35forward acquisition time	60.00reverse acquisition time	0.00gamma	496.2192k internal	0.2324k external	0.2324temperature offset calibration	0.9961default loss term (dB/km)	0.3790temperature slope calibration	1.0000multiplexer offset coefficient	1.0000multiplexer slope coefficient	1.0000fibre end	0.00T internal ref (°C)	29.69T ext. ref 1 (°C)	0.14T ext. ref 2 (°C)	24.10length (m)	temperature (°C)	Stokes	anti-Stokes-747.200	-144.323	-0.169	0.016
-746.185	-101.078	-0.281	0.070
-745.171	88.610	-0.161	-0.181
-744.156	800.000	-0.046	-0.192
-743.142	318.656	0.088	0.169
-742.127	-200.000	-0.015	0.229
-741.112	-45.058	-0.254	-0.128
-740.098	-132.018	-0.214	-0.028
-739.083	-55.466	-0.479	0.217
-738.069	-200.000	-0.029	0.271
-737.054	-4.613	0.247	0.172
-736.039	-164.951	-0.468	-0.021
-735.025	-78.839	-0.101	0.035
-734.010	800.000	-0.050	-0.147
-732.996	-86.573	-0.637	0.197
-731.981	-200.000	-0.026	-0.139
-730.966	-13.734	-0.257	-0.168
-729.952	-200.000	0.028	-0.158
-728.937	-127.575	-0.119	0.017
-727.923	19.749	0.107	0.087
-726.908	352.763	-0.080	0.159
-725.894	256.240	-0.138	-0.239
-724.879	585.634	-0.038	-0.094
-723.864	81.236	-0.271	-0.295
-722.850	39.286	-0.187	-0.169
-721.835	-144.130	-0.409	-0.039
-720.821	-132.246	-0.226	0.030
-719.806	-145.781	0.397	0.036
-718.791	90.208	0.076	-0.086
-717.777	800.000	-0.076	0.240
-716.762	-200.000	-0.051	-0.342
-715.748	-116.503	0.543	-0.101
-714.733	800.000	0.114	0.483
-713.718	-102.469	0.206	-0.050
-712.704	24.805	-0.321	0.269
-711.689	50.601	-0.076	-0.072
-710.675	800.000	-0.058	-0.224
-709.660	83.175	0.108	-0.118
-708.645	800.000	0.086	-0.325
-707.631	-87.106	0.170	0.052
-706.616	-50.719	0.202	0.096
-705.602	89.548	0.106	-0.119
-704.587	-185.820	-0.257	0.004
-703.572	206.844	-0.165	0.259
-702.558	-127.390	0.148	-0.022
-701.543	-22.904	0.174	-0.106
-700.529	241.586	-0.046	0.078
-699.514	138.617	0.076	0.101
-698.499	515.661	0.118	-0.278
-697.485	-140.635	0.064	0.007
-696.470	136.118	0.198	0.260
-695.456	-43.619	-0.250	-0.127
-694.441	203.578	0.021	0.032
-693.426	205.125	0.045	-0.071
-692.412	800.000	0.055	-0.178
-691.397	-200.000	0.027	-0.235
-690.383	75.265	-0.247	0.262
-689.368	107.950	0.115	0.138
-688.354	179.261	0.129	0.190
-687.339	-133.218	0.117	-0.015
-686.324	-59.731	0.201	0.087
-685.310	-200.000	0.080	-0.362
-684.295	-83.898	-0.212	-0.068
-683.281	-98.288	-0.115	0.030
-682.266	-109.027	-0.232	0.050
-681.251	-54.593	-0.106	-0.048
-680.237	-45.044	-0.104	-0.052
-679.222	37.838	-0.133	-0.119
-678.208	451.055	0.035	0.078
-677.193	800.000	0.048	0.190
-676.178	-13.785	0.240	-0.156
-675.164	-75.635	-0.304	-0.109
-674.149	-200.000	0.043	-0.459
-673.135	6.063	-0.169	-0.126
-672.120	800.000	0.092	-0.310
-671.105	-200.000	0.007	0.196
-670.091	-125.739	0.174	0.026
-669.076	-200.000	0.034	-0.310
-668.062	102.594	-0.227	0.267
-667.047	447.943	0.004	-0.010
-666.032	-119.969	-0.070	-0.012
-665.018	-200.000	0.011	-0.338
-664.003	-200.000	-0.058	-0.342
-662.989	-113.213	0.247	0.049
-661.974	-80.639	0.083	0.028
-660.959	-116.321	-0.069	0.013
-659.945	-126.232	-0.251	0.038
-658.930	-80.809	-0.343	0.115
-657.916	179.670	-0.138	-0.204
-656.901	-200.000	-0.012	-0.151
-655.886	196.053	-0.021	-0.032
-654.872	62.700	-0.163	-0.164
-653.857	-200.000	0.001	-0.410
-652.843	213.497	0.249	-0.396
-651.828	-50.747	-0.291	-0.138
-650.814	-72.983	0.119	0.044
-649.799	-97.428	-0.224	-0.059
-648.784	364.048	0.133	0.269
-647.770	-139.986	0.139	0.015
-646.755	354.263	-0.014	-0.029
-645.741	-200.000	-0.030	-0.248
-644.726	-200.000	-0.064	0.357
-643.711	-200.000	0.017	0.258
-642.697	115.646	-0.229	-0.282
-641.682	-19.291	0.278	0.174
-640.668	143.246	-0.144	0.192
-639.653	-200.000	0.013	0.188
-638.638	-200.000	0.018	-0.212
-637.624	77.230	-0.066	-0.071
-636.609	-144.351	-0.208	0.019
-635.595	55.043	0.116	-0.113
-634.580	-200.000	-0.007	-0.055
-633.565	-154.801	0.239	0.016
-632.551	-3.788	-0.284	-0.198
-631.536	-200.000	0.026	0.296
-630.522	-200.000	0.002	-0.125
-629.507	-200.000	0.001	-0.007
-628.492	337.227	-0.080	-0.155
-627.478	-167.944	-0.298	0.012
-626.463	110.564	0.310	0.375
-625.449	-118.604	0.027	0.005
-624.434	-43.260	0.311	0.158
-623.419	123.661	-0.214	0.270
-622.405	91.701	0.106	-0.120
-621.390	-106.890	0.255	-0.057
-620.376	-159.671	0.251	0.014
-619.361	800.000	0.034	-0.133
-618.346	-200.000	-0.044	-0.226
-617.332	61.076	-0.125	0.124
-616.317	800.000	-0.014	-0.053
-615.303	333.298	-0.109	-0.212
-614.288	-200.000	-0.030	0.187
-613.273	56.206	0.209	-0.204
-612.259	-200.000	0.003	-0.481
-611.244	75.412	0.155	-0.164
-610.230	67.877	0.130	0.134
-609.215	-200.000	-0.004	-0.023
-608.201	-53.858	-0.238	-0.109
-607.186	-200.000	-0.015	0.241
-606.171	-69.004	-0.165	-0.064
-605.157	5.277	0.211	0.156
-604.142	688.132	-0.009	0.023
-603.128	-52.246	-0.065	-0.030
-602.113	-200.000	-0.013	-0.099
-601.098	201.582	0.213	-0.329
-600.084	-124.847	0.192	-0.030
-599.069	800.000	0.082	-0.338
-598.055	-2.857	0.019	0.013
-597.040	1.756	-0.091	-0.066
-596.025	-149.366	0.221	-0.018
-595.011	-142.503	-0.255	0.025
-593.996	655.433	-0.121	-0.311
-592.982	-33.869	0.067	0.037
-591.967	37.909	-0.188	-0.167
-590.952	-174.877	0.110	-0.003
-589.938	800.000	0.089	-0.252
-588.923	-23.219	0.103	-0.062
-587.909	-200.000	-0.001	0.259
-586.894	-143.535	0.245	0.023
-585.879	-116.119	0.030	0.006
-584.865	23.384	-0.118	-0.097
-583.850	218.965	-0.229	0.368
-582.836	-24.735	-0.317	-0.189
-581.821	-200.000	-0.007	-0.035
-580.806	-132.975	-0.141	0.018
-579.792	-13.783	0.351	-0.228
-578.777	50.029	0.154	0.146
-577.763	211.708	0.092	0.145
-576.748	14.706	-0.279	-0.219
-575.733	119.661	0.153	-0.190
-574.719	354.453	-0.080	-0.160
-573.704	-200.000	0.011	0.064
-572.690	573.362	-0.082	-0.201
-571.675	238.016	0.251	-0.418
-570.661	800.000	0.066	-0.263
-569.646	800.000	-0.083	-0.308
-568.631	-200.000	-0.015	0.302
-567.617	-200.000	-0.012	0.233
-566.602	173.507	-0.173	0.250
-565.588	-38.486	0.164	0.087
-564.573	372.576	-0.013	0.027
-563.558	18.042	-0.100	-0.080
-562.544	87.114	0.131	-0.145
-561.529	-95.757	-0.120	-0.032
-560.515	-200.000	-0.063	0.328
-559.500	308.076	0.033	0.061
-558.485	-200.000	0.028	-0.264
-557.471	800.000	0.015	-0.046
-556.456	-134.973	-0.191	0.023
-555.442	234.228	-0.143	-0.236
-554.427	-38.454	-0.155	-0.082
-553.412	800.000	0.101	-0.396
-552.398	567.403	0.220	-0.534
-551.383	-200.000	-0.009	-0.179
-550.369	-200.000	0.002	-0.020
-549.354	-121.772	-0.216	-0.036
-548.339	66.266	-0.219	0.223
-547.325	295.661	-0.142	0.261
-546.310	-65.488	-0.100	-0.040
-545.296	-32.682	0.205	-0.114
-544.281	-41.049	0.331	0.171
-543.266	114.988	-0.029	-0.035
-542.252	200.485	-0.157	-0.241
-541.237	392.503	0.147	0.305
-540.223	-141.419	0.231	-0.023
-539.208	-77.549	0.104	-0.036
-538.193	112.455	0.098	-0.118
-537.179	-200.000	0.022	0.195
-536.164	-123.415	-0.264	-0.042
-535.150	-122.518	0.201	0.033
-534.135	-14.540	0.255	-0.164
-533.121	716.913	-0.102	-0.270
-532.106	34.873	0.142	-0.124
-531.091	45.530	0.048	-0.044
-530.077	62.615	0.118	0.118
-529.062	-137.440	0.477	-0.054
-528.048	222.048	0.225	-0.363
-527.033	102.128	0.055	0.064
-526.018	3.591	-0.121	-0.088
-525.004	203.471	-0.153	-0.236
-523.989	-95.073	-0.272	0.074
-522.975	-200.000	-0.031	0.151
-521.960	14.575	-0.405	-0.317
-520.945	-0.909	-0.076	-0.054
-519.931	-23.104	-0.147	0.089
-518.916	58.405	0.132	0.130
-517.902	-115.412	-0.079	0.015
-516.887	169.428	-0.029	0.042
-515.872	43.203	0.241	0.220
-514.858	164.983	-0.048	0.068
-513.843	800.000	-0.024	-0.068
-512.829	359.450	0.063	0.125
-511.814	800.000	-0.083	-0.363
-510.799	800.000	0.062	-0.234
-509.785	-156.289	0.090	-0.006
-508.770	316.664	-0.095	0.179
-507.756	-200.000	-0.003	-0.304
-506.741	31.311	-0.062	0.053
-505.726	99.665	0.270	0.312
-504.712	-198.963	0.165	-0.001
-503.697	125.730	0.234	0.296
-502.683	437.922	0.121	-0.264
-501.668	-74.258	-0.177	-0.064
-500.653	201.351	-0.052	0.081
-499.639	-33.942	-0.222	-0.122
-498.624	-59.764	-0.075	-0.032
-497.610	-152.925	0.300	-0.021
-496.595	16.340	-0.276	0.217
-495.581	-116.214	0.050	0.009
-494.566	-45.777	-0.325	-0.160
-493.551	-22.077	-0.266	0.162
-492.537	800.000	-0.111	0.373
-491.522	553.225	-0.201	0.482
-490.508	97.019	0.127	0.145
-489.493	-23.262	0.305	-0.183
-488.478	15.849	-0.084	-0.066
-487.464	765.509	-0.086	0.233
-486.449	-24.187	-0.255	-0.152
-485.435	141.610	-0.338	-0.447
-484.420	537.871	-0.030	0.072
-483.405	800.000	0.043	-0.165
-482.391	-200.000	0.041	-0.279
-481.376	15.844	0.053	-0.042
-480.362	760.170	0.075	-0.204
-479.347	19.072	-0.098	-0.079
-478.332	54.982	-0.049	-0.047
-477.318	-200.000	-0.035	-0.163
-476.303	-200.000	-0.035	0.268
-475.289	370.200	0.055	0.112
-474.274	783.739	0.037	0.102
-473.259	108.298	0.079	0.095
-472.245	-62.487	-0.327	-0.136
-471.230	-200.000	-0.015	0.151
-470.216	-16.930	0.212	0.134
-469.201	800.000	-0.117	0.354
-468.186	-95.535	-0.253	0.068
-467.172	-45.080	0.039	-0.019
-466.157	800.000	-0.053	0.214
-465.143	352.688	0.067	0.133
-464.128	83.948	0.131	-0.143
-463.113	59.670	0.195	-0.192
-462.099	155.528	-0.169	0.232
-461.084	159.764	0.213	-0.296
-460.070	205.643	-0.146	0.227
-459.055	205.515	-0.178	-0.276
-458.040	188.587	-0.141	-0.210
-457.026	-15.148	-0.092	-0.058
-456.011	-168.999	-0.219	-0.008
-454.997	249.061	0.067	-0.113
-453.982	-124.323	0.215	-0.034
-452.968	-155.266	0.096	-0.006
-451.953	-49.796	0.313	-0.149
-450.938	439.581	0.067	-0.145
-449.924	63.695	0.173	0.174
-448.909	192.168	-0.216	0.325
-447.895	-128.205	0.310	0.044
-446.880	-38.218	0.222	0.118
-445.865	-102.520	0.165	0.039
-444.851	-200.000	-0.057	-0.367
-443.836	213.397	-0.111	-0.175
-442.822	-45.793	-0.149	0.073
-441.807	560.462	0.052	-0.125
-440.792	800.000	-0.018	0.065
-439.778	-200.000	0.042	0.277
-438.763	-33.235	0.282	0.156
-437.749	242.270	0.148	-0.247
-436.734	-16.897	-0.154	-0.097
-435.719	-96.278	-0.206	0.054
-434.705	-63.709	-0.259	-0.106
-433.690	127.048	0.096	0.122
-432.676	-41.549	-0.364	0.187
-431.661	-200.000	0.074	-0.335
-430.646	-155.277	-0.240	-0.016
-429.632	153.800	-0.080	-0.109
-428.617	800.000	0.051	-0.143
-427.603	-79.388	0.206	-0.069
-426.588	-200.000	-0.020	0.186
-425.573	800.000	-0.034	-0.141
-424.559	8.103	0.162	0.122
-423.544	-112.999	-0.074	-0.015
-422.530	26.466	0.105	0.087
-421.515	-44.673	-0.324	0.161
-420.500	-133.001	-0.297	0.038
-419.486	232.505	-0.097	0.159
-418.471	-200.000	0.001	0.408
-417.457	-96.591	0.315	0.083
-416.442	800.000	0.032	-0.108
-415.428	-104.018	-0.309	0.072
-414.413	352.678	-0.177	0.350
-413.398	424.512	-0.099	0.212
-412.384	800.000	-0.072	0.292
-411.369	352.055	0.090	-0.177
-410.355	-200.000	0.006	0.121
-409.340	-150.965	-0.124	-0.009
-408.325	800.000	-0.068	-0.231
-407.311	60.803	-0.178	-0.176
-406.296	-140.472	0.398	-0.041
-405.282	-10.176	-0.066	-0.044
-404.267	-134.643	-0.376	0.046
-403.252	800.000	0.155	0.558
-402.238	-82.408	0.147	-0.048
-401.223	-7.796	-0.179	0.121
-400.209	800.000	-0.102	-0.307
-399.194	-106.248	-0.351	-0.078
-398.179	-123.568	0.237	0.037
-397.165	79.585	-0.394	0.421
-396.150	182.995	0.139	-0.204
-395.136	800.000	0.118	-0.333
-394.121	-79.704	-0.107	0.036
-393.106	20.474	0.235	-0.190
-392.092	-161.297	0.181	-0.009
-391.077	-200.000	0.010	0.109
-390.063	-111.584	-0.230	-0.046
-389.048	253.199	-0.081	-0.137
-388.033	75.980	0.007	0.007
-387.019	-200.000	0.024	0.145
-386.004	-200.000	-0.028	-0.195
-384.990	84.000	0.174	-0.189
-383.975	800.000	0.123	-0.350
-382.960	-161.410	0.133	-0.007
-381.946	-0.830	0.205	-0.144
-380.931	-92.111	0.275	-0.077
-379.917	22.863	-0.184	-0.150
-378.902	800.000	-0.034	0.115
-377.888	-62.057	-0.047	0.019
-376.873	447.685	0.095	-0.207
-375.858	-100.134	-0.242	0.060
-374.844	800.000	-0.055	-0.158
-373.829	71.065	0.169	0.174
-372.815	-200.000	-0.039	0.250
-371.800	-151.263	0.164	0.012
-370.785	136.330	0.149	0.193
-369.771	30.928	-0.121	0.103
-368.756	343.550	-0.051	0.099
-367.742	-200.000	0.002	0.141
-366.727	180.430	-0.148	0.217
-365.712	-102.802	0.103	-0.024
-364.698	39.252	-0.170	-0.151
-363.683	501.862	-0.126	-0.289
-362.669	800.000	0.105	-0.387
-361.654	74.998	0.036	0.037
-360.639	169.129	0.200	0.283
-359.625	800.000	0.094	-0.273
-358.610	-134.007	0.246	-0.030
-357.596	78.644	0.236	0.251
-356.581	-6.976	0.247	0.167
-355.566	-200.000	-0.002	-0.071
-354.552	86.380	0.091	-0.100
-353.537	-200.000	0.059	-0.277
-352.523	62.097	-0.234	-0.232
-351.508	35.441	-0.045	-0.039
-350.493	-200.000	0.061	-0.291
-349.479	-76.403	-0.286	-0.100
-348.464	-23.937	-0.058	-0.035
-347.450	116.078	0.294	0.357
-346.435	-200.000	0.017	0.252
-345.420	-98.998	-0.313	-0.079
-344.406	-200.000	0.001	0.017
-343.391	-90.220	-0.376	0.109
-342.377	-154.828	-0.273	0.018
-341.362	50.368	0.243	-0.228
-340.348	-124.600	-0.082	-0.013
-339.333	800.000	-0.010	-0.035
-338.318	133.009	-0.191	-0.245
-337.304	69.694	-0.135	0.138
-336.289	87.017	0.188	-0.207
-335.275	23.993	0.227	0.186
-334.260	-104.912	0.347	-0.079
-333.245	64.564	0.154	0.154
-332.231	182.386	-0.235	-0.344
-331.216	-61.465	-0.063	-0.026
-330.202	66.345	0.305	0.307
-329.187	175.490	-0.140	0.201
-328.172	-200.000	-0.011	0.293
-327.158	34.046	-0.129	-0.112
-326.143	10.239	-0.306	-0.231
-325.129	298.324	-0.129	0.235
-324.114	93.357	0.137	-0.154
-323.099	121.858	0.039	0.048
-322.085	-81.076	0.187	-0.061
-321.070	38.600	0.159	-0.141
-320.056	-116.965	-0.211	0.038
-319.041	-21.527	-0.143	0.087
-318.026	-200.000	-0.029	0.206
-317.012	-115.791	-0.369	0.069
-315.997	-98.973	-0.371	-0.093
-314.983	-76.110	0.234	-0.082
-313.968	-22.375	-0.301	0.181
-312.953	-200.000	-0.040	0.243
-311.939	-54.224	-0.134	0.060
-310.924	113.466	0.152	-0.184
-309.910	139.981	0.090	0.118
-308.895	285.120	0.104	0.186
-307.880	800.000	-0.042	-0.177
-306.866	-93.407	0.178	0.049
-305.851	94.074	-0.127	-0.143
-304.837	-77.484	-0.126	0.043
-303.822	-127.573	-0.148	-0.021
-302.807	800.000	-0.077	0.332
-301.793	-200.000	-0.008	-0.174
-300.778	13.462	0.137	0.105
-299.764	-198.918	0.435	0.002
-298.749	-200.000	0.039	-0.202
-297.735	-167.652	-0.248	0.010
-296.720	23.168	0.258	-0.210
-295.705	50.825	-0.244	-0.230
-294.691	800.000	0.020	-0.072
-293.676	99.938	-0.146	-0.167
-292.662	243.156	0.073	0.122
-291.647	46.132	0.170	-0.156
-290.632	-18.165	-0.083	0.052
-289.618	800.000	0.105	0.415
-288.603	529.403	-0.087	-0.203
-287.589	800.000	0.008	-0.026
-286.574	174.085	0.068	0.097
-285.559	532.262	-0.086	0.202
-284.545	282.911	0.151	0.269
-283.530	-127.432	-0.156	-0.022
-282.516	35.259	0.162	-0.141
-281.501	-97.153	0.092	0.024
-280.486	-200.000	0.000	-0.129
-279.472	-192.695	-0.341	0.003
-278.457	-187.646	0.216	0.003
-277.443	124.337	0.202	0.252
-276.428	193.641	0.168	-0.252
-275.413	-73.521	-0.195	0.070
-274.399	34.723	-0.177	-0.154
-273.384	-200.000	0.017	0.168
-272.370	270.103	0.146	0.254
-271.355	621.695	-0.012	-0.031
-270.340	-38.653	-0.175	0.092
-269.326	-63.892	0.087	-0.035
-268.311	104.218	0.236	0.275
-267.297	426.345	0.047	0.101
-266.282	-31.518	0.109	-0.061
-265.267	57.288	0.334	-0.323
-264.253	-175.814	-0.230	0.006
-263.238	197.341	0.168	0.253
-262.224	-200.000	-0.010	0.160
-261.209	800.000	0.071	0.194
-260.195	-119.581	0.164	0.028
-259.180	-108.316	-0.279	0.060
-258.165	-200.000	-0.013	-0.073
-257.151	42.779	0.253	0.228
-256.136	37.656	0.100	-0.088
-255.122	-200.000	0.010	-0.120
-254.107	-151.436	-0.115	0.008
-253.092	-96.863	0.120	0.031
-252.078	-200.000	-0.027	0.548
-251.063	333.970	0.044	-0.083
-250.049	9.210	-0.100	-0.075
-249.034	138.661	-0.259	0.337
-248.019	88.825	-0.109	0.120
-247.005	-200.000	-0.018	0.124
-245.990	-132.986	-0.547	-0.069
-244.976	430.688	-0.067	-0.144
-243.961	175.909	-0.219	0.314
-242.946	-200.000	-0.008	0.102
-241.932	449.992	-0.104	0.226
-240.917	91.733	-0.099	-0.110
-239.903	401.438	0.045	-0.094
-238.888	-67.465	0.470	0.183
-237.873	10.456	0.112	0.085
-236.859	552.140	-0.122	0.291
-235.844	502.922	0.074	0.169
-234.830	-144.022	-0.204	0.019
-233.815	-200.000	0.001	0.224
-232.800	61.202	-0.161	-0.158
-231.786	-156.321	-0.175	-0.011
-230.771	800.000	0.099	-0.313
-229.757	62.298	-0.124	-0.123
-228.742	544.120	0.142	0.335
-227.727	44.340	0.113	-0.102
-226.713	-200.000	-0.026	-0.170
-225.698	-200.000	-0.038	-0.224
-224.684	58.312	-0.106	-0.103
-223.669	-116.073	-0.210	-0.039
-222.655	-200.000	0.028	0.127
-221.640	215.294	-0.097	-0.153
-220.625	-200.000	-0.006	-0.092
-219.611	-200.000	0.001	-0.232
-218.596	-88.108	-0.201	-0.060
-217.582	-19.287	0.152	0.093
-216.567	133.857	-0.081	-0.104
-215.552	-79.312	-0.198	-0.066
-214.538	-64.388	-0.042	-0.017
-213.523	-43.514	-0.047	-0.023
-212.509	-31.298	-0.207	-0.116
-211.494	294.034	0.086	-0.155
-210.479	-200.000	-0.006	0.145
-209.465	318.215	0.090	0.169
-208.450	0.397	0.065	-0.046
-207.436	162.421	0.081	-0.112
-206.421	-144.595	0.272	0.025
-205.406	-200.000	-0.385	-0.001
-204.392	47.979	0.180	0.166
-203.377	-41.410	0.137	-0.069
-202.363	-170.291	0.269	-0.009
-201.348	800.000	0.050	0.140
-200.333	-117.423	-0.335	-0.060
-199.319	-191.736	0.258	-0.003
-198.304	339.308	0.083	0.161
-197.290	402.275	0.230	0.478
-196.275	94.468	0.192	-0.216
-195.260	-122.233	-0.253	-0.041
-194.246	-108.624	-0.159	-0.034
-193.231	-20.460	0.277	0.168
-192.217	59.671	-0.133	0.129
-191.202	177.382	0.140	0.202
-190.187	-200.000	-0.028	-0.157
-189.173	-47.464	0.309	0.148
-188.158	-16.994	0.191	0.119
-187.144	139.250	-0.114	0.148
-186.129	-32.190	-0.172	0.095
-185.114	139.415	0.091	-0.118
-184.100	15.574	-0.018	0.014
-183.085	173.922	0.236	-0.337
-182.071	-128.262	-0.436	0.061
-181.056	94.639	-0.184	-0.206
-180.042	-40.903	0.189	0.097
-179.027	-200.000	-0.035	-0.163
-178.012	-200.000	-0.006	-0.033
-176.998	427.282	0.059	-0.126
-175.983	390.061	0.077	-0.157
-174.969	542.264	0.024	0.057
-173.954	98.048	0.149	0.169
-172.939	126.097	-0.082	-0.103
-171.925	-200.000	-0.004	0.026
-170.910	-96.824	-0.139	0.036
-169.896	259.729	0.244	0.417
-168.881	-29.698	0.180	0.101
-167.866	-44.337	0.166	0.082
-166.852	34.571	0.224	0.193
-165.837	126.354	0.033	0.041
-164.823	-74.148	-0.221	0.079
-163.808	-96.741	0.190	-0.049
-162.793	-200.000	0.002	-0.190
-161.779	-200.000	0.034	0.275
-160.764	1.302	0.207	0.147
-159.750	-200.000	0.051	-0.311
-158.735	-112.975	0.173	0.034
-157.720	-62.907	0.184	0.075
-156.706	149.829	0.207	0.276
-155.691	28.868	0.101	-0.084
-154.677	-18.866	-0.271	0.166
-153.662	-79.814	0.214	-0.071
-152.647	-110.469	-0.128	0.026
-151.633	16.827	-0.272	0.212
-150.618	159.654	-0.099	0.136
-149.604	-82.410	0.189	-0.061
-148.589	-92.400	0.173	-0.048
-147.574	-200.000	-0.011	0.172
-146.560	204.711	0.284	0.434
-145.545	800.000	0.032	-0.089
-144.531	11.833	-0.088	-0.066
-143.516	83.786	-0.042	-0.045
-142.502	-30.357	0.059	0.033
-141.487	-76.208	-0.140	-0.049
-140.472	-103.014	-0.222	0.052
-139.458	172.324	0.043	-0.060
-138.443	257.282	0.104	0.176
-137.429	7.968	0.292	0.216
-136.414	800.000	0.007	-0.025
-135.399	61.780	-0.200	0.196
-134.385	-78.035	0.405	0.137
-133.370	-128.782	0.254	0.035
-132.356	83.878	-0.203	-0.218
-131.341	-6.673	-0.191	-0.128
-130.326	203.968	0.143	0.218
-129.312	-200.000	0.013	0.215
-128.297	-52.060	0.159	-0.073
-127.283	83.713	0.128	0.138
-126.268	-78.630	-0.155	0.052
-125.253	800.000	0.041	0.171
-124.239	-91.322	0.347	-0.098
-123.224	-200.000	-0.040	-0.243
-122.210	-36.017	0.261	-0.139
-121.195	-85.802	-0.364	-0.111
