DTS Sentinel unit serial number:	SN413079Multiplexer serial number:	ORYXHardware model number:	OX4-SRSoftware version number:	ORYX F/W v4.00 Oryx Data Collector v3.7.2.0data status	okinstallation	princeton_trtdifferential loss correction	single-endedforward channel	channel 1reverse channel	N/Adate	2019/09/18time	10:22:35forward acquisition time	60.00reverse acquisition time	0.00gamma	496.2192k internal	0.2329k external	0.2329temperature offset calibration	0.9970default loss term (dB/km)	0.3790temperature slope calibration	1.0000multiplexer offset coefficient	1.0000multiplexer slope coefficient	1.0000fibre end	0.00T internal ref (°C)	28.12T ext. ref 1 (°C)	0.35T ext. ref 2 (°C)	24.67length (m)	temperature (°C)	Stokes	anti-Stokes-747.200	-64.899	-0.243	0.099
-746.185	-200.000	0.058	0.307
-745.171	33.470	0.135	0.118
-744.156	61.730	-0.135	0.135
-743.142	-200.000	0.016	0.133
-742.127	-136.378	0.323	-0.038
-741.112	-7.430	0.199	0.136
-740.098	403.954	-0.166	0.351
-739.083	122.333	0.187	0.236
-738.069	800.000	0.046	0.201
-737.054	-40.751	0.158	0.082
-736.039	166.592	-0.040	0.057
-735.025	-145.539	-0.242	-0.022
-734.010	-116.962	-0.446	0.082
-732.996	-121.479	-0.257	0.043
-731.981	-197.516	-0.106	-0.001
-730.966	-200.000	-0.014	-0.083
-729.952	-13.129	-0.190	-0.124
-728.937	-111.685	-0.178	-0.036
-727.923	-1.775	-0.143	-0.102
-726.908	-130.874	-0.412	0.056
-725.894	800.000	0.077	0.309
-724.879	-47.362	-0.405	-0.198
-723.864	-66.131	0.080	-0.032
-722.850	800.000	-0.107	0.380
-721.835	-38.809	0.047	-0.025
-720.821	618.173	-0.119	-0.300
-719.806	-200.000	-0.006	-0.066
-718.791	-64.754	0.180	-0.074
-717.777	-85.583	-0.151	-0.047
-716.762	242.148	0.150	-0.252
-715.748	-100.079	-0.103	-0.026
-714.733	-200.000	-0.051	-0.355
-713.718	-71.843	-0.497	-0.186
-712.704	-37.274	0.258	-0.139
-711.689	800.000	0.014	-0.053
-710.675	-200.000	0.002	-0.027
-709.660	-55.324	0.130	-0.059
-708.645	-21.875	-0.176	-0.107
-707.631	-53.724	0.128	-0.059
-706.616	-101.007	0.088	-0.022
-705.602	-11.738	-0.263	-0.174
-704.587	16.517	0.181	0.144
-703.572	-68.199	0.263	0.103
-702.558	414.838	-0.040	-0.086
-701.543	-49.624	0.210	-0.101
-700.529	32.934	-0.302	-0.263
-699.514	-53.789	0.235	-0.108
-698.499	94.008	0.105	0.120
-697.485	-82.948	-0.133	0.043
-696.470	-200.000	-0.002	0.184
-695.456	165.409	0.119	-0.170
-694.441	-200.000	0.016	-0.102
-693.426	-130.016	-0.532	0.073
-692.412	-38.314	0.342	-0.182
-691.397	128.864	0.184	0.236
-690.383	64.908	-0.123	-0.124
-689.368	37.739	-0.076	0.068
-688.354	-16.931	-0.133	0.085
-687.339	-72.044	0.128	-0.048
-686.324	-200.000	-0.057	0.300
-685.310	800.000	-0.048	0.199
-684.295	-86.685	0.351	0.108
-683.281	86.952	-0.266	-0.296
-682.266	800.000	-0.064	-0.237
-681.251	-112.866	0.187	-0.037
-680.237	-200.000	-0.013	-0.402
-679.222	-51.707	-0.276	-0.129
-678.208	-98.323	-0.152	-0.039
-677.193	-114.587	-0.384	0.074
-676.178	137.936	0.168	0.221
-675.164	318.195	0.017	0.032
-674.149	-152.307	0.087	0.006
-673.135	800.000	0.021	0.074
-672.120	-123.641	-0.117	-0.019
-671.105	-18.246	-0.088	-0.055
-670.091	800.000	-0.056	0.166
-669.076	37.939	-0.172	-0.154
-668.062	-156.882	-0.213	-0.013
-667.047	181.902	0.187	0.276
-666.032	321.452	-0.142	-0.270
-665.018	104.566	0.097	-0.114
-664.003	-200.000	-0.007	-0.058
-662.989	-23.583	0.286	-0.172
-661.974	42.773	0.095	-0.087
-660.959	48.367	0.198	0.186
-659.945	-175.841	0.335	0.009
-658.930	88.710	0.092	-0.103
-657.916	-113.600	-0.045	0.009
-656.901	-14.127	-0.120	0.078
-655.886	-125.767	-0.420	0.064
-654.872	-200.000	-0.001	-0.201
-653.857	117.110	0.062	-0.077
-652.843	256.974	0.136	-0.234
-651.828	-200.000	-0.174	0.000
-650.814	-57.350	0.113	-0.050
-649.799	-85.943	0.243	-0.075
-648.784	479.142	0.098	-0.223
-647.770	-168.853	-0.222	-0.008
-646.755	-46.857	0.277	-0.136
-645.741	-111.591	0.284	-0.058
-644.726	14.596	0.133	0.104
-643.711	765.396	-0.042	-0.113
-642.697	-200.000	-0.043	0.393
-641.682	54.409	-0.096	-0.092
-640.668	-67.092	-0.347	-0.137
-639.653	-172.797	0.054	-0.002
-638.638	178.910	-0.126	-0.185
-637.624	22.230	0.028	-0.023
-636.609	317.815	0.114	0.216
-635.595	-159.701	-0.119	-0.007
-634.580	800.000	-0.107	0.335
-633.565	-76.422	-0.102	-0.036
-632.551	-24.533	-0.184	-0.110
-631.536	-87.752	-0.053	0.016
-630.522	800.000	-0.071	0.212
-629.507	-200.000	0.053	0.332
-628.492	-44.440	-0.091	0.046
-627.478	381.678	0.051	0.105
-626.463	124.628	0.151	-0.191
-625.449	-200.000	-0.018	-0.154
-624.434	179.249	0.095	-0.139
-623.419	198.697	0.171	-0.262
-622.405	298.092	0.111	-0.204
-621.390	-200.000	-0.074	-0.345
-620.376	629.713	-0.032	0.082
-619.361	-200.000	0.001	-0.090
-618.346	100.848	-0.183	-0.213
-617.332	-200.000	-0.020	0.201
-616.317	-117.840	-0.275	0.049
-615.303	-136.015	0.346	0.041
-614.288	-110.698	-0.118	0.024
-613.273	599.483	0.081	0.200
-612.259	283.420	-0.141	0.255
-611.244	-98.795	0.195	-0.050
-610.230	-185.991	-0.486	-0.007
-609.215	800.000	-0.066	0.203
-608.201	-51.169	-0.066	-0.031
-607.186	61.210	-0.149	-0.148
-606.171	-109.503	0.188	-0.040
-605.157	102.788	-0.097	-0.114
-604.142	-130.367	-0.155	0.021
-603.128	160.597	-0.064	0.089
-602.113	-200.000	0.050	0.303
-601.098	233.279	-0.138	-0.227
-600.084	142.612	0.121	0.161
-599.069	-108.840	-0.230	-0.049
-598.055	-20.831	0.108	-0.066
-597.040	438.667	-0.091	-0.200
-596.025	-47.122	-0.121	0.059
-595.011	-104.762	0.295	0.068
-593.996	129.174	-0.194	0.248
-592.982	682.311	-0.054	-0.142
-591.967	-12.877	0.379	0.247
-590.952	800.000	-0.138	-0.434
-589.938	174.353	0.139	-0.201
-588.923	-200.000	0.012	-0.135
-587.909	324.678	0.051	-0.098
-586.894	-57.300	-0.125	0.055
-585.879	-12.243	0.303	0.198
-584.865	367.395	-0.024	-0.048
-583.850	-104.054	0.338	0.079
-582.836	-41.232	-0.145	-0.075
-581.821	-188.402	-0.407	-0.005
-580.806	143.907	-0.116	0.155
-579.792	800.000	0.027	-0.114
-578.777	-40.275	0.297	0.155
-577.763	800.000	0.103	-0.342
-576.748	800.000	0.012	-0.046
-575.733	800.000	0.063	-0.179
-574.719	-33.032	-0.226	0.125
-573.704	-200.000	-0.046	0.231
-572.690	800.000	0.048	0.158
-571.675	-28.372	0.119	0.068
-570.661	218.467	-0.122	0.195
-569.646	292.324	-0.103	0.188
-568.631	-47.934	-0.252	0.122
-567.617	-16.174	0.205	-0.130
-566.602	-32.097	-0.200	-0.112
-565.588	-165.665	-0.162	-0.007
-564.573	-68.633	-0.310	-0.120
-563.558	800.000	-0.074	0.304
-562.544	-112.014	0.462	0.093
-561.529	127.573	0.083	0.105
-560.515	-46.564	-0.248	0.122
-559.500	-44.767	-0.218	-0.109
-558.485	800.000	-0.105	-0.365
-557.471	800.000	-0.070	0.212
-556.456	47.340	-0.105	-0.098
-555.442	14.817	0.023	-0.018
-554.427	-142.075	-0.033	-0.003
-553.412	320.042	-0.045	-0.086
-552.398	-98.540	-0.178	-0.046
-551.383	-127.837	-0.077	-0.011
-550.369	-200.000	-0.086	-0.448
-549.354	-169.383	0.386	0.014
-548.339	85.338	0.261	0.287
-547.325	-146.092	0.080	0.007
-546.310	-171.141	0.265	-0.009
-545.296	10.988	-0.276	-0.211
-544.281	-38.623	-0.301	0.159
-543.266	-148.292	0.217	-0.018
-542.252	527.905	-0.061	-0.143
-541.237	-200.000	0.008	-0.039
-540.223	-200.000	-0.041	0.248
-539.208	-21.592	0.283	0.172
-538.193	465.875	-0.095	-0.213
-537.179	-81.397	-0.330	-0.109
-536.164	-117.528	-0.198	0.036
-535.150	-74.726	-0.158	-0.057
-534.135	-109.925	0.142	0.030
-533.121	276.363	0.059	0.105
-532.106	800.000	-0.152	-0.523
-531.091	-200.000	-0.025	-0.355
-530.077	-128.700	-0.028	-0.004
-529.062	-17.261	-0.276	0.174
-528.048	-68.700	-0.171	-0.066
-527.033	-200.000	-0.015	-0.183
-526.018	295.436	-0.119	-0.218
-525.004	-3.988	-0.058	0.040
-523.989	333.610	0.097	-0.188
-522.975	228.001	-0.244	-0.397
-521.960	-92.481	-0.078	-0.022
-520.945	800.000	-0.033	-0.118
-519.931	-200.000	-0.037	-0.295
-518.916	405.619	-0.117	-0.247
-517.902	386.045	0.067	0.138
-516.887	-200.000	-0.013	-0.058
-515.872	53.962	-0.264	-0.254
-514.858	-143.108	-0.130	0.013
-513.843	-142.920	-0.295	-0.029
-512.829	303.035	-0.113	0.209
-511.814	299.342	-0.123	0.227
-510.799	-7.289	-0.296	0.200
-509.785	-156.353	0.122	-0.008
-508.770	-177.101	0.217	-0.005
-507.756	-200.000	-0.052	-0.527
-506.741	-74.026	-0.230	0.083
-505.726	32.412	0.344	0.296
-504.712	800.000	-0.142	0.423
-503.697	311.260	-0.067	0.125
-502.683	-91.204	0.292	-0.084
-501.668	-200.000	-0.015	-0.151
-500.653	-24.351	-0.152	0.091
-499.639	424.546	-0.052	0.112
-498.624	-78.843	0.215	0.073
-497.610	-155.471	-0.250	0.016
-496.595	89.145	0.031	0.035
-495.581	-104.154	0.304	0.070
-494.566	-200.000	0.004	0.072
-493.551	-73.042	-0.092	0.034
-492.537	800.000	-0.057	0.200
-491.522	-15.470	0.212	0.135
-490.508	210.025	-0.081	-0.126
-489.493	118.552	-0.076	-0.094
-488.478	-187.979	0.467	0.006
-487.464	233.523	0.341	-0.560
-486.449	35.665	-0.105	0.092
-485.435	-119.059	-0.282	0.049
-484.420	-200.000	-0.010	-0.079
-483.405	50.265	-0.278	0.262
-482.391	232.916	0.048	0.078
-481.376	290.673	-0.104	0.189
-480.362	-200.000	0.013	0.382
-479.347	-1.088	-0.340	-0.240
-478.332	223.134	0.185	-0.298
-477.318	93.648	-0.256	-0.290
-476.303	-11.745	-0.131	-0.086
-475.289	-145.740	0.141	-0.013
-474.274	204.065	0.004	0.006
-473.259	59.546	0.247	0.243
-472.245	-13.604	0.160	-0.103
-471.230	59.948	-0.227	-0.224
-470.216	-200.000	0.006	0.144
-469.201	71.852	-0.091	-0.095
-468.186	-144.221	-0.167	0.016
-467.172	-96.647	-0.389	0.102
-466.157	800.000	0.044	-0.125
-465.143	280.257	0.097	-0.174
-464.128	138.871	-0.205	0.269
-463.113	-9.229	-0.444	0.296
-462.099	138.445	-0.114	0.149
-461.084	-107.866	-0.054	-0.012
-460.070	569.351	0.102	-0.247
-459.055	800.000	0.035	0.117
-458.040	800.000	0.033	-0.129
-457.026	-200.000	-0.022	0.108
-456.011	-152.484	0.244	0.017
-454.997	212.397	-0.065	0.103
-453.982	90.680	0.112	-0.125
-452.968	-200.000	0.033	0.350
-451.953	64.812	-0.220	-0.221
-450.938	66.014	-0.181	0.183
-449.924	-200.000	0.013	0.423
-448.909	-125.797	-0.287	0.043
-447.895	-36.991	-0.175	0.093
-446.880	800.000	-0.009	0.029
-445.865	-173.799	0.173	-0.005
-444.851	553.281	-0.014	0.034
-443.836	252.957	0.164	0.278
-442.822	579.713	0.104	0.255
-441.807	-10.948	-0.156	-0.102
-440.792	-63.469	0.200	0.082
-439.778	-200.000	-0.008	-0.201
-438.763	83.778	0.185	0.201
-437.749	-200.000	0.036	-0.393
-436.734	-200.000	0.061	-0.448
-435.719	-76.794	-0.118	0.041
-434.705	312.245	-0.023	0.043
-433.690	88.556	-0.074	-0.082
-432.676	-94.293	0.085	-0.023
-431.661	296.810	0.047	-0.086
-430.646	-200.000	-0.013	-0.224
-429.632	629.464	0.003	-0.006
-428.617	800.000	0.125	0.490
-427.603	-46.305	-0.052	0.026
-426.588	30.980	0.133	-0.113
-425.573	-42.249	0.095	-0.048
-424.559	246.217	0.115	-0.193
-423.544	-0.867	-0.223	-0.157
-422.530	-200.000	-0.010	-0.082
-421.515	200.020	-0.075	-0.115
-420.500	172.770	0.097	0.138
-419.486	800.000	0.032	0.101
-418.471	82.387	0.217	-0.234
-417.457	82.848	0.188	-0.203
-416.442	-200.000	0.016	-0.181
-415.428	800.000	0.097	-0.396
-414.413	27.213	0.020	0.017
-413.398	-94.931	0.371	0.100
-412.384	-94.276	-0.233	0.063
-411.369	1.195	-0.057	0.040
-410.355	-200.000	-0.006	0.147
-409.340	504.211	0.079	0.181
-408.325	800.000	-0.098	0.332
-407.311	-22.787	-0.283	-0.170
-406.296	800.000	-0.050	0.154
-405.282	210.771	-0.108	0.169
-404.267	-200.000	-0.008	-0.126
-403.252	22.532	0.150	-0.122
-402.238	48.155	0.069	-0.064
-401.223	95.332	0.318	0.361
-400.209	-138.359	-0.319	0.035
-399.194	800.000	-0.095	-0.308
-398.179	538.725	0.137	-0.324
-397.165	-130.666	0.106	-0.014
-396.150	-100.710	-0.287	-0.070
-395.136	-139.569	0.227	-0.024
-394.121	-122.279	0.059	0.010
-393.106	-105.166	0.160	-0.036
-392.092	177.993	-0.096	-0.138
-391.077	-97.305	0.271	0.070
-390.063	441.676	-0.040	-0.088
-389.048	800.000	0.072	0.244
-388.033	64.434	0.188	-0.188
-387.019	-85.882	-0.117	0.036
-386.004	6.560	0.063	-0.047
-384.990	73.115	-0.134	0.139
-383.975	-161.178	0.101	-0.005
-382.960	800.000	0.036	0.126
-381.946	-200.000	-0.003	0.029
-380.931	642.175	-0.030	0.076
-379.917	-74.656	0.254	-0.091
-378.902	-40.071	-0.140	0.072
-377.888	-2.603	0.305	0.212
-376.873	-200.000	0.012	0.118
-375.858	215.449	-0.043	-0.068
-374.844	-147.056	-0.205	0.017
-373.829	-6.993	-0.207	-0.140
-372.815	-146.157	0.159	0.014
-371.800	72.731	0.177	-0.183
-370.785	-116.451	-0.484	-0.089
-369.771	399.910	-0.065	0.136
-368.756	-200.000	-0.004	-0.184
-367.742	208.638	-0.178	0.277
-366.727	800.000	-0.036	0.132
-365.712	-144.116	0.164	0.015
-364.698	1.167	0.076	-0.054
-363.683	-200.000	-0.042	-0.229
-362.669	660.635	-0.096	0.244
-361.654	-200.000	0.066	0.363
-360.639	96.594	0.221	-0.251
-359.625	562.351	0.097	0.232
-358.610	102.000	-0.165	0.191
-357.596	-200.000	-0.034	-0.157
-356.581	-138.080	0.092	0.010
-355.566	-128.922	0.081	-0.011
-354.552	-157.239	0.157	-0.009
-353.537	-4.604	0.083	0.057
-352.523	-140.916	0.138	0.014
-351.508	248.975	-0.107	0.181
-350.493	-128.095	0.139	-0.020
-349.479	108.279	-0.069	0.082
-348.464	-153.297	-0.038	0.003
-347.450	-4.660	0.162	0.111
-346.435	-200.000	0.001	0.279
-345.420	800.000	0.104	-0.357
-344.406	-111.321	-0.072	0.015
-343.391	644.029	0.033	-0.084
-342.377	800.000	0.128	-0.433
-341.362	-200.000	0.032	0.167
-340.348	-102.306	0.085	-0.020
-339.333	800.000	0.085	0.301
-338.318	204.473	0.114	0.175
-337.304	272.830	-0.038	-0.066
-336.289	800.000	-0.085	-0.333
-335.275	212.577	0.164	-0.256
-334.260	268.892	-0.114	-0.198
-333.245	41.062	0.147	0.131
-332.231	50.652	0.216	0.202
-331.216	800.000	0.118	0.348
-330.202	800.000	0.025	0.091
-329.187	-44.598	0.156	0.077
-328.172	-200.000	0.030	-0.534
-327.158	101.635	-0.137	0.158
-326.143	149.758	0.120	-0.161
-325.129	-140.832	0.171	0.017
-324.114	295.145	0.076	-0.139
-323.099	800.000	0.134	0.377
-322.085	-6.979	-0.118	0.079
-321.070	-18.130	-0.198	-0.123
-320.056	-200.000	0.014	-0.194
-319.041	-67.818	0.144	-0.056
-318.026	286.807	0.138	-0.248
-317.012	23.207	0.109	0.088
-315.997	-11.592	-0.067	-0.044
-314.983	-82.136	0.054	0.017
-313.968	175.092	-0.201	-0.288
-312.953	-177.445	0.271	-0.007
-311.939	-9.032	-0.081	0.053
-310.924	-153.707	0.317	-0.022
-309.910	51.306	-0.247	0.232
-308.895	109.341	0.106	-0.126
-307.880	43.528	-0.047	0.043
-306.866	-69.983	-0.280	-0.106
-305.851	-200.000	0.077	0.411
-304.837	189.139	-0.230	0.340
-303.822	-200.000	-0.046	0.352
-302.807	800.000	0.043	-0.167
-301.793	324.593	0.181	0.342
-300.778	800.000	0.118	0.363
-299.764	800.000	-0.104	-0.400
-298.749	-23.553	-0.127	-0.075
-297.735	17.258	-0.206	-0.162
-296.720	28.919	-0.193	-0.162
-295.705	-18.698	-0.119	0.074
-294.691	-57.129	-0.234	0.102
-293.676	390.727	-0.146	-0.299
-292.662	58.644	0.184	-0.179
-291.647	-200.000	-0.012	0.452
-290.632	-97.434	0.151	0.039
-289.618	52.334	0.100	-0.095
-288.603	-200.000	0.031	-0.177
-287.589	514.263	-0.118	-0.272
-286.574	-141.682	0.022	0.002
-285.559	800.000	0.151	0.454
-284.545	-62.621	0.167	-0.069
-283.530	-37.735	0.086	0.045
-282.516	-135.502	0.026	0.003
-281.501	-53.024	0.198	-0.090
-280.486	-92.931	-0.426	0.118
-279.472	800.000	0.070	-0.246
-278.457	106.133	-0.179	-0.210
-277.443	-54.580	-0.174	0.078
-276.428	-200.000	0.044	0.412
-275.413	139.882	-0.045	0.059
-274.399	-200.000	0.027	0.143
-273.384	-77.660	-0.219	0.075
-272.370	-200.000	0.011	0.082
-271.355	613.637	0.118	-0.291
-270.340	-200.000	0.012	0.211
-269.326	374.007	0.126	-0.255
-268.311	55.197	-0.174	-0.166
-267.297	-103.138	0.350	0.082
-266.282	-175.058	0.219	0.006
-265.267	-200.000	-0.013	-0.421
-264.253	-200.000	-0.029	-0.241
-263.238	800.000	-0.009	-0.040
-262.224	194.034	-0.204	0.305
-261.209	-27.127	0.153	0.088
-260.195	-181.030	0.177	0.004
-259.180	-200.000	0.031	-0.291
-258.165	-116.925	-0.351	-0.063
-257.151	-198.083	0.444	-0.003
-256.136	751.324	0.052	-0.138
-255.122	800.000	0.056	0.159
-254.107	75.838	0.177	-0.184
-253.092	-200.000	0.023	0.218
-252.078	-36.352	0.312	0.166
-251.063	-52.193	-0.236	-0.108
-250.049	230.730	-0.183	0.296
-249.034	253.508	-0.005	0.008
-248.019	13.318	-0.198	0.152
-247.005	234.684	-0.200	-0.326
-245.990	-134.456	-0.132	0.016
-244.976	168.691	0.089	-0.125
-243.961	-184.884	0.224	0.004
-242.946	-70.660	0.025	-0.009
-241.932	-200.000	0.020	-0.142
-240.917	2.090	-0.019	0.014
-239.903	-132.450	0.256	0.033
-238.888	-99.133	0.473	-0.118
-237.873	199.933	-0.119	-0.181
-236.859	304.864	-0.109	0.200
-235.844	-106.712	-0.104	0.023
-234.830	800.000	0.056	0.214
-233.815	800.000	0.035	0.109
-232.800	-36.231	-0.254	0.135
-231.786	13.927	-0.052	-0.040
-230.771	200.500	-0.117	-0.177
-229.757	687.255	0.119	0.308
-228.742	-73.631	0.122	-0.044
-227.727	-15.695	-0.233	0.147
-226.713	673.046	-0.037	-0.095
-225.698	-14.833	0.060	-0.038
-224.684	-200.000	-0.045	0.215
-223.669	160.232	-0.096	-0.132
-222.655	-135.218	0.232	0.028
-221.640	-46.288	0.288	0.140
-220.625	800.000	0.048	-0.170
-219.611	800.000	-0.017	-0.057
-218.596	253.725	-0.131	0.222
-217.582	-54.846	-0.103	0.046
-216.567	-117.790	0.272	-0.048
-215.552	-200.000	-0.009	0.047
-214.538	531.960	-0.130	-0.303
-213.523	-122.715	0.500	-0.080
-212.509	-66.042	0.219	0.086
-211.494	481.193	-0.151	-0.338
-210.479	-95.306	-0.248	0.066
-209.465	-44.786	0.116	-0.057
-208.450	186.035	-0.079	0.116
-207.436	177.480	0.169	0.243
-206.421	-63.692	0.238	-0.096
-205.406	-200.000	0.027	0.127
-204.392	157.053	0.144	0.196
-203.377	800.000	0.078	0.230
-202.363	-48.932	0.015	-0.007
-201.348	-101.013	-0.191	-0.046
-200.333	-117.381	-0.235	0.042
-199.319	-174.248	0.157	-0.005
-198.304	499.779	-0.052	0.118
-197.290	117.802	-0.119	0.144
-196.275	581.055	0.076	0.184
-195.260	635.131	-0.059	0.148
-194.246	-152.680	0.145	-0.010
-193.231	-59.742	0.177	0.075
-192.217	-98.314	0.188	-0.048
-191.202	800.000	0.018	0.051
-190.187	1.754	0.190	0.135
-189.173	800.000	-0.040	-0.151
-188.158	22.530	0.254	-0.205
-187.144	-98.949	0.430	-0.108
-186.129	-171.932	0.109	0.003
-185.114	-109.683	-0.209	-0.043
-184.100	-17.691	-0.258	-0.160
-183.085	436.452	-0.075	0.161
-182.071	-19.645	-0.235	-0.143
-181.056	22.471	0.358	0.289
-180.042	-200.000	-0.059	0.279
-179.027	290.142	0.045	0.081
-178.012	800.000	-0.012	0.050
-176.998	-107.125	0.253	0.055
-175.983	-133.919	-0.194	0.024
-174.969	800.000	0.069	-0.225
-173.954	-4.643	-0.301	-0.205
-172.939	-20.747	0.339	-0.205
-171.925	301.564	-0.021	0.037
-170.910	5.517	-0.125	0.091
-169.896	176.653	0.095	0.136
-168.881	-200.000	-0.067	-0.301
-167.866	13.360	0.202	0.154
-166.852	800.000	0.082	-0.238
-165.837	66.164	-0.156	0.156
-164.823	800.000	-0.057	0.185
-163.808	634.349	-0.050	0.126
-162.793	-63.099	0.097	0.039
-161.779	44.191	-0.344	0.311
-160.764	800.000	-0.049	-0.192
-159.750	-200.000	0.016	-0.130
-158.735	800.000	0.082	0.255
-157.720	-106.755	-0.201	-0.044
-156.706	-142.580	0.250	-0.024
-155.691	-112.534	0.165	-0.032
-154.677	-17.561	-0.070	-0.044
-153.662	30.502	0.132	-0.111
-152.647	-110.246	-0.023	-0.005
-151.633	15.794	-0.255	-0.197
-150.618	65.172	0.109	-0.108
-149.604	219.039	0.131	0.206
-148.589	348.161	-0.016	0.030
-147.574	-200.000	-0.020	-0.265
-146.560	-200.000	0.022	0.110
-145.545	-95.140	0.108	0.029
-144.531	-87.884	-0.111	-0.033
-143.516	591.011	-0.139	-0.338
-142.502	21.402	0.082	-0.066
-141.487	-53.309	0.078	-0.035
-140.472	197.524	0.166	0.250
-139.458	-20.153	-0.106	-0.064
-138.443	13.545	0.123	0.094
-137.429	122.493	0.052	0.064
-136.414	138.129	0.091	-0.118
-135.399	33.825	-0.064	-0.055
-134.385	-126.749	0.020	0.003
-133.370	-156.786	0.222	0.013
-132.356	-144.005	0.383	0.035
-131.341	-87.647	-0.106	0.032
-130.326	800.000	0.014	0.056
-129.312	137.607	-0.369	0.475
-128.297	242.369	0.122	0.200
-127.283	-200.000	-0.021	0.208
-126.268	59.069	-0.235	0.227
-125.253	59.596	0.230	-0.223
-124.239	-59.479	-0.105	0.044
-123.224	242.104	0.076	0.124
-122.210	-200.000	0.001	0.105
