DTS Sentinel unit serial number:	SN413079Multiplexer serial number:	ORYXHardware model number:	OX4-SRSoftware version number:	ORYX F/W v4.00 Oryx Data Collector v3.7.2.0data status	okinstallation	princeton_trtdifferential loss correction	single-endedforward channel	channel 1reverse channel	N/Adate	2019/09/18time	09:38:35forward acquisition time	60.00reverse acquisition time	0.00gamma	496.2192k internal	0.2334k external	0.2334temperature offset calibration	0.9966default loss term (dB/km)	0.3790temperature slope calibration	1.0000multiplexer offset coefficient	1.0000multiplexer slope coefficient	1.0000fibre end	0.00T internal ref (°C)	26.67T ext. ref 1 (°C)	0.27T ext. ref 2 (°C)	23.41length (m)	temperature (°C)	Stokes	anti-Stokes-747.200	800.000	-0.083	-0.282
-746.185	-124.248	-0.228	0.036
-745.171	800.000	-0.066	0.247
-744.156	-41.311	0.095	-0.049
-743.142	-157.781	-0.139	-0.008
-742.127	2.643	-0.214	0.156
-741.112	162.740	-0.098	-0.139
-740.098	12.710	0.256	0.199
-739.083	270.523	0.270	0.477
-738.069	283.153	-0.122	0.220
-737.054	440.564	0.092	0.202
-736.039	127.973	0.143	0.183
-735.025	-126.495	0.179	0.027
-734.010	52.306	-0.138	-0.132
-732.996	-84.550	-0.464	-0.147
-731.981	-71.006	-0.270	0.102
-730.966	82.335	-0.089	0.097
-729.952	123.132	-0.351	-0.441
-728.937	800.000	-0.076	-0.215
-727.923	591.998	0.077	0.191
-726.908	-81.967	0.171	-0.056
-725.894	0.187	-0.102	0.073
-724.879	34.434	0.088	0.077
-723.864	134.961	0.252	-0.328
-722.850	-200.000	-0.084	-0.370
-721.835	-100.246	-0.141	0.035
-720.821	62.824	-0.153	-0.153
-719.806	-165.864	0.344	-0.015
-718.791	800.000	-0.012	0.044
-717.777	800.000	-0.070	0.305
-716.762	105.021	-0.281	-0.333
-715.748	-145.552	0.165	-0.015
-714.733	-200.000	-0.036	0.218
-713.718	-59.803	-0.049	-0.021
-712.704	158.674	-0.140	0.195
-711.689	72.102	0.139	-0.145
-710.675	-98.687	-0.125	0.032
-709.660	-53.673	0.234	0.107
-708.645	325.657	0.077	-0.147
-707.631	-121.299	-0.301	0.051
-706.616	-71.168	-0.306	0.115
-705.602	-200.000	-0.010	0.084
-704.587	-200.000	-0.006	0.238
-703.572	451.299	-0.050	-0.111
-702.558	-64.693	0.187	0.076
-701.543	34.779	0.140	0.123
-700.529	-200.000	0.018	-0.174
-699.514	800.000	-0.126	-0.400
-698.499	-200.000	0.001	0.171
-697.485	273.060	-0.034	0.060
-696.470	-140.168	-0.100	-0.011
-695.456	238.549	0.017	-0.029
-694.441	-200.000	0.005	-0.334
-693.426	-139.097	-0.056	0.006
-692.412	-80.066	-0.143	0.048
-691.397	138.837	-0.064	0.085
-690.383	75.111	0.122	-0.129
-689.368	276.980	-0.041	0.074
-688.354	800.000	-0.042	-0.138
-687.339	-34.331	-0.176	0.097
-686.324	563.137	-0.128	0.311
-685.310	-169.225	-0.352	-0.013
-684.295	-200.000	0.024	-0.463
-683.281	287.137	-0.107	0.194
-682.266	-200.000	-0.028	0.321
-681.251	-159.306	0.164	0.009
-680.237	800.000	-0.092	-0.257
-679.222	-9.829	0.266	-0.177
-678.208	-55.010	-0.188	0.085
-677.193	-137.754	-0.158	-0.018
-676.178	210.087	-0.292	-0.459
-675.164	800.000	-0.075	-0.264
-674.149	-200.000	-0.005	0.090
-673.135	-13.375	-0.264	0.172
-672.120	-100.323	-0.267	0.067
-671.105	-65.123	-0.056	0.023
-670.091	-4.689	0.326	-0.226
-669.076	-40.604	-0.157	0.081
-668.062	-117.686	-0.161	0.029
-667.047	-0.225	0.157	-0.112
-666.032	-200.000	-0.038	0.173
-665.018	-87.662	-0.239	0.072
-664.003	70.033	0.026	0.027
-662.989	-80.049	-0.039	-0.013
-661.974	249.936	0.049	-0.083
-660.959	-200.000	0.008	0.245
-659.945	-9.781	-0.193	-0.129
-658.930	-151.838	0.196	0.014
-657.916	34.298	-0.302	-0.264
-656.901	-99.555	0.098	-0.025
-655.886	358.075	-0.152	-0.304
-654.872	-200.000	-0.009	-0.143
-653.857	-200.000	0.032	0.164
-652.843	-108.938	-0.247	-0.053
-651.828	311.886	0.087	0.164
-650.814	-193.487	0.192	0.002
-649.799	-200.000	-0.008	0.235
-648.784	-94.579	-0.274	0.075
-647.770	90.134	0.155	0.174
-646.755	-130.452	-0.053	0.007
-645.741	283.973	-0.036	-0.064
-644.726	-200.000	-0.010	-0.128
-643.711	-58.915	-0.170	0.074
-642.697	800.000	-0.085	0.243
-641.682	27.914	-0.154	-0.130
-640.668	359.606	-0.030	0.060
-639.653	800.000	-0.037	-0.111
-638.638	-101.048	-0.097	-0.024
-637.624	408.142	0.051	-0.107
-636.609	-117.900	-0.289	-0.052
-635.595	800.000	0.056	0.164
-634.580	-153.840	-0.151	-0.010
-633.565	-33.779	-0.214	-0.118
-632.551	142.706	0.160	-0.213
-631.536	800.000	-0.132	-0.391
-630.522	555.649	-0.083	-0.200
-629.507	-13.814	0.137	-0.089
-628.492	-37.142	-0.017	0.009
-627.478	-200.000	0.003	-0.221
-626.463	32.106	-0.289	-0.249
-625.449	-122.519	0.252	-0.041
-624.434	-44.668	-0.379	-0.190
-623.419	420.738	-0.191	-0.410
-622.405	-200.000	0.013	0.085
-621.390	-200.000	0.004	0.310
-620.376	115.972	-0.102	0.125
-619.361	236.004	-0.153	0.253
-618.346	457.381	-0.077	-0.171
-617.332	26.251	0.200	0.167
-616.317	113.094	0.109	-0.132
-615.303	140.952	0.340	0.450
-614.288	-103.772	-0.254	-0.060
-613.273	800.000	-0.023	0.065
-612.259	5.449	0.156	-0.115
-611.244	423.645	0.105	-0.226
-610.230	-85.914	-0.112	0.035
-609.215	88.528	-0.171	-0.190
-608.201	202.171	0.015	-0.023
-607.186	723.706	-0.104	0.277
-606.171	-200.000	0.017	0.156
-605.157	800.000	-0.090	0.294
-604.142	-167.074	0.238	0.010
-603.128	-200.000	-0.006	0.249
-602.113	-54.427	0.111	0.051
-601.098	-144.307	-0.230	0.021
-600.084	701.340	-0.141	0.372
-599.069	65.125	-0.204	0.206
-598.055	-132.975	-0.120	-0.015
-597.040	451.791	0.142	-0.314
-596.025	528.724	0.070	0.165
-595.011	155.872	-0.059	0.082
-593.996	-23.844	-0.140	-0.084
-592.982	-155.009	-0.233	0.015
-591.967	-125.678	-0.256	-0.039
-590.952	22.809	0.297	0.244
-589.938	-61.250	0.275	0.116
-588.923	103.666	0.174	-0.204
-587.909	-78.703	0.302	0.103
-586.894	-42.341	-0.290	-0.148
-585.879	800.000	0.058	0.207
-584.865	-95.865	-0.147	0.039
-583.850	-200.000	-0.024	-0.121
-582.836	538.202	0.025	0.060
-581.821	800.000	-0.027	0.112
-580.806	361.241	0.079	-0.158
-579.792	-200.000	-0.014	0.078
-578.777	-179.456	-0.156	0.003
-577.763	467.525	0.100	0.225
-576.748	-52.341	-0.226	-0.104
-575.733	-88.047	-0.456	0.137
-574.719	-200.000	-0.045	-0.266
-573.704	-104.734	-0.223	-0.051
-572.690	58.426	-0.066	0.064
-571.675	-200.000	-0.002	-0.245
-570.661	800.000	-0.052	-0.166
-569.646	1.163	0.232	-0.166
-568.631	4.581	-0.024	-0.018
-567.617	-87.613	-0.053	0.016
-566.602	-200.000	0.029	-0.267
-565.588	-23.605	0.512	0.307
-564.573	-200.000	-0.019	-0.275
-563.558	94.886	-0.080	0.090
-562.544	3.037	-0.078	0.057
-561.529	-151.768	0.111	-0.008
-560.515	390.656	0.031	-0.065
-559.500	596.791	-0.010	-0.026
-558.485	214.635	0.123	-0.194
-557.471	69.594	-0.157	-0.161
-556.456	241.308	-0.137	0.228
-555.442	318.956	0.198	0.375
-554.427	529.730	0.194	-0.456
-553.412	800.000	-0.067	-0.279
-552.398	-200.000	0.013	-0.176
-551.383	44.453	-0.397	-0.364
-550.369	339.614	-0.168	-0.326
-549.354	-90.901	-0.484	-0.139
-548.339	80.729	0.089	-0.095
-547.325	362.448	0.117	0.234
-546.310	-193.151	0.151	-0.001
-545.296	126.148	0.206	-0.260
-544.281	179.970	-0.164	0.240
-543.266	218.830	-0.122	0.194
-542.252	-200.000	0.029	0.225
-541.237	100.386	0.193	0.223
-540.223	-82.864	-0.167	-0.054
-539.208	-200.000	-0.008	-0.318
-538.193	-200.000	-0.051	-0.230
-537.179	13.611	0.148	0.114
-536.164	266.484	-0.176	0.307
-535.150	-200.000	0.036	-0.164
-534.135	109.206	0.088	0.105
-533.121	-164.749	0.113	0.005
-532.106	-65.998	0.173	-0.069
-531.091	-86.222	-0.218	0.067
-530.077	16.157	0.105	0.083
-529.062	58.978	0.315	0.309
-528.048	-89.692	0.271	0.079
-527.033	-82.829	-0.280	0.090
-526.018	-180.141	-0.113	-0.002
-525.004	-26.184	0.132	0.078
-523.989	616.943	0.007	-0.018
-522.975	47.589	0.136	0.126
-521.960	800.000	0.085	0.342
-520.945	-28.446	-0.108	0.062
-519.931	-141.940	-0.085	-0.008
-518.916	-22.098	0.140	-0.085
-517.902	-39.041	0.404	-0.212
-516.887	154.309	0.175	0.240
-515.872	-108.478	-0.170	-0.037
-514.858	79.771	0.198	0.212
-513.843	-200.000	0.014	-0.069
-512.829	-8.285	0.094	0.063
-511.814	-179.493	-0.265	0.006
-510.799	-200.000	0.023	0.124
-509.785	250.247	-0.056	0.095
-508.770	131.070	0.138	-0.177
-507.756	-58.747	-0.311	-0.134
-506.741	225.812	-0.126	-0.203
-505.726	78.492	-0.097	0.103
-504.712	-56.266	-0.280	-0.124
-503.697	205.964	0.170	-0.263
-502.683	2.742	-0.298	-0.215
-501.668	118.929	0.179	0.220
-500.653	91.758	-0.058	0.065
-499.639	-24.513	0.080	0.047
-498.624	-200.000	-0.077	0.377
-497.610	800.000	-0.040	0.139
-496.595	-82.909	0.425	-0.136
-495.581	534.733	-0.081	-0.191
-494.566	166.867	-0.077	-0.109
-493.551	-115.837	-0.406	-0.076
-492.537	-200.000	-0.004	0.103
-491.522	-52.242	0.356	0.164
-490.508	800.000	-0.066	-0.245
-489.493	383.204	0.078	0.160
-488.478	800.000	-0.041	0.162
-487.464	-152.165	0.187	-0.014
-486.449	109.764	0.168	-0.200
-485.435	38.061	-0.181	0.160
-484.420	-108.984	-0.114	-0.024
-483.405	-48.797	0.230	0.110
-482.391	48.514	-0.209	-0.195
-481.376	-111.122	0.213	-0.044
-480.362	-39.139	-0.264	0.138
-479.347	167.818	-0.265	-0.375
-478.332	-63.219	-0.211	-0.087
-477.318	-85.524	0.240	0.074
-476.303	800.000	-0.099	-0.314
-475.289	-22.296	0.162	0.098
-474.274	800.000	-0.098	0.346
-473.259	-90.559	0.185	-0.053
-472.245	800.000	-0.107	-0.415
-471.230	40.275	-0.168	-0.150
-470.216	-29.332	0.182	0.103
-469.201	-93.945	0.022	-0.006
-468.186	-200.000	0.018	0.100
-467.172	-65.082	0.091	-0.037
-466.157	-96.705	0.078	-0.020
-465.143	119.712	-0.068	0.084
-464.128	-200.000	-0.000	-0.068
-463.113	-97.992	0.100	-0.026
-462.099	-200.000	0.073	0.371
-461.084	-54.907	0.305	0.137
-460.070	507.932	-0.054	0.124
-459.055	-121.535	-0.265	-0.044
-458.040	512.773	-0.017	0.040
-457.026	88.748	0.203	0.224
-456.011	739.535	0.095	0.254
-454.997	543.817	0.091	0.216
-453.982	195.041	0.183	0.276
-452.968	-42.218	-0.141	-0.071
-451.953	-22.364	-0.098	0.059
-450.938	209.957	-0.041	0.065
-449.924	79.348	-0.117	-0.124
-448.909	195.728	0.020	-0.031
-447.895	-200.000	0.024	0.228
-446.880	-200.000	0.023	-0.515
-445.865	-200.000	-0.004	-0.032
-444.851	-78.786	0.285	0.097
-443.836	-94.427	0.213	-0.058
-442.822	84.904	-0.351	0.383
-441.807	251.809	0.126	0.213
-440.792	60.155	0.108	-0.106
-439.778	-200.000	0.065	-0.396
-438.763	-11.553	-0.360	-0.235
-437.749	800.000	-0.068	-0.258
-436.734	800.000	0.021	-0.065
-435.719	-41.598	0.189	0.096
-434.705	62.053	0.183	0.181
-433.690	158.795	0.095	-0.131
-432.676	-37.956	-0.379	-0.200
-431.661	800.000	-0.040	0.145
-430.646	10.202	-0.072	0.054
-429.632	-47.558	0.214	-0.103
-428.617	-69.680	0.167	-0.063
-427.603	-54.921	-0.431	0.193
-426.588	316.107	-0.051	-0.095
-425.573	69.448	0.091	0.093
-424.559	800.000	-0.047	0.164
-423.544	-52.353	-0.336	-0.155
-422.530	31.075	-0.066	-0.056
-421.515	661.482	-0.075	-0.191
-420.500	-157.163	-0.463	-0.028
-419.486	-144.385	-0.145	-0.013
-418.471	-123.404	-0.214	-0.034
-417.457	-200.000	0.037	0.175
-416.442	16.248	-0.113	-0.088
-415.428	8.137	0.109	0.081
-414.413	-86.896	-0.154	0.047
-413.398	-200.000	0.043	0.242
-412.384	226.205	-0.086	-0.138
-411.369	-22.319	-0.153	0.092
-410.355	-200.000	-0.057	0.361
-409.340	-79.530	0.243	0.081
-408.325	247.922	0.060	0.101
-407.311	747.412	0.045	0.121
-406.296	800.000	-0.130	-0.384
-405.282	-45.223	-0.264	-0.130
-404.267	97.184	0.041	-0.046
-403.252	-200.000	-0.061	0.339
-402.238	-7.066	0.232	-0.156
-401.223	41.450	0.053	0.048
-400.209	26.237	0.253	-0.209
-399.194	-117.916	-0.200	-0.036
-398.179	-123.589	0.314	-0.049
-397.165	358.340	0.100	0.199
-396.150	-200.000	-0.007	-0.111
-395.136	27.987	0.156	-0.130
-394.121	800.000	0.077	-0.231
-393.106	196.911	-0.052	0.079
-392.092	55.323	0.051	-0.049
-391.077	-96.858	0.298	-0.077
-390.063	-114.994	-0.121	0.023
-389.048	-92.963	0.075	0.021
-388.033	104.638	-0.224	0.261
-387.019	800.000	0.083	0.251
-386.004	28.838	-0.230	-0.193
-384.990	800.000	0.047	-0.170
-383.975	-200.000	0.005	0.057
-382.960	51.538	0.222	-0.210
-381.946	-94.844	0.283	-0.076
-380.931	-38.388	0.114	0.060
-379.917	-3.096	0.098	0.068
-378.902	800.000	-0.107	-0.417
-377.888	-69.296	0.301	-0.115
-376.873	-9.485	-0.155	-0.103
-375.858	-46.196	-0.223	0.109
-374.844	132.264	0.096	0.123
-373.829	-200.000	0.016	-0.121
-372.815	-140.242	0.309	0.032
-371.800	110.914	-0.140	-0.167
-370.785	-192.276	0.519	-0.005
-369.771	146.073	0.089	0.119
-368.756	133.588	0.166	-0.213
-367.742	-23.291	-0.262	0.156
-366.727	-56.588	0.180	0.079
-365.712	450.299	-0.053	-0.115
-364.698	-200.000	-0.016	-0.099
-363.683	69.335	0.047	0.048
-362.669	-177.723	0.235	-0.006
-361.654	-92.254	-0.176	0.049
-360.639	-178.971	-0.178	-0.004
-359.625	-123.446	-0.047	-0.007
-358.610	624.365	-0.056	-0.139
-357.596	10.262	0.327	-0.247
-356.581	83.847	-0.124	-0.134
-355.566	82.416	0.116	-0.124
-354.552	-61.070	-0.144	0.060
-353.537	136.177	0.165	0.212
-352.523	-200.000	-0.056	-0.346
-351.508	125.937	-0.182	0.227
-350.493	118.702	0.244	-0.298
-349.479	-90.731	0.380	-0.109
-348.464	-113.604	0.369	0.071
-347.450	-152.731	0.215	0.015
-346.435	-200.000	-0.023	-0.211
-345.420	158.069	-0.202	-0.276
-344.406	359.313	0.092	0.183
-343.391	-86.181	-0.121	-0.037
-342.377	75.586	-0.236	-0.246
-341.362	-62.581	0.127	0.052
-340.348	-200.000	-0.027	-0.141
-339.333	-200.000	-0.021	0.422
-338.318	-200.000	0.017	-0.179
-337.304	-48.730	0.190	0.090
-336.289	66.029	0.086	-0.086
-335.275	-200.000	-0.010	0.198
-334.260	-9.656	-0.391	0.258
-333.245	-200.000	-0.001	0.106
-332.231	7.055	0.076	0.056
-331.216	-192.055	-0.156	-0.001
-330.202	429.669	-0.118	-0.251
-329.187	-200.000	-0.003	0.015
-328.172	-27.240	-0.172	0.099
-327.158	219.391	-0.130	0.205
-326.143	221.928	-0.185	-0.295
-325.129	165.739	-0.270	0.377
-324.114	800.000	0.098	0.332
-323.099	-87.059	0.204	0.061
-322.085	160.005	-0.140	-0.193
-321.070	-34.307	-0.220	0.119
-320.056	4.212	-0.199	-0.144
-319.041	190.355	-0.125	-0.185
-318.026	193.800	0.102	-0.152
-317.012	-200.000	0.021	-0.309
-315.997	109.960	0.153	0.181
-314.983	-200.000	0.009	-0.212
-313.968	-38.107	0.153	0.081
-312.953	108.657	-0.221	0.261
-311.939	2.318	0.083	-0.060
-310.924	-9.792	0.029	-0.019
-309.910	-26.660	0.128	0.074
-308.895	500.155	-0.132	0.300
-307.880	673.742	-0.014	-0.036
-306.866	542.469	0.096	-0.227
-305.851	-200.000	0.064	-0.426
-304.837	-1.155	-0.040	-0.028
-303.822	800.000	0.087	-0.344
-302.807	-89.893	-0.560	-0.162
-301.793	-200.000	0.001	-0.004
-300.778	-180.105	-0.163	-0.003
-299.764	-64.408	-0.093	-0.038
-298.749	-200.000	-0.004	0.134
-297.735	265.772	0.006	-0.011
-296.720	203.526	-0.128	-0.196
-295.705	-139.478	-0.164	-0.017
-294.691	-103.692	-0.140	0.033
-293.676	402.101	0.156	-0.324
-292.662	-136.904	0.139	0.016
-291.647	-200.000	-0.014	0.117
-290.632	800.000	-0.009	0.028
-289.618	-62.601	-0.184	0.075
-288.603	-200.000	0.042	0.214
-287.589	42.985	-0.081	0.073
-286.574	148.889	-0.026	0.035
-285.559	481.564	-0.088	-0.197
-284.545	-129.509	-0.055	-0.008
-283.530	800.000	0.059	0.183
-282.516	-200.000	0.012	0.135
-281.501	-82.238	-0.201	0.065
-280.486	148.776	0.049	-0.066
-279.472	800.000	-0.092	0.331
-278.457	800.000	-0.015	-0.042
-277.443	-69.267	0.145	-0.055
-276.428	88.395	-0.025	-0.027
-275.413	-77.636	0.252	0.086
-274.399	-200.000	0.035	-0.274
-273.384	-118.604	-0.047	0.008
-272.370	685.727	0.063	-0.161
-271.355	33.036	-0.041	0.035
-270.340	464.865	-0.137	-0.302
-269.326	33.150	0.293	0.250
-268.311	-49.383	0.213	0.100
-267.297	800.000	0.076	0.262
-266.282	-153.978	-0.144	-0.010
-265.267	-121.656	0.217	-0.035
-264.253	71.937	-0.299	-0.307
-263.238	800.000	-0.090	-0.246
-262.224	94.387	-0.033	-0.037
-261.209	362.724	-0.083	-0.164
-260.195	81.272	0.072	0.077
-259.180	261.539	0.057	-0.097
-258.165	633.508	0.026	-0.064
-257.151	-82.440	-0.270	0.087
-256.136	800.000	-0.049	-0.159
-255.122	-132.447	-0.329	-0.042
-254.107	-145.689	0.076	0.007
-253.092	113.205	0.084	-0.101
-252.078	-200.000	-0.043	-0.275
-251.063	-92.059	-0.096	-0.027
-250.049	-32.038	-0.234	-0.129
-249.034	5.026	0.390	-0.283
-248.019	-56.902	-0.361	0.157
-247.005	86.118	0.297	-0.323
-245.990	14.688	-0.072	0.056
-244.976	185.668	-0.108	-0.158
-243.961	-58.299	-0.055	-0.024
-242.946	-25.125	0.229	0.134
-241.932	323.605	-0.094	0.178
-240.917	430.065	-0.099	0.211
-239.903	-63.713	0.111	-0.045
-238.888	-18.106	0.584	0.361
-237.873	276.003	0.181	0.316
-236.859	-42.989	0.019	-0.009
-235.844	-190.703	0.198	0.002
-234.830	764.377	0.132	-0.353
-233.815	305.532	0.191	-0.351
-232.800	24.980	-0.140	0.114
-231.786	-133.139	0.290	-0.036
-230.771	-122.624	0.261	0.042
-229.757	26.885	0.146	0.120
-228.742	52.431	0.295	0.277
-227.727	800.000	-0.052	-0.205
-226.713	19.718	0.272	0.216
-225.698	120.749	0.104	0.127
-224.684	-200.000	0.035	-0.180
-223.669	-4.571	-0.054	-0.037
-222.655	176.483	-0.020	-0.028
-221.640	327.190	-0.065	0.123
-220.625	673.425	0.141	0.360
-219.611	109.715	0.046	-0.054
-218.596	-155.664	-0.162	-0.010
-217.582	-81.581	-0.148	0.048
-216.567	324.146	0.084	-0.157
-215.552	345.435	-0.057	-0.110
-214.538	800.000	-0.021	0.085
-213.523	-87.219	-0.171	-0.051
-212.509	-200.000	-0.025	-0.260
-211.494	-116.611	0.335	-0.061
-210.479	-200.000	0.046	0.448
-209.465	-200.000	0.050	0.295
-208.450	-124.216	0.238	-0.037
-207.436	42.785	0.124	0.111
-206.421	-200.000	0.030	0.180
-205.406	689.783	-0.066	0.171
-204.392	-28.067	-0.206	-0.117
-203.377	-0.748	-0.032	-0.022
-202.363	800.000	0.036	0.132
-201.348	236.074	-0.014	0.023
-200.333	53.737	0.118	-0.112
-199.319	-200.000	0.018	0.220
-198.304	-4.102	-0.137	-0.093
-197.290	-129.252	0.037	-0.005
-196.275	-128.509	-0.476	-0.066
-195.260	-87.360	0.227	-0.068
-194.246	588.955	-0.028	-0.069
-193.231	-105.882	-0.159	0.035
-192.217	275.563	-0.213	0.372
-191.202	-32.302	-0.136	0.075
-190.187	25.464	-0.206	-0.169
-189.173	95.752	0.299	0.335
-188.158	123.144	-0.152	0.187
-187.144	-84.792	0.298	0.092
-186.129	-110.716	-0.161	-0.033
-185.114	23.046	0.487	0.393
-184.100	-149.088	-0.477	-0.038
-183.085	-200.000	-0.017	-0.173
-182.071	-200.000	-0.014	-0.200
-181.056	-200.000	0.012	0.483
-180.042	87.720	0.097	0.106
-179.027	3.772	0.207	-0.149
-178.012	-191.730	-0.201	0.002
-176.998	-200.000	0.037	0.252
-175.983	-200.000	-0.007	0.370
-174.969	800.000	0.123	0.461
-173.954	-81.371	0.144	0.047
-172.939	-2.136	0.027	0.019
-171.925	-200.000	0.025	-0.229
-170.910	-200.000	-0.007	0.119
-169.896	-200.000	0.030	-0.181
-168.881	33.156	-0.197	0.168
-167.866	-130.319	0.277	-0.037
-166.852	-200.000	0.035	-0.158
-165.837	350.310	-0.147	0.285
-164.823	105.314	0.214	0.248
-163.808	131.827	0.108	0.137
-162.793	-161.815	0.458	-0.023
-161.779	-86.939	0.340	0.102
-160.764	-200.000	0.001	-0.472
-159.750	99.285	-0.121	0.138
-158.735	187.662	-0.051	0.075
-157.720	533.954	-0.015	-0.036
-156.706	-42.904	0.320	0.159
-155.691	236.341	-0.030	-0.049
-154.677	378.276	-0.203	-0.407
-153.662	503.225	0.085	-0.193
-152.647	-39.440	0.293	-0.151
-151.633	-108.272	-0.302	0.064
-150.618	53.041	-0.050	0.047
-149.604	-113.871	-0.149	0.028
-148.589	302.511	0.163	-0.296
-147.574	-103.764	-0.400	0.092
-146.560	23.595	0.026	0.021
-145.545	376.135	0.071	0.143
-144.531	800.000	0.098	0.279
-143.516	800.000	0.093	0.288
-142.502	-53.653	-0.213	-0.095
-141.487	511.286	-0.066	0.150
-140.472	89.660	-0.309	0.338
-139.458	800.000	0.042	-0.124
-138.443	120.709	-0.123	-0.150
-137.429	-200.000	-0.024	-0.221
-136.414	-147.121	-0.044	-0.004
-135.399	446.758	-0.093	-0.200
-134.385	264.221	0.086	-0.147
-133.370	481.219	-0.051	0.113
-132.356	-76.936	-0.330	0.113
-131.341	-67.272	0.288	-0.111
-130.326	412.000	0.134	-0.279
-129.312	29.050	-0.325	0.271
-128.297	-74.654	0.164	-0.058
-127.283	71.231	-0.149	0.151
-126.268	31.195	-0.358	0.302
-125.253	-131.539	-0.263	0.034
-124.239	-200.000	-0.001	-0.102
-123.224	262.368	-0.122	0.207
-122.210	-99.411	0.117	-0.029
-121.195	607.013	0.145	0.355
