DTS Sentinel unit serial number:	SN413079Multiplexer serial number:	ORYXHardware model number:	OX4-SRSoftware version number:	ORYX F/W v4.00 Oryx Data Collector v3.7.2.0data status	okinstallation	princeton_trtdifferential loss correction	single-endedforward channel	channel 1reverse channel	N/Adate	2019/09/11time	03:52:11forward acquisition time	60.00reverse acquisition time	0.00gamma	496.2192k internal	0.2331k external	0.2331temperature offset calibration	0.9924default loss term (dB/km)	0.3790temperature slope calibration	1.0000multiplexer offset coefficient	1.0000multiplexer slope coefficient	1.0000fibre end	0.00T internal ref (°C)	29.56T ext. ref 1 (°C)	-0.28T ext. ref 2 (°C)	23.71length (m)	temperature (°C)	Stokes	anti-Stokes-747.200	86.710	-0.170	-0.189
-746.185	800.000	0.068	0.272
-745.171	339.924	-0.128	-0.251
-744.156	-21.486	-0.247	-0.151
-743.142	-131.811	0.213	-0.028
-742.127	-77.763	-0.364	0.127
-741.112	235.739	-0.118	-0.196
-740.098	-200.000	-0.043	0.235
-739.083	-200.000	0.008	-0.409
-738.069	-200.000	0.038	0.446
-737.054	-101.425	0.208	-0.051
-736.039	189.788	-0.076	-0.115
-735.025	-9.186	0.148	0.099
-734.010	90.301	0.134	0.151
-732.996	59.695	0.164	-0.163
-731.981	94.345	-0.074	0.085
-730.966	-92.119	-0.285	0.081
-729.952	-61.319	0.175	-0.074
-728.937	-39.317	-0.123	0.065
-727.923	226.132	-0.203	0.332
-726.908	800.000	-0.086	0.288
-725.894	-200.000	-0.035	0.335
-724.879	800.000	0.070	-0.231
-723.864	-157.157	0.371	0.023
-722.850	-153.358	-0.187	-0.013
-721.835	-159.227	-0.216	-0.012
-720.821	198.269	-0.112	-0.173
-719.806	212.507	-0.219	-0.348
-718.791	-46.834	-0.154	-0.076
-717.777	90.580	-0.133	-0.150
-716.762	-200.000	0.002	0.071
-715.748	-120.030	-0.274	-0.047
-714.733	-200.000	-0.079	-0.490
-713.718	-176.534	0.233	0.006
-712.704	46.725	0.356	-0.333
-711.689	100.779	-0.082	-0.096
-710.675	-7.889	-0.251	-0.170
-709.660	-200.000	0.022	0.110
-708.645	12.510	-0.263	0.204
-707.631	-63.568	-0.287	0.118
-706.616	21.468	0.052	-0.043
-705.602	-200.000	-0.007	0.106
-704.587	-167.707	0.287	-0.011
-703.572	800.000	-0.111	-0.332
-702.558	-92.462	0.078	-0.022
-701.543	-97.460	-0.257	-0.067
-700.529	-200.000	-0.029	-0.260
-699.514	800.000	0.068	-0.242
-698.499	-84.861	0.263	-0.083
-697.485	-52.413	-0.325	-0.151
-696.470	-95.769	0.231	0.062
-695.456	260.254	-0.188	-0.326
-694.441	-76.922	-0.260	-0.091
-693.426	-135.529	0.113	0.013
-692.412	-200.000	0.024	0.700
-691.397	169.216	0.104	-0.149
-690.383	27.239	0.290	-0.244
-689.368	-200.000	0.013	0.152
-688.354	-67.450	0.103	0.040
-687.339	-129.879	-0.207	-0.029
-686.324	-68.120	-0.219	-0.086
-685.310	-46.235	0.371	-0.183
-684.295	-64.739	0.067	-0.027
-683.281	89.872	0.079	-0.089
-682.266	173.440	-0.112	0.163
-681.251	616.483	-0.120	0.303
-680.237	-200.000	-0.013	-0.104
-679.222	-62.121	-0.276	-0.116
-678.208	-43.656	-0.113	0.057
-677.193	627.976	-0.039	-0.099
-676.178	-193.388	0.172	0.001
-675.164	-102.360	-0.080	-0.019
-674.149	800.000	-0.022	0.073
-673.135	-200.000	0.017	0.101
-672.120	-20.057	0.097	-0.060
-671.105	-111.991	0.232	-0.047
-670.091	477.138	-0.094	0.213
-669.076	-111.958	0.171	-0.035
-668.062	-189.152	0.073	-0.001
-667.047	-71.345	-0.102	0.038
-666.032	61.773	-0.327	0.327
-665.018	-31.992	-0.051	0.028
-664.003	189.099	0.025	0.038
-662.989	200.664	0.143	-0.220
-661.974	435.667	-0.086	-0.188
-660.959	354.418	0.046	-0.091
-659.945	-171.220	-0.207	0.007
-658.930	219.134	0.017	0.028
-657.916	-200.000	-0.017	-0.124
-656.901	800.000	-0.097	0.279
-655.886	-200.000	0.025	-0.157
-654.872	-28.858	-0.020	-0.011
-653.857	333.427	-0.217	-0.421
-652.843	-22.227	-0.063	-0.039
-651.828	-79.126	-0.116	-0.039
-650.814	61.086	-0.202	-0.201
-649.799	-24.618	-0.248	0.148
-648.784	-117.092	-0.031	0.006
-647.770	-73.800	0.115	0.042
-646.755	-60.872	0.053	0.023
-645.741	524.158	0.112	0.263
-644.726	-18.587	0.159	0.099
-643.711	-55.733	0.121	-0.054
-642.697	199.736	-0.104	0.160
-641.682	103.889	-0.257	0.302
-640.668	-112.303	-0.110	-0.022
-639.653	-36.131	-0.207	0.112
-638.638	-71.140	-0.212	0.080
-637.624	32.292	-0.393	-0.340
-636.609	217.293	-0.123	-0.197
-635.595	22.289	-0.300	-0.246
-634.580	-83.445	0.132	-0.042
-633.565	363.413	0.118	0.238
-632.551	-78.825	-0.208	0.071
-631.536	-27.449	-0.362	0.211
-630.522	-32.057	0.417	-0.234
-629.507	-200.000	-0.012	-0.132
-628.492	1.430	-0.187	-0.135
-627.478	-101.681	-0.262	-0.064
-626.463	-150.117	0.103	0.008
-625.449	-169.474	0.142	-0.005
-624.434	800.000	-0.069	-0.212
-623.419	-55.480	-0.240	0.108
-622.405	629.414	0.196	0.496
-621.390	-200.000	0.014	0.105
-620.376	-200.000	-0.034	-0.326
-619.361	45.227	-0.137	0.127
-618.346	-133.892	0.341	-0.042
-617.332	610.795	-0.042	0.104
-616.317	71.779	-0.211	0.220
-615.303	-74.880	-0.177	0.064
-614.288	-64.016	0.050	-0.020
-613.273	-44.449	-0.203	-0.102
-612.259	-146.854	0.519	-0.045
-611.244	-47.914	-0.188	-0.091
-610.230	-116.161	0.465	0.087
-609.215	353.645	-0.056	0.111
-608.201	123.930	-0.241	-0.304
-607.186	-196.176	0.126	-0.001
-606.171	80.833	-0.137	0.148
-605.157	73.177	-0.264	-0.277
-604.142	-82.954	0.263	-0.085
-603.128	1.016	-0.093	0.066
-602.113	-200.000	-0.043	0.271
-601.098	516.848	-0.154	-0.361
-600.084	-200.000	0.008	0.146
-599.069	135.924	0.342	-0.446
-598.055	-172.578	0.196	0.006
-597.040	-200.000	0.051	0.326
-596.025	-167.784	0.362	-0.014
-595.011	-144.664	0.340	0.031
-593.996	-200.000	-0.030	-0.224
-592.982	-200.000	0.045	-0.204
-591.967	119.003	-0.181	-0.224
-590.952	800.000	0.054	0.199
-589.938	88.035	0.147	0.163
-588.923	800.000	0.070	0.289
-587.909	14.453	0.184	0.144
-586.894	-200.000	-0.035	-0.161
-585.879	-200.000	0.040	0.476
-584.865	-5.130	-0.323	-0.222
-583.850	-179.435	0.106	0.002
-582.836	-200.000	0.009	-0.145
-581.821	88.318	0.024	0.027
-580.806	-200.000	0.030	0.336
-579.792	148.315	-0.270	-0.365
-578.777	-200.000	0.002	0.194
-577.763	582.200	-0.070	0.171
-576.748	-130.865	-0.171	-0.023
-575.733	68.388	-0.247	-0.253
-574.719	324.579	0.176	0.337
-573.704	-36.551	0.217	0.117
-572.690	482.405	-0.043	-0.097
-571.675	-108.786	-0.166	-0.036
-570.661	429.629	0.106	0.230
-569.646	800.000	-0.091	-0.266
-568.631	45.178	0.206	-0.190
-567.617	800.000	0.122	0.448
-566.602	-77.686	0.044	0.015
-565.588	53.068	-0.191	0.183
-564.573	800.000	0.067	0.229
-563.558	-44.504	0.097	0.049
-562.544	280.705	0.032	-0.057
-561.529	-200.000	-0.001	-0.061
-560.515	-102.617	-0.193	0.046
-559.500	591.940	-0.043	-0.106
-558.485	-148.047	0.237	0.020
-557.471	-200.000	0.009	-0.495
-556.456	-97.611	-0.038	0.010
-555.442	-3.875	-0.067	-0.047
-554.427	-86.405	0.453	0.139
-553.412	21.234	-0.447	0.362
-552.398	-200.000	0.047	0.331
-551.383	88.311	0.087	0.097
-550.369	-22.001	-0.305	0.185
-549.354	114.518	0.150	-0.182
-548.339	-200.000	-0.040	0.207
-547.325	258.189	0.108	0.186
-546.310	47.373	0.073	0.068
-545.296	-1.526	-0.150	-0.105
-544.281	-146.307	-0.142	-0.012
-543.266	114.170	-0.054	0.066
-542.252	-58.190	0.184	0.080
-541.237	-6.713	-0.091	0.062
-540.223	-166.300	-0.254	-0.011
-539.208	777.501	0.111	-0.302
-538.193	-5.474	0.201	0.137
-537.179	-55.382	-0.134	0.060
-536.164	-173.260	0.092	-0.003
-535.150	269.294	0.073	0.128
-534.135	-42.370	-0.192	0.098
-533.121	23.523	0.059	0.048
-532.106	-156.850	0.150	-0.009
-531.091	-200.000	-0.013	-0.216
-530.077	-200.000	0.011	-0.168
-529.062	11.562	-0.323	-0.247
-528.048	800.000	0.045	0.173
-527.033	623.463	0.059	0.148
-526.018	51.057	0.141	-0.134
-525.004	17.041	0.171	0.135
-523.989	-143.999	-0.095	-0.009
-522.975	323.763	-0.188	-0.357
-521.960	52.160	-0.097	-0.092
-520.945	-179.383	-0.340	-0.007
-519.931	800.000	0.103	0.304
-518.916	77.458	0.137	-0.145
-517.902	-200.000	-0.002	-0.007
-516.887	494.484	0.160	-0.367
-515.872	224.884	-0.326	0.525
-514.858	292.788	-0.279	0.508
-513.843	-6.825	-0.179	0.121
-512.829	-110.894	0.304	0.062
-511.814	88.807	-0.151	-0.167
-510.799	-200.000	0.065	-0.365
-509.785	800.000	0.116	-0.420
-508.770	497.139	0.096	0.219
-507.756	800.000	0.064	-0.225
-506.741	178.459	0.187	0.272
-505.726	-32.116	-0.061	0.034
-504.712	-170.915	-0.062	-0.002
-503.697	64.878	-0.138	-0.139
-502.683	-200.000	-0.044	-0.235
-501.668	-31.010	-0.144	0.081
-500.653	124.934	-0.218	0.274
-499.639	-200.000	-0.024	0.143
-498.624	-47.224	-0.015	0.007
-497.610	67.020	-0.231	0.235
-496.595	55.472	0.158	-0.152
-495.581	-200.000	0.009	-0.155
-494.566	-200.000	-0.064	-0.398
-493.551	-178.001	0.256	-0.006
-492.537	-38.185	0.379	-0.200
-491.522	597.062	-0.039	0.096
-490.508	-132.445	-0.077	-0.010
-489.493	-200.000	0.044	0.279
-488.478	-79.492	-0.114	0.038
-487.464	800.000	0.096	-0.265
-486.449	-121.833	0.220	0.036
-485.435	487.224	0.120	0.273
-484.420	-16.458	-0.237	-0.150
-483.405	58.216	0.335	-0.327
-482.391	-18.195	0.054	-0.034
-481.376	-200.000	0.045	0.446
-480.362	234.165	0.219	0.360
-479.347	-65.105	-0.285	-0.115
-478.332	140.023	0.067	0.088
-477.318	187.908	0.068	-0.102
-476.303	103.030	0.041	-0.047
-475.289	791.176	0.026	0.072
-474.274	386.436	-0.023	-0.047
-473.259	416.180	-0.109	-0.232
-472.245	319.097	-0.137	-0.258
-471.230	-200.000	-0.055	-0.368
-470.216	21.185	-0.218	-0.176
-469.201	-166.304	-0.233	-0.010
-468.186	-121.143	0.035	-0.006
-467.172	-58.122	0.282	-0.122
-466.157	-200.000	-0.051	-0.439
-465.143	14.273	-0.202	-0.157
-464.128	4.803	0.075	0.055
-463.113	137.039	-0.129	0.168
-462.099	25.422	0.117	0.097
-461.084	-112.544	-0.208	0.041
-460.070	159.335	-0.107	0.148
-459.055	-200.000	0.051	0.326
-458.040	-154.835	-0.365	0.024
-457.026	-152.781	0.281	-0.020
-456.011	800.000	0.086	0.365
-454.997	-200.000	0.002	0.108
-453.982	800.000	-0.091	0.254
-452.968	-65.597	0.131	-0.052
-451.953	800.000	-0.028	-0.109
-450.938	-72.631	0.202	0.074
-449.924	-105.939	-0.343	0.077
-448.909	159.671	-0.112	0.154
-447.895	800.000	-0.048	0.172
-446.880	-116.668	-0.218	-0.040
-445.865	-109.364	0.114	-0.024
-444.851	-124.601	-0.426	-0.066
-443.836	-15.045	-0.332	-0.212
-442.822	674.608	-0.194	-0.500
-441.807	36.204	-0.075	0.066
-440.792	318.827	0.137	-0.258
-439.778	800.000	0.118	0.370
-438.763	105.843	-0.101	0.119
-437.749	-139.023	0.341	-0.037
-436.734	-200.000	0.016	-0.231
-435.719	492.073	-0.073	-0.166
-434.705	800.000	-0.065	-0.251
-433.690	385.963	0.049	-0.100
-432.676	91.884	0.156	0.175
-431.661	-200.000	0.022	-0.136
-430.646	434.506	0.104	0.224
-429.632	-63.590	0.200	0.082
-428.617	367.283	0.057	-0.115
-427.603	146.881	0.114	-0.152
-426.588	97.908	0.028	0.032
-425.573	170.102	0.141	-0.200
-424.559	-70.964	-0.116	0.043
-423.544	-51.668	-0.367	-0.170
-422.530	-59.943	-0.052	-0.022
-421.515	5.079	0.269	0.197
-420.500	200.261	0.052	-0.079
-419.486	800.000	-0.085	0.254
-418.471	-43.690	0.240	-0.120
-417.457	800.000	-0.066	0.203
-416.442	-149.056	0.132	-0.011
-415.428	101.469	-0.262	-0.303
-414.413	9.564	-0.199	0.149
-413.398	-146.837	-0.334	-0.029
-412.384	-200.000	0.042	0.190
-411.369	83.857	0.085	0.092
-410.355	-51.955	-0.389	-0.180
-409.340	228.272	0.148	-0.240
-408.325	-40.153	-0.235	-0.122
-407.311	-29.315	0.331	0.188
-406.296	-200.000	0.001	-0.366
-405.282	-26.824	-0.281	-0.163
-404.267	303.043	0.124	-0.228
-403.252	615.077	0.084	-0.210
-402.238	206.352	0.142	0.220
-401.223	-134.696	-0.120	-0.014
-400.209	-19.550	-0.257	-0.158
-399.194	93.909	0.061	-0.069
-398.179	-89.530	0.122	-0.035
-397.165	774.450	0.053	-0.145
-396.150	74.080	0.170	0.177
-395.136	135.152	-0.158	-0.204
-394.121	-182.065	0.182	-0.003
-393.106	212.743	-0.197	0.309
-392.092	-200.000	0.021	-0.295
-391.077	-128.133	-0.212	0.030
-390.063	-38.197	0.198	0.104
-389.048	15.508	-0.098	-0.077
-388.033	800.000	-0.039	-0.161
-387.019	56.021	0.221	0.213
-386.004	-139.811	0.275	0.029
-384.990	800.000	0.095	-0.304
-383.975	171.688	-0.289	-0.412
-382.960	-200.000	0.004	0.076
-381.946	-98.206	-0.073	-0.019
-380.931	283.227	-0.117	0.208
-379.917	-130.783	-0.102	0.014
-378.902	18.440	-0.184	0.146
-377.888	800.000	0.010	0.040
-376.873	103.537	0.166	-0.193
-375.858	-85.263	0.281	-0.087
-374.844	-139.040	-0.481	-0.052
-373.829	129.366	0.180	0.228
-372.815	-200.000	0.005	0.092
-371.800	175.111	0.150	0.216
-370.785	30.471	0.102	-0.086
-369.771	-98.470	-0.177	-0.045
-368.756	-78.019	-0.218	0.075
-367.742	-38.130	-0.274	0.144
-366.727	148.039	0.152	-0.203
-365.712	-146.741	-0.109	0.009
-364.698	-60.187	0.296	-0.125
-363.683	257.007	0.061	-0.105
-362.669	-200.000	0.005	-0.265
-361.654	-27.135	0.152	0.088
-360.639	24.360	-0.073	-0.060
-359.625	247.735	0.166	0.279
-358.610	-106.050	0.053	-0.012
-357.596	-123.517	0.235	-0.037
-356.581	45.597	0.056	0.052
-355.566	9.828	-0.143	-0.108
-354.552	-100.305	-0.236	-0.058
-353.537	-86.228	-0.238	-0.073
-352.523	-52.758	-0.093	0.043
-351.508	-172.520	0.331	-0.010
-350.493	-167.791	-0.204	0.008
-349.479	-102.332	0.229	-0.054
-348.464	800.000	0.113	0.348
-347.450	-112.685	-0.504	-0.099
-346.435	-11.110	0.306	-0.200
-345.420	316.268	0.135	0.252
-344.406	235.327	-0.153	0.250
-343.391	59.776	0.008	-0.008
-342.377	-1.649	-0.106	-0.074
-341.362	-99.838	0.161	-0.040
-340.348	-200.000	0.042	-0.347
-339.333	131.119	-0.163	-0.207
-338.318	800.000	0.039	-0.118
-337.304	-162.329	-0.299	0.015
-336.289	-137.640	0.090	-0.010
-335.275	-54.310	-0.212	-0.095
-334.260	17.108	0.109	-0.085
-333.245	67.550	0.233	-0.236
-332.231	-41.356	-0.088	0.045
-331.216	742.856	0.060	-0.161
-330.202	-55.281	-0.078	0.035
-329.187	226.642	0.069	-0.112
-328.172	12.212	-0.154	-0.117
-327.158	-200.000	0.028	-0.208
-326.143	-200.000	0.018	0.092
-325.129	-83.181	-0.030	-0.010
-324.114	709.736	0.026	-0.068
-323.099	39.724	0.170	0.151
-322.085	113.467	0.240	-0.289
-321.070	93.954	-0.136	0.153
-320.056	-200.000	0.046	-0.255
-319.041	49.391	-0.186	-0.173
-318.026	5.493	-0.276	0.202
-317.012	-163.288	0.439	-0.021
-315.997	-46.904	0.138	0.067
-314.983	-200.000	-0.004	-0.116
-313.968	58.695	-0.069	-0.067
-312.953	-16.429	-0.149	0.093
-311.939	-200.000	-0.001	0.159
-310.924	60.276	0.142	-0.139
-309.910	-61.688	0.212	0.088
-308.895	93.723	-0.139	-0.156
-307.880	194.497	-0.098	0.147
-306.866	180.875	-0.217	-0.316
-305.851	-162.958	0.191	0.009
-304.837	-57.481	0.139	-0.060
-303.822	333.175	0.106	-0.204
-302.807	124.516	0.080	-0.100
-301.793	800.000	-0.061	-0.169
-300.778	-184.905	0.200	0.003
-299.764	93.794	0.109	0.123
-298.749	-94.522	0.095	-0.026
-297.735	-103.362	-0.359	-0.084
-296.720	526.337	-0.084	-0.197
-295.705	-200.000	0.013	0.107
-294.691	800.000	-0.037	-0.157
-293.676	-200.000	-0.024	0.215
-292.662	-200.000	-0.024	-0.124
-291.647	373.843	0.135	-0.272
-290.632	-177.868	0.037	-0.001
-289.618	-112.868	-0.512	0.100
-288.603	-194.543	0.301	-0.002
-287.589	693.626	-0.134	0.346
-286.574	-133.793	0.052	0.006
-285.559	-200.000	0.022	0.214
-284.545	-53.306	0.392	0.178
-283.530	-12.517	-0.145	-0.094
-282.516	-114.608	0.116	0.022
-281.501	148.342	-0.186	0.248
-280.486	394.679	0.166	0.342
-279.472	-200.000	0.009	0.322
-278.457	-105.031	-0.078	0.018
-277.443	6.547	0.269	0.197
-276.428	12.611	-0.302	-0.231
-275.413	314.096	-0.020	-0.036
-274.399	105.822	-0.303	0.354
-273.384	-111.481	-0.114	0.023
-272.370	56.032	-0.054	-0.052
-271.355	-44.347	0.163	0.081
-270.340	-115.065	0.183	-0.034
-269.326	-37.551	0.149	0.079
-268.311	-200.000	0.040	-0.272
-267.297	-56.336	-0.234	0.103
-266.282	-101.617	-0.151	-0.036
-265.267	-50.970	-0.209	0.097
-264.253	-161.734	0.106	-0.005
-263.238	-65.814	0.123	0.049
-262.224	-200.000	0.038	-0.187
-261.209	630.696	-0.014	-0.034
-260.195	339.738	0.226	-0.436
-259.180	33.381	0.303	-0.260
-258.165	70.984	-0.155	0.159
-257.151	-200.000	0.008	0.354
-256.136	11.593	0.223	0.169
-255.122	-123.613	0.079	-0.012
-254.107	184.805	-0.254	0.372
-253.092	797.780	0.079	0.215
-252.078	11.213	-0.243	0.184
-251.063	-166.015	0.181	-0.008
-250.049	11.175	-0.183	0.138
-249.034	-3.596	0.191	0.131
-248.019	800.000	0.096	0.389
-247.005	788.713	0.172	0.467
-245.990	-200.000	-0.022	0.148
-244.976	-41.282	-0.383	0.195
-243.961	-19.080	-0.131	-0.080
-242.946	143.717	0.018	-0.024
-241.932	181.575	0.061	-0.089
-240.917	800.000	0.016	-0.049
-239.903	287.838	-0.156	0.279
-238.888	-200.000	-0.034	-0.265
-237.873	800.000	0.028	0.115
-236.859	-99.862	-0.354	0.087
-235.844	42.393	-0.126	-0.113
-234.830	-40.176	0.308	-0.158
-233.815	-83.354	0.080	-0.025
-232.800	-101.175	0.093	0.023
-231.786	289.033	0.157	-0.281
-230.771	-97.386	0.220	0.056
-229.757	263.934	0.086	0.147
-228.742	180.243	0.117	-0.170
-227.727	525.885	0.129	0.298
-226.713	-129.523	-0.239	-0.033
-225.698	281.455	-0.136	0.240
-224.684	-37.609	0.130	0.068
-223.669	800.000	-0.083	-0.235
-222.655	307.294	0.049	-0.089
-221.640	61.055	0.112	0.110
-220.625	800.000	-0.072	-0.243
-219.611	-200.000	-0.037	0.273
-218.596	-200.000	-0.040	0.261
-217.582	-176.937	0.478	0.012
-216.567	72.579	0.336	0.346
-215.552	-29.640	0.127	-0.072
-214.538	5.050	0.202	-0.146
-213.523	-18.432	0.180	0.111
-212.509	-137.290	-0.191	0.021
-211.494	437.209	0.124	-0.267
-210.479	764.627	0.078	-0.209
-209.465	-99.766	-0.240	0.059
-208.450	800.000	-0.055	0.166
-207.436	270.730	0.098	-0.170
-206.421	-200.000	0.025	0.388
-205.406	-21.122	0.469	-0.283
-204.392	-3.637	-0.245	-0.168
-203.377	641.380	-0.053	0.132
-202.363	-56.730	0.127	0.055
-201.348	-122.119	0.288	0.047
-200.333	-151.248	-0.130	0.010
-199.319	-1.321	0.222	-0.154
-198.304	-193.481	0.110	-0.001
-197.290	271.053	0.195	0.337
-196.275	-88.962	-0.071	-0.021
-195.260	-200.000	0.007	-0.088
-194.246	98.846	0.149	0.169
-193.231	-45.917	0.214	-0.104
-192.217	-200.000	0.018	-0.120
-191.202	25.251	-0.262	-0.214
-190.187	113.160	-0.427	-0.510
-189.173	15.868	-0.080	-0.062
-188.158	-14.067	-0.073	-0.046
-187.144	73.535	-0.172	0.178
-186.129	67.531	-0.244	-0.245
-185.114	-200.000	0.043	0.267
-184.100	250.359	0.091	0.153
-183.085	-47.126	-0.168	0.081
-182.071	209.465	-0.016	0.025
-181.056	389.199	-0.061	-0.124
-180.042	12.502	0.269	-0.204
-179.027	-200.000	0.004	0.061
-178.012	559.635	0.038	-0.090
-176.998	106.681	-0.083	-0.097
-175.983	-132.693	-0.024	0.003
-174.969	41.687	0.083	-0.074
-173.954	-200.000	-0.056	-0.377
-172.939	-116.911	0.093	-0.017
-171.925	307.717	0.081	0.148
-170.910	-36.305	0.049	0.026
-169.896	329.961	0.166	0.314
-168.881	-200.000	-0.052	-0.267
-167.866	80.823	0.213	-0.226
-166.852	-200.000	-0.019	0.239
-165.837	-120.974	-0.210	0.035
-164.823	-200.000	-0.018	0.261
-163.808	800.000	-0.115	0.405
-162.793	181.309	0.249	-0.361
-161.779	800.000	-0.039	0.131
-160.764	-23.262	0.171	0.101
-159.750	14.988	0.246	-0.189
-158.735	229.565	-0.127	-0.205
-157.720	24.350	-0.209	-0.170
-156.706	46.042	-0.164	-0.150
-155.691	259.947	0.188	-0.320
-154.677	-111.973	-0.060	0.012
-153.662	508.803	-0.128	0.292
-152.647	19.264	0.139	0.110
-151.633	55.165	0.300	0.285
-150.618	-105.471	0.361	-0.081
-149.604	32.179	0.185	0.157
-148.589	653.024	0.026	-0.064
-147.574	-200.000	-0.030	0.395
-146.560	224.466	0.034	0.054
-145.545	20.795	-0.186	-0.148
-144.531	-198.918	0.251	0.001
-143.516	495.203	-0.077	0.174
-142.502	-104.237	-0.168	0.038
-141.487	-72.946	0.342	0.124
-140.472	-24.028	0.307	-0.180
-139.458	-96.937	0.414	0.107
-138.443	-100.394	-0.107	0.026
-137.429	-50.531	0.173	-0.080
-136.414	-80.018	-0.260	0.086
-135.399	-200.000	-0.071	-0.408
-134.385	-200.000	-0.004	-0.126
-133.370	550.917	0.108	0.255
-132.356	-24.120	0.210	-0.123
-131.341	-131.081	-0.159	-0.021
-130.326	66.768	0.074	0.074
-129.312	146.993	0.181	-0.240
-128.297	-178.656	-0.322	-0.007
-127.283	-38.019	0.147	0.076
-126.268	516.110	0.109	0.250
-125.253	105.263	0.081	0.094
-124.239	323.572	0.028	0.053
-123.224	190.581	-0.205	0.302
-122.210	125.195	0.201	0.249
-121.195	-200.000	0.094	-0.425
