DTS Sentinel unit serial number:	SN413079Multiplexer serial number:	ORYXHardware model number:	OX4-SRSoftware version number:	ORYX F/W v4.00 Oryx Data Collector v3.7.2.0data status	okinstallation	princeton_trtdifferential loss correction	single-endedforward channel	channel 1reverse channel	N/Adate	2019/09/18time	03:58:35forward acquisition time	60.00reverse acquisition time	0.00gamma	496.2192k internal	0.2339k external	0.2339temperature offset calibration	0.9971default loss term (dB/km)	0.3790temperature slope calibration	1.0000multiplexer offset coefficient	1.0000multiplexer slope coefficient	1.0000fibre end	0.00T internal ref (°C)	23.12T ext. ref 1 (°C)	0.17T ext. ref 2 (°C)	18.09length (m)	temperature (°C)	Stokes	anti-Stokes-747.200	115.693	-0.132	-0.162
-746.185	-200.000	0.001	0.045
-745.171	-79.294	0.410	-0.139
-744.156	54.808	-0.129	0.125
-743.142	-130.670	0.139	-0.019
-742.127	85.152	0.031	-0.034
-741.112	764.419	0.026	-0.070
-740.098	288.345	-0.167	0.304
-739.083	40.013	0.191	0.172
-738.069	-198.859	0.125	0.001
-737.054	128.711	0.145	-0.185
-736.039	-121.346	-0.176	-0.029
-735.025	-95.389	0.386	0.104
-734.010	191.411	-0.011	0.017
-732.996	-200.000	-0.011	-0.048
-731.981	191.164	-0.184	0.278
-730.966	-63.646	0.282	0.116
-729.952	800.000	0.062	-0.235
-728.937	377.322	-0.072	0.147
-727.923	-28.123	0.134	-0.078
-726.908	163.231	-0.148	0.208
-725.894	-200.000	-0.002	0.059
-724.879	574.324	-0.054	0.131
-723.864	131.828	-0.385	-0.496
-722.850	-25.430	-0.293	-0.173
-721.835	24.684	0.413	-0.343
-720.821	-200.000	-0.046	-0.278
-719.806	56.866	-0.113	-0.111
-718.791	115.107	0.122	-0.149
-717.777	800.000	-0.031	-0.133
-716.762	-200.000	-0.002	-0.010
-715.748	800.000	0.050	0.141
-714.733	699.552	-0.036	0.096
-713.718	33.391	-0.092	0.080
-712.704	59.717	-0.184	0.182
-711.689	416.455	-0.102	-0.217
-710.675	39.955	-0.141	0.127
-709.660	245.785	0.010	0.016
-708.645	-86.027	0.075	-0.023
-707.631	104.275	0.126	-0.149
-706.616	-200.000	-0.046	0.205
-705.602	-108.614	-0.231	-0.050
-704.587	-128.820	-0.218	0.031
-703.572	170.997	-0.053	-0.076
-702.558	678.810	0.039	0.102
-701.543	-50.344	0.401	0.190
-700.529	595.606	-0.036	0.090
-699.514	800.000	0.095	0.304
-698.499	-57.612	-0.348	0.153
-697.485	687.984	-0.172	0.449
-696.470	32.001	0.145	-0.125
-695.456	-18.604	-0.098	-0.061
-694.441	-120.668	0.168	0.029
-693.426	-69.118	0.210	0.081
-692.412	-200.000	0.025	-0.195
-691.397	-17.122	-0.237	0.150
-690.383	-43.566	-0.239	-0.121
-689.368	42.986	-0.229	0.209
-688.354	261.920	-0.127	-0.220
-687.339	-90.209	0.265	0.077
-686.324	571.046	0.125	-0.306
-685.310	227.846	0.031	0.051
-684.295	-130.685	-0.203	-0.027
-683.281	800.000	-0.032	0.115
-682.266	247.313	-0.100	-0.169
-681.251	656.581	0.024	-0.061
-680.237	800.000	0.064	-0.226
-679.222	-60.158	0.257	0.110
-678.208	800.000	0.051	-0.219
-677.193	106.053	-0.107	0.127
-676.178	421.774	0.115	0.246
-675.164	-122.306	-0.167	-0.027
-674.149	292.260	-0.190	0.346
-673.135	800.000	-0.052	0.199
-672.120	59.066	0.246	0.242
-671.105	-200.000	-0.027	-0.375
-670.091	373.881	0.053	-0.109
-669.076	-5.224	-0.194	-0.133
-668.062	87.325	0.070	-0.078
-667.047	-35.677	0.112	0.061
-666.032	-165.792	0.447	-0.019
-665.018	158.138	-0.108	0.149
-664.003	-118.614	0.204	0.036
-662.989	800.000	0.072	-0.268
-661.974	147.210	-0.110	-0.148
-660.959	452.679	-0.145	-0.320
-659.945	299.753	0.024	-0.044
-658.930	-200.000	-0.018	-0.277
-657.916	-71.904	0.056	-0.021
-656.901	14.856	0.205	0.160
-655.886	-133.006	-0.118	-0.015
-654.872	8.331	0.209	-0.157
-653.857	-74.095	0.253	-0.092
-652.843	-200.000	-0.005	-0.054
-651.828	24.537	-0.130	0.108
-650.814	-142.140	0.163	0.016
-649.799	-110.270	0.191	0.040
-648.784	-140.220	0.206	0.022
-647.770	42.565	0.310	0.282
-646.755	-80.814	0.010	-0.003
-645.741	-185.559	-0.246	0.004
-644.726	-150.009	-0.083	0.006
-643.711	238.165	0.175	-0.291
-642.697	154.762	-0.053	0.073
-641.682	-144.583	-0.141	-0.013
-640.668	800.000	-0.089	-0.366
-639.653	800.000	-0.021	0.078
-638.638	134.526	0.090	0.117
-637.624	-54.595	-0.401	-0.181
-636.609	387.301	0.089	0.185
-635.595	-71.955	-0.166	-0.062
-634.580	800.000	0.002	0.008
-633.565	43.440	-0.216	0.198
-632.551	679.513	-0.097	-0.252
-631.536	52.116	0.133	0.127
-630.522	294.584	-0.152	-0.278
-629.507	-45.479	0.169	-0.084
-628.492	222.781	0.180	-0.290
-627.478	267.597	0.084	0.147
-626.463	119.996	0.089	0.110
-625.449	-176.344	0.218	0.006
-624.434	27.233	-0.198	0.166
-623.419	72.625	-0.042	0.044
-622.405	-47.762	-0.341	0.165
-621.390	16.651	0.058	-0.046
-620.376	269.558	-0.214	-0.375
-619.361	34.596	0.134	-0.117
-618.346	356.777	-0.039	-0.078
-617.332	262.808	0.072	-0.124
-616.317	-10.688	0.037	0.025
-615.303	-26.512	-0.312	0.183
-614.288	-89.447	0.032	0.009
-613.273	-80.316	-0.249	0.083
-612.259	-53.102	0.181	0.083
-611.244	-88.855	0.072	-0.021
-610.230	-75.305	0.117	0.042
-609.215	-200.000	-0.081	0.456
-608.201	-200.000	0.000	0.012
-607.186	-122.659	-0.154	-0.025
-606.171	-174.101	0.120	0.004
-605.157	-57.871	0.236	-0.103
-604.142	263.288	-0.162	-0.280
-603.128	-17.219	0.319	-0.201
-602.113	-55.635	-0.190	-0.085
-601.098	96.471	-0.064	0.073
-600.084	511.920	-0.121	-0.280
-599.069	800.000	-0.091	0.335
-598.055	-200.000	0.029	-0.334
-597.040	52.858	0.134	-0.127
-596.025	5.238	-0.194	0.142
-595.011	-65.971	-0.200	-0.080
-593.996	-200.000	-0.004	-0.042
-592.982	-27.522	0.211	0.122
-591.967	-138.392	0.291	0.032
-590.952	106.456	-0.231	-0.273
-589.938	-144.014	0.156	-0.015
-588.923	800.000	0.061	0.229
-587.909	86.340	-0.188	-0.206
-586.894	-164.795	-0.413	-0.019
-585.879	166.463	-0.075	0.106
-584.865	-178.088	-0.426	-0.010
-583.850	800.000	0.017	0.062
-582.836	-48.559	0.186	-0.089
-581.821	-200.000	0.012	0.109
-580.806	-118.013	-0.379	0.068
-579.792	713.509	-0.204	0.538
-578.777	800.000	0.083	-0.278
-577.763	-107.535	-0.433	0.094
-576.748	-90.096	0.320	0.093
-575.733	0.206	0.217	-0.154
-574.719	-200.000	0.065	-0.313
-573.704	-114.155	-0.115	-0.022
-572.690	-121.785	0.319	-0.053
-571.675	-101.046	-0.117	-0.029
-570.661	-60.454	-0.264	-0.112
-569.646	-152.054	-0.302	-0.022
-568.631	800.000	-0.115	-0.324
-567.617	54.698	0.110	-0.105
-566.602	-200.000	0.017	-0.256
-565.588	252.456	0.095	-0.162
-564.573	-200.000	0.056	-0.392
-563.558	-106.235	-0.172	0.038
-562.544	-200.000	-0.011	-0.550
-561.529	51.599	-0.070	-0.067
-560.515	764.849	0.066	0.179
-559.500	-14.924	0.193	-0.124
-558.485	-200.000	-0.002	0.061
-557.471	-200.000	-0.035	0.274
-556.456	152.557	-0.151	-0.205
-555.442	456.528	0.109	-0.240
-554.427	-200.000	0.023	-0.128
-553.412	800.000	0.092	0.374
-552.398	-200.000	0.042	0.307
-551.383	210.303	0.271	-0.424
-550.369	-200.000	-0.036	-0.248
-549.354	116.613	-0.190	-0.232
-548.339	800.000	-0.029	0.111
-547.325	-154.162	0.101	0.007
-546.310	-194.326	-0.163	-0.001
-545.296	-171.901	-0.552	0.018
-544.281	67.638	-0.212	0.215
-543.266	-200.000	0.098	-0.475
-542.252	-136.897	-0.188	0.022
-541.237	-18.122	0.199	0.124
-540.223	-56.619	-0.266	0.117
-539.208	800.000	-0.022	-0.087
-538.193	483.909	-0.033	-0.074
-537.179	-73.183	0.067	0.025
-536.164	-52.216	0.063	-0.029
-535.150	29.613	-0.115	0.097
-534.135	-200.000	-0.003	0.052
-533.121	32.523	0.228	-0.196
-532.106	800.000	-0.027	-0.104
-531.091	-122.201	-0.056	0.009
-530.077	65.895	-0.148	-0.149
-529.062	-154.424	0.033	0.002
-528.048	-87.645	0.093	-0.028
-527.033	616.180	-0.022	0.054
-526.018	-72.111	0.310	-0.115
-525.004	133.235	-0.117	-0.150
-523.989	0.226	0.350	-0.248
-522.975	159.252	-0.020	-0.027
-521.960	147.075	0.093	0.124
-520.945	417.969	0.072	0.154
-519.931	130.944	0.230	0.293
-518.916	75.901	0.067	0.071
-517.902	-24.710	0.230	0.136
-516.887	-136.658	-0.255	0.029
-515.872	22.689	-0.090	0.073
-514.858	-171.617	-0.138	0.005
-513.843	1.290	-0.115	-0.082
-512.829	800.000	-0.046	0.164
-511.814	318.650	0.068	-0.127
-510.799	-88.824	-0.058	0.017
-509.785	32.276	0.291	0.250
-508.770	-17.790	-0.043	0.027
-507.756	683.211	0.043	0.112
-506.741	38.063	0.214	-0.189
-505.726	-152.645	-0.145	0.010
-504.712	-94.246	-0.071	0.019
-503.697	181.604	0.105	0.153
-502.683	800.000	-0.040	0.149
-501.668	46.854	0.083	-0.076
-500.653	365.278	-0.026	-0.053
-499.639	539.450	0.051	-0.121
-498.624	-200.000	0.037	0.208
-497.610	185.214	0.098	-0.145
-496.595	95.300	0.203	-0.230
-495.581	541.214	0.024	0.057
-494.566	196.767	-0.091	-0.137
-493.551	-23.201	-0.359	-0.214
-492.537	162.108	-0.239	0.332
-491.522	156.702	0.113	0.155
-490.508	-10.980	0.062	0.041
-489.493	-37.642	-0.063	0.034
-488.478	-200.000	0.035	0.218
-487.464	17.638	0.081	-0.064
-486.449	439.271	0.142	0.308
-485.435	-200.000	-0.095	-0.417
-484.420	9.001	-0.149	-0.111
-483.405	-94.804	0.148	0.040
-482.391	318.649	-0.045	0.086
-481.376	-30.255	0.106	-0.060
-480.362	9.299	0.282	-0.211
-479.347	314.535	-0.142	0.265
-478.332	-3.143	0.202	-0.140
-477.318	211.885	-0.094	-0.147
-476.303	36.680	0.071	0.062
-475.289	-65.000	0.083	0.033
-474.274	2.024	-0.318	0.228
-473.259	-115.616	0.126	0.023
-472.245	24.294	-0.226	0.185
-471.230	34.099	0.191	-0.165
-470.216	36.807	-0.203	0.178
-469.201	11.847	0.048	0.036
-468.186	-42.225	0.231	0.117
-467.172	-68.893	0.240	-0.092
-466.157	-129.777	0.093	0.013
-465.143	-97.916	-0.214	0.055
-464.128	11.418	-0.116	-0.088
-463.113	128.354	0.104	0.131
-462.099	800.000	-0.044	0.157
-461.084	90.345	-0.245	-0.272
-460.070	-5.750	-0.239	-0.162
-459.055	-45.550	0.117	-0.057
-458.040	-200.000	0.014	-0.125
-457.026	6.597	0.174	0.129
-456.011	195.818	-0.146	0.221
-454.997	-99.854	-0.071	0.018
-453.982	198.040	0.184	0.278
-452.968	800.000	-0.114	-0.340
-451.953	-200.000	-0.011	0.212
-450.938	-200.000	0.046	-0.211
-449.924	-71.382	-0.180	-0.067
-448.909	104.509	-0.139	0.162
-447.895	-200.000	0.002	0.139
-446.880	-13.444	-0.121	0.078
-445.865	-178.416	-0.163	-0.004
-444.851	88.362	0.226	0.249
-443.836	-176.807	-0.256	-0.006
-442.822	-200.000	0.059	-0.304
-441.807	-131.807	-0.358	0.046
-440.792	-39.996	0.276	-0.143
-439.778	623.062	0.106	-0.265
-438.763	-6.083	0.252	-0.171
-437.749	-128.394	-0.241	-0.034
-436.734	-200.000	0.009	0.096
-435.719	800.000	0.041	0.151
-434.705	-200.000	0.057	0.413
-433.690	590.611	-0.064	0.155
-432.676	-178.954	-0.390	-0.009
-431.661	-64.994	0.128	-0.051
-430.646	800.000	-0.077	-0.231
-429.632	-115.837	0.386	0.071
-428.617	-200.000	0.066	0.295
-427.603	-200.000	-0.023	0.129
-426.588	69.392	0.275	-0.281
-425.573	688.618	-0.021	0.056
-424.559	112.757	0.118	-0.141
-423.544	-143.996	0.140	0.013
-422.530	-200.000	-0.035	-0.187
-421.515	-136.911	0.099	0.011
-420.500	-119.848	-0.145	0.025
-419.486	304.531	0.122	0.224
-418.471	-22.178	0.072	0.043
-417.457	-5.298	-0.397	0.270
-416.442	-200.000	-0.010	0.166
-415.428	-57.629	-0.118	-0.051
-414.413	313.670	-0.059	-0.110
-413.398	-200.000	0.015	0.180
-412.384	-42.660	0.214	-0.108
-411.369	14.750	-0.187	-0.144
-410.355	74.918	0.193	-0.201
-409.340	66.285	0.218	-0.219
-408.325	-200.000	-0.032	0.344
-407.311	-200.000	0.078	0.382
-406.296	800.000	0.099	-0.352
-405.282	255.589	-0.197	-0.333
-404.267	-64.829	-0.100	0.040
-403.252	-79.154	-0.028	-0.010
-402.238	60.997	-0.168	0.165
-401.223	231.925	-0.044	-0.072
-400.209	-163.979	0.110	0.005
-399.194	-141.108	0.402	-0.041
-398.179	-200.000	0.010	0.203
-397.165	780.247	0.080	0.216
-396.150	-59.761	-0.387	-0.164
-395.136	-11.702	-0.064	-0.042
-394.121	-143.477	0.115	0.011
-393.106	57.325	-0.161	-0.156
-392.092	158.838	0.066	0.091
-391.077	780.057	-0.083	0.225
-390.063	-130.831	0.047	-0.006
-389.048	-118.654	0.057	0.010
-388.033	319.252	0.039	-0.072
-387.019	-112.141	-0.133	0.027
-386.004	609.584	0.080	-0.198
-384.990	-142.372	0.544	0.053
-383.975	-119.100	-0.286	0.049
-382.960	-78.418	0.296	0.100
-381.946	-83.481	0.158	0.050
-380.931	353.260	0.087	0.170
-379.917	-93.876	-0.332	-0.090
-378.902	-104.233	0.390	0.090
-377.888	800.000	0.031	0.086
-376.873	-1.840	0.255	-0.177
-375.858	-106.445	0.102	0.022
-374.844	107.337	-0.089	-0.104
-373.829	-40.801	0.195	-0.100
-372.815	-9.452	0.257	0.169
-371.800	66.132	0.102	-0.103
-370.785	125.423	0.109	-0.136
-369.771	-75.543	0.203	0.071
-368.756	-79.964	-0.371	0.123
-367.742	-173.285	-0.088	-0.003
-366.727	546.822	0.181	-0.428
-365.712	-41.954	0.049	-0.025
-364.698	-200.000	-0.031	0.142
-363.683	22.927	0.079	0.064
-362.669	-33.137	0.414	-0.227
-361.654	-114.842	0.105	0.020
-360.639	800.000	-0.007	0.031
-359.625	146.317	-0.183	-0.242
-358.610	-200.000	-0.046	-0.239
-357.596	-200.000	-0.018	0.195
-356.581	50.835	0.177	0.166
-355.566	-200.000	0.003	0.127
-354.552	-37.188	0.076	-0.040
-353.537	-62.786	0.108	-0.044
-352.523	-200.000	-0.040	0.376
-351.508	681.720	-0.034	0.089
-350.493	800.000	0.061	0.231
-349.479	-200.000	0.042	0.210
-348.464	-90.555	-0.188	0.054
-347.450	-65.472	0.241	0.096
-346.435	-200.000	0.005	-0.371
-345.420	-200.000	0.001	-0.058
-344.406	-200.000	0.004	0.121
-343.391	643.944	-0.118	0.296
-342.377	-63.712	0.129	0.052
-341.362	761.704	-0.105	-0.281
-340.348	251.843	0.034	0.057
-339.333	-21.972	-0.141	0.085
-338.318	113.919	0.048	-0.058
-337.304	-61.590	-0.158	-0.066
-336.289	-76.858	0.082	-0.028
-335.275	356.731	-0.044	0.086
-334.260	-200.000	0.031	0.379
-333.245	-200.000	-0.009	-0.165
-332.231	494.474	0.106	-0.241
-331.216	24.776	-0.101	0.083
-330.202	-101.118	-0.289	-0.070
-329.187	-200.000	-0.018	0.110
-328.172	-98.211	0.117	-0.030
-327.158	-84.414	0.265	-0.083
-326.143	-22.334	0.070	0.042
-325.129	800.000	0.015	0.062
-324.114	13.653	0.080	0.062
-323.099	-170.164	-0.315	0.011
-322.085	-200.000	-0.045	-0.246
-321.070	-169.947	-0.336	-0.012
-320.056	88.784	0.263	0.288
-319.041	-2.256	0.182	-0.126
-318.026	241.619	-0.205	0.338
-317.012	533.463	-0.102	-0.238
-315.997	289.495	0.034	0.061
-314.983	225.473	0.037	0.059
-313.968	11.129	0.356	-0.268
-312.953	-24.272	0.117	-0.069
-311.939	279.921	0.189	-0.333
-310.924	210.070	-0.125	0.194
-309.910	-200.000	0.034	-0.296
-308.895	-200.000	0.033	0.281
-307.880	-200.000	-0.075	-0.458
-306.866	88.501	0.263	-0.288
-305.851	800.000	0.077	-0.245
-304.837	189.300	0.008	0.012
-303.822	-200.000	0.001	0.090
-302.807	-200.000	-0.003	0.124
-301.793	32.468	0.185	-0.158
-300.778	131.553	-0.153	0.194
-299.764	35.588	-0.275	0.238
-298.749	-162.012	0.322	-0.016
-297.735	-200.000	0.070	-0.386
-296.720	-63.507	-0.124	-0.050
-295.705	-9.593	0.098	0.064
-294.691	800.000	0.045	-0.155
-293.676	-86.231	-0.286	-0.087
-292.662	-200.000	0.004	0.171
-291.647	-67.999	0.239	0.092
-290.632	-16.326	-0.277	-0.173
-289.618	-101.486	-0.102	0.024
-288.603	-77.953	-0.193	0.066
-287.589	-72.723	0.079	-0.029
-286.574	-98.968	0.360	-0.090
-285.559	-200.000	0.009	0.116
-284.545	48.638	-0.126	0.117
-283.530	-10.024	0.353	0.231
-282.516	800.000	-0.031	-0.102
-281.501	800.000	-0.035	0.117
-280.486	466.505	0.141	-0.312
-279.472	357.386	0.123	-0.242
-278.457	-142.246	0.227	0.022
-277.443	-200.000	0.010	-0.130
-276.428	217.252	-0.104	0.163
-275.413	-200.000	-0.044	0.229
-274.399	89.925	0.009	-0.010
-273.384	643.672	0.141	0.355
-272.370	-40.084	-0.411	0.211
-271.355	-145.750	0.229	0.020
-270.340	-90.217	-0.081	-0.023
-269.326	800.000	0.044	0.181
-268.311	-50.004	-0.034	0.016
-267.297	-0.961	0.235	0.164
-266.282	-86.238	-0.160	0.048
-265.267	-79.492	-0.265	0.088
-264.253	624.301	-0.080	-0.197
-263.238	51.629	-0.204	0.190
-262.224	-68.704	-0.218	-0.083
-261.209	800.000	0.143	0.535
-260.195	42.399	-0.119	0.106
-259.180	-82.153	0.164	-0.053
-258.165	-16.310	0.195	-0.122
-257.151	62.806	-0.107	-0.105
-256.136	65.103	-0.145	-0.144
-255.122	204.969	0.113	-0.173
-254.107	143.781	-0.106	0.139
-253.092	353.258	0.110	-0.215
-252.078	-52.941	-0.145	0.066
-251.063	518.140	-0.146	-0.337
-250.049	-115.337	-0.197	0.037
-249.034	-150.651	-0.057	0.004
-248.019	800.000	-0.021	-0.081
-247.005	190.027	-0.135	-0.200
-245.990	264.850	0.034	-0.059
-244.976	305.423	-0.271	0.496
-243.961	-200.000	-0.011	0.322
-242.946	-158.936	-0.246	0.014
-241.932	-13.026	-0.139	-0.089
-240.917	767.555	-0.103	0.276
-239.903	-200.000	0.002	0.263
-238.888	-200.000	-0.022	-0.152
-237.873	519.989	-0.049	-0.112
-236.859	-79.713	0.231	0.077
-235.844	421.581	0.050	0.106
-234.830	-63.084	-0.206	-0.083
-233.815	9.633	0.204	-0.152
-232.800	800.000	-0.131	-0.407
-231.786	5.091	0.138	0.100
-230.771	-76.963	-0.155	0.053
-229.757	-167.794	-0.196	0.008
-228.742	387.816	0.097	-0.197
-227.727	-51.443	0.159	0.073
-226.713	-48.131	-0.181	-0.086
-225.698	103.817	-0.077	-0.089
-224.684	800.000	0.020	0.070
-223.669	-200.000	0.051	-0.219
-222.655	-162.988	-0.247	-0.012
-221.640	800.000	-0.018	-0.066
-220.625	-200.000	0.014	0.133
-219.611	-32.411	0.165	0.090
-218.596	-14.594	-0.191	-0.121
-217.582	158.921	0.130	0.178
-216.567	-61.740	-0.166	-0.068
-215.552	112.034	0.170	-0.202
-214.538	-200.000	-0.008	0.065
-213.523	-200.000	0.009	-0.042
-212.509	-155.079	-0.125	-0.008
-211.494	-159.265	-0.183	-0.010
-210.479	713.196	0.036	0.095
-209.465	-135.958	-0.203	-0.023
-208.450	290.586	0.029	-0.051
-207.436	9.876	0.074	0.055
-206.421	-87.639	-0.282	0.084
-205.406	58.192	0.173	-0.166
-204.392	-96.464	-0.318	0.082
-203.377	59.654	-0.249	-0.241
-202.363	-11.765	0.205	-0.132
-201.348	-73.369	-0.286	-0.103
-200.333	-58.832	0.149	0.063
-199.319	70.473	-0.105	0.107
-198.304	160.536	0.141	-0.193
-197.290	738.365	-0.191	0.503
-196.275	-5.595	0.174	0.117
-195.260	1.061	0.082	0.058
-194.246	-117.865	0.059	0.010
-193.231	255.891	0.007	0.012
-192.217	-105.167	0.090	0.020
-191.202	800.000	0.143	0.390
-190.187	-23.874	-0.159	-0.093
-189.173	800.000	-0.047	-0.176
-188.158	562.954	0.160	-0.381
-187.144	309.233	0.166	0.305
-186.129	800.000	0.075	0.265
-185.114	800.000	0.027	0.110
-184.100	-3.335	0.175	-0.119
-183.085	-132.592	0.363	0.046
-182.071	313.219	0.129	-0.238
-181.056	677.416	0.059	0.150
-180.042	-56.796	-0.203	-0.088
-179.027	-39.129	-0.034	-0.018
-178.012	64.483	0.166	0.164
-176.998	-200.000	0.004	0.454
-175.983	8.425	-0.250	-0.184
-174.969	88.029	0.012	-0.013
-173.954	102.557	0.201	0.230
-172.939	331.814	0.149	0.282
-171.925	-200.000	0.017	0.081
-170.910	-32.885	-0.059	0.032
-169.896	800.000	0.123	-0.401
-168.881	86.113	0.113	0.122
-167.866	239.230	0.140	-0.228
-166.852	800.000	0.125	0.361
-165.837	-19.442	0.110	-0.067
-164.823	-59.037	0.250	0.106
-163.808	-173.474	0.159	0.005
-162.793	-7.288	-0.116	-0.077
-161.779	-12.908	-0.282	0.180
-160.764	-200.000	-0.002	-0.219
-159.750	-103.529	-0.142	0.033
-158.735	-200.000	0.007	0.061
-157.720	10.095	-0.200	-0.149
-156.706	-32.802	-0.141	-0.077
-155.691	786.440	0.060	0.161
-154.677	-200.000	0.007	0.147
-153.662	-200.000	0.031	0.159
-152.647	-118.984	-0.123	0.021
-151.633	-200.000	-0.009	0.218
-150.618	13.559	0.135	0.103
-149.604	-200.000	-0.021	0.200
-148.589	26.480	-0.178	0.146
-147.574	155.616	-0.158	0.213
-146.560	84.221	-0.097	-0.104
-145.545	265.961	0.088	0.150
-144.531	-114.547	0.231	0.043
-143.516	-115.375	0.232	-0.043
-142.502	17.063	0.107	-0.083
-141.487	-170.521	0.310	-0.011
-140.472	-23.874	0.031	0.018
-139.458	-200.000	0.020	-0.156
-138.443	-122.425	-0.254	-0.040
-137.429	800.000	-0.073	-0.245
-136.414	-134.202	-0.161	-0.019
-135.399	800.000	-0.086	-0.247
-134.385	-100.903	0.414	0.100
-133.370	-75.302	0.042	-0.015
-132.356	124.764	-0.086	0.106
-131.341	-15.021	0.110	0.069
-130.326	-120.817	0.071	-0.012
-129.312	-188.559	-0.224	-0.003
-128.297	-157.334	0.231	0.014
-127.283	-200.000	-0.028	0.178
-126.268	-33.112	0.168	0.091
-125.253	-122.376	-0.082	-0.013
-124.239	338.522	0.213	0.405
-123.224	123.033	0.027	-0.033
-122.210	258.209	-0.209	-0.353
-121.195	113.127	0.290	0.344
-120.180	-43.124	-0.168	0.083
