DTS Sentinel unit serial number:	SN413079Multiplexer serial number:	ORYXHardware model number:	OX4-SRSoftware version number:	ORYX F/W v4.00 Oryx Data Collector v3.7.2.0data status	okinstallation	princeton_trtdifferential loss correction	single-endedforward channel	channel 1reverse channel	N/Adate	2019/09/12time	11:48:11forward acquisition time	60.00reverse acquisition time	0.00gamma	496.2192k internal	0.2293k external	0.2293temperature offset calibration	1.0041default loss term (dB/km)	0.3790temperature slope calibration	1.0000multiplexer offset coefficient	1.0000multiplexer slope coefficient	1.0000fibre end	0.00T internal ref (°C)	39.92T ext. ref 1 (°C)	1.99T ext. ref 2 (°C)	37.88length (m)	temperature (°C)	Stokes	anti-Stokes-747.200	-200.000	0.005	0.119
-746.185	-105.011	0.179	0.042
-745.171	-200.000	0.012	-0.188
-744.156	-41.574	-0.332	0.174
-743.142	479.857	-0.074	-0.172
-742.127	66.850	-0.209	0.218
-741.112	-85.600	-0.107	-0.034
-740.098	94.292	0.423	0.491
-739.083	-200.000	-0.010	0.091
-738.069	-200.000	0.083	0.460
-737.054	-11.423	-0.291	-0.196
-736.039	-92.179	-0.199	0.057
-735.025	800.000	0.079	-0.267
-734.010	411.610	-0.059	-0.128
-732.996	59.798	-0.272	0.275
-731.981	114.844	-0.215	0.269
-730.966	-200.000	-0.000	0.101
-729.952	91.869	-0.119	0.137
-728.937	-200.000	-0.038	-0.183
-727.923	-27.766	0.245	-0.146
-726.908	-103.736	-0.365	0.087
-725.894	-34.790	0.090	0.050
-724.879	773.287	0.039	-0.109
-723.864	800.000	-0.032	-0.144
-722.850	-200.000	0.038	-0.176
-721.835	-47.457	-0.126	0.063
-720.821	800.000	-0.056	0.245
-719.806	-47.891	-0.047	0.023
-718.791	-200.000	0.023	-0.383
-717.777	450.584	0.076	0.171
-716.762	-200.000	0.008	-0.123
-715.748	-200.000	-0.020	-0.196
-714.733	200.553	-0.142	0.222
-713.718	-95.196	-0.258	-0.071
-712.704	-105.520	0.418	0.097
-711.689	-9.491	-0.102	-0.069
-710.675	-80.648	0.062	0.021
-709.660	182.774	-0.133	-0.200
-708.645	-142.481	0.137	0.014
-707.631	52.430	0.173	-0.169
-706.616	183.963	-0.117	-0.176
-705.602	20.890	0.354	-0.293
-704.587	238.969	-0.177	0.300
-703.572	60.930	0.208	-0.211
-702.558	319.930	-0.066	-0.127
-701.543	48.859	0.266	0.255
-700.529	-200.000	0.003	-0.192
-699.514	-200.000	0.007	-0.336
-698.499	17.881	-0.178	-0.145
-697.485	351.019	-0.223	-0.450
-696.470	202.565	-0.183	-0.288
-695.456	-200.000	-0.013	-0.452
-694.441	800.000	-0.030	-0.099
-693.426	445.856	-0.121	-0.272
-692.412	322.975	0.056	-0.109
-691.397	-200.000	-0.030	0.160
-690.383	-200.000	0.055	0.277
-689.368	439.295	-0.089	-0.197
-688.354	-114.843	0.160	0.031
-687.339	47.502	-0.051	0.049
-686.324	61.438	-0.071	0.072
-685.310	425.559	-0.096	-0.212
-684.295	89.644	0.086	-0.098
-683.281	528.496	0.202	-0.486
-682.266	-200.000	-0.013	-0.079
-681.251	-129.852	-0.346	-0.048
-680.237	-200.000	0.036	0.252
-679.222	7.172	0.213	0.162
-678.208	-64.584	0.471	0.195
-677.193	-92.600	-0.176	-0.050
-676.178	-109.108	-0.255	0.055
-675.164	-63.819	-0.226	0.095
-674.149	-34.850	0.091	-0.051
-673.135	-200.000	0.033	0.190
-672.120	800.000	-0.087	0.357
-671.105	248.302	-0.143	0.247
-670.091	-34.401	-0.123	-0.069
-669.076	-71.557	0.326	0.124
-668.062	-160.703	-0.228	-0.012
-667.047	-28.947	-0.147	-0.086
-666.032	195.637	0.012	-0.019
-665.018	477.678	-0.075	0.172
-664.003	-22.390	0.185	0.114
-662.989	39.319	0.216	0.197
-661.974	800.000	0.055	-0.184
-660.959	399.205	0.013	-0.027
-659.945	18.551	-0.169	-0.138
-658.930	-41.089	-0.278	-0.146
-657.916	8.973	0.242	-0.186
-656.901	499.381	0.162	0.380
-655.886	-200.000	-0.019	-0.220
-654.872	-51.304	-0.260	0.124
-653.857	153.146	0.220	0.307
-652.843	19.183	0.066	0.054
-651.828	-51.664	-0.240	0.114
-650.814	169.519	0.153	0.223
-649.799	-69.901	0.276	0.107
-648.784	800.000	0.009	-0.037
-647.770	-150.085	0.122	-0.010
-646.755	119.029	0.028	0.036
-645.741	223.419	-0.171	-0.281
-644.726	800.000	-0.047	0.167
-643.711	584.570	0.073	0.183
-642.697	91.422	0.264	-0.303
-641.682	439.960	0.070	-0.156
-640.668	-50.880	0.039	0.019
-639.653	-200.000	0.002	-0.053
-638.638	-200.000	-0.001	0.024
-637.624	249.417	-0.149	-0.257
-636.609	118.953	-0.096	-0.121
-635.595	457.578	0.064	0.146
-634.580	234.951	-0.112	-0.189
-633.565	-182.881	-0.098	-0.002
-632.551	-194.575	-0.246	0.002
-631.536	-200.000	0.031	-0.149
-630.522	-52.945	-0.200	0.094
-629.507	-43.148	0.137	0.071
-628.492	800.000	-0.018	0.072
-627.478	-122.980	0.259	-0.042
-626.463	-37.965	-0.262	0.142
-625.449	221.711	-0.023	0.038
-624.434	146.441	0.083	-0.114
-623.419	-102.383	0.216	0.053
-622.405	-12.404	-0.201	-0.134
-621.390	190.158	0.193	0.294
-620.376	800.000	-0.024	-0.089
-619.361	-92.369	-0.340	-0.098
-618.346	-200.000	-0.003	0.044
-617.332	800.000	0.063	0.188
-616.317	69.806	-0.115	0.121
-615.303	705.756	0.046	0.124
-614.288	77.533	0.058	-0.063
-613.273	-200.000	-0.026	0.200
-612.259	34.979	0.160	-0.142
-611.244	265.819	0.192	-0.341
-610.230	264.600	0.079	0.139
-609.215	43.095	0.326	0.303
-608.201	800.000	-0.059	-0.230
-607.186	-134.575	-0.082	0.010
-606.171	-200.000	-0.021	0.157
-605.157	-84.295	-0.046	-0.015
-604.142	-135.259	0.172	0.021
-603.128	800.000	-0.103	0.297
-602.113	194.298	0.165	-0.255
-601.098	800.000	0.040	-0.152
-600.084	-200.000	0.010	0.208
-599.069	460.066	0.037	0.083
-598.055	-48.231	-0.355	0.174
-597.040	112.950	0.134	0.166
-596.025	-131.367	-0.271	0.036
-595.011	-200.000	0.041	-0.327
-593.996	-79.964	0.279	0.095
-592.982	-21.333	-0.195	-0.121
-591.967	-51.543	0.108	-0.051
-590.952	-63.155	-0.211	0.088
-589.938	-200.000	0.044	-0.300
-588.923	72.994	0.050	-0.053
-587.909	-151.028	0.353	0.027
-586.894	79.072	0.038	0.041
-585.879	108.548	0.057	0.069
-584.865	-200.000	-0.055	-0.347
-583.850	2.843	-0.099	-0.073
-582.836	800.000	0.041	-0.155
-581.821	-194.970	0.349	0.003
-580.806	14.750	-0.086	0.068
-579.792	71.454	0.115	-0.121
-578.777	780.123	-0.128	0.357
-577.763	46.661	-0.122	-0.115
-576.748	800.000	-0.020	-0.088
-575.733	198.720	0.115	-0.179
-574.719	-78.339	-0.118	-0.041
-573.704	145.815	-0.038	-0.051
-572.690	-139.155	0.111	0.012
-571.675	147.190	0.133	0.181
-570.661	369.381	-0.156	0.321
-569.646	2.249	0.289	-0.212
-568.631	19.582	-0.120	0.098
-567.617	-200.000	-0.025	0.213
-566.602	-70.695	-0.219	0.084
-565.588	725.031	0.032	-0.086
-564.573	284.597	0.128	0.233
-563.558	23.668	0.173	-0.145
-562.544	800.000	0.149	-0.446
-561.529	658.697	-0.146	0.382
-560.515	76.508	-0.142	-0.153
-559.500	-200.000	-0.015	-0.140
-558.485	800.000	-0.055	-0.176
-557.471	188.872	-0.061	0.093
-556.456	800.000	-0.108	-0.375
-555.442	-200.000	0.000	-0.253
-554.427	-200.000	-0.029	0.354
-553.412	130.676	-0.147	-0.191
-552.398	-59.071	-0.078	0.034
-551.383	-182.335	-0.255	0.005
-550.369	-88.777	0.081	-0.024
-549.354	-79.918	0.077	0.026
-548.339	121.427	0.237	-0.300
-547.325	46.545	0.267	-0.251
-546.310	78.456	-0.222	0.240
-545.296	103.185	-0.133	-0.159
-544.281	199.895	-0.295	-0.460
-543.266	61.915	0.179	-0.181
-542.252	-200.000	0.038	0.400
-541.237	19.166	-0.268	0.219
-540.223	157.842	0.139	0.196
-539.208	528.825	-0.041	-0.098
-538.193	-62.948	0.070	0.029
-537.179	35.728	-0.108	0.096
-536.164	-200.000	0.083	-0.390
-535.150	495.184	0.068	0.157
-534.135	214.656	-0.106	0.170
-533.121	96.611	0.236	0.274
-532.106	612.886	0.107	0.272
-531.091	144.822	0.094	-0.127
-530.077	326.020	-0.174	-0.338
-529.062	-200.000	-0.078	-0.381
-528.048	332.805	-0.101	0.199
-527.033	-200.000	0.101	0.529
-526.018	-39.822	-0.179	0.095
-525.004	-200.000	-0.039	0.241
-523.989	125.898	0.078	-0.100
-522.975	-0.079	-0.141	-0.102
-521.960	800.000	0.063	-0.206
-520.945	177.945	-0.119	-0.176
-519.931	61.754	-0.277	0.280
-518.916	800.000	0.098	0.332
-517.902	393.568	0.050	0.106
-516.887	800.000	0.033	0.124
-515.872	-109.854	0.442	0.094
-514.858	100.112	-0.088	-0.104
-513.843	-121.050	0.298	-0.051
-512.829	177.398	0.268	-0.395
-511.814	-1.107	0.201	-0.144
-510.799	-200.000	0.011	-0.177
-509.785	-84.591	0.269	0.086
-508.770	-200.000	-0.039	-0.227
-507.756	-200.000	-0.035	-0.177
-506.741	-92.690	-0.309	0.088
-505.726	32.421	0.106	0.093
-504.712	198.348	0.109	-0.168
-503.697	44.119	0.118	-0.110
-502.683	45.447	-0.116	-0.108
-501.668	8.063	-0.162	0.123
-500.653	502.660	0.064	0.151
-499.639	800.000	-0.048	-0.172
-498.624	157.581	-0.065	-0.091
-497.610	54.181	0.291	0.284
-496.595	-127.685	-0.167	0.024
-495.581	-200.000	0.053	0.246
-494.566	31.912	0.194	0.169
-493.551	-37.212	0.406	0.220
-492.537	-133.705	0.144	0.018
-491.522	-66.321	0.290	0.117
-490.508	142.274	-0.083	0.112
-489.493	501.323	-0.023	-0.054
-488.478	-69.434	-0.213	0.083
-487.464	-22.538	-0.055	-0.034
-486.449	245.374	0.201	-0.342
-485.435	-132.523	0.188	0.024
-484.420	98.781	-0.221	0.259
-483.405	23.876	-0.168	-0.141
-482.391	123.566	-0.253	-0.321
-481.376	60.786	-0.466	0.468
-480.362	342.372	0.146	0.288
-479.347	-0.195	-0.326	-0.235
-478.332	353.497	-0.088	-0.177
-477.318	295.741	-0.109	-0.202
-476.303	-162.791	0.245	-0.012
-475.289	82.037	0.327	0.359
-474.274	-200.000	-0.016	0.236
-473.259	-152.556	0.139	0.010
-472.245	11.561	0.148	0.115
-471.230	-200.000	0.035	0.282
-470.216	85.521	-0.209	-0.233
-469.201	20.347	0.221	-0.181
-468.186	85.706	-0.071	-0.079
-467.172	-200.000	-0.018	0.168
-466.157	390.338	0.037	0.077
-465.143	-50.316	-0.244	-0.117
-464.128	800.000	-0.140	0.479
-463.113	705.719	-0.080	0.214
-462.099	-156.064	-0.228	0.015
-461.084	-198.751	0.188	-0.001
-460.070	20.302	-0.191	-0.156
-459.055	72.847	-0.056	0.059
-458.040	651.624	0.128	-0.332
-457.026	-74.781	0.273	0.099
-456.011	-165.591	0.275	0.012
-454.997	-78.159	0.389	-0.135
-453.982	-104.468	0.196	-0.046
-452.968	-200.000	-0.031	-0.186
-451.953	733.717	-0.102	-0.275
-450.938	57.212	-0.096	-0.095
-449.924	-200.000	0.035	-0.467
-448.909	-200.000	0.055	-0.400
-447.895	-200.000	-0.036	-0.189
-446.880	800.000	0.054	0.184
-445.865	-90.082	-0.142	-0.042
-444.851	800.000	-0.058	-0.207
-443.836	-42.891	0.151	-0.078
-442.822	-200.000	-0.041	-0.331
-441.807	286.811	-0.088	0.160
-440.792	-174.497	-0.184	0.005
-439.778	503.814	-0.027	-0.062
-438.763	252.489	0.088	-0.151
-437.749	179.975	0.293	0.434
-436.734	300.566	0.075	-0.140
-435.719	225.826	0.123	-0.202
-434.705	-12.101	-0.232	-0.154
-433.690	-200.000	-0.004	0.140
-432.676	-200.000	0.008	0.098
-431.661	17.868	0.381	0.306
-430.646	292.655	0.028	-0.051
-429.632	114.299	-0.064	-0.079
-428.617	134.528	-0.069	-0.090
-427.603	-137.280	-0.068	0.008
-426.588	106.270	-0.130	0.155
-425.573	257.926	0.166	-0.288
-424.559	-39.533	-0.396	-0.209
-423.544	-1.079	-0.227	-0.162
-422.530	-155.613	-0.240	-0.016
-421.515	-75.018	-0.297	-0.107
-420.500	-20.756	0.303	-0.188
-419.486	-52.605	0.127	0.059
-418.471	44.770	0.072	-0.067
-417.457	182.897	0.114	0.169
-416.442	800.000	0.060	0.193
-415.428	-93.795	-0.047	0.013
-414.413	6.802	0.034	-0.026
-413.398	208.217	0.120	0.190
-412.384	-8.064	0.132	0.090
-411.369	-200.000	-0.052	-0.287
-410.355	-40.934	-0.250	-0.130
-409.340	-47.509	0.337	-0.165
-408.325	474.700	-0.093	0.212
-407.311	-200.000	-0.019	0.517
-406.296	800.000	0.128	0.419
-405.282	-49.610	0.187	0.090
-404.267	31.419	-0.134	0.116
-403.252	-96.675	-0.330	-0.088
-402.238	103.764	-0.307	-0.364
-401.223	-200.000	0.016	-0.103
-400.209	-200.000	-0.004	-0.291
-399.194	15.700	-0.054	-0.043
-398.179	15.093	-0.320	-0.253
-397.165	-200.000	-0.199	0.000
-396.150	-200.000	0.078	-0.431
-395.136	-82.395	-0.073	0.024
-394.121	186.730	0.189	-0.284
-393.106	-7.960	-0.384	0.261
-392.092	-22.155	0.352	-0.215
-391.077	72.609	-0.168	0.177
-390.063	160.467	-0.112	-0.157
-389.048	-200.000	0.006	-0.037
-388.033	65.180	0.052	-0.053
-387.019	201.535	0.050	-0.078
-386.004	-200.000	0.015	-0.069
-384.990	143.910	-0.138	0.185
-383.975	800.000	0.095	0.270
-382.960	537.081	0.183	-0.439
-381.946	800.000	-0.111	-0.392
-380.931	-38.872	0.195	0.104
-379.917	26.708	-0.094	0.080
-378.902	188.959	-0.209	0.315
-377.888	-43.983	0.308	0.156
-376.873	800.000	0.044	0.136
-375.858	-6.150	-0.356	0.245
-374.844	-37.595	0.062	-0.033
-373.829	-42.776	0.091	0.047
-372.815	-74.820	0.339	-0.123
-371.800	-2.024	0.060	-0.043
-370.785	-200.000	0.005	0.082
-369.771	10.794	-0.217	-0.167
-368.756	97.553	0.308	-0.357
-367.742	-4.533	0.230	-0.160
-366.727	-200.000	-0.001	-0.192
-365.712	-62.609	-0.190	0.079
-364.698	-60.792	0.005	0.002
-363.683	800.000	0.175	0.524
-362.669	730.226	0.070	-0.188
-361.654	-113.935	0.190	0.037
-360.639	-200.000	-0.020	0.276
-359.625	800.000	0.095	0.274
-358.610	110.135	-0.216	0.261
-357.596	-131.848	0.342	0.045
-356.581	170.724	-0.195	0.281
-355.566	-200.000	-0.029	0.281
-354.552	-61.637	-0.246	0.104
-353.537	-175.954	0.416	-0.011
-352.523	8.786	-0.069	-0.053
-351.508	286.450	-0.084	-0.152
-350.493	-87.129	0.103	-0.032
-349.479	-138.692	0.232	0.026
-348.464	259.037	-0.174	-0.302
-347.450	-200.000	0.046	-0.296
-346.435	-71.129	0.194	0.074
-345.420	800.000	-0.088	-0.277
-344.406	800.000	0.050	-0.188
-343.391	-200.000	0.009	0.241
-342.377	378.184	-0.066	-0.136
-341.362	-200.000	0.033	0.158
-340.348	49.373	-0.144	-0.137
-339.333	-18.859	-0.127	-0.079
-338.318	123.067	-0.100	0.126
-337.304	800.000	-0.105	-0.321
-336.289	43.915	0.257	-0.237
-335.275	-130.055	-0.427	0.059
-334.260	28.620	-0.366	-0.312
-333.245	-158.094	0.123	0.007
-332.231	89.035	-0.201	-0.226
-331.216	-33.804	-0.250	-0.139
-330.202	159.011	0.057	0.079
-329.187	442.307	0.099	-0.217
-328.172	121.697	0.102	-0.128
-327.158	43.414	0.141	-0.129
-326.143	-200.000	-0.051	-0.252
-325.129	205.108	-0.139	0.217
-324.114	-57.330	0.094	0.042
-323.099	35.792	0.173	0.153
-322.085	800.000	-0.084	0.237
-321.070	-114.408	-0.336	0.065
-320.056	-200.000	-0.031	0.308
-319.041	61.076	0.173	0.173
-318.026	-200.000	-0.027	-0.125
-317.012	-200.000	0.008	0.268
-315.997	83.223	-0.191	0.209
-314.983	-1.223	0.068	-0.049
-313.968	-47.162	-0.180	0.089
-312.953	-200.000	-0.015	-0.092
-311.939	18.991	0.229	-0.185
-310.924	306.670	0.174	-0.326
-309.910	35.049	0.177	-0.156
-308.895	-6.802	-0.385	-0.263
-307.880	185.031	-0.103	0.154
-306.866	-62.529	-0.118	-0.049
-305.851	285.989	-0.106	0.192
-304.837	-46.113	0.156	-0.077
-303.822	-43.846	0.156	0.079
-302.807	800.000	-0.025	-0.091
-301.793	1.569	-0.037	-0.027
-300.778	171.166	0.069	0.100
-299.764	258.344	0.313	0.542
-298.749	-0.591	-0.036	-0.026
-297.735	188.311	0.127	0.190
-296.720	187.811	-0.158	-0.238
-295.705	-23.472	-0.051	-0.031
-294.691	225.012	0.103	-0.168
-293.676	-200.000	-0.017	-0.407
-292.662	-19.156	0.034	0.021
-291.647	-24.617	0.150	0.090
-290.632	-50.236	-0.200	-0.095
-289.618	117.289	-0.058	0.071
-288.603	-200.000	-0.009	-0.080
-287.589	800.000	-0.138	-0.411
-286.574	-200.000	-0.003	-0.176
-285.559	-113.402	-0.457	-0.090
-284.545	36.217	0.188	-0.166
-283.530	26.169	0.392	0.329
-282.516	-200.000	-0.033	-0.237
-281.501	166.763	-0.088	-0.125
-280.486	-200.000	-0.037	0.200
-279.472	220.565	-0.080	0.129
-278.457	-200.000	0.017	-0.295
-277.443	-104.769	-0.261	-0.060
-276.428	74.598	-0.183	-0.193
-275.413	14.536	0.335	0.262
-274.399	-152.884	-0.228	-0.016
-273.384	263.365	0.108	-0.188
-272.370	-141.908	-0.364	0.036
-271.355	800.000	-0.071	-0.212
-270.340	-74.508	-0.279	-0.101
-269.326	-200.000	0.039	0.427
-268.311	-200.000	0.043	0.242
-267.297	201.362	0.050	0.077
-266.282	134.726	0.052	0.067
-265.267	249.258	0.166	-0.283
-264.253	429.734	-0.068	0.147
-263.238	-21.267	0.139	0.085
-262.224	137.125	0.126	0.165
-261.209	241.046	0.133	-0.223
-260.195	800.000	0.040	0.167
-259.180	-56.524	-0.217	0.096
-258.165	-200.000	0.011	0.053
-257.151	-137.165	-0.161	0.018
-256.136	265.915	-0.035	-0.061
-255.122	-23.843	0.255	-0.153
-254.107	-200.000	0.032	0.155
-253.092	-105.063	-0.168	-0.039
-252.078	-200.000	0.037	0.242
-251.063	-200.000	-0.007	0.062
-250.049	169.386	-0.010	0.015
-249.034	800.000	-0.074	0.228
-248.019	-200.000	0.013	-0.132
-247.005	479.199	0.074	-0.168
-245.990	552.301	-0.116	0.281
-244.976	249.637	-0.071	0.121
-243.961	-200.000	0.006	-0.111
-242.946	800.000	0.077	-0.334
-241.932	-200.000	0.010	-0.165
-240.917	-49.795	-0.220	-0.105
-239.903	157.852	0.044	-0.061
-238.888	-114.450	0.217	0.042
-237.873	28.827	-0.228	-0.193
-236.859	-18.478	-0.260	0.163
-235.844	59.364	-0.097	0.096
-234.830	-76.824	-0.308	0.108
-233.815	56.214	0.150	0.146
-232.800	-200.000	0.003	-0.365
-231.786	-129.894	-0.178	0.024
-230.771	-200.000	0.098	0.640
-229.757	-7.849	-0.162	0.110
-228.742	60.386	0.293	-0.290
-227.727	-119.058	-0.121	-0.021
-226.713	-200.000	0.041	0.212
-225.698	-74.316	0.075	0.027
-224.684	800.000	0.114	0.367
-223.669	122.871	0.108	0.136
-222.655	-200.000	-0.035	-0.209
-221.640	-20.835	0.395	0.243
-220.625	47.800	0.221	0.206
-219.611	264.307	-0.061	0.107
-218.596	-200.000	-0.043	-0.353
-217.582	150.306	0.195	-0.266
-216.567	-34.604	-0.387	-0.212
-215.552	-105.992	0.155	0.035
-214.538	119.098	0.282	-0.349
-213.523	-122.091	0.136	-0.022
-212.509	-163.017	0.206	0.010
-211.494	800.000	0.082	-0.228
-210.479	-83.009	0.085	-0.028
-209.465	-120.901	-0.196	0.033
-208.450	800.000	-0.095	0.267
-207.436	-115.187	0.088	-0.017
-206.421	-200.000	0.026	0.137
-205.406	800.000	0.084	0.332
-204.392	800.000	-0.046	0.173
-203.377	800.000	-0.027	-0.076
-202.363	560.370	0.179	0.433
-201.348	-48.943	-0.254	0.122
-200.333	36.950	-0.062	0.055
-199.319	-100.205	-0.224	-0.056
-198.304	-73.517	-0.133	0.049
-197.290	-200.000	-0.013	0.241
-196.275	-50.834	-0.229	0.108
-195.260	-96.267	0.242	-0.064
-194.246	-200.000	0.041	-0.309
-193.231	22.312	-0.123	0.101
-192.217	800.000	-0.096	0.308
-191.202	201.670	0.101	0.156
-190.187	-50.614	0.190	0.089
-189.173	28.257	-0.174	0.147
-188.158	-200.000	0.066	0.299
-187.144	-162.764	-0.291	-0.014
-186.129	207.135	-0.096	-0.149
-185.114	45.613	-0.202	0.187
-184.100	163.804	-0.096	0.135
-183.085	114.320	0.217	-0.264
-182.071	-139.093	0.374	-0.040
-181.056	98.016	-0.226	0.261
-180.042	-76.009	-0.266	0.094
-179.027	-62.000	-0.077	-0.032
-178.012	-200.000	0.087	-0.000
-176.998	633.405	-0.042	0.106
-175.983	-39.055	-0.271	-0.143
-174.969	-63.739	0.110	0.045
-173.954	97.814	-0.227	0.261
-172.939	39.393	-0.128	-0.114
-171.925	-71.508	0.234	0.088
-170.910	-148.685	-0.318	-0.026
-169.896	-14.920	0.153	0.098
-168.881	-34.073	0.057	0.031
-167.866	77.043	-0.091	0.097
-166.852	-200.000	0.010	0.154
-165.837	619.220	-0.079	0.198
-164.823	-30.919	0.071	0.040
-163.808	14.024	0.160	-0.125
-162.793	9.589	-0.130	0.098
-161.779	-200.000	-0.006	0.157
-160.764	-140.981	-0.110	0.011
-159.750	89.886	0.210	0.235
-158.735	-0.787	0.146	0.103
-157.720	146.302	0.177	-0.238
-156.706	44.659	0.099	-0.091
-155.691	-200.000	-0.007	-0.246
-154.677	-97.688	0.311	0.081
-153.662	-100.820	-0.153	0.038
-152.647	-200.000	0.000	0.276
-151.633	84.416	-0.160	0.175
-150.618	233.155	-0.177	-0.292
-149.604	369.690	0.186	-0.376
-148.589	800.000	0.024	-0.104
-147.574	-4.085	-0.096	0.066
-146.560	-158.630	0.178	0.010
-145.545	-119.430	-0.526	0.091
-144.531	766.988	0.058	0.158
-143.516	-106.301	-0.187	-0.042
-142.502	139.902	0.116	-0.153
-141.487	-200.000	0.005	0.236
-140.472	174.857	-0.075	0.108
-139.458	13.941	-0.167	-0.130
-138.443	42.712	-0.174	0.158
-137.429	-75.364	0.226	0.080
-136.414	15.700	0.186	0.146
-135.399	-200.000	0.013	-0.078
-134.385	-143.878	-0.164	0.015
-133.370	-200.000	-0.020	-0.156
-132.356	-121.564	0.054	0.009
-131.341	-46.973	0.437	-0.213
-130.326	-145.081	0.384	0.035
-129.312	525.384	-0.086	-0.202
-128.297	-48.701	0.107	0.051
-127.283	-122.055	0.281	0.046
-126.268	-129.933	0.187	0.026
-125.253	-27.220	0.158	-0.092
-124.239	-1.974	0.046	0.033
-123.224	-200.000	-0.048	-0.224
-122.210	-120.858	-0.145	-0.024
-121.195	46.022	-0.233	-0.216
-120.180	-200.000	-0.039	-0.250
