DTS Sentinel unit serial number:	SN413079Multiplexer serial number:	ORYXHardware model number:	OX4-SRSoftware version number:	ORYX F/W v4.00 Oryx Data Collector v3.7.2.0data status	okinstallation	princeton_trtdifferential loss correction	single-endedforward channel	channel 1reverse channel	N/Adate	2019/09/14time	09:46:36forward acquisition time	60.00reverse acquisition time	0.00gamma	496.2192k internal	0.2317k external	0.2317temperature offset calibration	1.0072default loss term (dB/km)	0.3790temperature slope calibration	1.0000multiplexer offset coefficient	1.0000multiplexer slope coefficient	1.0000fibre end	0.00T internal ref (°C)	32.28T ext. ref 1 (°C)	3.92T ext. ref 2 (°C)	30.42length (m)	temperature (°C)	Stokes	anti-Stokes-747.200	800.000	0.044	-0.141
-746.185	205.250	0.092	0.145
-745.171	412.241	0.172	0.369
-744.156	183.717	-0.112	0.168
-743.142	38.049	0.242	0.218
-742.127	14.076	0.203	0.160
-741.112	800.000	-0.053	0.206
-740.098	-85.615	-0.284	0.089
-739.083	-11.610	-0.156	-0.104
-738.069	-151.045	0.114	0.009
-737.054	-115.403	0.252	0.048
-736.039	-7.232	-0.260	-0.178
-735.025	156.821	-0.231	0.323
-734.010	130.796	0.158	0.205
-732.996	-200.000	0.017	-0.110
-731.981	800.000	-0.022	0.076
-730.966	528.668	0.059	0.141
-729.952	-200.000	-0.008	0.085
-728.937	-151.129	0.444	0.034
-727.923	81.989	-0.210	-0.230
-726.908	30.918	0.135	0.117
-725.894	55.238	-0.133	0.130
-724.879	-174.250	0.161	-0.005
-723.864	-118.621	-0.255	-0.046
-722.850	30.006	-0.120	0.103
-721.835	-200.000	0.019	0.243
-720.821	60.937	-0.053	0.054
-719.806	251.828	-0.098	-0.168
-718.791	-48.829	-0.258	-0.125
-717.777	-200.000	-0.028	-0.428
-716.762	-200.000	0.016	-0.119
-715.748	-153.663	-0.118	-0.008
-714.733	85.724	-0.036	-0.040
-713.718	30.599	0.170	-0.147
-712.704	-200.000	0.011	0.176
-711.689	112.437	0.188	-0.230
-710.675	123.689	-0.222	0.281
-709.660	800.000	0.089	-0.294
-708.645	-165.211	0.297	0.013
-707.631	-126.198	0.399	-0.060
-706.616	305.452	-0.090	0.170
-705.602	85.864	-0.231	-0.257
-704.587	166.852	0.070	-0.100
-703.572	-200.000	-0.062	-0.352
-702.558	515.311	0.085	-0.201
-701.543	-30.668	-0.351	0.201
-700.529	-107.478	0.225	0.050
-699.514	92.794	0.191	0.218
-698.499	-68.565	-0.099	-0.039
-697.485	-125.940	-0.240	-0.037
-696.470	800.000	-0.090	0.348
-695.456	-99.675	-0.144	-0.036
-694.441	139.077	-0.109	-0.145
-693.426	-128.076	0.288	0.042
-692.412	-112.622	-0.218	-0.044
-691.397	-200.000	-0.030	-0.259
-690.383	29.618	0.220	-0.189
-689.368	800.000	0.043	0.140
-688.354	-200.000	0.063	-0.356
-687.339	205.950	-0.048	-0.075
-686.324	-91.548	-0.190	0.055
-685.310	-200.000	-0.003	-0.077
-684.295	746.377	0.082	0.222
-683.281	-140.081	-0.242	-0.026
-682.266	56.860	0.134	-0.132
-681.251	-200.000	0.019	-0.303
-680.237	-23.442	0.290	-0.176
-679.222	94.968	-0.167	0.192
-678.208	-178.615	-0.146	-0.003
-677.193	83.695	-0.066	-0.073
-676.178	-64.421	-0.466	-0.192
-675.164	-200.000	-0.021	0.144
-674.149	-130.952	0.139	-0.019
-673.135	100.785	-0.114	-0.134
-672.120	800.000	0.018	0.060
-671.105	162.812	-0.102	0.145
-670.091	287.536	-0.211	-0.386
-669.076	800.000	-0.040	0.144
-668.062	800.000	0.037	-0.146
-667.047	95.285	-0.024	0.028
-666.032	12.490	-0.142	0.111
-665.018	582.532	-0.079	0.195
-664.003	644.250	-0.113	-0.291
-662.989	-43.642	0.343	-0.175
-661.974	151.109	-0.164	0.225
-660.959	-161.855	-0.248	0.013
-659.945	-200.000	-0.001	-0.016
-658.930	146.267	-0.110	-0.149
-657.916	-200.000	0.108	-0.517
-656.901	423.299	0.059	-0.129
-655.886	-144.751	0.209	0.019
-654.872	-200.000	0.003	-0.290
-653.857	270.734	-0.163	-0.290
-652.843	56.662	0.287	-0.281
-651.828	324.297	-0.071	-0.136
-650.814	-142.958	0.173	0.017
-649.799	-44.081	-0.096	0.048
-648.784	-81.755	-0.156	0.051
-647.770	282.578	0.013	0.024
-646.755	-107.719	-0.043	0.009
-645.741	9.806	-0.312	0.239
-644.726	33.659	0.433	-0.380
-643.711	394.978	0.086	0.181
-642.697	119.174	-0.065	-0.081
-641.682	182.455	-0.155	-0.231
-640.668	96.449	0.124	0.143
-639.653	387.612	-0.122	-0.254
-638.638	14.474	-0.247	-0.194
-637.624	-200.000	-0.102	-0.466
-636.609	662.998	-0.029	-0.075
-635.595	117.974	0.078	0.097
-634.580	-200.000	-0.002	0.120
-633.565	97.570	0.019	-0.022
-632.551	59.652	-0.092	0.091
-631.536	-61.646	0.154	-0.065
-630.522	175.034	0.049	-0.071
-629.507	-200.000	-0.008	-0.326
-628.492	-139.440	0.357	0.039
-627.478	-200.000	-0.026	-0.151
-626.463	-16.129	0.179	-0.115
-625.449	-200.000	-0.016	0.078
-624.434	-82.896	-0.255	0.083
-623.419	800.000	-0.080	-0.341
-622.405	329.061	0.103	-0.200
-621.390	167.330	0.157	-0.224
-620.376	800.000	-0.024	-0.096
-619.361	-200.000	0.008	-0.273
-618.346	-200.000	-0.002	0.063
-617.332	-72.342	-0.190	-0.071
-616.317	10.737	0.141	-0.108
-615.303	800.000	0.086	-0.280
-614.288	-75.574	-0.233	-0.084
-613.273	754.256	0.110	-0.299
-612.259	9.496	0.469	-0.357
-611.244	-74.032	-0.170	0.062
-610.230	163.021	0.174	-0.246
-609.215	336.788	0.060	-0.117
-608.201	-200.000	0.015	0.279
-607.186	7.114	-0.242	-0.182
-606.171	-200.000	-0.021	-0.109
-605.157	-200.000	-0.031	0.160
-604.142	-134.175	-0.090	0.011
-603.128	800.000	-0.045	0.149
-602.113	-127.438	-0.158	-0.023
-601.098	-17.058	0.133	0.085
-600.084	128.592	-0.181	0.232
-599.069	-118.257	0.244	-0.044
-598.055	578.586	0.136	-0.336
-597.040	800.000	-0.066	-0.208
-596.025	20.095	-0.080	-0.065
-595.011	209.477	-0.152	0.239
-593.996	-78.778	0.318	0.109
-592.982	-8.670	-0.303	-0.204
-591.967	-7.094	-0.195	0.133
-590.952	800.000	-0.077	-0.336
-589.938	-156.195	-0.182	0.012
-588.923	-7.478	0.544	-0.371
-587.909	-87.109	-0.212	-0.065
-586.894	-160.350	-0.110	0.006
-585.879	-200.000	0.034	-0.179
-584.865	-200.000	0.027	-0.000
-583.850	425.636	-0.269	-0.583
-582.836	221.481	0.095	0.153
-581.821	-200.000	-0.032	0.166
-580.806	800.000	-0.015	-0.043
-579.792	444.776	0.043	0.095
-578.777	-57.305	0.161	-0.071
-577.763	407.547	0.145	0.308
-576.748	77.883	-0.181	-0.194
-575.733	-58.063	-0.233	0.102
-574.719	91.713	-0.059	-0.066
-573.704	-36.639	-0.327	-0.177
-572.690	46.704	-0.099	-0.093
-571.675	-200.000	-0.040	0.229
-570.661	242.198	-0.007	-0.012
-569.646	55.742	0.296	0.289
-568.631	-200.000	0.037	-0.324
-567.617	-111.114	-0.229	0.047
-566.602	-48.235	-0.207	-0.100
-565.588	-50.483	-0.152	-0.072
-564.573	37.057	-0.076	-0.067
-563.558	105.171	-0.056	-0.066
-562.544	-200.000	-0.033	0.311
-561.529	800.000	0.131	0.416
-560.515	-200.000	-0.001	-0.190
-559.500	576.549	-0.043	-0.105
-558.485	-126.116	-0.341	-0.051
-557.471	-200.000	-0.006	0.165
-556.456	180.769	0.240	0.355
-555.442	50.253	-0.080	0.076
-554.427	800.000	0.031	-0.102
-553.412	307.941	-0.123	-0.231
-552.398	800.000	-0.065	-0.231
-551.383	431.563	0.005	0.010
-550.369	427.564	0.146	-0.317
-549.354	38.164	0.140	-0.125
-548.339	-200.000	-0.011	-0.203
-547.325	800.000	-0.073	0.256
-546.310	-85.524	-0.219	0.068
-545.296	-92.442	-0.194	0.055
-544.281	800.000	-0.058	0.233
-543.266	592.733	0.037	0.092
-542.252	127.936	0.098	0.126
-541.237	-12.578	0.400	-0.262
-540.223	502.675	-0.080	-0.186
-539.208	-200.000	-0.008	-0.086
-538.193	365.671	0.153	0.309
-537.179	-133.064	0.269	0.034
-536.164	-33.101	0.047	0.026
-535.150	144.733	0.142	0.191
-534.135	-92.843	-0.001	0.000
-533.121	163.003	-0.124	-0.175
-532.106	47.882	-0.105	0.098
-531.091	-127.557	-0.049	0.007
-530.077	32.989	-0.212	0.184
-529.062	-200.000	-0.001	-0.158
-528.048	309.731	0.105	0.197
-527.033	26.710	0.066	-0.055
-526.018	350.839	0.141	0.281
-525.004	17.320	-0.117	-0.094
-523.989	-200.000	-0.018	-0.147
-522.975	-28.832	-0.189	-0.109
-521.960	-167.472	-0.230	0.009
-520.945	800.000	0.039	0.152
-519.931	-86.916	-0.387	-0.118
-518.916	213.385	-0.034	-0.053
-517.902	109.876	0.067	-0.081
-516.887	249.338	-0.127	0.217
-515.872	338.865	0.128	0.251
-514.858	24.262	-0.172	-0.142
-513.843	399.115	-0.127	-0.267
-512.829	800.000	-0.018	-0.069
-511.814	92.904	-0.103	0.116
-510.799	-200.000	0.105	0.000
-509.785	19.732	-0.398	0.322
-508.770	190.744	0.027	0.041
-507.756	-95.070	0.213	-0.058
-506.741	800.000	-0.016	0.066
-505.726	-200.000	0.004	-0.172
-504.712	800.000	-0.079	0.220
-503.697	47.681	-0.056	-0.052
-502.683	542.107	-0.174	0.416
-501.668	-81.083	0.226	-0.075
-500.653	319.521	0.065	0.123
-499.639	-200.000	0.003	0.274
-498.624	-113.653	-0.224	0.044
-497.610	367.872	-0.170	-0.344
-496.595	130.863	0.083	0.107
-495.581	-49.322	-0.318	-0.152
-494.566	286.505	0.039	0.070
-493.551	-131.697	0.164	0.022
-492.537	-7.797	0.268	0.182
-491.522	-200.000	0.024	0.213
-490.508	45.180	-0.015	-0.014
-489.493	-170.601	0.167	0.006
-488.478	-90.093	0.204	0.060
-487.464	-121.851	-0.112	-0.019
-486.449	27.382	-0.245	0.206
-485.435	-33.289	0.149	-0.083
-484.420	17.024	-0.103	0.082
-483.405	-113.684	0.315	0.062
-482.391	0.608	-0.147	-0.105
-481.376	-38.658	-0.230	0.122
-480.362	536.121	-0.041	0.097
-479.347	-144.023	0.202	0.019
-478.332	-98.155	-0.413	-0.107
-477.318	173.393	-0.085	-0.123
-476.303	-200.000	-0.046	0.236
-475.289	-200.000	0.015	0.176
-474.274	-51.494	0.322	0.151
-473.259	800.000	0.141	0.405
-472.245	-103.124	0.149	-0.035
-471.230	-19.992	-0.337	-0.208
-470.216	-200.000	-0.055	-0.540
-469.201	283.717	0.114	-0.206
-468.186	22.926	-0.132	0.109
-467.172	-85.503	0.379	-0.118
-466.157	-200.000	-0.006	-0.103
-465.143	-200.000	-0.018	-0.098
-464.128	48.014	0.311	-0.291
-463.113	-108.820	0.427	0.092
-462.099	68.402	-0.211	0.217
-461.084	-144.931	-0.329	-0.030
-460.070	-200.000	0.016	-0.122
-459.055	-200.000	-0.019	-0.178
-458.040	151.253	0.103	0.141
-457.026	-80.283	0.244	0.082
-456.011	-200.000	0.034	-0.179
-454.997	-77.046	-0.054	-0.019
-453.982	133.345	-0.276	0.357
-452.968	78.726	-0.194	0.207
-451.953	-38.967	0.083	0.044
-450.938	252.293	-0.104	0.177
-449.924	-122.692	-0.353	0.057
-448.909	-174.916	-0.186	0.005
-447.895	-200.000	-0.050	-0.224
-446.880	-90.008	0.319	0.093
-445.865	261.703	-0.123	-0.213
-444.851	800.000	0.012	0.044
-443.836	-87.840	0.112	0.034
-442.822	-125.829	0.249	0.038
-441.807	-108.748	-0.087	-0.019
-440.792	-159.938	0.100	-0.005
-439.778	-200.000	0.011	0.098
-438.763	315.573	0.065	0.122
-437.749	4.603	0.227	-0.167
-436.734	800.000	-0.065	0.241
-435.719	135.526	-0.108	0.141
-434.705	800.000	-0.090	-0.300
-433.690	735.804	0.083	0.224
-432.676	23.960	0.240	0.198
-431.661	-153.521	-0.113	0.008
-430.646	214.492	0.131	0.208
-429.632	194.630	-0.148	0.225
-428.617	-79.891	-0.215	-0.072
-427.603	-93.960	0.026	-0.007
-426.588	48.154	0.159	-0.149
-425.573	23.461	0.193	0.159
-424.559	99.276	-0.238	-0.275
-423.544	378.076	0.063	-0.130
-422.530	358.076	-0.139	0.277
-421.515	-86.198	0.186	0.057
-420.500	-98.963	0.229	-0.058
-419.486	185.869	-0.138	0.205
-418.471	800.000	-0.046	0.143
-417.457	-42.013	0.020	0.010
-416.442	89.887	-0.209	-0.233
-415.428	-71.896	-0.297	0.111
-414.413	220.722	-0.145	-0.233
-413.398	18.749	-0.344	-0.275
-412.384	265.598	-0.126	-0.219
-411.369	800.000	0.100	0.385
-410.355	61.892	0.107	0.107
-409.340	-200.000	-0.050	0.328
-408.325	264.532	-0.070	-0.122
-407.311	-200.000	-0.080	-0.357
-406.296	-31.664	0.016	-0.009
-405.282	-28.297	0.066	-0.038
-404.267	577.980	-0.028	0.067
-403.252	-200.000	-0.001	0.021
-402.238	57.286	-0.160	0.156
-401.223	268.537	0.074	0.129
-400.209	-63.299	0.178	-0.073
-399.194	53.711	-0.216	0.207
-398.179	771.685	0.086	0.235
-397.165	-25.508	0.109	0.064
-396.150	-26.113	-0.195	0.114
-395.136	-84.385	-0.003	0.001
-394.121	800.000	0.077	0.272
-393.106	-40.263	-0.167	0.087
-392.092	442.771	0.128	0.281
-391.077	141.389	0.018	-0.023
-390.063	-48.953	0.050	-0.024
-389.048	355.040	0.115	-0.228
-388.033	800.000	0.037	0.118
-387.019	-85.945	0.063	-0.019
-386.004	800.000	-0.015	-0.050
-384.990	484.778	-0.148	-0.337
-383.975	-99.777	0.125	-0.031
-382.960	-167.632	-0.159	0.006
-381.946	265.464	0.096	-0.167
-380.931	800.000	-0.042	0.177
-379.917	168.404	0.205	0.292
-378.902	-43.910	-0.029	-0.014
-377.888	128.397	0.189	-0.240
-376.873	56.040	-0.055	-0.053
-375.858	-4.718	0.135	-0.093
-374.844	-143.536	-0.043	-0.004
-373.829	-200.000	-0.035	0.234
-372.815	-22.810	-0.051	0.031
-371.800	-82.260	0.087	-0.028
-370.785	31.089	0.245	-0.210
-369.771	-66.573	0.224	-0.088
-368.756	-200.000	0.001	0.152
-367.742	4.670	-0.120	0.088
-366.727	265.791	0.186	-0.324
-365.712	-13.438	-0.264	0.171
-364.698	-141.756	0.098	-0.010
-363.683	-52.627	0.345	0.159
-362.669	-70.984	0.457	0.172
-361.654	198.508	0.020	-0.030
-360.639	-160.872	-0.213	0.011
-359.625	-57.036	-0.256	-0.113
-358.610	173.581	0.067	0.097
-357.596	-200.000	-0.004	0.188
-356.581	224.490	-0.083	-0.133
-355.566	800.000	-0.137	-0.393
-354.552	800.000	0.037	-0.134
-353.537	800.000	0.022	-0.081
-352.523	149.334	0.183	-0.248
-351.508	-22.704	-0.078	0.047
-350.493	-63.421	0.315	0.129
-349.479	800.000	0.048	-0.144
-348.464	442.992	0.139	0.304
-347.450	-63.818	0.144	0.059
-346.435	29.606	0.117	0.099
-345.420	-200.000	0.018	0.151
-344.406	-29.621	0.182	0.104
-343.391	-51.604	-0.539	-0.251
-342.377	52.840	-0.220	0.210
-341.362	-112.875	-0.179	0.035
-340.348	-20.798	0.300	0.183
-339.333	89.738	0.275	-0.306
-338.318	260.786	-0.275	-0.474
-337.304	-74.551	-0.273	-0.098
-336.289	-171.747	-0.356	-0.012
-335.275	344.476	0.153	0.300
-334.260	462.208	-0.086	0.192
-333.245	-200.000	-0.037	0.207
-332.231	-6.682	-0.199	-0.135
-331.216	28.840	-0.135	-0.114
-330.202	295.242	-0.052	0.096
-329.187	-200.000	0.002	0.267
-328.172	103.296	0.317	-0.370
-327.158	-180.548	0.280	-0.006
-326.143	-200.000	-0.000	-0.093
-325.129	-94.225	0.187	-0.051
-324.114	-200.000	-0.009	0.179
-323.099	-49.422	-0.180	0.085
-322.085	-106.713	0.222	0.049
-321.070	-84.024	-0.231	-0.073
-320.056	597.686	-0.135	0.334
-319.041	-21.888	0.162	0.098
-318.026	-187.735	-0.245	0.003
-317.012	-55.567	0.114	0.051
-315.997	135.540	0.062	-0.080
-314.983	-200.000	-0.009	0.058
-313.968	-200.000	-0.004	0.151
-312.953	-200.000	0.012	0.102
-311.939	-110.935	-0.301	0.062
-310.924	-34.897	-0.201	0.109
-309.910	35.806	0.289	-0.253
-308.895	81.656	-0.251	0.270
-307.880	-200.000	0.016	-0.172
-306.866	-41.757	0.220	0.112
-305.851	336.380	-0.080	-0.155
-304.837	800.000	-0.047	-0.135
-303.822	800.000	-0.117	0.325
-302.807	63.249	-0.166	0.165
-301.793	-167.307	-0.072	-0.003
-300.778	385.032	0.111	0.229
-299.764	800.000	-0.156	0.429
-298.749	-58.011	0.073	0.032
-297.735	-105.920	-0.084	0.019
-296.720	267.108	-0.152	0.264
-295.705	-77.787	0.076	-0.026
-294.691	-66.364	-0.297	0.117
-293.676	-128.693	0.078	0.011
-292.662	-163.812	0.079	-0.004
-291.647	800.000	0.093	-0.327
-290.632	-131.153	0.304	0.040
-289.618	-71.587	0.367	0.137
-288.603	-50.553	0.345	0.162
-287.589	130.440	0.055	-0.070
-286.574	19.435	-0.166	0.132
-285.559	380.464	-0.223	0.454
-284.545	45.253	0.086	0.079
-283.530	47.748	-0.202	0.187
-282.516	14.325	-0.159	-0.124
-281.501	-115.806	-0.240	0.045
-280.486	21.578	-0.266	0.215
-279.472	-11.838	0.034	-0.022
-278.457	800.000	0.081	-0.253
-277.443	-132.944	0.159	0.020
-276.428	132.002	0.204	0.261
-275.413	16.296	-0.024	0.019
-274.399	-87.015	0.125	0.038
-273.384	800.000	0.029	-0.106
-272.370	164.056	0.209	0.293
-271.355	743.840	-0.085	-0.227
-270.340	-150.794	-0.372	-0.028
-269.326	-85.459	-0.060	-0.019
-268.311	-107.021	0.092	-0.020
-267.297	73.012	-0.072	0.075
-266.282	-51.760	0.132	0.061
-265.267	-35.612	-0.055	-0.029
-264.253	105.580	-0.142	-0.167
-263.238	134.007	-0.105	-0.135
-262.224	-112.749	-0.216	0.043
-261.209	-200.000	0.027	-0.141
-260.195	-120.585	-0.071	-0.012
-259.180	471.218	-0.101	-0.226
-258.165	-141.634	-0.052	-0.005
-257.151	142.873	0.200	-0.264
-256.136	366.010	0.078	-0.157
-255.122	-109.816	-0.169	0.035
-254.107	330.906	0.084	-0.161
-253.092	-146.183	-0.081	0.007
-252.078	631.976	0.108	-0.273
-251.063	116.121	-0.123	0.150
-250.049	283.382	0.147	0.262
-249.034	178.963	0.174	-0.253
-248.019	-81.482	-0.064	-0.021
-247.005	86.415	0.041	-0.045
-245.990	4.608	-0.229	-0.167
-244.976	-46.663	0.247	0.120
-243.961	-200.000	-0.001	-0.063
-242.946	-1.539	-0.104	0.073
-241.932	-30.893	-0.169	-0.095
-240.917	-38.357	0.229	0.121
-239.903	-134.428	0.141	0.017
-238.888	129.412	0.260	0.330
-237.873	-200.000	-0.015	0.288
-236.859	771.297	0.115	-0.311
-235.844	-200.000	0.115	0.000
-234.830	171.500	0.064	0.091
-233.815	17.371	-0.124	-0.098
-232.800	-151.322	0.456	-0.034
-231.786	-146.554	0.280	-0.024
-230.771	22.794	-0.165	-0.134
-229.757	479.044	-0.093	-0.210
-228.742	286.440	0.090	-0.160
-227.727	-200.000	0.004	0.185
-226.713	-200.000	0.038	0.237
-225.698	-84.106	0.280	0.088
-224.684	44.378	0.332	-0.302
-223.669	-200.000	0.018	-0.319
-222.655	242.157	-0.160	-0.266
-221.640	-200.000	0.025	0.132
-220.625	-113.958	0.357	-0.069
-219.611	-83.545	-0.129	-0.041
-218.596	-200.000	0.023	-0.231
-217.582	-22.770	0.286	0.171
-216.567	141.899	-0.150	-0.197
-215.552	45.382	0.147	0.135
-214.538	2.643	-0.200	-0.144
-213.523	28.330	-0.151	-0.127
-212.509	-31.258	0.076	0.043
-211.494	800.000	0.132	-0.429
-210.479	87.998	-0.287	0.315
-209.465	-132.874	0.206	0.026
-208.450	477.820	0.173	0.389
-207.436	-120.956	-0.168	0.028
-206.421	272.721	-0.134	-0.235
-205.406	80.577	-0.142	0.152
-204.392	-76.464	0.126	0.044
-203.377	-67.770	0.261	0.101
-202.363	-200.000	-0.024	-0.168
-201.348	-200.000	0.023	-0.142
-200.333	800.000	0.018	-0.074
-199.319	-200.000	0.015	0.217
-198.304	-84.534	-0.200	-0.062
-197.290	-52.392	0.118	-0.054
-196.275	-100.603	-0.204	0.050
-195.260	-67.973	-0.136	0.053
-194.246	-200.000	0.066	-0.302
-193.231	-200.000	-0.026	0.121
-192.217	800.000	-0.053	-0.228
-191.202	-98.565	-0.338	-0.086
-190.187	79.767	0.149	0.159
-189.173	800.000	0.059	0.204
-188.158	-74.616	0.317	0.113
-187.144	800.000	-0.099	0.326
-186.129	-42.552	0.137	-0.069
-185.114	800.000	0.151	-0.420
-184.100	119.525	0.203	-0.248
-183.085	77.412	0.071	-0.074
-182.071	51.882	-0.111	-0.105
-181.056	-164.159	0.293	0.013
-180.042	-200.000	-0.006	-0.101
-179.027	-36.740	0.316	0.168
-178.012	-99.049	0.203	0.051
-176.998	-200.000	0.026	0.119
-175.983	65.936	0.053	0.054
-174.969	-54.571	0.202	0.090
-173.954	-8.717	-0.170	-0.113
-172.939	-136.011	-0.184	0.021
-171.925	-3.993	0.283	-0.194
-170.910	-108.617	-0.055	0.012
-169.896	-109.125	-0.087	0.018
-168.881	279.408	-0.103	0.182
-167.866	-200.000	-0.014	0.142
-166.852	-132.259	-0.181	-0.023
-165.837	-198.651	0.090	-0.001
-164.823	-200.000	0.000	-0.043
-163.808	509.845	0.017	-0.040
-162.793	213.320	0.134	-0.209
-161.779	172.621	0.097	0.138
-160.764	272.055	0.060	0.105
-159.750	483.887	-0.090	0.202
-158.735	-132.717	-0.076	0.010
-157.720	394.342	-0.040	0.083
-156.706	-77.607	0.184	-0.063
-155.691	25.022	0.194	0.159
-154.677	-106.492	-0.033	0.007
-153.662	421.682	-0.128	0.271
-152.647	-152.067	-0.172	0.012
-151.633	-200.000	0.001	-0.218
-150.618	-95.612	0.188	0.050
-149.604	-103.321	-0.128	0.030
-148.589	492.858	-0.043	-0.097
-147.574	-26.436	0.116	0.067
-146.560	800.000	-0.067	-0.240
-145.545	800.000	-0.060	0.178
-144.531	-62.792	-0.176	-0.072
-143.516	-200.000	0.072	-0.469
-142.502	800.000	0.030	0.126
-141.487	119.774	0.189	0.232
-140.472	-200.000	0.012	0.140
-139.458	800.000	0.028	0.119
-138.443	-112.230	-0.204	-0.041
-137.429	2.294	0.175	0.125
-136.414	-130.725	0.286	0.038
-135.399	139.861	-0.126	0.164
-134.385	-194.925	0.289	-0.002
-133.370	-69.072	0.130	0.050
-132.356	800.000	0.094	0.290
-131.341	-27.033	-0.172	-0.099
-130.326	265.259	-0.105	0.181
-129.312	-91.748	0.173	0.049
-128.297	-173.687	0.276	-0.008
-127.283	800.000	0.110	-0.302
-126.268	-200.000	0.025	0.167
-125.253	-31.147	0.099	0.055
-124.239	743.030	0.005	-0.013
-123.224	-86.794	0.157	0.047
-122.210	92.383	0.163	-0.182
-121.195	240.694	0.115	-0.190
