DTS Sentinel unit serial number:	SN413079Multiplexer serial number:	ORYXHardware model number:	OX4-SRSoftware version number:	ORYX F/W v4.00 Oryx Data Collector v3.7.2.0data status	okinstallation	princeton_trtdifferential loss correction	single-endedforward channel	channel 1reverse channel	N/Adate	2019/09/13time	20:14:35forward acquisition time	60.00reverse acquisition time	0.00gamma	496.2192k internal	0.2329k external	0.2329temperature offset calibration	1.0087default loss term (dB/km)	0.3790temperature slope calibration	1.0000multiplexer offset coefficient	1.0000multiplexer slope coefficient	1.0000fibre end	0.00T internal ref (°C)	29.44T ext. ref 1 (°C)	3.25T ext. ref 2 (°C)	23.74length (m)	temperature (°C)	Stokes	anti-Stokes-747.200	-116.993	0.368	-0.068
-746.185	800.000	-0.222	0.624
-745.171	39.850	0.131	-0.119
-744.156	-102.280	-0.220	0.053
-743.142	-62.323	0.381	0.160
-742.127	321.022	-0.042	0.081
-741.112	20.421	-0.104	0.085
-740.098	-200.000	0.014	0.330
-739.083	167.465	-0.038	-0.054
-738.069	800.000	-0.127	-0.373
-737.054	30.046	0.052	-0.045
-736.039	-67.379	0.061	0.024
-735.025	11.044	0.220	-0.169
-734.010	-81.955	-0.205	0.067
-732.996	800.000	-0.061	-0.175
-731.981	-200.000	-0.003	0.261
-730.966	-158.778	-0.239	-0.014
-729.952	-200.000	-0.041	-0.200
-728.937	-200.000	0.016	0.174
-727.923	6.013	-0.081	0.060
-726.908	800.000	-0.048	0.153
-725.894	-25.656	-0.180	-0.107
-724.879	68.169	-0.126	0.130
-723.864	-71.287	0.232	0.088
-722.850	800.000	0.051	-0.206
-721.835	-45.864	-0.164	-0.081
-720.821	-50.566	-0.082	-0.039
-719.806	-27.198	-0.300	0.176
-718.791	-46.008	-0.115	-0.057
-717.777	469.650	-0.138	0.312
-716.762	35.513	-0.101	-0.090
-715.748	585.607	0.077	0.189
-714.733	-72.647	-0.206	-0.076
-713.718	-139.576	-0.161	0.017
-712.704	-200.000	0.011	-0.130
-711.689	-113.743	-0.218	-0.043
-710.675	-49.727	0.218	-0.104
-709.660	83.322	-0.149	-0.163
-708.645	-60.292	-0.233	-0.100
-707.631	-63.141	0.270	-0.112
-706.616	-200.000	0.087	0.508
-705.602	466.484	-0.237	0.533
-704.587	117.646	0.278	-0.344
-703.572	800.000	0.072	0.277
-702.558	-117.925	-0.234	-0.042
-701.543	-200.000	0.032	0.252
-700.529	329.621	-0.136	-0.262
-699.514	-118.293	-0.265	0.047
-698.499	222.712	-0.193	-0.312
-697.485	522.901	-0.163	0.385
-696.470	-110.865	-0.335	-0.069
-695.456	-151.581	-0.175	0.013
-694.441	27.871	0.096	-0.081
-693.426	253.279	0.019	0.033
-692.412	-65.551	-0.258	0.104
-691.397	-109.778	-0.276	0.058
-690.383	144.934	0.161	-0.216
-689.368	800.000	-0.086	0.299
-688.354	-72.612	-0.118	0.044
-687.339	-122.413	0.183	-0.030
-686.324	-41.061	0.133	0.069
-685.310	-85.436	-0.334	-0.105
-684.295	-157.545	-0.044	-0.003
-683.281	-17.745	-0.383	0.242
-682.266	368.114	-0.091	-0.185
-681.251	-73.736	-0.320	-0.117
-680.237	-200.000	0.037	0.184
-679.222	-81.352	-0.120	0.040
-678.208	-32.375	-0.173	0.097
-677.193	-68.885	-0.077	-0.030
-676.178	800.000	-0.060	0.243
-675.164	-67.615	-0.515	0.203
-674.149	-54.935	-0.206	-0.093
-673.135	630.430	-0.102	-0.260
-672.120	390.946	0.066	-0.138
-671.105	800.000	-0.062	-0.214
-670.091	666.303	-0.108	0.279
-669.076	-132.627	-0.429	-0.055
-668.062	648.655	0.076	0.196
-667.047	189.236	-0.134	0.202
-666.032	-186.770	-0.246	0.003
-665.018	-183.374	-0.299	-0.005
-664.003	800.000	0.057	-0.193
-662.989	-200.000	0.013	0.258
-661.974	163.031	-0.076	-0.107
-660.959	-200.000	-0.012	0.217
-659.945	-200.000	-0.032	0.338
-658.930	-200.000	0.025	0.278
-657.916	636.179	0.083	-0.211
-656.901	800.000	0.090	-0.266
-655.886	164.821	-0.053	0.075
-654.872	-200.000	0.017	0.083
-653.857	500.826	0.113	-0.261
-652.843	124.498	-0.093	-0.117
-651.828	-66.124	-0.173	0.069
-650.814	8.966	-0.185	-0.140
-649.799	-54.107	-0.307	0.140
-648.784	-74.776	-0.315	-0.114
-647.770	112.015	-0.124	0.150
-646.755	63.198	-0.060	0.060
-645.741	800.000	0.014	0.039
-644.726	-200.000	-0.047	-0.350
-643.711	-17.613	-0.187	0.118
-642.697	-89.128	-0.171	0.051
-641.682	-10.372	0.185	0.123
-640.668	47.091	-0.230	-0.215
-639.653	199.655	0.054	-0.082
-638.638	21.470	0.109	0.089
-637.624	-200.000	0.007	-0.086
-636.609	-96.553	-0.375	0.099
-635.595	64.831	-0.100	-0.101
-634.580	-46.626	0.330	-0.162
-633.565	98.663	-0.108	-0.125
-632.551	137.725	0.137	-0.180
-631.536	-132.640	0.161	-0.021
-630.522	-157.932	0.131	-0.008
-629.507	800.000	-0.097	-0.301
-628.492	-200.000	0.000	-0.176
-627.478	-40.531	-0.306	-0.159
-626.463	-12.614	0.197	0.129
-625.449	-200.000	-0.003	-0.028
-624.434	24.055	0.193	-0.160
-623.419	-89.803	0.207	-0.061
-622.405	86.737	0.120	-0.133
-621.390	-6.988	-0.311	0.211
-620.376	85.494	0.236	0.260
-619.361	800.000	-0.121	-0.374
-618.346	-65.272	0.285	0.115
-617.332	-69.957	0.303	-0.116
-616.317	39.998	0.062	0.056
-615.303	-31.556	0.165	0.093
-614.288	-52.869	-0.154	-0.071
-613.273	-71.967	0.077	0.029
-612.259	-60.737	-0.336	-0.143
-611.244	-3.300	-0.284	-0.199
-610.230	257.338	0.055	-0.095
-609.215	221.094	0.112	0.181
-608.201	-94.254	-0.079	0.022
-607.186	262.244	-0.181	0.315
-606.171	-50.537	0.110	0.052
-605.157	88.670	0.079	0.089
-604.142	150.186	-0.091	-0.123
-603.128	-37.701	-0.371	-0.198
-602.113	-200.000	0.010	-0.074
-601.098	-146.134	-0.090	0.008
-600.084	-200.000	0.005	-0.224
-599.069	800.000	-0.105	0.296
-598.055	-163.338	-0.207	0.010
-597.040	800.000	0.083	0.275
-596.025	-17.309	-0.091	0.057
-595.011	-189.673	-0.430	0.005
-593.996	3.175	-0.114	-0.083
-592.982	125.825	0.134	-0.170
-591.967	207.158	0.131	-0.205
-590.952	385.632	0.167	0.344
-589.938	-15.335	-0.149	-0.096
-588.923	-130.718	-0.118	-0.016
-587.909	-200.000	0.032	-0.141
-586.894	-200.000	-0.035	-0.295
-585.879	25.674	0.250	-0.208
-584.865	13.629	-0.101	-0.079
-583.850	351.235	-0.034	0.068
-582.836	-2.215	0.132	0.093
-581.821	800.000	0.002	0.010
-580.806	-57.940	0.069	0.030
-579.792	-47.489	0.298	0.145
-578.777	-158.735	0.147	-0.008
-577.763	-61.636	-0.195	-0.082
-576.748	-159.781	-0.180	-0.010
-575.733	-73.525	0.115	0.042
-574.719	67.336	-0.192	0.196
-573.704	-200.000	-0.007	-0.143
-572.690	-200.000	0.007	-0.086
-571.675	-198.359	-0.071	0.000
-570.661	-200.000	-0.040	-0.230
-569.646	51.009	0.046	-0.044
-568.631	-100.435	0.144	-0.036
-567.617	208.130	-0.229	-0.357
-566.602	35.649	0.132	-0.116
-565.588	15.781	0.293	-0.231
-564.573	787.922	-0.135	-0.371
-563.558	77.345	0.152	0.162
-562.544	-95.487	-0.048	0.013
-561.529	102.607	0.192	0.224
-560.515	53.687	0.292	-0.280
-559.500	526.233	-0.048	0.114
-558.485	195.153	0.074	0.112
-557.471	2.968	0.295	-0.214
-556.456	-91.357	-0.073	0.021
-555.442	-153.118	0.519	-0.036
-554.427	-35.742	0.270	-0.146
-553.412	800.000	0.029	-0.087
-552.398	-179.893	0.148	0.003
-551.383	-200.000	0.063	0.406
-550.369	-87.763	0.107	-0.032
-549.354	78.293	-0.164	0.175
-548.339	-200.000	0.044	0.225
-547.325	-111.436	0.277	0.056
-546.310	0.463	-0.183	0.131
-545.296	-73.754	-0.089	-0.032
-544.281	-200.000	-0.015	0.110
-543.266	-92.593	0.068	-0.019
-542.252	1.042	-0.204	0.146
-541.237	800.000	-0.052	0.200
-540.223	39.552	0.391	0.350
-539.208	53.663	0.122	0.117
-538.193	-36.347	0.153	0.082
-537.179	433.923	0.099	0.214
-536.164	-200.000	0.032	-0.249
-535.150	144.008	-0.088	0.117
-534.135	-11.317	0.295	-0.194
-533.121	704.377	-0.049	-0.129
-532.106	131.261	-0.123	-0.158
-531.091	503.544	0.111	-0.256
-530.077	-52.279	0.364	0.169
-529.062	-122.524	0.334	0.054
-528.048	-118.973	0.333	0.058
-527.033	197.741	0.027	0.042
-526.018	-86.749	0.116	-0.035
-525.004	134.899	0.158	-0.205
-523.989	16.257	-0.183	0.144
-522.975	225.754	-0.109	0.176
-521.960	-200.000	0.065	-0.340
-520.945	-31.856	-0.075	0.042
-519.931	-16.518	-0.047	0.029
-518.916	30.401	0.075	-0.064
-517.902	-165.108	0.162	0.007
-516.887	163.272	-0.051	-0.071
-515.872	31.287	-0.174	0.150
-514.858	94.077	0.171	0.194
-513.843	-200.000	-0.026	-0.206
-512.829	127.340	-0.020	0.025
-511.814	-167.120	-0.218	-0.009
-510.799	739.409	-0.073	0.194
-509.785	-200.000	-0.021	-0.217
-508.770	150.477	0.007	-0.010
-507.756	-125.044	0.073	-0.011
-506.741	11.572	-0.284	0.217
-505.726	-200.000	0.005	0.043
-504.712	-193.362	-0.260	-0.002
-503.697	218.917	-0.135	0.215
-502.683	17.992	0.183	-0.145
-501.668	800.000	0.031	-0.127
-500.653	-34.108	0.254	0.139
-499.639	90.526	0.136	-0.152
-498.624	51.283	0.026	-0.024
-497.610	-200.000	-0.004	-0.031
-496.595	272.267	-0.058	0.103
-495.581	643.501	-0.029	-0.073
-494.566	800.000	-0.024	0.093
-493.551	800.000	-0.082	-0.340
-492.537	-200.000	-0.011	0.280
-491.522	-171.915	-0.317	0.010
-490.508	-90.875	0.401	-0.115
-489.493	-171.066	0.174	-0.006
-488.478	-107.617	-0.059	-0.013
-487.464	46.275	-0.028	0.026
-486.449	-158.135	0.233	0.014
-485.435	20.723	0.224	-0.181
-484.420	-22.793	-0.079	0.048
-483.405	-200.000	-0.001	-0.017
-482.391	-70.728	-0.111	0.042
-481.376	226.809	-0.246	0.398
-480.362	-67.808	0.209	-0.082
-479.347	148.630	0.096	-0.130
-478.332	-70.483	0.135	-0.051
-477.318	800.000	-0.051	-0.168
-476.303	-65.808	-0.101	-0.040
-475.289	206.219	0.067	-0.104
-474.274	154.105	0.040	-0.055
-473.259	195.300	0.022	0.034
-472.245	-200.000	-0.037	0.164
-471.230	-12.050	-0.248	0.162
-470.216	-130.430	0.203	0.027
-469.201	-42.280	-0.116	-0.059
-468.186	-16.564	-0.203	-0.128
-467.172	800.000	-0.066	-0.192
-466.157	-100.170	0.109	0.027
-465.143	89.689	-0.143	0.159
-464.128	-129.033	-0.141	0.020
-463.113	11.760	-0.221	-0.169
-462.099	800.000	-0.118	-0.355
-461.084	-62.067	-0.499	-0.207
-460.070	127.145	-0.053	0.067
-459.055	183.913	0.236	-0.348
-458.040	251.745	0.063	-0.107
-457.026	-108.453	-0.242	-0.052
-456.011	800.000	0.080	0.266
-454.997	104.188	0.178	0.209
-453.982	-80.002	0.243	-0.081
-452.968	-200.000	0.011	-0.232
-451.953	800.000	-0.076	-0.224
-450.938	79.417	-0.151	-0.162
-449.924	800.000	-0.064	0.237
-448.909	59.281	-0.115	0.113
-447.895	362.793	-0.131	-0.263
-446.880	526.912	-0.077	-0.181
-445.865	660.528	0.101	0.259
-444.851	-200.000	0.003	0.066
-443.836	800.000	-0.095	-0.268
-442.822	-200.000	0.040	0.262
-441.807	-200.000	0.037	0.164
-440.792	396.967	-0.118	0.246
-439.778	-160.433	0.211	0.011
-438.763	-168.531	0.589	-0.022
-437.749	78.298	0.192	-0.204
-436.734	800.000	-0.066	0.248
-435.719	-200.000	0.008	0.220
-434.705	-98.783	0.572	0.145
-433.690	50.032	-0.170	0.159
-432.676	29.216	-0.309	0.261
-431.661	-142.794	-0.039	-0.004
-430.646	586.993	-0.076	0.185
-429.632	-3.963	0.168	-0.116
-428.617	157.886	-0.284	0.392
-427.603	181.317	-0.114	-0.166
-426.588	-157.087	-0.058	-0.004
-425.573	-48.604	0.326	0.156
-424.559	800.000	0.105	0.290
-423.544	-115.620	0.136	0.025
-422.530	800.000	0.053	-0.183
-421.515	-50.303	0.161	0.076
-420.500	-63.237	-0.132	0.054
-419.486	-116.131	-0.382	-0.071
-418.471	134.060	-0.194	0.249
-417.457	-200.000	0.020	0.237
-416.442	-73.301	0.203	0.074
-415.428	33.803	0.127	-0.110
-414.413	-173.216	-0.365	-0.011
-413.398	-127.594	-0.251	-0.036
-412.384	510.758	-0.159	-0.367
-411.369	164.807	-0.168	0.236
-410.355	481.774	-0.066	0.149
-409.340	-82.893	0.171	0.055
-408.325	-200.000	-0.023	-0.119
-407.311	800.000	-0.045	0.162
-406.296	-93.922	-0.159	0.044
-405.282	800.000	-0.039	0.115
-404.267	-36.833	0.176	-0.094
-403.252	-56.600	0.299	-0.132
-402.238	416.551	-0.182	-0.386
-401.223	220.555	-0.222	0.354
-400.209	-68.787	-0.060	0.023
-399.194	204.942	-0.072	-0.111
-398.179	-141.332	0.062	0.006
-397.165	-95.523	0.159	-0.042
-396.150	72.031	-0.131	0.135
-395.136	557.686	0.093	0.222
-394.121	-155.694	0.230	-0.015
-393.106	-200.000	-0.013	0.314
-392.092	800.000	-0.117	-0.437
-391.077	800.000	0.058	0.201
-390.063	290.730	-0.161	-0.291
-389.048	-152.363	0.312	-0.022
-388.033	86.771	0.262	-0.288
-387.019	90.387	0.173	-0.192
-386.004	-88.728	-0.279	-0.082
-384.990	-61.400	-0.204	0.085
-383.975	-171.892	0.263	0.009
-382.960	87.553	-0.231	-0.254
-381.946	-87.023	-0.201	0.061
-380.931	-12.109	0.296	-0.192
-379.917	-161.634	0.271	-0.014
-378.902	-200.000	-0.028	-0.245
-377.888	438.213	0.086	0.187
-376.873	-46.926	-0.240	0.116
-375.858	-117.973	0.122	0.022
-374.844	800.000	-0.027	-0.099
-373.829	171.609	0.089	-0.127
-372.815	-200.000	-0.043	0.270
-371.800	-1.743	-0.134	-0.094
-370.785	-81.551	-0.150	0.049
-369.771	8.566	0.244	0.182
-368.756	0.530	-0.133	0.095
-367.742	-118.245	-0.210	0.037
-366.727	-170.041	-0.146	0.005
-365.712	-200.000	-0.013	0.305
-364.698	58.828	-0.035	0.034
-363.683	12.395	-0.119	-0.091
-362.669	-112.049	0.335	0.067
-361.654	-142.046	-0.095	0.009
-360.639	-141.710	0.227	0.023
-359.625	-200.000	-0.005	0.146
-358.610	-119.902	0.064	-0.011
-357.596	65.521	-0.112	-0.113
-356.581	90.503	-0.252	-0.280
-355.566	-149.066	0.523	-0.042
-354.552	-200.000	-0.022	0.127
-353.537	-2.736	0.103	0.071
-352.523	-54.721	-0.175	0.078
-351.508	-200.000	0.019	0.110
-350.493	-84.670	0.068	-0.021
-349.479	17.552	0.128	-0.101
-348.464	-200.000	0.026	0.308
-347.450	-200.000	0.047	0.376
-346.435	-200.000	0.026	-0.189
-345.420	174.735	-0.150	-0.216
-344.406	800.000	0.008	-0.023
-343.391	18.476	0.014	-0.011
-342.377	-200.000	0.003	0.032
-341.362	19.143	-0.178	-0.141
-340.348	388.811	0.094	-0.194
-339.333	85.166	0.193	0.210
-338.318	-121.780	-0.220	-0.036
-337.304	-200.000	0.004	0.172
-336.289	-81.127	-0.408	0.134
-335.275	580.416	-0.069	0.168
-334.260	73.001	0.029	-0.030
-333.245	-41.264	0.175	-0.090
-332.231	750.173	0.060	-0.159
-331.216	-200.000	0.046	-0.232
-330.202	-62.984	-0.128	-0.052
-329.187	543.058	0.083	-0.197
-328.172	-76.492	-0.196	0.068
-327.158	143.398	-0.062	-0.082
-326.143	-200.000	0.038	-0.448
-325.129	-200.000	-0.034	-0.189
-324.114	-3.897	0.228	0.157
-323.099	800.000	-0.080	-0.221
-322.085	-145.685	-0.027	-0.002
-321.070	-177.516	-0.327	0.008
-320.056	-48.205	-0.152	0.073
-319.041	-21.409	-0.313	-0.189
-318.026	-200.000	-0.006	-0.166
-317.012	-29.611	0.061	0.035
-315.997	174.367	-0.270	-0.387
-314.983	800.000	0.031	-0.087
-313.968	224.811	-0.184	-0.295
-312.953	-64.299	-0.347	-0.140
-311.939	10.057	-0.162	0.122
-310.924	-191.350	0.393	-0.004
-309.910	-41.931	0.153	-0.078
-308.895	25.068	-0.252	0.207
-307.880	24.175	0.135	-0.110
-306.866	100.065	-0.146	-0.167
-305.851	50.330	0.272	-0.254
-304.837	-67.278	-0.185	-0.072
-303.822	-200.000	-0.069	0.389
-302.807	-41.042	0.171	0.087
-301.793	-10.775	-0.124	0.081
-300.778	-62.966	0.396	0.162
-299.764	13.696	-0.236	0.182
-298.749	800.000	-0.087	0.366
-297.735	-57.488	0.068	-0.029
-296.720	800.000	-0.055	-0.209
-295.705	338.044	-0.200	-0.386
-294.691	-200.000	0.013	-0.086
-293.676	-82.131	-0.130	-0.042
-292.662	-200.000	-0.056	0.261
-291.647	-45.393	0.143	0.070
-290.632	-146.470	0.133	0.011
-289.618	-46.721	0.133	-0.064
-288.603	-133.329	0.374	-0.047
-287.589	-77.924	-0.073	0.025
-286.574	-126.459	-0.388	0.057
-285.559	-200.000	0.012	0.129
-284.545	-85.060	-0.338	-0.105
-283.530	-200.000	-0.003	0.228
-282.516	567.908	-0.046	0.111
-281.501	800.000	0.077	0.303
-280.486	-42.367	0.145	0.073
-279.472	-200.000	-0.011	0.078
-278.457	-200.000	-0.007	-0.316
-277.443	310.312	-0.057	0.106
-276.428	-85.027	0.210	0.065
-275.413	800.000	0.067	-0.228
-274.399	25.156	-0.318	0.261
-273.384	-195.230	-0.165	-0.001
-272.370	-2.806	0.243	-0.168
-271.355	-200.000	0.013	-0.192
-270.340	-200.000	0.001	0.267
-269.326	800.000	0.061	-0.170
-268.311	-37.658	0.200	-0.105
-267.297	447.621	-0.084	-0.182
-266.282	594.706	0.070	-0.172
-265.267	-187.423	-0.327	-0.004
-264.253	171.875	0.138	0.196
-263.238	-53.859	-0.095	0.043
-262.224	-200.000	0.014	-0.416
-261.209	-197.173	0.241	-0.002
-260.195	178.832	0.120	0.173
-259.180	73.442	0.159	-0.164
-258.165	-162.708	0.404	-0.020
-257.151	800.000	-0.037	-0.145
-256.136	-200.000	0.033	0.223
-255.122	-92.457	0.202	0.056
-254.107	43.777	-0.136	-0.123
-253.092	45.500	-0.203	-0.185
-252.078	-31.902	0.219	-0.121
-251.063	800.000	-0.044	-0.126
-250.049	140.903	0.134	-0.175
-249.034	-26.428	-0.198	-0.114
-248.019	714.017	-0.018	0.048
-247.005	-61.720	-0.134	-0.055
-245.990	-98.967	0.131	-0.033
-244.976	313.637	-0.196	0.365
-243.961	-70.986	0.412	0.153
-242.946	277.774	-0.069	0.121
-241.932	-97.940	-0.125	-0.032
-240.917	-200.000	0.027	0.153
-239.903	287.784	-0.285	0.509
-238.888	334.446	-0.145	0.278
-237.873	-181.064	0.198	0.004
-236.859	800.000	0.140	0.385
-235.844	-96.410	-0.231	0.060
-234.830	-64.016	0.118	0.048
-233.815	-200.000	0.002	0.023
-232.800	-141.835	-0.216	0.021
-231.786	-200.000	0.015	0.092
-230.771	-147.173	-0.306	0.026
-229.757	272.413	0.036	0.063
-228.742	-200.000	-0.012	-0.091
-227.727	-29.230	0.124	0.070
-226.713	-81.554	-0.141	0.046
-225.698	-110.724	0.299	-0.061
-224.684	-85.050	0.214	-0.066
-223.669	-74.797	-0.176	0.062
-222.655	1.109	0.292	0.207
-221.640	800.000	-0.056	-0.178
-220.625	191.712	-0.303	-0.450
-219.611	-200.000	0.002	0.185
-218.596	-200.000	0.010	0.245
-217.582	124.553	0.132	-0.164
-216.567	199.159	0.250	0.377
-215.552	-189.095	-0.092	0.001
-214.538	6.769	0.036	-0.026
-213.523	800.000	0.116	-0.321
-212.509	-200.000	0.031	-0.148
-211.494	304.946	-0.024	0.045
-210.479	800.000	0.111	0.371
-209.465	-25.840	0.188	0.109
-208.450	-27.673	-0.195	0.111
-207.436	-50.162	-0.305	-0.142
-206.421	60.630	-0.151	-0.148
-205.406	-165.488	0.277	0.012
-204.392	-90.481	0.021	-0.006
-203.377	800.000	-0.104	0.303
-202.363	-115.254	-0.226	0.042
-201.348	-200.000	0.007	0.063
-200.333	-78.404	-0.018	0.006
-199.319	27.760	0.229	-0.190
-198.304	-200.000	0.039	-0.251
-197.290	-21.458	-0.121	-0.073
-196.275	-25.291	0.156	0.091
-195.260	-41.539	-0.206	0.105
-194.246	368.128	-0.027	0.053
-193.231	-120.101	-0.112	-0.019
-192.217	-200.000	-0.023	0.226
-191.202	285.678	-0.139	0.247
-190.187	-55.056	0.207	-0.092
-189.173	-6.816	0.044	0.029
-188.158	44.219	0.061	-0.055
-187.144	-50.694	-0.215	-0.100
-186.129	-127.075	-0.142	-0.021
-185.114	-200.000	-0.027	0.156
-184.100	800.000	0.022	-0.093
-183.085	-0.058	0.187	-0.131
-182.071	264.735	-0.161	-0.277
-181.056	54.360	-0.274	-0.260
-180.042	-125.651	0.258	-0.038
-179.027	17.753	-0.017	0.014
-178.012	-200.000	-0.007	0.067
-176.998	321.308	-0.093	0.174
-175.983	-5.260	-0.177	0.120
-174.969	-133.443	0.334	0.041
-173.954	-200.000	0.002	0.086
-172.939	-1.925	-0.059	-0.041
-171.925	-167.629	-0.115	-0.004
-170.910	305.682	-0.035	-0.065
-169.896	21.767	-0.020	0.016
-168.881	-145.253	-0.264	-0.024
-167.866	-11.588	-0.067	-0.043
-166.852	-49.696	0.161	0.075
-165.837	-18.637	0.202	-0.124
-164.823	129.083	-0.083	-0.105
-163.808	-200.000	-0.015	0.133
-162.793	-76.470	0.357	0.123
-161.779	-70.822	-0.183	-0.068
-160.764	-122.302	0.324	0.052
-159.750	448.400	-0.045	0.097
-158.735	-77.728	-0.172	0.058
-157.720	82.226	-0.164	-0.175
-156.706	800.000	0.038	0.107
-155.691	7.716	-0.243	-0.179
-154.677	186.999	0.160	0.235
-153.662	800.000	0.045	0.154
-152.647	598.943	0.188	0.459
-151.633	800.000	-0.067	0.203
-150.618	-56.651	0.338	-0.147
-149.604	800.000	-0.063	-0.235
-148.589	-118.276	0.295	0.052
-147.574	-200.000	0.026	-0.250
-146.560	136.050	-0.063	-0.080
-145.545	-65.100	-0.177	0.070
-144.531	83.743	0.209	-0.225
-143.516	53.346	-0.189	0.178
-142.502	9.605	-0.174	0.130
-141.487	1.494	0.126	0.089
-140.472	-15.500	0.187	0.118
-139.458	-7.745	-0.231	-0.153
-138.443	800.000	0.079	-0.246
-137.429	495.215	0.030	-0.068
-136.414	-83.750	-0.097	0.030
-135.399	-119.283	0.134	-0.023
-134.385	-200.000	0.014	0.194
-133.370	-91.622	-0.187	-0.052
-132.356	-200.000	0.080	-0.397
-131.341	111.167	0.087	-0.103
-130.326	-11.683	0.284	0.183
-129.312	-17.343	-0.086	-0.053
-128.297	-200.000	0.096	0.425
-127.283	-200.000	-0.356	-0.001
-126.268	-127.170	-0.165	0.024
-125.253	693.495	-0.037	-0.095
-124.239	-78.966	0.237	-0.079
-123.224	67.423	-0.123	-0.124
-122.210	118.617	-0.168	0.204
