DTS Sentinel unit serial number:	SN413079Multiplexer serial number:	ORYXHardware model number:	OX4-SRSoftware version number:	ORYX F/W v4.00 Oryx Data Collector v3.7.2.0data status	okinstallation	princeton_trtdifferential loss correction	single-endedforward channel	channel 1reverse channel	N/Adate	2019/09/17time	07:26:35forward acquisition time	60.00reverse acquisition time	0.00gamma	496.2192k internal	0.2331k external	0.2331temperature offset calibration	0.9967default loss term (dB/km)	0.3790temperature slope calibration	1.0000multiplexer offset coefficient	1.0000multiplexer slope coefficient	1.0000fibre end	0.00T internal ref (°C)	27.19T ext. ref 1 (°C)	0.12T ext. ref 2 (°C)	21.60length (m)	temperature (°C)	Stokes	anti-Stokes-747.200	-200.000	-0.006	0.086
-746.185	-25.118	-0.202	0.120
-745.171	194.425	-0.187	0.286
-744.156	15.422	-0.100	-0.079
-743.142	632.750	0.135	0.345
-742.127	-108.120	0.241	0.053
-741.112	-23.777	0.091	0.055
-740.098	314.181	-0.224	0.425
-739.083	396.639	0.111	0.233
-738.069	125.098	0.084	0.106
-737.054	49.395	-0.241	-0.228
-736.039	-49.331	-0.137	-0.066
-735.025	5.415	0.117	0.087
-734.010	-73.457	-0.223	-0.082
-732.996	128.504	-0.145	-0.185
-731.981	-107.481	0.329	-0.073
-730.966	168.476	-0.272	0.390
-729.952	22.425	-0.198	-0.163
-728.937	7.984	-0.138	-0.104
-727.923	-144.648	-0.107	-0.010
-726.908	386.154	0.061	-0.128
-725.894	334.698	0.076	-0.149
-724.879	-21.039	-0.673	-0.415
-723.864	-127.722	0.101	-0.015
-722.850	-200.000	-0.047	0.291
-721.835	-44.404	0.213	0.107
-720.821	-66.000	-0.012	-0.005
-719.806	800.000	-0.005	-0.015
-718.791	-12.992	-0.208	0.136
-717.777	20.846	0.173	0.141
-716.762	63.443	-0.250	-0.252
-715.748	66.668	0.150	-0.154
-714.733	-125.368	-0.236	-0.036
-713.718	-65.759	0.354	0.142
-712.704	116.509	-0.095	-0.117
-711.689	800.000	0.067	-0.292
-710.675	316.942	0.077	0.146
-709.660	-111.964	-0.411	0.083
-708.645	-60.205	-0.066	-0.028
-707.631	-1.532	0.106	-0.075
-706.616	-100.635	-0.065	0.016
-705.602	246.927	-0.047	-0.079
-704.587	800.000	0.038	0.141
-703.572	-94.596	-0.066	0.018
-702.558	-94.032	-0.414	0.114
-701.543	800.000	0.097	-0.315
-700.529	82.499	-0.112	-0.122
-699.514	-22.912	-0.196	-0.119
-698.499	-103.073	-0.116	-0.028
-697.485	-51.638	-0.287	-0.134
-696.470	621.457	0.092	-0.232
-695.456	489.596	0.057	0.132
-694.441	53.976	-0.157	0.151
-693.426	-12.282	0.210	0.138
-692.412	-75.716	-0.208	0.074
-691.397	-38.788	-0.121	0.064
-690.383	544.910	-0.092	-0.220
-689.368	800.000	0.070	-0.251
-688.354	-200.000	0.044	0.420
-687.339	-200.000	0.080	0.445
-686.324	23.325	0.119	-0.098
-685.310	-90.083	-0.211	-0.062
-684.295	449.210	-0.155	-0.342
-683.281	-200.000	0.046	0.267
-682.266	-188.534	0.139	0.002
-681.251	-200.000	0.006	0.340
-680.237	-200.000	0.018	0.200
-679.222	382.432	-0.184	-0.379
-678.208	-160.437	-0.034	-0.002
-677.193	-65.198	0.287	0.116
-676.178	287.060	0.011	0.019
-675.164	-200.000	-0.018	-0.303
-674.149	286.452	0.259	-0.469
-673.135	-200.000	-0.033	-0.222
-672.120	-7.645	-0.135	-0.091
-671.105	67.023	0.192	-0.196
-670.091	396.939	-0.096	-0.200
-669.076	-25.966	-0.076	0.045
-668.062	147.807	-0.175	0.236
-667.047	458.404	0.127	-0.284
-666.032	-105.489	0.178	0.041
-665.018	115.788	0.224	0.275
-664.003	-15.479	-0.056	0.036
-662.989	-200.000	0.004	-0.105
-661.974	-48.899	-0.107	0.052
-660.959	261.249	-0.073	0.126
-659.945	395.350	0.109	0.228
-658.930	800.000	0.081	0.268
-657.916	-30.065	-0.299	-0.171
-656.901	-113.047	0.134	0.026
-655.886	-139.948	0.480	0.051
-654.872	-134.303	-0.413	-0.051
-653.857	-144.473	-0.332	0.031
-652.843	-151.692	0.141	0.010
-651.828	-200.000	0.024	-0.279
-650.814	-99.807	-0.152	-0.038
-649.799	436.079	-0.076	0.166
-648.784	-65.405	-0.114	0.046
-647.770	-39.790	-0.387	-0.203
-646.755	-200.000	-0.069	-0.495
-645.741	-7.464	-0.445	-0.302
-644.726	-78.270	-0.161	0.056
-643.711	284.797	0.094	-0.170
-642.697	144.555	0.224	-0.300
-641.682	-200.000	-0.037	-0.392
-640.668	-30.346	-0.042	0.024
-639.653	37.905	-0.210	-0.187
-638.638	355.507	-0.119	-0.238
-637.624	-200.000	-0.042	-0.448
-636.609	-150.003	0.275	-0.021
-635.595	81.034	-0.232	0.251
-634.580	185.815	0.194	0.288
-633.565	390.050	0.016	-0.034
-632.551	-186.598	0.358	0.005
-631.536	76.125	0.103	0.109
-630.522	-200.000	0.017	-0.076
-629.507	-200.000	-0.113	0.553
-628.492	113.465	-0.147	0.179
-627.478	-189.581	-0.209	-0.002
-626.463	-9.428	-0.244	-0.163
-625.449	23.421	0.317	0.261
-624.434	603.814	0.025	-0.063
-623.419	-124.760	0.204	0.032
-622.405	-82.871	-0.074	-0.024
-621.390	120.186	-0.067	-0.083
-620.376	-6.465	0.339	-0.232
-619.361	-200.000	0.023	-0.145
-618.346	-53.593	-0.353	0.162
-617.332	18.652	0.024	-0.019
-616.317	-21.964	-0.361	-0.219
-615.303	110.871	0.033	0.040
-614.288	800.000	0.072	0.209
-613.273	-58.183	0.141	-0.061
-612.259	-200.000	0.017	-0.241
-611.244	81.566	-0.132	0.143
-610.230	96.116	-0.109	-0.124
-609.215	30.252	0.120	0.102
-608.201	54.269	-0.201	-0.194
-607.186	-159.545	0.201	-0.011
-606.171	123.553	-0.103	0.129
-605.157	143.799	0.162	0.217
-604.142	-116.522	-0.106	0.019
-603.128	348.063	-0.151	-0.299
-602.113	-88.677	-0.064	0.019
-601.098	-190.792	0.089	-0.001
-600.084	-2.469	0.173	-0.121
-599.069	71.580	-0.172	0.179
-598.055	-200.000	-0.030	0.187
-597.040	-19.998	0.134	0.082
-596.025	800.000	0.078	0.222
-595.011	20.776	0.241	-0.196
-593.996	-107.484	-0.176	-0.039
-592.982	48.552	-0.198	0.185
-591.967	-72.056	0.263	-0.098
-590.952	-200.000	0.012	-0.087
-589.938	252.358	0.178	-0.303
-588.923	46.905	-0.293	-0.273
-587.909	-72.670	-0.339	-0.125
-586.894	145.972	-0.209	0.281
-585.879	-40.220	0.193	0.101
-584.865	-69.314	-0.143	0.055
-583.850	36.146	0.372	-0.328
-582.836	-117.116	0.053	0.010
-581.821	-34.861	0.143	-0.078
-580.806	-7.311	-0.118	0.080
-579.792	-38.858	0.123	-0.065
-578.777	-134.817	0.249	-0.030
-577.763	-49.103	0.121	-0.058
-576.748	-200.000	0.015	0.195
-575.733	-200.000	-0.016	-0.124
-574.719	800.000	0.082	-0.259
-573.704	534.734	-0.020	0.046
-572.690	27.506	-0.145	-0.122
-571.675	296.298	-0.134	-0.246
-570.661	-90.520	-0.340	-0.098
-569.646	-200.000	0.005	0.244
-568.631	65.407	-0.202	-0.204
-567.617	800.000	-0.118	-0.351
-566.602	-153.934	0.131	-0.009
-565.588	375.683	0.080	0.164
-564.573	800.000	-0.049	0.162
-563.558	-200.000	0.005	0.101
-562.544	-200.000	-0.021	0.159
-561.529	228.136	0.174	-0.283
-560.515	81.044	-0.171	0.185
-559.500	-200.000	-0.008	0.293
-558.485	-19.544	0.194	-0.120
-557.471	-102.669	-0.045	0.011
-556.456	-8.502	0.131	0.088
-555.442	800.000	-0.088	0.294
-554.427	-88.197	-0.258	-0.077
-553.412	-170.924	0.395	-0.013
-552.398	-51.856	-0.226	-0.105
-551.383	-148.906	-0.134	-0.011
-550.369	141.697	-0.127	-0.168
-549.354	-11.827	-0.280	0.183
-548.339	-22.065	0.097	-0.059
-547.325	-103.711	0.069	-0.016
-546.310	149.589	0.097	0.131
-545.296	-35.661	-0.128	-0.069
-544.281	-86.704	-0.080	-0.025
-543.266	307.463	0.065	-0.121
-542.252	-98.228	-0.177	0.045
-541.237	-67.631	0.127	-0.050
-540.223	800.000	-0.056	-0.186
-539.208	800.000	-0.118	-0.416
-538.193	4.666	-0.116	-0.085
-537.179	14.830	-0.102	-0.080
-536.164	20.429	0.124	0.100
-535.150	401.283	-0.057	0.120
-534.135	120.539	-0.054	0.067
-533.121	-153.380	-0.256	-0.018
-532.106	107.042	-0.190	0.225
-531.091	-200.000	-0.059	-0.357
-530.077	-105.249	0.205	-0.047
-529.062	-200.000	0.002	0.175
-528.048	159.596	-0.194	-0.270
-527.033	-200.000	-0.004	-0.033
-526.018	800.000	-0.025	-0.091
-525.004	-38.593	-0.168	-0.089
-523.989	-73.805	0.347	0.126
-522.975	-200.000	0.032	0.196
-521.960	-19.753	0.233	-0.144
-520.945	-18.484	-0.160	-0.100
-519.931	8.827	0.169	0.127
-518.916	392.398	-0.135	0.279
-517.902	249.766	-0.122	0.207
-516.887	-22.011	0.134	0.081
-515.872	-200.000	-0.012	0.067
-514.858	-28.265	-0.195	-0.113
-513.843	-59.391	0.297	0.127
-512.829	176.185	0.102	0.147
-511.814	-123.155	-0.290	-0.046
-510.799	-159.463	-0.156	0.009
-509.785	522.080	-0.010	0.024
-508.770	800.000	-0.061	0.173
-507.756	132.407	0.217	0.279
-506.741	-147.556	-0.154	0.013
-505.726	117.872	0.168	-0.206
-504.712	-200.000	0.025	0.148
-503.697	20.289	0.086	-0.069
-502.683	20.529	0.145	-0.117
-501.668	-200.000	-0.025	-0.266
-500.653	-200.000	0.031	0.208
-499.639	194.572	-0.064	0.097
-498.624	-28.593	0.189	-0.108
-497.610	-200.000	-0.009	-0.189
-496.595	-200.000	-0.008	0.456
-495.581	-1.026	-0.020	-0.014
-494.566	-49.353	-0.214	0.102
-493.551	188.532	0.048	-0.072
-492.537	800.000	-0.040	0.156
-491.522	-200.000	-0.019	-0.110
-490.508	-163.068	0.070	-0.003
-489.493	56.465	0.244	0.236
-488.478	167.976	-0.130	-0.185
-487.464	-199.736	-0.166	0.001
-486.449	25.777	-0.225	0.187
-485.435	800.000	-0.010	0.029
-484.420	-70.030	0.226	0.086
-483.405	-200.000	0.018	-0.096
-482.391	280.811	-0.048	0.086
-481.376	528.784	0.087	-0.204
-480.362	-93.644	0.190	0.052
-479.347	-200.000	-0.018	-0.136
-478.332	549.343	0.117	-0.278
-477.318	609.257	-0.098	-0.244
-476.303	800.000	0.073	0.226
-475.289	-39.056	0.207	-0.109
-474.274	-4.026	0.173	-0.119
-473.259	800.000	0.077	-0.262
-472.245	800.000	0.122	-0.457
-471.230	-18.543	0.551	-0.342
-470.216	-164.654	-0.232	0.010
-469.201	-8.245	0.100	0.067
-468.186	-200.000	-0.052	-0.354
-467.172	-200.000	-0.029	-0.168
-466.157	206.279	-0.132	-0.205
-465.143	-32.889	0.043	0.024
-464.128	182.579	0.060	0.089
-463.113	-26.144	0.206	0.121
-462.099	-200.000	-0.063	0.484
-461.084	187.791	0.290	0.431
-460.070	308.803	-0.088	-0.163
-459.055	-60.995	-0.313	0.132
-458.040	128.421	0.167	0.212
-457.026	-153.128	0.192	-0.013
-456.011	97.364	0.128	-0.146
-454.997	-35.513	-0.122	0.066
-453.982	-97.431	-0.087	0.023
-452.968	9.844	0.104	0.078
-451.953	-200.000	-0.028	0.227
-450.938	63.679	-0.062	0.062
-449.924	-15.810	0.107	-0.068
-448.909	-52.574	0.123	-0.057
-447.895	-200.000	-0.014	0.082
-446.880	800.000	-0.080	-0.281
-445.865	49.081	0.045	-0.042
-444.851	-71.526	0.172	0.064
-443.836	800.000	-0.095	-0.344
-442.822	209.976	-0.053	0.083
-441.807	-50.345	-0.206	0.097
-440.792	-102.363	-0.316	0.075
-439.778	382.576	-0.125	-0.256
-438.763	-200.000	-0.034	0.167
-437.749	-27.955	0.195	-0.112
-436.734	0.509	-0.191	0.136
-435.719	-78.746	-0.199	-0.068
-434.705	-101.099	-0.371	-0.090
-433.690	-39.521	-0.165	-0.086
-432.676	-200.000	-0.007	0.278
-431.661	800.000	-0.119	0.358
-430.646	-31.169	0.155	0.087
-429.632	-109.605	0.040	-0.008
-428.617	130.403	-0.085	-0.109
-427.603	-14.098	-0.170	-0.109
-426.588	-116.093	0.212	-0.039
-425.573	305.997	0.086	-0.159
-424.559	-45.502	-0.046	0.023
-423.544	81.512	-0.154	-0.166
-422.530	-136.681	-0.144	0.017
-421.515	-52.804	0.297	-0.136
-420.500	430.405	-0.065	0.139
-419.486	-121.236	-0.311	-0.052
-418.471	-30.348	0.100	0.056
-417.457	384.605	-0.070	-0.144
-416.442	12.906	-0.203	-0.156
-415.428	84.340	-0.040	0.043
-414.413	158.596	-0.177	-0.244
-413.398	-2.338	-0.087	0.060
-412.384	154.236	0.174	0.237
-411.369	-200.000	0.013	-0.411
-410.355	-200.000	0.046	0.224
-409.340	-200.000	-0.016	0.154
-408.325	-25.203	-0.335	-0.197
-407.311	24.555	0.068	0.056
-406.296	-107.197	0.144	0.032
-405.282	-200.000	0.004	0.073
-404.267	800.000	0.044	0.127
-403.252	800.000	0.050	-0.172
-402.238	-200.000	0.011	-0.139
-401.223	-28.857	0.086	-0.049
-400.209	155.851	-0.206	-0.282
-399.194	-116.517	0.245	0.045
-398.179	800.000	0.067	-0.205
-397.165	23.594	-0.075	-0.061
-396.150	-39.210	-0.042	0.022
-395.136	-200.000	-0.033	-0.297
-394.121	135.466	0.212	-0.273
-393.106	127.452	-0.069	0.087
-392.092	800.000	0.051	-0.198
-391.077	-200.000	-0.002	0.418
-390.063	-200.000	-0.019	-0.134
-389.048	800.000	0.018	-0.068
-388.033	24.753	0.149	-0.122
-387.019	800.000	-0.152	-0.417
-386.004	-143.089	-0.444	-0.042
-384.990	0.485	-0.246	0.175
-383.975	-39.160	-0.164	-0.086
-382.960	-3.582	-0.204	-0.141
-381.946	133.023	-0.264	0.338
-380.931	800.000	0.029	-0.108
-379.917	-171.018	0.328	0.011
-378.902	800.000	0.047	0.182
-377.888	-200.000	-0.111	0.509
-376.873	-45.300	0.315	-0.155
-375.858	-84.912	0.139	0.043
-374.844	-25.649	-0.192	0.113
-373.829	-200.000	-0.032	-0.291
-372.815	-119.582	-0.312	-0.054
-371.800	800.000	0.149	-0.440
-370.785	303.391	-0.108	0.198
-369.771	14.512	0.276	0.213
-368.756	-55.821	0.443	0.196
-367.742	-93.309	0.260	-0.071
-366.727	-126.765	-0.284	0.042
-365.712	-200.000	0.046	0.335
-364.698	39.958	0.215	0.191
-363.683	582.255	0.128	-0.311
-362.669	-200.000	0.029	-0.131
-361.654	-6.459	-0.037	-0.025
-360.639	800.000	0.016	0.048
-359.625	164.717	-0.083	0.116
-358.610	-47.245	-0.294	0.142
-357.596	-200.000	-0.008	-0.197
-356.581	-200.000	0.039	0.351
-355.566	-148.476	0.118	-0.010
-354.552	800.000	-0.080	0.313
-353.537	501.358	-0.151	0.345
-352.523	-118.684	-0.165	0.029
-351.508	722.312	-0.042	-0.110
-350.493	-135.952	0.344	-0.040
-349.479	67.446	-0.176	0.178
-348.464	382.514	-0.010	-0.020
-347.450	-120.933	0.136	0.023
-346.435	52.584	0.177	-0.168
-345.420	-200.000	-0.013	-0.380
-344.406	443.368	-0.126	0.274
-343.391	-176.221	-0.118	0.003
-342.377	76.424	0.167	-0.175
-341.362	-115.074	0.188	0.035
-340.348	800.000	0.093	0.285
-339.333	800.000	-0.079	0.282
-338.318	291.598	-0.065	0.118
-337.304	112.357	0.152	0.182
-336.289	-179.561	-0.338	0.007
-335.275	-95.687	0.477	-0.126
-334.260	-81.650	0.154	-0.050
-333.245	-133.347	0.041	0.005
-332.231	-49.350	0.117	-0.055
-331.216	38.271	-0.054	0.048
-330.202	800.000	-0.106	-0.332
-329.187	-76.879	-0.142	-0.049
-328.172	-200.000	0.037	-0.191
-327.158	-120.405	-0.266	0.045
-326.143	-200.000	0.044	0.206
-325.129	-200.000	-0.037	-0.183
-324.114	81.191	0.209	0.223
-323.099	43.100	-0.245	-0.221
-322.085	204.941	0.084	-0.129
-321.070	375.185	0.081	-0.163
-320.056	339.432	-0.080	0.154
-319.041	4.279	-0.241	-0.174
-318.026	11.055	-0.149	0.113
-317.012	-83.184	-0.213	0.068
-315.997	-82.317	-0.435	-0.140
-314.983	10.634	0.113	0.085
-313.968	163.674	-0.073	0.102
-312.953	800.000	0.062	-0.265
-311.939	-87.216	0.271	-0.082
-310.924	-84.208	0.374	0.117
-309.910	118.858	0.062	0.076
-308.895	-144.432	-0.368	-0.034
-307.880	61.509	-0.362	0.356
-306.866	33.327	0.261	-0.224
-305.851	-77.175	0.086	-0.029
-304.837	-46.934	0.135	-0.065
-303.822	-200.000	0.012	0.217
-302.807	800.000	0.038	0.123
-301.793	800.000	0.024	-0.092
-300.778	99.903	0.103	0.119
-299.764	-149.278	-0.240	-0.019
-298.749	145.363	0.078	-0.103
-297.735	-156.670	0.259	-0.016
-296.720	94.984	0.247	0.278
-295.705	-200.000	0.046	-0.364
-294.691	-15.853	-0.142	-0.090
-293.676	61.280	-0.144	0.141
-292.662	-86.384	-0.147	-0.045
-291.647	13.931	-0.288	-0.221
-290.632	157.042	0.115	-0.158
-289.618	-200.000	-0.178	0.000
-288.603	-200.000	0.011	-0.167
-287.589	-121.448	0.172	0.028
-286.574	-16.192	0.151	-0.095
-285.559	724.482	-0.069	0.181
-284.545	300.608	-0.095	0.173
-283.530	-200.000	-0.037	0.225
-282.516	-200.000	0.037	-0.285
-281.501	-113.858	0.131	0.025
-280.486	-200.000	-0.009	-0.077
-279.472	-149.737	0.091	-0.007
-278.457	292.851	-0.067	-0.121
-277.443	494.827	0.103	-0.233
-276.428	269.548	0.057	0.099
-275.413	305.295	0.118	0.217
-274.399	-22.548	-0.221	-0.132
-273.384	-132.405	0.233	-0.030
-272.370	-200.000	-0.019	-0.131
-271.355	4.446	-0.097	-0.070
-270.340	-80.058	0.097	0.032
-269.326	800.000	-0.098	-0.323
-268.311	-130.431	0.238	0.032
-267.297	-200.000	0.062	0.320
-266.282	155.026	0.108	0.147
-265.267	332.236	-0.027	0.052
-264.253	-151.031	-0.362	0.027
-263.238	-200.000	0.041	-0.356
-262.224	394.458	0.038	0.078
-261.209	-200.000	-0.002	0.029
-260.195	-111.190	-0.108	-0.022
-259.180	-186.504	0.161	0.002
-258.165	9.511	0.384	0.287
-257.151	-152.223	-0.119	0.008
-256.136	-173.197	0.180	0.005
-255.122	165.591	-0.163	0.227
-254.107	135.995	0.082	0.105
-253.092	800.000	0.059	0.162
-252.078	-50.944	0.550	0.255
-251.063	-92.805	0.357	-0.099
-250.049	134.419	0.146	-0.187
-249.034	-200.000	0.001	-0.285
-248.019	66.565	0.111	0.111
-247.005	-200.000	0.018	-0.157
-245.990	-132.781	0.461	-0.058
-244.976	140.289	-0.086	0.111
-243.961	-200.000	0.025	0.312
-242.946	25.243	-0.106	-0.087
-241.932	-137.162	0.073	-0.008
-240.917	-118.622	0.272	-0.047
-239.903	-42.473	-0.154	0.078
-238.888	460.930	0.113	0.249
-237.873	-200.000	0.002	0.064
-236.859	800.000	0.066	0.279
-235.844	99.641	-0.099	-0.113
-234.830	-105.129	0.033	0.007
-233.815	-65.908	-0.197	0.078
-232.800	383.934	0.077	-0.156
-231.786	234.310	-0.121	0.196
-230.771	-200.000	-0.021	0.176
-229.757	-34.675	0.124	-0.067
-228.742	-105.508	-0.265	-0.059
-227.727	616.899	0.106	0.261
-226.713	-144.533	0.294	-0.027
-225.698	-20.022	0.069	0.042
-224.684	-74.704	0.300	-0.107
-223.669	-117.477	0.314	0.056
-222.655	-200.000	-0.021	0.283
-221.640	-75.549	-0.260	-0.091
-220.625	-200.000	-0.042	-0.399
-219.611	-129.138	-0.357	0.049
-218.596	44.972	-0.088	0.080
-217.582	-113.366	0.254	0.049
-216.567	135.456	-0.133	-0.171
-215.552	-200.000	0.028	0.126
-214.538	-200.000	-0.036	-0.217
-213.523	-200.000	-0.008	0.086
-212.509	-200.000	0.087	-0.406
-211.494	101.931	-0.092	-0.106
-210.479	-199.076	0.161	-0.001
-209.465	800.000	-0.065	-0.204
-208.450	-125.727	0.134	-0.020
-207.436	-136.496	-0.376	0.043
-206.421	-120.908	0.131	0.022
-205.406	708.030	-0.021	0.054
-204.392	29.403	-0.089	0.075
-203.377	800.000	-0.012	0.044
-202.363	-98.199	-0.245	0.062
-201.348	341.801	0.115	0.222
-200.333	-82.179	-0.145	-0.047
-199.319	191.638	-0.086	-0.128
-198.304	-92.876	0.218	0.060
-197.290	503.595	-0.153	0.348
-196.275	-85.265	0.142	-0.044
-195.260	800.000	0.038	-0.108
-194.246	-23.476	0.035	0.021
-193.231	-67.849	-0.183	-0.071
-192.217	-200.000	-0.102	0.486
-191.202	-200.000	-0.015	-0.158
-190.187	800.000	-0.067	-0.189
-189.173	-200.000	-0.079	0.349
-188.158	-78.151	0.347	-0.118
-187.144	-101.456	-0.183	-0.044
-186.129	303.797	0.062	0.112
-185.114	-200.000	-0.037	0.169
-184.100	-118.414	0.341	-0.059
-183.085	86.524	-0.223	0.242
-182.071	-52.502	0.220	0.100
-181.056	800.000	0.087	0.275
-180.042	689.264	0.143	0.368
-179.027	90.206	0.082	-0.090
-178.012	-158.039	0.271	-0.016
-176.998	-200.000	-0.010	0.237
-175.983	-200.000	-0.029	-0.124
-174.969	800.000	0.062	0.245
-173.954	-74.085	0.292	0.104
-172.939	142.544	0.200	0.261
-171.925	800.000	-0.122	0.406
-170.910	800.000	-0.050	0.189
-169.896	-200.000	0.013	-0.061
-168.881	-54.949	-0.061	0.027
-167.866	61.496	-0.093	-0.091
-166.852	87.476	-0.150	0.163
-165.837	44.131	-0.223	0.201
-164.823	-200.000	-0.042	-0.363
-163.808	100.423	-0.072	-0.082
-162.793	800.000	0.072	-0.228
-161.779	-110.994	-0.245	0.050
-160.764	-102.848	0.472	-0.110
-159.750	48.799	0.261	-0.241
-158.735	-128.131	-0.445	-0.063
-157.720	-200.000	-0.032	0.385
-156.706	-6.009	-0.271	-0.182
-155.691	-41.342	0.130	0.066
-154.677	-78.457	0.182	0.061
-153.662	-200.000	0.054	0.364
-152.647	93.282	0.008	0.008
-151.633	241.450	-0.183	0.301
-150.618	-27.644	0.211	0.120
-149.604	-72.161	0.097	0.036
-148.589	-30.315	0.039	0.022
-147.574	800.000	-0.087	0.354
-146.560	-54.670	0.137	0.061
-145.545	-200.000	0.009	-0.054
-144.531	-101.799	-0.172	-0.041
-143.516	-200.000	0.067	0.313
-142.502	-9.577	-0.203	0.133
-141.487	-87.084	0.126	0.038
-140.472	800.000	0.037	-0.159
-139.458	-200.000	0.017	-0.090
-138.443	-200.000	0.011	0.191
-137.429	204.591	0.105	-0.161
-136.414	-200.000	-0.005	0.118
-135.399	78.951	0.197	-0.207
-134.385	-200.000	-0.038	0.288
-133.370	185.417	0.087	0.127
-132.356	4.999	0.213	-0.154
-131.341	-79.896	0.193	0.064
-130.326	15.151	0.543	-0.418
-129.312	86.887	-0.137	-0.149
-128.297	-49.557	0.105	0.049
-127.283	534.194	-0.136	-0.318
-126.268	-56.720	-0.071	0.031
-125.253	-114.724	0.241	0.045
-124.239	172.871	0.058	0.082
-123.224	800.000	-0.109	0.308
-122.210	113.687	-0.219	0.261
