DTS Sentinel unit serial number:	SN413079Multiplexer serial number:	ORYXHardware model number:	OX4-SRSoftware version number:	ORYX F/W v4.00 Oryx Data Collector v3.7.2.0data status	okinstallation	princeton_trtdifferential loss correction	single-endedforward channel	channel 1reverse channel	N/Adate	2019/09/12time	18:54:34forward acquisition time	15.00reverse acquisition time	0.00gamma	496.2192k internal	0.2319k external	0.2319temperature offset calibration	1.0105default loss term (dB/km)	0.3790temperature slope calibration	1.0000multiplexer offset coefficient	1.0000multiplexer slope coefficient	1.0000fibre end	0.00T internal ref (°C)	32.87T ext. ref 1 (°C)	3.01T ext. ref 2 (°C)	27.38length (m)	temperature (°C)	Stokes	anti-Stokes-747.200	36.023	-0.200	0.178
-746.185	287.247	-0.131	0.240
-745.171	-33.555	0.132	-0.074
-744.156	5.981	-0.345	-0.259
-743.142	44.734	-0.341	0.317
-742.127	-89.109	0.379	0.113
-741.112	-58.642	-0.695	0.304
-740.098	74.829	0.301	-0.320
-739.083	-83.099	0.663	0.216
-738.069	800.000	-0.009	0.035
-737.054	42.212	-0.175	0.160
-736.039	-78.390	-0.327	-0.113
-735.025	20.001	0.365	-0.298
-734.010	321.003	-0.391	-0.752
-732.996	122.127	0.245	-0.309
-731.981	-120.963	-0.621	-0.106
-730.966	-86.067	-0.047	0.015
-729.952	-21.041	0.607	-0.376
-728.937	-200.000	-0.102	-0.568
-727.923	322.189	-0.034	0.066
-726.908	-152.645	-0.482	-0.035
-725.894	69.256	0.336	-0.349
-724.879	-24.349	0.360	0.217
-723.864	-92.644	0.703	-0.199
-722.850	114.609	-0.706	-0.869
-721.835	-200.000	0.098	-0.646
-720.821	-11.376	0.385	-0.256
-719.806	163.564	-0.418	-0.594
-718.791	-200.000	0.071	-0.659
-717.777	-78.509	-0.262	-0.091
-716.762	69.858	-0.128	0.133
-715.748	4.366	-0.894	0.662
-714.733	28.621	-0.198	0.170
-713.718	144.097	-0.282	0.381
-712.704	-200.000	-0.641	-0.002
-711.689	-200.000	0.048	-0.338
-710.675	50.698	0.242	0.231
-709.660	-154.350	-0.488	0.033
-708.645	529.174	-0.243	0.579
-707.631	7.100	0.172	-0.129
-706.616	-101.865	-0.470	0.115
-705.602	-168.317	-0.344	-0.013
-704.587	13.875	0.817	-0.641
-703.572	175.019	-0.295	-0.432
-702.558	74.825	-0.087	0.092
-701.543	18.075	0.144	0.116
-700.529	-18.846	-0.791	0.498
-699.514	335.387	0.301	0.589
-698.499	-200.000	-0.036	-0.557
-697.485	216.010	-0.233	-0.374
-696.470	159.883	-0.100	0.141
-695.456	-127.927	-0.532	-0.077
-694.441	800.000	0.021	-0.070
-693.426	155.172	0.913	1.267
-692.412	-74.057	-0.536	-0.196
-691.397	399.828	-0.150	0.317
-690.383	-8.982	0.626	0.423
-689.368	800.000	-0.173	0.497
-688.354	313.860	0.263	0.500
-687.339	46.396	0.173	-0.162
-686.324	-24.303	0.532	-0.320
-685.310	336.187	-0.179	-0.351
-684.295	-51.878	0.805	0.378
-683.281	16.009	-0.208	0.166
-682.266	102.352	-0.346	-0.408
-681.251	10.011	0.061	0.046
-680.237	4.121	-0.364	0.269
-679.222	-87.993	0.351	-0.106
-678.208	800.000	0.041	-0.167
-677.193	34.078	-0.531	0.467
-676.178	-156.469	0.800	-0.050
-675.164	-110.221	0.581	-0.122
-674.149	-200.000	-0.049	0.320
-673.135	-165.925	-0.520	-0.022
-672.120	-105.237	0.510	0.117
-671.105	175.548	-0.102	0.150
-670.091	102.773	0.089	-0.105
-669.076	150.441	-0.259	-0.355
-668.062	-200.000	0.075	0.607
-667.047	-17.600	0.576	-0.365
-666.032	182.366	0.099	-0.147
-665.018	-200.000	-0.084	0.556
-664.003	5.347	-0.259	-0.193
-662.989	87.546	0.207	-0.231
-661.974	-158.686	0.627	-0.036
-660.959	-98.098	-0.532	0.138
-659.945	-200.000	0.079	-0.360
-658.930	49.918	-0.226	-0.215
-657.916	-200.000	0.152	0.760
-656.901	141.471	-0.297	-0.396
-655.886	21.608	-0.576	-0.472
-654.872	52.417	0.532	-0.512
-653.857	68.177	0.642	0.663
-652.843	67.005	-0.947	-0.972
-651.828	217.559	0.223	0.357
-650.814	214.689	0.210	0.336
-649.799	8.526	0.591	0.448
-648.784	173.507	0.381	0.553
-647.770	-116.897	-0.360	0.066
-646.755	-5.402	0.379	-0.262
-645.741	-200.000	0.164	-0.760
-644.726	-56.499	-1.245	0.557
-643.711	-162.706	-0.390	-0.019
-642.697	149.749	0.230	0.313
-641.682	580.915	0.310	-0.766
-640.668	67.076	0.492	-0.505
-639.653	91.295	-0.493	-0.558
-638.638	-143.165	-1.175	-0.114
-637.624	562.498	0.148	-0.361
-636.609	-200.000	0.196	0.924
-635.595	800.000	0.102	0.397
-634.580	800.000	-0.196	-0.710
-633.565	34.569	-0.688	-0.606
-632.551	72.873	0.153	0.160
-631.536	-90.502	0.699	-0.204
-630.522	-104.900	0.075	0.017
-629.507	-200.000	0.151	0.921
-628.492	171.311	0.025	0.037
-627.478	183.820	-0.548	0.816
-626.463	8.785	0.425	0.322
-625.449	318.940	-0.212	0.404
-624.434	-33.876	0.788	-0.437
-623.419	-165.551	0.722	0.032
-622.405	4.510	0.516	0.381
-621.390	28.549	-0.320	-0.272
-620.376	800.000	-0.254	0.864
-619.361	200.139	0.498	0.770
-618.346	351.446	-0.054	-0.107
-617.332	-200.000	0.022	-0.356
-616.317	-1.385	-0.376	-0.267
-615.303	-100.690	1.007	-0.250
-614.288	-189.500	-0.414	0.005
-613.273	363.767	-0.195	0.394
-612.259	-52.110	0.994	0.464
-611.244	103.625	-0.155	-0.183
-610.230	518.870	-0.276	0.649
-609.215	37.966	0.418	0.374
-608.201	-117.333	-0.102	0.019
-607.186	800.000	-0.119	0.364
-606.171	-173.407	-0.525	-0.016
-605.157	-151.689	-0.368	0.027
-604.142	-155.588	0.334	0.022
-603.128	800.000	-0.114	0.351
-602.113	-188.862	0.789	0.010
-601.098	-200.000	0.042	-0.621
-600.084	800.000	0.110	-0.325
-599.069	383.577	-0.198	0.411
-598.055	-43.929	-0.900	0.455
-597.040	800.000	0.086	-0.374
-596.025	-27.140	-1.119	0.656
-595.011	-43.434	0.370	0.188
-593.996	-12.916	0.648	-0.424
-592.982	193.246	0.102	-0.155
-591.967	143.347	-0.232	0.310
-590.952	442.573	-0.307	0.675
-589.938	585.540	0.276	-0.682
-588.923	210.910	0.327	-0.517
-587.909	86.747	-0.441	0.489
-586.894	76.366	-0.405	0.431
-585.879	122.799	-0.338	-0.425
-584.865	10.433	-0.221	0.169
-583.850	-200.000	0.099	-0.544
-582.836	39.457	-0.343	-0.309
-581.821	-21.742	0.608	-0.372
-580.806	5.609	-0.451	-0.335
-579.792	-82.947	0.820	-0.266
-578.777	248.598	-0.374	-0.636
-577.763	-200.000	0.085	0.958
-576.748	-200.000	-0.071	-0.698
-575.733	298.407	0.239	-0.442
-574.719	-200.000	0.049	-0.888
-573.704	-26.840	-0.448	0.263
-572.690	635.482	-0.348	0.888
-571.675	-200.000	0.088	-0.982
-570.661	-158.561	-0.297	0.017
-569.646	-61.120	0.525	0.223
-568.631	305.611	-0.374	-0.699
-567.617	100.183	-0.459	-0.535
-566.602	622.767	-0.322	0.814
-565.588	75.866	-0.352	-0.374
-564.573	-200.000	0.536	0.001
-563.558	747.189	-0.170	-0.459
-562.544	576.586	-0.131	0.322
-561.529	-67.048	0.176	0.070
-560.515	-52.053	0.502	0.234
-559.500	-3.726	-1.070	0.746
-558.485	-162.852	-0.621	-0.030
-557.471	-64.846	-0.236	-0.096
-556.456	-91.300	0.635	0.182
-555.442	674.769	0.247	-0.644
-554.427	135.268	-0.343	-0.448
-553.412	-200.000	-0.066	-0.329
-552.398	219.645	0.238	-0.383
-551.383	-76.503	-0.583	0.206
-550.369	-154.956	-0.650	0.043
-549.354	131.855	-0.071	0.091
-548.339	-93.457	-0.351	-0.098
-547.325	-200.000	0.040	0.445
-546.310	-200.000	-0.069	-0.452
-545.296	-134.520	-0.542	0.067
-544.281	203.636	0.512	0.796
-543.266	-200.000	0.070	-0.562
-542.252	192.218	0.134	-0.203
-541.237	-177.970	-0.127	0.003
-540.223	-200.000	0.059	-0.677
-539.208	-111.634	0.651	0.133
-538.193	441.821	0.048	-0.106
-537.179	-200.000	-0.720	-0.004
-536.164	23.864	0.302	0.250
-535.150	68.043	-0.526	0.540
-534.135	-5.952	-0.454	-0.312
-533.121	-200.000	-0.122	-0.737
-532.106	-58.340	-0.499	-0.218
-531.091	-22.090	-0.429	-0.261
-530.077	330.182	-0.224	-0.432
-529.062	-193.727	0.879	-0.007
-528.048	547.544	-0.213	-0.511
-527.033	207.435	0.646	1.010
-526.018	-90.637	1.070	0.310
-525.004	-8.248	-0.336	0.227
-523.989	-59.125	-0.817	0.353
-522.975	800.000	0.162	-0.685
-521.960	21.344	-0.671	0.547
-520.945	-200.000	0.011	0.489
-519.931	-200.000	0.032	-0.212
-518.916	-9.973	-0.102	-0.068
-517.902	54.460	0.341	-0.329
-516.887	-157.400	0.425	0.026
-515.872	-95.576	-0.349	0.094
-514.858	-32.343	-0.803	-0.449
-513.843	-42.714	-0.723	0.369
-512.829	77.404	-0.253	0.270
-511.814	78.339	0.135	0.144
-510.799	202.358	-0.351	-0.543
-509.785	-106.364	0.274	0.061
-508.770	800.000	-0.009	0.031
-507.756	619.224	0.132	0.332
-506.741	-32.749	0.488	0.272
-505.726	215.704	-0.517	0.822
-504.712	-72.544	-1.310	-0.485
-503.697	26.631	0.457	-0.383
-502.683	439.126	-0.592	-1.295
-501.668	732.069	-0.186	0.498
-500.653	45.824	-0.089	-0.082
-499.639	-200.000	0.203	1.183
-498.624	-182.842	0.427	-0.008
-497.610	264.379	0.401	0.699
-496.595	231.386	-0.098	0.160
-495.581	-86.296	-0.804	0.248
-494.566	-72.476	-0.342	-0.127
-493.551	-39.609	0.794	-0.416
-492.537	-196.551	0.701	0.005
-491.522	-200.000	-0.032	-0.833
-490.508	634.276	-0.232	-0.590
-489.493	-90.740	0.469	-0.136
-488.478	492.068	0.109	0.251
-487.464	-90.381	-0.582	0.169
-486.449	1.310	0.506	0.364
-485.435	249.823	0.291	0.494
-484.420	-96.899	0.624	0.164
-483.405	-72.479	0.275	-0.102
-482.391	83.280	-0.419	0.457
-481.376	-142.189	0.808	0.080
-480.362	-62.660	0.175	-0.073
-479.347	-136.966	0.602	-0.069
-478.332	-152.878	0.154	-0.011
-477.318	125.461	-0.596	-0.753
-476.303	79.377	0.454	0.488
-475.289	-200.000	-0.060	-0.462
-474.274	-72.686	0.271	0.100
-473.259	800.000	0.292	-1.016
-472.245	47.257	0.368	-0.343
-471.230	18.608	0.640	-0.512
-470.216	661.167	-0.223	-0.575
-469.201	55.064	0.235	-0.227
-468.186	15.506	0.631	-0.496
-467.172	-68.436	0.246	-0.096
-466.157	151.661	0.273	0.372
-465.143	-200.000	-0.076	-0.377
-464.128	3.166	-0.274	-0.200
-463.113	-56.633	0.276	0.122
-462.099	-112.794	-0.260	0.052
-461.084	22.507	0.287	-0.235
-460.070	-74.631	-0.084	0.030
-459.055	-124.535	1.064	0.165
-458.040	87.240	0.571	-0.632
-457.026	-53.385	0.096	0.044
-456.011	-87.881	-0.310	-0.093
-454.997	-195.152	-0.410	0.003
-453.982	82.819	0.565	0.614
-452.968	-11.401	-0.766	-0.504
-451.953	-70.417	0.505	-0.191
-450.938	-200.000	-0.055	0.483
-449.924	-71.511	0.683	0.256
-448.909	-200.000	0.189	1.088
-447.895	15.822	-0.207	0.163
-446.880	-200.000	-0.013	-0.121
-445.865	-132.855	-0.582	0.074
-444.851	-200.000	0.062	-0.399
-443.836	-200.000	0.006	0.765
-442.822	102.404	0.416	-0.486
-441.807	-200.000	-0.020	-0.459
-440.792	275.864	-0.446	-0.791
-439.778	800.000	0.132	-0.404
-438.763	29.078	0.406	0.344
-437.749	-82.601	-0.543	0.176
-436.734	-66.776	0.073	-0.029
-435.719	558.971	-0.279	-0.673
-434.705	-115.631	-0.201	-0.038
-433.690	800.000	0.140	0.526
-432.676	112.540	-0.673	0.814
-431.661	-200.000	0.095	-0.711
-430.646	218.234	-0.547	-0.872
-429.632	800.000	-0.320	-0.914
-428.617	-109.481	-0.380	-0.080
-427.603	728.610	-0.093	0.247
-426.588	-40.401	-0.543	0.282
-425.573	-200.000	0.011	0.085
-424.559	-123.582	-0.609	0.097
-423.544	-200.000	0.098	0.827
-422.530	133.151	-0.503	0.649
-421.515	215.104	0.333	-0.527
-420.500	-59.708	0.275	-0.118
-419.486	-141.216	0.858	0.087
-418.471	-111.660	-0.661	0.134
-417.457	-8.213	-0.147	0.099
-416.442	-19.439	-0.330	-0.204
-415.428	-68.883	-0.202	0.078
-414.413	-200.000	0.031	0.498
-413.398	514.737	0.253	-0.589
-412.384	192.288	0.442	-0.666
-411.369	-90.590	0.163	-0.047
-410.355	519.434	-0.082	-0.191
-409.340	349.250	-0.280	0.551
-408.325	267.386	0.089	-0.156
-407.311	-146.813	-0.479	-0.041
-406.296	-84.190	0.419	-0.133
-405.282	800.000	0.322	-1.318
-404.267	-200.000	0.095	0.553
-403.252	-87.988	-0.533	0.160
-402.238	491.629	-0.101	0.231
-401.223	-200.000	0.003	0.503
-400.209	-38.544	-0.741	-0.391
-399.194	126.591	0.286	-0.361
-398.179	-27.469	0.282	0.163
-397.165	276.270	-0.226	-0.400
-396.150	-123.442	0.932	-0.148
-395.136	-77.953	-0.730	0.251
-394.121	-29.625	-0.768	0.438
-393.106	-200.000	0.044	0.658
-392.092	32.398	0.293	-0.253
-391.077	-103.229	-0.379	0.089
-390.063	-120.059	-0.657	-0.112
-389.048	54.830	-0.746	0.718
-388.033	139.877	-0.298	-0.391
-387.019	-67.374	-0.118	-0.046
-386.004	-77.468	-0.424	-0.147
-384.990	-46.486	0.776	0.380
-383.975	21.356	0.664	0.538
-382.960	16.717	0.456	-0.360
-381.946	314.664	-0.405	0.761
-380.931	-27.183	-0.354	0.206
-379.917	-18.907	0.672	-0.417
-378.902	-22.323	-0.519	0.314
-377.888	-22.138	-0.057	0.035
-376.873	240.384	-0.058	0.097
-375.858	-95.087	0.557	-0.150
-374.844	395.108	-0.181	-0.376
-373.829	800.000	0.096	0.307
-372.815	-200.000	-0.056	-0.384
-371.800	-63.714	0.650	-0.266
-370.785	-147.483	-0.556	0.047
-369.771	-200.000	0.029	0.617
-368.756	-200.000	0.016	0.442
-367.742	-52.792	-0.461	0.212
-366.727	350.010	0.347	-0.684
-365.712	495.435	-0.401	-0.919
-364.698	-200.000	0.021	-0.839
-363.683	34.344	-0.255	0.222
-362.669	294.730	-0.189	-0.344
-361.654	-200.000	0.094	-0.567
-360.639	-112.749	-0.388	0.077
-359.625	410.460	-0.264	0.557
-358.610	-200.000	0.101	1.159
-357.596	-200.000	-0.075	-1.616
-356.581	-39.354	0.503	-0.263
-355.566	-89.646	0.527	-0.154
-354.552	800.000	-0.212	-0.745
-353.537	184.187	0.204	0.301
-352.523	800.000	0.386	-1.263
-351.508	400.246	-0.331	-0.692
-350.493	-200.000	-0.014	-0.760
-349.479	52.626	-0.648	-0.617
-348.464	47.965	-0.273	-0.254
-347.450	-200.000	-0.223	0.001
-346.435	45.712	0.513	-0.472
-345.420	-200.000	-0.014	-0.099
-344.406	-23.457	0.507	0.303
-343.391	22.021	0.449	0.365
-342.377	340.177	-0.152	0.295
-341.362	-89.829	-0.296	-0.086
-340.348	324.471	0.226	0.429
-339.333	-174.282	-0.282	0.008
-338.318	179.364	-0.216	-0.314
-337.304	800.000	0.092	0.301
-336.289	31.502	-0.440	-0.376
-335.275	-181.514	0.596	-0.012
-334.260	-200.000	0.006	0.759
-333.245	131.125	0.303	-0.387
-332.231	800.000	0.154	-0.471
-331.216	-200.000	0.189	-0.982
-330.202	-118.101	0.567	0.101
-329.187	-50.039	0.631	0.298
-328.172	800.000	0.125	0.374
-327.158	-200.000	0.081	0.389
-326.143	800.000	-0.218	0.879
-325.129	172.413	-0.458	0.656
-324.114	800.000	0.217	0.622
-323.099	333.235	0.046	0.089
-322.085	-200.000	0.024	0.400
-321.070	262.812	-0.125	0.217
-320.056	-7.380	0.522	0.351
-319.041	-107.907	-1.251	0.271
-318.026	-107.138	0.491	-0.108
-317.012	638.112	-0.321	-0.812
-315.997	141.213	0.411	0.541
-314.983	-137.914	-0.214	-0.024
-313.968	218.203	0.795	1.262
-312.953	-19.650	0.165	-0.101
-311.939	2.748	0.163	-0.118
-310.924	25.980	-0.588	-0.488
-309.910	-44.109	0.315	-0.157
-308.895	800.000	0.209	0.578
-307.880	800.000	0.077	0.255
-306.866	2.137	0.680	0.489
-305.851	-60.446	-0.731	0.309
-304.837	484.443	-0.104	-0.236
-303.822	231.010	-0.337	-0.548
-302.807	97.866	0.201	-0.230
-301.793	-119.587	0.741	-0.128
-300.778	-70.785	0.224	0.084
-299.764	-200.000	-0.186	1.188
-298.749	-42.661	1.075	0.544
-297.735	78.826	0.735	-0.782
-296.720	60.493	0.279	0.274
-295.705	-74.454	0.218	-0.078
-294.691	-42.641	-0.397	0.201
-293.676	-144.857	-0.343	0.031
-292.662	-131.436	-0.302	-0.040
-291.647	-35.690	-0.786	-0.423
-290.632	366.945	-0.243	-0.487
-289.618	191.940	-0.323	-0.484
-288.603	-200.000	0.022	-0.197
-287.589	14.737	-0.640	-0.497
-286.574	-112.031	0.526	-0.105
-285.559	94.497	0.327	-0.369
-284.545	-131.648	-0.644	-0.084
-283.530	-131.740	0.776	-0.101
-282.516	2.150	-0.474	0.340
-281.501	-200.000	0.025	-0.548
-280.486	-129.060	-0.387	0.054
-279.472	108.197	0.585	0.693
-278.457	65.428	-0.145	-0.146
-277.443	-200.000	0.007	0.639
-276.428	31.155	0.255	-0.217
-275.413	403.817	0.056	0.118
-274.399	106.849	0.499	0.588
-273.384	-126.718	0.272	0.040
-272.370	65.695	0.067	0.067
-271.355	-200.000	-0.074	0.878
-270.340	14.258	0.887	-0.687
-269.326	2.100	-0.384	0.276
-268.311	-200.000	-0.063	0.402
-267.297	-113.524	-0.115	-0.022
-266.282	-200.000	0.039	-0.383
-265.267	-200.000	0.125	0.845
-264.253	-25.805	0.456	0.267
-263.238	-164.835	1.274	0.057
-262.224	-200.000	-0.049	-0.452
-261.209	-200.000	-0.117	1.088
-260.195	-200.000	0.079	-0.494
-259.180	-200.000	-0.070	0.327
-258.165	-31.885	-0.733	0.407
-257.151	363.299	-0.201	0.401
-256.136	25.793	-0.245	0.203
-255.122	27.319	-0.342	-0.285
-254.107	-132.979	1.346	0.170
-253.092	-200.000	-0.026	0.217
-252.078	-126.676	-0.682	0.100
-251.063	310.303	0.088	0.164
-250.049	-96.298	-0.015	0.004
-249.034	144.541	-0.705	-0.935
-248.019	-145.241	0.772	0.069
-247.005	-87.894	-0.436	-0.130
-245.990	-200.000	-0.093	-0.460
-244.976	203.277	-0.255	-0.392
-243.961	124.157	0.372	-0.463
-242.946	800.000	0.319	1.243
-241.932	-200.000	0.006	0.240
-240.917	187.740	0.067	-0.099
-239.903	-39.033	-0.402	0.210
-238.888	72.968	-0.602	-0.624
-237.873	-35.831	1.035	-0.556
-236.859	498.530	-0.431	-0.983
-235.844	239.627	0.210	0.346
-234.830	240.661	-0.311	0.515
-233.815	40.814	0.294	0.263
-232.800	-101.896	-0.431	-0.103
-231.786	-10.359	-0.601	-0.395
-230.771	-8.571	0.249	0.166
-229.757	-95.061	-0.227	0.061
-228.742	-119.627	0.481	0.082
-227.727	-105.340	-0.948	-0.214
-226.713	134.171	0.092	-0.118
-225.698	224.079	-0.127	-0.203
-224.684	-200.000	0.037	-0.428
-223.669	-200.000	-0.050	-0.296
-222.655	-71.898	-0.623	-0.230
-221.640	800.000	-0.255	-0.761
-220.625	45.406	0.177	-0.162
-219.611	-86.496	-0.465	0.141
-218.596	9.673	0.602	0.452
-217.582	-200.000	-0.017	-0.220
-216.567	-87.543	-0.404	0.121
-215.552	-64.284	-0.457	-0.185
-214.538	-200.000	-0.122	-0.728
-213.523	-92.375	-0.625	0.174
-212.509	-80.021	0.815	0.271
-211.494	-56.898	0.466	0.204
-210.479	5.722	-0.191	-0.140
-209.465	-71.717	0.329	0.122
-208.450	167.521	-0.199	0.280
-207.436	-136.727	0.667	0.076
-206.421	800.000	0.224	0.740
-205.406	59.350	-0.694	0.677
-204.392	-137.512	-0.129	-0.014
-203.377	800.000	0.117	-0.363
-202.363	-91.254	-1.035	0.293
-201.348	-180.820	0.603	-0.012
-200.333	103.402	0.204	-0.237
-199.319	-166.913	-0.163	-0.007
-198.304	402.762	0.576	1.199
-197.290	-137.665	-0.773	0.086
-196.275	800.000	0.112	0.368
-195.260	-86.708	-0.537	0.163
-194.246	-21.365	0.457	0.276
-193.231	-47.694	0.678	0.325
-192.217	246.868	0.209	-0.349
-191.202	-0.645	-0.367	0.257
-190.187	0.571	0.888	-0.628
-189.173	-200.000	-0.021	0.564
-188.158	204.201	-0.653	-1.001
-187.144	43.791	0.854	-0.774
-186.129	-10.439	0.818	0.536
-185.114	-162.221	0.191	-0.009
-184.100	-200.000	-0.032	-0.974
-183.085	-91.646	0.364	0.102
-182.071	-63.354	-0.769	-0.313
-181.056	-16.401	-0.431	0.270
-180.042	405.298	-0.292	-0.608
-179.027	-113.242	0.909	-0.177
-178.012	-33.192	-0.369	0.202
-176.998	369.259	0.676	1.353
-175.983	-125.373	0.940	-0.142
-174.969	-93.963	0.192	0.052
-173.954	574.055	-0.259	0.624
-172.939	453.666	0.171	0.374
-171.925	12.273	-0.280	-0.213
-170.910	-200.000	0.019	0.282
-169.896	127.575	0.154	-0.194
-168.881	-27.696	-0.383	0.220
-167.866	206.034	-0.348	-0.535
-166.852	77.636	0.343	0.362
-165.837	-113.987	-0.527	0.101
-164.823	-37.207	0.436	0.231
-163.808	-200.000	-0.013	-0.710
-162.793	-200.000	-0.025	0.254
-161.779	-83.056	0.830	-0.264
-160.764	-106.077	-0.762	0.169
-159.750	-51.452	-0.427	0.197
-158.735	-200.000	0.101	0.714
-157.720	-200.000	0.123	1.283
-156.706	214.776	0.389	0.609
-155.691	-195.857	-0.464	0.003
-154.677	-44.569	0.881	0.435
-153.662	-5.379	0.385	0.261
-152.647	8.575	-0.739	-0.550
-151.633	208.440	-0.191	-0.296
-150.618	-112.023	0.329	0.065
-149.604	-200.000	0.010	-0.356
-148.589	800.000	-0.239	-0.854
-147.574	721.524	-0.241	-0.634
-146.560	-20.275	0.577	-0.351
-145.545	-200.000	0.013	0.243
-144.531	-200.000	0.034	0.610
-143.516	-84.730	0.596	-0.185
-142.502	61.771	-0.404	-0.397
-141.487	727.323	-0.147	0.388
-140.472	506.085	0.269	0.615
-139.458	-59.766	-0.640	-0.271
-138.443	51.217	0.672	0.630
-137.429	-19.972	-0.823	-0.502
-136.414	-61.707	-0.212	0.088
-135.399	272.868	0.303	-0.528
-134.385	-117.972	0.151	0.027
-133.370	-200.000	-0.050	-0.466
-132.356	166.784	0.118	0.165
-131.341	-176.246	0.586	0.015
-130.326	-126.153	-1.006	0.149
-129.312	-147.007	-0.215	-0.018
-128.297	-28.920	-0.627	0.356
-127.283	71.931	0.500	-0.514
-126.268	153.676	-0.207	0.279
-125.253	67.206	0.906	-0.912
-124.239	100.408	0.315	-0.361
-123.224	-143.251	-0.010	-0.001
-122.210	81.810	-0.225	-0.241
-121.195	-85.489	0.194	0.060
-120.180	-200.000	-0.208	-1.044
