DTS Sentinel unit serial number:	SN413079Multiplexer serial number:	ORYXHardware model number:	OX4-SRSoftware version number:	ORYX F/W v4.00 Oryx Data Collector v3.7.2.0data status	okinstallation	princeton_trtdifferential loss correction	single-endedforward channel	channel 1reverse channel	N/Adate	2019/09/12time	03:00:11forward acquisition time	60.00reverse acquisition time	0.00gamma	496.2192k internal	0.2322k external	0.2322temperature offset calibration	1.0074default loss term (dB/km)	0.3790temperature slope calibration	1.0000multiplexer offset coefficient	1.0000multiplexer slope coefficient	1.0000fibre end	0.00T internal ref (°C)	32.31T ext. ref 1 (°C)	2.12T ext. ref 2 (°C)	27.04length (m)	temperature (°C)	Stokes	anti-Stokes-747.200	-15.484	-0.114	-0.074
-746.185	-123.563	0.212	0.034
-745.171	562.830	0.028	-0.069
-744.156	-81.186	0.094	0.031
-743.142	-147.228	0.349	0.030
-742.127	-200.000	-0.004	0.038
-741.112	-200.000	0.352	0.000
-740.098	-200.000	0.005	0.238
-739.083	-88.044	0.333	0.101
-738.069	-142.223	0.133	-0.013
-737.054	-79.753	-0.174	-0.059
-736.039	-113.335	-0.041	-0.008
-735.025	-133.726	0.284	0.036
-734.010	-46.247	-0.248	0.123
-732.996	245.019	-0.006	-0.009
-731.981	11.162	-0.044	-0.034
-730.966	118.190	0.079	-0.099
-729.952	219.172	0.115	0.186
-728.937	145.525	-0.204	0.276
-727.923	3.383	-0.188	0.138
-726.908	-85.481	-0.309	-0.097
-725.894	-200.000	0.036	0.169
-724.879	389.550	-0.078	0.162
-723.864	-200.000	0.017	0.093
-722.850	611.395	0.033	0.082
-721.835	-21.049	-0.273	0.169
-720.821	-21.519	-0.398	0.245
-719.806	-151.101	0.522	-0.040
-718.791	800.000	-0.017	-0.059
-717.777	436.314	-0.092	-0.203
-716.762	-126.033	-0.129	0.020
-715.748	-200.000	0.004	0.428
-714.733	-161.009	0.098	-0.005
-713.718	-123.948	0.038	0.006
-712.704	297.645	0.155	0.287
-711.689	310.010	0.065	-0.122
-710.675	66.572	-0.148	-0.152
-709.660	-75.467	-0.068	-0.024
-708.645	-200.000	0.032	0.210
-707.631	17.763	-0.144	0.116
-706.616	-200.000	-0.009	-0.075
-705.602	800.000	0.078	0.245
-704.587	-156.331	-0.026	0.002
-703.572	800.000	-0.045	0.165
-702.558	659.648	-0.202	-0.523
-701.543	238.574	0.054	0.090
-700.529	-29.885	-0.244	0.140
-699.514	800.000	-0.168	0.516
-698.499	800.000	0.064	0.182
-697.485	-175.238	0.375	-0.010
-696.470	3.702	0.242	-0.178
-695.456	14.706	0.222	0.175
-694.441	351.795	-0.153	-0.307
-693.426	-185.457	0.432	0.007
-692.412	-200.000	0.010	-0.414
-691.397	244.108	-0.104	-0.176
-690.383	53.616	0.274	-0.265
-689.368	-200.000	-0.025	-0.163
-688.354	82.946	0.086	-0.095
-687.339	-123.925	0.051	-0.008
-686.324	-77.170	-0.201	0.071
-685.310	489.183	-0.059	-0.136
-684.295	9.691	0.114	-0.087
-683.281	119.709	-0.211	-0.264
-682.266	-64.660	-0.259	0.106
-681.251	-5.971	0.167	0.115
-680.237	15.440	0.153	-0.121
-679.222	-139.678	0.304	-0.033
-678.208	-140.962	0.123	-0.013
-677.193	-86.836	0.302	-0.093
-676.178	-130.909	-0.150	0.020
-675.164	640.016	0.076	-0.194
-674.149	-200.000	-0.005	-0.054
-673.135	-67.711	-0.325	0.128
-672.120	304.626	0.094	-0.175
-671.105	-143.746	0.257	0.024
-670.091	-200.000	-0.035	-0.164
-669.076	-74.137	0.152	-0.055
-668.062	498.857	0.092	-0.214
-667.047	9.679	-0.140	0.107
-666.032	-106.852	0.406	-0.091
-665.018	800.000	-0.058	-0.163
-664.003	-200.000	-0.061	-0.364
-662.989	282.154	-0.158	-0.285
-661.974	249.390	0.095	-0.162
-660.959	-46.143	0.070	0.035
-659.945	132.449	-0.138	0.179
-658.930	-75.953	-0.167	-0.059
-657.916	-160.579	-0.072	0.004
-656.901	-20.229	0.106	-0.066
-655.886	-13.104	-0.213	0.140
-654.872	-173.015	0.267	0.008
-653.857	-87.627	-0.230	-0.070
-652.843	-130.842	0.151	0.020
-651.828	487.264	-0.042	0.097
-650.814	-69.708	0.151	-0.058
-649.799	162.323	0.248	0.350
-648.784	-200.000	0.083	-0.486
-647.770	-102.096	-0.114	-0.028
-646.755	-69.413	0.351	-0.135
-645.741	389.806	0.035	0.073
-644.726	86.866	-0.106	0.118
-643.711	-94.091	0.137	-0.038
-642.697	262.405	0.071	-0.124
-641.682	-181.657	-0.199	0.004
-640.668	-100.975	-0.213	0.053
-639.653	-100.687	-0.256	0.063
-638.638	446.641	0.044	0.097
-637.624	300.836	-0.020	-0.037
-636.609	-4.530	-0.184	0.128
-635.595	800.000	0.073	-0.277
-634.580	6.938	-0.252	-0.189
-633.565	188.216	-0.303	-0.456
-632.551	465.716	0.085	0.191
-631.536	43.590	-0.061	0.056
-630.522	-200.000	0.000	0.079
-629.507	-200.000	-0.026	-0.151
-628.492	180.060	-0.124	-0.183
-627.478	146.995	-0.177	-0.240
-626.463	-200.000	-0.058	0.275
-625.449	590.929	0.053	0.131
-624.434	-200.000	-0.016	-0.174
-623.419	-25.028	0.240	-0.143
-622.405	776.696	-0.013	0.035
-621.390	800.000	-0.064	-0.192
-620.376	-35.625	-0.305	-0.166
-619.361	38.099	-0.123	-0.110
-618.346	649.515	0.123	-0.317
-617.332	-157.294	-0.330	0.020
-616.317	-89.584	-0.273	-0.080
-615.303	328.460	-0.109	-0.211
-614.288	-52.906	-0.283	-0.131
-613.273	-105.522	-0.584	0.133
-612.259	-192.772	-0.288	0.003
-611.244	800.000	0.084	-0.274
-610.230	-119.775	0.161	-0.028
-609.215	-121.421	-0.310	-0.052
-608.201	-24.526	0.048	0.029
-607.186	271.548	-0.075	-0.133
-606.171	-37.338	0.147	-0.079
-605.157	667.944	0.111	-0.289
-604.142	-91.485	-0.319	0.091
-603.128	-22.212	-0.276	-0.168
-602.113	-200.000	-0.056	-0.341
-601.098	-119.400	-0.143	-0.025
-600.084	754.071	0.205	0.558
-599.069	-200.000	-0.030	-0.212
-598.055	-92.558	0.076	-0.021
-597.040	800.000	0.064	0.194
-596.025	753.396	0.052	-0.141
-595.011	-34.924	0.069	-0.038
-593.996	-139.612	-0.659	-0.071
-592.982	-64.930	-0.111	0.045
-591.967	-157.562	0.158	0.009
-590.952	174.694	-0.109	0.158
-589.938	-2.778	0.213	0.150
-588.923	-21.401	-0.236	0.144
-587.909	-200.000	-0.007	-0.122
-586.894	55.698	0.065	0.063
-585.879	68.893	-0.047	-0.048
-584.865	800.000	-0.041	0.144
-583.850	-16.845	-0.162	0.103
-582.836	-82.186	-0.461	-0.151
-581.821	-33.562	0.298	-0.165
-580.806	724.954	0.097	0.260
-579.792	-50.744	0.030	-0.014
-578.777	800.000	-0.043	0.122
-577.763	-76.599	-0.045	-0.016
-576.748	245.712	0.187	0.316
-575.733	-46.782	0.217	0.106
-574.719	198.765	-0.122	-0.187
-573.704	375.724	-0.167	-0.341
-572.690	-200.000	-0.031	0.613
-571.675	306.840	-0.119	0.223
-570.661	32.729	0.206	-0.179
-569.646	-0.596	-0.076	-0.054
-568.631	3.657	-0.171	0.125
-567.617	800.000	-0.063	-0.180
-566.602	-100.008	-0.185	0.046
-565.588	-78.523	-0.342	-0.118
-564.573	-73.383	-0.174	0.064
-563.558	-200.000	-0.021	0.104
-562.544	-200.000	0.012	-0.096
-561.529	-76.457	0.292	0.103
-560.515	67.889	0.088	0.090
-559.500	-44.121	0.129	-0.065
-558.485	-200.000	-0.022	-0.323
-557.471	316.034	-0.053	0.100
-556.456	800.000	0.048	-0.197
-555.442	147.245	-0.258	-0.348
-554.427	-34.932	0.151	-0.083
-553.412	446.598	0.034	-0.076
-552.398	-133.087	0.067	0.008
-551.383	-200.000	0.039	-0.243
-550.369	-17.071	0.166	-0.105
-549.354	195.121	-0.140	-0.213
-548.339	-140.334	0.221	0.023
-547.325	800.000	0.093	-0.334
-546.310	309.665	-0.071	-0.134
-545.296	-200.000	0.008	0.047
-544.281	13.344	0.241	-0.187
-543.266	-27.410	0.234	0.136
-542.252	728.528	-0.066	-0.177
-541.237	177.251	-0.060	-0.088
-540.223	-157.196	0.215	-0.013
-539.208	-133.486	0.551	-0.069
-538.193	338.997	-0.131	-0.255
-537.179	-200.000	-0.014	0.308
-536.164	800.000	0.060	0.249
-535.150	-100.605	0.490	0.121
-534.135	800.000	0.085	-0.269
-533.121	-79.648	0.275	-0.093
-532.106	77.499	-0.070	0.074
-531.091	800.000	-0.014	-0.059
-530.077	-200.000	-0.015	-0.186
-529.062	207.518	-0.182	-0.284
-528.048	-107.651	0.155	-0.034
-527.033	800.000	-0.037	-0.156
-526.018	-62.866	0.198	0.082
-525.004	561.292	0.086	0.208
-523.989	-200.000	-0.033	-0.320
-522.975	-59.045	0.168	-0.073
-521.960	337.485	0.115	-0.223
-520.945	20.706	0.072	-0.059
-519.931	-200.000	-0.033	0.282
-518.916	19.966	-0.333	0.269
-517.902	-135.144	0.321	0.039
-516.887	-200.000	0.056	0.323
-515.872	-145.489	0.479	-0.043
-514.858	-200.000	0.080	0.362
-513.843	800.000	0.021	-0.073
-512.829	-62.000	-0.231	-0.097
-511.814	80.034	-0.070	0.075
-510.799	-200.000	0.117	0.000
-509.785	39.537	0.102	0.092
-508.770	496.202	-0.186	0.428
-507.756	225.777	-0.145	0.235
-506.741	-120.462	-0.321	-0.055
-505.726	48.877	-0.316	-0.297
-504.712	-32.924	0.053	-0.030
-503.697	144.564	0.124	0.165
-502.683	-200.000	0.002	-0.044
-501.668	420.658	0.142	0.305
-500.653	-44.412	-0.246	-0.123
-499.639	10.048	-0.243	-0.185
-498.624	124.994	-0.110	-0.139
-497.610	105.530	-0.142	0.168
-496.595	-200.000	-0.031	-0.244
-495.581	-182.871	-0.339	0.006
-494.566	-200.000	-0.005	0.248
-493.551	242.686	0.096	-0.162
-492.537	-200.000	-0.023	-0.226
-491.522	-200.000	0.013	-0.100
-490.508	221.395	0.131	-0.211
-489.493	-15.957	0.109	0.070
-488.478	-170.469	-0.393	-0.014
-487.464	-32.108	0.021	-0.012
-486.449	2.986	0.266	-0.193
-485.435	-100.113	-0.143	0.036
-484.420	-200.000	-0.042	0.408
-483.405	800.000	-0.109	-0.371
-482.391	-40.547	-0.216	-0.112
-481.376	-18.279	0.073	-0.046
-480.362	-123.853	0.243	0.038
-479.347	292.596	-0.156	0.284
-478.332	-200.000	-0.006	-0.072
-477.318	156.747	-0.058	-0.080
-476.303	96.602	-0.119	-0.136
-475.289	14.932	-0.221	0.173
-474.274	-30.377	-0.255	-0.145
-473.259	-118.163	0.091	0.016
-472.245	22.310	-0.340	-0.277
-471.230	63.529	-0.049	0.049
-470.216	183.714	0.101	0.150
-469.201	-74.942	0.473	0.169
-468.186	-200.000	0.005	0.043
-467.172	440.957	-0.131	-0.287
-466.157	137.276	0.107	-0.140
-465.143	-57.845	0.206	0.090
-464.128	-118.288	-0.074	0.013
-463.113	-120.460	0.213	-0.036
-462.099	-128.352	0.257	-0.037
-461.084	230.727	0.109	-0.179
-460.070	-145.435	-0.351	-0.032
-459.055	264.077	0.109	0.190
-458.040	-70.187	-0.282	0.107
-457.026	45.694	-0.197	0.182
-456.011	-55.084	-0.246	0.111
-454.997	-136.085	-0.319	-0.037
-453.982	-159.145	-0.276	0.016
-452.968	-200.000	-0.018	-0.083
-451.953	-200.000	-0.002	-0.448
-450.938	-59.393	0.291	0.125
-449.924	800.000	0.028	0.110
-448.909	800.000	0.051	-0.148
-447.895	112.890	0.161	0.195
-446.880	9.238	-0.198	-0.149
-445.865	800.000	0.111	-0.322
-444.851	-200.000	-0.022	-0.166
-443.836	-21.728	-0.048	-0.029
-442.822	-61.059	-0.204	-0.086
-441.807	-200.000	-0.036	0.245
-440.792	303.606	0.060	-0.112
-439.778	-52.253	0.159	0.074
-438.763	91.671	-0.135	-0.151
-437.749	-126.137	0.089	-0.013
-436.734	-200.000	0.006	0.140
-435.719	18.865	0.160	-0.128
-434.705	757.630	-0.136	0.368
-433.690	295.641	0.039	0.071
-432.676	-200.000	-0.007	0.134
-431.661	-200.000	-0.050	-0.225
-430.646	-119.560	-0.264	-0.046
-429.632	-146.725	0.367	-0.032
-428.617	-105.653	-0.164	-0.037
-427.603	-177.789	0.249	-0.006
-426.588	-11.637	0.141	0.092
-425.573	-158.428	-0.172	0.010
-424.559	-200.000	-0.050	0.249
-423.544	745.383	-0.075	0.201
-422.530	800.000	-0.115	0.338
-421.515	-23.397	0.338	-0.203
-420.500	-74.562	-0.440	-0.158
-419.486	-200.000	0.034	0.272
-418.471	-72.354	-0.207	-0.076
-417.457	-159.543	0.155	0.009
-416.442	-105.635	-0.024	-0.005
-415.428	-128.295	-0.113	-0.016
-414.413	-200.000	-0.001	-0.141
-413.398	144.445	-0.213	0.284
-412.384	48.841	-0.145	0.136
-411.369	-62.648	0.165	0.068
-410.355	800.000	0.079	-0.286
-409.340	-145.762	0.210	0.019
-408.325	-23.971	-0.112	0.067
-407.311	139.273	0.063	0.083
-406.296	800.000	0.017	0.074
-405.282	219.962	-0.016	-0.026
-404.267	800.000	-0.042	0.163
-403.252	37.942	-0.059	-0.052
-402.238	-129.663	-0.391	0.054
-401.223	-75.680	-0.091	0.032
-400.209	-35.097	-0.133	0.072
-399.194	122.688	0.050	0.063
-398.179	-200.000	-0.008	0.076
-397.165	428.143	0.070	-0.150
-396.150	-200.000	-0.020	-0.117
-395.136	-154.936	0.114	-0.007
-394.121	-151.136	0.165	-0.012
-393.106	-190.811	0.158	-0.002
-392.092	-116.790	0.072	0.013
-391.077	97.508	-0.111	-0.127
-390.063	47.831	-0.092	0.085
-389.048	-160.869	-0.115	0.006
-388.033	-57.027	-0.254	0.111
-387.019	-118.116	-0.182	-0.032
-386.004	-108.689	-0.280	0.060
-384.990	20.462	-0.207	0.166
-383.975	-13.554	0.116	-0.075
-382.960	780.483	0.029	0.079
-381.946	761.201	0.102	0.275
-380.931	668.987	-0.011	-0.027
-379.917	-200.000	0.077	-0.389
-378.902	388.213	-0.186	0.383
-377.888	13.946	0.209	0.162
-376.873	11.282	0.173	-0.132
-375.858	161.189	0.187	-0.260
-374.844	-85.138	0.328	0.102
-373.829	-20.857	0.256	-0.156
-372.815	-200.000	0.000	-0.131
-371.800	-65.531	0.212	-0.085
-370.785	-55.414	0.218	0.098
-369.771	-4.521	-0.045	0.031
-368.756	-134.486	-0.157	0.019
-367.742	-31.145	0.098	-0.055
-366.727	81.027	-0.076	0.082
-365.712	-111.353	-0.228	-0.046
-364.698	-2.959	-0.184	0.128
-363.683	-200.000	0.004	-0.058
-362.669	588.917	-0.058	-0.141
-361.654	-200.000	0.014	0.358
-360.639	-200.000	0.031	0.250
-359.625	88.039	0.129	-0.142
-358.610	388.792	0.086	0.176
-357.596	-200.000	0.003	-0.134
-356.581	800.000	0.082	0.309
-355.566	196.104	0.204	-0.309
-354.552	96.734	0.186	0.212
-353.537	179.263	0.238	-0.346
-352.523	482.484	0.055	0.125
-351.508	-165.649	0.245	0.011
-350.493	-200.000	-0.071	0.347
-349.479	800.000	-0.043	-0.165
-348.464	162.241	0.092	0.128
-347.450	800.000	0.008	-0.030
-346.435	230.396	0.071	0.115
-345.420	184.548	0.113	-0.166
-344.406	258.552	0.028	0.048
-343.391	8.293	-0.104	-0.077
-342.377	56.966	0.146	-0.141
-341.362	800.000	-0.143	-0.502
-340.348	-200.000	-0.037	-0.341
-339.333	800.000	0.085	-0.286
-338.318	118.868	-0.204	-0.251
-337.304	-100.724	-0.240	0.059
-336.289	51.555	0.362	-0.343
-335.275	-39.099	0.290	-0.152
-334.260	43.539	-0.062	-0.057
-333.245	446.415	0.109	0.238
-332.231	125.778	0.063	-0.079
-331.216	51.376	0.331	0.313
-330.202	30.592	-0.244	-0.208
-329.187	278.129	-0.131	0.232
-328.172	-8.198	0.204	-0.137
-327.158	565.841	0.067	-0.162
-326.143	198.477	0.130	0.198
-325.129	19.933	0.122	-0.097
-324.114	209.753	-0.105	0.163
-323.099	-200.000	0.006	0.183
-322.085	-200.000	-0.065	0.292
-321.070	800.000	-0.094	0.266
-320.056	-121.260	-0.173	0.029
-319.041	168.218	-0.131	-0.186
-318.026	256.257	-0.054	0.092
-317.012	-200.000	0.033	-0.287
-315.997	-20.195	0.077	0.047
-314.983	-40.329	-0.144	0.074
-313.968	52.868	0.287	0.273
-312.953	-200.000	0.034	0.221
-311.939	231.384	0.165	0.269
-310.924	-200.000	0.019	-0.201
-309.910	-116.703	0.139	-0.025
-308.895	-66.608	0.566	0.223
-307.880	74.354	0.192	0.201
-306.866	42.051	-0.283	0.255
-305.851	193.273	-0.142	0.213
-304.837	2.794	0.210	-0.151
-303.822	-81.595	-0.169	0.055
-302.807	-107.970	0.559	0.121
-301.793	94.078	0.209	-0.235
-300.778	24.660	0.309	0.254
-299.764	313.076	-0.062	-0.115
-298.749	800.000	-0.100	0.425
-297.735	-31.313	-0.254	0.142
-296.720	691.665	0.078	-0.202
-295.705	648.246	-0.099	-0.252
-294.691	-200.000	-0.010	0.150
-293.676	7.260	0.094	-0.069
-292.662	-200.000	0.009	0.051
-291.647	-159.987	-0.195	-0.011
-290.632	625.493	-0.034	-0.086
-289.618	-73.554	0.343	0.124
-288.603	-9.424	-0.151	0.100
-287.589	-58.177	-0.277	0.120
-286.574	-200.000	0.005	0.110
-285.559	58.333	0.216	-0.210
-284.545	57.282	0.070	-0.068
-283.530	-111.024	0.272	-0.055
-282.516	-99.516	-0.421	0.105
-281.501	-87.473	0.213	0.064
-280.486	-132.544	0.139	-0.018
-279.472	800.000	-0.048	-0.137
-278.457	54.986	-0.134	0.129
-277.443	-42.718	0.115	0.058
-276.428	-200.000	0.046	0.311
-275.413	800.000	-0.012	-0.046
-274.399	-200.000	-0.085	0.415
-273.384	-16.522	-0.132	0.083
-272.370	-123.457	0.182	-0.029
-271.355	-133.189	0.068	-0.009
-270.340	-81.423	-0.280	-0.091
-269.326	-177.004	-0.133	-0.003
-268.311	122.159	0.285	0.353
-267.297	795.069	0.048	-0.131
-266.282	-181.494	0.238	-0.005
-265.267	-11.921	0.136	0.089
-264.253	-200.000	-0.018	-0.138
-263.238	-119.537	-0.436	-0.075
-262.224	-41.289	0.198	0.101
-261.209	49.577	-0.101	-0.094
-260.195	258.494	0.344	-0.587
-259.180	95.717	-0.052	0.059
-258.165	259.693	-0.183	0.313
-257.151	262.870	0.129	0.222
-256.136	800.000	-0.040	-0.117
-255.122	38.793	0.223	0.197
-254.107	-200.000	-0.029	-0.189
-253.092	800.000	-0.066	0.230
-252.078	800.000	0.135	0.383
-251.063	-200.000	0.021	-0.375
-250.049	791.276	-0.040	0.110
-249.034	252.903	0.057	-0.096
-248.019	277.486	0.088	0.156
-247.005	-88.535	0.136	-0.040
-245.990	-7.927	-0.479	-0.320
-244.976	-136.255	-0.197	-0.023
-243.961	331.410	0.071	-0.136
-242.946	-82.344	0.063	0.020
-241.932	-56.500	-0.170	0.075
-240.917	-131.962	0.020	0.003
-239.903	-92.891	-0.538	0.149
-238.888	408.371	0.117	0.244
-237.873	-127.468	0.211	-0.030
-236.859	35.540	0.175	0.152
-235.844	-119.805	0.272	0.046
-234.830	402.517	0.099	0.207
-233.815	800.000	-0.056	0.168
-232.800	136.183	0.152	0.197
-231.786	-47.171	0.223	0.107
-230.771	437.224	-0.180	-0.389
-229.757	79.938	0.371	-0.395
-228.742	161.814	-0.009	-0.013
-227.727	28.819	0.415	0.348
-226.713	800.000	0.086	0.262
-225.698	-133.640	-0.362	0.045
-224.684	-67.530	-0.055	-0.021
-223.669	45.454	-0.083	0.075
-222.655	41.152	0.213	0.191
-221.640	-116.779	-0.174	0.032
-220.625	136.814	0.071	-0.092
-219.611	-63.910	-0.126	0.051
-218.596	-10.909	-0.090	0.059
-217.582	514.850	0.061	-0.141
-216.567	800.000	-0.078	-0.259
-215.552	-137.037	-0.243	0.027
-214.538	356.574	-0.043	0.085
-213.523	-200.000	0.016	0.169
-212.509	800.000	-0.028	-0.109
-211.494	800.000	0.114	-0.352
-210.479	378.687	0.269	0.545
-209.465	253.527	-0.051	-0.086
-208.450	-98.917	0.014	-0.003
-207.436	-137.057	0.088	-0.010
-206.421	800.000	0.102	-0.306
-205.406	-152.798	-0.273	-0.019
-204.392	129.035	-0.286	0.360
-203.377	-140.517	0.104	0.011
-202.363	800.000	-0.083	0.307
-201.348	-200.000	0.030	0.275
-200.333	-74.511	-0.448	-0.160
-199.319	104.987	0.136	0.158
-198.304	-200.000	0.076	-0.328
-197.290	53.677	0.102	-0.097
-196.275	153.581	-0.250	-0.338
-195.260	-200.000	0.039	-0.329
-194.246	800.000	0.070	-0.214
-193.231	596.326	-0.156	0.382
-192.217	-113.492	0.326	-0.063
-191.202	-6.759	0.217	0.146
-190.187	95.050	0.054	-0.061
-189.173	-46.092	-0.246	-0.120
-188.158	-200.000	-0.031	-0.262
-187.144	18.311	0.479	0.378
-186.129	143.665	-0.122	0.161
-185.114	189.448	0.104	-0.154
-184.100	-108.162	-0.168	-0.036
-183.085	265.995	0.042	0.073
-182.071	800.000	-0.077	-0.277
-181.056	38.134	-0.081	-0.072
-180.042	17.673	0.165	-0.130
-179.027	-200.000	-0.020	-0.356
-178.012	-200.000	0.051	0.243
-176.998	-41.695	-0.210	-0.107
-175.983	663.525	0.064	0.163
-174.969	800.000	0.052	0.188
-173.954	128.175	0.055	0.069
-172.939	193.659	0.086	0.129
-171.925	74.820	0.258	0.268
-170.910	202.264	0.115	-0.175
-169.896	-200.000	-0.000	-0.036
-168.881	-77.718	0.031	0.011
-167.866	-200.000	0.015	0.161
-166.852	-74.286	0.080	0.029
-165.837	-200.000	0.006	-0.085
-164.823	357.240	-0.063	0.125
-163.808	800.000	-0.121	0.409
-162.793	-200.000	0.017	-0.144
-161.779	158.793	-0.106	-0.145
-160.764	373.573	0.141	0.284
-159.750	-19.480	0.344	-0.210
-158.735	-166.199	0.370	0.015
-157.720	41.316	0.079	0.070
-156.706	800.000	-0.081	0.285
-155.691	261.871	-0.240	0.411
-154.677	-200.000	0.010	-0.099
-153.662	214.669	-0.204	-0.320
-152.647	205.187	0.103	0.158
-151.633	562.845	-0.138	-0.329
-150.618	-41.484	0.161	-0.082
-149.604	800.000	0.042	-0.173
-148.589	-130.833	-0.070	-0.009
-147.574	143.631	0.212	0.279
-146.560	-48.642	0.097	0.046
-145.545	-18.574	0.283	0.174
-144.531	96.597	0.081	0.092
-143.516	-200.000	0.017	-0.110
-142.502	-200.000	-0.060	-0.318
-141.487	570.086	0.033	-0.079
-140.472	32.367	-0.064	-0.055
-139.458	-126.115	0.145	0.022
-138.443	63.881	0.051	0.050
-137.429	-57.084	-0.075	-0.033
-136.414	-200.000	-0.004	0.402
-135.399	391.788	-0.099	0.203
-134.385	-92.523	-0.419	0.116
-133.370	28.952	0.260	0.217
-132.356	-104.400	-0.260	0.059
-131.341	-85.349	-0.168	0.052
-130.326	519.223	0.107	0.248
-129.312	21.490	-0.102	0.082
-128.297	-200.000	0.018	0.196
-127.283	-200.000	0.023	0.351
-126.268	-63.224	0.352	-0.143
-125.253	-45.722	0.154	-0.075
-124.239	7.659	-0.251	0.185
-123.224	534.804	0.115	0.268
-122.210	800.000	-0.132	-0.386
