DTS Sentinel unit serial number:	SN413079Multiplexer serial number:	ORYXHardware model number:	OX4-SRSoftware version number:	ORYX F/W v4.00 Oryx Data Collector v3.7.2.0data status	okinstallation	princeton_trtdifferential loss correction	single-endedforward channel	channel 1reverse channel	N/Adate	2019/09/15time	19:22:35forward acquisition time	60.00reverse acquisition time	0.00gamma	496.2192k internal	0.2297k external	0.2297temperature offset calibration	0.9955default loss term (dB/km)	0.3790temperature slope calibration	1.0000multiplexer offset coefficient	1.0000multiplexer slope coefficient	1.0000fibre end	0.00T internal ref (°C)	39.61T ext. ref 1 (°C)	7.24T ext. ref 2 (°C)	29.06length (m)	temperature (°C)	Stokes	anti-Stokes-747.200	45.158	0.214	-0.201
-746.185	256.748	0.142	0.249
-745.171	455.462	-0.128	-0.290
-744.156	-200.000	-0.027	0.422
-743.142	11.642	-0.140	-0.110
-742.127	162.074	-0.045	0.064
-741.112	-57.203	0.014	-0.006
-740.098	-200.000	-0.017	0.417
-739.083	85.800	0.081	0.090
-738.069	-200.000	-0.041	0.275
-737.054	515.830	0.108	0.259
-736.039	96.679	-0.141	-0.165
-735.025	-160.687	0.512	0.028
-734.010	161.942	0.131	0.188
-732.996	167.712	0.111	-0.162
-731.981	800.000	0.055	-0.196
-730.966	800.000	-0.055	-0.217
-729.952	800.000	-0.158	-0.460
-728.937	163.829	0.146	-0.210
-727.923	-200.000	-0.010	-0.233
-726.908	192.870	0.170	-0.263
-725.894	228.252	-0.056	-0.092
-724.879	-200.000	-0.004	0.131
-723.864	-122.795	0.376	-0.062
-722.850	-200.000	-0.016	-0.427
-721.835	800.000	-0.105	-0.328
-720.821	-200.000	-0.018	-0.244
-719.806	166.312	-0.243	-0.352
-718.791	-174.227	-0.205	-0.006
-717.777	-143.466	0.031	0.003
-716.762	-12.595	0.038	-0.025
-715.748	-5.235	0.267	0.187
-714.733	-56.683	0.500	0.226
-713.718	68.402	0.168	-0.175
-712.704	-101.252	-0.116	-0.029
-711.689	-143.097	0.203	0.020
-710.675	56.627	-0.147	-0.146
-709.660	4.182	0.234	0.174
-708.645	87.219	-0.179	0.201
-707.631	552.280	-0.113	0.277
-706.616	42.909	0.167	-0.155
-705.602	-44.051	-0.135	0.069
-704.587	211.656	0.099	-0.159
-703.572	772.599	0.139	-0.386
-702.558	-124.505	-0.200	0.032
-701.543	-101.818	-0.080	0.020
-700.529	117.717	0.073	0.092
-699.514	-134.826	-0.099	0.012
-698.499	-39.598	0.231	0.123
-697.485	-180.855	0.405	0.008
-696.470	270.110	0.207	-0.371
-695.456	-22.899	-0.123	-0.075
-694.441	-73.956	-0.289	-0.107
-693.426	-200.000	0.040	0.369
-692.412	-86.185	0.278	0.087
-691.397	43.842	0.220	0.205
-690.383	800.000	0.050	-0.148
-689.368	16.446	0.369	0.297
-688.354	-81.972	-0.291	0.097
-687.339	403.724	0.024	0.052
-686.324	-95.173	0.181	-0.050
-685.310	-83.816	-0.538	-0.175
-684.295	283.708	0.141	0.259
-683.281	20.003	0.272	-0.224
-682.266	-115.002	-0.189	-0.037
-681.251	-161.746	-0.302	-0.016
-680.237	800.000	0.044	-0.180
-679.222	800.000	0.125	-0.355
-678.208	0.095	0.223	0.162
-677.193	-39.727	0.209	-0.112
-676.178	-102.444	0.196	-0.048
-675.164	-91.733	0.095	0.028
-674.149	-200.000	-0.012	0.238
-673.135	-6.914	-0.242	-0.167
-672.120	-200.000	0.001	-0.135
-671.105	141.867	-0.087	0.117
-670.091	-110.730	-0.054	-0.011
-669.076	65.388	0.207	0.214
-668.062	193.196	0.058	0.089
-667.047	116.300	-0.056	-0.070
-666.032	-200.000	-0.010	0.142
-665.018	800.000	-0.066	-0.218
-664.003	61.309	0.109	0.110
-662.989	53.657	-0.084	-0.082
-661.974	-200.000	0.088	0.393
-660.959	800.000	0.117	-0.370
-659.945	137.443	-0.168	-0.223
-658.930	48.047	-0.311	-0.296
-657.916	-142.723	-0.203	0.020
-656.901	122.321	-0.056	-0.071
-655.886	-113.821	-0.112	0.022
-654.872	40.049	-0.123	-0.113
-653.857	-103.716	-0.392	0.093
-652.843	-200.000	-0.048	0.266
-651.828	291.470	0.210	-0.388
-650.814	38.777	-0.295	0.268
-649.799	-187.213	-0.289	-0.004
-648.784	-200.000	-0.008	-0.069
-647.770	-119.729	-0.485	0.085
-646.755	800.000	0.065	0.246
-645.741	-177.013	-0.151	0.004
-644.726	-86.223	-0.297	0.093
-643.711	689.746	0.080	0.213
-642.697	-78.256	-0.153	0.053
-641.682	800.000	-0.030	-0.087
-640.668	-200.000	-0.022	-0.176
-639.653	-147.354	-0.327	0.028
-638.638	-200.000	-0.003	0.194
-637.624	62.598	-0.176	-0.179
-636.609	676.494	0.101	-0.268
-635.595	80.622	0.119	-0.130
-634.580	-87.415	0.296	0.091
-633.565	-200.000	-0.054	-0.379
-632.551	503.431	-0.061	-0.144
-631.536	487.283	0.163	0.377
-630.522	-90.465	0.120	0.035
-629.507	3.148	-0.200	0.148
-628.492	67.766	0.161	-0.167
-627.478	-200.000	0.022	-0.174
-626.463	-32.703	0.370	0.209
-625.449	4.083	0.276	-0.206
-624.434	-108.590	-0.295	-0.065
-623.419	-150.504	-0.215	0.017
-622.405	315.249	-0.055	0.105
-621.390	-160.217	0.335	-0.018
-620.376	768.847	-0.044	0.122
-619.361	21.954	-0.202	0.168
-618.346	47.782	0.211	0.200
-617.332	-125.201	-0.144	0.022
-616.317	302.054	0.064	-0.120
-615.303	18.375	0.312	0.253
-614.288	-106.213	0.368	-0.084
-613.273	800.000	-0.008	-0.022
-612.259	800.000	0.105	-0.379
-611.244	-200.000	0.006	-0.153
-610.230	-40.673	-0.280	0.147
-609.215	-35.504	0.336	0.185
-608.201	-160.202	-0.325	0.018
-607.186	38.883	0.116	0.105
-606.171	599.448	0.114	0.288
-605.157	28.638	-0.252	0.217
-604.142	-69.356	-0.188	0.073
-603.128	358.366	0.043	-0.087
-602.113	-56.267	-0.469	-0.212
-601.098	-142.638	0.054	-0.005
-600.084	-127.376	0.189	-0.028
-599.069	70.249	0.139	-0.145
-598.055	-135.016	-0.330	0.040
-597.040	-138.587	0.309	-0.034
-596.025	367.416	0.150	0.307
-595.011	69.868	-0.144	0.150
-593.996	95.129	0.282	-0.326
-592.982	44.266	-0.203	-0.189
-591.967	154.674	0.122	-0.170
-590.952	-77.487	0.149	0.052
-589.938	117.456	-0.162	0.203
-588.923	800.000	0.099	0.354
-587.909	187.856	-0.144	-0.218
-586.894	85.116	-0.103	0.115
-585.879	305.951	-0.065	0.122
-584.865	99.846	0.263	-0.310
-583.850	612.411	-0.106	0.269
-582.836	800.000	0.098	-0.288
-581.821	79.347	0.243	-0.265
-580.806	182.689	0.269	-0.403
-579.792	-150.980	-0.145	-0.011
-578.777	-163.083	-0.091	0.004
-577.763	39.925	0.055	-0.050
-576.748	-161.194	-0.202	0.011
-575.733	-200.000	-0.038	-0.353
-574.719	-42.347	0.261	0.135
-573.704	800.000	-0.058	-0.223
-572.690	-200.000	-0.004	0.035
-571.675	-64.239	-0.349	-0.144
-570.661	20.495	0.090	-0.074
-569.646	-177.663	0.064	-0.002
-568.631	-122.146	0.074	0.012
-567.617	-200.000	0.008	0.172
-566.602	-150.293	0.302	-0.024
-565.588	-200.000	0.003	0.068
-564.573	60.319	-0.065	-0.065
-563.558	-136.975	0.255	0.030
-562.544	-81.051	-0.186	-0.062
-561.529	800.000	-0.054	0.178
-560.515	-64.750	-0.283	0.116
-559.500	-176.433	0.121	0.003
-558.485	-6.240	0.263	-0.182
-557.471	-142.390	0.293	0.029
-556.456	-114.825	-0.249	0.048
-555.442	-147.786	0.286	0.024
-554.427	54.151	0.170	0.166
-553.412	-16.170	-0.158	-0.102
-552.398	-110.872	0.033	0.007
-551.383	800.000	-0.049	0.150
-550.369	382.528	0.116	-0.242
-549.354	800.000	-0.058	-0.202
-548.339	33.430	-0.067	0.059
-547.325	-200.000	0.022	-0.328
-546.310	-200.000	-0.019	-0.269
-545.296	35.355	-0.092	0.082
-544.281	464.733	0.081	0.183
-543.266	407.156	-0.039	-0.084
-542.252	187.377	-0.160	0.242
-541.237	149.722	-0.171	0.234
-540.223	51.981	-0.361	0.348
-539.208	800.000	-0.023	0.097
-538.193	-200.000	-0.009	0.146
-537.179	-200.000	-0.030	0.174
-536.164	-200.000	0.040	-0.187
-535.150	-134.848	-0.325	-0.040
-534.135	26.787	-0.052	-0.045
-533.121	118.120	0.196	-0.245
-532.106	356.325	-0.145	0.292
-531.091	251.212	0.166	0.287
-530.077	66.913	0.231	-0.238
-529.062	-200.000	-0.006	-0.154
-528.048	800.000	0.140	0.404
-527.033	168.157	-0.113	-0.163
-526.018	250.552	-0.016	-0.027
-525.004	278.205	-0.027	0.049
-523.989	-40.071	-0.341	-0.180
-522.975	213.291	0.092	0.148
-521.960	-62.310	-0.207	-0.087
-520.945	12.263	0.226	0.176
-519.931	800.000	0.040	0.168
-518.916	22.029	-0.194	0.160
-517.902	-200.000	-0.033	-0.170
-516.887	-200.000	0.039	-0.197
-515.872	-101.267	0.245	0.061
-514.858	-200.000	-0.032	-0.189
-513.843	800.000	0.050	-0.183
-512.829	336.104	-0.016	0.031
-511.814	429.310	0.067	0.147
-510.799	-129.741	-0.140	-0.020
-509.785	800.000	0.044	-0.140
-508.770	-136.106	0.310	0.037
-507.756	-25.896	-0.097	-0.058
-506.741	-113.430	-0.280	-0.055
-505.726	-85.244	0.225	0.071
-504.712	-200.000	-0.033	-0.231
-503.697	-79.638	-0.362	0.123
-502.683	-71.624	0.032	-0.012
-501.668	9.911	0.118	-0.091
-500.653	-200.000	-0.015	-0.078
-499.639	75.536	-0.082	0.087
-498.624	212.112	0.024	-0.038
-497.610	55.342	-0.066	-0.064
-496.595	-154.724	-0.207	0.014
-495.581	-114.032	0.289	0.057
-494.566	800.000	-0.092	-0.281
-493.551	-74.670	0.164	0.060
-492.537	48.281	0.351	0.332
-491.522	-29.870	-0.294	-0.170
-490.508	5.217	-0.064	0.047
-489.493	552.888	0.013	0.031
-488.478	-97.433	-0.174	-0.046
-487.464	31.119	0.213	-0.185
-486.449	-200.000	0.016	0.174
-485.435	152.153	-0.017	-0.023
-484.420	-162.026	-0.092	-0.005
-483.405	173.347	-0.022	0.032
-482.391	269.532	0.167	0.296
-481.376	153.551	-0.156	0.216
-480.362	-200.000	0.002	-0.072
-479.347	141.744	-0.101	0.136
-478.332	-193.748	-0.149	-0.001
-477.318	316.594	-0.153	-0.293
-476.303	800.000	0.022	0.095
-475.289	65.024	0.126	-0.129
-474.274	-200.000	0.017	0.131
-473.259	92.875	0.246	-0.280
-472.245	20.539	0.122	0.100
-471.230	-200.000	0.039	-0.208
-470.216	145.578	0.113	0.153
-469.201	23.377	0.061	0.050
-468.186	112.771	-0.169	-0.207
-467.172	-41.994	-0.079	0.041
-466.157	-200.000	0.034	0.465
-465.143	37.769	-0.151	-0.135
-464.128	266.670	0.143	-0.252
-463.113	31.870	-0.182	-0.158
-462.099	-199.099	0.098	-0.001
-461.084	-139.747	0.328	-0.035
-460.070	-82.319	0.264	-0.087
-459.055	40.775	-0.207	0.189
-458.040	-90.790	0.225	-0.065
-457.026	-179.184	-0.119	-0.003
-456.011	800.000	-0.071	-0.282
-454.997	342.573	-0.144	-0.284
-453.982	-200.000	0.002	0.140
-452.968	-200.000	-0.018	0.429
-451.953	-200.000	-0.005	0.023
-450.938	234.394	0.076	-0.127
-449.924	-9.763	0.072	-0.048
-448.909	-102.082	-0.379	0.092
-447.895	338.410	0.089	-0.175
-446.880	-200.000	-0.006	0.029
-445.865	800.000	0.059	-0.209
-444.851	-60.339	0.620	-0.266
-443.836	433.200	0.025	-0.054
-442.822	-200.000	0.009	-0.090
-441.807	800.000	-0.080	0.266
-440.792	-134.194	0.129	-0.016
-439.778	-26.776	-0.050	-0.029
-438.763	9.890	-0.151	0.115
-437.749	-29.665	-0.191	0.110
-436.734	21.283	0.110	0.090
-435.719	-83.911	-0.137	-0.044
-434.705	194.055	-0.059	-0.090
-433.690	-10.395	0.332	-0.222
-432.676	146.783	-0.015	-0.020
-431.661	-73.461	-0.277	0.102
-430.646	282.653	-0.012	-0.021
-429.632	800.000	-0.007	-0.027
-428.617	10.344	-0.168	-0.129
-427.603	-200.000	0.004	0.113
-426.588	-20.780	-0.144	-0.089
-425.573	800.000	-0.087	0.310
-424.559	-88.912	-0.402	-0.120
-423.544	-83.471	0.203	-0.065
-422.530	-20.538	0.234	-0.145
-421.515	85.808	-0.146	-0.162
-420.500	-94.048	-0.186	0.051
-419.486	1.270	0.235	-0.170
-418.471	-24.722	0.312	0.187
-417.457	-200.000	0.027	-0.242
-416.442	221.715	0.091	-0.148
-415.428	67.336	0.184	-0.189
-414.413	-117.503	0.429	0.078
-413.398	-142.937	0.271	-0.027
-412.384	-200.000	0.004	-0.122
-411.369	-200.000	-0.009	-0.053
-410.355	800.000	0.082	-0.298
-409.340	-72.348	-0.194	-0.073
-408.325	4.195	-0.263	0.194
-407.311	-92.538	-0.086	-0.024
-406.296	121.646	0.191	-0.240
-405.282	-86.286	-0.334	-0.104
-404.267	26.485	0.033	0.028
-403.252	-56.236	-0.080	0.036
-402.238	-15.825	-0.295	0.190
-401.223	-43.111	-0.361	-0.184
-400.209	-120.770	-0.163	-0.028
-399.194	-63.811	0.279	0.115
-398.179	360.352	0.081	-0.162
-397.165	-38.730	-0.152	-0.081
-396.150	-150.219	0.152	-0.012
-395.136	154.980	0.149	-0.206
-394.121	-114.284	-0.151	0.029
-393.106	320.838	0.173	0.332
-392.092	490.067	-0.099	0.229
-391.077	16.279	0.035	-0.028
-390.063	-200.000	0.034	0.219
-389.048	55.370	0.208	0.203
-388.033	-200.000	0.006	-0.091
-387.019	-74.524	0.078	-0.028
-386.004	171.649	0.048	0.070
-384.990	-134.597	-0.309	0.038
-383.975	48.068	0.117	0.110
-382.960	144.557	0.072	0.097
-381.946	-135.736	-0.280	-0.033
-380.931	800.000	0.116	-0.411
-379.917	-109.465	0.336	0.071
-378.902	800.000	-0.038	0.108
-377.888	-200.000	-0.546	-0.002
-376.873	-200.000	0.020	-0.135
-375.858	-27.733	0.041	-0.024
-374.844	-200.000	-0.006	-0.170
-373.829	605.045	-0.096	-0.241
-372.815	-28.924	-0.089	0.052
-371.800	195.994	-0.112	-0.172
-370.785	-105.965	0.155	0.035
-369.771	75.575	0.245	-0.261
-368.756	-120.553	0.238	-0.041
-367.742	-200.000	0.065	0.365
-366.727	-200.000	0.004	0.077
-365.712	-29.146	0.277	0.160
-364.698	-3.003	-0.295	0.207
-363.683	800.000	-0.090	-0.273
-362.669	271.838	0.077	-0.137
-361.654	-54.011	0.281	-0.129
-360.639	-40.253	0.433	-0.227
-359.625	800.000	0.054	-0.223
-358.610	-75.353	-0.294	0.106
-357.596	42.936	-0.146	0.134
-356.581	219.539	0.016	-0.025
-355.566	-19.192	0.120	-0.075
-354.552	-74.529	0.255	-0.092
-353.537	250.824	0.097	-0.167
-352.523	355.542	0.109	-0.218
-351.508	-4.727	-0.135	0.094
-350.493	370.617	-0.229	0.466
-349.479	-200.000	0.037	0.259
-348.464	-178.482	-0.284	-0.007
-347.450	-200.000	-0.009	0.166
-346.435	-200.000	-0.030	0.297
-345.420	-48.453	-0.054	-0.026
-344.406	157.049	-0.122	-0.169
-343.391	800.000	-0.153	-0.436
-342.377	-2.655	0.111	0.078
-341.362	317.179	-0.116	0.221
-340.348	-93.818	-0.051	0.014
-339.333	535.021	0.024	0.056
-338.318	358.114	-0.094	0.189
-337.304	-89.523	0.258	0.076
-336.289	614.820	-0.157	0.395
-335.275	-134.988	-0.398	0.048
-334.260	-22.639	0.159	0.097
-333.245	71.950	-0.077	0.080
-332.231	162.959	0.134	-0.190
-331.216	130.558	0.220	0.283
-330.202	-28.455	0.176	0.102
-329.187	-200.000	-0.006	-0.075
-328.172	-108.357	-0.267	0.058
-327.158	372.142	0.074	-0.152
-326.143	800.000	0.092	-0.325
-325.129	-166.107	0.365	0.016
-324.114	-200.000	0.029	0.213
-323.099	116.924	-0.118	0.145
-322.085	37.878	-0.020	0.018
-321.070	-200.000	-0.075	0.422
-320.056	-148.601	0.052	-0.004
-319.041	255.045	0.044	0.076
-318.026	779.116	0.078	-0.214
-317.012	-95.377	-0.185	0.050
-315.997	347.690	-0.172	0.339
-314.983	225.580	0.129	0.210
-313.968	-200.000	0.006	0.119
-312.953	242.777	0.086	0.145
-311.939	-91.519	-0.068	-0.020
-310.924	-19.465	0.123	0.077
-309.910	210.122	0.053	-0.084
-308.895	-38.997	-0.192	0.101
-307.880	364.098	0.107	0.216
-306.866	-200.000	-0.051	0.301
-305.851	136.758	0.293	0.384
-304.837	254.399	0.085	-0.147
-303.822	-200.000	-0.014	-0.206
-302.807	315.177	0.108	-0.205
-301.793	75.238	-0.277	-0.293
-300.778	-171.805	-0.334	0.011
-299.764	-163.674	-0.058	-0.003
-298.749	96.250	0.175	-0.200
-297.735	41.671	0.060	-0.055
-296.720	-97.485	0.177	0.046
-295.705	800.000	0.110	0.412
-294.691	-200.000	-0.021	-0.128
-293.676	-5.519	-0.061	-0.042
-292.662	-91.649	-0.017	0.005
-291.647	800.000	-0.079	-0.264
-290.632	-99.117	-0.344	0.087
-289.618	-200.000	0.024	0.151
-288.603	-177.780	0.074	0.002
-287.589	26.475	0.194	-0.163
-286.574	62.924	-0.092	0.092
-285.559	-36.091	0.104	0.056
-284.545	-135.559	0.249	-0.030
-283.530	348.829	-0.117	-0.231
-282.516	-200.000	-0.022	0.128
-281.501	-64.281	0.146	0.059
-280.486	-154.476	-0.095	0.006
-279.472	-200.000	-0.005	0.199
-278.457	-104.064	-0.152	-0.035
-277.443	285.710	0.070	0.126
-276.428	-39.319	-0.041	0.022
-275.413	-109.222	-0.229	0.049
-274.399	119.306	-0.027	-0.033
-273.384	-65.258	-0.125	-0.051
-272.370	117.281	0.078	0.096
-271.355	541.193	0.041	0.098
-270.340	-51.292	-0.100	-0.047
-269.326	6.867	-0.121	0.090
-268.311	181.757	0.049	0.073
-267.297	756.525	-0.028	-0.076
-266.282	-0.451	-0.302	0.215
-265.267	-44.054	0.150	-0.075
-264.253	-13.257	0.058	0.038
-263.238	-40.100	-0.273	-0.142
-262.224	171.891	-0.146	-0.211
-261.209	-200.000	0.015	0.096
-260.195	-155.170	0.490	-0.032
-259.180	-158.274	-0.090	-0.005
-258.165	410.872	-0.107	0.226
-257.151	337.425	-0.121	-0.235
-256.136	418.549	0.128	-0.275
-255.122	102.110	-0.217	0.253
-254.107	-140.761	-0.250	0.026
-253.092	214.183	-0.053	-0.084
-252.078	-161.755	-0.381	0.019
-251.063	360.194	-0.041	-0.083
-250.049	75.934	0.069	0.073
-249.034	800.000	-0.063	-0.201
-248.019	2.837	0.142	0.103
-247.005	-19.581	-0.071	-0.044
-245.990	120.567	0.085	-0.106
-244.976	-200.000	-0.048	0.265
-243.961	800.000	0.086	0.354
-242.946	-200.000	0.013	0.152
-241.932	300.731	-0.131	0.242
-240.917	-95.054	0.254	-0.069
-239.903	167.859	0.084	-0.120
-238.888	-95.214	0.203	-0.055
-237.873	419.980	0.190	0.407
-236.859	800.000	0.070	0.240
-235.844	-105.010	0.103	-0.024
-234.830	800.000	-0.050	-0.173
-233.815	227.007	0.218	0.354
-232.800	-200.000	0.015	0.289
-231.786	-33.811	0.034	0.019
-230.771	-200.000	0.012	-0.248
-229.757	166.445	-0.217	-0.307
-228.742	315.692	-0.090	-0.169
-227.727	-200.000	-0.011	-0.348
-226.713	385.671	0.034	-0.071
-225.698	-200.000	-0.291	-0.001
-224.684	-106.999	0.155	-0.034
-223.669	-13.492	-0.107	0.069
-222.655	-56.945	-0.399	-0.176
-221.640	-120.902	0.293	-0.049
-220.625	-126.303	0.166	-0.025
-219.611	226.613	0.110	0.179
-218.596	109.973	0.251	0.302
-217.582	22.699	0.145	-0.119
-216.567	749.100	-0.092	0.248
-215.552	800.000	0.021	-0.073
-214.538	-200.000	0.017	0.080
-213.523	-139.337	0.354	0.038
-212.509	-27.175	-0.211	-0.123
-211.494	9.476	-0.226	-0.171
-210.479	800.000	-0.103	-0.294
-209.465	122.491	-0.083	-0.103
-208.450	-15.078	0.119	-0.076
-207.436	-117.853	0.079	-0.014
-206.421	-103.613	-0.308	-0.072
-205.406	-28.203	-0.229	0.133
-204.392	-200.000	-0.016	0.330
-203.377	131.986	-0.124	0.160
-202.363	800.000	0.092	-0.296
-201.348	-200.000	-0.011	0.188
-200.333	180.166	-0.191	0.281
-199.319	-125.580	-0.163	0.025
-198.304	800.000	0.101	-0.282
-197.290	-133.269	0.158	-0.020
-196.275	0.136	-0.036	-0.026
-195.260	-69.318	0.218	0.084
-194.246	-131.854	0.133	0.017
-193.231	-83.534	0.264	-0.084
-192.217	316.127	0.092	-0.173
-191.202	-87.418	0.048	-0.014
-190.187	693.822	-0.051	-0.134
-189.173	-114.268	-0.340	-0.066
-188.158	-75.980	-0.232	-0.082
-187.144	800.000	0.038	-0.124
-186.129	144.979	0.078	-0.104
-185.114	-142.261	-0.254	-0.025
-184.100	-6.392	0.237	-0.161
-183.085	-30.279	0.250	-0.142
-182.071	496.337	-0.106	-0.244
-181.056	-108.188	-0.297	-0.064
-180.042	-4.098	0.168	0.116
-179.027	144.738	-0.059	0.078
-178.012	231.501	0.070	0.114
-176.998	800.000	-0.066	0.212
-175.983	86.524	0.193	0.213
-174.969	-14.849	-0.167	0.107
-173.954	800.000	-0.092	0.277
-172.939	-200.000	0.012	-0.114
-171.925	239.299	0.165	0.273
-170.910	800.000	-0.066	-0.241
-169.896	-200.000	-0.029	-0.161
-168.881	-200.000	-0.002	0.235
-167.866	141.408	0.165	0.218
-166.852	284.737	0.044	-0.079
-165.837	-175.548	-0.288	-0.008
-164.823	800.000	0.058	0.231
-163.808	327.101	0.126	0.241
-162.793	-200.000	0.012	0.105
-161.779	1.635	-0.149	-0.107
-160.764	144.067	0.386	-0.514
-159.750	165.719	-0.085	0.120
-158.735	-200.000	-0.018	-0.142
-157.720	-200.000	-0.013	-0.099
-156.706	-2.351	0.059	-0.041
-155.691	44.368	-0.378	0.346
-154.677	-11.186	0.155	-0.102
-153.662	422.671	0.074	-0.158
-152.647	800.000	0.073	-0.206
-151.633	-13.005	0.350	-0.227
-150.618	-145.854	0.122	0.011
-149.604	249.171	0.190	-0.322
-148.589	-30.134	-0.263	0.149
-147.574	-144.707	-0.218	-0.020
-146.560	-159.761	-0.254	0.014
-145.545	-180.016	-0.151	-0.003
-144.531	-200.000	0.003	0.045
-143.516	542.099	-0.021	0.050
-142.502	445.859	0.135	-0.296
-141.487	295.004	-0.149	-0.271
-140.472	800.000	-0.101	-0.354
-139.458	-142.513	0.364	0.036
-138.443	150.082	0.084	-0.114
-137.429	-10.761	0.296	-0.195
-136.414	48.936	0.217	0.203
-135.399	-36.811	0.220	0.118
-134.385	60.219	0.111	-0.110
-133.370	122.840	0.204	-0.255
-132.356	800.000	-0.051	0.162
-131.341	-152.174	0.332	-0.024
-130.326	800.000	0.039	0.129
-129.312	95.861	0.134	-0.153
-128.297	-29.257	0.196	-0.112
-127.283	5.871	0.213	-0.157
-126.268	-69.252	0.263	-0.101
-125.253	270.509	0.058	-0.101
-124.239	4.855	0.234	0.172
-123.224	518.626	0.131	-0.305
-122.210	42.072	-0.136	0.123
-121.195	-180.350	-0.397	-0.008
