DTS Sentinel unit serial number:	SN413079Multiplexer serial number:	ORYXHardware model number:	OX4-SRSoftware version number:	ORYX F/W v4.00 Oryx Data Collector v3.7.2.0data status	okinstallation	princeton_trtdifferential loss correction	single-endedforward channel	channel 1reverse channel	N/Adate	2019/09/11time	10:08:11forward acquisition time	60.00reverse acquisition time	0.00gamma	496.2192k internal	0.2301k external	0.2301temperature offset calibration	0.9950default loss term (dB/km)	0.3790temperature slope calibration	1.0000multiplexer offset coefficient	1.0000multiplexer slope coefficient	1.0000fibre end	0.00T internal ref (°C)	35.62T ext. ref 1 (°C)	0.12T ext. ref 2 (°C)	33.24length (m)	temperature (°C)	Stokes	anti-Stokes-747.200	320.727	-0.062	0.120
-746.185	46.068	0.229	0.216
-745.171	-200.000	0.025	-0.121
-744.156	-25.196	-0.282	-0.170
-743.142	800.000	-0.059	0.224
-742.127	201.415	-0.261	0.410
-741.112	20.594	-0.276	-0.228
-740.098	-80.514	-0.296	-0.101
-739.083	330.805	-0.059	-0.117
-738.069	-71.256	-0.445	-0.170
-737.054	301.914	-0.207	0.391
-736.039	-25.802	0.300	-0.180
-735.025	800.000	0.068	0.262
-734.010	33.531	-0.142	0.125
-732.996	-200.000	-0.009	0.193
-731.981	-54.076	-0.128	0.059
-730.966	20.461	-0.094	0.077
-729.952	89.710	-0.151	-0.172
-728.937	243.456	-0.163	-0.278
-727.923	-103.193	0.203	0.049
-726.908	59.841	0.154	-0.155
-725.894	-38.008	-0.147	-0.080
-724.879	800.000	-0.087	-0.260
-723.864	-161.845	0.088	0.005
-722.850	351.916	-0.128	-0.258
-721.835	386.053	-0.060	0.126
-720.821	-107.479	-0.221	0.049
-719.806	50.510	0.363	-0.350
-718.791	-154.650	0.247	-0.017
-717.777	-200.000	0.017	0.163
-716.762	-40.469	0.020	0.011
-715.748	-76.120	0.277	0.099
-714.733	-107.439	-0.140	-0.031
-713.718	-17.936	0.184	-0.118
-712.704	134.921	-0.181	-0.239
-711.689	208.886	-0.198	-0.316
-710.675	556.605	-0.089	0.218
-709.660	-125.857	0.217	-0.033
-708.645	90.935	0.063	-0.072
-707.631	800.000	0.066	-0.243
-706.616	-70.475	0.182	-0.070
-705.602	521.274	0.113	0.270
-704.587	-176.788	-0.202	0.005
-703.572	-56.379	-0.081	-0.037
-702.558	13.892	-0.092	0.073
-701.543	-70.736	0.214	-0.082
-700.529	14.352	0.083	-0.066
-699.514	423.037	0.125	-0.274
-698.499	-60.823	-0.284	-0.122
-697.485	800.000	-0.016	0.069
-696.470	-200.000	0.016	-0.240
-695.456	-81.917	-0.239	-0.079
-694.441	-200.000	0.007	0.166
-693.426	-78.164	-0.152	-0.053
-692.412	-66.457	0.170	-0.069
-691.397	-20.103	0.207	-0.130
-690.383	-111.112	0.030	-0.006
-689.368	32.698	0.381	-0.335
-688.354	19.013	-0.353	-0.288
-687.339	-200.000	0.002	-0.213
-686.324	-108.096	-0.150	0.033
-685.310	-100.673	0.203	0.051
-684.295	-200.000	-0.017	-0.105
-683.281	58.628	0.149	0.149
-682.266	-124.732	-0.245	0.039
-681.251	-80.547	-0.283	-0.096
-680.237	72.638	-0.052	-0.055
-679.222	-189.513	0.220	-0.003
-678.208	15.380	-0.309	0.247
-677.193	458.828	0.075	-0.170
-676.178	-37.700	-0.189	0.102
-675.164	-117.844	-0.129	-0.024
-674.149	-127.066	-0.288	0.043
-673.135	135.179	0.122	-0.162
-672.120	-84.525	-0.108	0.035
-671.105	-93.435	0.139	-0.039
-670.091	-120.465	-0.104	0.018
-669.076	253.485	-0.179	0.312
-668.062	216.166	0.068	-0.110
-667.047	9.668	-0.162	0.125
-666.032	-61.220	0.358	-0.153
-665.018	-144.353	-0.120	-0.011
-664.003	-6.478	0.336	-0.233
-662.989	-200.000	0.044	0.321
-661.974	800.000	-0.032	0.114
-660.959	800.000	-0.055	0.201
-659.945	102.351	0.105	0.125
-658.930	556.039	-0.050	-0.122
-657.916	-111.696	-0.101	0.021
-656.901	404.802	-0.090	-0.192
-655.886	-200.000	-0.039	-0.265
-654.872	-200.000	0.054	-0.395
-653.857	800.000	0.053	-0.227
-652.843	-122.505	-0.446	-0.074
-651.828	-18.697	0.164	0.104
-650.814	800.000	0.014	0.047
-649.799	-105.239	0.081	0.019
-648.784	33.931	0.102	-0.090
-647.770	-200.000	-0.034	-0.238
-646.755	-88.949	-0.070	0.021
-645.741	80.980	-0.172	-0.188
-644.726	-81.858	0.127	-0.042
-643.711	-58.528	0.207	0.091
-642.697	135.136	-0.027	0.036
-641.682	-4.001	0.174	-0.122
-640.668	-108.609	-0.038	0.008
-639.653	21.951	0.123	0.102
-638.638	-30.576	0.133	-0.076
-637.624	-101.786	0.272	-0.067
-636.609	45.537	0.210	0.197
-635.595	249.946	0.063	0.108
-634.580	-43.946	0.102	-0.052
-633.565	271.189	0.181	-0.324
-632.551	-98.613	-0.047	-0.012
-631.536	188.159	0.109	-0.165
-630.522	-88.827	0.342	0.103
-629.507	-200.000	-0.022	-0.261
-628.492	72.367	0.228	0.242
-627.478	219.730	-0.173	-0.282
-626.463	-5.439	-0.122	0.085
-625.449	-138.487	0.347	-0.039
-624.434	56.186	-0.092	-0.091
-623.419	-146.380	-0.165	-0.015
-622.405	-148.461	0.140	-0.012
-621.390	229.423	-0.139	-0.231
-620.376	-24.655	-0.150	-0.090
-619.361	800.000	0.014	-0.045
-618.346	-200.000	-0.020	-0.458
-617.332	800.000	-0.074	-0.276
-616.317	-143.421	-0.229	-0.022
-615.303	-200.000	0.031	0.157
-614.288	453.399	-0.080	-0.179
-613.273	184.191	-0.147	-0.221
-612.259	32.646	0.058	-0.051
-611.244	800.000	-0.070	-0.228
-610.230	441.880	-0.050	0.112
-609.215	-162.817	-0.273	-0.013
-608.201	-70.996	0.161	0.061
-607.186	-118.979	-0.216	-0.038
-606.171	-87.972	0.240	0.073
-605.157	193.927	-0.037	0.056
-604.142	-86.105	-0.363	0.114
-603.128	291.059	0.030	-0.055
-602.113	800.000	0.126	0.383
-601.098	-19.053	-0.279	0.176
-600.084	97.513	0.189	0.220
-599.069	145.316	-0.142	0.192
-598.055	-50.580	-0.113	0.054
-597.040	-200.000	0.015	-0.142
-596.025	-13.714	0.339	0.222
-595.011	-37.704	0.199	0.108
-593.996	-165.429	-0.032	-0.001
-592.982	67.976	-0.063	0.065
-591.967	-43.866	-0.152	0.077
-590.952	67.347	0.214	-0.222
-589.938	-184.071	-0.329	0.006
-588.923	-80.636	-0.249	0.084
-587.909	-20.565	-0.152	-0.095
-586.894	48.750	-0.197	-0.188
-585.879	-200.000	-0.010	-0.206
-584.865	-200.000	0.004	-0.393
-583.850	291.136	-0.016	-0.030
-582.836	13.527	0.087	0.069
-581.821	-200.000	0.059	-0.291
-580.806	-95.640	-0.201	-0.055
-579.792	290.442	0.102	0.188
-578.777	-200.000	-0.040	0.404
-577.763	2.939	0.398	-0.292
-576.748	-200.000	0.007	0.207
-575.733	-171.921	-0.241	0.008
-574.719	111.169	-0.095	-0.115
-573.704	-89.859	-0.070	0.021
-572.690	131.160	-0.103	0.133
-571.675	-164.291	0.085	0.004
-570.661	-200.000	0.001	-0.101
-569.646	65.933	0.159	-0.163
-568.631	800.000	0.028	-0.099
-567.617	800.000	-0.041	0.123
-566.602	-200.000	0.034	0.333
-565.588	216.217	0.183	0.295
-564.573	-52.819	-0.205	0.096
-563.558	-200.000	-0.029	-0.142
-562.544	25.422	0.196	-0.165
-561.529	-200.000	0.034	-0.357
-560.515	-200.000	0.008	-0.204
-559.500	22.890	-0.101	-0.084
-558.485	-200.000	-0.003	0.328
-557.471	-200.000	-0.009	0.097
-556.456	-200.000	0.002	0.351
-555.442	-37.940	0.181	-0.098
-554.427	-126.646	0.305	0.046
-553.412	-120.000	-0.236	-0.041
-552.398	-200.000	-0.005	-0.117
-551.383	800.000	0.055	0.157
-550.369	11.498	0.049	-0.038
-549.354	35.833	0.116	-0.103
-548.339	800.000	-0.102	0.304
-547.325	76.415	-0.120	-0.128
-546.310	143.267	0.010	0.014
-545.296	-94.423	0.080	0.022
-544.281	60.883	-0.275	0.276
-543.266	-132.485	0.230	-0.030
-542.252	-85.957	0.060	0.019
-541.237	-167.245	-0.213	-0.009
-540.223	498.254	0.117	-0.273
-539.208	39.353	-0.150	-0.136
-538.193	-137.667	0.036	-0.004
-537.179	504.387	-0.085	-0.199
-536.164	-13.149	-0.245	-0.161
-535.150	622.166	0.044	-0.112
-534.135	111.992	-0.180	-0.220
-533.121	86.079	-0.219	-0.244
-532.106	574.459	0.150	-0.371
-531.091	-64.348	-0.205	0.084
-530.077	42.920	0.028	-0.026
-529.062	6.604	0.291	-0.219
-528.048	51.066	0.048	0.046
-527.033	68.300	0.245	0.253
-526.018	800.000	0.058	-0.225
-525.004	-154.869	-0.368	0.025
-523.989	-200.000	-0.014	-0.251
-522.975	-67.111	0.090	-0.036
-521.960	-66.309	0.350	0.141
-520.945	0.023	0.194	0.140
-519.931	-79.781	0.050	-0.017
-518.916	-156.472	0.334	-0.021
-517.902	66.065	-0.048	-0.049
-516.887	-70.335	0.098	-0.038
-515.872	81.110	-0.073	0.079
-514.858	311.020	-0.014	-0.027
-513.843	800.000	-0.017	-0.049
-512.829	-108.381	0.189	-0.041
-511.814	-80.936	0.273	-0.091
-510.799	-83.556	-0.127	-0.041
-509.785	402.059	-0.131	-0.279
-508.770	-113.641	-0.031	-0.006
-507.756	-80.807	0.206	-0.069
-506.741	-33.591	0.269	-0.150
-505.726	800.000	0.106	-0.367
-504.712	33.447	0.128	0.113
-503.697	-137.267	0.097	-0.011
-502.683	-173.445	0.256	-0.008
-501.668	800.000	-0.064	0.226
-500.653	-105.210	-0.232	-0.053
-499.639	287.179	0.082	-0.149
-498.624	-125.329	-0.049	0.008
-497.610	800.000	0.069	0.247
-496.595	302.699	-0.082	-0.154
-495.581	542.187	0.100	-0.241
-494.566	94.627	0.038	-0.044
-493.551	581.580	-0.142	0.353
-492.537	138.114	0.249	-0.329
-491.522	-111.100	0.312	0.065
-490.508	-79.283	-0.288	-0.098
-489.493	24.360	0.160	-0.134
-488.478	800.000	0.079	-0.288
-487.464	454.848	0.154	0.344
-486.449	105.677	0.279	0.332
-485.435	800.000	-0.094	0.337
-484.420	-61.871	-0.212	0.090
-483.405	800.000	-0.092	0.350
-482.391	-147.227	-0.136	-0.012
-481.376	156.598	0.124	-0.173
-480.362	-99.205	-0.201	-0.051
-479.347	20.560	-0.198	0.161
-478.332	-72.066	0.113	0.042
-477.318	404.288	-0.086	-0.183
-476.303	-41.610	0.206	0.107
-475.289	800.000	0.061	-0.178
-474.274	-200.000	-0.051	-0.330
-473.259	-200.000	0.002	-0.183
-472.245	-200.000	-0.005	0.057
-471.230	-126.560	-0.188	-0.028
-470.216	800.000	0.170	0.660
-469.201	800.000	0.105	-0.300
-468.186	-174.292	0.191	0.006
-467.172	602.712	0.173	0.434
-466.157	-200.000	0.016	-0.307
-465.143	-168.773	-0.442	0.017
-464.128	29.938	0.204	-0.176
-463.113	538.003	0.035	0.085
-462.099	-181.392	-0.251	-0.005
-461.084	338.033	0.114	-0.223
-460.070	-3.218	-0.217	0.152
-459.055	20.952	-0.144	0.117
-458.040	27.710	-0.022	0.018
-457.026	-108.603	-0.215	-0.046
-456.011	2.314	0.225	-0.164
-454.997	-200.000	0.027	0.141
-453.982	-200.000	-0.003	-0.135
-452.968	-8.638	-0.047	0.032
-451.953	-153.118	0.075	0.005
-450.938	46.971	0.100	0.094
-449.924	-96.230	0.093	0.025
-448.909	-105.623	-0.102	-0.023
-447.895	-51.096	-0.412	0.195
-446.880	-19.454	0.266	0.166
-445.865	686.541	0.158	-0.417
-444.851	-135.363	0.255	0.031
-443.836	-87.538	-0.215	-0.065
-442.822	238.286	0.089	0.149
-441.807	-188.138	0.479	-0.006
-440.792	-97.938	0.114	-0.030
-439.778	-39.818	-0.227	-0.119
-438.763	-200.000	0.049	-0.229
-437.749	-94.871	-0.252	-0.069
-436.734	-141.193	0.231	-0.024
-435.719	268.790	-0.088	0.155
-434.705	-200.000	0.080	-0.364
-433.690	-75.832	-0.098	0.035
-432.676	800.000	-0.026	-0.095
-431.661	800.000	-0.054	-0.190
-430.646	-33.184	-0.243	-0.136
-429.632	-93.314	-0.179	-0.050
-428.617	102.798	-0.058	-0.069
-427.603	172.778	0.020	-0.030
-426.588	-104.464	-0.343	0.080
-425.573	-172.766	-0.442	-0.014
-424.559	-61.761	-0.111	-0.047
-423.544	21.023	0.032	-0.027
-422.530	-49.815	-0.099	-0.047
-421.515	65.768	-0.154	-0.157
-420.500	-29.744	-0.145	-0.083
-419.486	-139.963	-0.161	0.017
-418.471	-20.786	-0.364	-0.225
-417.457	-137.112	-0.248	-0.028
-416.442	107.616	0.188	-0.226
-415.428	282.014	0.143	-0.259
-414.413	98.159	-0.116	0.135
-413.398	-200.000	-0.048	0.216
-412.384	-200.000	0.031	-0.254
-411.369	-200.000	0.029	0.184
-410.355	-107.040	0.374	-0.083
-409.340	-200.000	0.008	-0.049
-408.325	234.956	-0.051	-0.085
-407.311	-96.784	0.137	-0.036
-406.296	-132.411	0.074	-0.010
-405.282	120.863	-0.153	-0.191
-404.267	-48.936	-0.125	0.061
-403.252	-200.000	0.008	-0.139
-402.238	-200.000	-0.040	0.295
-401.223	770.779	-0.066	-0.182
-400.209	800.000	-0.021	-0.070
-399.194	127.458	-0.072	-0.092
-398.179	21.709	-0.324	-0.266
-397.165	-200.000	0.041	-0.220
-396.150	455.335	0.137	0.305
-395.136	303.411	-0.171	0.318
-394.121	-8.729	-0.309	0.208
-393.106	-112.076	0.247	-0.050
-392.092	534.875	0.034	0.081
-391.077	-24.798	0.341	-0.204
-390.063	105.366	-0.330	-0.392
-389.048	8.418	-0.239	0.181
-388.033	-200.000	0.050	0.309
-387.019	-70.852	0.133	-0.050
-386.004	-117.794	0.164	-0.030
-384.990	440.196	-0.049	0.109
-383.975	347.139	0.023	-0.045
-382.960	73.065	0.272	0.286
-381.946	-200.000	0.036	0.233
-380.931	-34.112	-0.176	0.097
-379.917	-200.000	-0.040	-0.242
-378.902	-83.992	-0.346	-0.111
-377.888	-102.176	0.141	-0.034
-376.873	-200.000	-0.043	0.265
-375.858	-72.193	0.183	0.068
-374.844	-50.265	-0.136	-0.065
-373.829	-54.630	0.190	-0.086
-372.815	28.179	0.271	0.230
-371.800	80.994	0.052	0.057
-370.785	678.451	-0.034	-0.088
-369.771	253.276	-0.108	0.184
-368.756	-122.574	-0.276	0.045
-367.742	33.560	-0.182	-0.159
-366.727	-200.000	0.018	0.153
-365.712	675.426	0.039	0.101
-364.698	800.000	0.032	0.140
-363.683	-28.015	0.086	0.050
-362.669	-85.254	-0.165	0.052
-361.654	-200.000	-0.003	0.032
-360.639	800.000	-0.048	0.184
-359.625	-10.120	0.151	0.100
-358.610	123.201	-0.183	0.231
-357.596	-141.000	0.321	0.033
-356.581	-71.888	0.149	0.056
-355.566	800.000	-0.117	0.394
-354.552	-171.257	0.169	-0.006
-353.537	-57.263	0.085	-0.038
-352.523	-61.090	-0.206	0.087
-351.508	636.758	0.155	0.395
-350.493	154.064	-0.141	-0.194
-349.479	800.000	0.060	-0.189
-348.464	173.917	-0.095	0.138
-347.450	80.824	0.211	0.229
-346.435	111.168	-0.175	0.211
-345.420	37.158	0.051	0.045
-344.406	28.964	-0.032	-0.027
-343.391	365.600	-0.116	-0.235
-342.377	800.000	0.044	-0.168
-341.362	-200.000	-0.002	0.184
-340.348	800.000	0.058	-0.183
-339.333	784.754	0.142	0.391
-338.318	-200.000	-0.012	0.125
-337.304	-138.380	-0.192	0.021
-336.289	-74.938	-0.073	0.026
-335.275	-18.909	0.138	0.086
-334.260	481.461	0.018	0.042
-333.245	-200.000	-0.035	0.157
-332.231	-178.778	0.042	-0.001
-331.216	-123.055	-0.323	-0.052
-330.202	62.560	-0.287	-0.287
-329.187	559.478	0.080	0.195
-328.172	100.861	0.183	0.213
-327.158	-149.549	0.341	0.027
-326.143	-9.454	-0.010	0.007
-325.129	-30.633	-0.109	-0.062
-324.114	-131.773	-0.421	0.055
-323.099	-47.994	-0.039	-0.019
-322.085	-79.099	0.402	0.137
-321.070	122.782	0.139	0.174
-320.056	138.982	-0.090	0.118
-319.041	-33.753	0.055	0.030
-318.026	27.420	0.122	-0.103
-317.012	800.000	-0.027	0.089
-315.997	-200.000	0.056	0.263
-314.983	-88.580	0.243	0.073
-313.968	9.637	-0.202	0.154
-312.953	37.328	-0.190	-0.169
-311.939	-138.055	0.208	0.023
-310.924	12.425	0.056	0.043
-309.910	-71.323	-0.175	0.066
-308.895	800.000	-0.052	-0.204
-307.880	-200.000	-0.027	-0.231
-306.866	-102.081	0.095	0.023
-305.851	490.820	0.061	-0.140
-304.837	-149.054	-0.094	0.008
-303.822	-127.856	0.055	0.008
-302.807	218.298	-0.159	0.254
-301.793	-62.457	-0.405	-0.169
-300.778	800.000	-0.074	0.244
-299.764	-41.379	0.551	-0.284
-298.749	-121.030	0.123	0.021
-297.735	142.602	-0.047	-0.062
-296.720	-127.380	0.172	0.025
-295.705	-99.086	-0.312	0.079
-294.691	-10.369	0.177	0.117
-293.676	-181.376	0.162	-0.003
-292.662	495.058	-0.134	-0.308
-291.647	29.562	0.114	-0.097
-290.632	-200.000	-0.001	-0.012
-289.618	114.474	0.096	0.117
-288.603	67.870	0.186	-0.190
-287.589	-44.902	0.131	0.065
-286.574	23.564	-0.376	0.310
-285.559	-35.081	0.103	-0.056
-284.545	143.460	-0.056	-0.074
-283.530	156.299	0.110	-0.153
-282.516	-170.816	0.152	0.005
-281.501	-48.403	0.306	0.147
-280.486	-200.000	0.042	0.192
-279.472	-107.613	-0.097	-0.021
-278.457	800.000	-0.060	0.264
-277.443	-75.981	-0.164	0.058
-276.428	800.000	-0.059	-0.168
-275.413	20.078	0.126	-0.102
-274.399	181.895	0.109	-0.160
-273.384	728.932	-0.023	-0.061
-272.370	6.070	0.198	0.147
-271.355	-24.556	0.133	0.079
-270.340	-120.402	-0.139	-0.024
-269.326	-200.000	0.053	0.300
-268.311	-108.161	-0.426	-0.092
-267.297	407.470	0.163	0.344
-266.282	-78.168	0.202	0.070
-265.267	-200.000	0.053	0.314
-264.253	175.731	0.241	-0.350
-263.238	-132.162	-0.305	0.040
-262.224	-200.000	-0.003	-0.190
-261.209	-165.627	0.080	-0.003
-260.195	-118.892	0.190	0.033
-259.180	-4.602	0.250	0.173
-258.165	159.196	-0.141	-0.197
-257.151	800.000	-0.169	-0.467
-256.136	191.093	-0.141	-0.213
-255.122	61.102	0.222	0.221
-254.107	7.030	0.156	0.116
-253.092	72.924	-0.086	-0.090
-252.078	44.839	-0.233	-0.215
-251.063	-84.189	0.276	0.087
-250.049	-200.000	-0.004	0.148
-249.034	317.160	0.043	0.081
-248.019	2.809	0.184	0.134
-247.005	-200.000	-0.043	0.348
-245.990	-191.248	0.249	0.003
-244.976	-54.351	-0.167	-0.076
-243.961	14.289	0.122	0.095
-242.946	61.096	-0.245	-0.243
-241.932	117.412	0.179	-0.221
-240.917	-74.889	-0.183	0.065
-239.903	800.000	-0.015	-0.042
-238.888	-29.644	-0.230	0.131
-237.873	-200.000	0.041	0.224
-236.859	454.922	0.099	-0.220
-235.844	-125.112	-0.085	-0.013
-234.830	20.161	-0.088	-0.071
-233.815	362.675	-0.024	0.049
-232.800	-73.722	0.156	-0.057
-231.786	158.952	-0.045	0.062
-230.771	23.261	-0.119	-0.097
-229.757	-93.689	0.154	-0.042
-228.742	-200.000	-0.010	-0.281
-227.727	800.000	-0.106	-0.404
-226.713	453.302	0.163	-0.360
-225.698	15.790	0.191	-0.150
-224.684	-26.153	-0.076	0.045
-223.669	-200.000	-0.087	0.496
-222.655	-64.677	-0.251	-0.102
-221.640	124.494	0.051	0.065
-220.625	293.590	0.158	0.288
-219.611	-200.000	0.008	0.169
-218.596	800.000	-0.045	-0.188
-217.582	-48.825	-0.075	0.036
-216.567	-124.474	-0.118	-0.018
-215.552	-16.244	-0.388	-0.246
-214.538	75.093	-0.212	-0.223
-213.523	-170.564	0.046	-0.002
-212.509	51.817	0.366	0.348
-211.494	-71.791	0.194	-0.072
-210.479	-135.942	0.074	-0.009
-209.465	-120.753	-0.118	-0.020
-208.450	-35.250	0.247	0.134
-207.436	-142.247	0.249	-0.025
-206.421	81.309	0.135	-0.146
-205.406	-148.120	-0.042	0.003
-204.392	690.290	-0.065	0.169
-203.377	387.509	-0.037	0.077
-202.363	67.806	-0.094	0.096
-201.348	-200.000	-0.013	0.153
-200.333	56.042	0.019	0.019
-199.319	353.350	-0.077	0.153
-198.304	-200.000	0.023	0.105
-197.290	-15.442	0.165	-0.105
-196.275	389.919	0.207	0.428
-195.260	800.000	0.048	0.146
-194.246	104.751	-0.158	-0.186
-193.231	59.022	-0.116	0.114
-192.217	800.000	0.065	0.227
-191.202	-200.000	0.040	0.191
-190.187	-51.848	0.093	-0.043
-189.173	-200.000	-0.003	0.129
-188.158	-81.256	-0.073	-0.024
-187.144	-97.159	-0.244	0.064
-186.129	6.956	0.254	0.189
-185.114	-109.430	-0.217	0.046
-184.100	322.644	0.107	0.203
-183.085	415.382	-0.040	0.085
-182.071	-44.708	-0.126	0.063
-181.056	-149.474	-0.308	-0.024
-180.042	-152.046	-0.236	0.017
-179.027	80.598	0.047	0.051
-178.012	-145.316	-0.199	0.018
-176.998	800.000	-0.047	0.194
-175.983	-200.000	0.006	-0.138
-174.969	-2.604	-0.256	-0.179
-173.954	-106.122	0.154	0.034
-172.939	-200.000	0.015	0.324
-171.925	-200.000	-0.014	0.234
-170.910	67.138	-0.214	0.218
-169.896	-200.000	-0.046	-0.240
-168.881	164.968	0.193	-0.272
-167.866	46.810	-0.075	-0.069
-166.852	-99.052	-0.123	-0.031
-165.837	-200.000	0.050	-0.227
-164.823	327.401	-0.112	-0.213
-163.808	800.000	-0.130	-0.376
-162.793	-200.000	0.052	-0.244
-161.779	-179.888	0.226	-0.005
-160.764	238.903	-0.161	-0.267
-159.750	449.725	0.061	0.134
-158.735	-200.000	0.006	-0.094
-157.720	-135.615	-0.332	0.039
-156.706	116.060	-0.189	0.231
-155.691	-200.000	-0.036	0.287
-154.677	-200.000	0.028	0.304
-153.662	37.207	0.134	0.118
-152.647	197.902	0.076	0.115
-151.633	32.777	-0.201	0.173
-150.618	-200.000	0.019	-0.198
-149.604	-67.320	0.157	-0.061
-148.589	-200.000	-0.005	0.056
-147.574	-108.606	0.322	0.069
-146.560	464.105	-0.069	-0.154
-145.545	117.422	0.065	-0.080
-144.531	800.000	0.072	0.253
-143.516	-200.000	-0.039	0.182
-142.502	-200.000	0.042	-0.220
-141.487	800.000	-0.043	-0.161
-140.472	-200.000	0.041	-0.330
-139.458	-105.466	0.518	0.117
-138.443	-200.000	0.001	0.196
-137.429	-200.000	0.001	-0.070
-136.414	-124.132	-0.036	0.006
-135.399	35.493	0.269	-0.235
-134.385	185.893	0.287	0.425
-133.370	-101.644	0.136	0.033
-132.356	-200.000	-0.018	0.382
-131.341	19.243	0.218	0.175
-130.326	800.000	0.124	-0.461
-129.312	-79.828	-0.350	-0.117
-128.297	-129.107	-0.122	0.017
-127.283	-133.611	-0.097	0.012
-126.268	-70.301	-0.322	0.122
-125.253	-17.986	0.330	0.206
-124.239	-200.000	0.020	-0.301
-123.224	562.134	-0.061	-0.147
-122.210	-19.604	-0.209	0.129
