DTS Sentinel unit serial number:	SN413079Multiplexer serial number:	ORYXHardware model number:	OX4-SRSoftware version number:	ORYX F/W v4.00 Oryx Data Collector v3.7.2.0data status	okinstallation	princeton_trtdifferential loss correction	single-endedforward channel	channel 1reverse channel	N/Adate	2019/09/15time	10:34:35forward acquisition time	60.00reverse acquisition time	0.00gamma	496.2192k internal	0.2309k external	0.2309temperature offset calibration	0.9988default loss term (dB/km)	0.3790temperature slope calibration	1.0000multiplexer offset coefficient	1.0000multiplexer slope coefficient	1.0000fibre end	0.00T internal ref (°C)	34.25T ext. ref 1 (°C)	5.03T ext. ref 2 (°C)	29.51length (m)	temperature (°C)	Stokes	anti-Stokes-747.200	-72.589	-0.048	0.018
-746.185	-148.447	-0.151	-0.013
-745.171	670.339	0.114	-0.299
-744.156	133.147	0.150	0.197
-743.142	-200.000	0.209	0.001
-742.127	75.880	-0.208	-0.223
-741.112	254.570	-0.123	-0.215
-740.098	83.589	0.182	0.202
-739.083	-200.000	0.011	0.162
-738.069	-200.000	0.007	0.134
-737.054	314.251	-0.104	-0.199
-736.039	248.899	-0.225	-0.388
-735.025	183.656	0.101	0.152
-734.010	22.952	-0.546	-0.455
-732.996	185.889	-0.230	-0.348
-731.981	-73.382	0.120	0.045
-730.966	-91.422	-0.369	0.107
-729.952	644.973	-0.070	-0.182
-728.937	-200.000	-0.038	-0.532
-727.923	326.519	-0.181	-0.353
-726.908	-113.960	0.078	0.015
-725.894	-41.118	0.222	-0.116
-724.879	-44.176	-0.543	-0.277
-723.864	92.396	0.121	0.139
-722.850	-177.875	0.030	0.001
-721.835	-45.558	-0.104	0.052
-720.821	580.382	-0.116	0.289
-719.806	53.260	0.149	-0.145
-718.791	800.000	0.097	-0.404
-717.777	16.531	-0.104	0.083
-716.762	-174.894	-0.266	-0.008
-715.748	226.522	0.063	-0.104
-714.733	-166.167	-0.083	-0.004
-713.718	164.445	-0.150	-0.214
-712.704	-16.066	-0.154	0.100
-711.689	-160.900	-0.281	0.015
-710.675	-78.327	-0.126	-0.044
-709.660	90.351	-0.107	0.121
-708.645	45.734	0.083	-0.078
-707.631	-51.742	-0.413	-0.195
-706.616	-200.000	0.027	0.193
-705.602	-200.000	0.003	0.014
-704.587	-54.304	-0.047	0.022
-703.572	180.030	-0.042	-0.063
-702.558	800.000	-0.067	0.215
-701.543	-56.035	-0.336	-0.152
-700.529	-200.000	-0.034	0.161
-699.514	800.000	-0.031	-0.088
-698.499	-132.320	-0.109	0.014
-697.485	800.000	0.055	-0.165
-696.470	83.570	0.093	-0.103
-695.456	-58.206	-0.154	0.068
-694.441	-161.662	-0.129	-0.007
-693.426	800.000	-0.076	-0.226
-692.412	-154.623	-0.075	0.005
-691.397	-96.522	0.258	-0.069
-690.383	-176.241	-0.196	0.005
-689.368	-164.702	-0.186	0.009
-688.354	-65.202	-0.103	-0.042
-687.339	94.059	0.073	-0.084
-686.324	81.817	0.133	0.146
-685.310	-26.792	0.032	-0.019
-684.295	-77.899	-0.312	-0.109
-683.281	81.919	0.073	0.080
-682.266	-135.516	0.202	-0.024
-681.251	-85.151	-0.122	-0.039
-680.237	-200.000	0.020	-0.232
-679.222	342.271	0.042	0.084
-678.208	-42.981	-0.208	-0.107
-677.193	800.000	0.037	0.105
-676.178	-93.758	-0.204	-0.057
-675.164	443.879	-0.113	-0.251
-674.149	78.817	-0.211	-0.229
-673.135	198.640	-0.048	0.075
-672.120	641.030	-0.104	0.268
-671.105	72.150	-0.078	-0.082
-670.091	18.587	0.255	-0.207
-669.076	523.383	-0.127	-0.302
-668.062	-64.449	0.104	0.043
-667.047	-84.284	0.146	0.047
-666.032	497.094	-0.010	-0.023
-665.018	724.917	-0.078	0.210
-664.003	294.904	0.177	-0.328
-662.989	-44.749	-0.257	0.130
-661.974	800.000	0.069	-0.225
-660.959	-96.943	-0.032	0.009
-659.945	365.360	0.173	-0.352
-658.930	800.000	-0.074	-0.320
-657.916	800.000	-0.023	0.073
-656.901	799.364	0.056	-0.156
-655.886	-200.000	-0.010	-0.042
-654.872	266.907	-0.179	0.316
-653.857	-93.372	-0.408	0.115
-652.843	-58.113	-0.107	0.047
-651.828	-200.000	-0.019	-0.165
-650.814	331.378	0.057	-0.112
-649.799	5.651	0.150	0.112
-648.784	-5.746	0.075	-0.052
-647.770	-126.075	-0.195	0.030
-646.755	-135.632	-0.206	-0.025
-645.741	-86.689	-0.209	-0.065
-644.726	517.311	-0.035	0.082
-643.711	-34.824	0.072	-0.040
-642.697	31.307	0.199	-0.173
-641.682	-77.236	-0.162	-0.057
-640.668	-20.871	0.078	0.048
-639.653	569.151	-0.093	-0.229
-638.638	29.595	0.044	0.037
-637.624	-148.837	-0.205	-0.017
-636.609	-200.000	0.024	-0.128
-635.595	-136.097	-0.235	0.028
-634.580	-200.000	-0.002	0.018
-633.565	40.802	-0.235	0.214
-632.551	359.796	0.059	-0.119
-631.536	-176.172	0.028	-0.001
-630.522	263.435	-0.034	-0.061
-629.507	800.000	0.041	-0.134
-628.492	152.103	-0.098	0.136
-627.478	140.845	-0.044	0.059
-626.463	340.409	-0.168	0.332
-625.449	-200.000	-0.049	-0.302
-624.434	-200.000	0.037	-0.301
-623.419	213.164	-0.119	0.191
-622.405	-120.146	0.098	-0.017
-621.390	-200.000	0.083	-0.392
-620.376	7.582	0.116	-0.088
-619.361	29.413	0.391	0.336
-618.346	-55.554	-0.253	-0.115
-617.332	-200.000	0.074	-0.353
-616.317	-90.235	0.042	0.012
-615.303	-200.000	0.007	0.040
-614.288	-103.835	0.338	-0.080
-613.273	800.000	-0.049	0.179
-612.259	-89.148	-0.463	-0.138
-611.244	-118.274	-0.099	0.018
-610.230	800.000	-0.120	0.373
-609.215	800.000	0.049	0.180
-608.201	153.610	-0.107	-0.148
-607.186	666.349	-0.037	0.095
-606.171	-116.456	-0.061	-0.011
-605.157	-165.540	-0.196	-0.009
-604.142	800.000	0.008	0.032
-603.128	223.431	0.125	-0.205
-602.113	-200.000	0.042	0.202
-601.098	-200.000	-0.025	-0.249
-600.084	81.903	-0.261	-0.286
-599.069	-91.962	0.139	0.040
-598.055	800.000	0.057	0.233
-597.040	-6.647	-0.246	-0.169
-596.025	-200.000	-0.007	0.214
-595.011	-200.000	0.039	0.210
-593.996	-200.000	0.067	0.341
-592.982	-124.842	-0.381	0.059
-591.967	-153.102	-0.075	-0.005
-590.952	800.000	-0.104	-0.292
-589.938	-66.598	-0.228	0.091
-588.923	-82.524	0.260	0.085
-587.909	171.337	0.020	-0.030
-586.894	191.248	0.091	0.139
-585.879	-4.768	-0.040	-0.028
-584.865	77.485	-0.101	0.109
-583.850	-200.000	-0.003	-0.138
-582.836	635.156	0.109	-0.280
-581.821	7.336	-0.468	-0.353
-580.806	161.374	-0.164	-0.232
-579.792	23.890	-0.059	0.049
-578.777	3.654	-0.112	-0.083
-577.763	-133.083	0.163	-0.021
-576.748	173.118	0.061	0.089
-575.733	800.000	-0.102	-0.286
-574.719	800.000	0.032	0.139
-573.704	439.765	0.021	0.047
-572.690	21.829	0.201	0.166
-571.675	-200.000	0.034	0.489
-570.661	-0.391	0.272	0.195
-569.646	42.740	0.203	-0.186
-568.631	342.729	-0.088	-0.173
-567.617	-142.229	0.315	-0.031
-566.602	-200.000	-0.006	-0.836
-565.588	-90.452	0.148	-0.043
-564.573	800.000	0.113	-0.344
-563.558	285.322	0.096	0.175
-562.544	-19.933	0.210	-0.131
-561.529	-79.910	-0.123	-0.042
-560.515	690.743	0.121	0.320
-559.500	265.169	-0.326	-0.574
-558.485	68.733	0.144	-0.149
-557.471	85.705	-0.304	0.337
-556.456	800.000	0.024	-0.070
-555.442	800.000	0.064	0.183
-554.427	8.509	-0.142	0.108
-553.412	-182.371	0.172	-0.003
-552.398	-119.914	-0.229	-0.040
-551.383	11.216	-0.172	0.133
-550.369	134.830	-0.058	-0.075
-549.354	156.792	-0.100	-0.140
-548.339	-101.405	0.258	-0.063
-547.325	800.000	0.098	-0.277
-546.310	-61.070	-0.246	0.105
-545.296	-200.000	0.036	-0.334
-544.281	800.000	-0.037	0.134
-543.266	-140.080	-0.075	-0.008
-542.252	67.120	-0.279	-0.287
-541.237	617.562	0.076	0.193
-540.223	24.584	0.192	0.161
-539.208	-119.103	0.157	-0.028
-538.193	252.974	-0.103	-0.176
-537.179	-200.000	0.051	0.564
-536.164	-77.293	0.188	0.066
-535.150	-120.933	-0.234	-0.040
-534.135	-200.000	-0.007	0.266
-533.121	800.000	0.057	0.163
-532.106	132.605	-0.059	0.076
-531.091	502.869	0.060	0.140
-530.077	-15.273	-0.153	-0.099
-529.062	-200.000	0.004	0.202
-528.048	-200.000	-0.014	0.068
-527.033	4.105	0.381	0.281
-526.018	17.453	-0.096	-0.077
-525.004	-111.230	0.159	-0.033
-523.989	208.358	-0.058	-0.091
-522.975	-74.456	0.203	0.074
-521.960	800.000	0.056	0.162
-520.945	-200.000	-0.034	0.481
-519.931	214.198	-0.025	0.041
-518.916	-72.651	-0.153	-0.057
-517.902	4.210	-0.207	0.152
-516.887	382.589	0.049	0.101
-515.872	-32.160	-0.161	-0.091
-514.858	-68.778	0.054	0.021
-513.843	9.174	0.332	0.253
-512.829	-200.000	0.027	-0.224
-511.814	29.946	0.159	0.136
-510.799	-200.000	0.058	0.257
-509.785	2.156	-0.174	-0.127
-508.770	22.917	-0.133	-0.110
-507.756	-158.555	-0.251	0.015
-506.741	144.572	0.076	0.103
-505.726	800.000	-0.096	0.341
-504.712	-87.323	-0.079	0.024
-503.697	54.071	-0.234	0.226
-502.683	-49.040	-0.320	-0.154
-501.668	82.588	0.074	-0.081
-500.653	-200.000	-0.007	0.303
-499.639	667.991	0.085	0.220
-498.624	-44.678	-0.278	-0.140
-497.610	-68.238	0.280	0.110
-496.595	231.777	-0.098	-0.162
-495.581	-69.834	0.083	0.032
-494.566	-137.503	0.142	-0.016
-493.551	-200.000	0.071	0.338
-492.537	-54.931	-0.078	-0.035
-491.522	-56.427	0.385	0.172
-490.508	-200.000	0.002	0.071
-489.493	-82.207	0.159	-0.052
-488.478	-105.666	-0.515	-0.117
-487.464	-200.000	-0.031	0.288
-486.449	-200.000	-0.095	0.467
-485.435	-169.016	-0.459	-0.017
-484.420	-113.426	0.178	-0.035
-483.405	45.656	-0.026	0.024
-482.391	756.459	0.015	0.042
-481.376	-80.005	0.225	0.076
-480.362	218.158	0.126	0.201
-479.347	-71.247	-0.044	-0.016
-478.332	152.822	0.283	-0.390
-477.318	206.040	0.200	-0.312
-476.303	385.438	-0.142	0.294
-475.289	-48.306	-0.240	-0.116
-474.274	26.937	-0.198	-0.167
-473.259	-84.018	-0.184	0.059
-472.245	113.180	-0.256	-0.313
-471.230	-137.005	-0.098	0.011
-470.216	-167.579	-0.161	0.006
-469.201	-91.483	-0.178	0.051
-468.186	143.778	-0.074	-0.099
-467.172	-148.424	-0.177	-0.015
-466.157	-68.994	-0.160	-0.062
-465.143	275.048	-0.055	-0.098
-464.128	74.590	-0.226	-0.239
-463.113	351.896	-0.071	-0.142
-462.099	283.793	0.203	-0.367
-461.084	-83.935	-0.205	-0.065
-460.070	-200.000	-0.045	-0.261
-459.055	-146.068	0.358	-0.032
-458.040	-100.514	-0.614	-0.152
-457.026	10.129	0.151	-0.115
-456.011	80.500	0.123	0.133
-454.997	800.000	0.026	0.079
-453.982	-200.000	-0.056	-0.426
-452.968	-158.456	-0.146	-0.008
-451.953	392.793	0.082	0.171
-450.938	-64.399	0.151	0.062
-449.924	261.600	-0.058	-0.102
-448.909	344.857	-0.260	-0.512
-447.895	-129.367	-0.155	-0.022
-446.880	-200.000	-0.085	0.400
-445.865	800.000	0.092	0.333
-444.851	32.716	-0.074	0.064
-443.836	-161.183	0.435	0.023
-442.822	-200.000	0.005	-0.063
-441.807	21.548	-0.181	0.148
-440.792	135.960	0.132	-0.172
-439.778	51.253	0.162	-0.155
-438.763	800.000	0.049	0.155
-437.749	-200.000	-0.071	-0.326
-436.734	-75.515	0.295	0.105
-435.719	-35.760	-0.189	0.103
-434.705	800.000	0.057	-0.250
-433.690	-140.137	-0.230	-0.024
-432.676	-0.939	0.244	0.173
-431.661	-200.000	-0.007	0.080
-430.646	-3.165	0.083	0.058
-429.632	-200.000	-0.036	0.302
-428.617	-200.000	0.035	0.155
-427.603	-117.627	0.283	0.051
-426.588	62.681	-0.078	-0.079
-425.573	28.713	-0.231	-0.197
-424.559	69.428	-0.094	-0.097
-423.544	206.829	-0.036	-0.056
-422.530	-117.344	0.281	-0.051
-421.515	-200.000	0.019	0.085
-420.500	458.198	-0.017	-0.038
-419.486	-66.911	0.276	0.110
-418.471	-151.122	0.144	0.011
-417.457	121.353	-0.144	-0.181
-416.442	122.526	-0.159	0.199
-415.428	715.589	-0.079	0.209
-414.413	-86.943	-0.196	0.060
-413.398	130.784	-0.253	0.325
-412.384	-115.787	-0.286	0.054
-411.369	800.000	0.056	-0.164
-410.355	149.123	-0.195	-0.265
-409.340	-150.680	0.453	0.035
-408.325	-88.798	0.061	-0.018
-407.311	568.580	-0.062	0.151
-406.296	-59.758	0.180	0.077
-405.282	-100.208	0.302	0.075
-404.267	-117.014	-0.184	-0.034
-403.252	800.000	-0.105	0.383
-402.238	-45.627	0.187	0.093
-401.223	118.818	-0.143	-0.177
-400.209	-3.207	0.068	-0.048
-399.194	202.378	-0.036	0.056
-398.179	-166.217	-0.189	0.008
-397.165	148.865	-0.125	0.170
-396.150	331.361	0.041	0.079
-395.136	-200.000	-0.031	-0.149
-394.121	376.323	-0.106	0.217
-393.106	-4.773	-0.317	-0.219
-392.092	73.325	-0.109	0.115
-391.077	-179.354	0.246	-0.005
-390.063	-200.000	0.051	0.509
-389.048	-29.378	0.209	0.120
-388.033	-66.590	-0.152	-0.060
-387.019	69.541	-0.184	0.189
-386.004	-200.000	-0.043	-0.217
-384.990	73.419	0.077	0.081
-383.975	158.463	-0.148	-0.205
-382.960	-148.279	0.141	0.012
-381.946	18.553	0.118	-0.095
-380.931	-200.000	0.020	-0.435
-379.917	32.548	0.021	-0.018
-378.902	-200.000	0.008	-0.100
-377.888	108.362	-0.134	-0.161
-376.873	-9.110	0.399	0.268
-375.858	800.000	0.092	0.294
-374.844	119.983	-0.094	0.116
-373.829	92.168	0.095	-0.108
-372.815	221.701	0.230	0.371
-371.800	85.060	0.302	-0.331
-370.785	200.722	-0.113	-0.174
-369.771	1.308	0.070	0.050
-368.756	-200.000	-0.072	0.526
-367.742	-54.295	0.223	-0.101
-366.727	10.081	0.211	-0.160
-365.712	-200.000	0.006	-0.035
-364.698	21.715	-0.207	-0.169
-363.683	39.527	-0.094	-0.085
-362.669	-108.630	-0.229	-0.049
-361.654	197.718	-0.070	-0.107
-360.639	12.432	-0.258	0.199
-359.625	25.299	-0.105	-0.087
-358.610	-79.964	0.390	-0.131
-357.596	-76.721	0.126	0.044
-356.581	-68.361	-0.286	-0.111
-355.566	-200.000	0.013	0.209
-354.552	-43.530	0.195	0.099
-353.537	-56.847	-0.285	-0.126
-352.523	-200.000	-0.178	0.000
-351.508	323.860	-0.075	-0.142
-350.493	275.201	0.071	0.127
-349.479	800.000	-0.145	0.427
-348.464	178.562	0.051	0.075
-347.450	112.358	0.149	-0.180
-346.435	-200.000	-0.030	-0.226
-345.420	8.357	0.263	0.198
-344.406	-200.000	0.013	-0.376
-343.391	-20.778	-0.190	-0.116
-342.377	65.965	0.282	-0.286
-341.362	62.058	0.207	-0.206
-340.348	20.561	0.119	0.096
-339.333	-200.000	0.057	-0.390
-338.318	-109.652	-0.270	0.057
-337.304	-34.178	0.258	-0.142
-336.289	-200.000	0.020	0.143
-335.275	534.987	-0.160	0.380
-334.260	-31.878	-0.295	0.165
-333.245	-180.949	-0.251	-0.005
-332.231	-148.922	0.220	-0.018
-331.216	307.427	-0.020	-0.037
-330.202	-94.468	0.134	0.036
-329.187	-186.090	-0.588	-0.009
-328.172	-200.000	0.051	-0.396
-327.158	15.304	0.084	0.066
-326.143	-80.975	-0.343	0.114
-325.129	-58.067	-0.272	0.119
-324.114	-96.944	0.038	0.010
-323.099	800.000	-0.050	0.200
-322.085	-200.000	0.030	-0.213
-321.070	-109.331	0.260	0.055
-320.056	800.000	-0.096	-0.312
-319.041	382.099	-0.141	-0.289
-318.026	-176.690	-0.112	0.003
-317.012	23.306	0.060	0.050
-315.997	265.084	0.082	-0.144
-314.983	325.776	-0.146	0.279
-313.968	-177.826	0.276	-0.007
-312.953	-200.000	-0.032	-0.235
-311.939	-200.000	0.006	-0.034
-310.924	-110.172	-0.102	-0.021
-309.910	-106.883	0.245	-0.054
-308.895	-83.304	-0.313	-0.100
-307.880	-5.728	0.089	0.061
-306.866	-62.472	0.138	-0.057
-305.851	128.167	-0.113	0.144
-304.837	194.659	0.072	-0.110
-303.822	463.937	-0.097	0.216
-302.807	-200.000	-0.024	0.109
-301.793	-68.857	-0.312	0.120
-300.778	-89.706	0.316	0.092
-299.764	-10.766	0.055	0.037
-298.749	697.780	-0.134	-0.351
-297.735	-100.759	0.219	0.054
-296.720	36.030	-0.211	-0.186
-295.705	175.608	0.085	-0.124
-294.691	-110.478	0.211	-0.044
-293.676	-117.949	0.169	-0.030
-292.662	-76.203	0.082	0.029
-291.647	-47.218	0.190	-0.093
-290.632	-76.446	0.093	0.033
-289.618	242.321	0.118	0.197
-288.603	-64.779	-0.223	0.090
-287.589	519.195	0.078	0.183
-286.574	-200.000	0.036	-0.540
-285.559	-38.582	0.207	-0.109
-284.545	-200.000	0.021	0.109
-283.530	206.673	-0.058	-0.090
-282.516	-200.000	-0.009	-0.233
-281.501	390.113	0.142	0.294
-280.486	-11.574	-0.286	-0.188
-279.472	-165.688	0.467	-0.020
-278.457	-200.000	-0.022	0.151
-277.443	55.516	-0.093	-0.089
-276.428	-2.284	0.159	0.111
-275.413	659.328	-0.108	-0.277
-274.399	27.502	-0.224	0.188
-273.384	37.275	-0.068	0.060
-272.370	123.928	0.087	-0.109
-271.355	-63.501	0.272	-0.112
-270.340	-26.414	-0.236	0.138
-269.326	-61.306	0.373	0.156
-268.311	-115.552	0.195	0.037
-267.297	128.173	-0.161	0.205
-266.282	800.000	0.055	0.211
-265.267	372.055	-0.122	0.247
-264.253	550.806	-0.035	-0.083
-263.238	-81.946	0.110	-0.036
-262.224	-27.160	0.095	0.055
-261.209	800.000	0.030	-0.128
-260.195	-81.881	0.245	-0.080
-259.180	-200.000	-0.018	0.141
-258.165	92.093	0.141	0.158
-257.151	190.257	-0.052	0.078
-256.136	716.718	0.117	0.310
-255.122	-106.816	0.064	0.014
-254.107	800.000	0.064	0.208
-253.092	-200.000	-0.015	-0.249
-252.078	-200.000	0.035	0.282
-251.063	-200.000	-0.018	0.148
-250.049	-103.870	-0.202	0.047
-249.034	-78.481	-0.436	-0.149
-248.019	-34.257	-0.350	-0.191
-247.005	-200.000	0.009	-0.420
-245.990	-144.518	-0.073	-0.007
-244.976	460.967	0.051	-0.114
-243.961	-58.468	0.191	0.083
-242.946	-102.393	0.140	-0.034
-241.932	-200.000	0.035	-0.187
-240.917	-200.000	-0.005	0.358
-239.903	316.666	0.106	0.200
-238.888	-200.000	0.006	0.124
-237.873	800.000	0.028	0.088
-236.859	-23.683	0.292	-0.174
-235.844	-200.000	0.024	0.240
-234.830	-63.175	-0.342	0.141
-233.815	-200.000	0.010	0.240
-232.800	-199.363	0.179	0.001
-231.786	223.232	-0.087	-0.140
-230.771	334.682	-0.046	-0.089
-229.757	67.740	0.337	-0.342
-228.742	800.000	-0.158	-0.517
-227.727	136.065	0.286	-0.371
-226.713	689.953	0.111	0.288
-225.698	800.000	0.052	-0.211
-224.684	347.345	0.068	0.133
-223.669	63.061	-0.218	0.218
-222.655	-80.786	-0.110	-0.036
-221.640	-174.634	0.435	-0.012
-220.625	-110.420	0.361	0.075
-219.611	-140.149	0.080	-0.008
-218.596	-200.000	0.103	0.505
-217.582	519.423	-0.094	0.219
-216.567	-72.890	0.276	0.101
-215.552	-200.000	0.013	0.331
-214.538	443.467	-0.091	-0.199
-213.523	-200.000	0.036	0.317
-212.509	-150.210	-0.327	-0.025
-211.494	-45.220	0.300	0.148
-210.479	126.716	0.152	-0.192
-209.465	-4.278	0.145	0.100
-208.450	591.843	0.019	0.046
-207.436	13.424	0.218	0.169
-206.421	8.319	0.383	-0.286
-205.406	-94.294	0.009	0.002
-204.392	-2.842	0.355	0.247
-203.377	81.033	-0.165	-0.177
-202.363	-28.602	-0.278	-0.159
-201.348	-102.068	0.248	0.060
-200.333	800.000	-0.088	-0.297
-199.319	470.315	0.082	0.182
-198.304	209.451	0.019	-0.030
-197.290	209.541	-0.198	-0.309
-196.275	-200.000	0.003	-0.068
-195.260	326.321	0.172	-0.327
-194.246	-8.500	0.088	0.059
-193.231	-11.999	0.140	0.091
-192.217	469.481	0.078	0.175
-191.202	-92.359	-0.106	0.030
-190.187	800.000	-0.059	-0.188
-189.173	800.000	0.041	0.134
-188.158	196.620	0.165	-0.250
-187.144	24.321	-0.047	0.038
-186.129	-129.128	0.239	-0.033
-185.114	-41.526	0.087	0.044
-184.100	-64.372	-0.340	-0.137
-183.085	131.985	-0.148	-0.189
-182.071	-200.000	-0.019	0.116
-181.056	184.018	0.129	-0.189
-180.042	-23.846	0.322	0.192
-179.027	-200.000	0.034	0.218
-178.012	76.800	-0.214	-0.226
-176.998	309.229	-0.017	-0.032
-175.983	358.697	-0.072	-0.144
-174.969	-67.958	0.067	0.026
-173.954	-200.000	0.064	0.347
-172.939	91.438	0.257	-0.287
-171.925	800.000	0.072	0.238
-170.910	-29.163	-0.333	-0.190
-169.896	-125.184	0.178	0.027
-168.881	-80.605	0.113	0.037
-167.866	-200.000	0.010	0.124
-166.852	97.337	-0.077	-0.088
-165.837	-200.000	0.006	-0.111
-164.823	-83.587	-0.060	-0.019
-163.808	-29.420	-0.316	-0.180
-162.793	154.129	0.246	-0.336
-161.779	190.237	-0.107	-0.160
-160.764	12.044	0.214	-0.163
-159.750	-58.431	0.068	-0.029
-158.735	52.234	0.316	0.299
-157.720	-200.000	0.003	-0.311
-156.706	28.974	0.138	0.116
-155.691	0.206	-0.145	0.103
-154.677	-10.632	-0.376	0.247
-153.662	-1.659	0.187	-0.131
-152.647	-177.323	-0.145	-0.004
-151.633	-136.304	-0.247	0.029
-150.618	58.114	0.151	0.146
-149.604	45.593	0.115	-0.106
-148.589	76.542	0.171	-0.180
-147.574	-200.000	-0.019	-0.166
-146.560	-200.000	-0.024	-0.138
-145.545	89.917	0.188	-0.208
-144.531	25.301	0.269	-0.222
-143.516	62.892	-0.123	0.122
-142.502	-79.142	0.030	0.010
-141.487	800.000	-0.090	-0.323
-140.472	-200.000	-0.004	0.132
-139.458	34.115	-0.143	0.124
-138.443	-200.000	-0.027	-0.141
-137.429	-25.724	0.104	-0.061
-136.414	19.224	-0.025	0.020
-135.399	86.328	-0.106	-0.116
-134.385	-20.840	0.107	-0.065
-133.370	-57.662	-0.055	0.024
-132.356	-200.000	0.007	0.193
-131.341	800.000	0.059	0.217
-130.326	-40.974	-0.167	0.086
-129.312	-120.615	0.092	-0.015
-128.297	708.436	-0.025	-0.065
-127.283	-79.070	0.385	-0.130
-126.268	174.255	-0.254	-0.364
-125.253	-200.000	0.041	-0.436
-124.239	800.000	-0.059	-0.255
-123.224	-7.340	-0.365	-0.245
-122.210	79.207	-0.144	-0.153
-121.195	41.161	0.141	-0.126
