DTS Sentinel unit serial number:	SN413079Multiplexer serial number:	ORYXHardware model number:	OX4-SRSoftware version number:	ORYX F/W v4.00 Oryx Data Collector v3.7.2.0data status	okinstallation	princeton_trtdifferential loss correction	single-endedforward channel	channel 1reverse channel	N/Adate	2019/09/16time	17:10:35forward acquisition time	60.00reverse acquisition time	0.00gamma	496.2192k internal	0.2297k external	0.2297temperature offset calibration	0.9964default loss term (dB/km)	0.3790temperature slope calibration	1.0000multiplexer offset coefficient	1.0000multiplexer slope coefficient	1.0000fibre end	0.00T internal ref (°C)	39.05T ext. ref 1 (°C)	15.35T ext. ref 2 (°C)	33.11length (m)	temperature (°C)	Stokes	anti-Stokes-747.200	-78.046	-0.192	0.068
-746.185	-200.000	0.018	0.233
-745.171	-100.752	0.066	0.017
-744.156	544.849	-0.083	0.204
-743.142	66.371	-0.167	0.174
-742.127	-200.000	0.008	0.433
-741.112	-200.000	0.026	0.239
-740.098	523.344	0.045	0.108
-739.083	-34.508	-0.201	-0.113
-738.069	-53.412	-0.286	0.134
-737.054	-162.357	0.219	-0.011
-736.039	-160.308	-0.381	-0.021
-735.025	43.029	0.137	0.128
-734.010	-51.428	-0.160	0.076
-732.996	-138.152	0.314	-0.036
-731.981	38.555	-0.046	-0.042
-730.966	-200.000	0.022	0.158
-729.952	-127.224	-0.194	0.029
-728.937	-158.540	0.279	-0.016
-727.923	719.663	0.084	-0.227
-726.908	-54.667	-0.251	-0.116
-725.894	96.312	-0.123	-0.143
-724.879	-68.316	-0.077	-0.031
-723.864	-200.000	0.008	0.058
-722.850	-200.000	0.018	0.103
-721.835	-200.000	-0.016	0.111
-720.821	-164.376	0.270	-0.013
-719.806	-12.285	-0.287	0.192
-718.791	800.000	0.070	-0.239
-717.777	-34.519	-0.365	-0.204
-716.762	-200.000	0.000	-0.124
-715.748	800.000	0.026	-0.096
-714.733	800.000	0.031	0.123
-713.718	-200.000	0.014	-0.117
-712.704	-117.404	-0.080	0.015
-711.689	-52.924	-0.220	0.103
-710.675	800.000	-0.068	-0.276
-709.660	-68.250	0.113	0.045
-708.645	-100.584	0.146	0.037
-707.631	5.581	-0.043	0.033
-706.616	248.247	-0.194	0.335
-705.602	113.293	0.086	-0.106
-704.587	-132.722	0.475	0.062
-703.572	-93.672	-0.028	0.008
-702.558	-200.000	-0.005	-0.111
-701.543	-107.207	-0.280	0.063
-700.529	800.000	-0.081	0.282
-699.514	-200.000	0.024	-0.344
-698.499	259.408	-0.035	0.062
-697.485	13.066	-0.144	0.114
-696.470	228.667	-0.116	0.193
-695.456	-5.993	0.083	0.058
-694.441	-157.323	-0.176	0.011
-693.426	800.000	0.090	0.322
-692.412	800.000	0.009	0.035
-691.397	-200.000	0.016	-0.281
-690.383	800.000	0.012	-0.041
-689.368	-132.370	-0.193	-0.025
-688.354	30.783	-0.315	0.275
-687.339	800.000	0.109	-0.323
-686.324	112.369	0.109	-0.134
-685.310	-148.221	0.174	0.015
-684.295	-113.122	-0.301	0.061
-683.281	203.772	-0.130	0.204
-682.266	45.657	-0.068	-0.064
-681.251	-129.921	-0.436	0.061
-680.237	-73.451	-0.117	0.044
-679.222	27.442	0.184	-0.157
-678.208	-101.574	-0.401	-0.099
-677.193	247.719	-0.116	0.200
-676.178	-31.691	-0.432	0.247
-675.164	-156.239	0.128	-0.008
-674.149	177.282	-0.216	0.320
-673.135	207.862	-0.131	0.208
-672.120	-3.722	-0.078	0.055
-671.105	253.153	0.078	-0.136
-670.091	-84.305	0.195	-0.063
-669.076	30.638	0.184	-0.160
-668.062	141.179	-0.108	0.146
-667.047	210.187	-0.175	0.280
-666.032	-73.541	-0.228	0.085
-665.018	-72.167	0.239	-0.090
-664.003	14.298	0.093	-0.074
-662.989	559.807	-0.114	-0.280
-661.974	498.332	0.021	-0.048
-660.959	51.713	0.082	0.079
-659.945	-180.945	0.296	-0.006
-658.930	462.480	0.112	-0.253
-657.916	-156.608	-0.080	-0.005
-656.901	800.000	0.048	0.190
-655.886	162.299	-0.040	-0.058
-654.872	-28.616	0.123	-0.072
-653.857	-105.347	-0.273	0.063
-652.843	-35.098	-0.105	-0.058
-651.828	138.432	-0.139	-0.185
-650.814	-114.684	-0.120	0.023
-649.799	-62.990	0.214	-0.090
-648.784	217.105	0.008	-0.014
-647.770	-41.131	-0.191	-0.101
-646.755	788.402	0.078	-0.217
-645.741	-117.996	0.133	-0.024
-644.726	-200.000	-0.022	-0.115
-643.711	283.564	-0.162	-0.296
-642.697	-49.058	-0.222	0.108
-641.682	800.000	0.097	-0.397
-640.668	-28.836	-0.396	0.232
-639.653	-109.246	-0.265	-0.057
-638.638	-52.694	-0.183	-0.086
-637.624	800.000	0.078	-0.236
-636.609	14.152	0.280	-0.222
-635.595	53.746	0.169	0.165
-634.580	-158.738	0.122	0.007
-633.565	-56.032	0.048	0.022
-632.551	222.739	-0.181	-0.296
-631.536	75.972	-0.046	0.050
-630.522	8.556	-0.144	-0.110
-629.507	-98.960	-0.335	0.087
-628.492	113.731	-0.086	-0.106
-627.478	-85.713	-0.058	-0.018
-626.463	86.661	0.144	-0.161
-625.449	-200.000	-0.022	-0.220
-624.434	-200.000	0.004	0.206
-623.419	338.468	0.123	-0.243
-622.405	-6.074	-0.168	-0.117
-621.390	133.416	-0.252	-0.332
-620.376	244.356	0.025	-0.042
-619.361	423.926	-0.118	0.259
-618.346	-200.000	0.037	0.189
-617.332	-110.691	0.187	0.039
-616.317	-76.364	-0.107	-0.038
-615.303	800.000	-0.128	-0.467
-614.288	-200.000	-0.025	-0.182
-613.273	-200.000	-0.019	-0.101
-612.259	40.900	-0.204	0.187
-611.244	779.696	0.026	-0.072
-610.230	-181.870	-0.154	-0.003
-609.215	82.816	-0.282	-0.311
-608.201	96.467	-0.133	-0.155
-607.186	800.000	0.046	0.137
-606.171	-146.161	0.125	-0.011
-605.157	-47.370	-0.246	-0.122
-604.142	800.000	-0.019	-0.077
-603.128	-57.128	0.183	0.082
-602.113	-200.000	-0.041	-0.203
-601.098	-185.705	0.400	0.006
-600.084	239.657	0.077	-0.130
-599.069	-123.118	-0.257	0.042
-598.055	202.047	-0.250	-0.392
-597.040	-116.588	-0.305	-0.057
-596.025	602.095	-0.035	-0.088
-595.011	109.494	-0.153	0.187
-593.996	44.903	-0.070	0.066
-592.982	110.512	0.151	0.184
-591.967	32.099	-0.179	-0.156
-590.952	-56.474	0.221	0.100
-589.938	110.201	-0.207	0.253
-588.923	108.385	-0.112	-0.136
-587.909	800.000	-0.023	-0.101
-586.894	324.351	0.163	0.315
-585.879	154.234	0.078	0.109
-584.865	-114.384	-0.280	0.055
-583.850	-200.000	-0.015	-0.316
-582.836	127.405	0.233	-0.301
-581.821	85.245	0.120	-0.134
-580.806	-113.026	-0.062	0.012
-579.792	-111.864	0.108	-0.022
-578.777	276.101	0.025	-0.045
-577.763	535.834	0.113	-0.272
-576.748	390.905	-0.112	0.236
-575.733	-128.800	0.268	-0.038
-574.719	-21.902	-0.154	-0.095
-573.704	-117.756	-0.086	-0.016
-572.690	243.163	-0.257	0.437
-571.675	-63.000	0.170	-0.071
-570.661	-98.255	0.291	0.076
-569.646	-92.295	-0.281	-0.080
-568.631	-117.167	-0.458	-0.085
-567.617	-0.451	-0.216	0.156
-566.602	-200.000	-0.006	-0.207
-565.588	-164.974	-0.374	0.017
-564.573	-200.000	-0.008	0.085
-563.558	368.397	-0.008	-0.016
-562.544	55.247	-0.219	0.215
-561.529	-145.901	0.157	-0.014
-560.515	-200.000	-0.011	0.314
-559.500	-116.937	-0.202	-0.037
-558.485	-92.670	-0.169	-0.048
-557.471	800.000	-0.103	0.298
-556.456	-57.500	-0.066	0.030
-555.442	-167.476	0.164	0.007
-554.427	102.162	0.311	0.369
-553.412	-200.000	-0.004	0.262
-552.398	-200.000	-0.018	-0.112
-551.383	-121.292	-0.061	0.010
-550.369	632.912	-0.072	0.185
-549.354	111.590	-0.195	-0.238
-548.339	800.000	-0.142	-0.467
-547.325	-200.000	0.002	-0.097
-546.310	279.766	0.190	-0.345
-545.296	-139.743	0.173	-0.019
-544.281	142.264	0.129	-0.174
-543.266	800.000	0.027	0.096
-542.252	135.665	0.135	-0.178
-541.237	70.206	0.089	-0.093
-540.223	195.276	0.170	-0.261
-539.208	-200.000	0.187	0.001
-538.193	-167.740	-0.130	0.005
-537.179	-71.301	0.365	0.139
-536.164	-22.599	0.194	-0.119
-535.150	65.591	0.146	0.150
-534.135	-101.269	0.205	0.051
-533.121	-83.203	0.211	0.069
-532.106	-130.799	-0.201	-0.027
-531.091	210.754	-0.047	0.075
-530.077	183.299	-0.136	0.204
-529.062	800.000	0.034	-0.111
-528.048	114.297	0.101	-0.125
-527.033	-78.515	0.189	-0.066
-526.018	-13.488	0.319	-0.209
-525.004	-19.070	0.122	0.077
-523.989	39.722	0.121	-0.110
-522.975	800.000	-0.064	0.265
-521.960	-32.625	-0.231	-0.130
-520.945	-101.934	-0.263	0.064
-519.931	-56.130	0.343	-0.155
-518.916	-147.120	-0.235	0.020
-517.902	-200.000	0.024	0.276
-516.887	185.160	0.089	0.133
-515.872	0.098	0.297	-0.215
-514.858	615.090	0.098	0.250
-513.843	132.234	-0.099	-0.129
-512.829	-76.733	0.191	0.068
-511.814	800.000	0.036	0.102
-510.799	-125.303	0.093	-0.014
-509.785	-4.850	-0.089	-0.062
-508.770	800.000	0.100	0.345
-507.756	197.482	-0.104	-0.161
-506.741	-200.000	-0.052	0.292
-505.726	554.066	-0.035	0.085
-504.712	-166.105	-0.196	0.008
-503.697	-200.000	-0.089	0.000
-502.683	126.028	0.078	0.100
-501.668	-135.447	0.071	0.009
-500.653	-65.080	-0.221	-0.090
-499.639	220.313	-0.066	-0.107
-498.624	-99.628	-0.382	-0.097
-497.610	-156.919	0.206	0.013
-496.595	125.771	0.237	0.302
-495.581	480.872	0.122	-0.279
-494.566	189.970	-0.127	-0.192
-493.551	-116.786	0.143	0.027
-492.537	51.018	0.211	0.203
-491.522	-15.405	-0.284	-0.183
-490.508	-200.000	-0.013	-0.122
-489.493	-52.352	0.062	0.029
-488.478	175.880	-0.043	0.062
-487.464	-47.181	0.416	0.205
-486.449	800.000	-0.173	0.490
-485.435	29.983	-0.384	0.331
-484.420	-200.000	-0.031	0.169
-483.405	-3.138	0.182	-0.128
-482.391	800.000	0.043	-0.150
-481.376	28.291	0.252	-0.215
-480.362	800.000	-0.077	-0.252
-479.347	213.037	0.188	-0.300
-478.332	-116.960	-0.321	0.059
-477.318	-181.498	0.195	-0.004
-476.303	-43.899	0.213	0.109
-475.289	-75.515	0.261	0.094
-474.274	-111.055	-0.379	0.079
-473.259	-200.000	-0.024	0.231
-472.245	-154.697	0.203	0.014
-471.230	-200.000	0.002	-0.112
-470.216	78.944	-0.290	0.314
-469.201	-147.025	-0.147	-0.013
-468.186	-190.994	-0.350	0.004
-467.172	108.727	0.162	0.196
-466.157	-155.473	-0.155	-0.010
-465.143	288.570	0.056	0.102
-464.128	-68.052	0.038	-0.015
-463.113	35.545	-0.253	0.225
-462.099	127.224	-0.103	-0.133
-461.084	-127.925	-0.164	-0.024
-460.070	-77.755	-0.332	0.116
-459.055	35.542	0.202	0.179
-458.040	6.606	0.125	0.094
-457.026	466.971	-0.041	0.093
-456.011	800.000	-0.064	-0.237
-454.997	-200.000	-0.062	-0.353
-453.982	211.970	-0.143	-0.228
-452.968	74.697	0.043	-0.046
-451.953	88.368	-0.263	0.295
-450.938	-200.000	0.042	-0.223
-449.924	262.761	-0.092	-0.162
-448.909	189.351	-0.153	-0.231
-447.895	158.089	-0.098	0.138
-446.880	800.000	-0.045	-0.166
-445.865	40.998	-0.164	-0.150
-444.851	22.447	-0.187	0.154
-443.836	-200.000	-0.007	0.159
-442.822	130.624	0.146	0.188
-441.807	-70.263	-0.227	0.087
-440.792	-200.000	0.013	0.206
-439.778	-154.960	0.348	0.023
-438.763	-200.000	0.016	0.098
-437.749	-200.000	-0.002	-0.110
-436.734	45.425	-0.108	-0.100
-435.719	380.626	0.151	0.312
-434.705	111.435	-0.031	0.038
-433.690	-0.438	0.271	-0.194
-432.676	-71.780	-0.104	0.039
-431.661	67.705	0.390	-0.402
-430.646	-3.058	0.188	0.132
-429.632	-83.309	0.176	0.057
-428.617	-54.492	0.157	-0.072
-427.603	-14.308	-0.235	0.153
-426.588	-78.864	-0.327	0.112
-425.573	-108.680	-0.126	0.027
-424.559	-59.815	-0.365	-0.158
-423.544	-32.293	-0.080	-0.045
-422.530	800.000	-0.083	-0.276
-421.515	-88.069	-0.062	0.019
-420.500	483.670	-0.036	-0.083
-419.486	91.115	-0.159	0.180
-418.471	-200.000	0.033	-0.225
-417.457	-29.930	-0.338	-0.194
-416.442	47.456	0.140	0.131
-415.428	-41.303	0.272	0.142
-414.413	132.728	-0.176	-0.229
-413.398	-42.987	0.224	-0.114
-412.384	-136.239	0.247	-0.029
-411.369	-85.068	0.107	-0.034
-410.355	344.248	-0.045	0.090
-409.340	79.456	0.019	0.021
-408.325	2.245	-0.191	0.139
-407.311	-200.000	0.007	-0.054
-406.296	569.930	0.016	0.040
-405.282	-200.000	0.001	-0.076
-404.267	69.471	0.143	-0.148
-403.252	56.805	0.244	-0.239
-402.238	-200.000	0.008	-0.088
-401.223	-37.580	0.340	-0.183
-400.209	-120.490	-0.278	0.048
-399.194	800.000	-0.068	0.272
-398.179	-102.135	-0.085	-0.021
-397.165	-200.000	-0.006	-0.215
-396.150	70.759	0.187	-0.195
-395.136	-200.000	-0.004	-0.299
-394.121	-131.229	-0.339	0.045
-393.106	6.765	0.091	-0.069
-392.092	-50.289	-0.416	-0.198
-391.077	-60.300	0.233	0.100
-390.063	417.750	-0.048	0.103
-389.048	-63.444	0.107	-0.044
-388.033	67.441	-0.151	0.155
-387.019	225.847	0.196	0.319
-386.004	180.272	-0.073	0.108
-384.990	-55.377	0.086	0.039
-383.975	333.007	-0.083	-0.162
-382.960	-152.664	0.253	-0.018
-381.946	463.432	0.110	-0.248
-380.931	-191.969	0.302	0.003
-379.917	-98.295	0.160	0.041
-378.902	-200.000	-0.277	-0.000
-377.888	-53.426	-0.204	-0.094
-376.873	21.993	0.195	-0.160
-375.858	3.686	-0.374	0.275
-374.844	800.000	0.070	0.265
-373.829	-143.569	0.110	-0.011
-372.815	800.000	-0.093	0.262
-371.800	-113.763	-0.273	0.053
-370.785	206.271	-0.179	-0.280
-369.771	-100.648	-0.118	0.029
-368.756	-200.000	-0.011	-0.094
-367.742	-105.922	0.273	0.062
-366.727	116.422	-0.068	-0.083
-365.712	-200.000	-0.003	0.196
-364.698	-200.000	-0.006	0.105
-363.683	-36.073	-0.276	0.150
-362.669	140.386	0.180	-0.240
-361.654	145.277	0.034	0.045
-360.639	209.159	-0.012	0.019
-359.625	20.620	0.146	-0.119
-358.610	800.000	-0.065	-0.281
-357.596	-130.953	0.367	-0.049
-356.581	-11.141	0.167	0.111
-355.566	-178.338	-0.430	0.010
-354.552	149.466	0.108	-0.147
-353.537	119.676	0.073	0.091
-352.523	800.000	0.067	-0.199
-351.508	-181.094	0.235	-0.005
-350.493	-200.000	0.051	0.371
-349.479	116.459	0.111	0.137
-348.464	800.000	0.059	-0.220
-347.450	56.358	-0.075	0.073
-346.435	800.000	0.071	0.235
-345.420	-200.000	-0.021	0.197
-344.406	-200.000	-0.016	-0.096
-343.391	-182.100	0.156	-0.003
-342.377	18.790	-0.168	0.136
-341.362	-28.087	0.251	0.146
-340.348	574.766	-0.022	-0.053
-339.333	82.495	0.064	-0.070
-338.318	-124.841	-0.198	0.031
-337.304	17.573	0.187	0.150
-336.289	-97.279	0.360	0.094
-335.275	-200.000	0.015	-0.278
-334.260	105.879	0.140	-0.167
-333.245	800.000	-0.072	-0.256
-332.231	800.000	-0.066	0.257
-331.216	120.060	0.119	0.148
-330.202	-58.164	0.138	0.061
-329.187	251.384	-0.052	-0.088
-328.172	45.059	0.065	0.060
-327.158	18.265	-0.247	-0.198
-326.143	473.436	-0.038	0.085
-325.129	150.056	0.215	-0.293
-324.114	-16.145	0.324	0.207
-323.099	-200.000	0.036	0.385
-322.085	76.475	0.237	0.252
-321.070	800.000	-0.058	-0.244
-320.056	385.043	-0.042	0.088
-319.041	128.006	0.176	0.225
-318.026	-52.927	0.282	0.130
-317.012	156.007	0.151	0.210
-315.997	800.000	-0.043	-0.158
-314.983	-80.879	0.076	0.025
-313.968	-200.000	0.053	-0.331
-312.953	-99.221	-0.195	0.049
-311.939	313.556	0.374	0.707
-310.924	144.362	-0.056	0.076
-309.910	-53.544	0.349	-0.160
-308.895	800.000	0.022	0.075
-307.880	81.585	0.140	0.152
-306.866	-6.384	0.227	-0.155
-305.851	234.102	0.209	0.346
-304.837	-200.000	-0.005	-0.286
-303.822	-142.051	0.116	-0.012
-302.807	-155.875	-0.133	0.008
-301.793	305.493	-0.057	-0.106
-300.778	800.000	-0.070	0.292
-299.764	141.592	0.180	-0.240
-298.749	-200.000	0.010	-0.187
-297.735	-60.681	-0.533	0.227
-296.720	-13.215	-0.314	-0.205
-295.705	132.085	-0.164	-0.211
-294.691	38.285	0.114	-0.102
-293.676	-200.000	0.009	-0.330
-292.662	-63.616	0.315	0.130
-291.647	-200.000	-0.041	-0.192
-290.632	-200.000	-0.031	0.222
-289.618	-37.374	-0.217	0.116
-288.603	4.921	-0.232	0.171
-287.589	-163.981	0.047	0.002
-286.574	119.553	-0.246	0.305
-285.559	-102.159	-0.130	-0.031
-284.545	-200.000	-0.017	-0.088
-283.530	-180.341	-0.233	0.005
-282.516	255.191	0.168	0.288
-281.501	241.863	0.105	0.176
-280.486	73.942	0.110	0.115
-279.472	-200.000	-0.014	-0.096
-278.457	-139.134	-0.263	-0.028
-277.443	800.000	-0.014	0.043
-276.428	800.000	0.077	0.236
-275.413	500.694	0.134	-0.310
-274.399	-65.090	-0.277	0.112
-273.384	21.916	-0.072	-0.059
-272.370	-45.439	0.306	-0.152
-271.355	-91.350	0.368	0.106
-270.340	75.349	-0.296	0.314
-269.326	-161.260	-0.231	-0.012
-268.311	36.749	-0.371	0.329
-267.297	-146.816	0.277	-0.024
-266.282	-200.000	0.026	0.339
-265.267	515.441	-0.051	0.118
-264.253	-68.380	0.391	0.152
-263.238	-87.843	-0.384	-0.116
-262.224	-200.000	-0.015	0.100
-261.209	-115.941	0.153	0.029
-260.195	51.193	0.278	0.264
-259.180	-200.000	0.004	0.065
-258.165	-200.000	-0.002	0.200
-257.151	32.111	0.061	-0.053
-256.136	800.000	0.043	0.181
-255.122	-52.487	-0.100	-0.046
-254.107	167.844	0.148	0.211
-253.092	1.356	-0.232	0.167
-252.078	32.011	-0.020	0.017
-251.063	335.082	0.068	0.132
-250.049	-31.681	-0.351	0.197
-249.034	-51.896	-0.086	-0.040
-248.019	135.878	-0.055	0.072
-247.005	800.000	0.116	0.373
-245.990	-11.394	0.363	0.240
-244.976	341.442	-0.111	0.218
-243.961	-4.741	0.240	0.166
-242.946	-0.134	0.124	-0.089
-241.932	-23.006	-0.194	0.117
-240.917	-200.000	-0.014	-0.403
-239.903	-200.000	0.025	0.139
-238.888	8.429	-0.081	0.061
-237.873	-95.245	0.244	0.066
-236.859	-200.000	-0.011	0.061
-235.844	591.668	-0.036	-0.089
-234.830	-18.522	-0.185	0.116
-233.815	-200.000	0.003	0.099
-232.800	56.629	-0.183	-0.178
-231.786	-158.251	-0.167	-0.010
-230.771	-45.942	0.293	-0.145
-229.757	-13.467	0.035	-0.023
-228.742	-200.000	-0.004	0.319
-227.727	-98.086	-0.217	-0.056
-226.713	303.574	0.096	-0.178
-225.698	-200.000	0.033	-0.155
-224.684	-19.532	0.201	-0.125
-223.669	200.906	0.108	0.166
-222.655	86.974	0.089	0.099
-221.640	402.924	0.054	0.113
-220.625	-86.939	0.202	-0.062
-219.611	102.481	0.077	0.090
-218.596	-200.000	-0.001	-0.068
-217.582	260.028	0.211	0.364
-216.567	91.204	0.020	-0.023
-215.552	-131.245	0.172	-0.023
-214.538	-86.741	0.203	-0.062
-213.523	60.780	-0.271	-0.269
-212.509	-200.000	-0.020	-0.100
-211.494	-200.000	-0.015	-0.141
-210.479	199.328	0.110	-0.168
-209.465	-195.848	0.164	-0.001
-208.450	-200.000	0.013	0.197
-207.436	16.913	0.200	-0.158
-206.421	-81.138	-0.397	-0.131
-205.406	-200.000	0.012	0.469
-204.392	-93.388	0.077	0.021
-203.377	-95.367	0.112	0.030
-202.363	-166.592	0.092	0.004
-201.348	-84.844	0.142	-0.045
-200.333	683.478	0.130	-0.338
-199.319	226.579	0.042	-0.069
-198.304	-101.378	0.298	0.073
-197.290	117.251	0.125	-0.153
-196.275	800.000	-0.154	-0.449
-195.260	800.000	-0.025	0.098
-194.246	-38.531	-0.307	-0.162
-193.231	129.879	-0.077	-0.099
-192.217	800.000	-0.031	-0.124
-191.202	-162.661	-0.097	0.005
-190.187	-152.033	-0.141	-0.010
-189.173	67.461	0.236	-0.241
-188.158	23.030	-0.209	0.172
-187.144	280.788	-0.052	-0.093
-186.129	-73.080	0.128	-0.047
-185.114	188.289	0.061	-0.090
-184.100	-128.274	-0.173	0.025
-183.085	-49.088	0.140	0.067
-182.071	-83.805	-0.182	-0.058
-181.056	109.189	-0.075	-0.089
-180.042	1.344	0.054	0.039
-179.027	-82.806	0.262	0.085
-178.012	-94.676	-0.529	0.144
-176.998	157.366	0.150	-0.208
-175.983	-200.000	-0.026	-0.209
-174.969	-200.000	-0.049	-0.294
-173.954	-200.000	0.042	0.315
-172.939	-44.864	-0.259	0.129
-171.925	800.000	-0.046	-0.159
-170.910	-45.957	-0.099	-0.049
-169.896	700.160	-0.015	0.039
-168.881	-200.000	0.004	-0.199
-167.866	800.000	0.044	0.170
-166.852	-125.835	-0.112	-0.017
-165.837	283.690	0.158	0.283
-164.823	133.003	-0.125	0.161
-163.808	553.828	-0.015	-0.035
-162.793	23.314	0.009	0.008
-161.779	-98.883	0.211	0.054
-160.764	-30.257	-0.140	0.079
-159.750	-200.000	0.013	-0.138
-158.735	-200.000	0.009	-0.375
-157.720	-75.113	-0.087	0.031
-156.706	431.889	0.115	-0.249
-155.691	29.963	0.122	0.104
-154.677	-129.943	-0.061	-0.008
-153.662	230.534	-0.062	0.102
-152.647	-184.589	0.167	0.003
-151.633	-85.025	0.074	0.023
-150.618	499.197	-0.053	-0.123
-149.604	-75.888	0.286	0.101
-148.589	81.682	-0.166	-0.179
-147.574	47.903	0.283	0.264
-146.560	144.836	0.094	0.125
-145.545	234.085	-0.148	0.243
-144.531	101.711	0.117	-0.137
-143.516	100.729	0.141	-0.164
-142.502	-35.032	0.246	0.134
-141.487	-200.000	-0.009	-0.162
-140.472	23.609	-0.133	-0.109
-139.458	5.387	0.253	-0.186
-138.443	86.325	0.091	0.100
-137.429	-61.376	0.241	-0.101
-136.414	40.443	0.097	-0.087
-135.399	259.259	0.210	0.361
-134.385	-200.000	-0.028	-0.164
-133.370	-49.713	-0.232	-0.110
-132.356	-45.588	-0.292	-0.144
-131.341	-173.999	-0.197	0.006
-130.326	-200.000	-0.015	0.105
-129.312	-60.261	0.149	-0.063
-128.297	-26.726	-0.354	-0.207
-127.283	-26.938	0.116	-0.067
-126.268	-165.031	-0.255	0.011
-125.253	800.000	0.022	0.098
-124.239	448.250	0.119	0.261
-123.224	-79.133	-0.113	0.038
-122.210	-122.135	0.173	0.028
-121.195	-97.760	0.411	-0.106
