DTS Sentinel unit serial number:	SN413079Multiplexer serial number:	ORYXHardware model number:	OX4-SRSoftware version number:	ORYX F/W v4.00 Oryx Data Collector v3.7.2.0data status	okinstallation	princeton_trtdifferential loss correction	single-endedforward channel	channel 1reverse channel	N/Adate	2019/09/19time	05:30:35forward acquisition time	60.00reverse acquisition time	0.00gamma	496.2192k internal	0.2343k external	0.2343temperature offset calibration	1.0021default loss term (dB/km)	0.3790temperature slope calibration	1.0000multiplexer offset coefficient	1.0000multiplexer slope coefficient	1.0000fibre end	0.00T internal ref (°C)	19.37T ext. ref 1 (°C)	0.60T ext. ref 2 (°C)	13.05length (m)	temperature (°C)	Stokes	anti-Stokes-747.200	-178.919	0.076	0.002
-746.185	720.740	-0.101	0.270
-745.171	38.618	-0.118	0.106
-744.156	-200.000	-0.031	0.180
-743.142	142.334	-0.137	-0.182
-742.127	107.651	-0.155	0.185
-741.112	-108.763	-0.314	0.067
-740.098	168.157	0.207	0.295
-739.083	60.960	0.398	-0.395
-738.069	3.436	-0.331	-0.242
-737.054	-19.688	-0.208	-0.128
-736.039	-11.022	-0.378	0.250
-735.025	433.701	0.086	0.186
-734.010	-80.211	-0.201	0.067
-732.996	-56.482	-0.389	-0.173
-731.981	41.184	0.186	0.168
-730.966	-73.737	-0.147	-0.053
-729.952	-118.032	-0.216	0.039
-728.937	-89.629	-0.188	0.055
-727.923	-112.448	-0.283	0.057
-726.908	603.974	0.030	-0.076
-725.894	118.962	-0.181	0.224
-724.879	-8.814	-0.286	0.192
-723.864	-141.831	0.337	-0.034
-722.850	-200.000	0.020	0.246
-721.835	130.296	0.062	0.079
-720.821	-57.373	-0.188	0.083
-719.806	-98.260	0.481	-0.123
-718.791	382.557	-0.095	-0.196
-717.777	68.367	0.118	-0.121
-716.762	-91.289	0.119	0.034
-715.748	-105.053	-0.311	0.071
-714.733	255.122	0.015	-0.026
-713.718	-47.011	-0.247	0.121
-712.704	80.329	-0.194	-0.209
-711.689	-4.047	-0.213	-0.147
-710.675	-200.000	-0.031	0.238
-709.660	-39.128	0.162	-0.085
-708.645	64.797	-0.211	-0.213
-707.631	19.251	-0.243	-0.195
-706.616	800.000	-0.024	-0.069
-705.602	-26.660	0.160	0.094
-704.587	-70.497	0.083	-0.031
-703.572	-28.014	0.247	-0.143
-702.558	-200.000	-0.012	-0.146
-701.543	461.468	0.020	0.045
-700.529	350.402	0.069	0.136
-699.514	-200.000	0.022	0.144
-698.499	-88.277	0.145	0.043
-697.485	113.361	-0.188	0.228
-696.470	800.000	-0.072	0.209
-695.456	-166.185	0.171	0.007
-694.441	169.788	-0.049	-0.070
-693.426	105.127	0.098	-0.115
-692.412	100.028	0.252	0.292
-691.397	-68.414	-0.201	0.078
-690.383	-178.996	0.321	0.007
-689.368	333.723	0.121	0.234
-688.354	77.893	0.089	-0.095
-687.339	73.101	0.112	0.117
-686.324	549.816	0.037	0.089
-685.310	-165.522	-0.171	-0.007
-684.295	279.422	-0.073	-0.130
-683.281	-106.502	0.420	-0.094
-682.266	573.141	0.038	-0.092
-681.251	648.594	0.089	-0.228
-680.237	83.414	0.135	-0.147
-679.222	65.564	-0.109	0.110
-678.208	247.683	-0.040	-0.067
-677.193	44.838	0.069	0.063
-676.178	800.000	-0.101	-0.313
-675.164	-200.000	-0.059	-0.263
-674.149	-200.000	-0.053	0.325
-673.135	162.568	-0.154	-0.215
-672.120	-5.133	-0.151	-0.104
-671.105	-125.355	0.434	0.066
-670.091	-63.186	-0.225	0.092
-669.076	181.538	0.108	0.159
-668.062	328.830	-0.104	0.200
-667.047	800.000	0.078	-0.281
-666.032	-200.000	-0.008	-0.426
-665.018	265.944	-0.114	-0.199
-664.003	-103.298	-0.103	0.024
-662.989	-90.924	-0.205	0.059
-661.974	178.345	-0.159	-0.232
-660.959	-200.000	0.006	0.245
-659.945	-200.000	0.003	0.036
-658.930	301.419	0.153	-0.283
-657.916	64.607	0.201	0.202
-656.901	53.270	-0.228	-0.218
-655.886	159.996	0.172	-0.240
-654.872	474.918	-0.087	0.196
-653.857	476.892	0.191	-0.431
-652.843	30.937	-0.133	-0.114
-651.828	-67.600	-0.237	0.093
-650.814	219.979	0.218	-0.348
-649.799	309.370	0.103	0.193
-648.784	-142.749	0.198	0.019
-647.770	-59.699	-0.121	0.052
-646.755	-200.000	0.013	-0.169
-645.741	415.573	-0.067	-0.143
-644.726	-124.250	-0.447	-0.070
-643.711	35.680	0.110	0.096
-642.697	-200.000	-0.038	0.194
-641.682	-200.000	-0.045	-0.298
-640.668	-200.000	-0.038	-0.194
-639.653	-46.151	0.341	-0.168
-638.638	-7.822	-0.268	-0.181
-637.624	800.000	-0.017	0.050
-636.609	-53.157	0.144	-0.066
-635.595	-30.717	0.113	0.064
-634.580	-84.127	-0.341	-0.108
-633.565	85.163	0.146	0.160
-632.551	647.398	-0.095	-0.243
-631.536	57.563	0.121	-0.117
-630.522	230.224	-0.149	-0.243
-629.507	-101.624	-0.111	0.027
-628.492	2.768	-0.249	-0.180
-627.478	-129.841	-0.107	0.015
-626.463	211.621	0.050	-0.078
-625.449	-102.188	-0.091	-0.022
-624.434	-43.833	0.326	-0.164
-623.419	-200.000	-0.012	-0.173
-622.405	-110.389	-0.187	0.039
-621.390	398.281	0.151	-0.315
-620.376	-200.000	0.038	-0.289
-619.361	109.622	0.205	0.245
-618.346	-96.238	-0.281	-0.074
-617.332	-94.905	-0.148	0.040
-616.317	40.321	0.343	0.308
-615.303	-28.990	-0.303	0.173
-614.288	72.513	0.243	0.252
-613.273	-15.803	-0.221	0.141
-612.259	-200.000	0.067	-0.429
-611.244	-200.000	0.012	-0.290
-610.230	-149.097	0.177	-0.014
-609.215	-56.060	0.314	0.140
-608.201	343.968	0.112	-0.218
-607.186	142.167	-0.035	0.046
-606.171	61.600	0.141	0.140
-605.157	286.588	0.046	0.082
-604.142	148.219	0.066	-0.089
-603.128	800.000	0.032	0.121
-602.113	-34.308	0.032	-0.018
-601.098	35.404	-0.047	-0.041
-600.084	-200.000	0.072	-0.329
-599.069	-112.304	-0.245	0.049
-598.055	57.306	0.071	0.069
-597.040	-200.000	0.060	-0.265
-596.025	-49.335	-0.060	-0.029
-595.011	-35.727	0.348	0.188
-593.996	-50.491	-0.081	-0.038
-592.982	97.181	0.064	-0.073
-591.967	-200.000	-0.018	-0.123
-590.952	7.074	-0.220	0.163
-589.938	-68.788	-0.182	-0.070
-588.923	143.528	-0.102	-0.135
-587.909	-124.987	-0.171	0.026
-586.894	-59.764	-0.127	-0.054
-585.879	-200.000	-0.064	0.346
-584.865	-20.338	-0.299	-0.183
-583.850	-30.401	-0.107	-0.060
-582.836	42.436	-0.058	-0.053
-581.821	-200.000	0.006	0.159
-580.806	-181.945	-0.136	-0.003
-579.792	-66.290	-0.089	0.035
-578.777	67.052	-0.152	0.155
-577.763	-32.516	-0.108	0.060
-576.748	-5.353	-0.211	-0.144
-575.733	-21.602	-0.159	0.097
-574.719	-87.123	0.158	-0.048
-573.704	35.512	-0.252	-0.220
-572.690	469.129	-0.087	-0.194
-571.675	97.648	-0.287	-0.328
-570.661	265.329	0.145	0.251
-569.646	800.000	0.073	0.211
-568.631	405.509	-0.067	-0.141
-567.617	305.402	0.102	-0.189
-566.602	-19.236	0.213	0.131
-565.588	-8.776	-0.057	0.038
-564.573	88.718	-0.363	0.401
-563.558	800.000	-0.061	-0.184
-562.544	93.544	0.108	-0.121
-561.529	-6.493	0.169	-0.115
-560.515	299.286	-0.113	-0.207
-559.500	116.470	-0.193	-0.235
-558.485	-82.803	0.255	-0.082
-557.471	111.645	0.056	-0.067
-556.456	-200.000	-0.033	0.237
-555.442	-111.947	-0.197	0.039
-554.427	-78.454	0.435	-0.148
-553.412	-167.161	-0.089	-0.004
-552.398	10.660	0.159	0.120
-551.383	71.265	-0.218	0.224
-550.369	-128.928	0.328	0.046
-549.354	378.334	0.064	0.129
-548.339	21.438	-0.194	0.157
-547.325	93.772	0.078	0.088
-546.310	-200.000	-0.010	0.281
-545.296	470.570	-0.179	-0.399
-544.281	30.434	-0.063	0.053
-543.266	-200.000	0.037	-0.344
-542.252	-42.991	-0.069	0.035
-541.237	800.000	-0.199	-0.570
-540.223	800.000	-0.043	0.130
-539.208	-28.238	0.071	0.040
-538.193	239.892	0.143	0.237
-537.179	747.717	-0.070	-0.189
-536.164	-200.000	-0.026	-0.142
-535.150	-151.224	-0.151	0.011
-534.135	315.854	0.065	0.121
-533.121	66.936	0.129	-0.130
-532.106	269.868	0.118	-0.206
-531.091	7.068	-0.038	0.028
-530.077	261.981	0.140	0.241
-529.062	-153.310	-0.266	-0.018
-528.048	47.271	0.079	-0.073
-527.033	-100.762	0.254	0.062
-526.018	-200.000	-0.006	0.113
-525.004	241.306	0.088	0.145
-523.989	800.000	-0.055	-0.218
-522.975	444.132	0.225	0.490
-521.960	-73.778	0.123	0.044
-520.945	-200.000	-0.028	0.131
-519.931	-113.595	-0.066	0.013
-518.916	629.583	0.073	-0.183
-517.902	-87.172	-0.190	-0.057
-516.887	134.637	-0.115	0.148
-515.872	-131.840	0.381	-0.049
-514.858	40.258	-0.202	0.180
-513.843	425.373	0.096	-0.206
-512.829	56.251	0.247	-0.238
-511.814	-155.655	0.118	0.008
-510.799	19.630	0.294	-0.235
-509.785	139.002	0.123	-0.160
-508.770	-200.000	0.022	-0.192
-507.756	316.489	0.117	0.220
-506.741	800.000	0.126	0.367
-505.726	63.805	-0.177	0.176
-504.712	345.365	-0.147	-0.286
-503.697	26.683	0.207	0.172
-502.683	49.335	0.080	-0.075
-501.668	33.732	-0.171	0.147
-500.653	387.236	-0.036	-0.074
-499.639	-200.000	0.037	-0.246
-498.624	413.904	-0.138	0.292
-497.610	-200.000	0.010	0.406
-496.595	138.488	0.155	-0.202
-495.581	-193.792	0.136	0.001
-494.566	-200.000	-0.082	0.375
-493.551	-186.246	-0.285	0.004
-492.537	-200.000	-0.011	0.110
-491.522	27.522	0.339	0.283
-490.508	-20.729	-0.147	0.090
-489.493	-200.000	0.023	0.118
-488.478	375.220	-0.142	0.288
-487.464	121.395	-0.104	0.128
-486.449	196.244	0.235	-0.354
-485.435	-38.052	0.052	-0.027
-484.420	800.000	0.096	0.272
-483.405	6.531	0.118	-0.087
-482.391	-25.600	0.044	-0.026
-481.376	11.506	0.121	0.092
-480.362	-76.235	-0.148	-0.052
-479.347	64.897	0.112	0.112
-478.332	-200.000	-0.041	0.391
-477.318	354.302	-0.131	0.257
-476.303	-200.000	0.014	0.275
-475.289	181.019	-0.052	-0.076
-474.274	51.717	0.125	0.118
-473.259	243.016	0.085	-0.141
-472.245	387.869	0.162	-0.332
-471.230	28.469	0.141	-0.118
-470.216	-200.000	-0.028	-0.193
-469.201	113.482	-0.069	-0.083
-468.186	-120.582	-0.264	-0.044
-467.172	47.126	-0.263	0.243
-466.157	-108.950	0.232	0.049
-465.143	-5.790	-0.235	-0.159
-464.128	-191.757	0.346	0.003
-463.113	136.750	0.044	0.057
-462.099	73.494	0.143	0.148
-461.084	18.937	-0.204	-0.162
-460.070	106.900	-0.111	0.130
-459.055	191.320	-0.255	0.380
-458.040	-200.000	0.005	0.209
-457.026	260.730	0.034	0.058
-456.011	-105.998	-0.451	-0.100
-454.997	-89.241	-0.178	-0.052
-453.982	800.000	-0.027	0.090
-452.968	-112.261	-0.314	-0.062
-451.953	81.086	0.107	0.114
-450.938	2.205	0.092	0.066
-449.924	-68.073	0.049	-0.019
-448.909	-77.091	-0.174	0.060
-447.895	-200.000	0.015	0.278
-446.880	25.133	0.237	0.195
-445.865	360.935	-0.140	0.277
-444.851	33.830	-0.090	0.077
-443.836	-66.384	-0.346	0.136
-442.822	87.405	0.070	-0.077
-441.807	-120.428	-0.247	-0.042
-440.792	-182.757	-0.393	-0.007
-439.778	31.935	0.145	-0.124
-438.763	-66.027	-0.015	-0.006
-437.749	175.147	0.099	-0.142
-436.734	-165.883	-0.155	-0.007
-435.719	-200.000	-0.091	0.426
-434.705	-184.507	0.068	-0.001
-433.690	-10.690	0.018	0.012
-432.676	-103.795	0.188	-0.043
-431.661	-13.879	0.182	-0.117
-430.646	117.260	-0.206	-0.250
-429.632	-200.000	0.010	0.085
-428.617	-133.709	-0.167	0.021
-427.603	282.346	0.187	0.331
-426.588	-4.022	0.124	0.085
-425.573	-143.116	-0.326	-0.031
-424.559	-122.622	0.303	0.049
-423.544	-86.653	0.217	-0.066
-422.530	615.019	0.104	-0.258
-421.515	-59.917	-0.412	-0.174
-420.500	383.353	-0.065	-0.133
-419.486	341.782	-0.102	-0.196
-418.471	198.471	0.099	-0.149
-417.457	-66.739	0.257	0.100
-416.442	-86.837	-0.258	-0.078
-415.428	-200.000	0.018	0.179
-414.413	-161.655	0.213	0.011
-413.398	-200.000	-0.021	0.193
-412.384	131.581	0.228	-0.290
-411.369	-200.000	-0.059	-0.428
-410.355	9.292	0.252	0.189
-409.340	-51.594	0.343	-0.158
-408.325	400.850	0.025	-0.053
-407.311	326.396	-0.028	-0.052
-406.296	-200.000	-0.007	-0.262
-405.282	99.851	0.102	0.117
-404.267	336.486	0.079	-0.151
-403.252	800.000	0.077	-0.260
-402.238	40.885	-0.173	-0.154
-401.223	-114.932	-0.215	0.040
-400.209	-200.000	0.012	-0.083
-399.194	-30.956	-0.196	-0.109
-398.179	8.694	-0.186	0.138
-397.165	800.000	-0.077	0.309
-396.150	210.013	-0.213	0.330
-395.136	449.169	-0.106	0.231
-394.121	-173.906	0.105	0.003
-393.106	258.062	0.123	0.209
-392.092	-200.000	0.018	0.087
-391.077	34.034	0.160	-0.137
-390.063	800.000	-0.074	0.235
-389.048	83.797	-0.149	-0.160
-388.033	-57.312	0.059	0.025
-387.019	-200.000	0.018	0.208
-386.004	799.851	0.126	0.342
-384.990	-97.197	0.198	-0.051
-383.975	-200.000	-0.001	0.069
-382.960	-94.192	-0.217	-0.059
-381.946	-22.208	-0.235	-0.141
-380.931	143.836	-0.188	-0.247
-379.917	-37.152	-0.157	0.083
-378.902	78.995	-0.317	0.335
-377.888	477.255	-0.106	-0.236
-376.873	-200.000	-0.010	-0.259
-375.858	-143.227	0.200	0.019
-374.844	25.798	0.407	0.335
-373.829	-115.766	-0.207	0.038
-372.815	-132.558	-0.185	0.023
-371.800	-1.993	0.196	0.136
-370.785	246.521	0.094	-0.157
-369.771	246.477	0.213	-0.354
-368.756	-101.182	-0.191	-0.046
-367.742	-14.739	0.125	-0.079
-366.727	-130.144	-0.135	-0.018
-365.712	-1.985	-0.246	0.170
-364.698	44.224	0.237	0.215
-363.683	-115.008	-0.245	0.046
-362.669	-161.035	0.350	0.018
-361.654	-200.000	-0.040	-0.204
-360.639	106.153	0.130	-0.151
-359.625	-200.000	-0.032	0.165
-358.610	-68.451	-0.146	0.056
-357.596	-60.047	-0.300	-0.126
-356.581	-200.000	-0.029	-0.256
-355.566	-133.641	-0.292	0.036
-354.552	-69.711	0.142	-0.054
-353.537	-154.349	0.032	-0.002
-352.523	218.950	-0.113	0.178
-351.508	-200.000	0.005	0.174
-350.493	-200.000	0.031	0.267
-349.479	-123.074	0.279	-0.044
-348.464	-125.401	0.123	0.019
-347.450	-200.000	-0.113	0.541
-346.435	-200.000	0.053	-0.398
-345.420	-200.000	-0.011	0.239
-344.406	427.369	-0.096	-0.204
-343.391	-165.842	-0.190	-0.008
-342.377	167.560	-0.028	0.039
-341.362	-51.452	0.109	0.050
-340.348	800.000	0.101	-0.330
-339.333	328.272	0.124	0.235
-338.318	202.141	0.127	0.194
-337.304	-51.836	-0.100	-0.046
-336.289	800.000	-0.088	-0.268
-335.275	0.423	0.135	-0.095
-334.260	558.973	0.094	-0.224
-333.245	363.811	0.042	-0.083
-332.231	55.570	-0.108	-0.103
-331.216	-200.000	-0.027	0.117
-330.202	262.872	0.174	0.297
-329.187	-169.953	0.191	-0.007
-328.172	48.939	-0.187	0.173
-327.158	167.001	-0.071	0.099
-326.143	-113.677	0.078	0.015
-325.129	-45.081	-0.250	-0.123
-324.114	-175.805	0.204	-0.005
-323.099	-2.523	0.093	-0.064
-322.085	-200.000	0.019	-0.365
-321.070	35.272	0.132	0.114
-320.056	77.699	0.057	-0.060
-319.041	82.909	0.073	-0.079
-318.026	141.391	0.094	-0.122
-317.012	-10.087	-0.005	-0.003
-315.997	-25.098	-0.177	-0.103
-314.983	-60.472	0.338	0.142
-313.968	800.000	-0.081	0.270
-312.953	81.882	-0.067	0.072
-311.939	61.468	0.150	-0.147
-310.924	174.451	0.170	-0.242
-309.910	498.742	-0.053	-0.121
-308.895	-120.863	0.189	0.031
-307.880	65.910	0.089	-0.089
-306.866	777.781	0.059	-0.158
-305.851	169.308	-0.064	0.090
-304.837	-176.188	0.082	-0.002
-303.822	188.151	-0.130	0.191
-302.807	800.000	-0.086	0.368
-301.793	-44.824	0.191	-0.094
-300.778	189.585	0.188	-0.278
-299.764	-144.678	0.083	0.008
-298.749	-61.893	0.418	0.172
-297.735	800.000	0.088	-0.268
-296.720	240.343	-0.079	0.129
-295.705	-35.141	0.358	-0.192
-294.691	-200.000	-0.002	0.080
-293.676	45.181	0.086	-0.078
-292.662	140.825	0.061	-0.080
-291.647	-76.436	-0.117	0.040
-290.632	-200.000	0.004	-0.320
-289.618	-108.699	0.171	0.036
-288.603	800.000	-0.057	-0.230
-287.589	-200.000	-0.069	-0.363
-286.574	800.000	-0.041	0.127
-285.559	-105.972	-0.178	0.039
-284.545	79.084	0.115	0.121
-283.530	68.566	-0.247	0.249
-282.516	-169.180	-0.278	-0.010
-281.501	-51.819	0.154	0.071
-280.486	-88.485	-0.138	-0.040
-279.472	-95.871	0.370	0.097
-278.457	-80.195	-0.492	0.162
-277.443	771.707	0.042	-0.113
-276.428	-200.000	0.092	-0.494
-275.413	800.000	-0.124	0.371
-274.399	328.112	-0.098	-0.186
-273.384	800.000	-0.111	0.342
-272.370	347.479	-0.125	-0.242
-271.355	-14.176	0.263	0.167
-270.340	-128.910	-0.323	-0.045
-269.326	-74.961	0.145	0.051
-268.311	143.938	-0.051	0.066
-267.297	98.088	-0.179	-0.203
-266.282	800.000	0.054	0.213
-265.267	-85.911	0.175	0.053
-264.253	-116.257	-0.202	0.037
-263.238	68.125	0.251	-0.252
-262.224	-101.106	0.471	0.113
-261.209	-85.061	-0.100	-0.031
-260.195	640.773	-0.142	0.354
-259.180	-200.000	-0.008	-0.086
-258.165	-200.000	0.036	0.193
-257.151	-108.738	-0.231	0.049
-256.136	31.270	-0.135	-0.114
-255.122	-90.367	-0.111	0.032
-254.107	-143.917	-0.227	-0.021
-253.092	-32.671	0.237	-0.130
-252.078	-135.918	0.216	0.025
-251.063	458.447	0.061	-0.133
-250.049	646.314	-0.121	-0.303
-249.034	32.071	-0.208	0.176
-248.019	-200.000	-0.042	-0.230
-247.005	-146.692	0.280	-0.024
-245.990	-89.357	0.102	-0.030
-244.976	-200.000	-0.001	0.427
-243.961	-130.472	0.048	-0.006
-242.946	-200.000	-0.045	0.206
-241.932	800.000	-0.155	-0.442
-240.917	-89.192	0.278	-0.081
-239.903	26.738	0.277	-0.228
-238.888	279.229	0.100	0.176
-237.873	-109.230	0.241	0.050
-236.859	800.000	0.130	0.396
-235.844	16.883	-0.113	0.088
-234.830	-102.683	0.143	0.033
-233.815	-132.386	-0.310	-0.039
-232.800	-68.428	0.163	-0.062
-231.786	403.462	0.127	0.263
-230.771	-135.409	-0.197	-0.023
-229.757	569.842	0.139	-0.331
-228.742	-134.335	-0.154	0.019
-227.727	716.176	0.067	-0.175
-226.713	-200.000	0.052	0.469
-225.698	114.751	0.127	-0.152
-224.684	-200.000	-0.031	0.273
-223.669	-147.858	-0.229	-0.019
-222.655	-125.150	0.302	0.045
-221.640	-125.598	-0.335	-0.050
-220.625	-44.495	0.214	-0.105
-219.611	45.703	-0.086	-0.078
-218.596	43.121	0.241	0.216
-217.582	552.509	0.112	-0.263
-216.567	307.640	0.053	-0.098
-215.552	167.867	0.206	-0.288
-214.538	106.704	-0.197	-0.229
-213.523	120.536	0.168	0.204
-212.509	-200.000	0.026	-0.220
-211.494	-200.000	0.013	-0.092
-210.479	-115.134	0.370	0.069
-209.465	103.438	0.175	0.201
-208.450	-0.821	-0.472	0.328
-207.436	109.309	0.141	0.166
-206.421	-50.052	-0.547	0.254
-205.406	-20.013	0.156	-0.094
-204.392	25.680	-0.365	-0.298
-203.377	11.483	0.208	0.156
-202.363	-200.000	0.029	0.140
-201.348	-78.940	-0.209	0.070
-200.333	-200.000	-0.003	0.237
-199.319	171.127	-0.228	-0.320
-198.304	119.540	-0.125	0.151
-197.290	379.716	0.035	0.071
-196.275	-87.011	-0.318	0.095
-195.260	185.524	-0.048	0.069
-194.246	20.640	0.092	0.073
-193.231	-62.003	-0.079	0.032
-192.217	800.000	-0.045	-0.162
-191.202	-18.880	0.145	0.089
-190.187	29.244	0.380	-0.316
-189.173	223.720	0.247	0.390
-188.158	-132.864	0.199	0.025
-187.144	-69.956	-0.057	-0.021
-186.129	-137.176	-0.172	-0.019
-185.114	101.646	-0.066	-0.075
-184.100	-84.313	-0.066	0.021
-183.085	800.000	0.068	-0.186
-182.071	76.366	0.138	-0.143
-181.056	62.136	-0.182	-0.177
-180.042	113.220	0.159	-0.188
-179.027	-73.544	0.061	0.022
-178.012	147.060	0.112	0.148
-176.998	-141.616	-0.133	0.013
-175.983	649.855	0.043	0.107
-174.969	277.877	-0.135	-0.235
-173.954	-121.048	-0.044	-0.007
-172.939	-26.577	-0.410	0.235
-171.925	-103.559	0.045	0.010
-170.910	-200.000	0.024	-0.199
-169.896	342.025	0.127	0.243
-168.881	-200.000	0.027	-0.326
-167.866	226.870	-0.144	0.229
-166.852	63.308	0.311	-0.305
-165.837	-172.643	-0.202	0.006
-164.823	-8.922	-0.123	-0.081
-163.808	-142.749	0.057	0.005
-162.793	-200.000	0.059	0.318
-161.779	-110.055	-0.099	0.020
-160.764	-17.198	-0.168	-0.103
-159.750	800.000	0.032	0.134
-158.735	-200.000	0.245	0.000
-157.720	800.000	-0.032	0.118
-156.706	-200.000	0.030	0.204
-155.691	-164.613	-0.111	-0.005
-154.677	143.660	-0.120	0.157
-153.662	639.630	0.092	-0.228
-152.647	-200.000	0.058	-0.373
-151.633	-44.249	0.163	-0.080
-150.618	-200.000	-0.012	-0.146
-149.604	-200.000	0.050	0.279
-148.589	174.756	-0.141	-0.199
-147.574	-200.000	0.043	-0.200
-146.560	-80.193	-0.443	0.145
-145.545	-95.410	0.325	-0.085
-144.531	191.003	-0.171	-0.251
-143.516	-25.768	-0.201	-0.116
-142.502	-56.221	0.120	-0.052
-141.487	344.200	0.082	-0.158
-140.472	-10.690	-0.246	0.159
-139.458	435.196	0.145	-0.308
-138.443	-200.000	0.006	-0.449
-137.429	-200.000	0.001	-0.129
-136.414	-200.000	-0.025	-0.181
-135.399	-30.063	0.302	0.168
-134.385	-92.162	0.166	-0.046
-133.370	-165.857	0.149	-0.006
-132.356	-110.657	-0.209	0.042
-131.341	111.190	0.116	0.137
-130.326	-200.000	-0.005	0.051
-129.312	-80.927	0.224	0.073
-128.297	-200.000	-0.013	0.319
-127.283	800.000	0.067	0.217
-126.268	-36.128	-0.152	0.080
-125.253	-90.602	-0.200	0.057
-124.239	-200.000	0.010	-0.221
-123.224	-55.160	-0.082	0.036
-122.210	9.821	-0.160	0.118
-121.195	-72.707	0.276	-0.099
