DTS Sentinel unit serial number:	SN413079Multiplexer serial number:	ORYXHardware model number:	OX4-SRSoftware version number:	ORYX F/W v4.00 Oryx Data Collector v3.7.2.0data status	okinstallation	princeton_trtdifferential loss correction	single-endedforward channel	channel 1reverse channel	N/Adate	2019/09/19time	07:38:35forward acquisition time	60.00reverse acquisition time	0.00gamma	496.2192k internal	0.2341k external	0.2341temperature offset calibration	1.0015default loss term (dB/km)	0.3790temperature slope calibration	1.0000multiplexer offset coefficient	1.0000multiplexer slope coefficient	1.0000fibre end	0.00T internal ref (°C)	19.37T ext. ref 1 (°C)	0.56T ext. ref 2 (°C)	14.59length (m)	temperature (°C)	Stokes	anti-Stokes-747.200	100.070	0.159	-0.185
-746.185	-115.276	-0.474	-0.090
-745.171	-200.000	0.058	-0.337
-744.156	64.101	-0.383	-0.386
-743.142	-49.011	0.155	-0.074
-742.127	27.414	0.080	-0.067
-741.112	-11.554	0.173	0.114
-740.098	-86.322	-0.439	-0.135
-739.083	383.453	0.094	0.195
-738.069	258.001	-0.150	0.259
-737.054	-81.921	0.162	0.053
-736.039	247.554	-0.028	0.047
-735.025	41.025	0.182	0.165
-734.010	-73.810	-0.188	0.069
-732.996	342.856	-0.118	-0.232
-731.981	-200.000	0.013	-0.082
-730.966	-75.737	-0.278	-0.099
-729.952	95.381	0.046	0.053
-728.937	-75.910	0.057	0.020
-727.923	-200.000	-0.028	-0.202
-726.908	-120.687	-0.481	-0.081
-725.894	-10.488	-0.053	0.035
-724.879	-37.461	-0.147	-0.079
-723.864	-22.071	-0.075	0.045
-722.850	-84.679	-0.467	0.147
-721.835	-63.029	0.275	0.114
-720.821	-99.630	0.140	0.035
-719.806	-80.171	-0.122	-0.041
-718.791	-72.333	0.350	-0.130
-717.777	800.000	-0.047	-0.140
-716.762	-200.000	-0.007	-0.468
-715.748	800.000	-0.022	0.076
-714.733	-200.000	-0.042	-0.306
-713.718	-200.000	-0.061	0.356
-712.704	-200.000	0.001	0.155
-711.689	266.478	-0.197	-0.344
-710.675	-94.808	0.158	0.043
-709.660	86.896	-0.174	-0.192
-708.645	-80.063	-0.125	0.042
-707.631	88.381	-0.149	-0.166
-706.616	-120.456	0.756	-0.128
-705.602	676.168	-0.074	-0.192
-704.587	-90.506	0.210	0.061
-703.572	-122.718	-0.306	-0.050
-702.558	-103.841	-0.276	0.065
-701.543	180.202	0.175	0.257
-700.529	0.780	0.204	0.146
-699.514	-53.282	-0.093	0.043
-698.499	249.175	0.276	0.468
-697.485	800.000	0.050	-0.139
-696.470	-79.432	0.136	0.046
-695.456	58.908	-0.054	0.053
-694.441	-200.000	-0.029	0.293
-693.426	-200.000	-0.035	-0.202
-692.412	-109.697	0.088	0.019
-691.397	105.420	-0.104	-0.123
-690.383	-75.344	-0.102	-0.036
-689.368	-18.962	-0.192	0.120
-688.354	363.810	0.061	0.122
-687.339	516.267	0.080	-0.188
-686.324	-30.223	-0.371	-0.211
-685.310	-67.580	0.167	-0.065
-684.295	-21.492	-0.104	-0.064
-683.281	-182.110	0.083	0.002
-682.266	170.669	-0.158	-0.226
-681.251	147.399	0.182	-0.245
-680.237	97.081	-0.227	-0.260
-679.222	45.055	-0.218	0.200
-678.208	11.767	-0.136	-0.104
-677.193	-200.000	-0.019	0.154
-676.178	-200.000	-0.051	-0.418
-675.164	-70.443	-0.240	-0.091
-674.149	-11.271	0.072	-0.047
-673.135	800.000	0.055	-0.178
-672.120	-53.968	-0.165	0.075
-671.105	-156.200	-0.325	-0.020
-670.091	800.000	-0.078	-0.288
-669.076	68.804	0.204	0.209
-668.062	-200.000	-0.011	0.065
-667.047	261.669	0.078	-0.136
-666.032	-93.366	-0.193	-0.053
-665.018	125.050	-0.091	-0.115
-664.003	-107.533	-0.504	0.110
-662.989	75.160	0.231	0.243
-661.974	-20.696	0.198	-0.121
-660.959	-70.278	-0.195	-0.074
-659.945	-145.883	-0.308	-0.027
-658.930	-200.000	0.044	-0.249
-657.916	-48.628	0.201	-0.097
-656.901	-110.358	-0.096	-0.020
-655.886	-114.827	-0.152	0.029
-654.872	-73.545	0.092	0.034
-653.857	-93.536	-0.087	-0.024
-652.843	142.478	-0.239	0.316
-651.828	64.022	0.293	-0.294
-650.814	15.989	0.368	-0.290
-649.799	-200.000	-0.011	-0.117
-648.784	-45.493	0.336	-0.166
-647.770	-81.662	-0.387	0.127
-646.755	-13.427	0.148	0.096
-645.741	18.695	0.028	-0.022
-644.726	92.771	0.215	0.242
-643.711	-200.000	-0.062	-0.320
-642.697	-200.000	0.029	0.167
-641.682	-55.868	-0.164	-0.073
-640.668	-61.199	0.157	0.066
-639.653	800.000	-0.056	-0.237
-638.638	-16.870	-0.122	0.077
-637.624	-200.000	0.056	0.296
-636.609	54.138	-0.148	0.142
-635.595	261.653	-0.068	0.118
-634.580	-27.759	-0.098	-0.057
-633.565	573.954	0.071	0.172
-632.551	800.000	-0.065	-0.205
-631.536	479.155	0.007	0.016
-630.522	438.742	0.131	-0.285
-629.507	-90.652	0.053	0.015
-628.492	-105.774	-0.221	0.050
-627.478	57.827	-0.158	-0.155
-626.463	-200.000	-0.036	0.438
-625.449	-144.185	-0.199	-0.019
-624.434	319.254	-0.016	-0.031
-623.419	-200.000	0.096	-0.425
-622.405	-28.853	0.057	-0.033
-621.390	-9.749	0.062	0.041
-620.376	-53.658	-0.220	-0.100
-619.361	27.210	-0.237	-0.199
-618.346	-4.352	0.262	-0.181
-617.332	-200.000	-0.011	0.344
-616.317	86.659	0.155	-0.170
-615.303	-200.000	-0.060	0.263
-614.288	-177.394	0.124	-0.003
-613.273	13.183	0.055	0.042
-612.259	-71.444	0.447	-0.167
-611.244	55.533	0.089	-0.086
-610.230	284.768	0.103	-0.185
-609.215	242.987	0.061	-0.103
-608.201	297.700	0.158	0.290
-607.186	800.000	-0.057	-0.160
-606.171	374.463	0.181	0.367
-605.157	43.700	-0.194	-0.177
-604.142	301.866	-0.200	-0.369
-603.128	12.205	0.014	0.011
-602.113	734.620	-0.066	-0.175
-601.098	-63.565	0.226	-0.092
-600.084	-200.000	-0.018	0.169
-599.069	-200.000	0.035	0.203
-598.055	73.406	0.147	0.153
-597.040	-102.754	0.222	0.053
-596.025	-102.747	-0.274	-0.065
-595.011	16.288	-0.176	-0.138
-593.996	-171.625	0.151	-0.005
-592.982	-87.247	0.256	-0.077
-591.967	281.757	0.054	-0.096
-590.952	-126.646	-0.073	0.011
-589.938	-100.381	0.270	-0.067
-588.923	-189.854	0.232	-0.003
-587.909	29.749	0.141	-0.119
-586.894	-43.707	0.189	-0.095
-585.879	-86.158	0.255	-0.078
-584.865	12.821	0.206	-0.158
-583.850	-200.000	0.072	0.370
-582.836	-200.000	-0.048	0.248
-581.821	68.981	0.098	-0.100
-580.806	-122.123	-0.313	-0.051
-579.792	-200.000	0.011	-0.300
-578.777	-133.158	0.107	-0.013
-577.763	181.113	-0.166	0.244
-576.748	-116.492	0.272	-0.050
-575.733	-200.000	-0.023	-0.167
-574.719	74.626	-0.111	-0.117
-573.704	403.290	0.041	-0.085
-572.690	186.452	0.125	0.185
-571.675	-58.796	0.129	-0.056
-570.661	76.885	0.186	0.196
-569.646	405.774	0.103	0.216
-568.631	-85.047	-0.258	0.080
-567.617	94.500	-0.230	0.260
-566.602	-90.726	0.078	-0.022
-565.588	135.627	-0.115	-0.149
-564.573	-161.412	0.255	0.013
-563.558	166.583	0.051	-0.072
-562.544	-26.264	-0.209	0.122
-561.529	548.801	0.112	0.267
-560.515	-69.293	-0.299	-0.114
-559.500	-200.000	-0.016	0.215
-558.485	14.372	0.119	-0.092
-557.471	-7.100	0.184	0.124
-556.456	136.936	0.080	0.104
-555.442	34.011	-0.253	-0.219
-554.427	-200.000	0.001	-0.303
-553.412	-71.945	0.091	0.034
-552.398	29.782	0.210	0.178
-551.383	-200.000	0.017	0.096
-550.369	-188.032	0.344	-0.004
-549.354	-147.831	-0.117	-0.010
-548.339	54.707	0.232	-0.223
-547.325	405.867	-0.246	-0.517
-546.310	-200.000	0.027	0.481
-545.296	-92.612	-0.259	0.072
-544.281	-142.754	-0.394	0.038
-543.266	5.698	0.055	-0.040
-542.252	-200.000	0.014	-0.126
-541.237	-109.146	-0.254	0.054
-540.223	688.555	-0.039	0.102
-539.208	-200.000	-0.009	0.265
-538.193	-77.055	-0.120	-0.042
-537.179	0.841	0.141	-0.100
-536.164	239.404	0.097	-0.161
-535.150	264.146	0.071	-0.123
-534.135	-200.000	0.005	-0.058
-533.121	-143.346	0.090	-0.009
-532.106	-79.503	0.317	0.106
-531.091	-61.147	-0.153	0.064
-530.077	-145.083	-0.117	0.011
-529.062	36.756	-0.077	-0.068
-528.048	-200.000	-0.002	-0.139
-527.033	-137.529	-0.262	-0.029
-526.018	-200.000	0.069	0.448
-525.004	87.004	0.168	-0.184
-523.989	800.000	0.048	-0.204
-522.975	96.422	0.108	-0.122
-521.960	-63.380	0.320	0.131
-520.945	46.391	-0.207	-0.191
-519.931	800.000	-0.074	-0.288
-518.916	-1.929	0.164	0.114
-517.902	-138.228	-0.126	-0.014
-516.887	800.000	-0.085	0.326
-515.872	-1.504	0.061	-0.043
-514.858	-60.973	0.222	0.093
-513.843	188.789	0.040	-0.060
-512.829	800.000	-0.013	0.047
-511.814	-200.000	0.003	-0.109
-510.799	-200.000	0.006	0.336
-509.785	-200.000	-0.000	0.129
-508.770	800.000	-0.117	-0.376
-507.756	5.578	-0.013	0.009
-506.741	718.838	-0.037	0.097
-505.726	-160.373	0.143	0.008
-504.712	394.405	-0.092	0.190
-503.697	155.528	-0.122	0.167
-502.683	42.391	-0.078	0.070
-501.668	3.354	-0.190	-0.137
-500.653	244.418	-0.010	-0.017
-499.639	-200.000	-0.005	-0.071
-498.624	-200.000	0.018	0.128
-497.610	8.587	-0.177	0.132
-496.595	378.815	-0.068	-0.137
-495.581	498.153	-0.092	-0.210
-494.566	800.000	-0.142	-0.563
-493.551	-39.486	0.144	-0.075
-492.537	-200.000	0.028	-0.250
-491.522	-200.000	0.011	0.165
-490.508	-200.000	-0.058	-0.269
-489.493	-24.365	0.213	0.126
-488.478	373.733	-0.026	0.053
-487.464	181.904	-0.152	0.222
-486.449	460.275	0.164	0.362
-485.435	-60.051	-0.210	-0.089
-484.420	776.101	-0.110	0.298
-483.405	25.405	0.178	0.147
-482.391	92.481	-0.044	-0.049
-481.376	206.343	0.082	-0.127
-480.362	-131.179	-0.192	0.025
-479.347	800.000	0.037	0.142
-478.332	-48.409	-0.265	-0.126
-477.318	800.000	0.021	-0.060
-476.303	-200.000	-0.015	-0.184
-475.289	391.030	-0.073	0.151
-474.274	410.750	0.087	0.182
-473.259	-6.402	-0.075	0.051
-472.245	61.536	0.344	-0.339
-471.230	42.198	-0.131	-0.118
-470.216	-200.000	-0.019	-0.323
-469.201	-77.231	-0.401	0.138
-468.186	492.288	-0.036	0.081
-467.172	-200.000	-0.037	0.206
-466.157	-1.992	-0.239	0.166
-465.143	-89.148	-0.254	0.074
-464.128	385.973	0.062	0.126
-463.113	-63.175	-0.062	0.025
-462.099	275.180	-0.074	-0.131
-461.084	-161.889	0.122	0.006
-460.070	-200.000	0.031	-0.179
-459.055	-35.082	-0.195	-0.105
-458.040	800.000	0.035	0.135
-457.026	109.475	-0.145	0.173
-456.011	-97.500	0.172	-0.044
-454.997	23.211	-0.261	0.212
-453.982	496.706	0.086	0.197
-452.968	373.355	-0.039	-0.079
-451.953	-44.990	0.114	-0.056
-450.938	45.469	0.120	-0.109
-449.924	-54.860	-0.327	-0.146
-448.909	-113.165	-0.217	-0.042
-447.895	-177.266	0.179	0.004
-446.880	188.008	-0.141	-0.209
-445.865	-100.956	0.188	-0.046
-444.851	56.081	-0.165	0.159
-443.836	189.780	0.066	0.098
-442.822	200.530	0.039	-0.059
-441.807	-15.451	0.297	0.188
-440.792	649.782	-0.073	-0.184
-439.778	141.684	0.158	-0.207
-438.763	36.998	0.184	-0.161
-437.749	70.991	-0.040	0.041
-436.734	37.428	-0.021	0.018
-435.719	-9.669	0.185	0.122
-434.705	-54.619	0.204	-0.091
-433.690	654.280	0.050	-0.128
-432.676	-2.198	0.172	-0.120
-431.661	-29.943	-0.165	0.093
-430.646	374.365	0.059	0.120
-429.632	-200.000	-0.020	-0.161
-428.617	99.924	0.155	-0.178
-427.603	800.000	0.138	-0.379
-426.588	-4.133	-0.111	-0.076
-425.573	800.000	0.045	-0.180
-424.559	97.503	0.170	-0.193
-423.544	800.000	-0.053	-0.173
-422.530	138.351	-0.179	0.233
-421.515	-130.661	0.093	-0.012
-420.500	-63.253	-0.124	0.051
-419.486	800.000	-0.009	-0.034
-418.471	-75.032	0.175	0.062
-417.457	-200.000	0.023	-0.244
-416.442	-98.737	-0.252	-0.063
-415.428	125.376	-0.059	-0.073
-414.413	-116.125	0.217	0.040
-413.398	-200.000	0.004	0.218
-412.384	800.000	-0.070	0.198
-411.369	10.950	-0.139	-0.105
-410.355	-139.242	-0.185	0.020
-409.340	800.000	0.036	-0.112
-408.325	-117.369	-0.161	0.029
-407.311	-200.000	-0.017	-0.131
-406.296	-166.762	0.322	-0.013
-405.282	88.509	0.383	0.421
-404.267	540.647	-0.020	0.046
-403.252	-122.712	-0.359	0.057
-402.238	-95.229	0.068	0.018
-401.223	-102.657	-0.400	0.094
-400.209	-151.040	0.065	-0.005
-399.194	-94.554	-0.059	0.016
-398.179	-85.289	-0.131	-0.041
-397.165	800.000	0.011	-0.029
-396.150	-36.922	0.218	0.115
-395.136	-78.982	0.022	0.008
-394.121	32.733	0.197	-0.168
-393.106	800.000	-0.008	0.023
-392.092	-58.139	0.056	-0.024
-391.077	-200.000	0.004	-0.172
-390.063	407.836	-0.131	0.273
-389.048	800.000	-0.139	-0.483
-388.033	-27.719	0.299	-0.171
-387.019	421.024	-0.108	0.230
-386.004	73.976	0.049	-0.051
-384.990	800.000	-0.074	-0.300
-383.975	-200.000	-0.009	-0.083
-382.960	-119.829	0.172	0.029
-381.946	194.060	-0.264	0.395
-380.931	-76.503	0.300	0.104
-379.917	-91.596	-0.095	0.027
-378.902	67.486	0.143	-0.144
-377.888	-34.904	-0.194	0.105
-376.873	-1.051	-0.204	0.142
-375.858	-200.000	0.015	0.259
-374.844	40.371	-0.274	-0.244
-373.829	713.633	-0.017	0.044
-372.815	800.000	0.058	0.205
-371.800	366.404	-0.037	-0.075
-370.785	102.588	0.072	-0.083
-369.771	-200.000	-0.007	-0.307
-368.756	99.922	0.332	-0.380
-367.742	-30.175	0.375	0.210
-366.727	0.352	-0.118	0.083
-365.712	284.607	-0.287	0.511
-364.698	-75.811	0.496	0.174
-363.683	332.734	0.036	-0.069
-362.669	-130.376	-0.235	0.031
-361.654	-78.304	0.148	-0.050
-360.639	-80.459	0.429	-0.141
-359.625	-129.331	-0.215	-0.030
-358.610	210.523	-0.049	0.076
-357.596	-200.000	-0.031	0.219
-356.581	-60.212	-0.276	-0.116
-355.566	158.229	0.223	-0.306
-354.552	121.920	0.002	-0.002
-353.537	83.086	-0.111	-0.120
-352.523	-20.936	-0.035	-0.021
-351.508	7.885	0.248	0.183
-350.493	145.295	-0.273	0.360
-349.479	182.340	-0.184	0.268
-348.464	-137.923	0.291	0.032
-347.450	778.667	0.053	-0.142
-346.435	309.546	0.083	-0.154
-345.420	800.000	0.095	-0.305
-344.406	-200.000	0.037	0.263
-343.391	-200.000	0.023	0.356
-342.377	142.037	0.084	0.109
-341.362	-200.000	0.086	-0.452
-340.348	-124.861	-0.069	0.010
-339.333	-200.000	-0.024	-0.381
-338.318	71.810	-0.052	0.054
-337.304	800.000	0.075	-0.214
-336.289	-102.010	0.153	0.036
-335.275	-33.211	-0.219	0.120
-334.260	800.000	0.029	0.087
-333.245	113.308	-0.013	0.015
-332.231	800.000	-0.035	0.146
-331.216	748.300	-0.132	-0.351
-330.202	-18.517	-0.253	0.156
-329.187	-68.498	0.091	0.035
-328.172	345.416	-0.164	-0.317
-327.158	-77.493	0.105	-0.036
-326.143	-92.006	-0.256	0.072
-325.129	-18.469	-0.250	-0.154
-324.114	-200.000	0.026	-0.117
-323.099	56.113	0.100	-0.095
-322.085	-200.000	-0.015	0.176
-321.070	2.318	0.225	0.160
-320.056	142.595	-0.179	-0.235
-319.041	-200.000	0.032	-0.291
-318.026	782.982	0.145	-0.391
-317.012	138.384	-0.003	-0.004
-315.997	-200.000	0.031	-0.144
-314.983	139.119	-0.086	0.111
-313.968	51.254	0.185	0.173
-312.953	-200.000	0.012	0.136
-311.939	-23.348	0.213	0.126
-310.924	-25.230	0.324	-0.189
-309.910	233.353	-0.052	-0.085
-308.895	-75.519	-0.241	-0.085
-307.880	80.575	-0.138	0.146
-306.866	-62.263	0.175	-0.072
-305.851	167.863	-0.061	-0.086
-304.837	-69.623	-0.201	-0.076
-303.822	15.543	-0.244	-0.188
-302.807	-140.437	-0.229	0.024
-301.793	-18.621	0.302	-0.186
-300.778	120.343	0.138	-0.168
-299.764	37.750	0.314	0.274
-298.749	46.281	-0.097	0.088
-297.735	59.014	0.254	0.246
-296.720	215.918	-0.085	0.133
-295.705	375.864	-0.077	0.154
-294.691	-76.004	0.025	0.009
-293.676	143.154	-0.021	-0.028
-292.662	800.000	0.022	0.063
-291.647	-109.936	0.099	-0.020
-290.632	-68.997	-0.117	-0.044
-289.618	800.000	-0.123	0.389
-288.603	-200.000	0.000	-0.303
-287.589	-200.000	-0.057	-0.454
-286.574	800.000	0.064	-0.204
-285.559	-200.000	0.022	0.113
-284.545	-200.000	-0.003	0.038
-283.530	-72.924	0.226	0.082
-282.516	112.631	-0.245	0.291
-281.501	-24.056	-0.237	-0.139
-280.486	71.039	0.219	-0.223
-279.472	84.207	0.069	0.075
-278.457	-43.073	0.421	0.210
-277.443	-97.925	-0.528	0.134
-276.428	-94.848	0.241	0.064
-275.413	-85.728	0.173	-0.053
-274.399	-69.722	-0.012	0.005
-273.384	-74.210	-0.434	0.154
-272.370	-3.629	0.136	0.093
-271.355	516.574	-0.040	0.093
-270.340	-29.233	0.226	0.127
-269.326	344.325	0.017	0.033
-268.311	92.685	0.164	0.182
-267.297	-15.967	-0.122	-0.077
-266.282	-96.233	0.168	0.044
-265.267	237.074	-0.164	-0.267
-264.253	78.771	0.072	-0.075
-263.238	134.406	-0.212	0.270
-262.224	-200.000	-0.031	0.221
-261.209	-200.000	0.061	0.309
-260.195	155.368	-0.181	0.245
-259.180	423.361	0.075	-0.158
-258.165	23.017	-0.098	0.079
-257.151	-43.476	-0.307	0.152
-256.136	-86.174	-0.030	-0.009
-255.122	-55.378	0.067	0.030
-254.107	-173.735	-0.357	0.010
-253.092	401.202	-0.141	-0.291
-252.078	-51.083	0.206	-0.095
-251.063	-59.556	-0.218	0.092
-250.049	-200.000	-0.024	0.247
-249.034	-200.000	-0.046	0.212
-248.019	-200.000	-0.008	-0.105
-247.005	-73.102	-0.140	-0.051
-245.990	-200.000	0.032	-0.168
-244.976	800.000	0.061	-0.166
-243.961	-97.936	0.231	-0.059
-242.946	-71.426	-0.229	-0.084
-241.932	93.610	0.040	-0.044
-240.917	-30.936	0.118	-0.066
-239.903	-199.212	0.359	-0.002
-238.888	-58.954	0.357	-0.152
-237.873	-42.870	-0.215	-0.107
-236.859	88.358	0.149	-0.163
-235.844	-43.224	0.170	-0.085
-234.830	236.717	-0.018	-0.030
-233.815	-83.813	-0.113	0.035
-232.800	800.000	-0.082	-0.242
-231.786	-90.410	-0.541	-0.154
-230.771	-138.264	-0.362	0.039
-229.757	-69.395	0.109	-0.041
-228.742	-200.000	-0.041	-0.293
-227.727	-200.000	0.004	0.026
-226.713	138.334	-0.192	0.247
-225.698	800.000	-0.038	-0.106
-224.684	800.000	0.046	0.165
-223.669	-138.836	0.081	0.009
-222.655	-80.880	-0.388	0.126
-221.640	65.764	0.179	0.178
-220.625	-71.051	0.171	-0.063
-219.611	-76.412	-0.313	0.108
-218.596	-38.543	-0.084	-0.044
-217.582	800.000	0.188	-0.512
-216.567	-142.997	0.193	-0.018
-215.552	65.932	0.314	-0.313
-214.538	412.665	-0.143	0.297
-213.523	697.590	0.073	0.188
-212.509	-91.586	0.106	-0.030
-211.494	448.273	0.023	-0.051
-210.479	800.000	0.040	-0.115
-209.465	149.753	0.094	-0.125
-208.450	-200.000	0.103	0.000
-207.436	-200.000	0.027	0.299
-206.421	188.517	-0.068	0.100
-205.406	-200.000	-0.004	-0.061
-204.392	-9.814	-0.308	0.201
-203.377	1.270	-0.063	0.044
-202.363	667.710	0.164	0.415
-201.348	-200.000	-0.015	-0.159
-200.333	-200.000	-0.002	-0.143
-199.319	-200.000	0.048	0.215
-198.304	-95.605	0.243	0.064
-197.290	-57.723	-0.169	-0.073
-196.275	-200.000	-0.004	0.112
-195.260	-81.268	0.268	0.087
-194.246	800.000	0.067	0.197
-193.231	-200.000	0.025	0.108
-192.217	-176.589	0.274	-0.007
-191.202	-132.196	-0.236	-0.030
-190.187	800.000	-0.031	0.098
-189.173	59.055	-0.143	0.138
-188.158	214.526	0.067	0.105
-187.144	-57.632	0.235	0.101
-186.129	-88.994	-0.167	0.048
-185.114	-75.140	0.044	-0.016
-184.100	590.577	-0.095	-0.229
-183.085	800.000	0.108	0.315
-182.071	186.499	-0.135	-0.196
-181.056	800.000	-0.035	0.138
-180.042	67.903	0.013	0.013
-179.027	-104.979	-0.174	-0.039
-178.012	-10.523	0.163	0.106
-176.998	-32.177	-0.268	0.147
-175.983	-107.265	-0.026	-0.006
-174.969	463.309	-0.038	0.084
-173.954	31.065	-0.233	0.196
-172.939	464.409	-0.014	0.032
-171.925	-57.525	0.279	0.120
-170.910	-10.586	-0.101	0.065
-169.896	800.000	0.051	-0.152
-168.881	-84.700	0.266	-0.082
-167.866	-131.340	-0.098	-0.013
-166.852	-99.685	-0.307	0.076
-165.837	-53.588	-0.162	0.072
-164.823	15.026	-0.273	0.209
-163.808	240.265	0.051	0.083
-162.793	800.000	-0.104	-0.346
-161.779	-131.046	-0.234	-0.031
-160.764	-200.000	0.001	0.020
-159.750	40.436	-0.127	0.112
-158.735	-88.713	-0.164	-0.048
-157.720	61.437	-0.187	0.182
-156.706	-200.000	-0.035	-0.408
-155.691	-22.967	0.320	0.189
-154.677	36.546	-0.097	-0.084
-153.662	-53.638	0.187	0.084
-152.647	800.000	0.087	0.374
-151.633	-43.142	0.175	-0.087
-150.618	-36.856	-0.054	0.028
-149.604	-200.000	-0.069	-0.310
-148.589	-200.000	0.022	0.145
-147.574	-45.649	0.209	0.101
-146.560	-80.835	0.180	-0.058
-145.545	542.774	-0.077	-0.181
-144.531	-200.000	-0.031	-0.149
-143.516	434.636	-0.140	0.299
-142.502	-103.688	0.399	0.091
-141.487	311.729	0.166	0.306
-140.472	272.298	0.116	0.200
-139.458	335.591	0.050	0.094
-138.443	800.000	-0.056	0.192
-137.429	-200.000	-0.012	0.091
-136.414	-126.849	0.408	-0.059
-135.399	213.835	0.067	-0.104
-134.385	-105.235	-0.270	-0.060
-133.370	-200.000	0.013	-0.153
-132.356	317.864	0.131	0.242
-131.341	-200.000	-0.042	0.377
-130.326	59.082	0.100	0.096
-129.312	800.000	-0.071	-0.202
-128.297	-200.000	0.012	0.195
-127.283	-73.132	-0.079	0.028
-126.268	81.927	0.045	-0.048
-125.253	46.454	-0.284	-0.257
-124.239	-64.879	0.120	-0.048
-123.224	-200.000	-0.030	0.222
-122.210	-200.000	0.003	-0.102
-121.195	524.817	0.090	0.208
