DTS Sentinel unit serial number:	SN413079Multiplexer serial number:	ORYXHardware model number:	OX4-SRSoftware version number:	ORYX F/W v4.00 Oryx Data Collector v3.7.2.0data status	okinstallation	princeton_trtdifferential loss correction	single-endedforward channel	channel 1reverse channel	N/Adate	2019/09/18time	03:18:35forward acquisition time	60.00reverse acquisition time	0.00gamma	496.2192k internal	0.2340k external	0.2340temperature offset calibration	0.9983default loss term (dB/km)	0.3790temperature slope calibration	1.0000multiplexer offset coefficient	1.0000multiplexer slope coefficient	1.0000fibre end	0.00T internal ref (°C)	22.75T ext. ref 1 (°C)	0.17T ext. ref 2 (°C)	16.85length (m)	temperature (°C)	Stokes	anti-Stokes-747.200	556.525	-0.086	-0.209
-746.185	-200.000	0.016	0.255
-745.171	-183.125	-0.055	0.001
-744.156	-142.931	-0.241	0.023
-743.142	106.409	-0.335	0.398
-742.127	495.908	0.063	0.144
-741.112	-95.468	0.208	-0.056
-740.098	212.561	-0.342	0.541
-739.083	53.901	-0.207	0.199
-738.069	154.261	-0.090	-0.124
-737.054	757.941	-0.018	0.049
-736.039	-94.524	-0.280	-0.076
-735.025	2.224	0.254	0.184
-734.010	-99.694	-0.144	-0.036
-732.996	-200.000	0.099	0.000
-731.981	79.362	-0.286	-0.307
-730.966	-8.652	-0.275	-0.185
-729.952	800.000	0.087	-0.308
-728.937	-200.000	-0.017	-0.150
-727.923	16.339	-0.117	-0.093
-726.908	38.746	-0.152	0.136
-725.894	-200.000	0.030	-0.359
-724.879	-104.749	-0.383	-0.088
-723.864	-200.000	0.024	-0.191
-722.850	-11.806	0.083	0.054
-721.835	234.354	0.061	-0.101
-720.821	88.535	0.144	0.160
-719.806	800.000	-0.039	-0.138
-718.791	800.000	0.111	-0.315
-717.777	-48.167	-0.322	0.156
-716.762	800.000	0.128	-0.429
-715.748	-77.064	0.419	-0.146
-714.733	-200.000	0.022	-0.314
-713.718	184.790	0.091	-0.135
-712.704	-152.447	-0.069	-0.005
-711.689	800.000	-0.130	0.382
-710.675	-144.111	0.191	-0.018
-709.660	728.279	0.054	-0.145
-708.645	409.805	0.091	-0.193
-707.631	-200.000	0.013	0.270
-706.616	-200.000	-0.007	0.350
-705.602	133.681	-0.044	0.057
-704.587	-122.993	0.270	-0.043
-703.572	-108.499	-0.139	0.030
-702.558	38.107	-0.226	-0.201
-701.543	800.000	0.060	0.251
-700.529	50.900	-0.139	0.131
-699.514	-114.752	0.306	-0.058
-698.499	149.504	-0.171	-0.232
-697.485	-77.879	0.130	0.045
-696.470	211.667	0.200	-0.315
-695.456	184.241	0.060	-0.089
-694.441	800.000	-0.018	0.069
-693.426	107.594	0.094	-0.112
-692.412	-141.384	0.431	0.044
-691.397	800.000	-0.120	-0.379
-690.383	-200.000	0.000	-0.398
-689.368	253.796	0.165	-0.283
-688.354	-47.920	-0.290	-0.140
-687.339	800.000	0.098	-0.331
-686.324	-101.644	0.323	0.078
-685.310	252.142	-0.200	-0.341
-684.295	10.501	-0.186	0.141
-683.281	-200.000	0.061	-0.365
-682.266	100.592	0.082	-0.095
-681.251	10.488	0.061	-0.046
-680.237	41.920	-0.152	0.138
-679.222	138.910	0.132	0.173
-678.208	-77.830	-0.066	0.023
-677.193	-21.575	-0.419	-0.256
-676.178	-90.220	0.193	-0.056
-675.164	-71.995	0.048	-0.018
-674.149	-172.512	-0.444	0.014
-673.135	-3.521	-0.127	0.088
-672.120	-35.242	0.261	-0.142
-671.105	656.777	0.054	0.138
-670.091	1.152	-0.378	-0.271
-669.076	-200.000	-0.005	-0.049
-668.062	-3.163	0.210	0.146
-667.047	-163.470	-0.399	-0.019
-666.032	-103.533	-0.308	0.072
-665.018	-77.260	-0.254	0.088
-664.003	216.212	0.100	0.158
-662.989	-73.938	-0.221	-0.080
-661.974	-104.187	-0.495	-0.115
-660.959	800.000	-0.039	-0.169
-659.945	-69.587	-0.224	0.086
-658.930	-67.440	0.045	-0.017
-657.916	-81.703	-0.117	0.038
-656.901	800.000	-0.125	0.364
-655.886	800.000	-0.123	-0.366
-654.872	128.129	0.023	-0.029
-653.857	-25.201	0.104	-0.062
-652.843	-151.270	-0.111	-0.008
-651.828	-200.000	-0.102	-0.561
-650.814	31.209	0.108	0.093
-649.799	47.563	-0.072	0.067
-648.784	-200.000	0.015	0.325
-647.770	800.000	-0.043	0.160
-646.755	-200.000	0.029	-0.208
-645.741	-14.266	0.280	0.180
-644.726	-53.217	-0.155	-0.071
-643.711	-159.413	0.391	0.022
-642.697	-65.503	0.056	0.023
-641.682	-85.567	-0.037	0.012
-640.668	800.000	0.101	0.380
-639.653	800.000	0.120	-0.340
-638.638	-200.000	0.015	0.260
-637.624	13.957	-0.281	-0.218
-636.609	-19.621	-0.156	-0.097
-635.595	-4.527	0.232	0.160
-634.580	248.344	0.120	0.203
-633.565	-92.648	0.182	-0.051
-632.551	70.017	0.153	0.157
-631.536	43.861	0.074	0.067
-630.522	279.194	0.112	-0.199
-629.507	-200.000	-0.003	0.346
-628.492	-200.000	0.096	-0.000
-627.478	395.044	-0.092	-0.191
-626.463	-65.139	-0.201	0.081
-625.449	223.965	-0.106	-0.171
-624.434	-62.378	-0.054	0.022
-623.419	406.554	0.055	0.115
-622.405	84.036	0.175	-0.191
-621.390	800.000	-0.036	-0.134
-620.376	44.790	-0.128	-0.118
-619.361	-200.000	-0.005	0.107
-618.346	151.901	0.168	0.228
-617.332	345.304	-0.117	0.229
-616.317	-0.669	-0.113	0.080
-615.303	28.170	0.215	0.181
-614.288	-200.000	-0.028	-0.189
-613.273	800.000	0.114	-0.418
-612.259	591.419	-0.085	0.209
-611.244	112.460	-0.312	-0.377
-610.230	702.153	0.147	-0.387
-609.215	-4.357	-0.154	-0.106
-608.201	166.165	0.134	0.190
-607.186	140.711	0.154	0.203
-606.171	33.572	-0.177	0.153
-605.157	-129.445	-0.152	-0.021
-604.142	-94.077	-0.187	-0.051
-603.128	800.000	0.057	0.185
-602.113	-200.000	-0.057	-0.316
-601.098	279.843	-0.108	-0.192
-600.084	-41.221	-0.092	0.047
-599.069	800.000	-0.079	-0.298
-598.055	111.849	-0.034	0.040
-597.040	42.173	0.171	-0.154
-596.025	0.570	0.120	0.085
-595.011	44.611	-0.130	0.119
-593.996	-200.000	0.016	-0.202
-592.982	206.390	-0.176	0.272
-591.967	323.212	-0.159	0.303
-590.952	196.903	0.033	0.050
-589.938	-200.000	0.001	-0.008
-588.923	6.341	-0.229	-0.169
-587.909	-200.000	-0.006	0.273
-586.894	41.575	-0.383	-0.346
-585.879	-141.745	-0.111	0.011
-584.865	-55.887	-0.200	-0.089
-583.850	-136.363	-0.275	0.032
-582.836	-119.767	0.074	0.013
-581.821	217.416	-0.058	0.092
-580.806	-105.867	-0.115	0.026
-579.792	-34.980	0.420	0.228
-578.777	93.492	-0.215	0.243
-577.763	-106.289	0.097	-0.022
-576.748	-112.093	-0.273	-0.055
-575.733	155.409	-0.033	-0.046
-574.719	312.908	-0.223	0.417
-573.704	-68.434	-0.227	0.088
-572.690	119.211	-0.326	-0.402
-571.675	-200.000	0.009	0.165
-570.661	800.000	0.055	-0.185
-569.646	355.601	-0.083	0.164
-568.631	52.596	0.193	0.183
-567.617	352.533	-0.148	-0.292
-566.602	178.090	0.044	0.065
-565.588	524.032	-0.079	0.186
-564.573	204.905	0.246	0.381
-563.558	-168.414	-0.103	-0.004
-562.544	512.164	0.056	0.129
-561.529	-200.000	0.027	0.219
-560.515	-200.000	0.019	-0.191
-559.500	388.894	-0.124	-0.256
-558.485	-37.316	-0.210	-0.112
-557.471	-191.070	-0.253	-0.003
-556.456	-137.681	0.217	0.024
-555.442	570.036	-0.086	-0.208
-554.427	260.990	0.096	0.165
-553.412	297.141	-0.066	-0.121
-552.398	135.200	-0.166	-0.215
-551.383	402.687	-0.059	-0.124
-550.369	87.449	0.249	-0.274
-549.354	127.058	0.166	-0.210
-548.339	-11.892	0.291	0.190
-547.325	-88.266	0.221	0.066
-546.310	-200.000	-0.233	0.000
-545.296	-90.622	-0.169	0.049
-544.281	132.932	-0.073	0.094
-543.266	-200.000	0.001	0.083
-542.252	800.000	0.059	-0.254
-541.237	293.130	-0.066	-0.119
-540.223	-68.234	-0.058	-0.022
-539.208	511.048	0.076	0.176
-538.193	-39.276	-0.273	0.143
-537.179	-200.000	0.028	-0.307
-536.164	-192.784	-0.154	-0.001
-535.150	-200.000	0.003	0.125
-534.135	208.226	0.247	0.384
-533.121	-200.000	-0.047	-0.206
-532.106	-137.131	-0.107	-0.012
-531.091	40.495	0.216	0.194
-530.077	145.440	0.094	0.125
-529.062	-120.501	-0.200	-0.034
-528.048	-102.847	-0.132	0.031
-527.033	60.095	-0.084	0.083
-526.018	89.348	-0.108	0.120
-525.004	800.000	0.014	-0.045
-523.989	-125.214	0.073	-0.011
-522.975	-73.312	-0.350	-0.127
-521.960	24.935	-0.044	-0.036
-520.945	156.850	0.039	-0.053
-519.931	74.315	0.173	-0.181
-518.916	-14.353	0.247	0.158
-517.902	193.784	0.113	0.170
-516.887	81.949	-0.113	0.122
-515.872	-44.811	-0.280	-0.139
-514.858	67.789	0.037	-0.038
-513.843	127.335	0.066	0.083
-512.829	-74.097	0.250	0.090
-511.814	800.000	0.085	-0.233
-510.799	633.540	0.040	0.100
-509.785	-106.957	0.409	0.090
-508.770	-17.299	-0.212	-0.133
-507.756	-200.000	0.002	-0.218
-506.741	333.624	0.067	0.129
-505.726	64.645	0.036	0.036
-504.712	-5.674	0.284	-0.193
-503.697	57.844	-0.175	0.170
-502.683	47.568	-0.302	0.279
-501.668	-90.096	-0.038	-0.011
-500.653	-52.621	-0.150	0.069
-499.639	252.563	0.250	-0.423
-498.624	800.000	-0.063	-0.202
-497.610	-200.000	0.006	0.214
-496.595	461.349	0.036	-0.080
-495.581	34.571	-0.075	-0.065
-494.566	172.585	0.169	-0.242
-493.551	-200.000	-0.007	-0.307
-492.537	156.590	-0.028	-0.039
-491.522	30.100	0.115	-0.098
-490.508	96.587	0.269	-0.306
-489.493	-18.233	0.488	-0.303
-488.478	120.040	0.192	-0.237
-487.464	-78.214	-0.217	0.074
-486.449	-200.000	-0.081	-0.356
-485.435	-194.640	-0.255	-0.002
-484.420	-47.801	0.153	-0.074
-483.405	470.000	0.158	0.353
-482.391	75.859	0.182	-0.190
-481.376	-63.141	-0.259	0.106
-480.362	-64.017	-0.211	0.085
-479.347	-67.200	-0.395	0.154
-478.332	119.839	-0.051	-0.062
-477.318	800.000	0.035	0.147
-476.303	16.739	0.213	-0.167
-475.289	699.533	-0.020	-0.053
-474.274	-200.000	0.026	-0.129
-473.259	-48.704	-0.255	-0.121
-472.245	-168.547	0.375	0.014
-471.230	76.372	-0.111	0.116
-470.216	299.707	0.092	0.168
-469.201	-29.830	0.027	0.015
-468.186	-18.606	-0.270	-0.167
-467.172	40.932	-0.224	-0.201
-466.157	104.564	-0.133	0.155
-465.143	554.200	0.014	-0.034
-464.128	486.483	-0.055	-0.125
-463.113	-90.024	-0.256	0.074
-462.099	645.689	0.011	0.028
-461.084	-24.114	0.227	0.134
-460.070	-162.085	0.219	0.011
-459.055	-25.362	-0.194	-0.114
-458.040	257.740	-0.168	0.286
-457.026	-76.390	-0.192	0.067
-456.011	-190.542	0.312	0.003
-454.997	29.807	0.117	0.099
-453.982	40.084	0.161	0.143
-452.968	-8.077	0.108	-0.072
-451.953	-116.753	-0.205	0.037
-450.938	800.000	0.055	-0.233
-449.924	-200.000	-0.020	-0.344
-448.909	269.252	-0.101	-0.176
-447.895	-123.173	-0.176	-0.028
-446.880	99.321	-0.291	-0.334
-445.865	-200.000	0.170	0.000
-444.851	113.262	-0.105	-0.126
-443.836	317.964	0.193	-0.361
-442.822	164.830	-0.045	0.062
-441.807	-89.740	0.282	-0.082
-440.792	-200.000	-0.001	-0.029
-439.778	-200.000	-0.063	-0.340
-438.763	-157.929	-0.189	0.011
-437.749	-10.117	-0.251	-0.165
-436.734	-200.000	0.009	0.153
-435.719	-28.666	-0.057	0.032
-434.705	88.651	-0.304	0.335
-433.690	91.375	0.256	0.285
-432.676	-200.000	-0.118	-0.538
-431.661	165.734	0.304	-0.426
-430.646	-65.349	0.228	-0.091
-429.632	-85.561	-0.047	0.014
-428.617	702.944	0.134	0.351
-427.603	800.000	0.176	0.496
-426.588	-149.303	-0.072	-0.006
-425.573	-200.000	-0.226	0.001
-424.559	-37.995	0.031	-0.016
-423.544	22.672	-0.169	0.137
-422.530	800.000	0.122	0.359
-421.515	-22.329	0.212	-0.127
-420.500	-200.000	0.022	-0.108
-419.486	15.339	0.132	0.103
-418.471	-128.526	0.143	-0.020
-417.457	-39.994	-0.071	0.037
-416.442	655.218	-0.078	0.198
-415.428	36.513	0.114	0.100
-414.413	230.476	0.051	0.083
-413.398	-200.000	0.053	-0.353
-412.384	-200.000	-0.004	0.021
-411.369	-125.659	0.217	-0.032
-410.355	-153.428	-0.027	-0.002
-409.340	-200.000	-0.016	0.165
-408.325	-177.635	0.480	0.012
-407.311	-200.000	0.038	-0.229
-406.296	252.557	-0.085	-0.143
-405.282	98.494	0.208	-0.238
-404.267	47.314	-0.078	0.072
-403.252	-106.371	0.277	0.061
-402.238	-91.121	-0.294	-0.084
-401.223	-123.406	-0.329	0.052
-400.209	592.684	0.057	0.140
-399.194	-2.737	0.120	-0.083
-398.179	55.776	-0.242	-0.232
-397.165	31.014	0.113	0.096
-396.150	21.037	0.236	0.189
-395.136	13.912	-0.204	0.157
-394.121	-87.786	0.218	0.065
-393.106	-62.087	0.052	-0.022
-392.092	-121.243	0.440	-0.073
-391.077	-200.000	0.060	-0.271
-390.063	-200.000	-0.047	-0.513
-389.048	-200.000	0.017	0.170
-388.033	56.670	-0.249	-0.240
-387.019	112.732	0.114	0.137
-386.004	156.992	-0.100	-0.137
-384.990	73.601	-0.181	0.187
-383.975	-173.352	0.047	0.001
-382.960	105.375	0.086	-0.100
-381.946	113.925	-0.158	-0.190
-380.931	-104.923	-0.250	0.057
-379.917	-137.850	-0.096	-0.011
-378.902	217.863	-0.192	0.302
-377.888	361.611	0.143	0.283
-376.873	-87.220	0.256	0.077
-375.858	800.000	0.059	-0.219
-374.844	-132.184	-0.214	-0.027
-373.829	-102.395	0.188	0.045
-372.815	78.211	0.231	0.244
-371.800	176.734	-0.063	0.090
-370.785	800.000	-0.078	0.310
-369.771	-71.664	0.078	-0.029
-368.756	-127.871	-0.113	-0.016
-367.742	-141.064	-0.059	-0.006
-366.727	800.000	0.109	0.300
-365.712	-200.000	0.023	0.308
-364.698	712.904	0.024	-0.063
-363.683	395.181	0.005	-0.010
-362.669	-70.276	-0.215	-0.080
-361.654	65.728	-0.176	0.176
-360.639	460.369	0.103	-0.226
-359.625	235.246	0.137	-0.224
-358.610	-200.000	-0.091	0.525
-357.596	-200.000	0.017	-0.194
-356.581	240.842	0.148	0.244
-355.566	800.000	0.104	0.296
-354.552	-98.776	-0.096	0.024
-353.537	-28.662	0.407	-0.231
-352.523	720.286	-0.036	-0.094
-351.508	149.046	0.120	0.160
-350.493	-147.391	-0.220	-0.018
-349.479	-152.134	0.043	0.003
-348.464	-200.000	0.024	-0.487
-347.450	-49.043	-0.409	0.193
-346.435	135.258	0.100	-0.128
-345.420	215.730	-0.105	-0.165
-344.406	-68.026	0.137	-0.053
-343.391	136.721	-0.174	-0.224
-342.377	222.410	0.115	0.182
-341.362	178.995	-0.167	0.241
-340.348	-68.037	0.195	0.075
-339.333	173.633	0.059	-0.084
-338.318	-103.679	0.114	-0.026
-337.304	324.279	-0.063	0.118
-336.289	141.866	-0.217	0.284
-335.275	-200.000	0.016	0.499
-334.260	-51.394	-0.355	-0.164
-333.245	273.546	-0.074	-0.129
-332.231	-29.113	0.171	-0.097
-331.216	-103.681	-0.394	-0.091
-330.202	111.311	0.058	0.069
-329.187	121.455	0.105	-0.129
-328.172	125.687	-0.243	0.303
-327.158	-123.025	0.151	0.024
-326.143	-200.000	-0.052	-0.236
-325.129	-21.418	-0.058	-0.035
-324.114	-32.902	-0.135	0.074
-323.099	-200.000	-0.007	-0.343
-322.085	143.658	0.236	0.310
-321.070	-62.425	-0.084	-0.035
-320.056	487.281	0.059	-0.133
-319.041	535.123	-0.109	-0.256
-318.026	44.394	0.060	0.054
-317.012	230.127	-0.122	-0.197
-315.997	741.073	-0.055	0.146
-314.983	197.298	0.079	0.119
-313.968	119.982	-0.146	0.178
-312.953	352.202	0.200	-0.392
-311.939	244.648	-0.122	-0.201
-310.924	-200.000	-0.011	0.139
-309.910	800.000	-0.041	-0.115
-308.895	-3.520	-0.311	-0.213
-307.880	-200.000	0.002	-0.262
-306.866	-106.925	0.170	-0.037
-305.851	-147.287	0.146	-0.012
-304.837	360.564	0.060	0.119
-303.822	-146.931	-0.176	-0.015
-302.807	-86.021	-0.117	0.036
-301.793	800.000	-0.114	0.351
-300.778	800.000	-0.015	0.057
-299.764	-200.000	0.013	0.109
-298.749	-21.244	0.277	0.167
-297.735	389.683	-0.081	0.165
-296.720	17.809	0.037	-0.029
-295.705	-122.797	0.231	-0.037
-294.691	221.317	0.091	0.144
-293.676	-47.481	-0.124	0.059
-292.662	800.000	0.012	-0.052
-291.647	-29.899	0.214	-0.120
-290.632	-25.439	0.189	-0.110
-289.618	800.000	0.070	0.294
-288.603	-50.860	-0.164	0.076
-287.589	397.194	-0.102	0.209
-286.574	-17.210	0.159	0.099
-285.559	98.456	0.187	-0.212
-284.545	-46.508	0.088	0.043
-283.530	-200.000	-0.060	0.329
-282.516	800.000	-0.030	0.101
-281.501	180.777	0.120	-0.174
-280.486	-146.702	0.261	0.022
-279.472	-107.575	0.238	0.051
-278.457	34.688	-0.154	0.132
-277.443	-7.795	-0.206	-0.137
-276.428	800.000	-0.096	0.299
-275.413	-51.153	0.030	-0.014
-274.399	800.000	0.020	-0.059
-273.384	-200.000	0.017	-0.090
-272.370	-170.637	0.189	-0.006
-271.355	800.000	0.017	0.067
-270.340	800.000	-0.023	-0.071
-269.326	-200.000	0.001	-0.205
-268.311	-45.130	0.265	-0.129
-267.297	336.600	-0.067	-0.128
-266.282	171.807	-0.174	-0.246
-265.267	-200.000	0.032	-0.189
-264.253	-200.000	-0.011	0.237
-263.238	22.671	-0.143	-0.116
-262.224	96.832	-0.088	-0.099
-261.209	-44.072	0.119	-0.059
-260.195	-200.000	-0.004	-0.042
-259.180	-200.000	-0.004	0.076
-258.165	-89.710	0.049	0.014
-257.151	-98.061	0.329	0.083
-256.136	302.366	-0.170	-0.309
-255.122	225.451	-0.120	0.191
-254.107	219.392	0.019	-0.031
-253.092	-68.588	0.067	0.026
-252.078	800.000	0.031	-0.102
-251.063	800.000	-0.031	-0.085
-250.049	44.866	0.084	-0.076
-249.034	132.896	0.091	0.116
-248.019	193.576	0.218	-0.324
-247.005	-118.222	-0.371	0.065
-245.990	193.627	0.058	0.086
-244.976	800.000	-0.032	-0.125
-243.961	60.099	-0.196	-0.191
-242.946	-89.670	-0.115	0.033
-241.932	-200.000	0.054	0.263
-240.917	-40.544	0.200	0.102
-239.903	-200.000	-0.053	0.288
-238.888	-17.780	0.004	0.002
-237.873	-200.000	-0.041	-0.193
-236.859	-7.708	-0.161	0.107
-235.844	-141.075	0.216	-0.022
-234.830	-161.308	0.145	-0.007
-233.815	59.865	0.254	-0.247
-232.800	-175.538	0.192	0.005
-231.786	800.000	0.106	-0.317
-230.771	-9.200	0.076	0.050
-229.757	-83.709	0.220	0.069
-228.742	-43.931	-0.178	-0.088
-227.727	800.000	0.075	0.211
-226.713	281.428	-0.037	0.065
-225.698	108.139	0.158	-0.185
-224.684	-183.771	-0.165	-0.003
-223.669	280.713	0.074	0.130
-222.655	800.000	0.066	-0.180
-221.640	164.606	-0.183	-0.254
-220.625	-78.136	-0.338	0.114
-219.611	113.567	-0.126	0.151
-218.596	9.805	0.173	0.129
-217.582	-97.034	0.063	0.016
-216.567	-8.237	-0.146	0.096
-215.552	800.000	0.040	0.152
-214.538	217.339	0.131	-0.204
-213.523	-51.225	-0.159	-0.073
-212.509	-29.930	-0.165	-0.092
-211.494	24.625	-0.170	-0.138
-210.479	800.000	0.126	0.360
-209.465	8.217	-0.244	-0.180
-208.450	-200.000	-0.037	-0.172
-207.436	-56.625	0.066	0.029
-206.421	623.124	0.057	-0.141
-205.406	223.640	-0.099	-0.157
-204.392	-77.923	-0.264	0.089
-203.377	-195.854	0.179	-0.001
-202.363	-19.207	-0.118	0.072
-201.348	-49.085	0.203	0.095
-200.333	-49.871	-0.282	0.131
-199.319	-200.000	0.037	0.248
-198.304	-149.733	-0.153	-0.012
-197.290	-200.000	-0.002	0.147
-196.275	141.493	0.215	-0.279
-195.260	-42.717	-0.134	0.067
-194.246	800.000	0.027	0.104
-193.231	-158.094	-0.226	0.013
-192.217	-200.000	0.059	-0.308
-191.202	582.988	0.022	0.052
-190.187	49.344	0.150	0.139
-189.173	-23.668	-0.331	-0.195
-188.158	-12.531	0.139	0.089
-187.144	-92.484	0.373	0.103
-186.129	296.120	0.043	0.078
-185.114	-200.000	0.008	0.059
-184.100	-200.000	-0.044	-0.411
-183.085	-108.065	0.365	-0.078
-182.071	-130.917	0.280	0.037
-181.056	-110.174	-0.170	0.035
-180.042	-95.211	-0.184	0.049
-179.027	-200.000	-0.007	0.053
-178.012	-200.000	0.003	-0.310
-176.998	-156.632	0.244	0.015
-175.983	318.877	0.110	-0.204
-174.969	-31.440	0.463	0.255
-173.954	-33.414	0.069	0.038
-172.939	661.982	-0.081	0.205
-171.925	800.000	0.022	-0.062
-170.910	-52.563	-0.136	-0.061
-169.896	78.146	0.035	-0.037
-168.881	191.935	0.131	0.194
-167.866	118.196	-0.044	-0.054
-166.852	464.082	0.036	0.079
-165.837	-149.697	-0.236	0.018
-164.823	-200.000	0.015	0.247
-163.808	-64.528	0.207	0.083
-162.793	-16.066	0.043	0.027
-161.779	301.288	-0.048	0.087
-160.764	-200.000	-0.010	0.126
-159.750	-2.769	0.127	-0.087
-158.735	-79.533	-0.350	0.116
-157.720	-117.801	-0.048	0.009
-156.706	16.871	0.475	0.368
-155.691	-77.304	-0.320	-0.109
-154.677	800.000	0.106	0.332
-153.662	-23.145	-0.126	-0.074
-152.647	254.495	0.187	0.314
-151.633	-124.979	-0.214	-0.032
-150.618	-25.996	-0.487	0.281
-149.604	120.796	0.357	-0.435
-148.589	67.752	-0.091	-0.091
-147.574	-17.273	-0.043	-0.027
-146.560	-52.079	-0.130	-0.059
-145.545	11.064	0.216	-0.162
-144.531	-83.333	-0.078	0.024
-143.516	-170.511	-0.303	-0.010
-142.502	277.391	0.037	0.065
-141.487	-68.742	0.235	0.089
-140.472	-163.006	-0.406	-0.019
-139.458	-24.195	0.226	0.132
-138.443	-108.093	-0.253	0.054
-137.429	-107.825	0.080	0.017
-136.414	270.118	0.237	0.408
-135.399	-52.132	-0.095	0.043
-134.385	-200.000	-0.060	0.405
-133.370	-187.559	0.210	0.003
-132.356	-97.747	-0.251	0.064
-131.341	-155.406	-0.268	0.017
-130.326	215.579	0.105	0.163
-129.312	-36.257	0.031	-0.016
-128.297	-200.000	0.033	0.183
-127.283	-135.776	0.233	0.027
-126.268	34.876	0.165	-0.141
-125.253	137.123	-0.059	-0.076
-124.239	-100.566	0.256	-0.062
-123.224	65.699	-0.134	0.133
-122.210	-200.000	0.068	0.347
-121.195	800.000	-0.063	0.264
