DTS Sentinel unit serial number:	SN413079Multiplexer serial number:	ORYXHardware model number:	OX4-SRSoftware version number:	ORYX F/W v4.00 Oryx Data Collector v3.7.2.0data status	okinstallation	princeton_trtdifferential loss correction	single-endedforward channel	channel 1reverse channel	N/Adate	2019/09/12time	13:28:11forward acquisition time	60.00reverse acquisition time	0.00gamma	496.2192k internal	0.2292k external	0.2292temperature offset calibration	1.0049default loss term (dB/km)	0.3790temperature slope calibration	1.0000multiplexer offset coefficient	1.0000multiplexer slope coefficient	1.0000fibre end	0.00T internal ref (°C)	41.11T ext. ref 1 (°C)	2.15T ext. ref 2 (°C)	36.72length (m)	temperature (°C)	Stokes	anti-Stokes-747.200	-200.000	0.025	-0.223
-746.185	-200.000	-0.019	0.234
-745.171	219.316	0.045	0.074
-744.156	800.000	-0.064	0.275
-743.142	-108.141	0.229	-0.051
-742.127	269.456	0.090	-0.162
-741.112	205.190	-0.091	-0.144
-740.098	-75.699	0.260	0.094
-739.083	15.402	0.189	0.152
-738.069	173.126	-0.091	0.135
-737.054	42.511	0.246	0.229
-736.039	168.531	0.056	-0.082
-735.025	62.671	0.192	-0.197
-734.010	-120.967	-0.379	-0.065
-732.996	-40.727	-0.250	-0.133
-731.981	800.000	0.097	0.387
-730.966	245.298	0.157	0.270
-729.952	-101.158	-0.249	0.062
-728.937	112.467	-0.248	-0.307
-727.923	29.294	-0.415	0.361
-726.908	115.883	0.064	-0.080
-725.894	-200.000	-0.053	-0.389
-724.879	-200.000	0.008	-0.045
-723.864	424.350	-0.112	-0.246
-722.850	233.290	-0.114	-0.192
-721.835	800.000	-0.075	-0.320
-720.821	-82.129	-0.213	0.071
-719.806	-131.441	0.288	0.039
-718.791	-122.190	0.070	0.012
-717.777	345.942	-0.040	0.080
-716.762	-143.475	-0.072	-0.007
-715.748	138.779	-0.140	-0.188
-714.733	-200.000	-0.000	-0.304
-713.718	-70.220	0.447	0.173
-712.704	280.686	0.090	-0.165
-711.689	800.000	0.084	0.337
-710.675	-200.000	-0.012	-0.242
-709.660	-200.000	-0.037	0.189
-708.645	177.963	0.167	-0.249
-707.631	144.984	0.091	-0.124
-706.616	-19.303	-0.278	-0.176
-705.602	-200.000	0.026	-0.370
-704.587	-190.569	0.177	-0.002
-703.572	312.544	0.174	0.334
-702.558	800.000	-0.045	0.141
-701.543	133.661	0.156	-0.207
-700.529	-114.754	-0.346	-0.068
-699.514	-48.355	-0.083	-0.041
-698.499	125.969	-0.135	-0.174
-697.485	-53.983	-0.308	0.144
-696.470	-167.687	-0.055	0.002
-695.456	-62.179	0.073	-0.031
-694.441	72.095	0.149	0.158
-693.426	-38.141	-0.165	0.090
-692.412	461.162	-0.105	-0.240
-691.397	-154.198	-0.228	0.016
-690.383	-62.901	0.255	-0.108
-689.368	-200.000	-0.006	-0.168
-688.354	425.960	-0.181	-0.398
-687.339	-88.245	0.154	-0.047
-686.324	329.332	-0.243	0.477
-685.310	800.000	-0.042	0.153
-684.295	800.000	0.072	-0.263
-683.281	193.351	0.149	-0.229
-682.266	-146.830	-0.060	0.005
-681.251	-94.312	0.157	-0.044
-680.237	-157.287	0.219	-0.014
-679.222	33.018	-0.129	0.114
-678.208	12.249	0.051	-0.040
-677.193	170.376	-0.093	-0.136
-676.178	-200.000	-0.005	0.046
-675.164	-75.237	0.172	-0.063
-674.149	3.494	-0.134	-0.099
-673.135	9.090	0.165	0.127
-672.120	38.550	0.185	-0.169
-671.105	158.882	-0.061	0.087
-670.091	230.369	-0.116	-0.193
-669.076	-75.163	0.196	0.071
-668.062	-12.089	0.022	-0.015
-667.047	-135.379	-0.201	0.024
-666.032	132.044	-0.065	-0.085
-665.018	329.998	0.200	-0.392
-664.003	-200.000	0.031	0.179
-662.989	95.608	0.213	0.248
-661.974	502.278	-0.088	0.207
-660.959	147.128	0.165	-0.227
-659.945	676.040	-0.145	-0.384
-658.930	0.866	0.345	0.252
-657.916	-49.240	0.433	-0.211
-656.901	-97.103	0.311	-0.083
-655.886	118.112	-0.152	0.191
-654.872	-41.579	-0.321	-0.168
-653.857	-56.080	-0.115	-0.052
-652.843	68.536	-0.237	-0.248
-651.828	203.621	-0.111	0.174
-650.814	489.044	0.111	0.258
-649.799	194.864	-0.121	0.187
-648.784	4.282	-0.297	-0.222
-647.770	-200.000	-0.010	-0.632
-646.755	800.000	-0.064	-0.269
-645.741	-41.366	0.165	-0.086
-644.726	-113.105	0.217	0.044
-643.711	-200.000	-0.035	-0.205
-642.697	-200.000	0.053	0.261
-641.682	-200.000	0.012	0.126
-640.668	61.812	-0.216	0.219
-639.653	-200.000	-0.021	0.293
-638.638	-200.000	-0.008	0.134
-637.624	473.092	0.057	-0.130
-636.609	-120.507	-0.185	-0.032
-635.595	-77.426	-0.387	0.137
-634.580	-45.686	-0.097	0.049
-633.565	77.635	0.285	-0.309
-632.551	-39.154	-0.250	-0.134
-631.536	290.452	0.133	-0.246
-630.522	-70.981	0.290	-0.111
-629.507	382.872	-0.153	0.320
-628.492	-3.564	0.145	0.103
-627.478	388.419	-0.058	-0.123
-626.463	800.000	-0.038	-0.136
-625.449	-98.791	-0.196	0.051
-624.434	351.239	0.093	-0.188
-623.419	-200.000	-0.034	-0.178
-622.405	800.000	0.116	-0.347
-621.390	800.000	0.095	-0.322
-620.376	-200.000	-0.015	-0.127
-619.361	71.825	-0.036	-0.038
-618.346	-112.570	-0.172	-0.035
-617.332	-50.293	0.353	-0.170
-616.317	64.222	0.069	-0.070
-615.303	-152.424	0.223	-0.016
-614.288	-80.041	-0.140	-0.048
-613.273	116.018	-0.045	0.056
-612.259	369.369	0.190	-0.392
-611.244	563.342	0.121	0.298
-610.230	530.964	-0.061	0.146
-609.215	587.868	0.066	0.167
-608.201	16.788	-0.108	-0.087
-607.186	-113.275	0.036	-0.007
-606.171	-154.472	-0.376	0.026
-605.157	-72.975	-0.420	0.157
-604.142	295.593	-0.057	0.106
-603.128	-200.000	-0.002	-0.028
-602.113	29.194	-0.110	0.095
-601.098	39.792	-0.143	-0.131
-600.084	10.188	0.014	-0.011
-599.069	-64.333	0.289	0.120
-598.055	-12.644	-0.155	-0.103
-597.040	-45.511	0.124	-0.062
-596.025	79.016	-0.247	0.269
-595.011	800.000	-0.086	0.284
-593.996	229.921	-0.116	0.192
-592.982	180.743	-0.055	0.082
-591.967	472.349	0.081	-0.185
-590.952	-45.237	0.243	0.123
-589.938	800.000	0.024	-0.081
-588.923	-90.970	0.180	-0.053
-587.909	-19.407	0.208	-0.131
-586.894	-58.436	-0.258	0.114
-585.879	800.000	-0.113	0.396
-584.865	-200.000	-0.005	0.386
-583.850	295.855	0.129	-0.240
-582.836	-132.157	-0.110	0.015
-581.821	-173.021	0.222	0.007
-580.806	800.000	0.090	0.254
-579.792	-200.000	0.011	0.187
-578.777	-58.695	0.352	-0.155
-577.763	141.016	-0.134	0.180
-576.748	228.617	-0.269	0.446
-575.733	-189.243	0.050	-0.001
-574.719	129.729	0.098	-0.127
-573.704	-192.175	-0.122	0.001
-572.690	-66.943	-0.212	-0.085
-571.675	305.655	0.148	-0.280
-570.661	37.770	0.116	-0.105
-569.646	800.000	0.057	-0.249
-568.631	-128.340	0.180	0.026
-567.617	565.931	0.107	-0.264
-566.602	65.206	0.080	-0.082
-565.588	-194.835	-0.264	-0.002
-564.573	189.754	0.251	-0.383
-563.558	-51.007	0.017	-0.008
-562.544	760.114	0.048	-0.131
-561.529	-10.345	-0.203	-0.137
-560.515	-200.000	0.005	-0.286
-559.500	-77.796	-0.390	0.137
-558.485	-49.371	0.020	-0.010
-557.471	71.996	0.118	-0.125
-556.456	-86.671	0.171	-0.053
-555.442	15.716	0.264	0.211
-554.427	122.411	0.164	0.208
-553.412	800.000	0.076	0.316
-552.398	-69.924	-0.114	0.044
-551.383	-200.000	0.052	0.616
-550.369	121.729	0.245	-0.310
-549.354	-200.000	-0.033	0.310
-548.339	400.197	0.143	0.304
-547.325	-182.383	-0.150	-0.003
-546.310	550.218	0.049	-0.119
-545.296	-0.316	0.032	-0.023
-544.281	-155.396	-0.286	-0.019
-543.266	661.837	-0.111	0.291
-542.252	663.800	-0.063	0.164
-541.237	-33.728	-0.246	0.138
-540.223	-93.039	0.274	0.078
-539.208	-4.648	-0.084	-0.059
-538.193	-200.000	-0.016	0.150
-537.179	-127.297	0.464	-0.069
-536.164	-103.331	0.305	-0.073
-535.150	376.845	0.134	-0.278
-534.135	179.934	0.065	-0.096
-533.121	-139.272	0.338	-0.037
-532.106	-51.660	-0.274	-0.130
-531.091	13.445	0.285	-0.224
-530.077	312.303	-0.123	-0.234
-529.062	123.666	-0.064	0.082
-528.048	-157.047	-0.251	0.016
-527.033	260.270	-0.158	0.277
-526.018	109.079	0.143	0.174
-525.004	800.000	-0.030	0.114
-523.989	370.281	-0.128	-0.264
-522.975	390.249	0.129	0.272
-521.960	-200.000	-0.003	0.330
-520.945	-40.772	0.333	0.175
-519.931	-110.816	0.040	-0.008
-518.916	800.000	-0.125	0.512
-517.902	87.601	-0.207	0.232
-516.887	-187.922	0.192	-0.003
-515.872	-119.425	-0.166	-0.029
-514.858	20.335	-0.241	-0.198
-513.843	-112.809	0.330	0.066
-512.829	-200.000	-0.025	0.158
-511.814	800.000	-0.112	-0.348
-510.799	-200.000	-0.027	-0.242
-509.785	800.000	-0.073	-0.211
-508.770	-46.458	0.286	-0.142
-507.756	3.734	-0.075	0.055
-506.741	800.000	-0.024	-0.101
-505.726	15.721	-0.208	0.166
-504.712	663.372	0.117	-0.306
-503.697	374.895	-0.058	-0.119
-502.683	158.133	0.136	0.192
-501.668	-200.000	-0.066	0.347
-500.653	213.969	-0.135	-0.216
-499.639	-43.136	-0.100	-0.052
-498.624	-57.724	-0.110	-0.049
-497.610	-93.407	0.278	-0.078
-496.595	-166.061	-0.134	0.006
-495.581	-122.246	0.318	0.053
-494.566	78.066	-0.068	-0.074
-493.551	-15.487	-0.146	-0.094
-492.537	212.679	0.214	0.342
-491.522	-200.000	0.012	0.181
-490.508	-167.919	0.164	-0.007
-489.493	142.903	0.029	-0.039
-488.478	-70.937	-0.168	-0.064
-487.464	77.132	0.067	0.072
-486.449	-200.000	0.030	0.247
-485.435	800.000	-0.042	-0.121
-484.420	283.842	-0.089	-0.162
-483.405	623.191	-0.091	-0.231
-482.391	-157.475	-0.412	0.025
-481.376	-81.094	-0.278	0.093
-480.362	-124.055	-0.146	-0.023
-479.347	-38.674	-0.236	-0.126
-478.332	184.427	0.104	0.156
-477.318	-68.684	-0.132	-0.052
-476.303	-133.691	0.158	0.020
-475.289	800.000	-0.076	-0.238
-474.274	800.000	-0.080	-0.305
-473.259	73.596	-0.084	-0.089
-472.245	-140.895	0.189	-0.020
-471.230	73.173	-0.200	-0.212
-470.216	700.679	0.142	0.380
-469.201	-200.000	-0.002	-0.074
-468.186	-69.952	0.111	0.043
-467.172	97.643	-0.202	-0.235
-466.157	509.520	-0.053	0.125
-465.143	-23.640	0.222	0.135
-464.128	-72.978	-0.270	-0.100
-463.113	421.792	0.127	0.276
-462.099	-21.773	-0.229	-0.141
-461.084	25.985	0.198	-0.167
-460.070	141.859	-0.128	-0.172
-459.055	39.175	-0.114	0.103
-458.040	189.941	-0.064	-0.097
-457.026	-200.000	-0.045	-0.558
-456.011	281.732	0.102	-0.185
-454.997	-17.481	0.117	0.074
-453.982	-124.677	0.223	-0.035
-452.968	-25.099	-0.236	-0.141
-451.953	333.627	-0.191	0.374
-450.938	-200.000	0.032	-0.159
-449.924	244.903	0.075	-0.127
-448.909	4.202	-0.225	-0.167
-447.895	89.328	-0.262	-0.295
-446.880	649.190	-0.074	0.191
-445.865	-200.000	0.026	0.309
-444.851	78.074	-0.060	0.065
-443.836	-11.571	-0.176	-0.117
-442.822	-200.000	-0.023	-0.331
-441.807	-76.150	-0.284	0.102
-440.792	-11.002	-0.101	-0.067
-439.778	800.000	-0.039	-0.111
-438.763	511.985	0.095	0.224
-437.749	689.720	-0.073	0.192
-436.734	220.796	0.047	-0.077
-435.719	-70.834	-0.103	-0.039
-434.705	-200.000	-0.058	0.268
-433.690	800.000	-0.004	0.016
-432.676	-64.647	-0.274	0.112
-431.661	38.697	-0.162	-0.146
-430.646	-200.000	-0.199	0.000
-429.632	88.406	0.135	-0.151
-428.617	-200.000	-0.011	-0.167
-427.603	56.497	0.276	-0.271
-426.588	-48.959	-0.108	0.052
-425.573	-154.085	-0.045	-0.003
-424.559	-86.940	0.334	-0.103
-423.544	442.947	-0.034	0.074
-422.530	188.077	-0.150	0.227
-421.515	-168.591	0.312	0.012
-420.500	150.692	-0.171	-0.235
-419.486	509.010	0.153	-0.359
-418.471	-200.000	-0.025	0.292
-417.457	52.238	-0.145	0.140
-416.442	-200.000	0.038	0.268
-415.428	-80.076	-0.121	-0.041
-414.413	54.068	0.137	-0.133
-413.398	-78.834	0.119	-0.041
-412.384	-59.836	-0.163	0.071
-411.369	-94.914	-0.076	-0.021
-410.355	-198.991	-0.402	0.002
-409.340	92.944	0.165	0.189
-408.325	51.738	-0.098	0.094
-407.311	-200.000	0.000	-0.063
-406.296	8.810	0.204	-0.155
-405.282	4.936	0.477	0.355
-404.267	-200.000	0.070	0.385
-403.252	-120.347	-0.256	-0.044
-402.238	-70.936	0.062	-0.024
-401.223	-200.000	0.013	0.086
-400.209	-105.179	0.101	0.023
-399.194	42.566	0.240	0.221
-398.179	42.422	0.055	-0.050
-397.165	-13.659	0.231	0.151
-396.150	-133.514	0.075	-0.010
-395.136	-200.000	0.016	0.173
-394.121	-54.359	-0.359	-0.164
-393.106	551.415	0.084	0.204
-392.092	39.659	0.153	0.138
-391.077	800.000	0.035	-0.108
-390.063	-200.000	-0.021	-0.153
-389.048	-200.000	0.019	0.158
-388.033	210.486	-0.057	-0.090
-387.019	-200.000	0.006	-0.212
-386.004	-143.376	0.155	0.015
-384.990	372.021	-0.080	-0.165
-383.975	-39.275	0.200	0.106
-382.960	-111.063	0.289	0.060
-381.946	-168.795	0.164	-0.006
-380.931	233.684	-0.046	0.076
-379.917	140.767	-0.079	0.105
-378.902	-200.000	-0.027	-0.125
-377.888	290.486	0.051	-0.094
-376.873	800.000	-0.008	-0.024
-375.858	141.682	0.094	-0.126
-374.844	-200.000	-0.053	0.262
-373.829	800.000	-0.050	0.209
-372.815	162.652	0.031	0.044
-371.800	190.209	0.080	0.122
-370.785	69.996	0.213	-0.222
-369.771	-200.000	0.063	-0.368
-368.756	738.397	-0.068	-0.184
-367.742	-37.511	0.342	0.184
-366.727	49.985	-0.112	-0.106
-365.712	-200.000	0.045	-0.269
-364.698	-47.756	0.129	0.063
-363.683	-46.258	-0.072	0.036
-362.669	-10.137	0.197	0.132
-361.654	776.974	0.010	-0.028
-360.639	-40.929	0.140	0.073
-359.625	-200.000	-0.007	-0.350
-358.610	60.734	0.103	0.103
-357.596	-20.204	0.141	0.088
-356.581	32.627	0.126	-0.110
-355.566	-99.160	-0.280	-0.071
-354.552	800.000	0.050	-0.175
-353.537	-19.897	0.280	0.174
-352.523	52.458	-0.089	0.085
-351.508	-200.000	-0.050	0.355
-350.493	-127.304	0.255	0.038
-349.479	-26.442	0.203	0.120
-348.464	-44.884	-0.174	0.087
-347.450	-139.445	-0.295	-0.032
-346.435	-84.647	-0.240	0.076
-345.420	111.134	-0.142	0.172
-344.406	102.592	0.183	0.216
-343.391	-181.971	0.069	0.001
-342.377	86.507	-0.179	-0.199
-341.362	-116.875	0.415	0.077
-340.348	60.888	0.098	0.098
-339.333	106.163	0.067	-0.079
-338.318	-200.000	0.006	0.068
-337.304	-144.365	-0.323	-0.030
-336.289	25.746	-0.093	0.078
-335.275	220.948	-0.097	-0.157
-334.260	-128.022	0.244	-0.035
-333.245	800.000	-0.032	-0.090
-332.231	144.557	0.101	0.135
-331.216	245.594	-0.223	0.378
-330.202	122.272	0.327	-0.411
-329.187	-200.000	-0.049	0.250
-328.172	376.685	0.217	0.447
-327.158	234.228	-0.032	0.054
-326.143	-79.461	0.047	-0.016
-325.129	-25.541	0.275	-0.163
-324.114	-2.688	0.115	-0.081
-323.099	-69.938	-0.234	0.090
-322.085	173.016	-0.157	-0.228
-321.070	-29.014	0.132	0.076
-320.056	-200.000	-0.040	-0.301
-319.041	800.000	-0.065	0.232
-318.026	185.398	-0.096	0.144
-317.012	-115.110	0.094	-0.018
-315.997	-200.000	-0.036	-0.226
-314.983	-188.520	-0.342	0.004
-313.968	-200.000	-0.044	-0.450
-312.953	-68.737	-0.334	-0.130
-311.939	-107.169	-0.338	-0.075
-310.924	-94.123	-0.199	0.055
-309.910	277.648	0.050	-0.090
-308.895	150.643	-0.176	-0.240
-307.880	-144.195	0.126	-0.012
-306.866	213.478	-0.134	-0.213
-305.851	-160.812	0.231	0.012
-304.837	24.352	-0.153	-0.127
-303.822	434.298	-0.128	-0.280
-302.807	-112.495	-0.099	0.020
-301.793	-97.346	0.236	-0.062
-300.778	800.000	0.037	0.114
-299.764	-200.000	-0.027	0.155
-298.749	-200.000	0.027	-0.277
-297.735	-130.181	-0.348	0.048
-296.720	-200.000	0.029	-0.214
-295.705	423.760	0.116	0.251
-294.691	-200.000	-0.021	-0.110
-293.676	800.000	0.063	-0.178
-292.662	-13.688	0.235	-0.153
-291.647	275.264	-0.159	-0.284
-290.632	-143.613	0.115	-0.011
-289.618	-184.062	0.442	-0.007
-288.603	-200.000	-0.023	-0.276
-287.589	-32.431	-0.222	-0.124
-286.574	-200.000	-0.010	-0.169
-285.559	28.790	-0.048	-0.040
-284.545	-68.207	0.064	0.025
-283.530	9.089	0.069	-0.052
-282.516	-66.651	0.257	0.102
-281.501	273.712	0.130	0.231
-280.486	-200.000	0.035	0.197
-279.472	5.657	-0.342	0.254
-278.457	800.000	0.053	-0.169
-277.443	-200.000	0.067	0.405
-276.428	-200.000	0.016	-0.072
-275.413	-200.000	0.006	-0.171
-274.399	-2.528	0.051	0.036
-273.384	-71.508	0.281	0.106
-272.370	406.245	-0.033	-0.069
-271.355	-131.708	0.295	-0.039
-270.340	27.786	-0.221	0.187
-269.326	242.518	0.154	0.259
-268.311	230.654	-0.159	0.261
-267.297	-93.040	0.417	0.117
-266.282	800.000	0.077	0.232
-265.267	-200.000	-0.076	-0.402
-264.253	-69.521	0.327	0.126
-263.238	-53.335	-0.128	-0.059
-262.224	93.825	0.043	0.050
-261.209	-200.000	0.017	-0.171
-260.195	-138.310	0.310	0.034
-259.180	-20.915	0.135	0.083
-258.165	-27.142	0.410	0.240
-257.151	3.021	0.153	-0.112
-256.136	70.603	-0.203	0.211
-255.122	800.000	0.076	-0.312
-254.107	-197.393	-0.233	0.001
-253.092	84.053	0.177	0.194
-252.078	-200.000	-0.010	0.276
-251.063	602.939	0.113	0.283
-250.049	-171.371	0.164	-0.006
-249.034	14.436	-0.165	0.130
-248.019	25.384	-0.413	0.345
-247.005	-200.000	-0.042	-0.265
-245.990	-158.286	0.436	-0.026
-244.976	333.187	0.156	0.302
-243.961	239.115	-0.240	0.400
-242.946	-59.999	-0.386	0.165
-241.932	-200.000	-0.034	0.292
-240.917	-63.943	-0.040	-0.016
-239.903	-200.000	-0.000	0.114
-238.888	95.269	-0.190	-0.217
-237.873	-200.000	0.024	0.238
-236.859	-200.000	-0.026	0.230
-235.844	-41.359	-0.167	0.087
-234.830	-146.924	0.153	0.013
-233.815	800.000	-0.043	-0.160
-232.800	-174.448	0.350	0.010
-231.786	-104.967	0.092	-0.021
-230.771	-200.000	0.007	-0.184
-229.757	630.728	0.130	-0.331
-228.742	143.131	-0.107	0.143
-227.727	2.741	-0.028	-0.020
-226.713	-105.016	0.356	0.082
-225.698	-93.200	-0.090	0.025
-224.684	142.296	0.008	-0.011
-223.669	-200.000	-0.014	0.134
-222.655	-70.631	-0.198	0.075
-221.640	733.950	-0.118	-0.315
-220.625	8.363	0.104	-0.079
-219.611	-35.747	0.239	-0.130
-218.596	-59.374	-0.138	-0.059
-217.582	202.381	0.172	-0.267
-216.567	-200.000	0.015	-0.095
-215.552	-64.384	-0.186	0.076
-214.538	-200.000	-0.069	-0.328
-213.523	336.595	0.054	-0.105
-212.509	-120.103	-0.364	0.062
-211.494	111.666	0.174	0.210
-210.479	225.549	-0.040	0.064
-209.465	-200.000	-0.003	0.168
-208.450	-134.175	-0.353	0.044
-207.436	20.654	0.202	0.164
-206.421	66.148	-0.285	0.290
-205.406	-200.000	0.024	-0.197
-204.392	-104.902	-0.353	0.081
-203.377	125.212	0.156	-0.197
-202.363	193.902	0.143	0.218
-201.348	140.770	-0.098	-0.129
-200.333	87.682	0.078	0.086
-199.319	18.563	0.236	-0.189
-198.304	31.125	0.250	-0.215
-197.290	-105.633	-0.158	0.036
-196.275	-125.808	0.041	0.006
-195.260	53.148	-0.214	0.206
-194.246	274.862	-0.198	-0.352
-193.231	-22.379	0.244	0.148
-192.217	-200.000	-0.027	-0.144
-191.202	-20.719	0.214	0.131
-190.187	-200.000	0.038	0.264
-189.173	800.000	0.045	0.143
-188.158	50.882	-0.167	0.159
-187.144	-200.000	-0.034	-0.412
-186.129	-162.456	-0.505	-0.025
-185.114	-34.012	0.245	0.135
-184.100	-88.119	0.331	-0.099
-183.085	-82.861	-0.144	0.047
-182.071	59.468	-0.166	-0.163
-181.056	-102.451	-0.325	0.078
-180.042	-29.463	-0.442	0.253
-179.027	-172.148	-0.166	-0.005
-178.012	368.365	-0.129	-0.261
-176.998	-26.544	-0.089	-0.052
-175.983	549.354	-0.071	0.170
-174.969	92.123	-0.240	-0.271
-173.954	-200.000	0.022	0.108
-172.939	-200.000	0.319	0.000
-171.925	153.622	-0.045	-0.062
-170.910	-145.869	0.090	0.008
-169.896	-4.771	0.181	0.125
-168.881	39.034	-0.189	-0.169
-167.866	264.283	-0.032	-0.056
-166.852	325.325	-0.214	0.409
-165.837	52.174	-0.079	0.076
-164.823	24.587	0.299	0.247
-163.808	800.000	-0.030	-0.095
-162.793	-39.424	0.054	-0.028
-161.779	800.000	0.042	-0.166
-160.764	23.757	0.416	-0.343
-159.750	186.264	0.186	-0.277
-158.735	657.148	-0.057	0.148
-157.720	609.640	0.128	-0.321
-156.706	102.410	-0.096	0.113
-155.691	344.893	-0.115	0.226
-154.677	4.453	-0.188	-0.138
-153.662	329.610	-0.123	0.237
-152.647	800.000	0.049	-0.153
-151.633	-74.866	-0.275	-0.099
-150.618	79.016	-0.124	0.133
-149.604	-122.506	-0.169	0.027
-148.589	-41.837	0.396	0.203
-147.574	-200.000	0.029	0.408
-146.560	800.000	-0.063	0.200
-145.545	-98.363	-0.200	-0.051
-144.531	81.266	-0.363	0.392
-143.516	115.695	-0.221	-0.271
-142.502	51.630	-0.245	0.233
-141.487	-22.793	-0.250	0.151
-140.472	-200.000	-0.033	0.176
-139.458	-58.765	-0.475	0.205
-138.443	800.000	-0.100	0.307
-137.429	-64.869	0.117	0.047
-136.414	341.779	0.076	-0.148
-135.399	800.000	-0.075	-0.232
-134.385	127.231	-0.144	0.182
-133.370	277.050	0.189	0.335
-132.356	-200.000	-0.020	0.120
-131.341	732.961	-0.035	-0.093
-130.326	-200.000	-0.002	-0.273
-129.312	36.338	-0.134	0.118
-128.297	43.941	-0.187	0.172
-127.283	693.791	0.038	0.098
-126.268	-55.791	-0.387	0.173
-125.253	-115.024	0.105	-0.020
-124.239	-200.000	0.022	-0.104
-123.224	-124.168	-0.312	0.049
-122.210	-46.814	0.180	0.088
