DTS Sentinel unit serial number:	SN413079Multiplexer serial number:	ORYXHardware model number:	OX4-SRSoftware version number:	ORYX F/W v4.00 Oryx Data Collector v3.7.2.0data status	okinstallation	princeton_trtdifferential loss correction	single-endedforward channel	channel 1reverse channel	N/Adate	2019/09/16time	01:22:35forward acquisition time	60.00reverse acquisition time	0.00gamma	496.2192k internal	0.2334k external	0.2334temperature offset calibration	0.9974default loss term (dB/km)	0.3790temperature slope calibration	1.0000multiplexer offset coefficient	1.0000multiplexer slope coefficient	1.0000fibre end	0.00T internal ref (°C)	27.30T ext. ref 1 (°C)	9.87T ext. ref 2 (°C)	21.87length (m)	temperature (°C)	Stokes	anti-Stokes-747.200	166.764	-0.198	0.283
-746.185	124.619	0.172	0.218
-745.171	76.666	0.228	0.243
-744.156	199.602	0.063	0.097
-743.142	389.911	0.166	0.345
-742.127	800.000	0.026	0.108
-741.112	741.603	-0.121	-0.326
-740.098	-35.952	-0.018	-0.010
-739.083	-200.000	-0.013	-0.323
-738.069	-25.238	-0.170	-0.101
-737.054	-122.423	0.220	0.036
-736.039	377.393	-0.112	-0.229
-735.025	-53.450	0.268	0.123
-734.010	800.000	-0.105	-0.416
-732.996	669.556	-0.093	-0.241
-731.981	87.611	-0.066	0.073
-730.966	-109.382	-0.284	0.060
-729.952	198.018	-0.078	-0.119
-728.937	-42.613	0.096	-0.049
-727.923	-160.990	-0.612	-0.032
-726.908	-3.425	0.319	0.223
-725.894	-104.459	-0.132	0.031
-724.879	371.721	-0.297	0.605
-723.864	545.908	0.047	0.114
-722.850	800.000	0.053	-0.169
-721.835	64.028	-0.143	0.145
-720.821	-0.134	-0.036	0.026
-719.806	-200.000	-0.018	-0.260
-718.791	-177.431	-0.049	-0.001
-717.777	-101.731	-0.324	-0.079
-716.762	-125.991	-0.036	-0.006
-715.748	18.304	-0.028	-0.022
-714.733	-39.719	0.413	-0.217
-713.718	-12.789	-0.194	-0.127
-712.704	-40.322	0.032	0.017
-711.689	-200.000	-0.004	0.117
-710.675	207.058	-0.141	0.221
-709.660	76.405	-0.149	0.158
-708.645	800.000	-0.065	-0.192
-707.631	800.000	-0.049	0.163
-706.616	-200.000	-0.005	0.273
-705.602	9.329	-0.171	0.130
-704.587	-177.872	-0.519	-0.012
-703.572	29.390	0.131	0.112
-702.558	-60.588	0.193	0.082
-701.543	-14.545	-0.275	-0.177
-700.529	27.752	-0.035	-0.030
-699.514	-182.901	0.130	0.002
-698.499	316.191	-0.091	-0.173
-697.485	-73.489	0.072	-0.026
-696.470	-153.690	0.082	0.006
-695.456	-118.043	-0.381	0.068
-694.441	-200.000	0.017	-0.210
-693.426	66.509	-0.276	0.281
-692.412	34.492	-0.191	-0.167
-691.397	53.378	-0.142	-0.137
-690.383	399.285	-0.031	0.064
-689.368	-12.650	0.189	0.124
-688.354	29.606	-0.080	-0.069
-687.339	8.845	-0.122	-0.093
-686.324	15.255	0.263	-0.207
-685.310	-22.075	-0.169	0.103
-684.295	142.563	0.188	-0.250
-683.281	105.998	-0.065	-0.077
-682.266	267.347	-0.177	-0.310
-681.251	-79.770	-0.195	-0.066
-680.237	-92.786	-0.076	0.021
-679.222	800.000	0.056	0.156
-678.208	-51.599	0.251	-0.117
-677.193	-147.486	-0.228	-0.019
-676.178	-200.000	0.223	0.001
-675.164	172.593	0.160	0.231
-674.149	380.370	0.059	0.122
-673.135	-122.288	-0.107	-0.018
-672.120	-200.000	0.039	-0.000
-671.105	26.740	0.285	-0.239
-670.091	-66.536	-0.150	-0.060
-669.076	38.904	-0.249	-0.223
-668.062	-188.352	-0.177	-0.002
-667.047	195.112	0.066	-0.100
-666.032	344.388	0.176	-0.346
-665.018	21.285	-0.116	0.094
-664.003	421.758	0.156	0.336
-662.989	-71.072	0.107	0.040
-661.974	-200.000	-0.037	0.211
-660.959	-200.000	0.105	-0.516
-659.945	748.694	-0.071	0.193
-658.930	800.000	0.061	-0.234
-657.916	425.533	-0.134	0.289
-656.901	-124.592	-0.269	0.042
-655.886	-146.273	-0.220	-0.019
-654.872	-200.000	0.013	-0.099
-653.857	-9.278	-0.215	-0.144
-652.843	-96.365	0.399	-0.106
-651.828	-28.370	0.065	0.038
-650.814	32.127	0.108	0.093
-649.799	800.000	-0.028	0.115
-648.784	345.991	0.114	-0.225
-647.770	24.474	-0.087	0.072
-646.755	-102.038	0.352	0.085
-645.741	213.034	-0.059	0.093
-644.726	-143.637	0.276	0.026
-643.711	131.078	-0.072	-0.093
-642.697	-200.000	-0.023	0.240
-641.682	-200.000	0.001	-0.256
-640.668	224.264	0.168	-0.271
-639.653	-24.329	0.269	-0.161
-638.638	143.592	0.165	-0.220
-637.624	-160.239	-0.241	0.013
-636.609	-98.243	-0.255	0.066
-635.595	135.171	-0.162	0.210
-634.580	282.013	-0.095	0.170
-633.565	-80.136	0.290	0.097
-632.551	-124.159	-0.246	-0.039
-631.536	495.274	0.065	-0.149
-630.522	-122.834	-0.344	-0.056
-629.507	-46.308	-0.441	-0.217
-628.492	-200.000	0.012	-0.135
-627.478	188.287	0.089	0.133
-626.463	-119.319	-0.253	0.044
-625.449	152.653	-0.090	0.123
-624.434	-99.301	-0.316	-0.080
-623.419	-200.000	-0.052	-0.230
-622.405	-23.673	-0.157	0.094
-621.390	169.338	-0.071	-0.101
-620.376	800.000	-0.096	0.270
-619.361	-149.199	-0.095	0.008
-618.346	478.583	-0.087	0.197
-617.332	800.000	-0.120	-0.411
-616.317	151.195	-0.137	-0.187
-615.303	299.887	-0.122	-0.225
-614.288	-200.000	0.014	-0.345
-613.273	-146.414	-0.122	0.011
-612.259	800.000	-0.033	0.117
-611.244	800.000	0.088	-0.292
-610.230	-116.065	0.379	0.071
-609.215	553.663	0.004	-0.009
-608.201	-48.911	0.321	0.154
-607.186	-2.896	-0.056	-0.039
-606.171	241.365	-0.192	0.320
-605.157	178.352	0.185	0.270
-604.142	326.954	-0.092	-0.176
-603.128	-56.946	-0.092	0.041
-602.113	94.727	0.108	0.122
-601.098	-200.000	0.017	-0.081
-600.084	59.389	-0.305	0.300
-599.069	702.381	0.122	0.322
-598.055	136.525	-0.066	-0.086
-597.040	155.183	0.089	-0.123
-596.025	-200.000	-0.068	-0.359
-595.011	-113.182	-0.206	0.041
-593.996	-97.606	0.304	0.079
-592.982	-93.013	-0.115	0.032
-591.967	800.000	0.062	-0.264
-590.952	8.740	0.224	-0.168
-589.938	-136.678	0.163	0.019
-588.923	-86.833	-0.248	-0.076
-587.909	-200.000	-0.005	0.267
-586.894	52.844	-0.167	-0.160
-585.879	-200.000	0.021	-0.449
-584.865	-47.101	-0.051	0.025
-583.850	-200.000	-0.001	-0.465
-582.836	239.652	-0.133	-0.222
-581.821	-123.414	0.156	0.025
-580.806	-200.000	0.003	-0.053
-579.792	209.042	0.070	0.110
-578.777	-9.163	0.149	-0.100
-577.763	129.649	-0.030	-0.038
-576.748	175.575	-0.134	-0.195
-575.733	-14.347	0.178	-0.114
-574.719	-200.000	-0.002	0.016
-573.704	-8.587	-0.237	0.159
-572.690	-102.853	-0.071	-0.017
-571.675	193.929	-0.246	-0.371
-570.661	-47.809	0.241	-0.117
-569.646	800.000	0.064	0.190
-568.631	-128.310	-0.070	0.010
-567.617	800.000	-0.105	-0.343
-566.602	-200.000	-0.047	0.265
-565.588	-200.000	0.011	-0.263
-564.573	-34.870	0.167	-0.091
-563.558	-184.014	-0.078	0.001
-562.544	-200.000	-0.003	-0.020
-561.529	-138.439	0.242	0.027
-560.515	46.518	-0.145	-0.134
-559.500	34.398	0.213	-0.186
-558.485	800.000	-0.013	0.043
-557.471	-15.892	-0.262	0.166
-556.456	40.050	-0.101	0.091
-555.442	-200.000	-0.014	0.140
-554.427	-70.625	-0.276	0.104
-553.412	-134.077	-0.091	-0.011
-552.398	-163.864	0.446	-0.021
-551.383	-5.511	0.355	-0.243
-550.369	-200.000	0.014	0.261
-549.354	-200.000	0.050	-0.361
-548.339	113.222	-0.297	-0.359
-547.325	716.393	0.048	-0.128
-546.310	78.347	0.171	-0.182
-545.296	-200.000	-0.015	0.097
-544.281	-92.371	0.104	-0.029
-543.266	329.957	-0.088	-0.169
-542.252	190.316	-0.028	0.042
-541.237	-76.065	-0.123	0.043
-540.223	397.070	-0.099	0.207
-539.208	-145.945	-0.094	0.008
-538.193	305.721	-0.115	-0.213
-537.179	-200.000	-0.047	0.333
-536.164	32.737	0.275	0.237
-535.150	800.000	0.086	0.355
-534.135	391.609	-0.050	-0.104
-533.121	138.417	0.190	-0.249
-532.106	-200.000	0.001	-0.126
-531.091	219.493	-0.069	0.110
-530.077	-200.000	0.010	0.454
-529.062	288.284	0.244	-0.440
-528.048	-149.301	0.084	-0.007
-527.033	142.369	-0.203	0.269
-526.018	800.000	0.051	0.175
-525.004	-74.609	0.349	0.125
-523.989	-89.501	0.402	-0.118
-522.975	-91.266	-0.047	0.013
-521.960	-200.000	-0.084	0.390
-520.945	-83.698	-0.254	-0.081
-519.931	-47.279	0.173	0.084
-518.916	-200.000	0.003	-0.280
-517.902	708.510	-0.123	0.324
-516.887	-200.000	0.040	0.308
-515.872	-200.000	-0.192	-0.000
-514.858	-200.000	0.032	0.161
-513.843	179.291	-0.185	0.269
-512.829	49.216	0.133	0.124
-511.814	20.524	-0.279	-0.225
-510.799	800.000	-0.031	-0.117
-509.785	-125.768	0.147	-0.022
-508.770	11.832	-0.016	0.012
-507.756	567.025	0.038	0.091
-506.741	-13.368	0.285	0.184
-505.726	-65.083	-0.156	0.063
-504.712	745.951	0.068	-0.181
-503.697	75.100	-0.197	0.207
-502.683	-200.000	0.013	-0.158
-501.668	-200.000	0.038	0.176
-500.653	445.026	-0.092	0.202
-499.639	-112.026	-0.001	0.000
-498.624	-200.000	0.073	0.320
-497.610	-200.000	0.006	-0.223
-496.595	-1.595	-0.360	0.252
-495.581	-150.079	-0.403	-0.031
-494.566	125.066	-0.262	-0.328
-493.551	-172.953	-0.044	-0.001
-492.537	800.000	-0.089	-0.248
-491.522	101.905	-0.117	-0.135
-490.508	800.000	-0.021	0.061
-489.493	-2.319	0.273	0.191
-488.478	-25.264	0.049	-0.029
-487.464	800.000	0.117	0.362
-486.449	-200.000	-0.044	-0.251
-485.435	263.729	-0.088	-0.152
-484.420	373.465	-0.084	0.171
-483.405	-106.527	0.046	-0.010
-482.391	-200.000	-0.002	-0.122
-481.376	800.000	0.119	-0.459
-480.362	-200.000	-0.024	-0.170
-479.347	77.610	0.271	0.286
-478.332	800.000	-0.167	-0.498
-477.318	-32.804	0.285	-0.157
-476.303	-47.683	0.065	0.031
-475.289	-125.547	-0.170	0.026
-474.274	-116.685	-0.157	0.029
-473.259	401.664	0.146	-0.306
-472.245	264.043	0.163	-0.283
-471.230	-200.000	0.047	-0.248
-470.216	-73.883	-0.201	0.073
-469.201	-27.509	-0.106	0.061
-468.186	-23.463	-0.179	0.107
-467.172	-82.137	0.104	-0.034
-466.157	-200.000	0.003	0.078
-465.143	-200.000	0.009	-0.045
-464.128	24.151	0.234	0.192
-463.113	123.379	-0.224	-0.279
-462.099	119.068	0.219	-0.270
-461.084	-57.554	0.260	0.113
-460.070	-101.961	0.180	0.043
-459.055	220.130	0.134	-0.213
-458.040	-200.000	-0.007	0.122
-457.026	-108.855	-0.062	0.013
-456.011	-200.000	0.004	-0.292
-454.997	800.000	-0.081	-0.260
-453.982	800.000	-0.080	-0.266
-452.968	-53.641	-0.322	-0.146
-451.953	-200.000	0.038	0.349
-450.938	-200.000	-0.010	0.364
-449.924	242.356	0.311	-0.517
-448.909	34.347	-0.129	-0.112
-447.895	-31.211	0.203	-0.114
-446.880	-200.000	0.082	0.500
-445.865	-200.000	-0.036	0.281
-444.851	596.178	-0.025	-0.062
-443.836	0.723	0.584	0.415
-442.822	71.179	-0.180	0.186
-441.807	69.265	-0.295	-0.302
-440.792	-173.649	0.330	0.010
-439.778	270.741	0.111	-0.194
-438.763	-78.183	0.186	0.064
-437.749	-136.580	-0.188	-0.022
-436.734	3.264	-0.128	-0.093
-435.719	-176.532	0.086	0.002
-434.705	-51.581	0.451	0.209
-433.690	689.626	0.063	0.164
-432.676	-200.000	0.005	-0.189
-431.661	-8.579	-0.280	-0.187
-430.646	-51.081	-0.267	0.124
-429.632	309.966	0.123	0.228
-428.617	144.482	0.131	-0.174
-427.603	800.000	0.122	0.525
-426.588	-20.780	-0.465	0.283
-425.573	-33.722	-0.251	0.137
-424.559	44.514	-0.252	0.230
-423.544	325.334	0.104	-0.197
-422.530	-200.000	-0.021	-0.169
-421.515	-200.000	0.011	0.256
-420.500	61.558	0.193	0.190
-419.486	-200.000	0.012	-0.119
-418.471	75.810	-0.284	0.298
-417.457	-125.133	0.146	-0.022
-416.442	50.602	-0.259	0.243
-415.428	-200.000	0.028	-0.174
-414.413	109.303	-0.184	0.218
-413.398	102.788	-0.174	0.202
-412.384	308.674	-0.148	-0.274
-411.369	28.732	-0.143	0.120
-410.355	280.728	0.232	-0.412
-409.340	217.606	-0.131	0.207
-408.325	93.162	-0.173	0.194
-407.311	-200.000	-0.031	-0.138
-406.296	-200.000	0.010	0.142
-405.282	32.526	0.232	0.199
-404.267	-200.000	-0.017	-0.112
-403.252	591.290	-0.043	-0.105
-402.238	-200.000	0.035	0.330
-401.223	44.368	0.073	0.067
-400.209	-200.000	-0.008	-0.267
-399.194	56.712	0.056	0.054
-398.179	-200.000	-0.033	-0.443
-397.165	710.256	0.100	-0.262
-396.150	85.036	0.131	0.142
-395.136	36.114	0.140	-0.122
-394.121	210.267	0.132	-0.206
-393.106	-73.529	-0.136	-0.049
-392.092	-200.000	0.055	0.347
-391.077	800.000	-0.023	0.069
-390.063	-200.000	-0.003	-0.063
-389.048	-25.815	0.161	0.094
-388.033	100.583	0.173	-0.199
-387.019	36.173	0.196	-0.171
-386.004	203.929	-0.082	-0.126
-384.990	20.252	0.093	0.074
-383.975	170.211	-0.188	-0.266
-382.960	-200.000	0.013	0.064
-381.946	100.181	0.064	-0.074
-380.931	-94.271	-0.083	-0.022
-379.917	-63.512	0.096	0.039
-378.902	-2.971	0.236	0.163
-377.888	-1.524	0.133	-0.093
-376.873	-27.997	-0.177	-0.102
-375.858	-117.424	0.022	-0.004
-374.844	677.967	-0.038	-0.097
-373.829	417.042	-0.170	0.360
-372.815	-83.227	-0.225	-0.072
-371.800	-200.000	0.025	0.207
-370.785	-146.092	-0.128	-0.011
-369.771	-35.441	0.147	0.079
-368.756	31.122	-0.061	0.052
-367.742	77.227	0.120	0.126
-366.727	79.507	-0.028	0.029
-365.712	-200.000	-0.022	0.094
-364.698	123.708	-0.055	0.068
-363.683	67.896	0.147	0.149
-362.669	154.664	0.246	0.334
-361.654	-6.806	0.172	0.116
-360.639	577.260	-0.113	0.274
-359.625	225.473	0.020	0.032
-358.610	112.032	-0.068	-0.082
-357.596	461.354	-0.084	0.185
-356.581	800.000	-0.174	0.613
-355.566	-3.751	0.209	0.144
-354.552	-133.053	-0.150	-0.019
-353.537	88.435	0.070	-0.077
-352.523	-200.000	0.001	0.224
-351.508	-15.370	0.197	-0.125
-350.493	159.551	-0.176	0.242
-349.479	800.000	-0.028	-0.110
-348.464	-98.247	0.084	-0.021
-347.450	284.706	0.047	-0.083
-346.435	2.900	0.225	-0.162
-345.420	17.439	-0.220	0.173
-344.406	-200.000	0.056	-0.000
-343.391	-200.000	0.057	-0.477
-342.377	-21.325	-0.142	0.086
-341.362	-166.175	-0.227	-0.010
-340.348	-12.307	0.423	-0.273
-339.333	-200.000	0.024	-0.163
-338.318	-119.630	0.128	0.022
-337.304	630.648	0.123	0.307
-336.289	-104.978	0.328	-0.074
-335.275	-200.000	-0.064	-0.293
-334.260	33.590	-0.234	-0.201
-333.245	-106.098	0.233	-0.052
-332.231	-94.889	0.190	-0.051
-331.216	-69.360	0.419	-0.159
-330.202	4.218	-0.176	0.127
-329.187	-182.594	0.016	0.000
-328.172	132.606	0.106	0.135
-327.158	-109.550	-0.167	-0.035
-326.143	-77.329	0.303	0.104
-325.129	28.895	-0.035	-0.030
-324.114	-95.739	-0.198	-0.052
-323.099	-9.883	0.234	0.154
-322.085	-55.026	0.091	0.041
-321.070	-200.000	0.028	0.138
-320.056	-103.471	0.214	0.050
-319.041	-97.477	0.213	-0.055
-318.026	-80.522	-0.070	-0.023
-317.012	334.605	-0.168	-0.321
-315.997	800.000	0.035	-0.131
-314.983	123.272	-0.097	0.121
-313.968	-200.000	0.034	0.215
-312.953	41.190	0.296	-0.265
-311.939	45.866	-0.179	-0.164
-310.924	57.634	-0.016	0.015
-309.910	129.244	-0.214	0.271
-308.895	425.738	-0.085	-0.182
-307.880	263.917	0.098	-0.169
-306.866	800.000	-0.111	-0.396
-305.851	-144.876	-0.108	0.010
-304.837	-200.000	0.001	0.153
-303.822	-200.000	0.137	0.000
-302.807	-27.560	0.454	-0.261
-301.793	483.313	0.038	0.086
-300.778	-79.704	0.118	-0.039
-299.764	600.420	0.046	-0.112
-298.749	-98.532	-0.151	-0.038
-297.735	-109.201	-0.179	-0.038
-296.720	236.153	0.132	0.216
-295.705	-122.246	-0.203	0.033
-294.691	-48.290	-0.123	-0.059
-293.676	-45.293	0.047	0.023
-292.662	-200.000	-0.005	-0.037
-291.647	173.023	0.034	-0.048
-290.632	355.996	-0.140	0.276
-289.618	340.403	-0.064	0.124
-288.603	-200.000	-0.041	-0.210
-287.589	-55.642	-0.149	-0.066
-286.574	-29.722	-0.182	0.103
-285.559	-117.947	-0.306	0.054
-284.545	-43.770	0.093	0.046
-283.530	-43.961	0.241	0.120
-282.516	-30.453	-0.053	0.029
-281.501	-200.000	-0.015	0.143
-280.486	107.453	-0.215	-0.252
-279.472	-200.000	0.008	-0.049
-278.457	105.530	-0.099	-0.115
-277.443	-200.000	-0.028	0.243
-276.428	130.178	0.089	-0.113
-275.413	-67.193	0.375	-0.146
-274.399	-200.000	0.025	0.115
-273.384	115.410	0.045	-0.054
-272.370	461.909	0.068	0.150
-271.355	-56.855	-0.244	0.106
-270.340	-200.000	-0.001	-0.164
-269.326	-57.231	0.243	0.105
-268.311	-51.725	-0.016	-0.007
-267.297	-200.000	0.056	-0.299
-266.282	72.638	-0.120	-0.123
-265.267	-46.572	-0.317	-0.153
-264.253	-200.000	0.017	0.173
-263.238	-167.696	-0.151	0.006
-262.224	48.958	-0.153	-0.142
-261.209	-84.740	0.153	-0.047
-260.195	-77.871	-0.421	0.143
-259.180	-37.549	0.189	-0.099
-258.165	240.258	-0.080	0.131
-257.151	-200.000	0.046	-0.219
-256.136	282.266	0.133	0.235
-255.122	76.073	-0.096	-0.100
-254.107	712.834	0.057	0.149
-253.092	468.017	-0.079	0.174
-252.078	123.688	0.096	0.118
-251.063	-200.000	-0.010	0.250
-250.049	-200.000	0.011	0.361
-249.034	76.456	0.096	0.101
-248.019	-98.360	-0.039	-0.010
-247.005	77.998	-0.240	0.252
-245.990	800.000	-0.061	0.179
-244.976	-142.973	-0.363	-0.035
-243.961	-200.000	0.024	-0.262
-242.946	5.997	0.293	-0.214
-241.932	81.993	0.163	0.175
-240.917	-5.295	-0.252	-0.170
-239.903	-115.720	0.164	0.030
-238.888	-135.103	-0.241	0.029
-237.873	800.000	0.018	0.051
-236.859	800.000	-0.089	0.371
-235.844	-61.793	0.284	-0.117
-234.830	-33.245	0.211	-0.115
-233.815	-73.001	0.175	0.063
-232.800	52.104	0.219	-0.206
-231.786	727.904	-0.113	-0.297
-230.771	-98.693	0.218	0.055
-229.757	-111.969	-0.193	0.038
-228.742	800.000	0.042	-0.137
-227.727	652.384	-0.021	0.053
-226.713	63.951	-0.143	0.142
-225.698	-200.000	0.037	-0.281
-224.684	76.118	0.054	-0.057
-223.669	-0.082	0.166	-0.116
-222.655	-1.356	0.152	-0.105
-221.640	-130.527	0.084	-0.011
-220.625	-200.000	0.022	-0.181
-219.611	-93.014	-0.056	0.015
-218.596	94.312	0.137	-0.153
-217.582	800.000	-0.113	-0.323
-216.567	800.000	-0.071	0.282
-215.552	-200.000	0.091	0.505
-214.538	132.061	-0.120	-0.153
-213.523	41.213	-0.230	0.205
-212.509	-148.744	-0.291	0.023
-211.494	70.375	-0.142	-0.145
-210.479	-151.262	-0.161	0.012
-209.465	37.175	0.139	-0.121
-208.450	-95.052	0.097	0.026
-207.436	112.330	0.070	-0.083
-206.421	-5.785	-0.335	-0.226
-205.406	779.373	-0.101	-0.272
-204.392	-200.000	-0.002	0.207
-203.377	210.906	0.122	0.188
-202.363	800.000	0.033	-0.108
-201.348	-69.010	0.181	0.068
-200.333	168.462	0.055	-0.077
-199.319	10.656	0.165	-0.124
-198.304	-200.000	0.000	0.140
-197.290	-23.030	-0.182	0.108
-196.275	-142.813	-0.339	0.032
-195.260	-83.103	0.250	0.079
-194.246	-65.047	0.171	0.068
-193.231	-200.000	0.001	0.377
-192.217	623.218	-0.038	0.094
-191.202	1.322	-0.091	0.064
-190.187	423.463	0.004	0.009
-189.173	31.270	0.279	0.235
-188.158	257.541	-0.118	0.200
-187.144	45.552	-0.176	0.160
-186.129	244.360	0.112	-0.185
-185.114	-200.000	0.029	-0.195
-184.100	-200.000	0.013	0.179
-183.085	-26.787	-0.202	0.116
-182.071	91.939	-0.185	0.204
-181.056	-19.291	0.189	0.115
-180.042	-9.610	-0.222	-0.145
-179.027	16.864	-0.164	-0.127
-178.012	-47.940	-0.075	-0.036
-176.998	409.210	-0.091	-0.190
-175.983	556.593	-0.057	0.134
-174.969	10.173	0.227	0.170
-173.954	37.873	0.184	-0.160
-172.939	124.082	0.211	-0.261
-171.925	-200.000	0.022	0.117
-170.910	-78.601	-0.226	0.076
-169.896	89.031	-0.349	-0.382
-168.881	800.000	0.046	-0.194
-167.866	-127.850	0.135	0.019
-166.852	800.000	0.133	0.510
-165.837	-98.900	0.164	-0.041
-164.823	24.964	-0.186	-0.152
-163.808	9.437	0.176	-0.131
-162.793	24.683	0.099	0.081
-161.779	27.067	-0.201	0.165
-160.764	-109.503	-0.278	0.058
-159.750	63.749	0.191	0.188
-158.735	10.548	0.168	0.126
-157.720	-66.432	0.331	0.129
-156.706	800.000	0.090	0.354
-155.691	3.440	-0.204	0.146
-154.677	-200.000	-0.010	-0.047
-153.662	7.101	0.189	0.139
-152.647	-200.000	0.008	-0.375
-151.633	-200.000	-0.004	-0.065
-150.618	-60.634	-0.371	-0.154
-149.604	-150.951	0.127	-0.009
-148.589	-98.381	-0.462	0.116
-147.574	227.024	-0.017	0.027
-146.560	-200.000	-0.007	-0.051
-145.545	11.434	0.124	-0.094
-144.531	-144.426	0.111	-0.010
-143.516	-57.275	0.104	0.045
-142.502	474.514	0.163	0.360
-141.487	29.045	-0.216	-0.179
-140.472	91.771	-0.186	0.205
-139.458	-74.867	0.206	-0.072
-138.443	-72.350	-0.379	0.138
-137.429	-200.000	0.030	-0.259
-136.414	226.277	-0.158	0.252
-135.399	84.180	0.190	-0.203
-134.385	43.990	-0.206	-0.185
-133.370	-65.572	-0.112	0.044
-132.356	130.814	0.152	0.191
-131.341	-134.402	-0.181	0.022
-130.326	-30.870	0.249	-0.138
-129.312	-54.470	0.190	0.085
-128.297	800.000	-0.051	-0.145
-127.283	109.703	-0.164	-0.193
-126.268	158.576	0.093	-0.127
-125.253	-101.963	0.143	0.034
-124.239	299.871	0.018	-0.032
-123.224	-147.948	-0.393	-0.032
-122.210	26.559	0.346	0.284
-121.195	284.589	0.098	0.173
