DTS Sentinel unit serial number:	SN413079Multiplexer serial number:	ORYXHardware model number:	OX4-SRSoftware version number:	ORYX F/W v4.00 Oryx Data Collector v3.7.2.0data status	okinstallation	princeton_trtdifferential loss correction	single-endedforward channel	channel 1reverse channel	N/Adate	2019/09/14time	08:34:35forward acquisition time	60.00reverse acquisition time	0.00gamma	496.2192k internal	0.2327k external	0.2327temperature offset calibration	1.0071default loss term (dB/km)	0.3790temperature slope calibration	1.0000multiplexer offset coefficient	1.0000multiplexer slope coefficient	1.0000fibre end	0.00T internal ref (°C)	28.62T ext. ref 1 (°C)	3.65T ext. ref 2 (°C)	26.05length (m)	temperature (°C)	Stokes	anti-Stokes-747.200	322.238	0.147	-0.282
-746.185	591.771	0.151	0.376
-745.171	153.591	-0.188	0.260
-744.156	170.053	0.212	0.305
-743.142	228.180	-0.059	-0.097
-742.127	-99.291	-0.293	0.075
-741.112	791.569	-0.103	0.287
-740.098	-22.987	0.104	0.063
-739.083	-36.438	0.260	0.141
-738.069	-200.000	0.007	0.292
-737.054	-200.000	-0.353	0.001
-736.039	113.843	-0.072	-0.088
-735.025	-3.458	0.397	0.278
-734.010	57.742	-0.171	-0.168
-732.996	361.797	-0.140	-0.282
-731.981	800.000	0.022	-0.083
-730.966	-144.572	-0.200	0.019
-729.952	-93.476	-0.284	-0.079
-728.937	-180.152	-0.493	0.010
-727.923	-84.829	0.148	-0.047
-726.908	-159.316	-0.296	0.017
-725.894	-200.000	0.007	-0.144
-724.879	187.701	0.160	-0.241
-723.864	97.836	-0.159	0.184
-722.850	146.212	0.148	-0.200
-721.835	-130.222	0.105	0.014
-720.821	118.714	-0.085	0.105
-719.806	-200.000	0.022	0.132
-718.791	-200.000	0.018	-0.300
-717.777	-52.519	0.312	-0.145
-716.762	398.185	-0.084	-0.177
-715.748	800.000	-0.056	-0.186
-714.733	-200.000	0.015	0.165
-713.718	408.703	-0.196	0.418
-712.704	180.330	0.063	-0.093
-711.689	122.678	0.149	-0.187
-710.675	-200.000	-0.019	0.274
-709.660	-76.235	0.128	0.045
-708.645	-46.632	-0.228	0.112
-707.631	-200.000	0.246	-0.001
-706.616	-200.000	-0.040	-0.516
-705.602	-151.033	-0.180	-0.014
-704.587	246.969	0.052	-0.089
-703.572	-32.928	0.164	0.092
-702.558	18.976	-0.185	-0.150
-701.543	-106.143	0.088	0.020
-700.529	-106.516	-0.331	0.074
-699.514	103.096	-0.121	0.143
-698.499	177.144	0.081	-0.119
-697.485	681.837	0.074	0.194
-696.470	-3.264	0.276	-0.194
-695.456	-122.200	0.158	-0.026
-694.441	-79.413	0.185	-0.063
-693.426	21.815	-0.034	-0.028
-692.412	178.814	-0.203	-0.299
-691.397	537.633	-0.075	-0.180
-690.383	-175.310	0.152	-0.004
-689.368	14.909	0.235	0.185
-688.354	-172.923	-0.179	0.006
-687.339	-79.559	0.265	0.090
-686.324	-26.228	-0.179	0.106
-685.310	10.021	0.088	-0.067
-684.295	-193.009	0.300	-0.003
-683.281	91.951	-0.142	-0.161
-682.266	56.961	-0.228	-0.223
-681.251	-200.000	-0.010	0.159
-680.237	-9.210	-0.379	0.255
-679.222	-23.227	-0.294	-0.178
-678.208	314.892	-0.090	0.170
-677.193	414.416	0.101	0.216
-676.178	-200.000	-0.027	-0.229
-675.164	470.226	-0.086	-0.194
-674.149	277.849	0.122	-0.218
-673.135	800.000	-0.080	-0.326
-672.120	461.692	-0.117	-0.262
-671.105	68.454	-0.046	-0.047
-670.091	88.527	0.177	-0.198
-669.076	-14.207	-0.134	-0.087
-668.062	-0.768	0.094	0.067
-667.047	-200.000	-0.061	0.291
-666.032	189.511	-0.080	0.121
-665.018	-200.000	0.005	-0.239
-664.003	-200.000	0.039	-0.367
-662.989	-81.155	0.051	0.017
-661.974	-168.133	-0.366	-0.014
-660.959	113.800	-0.043	-0.053
-659.945	-8.828	0.220	-0.148
-658.930	-150.307	0.102	0.008
-657.916	374.101	-0.063	0.129
-656.901	800.000	-0.013	-0.058
-655.886	-52.079	0.081	-0.038
-654.872	89.148	0.189	0.211
-653.857	304.462	-0.083	-0.155
-652.843	-118.402	-0.198	-0.035
-651.828	436.789	0.125	-0.274
-650.814	-13.949	-0.195	-0.127
-649.799	16.775	-0.431	0.342
-648.784	800.000	0.021	0.083
-647.770	-200.000	0.264	0.001
-646.755	-98.995	0.398	0.101
-645.741	-55.345	-0.153	0.069
-644.726	800.000	0.130	-0.441
-643.711	-84.950	0.225	0.071
-642.697	-11.211	-0.278	0.184
-641.682	115.220	-0.175	0.215
-640.668	-200.000	0.001	-0.399
-639.653	-102.996	0.180	0.043
-638.638	-84.189	0.579	0.184
-637.624	-90.786	0.219	-0.064
-636.609	-185.665	0.126	-0.002
-635.595	125.369	-0.173	0.219
-634.580	-190.190	-0.202	0.002
-633.565	-62.420	-0.229	0.096
-632.551	-12.676	-0.083	0.054
-631.536	69.822	-0.113	-0.117
-630.522	-71.776	-0.064	0.024
-629.507	-74.815	-0.351	0.126
-628.492	303.493	-0.018	-0.033
-627.478	-125.416	-0.135	-0.021
-626.463	800.000	0.032	0.136
-625.449	633.959	-0.058	0.149
-624.434	-0.794	0.179	-0.127
-623.419	-22.555	0.304	-0.184
-622.405	800.000	-0.023	0.067
-621.390	-155.020	-0.211	0.014
-620.376	-17.375	-0.096	-0.061
-619.361	-95.919	0.095	0.025
-618.346	-26.191	0.229	-0.135
-617.332	-81.763	0.116	-0.038
-616.317	-200.000	0.039	0.208
-615.303	683.710	-0.085	-0.223
-614.288	800.000	-0.048	-0.134
-613.273	306.027	-0.039	0.074
-612.259	31.706	0.068	-0.059
-611.244	-64.645	-0.179	-0.073
-610.230	57.199	-0.339	0.332
-609.215	31.521	0.185	0.159
-608.201	800.000	-0.007	-0.026
-607.186	-137.313	-0.094	-0.011
-606.171	303.830	0.056	0.104
-605.157	-89.249	-0.058	-0.017
-604.142	52.770	-0.244	0.234
-603.128	11.435	-0.055	-0.042
-602.113	800.000	0.071	-0.221
-601.098	-200.000	-0.005	0.160
-600.084	-0.932	-0.318	0.226
-599.069	-69.302	0.197	-0.076
-598.055	-200.000	-0.001	0.379
-597.040	-63.249	0.180	0.074
-596.025	800.000	-0.115	0.330
-595.011	-200.000	0.028	-0.247
-593.996	51.904	0.067	-0.064
-592.982	-182.459	-0.074	-0.001
-591.967	303.665	0.082	-0.152
-590.952	168.263	-0.219	-0.313
-589.938	-151.082	0.311	-0.023
-588.923	-9.057	-0.108	0.072
-587.909	26.215	-0.128	-0.107
-586.894	-200.000	-0.016	0.137
-585.879	-83.214	0.228	0.073
-584.865	-36.917	0.046	0.025
-583.850	-200.000	-0.010	-0.188
-582.836	800.000	-0.088	-0.291
-581.821	-161.340	-0.243	-0.013
-580.806	114.196	-0.199	-0.242
-579.792	-200.000	-0.036	0.276
-578.777	363.979	-0.097	0.195
-577.763	59.556	0.199	0.197
-576.748	-200.000	-0.023	0.329
-575.733	-52.979	0.344	-0.159
-574.719	-82.570	-0.143	-0.046
-573.704	84.394	0.159	-0.174
-572.690	4.226	-0.243	-0.178
-571.675	-64.150	-0.186	0.076
-570.661	44.816	-0.397	0.365
-569.646	-200.000	-0.005	-0.281
-568.631	132.926	-0.180	-0.233
-567.617	271.642	0.036	0.064
-566.602	78.039	0.281	0.300
-565.588	124.991	-0.290	-0.365
-564.573	-200.000	0.086	-0.520
-563.558	-91.878	-0.313	-0.089
-562.544	-65.388	0.135	-0.054
-561.529	-31.268	-0.263	0.148
-560.515	256.090	-0.140	-0.240
-559.500	117.146	0.149	0.184
-558.485	-161.276	-0.066	-0.003
-557.471	-200.000	-0.013	-0.206
-556.456	-41.819	0.290	0.149
-555.442	397.190	-0.141	-0.295
-554.427	-78.736	0.059	0.020
-553.412	-200.000	-0.046	-0.296
-552.398	-56.976	0.086	-0.038
-551.383	294.933	-0.275	0.504
-550.369	800.000	-0.129	0.459
-549.354	-57.811	-0.147	-0.064
-548.339	-116.545	0.164	-0.030
-547.325	462.565	0.122	-0.274
-546.310	21.325	-0.091	-0.074
-545.296	-150.692	-0.148	0.011
-544.281	-200.000	-0.012	-0.088
-543.266	-200.000	0.005	-0.044
-542.252	679.984	0.105	0.274
-541.237	-200.000	0.012	0.224
-540.223	-58.717	-0.262	-0.114
-539.208	-0.128	0.097	0.069
-538.193	-200.000	-0.010	-0.234
-537.179	-54.243	-0.194	-0.088
-536.164	-17.275	0.182	0.115
-535.150	-200.000	0.023	-0.108
-534.135	364.226	0.034	-0.069
-533.121	262.222	-0.016	0.028
-532.106	27.761	0.265	-0.223
-531.091	196.281	0.141	0.215
-530.077	194.047	-0.104	0.158
-529.062	17.927	-0.177	-0.141
-528.048	-200.000	-0.022	0.266
-527.033	-128.860	-0.310	0.044
-526.018	-110.130	0.181	-0.038
-525.004	-106.370	0.245	-0.055
-523.989	-49.919	-0.260	-0.123
-522.975	-146.425	0.274	0.024
-521.960	674.622	0.076	0.198
-520.945	32.294	-0.255	-0.220
-519.931	-43.775	0.406	-0.204
-518.916	641.047	-0.148	-0.376
-517.902	-145.959	-0.156	-0.014
-516.887	281.380	-0.082	0.147
-515.872	37.237	0.135	0.120
-514.858	-140.346	0.125	0.013
-513.843	594.001	0.095	-0.235
-512.829	-61.731	0.269	-0.113
-511.814	267.559	-0.020	-0.034
-510.799	116.306	-0.063	-0.077
-509.785	-198.551	0.360	0.002
-508.770	350.130	-0.148	0.292
-507.756	-200.000	-0.007	0.047
-506.741	-36.544	-0.242	-0.130
-505.726	403.460	0.104	-0.219
-504.712	-200.000	0.024	-0.159
-503.697	16.118	-0.015	-0.012
-502.683	-129.386	0.314	0.043
-501.668	-149.324	-0.211	-0.017
-500.653	41.643	-0.297	0.269
-499.639	1.653	0.190	0.137
-498.624	-0.908	-0.104	0.073
-497.610	-200.000	0.029	-0.156
-496.595	-55.835	0.352	0.157
-495.581	-175.988	-0.125	-0.003
-494.566	240.664	0.069	-0.115
-493.551	-120.816	0.237	-0.040
-492.537	64.398	0.109	-0.110
-491.522	261.926	0.182	-0.315
-490.508	82.687	0.155	0.168
-489.493	800.000	0.140	0.395
-488.478	-200.000	0.011	0.151
-487.464	-200.000	-0.033	-0.181
-486.449	400.807	0.079	-0.166
-485.435	209.993	0.196	-0.306
-484.420	195.142	0.084	-0.128
-483.405	81.837	0.249	0.269
-482.391	-76.885	0.406	-0.142
-481.376	800.000	0.063	0.178
-480.362	25.885	0.202	-0.168
-479.347	-83.550	-0.259	-0.083
-478.332	372.104	-0.137	-0.277
-477.318	47.230	0.176	-0.163
-476.303	106.031	-0.192	0.227
-475.289	-115.115	-0.378	-0.072
-474.274	11.881	0.192	0.147
-473.259	-29.867	0.172	-0.098
-472.245	-99.827	-0.172	-0.043
-471.230	-139.894	-0.539	0.057
-470.216	-200.000	-0.004	0.288
-469.201	240.630	-0.077	-0.128
-468.186	-5.325	-0.316	0.216
-467.172	89.403	0.289	-0.321
-466.157	-64.679	-0.347	-0.140
-465.143	-64.997	0.321	-0.129
-464.128	-155.370	0.170	0.011
-463.113	416.588	0.115	0.244
-462.099	281.105	-0.040	0.071
-461.084	-141.252	0.111	-0.011
-460.070	-74.100	-0.286	0.103
-459.055	275.156	-0.060	0.107
-458.040	-61.663	-0.343	0.144
-457.026	-12.876	-0.093	0.061
-456.011	51.018	-0.272	-0.257
-454.997	149.314	-0.074	-0.099
-453.982	20.650	0.097	0.078
-452.968	31.690	-0.428	-0.367
-451.953	-79.832	0.246	-0.083
-450.938	800.000	0.058	-0.178
-449.924	-26.220	0.219	-0.128
-448.909	501.284	0.084	0.193
-447.895	-74.349	-0.224	0.081
-446.880	-200.000	0.003	-0.265
-445.865	-31.565	0.247	-0.138
-444.851	-63.778	-0.124	-0.050
-443.836	29.185	-0.172	0.146
-442.822	-1.447	0.113	0.079
-441.807	126.604	-0.126	0.159
-440.792	800.000	0.044	0.141
-439.778	150.026	0.170	0.230
-438.763	800.000	-0.074	0.231
-437.749	747.040	-0.068	0.184
-436.734	-176.688	-0.176	-0.004
-435.719	800.000	0.029	-0.084
-434.705	-200.000	0.014	-0.349
-433.690	95.699	-0.055	-0.062
-432.676	-12.111	-0.453	0.295
-431.661	-200.000	0.033	0.357
-430.646	-15.054	0.138	-0.088
-429.632	-200.000	0.024	-0.276
-428.617	-131.567	-0.285	-0.037
-427.603	-200.000	-0.007	0.127
-426.588	-200.000	0.012	0.077
-425.573	111.254	0.284	-0.340
-424.559	-200.000	-0.006	0.115
-423.544	-200.000	0.002	0.055
-422.530	800.000	-0.058	-0.185
-421.515	-79.834	0.279	-0.093
-420.500	-200.000	0.027	-0.154
-419.486	73.783	0.123	-0.129
-418.471	-93.690	0.021	-0.006
-417.457	800.000	-0.059	-0.199
-416.442	-97.198	-0.143	0.037
-415.428	288.216	-0.173	0.312
-414.413	-120.631	-0.093	-0.016
-413.398	-74.252	-0.159	-0.057
-412.384	-200.000	-0.050	-0.269
-411.369	85.859	0.304	-0.333
-410.355	493.355	-0.056	-0.128
-409.340	-14.047	-0.151	-0.097
-408.325	30.152	-0.167	-0.141
-407.311	9.562	-0.255	-0.192
-406.296	-47.923	0.152	-0.073
-405.282	800.000	0.019	-0.075
-404.267	-17.819	-0.325	-0.203
-403.252	-174.263	0.184	-0.005
-402.238	760.305	-0.057	0.153
-401.223	-200.000	-0.027	0.363
-400.209	-200.000	-0.024	-0.229
-399.194	800.000	0.058	-0.201
-398.179	-36.914	0.174	-0.093
-397.165	105.618	0.034	-0.040
-396.150	-200.000	0.038	0.201
-395.136	-166.483	-0.265	0.011
-394.121	65.120	0.191	0.192
-393.106	-15.646	0.099	0.063
-392.092	-108.408	-0.184	-0.039
-391.077	-58.552	0.022	-0.009
-390.063	-70.843	0.188	-0.071
-389.048	-200.000	0.010	0.108
-388.033	-200.000	0.054	-0.266
-387.019	-6.949	-0.186	-0.125
-386.004	-108.470	-0.056	-0.012
-384.990	800.000	-0.024	0.099
-383.975	-200.000	0.031	-0.217
-382.960	92.184	-0.211	-0.236
-381.946	-16.848	0.393	0.247
-380.931	217.108	0.252	0.399
-379.917	199.749	-0.125	0.191
-378.902	800.000	0.060	0.219
-377.888	-126.603	-0.148	0.022
-376.873	-193.706	0.243	-0.002
-375.858	2.664	-0.237	0.171
-374.844	-200.000	0.012	0.119
-373.829	27.986	-0.222	-0.186
-372.815	-123.256	0.168	0.027
-371.800	63.439	0.211	0.210
-370.785	53.208	-0.375	0.357
-369.771	477.680	-0.043	0.096
-368.756	590.964	0.105	-0.257
-367.742	38.232	0.112	0.099
-366.727	-44.928	0.280	0.139
-365.712	172.925	0.119	-0.170
-364.698	11.501	0.160	-0.122
-363.683	-200.000	0.030	-0.311
-362.669	-107.311	-0.096	0.021
-361.654	-87.933	0.190	-0.057
-360.639	800.000	-0.111	-0.325
-359.625	800.000	0.079	-0.272
-358.610	51.556	-0.094	-0.089
-357.596	-81.236	0.303	-0.099
-356.581	117.694	-0.213	0.260
-355.566	389.513	0.041	0.085
-354.552	-126.115	0.155	-0.023
-353.537	-50.616	-0.335	0.157
-352.523	800.000	-0.042	0.154
-351.508	-43.352	0.082	-0.041
-350.493	142.198	0.071	0.093
-349.479	800.000	0.085	0.251
-348.464	-80.893	0.318	0.105
-347.450	-141.426	0.409	-0.041
-346.435	-61.556	0.211	0.088
-345.420	-144.707	0.246	-0.022
-344.406	-52.838	0.197	0.090
-343.391	124.063	-0.138	0.172
-342.377	-44.301	-0.356	-0.177
-341.362	634.944	-0.063	-0.158
-340.348	-140.195	-0.106	0.011
-339.333	181.804	0.046	-0.068
-338.318	-200.000	-0.049	-0.352
-337.304	-48.924	0.303	0.144
-336.289	33.872	-0.280	0.242
-335.275	-162.693	0.325	0.016
-334.260	-73.584	0.505	-0.183
-333.245	-79.287	-0.322	0.108
-332.231	-200.000	0.019	0.111
-331.216	34.417	-0.430	0.373
-330.202	-200.000	0.002	0.289
-329.187	-68.889	-0.293	0.112
-328.172	-9.617	-0.176	0.116
-327.158	-200.000	-0.026	0.314
-326.143	84.204	0.050	-0.054
-325.129	-200.000	-0.025	-0.160
-324.114	-34.947	0.313	0.169
-323.099	424.659	0.192	-0.410
-322.085	-200.000	0.073	-0.330
-321.070	626.670	-0.024	0.059
-320.056	-14.336	0.198	-0.126
-319.041	-119.436	-0.170	-0.029
-318.026	800.000	-0.077	-0.330
-317.012	-200.000	0.061	0.286
-315.997	646.081	-0.067	-0.170
-314.983	7.703	-0.308	0.229
-313.968	800.000	-0.071	-0.228
-312.953	800.000	0.016	-0.047
-311.939	-200.000	-0.000	-0.021
-310.924	-200.000	-0.005	0.042
-309.910	203.220	-0.200	-0.306
-308.895	-200.000	0.005	-0.052
-307.880	-200.000	0.002	-0.137
-306.866	-138.980	0.063	0.007
-305.851	362.578	-0.097	-0.193
-304.837	217.957	-0.037	0.059
-303.822	-1.187	-0.141	0.099
-302.807	-5.633	0.036	-0.024
-301.793	109.112	0.098	-0.116
-300.778	-23.646	0.241	0.143
-299.764	72.649	-0.248	-0.256
-298.749	-106.710	0.084	-0.018
-297.735	676.453	-0.064	0.166
-296.720	-47.115	-0.333	-0.161
-295.705	79.827	0.077	0.082
-294.691	-70.879	-0.408	0.152
-293.676	467.300	-0.115	0.254
-292.662	268.227	-0.149	-0.258
-291.647	-19.835	0.146	-0.090
-290.632	-68.617	0.251	-0.096
-289.618	199.230	-0.395	-0.600
-288.603	168.814	0.102	-0.143
-287.589	-200.000	0.026	0.220
-286.574	-200.000	-0.014	-0.142
-285.559	-92.144	0.197	0.055
-284.545	530.034	0.236	0.553
-283.530	114.957	-0.298	-0.360
-282.516	103.150	0.167	-0.194
-281.501	20.571	0.157	0.126
-280.486	-73.577	-0.044	0.016
-279.472	-79.203	-0.161	-0.054
-278.457	411.504	-0.115	0.241
-277.443	-82.897	0.148	0.047
-276.428	287.375	0.056	-0.100
-275.413	-200.000	-0.004	0.136
-274.399	800.000	0.046	-0.156
-273.384	800.000	0.049	-0.144
-272.370	-200.000	-0.088	-0.402
-271.355	-114.567	0.043	0.008
-270.340	-40.924	0.070	-0.036
-269.326	-200.000	-0.008	0.080
-268.311	551.639	-0.088	-0.210
-267.297	-91.806	0.073	0.020
-266.282	-42.783	0.202	-0.102
-265.267	494.609	0.172	0.390
-264.253	377.492	0.021	0.042
-263.238	-108.738	0.187	-0.040
-262.224	67.051	-0.083	-0.084
-261.209	128.623	0.071	0.089
-260.195	773.998	0.010	-0.026
-259.180	23.050	0.112	0.091
-258.165	-121.295	-0.256	-0.042
-257.151	-145.628	0.142	-0.013
-256.136	-84.503	0.071	0.022
-255.122	-142.509	-0.179	0.017
-254.107	25.241	-0.319	0.262
-253.092	-99.570	-0.141	0.035
-252.078	800.000	-0.017	-0.067
-251.063	-102.332	-0.180	0.043
-250.049	-45.753	0.381	0.186
-249.034	800.000	-0.023	0.100
-248.019	-200.000	-0.014	-0.125
-247.005	265.805	-0.049	0.085
-245.990	-200.000	0.002	-0.132
-244.976	-152.756	-0.256	0.018
-243.961	137.906	-0.233	0.302
-242.946	-200.000	0.008	-0.118
-241.932	-150.641	-0.483	0.036
-240.917	-200.000	-0.042	-0.247
-239.903	86.365	-0.144	0.157
-238.888	-119.878	0.296	-0.050
-237.873	602.554	-0.044	0.107
-236.859	-200.000	0.002	0.015
-235.844	-64.521	-0.293	-0.118
-234.830	280.963	-0.084	-0.148
-233.815	-200.000	0.032	0.187
-232.800	793.087	-0.034	-0.092
-231.786	-53.469	-0.318	0.144
-230.771	33.053	0.446	-0.382
-229.757	19.540	-0.083	0.066
-228.742	98.638	0.122	-0.139
-227.727	-70.411	-0.108	-0.041
-226.713	-29.685	-0.066	0.037
-225.698	2.745	0.049	-0.035
-224.684	-161.885	0.032	-0.002
-223.669	-21.188	0.124	0.075
-222.655	105.527	-0.081	0.095
-221.640	119.268	0.033	-0.040
-220.625	800.000	0.062	-0.181
-219.611	-144.682	0.298	0.027
-218.596	-197.713	-0.317	-0.002
-217.582	800.000	0.075	0.303
-216.567	-65.816	-0.219	-0.087
-215.552	726.441	0.108	0.284
-214.538	-200.000	0.006	0.079
-213.523	163.590	0.056	0.078
-212.509	381.149	0.205	0.415
-211.494	-147.241	-0.112	-0.009
-210.479	-64.787	0.079	0.031
-209.465	-56.412	-0.321	-0.141
-208.450	-106.054	0.212	-0.047
-207.436	-78.456	0.350	-0.118
-206.421	-16.421	-0.043	0.027
-205.406	-5.302	-0.279	0.189
-204.392	-200.000	0.105	-0.521
-203.377	6.141	-0.010	-0.007
-202.363	26.040	0.142	-0.117
-201.348	-81.200	-0.060	-0.020
-200.333	-200.000	-0.006	-0.030
-199.319	-50.042	0.347	0.162
-198.304	466.184	0.078	0.171
-197.290	213.398	0.157	-0.244
-196.275	-110.698	0.101	0.021
-195.260	-200.000	-0.022	-0.141
-194.246	-155.737	-0.130	0.008
-193.231	201.881	0.125	0.190
-192.217	-164.220	-0.405	0.018
-191.202	800.000	-0.016	-0.062
-190.187	35.033	-0.258	0.223
-189.173	304.504	-0.097	0.178
-188.158	-62.625	0.259	0.106
-187.144	154.883	0.033	0.044
-186.129	190.262	0.046	0.069
-185.114	-88.189	-0.140	-0.041
-184.100	-200.000	-0.012	0.192
-183.085	746.909	0.139	0.370
-182.071	-16.347	-0.370	0.231
-181.056	-76.035	0.188	0.065
-180.042	-120.269	0.317	-0.053
-179.027	-116.265	0.339	-0.062
-178.012	54.751	0.167	-0.159
-176.998	-101.250	-0.227	-0.055
-175.983	322.671	0.123	-0.231
-174.969	-170.045	0.225	-0.008
-173.954	76.578	0.325	0.340
-172.939	-89.167	0.261	-0.076
-171.925	276.027	0.045	0.079
-170.910	-150.738	0.298	0.022
-169.896	-73.982	-0.253	-0.090
-168.881	569.411	0.042	-0.100
-167.866	800.000	0.019	-0.058
-166.852	0.662	-0.246	0.174
-165.837	-137.276	-0.219	0.024
-164.823	49.878	-0.132	0.123
-163.808	389.718	-0.026	0.053
-162.793	-71.223	0.079	-0.029
-161.779	-60.189	-0.185	-0.078
-160.764	291.318	0.050	-0.090
-159.750	800.000	-0.104	0.361
-158.735	617.272	0.083	0.204
-157.720	-200.000	-0.028	0.412
-156.706	800.000	0.081	-0.335
-155.691	43.236	0.191	0.172
-154.677	-47.328	0.341	0.163
-153.662	-200.000	0.021	0.376
-152.647	-171.102	0.390	0.013
-151.633	800.000	-0.032	-0.129
-150.618	800.000	0.014	0.059
-149.604	-11.457	-0.300	0.194
-148.589	50.552	0.169	0.157
-147.574	-35.966	0.249	0.133
-146.560	800.000	-0.059	0.173
-145.545	-112.298	-0.174	0.034
-144.531	800.000	-0.083	0.256
-143.516	-62.164	0.297	0.122
-142.502	-35.583	-0.237	0.127
-141.487	-42.328	0.293	0.147
-140.472	800.000	-0.122	-0.385
-139.458	-9.686	0.139	-0.091
-138.443	-1.099	0.101	0.071
-137.429	-200.000	-0.102	-0.496
-136.414	800.000	-0.110	-0.351
-135.399	800.000	0.011	0.039
-134.385	226.107	-0.109	0.175
-133.370	-71.763	0.166	-0.061
-132.356	-200.000	0.019	-0.222
-131.341	-38.641	0.198	0.103
-130.326	-67.074	0.083	-0.032
-129.312	-86.653	0.264	0.080
-128.297	-35.970	0.132	-0.070
-127.283	-200.000	0.005	-0.402
-126.268	-105.288	0.187	-0.042
-125.253	299.763	-0.087	0.158
-124.239	-80.324	-0.183	0.060
-123.224	-200.000	-0.015	-0.132
-122.210	-11.128	-0.232	-0.151
-121.195	-200.000	0.019	0.219
