DTS Sentinel unit serial number:	SN413079Multiplexer serial number:	ORYXHardware model number:	OX4-SRSoftware version number:	ORYX F/W v4.00 Oryx Data Collector v3.7.2.0data status	okinstallation	princeton_trtdifferential loss correction	single-endedforward channel	channel 1reverse channel	N/Adate	2019/09/11time	22:24:11forward acquisition time	60.00reverse acquisition time	0.00gamma	496.2192k internal	0.2314k external	0.2314temperature offset calibration	1.0058default loss term (dB/km)	0.3790temperature slope calibration	1.0000multiplexer offset coefficient	1.0000multiplexer slope coefficient	1.0000fibre end	0.00T internal ref (°C)	35.19T ext. ref 1 (°C)	1.78T ext. ref 2 (°C)	29.27length (m)	temperature (°C)	Stokes	anti-Stokes-747.200	110.716	-0.105	0.129
-746.185	-200.000	0.000	0.128
-745.171	119.111	-0.245	-0.307
-744.156	-70.193	-0.242	0.093
-743.142	-47.171	0.245	0.121
-742.127	219.412	0.241	0.391
-741.112	84.755	0.199	0.221
-740.098	-200.000	0.018	0.285
-739.083	-178.630	-0.207	0.005
-738.069	-200.000	-0.025	-0.124
-737.054	292.722	0.119	0.220
-736.039	-131.621	-0.135	0.018
-735.025	14.025	-0.263	0.208
-734.010	-24.383	0.223	-0.135
-732.996	163.858	0.037	0.053
-731.981	139.718	0.189	0.253
-730.966	53.407	0.306	-0.297
-729.952	-9.020	-0.202	-0.137
-728.937	-200.000	0.014	0.156
-727.923	-108.385	-0.171	0.037
-726.908	203.005	-0.047	0.074
-725.894	44.798	0.164	-0.152
-724.879	-118.490	0.277	-0.050
-723.864	700.883	0.048	-0.129
-722.850	-200.000	-0.018	-0.164
-721.835	29.853	-0.034	-0.029
-720.821	-75.088	-0.152	0.055
-719.806	-57.207	-0.135	0.060
-718.791	51.988	0.225	-0.217
-717.777	800.000	-0.118	-0.433
-716.762	800.000	-0.041	-0.126
-715.748	-200.000	0.028	0.161
-714.733	-200.000	0.035	0.180
-713.718	195.725	-0.090	-0.139
-712.704	800.000	-0.109	-0.354
-711.689	118.932	0.061	-0.076
-710.675	-12.322	0.064	-0.042
-709.660	-200.000	-0.020	-0.133
-708.645	89.066	0.393	0.443
-707.631	-40.581	-0.191	0.100
-706.616	800.000	-0.031	-0.135
-705.602	-126.526	-0.167	0.025
-704.587	-75.573	0.241	-0.087
-703.572	-85.737	-0.206	-0.065
-702.558	146.060	-0.101	-0.137
-701.543	-69.352	-0.192	0.075
-700.529	800.000	-0.059	0.199
-699.514	112.594	-0.117	0.144
-698.499	-162.833	0.173	0.009
-697.485	-200.000	-0.028	0.197
-696.470	-21.840	0.113	0.070
-695.456	-169.151	-0.356	0.013
-694.441	-200.000	0.005	-0.288
-693.426	-122.476	0.173	0.029
-692.412	-106.615	-0.074	0.017
-691.397	304.772	0.020	-0.038
-690.383	286.787	0.005	-0.010
-689.368	189.783	0.037	-0.056
-688.354	-52.381	0.235	-0.110
-687.339	85.495	-0.238	-0.264
-686.324	105.375	0.061	0.072
-685.310	24.373	0.115	0.096
-684.295	-164.860	0.142	-0.006
-683.281	-95.109	0.196	-0.053
-682.266	800.000	-0.067	-0.227
-681.251	-151.975	-0.185	0.014
-680.237	604.112	0.047	-0.119
-679.222	-166.832	0.143	-0.006
-678.208	250.752	-0.045	-0.077
-677.193	-200.000	-0.034	-0.217
-676.178	98.784	0.103	0.120
-675.164	800.000	-0.067	-0.258
-674.149	-108.237	-0.250	-0.055
-673.135	639.528	-0.072	-0.185
-672.120	-28.829	-0.345	0.201
-671.105	-111.646	-0.052	0.011
-670.091	173.065	-0.148	-0.215
-669.076	404.517	-0.178	0.380
-668.062	58.069	-0.121	0.120
-667.047	300.006	-0.067	0.124
-666.032	-19.477	0.287	0.180
-665.018	106.562	-0.173	0.208
-664.003	-78.089	0.196	0.068
-662.989	25.989	0.138	-0.116
-661.974	-72.618	-0.091	0.034
-660.959	68.659	-0.209	-0.217
-659.945	-56.060	-0.280	-0.126
-658.930	-62.055	0.113	-0.048
-657.916	-80.474	0.259	-0.087
-656.901	-183.216	0.033	-0.001
-655.886	289.332	0.264	-0.484
-654.872	-45.884	0.264	-0.131
-653.857	-56.451	-0.130	0.058
-652.843	263.652	0.175	-0.307
-651.828	212.931	0.108	-0.173
-650.814	-2.230	-0.214	-0.152
-649.799	483.173	0.160	0.368
-648.784	-200.000	0.027	0.141
-647.770	800.000	-0.064	0.275
-646.755	76.296	0.116	-0.124
-645.741	-200.000	-0.007	-0.064
-644.726	506.074	-0.104	-0.245
-643.711	-87.675	-0.117	-0.036
-642.697	190.692	0.115	-0.175
-641.682	371.741	0.156	0.320
-640.668	-200.000	0.017	0.346
-639.653	175.979	0.098	0.144
-638.638	-145.377	-0.023	0.002
-637.624	-200.000	-0.028	0.150
-636.609	-160.230	-0.174	-0.010
-635.595	-139.818	-0.027	0.003
-634.580	608.375	0.021	0.053
-633.565	312.214	-0.111	-0.211
-632.551	-200.000	-0.067	-0.374
-631.536	-200.000	0.043	-0.349
-630.522	-66.262	-0.011	0.005
-629.507	-200.000	-0.004	0.372
-628.492	-66.986	-0.097	0.038
-627.478	114.056	-0.123	0.151
-626.463	338.778	-0.091	0.180
-625.449	-112.957	0.210	0.042
-624.434	-200.000	-0.068	-0.336
-623.419	-3.549	-0.143	0.100
-622.405	800.000	-0.080	-0.271
-621.390	548.941	-0.166	-0.401
-620.376	-200.000	-0.017	0.338
-619.361	-110.815	0.212	0.044
-618.346	-200.000	0.014	-0.068
-617.332	20.590	-0.133	0.108
-616.317	-200.000	-0.005	0.463
-615.303	-75.036	0.142	0.051
-614.288	9.236	0.125	0.096
-613.273	-47.203	-0.454	-0.223
-612.259	-2.451	0.209	-0.147
-611.244	172.659	0.148	-0.214
-610.230	-28.904	-0.101	-0.058
-609.215	-39.640	-0.202	0.107
-608.201	270.924	0.079	-0.140
-607.186	16.427	0.081	0.064
-606.171	-168.474	-0.215	-0.008
-605.157	-50.333	-0.116	-0.055
-604.142	121.724	0.120	0.151
-603.128	-200.000	-0.013	0.122
-602.113	132.623	0.039	0.050
-601.098	-200.000	-0.076	-0.542
-600.084	74.723	0.145	-0.154
-599.069	-44.756	-0.105	-0.053
-598.055	-101.843	-0.085	0.021
-597.040	-12.716	-0.252	-0.165
-596.025	-123.642	-0.222	-0.035
-595.011	-29.927	0.247	-0.142
-593.996	-147.080	0.179	0.015
-592.982	-91.494	0.229	0.066
-591.967	-139.894	0.227	-0.024
-590.952	227.160	0.187	0.306
-589.938	-42.485	0.077	-0.040
-588.923	79.990	0.059	-0.064
-587.909	23.563	-0.102	-0.085
-586.894	-200.000	-0.025	-0.179
-585.879	143.133	-0.020	-0.027
-584.865	-200.000	0.026	0.120
-583.850	108.842	-0.279	0.335
-582.836	152.517	0.214	-0.294
-581.821	-200.000	-0.017	-0.117
-580.806	18.074	0.239	-0.192
-579.792	-200.000	0.028	-0.190
-578.777	151.059	-0.110	-0.151
-577.763	-49.744	-0.207	0.099
-576.748	140.642	-0.176	0.234
-575.733	800.000	-0.029	0.118
-574.719	-14.045	-0.215	-0.140
-573.704	628.522	0.065	-0.165
-572.690	-54.274	0.406	0.185
-571.675	-101.399	0.110	0.027
-570.661	-111.400	-0.057	0.012
-569.646	-138.653	-0.198	-0.022
-568.631	2.203	-0.288	-0.210
-567.617	287.907	0.169	-0.309
-566.602	-156.875	0.210	0.013
-565.588	-63.990	-0.301	0.124
-564.573	-27.596	-0.108	-0.063
-563.558	-103.003	-0.241	0.057
-562.544	38.110	-0.242	0.217
-561.529	800.000	0.100	0.370
-560.515	-200.000	-0.020	-0.170
-559.500	0.409	-0.435	-0.313
-558.485	75.179	-0.082	-0.087
-557.471	-57.910	0.370	0.163
-556.456	12.799	-0.339	-0.264
-555.442	-200.000	0.048	-0.223
-554.427	347.894	-0.209	0.415
-553.412	-174.284	0.051	-0.001
-552.398	-188.585	-0.221	0.003
-551.383	800.000	-0.031	-0.114
-550.369	-200.000	0.007	-0.118
-549.354	-103.967	0.147	-0.035
-548.339	116.628	-0.160	-0.198
-547.325	-125.114	-0.117	-0.018
-546.310	-200.000	-0.041	0.329
-545.296	800.000	0.075	0.220
-544.281	800.000	0.011	0.044
-543.266	-10.713	-0.194	-0.129
-542.252	-132.165	-0.149	-0.019
-541.237	8.153	-0.138	-0.105
-540.223	-88.236	-0.117	0.035
-539.208	-200.000	0.018	0.172
-538.193	194.387	0.061	-0.093
-537.179	-200.000	-0.077	-0.424
-536.164	-200.000	0.038	-0.237
-535.150	5.649	-0.160	-0.119
-534.135	186.860	-0.084	-0.126
-533.121	-200.000	0.005	-0.188
-532.106	-200.000	-0.017	0.381
-531.091	-43.296	0.322	-0.164
-530.077	44.601	-0.141	-0.131
-529.062	-200.000	0.028	-0.126
-528.048	-23.488	0.185	0.112
-527.033	-200.000	-0.008	-0.068
-526.018	800.000	-0.108	0.303
-525.004	-91.686	0.191	0.055
-523.989	-111.954	-0.115	-0.023
-522.975	231.942	0.096	-0.158
-521.960	800.000	0.093	-0.264
-520.945	800.000	0.043	0.187
-519.931	-46.149	-0.136	0.067
-518.916	-200.000	-0.037	-0.300
-517.902	-135.277	-0.349	0.042
-516.887	-171.188	0.040	0.001
-515.872	-75.664	0.302	0.108
-514.858	136.139	-0.044	0.057
-513.843	-54.997	-0.191	0.086
-512.829	644.049	0.032	-0.083
-511.814	800.000	-0.071	0.215
-510.799	-21.961	0.267	0.163
-509.785	6.724	0.188	-0.140
-508.770	-200.000	-0.003	-0.106
-507.756	371.227	-0.059	-0.121
-506.741	-200.000	0.028	-0.154
-505.726	-200.000	-0.019	-0.390
-504.712	130.469	-0.139	0.178
-503.697	24.822	0.125	-0.104
-502.683	326.254	0.066	0.127
-501.668	5.243	0.063	0.046
-500.653	-23.129	-0.067	0.041
-499.639	800.000	0.040	0.151
-498.624	90.059	-0.033	0.037
-497.610	-157.940	0.144	-0.009
-496.595	-200.000	0.021	-0.346
-495.581	-119.700	0.096	0.017
-494.566	-7.816	0.099	-0.067
-493.551	251.201	0.061	-0.104
-492.537	13.258	-0.244	0.190
-491.522	-174.956	0.129	-0.004
-490.508	-200.000	0.003	-0.019
-489.493	-170.255	-0.229	-0.008
-488.478	-200.000	-0.034	-0.184
-487.464	249.519	0.256	-0.436
-486.449	-200.000	0.331	0.001
-485.435	19.115	0.185	-0.149
-484.420	527.131	0.057	-0.135
-483.405	-137.341	-0.273	0.031
-482.391	-70.490	0.057	0.022
-481.376	-43.239	0.280	-0.142
-480.362	-200.000	0.015	0.145
-479.347	800.000	-0.077	-0.260
-478.332	573.667	-0.100	0.245
-477.318	251.652	0.219	0.375
-476.303	-38.705	-0.062	-0.033
-475.289	-136.439	0.328	-0.038
-474.274	800.000	-0.162	0.467
-473.259	-98.246	0.266	0.069
-472.245	194.854	-0.141	-0.215
-471.230	367.456	0.076	0.154
-470.216	-45.774	-0.221	0.110
-469.201	-156.126	0.210	-0.013
-468.186	800.000	-0.093	-0.291
-467.172	-54.196	0.196	-0.089
-466.157	353.581	-0.056	-0.112
-465.143	800.000	0.090	0.394
-464.128	65.210	0.145	0.147
-463.113	-200.000	0.012	-0.166
-462.099	-110.224	0.053	-0.011
-461.084	-200.000	-0.007	-0.087
-460.070	-8.041	0.106	0.072
-459.055	7.330	-0.198	-0.148
-458.040	89.007	-0.261	-0.291
-457.026	77.087	-0.057	0.060
-456.011	800.000	-0.043	0.134
-454.997	800.000	0.078	-0.307
-453.982	224.994	0.094	-0.152
-452.968	-45.587	-0.185	0.092
-451.953	19.527	-0.171	-0.138
-450.938	-123.159	-0.513	0.082
-449.924	800.000	-0.014	-0.040
-448.909	320.251	-0.070	0.133
-447.895	173.694	0.083	-0.120
-446.880	-75.123	0.187	0.067
-445.865	-17.688	-0.047	0.030
-444.851	-13.324	-0.171	0.111
-443.836	-200.000	-0.057	0.304
-442.822	-77.565	-0.439	0.152
-441.807	114.363	-0.298	0.363
-440.792	112.844	0.234	-0.285
-439.778	-200.000	-0.056	0.264
-438.763	-94.248	-0.146	0.040
-437.749	43.378	0.080	-0.073
-436.734	150.503	-0.147	-0.201
-435.719	-2.228	-0.269	0.189
-434.705	-108.111	0.189	0.041
-433.690	43.752	-0.309	-0.283
-432.676	-118.335	0.345	0.061
-431.661	176.915	-0.213	0.310
-430.646	-87.232	0.117	-0.036
-429.632	-200.000	0.025	0.182
-428.617	11.232	-0.056	-0.043
-427.603	20.070	0.254	0.205
-426.588	-23.097	0.251	-0.152
-425.573	-200.000	0.005	-0.443
-424.559	-123.363	0.259	-0.041
-423.544	-67.153	0.273	0.108
-422.530	800.000	0.102	-0.303
-421.515	-89.739	0.208	0.061
-420.500	-40.573	0.034	0.018
-419.486	-62.142	-0.058	-0.024
-418.471	378.573	-0.179	-0.367
-417.457	-80.626	0.165	0.055
-416.442	-200.000	0.010	-0.166
-415.428	-200.000	0.025	0.237
-414.413	800.000	-0.120	0.378
-413.398	703.625	-0.148	0.390
-412.384	268.929	0.155	0.272
-411.369	249.934	0.099	-0.167
-410.355	800.000	-0.098	-0.395
-409.340	19.797	-0.178	-0.144
-408.325	238.350	-0.078	0.130
-407.311	35.312	-0.090	0.079
-406.296	-26.900	-0.212	-0.124
-405.282	-118.043	-0.211	-0.038
-404.267	138.754	-0.111	0.145
-403.252	60.008	0.175	0.172
-402.238	-200.000	0.055	0.405
-401.223	-49.385	-0.251	-0.120
-400.209	-58.090	0.118	0.051
-399.194	-30.467	-0.073	0.041
-398.179	-54.973	-0.137	0.062
-397.165	-45.365	-0.232	0.115
-396.150	489.140	-0.081	0.185
-395.136	-200.000	-0.027	0.196
-394.121	-151.484	-0.179	-0.013
-393.106	359.129	-0.065	-0.130
-392.092	-200.000	0.033	0.318
-391.077	-168.276	0.365	-0.014
-390.063	-62.386	-0.243	0.101
-389.048	-116.025	0.284	-0.053
-388.033	313.905	0.145	-0.273
-387.019	80.809	0.122	0.132
-386.004	-91.950	0.372	-0.105
-384.990	-99.074	-0.216	-0.055
-383.975	-200.000	-0.017	-0.107
-382.960	99.920	-0.140	-0.162
-381.946	-76.398	0.274	-0.096
-380.931	-74.687	0.105	0.038
-379.917	329.834	0.143	0.274
-378.902	800.000	-0.049	0.180
-377.888	-200.000	0.048	-0.284
-376.873	-82.308	0.271	-0.088
-375.858	295.504	-0.091	-0.167
-374.844	313.056	0.116	-0.218
-373.829	800.000	0.052	-0.157
-372.815	353.729	-0.078	-0.154
-371.800	592.629	-0.098	0.242
-370.785	-36.827	0.232	-0.125
-369.771	70.343	-0.114	-0.117
-368.756	205.993	-0.079	0.123
-367.742	-55.607	0.231	-0.103
-366.727	800.000	0.144	-0.530
-365.712	134.396	-0.108	0.140
-364.698	-129.717	-0.279	0.038
-363.683	-115.484	-0.500	-0.094
-362.669	-24.203	0.008	0.005
-361.654	-147.123	-0.178	-0.015
-360.639	-200.000	-0.010	0.050
-359.625	61.571	0.132	0.131
-358.610	-76.964	0.546	-0.190
-357.596	-82.478	0.221	-0.072
-356.581	-119.873	0.240	0.041
-355.566	-180.055	0.502	0.011
-354.552	-76.548	0.214	0.075
-353.537	-200.000	0.053	-0.244
-352.523	-145.585	0.150	0.013
-351.508	800.000	-0.064	-0.220
-350.493	-91.682	-0.015	0.004
-349.479	-132.535	0.304	0.039
-348.464	-115.968	-0.318	-0.059
-347.450	-28.996	0.095	-0.055
-346.435	50.072	-0.426	0.401
-345.420	-83.448	-0.198	-0.063
-344.406	229.638	0.072	0.117
-343.391	-90.604	0.050	-0.014
-342.377	-145.519	-0.191	-0.017
-341.362	-155.297	0.569	-0.037
-340.348	-109.069	0.447	0.095
-339.333	198.161	0.076	0.117
-338.318	-90.330	0.053	0.015
-337.304	285.058	0.089	0.161
-336.289	789.869	0.045	0.123
-335.275	-58.452	-0.195	-0.084
-334.260	-116.554	0.087	0.016
-333.245	-200.000	-0.321	0.000
-332.231	1.036	0.195	0.139
-331.216	310.765	0.297	0.555
-330.202	216.561	0.136	0.216
-329.187	-126.432	-0.236	-0.035
-328.172	-6.926	0.115	-0.078
-327.158	120.866	-0.005	0.007
-326.143	46.478	-0.211	-0.195
-325.129	20.951	-0.108	0.087
-324.114	474.231	-0.075	0.168
-323.099	-23.201	-0.246	0.148
-322.085	-200.000	-0.021	-0.239
-321.070	-167.215	-0.484	0.020
-320.056	-15.434	0.180	-0.114
-319.041	-200.000	-0.062	-0.354
-318.026	22.039	0.311	0.253
-317.012	96.891	0.136	0.155
-315.997	-200.000	0.035	0.156
-314.983	2.492	-0.299	0.216
-313.968	90.552	-0.050	-0.055
-312.953	-176.244	0.156	-0.004
-311.939	570.625	0.041	-0.099
-310.924	-115.040	0.113	0.021
-309.910	-200.000	0.003	-0.064
-308.895	800.000	0.007	-0.029
-307.880	41.046	-0.124	0.111
-306.866	-4.859	0.353	0.243
-305.851	34.760	0.061	0.053
-304.837	-200.000	0.092	0.419
-303.822	-11.186	0.238	-0.157
-302.807	8.275	0.129	0.096
-301.793	-37.020	-0.222	0.118
-300.778	5.561	-0.358	-0.264
-299.764	745.772	0.054	-0.145
-298.749	800.000	-0.054	-0.167
-297.735	-200.000	-0.023	0.127
-296.720	168.185	-0.063	0.089
-295.705	-111.470	0.129	-0.026
-294.691	-200.000	0.038	0.356
-293.676	86.586	0.247	-0.272
-292.662	-89.223	0.108	-0.032
-291.647	-135.387	-0.350	0.042
-290.632	-32.685	-0.306	-0.170
-289.618	-10.381	-0.196	0.129
-288.603	-34.514	-0.262	-0.143
-287.589	-148.356	-0.015	0.001
-286.574	69.747	0.047	0.048
-285.559	139.777	-0.260	0.340
-284.545	-200.000	-0.004	0.035
-283.530	-177.556	0.153	-0.004
-282.516	-194.223	-0.138	0.001
-281.501	800.000	0.130	-0.485
-280.486	-149.087	0.159	-0.013
-279.472	-200.000	-0.008	0.064
-278.457	255.359	-0.080	-0.136
-277.443	25.449	0.093	-0.077
-276.428	-200.000	-0.035	0.206
-275.413	124.855	0.111	0.139
-274.399	-41.632	0.213	-0.109
-273.384	-200.000	0.054	0.273
-272.370	-63.500	-0.093	-0.038
-271.355	77.388	-0.096	-0.101
-270.340	10.836	-0.416	-0.316
-269.326	114.928	-0.101	-0.123
-268.311	-107.493	0.121	0.026
-267.297	-57.228	0.210	-0.092
-266.282	-161.840	0.305	0.015
-265.267	-93.003	-0.269	0.075
-264.253	7.067	0.259	0.192
-263.238	319.129	0.117	-0.220
-262.224	22.347	0.332	0.270
-261.209	-200.000	-0.000	0.019
-260.195	-22.396	-0.123	-0.074
-259.180	110.488	0.028	0.034
-258.165	-43.236	-0.094	0.047
-257.151	-84.132	-0.380	0.120
-256.136	294.302	-0.055	-0.101
-255.122	212.559	0.228	0.357
-254.107	38.613	-0.324	0.287
-253.092	580.246	-0.106	-0.258
-252.078	800.000	-0.057	0.213
-251.063	12.301	0.070	0.053
-250.049	-58.997	-0.155	-0.067
-249.034	-11.752	0.225	-0.147
-248.019	141.148	0.026	0.034
-247.005	214.774	0.104	0.164
-245.990	-118.773	-0.204	-0.036
-244.976	-200.000	0.073	0.364
-243.961	-200.000	-0.012	0.189
-242.946	130.996	0.368	-0.469
-241.932	159.230	-0.179	-0.248
-240.917	75.079	0.148	-0.155
-239.903	31.173	-0.037	0.031
-238.888	-200.000	0.020	-0.121
-237.873	-57.021	0.228	-0.100
-236.859	490.482	0.104	-0.236
-235.844	-90.397	-0.185	-0.053
-234.830	188.408	-0.205	-0.304
-233.815	100.469	-0.126	-0.146
-232.800	800.000	-0.073	-0.307
-231.786	800.000	0.079	-0.289
-230.771	94.009	0.307	-0.346
-229.757	247.835	0.066	-0.111
-228.742	-200.000	0.015	0.120
-227.727	50.219	0.257	-0.241
-226.713	800.000	-0.108	-0.379
-225.698	-56.708	-0.389	0.171
-224.684	77.628	-0.234	0.247
-223.669	14.286	-0.205	-0.159
-222.655	-200.000	-0.002	0.176
-221.640	800.000	0.086	0.285
-220.625	365.699	0.062	0.123
-219.611	34.505	-0.148	-0.128
-218.596	-82.216	-0.225	-0.073
-217.582	-200.000	-0.012	0.261
-216.567	-95.446	0.057	0.015
-215.552	-22.188	0.119	-0.072
-214.538	-134.809	0.322	-0.039
-213.523	-200.000	-0.012	0.097
-212.509	-126.885	0.050	-0.007
-211.494	136.474	-0.051	0.066
-210.479	-200.000	-0.007	-0.257
-209.465	-75.021	-0.161	0.057
-208.450	6.976	0.333	0.246
-207.436	81.432	-0.258	0.276
-206.421	475.763	-0.189	0.424
-205.406	-173.546	0.296	-0.009
-204.392	-65.574	-0.322	-0.128
-203.377	128.224	0.225	-0.284
-202.363	410.740	-0.046	-0.097
-201.348	-200.000	-0.020	0.143
-200.333	-81.992	0.058	0.019
-199.319	598.842	0.096	0.237
-198.304	-200.000	-0.022	-0.156
-197.290	-43.222	0.250	0.125
-196.275	-200.000	-0.044	0.275
-195.260	46.480	0.205	-0.189
-194.246	-131.803	-0.173	-0.022
-193.231	187.534	0.189	0.280
-192.217	-127.567	-0.108	0.016
-191.202	-57.607	-0.155	0.067
-190.187	-141.729	0.322	0.032
-189.173	-200.000	-0.024	0.184
-188.158	-30.602	0.041	0.023
-187.144	458.588	-0.057	-0.126
-186.129	-92.384	-0.290	0.081
-185.114	-38.387	0.107	0.056
-184.100	93.922	0.046	0.051
-183.085	55.246	-0.048	0.046
-182.071	118.550	0.100	-0.123
-181.056	-126.983	-0.355	-0.052
-180.042	-200.000	0.025	0.111
-179.027	254.196	0.210	0.356
-178.012	106.303	0.179	-0.211
-176.998	177.278	0.228	0.329
-175.983	4.412	0.127	0.092
-174.969	-104.841	0.386	-0.088
-173.954	-82.263	-0.244	0.079
-172.939	-124.879	0.137	0.021
-171.925	282.133	0.122	0.216
-170.910	-61.676	-0.249	0.103
-169.896	-200.000	0.005	-0.034
-168.881	-18.713	0.196	0.121
-167.866	-163.582	-0.190	-0.009
-166.852	-66.701	-0.303	-0.119
-165.837	192.260	-0.194	0.290
-164.823	-200.000	0.022	-0.167
-163.808	-78.819	-0.283	0.096
-162.793	624.736	0.206	-0.515
-161.779	800.000	0.040	0.142
-160.764	-73.481	0.098	-0.035
-159.750	800.000	-0.008	0.027
-158.735	26.960	0.338	0.281
-157.720	-112.502	-0.231	-0.046
-156.706	227.612	-0.196	-0.315
-155.691	-200.000	0.013	0.311
-154.677	800.000	0.103	-0.295
-153.662	398.643	0.064	0.132
-152.647	177.534	0.060	-0.087
-151.633	704.302	-0.026	0.069
-150.618	-141.569	0.138	0.014
-149.604	-200.000	0.025	0.215
-148.589	800.000	0.023	0.083
-147.574	-200.000	0.033	-0.000
-146.560	-200.000	-0.004	0.212
-145.545	800.000	0.053	0.190
-144.531	138.093	-0.137	-0.178
-143.516	47.434	0.154	-0.142
-142.502	-130.216	0.097	-0.013
-141.487	-91.034	-0.301	0.086
-140.472	192.119	0.225	0.337
-139.458	-200.000	-0.037	-0.205
-138.443	94.411	0.172	-0.193
-137.429	-135.131	-0.050	0.006
-136.414	243.446	0.099	0.165
-135.399	-85.034	-0.016	-0.005
-134.385	237.997	-0.214	-0.352
-133.370	-69.836	0.115	0.044
-132.356	55.879	0.206	0.198
-131.341	-121.610	-0.086	0.014
-130.326	-176.346	0.107	0.003
-129.312	-17.572	0.026	-0.016
-128.297	135.461	0.126	0.163
-127.283	63.216	-0.058	0.057
-126.268	138.818	0.026	0.034
-125.253	-166.693	-0.112	-0.005
-124.239	-200.000	0.025	0.248
-123.224	800.000	0.143	0.492
-122.210	-200.000	-0.017	0.104
-121.195	-181.985	0.483	-0.009
