DTS Sentinel unit serial number:	SN413079Multiplexer serial number:	ORYXHardware model number:	OX4-SRSoftware version number:	ORYX F/W v4.00 Oryx Data Collector v3.7.2.0data status	okinstallation	princeton_trtdifferential loss correction	single-endedforward channel	channel 1reverse channel	N/Adate	2019/09/10time	20:32:11forward acquisition time	60.00reverse acquisition time	0.00gamma	496.2192k internal	0.2327k external	0.2327temperature offset calibration	0.9932default loss term (dB/km)	0.3790temperature slope calibration	1.0000multiplexer offset coefficient	1.0000multiplexer slope coefficient	1.0000fibre end	0.00T internal ref (°C)	32.00T ext. ref 1 (°C)	-0.30T ext. ref 2 (°C)	25.32length (m)	temperature (°C)	Stokes	anti-Stokes-747.200	-115.681	-0.176	0.033
-746.185	339.656	-0.126	0.247
-745.171	800.000	-0.056	-0.160
-744.156	-42.845	0.342	-0.175
-743.142	160.549	0.302	0.425
-742.127	-16.294	-0.293	-0.188
-741.112	24.259	0.174	0.145
-740.098	600.297	0.100	0.250
-739.083	800.000	0.077	-0.217
-738.069	-143.720	-0.240	-0.023
-737.054	-116.653	0.078	-0.014
-736.039	-200.000	0.095	-0.464
-735.025	-84.383	0.181	0.058
-734.010	800.000	-0.030	-0.117
-732.996	-31.715	0.476	-0.269
-731.981	92.182	-0.149	0.169
-730.966	757.873	-0.045	-0.123
-729.952	-176.940	-0.314	0.008
-728.937	-78.152	-0.065	0.023
-727.923	800.000	0.067	-0.210
-726.908	85.111	-0.038	-0.042
-725.894	112.132	-0.127	-0.155
-724.879	10.901	-0.399	0.307
-723.864	-17.221	0.271	0.172
-722.850	30.340	-0.095	-0.081
-721.835	200.970	-0.139	0.216
-720.821	285.566	-0.111	-0.201
-719.806	-9.436	-0.344	0.231
-718.791	165.981	-0.145	-0.207
-717.777	133.406	0.098	-0.127
-716.762	508.788	-0.090	-0.211
-715.748	800.000	-0.062	-0.215
-714.733	22.693	-0.148	-0.122
-713.718	39.288	-0.264	-0.238
-712.704	129.793	-0.333	-0.429
-711.689	-200.000	0.041	-0.352
-710.675	-109.274	0.141	-0.030
-709.660	198.286	-0.201	-0.310
-708.645	-105.845	0.187	0.042
-707.631	-43.568	-0.102	-0.052
-706.616	228.249	-0.234	-0.384
-705.602	-62.584	-0.396	-0.165
-704.587	758.763	-0.081	0.220
-703.572	-66.650	-0.273	0.109
-702.558	-47.594	0.183	-0.089
-701.543	358.507	0.135	-0.271
-700.529	242.884	0.056	-0.094
-699.514	-169.690	0.323	-0.012
-698.499	800.000	-0.029	-0.086
-697.485	4.743	0.248	0.183
-696.470	-200.000	-0.037	-0.294
-695.456	800.000	0.058	0.171
-694.441	37.508	-0.080	-0.072
-693.426	386.274	-0.093	-0.193
-692.412	380.415	0.138	-0.286
-691.397	-61.329	-0.124	0.053
-690.383	-200.000	0.013	-0.164
-689.368	-100.782	-0.191	-0.047
-688.354	800.000	0.143	0.535
-687.339	-120.161	0.361	-0.062
-686.324	800.000	-0.066	0.196
-685.310	800.000	0.023	0.078
-684.295	-95.067	-0.126	0.034
-683.281	-68.113	-0.320	0.125
-682.266	16.277	-0.142	-0.113
-681.251	84.854	-0.124	0.137
-680.237	267.135	-0.032	0.057
-679.222	-20.782	0.172	-0.106
-678.208	13.303	0.074	0.058
-677.193	12.383	0.279	-0.216
-676.178	188.553	-0.261	-0.393
-675.164	-48.847	-0.217	-0.105
-674.149	627.928	0.028	0.071
-673.135	-149.386	0.260	-0.021
-672.120	-200.000	0.003	-0.263
-671.105	-26.563	-0.272	-0.160
-670.091	100.560	0.185	-0.216
-669.076	-184.967	-0.114	-0.002
-668.062	284.125	-0.061	-0.111
-667.047	-200.000	-0.004	-0.133
-666.032	-77.843	0.297	0.103
-665.018	193.075	0.067	0.101
-664.003	210.635	-0.107	-0.169
-662.989	-39.466	-0.220	0.116
-661.974	74.269	-0.122	0.129
-660.959	6.954	0.296	-0.222
-659.945	-66.246	0.107	0.043
-658.930	83.789	0.290	-0.318
-657.916	95.140	-0.155	-0.177
-656.901	800.000	0.052	-0.150
-655.886	-200.000	-0.017	-0.106
-654.872	-104.705	0.098	-0.023
-653.857	-82.811	0.070	0.023
-652.843	-99.216	0.067	-0.017
-651.828	112.929	0.165	-0.200
-650.814	408.798	-0.058	-0.124
-649.799	127.046	0.115	0.146
-648.784	781.026	0.058	-0.159
-647.770	-32.699	-0.051	0.029
-646.755	-63.666	-0.220	-0.091
-645.741	41.448	-0.243	0.221
-644.726	208.984	0.068	-0.107
-643.711	18.293	0.416	0.333
-642.697	525.291	0.140	0.331
-641.682	200.988	-0.200	-0.310
-640.668	26.074	-0.225	-0.189
-639.653	-200.000	0.023	-0.230
-638.638	-150.988	-0.424	-0.032
-637.624	-15.022	-0.162	-0.104
-636.609	-200.000	0.007	0.274
-635.595	-72.794	0.040	0.015
-634.580	88.070	-0.189	0.210
-633.565	-31.596	0.159	0.090
-632.551	98.852	-0.161	0.187
-631.536	51.767	-0.344	-0.328
-630.522	800.000	-0.042	-0.123
-629.507	-61.155	0.035	0.015
-628.492	-200.000	0.025	0.175
-627.478	20.126	0.339	-0.274
-626.463	-135.723	0.122	0.015
-625.449	-70.763	0.143	-0.054
-624.434	287.674	0.183	-0.333
-623.419	-62.352	0.206	0.086
-622.405	800.000	0.042	0.140
-621.390	81.152	-0.085	0.092
-620.376	-185.167	0.239	-0.004
-619.361	37.992	0.073	-0.065
-618.346	-200.000	0.019	0.254
-617.332	-200.000	-0.019	-0.213
-616.317	-185.801	-0.190	-0.003
-615.303	-42.120	0.163	0.084
-614.288	-102.046	-0.043	-0.010
-613.273	800.000	-0.127	-0.394
-612.259	-200.000	0.005	-0.270
-611.244	434.598	-0.037	0.080
-610.230	-177.469	0.231	-0.006
-609.215	142.744	-0.071	0.094
-608.201	70.533	-0.060	-0.062
-607.186	-51.408	0.298	0.140
-606.171	419.385	-0.131	0.281
-605.157	-76.942	-0.240	0.084
-604.142	-200.000	0.007	0.302
-603.128	51.345	0.322	-0.307
-602.113	26.436	-0.236	-0.198
-601.098	115.352	0.111	0.136
-600.084	-148.741	0.104	-0.008
-599.069	75.544	0.092	-0.097
-598.055	587.922	0.086	-0.213
-597.040	-34.655	0.370	-0.203
-596.025	-200.000	0.060	0.319
-595.011	3.249	-0.226	0.165
-593.996	147.035	-0.107	0.144
-592.982	125.340	-0.049	0.062
-591.967	198.799	-0.059	-0.091
-590.952	36.451	-0.105	0.093
-589.938	278.391	0.074	-0.132
-588.923	-73.222	-0.207	-0.076
-587.909	254.099	0.030	0.052
-586.894	-178.038	-0.132	-0.003
-585.879	-84.974	0.185	-0.058
-584.865	-1.422	-0.212	-0.150
-583.850	-16.619	0.175	-0.111
-582.836	-200.000	0.034	-0.249
-581.821	387.088	0.124	-0.256
-580.806	-151.907	-0.249	-0.018
-579.792	-140.975	-0.169	0.017
-578.777	800.000	-0.071	0.264
-577.763	-200.000	-0.038	-0.248
-576.748	800.000	-0.133	-0.451
-575.733	755.327	0.111	-0.301
-574.719	-79.455	-0.151	-0.051
-573.704	198.939	0.158	0.242
-572.690	-27.387	-0.254	0.148
-571.675	130.702	-0.103	0.132
-570.661	-200.000	0.025	-0.411
-569.646	-49.663	0.076	0.036
-568.631	21.801	0.403	-0.329
-567.617	-62.455	-0.132	-0.055
-566.602	-200.000	0.002	-0.388
-565.588	800.000	-0.071	-0.234
-564.573	52.115	-0.237	0.226
-563.558	-127.079	0.431	0.063
-562.544	-151.055	0.236	0.018
-561.529	-156.049	-0.118	-0.007
-560.515	-26.034	0.118	0.070
-559.500	246.835	-0.043	-0.072
-558.485	34.136	-0.234	0.204
-557.471	3.500	0.239	-0.174
-556.456	-200.000	-0.011	-0.287
-555.442	-200.000	-0.300	0.001
-554.427	-67.721	-0.372	0.146
-553.412	186.547	0.088	-0.132
-552.398	219.110	0.041	-0.066
-551.383	-200.000	0.008	0.104
-550.369	-132.635	0.208	0.027
-549.354	-113.766	-0.065	0.013
-548.339	-136.294	0.143	0.017
-547.325	-30.135	-0.098	0.056
-546.310	503.891	-0.087	-0.201
-545.296	-200.000	0.009	-0.156
-544.281	-180.211	-0.225	0.005
-543.266	66.666	0.235	0.239
-542.252	-200.000	-0.001	-0.021
-541.237	98.778	0.086	0.099
-540.223	44.922	0.013	0.012
-539.208	-200.000	-0.001	0.352
-538.193	-73.109	-0.270	0.099
-537.179	-70.434	0.057	-0.022
-536.164	-98.216	-0.190	-0.049
-535.150	154.784	-0.064	0.089
-534.135	-116.219	0.050	0.009
-533.121	-200.000	0.008	-0.084
-532.106	10.305	-0.228	-0.173
-531.091	39.208	0.148	0.132
-530.077	130.644	0.190	0.243
-529.062	652.268	0.159	-0.408
-528.048	800.000	-0.116	0.505
-527.033	-1.262	-0.190	0.134
-526.018	-27.612	0.191	-0.111
-525.004	2.208	-0.223	-0.161
-523.989	-200.000	0.034	0.201
-522.975	-193.617	0.212	-0.002
-521.960	-63.014	-0.053	0.022
-520.945	-150.953	-0.165	0.012
-519.931	451.444	0.112	0.247
-518.916	-111.555	0.106	-0.022
-517.902	-96.428	-0.466	0.123
-516.887	38.940	0.214	0.191
-515.872	-200.000	-0.010	0.246
-514.858	-59.825	-0.145	0.062
-513.843	-38.995	-0.262	0.138
-512.829	-82.106	-0.168	0.055
-511.814	34.733	0.181	0.158
-510.799	-16.111	0.088	-0.056
-509.785	-68.965	-0.424	0.163
-508.770	239.915	0.103	-0.171
-507.756	4.251	0.179	-0.131
-506.741	236.103	0.200	-0.331
-505.726	-9.166	-0.111	-0.074
-504.712	-93.290	-0.266	-0.074
-503.697	-153.147	0.104	0.007
-502.683	88.690	-0.243	-0.270
-501.668	800.000	0.029	-0.122
-500.653	-7.792	0.291	0.196
-499.639	-200.000	-0.021	0.337
-498.624	-200.000	0.031	-0.225
-497.610	-89.265	-0.169	0.050
-496.595	52.680	-0.269	-0.257
-495.581	142.446	-0.064	0.084
-494.566	18.901	-0.158	0.127
-493.551	489.685	0.171	0.391
-492.537	-200.000	0.009	0.075
-491.522	-200.000	-0.003	-0.156
-490.508	-135.297	-0.092	0.011
-489.493	75.484	0.135	0.142
-488.478	337.827	0.187	0.364
-487.464	44.698	-0.230	0.211
-486.449	-200.000	0.019	0.165
-485.435	800.000	-0.041	-0.124
-484.420	-138.511	0.315	-0.035
-483.405	-200.000	0.095	-0.000
-482.391	169.674	-0.115	0.165
-481.376	40.376	0.107	0.096
-480.362	-43.261	0.396	0.200
-479.347	-200.000	-0.037	0.384
-478.332	-166.048	-0.119	-0.005
-477.318	-92.581	-0.187	0.052
-476.303	24.420	0.017	-0.014
-475.289	21.779	0.112	-0.091
-474.274	-200.000	0.006	0.060
-473.259	230.375	0.014	-0.023
-472.245	-97.702	-0.309	0.080
-471.230	-1.607	0.164	0.116
-470.216	-66.908	0.099	-0.039
-469.201	26.209	0.114	0.095
-468.186	322.019	0.127	0.241
-467.172	-46.736	-0.015	0.007
-466.157	800.000	-0.113	-0.341
-465.143	444.259	0.052	0.114
-464.128	-200.000	-0.001	0.040
-463.113	42.485	0.024	0.022
-462.099	173.373	0.026	-0.038
-461.084	-200.000	-0.054	-0.259
-460.070	-124.024	-0.304	0.048
-459.055	800.000	0.045	-0.176
-458.040	269.174	-0.242	-0.423
-457.026	560.253	-0.139	-0.335
-456.011	-143.024	0.157	0.015
-454.997	180.557	0.145	-0.211
-453.982	800.000	-0.094	-0.313
-452.968	142.069	-0.100	0.133
-451.953	90.305	-0.229	-0.256
-450.938	334.002	0.106	-0.204
-449.924	58.598	0.027	0.027
-448.909	-89.717	0.052	0.015
-447.895	-103.169	-0.203	0.048
-446.880	-90.848	-0.090	0.026
-445.865	6.647	0.089	0.066
-444.851	-95.639	0.176	0.047
-443.836	9.688	0.202	-0.152
-442.822	-12.044	0.208	-0.136
-441.807	-63.811	0.381	-0.155
-440.792	158.328	0.091	0.126
-439.778	-163.017	0.199	0.010
-438.763	-18.511	0.105	0.065
-437.749	34.125	0.180	0.157
-436.734	-200.000	-0.042	-0.298
-435.719	-200.000	-0.000	0.150
-434.705	-145.063	0.147	-0.013
-433.690	-200.000	0.043	-0.429
-432.676	800.000	-0.034	0.113
-431.661	68.202	-0.044	-0.045
-430.646	-22.347	0.299	-0.181
-429.632	800.000	0.049	-0.171
-428.617	623.748	0.122	-0.306
-427.603	-200.000	0.032	-0.268
-426.588	-100.028	0.142	-0.035
-425.573	-26.385	0.128	-0.075
-424.559	45.586	0.201	-0.185
-423.544	-164.732	-0.089	0.004
-422.530	594.253	-0.025	0.061
-421.515	454.859	0.093	0.205
-420.500	-21.484	-0.029	0.017
-419.486	-1.882	0.141	0.099
-418.471	22.587	0.377	0.307
-417.457	34.583	-0.290	0.252
-416.442	-74.864	-0.134	0.048
-415.428	-200.000	-0.003	-0.202
-414.413	-125.354	-0.265	-0.040
-413.398	-200.000	0.055	0.257
-412.384	-104.138	0.175	-0.041
-411.369	-112.220	-0.254	-0.051
-410.355	800.000	-0.098	0.355
-409.340	77.707	0.251	-0.266
-408.325	210.655	-0.072	-0.113
-407.311	800.000	0.054	-0.174
-406.296	-200.000	0.014	-0.244
-405.282	41.601	0.303	-0.273
-404.267	-28.825	0.292	-0.167
-403.252	175.066	0.021	0.030
-402.238	800.000	-0.073	0.304
-401.223	279.533	0.099	0.176
-400.209	-28.361	0.223	0.128
-399.194	-1.594	0.092	0.064
-398.179	-162.488	0.245	-0.012
-397.165	20.510	-0.134	-0.108
-396.150	2.007	0.157	-0.113
-395.136	-48.802	0.147	0.070
-394.121	-109.905	-0.085	0.018
-393.106	180.366	-0.309	-0.451
-392.092	-100.239	-0.382	-0.094
-391.077	733.720	-0.099	-0.264
-390.063	-42.998	-0.110	0.055
-389.048	298.179	0.218	-0.398
-388.033	59.407	0.065	-0.063
-387.019	-200.000	-0.017	0.089
-386.004	142.739	0.238	-0.314
-384.990	-200.000	0.016	-0.229
-383.975	-35.583	-0.176	0.095
-382.960	13.252	0.320	0.247
-381.946	-120.276	-0.324	0.055
-380.931	-9.044	-0.231	-0.154
-379.917	113.593	-0.118	-0.143
-378.902	-6.131	-0.198	0.135
-377.888	-200.000	-0.003	-0.247
-376.873	-30.003	0.190	0.108
-375.858	30.419	-0.185	0.157
-374.844	147.965	0.074	0.099
-373.829	-200.000	-0.014	-0.100
-372.815	700.948	0.050	0.130
-371.800	-46.206	0.163	0.080
-370.785	375.627	0.069	0.140
-369.771	-8.230	-0.290	0.194
-368.756	232.173	0.145	-0.236
-367.742	-54.659	-0.126	-0.056
-366.727	-55.470	0.182	0.081
-365.712	227.674	-0.157	-0.254
-364.698	366.188	0.062	0.124
-363.683	-31.889	0.284	-0.158
-362.669	15.522	-0.118	0.092
-361.654	4.363	-0.167	0.122
-360.639	151.206	0.069	-0.093
-359.625	800.000	-0.030	-0.085
-358.610	-27.177	-0.165	0.096
-357.596	800.000	-0.028	0.118
-356.581	-131.944	-0.578	0.075
-355.566	-167.958	0.290	-0.011
-354.552	-82.692	0.334	0.107
-353.537	-133.548	-0.130	0.016
-352.523	-200.000	0.036	-0.194
-351.508	-200.000	-0.023	0.121
-350.493	-180.912	0.087	0.002
-349.479	70.138	0.161	-0.165
-348.464	176.180	-0.154	0.223
-347.450	350.542	0.040	0.079
-346.435	102.323	-0.128	-0.148
-345.420	203.154	0.121	-0.186
-344.406	-123.933	-0.319	0.050
-343.391	22.155	-0.268	-0.217
-342.377	-104.661	-0.098	0.022
-341.362	-123.409	0.282	0.045
-340.348	-200.000	-0.034	-0.375
-339.333	-188.727	0.111	-0.001
-338.318	-130.862	-0.098	-0.013
-337.304	39.232	0.103	-0.092
-336.289	550.667	-0.119	0.282
-335.275	-200.000	0.025	0.156
-334.260	-93.889	0.055	-0.015
-333.245	9.233	-0.205	0.154
-332.231	12.580	0.199	-0.152
-331.216	-200.000	0.015	-0.173
-330.202	-200.000	-0.017	-0.184
-329.187	181.718	0.091	0.133
-328.172	-200.000	-0.025	-0.114
-327.158	-88.835	-0.173	0.051
-326.143	800.000	0.084	-0.336
-325.129	800.000	-0.041	0.130
-324.114	-200.000	0.046	0.293
-323.099	438.067	-0.093	-0.201
-322.085	143.413	-0.140	-0.185
-321.070	617.682	0.105	0.263
-320.056	800.000	0.037	0.128
-319.041	-200.000	0.060	0.326
-318.026	-83.686	-0.269	0.085
-317.012	-200.000	0.004	0.141
-315.997	-41.202	0.256	-0.131
-314.983	800.000	0.057	0.219
-313.968	1.088	-0.186	0.132
-312.953	-37.568	-0.138	-0.073
-311.939	-104.291	0.263	-0.060
-310.924	14.878	-0.277	0.215
-309.910	800.000	0.034	-0.130
-308.895	154.686	0.113	0.154
-307.880	-121.318	-0.466	0.077
-306.866	424.699	-0.064	-0.136
-305.851	-200.000	0.016	-0.081
-304.837	800.000	0.111	-0.460
-303.822	508.795	0.098	0.226
-302.807	-70.263	-0.081	-0.030
-301.793	-141.356	-0.168	-0.017
-300.778	707.795	-0.137	0.359
-299.764	67.345	0.122	0.123
-298.749	66.583	0.101	-0.101
-297.735	57.071	0.127	0.123
-296.720	-86.793	0.172	0.052
-295.705	-126.668	0.160	0.023
-294.691	54.409	0.145	-0.139
-293.676	-200.000	-0.027	-0.193
-292.662	123.677	-0.171	0.212
-291.647	-83.660	0.410	0.130
-290.632	528.341	-0.123	0.288
-289.618	-106.100	-0.427	0.095
-288.603	-200.000	0.058	-0.487
-287.589	720.141	0.066	-0.174
-286.574	800.000	-0.097	-0.381
-285.559	-61.997	-0.074	-0.031
-284.545	-200.000	0.057	-0.290
-283.530	3.583	0.112	0.081
-282.516	-200.000	0.056	0.299
-281.501	-200.000	-0.013	0.074
-280.486	-176.416	0.197	-0.005
-279.472	-55.210	-0.261	0.116
-278.457	15.731	-0.104	0.081
-277.443	-52.253	0.056	0.026
-276.428	-200.000	-0.071	0.454
-275.413	-200.000	0.066	0.287
-274.399	800.000	0.046	-0.186
-273.384	67.653	-0.052	-0.052
-272.370	-99.657	0.144	-0.036
-271.355	328.691	0.200	0.381
-270.340	800.000	0.051	0.177
-269.326	-79.386	-0.067	0.022
-268.311	-98.995	-0.233	0.058
-267.297	-200.000	0.011	-0.296
-266.282	-120.999	0.411	-0.068
-265.267	12.574	-0.160	0.122
-264.253	364.201	0.092	0.184
-263.238	-200.000	0.045	-0.235
-262.224	765.273	0.146	0.392
-261.209	-119.129	-0.126	-0.022
-260.195	134.668	0.265	0.340
-259.180	69.025	-0.218	0.222
-258.165	-22.317	0.150	0.090
-257.151	530.272	-0.096	-0.225
-256.136	165.209	0.157	-0.220
-255.122	-30.058	-0.222	-0.125
-254.107	-200.000	0.016	-0.163
-253.092	196.773	-0.174	0.262
-252.078	22.327	-0.145	-0.118
-251.063	-80.964	0.249	-0.081
-250.049	231.287	0.188	0.305
-249.034	-142.646	-0.145	0.014
-248.019	100.554	0.066	-0.076
-247.005	-168.259	0.481	0.018
-245.990	800.000	0.015	0.062
-244.976	-200.000	0.037	0.273
-243.961	800.000	-0.075	0.295
-242.946	370.760	0.054	-0.109
-241.932	-34.237	0.216	0.117
-240.917	800.000	-0.079	-0.275
-239.903	-89.241	-0.232	0.068
-238.888	30.817	0.164	0.139
-237.873	86.492	-0.120	0.131
-236.859	264.331	0.057	0.097
-235.844	-93.945	-0.025	-0.007
-234.830	146.320	0.157	0.208
-233.815	171.532	-0.130	0.185
-232.800	120.944	-0.065	0.080
-231.786	418.665	0.066	-0.139
-230.771	-41.349	0.111	-0.057
-229.757	800.000	-0.143	-0.510
-228.742	-200.000	0.054	0.278
-227.727	440.932	0.080	-0.172
-226.713	-112.257	0.190	-0.038
-225.698	800.000	-0.049	0.179
-224.684	-3.047	-0.195	-0.134
-223.669	800.000	0.085	-0.309
-222.655	-19.242	-0.288	-0.176
-221.640	-134.867	-0.125	0.015
-220.625	-200.000	0.014	0.088
-219.611	-14.267	-0.090	-0.057
-218.596	-103.971	-0.407	0.094
-217.582	-135.822	0.325	0.038
-216.567	-31.478	-0.035	-0.019
-215.552	37.876	-0.252	-0.222
-214.538	-200.000	-0.092	0.431
-213.523	-111.167	0.104	-0.021
-212.509	599.750	-0.095	0.232
-211.494	385.288	-0.122	-0.248
-210.479	29.380	0.326	0.273
-209.465	-5.593	0.126	0.086
-208.450	-32.762	0.310	0.170
-207.436	134.770	0.158	-0.202
-206.421	-82.779	-0.178	0.057
-205.406	53.449	0.245	0.232
-204.392	-20.369	0.126	0.077
-203.377	105.129	-0.091	-0.106
-202.363	-17.994	-0.235	-0.145
-201.348	-200.000	-0.367	-0.000
-200.333	800.000	0.051	-0.153
-199.319	-200.000	-0.062	-0.462
-198.304	-136.589	0.108	0.012
-197.290	175.907	0.078	-0.112
-196.275	-200.000	-0.036	0.161
-195.260	-200.000	0.023	0.153
-194.246	-77.673	0.288	0.098
-193.231	-73.678	-0.265	0.095
-192.217	-113.870	-0.240	-0.046
-191.202	-30.499	0.277	0.155
-190.187	-200.000	-0.007	-0.193
-189.173	-128.569	-0.229	0.032
-188.158	-8.198	0.153	0.101
-187.144	38.150	0.121	-0.107
-186.129	169.129	-0.195	0.275
-185.114	-82.522	-0.029	-0.009
-184.100	-11.041	-0.129	0.084
-183.085	-200.000	0.001	0.226
-182.071	421.802	-0.038	-0.080
-181.056	79.385	-0.161	0.171
-180.042	800.000	-0.080	-0.293
-179.027	234.390	-0.139	-0.226
-178.012	-94.835	0.208	-0.056
-176.998	641.801	0.074	0.186
-175.983	-100.295	0.236	-0.058
-174.969	-1.688	-0.142	-0.099
-173.954	-117.933	0.208	0.037
-172.939	52.049	0.022	-0.020
-171.925	64.866	-0.487	0.485
-170.910	182.434	0.215	-0.313
-169.896	800.000	-0.030	-0.115
-168.881	-200.000	0.013	0.184
-167.866	-200.000	-0.023	-0.337
-166.852	800.000	-0.112	-0.419
-165.837	-200.000	-0.080	-0.420
-164.823	-139.730	0.129	-0.014
-163.808	8.682	-0.147	0.109
-162.793	96.361	-0.285	0.321
-161.779	-200.000	0.014	0.170
-160.764	-200.000	0.038	0.269
-159.750	800.000	-0.057	0.219
-158.735	-14.461	0.122	0.077
-157.720	-200.000	-0.044	0.529
-156.706	800.000	-0.060	-0.186
-155.691	435.122	-0.063	-0.135
-154.677	-51.611	-0.165	-0.076
-153.662	69.545	0.136	-0.138
-152.647	88.813	-0.174	0.191
-151.633	172.815	0.045	0.064
-150.618	307.991	0.089	0.163
-149.604	158.821	-0.084	0.114
-148.589	-80.872	0.314	0.103
-147.574	83.158	0.135	-0.144
-146.560	-19.965	0.088	0.053
-145.545	-55.185	0.233	-0.103
-144.531	141.883	0.032	0.042
-143.516	254.621	-0.096	0.161
-142.502	169.115	0.195	0.274
-141.487	800.000	-0.041	0.166
-140.472	-114.867	0.104	-0.020
-139.458	-85.042	-0.020	0.006
-138.443	-143.802	0.345	-0.032
-137.429	125.923	0.174	-0.217
-136.414	30.768	-0.088	-0.074
-135.399	-104.177	0.263	-0.060
-134.385	-46.234	0.444	-0.215
-133.370	-114.112	-0.324	-0.062
-132.356	-200.000	0.088	-0.425
-131.341	-13.221	0.063	-0.040
-130.326	-200.000	0.033	-0.189
-129.312	-200.000	-0.026	-0.199
-128.297	-104.386	0.503	-0.115
-127.283	-25.641	0.039	-0.023
-126.268	-131.060	-0.160	0.021
-125.253	-80.014	0.184	0.061
-124.239	-81.281	-0.095	0.031
-123.224	-89.437	0.467	0.135
-122.210	-43.596	0.139	-0.069
-121.195	800.000	0.050	-0.162
-120.180	189.128	0.323	0.476
