DTS Sentinel unit serial number:	SN413079Multiplexer serial number:	ORYXHardware model number:	OX4-SRSoftware version number:	ORYX F/W v4.00 Oryx Data Collector v3.7.2.0data status	okinstallation	princeton_trtdifferential loss correction	single-endedforward channel	channel 1reverse channel	N/Adate	2019/09/16time	22:26:36forward acquisition time	60.00reverse acquisition time	0.00gamma	496.2192k internal	0.2324k external	0.2324temperature offset calibration	0.9956default loss term (dB/km)	0.3790temperature slope calibration	1.0000multiplexer offset coefficient	1.0000multiplexer slope coefficient	1.0000fibre end	0.00T internal ref (°C)	30.86T ext. ref 1 (°C)	0.08T ext. ref 2 (°C)	24.67length (m)	temperature (°C)	Stokes	anti-Stokes-747.200	-110.419	0.095	0.020
-746.185	-50.080	-0.230	0.110
-745.171	-85.042	0.281	-0.089
-744.156	-99.702	0.147	0.037
-743.142	418.789	-0.165	-0.355
-742.127	-121.839	-0.284	-0.047
-741.112	-7.882	0.063	-0.043
-740.098	276.869	0.095	-0.170
-739.083	150.085	0.011	-0.015
-738.069	-200.000	0.040	0.392
-737.054	-45.070	0.140	0.070
-736.039	311.550	0.021	-0.039
-735.025	-70.739	0.118	0.045
-734.010	-200.000	0.021	0.106
-732.996	62.291	-0.321	-0.324
-731.981	-200.000	0.043	0.243
-730.966	-200.000	-0.012	-0.140
-729.952	-16.339	0.235	-0.150
-728.937	96.194	-0.105	0.121
-727.923	-200.000	0.396	-0.001
-726.908	452.737	-0.132	-0.294
-725.894	32.528	-0.121	-0.105
-724.879	58.876	0.122	0.121
-723.864	-85.247	0.198	-0.062
-722.850	49.820	-0.268	-0.254
-721.835	362.123	0.090	0.182
-720.821	309.836	0.100	-0.188
-719.806	-23.196	0.242	-0.147
-718.791	112.490	-0.148	-0.180
-717.777	25.300	0.325	0.272
-716.762	800.000	-0.078	-0.244
-715.748	-16.543	0.244	0.156
-714.733	125.681	0.180	-0.229
-713.718	-77.845	-0.116	-0.040
-712.704	800.000	0.035	-0.150
-711.689	0.939	0.175	0.126
-710.675	65.459	0.255	-0.260
-709.660	800.000	0.083	-0.265
-708.645	101.320	0.060	-0.071
-707.631	-160.296	0.507	0.028
-706.616	-200.000	-0.027	-0.320
-705.602	-29.994	0.249	-0.143
-704.587	-165.919	-0.279	-0.012
-703.572	443.015	-0.095	0.209
-702.558	82.388	-0.102	0.112
-701.543	33.433	0.290	-0.253
-700.529	537.602	-0.098	-0.235
-699.514	-200.000	-0.008	0.332
-698.499	-41.111	-0.152	-0.079
-697.485	56.748	-0.110	0.108
-696.470	5.644	0.285	0.212
-695.456	245.530	-0.166	-0.282
-694.441	81.973	-0.135	-0.147
-693.426	81.960	0.163	-0.178
-692.412	-200.000	-0.067	0.000
-691.397	-200.000	-0.017	-0.192
-690.383	800.000	0.058	0.244
-689.368	17.982	-0.139	-0.112
-688.354	-200.000	0.012	-0.146
-687.339	-145.706	0.133	0.012
-686.324	12.680	-0.246	0.191
-685.310	446.191	-0.049	0.109
-684.295	-200.000	0.036	-0.364
-683.281	23.914	-0.192	0.159
-682.266	-200.000	-0.001	-0.275
-681.251	-200.000	-0.027	-0.136
-680.237	-200.000	0.304	0.001
-679.222	-14.528	-0.091	-0.059
-678.208	-97.045	0.176	0.046
-677.193	800.000	-0.033	0.098
-676.178	800.000	0.099	0.323
-675.164	-116.514	0.157	-0.029
-674.149	-200.000	-0.019	0.169
-673.135	-102.946	0.198	0.047
-672.120	-200.000	-0.042	-0.312
-671.105	22.000	-0.225	0.184
-670.091	-200.000	0.227	-0.001
-669.076	-200.000	0.023	0.163
-668.062	-1.754	-0.239	0.169
-667.047	183.669	0.090	0.134
-666.032	447.073	0.050	0.111
-665.018	98.699	0.135	-0.157
-664.003	6.755	-0.204	-0.153
-662.989	-88.392	-0.097	0.029
-661.974	-95.024	0.382	-0.104
-660.959	44.581	-0.255	0.235
-659.945	-200.000	0.031	0.150
-658.930	800.000	-0.038	0.128
-657.916	90.240	-0.116	0.130
-656.901	-93.797	0.404	-0.112
-655.886	-118.620	-0.199	-0.035
-654.872	91.549	-0.099	-0.112
-653.857	-136.115	-0.178	0.021
-652.843	-101.582	-0.286	0.070
-651.828	-200.000	-0.003	-0.134
-650.814	-139.566	0.203	0.022
-649.799	-38.487	-0.085	0.045
-648.784	485.053	-0.066	-0.151
-647.770	462.742	0.042	-0.095
-646.755	291.209	-0.079	-0.144
-645.741	-0.909	0.243	-0.173
-644.726	-72.237	-0.262	-0.098
-643.711	141.887	-0.141	-0.187
-642.697	97.544	-0.234	-0.271
-641.682	109.620	-0.238	-0.287
-640.668	800.000	0.042	-0.144
-639.653	78.607	0.122	-0.132
-638.638	-200.000	-0.002	0.033
-637.624	-126.764	-0.236	-0.035
-636.609	800.000	0.058	0.191
-635.595	-200.000	-0.014	0.070
-634.580	22.972	-0.166	-0.137
-633.565	-34.708	-0.366	0.201
-632.551	-145.578	-0.291	0.026
-631.536	-29.624	0.358	0.206
-630.522	755.584	0.056	-0.153
-629.507	-55.318	0.137	0.062
-628.492	717.154	0.064	0.172
-627.478	-200.000	0.031	-0.216
-626.463	-200.000	-0.027	-0.274
-625.449	-200.000	0.020	0.118
-624.434	22.037	0.173	0.142
-623.419	800.000	-0.105	-0.340
-622.405	62.815	-0.201	-0.202
-621.390	800.000	-0.023	-0.076
-620.376	800.000	-0.035	0.124
-619.361	5.334	-0.103	0.077
-618.346	168.931	0.163	-0.234
-617.332	-55.498	-0.366	0.165
-616.317	-147.427	0.146	0.012
-615.303	-138.981	0.393	-0.043
-614.288	-200.000	0.035	0.176
-613.273	-200.000	0.001	-0.004
-612.259	62.362	-0.275	-0.275
-611.244	-200.000	0.012	-0.142
-610.230	548.730	-0.039	-0.094
-609.215	3.170	0.141	0.103
-608.201	42.069	-0.019	-0.017
-607.186	-101.067	-0.226	-0.056
-606.171	-107.431	0.120	-0.026
-605.157	-28.368	-0.132	-0.077
-604.142	-49.689	0.532	0.254
-603.128	61.241	0.134	-0.133
-602.113	144.276	0.046	0.061
-601.098	8.166	-0.207	0.156
-600.084	-82.686	-0.018	0.006
-599.069	-63.967	-0.181	-0.074
-598.055	-134.893	0.208	0.025
-597.040	-83.502	0.432	0.139
-596.025	94.809	0.241	0.275
-595.011	-149.124	-0.169	0.014
-593.996	-67.741	0.283	0.111
-592.982	536.883	0.032	0.076
-591.967	-138.726	0.324	-0.036
-590.952	17.353	-0.151	-0.120
-589.938	60.674	-0.209	0.208
-588.923	-175.080	0.204	-0.006
-587.909	-84.532	-0.328	0.104
-586.894	422.996	0.041	0.089
-585.879	-119.786	-0.348	0.060
-584.865	-36.911	0.062	0.033
-583.850	-89.656	0.166	0.049
-582.836	74.540	-0.142	-0.149
-581.821	-20.195	-0.088	-0.054
-580.806	-200.000	0.026	-0.281
-579.792	35.725	-0.114	-0.101
-578.777	22.856	-0.055	0.046
-577.763	-16.008	-0.066	-0.042
-576.748	-63.266	0.293	0.121
-575.733	-200.000	-0.022	-0.371
-574.719	-200.000	-0.018	-0.276
-573.704	85.688	-0.234	-0.258
-572.690	800.000	-0.062	0.192
-571.675	800.000	0.023	-0.084
-570.661	-66.909	-0.286	0.113
-569.646	-200.000	-0.013	0.111
-568.631	12.367	0.193	-0.149
-567.617	397.116	-0.180	-0.377
-566.602	-137.423	-0.317	-0.036
-565.588	145.597	-0.162	0.217
-564.573	17.143	-0.159	0.127
-563.558	-165.618	-0.100	-0.004
-562.544	88.766	-0.073	-0.081
-561.529	87.897	0.083	0.093
-560.515	800.000	0.019	-0.079
-559.500	-200.000	-0.001	-0.151
-558.485	-44.827	-0.132	-0.066
-557.471	578.331	-0.049	-0.119
-556.456	-132.020	0.153	0.020
-555.442	-137.463	0.218	0.025
-554.427	-54.722	0.065	0.029
-553.412	-92.829	0.096	0.027
-552.398	-107.179	0.319	0.070
-551.383	694.170	-0.082	0.216
-550.369	800.000	-0.070	0.252
-549.354	163.938	-0.052	-0.073
-548.339	-103.729	-0.403	0.095
-547.325	-138.976	0.069	0.008
-546.310	52.039	-0.121	0.116
-545.296	33.199	-0.121	0.105
-544.281	388.037	0.045	-0.093
-543.266	-58.513	0.288	0.125
-542.252	200.924	0.167	-0.258
-541.237	734.532	-0.109	-0.292
-540.223	585.022	-0.092	-0.226
-539.208	-31.716	0.143	-0.080
-538.193	-110.844	-0.306	0.063
-537.179	177.286	0.100	-0.146
-536.164	8.777	-0.430	0.324
-535.150	800.000	-0.100	0.332
-534.135	52.290	-0.290	0.277
-533.121	-12.264	0.277	-0.181
-532.106	-55.894	0.191	-0.086
-531.091	489.748	0.110	-0.251
-530.077	1.841	0.340	0.245
-529.062	-15.665	-0.287	-0.183
-528.048	-200.000	-0.038	-0.412
-527.033	-106.799	0.054	-0.012
-526.018	-139.988	0.457	-0.048
-525.004	782.582	-0.064	-0.175
-523.989	573.800	-0.046	0.111
-522.975	-200.000	0.037	-0.196
-521.960	-27.329	-0.455	-0.265
-520.945	-134.716	0.209	0.025
-519.931	167.462	-0.039	0.055
-518.916	-200.000	-0.057	-0.493
-517.902	-112.930	-0.452	-0.090
-516.887	-5.521	0.257	0.176
-515.872	-130.237	-0.289	-0.039
-514.858	13.758	0.107	-0.083
-513.843	-200.000	0.058	0.259
-512.829	339.731	0.075	-0.146
-511.814	686.814	-0.093	0.242
-510.799	-2.633	0.174	0.122
-509.785	167.323	-0.203	0.288
-508.770	186.733	-0.060	-0.089
-507.756	-200.000	-0.007	-0.302
-506.741	463.363	-0.051	0.115
-505.726	-57.321	-0.334	0.147
-504.712	-33.881	0.203	0.112
-503.697	229.920	0.125	-0.204
-502.683	-148.918	0.312	0.025
-501.668	-23.051	-0.189	0.114
-500.653	332.678	-0.065	0.125
-499.639	-200.000	-0.065	0.510
-498.624	399.347	-0.014	0.030
-497.610	800.000	0.024	-0.087
-496.595	74.552	-0.101	0.106
-495.581	-79.652	0.258	0.087
-494.566	-126.144	0.284	0.043
-493.551	110.104	-0.191	0.230
-492.537	-200.000	-0.015	0.103
-491.522	800.000	0.045	-0.145
-490.508	127.387	0.090	0.115
-489.493	-200.000	-0.003	0.065
-488.478	-35.667	-0.187	0.101
-487.464	4.602	0.084	-0.061
-486.449	-55.908	0.145	-0.064
-485.435	800.000	-0.033	-0.098
-484.420	308.752	-0.157	-0.294
-483.405	344.813	-0.092	-0.181
-482.391	684.320	0.119	0.311
-481.376	-145.164	0.305	-0.028
-480.362	32.816	-0.163	0.141
-479.347	426.032	0.052	0.111
-478.332	49.384	-0.178	-0.167
-477.318	66.773	0.166	-0.168
-476.303	-67.200	-0.147	-0.058
-475.289	-122.005	0.071	-0.012
-474.274	-121.027	-0.172	-0.029
-473.259	85.883	0.074	0.081
-472.245	-50.539	0.355	0.167
-471.230	-193.447	0.201	0.002
-470.216	-40.949	-0.319	-0.165
-469.201	-119.411	0.101	-0.018
-468.186	-34.428	0.116	0.063
-467.172	-200.000	-0.000	0.137
-466.157	-10.954	-0.424	-0.280
-465.143	-0.236	-0.165	-0.117
-464.128	-200.000	-0.040	0.249
-463.113	220.143	0.114	0.183
-462.099	615.037	-0.047	-0.118
-461.084	56.074	-0.276	-0.268
-460.070	383.637	0.052	-0.106
-459.055	602.041	0.186	-0.461
-458.040	39.935	0.249	-0.223
-457.026	-200.000	-0.012	0.307
-456.011	56.132	0.080	-0.078
-454.997	-130.980	-0.505	0.067
-453.982	-28.526	0.098	0.056
-452.968	35.486	0.214	0.188
-451.953	-102.985	0.077	-0.018
-450.938	-14.389	0.492	-0.316
-449.924	800.000	0.059	0.207
-448.909	1.472	0.065	0.046
-447.895	800.000	0.085	-0.259
-446.880	224.789	0.157	-0.253
-445.865	84.796	-0.092	-0.101
-444.851	-200.000	-0.034	0.508
-443.836	21.354	-0.183	-0.148
-442.822	-93.533	0.114	-0.031
-441.807	-200.000	0.044	-0.203
-440.792	-200.000	0.010	-0.063
-439.778	800.000	-0.041	0.118
-438.763	800.000	-0.017	0.051
-437.749	-200.000	0.063	0.425
-436.734	-54.763	0.285	-0.128
-435.719	199.187	-0.023	0.036
-434.705	-85.659	-0.183	-0.057
-433.690	-200.000	-0.016	-0.230
-432.676	209.281	0.097	-0.152
-431.661	77.397	0.226	0.240
-430.646	-200.000	0.018	0.152
-429.632	-169.859	0.450	0.016
-428.617	-112.640	0.201	-0.040
-427.603	800.000	0.041	0.152
-426.588	287.151	0.145	-0.262
-425.573	-130.004	0.276	0.038
-424.559	41.508	0.083	-0.075
-423.544	800.000	-0.083	0.252
-422.530	-29.731	0.039	0.022
-421.515	-200.000	-0.026	0.114
-420.500	-104.727	-0.202	0.046
-419.486	-112.551	-0.409	-0.081
-418.471	-142.658	0.434	0.042
-417.457	-118.376	-0.313	0.055
-416.442	-83.911	0.236	-0.075
-415.428	-200.000	0.019	0.138
-414.413	144.596	0.049	-0.065
-413.398	413.011	-0.134	-0.284
-412.384	-200.000	-0.062	0.364
-411.369	-200.000	-0.058	0.345
-410.355	-200.000	-0.009	0.175
-409.340	-73.362	0.238	0.087
-408.325	59.458	0.347	-0.340
-407.311	-77.620	0.213	-0.074
-406.296	-200.000	0.016	0.115
-405.282	646.526	-0.077	-0.196
-404.267	-200.000	0.003	-0.282
-403.252	-39.125	-0.268	-0.140
-402.238	-200.000	0.003	0.471
-401.223	157.046	-0.143	0.197
-400.209	77.038	-0.098	-0.103
-399.194	-200.000	0.051	0.254
-398.179	-135.066	-0.337	0.040
-397.165	-91.382	-0.207	-0.059
-396.150	-117.380	-0.244	-0.044
-395.136	-200.000	0.007	-0.409
-394.121	229.956	-0.169	0.275
-393.106	-200.000	0.023	0.323
-392.092	-5.765	0.217	0.148
-391.077	109.092	0.231	-0.275
-390.063	-110.456	0.022	0.005
-389.048	333.153	0.093	0.180
-388.033	-200.000	-0.024	0.132
-387.019	-40.141	-0.203	0.105
-386.004	-200.000	-0.004	0.493
-384.990	250.748	-0.138	-0.233
-383.975	346.331	-0.061	0.120
-382.960	-163.221	0.048	-0.002
-381.946	800.000	-0.026	0.100
-380.931	-47.942	0.045	-0.022
-379.917	-58.865	-0.313	0.135
-378.902	12.187	-0.156	0.120
-377.888	-169.411	-0.217	-0.008
-376.873	-200.000	0.015	0.144
-375.858	800.000	-0.052	0.183
-374.844	77.262	-0.058	-0.062
-373.829	-200.000	-0.012	0.098
-372.815	-77.323	0.442	0.153
-371.800	800.000	-0.049	0.169
-370.785	121.254	-0.123	-0.152
-369.771	-44.884	-0.064	0.032
-368.756	-2.762	-0.269	0.187
-367.742	-127.987	0.195	0.028
-366.727	108.192	0.107	-0.127
-365.712	412.146	-0.189	-0.399
-364.698	-149.480	-0.168	-0.013
-363.683	52.475	0.072	-0.068
-362.669	82.021	0.169	0.182
-361.654	-200.000	0.004	-0.304
-360.639	36.663	-0.223	0.196
-359.625	-200.000	-0.033	0.225
-358.610	-200.000	0.008	-0.113
-357.596	34.098	-0.080	0.070
-356.581	-3.219	0.230	-0.159
-355.566	-68.342	-0.147	-0.057
-354.552	-200.000	-0.015	-0.085
-353.537	83.499	0.074	-0.080
-352.523	357.484	0.078	-0.154
-351.508	-97.547	-0.211	-0.054
-350.493	-71.315	0.132	-0.049
-349.479	800.000	-0.066	0.244
-348.464	59.090	-0.048	0.047
-347.450	-8.986	0.233	-0.155
-346.435	-150.319	0.154	0.012
-345.420	-130.928	-0.323	-0.043
-344.406	-97.639	0.100	-0.026
-343.391	654.067	0.035	0.090
-342.377	800.000	0.102	-0.293
-341.362	55.670	0.214	0.206
-340.348	-27.776	-0.473	0.273
-339.333	800.000	-0.065	0.222
-338.318	-154.345	0.310	-0.021
-337.304	800.000	-0.030	0.126
-336.289	-60.203	-0.489	-0.207
-335.275	-10.562	0.301	-0.198
-334.260	292.464	0.098	-0.178
-333.245	-92.251	0.143	-0.040
-332.231	800.000	-0.075	0.215
-331.216	-200.000	-0.011	-0.285
-330.202	-101.149	0.229	0.056
-329.187	639.748	0.133	-0.336
-328.172	-200.000	-0.036	-0.555
-327.158	486.945	0.135	-0.306
-326.143	-200.000	0.039	0.184
-325.129	800.000	-0.066	-0.211
-324.114	63.919	0.052	0.052
-323.099	-200.000	0.057	0.313
-322.085	264.973	0.097	-0.168
-321.070	328.930	-0.160	-0.305
-320.056	-40.915	-0.017	-0.009
-319.041	216.112	-0.045	0.071
-318.026	52.927	0.120	-0.114
-317.012	60.087	-0.176	0.173
-315.997	75.958	0.186	-0.195
-314.983	266.385	0.235	-0.408
-313.968	-200.000	0.042	0.317
-312.953	-42.782	-0.105	-0.053
-311.939	-92.317	-0.225	0.063
-310.924	-123.952	0.174	-0.027
-309.910	-18.683	0.362	-0.224
-308.895	-117.955	0.224	0.040
-307.880	800.000	-0.112	0.318
-306.866	-200.000	-0.020	0.573
-305.851	-9.808	0.121	-0.080
-304.837	398.627	-0.094	-0.196
-303.822	-105.812	-0.168	0.038
-302.807	4.275	0.189	0.137
-301.793	800.000	0.058	0.222
-300.778	-114.379	0.386	-0.074
-299.764	107.781	-0.238	0.281
-298.749	7.969	-0.166	-0.124
-297.735	-200.000	0.021	0.417
-296.720	-35.264	-0.274	0.148
-295.705	4.696	-0.195	0.142
-294.691	-74.518	0.165	-0.059
-293.676	-17.530	0.158	-0.098
-292.662	-112.810	0.288	-0.057
-291.647	41.819	-0.121	0.109
-290.632	2.766	0.076	-0.055
-289.618	156.214	-0.251	0.343
-288.603	-115.116	0.127	0.024
-287.589	-92.880	0.297	0.082
-286.574	-83.408	-0.133	0.042
-285.559	-72.285	-0.012	0.004
-284.545	-200.000	0.003	-0.137
-283.530	-103.274	-0.227	-0.053
-282.516	800.000	-0.016	-0.061
-281.501	-85.686	-0.111	-0.034
-280.486	206.122	0.099	-0.153
-279.472	-27.973	-0.044	-0.025
-278.457	-164.780	-0.287	-0.013
-277.443	353.364	0.089	0.175
-276.428	-54.094	0.282	0.127
-275.413	238.164	-0.135	-0.222
-274.399	189.108	0.083	-0.124
-273.384	0.959	-0.080	0.056
-272.370	206.781	-0.064	-0.099
-271.355	220.316	0.275	-0.437
-270.340	-97.958	-0.226	-0.058
-269.326	54.833	0.121	0.115
-268.311	800.000	-0.085	0.241
-267.297	-114.411	0.468	0.089
-266.282	-200.000	-0.053	-0.290
-265.267	176.791	0.159	0.230
-264.253	-177.061	-0.313	-0.008
-263.238	407.282	-0.014	-0.030
-262.224	800.000	0.060	-0.183
-261.209	-200.000	0.020	-0.202
-260.195	763.188	-0.051	0.138
-259.180	-197.126	0.197	-0.001
-258.165	401.689	0.096	-0.200
-257.151	159.651	-0.144	0.198
-256.136	-23.567	0.191	0.114
-255.122	-65.896	-0.077	0.030
-254.107	-141.435	0.194	0.019
-253.092	89.110	0.115	0.127
-252.078	-68.104	0.160	0.062
-251.063	215.384	0.136	-0.214
-250.049	800.000	-0.117	-0.368
-249.034	10.542	-0.055	-0.041
-248.019	-200.000	0.011	0.082
-247.005	415.104	0.098	0.207
-245.990	224.928	0.090	0.144
-244.976	79.783	0.168	0.179
-243.961	-97.221	-0.079	-0.021
-242.946	-134.278	-0.323	0.039
-241.932	-57.526	-0.095	-0.041
-240.917	800.000	-0.064	-0.260
-239.903	11.157	0.168	0.127
-238.888	-12.624	-0.208	-0.134
-237.873	-134.448	-0.073	-0.009
-236.859	-67.853	-0.394	-0.152
-235.844	800.000	-0.087	-0.275
-234.830	800.000	-0.073	0.305
-233.815	-64.893	0.312	0.125
-232.800	-177.487	0.328	0.008
-231.786	-122.701	-0.489	0.078
-230.771	800.000	0.110	0.368
-229.757	90.197	0.143	0.158
-228.742	204.261	0.112	0.171
-227.727	-116.046	-0.382	-0.070
-226.713	481.872	-0.106	-0.238
-225.698	132.038	0.059	0.075
-224.684	800.000	-0.045	-0.167
-223.669	212.837	-0.135	0.211
-222.655	-18.414	0.124	0.077
-221.640	321.687	0.204	-0.385
-220.625	214.833	-0.072	-0.113
-219.611	-60.470	-0.253	-0.106
-218.596	746.144	-0.017	0.047
-217.582	-28.971	0.126	0.071
-216.567	-37.822	-0.138	0.073
-215.552	-165.512	0.080	-0.003
-214.538	-44.265	-0.115	-0.057
-213.523	4.245	0.146	-0.106
-212.509	-200.000	-0.005	-0.254
-211.494	-200.000	0.005	-0.033
-210.479	-95.797	0.077	0.020
-209.465	-79.170	-0.236	0.079
-208.450	-60.858	-0.070	0.029
-207.436	-66.183	-0.152	0.060
-206.421	-173.755	-0.245	0.007
-205.406	-200.000	0.007	0.326
-204.392	40.460	-0.103	-0.092
-203.377	-159.051	0.267	0.015
-202.363	800.000	-0.039	0.119
-201.348	54.571	0.303	0.289
-200.333	-146.716	-0.358	-0.031
-199.319	-173.435	-0.076	-0.002
-198.304	800.000	0.036	0.134
-197.290	7.502	0.597	-0.441
-196.275	-200.000	-0.024	-0.293
-195.260	800.000	0.045	0.159
-194.246	201.645	-0.204	-0.311
-193.231	98.690	-0.029	0.033
-192.217	-62.733	-0.313	-0.128
-191.202	-53.491	0.177	-0.080
-190.187	63.007	0.303	0.300
-189.173	70.869	-0.082	0.083
-188.158	-135.346	0.183	0.022
-187.144	-172.755	0.215	0.007
-186.129	-11.578	0.183	-0.119
-185.114	46.767	0.180	-0.166
-184.100	-200.000	-0.015	-0.114
-183.085	-112.118	0.050	-0.010
-182.071	-200.000	0.029	-0.192
-181.056	-78.355	0.645	0.218
-180.042	616.794	0.072	-0.177
-179.027	-10.554	0.201	-0.132
-178.012	-81.513	-0.402	0.130
-176.998	800.000	0.043	0.154
-175.983	-200.000	-0.021	0.193
-174.969	-5.102	-0.315	0.214
-173.954	-130.089	0.312	-0.042
-172.939	-122.094	0.256	-0.041
-171.925	800.000	0.064	0.251
-170.910	56.090	0.113	0.108
-169.896	59.405	0.192	0.187
-168.881	163.135	0.008	0.012
-167.866	-200.000	0.032	0.217
-166.852	-25.327	0.036	0.021
-165.837	-71.025	-0.092	-0.034
-164.823	223.562	0.170	-0.271
-163.808	49.263	0.114	0.106
-162.793	75.974	-0.135	0.141
-161.779	366.489	-0.176	0.351
-160.764	-92.327	-0.333	0.093
-159.750	12.018	-0.365	-0.277
-158.735	31.767	-0.308	-0.261
-157.720	-200.000	-0.032	0.296
-156.706	-125.799	-0.270	0.040
-155.691	-200.000	0.063	0.309
-154.677	143.795	-0.236	0.310
-153.662	27.174	0.156	-0.129
-152.647	44.402	-0.337	-0.305
-151.633	-200.000	0.004	0.118
-150.618	54.220	0.189	0.180
-149.604	-200.000	0.054	0.240
-148.589	-200.000	-0.013	-0.189
-147.574	800.000	0.085	-0.305
-146.560	4.379	0.331	-0.239
-145.545	47.155	0.028	0.026
-144.531	-67.041	-0.255	-0.099
-143.516	-67.077	0.286	-0.111
-142.502	24.464	0.131	0.107
-141.487	-200.000	0.038	-0.169
-140.472	-11.381	-0.134	0.087
-139.458	776.463	0.011	-0.029
-138.443	75.119	0.267	0.277
-137.429	-200.000	0.003	0.015
-136.414	800.000	0.143	-0.395
-135.399	-50.377	0.215	0.100
-134.385	-200.000	-0.037	0.350
-133.370	-15.598	0.245	-0.154
-132.356	-200.000	0.025	0.442
-131.341	222.227	-0.095	-0.151
-130.326	-57.703	0.306	0.132
-129.312	-1.177	0.114	0.079
-128.297	800.000	0.109	0.337
-127.283	-200.000	0.092	-0.541
-126.268	88.166	0.138	0.151
-125.253	-83.514	0.458	-0.144
-124.239	235.653	0.061	0.099
-123.224	-198.100	-0.318	-0.002
-122.210	-81.462	0.195	-0.063
-121.195	-10.373	0.076	0.049
-120.180	-65.774	0.454	0.179
