DTS Sentinel unit serial number:	SN413079Multiplexer serial number:	ORYXHardware model number:	OX4-SRSoftware version number:	ORYX F/W v4.00 Oryx Data Collector v3.7.2.0data status	okinstallation	princeton_trtdifferential loss correction	single-endedforward channel	channel 1reverse channel	N/Adate	2019/09/15time	15:50:35forward acquisition time	60.00reverse acquisition time	0.00gamma	496.2192k internal	0.2291k external	0.2291temperature offset calibration	0.9941default loss term (dB/km)	0.3790temperature slope calibration	1.0000multiplexer offset coefficient	1.0000multiplexer slope coefficient	1.0000fibre end	0.00T internal ref (°C)	42.19T ext. ref 1 (°C)	5.25T ext. ref 2 (°C)	40.27length (m)	temperature (°C)	Stokes	anti-Stokes-747.200	800.000	0.104	-0.353
-746.185	-94.590	0.254	0.071
-745.171	182.512	0.075	-0.113
-744.156	-200.000	0.026	0.127
-743.142	-6.898	-0.332	-0.231
-742.127	-97.556	-0.474	0.126
-741.112	172.313	-0.162	0.239
-740.098	63.087	0.104	0.106
-739.083	-200.000	0.004	-0.303
-738.069	69.065	-0.066	-0.069
-737.054	-66.747	0.128	0.052
-736.039	207.018	-0.145	-0.231
-735.025	508.946	-0.109	0.260
-734.010	-70.323	-0.285	0.111
-732.996	-65.351	-0.516	-0.213
-731.981	-16.235	-0.093	-0.061
-730.966	800.000	-0.052	0.149
-729.952	-200.000	-0.002	-0.164
-728.937	653.758	-0.102	0.269
-727.923	-20.291	-0.234	0.147
-726.908	800.000	0.056	-0.248
-725.894	-30.003	-0.196	-0.114
-724.879	-14.655	-0.279	-0.183
-723.864	-121.212	-0.463	-0.079
-722.850	293.070	0.093	-0.173
-721.835	-200.000	-0.017	-0.106
-720.821	343.150	-0.131	-0.263
-719.806	39.136	-0.064	0.058
-718.791	50.976	-0.381	0.369
-717.777	-47.062	-0.252	-0.126
-716.762	-39.996	-0.361	-0.192
-715.748	175.466	0.125	-0.185
-714.733	454.794	0.026	-0.058
-713.718	800.000	0.173	-0.492
-712.704	43.089	0.061	-0.057
-711.689	41.829	-0.154	0.143
-710.675	-19.310	0.178	-0.113
-709.660	-84.052	-0.288	-0.094
-708.645	-200.000	-0.037	-0.305
-707.631	-16.213	0.204	0.133
-706.616	-91.340	0.104	-0.030
-705.602	-40.238	0.186	0.099
-704.587	-58.848	0.162	0.072
-703.572	-200.000	-0.109	0.494
-702.558	132.591	0.254	0.335
-701.543	-115.541	0.319	-0.061
-700.529	-200.000	-0.003	-0.276
-699.514	274.964	-0.061	0.111
-698.499	13.246	-0.123	0.098
-697.485	800.000	-0.023	0.105
-696.470	-200.000	-0.030	-0.177
-695.456	46.220	-0.201	0.190
-694.441	-9.580	0.150	0.102
-693.426	323.523	-0.015	-0.029
-692.412	-200.000	-0.001	0.077
-691.397	185.333	-0.135	-0.204
-690.383	-26.445	0.211	-0.126
-689.368	24.454	-0.232	-0.196
-688.354	145.931	-0.144	-0.197
-687.339	-200.000	0.002	-0.054
-686.324	740.942	-0.053	-0.147
-685.310	296.919	-0.027	0.050
-684.295	-122.845	-0.130	0.022
-683.281	46.383	0.055	-0.052
-682.266	23.831	0.308	-0.259
-681.251	272.671	0.101	-0.182
-680.237	89.104	0.093	-0.106
-679.222	-20.516	-0.226	0.142
-678.208	-200.000	0.002	-0.076
-677.193	800.000	-0.074	-0.223
-676.178	-44.065	0.158	-0.081
-675.164	165.938	0.156	-0.226
-674.149	31.874	-0.209	0.184
-673.135	-200.000	-0.047	0.335
-672.120	-131.711	-0.242	-0.032
-671.105	351.639	-0.110	0.221
-670.091	86.906	0.364	0.411
-669.076	-200.000	-0.006	-0.269
-668.062	265.908	-0.072	0.128
-667.047	325.169	-0.071	-0.139
-666.032	-106.754	0.067	-0.015
-665.018	-34.441	0.119	0.067
-664.003	-66.152	0.278	0.113
-662.989	-142.440	-0.013	0.001
-661.974	-71.089	-0.186	-0.071
-660.959	-114.756	0.190	-0.037
-659.945	-200.000	0.023	-0.514
-658.930	23.128	0.149	-0.125
-657.916	-98.094	0.334	-0.088
-656.901	800.000	-0.048	-0.158
-655.886	84.178	-0.102	-0.113
-654.872	-200.000	0.008	0.215
-653.857	194.436	-0.089	0.138
-652.843	330.927	-0.071	-0.139
-651.828	77.666	0.045	-0.049
-650.814	-25.697	-0.140	0.084
-649.799	-33.763	-0.158	0.089
-648.784	24.555	-0.098	0.083
-647.770	-91.904	0.270	0.078
-646.755	800.000	-0.034	0.137
-645.741	98.406	-0.126	-0.148
-644.726	-170.625	-0.255	0.009
-643.711	-200.000	0.019	0.189
-642.697	-143.275	-0.256	0.025
-641.682	-24.283	-0.292	-0.178
-640.668	167.160	-0.285	0.412
-639.653	79.021	0.338	-0.369
-638.638	-112.390	-0.067	0.014
-637.624	800.000	-0.035	0.126
-636.609	-6.215	-0.145	-0.101
-635.595	-200.000	0.003	-0.138
-634.580	-41.711	-0.342	-0.179
-633.565	773.369	-0.114	-0.316
-632.551	-47.586	0.189	0.093
-631.536	-200.000	-0.040	-0.322
-630.522	4.893	0.237	-0.178
-629.507	-133.539	-0.136	0.017
-628.492	-200.000	0.005	-0.189
-627.478	-200.000	0.032	0.177
-626.463	-155.791	-0.360	0.023
-625.449	-7.979	-0.111	0.077
-624.434	-47.826	-0.137	-0.068
-623.419	-88.210	-0.307	0.094
-622.405	726.937	0.128	-0.348
-621.390	185.931	-0.076	-0.114
-620.376	85.845	-0.117	-0.131
-619.361	-200.000	0.075	-0.390
-618.346	495.240	-0.085	-0.198
-617.332	207.771	-0.055	0.088
-616.317	-151.046	-0.090	0.007
-615.303	-106.092	0.138	-0.032
-614.288	800.000	-0.038	0.165
-613.273	95.208	-0.191	0.222
-612.259	-5.533	0.161	0.113
-611.244	-70.280	-0.224	-0.086
-610.230	36.680	0.066	-0.059
-609.215	767.852	-0.118	-0.327
-608.201	-52.697	-0.234	-0.110
-607.186	-56.339	-0.194	0.088
-606.171	185.256	-0.074	0.112
-605.157	28.975	-0.192	-0.166
-604.142	800.000	-0.106	-0.318
-603.128	-200.000	-0.062	-0.294
-602.113	-200.000	0.000	-0.339
-601.098	-16.981	-0.026	0.016
-600.084	-200.000	0.004	-0.224
-599.069	234.967	-0.236	0.397
-598.055	96.587	-0.092	-0.107
-597.040	54.557	-0.132	0.130
-596.025	-10.877	-0.172	-0.116
-595.011	-25.972	0.005	-0.003
-593.996	-142.196	0.200	0.020
-592.982	155.342	0.113	-0.159
-591.967	-73.459	0.097	0.036
-590.952	231.446	-0.295	-0.493
-589.938	-200.000	0.024	0.239
-588.923	-169.928	0.062	-0.002
-587.909	339.193	-0.059	0.118
-586.894	-200.000	0.001	0.227
-585.879	432.458	-0.046	0.102
-584.865	181.162	0.177	-0.264
-583.850	-99.774	-0.155	-0.040
-582.836	-154.681	-0.184	0.012
-581.821	-130.226	0.156	0.022
-580.806	127.927	0.154	-0.200
-579.792	61.722	0.234	-0.237
-578.777	-190.221	0.227	-0.003
-577.763	-48.425	0.297	-0.146
-576.748	736.970	0.143	0.390
-575.733	-91.877	-0.082	-0.024
-574.719	-200.000	0.007	0.044
-573.704	-200.000	0.051	-0.475
-572.690	-200.000	0.002	-0.190
-571.675	-107.376	0.359	0.080
-570.661	-200.000	0.021	-0.163
-569.646	-84.657	-0.223	-0.071
-568.631	143.558	0.113	0.153
-567.617	-96.160	-0.058	-0.016
-566.602	-15.434	0.307	0.200
-565.588	-10.932	0.297	0.199
-564.573	-147.082	-0.270	-0.024
-563.558	396.738	-0.053	-0.112
-562.544	800.000	-0.040	-0.124
-561.529	21.346	-0.083	-0.068
-560.515	-44.447	0.050	0.026
-559.500	117.029	-0.170	0.212
-558.485	-200.000	-0.050	-0.283
-557.471	470.344	-0.020	-0.045
-556.456	14.362	-0.140	-0.111
-555.442	800.000	0.115	-0.362
-554.427	156.656	-0.074	0.105
-553.412	-26.176	-0.078	0.047
-552.398	-66.925	-0.219	-0.088
-551.383	-200.000	-0.056	-0.414
-550.369	323.510	-0.042	-0.082
-549.354	-163.005	0.113	-0.006
-548.339	-200.000	0.003	0.099
-547.325	-184.191	-0.144	-0.002
-546.310	-22.192	0.013	0.008
-545.296	-97.531	0.146	0.039
-544.281	-26.853	-0.446	-0.265
-543.266	-28.050	-0.049	-0.029
-542.252	-200.000	0.034	-0.190
-541.237	29.752	-0.231	-0.200
-540.223	61.962	-0.058	-0.058
-539.208	-160.236	-0.356	0.020
-538.193	36.834	-0.037	-0.033
-537.179	610.818	0.092	0.233
-536.164	-157.451	0.309	0.019
-535.150	-136.681	0.235	0.028
-534.135	-86.702	0.273	-0.085
-533.121	10.559	0.107	0.083
-532.106	429.025	-0.027	0.059
-531.091	235.104	0.108	-0.181
-530.077	-138.879	-0.212	0.023
-529.062	107.408	0.319	-0.385
-528.048	-125.920	-0.167	0.026
-527.033	-35.408	0.423	0.234
-526.018	-64.998	0.204	-0.084
-525.004	800.000	0.060	-0.228
-523.989	-110.107	-0.312	0.066
-522.975	148.688	-0.038	-0.052
-521.960	-12.000	-0.041	0.027
-520.945	-200.000	0.029	0.314
-519.931	154.523	0.236	0.329
-518.916	-53.585	0.210	0.098
-517.902	-200.000	0.024	-0.117
-516.887	-157.161	-0.177	0.011
-515.872	85.161	0.127	0.142
-514.858	-200.000	0.028	0.314
-513.843	14.509	0.114	0.091
-512.829	-200.000	0.005	0.172
-511.814	16.268	-0.033	-0.026
-510.799	0.560	-0.075	-0.054
-509.785	47.694	0.200	-0.189
-508.770	800.000	0.017	-0.066
-507.756	368.320	0.086	0.175
-506.741	-21.558	0.253	0.156
-505.726	734.154	-0.018	0.049
-504.712	13.496	0.179	0.141
-503.697	37.103	0.076	-0.069
-502.683	-63.181	-0.439	-0.184
-501.668	800.000	-0.098	-0.295
-500.653	-51.011	-0.152	0.072
-499.639	-134.432	-0.584	-0.073
-498.624	-164.084	0.375	0.018
-497.610	-117.257	-0.336	-0.062
-496.595	-200.000	-0.009	-0.040
-495.581	-200.000	-0.020	0.141
-494.566	-186.275	0.219	0.003
-493.551	-200.000	0.050	-0.388
-492.537	1.845	0.351	0.257
-491.522	-200.000	0.052	-0.527
-490.508	-200.000	-0.012	-0.393
-489.493	250.841	-0.216	0.372
-488.478	2.620	0.285	0.210
-487.464	-27.999	0.305	0.179
-486.449	-136.868	0.350	0.041
-485.435	10.482	0.231	-0.179
-484.420	-126.804	-0.051	-0.008
-483.405	-38.550	0.309	-0.166
-482.391	-64.148	-0.087	-0.036
-481.376	-100.983	0.209	-0.052
-480.362	-75.361	0.280	-0.101
-479.347	124.507	-0.130	0.166
-478.332	605.388	0.025	0.063
-477.318	-95.721	0.142	-0.039
-476.303	-140.558	-0.485	-0.051
-475.289	800.000	-0.042	0.128
-474.274	3.822	0.264	-0.195
-473.259	46.802	-0.136	0.128
-472.245	800.000	-0.061	0.171
-471.230	154.079	-0.047	-0.065
-470.216	-126.801	0.285	0.043
-469.201	504.569	0.077	0.181
-468.186	153.222	0.200	0.277
-467.172	-36.556	0.032	-0.018
-466.157	70.180	0.163	-0.170
-465.143	20.671	0.217	-0.178
-464.128	291.807	-0.014	-0.026
-463.113	208.425	-0.105	0.167
-462.099	-55.160	-0.128	-0.058
-461.084	-200.000	-0.031	-0.152
-460.070	66.685	0.214	0.221
-459.055	-39.810	-0.151	0.080
-458.040	333.690	-0.107	0.210
-457.026	800.000	0.070	0.275
-456.011	102.054	-0.189	0.223
-454.997	-46.608	-0.100	-0.050
-453.982	-200.000	-0.054	-0.420
-452.968	8.737	0.302	-0.231
-451.953	106.418	0.138	-0.166
-450.938	188.817	0.031	-0.047
-449.924	456.108	-0.022	-0.049
-448.909	631.548	-0.036	-0.093
-447.895	111.121	-0.097	0.119
-446.880	-115.512	-0.172	0.033
-445.865	-100.977	-0.252	0.062
-444.851	0.950	-0.291	0.211
-443.836	-130.856	0.119	-0.016
-442.822	800.000	0.088	0.256
-441.807	-19.253	-0.083	-0.052
-440.792	-69.494	0.182	-0.070
-439.778	-131.383	-0.327	0.044
-438.763	-44.665	0.166	0.084
-437.749	81.121	-0.097	0.106
-436.734	66.959	-0.198	-0.204
-435.719	-47.266	-0.360	0.177
-434.705	-36.503	-0.105	-0.057
-433.690	378.198	0.111	0.231
-432.676	40.011	0.200	-0.182
-431.661	185.547	-0.005	-0.007
-430.646	194.296	0.137	-0.210
-429.632	7.829	-0.363	-0.275
-428.617	-134.285	0.414	0.052
-427.603	-0.456	-0.240	-0.173
-426.588	-200.000	0.037	-0.229
-425.573	-101.366	-0.249	0.061
-424.559	-74.696	0.245	0.089
-423.544	218.939	-0.248	0.401
-422.530	-109.210	0.254	-0.055
-421.515	800.000	0.043	-0.186
-420.500	-37.391	0.358	-0.193
-419.486	-54.788	0.267	-0.122
-418.471	127.506	-0.068	-0.087
-417.457	-49.483	0.295	-0.142
-416.442	-158.650	0.071	0.004
-415.428	-73.834	0.182	0.067
-414.413	-1.010	0.092	0.066
-413.398	-149.019	-0.335	0.027
-412.384	-110.351	-0.107	-0.022
-411.369	19.696	-0.161	0.131
-410.355	-200.000	-0.023	0.164
-409.340	-143.756	0.149	0.014
-408.325	-175.186	0.158	0.004
-407.311	-69.279	-0.265	0.103
-406.296	13.609	0.190	-0.149
-405.282	-42.596	0.411	-0.211
-404.267	-58.362	0.305	0.134
-403.252	616.725	-0.063	-0.160
-402.238	-9.759	-0.030	0.020
-401.223	-22.592	0.065	-0.040
-400.209	112.629	-0.119	-0.146
-399.194	-151.373	0.355	0.027
-398.179	-66.840	0.268	-0.107
-397.165	-138.390	0.173	0.019
-396.150	123.727	-0.158	0.200
-395.136	240.597	-0.155	0.262
-394.121	800.000	-0.023	0.094
-393.106	470.186	-0.164	0.373
-392.092	80.124	-0.221	0.240
-391.077	-200.000	0.018	0.129
-390.063	-45.139	0.165	-0.083
-389.048	800.000	0.122	0.352
-388.033	800.000	-0.110	-0.359
-387.019	-121.171	0.149	0.025
-386.004	-200.000	-0.043	0.245
-384.990	-200.000	0.016	0.085
-383.975	-200.000	0.010	-0.184
-382.960	536.408	0.136	0.326
-381.946	93.583	-0.117	-0.134
-380.931	-200.000	0.064	0.307
-379.917	408.050	-0.123	0.263
-378.902	-200.000	0.006	0.110
-377.888	45.145	0.134	0.125
-376.873	-124.940	0.139	-0.022
-375.858	800.000	0.060	0.264
-374.844	-200.000	-0.049	0.228
-373.829	165.642	-0.044	0.063
-372.815	63.673	0.302	-0.306
-371.800	-128.943	0.342	-0.048
-370.785	104.471	0.065	0.078
-369.771	-134.892	0.203	-0.025
-368.756	-63.786	0.224	-0.092
-367.742	-171.989	0.087	-0.003
-366.727	-83.790	0.140	0.045
-365.712	330.999	0.042	0.081
-364.698	-99.958	-0.245	0.062
-363.683	800.000	0.076	0.260
-362.669	-50.971	-0.199	-0.094
-361.654	147.838	0.081	0.110
-360.639	22.140	0.056	0.046
-359.625	-110.667	-0.138	-0.029
-358.610	800.000	0.052	-0.221
-357.596	228.914	-0.325	-0.534
-356.581	167.035	0.122	-0.175
-355.566	624.883	-0.086	0.219
-354.552	39.202	-0.332	-0.299
-353.537	-200.000	-0.043	0.293
-352.523	-30.588	-0.205	-0.117
-351.508	24.294	-0.141	-0.117
-350.493	155.704	0.186	0.258
-349.479	-29.240	-0.345	0.200
-348.464	-200.000	0.016	0.125
-347.450	26.827	0.140	0.118
-346.435	127.472	-0.073	0.094
-345.420	-58.541	-0.162	-0.071
-344.406	-6.535	-0.198	-0.136
-343.391	-86.208	0.241	0.075
-342.377	-10.930	0.089	0.059
-341.362	697.442	-0.051	0.135
-340.348	475.936	0.128	-0.291
-339.333	25.991	-0.115	-0.097
-338.318	-76.644	0.128	0.045
-337.304	-200.000	-0.023	-0.103
-336.289	225.829	0.131	0.213
-335.275	800.000	0.067	0.257
-334.260	800.000	-0.013	-0.046
-333.245	78.078	0.184	0.198
-332.231	800.000	0.063	0.219
-331.216	524.168	-0.029	-0.069
-330.202	-73.490	-0.057	0.021
-329.187	223.208	-0.119	0.193
-328.172	150.416	-0.026	0.036
-327.158	-200.000	0.014	-0.256
-326.143	-97.640	-0.382	-0.100
-325.129	-28.812	-0.109	-0.063
-324.114	41.142	-0.077	0.070
-323.099	-180.352	-0.204	0.004
-322.085	-87.119	0.247	0.076
-321.070	800.000	-0.110	-0.467
-320.056	-200.000	0.004	0.158
-319.041	-200.000	-0.035	-0.222
-318.026	-200.000	-0.032	-0.143
-317.012	800.000	-0.057	0.192
-315.997	-136.374	0.297	-0.035
-314.983	-75.987	0.182	-0.065
-313.968	-200.000	0.005	-0.084
-312.953	-108.451	-0.250	0.054
-311.939	-17.572	0.253	0.160
-310.924	-117.248	-0.053	-0.010
-309.910	122.998	0.134	0.169
-308.895	-200.000	-0.044	0.311
-307.880	63.524	-0.291	-0.294
-306.866	-200.000	-0.069	-0.314
-305.851	-56.286	-0.251	-0.112
-304.837	-200.000	0.003	-0.120
-303.822	215.219	-0.166	-0.265
-302.807	267.522	-0.184	0.325
-301.793	-43.005	-0.134	0.069
-300.778	350.535	0.191	0.379
-299.764	56.904	0.131	0.129
-298.749	197.322	0.026	0.040
-297.735	-137.244	0.134	-0.015
-296.720	-115.978	0.086	-0.016
-295.705	-200.000	-0.055	0.317
-294.691	-200.000	-0.003	0.105
-293.676	14.833	0.057	0.045
-292.662	-138.981	-0.076	0.008
-291.647	726.725	0.105	0.282
-290.632	-200.000	0.006	-0.149
-289.618	-200.000	-0.019	-0.129
-288.603	543.765	-0.103	-0.248
-287.589	-200.000	-0.048	-0.221
-286.574	232.218	-0.086	-0.142
-285.559	800.000	-0.096	0.348
-284.545	-55.338	-0.300	0.136
-283.530	-69.466	-0.043	0.017
-282.516	338.305	0.077	-0.151
-281.501	-140.515	0.012	-0.001
-280.486	127.482	0.186	-0.238
-279.472	800.000	-0.108	0.322
-278.457	26.814	0.041	0.035
-277.443	-115.427	0.105	-0.020
-276.428	-200.000	-0.036	0.179
-275.413	-96.203	-0.063	-0.017
-274.399	-109.171	0.342	-0.073
-273.384	-200.000	-0.003	0.019
-272.370	280.559	-0.162	0.290
-271.355	-200.000	-0.019	0.132
-270.340	800.000	0.044	-0.188
-269.326	-200.000	0.014	0.303
-268.311	800.000	-0.028	0.118
-267.297	-60.116	-0.079	-0.034
-266.282	-99.564	-0.384	-0.097
-265.267	-53.753	0.190	0.087
-264.253	-158.059	-0.201	0.012
-263.238	-85.230	0.128	-0.040
-262.224	-22.287	0.302	0.184
-261.209	800.000	-0.029	-0.117
-260.195	54.831	-0.133	-0.129
-259.180	263.917	0.071	-0.124
-258.165	-119.145	0.308	-0.054
-257.151	-81.291	-0.112	0.037
-256.136	-73.066	0.168	-0.062
-255.122	-200.000	0.011	-0.152
-254.107	800.000	-0.031	-0.110
-253.092	112.913	0.139	0.170
-252.078	-16.263	0.225	0.143
-251.063	-20.409	-0.373	0.231
-250.049	-200.000	-0.015	-0.243
-249.034	-112.995	0.338	-0.067
-248.019	209.805	0.104	0.164
-247.005	-200.000	0.002	-0.110
-245.990	-200.000	0.017	-0.272
-244.976	36.416	-0.140	-0.124
-243.961	800.000	0.004	0.014
-242.946	800.000	0.094	0.267
-241.932	339.855	-0.109	-0.212
-240.917	-187.911	-0.209	-0.003
-239.903	-46.563	-0.085	0.042
-238.888	-120.695	0.146	-0.025
-237.873	137.728	0.191	0.251
-236.859	291.063	-0.146	0.267
-235.844	510.459	-0.088	0.205
-234.830	-200.000	-0.022	-0.295
-233.815	291.745	0.072	0.131
-232.800	-200.000	-0.022	0.151
-231.786	800.000	-0.059	0.253
-230.771	309.929	-0.201	-0.377
-229.757	436.925	-0.104	-0.227
-228.742	-96.616	-0.451	0.119
-227.727	71.625	0.035	0.037
-226.713	-102.159	0.262	0.063
-225.698	-200.000	-0.055	0.417
-224.684	-200.000	-0.036	-0.193
-223.669	12.621	-0.208	-0.161
-222.655	124.071	0.114	0.144
-221.640	123.143	-0.190	-0.239
-220.625	-200.000	0.085	-0.376
-219.611	-37.684	0.309	0.165
-218.596	42.969	0.185	0.169
-217.582	-156.554	-0.298	-0.019
-216.567	425.133	0.150	-0.325
-215.552	-200.000	0.045	0.554
-214.538	-200.000	-0.042	0.354
-213.523	252.279	0.243	-0.416
-212.509	78.450	0.234	-0.250
-211.494	22.912	-0.120	-0.098
-210.479	800.000	-0.012	0.045
-209.465	127.999	-0.067	-0.086
-208.450	-25.664	0.060	-0.035
-207.436	-200.000	0.002	-0.396
-206.421	-200.000	-0.006	-0.097
-205.406	48.179	-0.177	-0.166
-204.392	72.478	-0.272	-0.285
-203.377	6.372	0.270	0.201
-202.363	-56.417	0.332	0.148
-201.348	-39.279	0.146	-0.077
-200.333	-114.204	-0.245	0.047
-199.319	-73.943	-0.124	-0.045
-198.304	312.976	0.086	-0.162
-197.290	63.623	0.096	0.097
-196.275	-30.831	-0.170	-0.096
-195.260	108.326	0.199	0.238
-194.246	-99.481	0.298	-0.075
-193.231	193.516	0.116	0.176
-192.217	58.677	0.232	-0.228
-191.202	188.756	-0.092	0.138
-190.187	-30.060	0.256	0.146
-189.173	-110.044	0.194	-0.041
-188.158	-200.000	-0.046	-0.297
-187.144	-152.141	0.139	0.010
-186.129	-60.105	-0.280	-0.120
-185.114	39.482	0.248	0.223
-184.100	307.996	-0.058	0.108
-183.085	-34.214	0.383	0.211
-182.071	800.000	-0.064	-0.217
-181.056	3.099	0.048	-0.035
-180.042	292.718	0.097	0.178
-179.027	-200.000	0.041	0.273
-178.012	165.648	-0.180	0.255
-176.998	135.402	-0.148	0.193
-175.983	-109.777	-0.197	-0.042
-174.969	-16.398	-0.270	-0.171
-173.954	48.019	-0.218	-0.204
-172.939	-200.000	-0.005	0.031
-171.925	-114.444	-0.114	0.022
-170.910	4.370	-0.140	-0.103
-169.896	-26.383	0.201	-0.118
-168.881	6.037	-0.112	0.083
-167.866	240.194	0.023	-0.038
-166.852	290.217	-0.130	0.236
-165.837	152.940	0.100	0.137
-164.823	800.000	0.094	0.271
-163.808	738.742	0.105	-0.282
-162.793	-21.475	0.172	-0.105
-161.779	438.362	-0.116	0.253
-160.764	280.905	-0.039	-0.071
-159.750	-200.000	-0.020	0.156
-158.735	-200.000	-0.004	0.234
-157.720	123.708	-0.153	-0.192
-156.706	-200.000	-0.023	0.187
-155.691	-58.217	-0.170	0.074
-154.677	-200.000	0.016	0.168
-153.662	-70.944	0.023	-0.009
-152.647	-200.000	0.003	0.373
-151.633	33.073	-0.295	0.256
-150.618	366.146	-0.030	-0.061
-149.604	52.102	0.330	-0.315
-148.589	-149.795	0.326	-0.026
-147.574	-53.103	0.046	-0.021
-146.560	341.173	-0.119	-0.232
-145.545	-200.000	0.028	0.310
-144.531	-100.692	-0.192	0.047
-143.516	-105.226	0.195	0.045
-142.502	-200.000	-0.020	0.097
-141.487	-96.195	-0.182	-0.048
-140.472	-66.030	-0.221	-0.088
-139.458	60.750	-0.032	-0.032
-138.443	-115.603	0.270	0.051
-137.429	45.769	-0.074	0.068
-136.414	-200.000	0.026	0.200
-135.399	-18.289	-0.263	0.165
-134.385	800.000	-0.098	0.274
-133.370	-25.932	-0.150	0.088
-132.356	-158.122	0.069	-0.004
-131.341	-200.000	-0.151	-0.000
-130.326	123.078	0.128	-0.160
-129.312	276.613	-0.076	-0.136
-128.297	-142.498	0.225	0.022
-127.283	165.603	0.080	0.113
-126.268	300.001	-0.196	-0.361
-125.253	82.225	-0.034	-0.037
-124.239	425.100	0.042	0.089
-123.224	50.204	-0.331	-0.312
-122.210	-200.000	0.055	-0.360
