DTS Sentinel unit serial number:	SN413079Multiplexer serial number:	ORYXHardware model number:	OX4-SRSoftware version number:	ORYX F/W v4.00 Oryx Data Collector v3.7.2.0data status	okinstallation	princeton_trtdifferential loss correction	single-endedforward channel	channel 1reverse channel	N/Adate	2019/09/13time	10:22:35forward acquisition time	60.00reverse acquisition time	0.00gamma	496.2192k internal	0.2323k external	0.2323temperature offset calibration	1.0156default loss term (dB/km)	0.3790temperature slope calibration	1.0000multiplexer offset coefficient	1.0000multiplexer slope coefficient	1.0000fibre end	0.00T internal ref (°C)	30.94T ext. ref 1 (°C)	4.52T ext. ref 2 (°C)	28.24length (m)	temperature (°C)	Stokes	anti-Stokes-747.200	-48.442	0.383	-0.186
-746.185	-26.161	-0.391	-0.232
-745.171	286.930	0.056	0.103
-744.156	503.620	-0.149	0.349
-743.142	151.953	0.181	-0.249
-742.127	217.080	-0.103	0.165
-741.112	71.664	-0.129	-0.135
-740.098	95.835	-0.298	-0.344
-739.083	728.254	0.214	-0.577
-738.069	37.055	-0.100	0.090
-737.054	-68.031	0.211	-0.083
-736.039	107.345	-0.244	0.293
-735.025	34.620	0.107	0.094
-734.010	-11.963	-0.137	0.090
-732.996	106.093	-0.258	0.309
-731.981	-200.000	0.033	0.328
-730.966	-200.000	-0.036	-0.252
-729.952	-183.421	-0.116	-0.002
-728.937	-92.259	0.170	-0.048
-727.923	253.766	-0.077	0.133
-726.908	-113.821	-0.293	-0.058
-725.894	-65.412	0.126	0.051
-724.879	241.618	0.061	0.103
-723.864	-29.180	-0.070	-0.041
-722.850	-171.937	0.194	0.006
-721.835	800.000	0.028	0.095
-720.821	-68.336	-0.192	0.075
-719.806	1.822	-0.092	0.067
-718.791	-69.293	-0.545	0.211
-717.777	-90.993	-0.093	-0.027
-716.762	-200.000	-0.017	-0.229
-715.748	290.360	-0.165	-0.302
-714.733	213.546	0.075	0.120
-713.718	43.580	0.093	0.086
-712.704	-90.719	-0.286	0.083
-711.689	394.305	0.013	0.028
-710.675	105.448	-0.114	0.136
-709.660	-109.189	0.182	-0.039
-708.645	-46.656	-0.084	0.042
-707.631	-23.111	0.273	0.166
-706.616	-141.188	0.071	-0.007
-705.602	243.266	0.135	-0.228
-704.587	332.831	-0.028	-0.054
-703.572	800.000	0.050	-0.185
-702.558	271.346	-0.041	0.073
-701.543	57.012	0.235	-0.231
-700.529	3.631	-0.225	0.166
-699.514	-200.000	-0.028	0.205
-698.499	759.096	-0.146	0.400
-697.485	156.920	0.117	0.162
-696.470	34.584	0.170	0.150
-695.456	-79.449	0.028	-0.010
-694.441	60.608	-0.167	0.167
-693.426	103.230	0.102	-0.121
-692.412	-200.000	0.001	0.132
-691.397	-200.000	0.056	-0.274
-690.383	308.773	-0.159	0.299
-689.368	-92.831	-0.351	0.099
-688.354	27.531	-0.144	-0.122
-687.339	226.367	0.184	0.302
-686.324	-69.054	-0.310	-0.121
-685.310	-3.014	-0.115	0.081
-684.295	7.536	-0.423	0.319
-683.281	800.000	0.035	0.114
-682.266	-139.825	0.259	0.028
-681.251	-200.000	0.029	-0.201
-680.237	-200.000	0.027	-0.223
-679.222	150.129	-0.144	-0.197
-678.208	509.599	-0.034	-0.080
-677.193	750.991	-0.061	0.166
-676.178	-200.000	-0.007	-0.153
-675.164	-116.540	-0.371	-0.069
-674.149	-77.082	0.195	-0.069
-673.135	758.486	-0.059	-0.161
-672.120	-200.000	-0.009	-0.134
-671.105	-200.000	0.012	-0.100
-670.091	789.182	0.132	-0.366
-669.076	800.000	-0.076	-0.288
-668.062	-95.001	0.183	-0.050
-667.047	41.835	0.153	0.139
-666.032	-108.084	-0.370	0.081
-665.018	-62.907	-0.089	0.037
-664.003	790.732	0.043	0.118
-662.989	-6.708	-0.420	0.288
-661.974	-66.807	-0.041	0.016
-660.959	-108.193	-0.258	-0.056
-659.945	-63.565	0.157	-0.065
-658.930	-21.057	-0.111	-0.069
-657.916	-99.022	-0.430	0.110
-656.901	-70.825	-0.028	0.010
-655.886	-69.795	0.219	-0.084
-654.872	-65.334	-0.188	-0.076
-653.857	630.047	-0.074	-0.187
-652.843	128.140	0.108	-0.138
-651.828	-73.641	0.190	-0.070
-650.814	-108.075	-0.184	-0.040
-649.799	103.192	0.183	-0.216
-648.784	-35.448	0.076	0.042
-647.770	-40.378	-0.250	0.131
-646.755	-152.715	-0.221	0.016
-645.741	199.326	-0.089	0.137
-644.726	232.730	0.124	-0.206
-643.711	-200.000	-0.016	-0.217
-642.697	451.451	-0.240	-0.533
-641.682	-69.001	-0.219	-0.085
-640.668	77.508	-0.101	0.108
-639.653	-177.549	0.193	0.005
-638.638	-87.461	-0.322	-0.098
-637.624	51.389	0.178	0.170
-636.609	-106.355	0.160	-0.036
-635.595	219.629	-0.107	0.172
-634.580	305.927	-0.112	-0.210
-633.565	130.742	0.113	0.146
-632.551	120.039	0.297	-0.370
-631.536	-200.000	-0.004	-0.062
-630.522	800.000	0.094	0.287
-629.507	-107.691	-0.245	-0.054
-628.492	-10.276	-0.280	0.187
-627.478	483.143	-0.016	0.036
-626.463	-13.956	0.084	0.055
-625.449	-92.450	-0.140	-0.040
-624.434	78.915	0.278	-0.299
-623.419	-154.914	-0.128	0.008
-622.405	-91.845	0.085	-0.024
-621.390	-86.922	-0.367	0.113
-620.376	-147.310	-0.096	0.008
-619.361	-28.478	-0.413	0.239
-618.346	-64.961	-0.308	-0.125
-617.332	-200.000	-0.023	0.144
-616.317	-64.177	-0.249	-0.102
-615.303	17.081	0.199	-0.159
-614.288	95.082	-0.140	-0.161
-613.273	566.064	0.233	-0.567
-612.259	-200.000	0.013	-0.316
-611.244	-200.000	0.001	-0.171
-610.230	-159.071	-0.449	-0.026
-609.215	-200.000	-0.003	-0.142
-608.201	40.862	-0.119	-0.108
-607.186	-200.000	0.286	-0.001
-606.171	-114.021	0.067	0.013
-605.157	-138.082	-0.181	0.020
-604.142	-161.952	0.227	-0.012
-603.128	188.002	-0.088	0.132
-602.113	-200.000	-0.036	-0.202
-601.098	-114.453	-0.229	0.044
-600.084	570.340	0.101	0.246
-599.069	68.455	-0.108	0.111
-598.055	-158.184	-0.261	0.015
-597.040	-87.048	-0.147	0.045
-596.025	-12.708	0.313	0.205
-595.011	-63.336	-0.191	0.079
-593.996	-75.767	0.364	-0.130
-592.982	-77.060	-0.296	-0.104
-591.967	800.000	0.023	-0.070
-590.952	-85.370	-0.122	0.038
-589.938	-53.117	0.236	0.109
-588.923	-200.000	-0.015	-0.113
-587.909	800.000	-0.109	-0.313
-586.894	-200.000	0.021	0.186
-585.879	-200.000	0.015	0.382
-584.865	-169.122	0.470	0.018
-583.850	647.513	0.080	0.205
-582.836	-113.228	0.072	-0.014
-581.821	201.067	-0.108	0.167
-580.806	-31.601	-0.143	-0.081
-579.792	-200.000	0.001	0.110
-578.777	-37.926	-0.406	-0.216
-577.763	215.266	0.097	0.154
-576.748	800.000	-0.046	-0.149
-575.733	98.588	-0.083	0.096
-574.719	-92.917	-0.152	-0.043
-573.704	-107.980	-0.234	-0.051
-572.690	-200.000	-0.013	-0.070
-571.675	60.965	-0.130	0.129
-570.661	-19.094	-0.045	0.028
-569.646	-200.000	-0.036	-0.170
-568.631	-96.516	0.261	0.069
-567.617	98.382	0.059	0.068
-566.602	-40.404	-0.119	-0.062
-565.588	268.067	0.054	-0.094
-564.573	95.292	-0.231	0.264
-563.558	184.769	0.075	0.112
-562.544	-107.309	0.087	-0.019
-561.529	-67.274	-0.192	-0.076
-560.515	139.799	-0.103	-0.136
-559.500	-173.379	-0.202	0.006
-558.485	-122.519	-0.055	0.009
-557.471	61.635	0.092	0.092
-556.456	9.201	-0.069	0.052
-555.442	-200.000	0.044	-0.216
-554.427	-200.000	0.013	0.111
-553.412	442.684	0.120	0.265
-552.398	-18.200	-0.236	0.148
-551.383	-157.805	-0.223	0.013
-550.369	249.351	-0.036	-0.061
-549.354	29.953	-0.087	-0.075
-548.339	-200.000	0.044	0.273
-547.325	58.551	0.315	0.310
-546.310	-138.487	-0.269	0.030
-545.296	-200.000	0.006	0.056
-544.281	-65.413	0.333	0.134
-543.266	93.996	-0.184	0.209
-542.252	66.257	-0.048	-0.049
-541.237	20.708	0.076	-0.061
-540.223	10.528	0.247	0.188
-539.208	270.088	-0.092	-0.162
-538.193	-200.000	0.059	0.339
-537.179	-200.000	0.081	0.392
-536.164	298.364	-0.132	-0.244
-535.150	216.606	0.096	0.153
-534.135	59.522	0.141	0.139
-533.121	800.000	0.065	0.233
-532.106	25.125	0.344	0.286
-531.091	800.000	-0.045	-0.186
-530.077	-2.865	-0.035	-0.025
-529.062	-200.000	0.477	-0.001
-528.048	-69.586	-0.106	0.041
-527.033	-45.392	-0.214	0.106
-526.018	-77.196	-0.291	0.101
-525.004	171.318	0.270	0.388
-523.989	509.827	0.043	0.101
-522.975	-48.186	0.196	0.095
-521.960	-200.000	0.018	0.297
-520.945	51.279	-0.111	0.105
-519.931	517.174	-0.103	-0.242
-518.916	417.573	0.063	-0.134
-517.902	-29.028	-0.409	-0.235
-516.887	-26.985	0.298	0.174
-515.872	-95.494	-0.329	0.088
-514.858	51.601	-0.166	0.158
-513.843	-200.000	-0.008	0.127
-512.829	-107.748	-0.016	-0.004
-511.814	-200.000	-0.010	-0.158
-510.799	-44.861	-0.239	0.119
-509.785	96.199	-0.128	0.147
-508.770	-20.718	-0.188	-0.116
-507.756	-200.000	0.036	0.166
-506.741	-200.000	-0.014	0.262
-505.726	-104.393	0.160	-0.037
-504.712	-107.814	-0.089	-0.019
-503.697	-32.019	0.078	0.044
-502.683	88.638	0.157	0.175
-501.668	-200.000	0.001	0.079
-500.653	-72.737	0.147	-0.054
-499.639	49.909	0.299	0.282
-498.624	-95.417	-0.205	0.055
-497.610	-200.000	0.015	-0.105
-496.595	-60.555	0.292	0.124
-495.581	-183.663	0.218	-0.004
-494.566	135.413	-0.138	-0.179
-493.551	470.058	0.017	-0.038
-492.537	128.196	0.219	0.279
-491.522	-26.340	0.278	0.163
-490.508	387.270	-0.060	-0.124
-489.493	-200.000	0.039	-0.173
-488.478	-133.000	-0.327	-0.042
-487.464	109.597	0.191	0.229
-486.449	-43.722	-0.234	-0.118
-485.435	800.000	0.007	0.027
-484.420	-101.064	-0.088	-0.021
-483.405	55.451	0.259	-0.251
-482.391	-46.277	-0.239	-0.117
-481.376	301.797	-0.167	-0.308
-480.362	762.831	-0.060	-0.163
-479.347	-122.118	-0.100	0.016
-478.332	-86.036	-0.326	-0.101
-477.318	215.373	0.180	-0.286
-476.303	187.360	-0.059	0.088
-475.289	-146.321	0.362	-0.032
-474.274	-7.913	0.263	0.178
-473.259	-71.088	-0.187	-0.070
-472.245	-200.000	-0.023	0.151
-471.230	203.278	0.057	-0.087
-470.216	-68.712	0.386	-0.149
-469.201	-66.347	-0.285	-0.113
-468.186	-38.251	-0.003	0.002
-467.172	800.000	-0.017	0.051
-466.157	651.053	-0.043	0.110
-465.143	11.759	0.117	-0.090
-464.128	38.606	0.146	0.131
-463.113	-200.000	-0.015	0.147
-462.099	-99.407	-0.160	0.040
-461.084	-95.986	0.138	-0.037
-460.070	-71.057	0.229	0.086
-459.055	-200.000	0.326	0.001
-458.040	-54.410	-0.158	0.072
-457.026	611.742	-0.133	0.333
-456.011	-200.000	-0.023	-0.318
-454.997	-200.000	0.032	0.143
-453.982	-160.769	0.319	-0.017
-452.968	18.596	0.103	-0.082
-451.953	706.977	0.032	-0.086
-450.938	453.598	0.089	0.196
-449.924	-158.999	0.051	0.003
-448.909	17.562	-0.263	0.209
-447.895	-118.292	0.229	0.041
-446.880	-200.000	-0.275	0.001
-445.865	212.707	-0.227	-0.357
-444.851	-40.771	0.256	-0.133
-443.836	-175.820	0.085	0.002
-442.822	-127.566	-0.153	-0.022
-441.807	61.872	0.345	-0.343
-440.792	-154.091	0.098	0.007
-439.778	-102.147	-0.091	0.022
-438.763	523.729	-0.058	0.137
-437.749	92.568	-0.115	-0.129
-436.734	80.982	0.148	-0.159
-435.719	-116.287	0.521	-0.096
-434.705	-105.810	0.225	0.051
-433.690	73.646	0.235	0.246
-432.676	800.000	-0.032	0.108
-431.661	-119.974	-0.176	0.030
-430.646	79.406	0.100	0.107
-429.632	-51.750	0.260	-0.121
-428.617	-25.692	0.143	0.084
-427.603	173.702	-0.085	0.123
-426.588	-189.564	-0.233	-0.003
-425.573	-10.525	0.076	0.050
-424.559	-81.625	-0.161	0.053
-423.544	-184.291	-0.151	-0.002
-422.530	-200.000	0.038	-0.189
-421.515	-43.406	0.362	-0.183
-420.500	-122.534	-0.467	0.076
-419.486	-12.852	-0.292	0.189
-418.471	-164.530	0.046	-0.002
-417.457	-25.940	0.185	-0.109
-416.442	619.912	0.087	0.218
-415.428	-83.633	-0.247	-0.079
-414.413	-75.772	-0.167	0.059
-413.398	800.000	-0.025	-0.075
-412.384	71.225	-0.165	-0.170
-411.369	25.194	-0.079	0.066
-410.355	-129.429	-0.184	-0.025
-409.340	800.000	-0.127	-0.394
-408.325	110.260	-0.252	-0.302
-407.311	-141.771	0.112	-0.011
-406.296	474.340	0.080	0.180
-405.282	268.329	0.090	-0.156
-404.267	-163.478	-0.125	0.006
-403.252	330.116	-0.166	0.319
-402.238	53.774	0.185	-0.177
-401.223	-200.000	0.009	0.074
-400.209	130.401	-0.286	-0.365
-399.194	800.000	-0.102	0.344
-398.179	-75.684	-0.378	-0.134
-397.165	-70.565	-0.117	-0.044
-396.150	-91.450	0.369	0.105
-395.136	53.746	-0.212	-0.202
-394.121	-79.019	-0.130	0.044
-393.106	-145.717	-0.378	0.034
-392.092	738.063	0.070	0.186
-391.077	325.712	0.042	-0.080
-390.063	-6.335	0.209	0.142
-389.048	800.000	-0.077	0.289
-388.033	71.254	0.155	-0.160
-387.019	-52.630	-0.167	-0.077
-386.004	175.941	0.085	-0.123
-384.990	28.163	0.259	0.217
-383.975	-50.666	0.012	0.005
-382.960	-84.721	0.094	0.029
-381.946	-200.000	-0.085	-0.375
-380.931	-134.625	-0.344	0.042
-379.917	-153.028	-0.193	0.014
-378.902	528.844	-0.095	0.224
-377.888	-131.663	-0.322	0.042
-376.873	115.096	0.136	0.166
-375.858	611.799	0.050	-0.125
-374.844	-200.000	0.038	-0.269
-373.829	-51.260	-0.074	0.034
-372.815	-46.113	0.255	-0.125
-371.800	-55.393	-0.160	0.071
-370.785	-46.544	0.101	0.049
-369.771	289.984	-0.023	-0.041
-368.756	-38.014	-0.341	-0.180
-367.742	-1.298	0.207	-0.146
-366.727	138.545	-0.045	0.058
-365.712	49.331	0.324	-0.303
-364.698	267.476	0.091	-0.158
-363.683	-16.905	0.188	-0.118
-362.669	-200.000	0.023	-0.141
-361.654	-200.000	-0.017	0.293
-360.639	246.026	-0.059	0.099
-359.625	-32.572	0.335	0.186
-358.610	-140.164	-0.278	0.029
-357.596	322.460	0.191	0.362
-356.581	321.228	-0.170	-0.321
-355.566	-133.510	-0.106	0.013
-354.552	-3.971	0.044	-0.030
-353.537	73.266	0.083	-0.086
-352.523	-140.396	-0.159	0.017
-351.508	233.648	0.068	-0.111
-350.493	800.000	0.116	-0.432
-349.479	-94.883	-0.203	0.055
-348.464	704.500	-0.145	-0.380
-347.450	245.503	-0.144	0.241
-346.435	-72.672	0.339	-0.124
-345.420	79.710	0.170	0.181
-344.406	-159.331	0.189	-0.010
-343.391	164.458	-0.062	0.086
-342.377	800.000	-0.044	0.128
-341.362	-200.000	0.068	0.333
-340.348	21.113	-0.209	0.169
-339.333	-157.766	0.126	-0.007
-338.318	-200.000	-0.185	-0.001
-337.304	183.664	0.143	0.211
-336.289	-200.000	0.031	-0.157
-335.275	432.979	-0.096	-0.207
-334.260	-54.151	-0.381	-0.172
-333.245	-73.154	0.062	-0.023
-332.231	224.322	0.164	0.264
-331.216	285.039	0.081	0.145
-330.202	-200.000	-0.053	0.247
-329.187	-200.000	-0.038	0.199
-328.172	-200.000	0.025	0.138
-327.158	91.734	0.128	0.143
-326.143	-15.367	0.205	0.130
-325.129	-32.784	-0.331	0.183
-324.114	-28.884	-0.229	-0.131
-323.099	-47.846	0.321	-0.154
-322.085	800.000	-0.007	-0.021
-321.070	-70.870	0.228	0.085
-320.056	800.000	0.036	-0.149
-319.041	-200.000	-0.043	-0.265
-318.026	-17.385	0.152	-0.095
-317.012	800.000	0.056	0.179
-315.997	-126.936	-0.169	-0.025
-314.983	579.423	-0.151	-0.366
-313.968	800.000	0.077	-0.242
-312.953	122.127	-0.165	-0.205
-311.939	-13.149	-0.027	-0.017
-310.924	220.142	-0.269	0.427
-309.910	-95.636	-0.132	-0.035
-308.895	106.289	0.142	-0.167
-307.880	-129.001	0.185	0.026
-306.866	-65.853	-0.138	0.055
-305.851	-93.515	0.234	0.064
-304.837	-72.615	0.401	0.147
-303.822	-137.733	-0.126	-0.014
-302.807	-92.383	-0.131	-0.037
-301.793	-143.233	-0.142	0.014
-300.778	113.769	-0.239	-0.288
-299.764	82.245	0.108	0.116
-298.749	163.660	-0.144	0.202
-297.735	257.418	-0.052	-0.089
-296.720	132.536	-0.224	-0.287
-295.705	11.994	-0.212	-0.162
-294.691	-200.000	0.053	-0.230
-293.676	-119.230	0.292	-0.050
-292.662	294.014	-0.061	0.111
-291.647	800.000	0.020	0.057
-290.632	-80.293	-0.063	-0.021
-289.618	800.000	-0.068	0.192
-288.603	443.039	0.125	0.272
-287.589	-147.762	0.120	0.010
-286.574	-115.177	-0.106	0.020
-285.559	86.247	-0.045	-0.050
-284.545	-26.794	0.167	0.097
-283.530	-28.339	0.162	0.093
-282.516	-142.797	0.186	0.018
-281.501	231.228	0.089	-0.145
-280.486	24.191	0.125	-0.103
-279.472	-121.635	0.104	-0.017
-278.457	310.198	0.125	0.233
-277.443	-30.890	0.209	0.117
-276.428	263.109	-0.082	0.142
-275.413	-46.374	0.243	0.118
-274.399	-200.000	-0.040	-0.273
-273.384	-13.255	-0.329	-0.212
-272.370	-78.421	-0.099	-0.034
-271.355	209.538	-0.240	-0.373
-270.340	800.000	0.066	0.221
-269.326	15.256	0.178	-0.139
-268.311	-21.489	-0.041	-0.025
-267.297	-55.271	-0.276	0.123
-266.282	800.000	-0.046	-0.131
-265.267	32.198	-0.102	0.087
-264.253	-121.228	0.047	-0.008
-263.238	-200.000	0.011	-0.279
-262.224	-200.000	-0.014	0.198
-261.209	-119.526	-0.236	-0.041
-260.195	-200.000	-0.019	-0.101
-259.180	178.330	0.074	-0.106
-258.165	-104.283	0.277	0.064
-257.151	-63.900	-0.155	-0.063
-256.136	6.905	0.117	-0.086
-255.122	-26.048	0.089	-0.052
-254.107	-59.073	0.120	-0.051
-253.092	35.313	0.053	-0.046
-252.078	46.039	-0.146	-0.134
-251.063	800.000	0.004	0.016
-250.049	719.560	-0.053	-0.139
-249.034	-77.046	0.086	0.030
-248.019	406.504	-0.069	-0.144
-247.005	-200.000	-0.037	-0.219
-245.990	100.364	0.201	0.231
-244.976	-43.689	-0.250	0.125
-243.961	-200.000	-0.062	-0.358
-242.946	-200.000	-0.001	0.309
-241.932	474.218	-0.219	0.490
-240.917	-200.000	0.034	0.255
-239.903	-55.805	-0.194	0.086
-238.888	124.849	0.061	-0.076
-237.873	-163.318	-0.170	-0.008
-236.859	-138.570	-0.177	-0.019
-235.844	-160.639	-0.099	-0.005
-234.830	233.213	-0.216	-0.351
-233.815	-173.361	0.109	-0.003
-232.800	-2.862	0.033	-0.023
-231.786	-169.247	0.154	0.006
-230.771	-200.000	-0.002	0.074
-229.757	-166.987	0.176	0.007
-228.742	-200.000	-0.023	0.239
-227.727	361.917	-0.199	-0.395
-226.713	-200.000	-0.045	-0.276
-225.698	129.375	0.096	0.122
-224.684	31.040	0.053	-0.045
-223.669	638.552	0.121	-0.303
-222.655	200.612	0.107	0.163
-221.640	-200.000	-0.011	0.087
-220.625	-143.949	-0.326	0.030
-219.611	26.640	0.250	0.207
-218.596	-26.244	-0.341	-0.198
-217.582	30.721	0.294	-0.249
-216.567	156.654	0.222	0.303
-215.552	68.498	0.264	-0.268
-214.538	746.459	0.052	-0.140
-213.523	36.256	0.217	-0.189
-212.509	122.597	0.097	0.120
-211.494	-179.237	0.242	0.005
-210.479	111.146	-0.102	0.122
-209.465	-65.601	-0.102	-0.041
-208.450	16.201	0.194	0.151
-207.436	-200.000	-0.039	-0.221
-206.421	177.188	-0.109	-0.157
-205.406	117.237	-0.040	0.049
-204.392	-200.000	0.002	-0.022
-203.377	-72.343	0.239	0.087
-202.363	22.363	0.137	-0.111
-201.348	-64.617	0.082	0.033
-200.333	120.895	-0.073	-0.090
-199.319	671.954	-0.076	-0.196
-198.304	-54.034	0.130	-0.058
-197.290	-20.816	-0.223	-0.135
-196.275	567.335	-0.181	0.434
-195.260	7.868	0.124	0.092
-194.246	-11.290	0.106	0.069
-193.231	-200.000	0.030	-0.249
-192.217	800.000	-0.080	0.346
-191.202	50.928	-0.073	-0.069
-190.187	-174.443	-0.195	0.006
-189.173	-17.943	0.322	-0.199
-188.158	567.459	-0.083	0.199
-187.144	-139.198	0.144	-0.015
-186.129	-200.000	-0.012	-0.330
-185.114	151.013	0.182	-0.244
-184.100	-98.226	0.332	0.084
-183.085	168.409	-0.028	0.039
-182.071	62.358	0.296	-0.292
-181.056	12.520	0.183	0.140
-180.042	-85.694	-0.092	-0.028
-179.027	-101.716	0.068	0.016
-178.012	91.795	0.152	0.169
-176.998	800.000	-0.052	-0.187
-175.983	532.133	-0.074	-0.173
-174.969	-90.136	-0.219	-0.063
-173.954	201.621	0.079	-0.121
-172.939	2.437	-0.032	-0.023
-171.925	86.862	0.398	0.435
-170.910	-50.975	0.184	0.085
-169.896	-14.436	0.215	-0.136
-168.881	-48.856	-0.116	-0.055
-167.866	800.000	0.078	0.291
-166.852	173.212	-0.073	0.104
-165.837	-0.457	0.121	0.085
-164.823	146.412	-0.171	-0.227
-163.808	300.253	-0.019	-0.035
-162.793	71.215	0.177	-0.181
-161.779	-72.952	0.235	-0.085
-160.764	-200.000	-0.036	-0.162
-159.750	-48.179	0.237	0.113
-158.735	-200.000	-0.026	0.257
-157.720	-27.718	0.115	-0.066
-156.706	-125.353	0.190	0.029
-155.691	-42.046	0.201	0.102
-154.677	-200.000	0.022	0.210
-153.662	352.699	-0.115	0.225
-152.647	-178.028	-0.088	0.002
-151.633	206.087	0.043	0.067
-150.618	41.749	-0.018	0.016
-149.604	-200.000	0.031	-0.196
-148.589	172.379	0.031	-0.044
-147.574	73.679	-0.149	0.154
-146.560	216.215	0.152	0.239
-145.545	475.895	0.082	0.182
-144.531	302.180	0.105	0.191
-143.516	145.237	-0.172	-0.227
-142.502	147.029	-0.117	-0.155
-141.487	-182.773	-0.186	0.003
-140.472	-89.454	-0.360	-0.104
-139.458	50.822	0.066	-0.061
-138.443	288.447	-0.110	0.196
-137.429	6.173	-0.068	-0.050
-136.414	-128.511	-0.101	0.014
-135.399	-145.758	0.163	-0.014
-134.385	-27.146	-0.274	-0.157
-133.370	-123.441	0.295	0.046
-132.356	-159.291	-0.123	0.007
-131.341	54.948	0.087	-0.083
-130.326	800.000	-0.047	0.175
-129.312	-200.000	0.001	0.485
-128.297	-38.123	-0.317	0.166
-127.283	106.204	-0.182	-0.212
-126.268	-55.102	-0.130	0.058
-125.253	800.000	-0.033	-0.118
-124.239	-100.109	-0.377	-0.093
-123.224	-16.342	0.031	-0.019
-122.210	24.075	-0.059	0.048
-121.195	800.000	-0.041	-0.147
