DTS Sentinel unit serial number:	SN413079Multiplexer serial number:	ORYXHardware model number:	OX4-SRSoftware version number:	ORYX F/W v4.00 Oryx Data Collector v3.7.2.0data status	okinstallation	princeton_trtdifferential loss correction	single-endedforward channel	channel 1reverse channel	N/Adate	2019/09/10time	16:44:11forward acquisition time	60.00reverse acquisition time	0.00gamma	496.2192k internal	0.2301k external	0.2301temperature offset calibration	0.9919default loss term (dB/km)	0.3790temperature slope calibration	1.0000multiplexer offset coefficient	1.0000multiplexer slope coefficient	1.0000fibre end	0.00T internal ref (°C)	37.75T ext. ref 1 (°C)	-0.30T ext. ref 2 (°C)	30.67length (m)	temperature (°C)	Stokes	anti-Stokes-747.200	91.522	0.118	0.136
-746.185	800.000	-0.037	0.148
-745.171	-35.171	-0.287	-0.159
-744.156	82.229	-0.196	0.217
-743.142	-27.432	-0.155	-0.092
-742.127	-36.893	0.308	0.168
-741.112	-175.720	0.259	-0.007
-740.098	-200.000	-0.018	0.247
-739.083	269.692	-0.129	0.231
-738.069	424.671	0.167	0.365
-737.054	67.299	0.249	0.259
-736.039	215.013	0.056	0.091
-735.025	-72.649	0.102	0.038
-734.010	43.969	-0.163	0.152
-732.996	-61.197	0.050	-0.022
-731.981	11.840	-0.141	-0.110
-730.966	71.197	0.239	-0.252
-729.952	76.578	-0.217	-0.234
-728.937	-64.516	-0.214	0.089
-727.923	-119.983	-0.225	-0.039
-726.908	-200.000	0.007	-0.211
-725.894	1.536	-0.323	-0.237
-724.879	-30.177	0.244	-0.141
-723.864	573.866	-0.070	-0.175
-722.850	-83.836	-0.020	-0.007
-721.835	-77.230	-0.073	-0.026
-720.821	-160.731	-0.533	0.029
-719.806	-200.000	0.015	-0.399
-718.791	-122.801	-0.296	-0.049
-717.777	-87.017	0.241	0.075
-716.762	-108.447	0.046	-0.010
-715.748	-147.173	-0.238	0.021
-714.733	26.582	-0.196	-0.167
-713.718	-8.618	-0.056	0.038
-712.704	-200.000	0.000	-0.036
-711.689	-43.143	-0.309	-0.159
-710.675	800.000	-0.045	0.139
-709.660	2.498	0.286	-0.211
-708.645	113.458	0.210	0.259
-707.631	-8.956	-0.066	0.045
-706.616	-200.000	0.000	0.074
-705.602	-200.000	-0.062	-0.325
-704.587	138.770	-0.166	-0.222
-703.572	-200.000	0.000	-0.104
-702.558	-85.447	-0.228	0.072
-701.543	-96.657	0.234	-0.063
-700.529	-112.638	0.239	-0.048
-699.514	146.157	-0.180	0.246
-698.499	-93.349	-0.031	0.009
-697.485	-76.549	0.067	0.024
-696.470	-200.000	0.034	-0.163
-695.456	800.000	-0.123	-0.353
-694.441	-162.006	-0.188	-0.010
-693.426	313.419	0.087	-0.167
-692.412	-98.065	0.335	-0.088
-691.397	500.302	0.032	0.075
-690.383	-200.000	0.001	-0.214
-689.368	8.219	0.228	0.174
-688.354	-100.759	0.255	-0.064
-687.339	-124.820	-0.119	-0.019
-686.324	385.927	0.065	-0.137
-685.310	-126.584	0.184	0.028
-684.295	-139.815	-0.436	-0.047
-683.281	800.000	-0.023	0.083
-682.266	-20.054	-0.122	0.077
-681.251	800.000	0.015	-0.050
-680.237	-200.000	-0.038	0.182
-679.222	-84.531	0.263	0.084
-678.208	-200.000	0.053	0.513
-677.193	320.841	-0.131	-0.253
-676.178	800.000	0.045	-0.129
-675.164	362.273	-0.134	-0.272
-674.149	-114.221	0.199	-0.039
-673.135	566.382	0.018	0.045
-672.120	-11.663	0.132	0.088
-671.105	-200.000	0.056	0.357
-670.091	46.323	-0.207	-0.195
-669.076	338.433	0.091	0.180
-668.062	-79.009	-0.198	-0.069
-667.047	-179.309	0.195	0.004
-666.032	-200.000	0.022	-0.125
-665.018	68.744	-0.094	-0.098
-664.003	-111.947	0.265	0.054
-662.989	-140.404	-0.050	0.005
-661.974	12.655	0.212	0.167
-660.959	186.036	0.125	-0.188
-659.945	-127.877	-0.138	-0.020
-658.930	111.390	-0.124	-0.152
-657.916	-135.705	0.229	0.028
-656.901	-111.870	0.252	-0.052
-655.886	-3.702	-0.028	-0.020
-654.872	-67.022	-0.213	-0.086
-653.857	600.736	0.057	-0.144
-652.843	393.797	0.056	-0.119
-651.828	385.391	0.241	-0.506
-650.814	-101.968	0.121	0.030
-649.799	-85.089	0.187	-0.059
-648.784	-102.317	-0.331	0.081
-647.770	-101.187	0.609	0.151
-646.755	-38.708	-0.076	-0.041
-645.741	800.000	-0.063	0.176
-644.726	71.204	-0.185	0.195
-643.711	146.090	-0.161	0.219
-642.697	-200.000	0.038	-0.177
-641.682	-67.306	0.171	0.068
-640.668	334.832	0.054	0.107
-639.653	-96.183	-0.277	-0.075
-638.638	65.163	-0.059	-0.060
-637.624	-15.520	0.078	0.050
-636.609	-200.000	0.056	-0.308
-635.595	1.868	0.183	-0.134
-634.580	246.605	-0.107	-0.182
-633.565	-37.843	0.226	0.122
-632.551	6.357	-0.091	0.069
-631.536	-92.773	-0.137	0.039
-630.522	-58.115	-0.102	-0.045
-629.507	-127.811	0.184	0.027
-628.492	21.726	-0.207	-0.171
-627.478	800.000	0.020	-0.075
-626.463	148.003	0.199	-0.272
-625.449	16.885	0.155	-0.125
-624.434	800.000	0.043	0.186
-623.419	200.382	-0.158	-0.247
-622.405	102.676	-0.193	-0.229
-621.390	133.639	-0.087	-0.114
-620.376	-86.050	-0.168	-0.053
-619.361	70.857	-0.281	-0.295
-618.346	-193.183	0.240	0.002
-617.332	800.000	0.044	0.167
-616.317	-96.003	0.132	-0.036
-615.303	-200.000	0.060	-0.274
-614.288	42.568	-0.155	0.143
-613.273	-107.049	-0.119	0.027
-612.259	193.517	-0.031	-0.048
-611.244	-169.739	0.198	-0.007
-610.230	-187.715	0.083	-0.001
-609.215	-56.854	0.245	0.110
-608.201	-200.000	0.052	-0.248
-607.186	99.627	-0.163	-0.191
-606.171	-97.281	0.073	0.019
-605.157	-137.195	0.229	-0.026
-604.142	-155.211	-0.544	-0.036
-603.128	-200.000	-0.027	-0.284
-602.113	-67.699	0.172	-0.068
-601.098	359.956	0.051	0.103
-600.084	-200.000	-0.005	0.395
-599.069	-200.000	-0.027	-0.169
-598.055	304.739	-0.090	-0.170
-597.040	-200.000	0.002	-0.031
-596.025	174.169	0.210	-0.308
-595.011	-72.089	0.234	-0.088
-593.996	-134.825	-0.387	-0.048
-592.982	-200.000	-0.076	-0.441
-591.967	69.869	-0.192	-0.201
-590.952	-76.013	0.223	0.080
-589.938	-100.508	-0.155	-0.039
-588.923	-43.730	-0.246	0.126
-587.909	-200.000	-0.009	-0.064
-586.894	24.013	-0.119	-0.099
-585.879	1.420	0.308	-0.224
-584.865	-100.000	0.149	-0.038
-583.850	-200.000	0.026	-0.120
-582.836	104.065	0.271	-0.323
-581.821	739.871	-0.054	0.148
-580.806	170.768	-0.087	-0.126
-579.792	-90.204	-0.117	-0.034
-578.777	207.055	-0.305	0.482
-577.763	234.514	-0.091	0.152
-576.748	-200.000	-0.070	0.382
-575.733	-133.190	-0.211	-0.027
-574.719	-55.204	-0.198	0.090
-573.704	-200.000	0.005	0.050
-572.690	341.323	-0.087	0.172
-571.675	-200.000	-0.034	0.202
-570.661	337.218	-0.122	0.240
-569.646	-57.409	-0.428	0.191
-568.631	357.178	0.106	-0.215
-567.617	53.016	0.021	0.020
-566.602	-200.000	-0.016	-0.118
-565.588	-189.044	0.189	0.002
-564.573	-200.000	0.012	0.106
-563.558	-95.620	0.046	0.013
-562.544	-200.000	-0.042	-0.216
-561.529	140.743	-0.061	-0.081
-560.515	800.000	-0.044	-0.130
-559.500	106.369	0.157	0.189
-558.485	166.980	-0.045	-0.065
-557.471	-200.000	0.013	0.107
-556.456	109.068	0.086	0.104
-555.442	-130.512	-0.072	-0.010
-554.427	300.783	-0.129	-0.240
-553.412	-36.385	-0.064	0.035
-552.398	-158.643	-0.130	-0.008
-551.383	383.761	-0.097	0.202
-550.369	-35.426	0.348	0.191
-549.354	240.620	-0.119	0.200
-548.339	-200.000	0.014	0.308
-547.325	20.193	-0.177	-0.144
-546.310	-26.307	-0.253	0.150
-545.296	156.203	0.021	0.029
-544.281	-200.000	-0.020	-0.260
-543.266	-200.000	0.003	-0.099
-542.252	663.994	-0.040	0.105
-541.237	-200.000	0.014	-0.084
-540.223	89.462	0.031	0.035
-539.208	198.909	-0.116	-0.180
-538.193	409.445	-0.146	-0.312
-537.179	17.706	0.290	0.233
-536.164	541.545	-0.042	0.102
-535.150	480.930	-0.153	0.351
-534.135	-50.350	0.181	0.087
-533.121	598.988	-0.039	-0.098
-532.106	502.204	0.109	0.254
-531.091	5.132	-0.058	0.044
-530.077	145.757	-0.089	0.121
-529.062	231.703	0.096	-0.160
-528.048	800.000	0.036	0.157
-527.033	800.000	0.077	0.261
-526.018	-70.321	0.140	-0.054
-525.004	-127.239	-0.147	0.022
-523.989	54.856	0.205	-0.200
-522.975	104.240	0.218	-0.259
-521.960	-38.834	0.003	0.002
-520.945	-200.000	-0.016	0.154
-519.931	-125.228	0.446	0.069
-518.916	331.916	0.122	-0.237
-517.902	-129.843	0.058	0.008
-516.887	-200.000	-0.049	-0.285
-515.872	300.640	0.022	-0.042
-514.858	745.085	-0.079	0.215
-513.843	74.502	0.087	0.092
-512.829	-115.828	0.287	-0.054
-511.814	188.178	0.130	0.197
-510.799	-4.382	0.062	-0.043
-509.785	85.384	-0.066	0.074
-508.770	-75.625	-0.324	0.116
-507.756	-196.669	0.329	-0.002
-506.741	-200.000	-0.041	0.331
-505.726	44.428	-0.064	0.059
-504.712	335.657	0.076	0.148
-503.697	4.566	0.211	-0.157
-502.683	30.458	0.073	0.063
-501.668	-200.000	0.036	-0.374
-500.653	-34.152	0.241	-0.134
-499.639	-200.000	-0.051	0.286
-498.624	800.000	-0.059	-0.205
-497.610	336.071	-0.039	-0.076
-496.595	125.812	-0.179	0.228
-495.581	-113.685	-0.067	0.013
-494.566	-156.279	0.486	-0.031
-493.551	-156.583	0.121	-0.008
-492.537	800.000	0.026	-0.110
-491.522	52.130	-0.345	-0.332
-490.508	58.125	-0.049	0.048
-489.493	28.020	-0.034	0.029
-488.478	-3.031	0.162	0.114
-487.464	-70.761	-0.211	-0.081
-486.449	381.646	-0.011	-0.022
-485.435	-7.159	-0.222	-0.152
-484.420	89.333	-0.163	0.184
-483.405	320.557	0.229	-0.439
-482.391	97.763	0.114	0.132
-481.376	-82.228	-0.234	0.077
-480.362	117.862	0.224	0.278
-479.347	-99.989	-0.128	0.032
-478.332	157.271	-0.107	0.149
-477.318	-75.259	-0.304	-0.109
-476.303	44.843	0.129	-0.120
-475.289	268.997	-0.056	0.100
-474.274	-3.929	-0.105	0.074
-473.259	-200.000	0.061	-0.464
-472.245	-200.000	0.007	0.126
-471.230	-89.624	0.209	0.062
-470.216	-89.712	0.408	0.121
-469.201	-44.588	0.169	-0.085
-468.186	-129.053	0.270	-0.038
-467.172	-72.045	-0.261	0.098
-466.157	19.329	-0.149	-0.121
-465.143	205.104	-0.064	0.100
-464.128	121.317	-0.047	0.059
-463.113	-13.588	-0.141	-0.092
-462.099	-68.742	0.208	0.081
-461.084	-54.928	-0.122	-0.055
-460.070	-198.079	0.362	0.002
-459.055	147.746	0.121	-0.164
-458.040	122.302	-0.162	-0.204
-457.026	-200.000	0.022	-0.107
-456.011	-143.266	-0.473	0.046
-454.997	-16.441	-0.312	-0.200
-453.982	570.907	-0.123	-0.303
-452.968	86.570	0.132	0.147
-451.953	800.000	-0.050	-0.176
-450.938	23.372	0.304	-0.252
-449.924	157.507	-0.099	0.137
-448.909	655.787	0.145	-0.376
-447.895	-200.000	0.029	0.214
-446.880	-66.218	0.157	0.063
-445.865	72.799	0.185	0.194
-444.851	-90.919	0.020	-0.006
-443.836	800.000	-0.054	0.194
-442.822	-80.478	-0.257	0.086
-441.807	-23.423	0.229	0.139
-440.792	354.730	0.143	-0.286
-439.778	495.651	-0.090	-0.207
-438.763	-200.000	0.069	-0.700
-437.749	200.748	-0.072	-0.111
-436.734	-77.633	0.170	-0.059
-435.719	172.556	0.192	-0.278
-434.705	57.736	0.204	0.201
-433.690	800.000	0.156	-0.594
-432.676	29.355	-0.118	0.101
-431.661	191.450	0.173	-0.263
-430.646	57.207	-0.190	-0.186
-429.632	122.135	-0.102	0.129
-428.617	-200.000	-0.022	-0.119
-427.603	-154.089	-0.305	-0.021
-426.588	0.207	0.066	-0.047
-425.573	787.542	-0.066	0.182
-424.559	-128.892	-0.320	-0.045
-423.544	-200.000	-0.044	0.196
-422.530	690.605	0.136	-0.358
-421.515	332.256	-0.086	-0.167
-420.500	-95.162	0.119	0.032
-419.486	800.000	-0.039	0.136
-418.471	267.503	-0.102	-0.180
-417.457	-81.969	-0.304	0.100
-416.442	137.510	-0.037	0.049
-415.428	-46.177	0.190	-0.094
-414.413	7.460	0.267	-0.201
-413.398	-59.372	0.301	0.130
-412.384	510.260	0.096	0.225
-411.369	-125.906	0.353	0.053
-410.355	14.115	-0.096	-0.075
-409.340	800.000	0.030	0.112
-408.325	800.000	-0.069	0.284
-407.311	-70.405	-0.168	0.064
-406.296	158.866	0.221	-0.308
-405.282	-200.000	0.026	0.170
-404.267	800.000	-0.061	0.199
-403.252	-200.000	0.018	0.133
-402.238	-200.000	0.084	0.543
-401.223	118.956	-0.180	-0.224
-400.209	86.980	-0.132	0.147
-399.194	24.932	-0.164	0.137
-398.179	83.537	-0.319	0.349
-397.165	245.790	0.081	0.138
-396.150	1.337	-0.300	0.217
-395.136	-66.927	0.119	0.047
-394.121	800.000	-0.011	-0.044
-393.106	87.436	0.094	-0.105
-392.092	423.177	-0.217	0.469
-391.077	83.232	0.181	0.198
-390.063	-35.135	0.246	-0.135
-389.048	80.981	-0.090	-0.097
-388.033	120.370	0.121	-0.152
-387.019	-23.398	-0.303	-0.183
-386.004	190.068	-0.068	0.103
-384.990	-67.931	-0.325	-0.127
-383.975	-200.000	0.029	0.193
-382.960	-77.351	-0.069	-0.024
-381.946	101.318	0.144	-0.168
-380.931	29.293	-0.100	-0.085
-379.917	800.000	-0.041	0.151
-378.902	7.047	-0.130	0.097
-377.888	-138.118	0.238	-0.027
-376.873	-127.168	0.224	-0.033
-375.858	800.000	-0.035	0.140
-374.844	-35.757	0.110	-0.060
-373.829	492.934	-0.108	0.248
-372.815	70.197	0.160	-0.167
-371.800	800.000	-0.076	0.235
-370.785	-28.161	-0.182	0.106
-369.771	-29.564	-0.348	-0.200
-368.756	-200.000	0.030	-0.274
-367.742	-200.000	-0.043	0.488
-366.727	-125.874	-0.233	0.035
-365.712	12.697	-0.156	0.121
-364.698	-34.107	0.136	0.075
-363.683	-66.137	-0.056	0.022
-362.669	-9.021	-0.184	-0.123
-361.654	800.000	0.061	0.216
-360.639	-29.235	-0.242	0.139
-359.625	-33.270	0.126	0.070
-358.610	797.496	0.056	0.154
-357.596	98.394	0.196	0.227
-356.581	-70.862	-0.458	-0.173
-355.566	708.912	-0.051	-0.136
-354.552	780.194	0.035	-0.095
-353.537	-200.000	0.066	0.311
-352.523	170.486	-0.220	0.316
-351.508	400.254	0.073	0.154
-350.493	119.256	-0.114	0.142
-349.479	59.125	-0.140	-0.138
-348.464	-85.643	-0.351	0.110
-347.450	-200.000	0.006	0.244
-346.435	-21.461	0.332	-0.203
-345.420	160.058	0.057	0.080
-344.406	-77.901	0.121	-0.042
-343.391	101.528	-0.133	-0.155
-342.377	-75.531	-0.310	0.111
-341.362	-70.639	-0.059	0.022
-340.348	-101.427	0.199	-0.049
-339.333	159.497	0.067	-0.093
-338.318	351.149	0.105	-0.209
-337.304	-44.795	-0.260	-0.130
-336.289	-92.726	0.183	-0.052
-335.275	-60.295	-0.156	0.067
-334.260	-133.078	0.236	-0.030
-333.245	-11.141	0.048	0.032
-332.231	800.000	-0.083	0.268
-331.216	437.123	0.002	0.005
-330.202	475.889	-0.143	0.325
-329.187	-83.920	-0.300	-0.096
-328.172	172.657	0.113	0.163
-327.158	800.000	-0.067	-0.288
-326.143	-200.000	0.006	0.235
-325.129	39.867	0.130	0.117
-324.114	800.000	0.035	-0.112
-323.099	-176.331	0.211	0.006
-322.085	800.000	0.033	0.136
-321.070	-67.415	0.186	-0.073
-320.056	-136.266	0.201	-0.024
-319.041	259.908	-0.250	0.432
-318.026	-153.767	-0.163	-0.011
-317.012	-90.923	-0.253	0.073
-315.997	800.000	-0.063	0.261
-314.983	309.536	0.051	-0.096
-313.968	-92.040	-0.293	0.083
-312.953	91.505	0.144	0.162
-311.939	-43.910	0.110	-0.055
-310.924	79.131	0.087	-0.093
-309.910	-40.491	0.270	-0.140
-308.895	-22.143	0.132	0.080
-307.880	-200.000	-0.043	-0.408
-306.866	-17.539	0.104	-0.065
-305.851	312.481	0.068	0.128
-304.837	-68.060	-0.203	0.079
-303.822	-200.000	-0.020	0.146
-302.807	-143.521	0.250	0.024
-301.793	288.839	0.124	-0.225
-300.778	-46.930	0.018	0.009
-299.764	-52.779	0.268	0.124
-298.749	800.000	0.025	0.086
-297.735	800.000	0.076	0.220
-296.720	800.000	0.050	-0.195
-295.705	-14.899	0.056	-0.036
-294.691	109.800	-0.171	-0.205
-293.676	97.871	0.071	0.082
-292.662	-109.138	0.091	-0.019
-291.647	110.751	0.034	0.041
-290.632	211.135	-0.135	-0.213
-289.618	-133.418	-0.062	0.008
-288.603	-5.061	0.135	0.093
-287.589	-52.583	-0.258	-0.119
-286.574	85.620	-0.094	0.104
-285.559	-159.059	0.316	0.018
-284.545	405.877	-0.060	-0.126
-283.530	-40.710	-0.161	-0.083
-282.516	800.000	-0.044	-0.178
-281.501	800.000	0.040	0.122
-280.486	57.910	-0.069	-0.068
-279.472	-74.823	0.212	-0.076
-278.457	74.301	-0.186	0.196
-277.443	368.992	0.023	0.046
-276.428	-200.000	0.043	-0.276
-275.413	89.574	-0.246	-0.275
-274.399	-124.865	0.273	-0.042
-273.384	-96.213	0.034	-0.009
-272.370	-200.000	-0.004	-0.157
-271.355	145.830	0.074	0.099
-270.340	-78.331	0.217	-0.075
-269.326	-105.054	-0.110	0.025
-268.311	143.860	-0.043	-0.057
-267.297	-25.961	0.174	-0.103
-266.282	693.512	-0.048	0.125
-265.267	754.263	0.038	0.102
-264.253	189.634	0.038	0.058
-263.238	-41.197	-0.211	-0.109
-262.224	800.000	0.085	0.256
-261.209	155.226	0.126	-0.173
-260.195	-44.972	0.097	0.049
-259.180	423.023	-0.032	-0.069
-258.165	448.871	-0.183	-0.404
-257.151	-60.538	-0.193	-0.082
-256.136	100.729	-0.199	0.231
-255.122	-114.360	0.232	0.045
-254.107	-81.783	-0.208	-0.068
-253.092	800.000	-0.010	0.029
-252.078	226.625	-0.159	-0.258
-251.063	800.000	0.119	-0.390
-250.049	39.151	-0.284	0.254
-249.034	800.000	0.027	-0.113
-248.019	73.718	0.243	-0.255
-247.005	70.108	-0.034	0.035
-245.990	-200.000	0.004	-0.106
-244.976	-55.968	-0.054	-0.024
-243.961	-200.000	0.007	0.193
-242.946	-134.113	-0.314	-0.039
-241.932	800.000	0.050	-0.157
-240.917	-200.000	-0.058	0.299
-239.903	-200.000	-0.045	0.202
-238.888	-138.171	-0.035	0.004
-237.873	-134.347	-0.104	-0.013
-236.859	-92.806	-0.218	-0.061
-235.844	40.843	0.081	0.073
-234.830	800.000	0.012	0.035
-233.815	91.798	0.263	-0.296
-232.800	64.406	0.082	-0.082
-231.786	45.362	-0.143	0.132
-230.771	-200.000	0.011	-0.191
-229.757	-83.556	-0.207	-0.066
-228.742	547.352	0.061	-0.147
-227.727	-200.000	-0.003	-0.046
-226.713	208.171	0.204	0.319
-225.698	-200.000	-0.011	-0.278
-224.684	239.288	-0.024	0.039
-223.669	-116.467	0.093	-0.017
-222.655	-67.479	0.138	0.054
-221.640	-200.000	-0.092	0.509
-220.625	97.143	-0.233	0.267
-219.611	-200.000	0.017	0.194
-218.596	379.156	0.201	-0.410
-217.582	52.328	-0.067	0.063
-216.567	457.155	0.155	0.344
-215.552	800.000	-0.060	-0.188
-214.538	63.387	0.172	0.173
-213.523	-34.386	0.276	0.151
-212.509	-56.598	-0.106	-0.047
-211.494	153.940	0.056	0.077
-210.479	800.000	-0.096	0.347
-209.465	159.769	-0.155	0.216
-208.450	-113.255	-0.201	0.040
-207.436	-11.221	0.146	0.096
-206.421	800.000	0.100	0.334
-205.406	177.803	-0.144	0.209
-204.392	-174.538	0.117	-0.003
-203.377	-153.023	0.503	0.035
-202.363	-200.000	0.036	0.192
-201.348	610.769	0.047	-0.116
-200.333	122.589	0.146	-0.183
-199.319	82.716	0.041	-0.044
-198.304	622.561	-0.143	-0.359
-197.290	23.473	-0.039	-0.032
-196.275	-134.165	0.277	-0.034
-195.260	-144.631	-0.339	0.031
-194.246	-45.112	0.305	-0.151
-193.231	-104.176	0.052	0.012
-192.217	-200.000	-0.033	-0.177
-191.202	-102.909	0.253	-0.060
-190.187	-200.000	0.033	-0.414
-189.173	-200.000	0.006	-0.183
-188.158	301.057	0.046	-0.085
-187.144	-137.877	-0.367	0.041
-186.129	-75.261	0.051	-0.018
-185.114	-200.000	0.020	0.226
-184.100	800.000	-0.077	-0.231
-183.085	11.771	-0.214	-0.164
-182.071	-200.000	0.036	0.337
-181.056	-112.616	0.151	-0.030
-180.042	5.035	-0.168	0.123
-179.027	-114.495	-0.145	-0.028
-178.012	608.267	0.082	0.204
-176.998	800.000	-0.031	-0.106
-175.983	47.308	0.169	-0.157
-174.969	800.000	-0.124	0.394
-173.954	41.826	0.124	-0.112
-172.939	-64.134	0.392	0.159
-171.925	57.476	-0.066	-0.064
-170.910	-74.565	0.324	-0.116
-169.896	-107.860	0.350	-0.076
-168.881	-142.609	-0.218	0.021
-167.866	139.301	0.105	-0.138
-166.852	-200.000	0.064	-0.311
-165.837	800.000	-0.033	-0.106
-164.823	23.901	0.394	0.324
-163.808	58.786	0.081	-0.079
-162.793	-46.427	-0.237	0.116
-161.779	-118.489	-0.325	0.057
-160.764	-200.000	0.031	0.212
-159.750	800.000	0.152	0.428
-158.735	0.294	-0.140	-0.100
-157.720	28.636	0.140	0.118
-156.706	800.000	-0.087	0.246
-155.691	-56.407	0.122	-0.054
-154.677	-166.981	-0.029	-0.001
-153.662	-127.179	0.092	-0.013
-152.647	-46.242	-0.270	-0.132
-151.633	324.198	-0.152	-0.289
-150.618	729.986	-0.088	-0.234
-149.604	11.396	-0.101	-0.077
-148.589	800.000	-0.022	0.075
-147.574	237.188	0.084	0.138
-146.560	-89.488	-0.351	0.103
-145.545	116.554	0.086	-0.105
-144.531	-86.438	-0.289	0.088
-143.516	75.262	0.209	0.220
-142.502	77.831	0.054	0.058
-141.487	31.998	0.037	0.032
-140.472	-46.434	0.110	0.054
-139.458	-74.761	0.174	0.062
-138.443	-200.000	-0.006	-0.179
-137.429	358.316	-0.059	0.117
-136.414	-106.358	-0.222	-0.049
-135.399	-129.600	-0.134	-0.018
-134.385	-200.000	-0.006	0.311
-133.370	182.503	0.151	0.221
-132.356	-151.799	0.215	-0.016
-131.341	9.300	-0.078	0.059
-130.326	-200.000	-0.027	0.282
-129.312	-200.000	-0.045	-0.215
-128.297	142.708	-0.194	-0.256
-127.283	163.278	0.205	0.287
-126.268	177.579	0.103	-0.149
-125.253	23.672	-0.312	0.256
-124.239	15.915	-0.151	0.118
-123.224	-36.999	-0.091	0.049
-122.210	-129.215	-0.122	0.017
-121.195	80.815	0.221	-0.237
-120.180	-38.407	0.271	0.143
