DTS Sentinel unit serial number:	SN413079Multiplexer serial number:	ORYXHardware model number:	OX4-SRSoftware version number:	ORYX F/W v4.00 Oryx Data Collector v3.7.2.0data status	okinstallation	princeton_trtdifferential loss correction	single-endedforward channel	channel 1reverse channel	N/Adate	2019/09/16time	14:06:35forward acquisition time	60.00reverse acquisition time	0.00gamma	496.2192k internal	0.2294k external	0.2294temperature offset calibration	0.9955default loss term (dB/km)	0.3790temperature slope calibration	1.0000multiplexer offset coefficient	1.0000multiplexer slope coefficient	1.0000fibre end	0.00T internal ref (°C)	42.31T ext. ref 1 (°C)	14.07T ext. ref 2 (°C)	36.69length (m)	temperature (°C)	Stokes	anti-Stokes-747.200	4.245	-0.104	0.078
-746.185	-200.000	0.032	0.249
-745.171	-103.014	-0.255	-0.062
-744.156	800.000	-0.007	0.020
-743.142	36.106	0.225	0.203
-742.127	64.747	-0.142	-0.146
-741.112	57.572	0.143	0.143
-740.098	-176.794	0.298	0.008
-739.083	-42.715	-0.141	-0.073
-738.069	-98.281	-0.212	0.056
-737.054	-200.000	-0.043	-0.256
-736.039	19.127	0.128	0.105
-735.025	-200.000	-0.049	0.540
-734.010	-200.000	-0.042	-0.222
-732.996	-124.238	-0.213	-0.034
-731.981	268.040	-0.170	-0.305
-730.966	-26.521	0.209	0.125
-729.952	-107.165	-0.069	-0.016
-728.937	-153.833	-0.261	-0.018
-727.923	-200.000	-0.001	0.081
-726.908	-11.088	-0.215	0.145
-725.894	-200.000	0.008	-0.167
-724.879	-15.965	0.130	0.085
-723.864	229.668	-0.198	-0.331
-722.850	-200.000	0.010	0.177
-721.835	-87.553	-0.193	-0.060
-720.821	428.415	-0.130	0.287
-719.806	59.199	0.112	0.113
-718.791	57.336	0.177	-0.176
-717.777	-125.339	-0.331	0.052
-716.762	-200.000	-0.062	0.300
-715.748	-119.284	-0.094	0.017
-714.733	211.449	-0.077	-0.124
-713.718	800.000	-0.090	-0.298
-712.704	-42.867	0.204	-0.106
-711.689	-36.523	0.147	0.081
-710.675	30.109	0.085	0.074
-709.660	-200.000	0.023	-0.509
-708.645	-200.000	-0.011	-0.275
-707.631	430.997	0.041	-0.091
-706.616	202.910	-0.175	-0.276
-705.602	5.015	0.253	0.190
-704.587	33.587	0.032	0.029
-703.572	-200.000	-0.029	-0.438
-702.558	704.712	-0.113	-0.304
-701.543	66.058	-0.064	0.067
-700.529	-48.074	0.502	0.248
-699.514	-31.666	0.088	-0.050
-698.499	-11.384	0.186	0.125
-697.485	7.458	-0.118	0.090
-696.470	39.498	0.021	-0.019
-695.456	-24.341	-0.095	0.058
-694.441	-11.447	0.080	-0.053
-693.426	103.670	-0.074	-0.088
-692.412	396.371	0.065	0.139
-691.397	-71.235	0.054	0.021
-690.383	43.402	-0.061	-0.057
-689.368	-75.096	0.357	-0.130
-688.354	-89.603	-0.204	0.061
-687.339	-55.565	0.158	0.072
-686.324	800.000	0.041	0.128
-685.310	-41.252	-0.186	0.098
-684.295	97.329	0.168	-0.197
-683.281	-200.000	-0.034	-0.275
-682.266	-109.471	-0.339	0.073
-681.251	-166.805	-0.202	0.008
-680.237	-113.071	0.109	-0.022
-679.222	-200.000	-0.057	0.267
-678.208	-200.000	0.042	0.264
-677.193	-94.270	-0.051	0.014
-676.178	228.165	-0.039	-0.064
-675.164	291.926	0.060	0.112
-674.149	115.181	0.143	0.178
-673.135	-24.029	0.124	-0.076
-672.120	213.502	0.124	-0.199
-671.105	-3.743	-0.435	-0.308
-670.091	355.726	-0.173	-0.352
-669.076	-45.699	-0.339	0.171
-668.062	-42.991	-0.282	0.146
-667.047	646.199	0.049	0.129
-666.032	-134.858	-0.135	0.017
-665.018	9.603	-0.284	0.220
-664.003	-72.477	0.036	0.014
-662.989	-50.915	0.122	0.058
-661.974	-200.000	0.010	-0.412
-660.959	-60.518	-0.224	0.097
-659.945	-91.994	-0.106	-0.031
-658.930	75.897	-0.111	-0.120
-657.916	-57.905	-0.126	0.056
-656.901	65.769	0.057	0.058
-655.886	-4.007	-0.037	-0.026
-654.872	-91.313	-0.079	0.023
-653.857	68.021	-0.154	-0.160
-652.843	567.977	-0.123	0.304
-651.828	-58.460	-0.208	-0.092
-650.814	800.000	0.133	-0.379
-649.799	800.000	-0.058	-0.199
-648.784	-117.548	-0.191	0.035
-647.770	191.203	-0.046	-0.070
-646.755	-103.728	-0.181	0.043
-645.741	-200.000	-0.042	-0.199
-644.726	-82.717	-0.274	0.090
-643.711	-156.408	-0.204	0.013
-642.697	-97.280	0.310	-0.082
-641.682	739.307	0.130	0.356
-640.668	237.237	-0.040	-0.067
-639.653	374.904	0.057	0.118
-638.638	-26.720	-0.180	0.107
-637.624	221.083	-0.073	0.119
-636.609	-85.021	0.169	0.054
-635.595	800.000	-0.024	-0.073
-634.580	-53.851	0.259	0.121
-633.565	-80.469	0.261	-0.089
-632.551	-125.540	-0.125	-0.019
-631.536	-200.000	0.009	-0.048
-630.522	213.121	0.055	-0.089
-629.507	-200.000	0.017	0.417
-628.492	-200.000	-0.163	0.000
-627.478	190.036	-0.109	0.166
-626.463	56.789	0.165	0.163
-625.449	-41.417	-0.314	0.165
-624.434	134.616	-0.077	-0.102
-623.419	800.000	-0.002	0.009
-622.405	266.930	0.136	0.241
-621.390	-62.370	0.088	0.037
-620.376	-54.021	0.084	0.039
-619.361	-72.043	0.290	-0.110
-618.346	-200.000	0.022	0.248
-617.332	157.187	-0.018	-0.025
-616.317	-9.310	0.075	0.051
-615.303	-200.000	0.015	0.207
-614.288	184.920	0.132	0.199
-613.273	-42.982	-0.164	0.085
-612.259	-200.000	0.021	0.117
-611.244	-200.000	-0.035	-0.173
-610.230	800.000	0.097	-0.319
-609.215	-37.354	-0.123	0.067
-608.201	150.500	-0.183	0.253
-607.186	-75.894	-0.294	-0.106
-606.171	-51.804	-0.389	-0.184
-605.157	-118.984	0.397	-0.071
-604.142	-200.000	0.039	0.216
-603.128	40.608	-0.089	0.082
-602.113	-125.954	-0.310	-0.048
-601.098	-200.000	0.007	0.097
-600.084	398.175	-0.150	-0.318
-599.069	-94.729	-0.187	0.052
-598.055	-157.723	-0.302	-0.018
-597.040	367.515	0.113	0.231
-596.025	800.000	0.100	-0.418
-595.011	8.559	-0.296	-0.226
-593.996	166.942	0.167	0.241
-592.982	37.919	0.191	-0.173
-591.967	-1.105	-0.218	-0.156
-590.952	-163.972	-0.274	0.013
-589.938	-58.476	0.165	-0.073
-588.923	280.903	0.102	-0.186
-587.909	-103.957	-0.180	0.043
-586.894	87.281	0.115	0.130
-585.879	140.965	0.240	0.322
-584.865	-85.770	-0.188	0.059
-583.850	-122.880	0.341	0.056
-582.836	39.268	0.059	-0.054
-581.821	-131.927	-0.050	-0.007
-580.806	-26.620	0.113	0.067
-579.792	43.777	-0.048	-0.045
-578.777	528.568	-0.058	-0.138
-577.763	-85.760	-0.319	-0.101
-576.748	63.983	0.201	0.205
-575.733	800.000	0.154	0.445
-574.719	-44.672	0.220	-0.111
-573.704	-3.699	-0.302	0.213
-572.690	73.139	-0.132	-0.141
-571.675	-30.800	0.328	0.188
-570.661	71.284	0.176	-0.186
-569.646	800.000	-0.064	-0.204
-568.631	159.985	0.136	-0.192
-567.617	339.686	0.099	0.197
-566.602	92.560	0.317	-0.363
-565.588	-200.000	0.016	0.174
-564.573	46.727	0.211	0.199
-563.558	586.784	-0.130	-0.324
-562.544	-53.547	0.181	0.084
-561.529	-60.196	0.121	-0.053
-560.515	487.991	-0.115	0.268
-559.500	-102.613	0.148	0.036
-558.485	-200.000	0.012	-0.361
-557.471	12.205	0.221	0.173
-556.456	-200.000	0.032	-0.158
-555.442	-137.046	-0.157	-0.018
-554.427	-200.000	0.044	0.253
-553.412	-29.616	0.046	-0.027
-552.398	-200.000	0.035	0.203
-551.383	2.842	0.214	-0.157
-550.369	-6.335	-0.057	-0.039
-549.354	800.000	-0.091	-0.314
-548.339	136.097	0.101	0.133
-547.325	-20.073	-0.138	0.087
-546.310	261.103	0.106	-0.186
-545.296	13.849	-0.150	0.118
-544.281	-104.407	0.147	0.035
-543.266	-160.426	-0.205	0.011
-542.252	800.000	0.034	-0.124
-541.237	-99.824	0.229	-0.058
-540.223	-104.345	0.079	-0.019
-539.208	233.285	0.079	0.133
-538.193	-151.169	-0.244	-0.019
-537.179	-131.984	-0.238	-0.031
-536.164	-116.069	0.169	-0.032
-535.150	-200.000	0.000	0.013
-534.135	351.539	0.134	0.270
-533.121	486.309	0.118	0.274
-532.106	-200.000	-0.022	0.236
-531.091	-37.505	0.110	0.059
-530.077	-67.498	-0.176	-0.070
-529.062	-200.000	0.029	-0.137
-528.048	-118.020	-0.373	-0.068
-527.033	-111.199	-0.178	0.037
-526.018	108.228	0.199	0.240
-525.004	154.636	0.061	0.085
-523.989	-120.628	0.148	-0.025
-522.975	465.614	-0.083	-0.189
-521.960	-23.936	-0.192	0.117
-520.945	36.459	-0.094	0.084
-519.931	202.336	0.141	-0.220
-518.916	-81.554	-0.292	0.097
-517.902	9.587	0.183	-0.141
-516.887	472.567	0.095	0.217
-515.872	665.641	0.047	-0.124
-514.858	800.000	0.069	-0.228
-513.843	-86.118	-0.225	-0.070
-512.829	-70.591	0.214	0.082
-511.814	800.000	-0.018	0.077
-510.799	159.033	0.144	0.204
-509.785	164.095	-0.146	-0.209
-508.770	-200.000	-0.023	-0.219
-507.756	800.000	-0.117	-0.406
-506.741	-200.000	-0.039	0.176
-505.726	5.656	0.148	0.111
-504.712	79.815	-0.189	0.206
-503.697	118.573	0.072	-0.090
-502.683	29.573	-0.162	-0.140
-501.668	-168.245	-0.265	-0.010
-500.653	41.113	0.055	-0.051
-499.639	-200.000	0.007	0.172
-498.624	800.000	-0.156	-0.450
-497.610	709.051	-0.043	0.115
-496.595	156.194	-0.190	0.265
-495.581	-200.000	0.035	0.368
-494.566	212.171	-0.190	-0.303
-493.551	656.646	-0.032	0.082
-492.537	-200.000	0.049	-0.226
-491.522	-200.000	-0.050	0.227
-490.508	-103.438	-0.221	0.053
-489.493	27.291	0.102	-0.087
-488.478	-104.003	-0.088	0.021
-487.464	29.941	-0.116	-0.100
-486.449	282.493	0.075	0.137
-485.435	-99.457	0.224	-0.057
-484.420	-124.203	0.159	-0.025
-483.405	-69.542	-0.206	0.080
-482.391	248.995	-0.044	-0.076
-481.376	-114.374	-0.164	-0.032
-480.362	800.000	0.047	0.171
-479.347	-200.000	0.015	0.148
-478.332	-200.000	0.025	-0.320
-477.318	-200.000	-0.052	0.286
-476.303	-200.000	0.053	0.399
-475.289	-102.182	-0.148	-0.036
-474.274	-39.909	-0.225	0.119
-473.259	-101.969	0.160	-0.039
-472.245	-200.000	-0.018	-0.200
-471.230	-14.977	-0.138	0.090
-470.216	-75.713	0.235	0.085
-469.201	-9.619	0.171	0.115
-468.186	-79.534	-0.070	0.024
-467.172	-75.627	0.168	0.061
-466.157	125.921	-0.010	0.013
-465.143	800.000	0.131	-0.444
-464.128	-78.378	0.290	0.101
-463.113	54.453	0.138	0.134
-462.099	47.745	0.052	0.049
-461.084	-124.602	-0.297	0.047
-460.070	-56.329	-0.312	0.140
-459.055	800.000	-0.024	0.092
-458.040	759.808	0.066	0.182
-457.026	-60.612	0.089	-0.038
-456.011	107.286	0.039	0.047
-454.997	124.727	0.219	-0.278
-453.982	11.537	0.139	0.107
-452.968	-200.000	-0.036	-0.243
-451.953	800.000	0.048	-0.185
-450.938	129.825	0.139	0.179
-449.924	-175.134	-0.191	0.005
-448.909	-138.529	0.250	-0.028
-447.895	-200.000	0.037	0.278
-446.880	-200.000	0.002	0.031
-445.865	-86.365	0.303	0.094
-444.851	184.780	0.030	-0.046
-443.836	-200.000	-0.028	-0.183
-442.822	202.095	0.048	0.075
-441.807	-97.458	-0.391	-0.103
-440.792	341.439	0.046	-0.090
-439.778	15.393	-0.107	-0.085
-438.763	-39.165	0.288	0.153
-437.749	-190.282	0.309	0.003
-436.734	-112.987	-0.271	-0.054
-435.719	-200.000	-0.036	0.180
-434.705	-62.377	-0.269	-0.113
-433.690	800.000	-0.045	-0.192
-432.676	-28.107	-0.236	0.138
-431.661	-80.052	0.210	0.071
-430.646	-115.053	0.273	-0.052
-429.632	-198.868	0.398	-0.002
-428.617	144.205	-0.204	-0.275
-427.603	386.856	0.211	-0.441
-426.588	640.752	-0.122	-0.313
-425.573	-66.121	0.058	0.023
-424.559	230.661	0.046	0.077
-423.544	-77.916	-0.065	0.023
-422.530	-200.000	-0.004	-0.036
-421.515	10.440	0.081	0.062
-420.500	423.026	0.182	0.395
-419.486	-200.000	-0.028	0.222
-418.471	-50.570	-0.425	-0.202
-417.457	-200.000	0.005	0.086
-416.442	16.575	-0.177	0.141
-415.428	800.000	0.087	0.362
-414.413	30.621	0.065	0.056
-413.398	170.630	0.057	0.083
-412.384	-108.772	-0.215	0.046
-411.369	30.754	-0.138	0.120
-410.355	-112.525	0.318	-0.064
-409.340	119.282	-0.078	-0.097
-408.325	-112.274	-0.407	-0.082
-407.311	800.000	0.011	-0.031
-406.296	-88.008	0.171	-0.052
-405.282	763.353	0.077	0.212
-404.267	-102.717	0.204	0.049
-403.252	-200.000	-0.003	0.220
-402.238	-40.717	-0.185	-0.097
-401.223	-45.403	0.106	0.053
-400.209	274.606	0.140	-0.250
-399.194	800.000	-0.073	-0.254
-398.179	417.072	0.021	-0.044
-397.165	800.000	0.046	0.156
-396.150	106.212	-0.106	0.127
-395.136	-200.000	-0.051	0.378
-394.121	31.329	-0.278	0.241
-393.106	-200.000	-0.001	0.044
-392.092	800.000	0.076	0.230
-391.077	-26.654	-0.243	-0.143
-390.063	138.153	-0.032	-0.043
-389.048	-122.006	-0.169	0.028
-388.033	207.803	-0.028	-0.045
-387.019	800.000	-0.058	-0.178
-386.004	348.943	0.142	0.284
-384.990	88.002	0.129	0.144
-383.975	285.172	-0.114	0.207
-382.960	165.013	-0.225	-0.321
-381.946	21.793	0.275	-0.226
-380.931	31.707	0.147	-0.127
-379.917	149.260	-0.076	-0.103
-378.902	-143.896	0.083	-0.008
-377.888	683.542	0.074	0.195
-376.873	800.000	-0.043	0.183
-375.858	-200.000	0.008	0.113
-374.844	-200.000	0.039	0.249
-373.829	-200.000	0.002	0.132
-372.815	-145.308	0.183	-0.017
-371.800	273.043	0.134	0.238
-370.785	-200.000	0.010	-0.166
-369.771	-200.000	-0.013	0.201
-368.756	35.067	0.295	-0.260
-367.742	25.672	0.231	0.193
-366.727	-119.615	0.319	-0.056
-365.712	-136.631	-0.167	-0.019
-364.698	-36.815	-0.099	-0.053
-363.683	-50.435	-0.134	-0.064
-362.669	227.235	-0.132	-0.216
-361.654	-153.996	-0.148	0.010
-360.639	-38.366	-0.241	-0.129
-359.625	-87.305	0.223	-0.068
-358.610	800.000	-0.020	-0.074
-357.596	800.000	0.015	0.063
-356.581	540.770	0.040	-0.097
-355.566	398.592	-0.130	-0.274
-354.552	129.946	0.124	-0.160
-353.537	-127.242	0.250	-0.037
-352.523	347.090	0.184	0.366
-351.508	-135.295	0.172	-0.021
-350.493	-137.714	-0.544	0.062
-349.479	-32.691	-0.079	0.044
-348.464	-193.158	0.068	0.001
-347.450	-200.000	-0.027	-0.254
-346.435	-81.096	0.188	-0.063
-345.420	-200.000	0.014	0.097
-344.406	-200.000	-0.023	-0.161
-343.391	23.847	0.164	-0.136
-342.377	-200.000	0.023	0.232
-341.362	-200.000	-0.002	-0.336
-340.348	146.445	0.053	0.072
-339.333	800.000	0.061	-0.205
-338.318	1.579	-0.139	-0.101
-337.304	-200.000	0.031	0.427
-336.289	-5.261	0.108	0.075
-335.275	130.653	0.317	-0.410
-334.260	-125.961	-0.209	-0.032
-333.245	12.055	0.273	0.211
-332.231	187.843	-0.116	0.174
-331.216	54.808	0.132	0.128
-330.202	-97.126	0.386	-0.101
-329.187	-200.000	-0.057	-0.269
-328.172	-131.863	-0.152	-0.020
-327.158	59.219	0.192	-0.190
-326.143	-50.084	0.104	-0.050
-325.129	800.000	0.017	0.056
-324.114	-86.497	-0.216	-0.067
-323.099	-20.782	-0.241	-0.149
-322.085	28.424	0.258	0.219
-321.070	-55.039	0.362	0.164
-320.056	141.648	-0.084	-0.112
-319.041	513.639	-0.043	-0.102
-318.026	-33.720	0.214	0.119
-317.012	-200.000	-0.031	-0.175
-315.997	188.842	-0.098	-0.147
-314.983	136.564	-0.184	0.242
-313.968	-164.460	0.155	-0.007
-312.953	231.707	0.195	-0.322
-311.939	-113.267	0.122	0.024
-310.924	-167.406	0.032	-0.001
-309.910	72.258	0.132	-0.139
-308.895	-123.319	0.165	0.026
-307.880	-103.082	0.267	0.064
-306.866	88.619	0.216	-0.241
-305.851	683.388	-0.035	-0.091
-304.837	800.000	0.082	-0.253
-303.822	50.826	-0.211	-0.201
-302.807	-200.000	-0.006	0.301
-301.793	355.330	0.116	0.231
-300.778	176.965	-0.148	0.217
-299.764	-76.084	-0.113	0.040
-298.749	113.018	-0.180	-0.219
-297.735	-157.231	0.066	-0.004
-296.720	64.450	-0.069	0.069
-295.705	800.000	-0.075	0.214
-294.691	155.464	-0.213	0.295
-293.676	267.600	-0.088	-0.154
-292.662	-74.960	-0.339	0.122
-291.647	-200.000	0.065	-0.296
-290.632	310.671	0.085	-0.160
-289.618	-39.361	-0.142	0.075
-288.603	-200.000	0.007	-0.278
-287.589	448.603	0.051	0.114
-286.574	269.264	0.166	-0.293
-285.559	-91.733	0.338	-0.097
-284.545	-2.185	-0.333	0.235
-283.530	-2.372	-0.248	0.175
-282.516	53.355	0.184	-0.177
-281.501	178.714	-0.044	0.065
-280.486	657.378	0.048	0.124
-279.472	7.171	-0.217	-0.163
-278.457	-200.000	0.006	-0.062
-277.443	800.000	-0.112	0.347
-276.428	41.902	-0.063	-0.057
-275.413	800.000	-0.059	0.248
-274.399	-49.499	0.118	-0.056
-273.384	-50.126	0.477	0.227
-272.370	-6.020	0.185	0.127
-271.355	415.685	0.199	-0.427
-270.340	-200.000	0.005	0.198
-269.326	-17.460	0.157	0.099
-268.311	178.099	-0.045	-0.066
-267.297	-78.122	-0.157	-0.054
-266.282	73.570	-0.160	-0.168
-265.267	-200.000	0.003	-0.108
-264.253	-200.000	-0.212	0.000
-263.238	356.411	0.094	-0.188
-262.224	-125.902	-0.256	0.039
-261.209	18.687	0.257	0.206
-260.195	5.806	0.187	-0.139
-259.180	39.490	0.166	0.149
-258.165	-10.653	0.229	-0.152
-257.151	109.880	-0.029	-0.035
-256.136	-200.000	-0.009	-0.060
-255.122	-175.215	0.242	0.007
-254.107	427.007	0.071	0.154
-253.092	503.404	0.079	0.184
-252.078	800.000	-0.073	0.270
-251.063	-28.619	-0.171	-0.099
-250.049	-107.679	0.274	0.060
-249.034	-200.000	-0.013	-0.330
-248.019	74.645	-0.310	-0.327
-247.005	156.631	0.031	-0.043
-245.990	-200.000	0.001	-0.245
-244.976	-200.000	0.031	-0.416
-243.961	-15.641	-0.183	0.117
-242.946	330.968	-0.148	-0.287
-241.932	-172.715	0.070	-0.002
-240.917	-77.666	-0.096	0.033
-239.903	-113.313	-0.043	0.009
-238.888	-121.008	0.125	-0.021
-237.873	292.192	0.302	0.551
-236.859	3.740	-0.273	-0.200
-235.844	5.054	-0.195	-0.144
-234.830	800.000	-0.035	-0.145
-233.815	-200.000	-0.028	-0.139
-232.800	-96.141	0.155	0.041
-231.786	-200.000	0.039	-0.196
-230.771	-53.197	-0.159	0.073
-229.757	800.000	0.065	-0.250
-228.742	-2.684	-0.167	-0.117
-227.727	-0.023	-0.302	0.215
-226.713	430.836	-0.102	0.222
-225.698	175.051	0.117	-0.170
-224.684	-64.987	0.360	0.146
-223.669	-200.000	-0.062	-0.420
-222.655	800.000	-0.086	0.239
-221.640	124.233	0.102	-0.129
-220.625	311.549	-0.166	-0.312
-219.611	-102.281	0.324	0.078
-218.596	-140.061	-0.004	-0.000
-217.582	800.000	0.032	0.122
-216.567	29.089	0.168	-0.143
-215.552	-200.000	-0.002	-0.061
-214.538	46.114	0.061	0.056
-213.523	-10.089	-0.234	0.156
-212.509	340.668	-0.151	0.295
-211.494	29.203	-0.230	0.195
-210.479	-133.529	0.250	-0.031
-209.465	-12.841	0.193	0.126
-208.450	264.096	0.138	-0.241
-207.436	-200.000	0.037	0.173
-206.421	381.494	-0.048	0.098
-205.406	465.739	-0.031	-0.070
-204.392	-45.765	-0.135	0.067
-203.377	-125.699	-0.209	0.032
-202.363	-25.041	0.193	0.115
-201.348	-48.596	0.156	-0.075
-200.333	800.000	-0.102	-0.362
-199.319	-38.565	0.184	-0.097
-198.304	106.655	-0.329	-0.391
-197.290	-151.025	-0.161	-0.012
-196.275	-24.564	-0.184	-0.109
-195.260	52.482	0.072	0.069
-194.246	-2.111	0.175	-0.123
-193.231	-87.667	-0.400	0.121
-192.217	23.154	0.110	0.090
-191.202	-160.304	-0.222	-0.012
-190.187	177.642	-0.114	0.166
-189.173	248.627	0.038	0.064
-188.158	-133.182	-0.134	0.017
-187.144	211.388	-0.150	0.237
-186.129	-16.701	-0.038	-0.024
-185.114	-91.574	0.111	0.032
-184.100	-82.008	-0.402	-0.131
-183.085	144.794	-0.084	-0.113
-182.071	266.044	-0.019	-0.034
-181.056	-200.000	-0.021	-0.116
-180.042	-200.000	-0.002	-0.289
-179.027	-36.111	-0.155	-0.084
-178.012	800.000	0.036	-0.152
-176.998	-60.176	0.150	-0.064
-175.983	-200.000	-0.050	-0.235
-174.969	258.565	0.041	0.071
-173.954	-200.000	-0.008	0.120
-172.939	-200.000	0.035	0.267
-171.925	643.565	-0.103	-0.264
-170.910	800.000	-0.023	-0.073
-169.896	296.222	-0.120	-0.220
-168.881	-130.317	-0.174	-0.024
-167.866	177.153	0.151	-0.219
-166.852	690.135	0.059	-0.154
-165.837	-200.000	0.009	0.133
-164.823	-69.324	-0.061	-0.023
-163.808	144.584	0.214	0.286
-162.793	-200.000	-0.005	-0.041
-161.779	-4.758	-0.207	-0.142
-160.764	-94.046	-0.353	0.097
-159.750	547.028	-0.083	-0.198
-158.735	-124.436	-0.282	-0.044
-157.720	-155.497	0.297	0.019
-156.706	30.453	0.196	0.168
-155.691	119.445	-0.192	0.238
-154.677	800.000	-0.102	0.305
-153.662	-31.341	0.167	0.094
-152.647	-69.451	-0.146	0.056
-151.633	-160.786	-0.163	-0.009
-150.618	-109.114	0.210	0.045
-149.604	800.000	-0.033	0.096
-148.589	-72.946	-0.117	0.043
-147.574	452.951	0.161	0.356
-146.560	-47.322	-0.311	0.151
-145.545	116.113	-0.180	0.221
-144.531	800.000	0.060	0.202
-143.516	87.239	0.082	0.090
-142.502	198.957	0.114	-0.175
-141.487	-19.428	-0.283	-0.175
-140.472	81.430	0.176	0.190
-139.458	-23.516	0.176	0.105
-138.443	608.005	0.153	0.382
-137.429	120.165	-0.172	0.214
-136.414	17.438	-0.192	-0.152
-135.399	-104.579	0.143	0.033
-134.385	-200.000	0.005	-0.128
-133.370	139.032	-0.165	-0.217
-132.356	189.539	-0.177	0.264
-131.341	-81.197	0.175	0.058
-130.326	218.938	0.183	0.291
-129.312	13.995	-0.216	0.168
-128.297	-13.782	-0.176	-0.114
-127.283	240.224	0.097	-0.162
-126.268	-200.000	-0.034	0.303
-125.253	-200.000	0.019	0.299
-124.239	33.176	-0.200	0.174
-123.224	460.952	-0.177	0.394
-122.210	63.276	0.022	-0.022
-121.195	-150.052	-0.159	-0.012
