DTS Sentinel unit serial number:	SN413079Multiplexer serial number:	ORYXHardware model number:	OX4-SRSoftware version number:	ORYX F/W v4.00 Oryx Data Collector v3.7.2.0data status	okinstallation	princeton_trtdifferential loss correction	single-endedforward channel	channel 1reverse channel	N/Adate	2019/09/15time	12:02:35forward acquisition time	60.00reverse acquisition time	0.00gamma	496.2192k internal	0.2307k external	0.2307temperature offset calibration	0.9987default loss term (dB/km)	0.3790temperature slope calibration	1.0000multiplexer offset coefficient	1.0000multiplexer slope coefficient	1.0000fibre end	0.00T internal ref (°C)	34.44T ext. ref 1 (°C)	5.04T ext. ref 2 (°C)	30.37length (m)	temperature (°C)	Stokes	anti-Stokes-747.200	74.898	0.130	-0.140
-746.185	60.292	0.120	0.120
-745.171	-186.930	-0.122	0.002
-744.156	-200.000	0.023	0.267
-743.142	-69.598	-0.341	0.133
-742.127	414.089	-0.238	0.515
-741.112	-200.000	-0.006	-0.037
-740.098	800.000	-0.140	0.465
-739.083	-84.046	-0.354	0.114
-738.069	-200.000	-0.029	0.208
-737.054	19.615	-0.121	0.099
-736.039	-155.966	0.099	-0.006
-735.025	-83.567	-0.075	0.024
-734.010	-84.276	-0.328	0.106
-732.996	800.000	-0.053	0.228
-731.981	-126.546	-0.125	0.019
-730.966	-162.994	-0.370	0.018
-729.952	-103.377	-0.138	-0.033
-728.937	-173.525	-0.192	0.006
-727.923	800.000	0.007	0.028
-726.908	-101.993	-0.401	-0.098
-725.894	-112.322	-0.450	-0.092
-724.879	89.613	0.257	-0.291
-723.864	-10.970	-0.266	-0.178
-722.850	-151.238	-0.224	-0.017
-721.835	303.207	0.101	-0.190
-720.821	-200.000	0.018	0.109
-719.806	-200.000	-0.029	-0.142
-718.791	-200.000	-0.029	0.300
-717.777	-180.606	-0.164	-0.003
-716.762	800.000	0.044	-0.179
-715.748	157.327	-0.075	-0.105
-714.733	113.034	0.127	0.157
-713.718	49.282	-0.047	0.045
-712.704	-200.000	0.002	0.056
-711.689	616.499	0.004	0.010
-710.675	6.681	-0.274	-0.207
-709.660	800.000	0.031	-0.091
-708.645	-152.519	-0.260	-0.019
-707.631	-46.811	0.043	-0.021
-706.616	-65.385	0.134	0.055
-705.602	100.499	-0.236	-0.279
-704.587	-14.727	-0.269	0.175
-703.572	-113.355	-0.139	-0.028
-702.558	92.233	0.094	0.108
-701.543	141.946	0.010	-0.013
-700.529	-19.535	-0.065	0.041
-699.514	36.215	0.255	-0.228
-698.499	396.274	-0.049	0.104
-697.485	39.927	-0.074	0.068
-696.470	-125.921	-0.251	0.038
-695.456	-32.080	-0.187	0.106
-694.441	6.378	0.130	-0.098
-693.426	399.417	0.114	0.242
-692.412	-64.918	-0.105	0.043
-691.397	168.569	-0.068	0.099
-690.383	424.817	-0.089	-0.194
-689.368	26.811	0.134	0.114
-688.354	800.000	-0.034	0.142
-687.339	196.400	0.138	0.213
-686.324	-200.000	0.015	-0.118
-685.310	-200.000	0.009	0.074
-684.295	-132.261	0.178	0.023
-683.281	-101.566	0.106	-0.026
-682.266	-197.575	0.346	0.002
-681.251	90.151	0.154	-0.175
-680.237	-200.000	-0.021	0.269
-679.222	-49.837	-0.188	0.091
-678.208	-200.000	0.014	0.149
-677.193	-58.700	-0.209	0.092
-676.178	-57.391	-0.153	-0.068
-675.164	-63.544	-0.240	0.100
-674.149	41.315	0.242	-0.222
-673.135	282.629	-0.066	-0.120
-672.120	-26.740	0.282	-0.167
-671.105	-7.984	-0.073	0.050
-670.091	-70.589	0.054	0.021
-669.076	-200.000	-0.035	-0.324
-668.062	-3.127	0.147	0.104
-667.047	800.000	0.076	0.255
-666.032	-126.290	0.178	-0.027
-665.018	141.027	0.212	-0.285
-664.003	295.832	-0.157	0.291
-662.989	800.000	-0.084	-0.363
-661.974	-200.000	-0.231	0.001
-660.959	57.819	0.181	0.180
-659.945	-60.387	0.713	0.308
-658.930	-162.751	0.144	0.007
-657.916	375.346	-0.028	0.057
-656.901	335.018	-0.112	-0.221
-655.886	-80.284	0.043	0.014
-654.872	77.242	0.056	0.060
-653.857	-139.604	-0.149	-0.016
-652.843	237.458	0.034	0.058
-651.828	245.627	-0.151	0.258
-650.814	-36.062	-0.171	0.094
-649.799	63.029	0.047	0.048
-648.784	182.838	-0.185	0.277
-647.770	-200.000	-0.008	-0.053
-646.755	-200.000	-0.002	0.179
-645.741	32.490	0.095	0.083
-644.726	800.000	0.084	0.334
-643.711	-128.110	-0.283	0.041
-642.697	-70.978	-0.147	0.056
-641.682	-77.861	0.214	0.075
-640.668	-3.357	-0.275	0.194
-639.653	81.283	0.048	-0.052
-638.638	-142.576	-0.310	0.031
-637.624	427.944	0.048	0.104
-636.609	-200.000	0.033	0.179
-635.595	472.575	0.074	-0.169
-634.580	800.000	-0.071	-0.253
-633.565	384.747	-0.094	0.197
-632.551	-103.966	0.077	-0.018
-631.536	-200.000	0.021	-0.367
-630.522	18.041	-0.356	0.287
-629.507	233.409	0.214	0.357
-628.492	441.694	0.090	-0.200
-627.478	-200.000	0.041	0.285
-626.463	-100.609	0.389	-0.097
-625.449	-121.694	-0.242	-0.040
-624.434	-71.667	-0.347	-0.131
-623.419	800.000	0.101	-0.344
-622.405	-200.000	0.002	0.199
-621.390	18.707	0.081	-0.066
-620.376	-200.000	-0.010	-0.197
-619.361	219.269	-0.029	0.046
-618.346	800.000	0.042	0.119
-617.332	294.144	-0.177	-0.327
-616.317	-200.000	-0.008	0.039
-615.303	-74.106	0.410	0.150
-614.288	-96.704	0.211	0.056
-613.273	-117.498	-0.351	-0.064
-612.259	-200.000	-0.034	0.174
-611.244	-22.790	0.233	0.142
-610.230	-118.510	0.211	0.038
-609.215	750.728	-0.052	0.142
-608.201	-77.659	-0.325	0.114
-607.186	-200.000	0.011	0.310
-606.171	65.512	-0.141	0.145
-605.157	-200.000	0.012	-0.175
-604.142	90.361	0.094	-0.106
-603.128	60.521	0.146	0.146
-602.113	-105.172	0.452	0.104
-601.098	-50.060	0.074	0.036
-600.084	217.974	0.064	-0.104
-599.069	-110.305	0.264	0.056
-598.055	61.308	0.239	0.240
-597.040	12.193	0.280	0.218
-596.025	76.821	-0.186	-0.200
-595.011	-145.710	-0.258	0.023
-593.996	-139.824	-0.162	-0.017
-592.982	-170.302	0.265	-0.009
-591.967	174.426	0.087	-0.127
-590.952	75.791	-0.189	-0.202
-589.938	99.991	0.208	0.243
-588.923	-30.550	0.200	0.115
-587.909	23.331	-0.261	-0.217
-586.894	-200.000	-0.043	0.285
-585.879	800.000	-0.128	0.463
-584.865	47.300	0.156	0.146
-583.850	64.139	-0.043	-0.044
-582.836	-54.883	0.184	-0.084
-581.821	-176.422	0.380	-0.010
-580.806	-113.011	-0.238	-0.047
-579.792	66.351	-0.077	0.079
-578.777	242.128	0.093	0.157
-577.763	565.596	-0.053	0.131
-576.748	-200.000	0.055	-0.283
-575.733	176.293	-0.123	0.180
-574.719	69.905	0.242	-0.252
-573.704	-65.179	0.362	-0.147
-572.690	-45.496	-0.237	-0.119
-571.675	129.058	-0.249	0.321
-570.661	-64.725	0.329	-0.134
-569.646	800.000	-0.062	0.177
-568.631	-200.000	-0.010	-0.155
-567.617	-200.000	-0.010	-0.072
-566.602	-80.100	-0.238	-0.080
-565.588	333.990	-0.082	-0.160
-564.573	-112.749	-0.094	-0.019
-563.558	-200.000	0.003	-0.068
-562.544	-200.000	-0.005	-0.044
-561.529	287.203	0.108	-0.197
-560.515	-47.534	-0.041	-0.020
-559.500	111.207	-0.343	-0.418
-558.485	443.965	0.040	0.088
-557.471	-50.564	-0.012	-0.006
-556.456	800.000	0.036	-0.144
-555.442	-123.921	-0.233	0.037
-554.427	-200.000	-0.009	-0.150
-553.412	201.463	-0.093	0.144
-552.398	-122.406	0.084	-0.014
-551.383	-200.000	-0.006	0.126
-550.369	-200.000	-0.016	0.135
-549.354	-13.682	0.192	0.126
-548.339	389.906	0.120	-0.251
-547.325	98.106	0.026	-0.030
-546.310	-129.458	-0.239	-0.033
-545.296	-98.408	0.385	-0.099
-544.281	88.682	-0.109	-0.122
-543.266	43.502	0.096	-0.088
-542.252	170.015	0.202	-0.292
-541.237	-7.977	0.133	-0.091
-540.223	351.309	0.076	-0.151
-539.208	-33.935	0.231	0.128
-538.193	800.000	-0.107	-0.353
-537.179	141.512	-0.091	-0.122
-536.164	466.048	0.067	-0.152
-535.150	-112.538	-0.075	-0.015
-534.135	128.815	-0.102	-0.131
-533.121	115.968	-0.177	0.219
-532.106	114.898	-0.111	-0.137
-531.091	-125.763	0.278	0.042
-530.077	144.402	-0.201	-0.271
-529.062	187.105	0.135	-0.204
-528.048	-200.000	0.011	0.239
-527.033	-200.000	-0.002	0.235
-526.018	232.472	-0.196	-0.325
-525.004	-200.000	-0.000	-0.314
-523.989	-16.187	0.242	-0.155
-522.975	543.024	0.096	-0.231
-521.960	587.034	-0.136	0.338
-520.945	-23.120	-0.048	0.029
-519.931	-140.541	-0.191	0.020
-518.916	560.832	0.120	0.292
-517.902	-8.214	-0.178	0.121
-516.887	208.246	0.298	-0.469
-515.872	-127.095	-0.521	-0.077
-514.858	-74.755	-0.302	0.109
-513.843	123.351	-0.055	0.069
-512.829	-81.554	-0.223	-0.074
-511.814	-200.000	-0.000	0.253
-510.799	-38.512	0.088	0.047
-509.785	88.233	-0.122	0.137
-508.770	352.583	0.060	0.119
-507.756	37.742	0.200	-0.179
-506.741	-94.541	-0.389	0.107
-505.726	174.053	-0.266	0.387
-504.712	180.622	-0.083	0.123
-503.697	125.188	0.134	-0.170
-502.683	-188.088	-0.160	0.002
-501.668	-200.000	-0.008	-0.219
-500.653	278.880	-0.124	-0.222
-499.639	43.920	-0.026	0.024
-498.624	-63.686	-0.650	-0.268
-497.610	386.944	-0.114	0.237
-496.595	221.807	0.060	0.098
-495.581	-200.000	-0.009	-0.202
-494.566	-200.000	-0.002	-0.266
-493.551	43.637	0.162	-0.149
-492.537	687.388	0.094	-0.247
-491.522	-200.000	0.018	-0.217
-490.508	90.477	0.215	-0.242
-489.493	-107.730	0.259	-0.057
-488.478	189.654	-0.057	-0.086
-487.464	706.648	0.126	-0.336
-486.449	-114.324	0.255	-0.049
-485.435	88.382	-0.241	-0.269
-484.420	2.061	-0.017	0.012
-483.405	-200.000	-0.070	-0.344
-482.391	-45.543	0.101	0.050
-481.376	-200.000	-0.066	0.394
-480.362	120.412	0.203	0.253
-479.347	-95.895	0.424	0.114
-478.332	-200.000	0.004	0.147
-477.318	-36.453	0.249	-0.135
-476.303	795.800	-0.032	-0.087
-475.289	-133.130	-0.518	-0.066
-474.274	572.180	0.204	-0.499
-473.259	-101.036	-0.227	0.056
-472.245	13.841	0.043	-0.034
-471.230	-140.833	-0.227	-0.024
-470.216	-50.989	-0.065	0.031
-469.201	-155.663	0.183	-0.012
-468.186	137.785	-0.188	0.247
-467.172	183.285	0.102	0.151
-466.157	81.279	-0.225	-0.245
-465.143	-159.989	-0.326	0.018
-464.128	-84.881	0.090	-0.029
-463.113	-72.719	-0.267	-0.099
-462.099	-55.214	-0.157	0.071
-461.084	112.704	-0.233	0.283
-460.070	-178.003	-0.279	-0.007
-459.055	800.000	-0.046	-0.133
-458.040	44.957	-0.217	0.201
-457.026	-89.972	-0.152	-0.044
-456.011	64.335	-0.069	-0.070
-454.997	-200.000	-0.162	0.000
-453.982	800.000	-0.023	-0.096
-452.968	-200.000	-0.003	0.038
-451.953	29.526	0.038	0.032
-450.938	-200.000	-0.040	0.223
-449.924	-84.635	-0.189	-0.060
-448.909	-200.000	-0.023	-0.132
-447.895	232.327	0.100	0.165
-446.880	-72.886	0.060	0.022
-445.865	261.876	-0.134	-0.233
-444.851	80.390	-0.167	0.181
-443.836	-103.112	0.181	-0.043
-442.822	21.570	0.177	0.145
-441.807	-23.411	0.127	-0.077
-440.792	-200.000	-0.002	-0.072
-439.778	-200.000	0.014	0.276
-438.763	298.159	0.154	0.285
-437.749	251.400	0.061	0.105
-436.734	161.780	-0.058	-0.081
-435.719	640.213	0.009	-0.022
-434.705	-14.599	0.253	-0.163
-433.690	-200.000	0.004	0.129
-432.676	32.950	0.232	0.202
-431.661	-200.000	0.061	-0.280
-430.646	602.402	-0.039	0.097
-429.632	-200.000	-0.008	0.469
-428.617	546.635	0.128	0.308
-427.603	-59.078	0.239	-0.103
-426.588	484.090	-0.093	-0.212
-425.573	-138.243	0.290	0.032
-424.559	212.718	-0.011	0.018
-423.544	51.517	0.091	-0.087
-422.530	144.600	0.216	-0.290
-421.515	800.000	-0.100	0.301
-420.500	-119.679	0.064	-0.011
-419.486	467.083	0.052	-0.118
-418.471	-71.917	0.317	0.119
-417.457	-55.941	-0.236	-0.106
-416.442	-52.407	-0.233	0.108
-415.428	-114.277	-0.456	-0.088
-414.413	331.344	-0.134	-0.259
-413.398	-72.390	0.105	0.039
-412.384	800.000	0.017	0.056
-411.369	6.283	0.150	-0.112
-410.355	-161.698	0.204	-0.010
-409.340	800.000	0.087	-0.329
-408.325	63.572	-0.065	-0.066
-407.311	-4.144	0.002	0.001
-406.296	-200.000	-0.005	0.076
-405.282	39.235	0.191	0.172
-404.267	-75.837	-0.108	0.038
-403.252	233.026	0.080	-0.133
-402.238	-68.498	-0.138	-0.054
-401.223	-157.221	-0.171	-0.010
-400.209	-63.428	0.276	-0.114
-399.194	-65.183	0.136	-0.055
-398.179	-72.028	-0.182	0.068
-397.165	-200.000	-0.062	-0.374
-396.150	-45.143	-0.076	-0.038
-395.136	-188.459	-0.048	-0.001
-394.121	-148.565	-0.208	-0.017
-393.106	800.000	-0.171	-0.481
-392.092	699.572	-0.118	-0.311
-391.077	149.830	0.157	0.214
-390.063	-55.641	0.147	-0.066
-389.048	800.000	-0.088	-0.333
-388.033	-200.000	0.024	0.125
-387.019	-200.000	-0.037	-0.170
-386.004	67.378	-0.187	0.192
-384.990	-48.253	0.224	-0.108
-383.975	33.453	-0.097	-0.085
-382.960	-90.909	-0.361	0.104
-381.946	-16.091	-0.153	-0.097
-380.931	800.000	0.059	-0.211
-379.917	-188.524	-0.088	-0.001
-378.902	501.434	-0.102	-0.237
-377.888	42.075	0.029	0.026
-376.873	-147.830	-0.067	0.006
-375.858	7.008	-0.077	-0.058
-374.844	-63.258	-0.163	0.067
-373.829	800.000	-0.059	-0.207
-372.815	25.959	0.336	-0.281
-371.800	68.422	0.046	-0.047
-370.785	291.541	-0.085	-0.154
-369.771	-53.493	-0.270	0.124
-368.756	-200.000	0.025	0.236
-367.742	13.693	0.110	-0.086
-366.727	48.924	0.067	-0.063
-365.712	212.102	-0.093	0.146
-364.698	540.978	0.079	0.189
-363.683	202.458	0.116	-0.180
-362.669	-107.826	0.346	0.076
-361.654	-168.771	0.092	-0.003
-360.639	-75.312	0.122	-0.044
-359.625	187.671	0.211	0.315
-358.610	127.824	-0.127	0.162
-357.596	-9.198	0.233	0.156
-356.581	133.554	0.063	0.081
-355.566	312.238	0.078	-0.146
-354.552	199.933	0.082	0.125
-353.537	-33.022	-0.330	-0.183
-352.523	-200.000	-0.012	-0.242
-351.508	80.264	-0.197	-0.213
-350.493	-200.000	0.040	-0.390
-349.479	-89.919	0.172	-0.050
-348.464	-8.519	-0.152	-0.102
-347.450	-89.013	-0.561	0.166
-346.435	-27.810	0.163	0.095
-345.420	26.732	0.260	0.218
-344.406	-116.959	-0.278	0.051
-343.391	147.921	-0.178	0.240
-342.377	-114.330	0.161	-0.031
-341.362	-200.000	0.012	0.216
-340.348	580.977	0.103	-0.253
-339.333	145.558	0.162	0.218
-338.318	59.702	0.047	-0.046
-337.304	-200.000	-0.073	0.408
-336.289	-147.379	-0.242	-0.021
-335.275	-40.332	-0.044	0.023
-334.260	-200.000	0.004	-0.033
-333.245	24.901	0.112	0.093
-332.231	66.504	0.104	-0.105
-331.216	-131.407	0.199	-0.026
-330.202	-83.131	0.401	0.129
-329.187	439.428	-0.141	0.309
-328.172	-143.106	0.265	-0.026
-327.158	79.210	-0.126	0.136
-326.143	-67.439	-0.255	-0.100
-325.129	-55.221	0.216	0.097
-324.114	151.988	0.089	-0.121
-323.099	-144.257	-0.262	0.024
-322.085	-97.167	-0.084	0.022
-321.070	-200.000	-0.019	0.306
-320.056	263.566	0.080	-0.139
-319.041	26.910	0.136	0.114
-318.026	735.363	-0.065	0.174
-317.012	287.930	0.008	0.014
-315.997	96.001	-0.026	0.030
-314.983	-110.593	0.454	0.094
-313.968	131.350	0.083	-0.107
-312.953	-93.524	-0.153	-0.042
-311.939	-156.390	-0.254	0.016
-310.924	-46.973	-0.115	0.056
-309.910	112.915	0.227	0.275
-308.895	43.697	-0.022	0.020
-307.880	-200.000	-0.020	-0.241
-306.866	350.700	0.055	0.108
-305.851	578.798	-0.063	-0.155
-304.837	18.774	0.544	0.435
-303.822	302.321	0.139	0.257
-302.807	-196.476	-0.386	0.003
-301.793	42.914	0.117	0.107
-300.778	344.817	-0.108	0.212
-299.764	-29.966	-0.121	0.069
-298.749	-55.231	0.141	-0.063
-297.735	781.654	-0.022	0.061
-296.720	-24.548	0.082	0.049
-295.705	15.246	-0.363	0.284
-294.691	-70.323	-0.077	0.029
-293.676	-180.897	-0.074	-0.001
-292.662	97.334	0.239	0.274
-291.647	203.265	-0.166	0.256
-290.632	-100.034	-0.189	-0.047
-289.618	-200.000	0.099	0.471
-288.603	114.789	0.170	0.207
-287.589	-119.329	-0.057	0.010
-286.574	-177.993	0.328	0.008
-285.559	-171.219	0.115	-0.004
-284.545	174.795	-0.099	-0.143
-283.530	-2.302	-0.176	-0.123
-282.516	-59.525	-0.110	-0.047
-281.501	81.335	-0.310	0.335
-280.486	106.178	-0.106	0.125
-279.472	-200.000	-0.018	0.250
-278.457	147.421	0.134	0.180
-277.443	-200.000	0.034	0.609
-276.428	-18.237	0.154	0.096
-275.413	507.330	0.033	-0.077
-274.399	800.000	-0.048	0.200
-273.384	-139.811	0.224	0.024
-272.370	80.026	-0.082	-0.088
-271.355	43.636	0.177	0.161
-270.340	-200.000	-0.038	0.235
-269.326	800.000	0.065	0.180
-268.311	486.292	-0.050	-0.114
-267.297	800.000	-0.054	0.152
-266.282	-131.078	0.242	0.032
-265.267	-180.428	-0.158	-0.003
-264.253	-84.547	0.156	0.049
-263.238	-16.271	-0.108	-0.069
-262.224	-200.000	0.036	-0.368
-261.209	36.161	0.059	-0.052
-260.195	-61.278	-0.347	-0.146
-259.180	-84.165	-0.200	-0.063
-258.165	-119.916	0.318	0.055
-257.151	344.117	-0.039	-0.076
-256.136	-125.414	0.136	-0.021
-255.122	800.000	0.039	-0.169
-254.107	-158.837	0.134	-0.008
-253.092	43.634	-0.259	0.236
-252.078	-154.562	0.253	0.017
-251.063	-200.000	-0.011	-0.077
-250.049	-195.515	0.394	-0.003
-249.034	8.493	-0.113	-0.085
-248.019	-200.000	0.006	0.028
-247.005	108.177	-0.153	-0.182
-245.990	-74.741	0.214	-0.077
-244.976	307.082	-0.279	0.518
-243.961	98.270	-0.153	0.176
-242.946	79.165	-0.214	0.229
-241.932	-144.824	-0.344	0.031
-240.917	-200.000	-0.025	-0.118
-239.903	64.384	-0.110	-0.110
-238.888	-21.626	0.276	-0.168
-237.873	-200.000	-0.091	-0.424
-236.859	-104.705	0.366	-0.084
-235.844	99.003	0.150	-0.173
-234.830	-30.371	0.124	0.070
-233.815	16.535	-0.137	0.108
-232.800	-21.322	0.121	0.074
-231.786	-125.404	0.253	0.038
-230.771	11.001	0.330	0.252
-229.757	-70.039	-0.450	0.171
-228.742	145.274	0.084	0.112
-227.727	-16.739	-0.134	0.084
-226.713	-200.000	-0.054	-0.280
-225.698	-106.411	0.378	-0.084
-224.684	130.442	-0.151	-0.192
-223.669	-95.107	0.348	-0.093
-222.655	122.610	0.062	-0.077
-221.640	238.412	-0.104	-0.172
-220.625	800.000	0.055	0.183
-219.611	-200.000	-0.045	-0.261
-218.596	-109.971	0.276	-0.058
-217.582	-173.137	-0.411	0.013
-216.567	-100.503	0.433	0.107
-215.552	-84.143	-0.196	0.062
-214.538	-200.000	0.013	-0.198
-213.523	660.102	0.060	-0.154
-212.509	-78.916	0.059	0.020
-211.494	109.807	-0.019	-0.022
-210.479	-200.000	-0.031	-0.145
-209.465	-123.858	-0.067	0.010
-208.450	-80.694	0.323	-0.107
-207.436	62.801	0.262	-0.261
-206.421	-131.104	0.150	0.020
-205.406	386.692	-0.139	0.286
-204.392	70.933	-0.027	0.028
-203.377	-200.000	0.016	0.104
-202.363	-106.582	-0.196	-0.044
-201.348	70.973	0.177	0.183
-200.333	-73.241	-0.319	0.116
-199.319	113.428	0.151	-0.183
-198.304	-79.759	-0.226	0.076
-197.290	-174.440	-0.278	0.008
-196.275	-102.370	0.104	-0.025
-195.260	89.977	-0.323	-0.360
-194.246	255.955	-0.095	0.162
-193.231	-92.499	0.116	0.032
-192.217	-97.341	-0.235	-0.061
-191.202	-200.000	0.004	-0.020
-190.187	800.000	-0.116	-0.359
-189.173	93.672	0.180	-0.203
-188.158	-166.429	0.331	0.014
-187.144	75.933	-0.160	-0.168
-186.129	-33.342	0.220	0.121
-185.114	-200.000	0.048	-0.326
-184.100	-128.719	0.161	-0.023
-183.085	286.607	-0.087	0.156
-182.071	-109.514	0.179	0.038
-181.056	-135.337	0.298	-0.035
-180.042	800.000	0.059	0.199
-179.027	800.000	0.045	0.164
-178.012	-200.000	-0.011	-0.247
-176.998	178.015	-0.124	-0.179
-175.983	-200.000	-0.002	-0.048
-174.969	-91.653	-0.295	-0.083
-173.954	-178.068	-0.340	0.008
-172.939	49.480	0.168	0.157
-171.925	-200.000	0.016	-0.250
-170.910	9.094	0.129	-0.097
-169.896	-53.036	-0.094	0.043
-168.881	-200.000	0.001	-0.091
-167.866	-35.971	0.156	-0.084
-166.852	-95.361	-0.082	0.022
-165.837	49.549	-0.014	-0.013
-164.823	161.438	0.050	0.070
-163.808	-40.809	-0.070	0.036
-162.793	-200.000	-0.040	0.217
-161.779	16.408	-0.437	-0.343
-160.764	-123.033	0.138	-0.022
-159.750	495.958	0.136	0.311
-158.735	-130.075	0.314	-0.043
-157.720	15.047	0.096	-0.075
-156.706	-85.594	0.032	-0.010
-155.691	-47.675	0.178	-0.086
-154.677	-97.033	-0.108	-0.028
-153.662	-78.149	0.141	-0.048
-152.647	-93.592	-0.314	0.086
-151.633	800.000	-0.051	0.183
-150.618	800.000	0.067	-0.202
-149.604	397.830	0.046	0.095
-148.589	-103.492	-0.236	0.055
-147.574	-173.240	0.079	-0.002
-146.560	48.499	0.089	0.083
-145.545	-140.825	0.247	-0.025
-144.531	86.572	-0.188	-0.206
-143.516	800.000	0.021	-0.076
-142.502	-59.452	0.325	-0.139
-141.487	245.433	0.142	-0.237
-140.472	-96.887	0.065	-0.017
-139.458	-135.537	-0.068	-0.008
-138.443	185.835	0.150	-0.222
-137.429	110.279	0.199	-0.238
-136.414	108.999	-0.137	-0.163
-135.399	68.848	-0.097	-0.099
-134.385	147.451	-0.134	-0.179
-133.370	-34.050	-0.035	-0.019
-132.356	800.000	-0.051	0.209
-131.341	-186.038	-0.194	-0.003
-130.326	-124.177	-0.220	0.034
-129.312	20.651	0.093	0.075
-128.297	-200.000	-0.010	-0.050
-127.283	-200.000	0.042	-0.224
-126.268	-25.504	0.240	0.141
-125.253	-166.117	-0.292	0.012
-124.239	-200.000	-0.006	-0.171
-123.224	-173.828	0.217	-0.006
-122.210	-200.000	-0.057	0.276
