DTS Sentinel unit serial number:	SN413079Multiplexer serial number:	ORYXHardware model number:	OX4-SRSoftware version number:	ORYX F/W v4.00 Oryx Data Collector v3.7.2.0data status	okinstallation	princeton_trtdifferential loss correction	single-endedforward channel	channel 1reverse channel	N/Adate	2019/09/14time	04:06:35forward acquisition time	60.00reverse acquisition time	0.00gamma	496.2192k internal	0.2335k external	0.2335temperature offset calibration	1.0076default loss term (dB/km)	0.3790temperature slope calibration	1.0000multiplexer offset coefficient	1.0000multiplexer slope coefficient	1.0000fibre end	0.00T internal ref (°C)	26.69T ext. ref 1 (°C)	3.31T ext. ref 2 (°C)	21.81length (m)	temperature (°C)	Stokes	anti-Stokes-747.200	-12.370	0.092	-0.060
-746.185	-156.504	0.196	-0.012
-745.171	-38.857	-0.100	-0.053
-744.156	-32.548	-0.277	0.155
-743.142	-147.542	0.186	0.016
-742.127	-200.000	-0.019	0.341
-741.112	201.108	0.020	0.032
-740.098	498.074	0.080	0.186
-739.083	216.813	-0.092	-0.147
-738.069	138.848	-0.139	-0.184
-737.054	-158.631	0.018	0.001
-736.039	-148.592	-0.339	0.028
-735.025	800.000	0.074	-0.246
-734.010	-200.000	-0.017	-0.197
-732.996	-1.216	-0.056	0.040
-731.981	-37.597	-0.069	-0.037
-730.966	543.626	0.082	-0.196
-729.952	-200.000	-0.013	0.201
-728.937	-13.504	-0.243	-0.158
-727.923	16.465	-0.169	-0.134
-726.908	800.000	0.058	0.199
-725.894	404.568	-0.073	-0.154
-724.879	-200.000	0.022	-0.130
-723.864	800.000	-0.107	0.421
-722.850	235.435	-0.033	0.054
-721.835	-200.000	0.073	-0.349
-720.821	-52.638	-0.132	-0.061
-719.806	275.424	-0.171	0.305
-718.791	42.389	-0.348	-0.318
-717.777	39.044	-0.032	-0.028
-716.762	-163.745	-0.227	0.011
-715.748	684.025	0.217	-0.568
-714.733	-200.000	0.018	-0.139
-713.718	35.031	-0.095	-0.084
-712.704	-60.279	-0.312	-0.133
-711.689	77.300	0.074	-0.079
-710.675	613.066	-0.066	-0.165
-709.660	800.000	0.095	-0.265
-708.645	20.031	0.161	0.130
-707.631	-200.000	0.007	-0.090
-706.616	648.622	0.091	-0.234
-705.602	-132.647	-0.434	0.056
-704.587	-92.955	-0.394	0.110
-703.572	-66.041	0.077	-0.031
-702.558	-200.000	-0.063	-0.474
-701.543	-200.000	0.007	0.485
-700.529	32.052	0.093	0.080
-699.514	114.363	0.015	0.018
-698.499	-130.108	0.106	-0.015
-697.485	161.564	-0.160	0.224
-696.470	38.387	-0.284	0.254
-695.456	157.060	0.169	0.235
-694.441	-13.233	-0.145	-0.094
-693.426	139.020	0.156	0.206
-692.412	389.147	0.097	-0.202
-691.397	-139.682	-0.201	0.021
-690.383	800.000	0.020	0.072
-689.368	556.465	-0.188	0.453
-688.354	69.513	0.130	-0.134
-687.339	-149.722	-0.242	0.019
-686.324	133.681	0.319	-0.414
-685.310	-127.861	0.328	0.047
-684.295	18.647	-0.237	0.190
-683.281	-172.548	-0.214	-0.007
-682.266	487.538	-0.089	-0.204
-681.251	496.559	0.043	-0.100
-680.237	631.122	0.018	0.047
-679.222	-0.629	0.035	-0.025
-678.208	-200.000	-0.055	0.304
-677.193	-24.730	0.010	0.006
-676.178	800.000	-0.056	-0.242
-675.164	-5.314	-0.450	-0.310
-674.149	-86.635	0.172	0.053
-673.135	236.131	-0.162	-0.268
-672.120	-22.194	-0.187	-0.113
-671.105	132.307	0.140	0.181
-670.091	555.912	-0.148	-0.357
-669.076	243.616	-0.050	0.084
-668.062	-8.232	-0.100	-0.068
-667.047	-200.000	-0.044	0.275
-666.032	-122.223	-0.315	0.052
-665.018	-156.062	-0.209	0.013
-664.003	-200.000	-0.053	-0.519
-662.989	601.088	-0.205	0.509
-661.974	184.651	0.134	-0.199
-660.959	-3.815	-0.048	0.033
-659.945	481.062	-0.102	-0.231
-658.930	-44.334	-0.322	0.162
-657.916	-200.000	-0.033	-0.247
-656.901	800.000	0.018	0.066
-655.886	-10.823	0.153	0.101
-654.872	-80.626	0.211	0.070
-653.857	17.108	0.039	-0.031
-652.843	800.000	-0.088	-0.254
-651.828	67.699	0.073	0.075
-650.814	391.844	-0.056	0.116
-649.799	-1.376	-0.238	-0.168
-648.784	600.867	-0.119	-0.295
-647.770	-200.000	0.010	0.101
-646.755	-200.000	0.478	-0.001
-645.741	-200.000	-0.029	-0.139
-644.726	-136.968	0.090	0.010
-643.711	-200.000	0.048	-0.290
-642.697	-19.066	-0.205	0.128
-641.682	800.000	-0.131	0.504
-640.668	-89.163	-0.300	0.089
-639.653	90.359	0.064	0.071
-638.638	34.460	0.145	-0.127
-637.624	56.989	0.207	0.202
-636.609	800.000	-0.062	-0.172
-635.595	-200.000	-0.075	-0.335
-634.580	33.936	-0.092	-0.080
-633.565	-200.000	0.050	0.257
-632.551	39.770	-0.365	-0.327
-631.536	-200.000	0.007	0.086
-630.522	512.484	-0.170	0.396
-629.507	-200.000	-0.045	-0.441
-628.492	23.407	0.280	0.230
-627.478	-87.092	0.133	0.040
-626.463	800.000	-0.133	0.402
-625.449	45.255	-0.141	0.130
-624.434	-128.617	0.036	-0.005
-623.419	166.473	-0.042	0.059
-622.405	82.693	-0.120	-0.131
-621.390	800.000	0.019	0.069
-620.376	69.570	0.291	-0.300
-619.361	-20.962	-0.319	-0.195
-618.346	-200.000	0.044	-0.315
-617.332	68.067	-0.186	0.190
-616.317	-31.800	0.283	0.158
-615.303	-34.030	-0.138	-0.076
-614.288	403.176	-0.174	-0.366
-613.273	800.000	-0.063	0.203
-612.259	-200.000	0.018	0.126
-611.244	-63.660	0.187	-0.077
-610.230	-78.299	-0.144	0.049
-609.215	-169.547	0.077	-0.003
-608.201	41.544	0.122	-0.111
-607.186	800.000	-0.061	0.248
-606.171	15.211	-0.073	-0.057
-605.157	18.596	-0.149	0.119
-604.142	17.837	-0.127	-0.101
-603.128	800.000	0.084	0.231
-602.113	-118.034	0.126	-0.023
-601.098	-149.906	-0.179	0.014
-600.084	800.000	0.063	-0.275
-599.069	11.576	-0.114	0.088
-598.055	-36.949	-0.169	0.091
-597.040	99.460	0.086	-0.099
-596.025	-200.000	-0.011	-0.187
-595.011	800.000	0.117	-0.360
-593.996	-29.636	-0.141	0.081
-592.982	-80.702	-0.171	-0.057
-591.967	-84.860	0.281	0.088
-590.952	-63.928	0.370	0.151
-589.938	-127.761	0.514	0.074
-588.923	-81.123	-0.083	-0.027
-587.909	800.000	-0.011	0.044
-586.894	94.272	-0.071	0.080
-585.879	-35.011	0.094	0.051
-584.865	-200.000	-0.040	-0.353
-583.850	-199.620	0.240	0.001
-582.836	-129.481	-0.415	0.057
-581.821	-18.095	0.201	-0.125
-580.806	9.507	-0.289	0.219
-579.792	15.119	-0.249	0.195
-578.777	-123.761	0.125	0.020
-577.763	-94.654	-0.174	-0.047
-576.748	163.251	-0.174	0.244
-575.733	-200.000	-0.052	-0.261
-574.719	-116.093	-0.310	-0.058
-573.704	-23.457	0.282	0.169
-572.690	-134.554	0.426	0.052
-571.675	-46.872	0.176	0.086
-570.661	87.047	0.197	0.217
-569.646	-18.148	-0.076	0.047
-568.631	-200.000	-0.044	-0.583
-567.617	-110.277	-0.076	-0.016
-566.602	-60.120	-0.294	0.125
-565.588	-113.879	-0.093	0.018
-564.573	-11.592	0.258	-0.169
-563.558	210.348	0.040	-0.062
-562.544	-200.000	0.002	0.137
-561.529	-165.614	-0.172	0.007
-560.515	-70.136	-0.087	-0.033
-559.500	-7.488	-0.439	-0.296
-558.485	492.582	0.068	0.156
-557.471	-78.379	-0.386	-0.132
-556.456	448.755	-0.120	-0.264
-555.442	-137.018	-0.236	0.027
-554.427	475.354	0.059	-0.133
-553.412	164.946	0.118	-0.166
-552.398	75.007	-0.152	0.160
-551.383	-128.271	0.166	0.024
-550.369	-80.919	-0.184	-0.061
-549.354	686.138	0.065	0.169
-548.339	-68.048	-0.179	0.069
-547.325	800.000	0.043	0.154
-546.310	150.584	0.054	-0.073
-545.296	-104.650	-0.124	-0.029
-544.281	-191.768	-0.046	0.000
-543.266	-42.952	-0.327	0.166
-542.252	-45.737	-0.224	0.110
-541.237	-23.500	-0.081	0.048
-540.223	104.888	0.173	0.203
-539.208	71.401	-0.138	-0.143
-538.193	800.000	-0.057	0.190
-537.179	-56.538	-0.308	-0.136
-536.164	-200.000	-0.022	0.131
-535.150	-162.609	0.080	0.004
-534.135	10.044	-0.150	-0.114
-533.121	800.000	-0.086	-0.278
-532.106	-200.000	-0.012	0.146
-531.091	-200.000	0.002	-0.323
-530.077	-146.676	0.352	-0.030
-529.062	601.443	-0.088	0.218
-528.048	-61.467	0.362	-0.152
-527.033	42.857	-0.174	-0.158
-526.018	800.000	-0.024	-0.089
-525.004	-90.455	0.252	0.073
-523.989	-35.831	-0.255	0.137
-522.975	62.152	-0.054	0.053
-521.960	-68.594	0.133	-0.051
-520.945	5.461	0.078	-0.057
-519.931	800.000	0.070	-0.215
-518.916	100.810	-0.140	0.162
-517.902	33.639	-0.134	-0.116
-516.887	-38.777	-0.245	0.129
-515.872	800.000	0.099	-0.277
-514.858	-200.000	-0.055	0.284
-513.843	713.889	-0.105	0.277
-512.829	-52.298	-0.218	0.101
-511.814	-134.210	-0.321	0.039
-510.799	-48.494	-0.252	0.121
-509.785	615.451	-0.112	-0.279
-508.770	11.126	-0.308	-0.235
-507.756	-49.162	-0.332	0.158
-506.741	-200.000	-0.006	0.241
-505.726	-200.000	-0.019	0.158
-504.712	375.555	-0.091	0.185
-503.697	74.273	-0.180	0.188
-502.683	43.617	0.112	-0.102
-501.668	167.893	-0.136	-0.192
-500.653	-200.000	0.006	0.300
-499.639	-112.950	0.140	0.028
-498.624	-7.961	-0.161	0.108
-497.610	-52.996	-0.049	0.023
-496.595	360.990	0.254	0.507
-495.581	205.441	0.053	-0.082
-494.566	304.961	-0.171	-0.316
-493.551	800.000	0.035	0.098
-492.537	491.370	0.093	-0.211
-491.522	-200.000	0.012	0.137
-490.508	97.867	0.191	0.219
-489.493	413.513	-0.157	-0.333
-488.478	198.312	-0.160	0.243
-487.464	240.033	0.124	-0.206
-486.449	800.000	-0.053	-0.190
-485.435	7.374	0.200	-0.149
-484.420	23.522	-0.049	-0.040
-483.405	372.435	0.061	-0.124
-482.391	-200.000	-0.004	0.109
-481.376	800.000	0.070	-0.271
-480.362	173.980	-0.227	-0.326
-479.347	-62.564	-0.295	-0.122
-478.332	800.000	-0.021	0.085
-477.318	-92.755	0.195	0.054
-476.303	62.078	-0.109	0.108
-475.289	568.056	-0.065	-0.158
-474.274	-103.099	-0.144	-0.034
-473.259	36.720	-0.207	0.182
-472.245	-63.217	0.070	-0.029
-471.230	-75.400	0.027	0.010
-470.216	-123.957	-0.231	0.036
-469.201	-10.917	0.215	-0.141
-468.186	71.108	0.309	0.318
-467.172	-200.000	-0.060	-0.359
-466.157	270.779	0.099	-0.173
-465.143	114.528	0.067	-0.081
-464.128	-140.249	0.360	0.037
-463.113	800.000	0.039	-0.161
-462.099	-88.704	-0.097	-0.029
-461.084	126.904	0.172	0.216
-460.070	-134.057	-0.185	0.023
-459.055	-8.429	-0.030	0.020
-458.040	-54.886	0.152	-0.068
-457.026	46.160	0.074	-0.068
-456.011	142.115	0.161	-0.212
-454.997	-200.000	0.013	0.095
-453.982	406.681	0.042	0.088
-452.968	37.564	0.076	0.067
-451.953	399.038	-0.164	-0.341
-450.938	13.839	-0.198	0.153
-449.924	1.827	0.327	0.234
-448.909	-150.190	0.247	0.019
-447.895	26.533	0.057	0.047
-446.880	800.000	0.059	0.217
-445.865	-101.627	-0.170	-0.041
-444.851	-23.041	-0.265	0.159
-443.836	-147.448	0.060	-0.005
-442.822	-60.208	0.343	0.145
-441.807	-97.181	-0.377	0.098
-440.792	800.000	0.052	-0.150
-439.778	-44.383	0.227	-0.113
-438.763	136.021	0.096	0.124
-437.749	-6.797	-0.105	-0.071
-436.734	72.017	0.104	-0.108
-435.719	800.000	0.089	0.271
-434.705	-115.671	-0.112	-0.021
-433.690	-200.000	0.065	0.311
-432.676	800.000	0.044	0.124
-431.661	-200.000	0.040	0.340
-430.646	627.108	0.051	-0.127
-429.632	17.867	-0.095	-0.075
-428.617	-61.066	0.227	0.095
-427.603	800.000	0.029	-0.105
-426.588	-103.373	-0.377	-0.088
-425.573	-200.000	-0.043	-0.201
-424.559	-200.000	-0.008	-0.198
-423.544	123.570	0.043	0.054
-422.530	-200.000	0.010	0.222
-421.515	-100.629	0.113	-0.028
-420.500	-200.000	-0.004	-0.168
-419.486	26.169	0.137	-0.113
-418.471	414.379	-0.116	0.246
-417.457	-25.388	-0.206	-0.121
-416.442	100.289	-0.108	-0.124
-415.428	-58.553	-0.348	0.150
-414.413	800.000	-0.041	0.133
-413.398	800.000	-0.048	-0.170
-412.384	72.713	-0.284	0.294
-411.369	-98.919	0.254	-0.064
-410.355	0.548	-0.187	0.133
-409.340	-200.000	-0.004	-0.074
-408.325	-93.641	-0.321	-0.088
-407.311	800.000	-0.010	-0.038
-406.296	714.060	0.062	0.162
-405.282	-23.538	0.145	-0.086
-404.267	94.164	-0.029	-0.033
-403.252	281.787	-0.094	0.167
-402.238	622.936	-0.102	0.256
-401.223	-89.525	-0.300	-0.087
-400.209	-200.000	0.024	-0.382
-399.194	-200.000	-0.032	-0.246
-398.179	-52.032	-0.409	0.188
-397.165	-162.846	-0.244	0.012
-396.150	59.751	-0.244	0.239
-395.136	-137.381	0.068	-0.008
-394.121	121.489	0.151	0.187
-393.106	-200.000	-0.013	0.227
-392.092	13.560	-0.160	0.123
-391.077	800.000	-0.039	-0.140
-390.063	-183.738	0.360	-0.006
-389.048	156.903	0.136	-0.186
-388.033	313.921	-0.217	-0.404
-387.019	250.924	0.137	0.231
-386.004	31.957	0.132	0.113
-384.990	233.681	-0.091	-0.148
-383.975	-200.000	-0.057	0.283
-382.960	145.913	-0.150	0.199
-381.946	101.720	-0.264	0.305
-380.931	-171.074	-0.218	0.007
-379.917	-140.480	-0.138	-0.014
-378.902	14.469	-0.247	-0.191
-377.888	800.000	0.058	0.229
-376.873	-200.000	-0.033	0.160
-375.858	800.000	-0.053	-0.160
-374.844	-55.875	0.391	-0.173
-373.829	-74.322	-0.032	-0.011
-372.815	-200.000	-0.065	-0.508
-371.800	24.743	0.324	-0.266
-370.785	21.550	-0.142	-0.114
-369.771	492.735	0.136	0.309
-368.756	-186.767	0.360	-0.005
-367.742	-200.000	0.038	0.532
-366.727	45.993	-0.199	0.182
-365.712	-87.097	-0.158	-0.047
-364.698	-94.540	-0.117	0.032
-363.683	464.717	0.118	0.262
-362.669	1.515	-0.081	-0.058
-361.654	165.971	0.083	-0.117
-360.639	-181.144	-0.216	-0.004
-359.625	242.988	-0.061	0.102
-358.610	800.000	0.038	0.108
-357.596	211.308	-0.082	-0.127
-356.581	209.063	0.069	0.106
-355.566	-174.672	-0.259	0.007
-354.552	208.024	0.168	0.260
-353.537	-13.013	0.083	-0.053
-352.523	86.520	0.109	0.119
-351.508	90.399	0.232	0.257
-350.493	144.444	-0.190	0.251
-349.479	112.182	0.218	-0.261
-348.464	-7.388	-0.363	-0.243
-347.450	251.770	0.080	0.135
-346.435	171.030	0.114	0.161
-345.420	-47.321	-0.317	0.153
-344.406	448.832	0.096	0.208
-343.391	-148.586	0.136	-0.011
-342.377	18.068	0.085	-0.067
-341.362	800.000	0.207	-0.717
-340.348	-106.917	0.376	-0.082
-339.333	42.962	-0.201	0.181
-338.318	-114.939	-0.119	0.022
-337.304	-200.000	0.035	0.364
-336.289	-147.191	-0.216	-0.018
-335.275	7.121	0.051	0.038
-334.260	430.945	-0.129	-0.276
-333.245	-61.155	-0.153	-0.064
-332.231	91.057	0.163	-0.180
-331.216	103.285	0.064	0.074
-330.202	-46.368	0.082	-0.040
-329.187	71.304	0.135	0.139
-328.172	-139.937	-0.169	-0.018
-327.158	-103.870	0.152	-0.035
-326.143	271.420	0.029	0.051
-325.129	-84.262	0.199	0.062
-324.114	-71.250	-0.221	-0.082
-323.099	191.546	-0.023	-0.035
-322.085	-58.438	0.316	-0.136
-321.070	-12.386	0.265	-0.171
-320.056	-200.000	0.019	0.307
-319.041	-200.000	0.021	-0.186
-318.026	-70.752	0.400	0.149
-317.012	-40.400	-0.153	-0.079
-315.997	800.000	0.039	-0.165
-314.983	-62.112	-0.195	-0.080
-313.968	206.209	-0.061	0.094
-312.953	-113.967	0.222	0.043
-311.939	-126.077	0.246	-0.036
-310.924	-153.972	0.121	0.008
-309.910	228.104	0.083	-0.134
-308.895	-125.644	0.080	-0.012
-307.880	-200.000	-0.003	0.037
-306.866	-154.794	-0.227	-0.015
-305.851	-104.721	0.166	-0.038
-304.837	191.755	0.133	0.197
-303.822	-74.533	0.194	-0.069
-302.807	63.668	0.399	0.396
-301.793	-200.000	0.046	0.365
-300.778	613.849	-0.143	-0.354
-299.764	421.957	-0.150	0.318
-298.749	222.088	-0.159	0.253
-297.735	800.000	0.118	-0.433
-296.720	-172.215	0.183	0.006
-295.705	-175.140	-0.335	-0.009
-294.691	384.189	0.060	-0.122
-293.676	-200.000	0.011	-0.167
-292.662	-200.000	0.031	-0.163
-291.647	-200.000	0.032	0.227
-290.632	800.000	0.044	-0.141
-289.618	-96.742	0.195	-0.051
-288.603	800.000	-0.091	-0.277
-287.589	138.507	-0.100	-0.129
-286.574	-200.000	-0.010	-0.184
-285.559	668.508	0.111	0.284
-284.545	-31.400	0.251	0.139
-283.530	800.000	0.014	-0.049
-282.516	-200.000	-0.249	0.001
-281.501	800.000	0.036	-0.102
-280.486	-200.000	0.062	0.331
-279.472	739.455	-0.059	-0.155
-278.457	81.039	-0.141	-0.151
-277.443	792.486	-0.049	-0.132
-276.428	-74.361	-0.232	-0.083
-275.413	183.359	0.060	0.087
-274.399	181.242	0.076	0.111
-273.384	-200.000	0.005	0.116
-272.370	221.570	0.056	0.088
-271.355	800.000	0.064	-0.228
-270.340	194.690	-0.143	-0.214
-269.326	-107.743	0.053	0.011
-268.311	-9.585	0.105	0.069
-267.297	166.266	-0.135	0.188
-266.282	217.137	-0.085	0.134
-265.267	211.487	-0.138	-0.215
-264.253	51.256	0.191	-0.179
-263.238	-115.387	-0.159	0.030
-262.224	128.634	-0.190	-0.238
-261.209	-70.839	-0.178	0.066
-260.195	-40.136	0.424	-0.218
-259.180	-200.000	0.008	0.184
-258.165	120.742	-0.123	0.151
-257.151	52.173	0.071	0.067
-256.136	-141.962	-0.234	-0.023
-255.122	53.561	-0.189	0.179
-254.107	388.609	0.201	-0.410
-253.092	23.887	0.290	-0.236
-252.078	800.000	-0.061	-0.213
-251.063	800.000	-0.026	0.100
-250.049	-200.000	0.044	-0.269
-249.034	-115.207	0.066	-0.012
-248.019	369.000	0.105	-0.209
-247.005	-29.929	0.154	0.087
-245.990	38.172	0.228	-0.200
-244.976	49.358	0.136	0.126
-243.961	-200.000	-0.005	-0.215
-242.946	47.385	0.314	-0.288
-241.932	-200.000	0.052	-0.244
-240.917	368.286	0.016	-0.033
-239.903	166.099	0.076	-0.106
-238.888	41.436	0.119	0.106
-237.873	800.000	0.090	0.379
-236.859	-2.546	-0.206	0.142
-235.844	800.000	0.090	0.251
-234.830	47.625	-0.139	0.128
-233.815	210.990	-0.139	-0.215
-232.800	-115.326	-0.172	0.032
-231.786	43.621	-0.329	0.297
-230.771	-200.000	0.039	-0.313
-229.757	202.873	-0.124	-0.189
-228.742	189.883	0.123	-0.181
-227.727	-149.171	0.143	-0.011
-226.713	-153.305	0.265	-0.018
-225.698	62.043	-0.122	0.119
-224.684	-106.549	-0.133	0.029
-223.669	-54.234	0.234	0.104
-222.655	48.518	-0.025	0.023
-221.640	-4.237	0.032	0.022
-220.625	-200.000	-0.027	-0.216
-219.611	-49.215	-0.148	-0.070
-218.596	-18.384	-0.505	0.311
-217.582	-94.317	0.594	-0.160
-216.567	-165.862	-0.057	0.002
-215.552	-50.533	-0.428	-0.199
-214.538	62.226	0.189	0.185
-213.523	96.769	-0.016	-0.018
-212.509	-200.000	-0.027	-0.276
-211.494	800.000	-0.068	-0.211
-210.479	-55.262	0.286	-0.126
-209.465	-56.934	0.145	-0.063
-208.450	-200.000	-0.044	0.243
-207.436	800.000	-0.075	0.283
-206.421	-55.692	0.252	0.111
-205.406	-92.859	-0.019	-0.005
-204.392	35.661	0.186	-0.161
-203.377	-105.166	-0.217	-0.049
-202.363	1.287	0.326	0.231
-201.348	668.747	-0.072	0.183
-200.333	-91.920	0.131	-0.036
-199.319	800.000	0.014	-0.045
-198.304	-15.493	-0.342	0.215
-197.290	-123.165	0.091	0.014
-196.275	216.685	-0.083	-0.130
-195.260	400.423	-0.097	0.200
-194.246	1.350	0.135	-0.096
-193.231	36.745	-0.084	-0.073
-192.217	591.782	-0.090	0.219
-191.202	-46.844	0.308	0.148
-190.187	148.016	-0.039	0.051
-189.173	-134.794	-0.037	-0.004
-188.158	-114.788	-0.075	-0.014
-187.144	-200.000	0.020	0.114
-186.129	82.198	0.257	0.274
-185.114	-200.000	-0.059	-0.318
-184.100	-145.563	0.063	0.006
-183.085	-200.000	-0.021	-0.100
-182.071	-99.809	0.270	-0.066
-181.056	-91.618	0.133	-0.037
-180.042	-83.343	-0.221	0.070
-179.027	-143.378	0.235	-0.022
-178.012	87.298	0.011	-0.012
-176.998	98.559	0.119	0.134
-175.983	-94.105	-0.179	0.048
-174.969	-200.000	-0.008	0.325
-173.954	-92.983	0.255	-0.070
-172.939	3.766	0.299	0.214
-171.925	800.000	0.009	-0.028
-170.910	91.643	-0.079	-0.088
-169.896	-71.857	0.395	0.145
-168.881	-42.542	0.045	0.023
-167.866	65.485	0.218	-0.217
-166.852	-95.209	0.228	-0.060
-165.837	336.602	0.100	0.190
-164.823	-71.390	0.287	-0.106
-163.808	55.722	0.190	0.181
-162.793	-89.733	0.426	-0.123
-161.779	-53.577	0.076	-0.034
-160.764	-200.000	-0.048	0.351
-159.750	-1.047	-0.394	-0.273
-158.735	179.617	0.219	-0.315
-157.720	-103.404	0.474	-0.110
-156.706	800.000	-0.040	0.112
-155.691	3.019	-0.032	-0.023
-154.677	68.130	0.214	-0.215
-153.662	79.970	-0.139	0.147
-152.647	358.052	0.050	0.098
-151.633	-31.597	0.347	-0.191
-150.618	238.118	-0.140	-0.227
-149.604	-200.000	0.019	-0.109
-148.589	-200.000	-0.000	0.340
-147.574	411.250	-0.172	0.359
-146.560	800.000	0.006	0.017
-145.545	119.870	0.071	-0.086
-144.531	800.000	0.059	-0.178
-143.516	523.662	-0.108	-0.249
-142.502	-14.823	0.274	0.173
-141.487	-64.659	-0.207	0.082
-140.472	-96.522	0.484	-0.125
-139.458	-11.674	0.151	0.097
-138.443	57.602	-0.095	-0.091
-137.429	-0.492	0.108	0.075
-136.414	489.353	-0.066	-0.148
-135.399	-179.224	0.270	-0.006
-134.385	659.260	-0.088	-0.223
-133.370	-124.229	-0.076	-0.012
-132.356	-66.590	-0.090	-0.035
-131.341	-105.129	-0.050	-0.011
-130.326	-48.138	0.109	0.052
-129.312	-50.364	-0.221	-0.102
-128.297	800.000	-0.073	-0.208
-127.283	-158.278	0.211	0.012
-126.268	122.561	-0.202	-0.248
-125.253	-200.000	0.011	-0.070
-124.239	800.000	-0.037	-0.145
-123.224	94.211	-0.094	0.105
-122.210	24.049	-0.314	-0.254
-121.195	-125.928	0.401	-0.059
