DTS Sentinel unit serial number:	SN413079Multiplexer serial number:	ORYXHardware model number:	OX4-SRSoftware version number:	ORYX F/W v4.00 Oryx Data Collector v3.7.2.0data status	okinstallation	princeton_trtdifferential loss correction	single-endedforward channel	channel 1reverse channel	N/Adate	2019/09/13time	15:02:35forward acquisition time	60.00reverse acquisition time	0.00gamma	496.2192k internal	0.2301k external	0.2301temperature offset calibration	1.0160default loss term (dB/km)	0.3790temperature slope calibration	1.0000multiplexer offset coefficient	1.0000multiplexer slope coefficient	1.0000fibre end	0.00T internal ref (°C)	35.62T ext. ref 1 (°C)	4.70T ext. ref 2 (°C)	30.92length (m)	temperature (°C)	Stokes	anti-Stokes-747.200	800.000	-0.076	0.293
-746.185	-123.294	0.132	0.022
-745.171	-200.000	-0.002	-0.092
-744.156	-84.696	-0.071	-0.023
-743.142	93.871	-0.250	0.288
-742.127	-200.000	0.022	0.153
-741.112	-124.002	0.104	0.017
-740.098	800.000	0.051	-0.146
-739.083	25.451	-0.158	-0.134
-738.069	512.478	0.017	-0.040
-737.054	-167.810	-0.221	-0.009
-736.039	211.069	-0.028	-0.044
-735.025	-95.141	-0.227	0.062
-734.010	800.000	0.108	-0.386
-732.996	800.000	-0.142	-0.431
-731.981	19.634	-0.225	-0.184
-730.966	-139.668	-0.253	-0.027
-729.952	182.415	-0.132	-0.198
-728.937	61.144	-0.168	-0.170
-727.923	119.849	-0.061	0.077
-726.908	-60.267	-0.383	0.166
-725.894	-200.000	0.025	-0.307
-724.879	-83.571	0.062	-0.020
-723.864	-8.511	-0.089	-0.061
-722.850	9.740	-0.144	-0.111
-721.835	-107.348	-0.385	0.086
-720.821	15.498	-0.317	-0.254
-719.806	-200.000	0.002	-0.170
-718.791	5.803	0.111	0.084
-717.777	-4.530	0.517	-0.364
-716.762	-200.000	-0.044	-0.268
-715.748	-200.000	-0.013	0.176
-714.733	74.576	0.206	0.220
-713.718	-119.173	0.167	-0.030
-712.704	-122.695	-0.054	0.009
-711.689	-143.043	-0.474	-0.047
-710.675	-200.000	-0.015	-0.232
-709.660	-200.000	0.019	0.163
-708.645	-200.000	0.042	-0.187
-707.631	99.668	-0.077	-0.090
-706.616	609.665	-0.075	-0.191
-705.602	-161.597	0.314	0.016
-704.587	-170.391	0.311	-0.011
-703.572	-137.156	-0.219	0.025
-702.558	23.116	-0.150	-0.126
-701.543	-112.171	0.249	0.051
-700.529	-200.000	-0.004	-0.105
-699.514	478.283	0.132	-0.305
-698.499	-200.000	0.030	-0.212
-697.485	3.643	-0.223	0.166
-696.470	10.838	0.178	-0.139
-695.456	-200.000	0.032	-0.330
-694.441	-91.907	0.496	0.143
-693.426	800.000	0.023	0.092
-692.412	41.148	0.313	-0.288
-691.397	-90.671	-0.213	-0.063
-690.383	-76.203	0.478	-0.171
-689.368	800.000	-0.032	0.130
-688.354	-200.000	0.046	0.439
-687.339	490.898	-0.072	-0.168
-686.324	-200.000	-0.036	0.426
-685.310	-200.000	-0.073	0.426
-684.295	-0.469	0.380	0.275
-683.281	139.177	-0.280	0.375
-682.266	13.523	-0.369	0.291
-681.251	56.720	-0.072	0.072
-680.237	94.374	-0.139	-0.161
-679.222	-44.655	0.236	-0.120
-678.208	-1.070	-0.121	0.087
-677.193	253.538	-0.092	-0.161
-676.178	96.721	0.079	-0.092
-675.164	800.000	-0.072	-0.223
-674.149	73.913	-0.059	-0.063
-673.135	36.329	-0.216	0.194
-672.120	366.825	-0.077	0.157
-671.105	800.000	0.072	-0.301
-670.091	308.883	0.069	-0.131
-669.076	163.097	-0.233	0.332
-668.062	800.000	-0.101	-0.317
-667.047	232.477	-0.169	-0.282
-666.032	-123.156	0.100	-0.016
-665.018	456.237	-0.045	-0.101
-664.003	800.000	0.056	0.207
-662.989	-200.000	0.049	-0.408
-661.974	320.161	-0.079	-0.153
-660.959	704.729	0.075	-0.200
-659.945	538.888	0.090	-0.219
-658.930	36.093	-0.110	-0.098
-657.916	104.552	0.100	0.119
-656.901	10.964	0.144	0.112
-655.886	-26.842	-0.037	-0.022
-654.872	800.000	0.098	-0.304
-653.857	-0.189	-0.120	-0.086
-652.843	206.114	0.027	0.043
-651.828	-11.408	-0.252	-0.169
-650.814	27.293	-0.182	0.155
-649.799	180.337	-0.193	0.287
-648.784	-78.561	0.306	-0.106
-647.770	33.375	0.124	-0.110
-646.755	422.475	-0.117	-0.254
-645.741	76.055	0.095	-0.103
-644.726	-200.000	0.064	0.300
-643.711	-94.541	-0.193	-0.053
-642.697	529.685	0.089	0.213
-641.682	186.861	0.131	0.198
-640.668	11.980	0.230	-0.180
-639.653	800.000	0.076	0.261
-638.638	800.000	0.005	0.018
-637.624	92.809	-0.198	-0.227
-636.609	-179.602	0.111	-0.002
-635.595	36.540	-0.185	-0.166
-634.580	800.000	-0.044	-0.124
-633.565	-139.821	-0.345	0.037
-632.551	62.569	0.018	-0.018
-631.536	13.893	0.092	-0.072
-630.522	154.398	0.282	0.393
-629.507	-82.059	-0.230	-0.076
-628.492	-200.000	-0.025	0.124
-627.478	448.910	-0.071	0.159
-626.463	36.081	-0.134	-0.119
-625.449	172.722	-0.014	-0.020
-624.434	204.480	-0.136	-0.213
-623.419	800.000	-0.033	0.133
-622.405	-69.189	0.307	0.120
-621.390	159.445	-0.048	0.068
-620.376	3.454	-0.063	0.046
-619.361	400.255	-0.151	-0.322
-618.346	-143.939	-0.260	0.025
-617.332	-45.442	-0.384	0.193
-616.317	468.234	0.047	0.106
-615.303	88.749	-0.032	0.037
-614.288	-200.000	0.019	-0.110
-613.273	-11.492	-0.210	0.140
-612.259	-153.000	-0.252	0.018
-611.244	50.410	0.197	0.189
-610.230	-30.339	-0.217	-0.125
-609.215	-138.556	0.089	-0.010
-608.201	48.911	-0.033	-0.032
-607.186	-57.914	0.075	0.033
-606.171	9.513	-0.040	0.030
-605.157	233.145	-0.183	-0.305
-604.142	377.476	-0.098	0.204
-603.128	-200.000	-0.042	-0.202
-602.113	-92.832	-0.126	0.036
-601.098	-200.000	0.007	-0.138
-600.084	-173.863	-0.012	0.000
-599.069	73.177	-0.064	0.068
-598.055	-100.659	0.245	0.061
-597.040	-25.552	-0.154	-0.092
-596.025	800.000	-0.005	-0.018
-595.011	-11.216	0.256	0.171
-593.996	407.137	0.149	-0.319
-592.982	-153.228	-0.078	0.006
-591.967	-60.267	0.051	-0.022
-590.952	156.359	-0.134	-0.188
-589.938	-22.820	-0.176	-0.108
-588.923	369.693	-0.086	-0.177
-587.909	338.916	0.091	-0.180
-586.894	5.304	0.139	-0.104
-585.879	-110.841	-0.217	0.045
-584.865	800.000	-0.020	0.075
-583.850	-68.944	-0.266	-0.104
-582.836	81.585	-0.193	0.212
-581.821	-200.000	0.061	0.282
-580.806	-32.111	0.294	-0.167
-579.792	-4.522	-0.396	0.277
-578.777	800.000	-0.058	0.174
-577.763	42.682	-0.135	-0.125
-576.748	-200.000	-0.123	0.566
-575.733	-23.237	0.278	0.170
-574.719	206.424	-0.155	-0.244
-573.704	-16.272	-0.122	0.078
-572.690	-29.959	-0.224	-0.129
-571.675	-140.753	-0.198	-0.021
-570.661	800.000	-0.120	-0.394
-569.646	74.782	-0.109	0.116
-568.631	58.774	-0.120	0.119
-567.617	45.597	-0.250	0.234
-566.602	334.467	-0.123	-0.242
-565.588	-42.074	-0.224	-0.116
-564.573	152.208	-0.073	0.102
-563.558	321.246	0.164	-0.316
-562.544	-15.415	-0.170	0.110
-561.529	9.593	-0.018	-0.014
-560.515	-200.000	0.014	0.234
-559.500	-173.155	0.480	0.015
-558.485	332.180	0.093	-0.181
-557.471	25.154	0.226	-0.190
-556.456	-44.294	0.253	-0.128
-555.442	-200.000	-0.045	0.362
-554.427	800.000	-0.025	0.084
-553.412	-152.302	-0.166	-0.012
-552.398	-77.477	0.302	-0.106
-551.383	-200.000	0.049	-0.374
-550.369	-86.054	0.208	-0.065
-549.354	-142.480	-0.226	0.022
-548.339	14.670	-0.191	0.151
-547.325	169.754	-0.059	-0.085
-546.310	-165.319	0.221	0.010
-545.296	800.000	0.039	0.139
-544.281	-200.000	0.012	0.090
-543.266	45.331	-0.077	-0.072
-542.252	-33.958	0.083	0.046
-541.237	-30.261	-0.277	-0.159
-540.223	-60.373	0.088	0.038
-539.208	53.680	0.119	-0.115
-538.193	-200.000	0.010	0.195
-537.179	800.000	0.053	-0.234
-536.164	-14.619	0.207	-0.134
-535.150	-76.628	0.228	-0.081
-534.135	-78.660	-0.189	0.065
-533.121	800.000	0.099	-0.293
-532.106	53.557	0.072	0.070
-531.091	800.000	0.029	-0.082
-530.077	-34.647	-0.342	-0.189
-529.062	584.472	-0.094	0.234
-528.048	-140.095	0.235	0.025
-527.033	-32.141	0.238	0.135
-526.018	-42.427	0.203	0.105
-525.004	-200.000	-0.005	-0.323
-523.989	-200.000	-0.001	-0.069
-522.975	-73.156	0.140	-0.052
-521.960	421.551	-0.168	0.365
-520.945	-12.277	0.095	-0.063
-519.931	77.829	0.258	-0.278
-518.916	177.289	-0.021	0.030
-517.902	84.738	-0.151	0.168
-516.887	49.289	-0.190	-0.181
-515.872	158.708	-0.109	0.152
-514.858	530.366	-0.052	-0.123
-513.843	110.726	-0.143	0.173
-512.829	179.213	-0.085	0.125
-511.814	-91.579	0.223	0.064
-510.799	-48.929	-0.306	0.148
-509.785	-200.000	0.026	0.289
-508.770	-120.284	-0.092	-0.016
-507.756	71.695	-0.183	-0.192
-506.741	-120.297	-0.180	0.031
-505.726	254.100	0.112	-0.193
-504.712	-86.347	0.340	0.106
-503.697	87.226	-0.361	0.403
-502.683	800.000	-0.032	-0.135
-501.668	-21.449	-0.068	-0.042
-500.653	-67.649	-0.170	0.067
-499.639	-47.990	0.335	-0.164
-498.624	328.491	-0.125	0.243
-497.610	-77.243	0.160	-0.056
-496.595	-93.113	-0.105	-0.029
-495.581	-154.132	-0.093	-0.006
-494.566	113.616	-0.174	0.213
-493.551	-200.000	-0.015	0.072
-492.537	302.362	-0.056	-0.105
-491.522	16.176	-0.143	-0.114
-490.508	637.318	-0.096	0.245
-489.493	-200.000	0.018	-0.362
-488.478	-175.150	0.321	0.009
-487.464	800.000	-0.047	-0.186
-486.449	27.951	0.260	0.222
-485.435	-80.623	0.252	-0.085
-484.420	782.326	-0.087	0.240
-483.405	-161.664	0.291	0.015
-482.391	-131.428	-0.199	0.026
-481.376	-80.022	0.238	-0.081
-480.362	9.180	-0.166	-0.127
-479.347	45.488	-0.203	-0.189
-478.332	384.175	0.095	-0.197
-477.318	295.484	0.097	-0.179
-476.303	-99.991	-0.562	0.141
-475.289	-42.895	0.191	-0.098
-474.274	-200.000	-0.017	-0.311
-473.259	410.461	0.137	-0.293
-472.245	110.674	-0.148	0.180
-471.230	145.071	0.017	0.023
-470.216	326.165	-0.203	0.392
-469.201	607.561	0.054	0.135
-468.186	472.686	0.022	-0.051
-467.172	-129.227	0.182	-0.026
-466.157	-119.724	-0.225	0.039
-465.143	-55.010	0.025	-0.011
-464.128	-138.013	0.204	0.023
-463.113	278.125	0.170	-0.306
-462.099	-43.896	0.307	0.156
-461.084	-20.431	-0.152	0.094
-460.070	146.971	0.049	-0.067
-459.055	800.000	0.027	-0.116
-458.040	-28.345	0.291	-0.169
-457.026	800.000	0.039	0.122
-456.011	239.879	0.097	0.162
-454.997	259.266	0.124	0.216
-453.982	800.000	-0.025	0.099
-452.968	-200.000	0.057	0.346
-451.953	304.249	0.079	0.148
-450.938	-57.987	0.305	-0.134
-449.924	-114.077	-0.067	0.013
-448.909	322.544	0.107	-0.206
-447.895	800.000	0.042	0.147
-446.880	-124.007	0.238	0.038
-445.865	-49.747	-0.195	-0.094
-444.851	-200.000	-0.069	-0.423
-443.836	291.284	0.123	0.225
-442.822	222.319	0.028	-0.046
-441.807	-200.000	0.014	-0.086
-440.792	178.041	-0.151	-0.222
-439.778	-39.397	-0.117	0.062
-438.763	-181.018	0.108	-0.002
-437.749	90.517	-0.063	-0.071
-436.734	19.271	0.109	-0.089
-435.719	-28.145	-0.171	-0.100
-434.705	32.711	0.063	-0.055
-433.690	-18.618	0.308	0.193
-432.676	149.847	0.283	0.387
-431.661	-52.797	0.303	0.141
-430.646	25.631	-0.181	-0.152
-429.632	353.908	0.036	-0.072
-428.617	800.000	-0.050	0.167
-427.603	26.929	-0.212	0.179
-426.588	-200.000	-0.002	-0.156
-425.573	560.923	0.042	0.103
-424.559	800.000	0.042	0.130
-423.544	-47.930	0.086	0.042
-422.530	-200.000	0.018	0.171
-421.515	-65.052	0.147	0.060
-420.500	16.817	-0.159	0.126
-419.486	-60.962	0.146	0.062
-418.471	-165.562	0.460	-0.020
-417.457	99.402	0.132	0.153
-416.442	-15.657	0.171	0.110
-415.428	-13.003	-0.058	-0.038
-414.413	50.331	-0.056	-0.053
-413.398	-41.230	0.397	0.206
-412.384	796.695	0.053	-0.148
-411.369	182.948	0.074	-0.109
-410.355	-66.292	-0.083	-0.033
-409.340	-64.374	0.305	0.125
-408.325	-200.000	0.003	0.032
-407.311	-55.432	-0.171	-0.077
-406.296	-63.152	0.282	-0.117
-405.282	-120.765	0.266	-0.045
-404.267	-200.000	0.017	-0.277
-403.252	-200.000	0.042	0.203
-402.238	-3.988	-0.165	0.115
-401.223	8.869	0.113	0.086
-400.209	266.744	-0.137	-0.241
-399.194	547.552	0.078	-0.188
-398.179	-120.337	-0.284	0.049
-397.165	767.992	-0.024	-0.065
-396.150	-92.765	-0.246	0.069
-395.136	282.851	-0.045	0.081
-394.121	-93.699	0.427	0.118
-393.106	176.678	0.116	-0.170
-392.092	-29.757	-0.109	0.063
-391.077	32.947	-0.289	-0.251
-390.063	-17.109	-0.168	0.107
-389.048	186.532	0.105	-0.157
-388.033	-119.171	0.419	-0.074
-387.019	-71.992	0.240	-0.090
-386.004	347.178	-0.097	0.191
-384.990	-14.813	-0.392	0.253
-383.975	-52.777	-0.113	0.053
-382.960	-147.222	-0.055	-0.005
-381.946	20.018	-0.148	0.120
-380.931	121.450	-0.098	0.123
-379.917	-163.299	0.410	-0.020
-378.902	-200.000	0.029	-0.143
-377.888	-80.957	-0.388	-0.129
-376.873	-4.331	-0.213	-0.148
-375.858	-200.000	0.023	-0.279
-374.844	-26.785	0.099	-0.058
-373.829	-150.690	-0.129	-0.010
-372.815	-152.546	-0.110	-0.008
-371.800	-52.979	-0.228	-0.105
-370.785	-4.695	0.139	-0.096
-369.771	145.535	-0.086	0.115
-368.756	-78.669	0.139	-0.048
-367.742	43.718	0.228	0.210
-366.727	-200.000	0.036	0.310
-365.712	-108.248	0.168	-0.036
-364.698	-80.079	0.220	0.074
-363.683	800.000	0.053	-0.221
-362.669	-79.258	0.226	-0.077
-361.654	-168.511	-0.430	0.017
-360.639	71.091	-0.221	-0.230
-359.625	-89.230	-0.374	-0.111
-358.610	256.750	-0.076	0.131
-357.596	-101.597	-0.192	0.047
-356.581	-36.935	0.355	-0.191
-355.566	88.425	0.054	-0.060
-354.552	-77.932	0.143	0.049
-353.537	-152.803	-0.135	-0.010
-352.523	-200.000	0.003	-0.167
-351.508	-135.540	-0.169	-0.020
-350.493	-33.774	0.036	0.020
-349.479	237.725	0.217	0.361
-348.464	13.781	0.241	-0.188
-347.450	535.807	0.122	0.291
-346.435	-200.000	0.002	0.142
-345.420	-146.511	-0.123	0.011
-344.406	-9.857	0.259	-0.173
-343.391	800.000	-0.074	-0.275
-342.377	-67.372	0.166	0.066
-341.362	-20.309	0.228	-0.141
-340.348	-200.000	-0.002	-0.027
-339.333	-200.000	-0.001	0.260
-338.318	-166.847	0.293	0.012
-337.304	-50.738	-0.198	0.093
-336.289	-200.000	0.031	0.200
-335.275	-200.000	0.018	0.301
-334.260	-55.366	0.284	0.128
-333.245	-50.173	0.471	-0.224
-332.231	-135.533	-0.057	-0.007
-331.216	-59.738	-0.256	-0.110
-330.202	218.387	0.070	0.113
-329.187	149.066	-0.120	0.163
-328.172	-65.484	0.199	0.080
-327.158	-155.046	0.290	-0.019
-326.143	-8.944	0.056	0.037
-325.129	-200.000	0.009	-0.108
-324.114	29.823	-0.220	-0.188
-323.099	-200.000	-0.028	-0.506
-322.085	116.154	0.130	0.160
-321.070	800.000	-0.110	0.344
-320.056	-169.682	-0.202	0.007
-319.041	251.637	0.082	0.140
-318.026	-200.000	-0.011	-0.080
-317.012	800.000	-0.115	-0.334
-315.997	55.933	-0.156	0.152
-314.983	-141.145	0.283	0.029
-313.968	-159.158	0.193	0.011
-312.953	56.949	-0.106	-0.104
-311.939	125.531	0.269	0.341
-310.924	-144.239	0.199	0.019
-309.910	-200.000	-0.004	-0.066
-308.895	-30.345	-0.136	-0.077
-307.880	-200.000	-0.009	-0.174
-306.866	-199.739	0.269	0.001
-305.851	-200.000	0.001	0.068
-304.837	-107.392	0.140	0.031
-303.822	-56.332	-0.341	-0.152
-302.807	-108.895	-0.181	0.039
-301.793	-73.921	0.486	0.177
-300.778	51.792	0.155	0.148
-299.764	103.012	-0.014	0.016
-298.749	-200.000	0.019	-0.190
-297.735	-174.957	-0.574	0.016
-296.720	-6.592	-0.108	0.074
-295.705	2.675	0.131	0.095
-294.691	-95.915	-0.279	0.074
-293.676	4.219	0.313	0.230
-292.662	163.924	0.179	0.252
-291.647	-200.000	0.018	-0.212
-290.632	-186.480	0.371	-0.005
-289.618	-17.141	0.081	-0.051
-288.603	97.750	-0.290	0.334
-287.589	-2.422	-0.144	0.101
-286.574	523.455	0.159	-0.374
-285.559	-200.000	0.012	0.328
-284.545	-74.601	0.233	-0.084
-283.530	-128.933	-0.257	-0.036
-282.516	543.757	0.164	-0.393
-281.501	26.219	0.146	-0.122
-280.486	68.174	0.182	-0.187
-279.472	800.000	0.121	0.350
-278.457	444.111	0.162	-0.356
-277.443	-132.397	-0.199	0.026
-276.428	43.199	0.229	0.209
-275.413	-200.000	0.012	0.116
-274.399	-161.251	-0.309	0.016
-273.384	-100.276	-0.221	0.055
-272.370	-200.000	-0.015	0.154
-271.355	-67.285	-0.322	-0.127
-270.340	-40.299	-0.206	0.107
-269.326	43.247	0.150	-0.137
-268.311	10.624	0.248	0.190
-267.297	-113.142	-0.073	-0.014
-266.282	-200.000	0.015	0.208
-265.267	-118.242	-0.399	-0.071
-264.253	-138.534	0.052	0.006
-263.238	60.056	0.230	-0.227
-262.224	800.000	0.054	0.208
-261.209	393.433	0.090	-0.188
-260.195	-45.715	-0.246	-0.122
-259.180	800.000	-0.071	-0.201
-258.165	-39.768	-0.124	0.065
-257.151	-86.522	-0.077	0.024
-256.136	-200.000	0.019	0.132
-255.122	-119.398	0.345	0.060
-254.107	792.246	-0.063	-0.172
-253.092	693.506	-0.093	-0.245
-252.078	165.987	0.126	-0.178
-251.063	-200.000	0.008	-0.249
-250.049	245.470	-0.100	0.168
-249.034	315.435	-0.187	-0.353
-248.019	72.685	-0.065	0.068
-247.005	-118.347	-0.395	-0.070
-245.990	800.000	-0.018	-0.060
-244.976	-2.789	-0.298	-0.208
-243.961	-44.298	0.253	0.127
-242.946	-18.865	-0.307	-0.191
-241.932	-51.866	0.094	-0.044
-240.917	168.796	0.250	-0.357
-239.903	519.702	0.053	-0.124
-238.888	16.868	-0.099	0.079
-237.873	800.000	-0.086	0.260
-236.859	21.689	0.207	0.168
-235.844	-200.000	-0.007	-0.292
-234.830	165.182	-0.140	0.197
-233.815	-200.000	-0.066	0.317
-232.800	-165.482	0.291	0.013
-231.786	-200.000	-0.049	0.246
-230.771	316.208	-0.048	-0.091
-229.757	-124.074	-0.249	0.039
-228.742	800.000	0.129	0.433
-227.727	-42.614	-0.121	0.061
-226.713	152.690	0.137	-0.187
-225.698	-74.432	-0.282	0.102
-224.684	529.124	-0.118	-0.277
-223.669	-71.231	-0.129	-0.048
-222.655	38.111	-0.143	0.127
-221.640	49.221	-0.123	-0.115
-220.625	800.000	-0.092	0.262
-219.611	-200.000	-0.052	0.342
-218.596	762.015	0.057	-0.154
-217.582	-3.598	-0.229	-0.159
-216.567	-146.837	0.134	0.011
-215.552	-17.412	0.012	-0.008
-214.538	-177.943	0.401	0.010
-213.523	395.308	-0.137	-0.284
-212.509	-99.335	-0.249	0.063
-211.494	-21.418	0.137	-0.083
-210.479	800.000	-0.054	0.214
-209.465	-95.087	0.409	0.110
-208.450	-187.550	-0.050	0.001
-207.436	207.437	0.135	-0.210
-206.421	89.461	0.094	0.105
-205.406	-200.000	-0.038	-0.297
-204.392	-200.000	0.017	-0.157
-203.377	-200.000	-0.039	-0.254
-202.363	113.185	0.202	-0.245
-201.348	-161.073	0.181	-0.009
-200.333	-117.095	-0.082	0.015
-199.319	-114.222	-0.139	-0.027
-198.304	-200.000	0.028	0.322
-197.290	383.597	0.133	0.274
-196.275	-26.907	-0.591	-0.344
-195.260	-40.050	-0.455	-0.237
-194.246	-89.915	-0.054	0.016
-193.231	83.859	-0.147	0.160
-192.217	-200.000	-0.001	-0.193
-191.202	89.173	0.152	0.169
-190.187	-200.000	-0.009	-0.081
-189.173	253.070	0.032	-0.055
-188.158	800.000	-0.132	-0.406
-187.144	-68.160	-0.029	0.011
-186.129	112.964	0.017	-0.020
-185.114	800.000	-0.033	-0.108
-184.100	-93.128	-0.153	0.042
-183.085	183.804	-0.025	0.037
-182.071	255.643	0.062	0.107
-181.056	138.911	-0.034	-0.045
-180.042	-200.000	0.011	-0.186
-179.027	-200.000	0.009	-0.154
-178.012	0.825	-0.071	0.050
-176.998	153.513	-0.270	0.369
-175.983	-40.486	-0.095	-0.049
-174.969	185.448	0.215	-0.319
-173.954	-50.161	0.148	-0.070
-172.939	389.414	0.128	0.264
-171.925	103.648	0.135	0.158
-170.910	-19.129	0.076	0.047
-169.896	-200.000	-0.042	0.575
-168.881	434.784	0.017	0.038
-167.866	170.901	-0.109	-0.156
-166.852	-43.027	0.248	0.125
-165.837	40.583	-0.144	-0.129
-164.823	-94.660	0.179	0.049
-163.808	-2.098	-0.098	-0.068
-162.793	184.292	-0.106	0.156
-161.779	53.317	-0.194	-0.186
-160.764	587.440	-0.085	0.209
-159.750	-200.000	-0.013	0.340
-158.735	800.000	-0.077	0.237
-157.720	-44.012	0.319	0.160
-156.706	-89.644	-0.362	0.106
-155.691	59.165	-0.122	-0.119
-154.677	349.398	0.104	-0.204
-153.662	800.000	0.012	0.040
-152.647	222.872	0.039	0.062
-151.633	215.198	0.139	-0.219
-150.618	-200.000	-0.013	-0.362
-149.604	0.954	-0.117	0.083
-148.589	-79.178	0.227	-0.077
-147.574	-95.518	0.169	0.045
-146.560	39.041	-0.115	0.103
-145.545	-90.693	0.483	0.139
-144.531	-200.000	-0.036	-0.226
-143.516	800.000	-0.043	-0.187
-142.502	-32.669	-0.232	-0.128
-141.487	-200.000	0.042	-0.192
-140.472	-107.257	0.277	-0.061
-139.458	-200.000	0.142	-0.000
-138.443	-108.671	0.318	0.068
-137.429	-200.000	-0.037	-0.273
-136.414	-200.000	-0.019	-0.300
-135.399	-200.000	-0.018	0.189
-134.385	216.890	0.082	0.129
-133.370	-115.290	-0.067	-0.013
-132.356	-0.819	0.217	0.153
-131.341	-123.013	-0.383	0.061
-130.326	22.849	-0.243	0.198
-129.312	422.402	-0.173	-0.370
-128.297	-2.820	0.108	0.075
-127.283	428.267	-0.022	-0.047
-126.268	34.709	-0.051	-0.044
-125.253	189.364	-0.138	0.206
-124.239	265.127	-0.100	0.174
-123.224	-33.461	-0.142	0.078
-122.210	93.674	0.167	-0.188
-121.195	-128.303	-0.080	0.011
