DTS Sentinel unit serial number:	SN413079Multiplexer serial number:	ORYXHardware model number:	OX4-SRSoftware version number:	ORYX F/W v4.00 Oryx Data Collector v3.7.2.0data status	okinstallation	princeton_trtdifferential loss correction	single-endedforward channel	channel 1reverse channel	N/Adate	2019/09/14time	02:18:35forward acquisition time	60.00reverse acquisition time	0.00gamma	496.2192k internal	0.2336k external	0.2336temperature offset calibration	1.0075default loss term (dB/km)	0.3790temperature slope calibration	1.0000multiplexer offset coefficient	1.0000multiplexer slope coefficient	1.0000fibre end	0.00T internal ref (°C)	26.52T ext. ref 1 (°C)	3.22T ext. ref 2 (°C)	21.48length (m)	temperature (°C)	Stokes	anti-Stokes-747.200	-200.000	-0.019	-0.180
-746.185	330.655	-0.138	0.266
-745.171	399.351	-0.181	-0.381
-744.156	52.279	0.157	0.151
-743.142	-108.464	-0.338	-0.073
-742.127	478.795	-0.037	0.084
-741.112	60.748	-0.048	-0.048
-740.098	565.073	-0.181	0.439
-739.083	-116.978	-0.494	-0.091
-738.069	-200.000	-0.010	-0.225
-737.054	-123.641	0.149	-0.024
-736.039	-163.822	-0.349	-0.016
-735.025	-21.655	-0.135	-0.083
-734.010	182.653	-0.073	0.108
-732.996	-72.991	-0.284	-0.105
-731.981	121.940	-0.138	-0.173
-730.966	-200.000	0.018	-0.208
-729.952	-200.000	0.011	-0.105
-728.937	-200.000	0.017	0.565
-727.923	229.423	-0.156	0.255
-726.908	-76.468	-0.164	0.058
-725.894	-148.783	-0.202	0.016
-724.879	677.199	-0.087	0.227
-723.864	-90.647	-0.136	-0.039
-722.850	800.000	-0.035	-0.108
-721.835	-159.524	-0.140	-0.008
-720.821	-200.000	0.015	0.072
-719.806	-67.707	-0.147	0.058
-718.791	-200.000	0.097	-0.446
-717.777	-200.000	-0.009	0.319
-716.762	83.107	-0.099	0.108
-715.748	678.379	-0.152	-0.397
-714.733	-136.002	-0.296	-0.035
-713.718	-200.000	0.011	-0.049
-712.704	-77.425	0.103	0.036
-711.689	58.330	-0.126	-0.124
-710.675	-187.704	-0.251	-0.003
-709.660	800.000	-0.050	-0.147
-708.645	-200.000	0.009	-0.192
-707.631	800.000	-0.018	0.054
-706.616	584.209	-0.155	-0.381
-705.602	-126.710	0.260	-0.039
-704.587	513.704	-0.009	-0.022
-703.572	-14.818	-0.129	-0.083
-702.558	-8.478	0.328	0.221
-701.543	284.604	-0.076	-0.137
-700.529	-41.688	-0.198	0.102
-699.514	-186.972	0.285	-0.004
-698.499	800.000	-0.097	-0.344
-697.485	800.000	-0.055	-0.226
-696.470	-200.000	0.007	0.032
-695.456	470.062	0.115	-0.260
-694.441	237.309	0.094	-0.156
-693.426	-200.000	0.020	-0.141
-692.412	-61.659	-0.272	-0.114
-691.397	800.000	-0.019	-0.053
-690.383	34.183	-0.185	-0.162
-689.368	-31.308	-0.194	-0.109
-688.354	800.000	-0.069	-0.259
-687.339	800.000	0.102	0.338
-686.324	493.487	-0.090	-0.206
-685.310	-200.000	-0.053	-0.253
-684.295	40.091	-0.150	-0.135
-683.281	-200.000	-0.004	-0.106
-682.266	615.455	0.082	-0.205
-681.251	18.551	-0.190	0.152
-680.237	-200.000	-0.287	0.000
-679.222	-118.451	0.272	-0.048
-678.208	-91.702	-0.054	0.015
-677.193	-26.297	-0.144	0.085
-676.178	143.283	0.140	0.187
-675.164	800.000	0.053	-0.230
-674.149	-16.203	-0.299	-0.190
-673.135	-59.597	-0.063	-0.027
-672.120	-57.174	-0.128	-0.057
-671.105	-87.426	0.278	0.084
-670.091	-32.068	0.106	0.060
-669.076	-200.000	0.031	-0.167
-668.062	519.135	-0.102	0.239
-667.047	-89.887	0.374	-0.110
-666.032	146.206	0.230	-0.309
-665.018	-15.992	0.222	0.141
-664.003	129.234	-0.109	-0.140
-662.989	-25.815	0.138	-0.081
-661.974	287.189	0.037	0.067
-660.959	156.245	-0.114	-0.157
-659.945	800.000	0.050	0.208
-658.930	-173.949	0.073	0.002
-657.916	-33.722	-0.157	0.086
-656.901	338.391	-0.093	-0.181
-655.886	55.396	0.177	-0.171
-654.872	-200.000	0.005	0.145
-653.857	30.909	0.123	0.106
-652.843	-37.010	0.160	-0.086
-651.828	-81.445	-0.135	-0.045
-650.814	-34.851	-0.110	-0.060
-649.799	593.451	0.036	0.089
-648.784	-160.149	0.245	0.013
-647.770	12.872	-0.062	-0.048
-646.755	-143.854	-0.097	0.009
-645.741	171.060	-0.180	-0.259
-644.726	-200.000	0.003	0.157
-643.711	-200.000	-0.020	-0.403
-642.697	-100.597	-0.150	0.037
-641.682	-200.000	0.018	-0.278
-640.668	-183.494	-0.074	-0.001
-639.653	800.000	0.146	0.488
-638.638	310.407	0.114	0.214
-637.624	-114.318	-0.207	-0.040
-636.609	-87.316	-0.226	-0.069
-635.595	-200.000	-0.012	0.284
-634.580	163.575	0.115	0.162
-633.565	-13.007	-0.269	-0.175
-632.551	800.000	-0.049	-0.180
-631.536	431.305	0.132	-0.286
-630.522	-85.595	-0.206	-0.064
-629.507	800.000	-0.030	-0.082
-628.492	63.456	0.117	-0.118
-627.478	-25.568	-0.081	-0.048
-626.463	428.828	-0.065	-0.141
-625.449	131.811	-0.197	-0.253
-624.434	-47.811	0.176	0.085
-623.419	-200.000	-0.035	-0.299
-622.405	-69.076	-0.262	-0.101
-621.390	-173.251	0.284	-0.009
-620.376	322.852	0.044	0.084
-619.361	1.896	0.250	-0.180
-618.346	412.452	-0.089	0.190
-617.332	237.778	-0.187	0.311
-616.317	-101.407	0.378	0.092
-615.303	509.796	-0.089	0.206
-614.288	-153.253	-0.373	0.026
-613.273	-45.382	-0.075	0.037
-612.259	22.813	0.184	0.151
-611.244	163.772	-0.085	-0.120
-610.230	-18.517	-0.344	-0.215
-609.215	176.590	-0.244	-0.354
-608.201	-200.000	-0.002	0.012
-607.186	5.123	-0.109	0.080
-606.171	25.753	0.197	0.164
-605.157	-157.782	-0.057	0.003
-604.142	48.553	-0.047	0.044
-603.128	179.923	0.116	0.170
-602.113	800.000	-0.003	0.011
-601.098	22.035	0.150	-0.122
-600.084	-20.031	-0.043	-0.026
-599.069	146.553	0.110	0.148
-598.055	800.000	-0.061	0.182
-597.040	800.000	-0.045	0.130
-596.025	124.014	-0.107	0.134
-595.011	-200.000	0.008	-0.224
-593.996	-54.311	-0.192	-0.087
-592.982	94.794	0.107	-0.121
-591.967	59.763	0.108	-0.106
-590.952	-200.000	-0.019	-0.183
-589.938	399.167	0.133	-0.277
-588.923	-200.000	-0.039	-0.215
-587.909	-16.478	-0.254	-0.161
-586.894	-16.489	-0.046	0.029
-585.879	352.614	0.118	-0.234
-584.865	-62.358	-0.275	0.114
-583.850	-140.313	0.096	0.010
-582.836	800.000	-0.129	0.432
-581.821	-200.000	0.043	0.211
-580.806	95.861	-0.158	0.179
-579.792	194.816	-0.106	0.160
-578.777	-38.978	-0.147	-0.077
-577.763	-58.635	0.233	0.101
-576.748	-140.438	-0.195	0.020
-575.733	-89.920	-0.161	0.047
-574.719	-130.798	0.591	0.079
-573.704	-200.000	-0.020	-0.128
-572.690	-200.000	-0.018	0.205
-571.675	20.344	0.158	0.127
-570.661	-200.000	-0.053	0.315
-569.646	-17.995	0.063	-0.039
-568.631	-89.603	-0.214	-0.063
-567.617	164.270	-0.292	-0.410
-566.602	-200.000	-0.073	-0.327
-565.588	-142.164	0.288	-0.028
-564.573	800.000	0.040	0.158
-563.558	259.658	-0.123	0.212
-562.544	-27.285	-0.210	-0.122
-561.529	24.899	-0.323	0.267
-560.515	45.972	-0.177	0.163
-559.500	-91.782	-0.370	0.105
-558.485	-164.450	-0.205	0.009
-557.471	-70.849	-0.079	0.030
-556.456	125.047	-0.140	-0.176
-555.442	19.876	0.065	0.052
-554.427	-200.000	0.031	0.179
-553.412	86.021	-0.208	-0.228
-552.398	136.642	0.044	0.057
-551.383	-77.701	-0.156	-0.054
-550.369	-67.191	-0.149	-0.059
-549.354	77.559	-0.058	-0.062
-548.339	-200.000	0.053	-0.264
-547.325	-96.916	-0.144	0.038
-546.310	46.341	0.169	-0.156
-545.296	-90.263	-0.121	-0.035
-544.281	419.268	-0.099	0.211
-543.266	65.490	-0.105	-0.106
-542.252	-200.000	-0.003	-0.021
-541.237	800.000	0.073	0.235
-540.223	-200.000	-0.014	-0.145
-539.208	150.523	-0.187	-0.253
-538.193	-68.790	0.248	0.096
-537.179	-200.000	0.001	0.266
-536.164	624.694	0.186	0.467
-535.150	-127.311	0.164	0.024
-534.135	-200.000	-0.006	-0.319
-533.121	156.616	-0.104	-0.143
-532.106	-168.780	-0.037	-0.001
-531.091	-4.408	0.098	-0.067
-530.077	-18.380	0.175	-0.109
-529.062	19.341	-0.098	-0.078
-528.048	123.803	-0.163	0.204
-527.033	-102.892	0.101	0.024
-526.018	-110.799	0.238	0.049
-525.004	-84.565	-0.294	-0.092
-523.989	-68.574	0.273	-0.105
-522.975	-148.592	0.263	-0.021
-521.960	42.103	0.097	-0.088
-520.945	84.335	-0.201	-0.219
-519.931	-54.342	0.125	-0.056
-518.916	-157.540	0.063	0.004
-517.902	-97.008	0.185	-0.048
-516.887	-200.000	0.024	0.136
-515.872	-57.908	-0.159	0.069
-514.858	-104.940	0.204	0.047
-513.843	-163.908	0.289	-0.013
-512.829	-65.006	0.174	-0.070
-511.814	-61.746	-0.155	0.065
-510.799	1.562	0.073	-0.052
-509.785	-74.732	0.063	-0.023
-508.770	371.777	0.120	-0.243
-507.756	-53.959	-0.326	0.148
-506.741	-4.614	0.110	-0.076
-505.726	-41.095	0.275	-0.141
-504.712	7.486	-0.156	0.116
-503.697	-37.325	0.243	0.129
-502.683	74.348	0.231	0.241
-501.668	800.000	0.006	0.017
-500.653	-16.987	0.253	0.159
-499.639	800.000	-0.118	0.351
-498.624	571.410	0.074	-0.180
-497.610	691.682	0.020	0.053
-496.595	3.266	-0.049	-0.035
-495.581	800.000	-0.131	0.372
-494.566	267.781	0.185	-0.321
-493.551	30.715	-0.072	0.061
-492.537	632.286	0.129	0.326
-491.522	-115.438	0.268	0.050
-490.508	153.052	0.058	0.079
-489.493	-123.410	-0.029	-0.005
-488.478	113.223	0.100	-0.120
-487.464	-106.634	0.007	0.002
-486.449	-129.321	-0.141	-0.020
-485.435	-17.489	-0.111	0.069
-484.420	-200.000	-0.017	0.309
-483.405	-45.616	0.241	-0.119
-482.391	-16.058	-0.019	-0.012
-481.376	711.057	-0.109	-0.285
-480.362	1.383	-0.306	-0.219
-479.347	4.727	-0.105	-0.077
-478.332	-60.948	-0.075	-0.031
-477.318	47.716	0.310	0.287
-476.303	-125.065	0.186	0.028
-475.289	-153.508	-0.124	0.009
-474.274	692.770	-0.109	-0.283
-473.259	3.243	-0.238	-0.172
-472.245	-200.000	0.004	-0.247
-471.230	77.127	-0.119	0.126
-470.216	418.345	0.158	-0.336
-469.201	336.577	-0.047	-0.090
-468.186	32.393	0.300	-0.257
-467.172	141.469	0.199	0.262
-466.157	-77.467	0.284	0.098
-465.143	74.382	0.117	0.122
-464.128	-159.357	0.210	0.012
-463.113	251.186	-0.107	0.182
-462.099	324.761	-0.116	0.220
-461.084	-74.176	0.175	0.063
-460.070	-200.000	0.005	0.411
-459.055	-48.968	0.382	-0.182
-458.040	108.285	-0.189	-0.224
-457.026	22.335	0.083	0.067
-456.011	-87.297	-0.125	-0.038
-454.997	56.226	0.131	0.126
-453.982	543.866	0.058	0.138
-452.968	-149.897	-0.142	-0.011
-451.953	178.594	-0.048	0.069
-450.938	-43.130	-0.372	-0.187
-449.924	-73.504	-0.223	-0.081
-448.909	272.013	0.090	-0.157
-447.895	-95.163	0.129	0.035
-446.880	17.067	-0.102	-0.080
-445.865	93.255	0.220	-0.247
-444.851	340.522	0.151	-0.292
-443.836	-200.000	-0.009	0.386
-442.822	-47.394	-0.248	0.119
-441.807	-200.000	-0.053	0.403
-440.792	-87.151	0.259	-0.078
-439.778	-40.695	0.182	-0.093
-438.763	-113.099	0.287	0.056
-437.749	-27.112	0.317	-0.183
-436.734	170.481	-0.042	0.060
-435.719	800.000	-0.013	-0.042
-434.705	415.496	0.074	0.157
-433.690	800.000	-0.002	0.009
-432.676	191.518	-0.041	0.061
-431.661	-41.128	-0.156	0.080
-430.646	56.452	0.178	-0.172
-429.632	800.000	-0.078	-0.287
-428.617	800.000	0.064	0.196
-427.603	-36.371	0.379	0.202
-426.588	700.762	0.188	-0.491
-425.573	-75.321	-0.208	0.074
-424.559	800.000	-0.087	0.244
-423.544	-148.976	-0.304	-0.024
-422.530	-200.000	-0.038	-0.291
-421.515	800.000	0.035	0.126
-420.500	230.633	0.087	0.141
-419.486	-90.902	-0.270	0.077
-418.471	518.262	-0.139	0.324
-417.457	556.684	0.127	0.303
-416.442	48.081	0.269	0.249
-415.428	-186.364	0.318	-0.005
-414.413	-52.975	0.076	0.035
-413.398	90.936	-0.164	0.182
-412.384	-130.955	-0.398	-0.053
-411.369	-46.257	-0.147	0.072
-410.355	800.000	-0.019	0.064
-409.340	272.836	0.073	-0.128
-408.325	-200.000	0.017	-0.122
-407.311	-87.729	-0.247	-0.074
-406.296	800.000	0.056	0.239
-405.282	142.458	-0.138	0.181
-404.267	-200.000	-0.002	0.044
-403.252	-158.112	-0.134	-0.008
-402.238	-66.481	-0.300	0.118
-401.223	-200.000	0.040	-0.214
-400.209	-150.967	-0.092	-0.007
-399.194	-140.230	-0.336	-0.035
-398.179	-18.999	0.208	-0.128
-397.165	-53.816	-0.298	-0.135
-396.150	-200.000	-0.007	-0.073
-395.136	49.929	0.153	-0.143
-394.121	494.209	-0.094	-0.213
-393.106	-37.491	-0.106	-0.056
-392.092	137.288	-0.057	-0.073
-391.077	-200.000	-0.027	-0.195
-390.063	-200.000	0.024	-0.113
-389.048	350.286	0.148	0.289
-388.033	-200.000	-0.033	0.333
-387.019	106.061	-0.280	0.328
-386.004	-127.894	0.195	0.028
-384.990	52.915	-0.076	-0.072
-383.975	-56.455	-0.104	-0.046
-382.960	-109.323	0.104	-0.022
-381.946	99.991	0.128	0.147
-380.931	46.131	0.191	-0.175
-379.917	-200.000	-0.000	0.166
-378.902	277.008	0.168	-0.295
-377.888	-200.000	0.004	0.253
-376.873	-200.000	-0.036	0.224
-375.858	104.018	-0.073	0.085
-374.844	800.000	-0.050	-0.183
-373.829	-140.383	-0.217	0.022
-372.815	270.934	0.179	-0.312
-371.800	-31.962	-0.230	0.127
-370.785	653.598	0.051	0.129
-369.771	-137.666	0.297	-0.033
-368.756	139.971	0.188	0.245
-367.742	-200.000	0.006	0.195
-366.727	-1.428	0.017	0.012
-365.712	438.056	-0.088	-0.190
-364.698	-200.000	0.003	-0.194
-363.683	394.703	-0.097	-0.201
-362.669	-118.086	-0.081	-0.014
-361.654	33.457	0.214	0.184
-360.639	-90.878	-0.174	0.050
-359.625	-128.212	-0.124	-0.018
-358.610	-35.579	-0.145	-0.078
-357.596	25.403	0.040	0.033
-356.581	532.952	-0.086	-0.202
-355.566	-132.028	-0.140	0.018
-354.552	221.114	-0.260	0.412
-353.537	-15.620	0.187	0.118
-352.523	186.515	-0.088	0.130
-351.508	-200.000	0.018	0.109
-350.493	800.000	-0.142	-0.457
-349.479	228.868	0.044	0.071
-348.464	115.807	-0.124	-0.150
-347.450	27.597	0.100	-0.083
-346.435	-73.880	-0.438	0.157
-345.420	9.068	0.084	-0.063
-344.406	-141.059	0.199	0.020
-343.391	-200.000	-0.023	-0.133
-342.377	-200.000	0.015	-0.315
-341.362	618.940	-0.036	0.088
-340.348	-200.000	-0.000	0.094
-339.333	-18.287	-0.104	-0.065
-338.318	232.420	0.118	0.191
-337.304	281.588	0.021	-0.038
-336.289	-200.000	0.080	0.350
-335.275	193.423	-0.090	0.135
-334.260	207.657	0.052	0.080
-333.245	154.593	0.082	0.111
-332.231	466.007	-0.129	0.286
-331.216	384.216	-0.106	0.215
-330.202	800.000	-0.094	0.271
-329.187	-200.000	0.011	-0.063
-328.172	-70.407	-0.155	0.058
-327.158	-111.881	0.568	0.113
-326.143	-200.000	0.031	0.368
-325.129	-200.000	0.067	0.307
-324.114	275.295	-0.175	-0.307
-323.099	123.950	0.035	0.043
-322.085	220.463	-0.233	0.368
-321.070	50.212	-0.087	-0.081
-320.056	-200.000	0.352	-0.001
-319.041	-200.000	-0.005	0.167
-318.026	-200.000	-0.002	-0.195
-317.012	156.337	-0.165	0.224
-315.997	-200.000	0.044	0.284
-314.983	-117.858	-0.092	-0.016
-313.968	-69.204	0.156	0.059
-312.953	101.685	-0.054	-0.063
-311.939	44.321	0.223	0.202
-310.924	324.547	0.295	0.556
-309.910	44.051	-0.119	-0.108
-308.895	-92.843	-0.161	-0.044
-307.880	157.128	0.105	-0.143
-306.866	-15.721	-0.193	-0.121
-305.851	219.204	0.075	-0.118
-304.837	19.635	-0.054	-0.043
-303.822	-200.000	-0.019	-0.429
-302.807	129.088	0.075	-0.094
-301.793	-56.999	0.165	-0.072
-300.778	-200.000	0.052	-0.307
-299.764	-81.794	0.055	0.018
-298.749	-200.000	0.013	-0.118
-297.735	-200.000	-0.045	-0.204
-296.720	-200.000	-0.008	0.099
-295.705	-29.010	-0.153	-0.087
-294.691	-200.000	-0.021	-0.121
-293.676	-200.000	0.003	0.036
-292.662	-2.038	-0.374	-0.259
-291.647	-146.353	0.314	0.027
-290.632	10.865	0.104	-0.078
-289.618	-200.000	0.006	0.380
-288.603	-118.934	0.150	-0.026
-287.589	555.010	-0.086	-0.204
-286.574	-83.211	-0.118	0.037
-285.559	755.162	-0.051	-0.135
-284.545	-148.057	-0.258	-0.021
-283.530	87.308	-0.091	0.100
-282.516	-39.987	-0.200	-0.103
-281.501	-48.455	0.193	0.091
-280.486	26.094	-0.139	-0.114
-279.472	-200.000	-0.025	0.244
-278.457	393.887	0.073	-0.150
-277.443	33.074	-0.318	-0.271
-276.428	-200.000	-0.014	0.181
-275.413	-2.697	0.101	-0.070
-274.399	-109.301	0.274	0.057
-273.384	113.837	-0.196	0.235
-272.370	-45.311	-0.243	-0.119
-271.355	297.469	-0.188	-0.339
-270.340	333.119	-0.038	0.072
-269.326	-143.380	0.224	-0.021
-268.311	-200.000	0.037	0.310
-267.297	240.958	0.074	0.121
-266.282	328.355	-0.079	0.149
-265.267	180.380	0.167	-0.241
-264.253	-200.000	-0.003	-0.080
-263.238	-69.895	0.351	0.132
-262.224	-48.941	-0.212	0.100
-261.209	-200.000	0.038	-0.193
-260.195	-13.533	0.191	-0.122
-259.180	-97.056	0.156	-0.040
-258.165	551.634	-0.043	-0.103
-257.151	-45.897	-0.074	0.036
-256.136	800.000	0.099	0.288
-255.122	-16.306	-0.025	-0.015
-254.107	200.608	-0.047	-0.071
-253.092	-13.240	0.282	-0.180
-252.078	-67.116	0.426	0.166
-251.063	-200.000	-0.064	-0.364
-250.049	800.000	-0.112	-0.409
-249.034	86.788	0.130	0.141
-248.019	-48.401	-0.021	-0.010
-247.005	-200.000	0.038	0.258
-245.990	93.667	-0.154	-0.171
-244.976	367.036	0.051	0.101
-243.961	-95.603	0.250	0.066
-242.946	-197.880	-0.312	0.002
-241.932	473.437	-0.079	0.176
-240.917	-172.954	0.221	0.007
-239.903	43.728	0.090	-0.081
-238.888	94.269	0.095	0.106
-237.873	67.437	0.070	-0.070
-236.859	36.093	-0.235	0.204
-235.844	800.000	-0.110	0.346
-234.830	452.119	-0.111	-0.241
-233.815	800.000	0.136	-0.418
-232.800	-71.608	-0.335	-0.123
-231.786	-200.000	-0.041	-0.362
-230.771	800.000	-0.015	0.050
-229.757	109.822	0.156	-0.184
-228.742	-200.000	0.014	0.317
-227.727	800.000	-0.121	0.412
-226.713	800.000	-0.063	-0.234
-225.698	-200.000	0.032	-0.285
-224.684	-106.145	0.056	-0.012
-223.669	-158.007	0.109	0.006
-222.655	-36.413	-0.184	0.097
-221.640	-200.000	-0.006	-0.233
-220.625	-200.000	0.002	0.067
-219.611	116.697	0.301	-0.364
-218.596	145.296	-0.143	0.189
-217.582	190.128	0.079	-0.116
-216.567	-200.000	0.020	-0.161
-215.552	-61.347	0.152	-0.063
-214.538	18.497	-0.049	-0.038
-213.523	314.483	-0.147	0.272
-212.509	-200.000	0.003	0.078
-211.494	800.000	0.006	0.018
-210.479	149.419	0.074	-0.099
-209.465	135.548	-0.093	-0.119
-208.450	187.692	0.065	0.096
-207.436	69.539	0.112	0.114
-206.421	-103.689	0.159	0.037
-205.406	-200.000	-0.015	-0.128
-204.392	800.000	-0.009	-0.035
-203.377	-73.595	-0.315	-0.113
-202.363	-200.000	0.007	-0.163
-201.348	288.867	0.160	-0.284
-200.333	-200.000	0.040	-0.327
-199.319	-200.000	0.018	0.102
-198.304	-200.000	-0.036	-0.264
-197.290	14.857	-0.234	-0.180
-196.275	76.834	-0.127	-0.133
-195.260	-144.915	0.220	-0.020
-194.246	800.000	0.065	-0.250
-193.231	800.000	0.061	0.240
-192.217	-200.000	0.028	-0.136
-191.202	-68.044	-0.248	-0.095
-190.187	105.682	-0.087	-0.101
-189.173	193.137	-0.289	0.430
-188.158	-83.332	0.298	0.094
-187.144	399.781	0.084	0.173
-186.129	-93.758	0.197	0.053
-185.114	-153.204	0.127	0.009
-184.100	-200.000	0.032	-0.144
-183.085	44.161	0.262	-0.236
-182.071	-37.047	0.200	0.105
-181.056	-22.352	-0.023	-0.014
-180.042	40.830	0.249	-0.220
-179.027	62.298	-0.087	-0.085
-178.012	152.644	0.146	0.197
-176.998	521.390	0.116	-0.267
-175.983	-73.202	-0.230	0.083
-174.969	-120.335	-0.233	0.039
-173.954	-29.022	-0.126	0.071
-172.939	342.510	0.052	0.100
-171.925	800.000	0.123	0.377
-170.910	-70.619	0.133	0.049
-169.896	107.088	0.148	0.173
-168.881	-17.846	-0.054	-0.033
-167.866	-200.000	0.132	0.000
-166.852	37.460	-0.155	-0.135
-165.837	-200.000	-0.001	-0.048
-164.823	-157.616	-0.095	0.006
-163.808	-8.497	-0.035	0.023
-162.793	13.223	-0.075	-0.057
-161.779	166.367	0.137	0.190
-160.764	-34.677	-0.053	0.029
-159.750	-69.862	0.149	-0.056
-158.735	-200.000	0.005	0.164
-157.720	-200.000	-0.008	0.174
-156.706	-200.000	0.005	-0.193
-155.691	-92.137	0.192	-0.053
-154.677	311.907	0.184	-0.338
-153.662	-31.365	-0.046	0.025
-152.647	-65.889	0.065	0.026
-151.633	-116.859	0.185	-0.033
-150.618	-27.587	0.104	0.059
-149.604	478.263	-0.057	-0.126
-148.589	-91.299	-0.246	-0.069
-147.574	-166.353	0.229	-0.009
-146.560	30.398	0.203	0.170
-145.545	-30.267	-0.256	0.143
-144.531	-115.066	0.378	-0.070
-143.516	88.414	-0.044	0.048
-142.502	-42.114	-0.241	0.121
-141.487	-31.880	-0.126	0.069
-140.472	-200.000	0.114	-0.000
-139.458	-200.000	-0.009	-0.118
-138.443	-200.000	-0.025	0.258
-137.429	-200.000	0.021	0.196
-136.414	23.728	-0.077	0.062
-135.399	237.784	0.058	-0.095
-134.385	-200.000	-0.003	0.206
-133.370	100.556	0.063	-0.072
-132.356	279.805	-0.166	0.290
-131.341	800.000	-0.090	-0.306
-130.326	-125.299	-0.174	-0.026
-129.312	-92.800	0.099	0.027
-128.297	-110.304	0.139	-0.028
-127.283	-200.000	0.009	-0.044
-126.268	324.079	-0.019	0.035
-125.253	-11.883	0.020	0.013
-124.239	-132.160	0.181	0.023
-123.224	-129.067	0.257	-0.035
