DTS Sentinel unit serial number:	SN413079Multiplexer serial number:	ORYXHardware model number:	OX4-SRSoftware version number:	ORYX F/W v4.00 Oryx Data Collector v3.7.2.0data status	okinstallation	princeton_trtdifferential loss correction	single-endedforward channel	channel 1reverse channel	N/Adate	2019/09/15time	03:30:35forward acquisition time	60.00reverse acquisition time	0.00gamma	496.2192k internal	0.2324k external	0.2324temperature offset calibration	0.9988default loss term (dB/km)	0.3790temperature slope calibration	1.0000multiplexer offset coefficient	1.0000multiplexer slope coefficient	1.0000fibre end	0.00T internal ref (°C)	31.00T ext. ref 1 (°C)	4.62T ext. ref 2 (°C)	25.80length (m)	temperature (°C)	Stokes	anti-Stokes-747.200	231.134	0.090	-0.150
-746.185	125.132	-0.080	-0.102
-745.171	-138.713	0.441	0.049
-744.156	463.055	-0.133	0.300
-743.142	-51.202	0.332	0.157
-742.127	122.934	0.073	0.093
-741.112	-200.000	0.052	-0.421
-740.098	97.419	0.088	-0.102
-739.083	-85.179	0.212	-0.067
-738.069	-183.201	0.341	0.006
-737.054	-46.114	0.257	0.128
-736.039	800.000	-0.036	0.141
-735.025	-50.764	0.177	-0.084
-734.010	-67.998	-0.167	0.066
-732.996	-9.482	-0.296	-0.199
-731.981	800.000	-0.070	-0.232
-730.966	-200.000	0.019	-0.113
-729.952	-28.716	0.126	-0.073
-728.937	-120.607	-0.153	-0.026
-727.923	132.641	0.165	-0.214
-726.908	-200.000	0.026	-0.163
-725.894	-59.629	-0.308	0.133
-724.879	-92.053	0.216	0.062
-723.864	800.000	-0.093	-0.410
-722.850	43.250	0.032	-0.029
-721.835	-115.986	-0.080	0.015
-720.821	52.768	0.315	0.304
-719.806	396.808	0.041	-0.087
-718.791	-106.633	-0.150	0.034
-717.777	-200.000	-0.019	-0.147
-716.762	781.650	0.049	-0.135
-715.748	-173.990	0.051	-0.002
-714.733	-83.274	-0.100	0.032
-713.718	-134.665	-0.405	0.050
-712.704	-200.000	-0.140	0.001
-711.689	751.824	-0.019	-0.052
-710.675	655.473	-0.076	0.198
-709.660	96.784	0.149	0.173
-708.645	284.457	0.117	-0.211
-707.631	-145.914	0.053	-0.005
-706.616	677.105	0.060	-0.158
-705.602	-115.949	-0.390	0.073
-704.587	-200.000	-0.016	0.114
-703.572	7.075	0.314	0.236
-702.558	-172.331	0.143	0.005
-701.543	-38.499	0.250	-0.133
-700.529	-144.979	0.478	0.044
-699.514	-87.433	0.087	0.026
-698.499	34.174	0.032	0.028
-697.485	785.205	0.134	-0.370
-696.470	1.955	-0.197	0.143
-695.456	-200.000	-0.002	0.497
-694.441	292.769	0.093	-0.170
-693.426	-105.492	0.053	-0.012
-692.412	223.701	0.037	-0.061
-691.397	-75.082	-0.155	-0.056
-690.383	648.116	0.046	0.119
-689.368	-200.000	0.013	-0.179
-688.354	-200.000	-0.182	-0.001
-687.339	16.893	-0.316	0.252
-686.324	-200.000	0.051	-0.229
-685.310	384.369	-0.044	-0.092
-684.295	-200.000	-0.001	-0.094
-683.281	-3.757	0.264	0.185
-682.266	-114.526	-0.279	0.054
-681.251	-200.000	0.042	0.222
-680.237	104.577	0.287	-0.341
-679.222	-125.425	-0.359	0.055
-678.208	-58.518	-0.348	-0.152
-677.193	-200.000	0.004	0.219
-676.178	-164.674	0.189	-0.009
-675.164	-106.317	-0.194	0.044
-674.149	70.670	-0.259	-0.270
-673.135	-5.453	0.158	-0.109
-672.120	14.222	-0.225	-0.177
-671.105	800.000	-0.075	0.296
-670.091	313.588	-0.142	-0.269
-669.076	800.000	0.083	-0.233
-668.062	-106.091	0.244	0.055
-667.047	784.766	-0.007	-0.020
-666.032	800.000	0.019	-0.083
-665.018	125.866	-0.054	0.069
-664.003	-37.922	-0.336	0.180
-662.989	-59.693	-0.209	-0.090
-661.974	48.540	-0.039	-0.037
-660.959	584.833	0.164	-0.405
-659.945	-26.196	0.024	0.014
-658.930	710.716	-0.040	-0.105
-657.916	-86.612	0.336	-0.104
-656.901	58.671	-0.115	-0.114
-655.886	-169.319	-0.409	0.015
-654.872	-87.944	-0.147	0.045
-653.857	74.196	0.076	0.081
-652.843	-74.128	0.352	-0.128
-651.828	22.949	0.220	0.181
-650.814	71.201	0.308	-0.321
-649.799	-200.000	-0.011	-0.127
-648.784	-200.000	0.041	-0.234
-647.770	495.297	0.180	-0.417
-646.755	800.000	0.060	-0.241
-645.741	-109.269	-0.146	0.031
-644.726	-34.245	-0.141	-0.078
-643.711	-130.181	-0.146	0.020
-642.697	-84.568	0.153	0.049
-641.682	-150.655	0.112	-0.009
-640.668	-114.626	0.261	0.050
-639.653	-59.633	0.109	-0.047
-638.638	-117.377	-0.254	-0.046
-637.624	-10.033	0.127	0.085
-636.609	26.984	0.077	-0.065
-635.595	-200.000	-0.016	0.156
-634.580	720.593	0.047	0.125
-633.565	-200.000	0.036	0.269
-632.551	-7.683	0.180	-0.123
-631.536	717.351	0.067	-0.179
-630.522	-6.195	0.309	0.212
-629.507	800.000	0.079	0.305
-628.492	-27.617	-0.414	0.242
-627.478	-53.750	0.190	-0.087
-626.463	-200.000	0.011	-0.505
-625.449	800.000	-0.050	-0.146
-624.434	-200.000	0.005	-0.065
-623.419	318.823	-0.140	0.266
-622.405	800.000	-0.023	-0.078
-621.390	-77.622	0.176	0.061
-620.376	27.804	0.267	-0.226
-619.361	357.196	-0.126	-0.253
-618.346	-200.000	0.005	-0.144
-617.332	800.000	-0.067	-0.216
-616.317	376.808	-0.077	-0.157
-615.303	556.360	0.110	0.266
-614.288	-1.381	-0.086	0.061
-613.273	-80.605	0.131	0.044
-612.259	-41.218	0.044	-0.023
-611.244	-35.766	0.031	-0.017
-610.230	-76.923	0.283	-0.099
-609.215	800.000	-0.095	0.279
-608.201	-96.421	0.253	0.067
-607.186	-156.184	0.129	0.008
-606.171	14.484	0.184	0.144
-605.157	27.567	-0.100	0.084
-604.142	-29.105	-0.212	-0.122
-603.128	340.569	0.151	-0.296
-602.113	-82.799	0.136	-0.044
-601.098	-14.130	0.387	-0.251
-600.084	-200.000	0.020	0.251
-599.069	-164.312	-0.248	-0.011
-598.055	426.634	-0.049	0.106
-597.040	-200.000	0.029	0.234
-596.025	-178.056	0.232	-0.006
-595.011	-200.000	0.002	0.024
-593.996	-200.000	0.008	0.376
-592.982	-200.000	-0.041	-0.314
-591.967	22.047	0.068	-0.056
-590.952	-181.666	-0.390	0.008
-589.938	43.586	-0.096	-0.088
-588.923	-117.855	-0.313	-0.056
-587.909	140.915	-0.184	0.243
-586.894	595.242	-0.070	-0.174
-585.879	93.329	0.185	0.210
-584.865	-123.566	0.268	0.043
-583.850	-82.697	-0.258	-0.084
-582.836	-11.912	-0.263	-0.173
-581.821	-61.848	-0.112	-0.047
-580.806	-0.025	0.092	-0.066
-579.792	-103.432	-0.121	0.028
-578.777	21.323	0.267	-0.218
-577.763	88.363	0.318	-0.354
-576.748	-200.000	0.002	-0.080
-575.733	-136.710	-0.365	0.042
-574.719	-200.000	0.002	-0.056
-573.704	-54.326	0.220	0.100
-572.690	-200.000	-0.002	-0.053
-571.675	-19.020	-0.272	0.170
-570.661	-189.835	0.352	0.004
-569.646	61.177	-0.334	-0.332
-568.631	-16.831	0.231	-0.146
-567.617	177.926	0.141	-0.206
-566.602	9.469	0.084	-0.064
-565.588	144.745	0.152	0.203
-564.573	-132.491	-0.344	-0.044
-563.558	155.751	-0.037	-0.052
-562.544	-15.093	-0.189	-0.121
-561.529	135.674	0.012	0.016
-560.515	86.645	0.062	0.068
-559.500	-200.000	0.010	-0.072
-558.485	800.000	0.042	0.119
-557.471	-200.000	-0.035	0.261
-556.456	38.365	-0.232	0.207
-555.442	27.197	-0.058	-0.049
-554.427	-28.567	0.275	0.159
-553.412	149.532	0.049	-0.067
-552.398	-127.247	-0.562	-0.082
-551.383	-149.245	0.156	-0.012
-550.369	133.100	-0.132	0.171
-549.354	754.216	-0.109	-0.295
-548.339	-80.797	-0.262	0.087
-547.325	29.138	0.104	0.088
-546.310	72.617	-0.099	-0.103
-545.296	-67.857	0.129	0.050
-544.281	-11.287	-0.086	-0.057
-543.266	-83.229	-0.142	-0.046
-542.252	-26.682	-0.229	-0.134
-541.237	-100.010	-0.214	0.053
-540.223	800.000	-0.023	-0.099
-539.208	29.597	-0.105	0.089
-538.193	-88.454	0.173	-0.052
-537.179	75.409	-0.028	-0.030
-536.164	-63.307	0.161	0.066
-535.150	87.273	-0.057	0.064
-534.135	-137.523	0.311	-0.035
-533.121	-77.006	-0.309	0.108
-532.106	300.694	-0.117	0.216
-531.091	-200.000	-0.016	0.084
-530.077	-75.302	-0.087	-0.031
-529.062	-59.071	0.119	-0.052
-528.048	552.929	0.090	-0.217
-527.033	-143.692	-0.349	0.033
-526.018	-115.241	0.242	-0.046
-525.004	5.278	-0.144	0.106
-523.989	47.957	-0.110	-0.103
-522.975	111.390	-0.065	-0.079
-521.960	-200.000	0.031	0.237
-520.945	55.716	0.156	0.152
-519.931	-200.000	-0.002	0.389
-518.916	96.310	-0.089	-0.102
-517.902	-87.334	-0.103	0.031
-516.887	-119.282	-0.226	0.039
-515.872	93.094	-0.110	-0.124
-514.858	-84.688	-0.289	0.091
-513.843	-19.640	0.083	-0.051
-512.829	-59.859	-0.191	-0.082
-511.814	608.957	0.048	-0.120
-510.799	-200.000	0.062	-0.443
-509.785	5.381	0.098	-0.072
-508.770	569.705	-0.047	-0.114
-507.756	-41.242	-0.145	0.075
-506.741	527.924	0.118	0.278
-505.726	-141.400	-0.261	0.026
-504.712	800.000	0.067	-0.239
-503.697	211.097	-0.159	0.250
-502.683	-68.318	-0.368	0.143
-501.668	-67.764	0.253	0.099
-500.653	-14.283	0.155	-0.100
-499.639	-143.477	0.219	-0.021
-498.624	20.401	-0.159	-0.128
-497.610	-58.057	0.160	-0.070
-496.595	800.000	0.076	-0.272
-495.581	100.535	0.140	0.163
-494.566	-200.000	-0.006	-0.050
-493.551	-200.000	0.034	0.183
-492.537	-119.936	-0.168	0.029
-491.522	242.829	-0.253	-0.424
-490.508	-53.787	0.153	-0.070
-489.493	24.547	0.166	0.137
-488.478	-133.923	0.143	-0.018
-487.464	-167.931	-0.246	0.010
-486.449	134.487	-0.155	-0.201
-485.435	152.911	-0.165	-0.225
-484.420	800.000	-0.008	-0.032
-483.405	-2.960	0.279	-0.194
-482.391	-78.631	-0.350	-0.120
-481.376	-48.363	-0.088	-0.042
-480.362	72.317	-0.240	0.250
-479.347	480.652	-0.139	0.314
-478.332	-42.751	0.111	0.056
-477.318	-200.000	0.017	-0.319
-476.303	-105.046	-0.346	-0.079
-475.289	217.115	-0.149	0.237
-474.274	53.859	0.098	-0.094
-473.259	-23.037	0.053	-0.032
-472.245	-97.871	-0.199	0.051
-471.230	-89.575	0.224	-0.066
-470.216	165.365	-0.100	0.141
-469.201	-200.000	0.024	0.116
-468.186	12.771	0.450	0.347
-467.172	-72.691	0.068	0.025
-466.157	-15.881	0.344	-0.219
-465.143	-31.038	-0.134	-0.076
-464.128	14.967	-0.064	0.050
-463.113	-200.000	0.010	0.393
-462.099	799.413	-0.109	0.300
-461.084	-42.862	-0.247	0.125
-460.070	-74.209	0.192	0.069
-459.055	30.771	0.187	0.160
-458.040	-200.000	0.038	0.254
-457.026	-19.270	0.180	-0.112
-456.011	-40.219	-0.469	-0.244
-454.997	-118.115	-0.117	-0.021
-453.982	144.604	-0.030	-0.040
-452.968	800.000	-0.056	0.206
-451.953	14.205	-0.030	-0.023
-450.938	-126.093	0.365	-0.055
-449.924	170.686	-0.172	-0.245
-448.909	106.946	0.102	0.121
-447.895	-200.000	-0.023	-0.159
-446.880	149.959	0.113	-0.153
-445.865	-0.762	0.216	0.153
-444.851	800.000	-0.038	0.115
-443.836	-155.840	0.098	0.006
-442.822	167.323	-0.211	0.299
-441.807	800.000	0.010	-0.041
-440.792	800.000	-0.012	0.045
-439.778	-54.789	0.030	0.013
-438.763	229.700	0.078	-0.127
-437.749	-124.674	-0.209	0.032
-436.734	-105.482	-0.202	0.046
-435.719	80.601	-0.178	-0.192
-434.705	-200.000	-0.007	-0.197
-433.690	611.916	0.064	0.158
-432.676	-200.000	-0.021	0.315
-431.661	-81.835	0.273	0.089
-430.646	-31.192	-0.038	-0.022
-429.632	-67.838	-0.352	0.137
-428.617	800.000	-0.085	0.268
-427.603	-38.732	-0.058	0.030
-426.588	-200.000	0.042	-0.266
-425.573	-200.000	-0.001	-0.228
-424.559	423.033	-0.037	-0.078
-423.544	4.789	-0.038	0.028
-422.530	667.607	0.010	0.025
-421.515	53.924	0.055	-0.053
-420.500	191.891	0.092	-0.138
-419.486	777.363	-0.082	0.223
-418.471	80.861	0.130	0.140
-417.457	68.897	-0.141	0.144
-416.442	-200.000	-0.044	0.247
-415.428	209.008	0.087	-0.135
-414.413	-129.282	-0.183	0.025
-413.398	-8.126	0.148	0.099
-412.384	241.066	-0.132	-0.219
-411.369	220.180	0.077	0.123
-410.355	-134.541	0.116	-0.014
-409.340	-15.714	-0.196	-0.124
-408.325	-200.000	0.041	0.268
-407.311	-126.319	-0.293	-0.044
-406.296	800.000	0.087	-0.319
-405.282	-93.272	-0.220	0.061
-404.267	-30.211	0.173	0.098
-403.252	37.286	-0.185	0.164
-402.238	203.474	-0.195	-0.301
-401.223	19.551	-0.092	-0.074
-400.209	-39.002	-0.159	-0.083
-399.194	-200.000	-0.021	0.162
-398.179	-189.852	0.052	0.001
-397.165	-200.000	-0.012	-0.085
-396.150	800.000	0.095	0.272
-395.136	800.000	-0.018	-0.074
-394.121	-200.000	0.008	-0.054
-393.106	246.849	0.150	0.252
-392.092	-42.452	0.059	-0.030
-391.077	10.602	0.342	-0.259
-390.063	-93.858	0.174	0.048
-389.048	322.866	-0.065	0.123
-388.033	12.434	0.271	-0.208
-387.019	16.417	-0.054	0.042
-386.004	486.719	-0.063	0.142
-384.990	149.001	0.174	0.234
-383.975	4.222	-0.016	-0.012
-382.960	71.247	0.290	-0.300
-381.946	-42.599	0.088	-0.045
-380.931	76.565	-0.120	-0.127
-379.917	-200.000	0.031	-0.338
-378.902	-105.529	-0.314	0.071
-377.888	161.411	-0.205	-0.285
-376.873	-70.973	-0.119	0.045
-375.858	91.408	0.116	0.130
-374.844	-93.473	0.256	0.071
-373.829	-115.481	-0.155	-0.029
-372.815	-42.679	-0.236	-0.119
-371.800	0.161	-0.319	-0.226
-370.785	182.157	-0.071	-0.105
-369.771	89.493	-0.172	0.191
-368.756	-69.556	0.186	0.071
-367.742	-52.663	-0.047	-0.022
-366.727	-85.700	0.352	-0.109
-365.712	-78.814	-0.357	-0.121
-364.698	800.000	-0.035	0.111
-363.683	-15.498	0.158	-0.101
-362.669	-116.355	-0.353	0.065
-361.654	800.000	0.003	0.013
-360.639	-200.000	0.018	0.127
-359.625	121.883	-0.324	-0.402
-358.610	163.554	0.138	-0.194
-357.596	-1.229	0.169	-0.119
-356.581	-138.642	-0.192	0.021
-355.566	800.000	-0.056	0.212
-354.552	419.201	-0.077	0.164
-353.537	446.066	0.166	0.363
-352.523	247.105	0.174	-0.292
-351.508	763.642	-0.171	-0.461
-350.493	4.312	0.030	-0.022
-349.479	-51.751	0.129	0.060
-348.464	-56.516	0.078	-0.034
-347.450	46.795	0.200	-0.185
-346.435	137.616	-0.262	0.341
-345.420	-200.000	-0.061	0.326
-344.406	259.563	0.137	0.234
-343.391	-35.571	-0.192	-0.104
-342.377	-200.000	-0.061	-0.489
-341.362	-39.040	-0.211	-0.110
-340.348	-127.667	0.315	0.045
-339.333	800.000	0.036	-0.109
-338.318	-200.000	-0.006	0.045
-337.304	-44.298	-0.078	0.039
-336.289	235.730	-0.060	0.099
-335.275	286.280	0.151	-0.271
-334.260	-80.620	0.232	-0.077
-333.245	578.399	0.149	-0.363
-332.231	-152.542	0.082	-0.006
-331.216	13.853	0.354	0.273
-330.202	197.720	0.089	0.135
-329.187	80.168	0.115	0.123
-328.172	800.000	0.084	0.294
-327.158	50.976	0.347	-0.327
-326.143	-96.096	-0.073	-0.019
-325.129	140.096	-0.055	-0.072
-324.114	626.126	-0.044	-0.109
-323.099	-71.284	-0.207	0.077
-322.085	46.235	-0.039	-0.036
-321.070	-200.000	-0.019	-0.445
-320.056	61.858	0.162	0.161
-319.041	697.816	-0.112	0.292
-318.026	504.169	-0.061	-0.140
-317.012	47.664	-0.244	-0.226
-315.997	232.856	0.184	0.301
-314.983	800.000	-0.047	0.189
-313.968	800.000	-0.057	0.159
-312.953	-200.000	0.001	-0.105
-311.939	196.085	0.235	0.355
-310.924	30.260	-0.093	-0.078
-309.910	765.127	0.104	-0.281
-308.895	-17.532	0.073	-0.046
-307.880	800.000	-0.054	-0.183
-306.866	-113.281	0.160	0.031
-305.851	800.000	-0.069	0.195
-304.837	-200.000	0.007	0.217
-303.822	-154.308	0.300	-0.020
-302.807	-146.944	0.280	0.024
-301.793	-17.728	0.178	0.111
-300.778	800.000	-0.044	0.150
-299.764	-200.000	0.009	0.153
-298.749	-182.753	0.223	0.004
-297.735	-200.000	0.002	0.087
-296.720	-124.912	0.147	-0.022
-295.705	89.130	0.231	0.255
-294.691	-110.424	-0.153	0.031
-293.676	-31.024	-0.261	-0.146
-292.662	-77.982	0.198	-0.068
-291.647	-60.825	0.034	0.014
-290.632	-14.968	-0.192	0.122
-289.618	-200.000	-0.046	0.214
-288.603	-177.317	-0.060	0.001
-287.589	800.000	0.007	0.026
-286.574	80.663	-0.209	-0.224
-285.559	123.480	-0.029	-0.036
-284.545	-200.000	-0.014	0.287
-283.530	-95.341	0.136	-0.036
-282.516	31.544	-0.166	-0.142
-281.501	-155.187	0.066	0.004
-280.486	-107.596	0.142	0.031
-279.472	226.703	0.080	0.128
-278.457	800.000	0.057	0.192
-277.443	360.824	-0.175	0.348
-276.428	-19.840	0.299	-0.183
-275.413	800.000	-0.025	-0.079
-274.399	800.000	-0.019	-0.053
-273.384	653.355	-0.082	-0.209
-272.370	-47.970	-0.167	0.080
-271.355	-119.487	-0.376	0.065
-270.340	121.149	0.173	-0.213
-269.326	536.268	0.132	-0.309
-268.311	108.631	0.115	-0.136
-267.297	-17.260	0.133	-0.083
-266.282	-200.000	-0.010	0.100
-265.267	3.168	0.317	-0.228
-264.253	-200.000	0.020	0.127
-263.238	-35.026	-0.286	-0.154
-262.224	-132.271	-0.141	-0.018
-261.209	-85.806	-0.101	0.031
-260.195	800.000	-0.082	0.226
-259.180	-200.000	-0.041	0.314
-258.165	-12.854	0.135	0.087
-257.151	-132.591	0.260	0.033
-256.136	503.818	0.200	-0.459
-255.122	262.330	0.210	-0.360
-254.107	344.500	0.167	0.325
-253.092	44.925	0.153	0.139
-252.078	-200.000	0.014	0.147
-251.063	-17.850	0.097	0.060
-250.049	439.269	-0.159	0.344
-249.034	0.614	-0.209	0.148
-248.019	642.973	-0.100	0.253
-247.005	2.106	0.240	-0.172
-245.990	-6.776	-0.174	0.117
-244.976	152.008	-0.012	0.016
-243.961	-67.153	-0.332	0.130
-242.946	-44.218	0.409	-0.203
-241.932	-200.000	-0.012	0.161
-240.917	24.291	-0.086	0.070
-239.903	-61.142	0.111	-0.046
-238.888	-200.000	0.024	0.113
-237.873	-28.775	0.030	0.017
-236.859	-114.719	0.316	-0.060
-235.844	-33.503	0.431	0.236
-234.830	800.000	0.058	0.204
-233.815	10.025	-0.170	-0.128
-232.800	191.446	0.108	0.160
-231.786	-76.348	0.257	0.089
-230.771	-7.938	-0.158	-0.106
-229.757	-153.819	-0.153	0.010
-228.742	-89.076	0.131	0.038
-227.727	-36.262	0.267	0.142
-226.713	-200.000	-0.065	-0.405
-225.698	316.370	-0.053	-0.099
-224.684	-30.886	0.170	0.095
-223.669	-200.000	-0.007	0.155
-222.655	16.167	0.125	0.097
-221.640	374.485	0.084	0.168
-220.625	32.392	0.207	-0.177
-219.611	-50.734	-0.388	0.181
-218.596	-41.717	0.054	-0.027
-217.582	97.085	0.115	-0.131
-216.567	68.141	-0.030	0.030
-215.552	587.362	-0.008	-0.020
-214.538	-200.000	-0.246	0.000
-213.523	-19.420	-0.224	0.137
-212.509	-35.431	0.252	-0.136
-211.494	-2.135	0.029	0.020
-210.479	-200.000	0.006	0.075
-209.465	148.332	-0.201	0.268
-208.450	402.826	0.093	0.193
-207.436	-69.318	-0.329	0.125
-206.421	41.807	0.075	-0.067
-205.406	800.000	0.124	-0.416
-204.392	-200.000	0.081	-0.574
-203.377	-89.420	-0.263	0.077
-202.363	218.745	-0.206	0.325
-201.348	-151.122	0.256	0.019
-200.333	173.161	-0.156	0.222
-199.319	195.433	0.129	0.194
-198.304	20.739	-0.186	-0.149
-197.290	-200.000	-0.019	0.231
-196.275	-13.614	-0.237	-0.152
-195.260	120.565	0.149	-0.183
-194.246	-126.248	0.081	-0.012
-193.231	35.007	0.192	0.166
-192.217	-192.552	-0.213	-0.002
-191.202	237.759	-0.156	0.256
-190.187	96.411	-0.081	0.092
-189.173	68.965	0.181	-0.183
-188.158	-142.055	0.157	0.015
-187.144	39.664	-0.260	-0.231
-186.129	800.000	0.058	0.188
-185.114	194.756	0.094	-0.140
-184.100	-200.000	-0.013	-0.225
-183.085	83.512	-0.116	-0.125
-182.071	-200.000	-0.001	0.183
-181.056	-114.104	-0.242	-0.046
-180.042	-64.507	-0.184	-0.074
-179.027	-35.328	-0.184	-0.099
-178.012	71.652	-0.151	0.155
-176.998	-63.446	0.444	0.180
-175.983	-35.544	0.103	0.055
-174.969	93.491	-0.115	-0.128
-173.954	-106.553	0.059	0.013
-172.939	7.272	0.094	-0.069
-171.925	-200.000	-0.017	0.171
-170.910	-200.000	-0.031	-0.242
-169.896	800.000	0.052	-0.180
-168.881	-21.116	0.254	0.153
-167.866	603.164	-0.062	-0.152
-166.852	519.255	-0.095	0.219
-165.837	800.000	-0.164	-0.538
-164.823	363.229	0.024	-0.048
-163.808	-55.310	0.152	-0.067
-162.793	-195.016	-0.178	-0.001
-161.779	130.250	-0.210	-0.266
-160.764	-113.971	0.136	0.026
-159.750	-200.000	0.014	0.180
-158.735	102.346	0.064	0.074
-157.720	350.214	0.172	0.335
-156.706	39.078	0.200	-0.177
-155.691	-123.218	0.457	-0.072
-154.677	148.212	-0.139	0.185
-153.662	-45.998	-0.195	0.095
-152.647	85.514	-0.266	-0.289
-151.633	556.998	0.064	0.152
-150.618	-200.000	-0.021	-0.210
-149.604	255.172	0.096	-0.162
-148.589	-200.000	-0.009	0.146
-147.574	79.889	-0.208	-0.221
-146.560	-143.413	-0.507	-0.048
-145.545	-200.000	0.134	0.000
-144.531	168.052	-0.199	-0.279
-143.516	-2.591	0.005	-0.003
-142.502	-12.088	0.073	0.047
-141.487	-35.007	0.206	-0.111
-140.472	-200.000	-0.003	-0.058
-139.458	-200.000	-0.020	-0.216
-138.443	-169.032	0.440	0.016
-137.429	124.450	-0.088	0.109
-136.414	461.691	0.108	0.238
-135.399	-200.000	-0.002	0.047
-134.385	800.000	0.101	0.295
-133.370	-200.000	0.005	-0.068
-132.356	800.000	0.076	0.220
-131.341	38.518	0.164	-0.144
-130.326	84.559	0.055	0.059
-129.312	-200.000	-0.019	-0.099
-128.297	-14.864	-0.127	0.080
-127.283	89.836	0.008	0.008
-126.268	-181.161	0.348	0.007
-125.253	175.932	0.141	0.201
-124.239	332.907	0.011	-0.020
-123.224	234.542	-0.238	-0.387
-122.210	125.692	-0.103	-0.128
-121.195	-89.953	0.195	0.056
-120.180	-3.044	0.519	0.357
