DTS Sentinel unit serial number:	SN413079Multiplexer serial number:	ORYXHardware model number:	OX4-SRSoftware version number:	ORYX F/W v4.00 Oryx Data Collector v3.7.2.0data status	okinstallation	princeton_trtdifferential loss correction	single-endedforward channel	channel 1reverse channel	N/Adate	2019/09/15time	10:30:35forward acquisition time	60.00reverse acquisition time	0.00gamma	496.2192k internal	0.2309k external	0.2309temperature offset calibration	0.9992default loss term (dB/km)	0.3790temperature slope calibration	1.0000multiplexer offset coefficient	1.0000multiplexer slope coefficient	1.0000fibre end	0.00T internal ref (°C)	34.25T ext. ref 1 (°C)	5.05T ext. ref 2 (°C)	29.48length (m)	temperature (°C)	Stokes	anti-Stokes-747.200	387.718	-0.070	0.146
-746.185	284.247	0.051	0.092
-745.171	-11.564	-0.212	0.142
-744.156	-117.560	-0.149	-0.027
-743.142	14.598	-0.258	-0.204
-742.127	-77.065	0.156	-0.055
-741.112	-200.000	0.069	0.369
-740.098	-200.000	-0.017	0.191
-739.083	105.743	0.221	0.265
-738.069	-34.070	0.153	-0.085
-737.054	185.135	-0.174	-0.262
-736.039	-200.000	0.008	0.073
-735.025	-36.098	0.267	-0.147
-734.010	-83.677	-0.302	0.098
-732.996	69.512	0.158	-0.165
-731.981	800.000	0.084	-0.343
-730.966	-200.000	0.017	-0.210
-729.952	-62.031	-0.183	-0.078
-728.937	-51.699	-0.282	0.134
-727.923	-117.182	-0.431	0.080
-726.908	-200.000	0.004	0.143
-725.894	-146.706	-0.073	0.006
-724.879	-21.154	-0.185	-0.115
-723.864	-67.466	-0.224	-0.089
-722.850	-152.938	0.328	-0.024
-721.835	-200.000	0.003	0.213
-720.821	108.157	-0.228	0.276
-719.806	418.009	-0.149	-0.324
-718.791	-87.550	0.372	-0.114
-717.777	517.664	-0.122	-0.290
-716.762	279.712	0.056	0.101
-715.748	-97.349	-0.121	-0.032
-714.733	-200.000	0.218	0.001
-713.718	800.000	0.077	-0.262
-712.704	-200.000	0.008	0.161
-711.689	-126.234	-0.170	0.026
-710.675	9.339	0.084	-0.065
-709.660	231.226	-0.163	-0.271
-708.645	-69.158	0.211	-0.082
-707.631	112.047	-0.211	-0.259
-706.616	106.629	0.061	0.074
-705.602	800.000	0.010	-0.028
-704.587	-114.338	-0.269	0.053
-703.572	800.000	0.080	-0.233
-702.558	13.174	-0.265	-0.208
-701.543	-175.533	-0.189	0.005
-700.529	-200.000	0.010	-0.056
-699.514	36.621	0.061	0.055
-698.499	-58.237	-0.465	0.205
-697.485	93.126	0.267	0.306
-696.470	55.157	-0.029	0.029
-695.456	-80.847	0.251	-0.084
-694.441	166.136	-0.136	0.196
-693.426	2.375	0.135	-0.099
-692.412	121.296	-0.290	0.366
-691.397	-136.340	-0.383	-0.045
-690.383	-71.238	0.326	-0.124
-689.368	800.000	-0.108	-0.402
-688.354	256.160	0.040	-0.070
-687.339	-73.632	0.134	0.050
-686.324	-51.114	-0.457	-0.217
-685.310	-109.586	0.169	-0.036
-684.295	-200.000	0.048	0.232
-683.281	-9.309	0.110	0.075
-682.266	-51.798	0.142	0.067
-681.251	-200.000	0.013	0.104
-680.237	-200.000	-0.013	-0.060
-679.222	4.845	0.207	0.154
-678.208	73.001	0.070	-0.074
-677.193	-177.164	0.288	0.007
-676.178	-66.422	-0.079	-0.032
-675.164	340.696	-0.093	0.185
-674.149	86.698	-0.222	-0.248
-673.135	-200.000	-0.034	-0.209
-672.120	-64.543	0.056	0.023
-671.105	-7.089	0.155	0.106
-670.091	-157.713	-0.267	-0.016
-669.076	-200.000	0.011	-0.231
-668.062	-77.755	-0.236	-0.083
-667.047	269.495	0.118	0.211
-666.032	-122.652	-0.310	0.051
-665.018	116.014	-0.076	-0.094
-664.003	145.554	-0.129	-0.175
-662.989	800.000	0.035	0.118
-661.974	778.604	0.059	-0.162
-660.959	-68.868	-0.295	-0.115
-659.945	800.000	-0.061	0.185
-658.930	14.509	-0.130	0.102
-657.916	-135.345	-0.072	0.009
-656.901	-200.000	0.119	0.000
-655.886	520.849	-0.070	-0.166
-654.872	735.540	0.162	-0.440
-653.857	21.826	-0.266	-0.219
-652.843	-96.992	-0.045	0.012
-651.828	-128.262	0.101	-0.015
-650.814	619.935	0.032	-0.082
-649.799	-25.474	0.201	0.120
-648.784	-0.411	0.104	0.075
-647.770	-173.982	0.142	0.004
-646.755	-109.762	0.210	-0.045
-645.741	63.822	-0.129	-0.131
-644.726	-200.000	0.220	0.001
-643.711	66.877	0.193	-0.199
-642.697	-200.000	0.026	-0.153
-641.682	-108.315	-0.288	0.063
-640.668	-200.000	0.072	-0.338
-639.653	129.163	-0.020	0.026
-638.638	-16.057	0.217	-0.140
-637.624	-200.000	-0.001	-0.196
-636.609	-200.000	0.014	0.265
-635.595	-73.176	-0.083	-0.031
-634.580	-88.797	0.026	-0.008
-633.565	-49.170	0.220	0.107
-632.551	352.614	0.110	-0.222
-631.536	-153.209	-0.486	0.034
-630.522	800.000	-0.074	-0.216
-629.507	199.297	0.036	-0.055
-628.492	-200.000	-0.004	0.111
-627.478	104.043	-0.016	-0.019
-626.463	-132.696	0.129	-0.017
-625.449	67.138	-0.058	0.060
-624.434	-127.340	-0.185	-0.027
-623.419	-95.134	-0.261	0.071
-622.405	45.344	-0.230	0.214
-621.390	-79.786	-0.271	-0.092
-620.376	420.067	-0.059	-0.127
-619.361	-28.131	0.064	0.037
-618.346	-62.448	-0.217	-0.091
-617.332	-119.528	-0.196	0.034
-616.317	774.731	0.139	0.384
-615.303	149.325	-0.180	-0.246
-614.288	-200.000	0.019	-0.096
-613.273	-200.000	0.012	0.092
-612.259	-108.272	-0.300	0.066
-611.244	-8.357	0.049	-0.033
-610.230	-150.490	0.234	-0.018
-609.215	800.000	-0.109	-0.312
-608.201	-154.391	-0.195	-0.013
-607.186	-172.690	0.320	-0.010
-606.171	58.310	0.220	-0.218
-605.157	-200.000	-0.013	0.179
-604.142	-30.948	0.138	-0.079
-603.128	800.000	-0.054	0.220
-602.113	800.000	0.060	0.260
-601.098	-56.256	0.175	0.079
-600.084	-109.964	-0.364	0.077
-599.069	-167.552	-0.300	-0.012
-598.055	17.577	-0.220	0.177
-597.040	426.717	-0.044	-0.097
-596.025	-84.599	-0.176	0.056
-595.011	-55.381	-0.089	-0.040
-593.996	208.414	0.223	-0.352
-592.982	-200.000	0.031	0.144
-591.967	-143.722	0.023	-0.002
-590.952	-102.016	-0.144	-0.035
-589.938	23.567	-0.171	-0.142
-588.923	-95.345	-0.338	0.092
-587.909	-32.693	0.196	-0.110
-586.894	402.958	0.034	0.072
-585.879	-200.000	0.002	-0.194
-584.865	-77.718	-0.177	0.062
-583.850	158.498	0.112	-0.156
-582.836	-118.613	0.237	-0.042
-581.821	-200.000	0.015	-0.171
-580.806	17.943	-0.109	-0.087
-579.792	-52.515	0.308	0.144
-578.777	-45.060	-0.375	0.188
-577.763	259.198	-0.108	-0.189
-576.748	-45.383	-0.246	-0.123
-575.733	-141.641	-0.126	-0.013
-574.719	800.000	-0.058	0.192
-573.704	800.000	-0.066	0.200
-572.690	-152.204	0.316	-0.023
-571.675	800.000	-0.082	0.273
-570.661	-160.288	-0.067	-0.004
-569.646	218.251	-0.109	0.175
-568.631	800.000	-0.050	-0.211
-567.617	-42.209	-0.288	-0.149
-566.602	111.112	-0.156	-0.189
-565.588	-102.560	0.484	-0.117
-564.573	-26.577	-0.208	-0.123
-563.558	619.227	0.063	0.159
-562.544	-164.666	0.090	0.004
-561.529	-200.000	-0.003	0.162
-560.515	-200.000	-0.011	0.167
-559.500	800.000	0.051	0.152
-558.485	30.301	-0.068	0.059
-557.471	-156.173	-0.070	0.004
-556.456	-200.000	-0.007	-0.125
-555.442	-200.000	0.016	0.110
-554.427	-15.141	-0.355	-0.230
-553.412	6.782	0.237	-0.178
-552.398	800.000	-0.053	-0.194
-551.383	-64.028	0.057	0.023
-550.369	-200.000	-0.049	0.302
-549.354	-151.021	-0.318	0.024
-548.339	43.155	0.155	-0.143
-547.325	528.227	0.148	-0.353
-546.310	481.859	0.069	-0.158
-545.296	-5.164	0.228	0.158
-544.281	53.628	-0.156	0.151
-543.266	-200.000	0.068	-0.000
-542.252	78.629	-0.145	0.156
-541.237	54.596	-0.057	0.055
-540.223	33.486	-0.061	-0.053
-539.208	-141.333	-0.229	-0.023
-538.193	104.262	-0.178	-0.211
-537.179	149.020	0.129	0.175
-536.164	161.183	0.100	0.141
-535.150	-11.062	0.329	0.219
-534.135	-74.748	-0.081	-0.029
-533.121	359.096	-0.139	0.280
-532.106	-185.842	-0.391	0.006
-531.091	-33.469	0.242	0.135
-530.077	-67.515	-0.177	-0.070
-529.062	-77.120	0.060	0.021
-528.048	800.000	-0.021	0.074
-527.033	69.295	0.194	0.201
-526.018	-48.760	-0.252	-0.122
-525.004	-172.517	-0.051	-0.002
-523.989	-122.690	0.028	-0.005
-522.975	-200.000	-0.013	-0.140
-521.960	177.068	0.196	-0.288
-520.945	-42.518	-0.169	0.087
-519.931	65.860	0.314	-0.321
-518.916	-109.897	0.421	0.089
-517.902	557.245	0.072	0.174
-516.887	-200.000	-0.016	-0.093
-515.872	-165.910	0.425	0.018
-514.858	-37.808	0.155	0.083
-513.843	-8.633	-0.067	0.046
-512.829	12.040	-0.184	-0.143
-511.814	-131.415	-0.234	-0.031
-510.799	785.683	0.089	-0.245
-509.785	44.752	0.109	-0.101
-508.770	-200.000	-0.074	0.394
-507.756	-106.515	-0.299	0.067
-506.741	436.908	0.159	0.348
-505.726	-200.000	-0.026	-0.183
-504.712	800.000	-0.116	-0.421
-503.697	135.733	0.050	-0.065
-502.683	-13.052	-0.338	-0.221
-501.668	-59.656	-0.405	0.175
-500.653	45.995	0.072	0.067
-499.639	0.791	-0.180	0.130
-498.624	228.599	0.140	-0.229
-497.610	26.834	-0.239	0.201
-496.595	-41.427	0.127	0.066
-495.581	600.910	-0.136	0.341
-494.566	220.215	0.063	0.102
-493.551	-142.185	0.398	-0.040
-492.537	47.455	-0.100	-0.094
-491.522	353.261	-0.065	-0.130
-490.508	288.281	-0.138	-0.251
-489.493	-200.000	0.046	-0.214
-488.478	63.396	-0.087	0.088
-487.464	-34.056	0.160	0.088
-486.449	-200.000	-0.007	0.348
-485.435	-200.000	0.015	0.102
-484.420	-160.368	-0.164	-0.009
-483.405	8.114	0.101	0.076
-482.391	800.000	-0.020	-0.063
-481.376	-26.313	-0.307	-0.181
-480.362	11.115	0.019	-0.015
-479.347	-171.909	0.251	-0.008
-478.332	146.016	0.039	0.052
-477.318	800.000	-0.086	-0.299
-476.303	13.437	0.124	0.097
-475.289	-6.755	-0.470	0.321
-474.274	-8.096	0.152	0.103
-473.259	-125.480	-0.363	0.056
-472.245	113.083	0.038	0.047
-471.230	77.626	0.381	0.408
-470.216	-144.044	-0.179	0.017
-469.201	350.744	0.214	-0.425
-468.186	326.147	-0.087	0.168
-467.172	5.553	0.299	-0.222
-466.157	800.000	0.093	0.274
-465.143	88.104	-0.153	-0.171
-464.128	73.862	-0.196	0.207
-463.113	200.661	0.020	-0.031
-462.099	96.927	0.277	-0.319
-461.084	505.765	-0.125	0.291
-460.070	-27.289	-0.278	-0.163
-459.055	-200.000	-0.024	0.164
-458.040	67.839	-0.213	0.219
-457.026	755.053	0.077	-0.210
-456.011	-50.282	-0.490	0.233
-454.997	-184.433	-0.413	0.007
-453.982	349.113	-0.137	-0.271
-452.968	-109.832	-0.159	0.033
-451.953	-200.000	0.030	-0.251
-450.938	-66.004	0.242	-0.097
-449.924	-200.000	0.003	0.158
-448.909	-158.733	-0.207	-0.012
-447.895	557.689	-0.125	0.304
-446.880	298.609	0.085	-0.158
-445.865	-103.160	0.218	0.052
-444.851	-65.862	0.243	0.098
-443.836	-76.850	0.316	0.111
-442.822	749.035	0.051	-0.139
-441.807	44.733	0.172	-0.159
-440.792	9.656	-0.284	0.216
-439.778	-68.355	-0.165	0.064
-438.763	-200.000	0.032	0.165
-437.749	-200.000	-0.025	-0.184
-436.734	-157.357	-0.214	-0.013
-435.719	-159.448	-0.302	-0.017
-434.705	18.256	0.290	-0.232
-433.690	101.691	-0.076	0.089
-432.676	435.959	0.053	0.115
-431.661	217.515	-0.172	0.274
-430.646	426.622	0.035	-0.075
-429.632	-92.251	-0.341	-0.096
-428.617	-56.537	0.321	-0.143
-427.603	-73.581	-0.252	-0.092
-426.588	-157.400	-0.193	-0.012
-425.573	254.331	0.060	0.104
-424.559	27.192	-0.112	-0.095
-423.544	-171.253	0.268	-0.009
-422.530	-158.991	-0.286	0.016
-421.515	-200.000	-0.053	-0.253
-420.500	-109.293	-0.233	0.050
-419.486	800.000	0.024	-0.072
-418.471	308.773	-0.024	0.045
-417.457	62.291	-0.237	-0.237
-416.442	-10.740	0.346	-0.230
-415.428	-200.000	-0.014	-0.217
-414.413	124.905	-0.143	-0.181
-413.398	-130.031	-0.262	0.036
-412.384	-14.886	0.211	-0.136
-411.369	89.146	-0.145	-0.162
-410.355	-99.055	0.222	0.056
-409.340	-200.000	0.016	0.247
-408.325	-101.666	-0.360	-0.088
-407.311	720.311	0.152	-0.405
-406.296	16.518	-0.124	0.098
-405.282	90.964	0.201	-0.226
-404.267	-101.353	0.286	-0.070
-403.252	24.106	0.173	0.143
-402.238	56.360	-0.058	-0.057
-401.223	-41.353	-0.020	0.010
-400.209	-6.754	0.154	0.105
-399.194	213.028	0.163	-0.258
-398.179	286.660	0.140	0.254
-397.165	-18.364	-0.175	0.110
-396.150	-68.168	-0.180	0.070
-395.136	-106.468	-0.172	0.038
-394.121	-37.539	0.261	0.140
-393.106	-52.034	0.225	0.105
-392.092	-90.714	-0.160	-0.046
-391.077	-33.839	0.375	-0.207
-390.063	-134.817	0.263	-0.032
-389.048	800.000	0.009	0.033
-388.033	-200.000	-0.001	-0.034
-387.019	33.096	-0.075	0.065
-386.004	-47.895	-0.097	-0.047
-384.990	-200.000	0.009	-0.176
-383.975	69.517	-0.420	-0.434
-382.960	200.634	-0.231	-0.356
-381.946	151.414	-0.114	0.155
-380.931	800.000	-0.044	-0.159
-379.917	-200.000	-0.046	0.262
-378.902	-200.000	0.001	0.260
-377.888	206.895	-0.160	0.249
-376.873	56.499	0.036	0.035
-375.858	-61.849	0.126	0.053
-374.844	24.062	0.159	0.132
-373.829	-20.750	0.440	0.270
-372.815	800.000	0.079	0.217
-371.800	-34.800	0.224	-0.123
-370.785	-63.242	0.194	0.080
-369.771	-200.000	-0.023	-0.145
-368.756	-25.912	0.212	-0.125
-367.742	-139.216	0.329	0.036
-366.727	800.000	-0.079	0.223
-365.712	-200.000	0.012	-0.315
-364.698	326.644	0.050	-0.096
-363.683	-46.056	-0.082	0.040
-362.669	26.690	0.160	0.134
-361.654	49.455	-0.107	0.101
-360.639	400.086	-0.055	0.115
-359.625	115.987	0.110	-0.135
-358.610	-92.093	0.315	0.089
-357.596	800.000	0.111	-0.368
-356.581	-200.000	-0.026	-0.212
-355.566	-51.038	0.150	0.070
-354.552	136.601	0.074	-0.096
-353.537	800.000	0.103	-0.388
-352.523	-42.596	0.361	-0.184
-351.508	-78.390	0.239	0.082
-350.493	-200.000	0.001	-0.120
-349.479	800.000	-0.085	-0.241
-348.464	-30.066	0.235	0.134
-347.450	23.283	0.221	0.182
-346.435	-7.981	0.039	-0.026
-345.420	-200.000	0.003	0.036
-344.406	274.256	0.061	-0.108
-343.391	364.141	0.165	-0.331
-342.377	800.000	-0.087	-0.257
-341.362	-200.000	0.041	-0.189
-340.348	-200.000	-0.020	0.212
-339.333	46.317	0.149	0.138
-338.318	800.000	-0.030	0.106
-337.304	236.619	-0.083	0.137
-336.289	-135.692	0.333	0.039
-335.275	-97.828	0.189	-0.049
-334.260	75.737	0.065	0.069
-333.245	366.046	0.227	-0.458
-332.231	800.000	-0.029	-0.115
-331.216	164.901	-0.148	0.209
-330.202	28.142	0.181	-0.153
-329.187	-200.000	0.071	0.382
-328.172	-102.264	-0.475	0.114
-327.158	-1.796	-0.078	-0.055
-326.143	-100.988	0.501	0.123
-325.129	800.000	-0.025	-0.087
-324.114	75.257	-0.280	-0.295
-323.099	-9.838	-0.152	0.101
-322.085	726.896	-0.023	-0.061
-321.070	-133.481	0.206	-0.026
-320.056	-1.310	0.072	0.051
-319.041	-100.598	0.121	0.030
-318.026	-13.009	-0.174	0.113
-317.012	-200.000	-0.009	0.423
-315.997	-43.931	-0.245	0.123
-314.983	-37.317	0.130	0.070
-313.968	-200.000	0.033	0.302
-312.953	-96.548	-0.291	0.077
-311.939	-200.000	0.025	0.115
-310.924	83.962	0.064	0.070
-309.910	-200.000	-0.027	0.202
-308.895	24.317	0.299	0.247
-307.880	-156.240	0.295	-0.019
-306.866	6.305	0.436	-0.323
-305.851	-58.176	-0.381	0.166
-304.837	569.507	-0.090	-0.219
-303.822	-63.707	-0.323	0.132
-302.807	800.000	0.088	-0.297
-301.793	-200.000	-0.056	-0.272
-300.778	-19.630	-0.261	-0.161
-299.764	6.717	0.099	0.074
-298.749	-154.569	0.019	-0.001
-297.735	-86.450	0.240	-0.074
-296.720	-200.000	0.048	0.285
-295.705	-49.586	0.109	0.052
-294.691	58.855	-0.112	-0.110
-293.676	361.304	-0.072	0.143
-292.662	-56.044	-0.205	0.091
-291.647	-200.000	-0.004	0.162
-290.632	-80.536	0.253	-0.084
-289.618	-56.129	-0.214	-0.095
-288.603	69.592	0.210	0.216
-287.589	-200.000	-0.006	0.410
-286.574	134.103	0.032	-0.041
-285.559	800.000	-0.101	0.356
-284.545	-118.826	0.287	0.050
-283.530	-137.057	0.035	-0.004
-282.516	-95.984	0.268	-0.071
-281.501	-200.000	0.017	-0.241
-280.486	-54.518	-0.178	0.080
-279.472	123.641	0.124	-0.155
-278.457	800.000	0.063	0.212
-277.443	-200.000	-0.004	0.153
-276.428	-99.393	0.046	0.012
-275.413	30.893	-0.122	-0.105
-274.399	-87.174	0.331	0.100
-273.384	-200.000	0.024	-0.148
-272.370	-116.598	-0.277	-0.051
-271.355	-25.045	-0.070	0.041
-270.340	84.407	-0.070	0.077
-269.326	-44.639	-0.113	0.056
-268.311	800.000	-0.025	0.081
-267.297	-200.000	-0.206	-0.000
-266.282	-101.870	-0.235	0.057
-265.267	-75.267	0.126	-0.045
-264.253	-119.710	0.193	0.033
-263.238	213.783	-0.148	-0.233
-262.224	-200.000	-0.004	-0.136
-261.209	-53.358	0.178	0.081
-260.195	-164.391	0.343	-0.016
-259.180	-82.171	-0.220	-0.072
-258.165	112.695	0.122	-0.147
-257.151	267.486	-0.163	-0.285
-256.136	800.000	0.032	-0.101
-255.122	94.024	0.130	-0.147
-254.107	1.797	0.486	-0.349
-253.092	-111.073	0.179	0.037
-252.078	163.362	0.289	0.405
-251.063	-57.712	-0.069	-0.030
-250.049	800.000	0.083	0.360
-249.034	-200.000	0.007	0.126
-248.019	-99.439	-0.385	0.097
-247.005	-58.919	-0.112	-0.048
-245.990	2.552	0.057	-0.041
-244.976	3.475	0.084	-0.061
-243.961	-105.780	-0.253	0.057
-242.946	-50.184	0.157	0.074
-241.932	-200.000	-0.006	-0.067
-240.917	-76.615	-0.360	-0.126
-239.903	18.891	-0.143	-0.115
-238.888	-131.453	-0.245	0.032
-237.873	-184.741	-0.134	-0.002
-236.859	-200.000	0.020	-0.136
-235.844	109.249	0.032	0.039
-234.830	800.000	-0.089	-0.348
-233.815	44.503	-0.052	0.048
-232.800	-42.086	-0.265	0.135
-231.786	-143.598	0.068	-0.006
-230.771	-200.000	0.011	-0.158
-229.757	-28.961	0.344	-0.197
-228.742	800.000	0.053	0.181
-227.727	180.390	0.083	-0.122
-226.713	138.607	-0.117	-0.153
-225.698	-181.501	0.057	-0.001
-224.684	-200.000	-0.020	-0.233
-223.669	-200.000	0.018	-0.186
-222.655	8.700	-0.283	0.212
-221.640	800.000	-0.142	0.449
-220.625	-178.416	0.167	0.004
-219.611	-200.000	0.048	-0.231
-218.596	-200.000	-0.036	-0.201
-217.582	204.094	-0.105	0.163
-216.567	-126.359	0.169	-0.025
-215.552	-200.000	0.009	0.052
-214.538	632.602	-0.097	0.246
-213.523	229.150	-0.025	0.041
-212.509	-67.218	0.084	0.033
-211.494	-77.415	0.110	0.038
-210.479	237.736	-0.262	0.432
-209.465	-200.000	0.029	-0.155
-208.450	800.000	0.025	-0.091
-207.436	-200.000	-0.014	0.225
-206.421	-31.507	0.214	-0.119
-205.406	800.000	-0.056	0.217
-204.392	-200.000	-0.025	0.427
-203.377	-66.714	0.301	-0.119
-202.363	-200.000	-0.020	0.282
-201.348	-127.034	-0.137	-0.020
-200.333	-154.322	-0.434	-0.029
-199.319	186.221	0.131	0.193
-198.304	-29.397	0.105	-0.060
-197.290	2.605	0.253	-0.182
-196.275	-200.000	-0.017	-0.257
-195.260	72.220	-0.182	-0.189
-194.246	-200.000	0.007	0.068
-193.231	142.657	-0.155	0.205
-192.217	-128.014	0.238	0.034
-191.202	37.682	0.283	-0.250
-190.187	-114.379	-0.239	0.046
-189.173	-191.764	-0.175	0.002
-188.158	248.013	0.100	-0.168
-187.144	-64.962	0.379	0.152
-186.129	-136.152	0.491	-0.057
-185.114	16.895	-0.181	0.143
-184.100	800.000	-0.076	0.217
-183.085	-51.795	-0.205	0.095
-182.071	-93.661	-0.131	-0.036
-181.056	-33.049	0.294	-0.162
-180.042	-162.221	0.081	0.004
-179.027	279.572	-0.090	0.161
-178.012	800.000	-0.066	-0.191
-176.998	800.000	-0.040	0.116
-175.983	10.328	-0.186	0.141
-174.969	124.816	0.092	0.115
-173.954	800.000	0.064	0.253
-172.939	73.524	-0.326	0.339
-171.925	-200.000	-0.005	0.191
-170.910	-200.000	-0.002	-0.063
-169.896	-200.000	0.006	-0.193
-168.881	444.891	-0.203	0.442
-167.866	-104.637	0.056	-0.013
-166.852	644.758	-0.077	-0.195
-165.837	116.558	0.122	0.149
-164.823	-122.718	0.511	-0.082
-163.808	-200.000	0.033	-0.285
-162.793	-123.856	0.257	-0.040
-161.779	112.723	-0.168	-0.203
-160.764	150.310	-0.094	-0.127
-159.750	-150.390	-0.138	0.011
-158.735	800.000	-0.075	0.312
-157.720	392.123	0.071	0.146
-156.706	21.903	0.155	0.126
-155.691	211.557	0.174	-0.272
-154.677	-129.956	-0.312	0.042
-153.662	800.000	0.048	-0.146
-152.647	-45.174	0.107	0.053
-151.633	119.509	0.107	-0.132
-150.618	-200.000	0.001	-0.303
-149.604	800.000	-0.068	-0.237
-148.589	522.195	-0.114	0.265
-147.574	-62.928	0.088	-0.036
-146.560	212.228	-0.163	-0.255
-145.545	144.495	-0.162	-0.215
-144.531	15.038	0.221	0.172
-143.516	31.462	0.062	0.053
-142.502	560.069	0.173	-0.416
-141.487	-96.075	-0.177	-0.047
-140.472	-56.843	0.189	-0.083
-139.458	-200.000	0.011	0.083
-138.443	-8.434	0.175	0.117
-137.429	-86.837	-0.159	-0.048
-136.414	45.667	-0.036	0.033
-135.399	-200.000	-0.003	-0.122
-134.385	-200.000	0.002	0.040
-133.370	800.000	-0.051	0.183
-132.356	-9.567	0.229	0.151
-131.341	800.000	0.130	0.384
-130.326	447.829	0.075	0.163
-129.312	-133.274	0.127	0.016
-128.297	-66.642	-0.326	0.128
-127.283	249.944	-0.118	0.198
-126.268	25.864	0.083	-0.069
-125.253	-200.000	0.007	0.224
-124.239	-70.025	0.242	0.092
-123.224	-122.450	-0.213	-0.034
-122.210	-31.416	-0.167	-0.093
-121.195	297.165	0.078	-0.142
