DTS Sentinel unit serial number:	SN413079Multiplexer serial number:	ORYXHardware model number:	OX4-SRSoftware version number:	ORYX F/W v4.00 Oryx Data Collector v3.7.2.0data status	okinstallation	princeton_trtdifferential loss correction	single-endedforward channel	channel 1reverse channel	N/Adate	2019/09/16time	08:30:35forward acquisition time	60.00reverse acquisition time	0.00gamma	496.2192k internal	0.2324k external	0.2324temperature offset calibration	0.9977default loss term (dB/km)	0.3790temperature slope calibration	1.0000multiplexer offset coefficient	1.0000multiplexer slope coefficient	1.0000fibre end	0.00T internal ref (°C)	29.30T ext. ref 1 (°C)	11.90T ext. ref 2 (°C)	25.83length (m)	temperature (°C)	Stokes	anti-Stokes-747.200	17.005	0.107	0.086
-746.185	498.544	0.039	0.091
-745.171	606.796	-0.070	-0.177
-744.156	-52.926	0.036	-0.017
-743.142	-37.512	-0.170	-0.091
-742.127	131.337	-0.225	0.291
-741.112	-26.022	0.216	0.128
-740.098	-2.242	-0.111	0.079
-739.083	86.280	-0.076	0.085
-738.069	-101.094	-0.192	-0.048
-737.054	800.000	0.028	0.119
-736.039	-200.000	0.001	0.136
-735.025	166.608	0.105	0.150
-734.010	388.842	-0.059	0.123
-732.996	-71.330	0.132	-0.050
-731.981	450.599	-0.173	-0.385
-730.966	26.181	-0.238	0.200
-729.952	-14.471	-0.239	0.155
-728.937	-67.795	0.144	-0.057
-727.923	59.492	-0.231	0.230
-726.908	-124.743	-0.217	0.034
-725.894	600.429	-0.033	0.084
-724.879	-200.000	0.010	-0.116
-723.864	-200.000	0.061	-0.342
-722.850	-90.253	0.139	0.041
-721.835	108.213	-0.255	0.306
-720.821	800.000	0.029	0.094
-719.806	10.333	-0.274	-0.210
-718.791	-200.000	-0.026	-0.175
-717.777	-38.036	0.142	0.076
-716.762	88.865	0.226	0.254
-715.748	429.385	0.192	0.418
-714.733	166.827	0.158	0.225
-713.718	-49.833	-0.150	0.072
-712.704	50.724	-0.162	-0.154
-711.689	-200.000	0.031	0.165
-710.675	119.223	0.113	0.141
-709.660	-15.551	-0.155	0.100
-708.645	47.718	0.026	0.024
-707.631	251.082	0.118	-0.202
-706.616	-17.181	-0.063	-0.040
-705.602	178.542	-0.165	-0.243
-704.587	90.478	0.063	0.071
-703.572	153.324	-0.133	0.184
-702.558	639.973	-0.065	-0.167
-701.543	52.257	-0.109	-0.105
-700.529	-100.182	-0.091	-0.023
-699.514	31.786	-0.068	-0.059
-698.499	-200.000	0.004	-0.246
-697.485	800.000	0.090	-0.394
-696.470	194.034	-0.201	-0.307
-695.456	40.397	-0.245	-0.222
-694.441	-53.888	0.118	0.054
-693.426	800.000	0.058	-0.192
-692.412	800.000	-0.066	-0.209
-691.397	169.663	-0.160	-0.230
-690.383	-122.524	-0.321	-0.053
-689.368	-200.000	0.042	-0.303
-688.354	130.682	0.173	-0.223
-687.339	392.674	-0.057	-0.120
-686.324	324.973	0.196	0.377
-685.310	81.495	0.025	-0.027
-684.295	-59.253	-0.363	-0.157
-683.281	100.721	-0.195	-0.228
-682.266	-79.549	-0.191	0.065
-681.251	-151.491	-0.242	0.018
-680.237	118.676	0.260	-0.323
-679.222	428.475	-0.059	0.128
-678.208	356.379	0.123	-0.247
-677.193	265.284	-0.172	0.302
-676.178	484.852	-0.047	-0.108
-675.164	358.235	0.053	0.107
-674.149	412.995	0.012	0.027
-673.135	-120.401	0.029	0.005
-672.120	332.189	0.188	-0.365
-671.105	-200.000	0.022	0.229
-670.091	-112.257	-0.340	-0.069
-669.076	-0.438	0.159	-0.114
-668.062	-11.012	0.040	0.027
-667.047	-137.429	-0.141	-0.016
-666.032	667.337	-0.028	0.072
-665.018	800.000	0.095	-0.366
-664.003	25.225	0.060	-0.050
-662.989	-96.092	-0.563	0.151
-661.974	-34.698	0.114	-0.063
-660.959	800.000	-0.099	0.301
-659.945	-200.000	-0.019	-0.223
-658.930	800.000	0.037	0.111
-657.916	-200.000	-0.014	-0.231
-656.901	-200.000	-0.004	0.038
-655.886	58.469	0.109	-0.107
-654.872	-79.301	-0.234	0.080
-653.857	-163.286	-0.211	0.010
-652.843	-23.457	-0.226	0.136
-651.828	-62.766	-0.205	-0.085
-650.814	-194.417	-0.148	-0.001
-649.799	-108.707	0.191	0.041
-648.784	87.567	0.073	-0.081
-647.770	723.892	0.094	0.252
-646.755	-200.000	0.035	0.328
-645.741	74.441	-0.252	0.267
-644.726	-200.000	-0.038	-0.245
-643.711	-200.000	0.070	0.326
-642.697	-91.370	0.171	0.049
-641.682	-78.581	0.349	0.120
-640.668	84.642	-0.111	0.122
-639.653	217.691	-0.050	-0.081
-638.638	44.643	0.204	0.188
-637.624	-186.030	-0.247	0.004
-636.609	2.331	-0.111	0.081
-635.595	800.000	-0.024	-0.073
-634.580	53.392	-0.138	0.133
-633.565	65.089	0.284	-0.288
-632.551	-121.279	0.511	-0.086
-631.536	-142.576	-0.234	-0.023
-630.522	-61.106	0.234	0.099
-629.507	137.957	-0.194	-0.256
-628.492	-115.400	0.395	-0.075
-627.478	-200.000	0.041	0.510
-626.463	-70.754	-0.088	0.034
-625.449	96.016	-0.097	0.111
-624.434	-11.099	-0.010	0.006
-623.419	-24.275	0.082	0.049
-622.405	800.000	-0.063	-0.266
-621.390	-117.647	0.261	-0.047
-620.376	-173.214	0.077	0.002
-619.361	-112.628	-0.058	0.012
-618.346	-187.234	0.423	0.006
-617.332	-121.067	-0.285	0.048
-616.317	-37.110	-0.231	-0.124
-615.303	63.289	0.142	-0.143
-614.288	-0.527	-0.165	-0.117
-613.273	-141.537	0.140	0.014
-612.259	800.000	0.036	-0.115
-611.244	-200.000	-0.000	-0.126
-610.230	-98.707	-0.317	0.081
-609.215	-122.986	0.025	0.004
-608.201	-31.643	0.235	-0.133
-607.186	-200.000	-0.047	-0.397
-606.171	191.865	0.110	-0.167
-605.157	-7.728	0.229	-0.155
-604.142	255.993	-0.122	-0.210
-603.128	-200.000	-0.005	0.053
-602.113	-3.810	-0.402	0.280
-601.098	782.272	0.014	-0.040
-600.084	-200.000	0.004	-0.304
-599.069	-111.308	0.229	0.047
-598.055	-123.198	0.066	-0.011
-597.040	-129.660	0.229	0.032
-596.025	-200.000	-0.016	0.103
-595.011	-147.811	0.280	-0.024
-593.996	271.436	0.058	0.102
-592.982	-170.831	-0.338	-0.012
-591.967	-172.417	-0.298	0.009
-590.952	800.000	0.044	0.138
-589.938	-28.626	-0.112	-0.065
-588.923	794.709	-0.105	0.290
-587.909	39.737	0.331	-0.298
-586.894	-49.757	0.288	-0.137
-585.879	-72.212	0.328	0.122
-584.865	-120.269	-0.142	0.024
-583.850	-200.000	-0.024	-0.199
-582.836	10.205	0.209	-0.160
-581.821	-200.000	0.027	-0.171
-580.806	-103.243	0.055	-0.013
-579.792	800.000	0.036	0.126
-578.777	800.000	-0.037	0.159
-577.763	-7.254	-0.232	0.157
-576.748	800.000	0.044	0.122
-575.733	-9.457	-0.169	-0.113
-574.719	-185.445	0.277	0.004
-573.704	-200.000	-0.060	0.295
-572.690	-96.131	-0.053	0.014
-571.675	-200.000	0.040	0.276
-570.661	284.818	0.146	0.264
-569.646	110.831	0.234	0.282
-568.631	-90.192	0.100	-0.029
-567.617	567.674	0.080	0.195
-566.602	-77.754	-0.214	-0.074
-565.588	125.062	0.132	0.167
-564.573	78.776	-0.038	-0.040
-563.558	15.296	-0.236	-0.186
-562.544	-94.899	0.251	0.068
-561.529	-142.060	0.119	-0.012
-560.515	-200.000	-0.035	-0.258
-559.500	-67.230	-0.279	-0.110
-558.485	-84.301	-0.188	0.060
-557.471	-200.000	-0.026	-0.263
-556.456	205.623	0.134	-0.208
-555.442	-59.338	0.222	0.096
-554.427	-83.338	0.256	-0.082
-553.412	-151.888	-0.241	-0.018
-552.398	800.000	0.025	-0.109
-551.383	-161.998	-0.490	0.025
-550.369	361.940	0.121	-0.242
-549.354	-118.160	-0.039	0.007
-548.339	-19.822	-0.111	0.069
-547.325	-105.223	-0.130	0.030
-546.310	-94.623	-0.110	-0.030
-545.296	60.495	-0.087	0.086
-544.281	-137.321	-0.125	0.014
-543.266	-20.040	0.252	-0.156
-542.252	-125.507	-0.094	-0.014
-541.237	-106.868	-0.223	0.050
-540.223	-200.000	-0.002	-0.089
-539.208	-200.000	0.013	-0.253
-538.193	64.695	-0.203	0.205
-537.179	128.534	0.279	0.356
-536.164	59.411	0.114	0.112
-535.150	452.249	-0.047	0.104
-534.135	86.860	-0.227	-0.251
-533.121	301.748	-0.061	-0.113
-532.106	618.152	-0.071	0.179
-531.091	376.018	-0.100	0.204
-530.077	-200.000	-0.029	-0.524
-529.062	-200.000	0.009	-0.162
-528.048	-8.521	0.072	-0.048
-527.033	35.489	-0.144	0.126
-526.018	533.657	-0.095	-0.226
-525.004	48.897	-0.070	0.066
-523.989	84.521	0.127	-0.139
-522.975	8.692	0.409	0.309
-521.960	102.904	-0.109	0.128
-520.945	494.916	-0.138	-0.317
-519.931	40.356	-0.054	0.049
-518.916	-51.375	-0.138	0.065
-517.902	-162.747	-0.120	0.006
-516.887	27.326	0.166	0.139
-515.872	-26.250	-0.396	-0.233
-514.858	761.656	-0.061	0.165
-513.843	631.101	0.188	0.477
-512.829	76.090	0.203	-0.215
-511.814	-13.680	-0.075	0.049
-510.799	-200.000	-0.034	-0.219
-509.785	60.250	-0.295	0.292
-508.770	-126.622	-0.477	-0.071
-507.756	-41.985	0.155	0.079
-506.741	544.238	-0.005	0.011
-505.726	38.952	0.384	0.343
-504.712	248.218	0.080	-0.136
-503.697	-156.401	0.384	0.024
-502.683	289.984	-0.162	0.294
-501.668	127.228	-0.213	0.270
-500.653	560.051	-0.026	0.063
-499.639	800.000	0.072	0.266
-498.624	800.000	-0.064	0.238
-497.610	-200.000	-0.001	0.337
-496.595	-19.981	-0.329	0.203
-495.581	800.000	-0.108	0.326
-494.566	648.953	0.153	0.390
-493.551	43.116	-0.138	-0.126
-492.537	-200.000	-0.150	-0.000
-491.522	26.930	-0.163	0.137
-490.508	59.701	0.173	0.170
-489.493	270.018	-0.084	0.147
-488.478	-55.719	0.189	0.084
-487.464	800.000	-0.122	0.389
-486.449	-125.532	-0.164	-0.025
-485.435	-31.887	-0.324	0.181
-484.420	368.467	0.108	0.217
-483.405	-200.000	0.003	0.047
-482.391	96.907	0.177	-0.202
-481.376	-19.271	0.142	0.088
-480.362	86.221	-0.083	0.091
-479.347	4.377	-0.208	0.152
-478.332	-200.000	-0.031	0.220
-477.318	-15.034	0.271	-0.173
-476.303	77.932	0.107	0.114
-475.289	-134.977	-0.145	0.017
-474.274	-56.325	-0.239	0.106
-473.259	-106.586	0.193	0.043
-472.245	-86.841	-0.267	-0.081
-471.230	-87.145	0.141	-0.043
-470.216	-32.048	0.055	0.031
-469.201	-200.000	0.006	0.222
-468.186	-90.216	0.220	-0.064
-467.172	656.262	-0.042	0.108
-466.157	84.222	0.138	0.150
-465.143	422.614	0.076	0.163
-464.128	-191.496	-0.090	-0.001
-463.113	-47.359	0.324	-0.158
-462.099	385.280	0.057	-0.118
-461.084	-200.000	0.009	-0.198
-460.070	-200.000	0.011	-0.263
-459.055	-143.873	-0.190	0.018
-458.040	43.006	0.194	0.176
-457.026	-63.373	-0.298	0.122
-456.011	10.370	-0.186	-0.142
-454.997	-170.585	0.336	-0.012
-453.982	-200.000	-0.004	0.139
-452.968	-100.863	-0.142	0.035
-451.953	-200.000	-0.249	0.000
-450.938	-79.226	0.186	0.063
-449.924	45.503	0.064	-0.059
-448.909	12.989	-0.343	-0.265
-447.895	800.000	-0.038	0.150
-446.880	-59.810	0.076	0.032
-445.865	354.971	-0.070	0.139
-444.851	47.018	-0.049	-0.045
-443.836	22.970	0.407	0.333
-442.822	-81.702	0.131	0.043
-441.807	-192.190	-0.077	0.001
-440.792	-106.806	0.360	0.080
-439.778	-74.360	-0.093	-0.034
-438.763	800.000	0.032	-0.116
-437.749	-200.000	-0.002	-0.270
-436.734	-41.675	0.401	-0.205
-435.719	-128.051	-0.172	0.025
-434.705	-66.963	-0.152	-0.060
-433.690	89.767	0.203	0.226
-432.676	-85.368	0.387	-0.120
-431.661	-158.146	0.109	0.006
-430.646	-131.982	-0.093	0.012
-429.632	266.290	0.025	-0.044
-428.617	299.030	-0.027	0.050
-427.603	166.257	0.127	0.179
-426.588	347.320	-0.111	0.217
-425.573	-200.000	0.003	-0.028
-424.559	-53.009	0.076	0.035
-423.544	-44.122	-0.300	-0.150
-422.530	-20.152	-0.101	0.062
-421.515	-80.145	-0.272	0.091
-420.500	160.091	-0.140	-0.195
-419.486	-167.977	0.034	0.001
-418.471	-77.511	-0.225	0.078
-417.457	44.759	0.073	0.067
-416.442	-200.000	-0.003	-0.339
-415.428	-29.822	0.414	-0.235
-414.413	-87.927	-0.157	0.047
-413.398	-16.306	-0.358	0.226
-412.384	800.000	0.044	0.122
-411.369	630.514	0.112	-0.281
-410.355	800.000	0.049	0.191
-409.340	44.209	0.121	0.111
-408.325	139.212	-0.041	-0.053
-407.311	219.325	-0.091	-0.145
-406.296	194.744	-0.149	-0.226
-405.282	-76.078	0.435	-0.153
-404.267	11.120	0.402	0.306
-403.252	73.085	-0.193	-0.201
-402.238	-196.624	-0.259	0.002
-401.223	-75.733	-0.302	0.107
-400.209	47.780	-0.217	-0.201
-399.194	-200.000	-0.028	-0.301
-398.179	387.849	0.056	-0.116
-397.165	-152.919	0.192	-0.014
-396.150	39.751	-0.219	-0.196
-395.136	-85.040	0.102	-0.032
-394.121	-21.368	0.046	-0.028
-393.106	-148.125	-0.155	0.013
-392.092	227.024	-0.038	-0.062
-391.077	-56.819	0.352	0.155
-390.063	229.608	-0.010	-0.016
-389.048	95.709	0.099	-0.113
-388.033	-99.492	-0.233	-0.058
-387.019	-155.795	0.138	0.009
-386.004	2.112	-0.069	0.050
-384.990	-200.000	-0.036	0.228
-383.975	-66.070	0.250	0.099
-382.960	-9.383	-0.086	0.057
-381.946	-82.394	0.223	-0.072
-380.931	487.629	-0.104	-0.237
-379.917	-200.000	-0.048	-0.265
-378.902	-47.659	0.112	-0.054
-377.888	-68.808	-0.194	0.075
-376.873	91.246	-0.153	-0.171
-375.858	-102.548	0.296	0.070
-374.844	104.177	-0.120	0.141
-373.829	-11.618	-0.191	0.125
-372.815	41.479	0.227	-0.204
-371.800	-200.000	0.001	0.135
-370.785	617.603	-0.043	-0.108
-369.771	-74.771	-0.132	0.047
-368.756	132.968	-0.109	-0.140
-367.742	-22.755	0.055	-0.033
-366.727	-200.000	0.001	0.273
-365.712	37.251	-0.205	-0.181
-364.698	142.335	0.235	0.310
-363.683	-70.386	-0.286	-0.108
-362.669	-200.000	0.009	-0.050
-361.654	61.937	0.054	0.054
-360.639	29.571	0.256	0.217
-359.625	276.904	0.083	-0.147
-358.610	800.000	0.030	0.092
-357.596	37.819	0.076	-0.067
-356.581	-94.436	-0.333	0.090
-355.566	-115.217	0.240	0.045
-354.552	148.025	0.049	-0.066
-353.537	-156.304	-0.044	-0.003
-352.523	-46.206	-0.204	0.100
-351.508	-87.543	0.250	-0.075
-350.493	-61.329	-0.185	-0.077
-349.479	-200.000	-0.096	-0.472
-348.464	800.000	0.122	-0.413
-347.450	-117.139	0.330	0.060
-346.435	189.921	0.079	-0.118
-345.420	-47.650	-0.037	0.018
-344.406	-200.000	0.038	-0.337
-343.391	290.249	0.111	-0.201
-342.377	-26.945	0.280	-0.162
-341.362	-28.835	-0.177	-0.101
-340.348	-200.000	-0.018	-0.380
-339.333	-200.000	-0.007	0.118
-338.318	26.571	-0.044	-0.036
-337.304	484.115	-0.036	-0.082
-336.289	254.634	-0.175	-0.297
-335.275	-130.469	0.190	-0.026
-334.260	13.979	0.302	-0.233
-333.245	800.000	0.097	0.415
-332.231	-0.034	0.141	0.099
-331.216	63.387	-0.130	0.129
-330.202	21.407	0.080	-0.065
-329.187	381.144	0.130	-0.266
-328.172	-200.000	-0.005	0.290
-327.158	161.981	-0.086	0.120
-326.143	-172.441	-0.254	-0.008
-325.129	60.375	0.013	-0.013
-324.114	-169.526	-0.176	0.006
-323.099	175.801	-0.278	-0.401
-322.085	-200.000	0.014	0.281
-321.070	-50.922	0.013	0.006
-320.056	41.914	0.129	0.116
-319.041	-4.892	-0.193	0.132
-318.026	90.615	0.184	0.205
-317.012	-167.729	-0.459	0.018
-315.997	-126.796	-0.445	0.065
-314.983	-117.878	-0.313	0.056
-313.968	44.192	0.234	0.213
-312.953	86.026	-0.109	0.119
-311.939	800.000	-0.045	-0.154
-310.924	-71.362	-0.244	-0.091
-309.910	-200.000	-0.021	-0.346
-308.895	-200.000	-0.002	0.033
-307.880	176.743	0.168	0.243
-306.866	-182.234	-0.283	-0.005
-305.851	-49.139	0.212	-0.101
-304.837	108.245	-0.162	-0.192
-303.822	-200.000	-0.026	-0.141
-302.807	-106.581	-0.249	0.055
-301.793	49.305	-0.110	-0.103
-300.778	-152.717	-0.470	0.033
-299.764	684.716	0.195	0.505
-298.749	742.505	0.038	-0.101
-297.735	61.130	0.287	0.283
-296.720	-10.434	0.085	0.056
-295.705	68.484	0.255	-0.260
-294.691	-68.019	0.188	-0.073
-293.676	-200.000	-0.014	0.065
-292.662	401.548	0.149	-0.309
-291.647	-200.000	-0.008	-0.141
-290.632	-95.908	0.110	0.029
-289.618	50.837	-0.249	0.234
-288.603	72.248	-0.178	-0.184
-287.589	258.408	-0.104	0.178
-286.574	340.193	-0.087	0.168
-285.559	800.000	0.024	-0.078
-284.545	-35.518	-0.072	0.039
-283.530	14.573	-0.160	-0.123
-282.516	-133.392	-0.175	-0.022
-281.501	26.151	0.137	0.113
-280.486	637.627	0.132	-0.333
-279.472	-100.699	-0.457	0.112
-278.457	-26.161	0.377	-0.220
-277.443	-73.402	0.027	-0.010
-276.428	430.705	-0.050	0.108
-275.413	-84.982	-0.540	-0.168
-274.399	-172.630	0.203	0.006
-273.384	138.164	-0.061	-0.079
-272.370	-200.000	0.056	-0.410
-271.355	-200.000	0.011	0.083
-270.340	-200.000	-0.086	-0.393
-269.326	131.122	-0.252	0.320
-268.311	781.162	0.160	-0.433
-267.297	399.640	0.097	-0.201
-266.282	345.471	0.070	-0.137
-265.267	-69.971	-0.433	-0.164
-264.253	-83.274	-0.241	0.077
-263.238	555.822	0.067	0.160
-262.224	401.768	-0.133	-0.277
-261.209	208.947	0.118	0.183
-260.195	1.514	-0.154	-0.110
-259.180	36.427	0.049	-0.043
-258.165	-50.080	0.134	0.063
-257.151	702.001	-0.124	0.323
-256.136	800.000	-0.045	0.154
-255.122	35.866	0.152	0.132
-254.107	-181.437	-0.410	0.008
-253.092	784.231	-0.128	-0.347
-252.078	-6.938	0.099	0.067
-251.063	42.426	-0.318	0.287
-250.049	800.000	-0.115	0.472
-249.034	-200.000	0.088	-0.462
-248.019	186.084	0.212	0.312
-247.005	-117.976	0.128	0.023
-245.990	242.336	-0.064	0.106
-244.976	149.474	0.072	-0.097
-243.961	63.774	-0.463	-0.460
-242.946	568.625	-0.027	-0.066
-241.932	134.862	-0.288	0.370
-240.917	-200.000	0.018	0.230
-239.903	-92.801	-0.078	0.022
-238.888	199.775	-0.100	-0.151
-237.873	310.496	-0.058	-0.108
-236.859	172.596	-0.123	0.175
-235.844	5.263	-0.176	-0.128
-234.830	17.880	-0.053	0.042
-233.815	-200.000	0.024	0.132
-232.800	307.957	0.171	-0.316
-231.786	-200.000	0.022	0.233
-230.771	-163.213	0.285	-0.014
-229.757	10.076	0.218	-0.164
-228.742	100.145	-0.152	0.174
-227.727	200.414	0.207	0.314
-226.713	413.036	-0.131	-0.275
-225.698	-46.278	0.210	0.102
-224.684	530.237	0.068	0.158
-223.669	-99.492	0.200	0.050
-222.655	217.356	0.258	0.406
-221.640	-200.000	0.029	-0.249
-220.625	800.000	-0.024	0.085
-219.611	70.729	-0.181	0.185
-218.596	800.000	0.042	0.128
-217.582	28.983	0.314	-0.263
-216.567	-124.907	0.303	-0.046
-215.552	161.725	-0.136	-0.188
-214.538	-145.505	0.241	0.021
-213.523	-200.000	0.011	0.148
-212.509	-200.000	0.016	-0.137
-211.494	196.301	0.118	-0.177
-210.479	-141.736	0.504	0.050
-209.465	-116.597	0.303	-0.055
-208.450	-200.000	-0.005	-0.026
-207.436	204.225	0.201	-0.307
-206.421	-70.076	0.184	-0.069
-205.406	226.764	0.128	0.205
-204.392	800.000	-0.061	-0.264
-203.377	-146.908	0.279	0.024
-202.363	15.687	0.526	-0.409
-201.348	-158.920	0.176	0.010
-200.333	392.458	-0.089	-0.183
-199.319	0.300	0.085	0.060
-198.304	-200.000	-0.052	-0.347
-197.290	800.000	0.028	0.107
-196.275	95.465	-0.145	-0.163
-195.260	88.866	0.250	0.274
-194.246	364.605	0.053	-0.106
-193.231	800.000	0.020	0.083
-192.217	-147.414	0.323	-0.027
-191.202	-81.744	-0.267	0.087
-190.187	800.000	-0.053	0.165
-189.173	-146.536	-0.196	0.017
-188.158	800.000	-0.072	0.208
-187.144	5.987	0.114	-0.083
-186.129	-200.000	-0.037	-0.186
-185.114	-114.416	0.091	-0.017
-184.100	800.000	-0.022	0.093
-183.085	-120.399	0.088	0.015
-182.071	800.000	-0.049	-0.134
-181.056	255.085	0.045	0.077
-180.042	-200.000	0.023	-0.360
-179.027	-51.555	0.090	0.042
-178.012	-82.662	0.038	0.012
-176.998	-107.890	0.275	-0.059
-175.983	-200.000	-0.270	0.001
-174.969	167.853	0.221	-0.310
-173.954	-68.748	-0.123	-0.047
-172.939	-21.667	-0.221	0.133
-171.925	674.604	-0.026	0.067
-170.910	-147.931	-0.376	-0.031
-169.896	-200.000	0.021	-0.245
-168.881	262.626	0.123	0.211
-167.866	-127.174	-0.382	0.055
-166.852	-200.000	-0.049	0.288
-165.837	34.899	0.042	0.036
-164.823	45.685	0.210	-0.191
-163.808	-200.000	-0.062	-0.303
-162.793	-15.685	0.038	-0.024
-161.779	-25.622	-0.280	-0.163
-160.764	110.922	-0.070	-0.083
-159.750	-200.000	-0.016	0.167
-158.735	-31.001	0.368	-0.205
-157.720	58.887	-0.181	0.175
-156.706	1.796	-0.180	0.128
-155.691	178.532	0.128	-0.184
-154.677	-120.157	-0.316	0.053
-153.662	-200.000	-0.052	0.238
-152.647	-104.409	0.113	-0.026
-151.633	660.116	0.015	0.038
-150.618	212.229	-0.080	-0.124
-149.604	176.639	-0.011	0.015
-148.589	-4.189	0.479	0.327
-147.574	74.093	-0.222	0.229
-146.560	153.830	0.078	-0.105
-145.545	135.283	-0.136	0.174
-144.531	-147.248	0.074	0.006
-143.516	800.000	0.101	0.319
-142.502	-148.639	-0.319	0.026
-141.487	800.000	0.019	0.066
-140.472	1.711	0.314	0.223
-139.458	109.738	0.076	0.089
-138.443	-200.000	0.005	-0.036
-137.429	800.000	0.050	0.168
-136.414	-64.525	-0.214	0.086
-135.399	-92.212	-0.179	0.050
-134.385	-200.000	-0.018	-0.095
-133.370	-147.823	-0.198	0.016
-132.356	-115.218	0.123	0.023
-131.341	-8.346	0.288	-0.191
-130.326	-38.740	-0.227	-0.118
-129.312	-9.333	0.123	-0.081
-128.297	56.697	0.226	0.217
-127.283	-42.485	0.290	0.146
-126.268	-62.499	0.270	0.111
-125.253	149.199	0.279	0.372
-124.239	-136.256	-0.123	0.014
-123.224	6.775	-0.343	-0.252
-122.210	186.582	-0.091	0.134
-121.195	-31.722	0.172	-0.095
-120.180	800.000	0.060	-0.169
