DTS Sentinel unit serial number:	SN413079Multiplexer serial number:	ORYXHardware model number:	OX4-SRSoftware version number:	ORYX F/W v4.00 Oryx Data Collector v3.7.2.0data status	okinstallation	princeton_trtdifferential loss correction	single-endedforward channel	channel 1reverse channel	N/Adate	2019/09/17time	17:34:35forward acquisition time	60.00reverse acquisition time	0.00gamma	496.2192k internal	0.2291k external	0.2291temperature offset calibration	0.9957default loss term (dB/km)	0.3790temperature slope calibration	1.0000multiplexer offset coefficient	1.0000multiplexer slope coefficient	1.0000fibre end	0.00T internal ref (°C)	43.25T ext. ref 1 (°C)	0.34T ext. ref 2 (°C)	39.07length (m)	temperature (°C)	Stokes	anti-Stokes-747.200	-99.067	0.074	-0.019
-746.185	-3.666	-0.185	0.132
-745.171	-188.293	0.086	-0.001
-744.156	-200.000	-0.080	0.408
-743.142	311.395	-0.089	0.170
-742.127	-161.985	0.338	-0.017
-741.112	-166.510	0.412	0.018
-740.098	141.703	0.193	0.262
-739.083	-200.000	0.011	0.120
-738.069	378.439	-0.090	0.189
-737.054	-1.597	-0.173	0.125
-736.039	337.899	-0.075	-0.149
-735.025	800.000	-0.122	-0.371
-734.010	-200.000	-0.099	-0.504
-732.996	800.000	-0.107	-0.424
-731.981	587.515	-0.042	-0.106
-730.966	-108.254	0.417	-0.092
-729.952	-200.000	0.014	0.136
-728.937	-13.038	-0.163	0.109
-727.923	-153.000	0.195	-0.014
-726.908	-149.526	0.168	0.014
-725.894	-200.000	0.005	-0.106
-724.879	800.000	-0.031	0.095
-723.864	-29.028	-0.406	0.239
-722.850	1.728	0.016	0.012
-721.835	-101.212	0.227	0.057
-720.821	-110.000	0.112	-0.024
-719.806	116.399	0.341	0.427
-718.791	-48.746	-0.156	-0.077
-717.777	-18.395	0.178	-0.113
-716.762	72.555	-0.182	-0.194
-715.748	-95.122	-0.005	0.001
-714.733	-200.000	0.005	0.148
-713.718	20.562	-0.159	0.131
-712.704	-200.000	0.021	0.118
-711.689	21.290	-0.229	-0.191
-710.675	23.331	-0.058	0.049
-709.660	800.000	-0.084	0.284
-708.645	-89.604	-0.209	-0.063
-707.631	-200.000	-0.019	-0.114
-706.616	-200.000	-0.047	0.247
-705.602	280.116	0.248	-0.452
-704.587	690.953	-0.072	-0.192
-703.572	-31.705	-0.268	-0.154
-702.558	187.281	0.167	-0.255
-701.543	800.000	-0.068	-0.195
-700.529	-200.000	0.001	-0.162
-699.514	-135.842	0.448	-0.054
-698.499	-46.722	0.283	-0.142
-697.485	-78.158	0.092	-0.032
-696.470	56.182	-0.163	-0.162
-695.456	-161.360	-0.106	-0.006
-694.441	-152.410	0.219	-0.016
-693.426	14.019	0.238	-0.189
-692.412	-189.901	-0.264	-0.003
-691.397	638.713	0.021	0.055
-690.383	129.697	0.111	-0.145
-689.368	-30.956	-0.159	0.092
-688.354	99.060	-0.114	-0.135
-687.339	-200.000	-0.050	-0.468
-686.324	-200.000	0.034	0.441
-685.310	459.833	-0.146	0.332
-684.295	372.427	-0.041	-0.086
-683.281	270.030	-0.077	-0.139
-682.266	-61.649	-0.307	0.132
-681.251	23.620	0.528	0.444
-680.237	800.000	-0.074	-0.328
-679.222	81.456	-0.188	-0.207
-678.208	391.402	-0.070	-0.149
-677.193	-200.000	0.004	-0.027
-676.178	800.000	0.076	-0.225
-675.164	-200.000	0.023	0.171
-674.149	-89.711	0.494	-0.148
-673.135	-105.769	0.183	-0.042
-672.120	800.000	-0.063	0.192
-671.105	-90.741	0.411	0.121
-670.091	-48.085	-0.352	0.173
-669.076	800.000	-0.055	0.171
-668.062	-22.502	0.316	-0.195
-667.047	15.645	-0.263	0.211
-666.032	-200.000	0.047	-0.278
-665.018	-61.491	-0.280	0.120
-664.003	-161.916	0.203	0.010
-662.989	-31.258	-0.260	0.149
-661.974	-30.475	-0.138	-0.080
-660.959	-57.224	-0.133	0.060
-659.945	132.102	0.144	-0.190
-658.930	800.000	0.046	-0.157
-657.916	69.002	0.099	-0.103
-656.901	-176.617	0.117	-0.003
-655.886	52.937	0.148	-0.144
-654.872	-56.656	-0.275	0.124
-653.857	-87.899	-0.304	0.093
-652.843	204.740	-0.174	0.275
-651.828	-6.300	0.025	0.018
-650.814	65.915	-0.300	-0.310
-649.799	-87.312	0.147	-0.046
-648.784	55.895	0.244	0.241
-647.770	-200.000	-0.020	-0.138
-646.755	800.000	-0.115	0.371
-645.741	-59.625	0.393	0.172
-644.726	-200.000	-0.007	0.171
-643.711	82.366	0.207	0.229
-642.697	-200.000	0.036	-0.334
-641.682	217.422	0.017	0.028
-640.668	-1.550	0.147	0.106
-639.653	272.754	-0.051	-0.092
-638.638	-200.000	0.034	-0.269
-637.624	101.623	-0.050	-0.060
-636.609	-200.000	-0.008	-0.407
-635.595	-119.824	0.077	-0.013
-634.580	420.120	-0.099	-0.216
-633.565	-27.551	0.214	-0.127
-632.551	-200.000	-0.047	-0.271
-631.536	800.000	0.020	0.084
-630.522	800.000	-0.004	0.013
-629.507	-56.260	0.124	-0.056
-628.492	-173.829	-0.140	0.004
-627.478	-178.070	-0.255	-0.006
-626.463	-138.566	0.257	-0.029
-625.449	354.447	0.147	-0.297
-624.434	141.479	0.174	-0.235
-623.419	65.664	0.075	-0.077
-622.405	-200.000	0.031	0.287
-621.390	173.762	0.281	0.413
-620.376	-152.150	-0.351	-0.026
-619.361	630.415	0.030	0.078
-618.346	-63.953	-0.521	0.217
-617.332	115.693	-0.157	-0.195
-616.317	800.000	-0.032	-0.132
-615.303	-102.405	-0.169	-0.041
-614.288	92.836	0.147	0.169
-613.273	-200.000	-0.008	0.064
-612.259	86.518	0.131	0.147
-611.244	347.007	0.174	-0.350
-610.230	764.867	-0.072	-0.199
-609.215	236.307	0.084	-0.142
-608.201	-115.949	-0.178	-0.034
-607.186	-49.343	0.251	-0.122
-606.171	800.000	-0.035	0.124
-605.157	-200.000	0.002	0.159
-604.142	-6.857	-0.302	-0.209
-603.128	800.000	0.092	-0.364
-602.113	-136.032	0.186	0.022
-601.098	41.971	-0.219	-0.202
-600.084	-127.336	0.160	0.024
-599.069	800.000	-0.119	0.380
-598.055	-93.957	0.273	-0.076
-597.040	325.950	-0.037	0.073
-596.025	-200.000	-0.000	0.034
-595.011	-70.251	-0.394	-0.152
-593.996	253.631	0.186	-0.324
-592.982	5.656	0.134	-0.101
-591.967	-132.476	0.339	-0.044
-590.952	-41.233	0.187	-0.098
-589.938	-130.701	-0.188	-0.026
-588.923	-200.000	0.093	0.470
-587.909	800.000	-0.138	0.430
-586.894	-87.221	-0.136	-0.042
-585.879	-200.000	-0.006	0.130
-584.865	108.840	0.186	-0.227
-583.850	-12.584	-0.196	0.130
-582.836	-200.000	-0.018	0.216
-581.821	-115.679	0.145	-0.028
-580.806	-19.992	-0.163	-0.103
-579.792	-33.193	-0.235	0.133
-578.777	-113.102	-0.077	0.016
-577.763	-180.749	-0.096	0.002
-576.748	-200.000	0.012	0.180
-575.733	56.152	-0.234	-0.231
-574.719	-73.852	-0.149	-0.055
-573.704	800.000	0.067	-0.252
-572.690	-3.954	-0.377	0.266
-571.675	-116.102	-0.579	0.110
-570.661	-57.848	0.065	0.029
-569.646	-3.391	0.132	0.094
-568.631	-200.000	-0.023	-0.169
-567.617	164.027	0.236	0.338
-566.602	319.998	-0.032	-0.062
-565.588	497.871	-0.083	-0.194
-564.573	-125.262	0.356	0.055
-563.558	-200.000	0.004	0.092
-562.544	54.060	-0.122	-0.119
-561.529	-200.000	-0.038	0.309
-560.515	-143.389	0.169	0.016
-559.500	-81.572	0.122	-0.041
-558.485	192.474	0.098	-0.150
-557.471	-100.928	-0.197	-0.049
-556.456	-173.750	0.042	-0.001
-555.442	800.000	0.098	0.335
-554.427	13.490	0.152	-0.120
-553.412	27.101	-0.156	-0.133
-552.398	-125.781	0.254	-0.039
-551.383	-40.031	-0.156	0.083
-550.369	382.330	0.035	-0.074
-549.354	-0.690	-0.197	0.142
-548.339	19.397	0.169	-0.138
-547.325	-128.278	0.119	-0.017
-546.310	-200.000	-0.013	0.217
-545.296	800.000	-0.085	-0.338
-544.281	101.869	-0.185	-0.219
-543.266	-96.718	-0.243	-0.065
-542.252	-184.436	-0.256	0.004
-541.237	-188.464	-0.218	-0.003
-540.223	-160.054	0.281	0.016
-539.208	-100.286	-0.280	0.071
-538.193	126.698	0.139	0.179
-537.179	800.000	-0.112	0.337
-536.164	-90.074	-0.176	0.052
-535.150	-30.674	-0.244	0.140
-534.135	76.933	0.097	-0.105
-533.121	800.000	-0.083	0.296
-532.106	123.629	0.130	-0.165
-531.091	-94.087	-0.128	-0.036
-530.077	-90.757	0.130	-0.038
-529.062	-105.908	0.397	0.091
-528.048	-40.349	0.119	0.063
-527.033	-104.142	-0.186	-0.044
-526.018	800.000	0.021	-0.065
-525.004	800.000	0.094	0.265
-523.989	17.460	0.030	0.025
-522.975	333.864	-0.064	-0.125
-521.960	317.915	0.066	0.126
-520.945	800.000	-0.115	0.334
-519.931	800.000	-0.060	0.194
-518.916	-200.000	-0.028	-0.215
-517.902	7.351	-0.117	0.089
-516.887	-200.000	-0.003	0.038
-515.872	-200.000	-0.003	-0.067
-514.858	-167.986	0.118	0.005
-513.843	-200.000	-0.078	-0.454
-512.829	-200.000	-0.002	-0.364
-511.814	-47.963	0.140	-0.069
-510.799	168.210	0.183	0.264
-509.785	-200.000	0.029	-0.168
-508.770	-90.652	0.394	-0.116
-507.756	-156.154	0.264	-0.017
-506.741	95.992	-0.070	0.082
-505.726	-86.796	-0.243	0.075
-504.712	540.098	0.120	0.289
-503.697	204.001	0.102	-0.160
-502.683	74.807	-0.118	-0.125
-501.668	-200.000	0.025	-0.404
-500.653	-84.269	0.134	0.043
-499.639	800.000	-0.072	0.237
-498.624	155.195	-0.215	-0.300
-497.610	101.265	0.163	-0.192
-496.595	674.239	-0.074	0.194
-495.581	-51.309	-0.311	-0.148
-494.566	-200.000	0.010	0.182
-493.551	500.534	0.039	-0.091
-492.537	-58.332	-0.299	0.132
-491.522	-3.206	0.062	-0.044
-490.508	310.277	0.186	-0.353
-489.493	127.933	0.084	-0.109
-488.478	-79.387	0.108	0.037
-487.464	800.000	-0.043	-0.130
-486.449	-200.000	0.027	0.158
-485.435	255.648	0.185	0.322
-484.420	-52.021	-0.084	-0.039
-483.405	-44.427	0.068	-0.035
-482.391	-61.455	-0.309	-0.132
-481.376	800.000	0.081	0.254
-480.362	-121.811	-0.178	0.030
-479.347	117.876	0.163	0.203
-478.332	-30.229	0.233	-0.134
-477.318	96.731	-0.200	0.233
-476.303	530.432	-0.116	0.278
-475.289	277.034	0.350	0.631
-474.274	800.000	0.130	0.523
-473.259	372.997	-0.082	-0.169
-472.245	-200.000	-0.030	0.147
-471.230	-200.000	0.016	0.199
-470.216	800.000	-0.048	0.155
-469.201	111.350	0.077	-0.095
-468.186	88.087	0.188	-0.212
-467.172	-127.552	-0.230	0.034
-466.157	-200.000	0.018	-0.185
-465.143	-4.726	0.150	-0.105
-464.128	-98.694	-0.066	0.017
-463.113	100.341	-0.132	-0.155
-462.099	49.193	-0.165	0.157
-461.084	-200.000	0.003	-0.273
-460.070	57.015	0.133	0.131
-459.055	219.419	-0.070	0.114
-458.040	176.107	-0.232	0.341
-457.026	62.038	-0.185	0.187
-456.011	429.511	0.101	0.221
-454.997	97.432	-0.328	0.381
-453.982	-143.354	-0.030	0.003
-452.968	-35.591	-0.240	-0.132
-451.953	140.174	0.163	-0.218
-450.938	83.607	0.218	-0.241
-449.924	722.263	-0.013	-0.036
-448.909	762.959	0.075	-0.207
-447.895	-200.000	-0.034	-0.173
-446.880	26.291	0.135	0.114
-445.865	291.133	0.063	0.116
-444.851	13.493	0.049	0.038
-443.836	20.038	0.260	-0.213
-442.822	800.000	-0.031	0.124
-441.807	800.000	-0.031	-0.093
-440.792	-21.840	0.105	0.065
-439.778	-98.089	0.116	-0.030
-438.763	410.698	-0.085	0.182
-437.749	-104.532	-0.124	-0.029
-436.734	478.969	-0.213	-0.489
-435.719	19.405	-0.150	-0.122
-434.705	344.855	-0.094	0.186
-433.690	751.751	0.086	0.236
-432.676	12.862	0.197	-0.154
-431.661	-63.011	0.052	0.022
-430.646	6.679	-0.357	0.269
-429.632	145.587	-0.096	-0.130
-428.617	-200.000	-0.045	-0.394
-427.603	-57.085	-0.455	0.203
-426.588	264.006	0.067	0.117
-425.573	-200.000	-0.026	0.139
-424.559	-9.052	0.123	0.083
-423.544	-20.690	0.482	0.299
-422.530	-69.891	0.089	-0.034
-421.515	-13.598	0.162	0.106
-420.500	800.000	0.040	0.170
-419.486	-120.996	0.060	-0.010
-418.471	8.547	0.114	0.086
-417.457	-56.510	0.170	0.076
-416.442	-114.034	0.205	0.040
-415.428	386.373	0.026	0.055
-414.413	-156.321	-0.184	0.012
-413.398	-168.961	0.151	0.006
-412.384	-11.662	-0.055	-0.037
-411.369	-91.499	-0.218	0.063
-410.355	61.166	-0.149	-0.150
-409.340	-200.000	-0.018	-0.084
-408.325	-67.340	-0.140	0.056
-407.311	149.066	-0.133	-0.182
-406.296	800.000	-0.027	0.079
-405.282	-18.432	0.233	-0.147
-404.267	24.335	-0.270	0.226
-403.252	-127.644	-0.177	-0.026
-402.238	94.499	-0.186	-0.213
-401.223	451.483	-0.066	-0.147
-400.209	-200.000	0.017	-0.165
-399.194	-140.439	0.091	0.010
-398.179	-142.306	-0.126	-0.013
-397.165	800.000	0.109	-0.423
-396.150	70.731	0.040	-0.042
-395.136	-63.003	0.153	0.064
-394.121	772.908	-0.084	-0.232
-393.106	-109.252	-0.153	0.033
-392.092	167.810	-0.120	-0.173
-391.077	218.954	0.091	-0.146
-390.063	-122.440	0.114	-0.019
-389.048	-1.722	-0.245	0.174
-388.033	-200.000	0.060	0.284
-387.019	48.393	-0.287	0.272
-386.004	-78.955	-0.086	0.029
-384.990	465.452	-0.043	-0.096
-383.975	242.580	0.039	0.066
-382.960	-54.913	0.127	-0.058
-381.946	215.937	0.060	-0.097
-380.931	-65.620	0.227	0.092
-379.917	-41.869	-0.183	-0.095
-378.902	-200.000	-0.012	-0.297
-377.888	-165.580	-0.323	-0.014
-376.873	-87.493	0.050	-0.015
-375.858	800.000	-0.002	0.007
-374.844	155.498	-0.165	-0.230
-373.829	438.541	-0.021	0.045
-372.815	800.000	0.023	-0.092
-371.800	25.869	0.142	-0.119
-370.785	66.302	0.038	0.039
-369.771	-114.526	-0.126	0.024
-368.756	-200.000	-0.009	-0.080
-367.742	-95.411	-0.115	0.031
-366.727	-200.000	-0.001	0.028
-365.712	79.522	0.190	0.205
-364.698	56.691	-0.094	-0.093
-363.683	458.000	0.087	0.194
-362.669	197.916	-0.179	-0.276
-361.654	-100.078	-0.117	-0.029
-360.639	46.663	-0.062	0.058
-359.625	229.066	-0.005	-0.009
-358.610	-200.000	-0.022	0.109
-357.596	-94.425	0.155	-0.043
-356.581	-44.383	0.296	0.149
-355.566	159.911	-0.189	0.265
-354.552	-146.278	0.431	0.038
-353.537	800.000	-0.110	-0.332
-352.523	-57.961	-0.251	-0.111
-351.508	-102.436	-0.059	0.014
-350.493	-164.984	0.153	0.007
-349.479	-121.042	-0.532	0.090
-348.464	93.909	0.026	0.030
-347.450	311.845	-0.094	0.178
-346.435	238.826	0.033	-0.056
-345.420	-74.796	-0.271	-0.098
-344.406	71.684	-0.148	0.155
-343.391	-44.805	0.294	-0.148
-342.377	800.000	0.007	-0.032
-341.362	41.090	-0.203	0.185
-340.348	104.170	-0.185	0.219
-339.333	-116.236	-0.244	-0.046
-338.318	47.094	0.325	-0.305
-337.304	-162.867	0.344	0.017
-336.289	51.222	0.161	-0.154
-335.275	-3.224	0.196	-0.137
-334.260	-107.947	0.339	0.074
-333.245	22.171	-0.143	-0.117
-332.231	799.393	0.084	-0.235
-331.216	800.000	0.045	-0.155
-330.202	-6.307	-0.228	-0.157
-329.187	108.939	-0.164	0.198
-328.172	-200.000	-0.089	0.000
-327.158	-87.195	0.125	0.038
-326.143	128.786	-0.155	-0.198
-325.129	495.120	0.108	0.249
-324.114	-44.636	-0.231	0.116
-323.099	-22.714	0.264	0.160
-322.085	800.000	-0.106	0.329
-321.070	3.077	0.280	0.205
-320.056	-110.236	-0.211	-0.044
-319.041	-43.712	-0.221	-0.112
-318.026	139.049	-0.044	-0.058
-317.012	46.192	-0.184	0.172
-315.997	212.755	-0.149	-0.236
-314.983	-119.694	0.222	-0.039
-313.968	167.946	0.216	0.309
-312.953	-72.667	-0.133	0.049
-311.939	-90.783	0.366	0.106
-310.924	-26.228	0.129	0.076
-309.910	800.000	0.084	0.237
-308.895	26.619	0.269	0.226
-307.880	-127.293	0.328	-0.048
-306.866	68.086	-0.254	-0.262
-305.851	-44.733	0.298	-0.150
-304.837	-200.000	-0.001	-0.179
-303.822	92.896	-0.214	-0.243
-302.807	-156.277	-0.152	-0.010
-301.793	10.856	-0.023	-0.017
-300.778	-172.448	-0.091	-0.003
-299.764	-139.972	-0.201	-0.021
-298.749	800.000	-0.048	0.171
-297.735	310.635	0.060	0.113
-296.720	81.570	0.100	0.109
-295.705	-200.000	-0.003	0.120
-294.691	424.406	0.042	0.090
-293.676	-200.000	0.141	-0.001
-292.662	-73.686	-0.124	-0.046
-291.647	800.000	0.063	0.208
-290.632	126.686	0.215	-0.274
-289.618	20.024	0.257	-0.208
-288.603	-19.494	0.078	0.049
-287.589	-46.069	-0.206	0.102
-286.574	-18.039	0.253	-0.159
-285.559	-16.427	0.223	-0.142
-284.545	3.516	0.096	-0.070
-283.530	-8.895	-0.118	0.080
-282.516	161.808	-0.035	0.049
-281.501	-200.000	0.008	0.368
-280.486	-121.995	0.044	-0.007
-279.472	157.164	-0.136	-0.190
-278.457	419.190	-0.061	0.131
-277.443	-32.727	0.128	-0.072
-276.428	-46.520	0.122	0.060
-275.413	-200.000	0.003	-0.449
-274.399	67.810	-0.208	0.214
-273.384	-111.166	-0.194	0.040
-272.370	-69.698	-0.151	-0.058
-271.355	-200.000	-0.003	-0.093
-270.340	129.848	-0.263	0.338
-269.326	57.440	-0.094	0.092
-268.311	-90.536	0.124	0.036
-267.297	-200.000	-0.007	0.129
-266.282	-200.000	0.021	0.256
-265.267	-30.276	0.514	-0.293
-264.253	-4.481	-0.089	-0.062
-263.238	-169.816	0.326	0.012
-262.224	70.374	-0.282	0.292
-261.209	34.021	-0.042	-0.037
-260.195	68.834	0.119	0.123
-259.180	800.000	-0.042	-0.155
-258.165	8.634	0.046	-0.035
-257.151	-38.332	-0.110	-0.058
-256.136	-104.355	-0.113	0.026
-255.122	-129.312	-0.063	0.009
-254.107	347.700	-0.206	-0.407
-253.092	-108.662	-0.111	0.024
-252.078	-118.025	0.099	-0.018
-251.063	-3.318	0.207	-0.145
-250.049	-123.947	0.292	0.046
-249.034	57.355	0.352	-0.346
-248.019	35.051	0.063	-0.055
-247.005	109.348	-0.097	0.117
-245.990	-82.612	0.341	-0.111
-244.976	800.000	-0.040	0.154
-243.961	-50.343	-0.202	0.096
-242.946	-121.364	0.128	0.021
-241.932	-200.000	0.010	0.135
-240.917	-200.000	0.011	0.194
-239.903	800.000	-0.157	0.653
-238.888	-200.000	0.052	0.269
-237.873	-107.071	-0.023	0.005
-236.859	23.513	0.180	0.149
-235.844	-72.964	-0.256	0.094
-234.830	-130.022	0.378	-0.052
-233.815	788.471	-0.056	-0.155
-232.800	169.613	0.097	-0.139
-231.786	-14.975	0.376	0.242
-230.771	158.357	0.072	-0.101
-229.757	-200.000	-0.017	-0.210
-228.742	-160.850	0.190	-0.010
-227.727	800.000	-0.048	-0.174
-226.713	64.900	-0.155	-0.157
-225.698	35.348	0.041	-0.036
-224.684	251.928	-0.171	0.292
-223.669	-51.651	0.121	-0.057
-222.655	244.155	0.053	-0.090
-221.640	349.077	-0.067	0.132
-220.625	-200.000	0.018	-0.251
-219.611	24.911	0.315	0.262
-218.596	-114.974	-0.438	-0.084
-217.582	800.000	-0.041	0.125
-216.567	-145.397	-0.168	0.015
-215.552	278.144	0.098	0.175
-214.538	-167.146	0.221	-0.009
-213.523	-112.452	0.174	-0.035
-212.509	-169.232	0.126	0.005
-211.494	24.681	-0.372	-0.309
-210.479	-200.000	0.125	-0.001
-209.465	-200.000	0.025	-0.116
-208.450	-19.838	0.268	0.166
-207.436	-200.000	0.159	0.000
-206.421	-154.083	0.280	0.019
-205.406	-92.753	0.155	-0.043
-204.392	-62.810	-0.128	-0.053
-203.377	-140.357	0.205	-0.021
-202.363	-200.000	0.007	-0.071
-201.348	750.994	-0.123	-0.333
-200.333	-92.505	0.180	-0.051
-199.319	-15.415	-0.293	0.187
-198.304	-200.000	0.061	0.270
-197.290	248.926	-0.082	0.138
-196.275	-170.759	0.132	-0.005
-195.260	-62.038	-0.242	-0.101
-194.246	800.000	0.079	-0.313
-193.231	231.128	0.161	0.264
-192.217	-154.044	-0.276	0.019
-191.202	-200.000	-0.022	0.226
-190.187	-144.922	0.113	-0.010
-189.173	-200.000	0.031	-0.276
-188.158	165.142	-0.079	-0.111
-187.144	238.890	-0.232	-0.387
-186.129	210.402	-0.069	0.108
-185.114	-170.028	0.144	0.005
-184.100	89.971	0.082	-0.092
-183.085	78.527	0.155	0.165
-182.071	-1.508	-0.185	0.131
-181.056	-99.319	0.219	0.055
-180.042	360.267	-0.046	-0.092
-179.027	218.539	-0.091	0.145
-178.012	132.322	-0.085	0.109
-176.998	-91.731	-0.314	-0.089
-175.983	-33.910	-0.197	-0.109
-174.969	800.000	0.066	-0.248
-173.954	26.955	0.437	0.367
-172.939	800.000	-0.042	-0.121
-171.925	-100.785	0.296	-0.073
-170.910	45.645	0.334	0.309
-169.896	183.320	-0.087	0.129
-168.881	98.381	-0.141	0.163
-167.866	-75.059	0.236	-0.085
-166.852	-57.881	-0.127	0.055
-165.837	54.038	-0.343	-0.330
-164.823	78.701	-0.092	-0.099
-163.808	-200.000	-0.018	-0.269
-162.793	146.095	-0.139	-0.187
-161.779	25.015	-0.200	-0.166
-160.764	256.679	0.100	-0.172
-159.750	-23.844	-0.217	0.130
-158.735	800.000	-0.041	-0.172
-157.720	-93.171	-0.301	-0.084
-156.706	-200.000	0.018	-0.417
-155.691	159.958	-0.149	-0.208
-154.677	-117.176	-0.071	0.013
-153.662	-200.000	0.013	-0.170
-152.647	-182.256	-0.195	-0.004
-151.633	239.538	-0.177	0.295
-150.618	-112.931	0.119	-0.024
-149.604	800.000	0.042	0.123
-148.589	-139.085	0.089	0.010
-147.574	-200.000	-0.001	-0.010
-146.560	-144.400	-0.412	0.038
-145.545	72.728	-0.120	-0.126
-144.531	84.590	0.140	-0.153
-143.516	2.943	0.074	0.054
-142.502	20.162	0.048	-0.038
-141.487	-200.000	-0.034	-0.186
-140.472	-91.797	0.035	0.010
-139.458	-200.000	-0.010	-0.230
-138.443	-200.000	-0.005	-0.025
-137.429	-200.000	0.072	-0.351
-136.414	30.529	0.169	0.144
-135.399	-110.302	0.096	0.020
-134.385	-89.250	0.279	-0.082
-133.370	800.000	-0.090	0.296
-132.356	-141.652	-0.376	0.038
-131.341	730.874	-0.152	-0.406
-130.326	189.848	0.195	-0.293
-129.312	209.529	0.067	-0.105
-128.297	7.071	0.496	-0.370
-127.283	147.348	0.167	0.225
-126.268	800.000	0.053	-0.197
-125.253	-166.996	-0.104	-0.004
-124.239	210.337	-0.085	0.133
-123.224	-139.090	-0.150	0.016
-122.210	470.395	-0.069	0.156
