DTS Sentinel unit serial number:	SN413079Multiplexer serial number:	ORYXHardware model number:	OX4-SRSoftware version number:	ORYX F/W v4.00 Oryx Data Collector v3.7.2.0data status	okinstallation	princeton_trtdifferential loss correction	single-endedforward channel	channel 1reverse channel	N/Adate	2019/09/18time	12:34:35forward acquisition time	60.00reverse acquisition time	0.00gamma	496.2192k internal	0.2319k external	0.2319temperature offset calibration	0.9973default loss term (dB/km)	0.3790temperature slope calibration	1.0000multiplexer offset coefficient	1.0000multiplexer slope coefficient	1.0000fibre end	0.00T internal ref (°C)	32.39T ext. ref 1 (°C)	0.52T ext. ref 2 (°C)	30.26length (m)	temperature (°C)	Stokes	anti-Stokes-747.200	-64.696	-0.461	-0.189
-746.185	800.000	0.077	0.318
-745.171	239.497	-0.101	0.170
-744.156	89.574	-0.049	0.055
-743.142	59.080	-0.046	0.046
-742.127	-39.098	0.188	0.100
-741.112	800.000	-0.087	0.311
-740.098	-31.332	-0.303	-0.173
-739.083	-159.593	0.136	0.008
-738.069	-80.247	-0.444	0.150
-737.054	539.337	0.018	0.044
-736.039	-67.744	-0.349	-0.138
-735.025	105.330	-0.118	-0.141
-734.010	704.030	0.092	-0.246
-732.996	-151.952	-0.315	-0.023
-731.981	239.803	0.118	0.199
-730.966	307.481	-0.165	0.312
-729.952	800.000	-0.054	-0.213
-728.937	800.000	-0.061	0.212
-727.923	333.333	-0.074	-0.145
-726.908	-200.000	0.029	-0.166
-725.894	119.301	0.132	0.165
-724.879	271.373	0.246	-0.437
-723.864	109.340	0.205	-0.249
-722.850	800.000	-0.094	-0.351
-721.835	53.234	-0.388	-0.376
-720.821	800.000	0.033	0.133
-719.806	-22.098	-0.374	0.230
-718.791	156.426	-0.062	-0.087
-717.777	-122.833	-0.167	-0.027
-716.762	289.014	-0.063	-0.115
-715.748	800.000	-0.082	0.233
-714.733	-112.945	0.082	-0.016
-713.718	-160.443	0.184	-0.010
-712.704	-200.000	-0.040	-0.226
-711.689	-70.751	-0.170	0.065
-710.675	800.000	0.108	-0.306
-709.660	-200.000	0.000	-0.294
-708.645	-142.759	-0.229	-0.023
-707.631	46.203	-0.375	-0.351
-706.616	-76.266	-0.090	0.032
-705.602	800.000	-0.080	-0.266
-704.587	800.000	-0.089	-0.380
-703.572	-49.647	-0.148	-0.071
-702.558	800.000	0.026	-0.098
-701.543	151.699	-0.119	0.163
-700.529	509.492	-0.073	0.170
-699.514	23.085	-0.146	-0.121
-698.499	-92.755	0.151	0.043
-697.485	41.867	0.011	0.010
-696.470	-200.000	-0.044	-0.590
-695.456	-94.865	-0.202	-0.055
-694.441	-132.903	0.216	0.028
-693.426	-200.000	-0.038	0.174
-692.412	148.866	0.032	-0.043
-691.397	-104.151	-0.258	0.060
-690.383	-200.000	0.029	-0.158
-689.368	499.983	-0.073	-0.170
-688.354	-94.662	-0.410	-0.112
-687.339	109.998	-0.092	0.112
-686.324	638.299	0.106	-0.273
-685.310	-77.063	0.119	-0.042
-684.295	-200.000	-0.066	-0.373
-683.281	-13.585	-0.407	0.266
-682.266	-88.002	-0.259	-0.079
-681.251	-58.842	0.343	0.150
-680.237	-60.914	0.072	-0.031
-679.222	-53.619	0.232	-0.107
-678.208	13.559	-0.112	-0.088
-677.193	-200.000	0.043	0.252
-676.178	-50.540	0.176	0.084
-675.164	-200.000	-0.016	-0.096
-674.149	-200.000	-0.045	0.262
-673.135	-200.000	0.008	0.055
-672.120	-79.586	-0.354	-0.121
-671.105	-23.152	-0.153	-0.093
-670.091	-160.035	-0.023	-0.001
-669.076	800.000	0.076	-0.223
-668.062	52.775	0.160	-0.154
-667.047	-136.457	-0.118	-0.014
-666.032	-200.000	0.088	-0.437
-665.018	-200.000	0.003	-0.320
-664.003	-200.000	-0.025	0.241
-662.989	-200.000	-0.001	-0.113
-661.974	307.389	-0.024	0.045
-660.959	-115.489	0.103	-0.019
-659.945	309.356	0.059	0.112
-658.930	800.000	0.016	-0.058
-657.916	-200.000	0.013	-0.213
-656.901	-3.203	-0.237	-0.167
-655.886	588.653	0.033	0.081
-654.872	23.284	-0.045	0.037
-653.857	-200.000	0.010	-0.167
-652.843	236.990	0.083	-0.138
-651.828	-105.556	-0.281	0.064
-650.814	481.499	0.130	0.297
-649.799	298.672	-0.082	0.152
-648.784	31.724	-0.046	0.040
-647.770	-9.553	-0.086	0.058
-646.755	-200.000	-0.023	0.137
-645.741	145.891	0.140	0.189
-644.726	-36.792	0.284	-0.154
-643.711	179.354	-0.096	0.141
-642.697	-200.000	0.017	-0.171
-641.682	119.431	-0.380	-0.473
-640.668	800.000	-0.078	0.216
-639.653	-146.776	0.109	-0.009
-638.638	-55.595	0.239	-0.108
-637.624	-181.161	-0.375	-0.008
-636.609	30.378	-0.102	0.088
-635.595	800.000	-0.120	-0.389
-634.580	-200.000	-0.041	0.413
-633.565	-77.155	-0.561	0.197
-632.551	-200.000	-0.005	0.168
-631.536	-21.263	-0.138	-0.085
-630.522	-107.656	0.345	-0.076
-629.507	-105.040	0.196	0.045
-628.492	285.042	0.070	-0.126
-627.478	-90.471	-0.020	-0.006
-626.463	-101.609	-0.292	-0.071
-625.449	351.281	-0.219	0.437
-624.434	351.752	0.033	-0.066
-623.419	521.113	0.032	-0.076
-622.405	-46.222	0.067	0.033
-621.390	800.000	-0.083	-0.317
-620.376	-145.413	-0.379	-0.034
-619.361	482.631	0.095	0.216
-618.346	-10.861	-0.180	0.120
-617.332	-105.312	0.190	0.044
-616.317	800.000	-0.088	-0.359
-615.303	240.475	0.089	-0.149
-614.288	-113.536	-0.191	-0.038
-613.273	-58.586	-0.156	-0.068
-612.259	328.335	-0.065	-0.126
-611.244	99.793	-0.126	0.147
-610.230	-105.097	0.122	0.028
-609.215	800.000	-0.071	0.212
-608.201	-128.058	-0.469	-0.068
-607.186	-200.000	0.049	-0.292
-606.171	107.630	-0.183	0.220
-605.157	33.247	-0.075	0.066
-604.142	800.000	-0.033	-0.111
-603.128	-145.966	0.104	0.009
-602.113	-20.860	0.160	-0.098
-601.098	-69.107	-0.161	0.062
-600.084	403.375	0.082	0.174
-599.069	800.000	-0.072	0.206
-598.055	130.687	-0.162	0.209
-597.040	-120.187	-0.191	0.033
-596.025	282.984	-0.134	0.241
-595.011	800.000	-0.078	-0.225
-593.996	-146.857	-0.281	0.024
-592.982	266.633	0.159	-0.279
-591.967	-30.812	-0.055	0.031
-590.952	204.516	0.054	0.085
-589.938	800.000	0.090	0.305
-588.923	120.765	-0.238	0.297
-587.909	-117.246	0.273	0.050
-586.894	79.114	-0.080	0.086
-585.879	-200.000	0.036	-0.184
-584.865	800.000	0.050	0.208
-583.850	73.931	-0.363	-0.383
-582.836	23.496	0.381	-0.315
-581.821	-31.860	0.109	-0.061
-580.806	-200.000	-0.005	0.058
-579.792	-200.000	0.025	0.165
-578.777	-200.000	-0.033	-0.154
-577.763	-80.490	0.185	0.062
-576.748	-76.059	-0.239	-0.085
-575.733	-200.000	-0.024	-0.230
-574.719	-200.000	-0.032	-0.358
-573.704	-200.000	-0.002	-0.027
-572.690	-131.317	0.262	-0.035
-571.675	173.335	0.076	0.111
-570.661	363.444	-0.046	-0.094
-569.646	111.427	-0.093	0.112
-568.631	800.000	0.061	-0.196
-567.617	144.422	-0.249	-0.334
-566.602	-200.000	0.049	0.282
-565.588	224.897	-0.082	-0.133
-564.573	-111.386	0.153	-0.031
-563.558	800.000	-0.046	0.170
-562.544	-103.983	0.374	0.088
-561.529	508.140	0.077	0.179
-560.515	-200.000	0.021	-0.159
-559.500	769.661	-0.032	0.086
-558.485	-72.323	-0.444	-0.165
-557.471	568.746	0.067	-0.164
-556.456	34.190	0.131	0.115
-555.442	-29.200	-0.191	-0.110
-554.427	119.024	-0.206	-0.256
-553.412	-200.000	-0.005	-0.133
-552.398	-83.349	-0.139	0.045
-551.383	-200.000	0.008	-0.092
-550.369	-63.210	0.143	-0.059
-549.354	-6.102	-0.052	-0.036
-548.339	173.340	-0.117	0.170
-547.325	800.000	0.074	0.211
-546.310	659.510	0.122	0.316
-545.296	-6.199	0.091	0.063
-544.281	22.055	-0.100	-0.082
-543.266	-78.214	0.294	-0.101
-542.252	-14.736	-0.033	-0.021
-541.237	89.328	0.175	-0.196
-540.223	18.429	-0.090	0.072
-539.208	53.947	-0.029	-0.028
-538.193	459.771	-0.084	0.188
-537.179	800.000	-0.054	-0.171
-536.164	215.310	0.091	0.144
-535.150	249.584	-0.162	0.275
-534.135	316.247	0.080	0.152
-533.121	800.000	0.027	-0.108
-532.106	604.989	0.007	0.017
-531.091	99.937	0.073	0.085
-530.077	-200.000	-0.017	-0.176
-529.062	-200.000	-0.038	-0.245
-528.048	-128.968	-0.221	-0.031
-527.033	-10.618	-0.209	0.138
-526.018	-140.269	0.247	-0.026
-525.004	-3.199	0.155	-0.108
-523.989	800.000	0.037	0.134
-522.975	254.678	-0.060	0.102
-521.960	-138.575	-0.144	0.016
-520.945	-16.107	0.328	-0.209
-519.931	84.680	-0.086	-0.095
-518.916	-200.000	-0.001	-0.069
-517.902	-200.000	-0.068	-0.391
-516.887	-200.000	0.004	0.139
-515.872	-5.372	-0.017	0.012
-514.858	-34.892	0.331	-0.181
-513.843	84.706	0.216	-0.237
-512.829	490.924	-0.055	0.125
-511.814	106.325	-0.088	-0.105
-510.799	-200.000	0.014	0.083
-509.785	-40.929	0.099	0.051
-508.770	-49.635	-0.225	-0.107
-507.756	-2.989	0.126	-0.088
-506.741	-77.922	0.051	0.018
-505.726	-200.000	-0.002	0.126
-504.712	89.545	0.363	-0.405
-503.697	107.916	-0.146	0.174
-502.683	0.157	-0.205	0.146
-501.668	79.787	-0.190	0.204
-500.653	800.000	-0.079	-0.266
-499.639	180.477	0.166	-0.244
-498.624	-200.000	-0.041	-0.286
-497.610	-131.242	0.178	-0.024
-496.595	783.136	0.115	0.316
-495.581	-125.445	-0.341	0.052
-494.566	42.871	-0.143	-0.131
-493.551	-61.454	0.280	-0.118
-492.537	128.465	-0.031	0.040
-491.522	288.167	-0.076	0.137
-490.508	-200.000	-0.014	0.090
-489.493	-51.127	-0.381	0.179
-488.478	153.177	0.145	-0.199
-487.464	81.799	0.207	0.224
-486.449	-130.227	-0.058	0.008
-485.435	-68.883	-0.150	0.058
-484.420	-200.000	-0.017	0.264
-483.405	52.517	-0.076	0.073
-482.391	-80.771	0.010	-0.003
-481.376	-200.000	0.013	0.249
-480.362	-200.000	0.032	-0.392
-479.347	0.636	-0.215	-0.154
-478.332	27.879	-0.279	-0.235
-477.318	-145.188	-0.207	-0.019
-476.303	-137.196	0.396	0.045
-475.289	69.134	-0.227	0.234
-474.274	-200.000	0.022	-0.410
-473.259	5.077	0.149	0.110
-472.245	-46.798	0.182	0.089
-471.230	800.000	0.111	-0.358
-470.216	-4.784	0.397	-0.274
-469.201	800.000	0.110	-0.344
-468.186	-200.000	-0.029	-0.238
-467.172	800.000	-0.079	0.239
-466.157	800.000	0.139	0.411
-465.143	3.017	-0.108	-0.079
-464.128	292.479	0.097	-0.177
-463.113	-130.296	-0.141	0.019
-462.099	177.923	-0.063	0.092
-461.084	-68.249	-0.256	-0.099
-460.070	-106.868	-0.058	0.013
-459.055	-49.801	0.294	-0.140
-458.040	-45.500	-0.166	-0.082
-457.026	31.364	-0.184	-0.158
-456.011	55.345	-0.142	0.137
-454.997	-74.115	0.520	-0.188
-453.982	46.057	0.103	0.095
-452.968	-25.056	-0.185	0.110
-451.953	-154.693	0.132	-0.009
-450.938	45.536	-0.086	-0.079
-449.924	-126.003	0.464	-0.070
-448.909	157.994	0.121	0.167
-447.895	-200.000	0.046	0.300
-446.880	-141.285	0.306	-0.031
-445.865	-183.139	0.126	0.002
-444.851	-10.261	0.081	0.054
-443.836	124.565	-0.096	-0.121
-442.822	261.550	0.238	0.412
-441.807	38.903	0.135	0.121
-440.792	-200.000	0.038	-0.205
-439.778	29.031	0.171	-0.145
-438.763	-200.000	-0.013	0.178
-437.749	-19.820	0.243	0.150
-436.734	-52.575	-0.215	-0.099
-435.719	254.675	-0.085	-0.145
-434.705	9.106	-0.084	0.063
-433.690	798.842	-0.039	0.107
-432.676	232.332	0.215	0.353
-431.661	-189.429	0.242	-0.003
-430.646	135.502	0.071	0.092
-429.632	-178.874	0.315	0.007
-428.617	-161.792	-0.168	-0.009
-427.603	317.315	-0.106	0.200
-426.588	22.109	-0.129	-0.105
-425.573	-58.646	-0.124	0.054
-424.559	-200.000	0.043	0.274
-423.544	-98.880	-0.126	0.032
-422.530	-80.653	-0.157	-0.052
-421.515	-125.001	0.126	-0.019
-420.500	-200.000	0.009	-0.114
-419.486	800.000	-0.030	0.085
-418.471	-200.000	0.058	-0.263
-417.457	-93.497	0.071	0.020
-416.442	616.936	0.111	0.277
-415.428	-69.100	-0.145	-0.056
-414.413	312.345	-0.234	0.439
-413.398	148.858	-0.146	0.198
-412.384	-7.736	0.215	-0.145
-411.369	-200.000	0.028	-0.371
-410.355	159.397	0.102	-0.142
-409.340	-141.437	-0.269	0.027
-408.325	800.000	0.107	-0.307
-407.311	50.311	-0.186	-0.175
-406.296	-65.489	0.082	-0.033
-405.282	-111.299	-0.269	-0.055
-404.267	-33.169	0.225	-0.124
-403.252	98.667	0.061	0.070
-402.238	604.336	0.056	-0.140
-401.223	118.478	0.267	-0.329
-400.209	-88.325	-0.090	0.027
-399.194	-39.865	0.154	-0.080
-398.179	-200.000	0.010	-0.091
-397.165	-121.895	-0.154	0.025
-396.150	154.804	0.005	-0.007
-395.136	-22.601	-0.198	-0.119
-394.121	800.000	0.027	0.100
-393.106	155.455	-0.157	-0.215
-392.092	-200.000	0.004	-0.039
-391.077	47.451	0.174	0.162
-390.063	-200.000	-0.010	-0.056
-389.048	-69.129	-0.354	-0.136
-388.033	-101.500	-0.405	0.098
-387.019	-63.265	0.343	0.141
-386.004	800.000	-0.054	-0.181
-384.990	800.000	-0.011	-0.034
-383.975	477.408	0.169	0.381
-382.960	63.585	0.101	0.101
-381.946	-200.000	-0.046	0.291
-380.931	12.636	-0.177	0.136
-379.917	-51.204	0.097	-0.045
-378.902	65.872	-0.338	0.341
-377.888	-102.968	0.313	0.074
-376.873	-200.000	0.045	-0.230
-375.858	34.129	-0.250	0.217
-374.844	-150.414	0.045	-0.003
-373.829	-200.000	-0.018	-0.290
-372.815	-129.393	-0.096	0.013
-371.800	395.124	0.040	-0.083
-370.785	76.730	0.095	0.100
-369.771	0.172	-0.150	-0.107
-368.756	-180.399	-0.179	-0.004
-367.742	-41.716	0.161	0.083
-366.727	82.318	0.038	-0.041
-365.712	-72.616	-0.399	0.147
-364.698	63.412	0.091	-0.091
-363.683	-200.000	0.005	0.083
-362.669	-58.977	-0.227	0.098
-361.654	-102.161	0.202	-0.049
-360.639	-91.493	0.386	0.110
-359.625	800.000	-0.149	-0.482
-358.610	-69.282	-0.226	-0.087
-357.596	-113.915	0.322	0.062
-356.581	-10.588	-0.202	0.133
-355.566	-200.000	-0.013	0.131
-354.552	-74.861	0.285	0.102
-353.537	-85.048	0.323	-0.101
-352.523	-52.791	0.188	0.086
-351.508	-25.372	0.130	-0.077
-350.493	-91.232	-0.149	0.043
-349.479	800.000	0.071	-0.196
-348.464	800.000	0.034	0.095
-347.450	-122.889	-0.114	-0.018
-346.435	-200.000	-0.014	0.189
-345.420	-50.987	0.165	-0.077
-344.406	-106.606	0.155	0.034
-343.391	-200.000	-0.023	0.127
-342.377	14.432	-0.065	-0.051
-341.362	-103.676	-0.108	0.025
-340.348	62.401	0.057	0.057
-339.333	800.000	-0.076	0.234
-338.318	-30.054	0.104	0.059
-337.304	-200.000	-0.040	-0.184
-336.289	-200.000	-0.058	0.458
-335.275	-15.668	-0.437	-0.277
-334.260	103.993	0.194	-0.227
-333.245	-187.593	-0.254	-0.003
-332.231	4.952	-0.109	0.080
-331.216	137.710	0.025	-0.032
-330.202	-200.000	0.056	-0.260
-329.187	-115.400	0.201	0.038
-328.172	-82.943	0.509	0.163
-327.158	577.028	-0.102	0.248
-326.143	-6.663	0.307	0.208
-325.129	-200.000	0.040	-0.282
-324.114	-200.000	-0.009	0.079
-323.099	-96.999	0.203	0.053
-322.085	-200.000	-0.015	0.087
-321.070	-49.122	-0.173	0.082
-320.056	-200.000	0.024	-0.350
-319.041	-32.372	0.167	-0.093
-318.026	44.462	-0.198	0.181
-317.012	631.279	0.080	0.202
-315.997	-48.068	0.124	0.060
-314.983	-200.000	-0.009	-0.353
-313.968	-72.182	-0.388	0.143
-312.953	-27.363	-0.260	0.151
-311.939	102.705	0.138	0.161
-310.924	4.056	0.214	0.155
-309.910	800.000	-0.078	-0.257
-308.895	214.466	0.126	0.198
-307.880	-51.729	0.092	0.042
-306.866	134.972	-0.168	-0.218
-305.851	81.762	0.157	0.169
-304.837	-200.000	-0.041	-0.457
-303.822	-200.000	0.027	-0.196
-302.807	-35.218	-0.120	-0.065
-301.793	165.616	0.244	-0.343
-300.778	800.000	-0.136	-0.467
-299.764	20.476	-0.145	-0.117
-298.749	-43.482	0.219	-0.110
-297.735	-45.433	0.292	-0.144
-296.720	-200.000	0.054	0.328
-295.705	491.567	-0.122	-0.278
-294.691	140.019	-0.124	-0.163
-293.676	-114.481	0.020	0.004
-292.662	-81.194	0.211	-0.069
-291.647	78.005	-0.196	-0.208
-290.632	800.000	0.029	0.092
-289.618	-93.964	-0.269	0.074
-288.603	-200.000	0.006	-0.063
-287.589	-116.827	-0.068	-0.012
-286.574	-31.243	0.245	-0.137
-285.559	-91.369	-0.120	-0.034
-284.545	-78.599	0.247	0.084
-283.530	-65.953	0.091	0.036
-282.516	-65.055	0.134	-0.054
-281.501	85.361	0.041	-0.044
-280.486	0.141	0.037	-0.027
-279.472	111.637	-0.135	0.161
-278.457	21.543	0.034	-0.028
-277.443	-183.276	-0.205	0.004
-276.428	111.603	0.169	0.202
-275.413	800.000	-0.040	0.113
-274.399	3.353	-0.193	-0.139
-273.384	-120.599	-0.143	-0.024
-272.370	-146.865	0.182	-0.016
-271.355	800.000	0.027	0.077
-270.340	-41.770	0.194	-0.099
-269.326	-200.000	-0.024	-0.124
-268.311	-133.914	-0.157	0.019
-267.297	56.898	0.142	-0.137
-266.282	800.000	-0.058	0.168
-265.267	-200.000	0.044	0.232
-264.253	-94.308	-0.235	0.064
-263.238	330.734	-0.098	0.187
-262.224	389.306	0.032	0.065
-261.209	101.394	0.153	-0.177
-260.195	89.946	0.224	0.248
-259.180	800.000	-0.128	0.499
-258.165	375.598	-0.104	0.210
-257.151	10.059	0.177	-0.133
-256.136	-134.214	-0.404	0.049
-255.122	304.045	-0.215	-0.396
-254.107	183.335	0.097	0.142
-253.092	37.251	0.309	0.271
-252.078	-40.043	0.330	-0.170
-251.063	-42.363	0.266	-0.134
-250.049	-120.946	0.194	-0.032
-249.034	453.096	-0.142	-0.311
-248.019	-151.098	0.132	0.010
-247.005	786.015	0.028	0.076
-245.990	-27.514	-0.154	0.089
-244.976	147.534	-0.077	0.103
-243.961	-10.198	0.290	-0.191
-242.946	66.819	-0.093	0.094
-241.932	241.437	0.184	0.304
-240.917	-200.000	-0.014	0.126
-239.903	-200.000	0.001	0.024
-238.888	-120.437	-0.129	0.022
-237.873	139.780	-0.175	0.228
-236.859	-140.741	0.059	0.006
-235.844	800.000	-0.136	-0.397
-234.830	-139.231	-0.204	-0.022
-233.815	-66.293	-0.086	-0.034
-232.800	149.007	-0.270	-0.362
-231.786	-101.983	0.418	-0.100
-230.771	-88.140	-0.061	-0.018
-229.757	-117.040	0.106	0.019
-228.742	-200.000	-0.010	0.125
-227.727	38.641	-0.226	0.200
-226.713	-41.342	-0.049	0.025
-225.698	-200.000	0.001	0.305
-224.684	-87.237	0.261	-0.079
-223.669	-200.000	0.035	-0.198
-222.655	800.000	0.055	-0.170
-221.640	49.160	-0.276	-0.257
-220.625	88.975	0.128	-0.141
-219.611	-29.326	0.111	0.063
-218.596	-200.000	-0.068	0.417
-217.582	711.386	-0.099	0.261
-216.567	600.206	0.029	-0.072
-215.552	-89.382	-0.039	0.011
-214.538	-200.000	-0.035	-0.372
-213.523	-200.000	-0.016	0.083
-212.509	-5.399	0.255	0.174
-211.494	-83.318	-0.206	-0.065
-210.479	-39.698	0.106	-0.055
-209.465	-31.131	0.095	-0.053
-208.450	-62.446	-0.098	-0.041
-207.436	-76.897	0.110	-0.038
-206.421	800.000	0.089	0.317
-205.406	800.000	-0.054	0.215
-204.392	-200.000	-0.012	0.125
-203.377	-200.000	0.017	0.204
-202.363	-119.050	-0.078	0.014
-201.348	102.145	0.083	-0.096
-200.333	-173.980	0.347	0.010
-199.319	-200.000	-0.045	-0.368
-198.304	-200.000	0.002	0.248
-197.290	296.683	0.248	-0.450
-196.275	-26.708	-0.194	-0.112
-195.260	-200.000	-0.002	-0.126
-194.246	172.767	-0.150	0.215
-193.231	154.233	-0.191	0.259
-192.217	105.822	0.109	0.128
-191.202	432.966	0.092	0.198
-190.187	800.000	-0.045	0.192
-189.173	-35.093	-0.441	-0.238
-188.158	-29.418	0.097	0.055
-187.144	-22.585	-0.219	0.131
-186.129	521.219	0.194	0.452
-185.114	-146.105	0.275	0.024
-184.100	-200.000	-0.013	-0.078
-183.085	-173.861	0.242	-0.007
-182.071	-86.200	-0.208	-0.063
-181.056	-96.270	0.204	0.054
-180.042	78.511	-0.194	0.206
-179.027	103.430	0.229	-0.265
-178.012	-123.509	0.126	0.020
-176.998	-73.907	-0.364	0.131
-175.983	88.681	0.110	0.121
-174.969	-88.725	0.066	-0.019
-173.954	-200.000	-0.009	-0.161
-172.939	179.705	0.131	0.189
-171.925	368.975	-0.037	-0.073
-170.910	673.905	-0.107	-0.275
-169.896	-72.281	-0.160	0.059
-168.881	223.053	0.133	0.212
-167.866	800.000	-0.074	0.226
-166.852	-200.000	-0.027	0.282
-165.837	-112.859	-0.397	-0.078
-164.823	-111.678	0.264	0.053
-163.808	123.008	0.053	-0.066
-162.793	620.866	0.115	-0.285
-161.779	-136.736	-0.296	0.034
-160.764	96.915	0.056	0.063
-159.750	-56.809	-0.136	-0.059
-158.735	91.578	0.061	-0.067
-157.720	286.426	-0.127	0.227
-156.706	329.655	-0.174	0.332
-155.691	71.796	0.154	-0.159
-154.677	121.394	0.117	-0.144
-153.662	-53.488	0.113	-0.051
-152.647	800.000	0.101	0.352
-151.633	-200.000	-0.042	-0.227
-150.618	8.085	-0.072	0.054
-149.604	-200.000	0.068	0.380
-148.589	628.855	-0.132	0.331
-147.574	-46.797	-0.117	0.056
-146.560	-123.723	-0.250	0.039
-145.545	-200.000	0.027	-0.205
-144.531	354.663	-0.109	0.214
-143.516	122.410	-0.104	-0.128
-142.502	-200.000	0.064	0.336
-141.487	-133.742	0.349	-0.043
-140.472	11.767	0.311	-0.236
-139.458	-60.491	-0.100	-0.042
-138.443	364.398	-0.183	0.365
-137.429	-27.098	0.361	0.208
-136.414	47.709	-0.227	-0.209
-135.399	-175.333	0.148	-0.004
-134.385	-99.733	-0.154	-0.038
-133.370	212.292	-0.115	-0.179
-132.356	-200.000	-0.095	0.460
-131.341	-183.114	-0.017	-0.000
-130.326	-188.753	0.155	-0.002
-129.312	48.980	-0.161	-0.149
-128.297	-88.598	-0.403	0.119
-127.283	-187.605	-0.420	0.005
-126.268	-200.000	-0.063	0.320
-125.253	-200.000	-0.021	0.103
-124.239	-77.332	0.185	0.063
-123.224	99.482	0.152	-0.174
-122.210	39.193	-0.190	0.168
