DTS Sentinel unit serial number:	SN413079Multiplexer serial number:	ORYXHardware model number:	OX4-SRSoftware version number:	ORYX F/W v4.00 Oryx Data Collector v3.7.2.0data status	okinstallation	princeton_trtdifferential loss correction	single-endedforward channel	channel 1reverse channel	N/Adate	2019/09/15time	15:30:35forward acquisition time	60.00reverse acquisition time	0.00gamma	496.2192k internal	0.2291k external	0.2291temperature offset calibration	0.9951default loss term (dB/km)	0.3790temperature slope calibration	1.0000multiplexer offset coefficient	1.0000multiplexer slope coefficient	1.0000fibre end	0.00T internal ref (°C)	41.20T ext. ref 1 (°C)	5.12T ext. ref 2 (°C)	38.57length (m)	temperature (°C)	Stokes	anti-Stokes-747.200	-118.665	0.276	0.050
-746.185	-81.449	0.213	-0.072
-745.171	297.311	-0.081	-0.153
-744.156	-200.000	-0.005	0.145
-743.142	-54.868	0.130	0.060
-742.127	176.354	-0.155	0.231
-741.112	-61.116	0.078	0.034
-740.098	-128.718	-0.256	0.037
-739.083	11.089	-0.318	0.249
-738.069	-200.000	-0.024	0.378
-737.054	-56.072	0.098	-0.045
-736.039	-171.458	-0.094	-0.003
-735.025	-126.525	-0.178	0.027
-734.010	-79.272	-0.421	-0.146
-732.996	397.519	-0.093	0.199
-731.981	800.000	0.104	0.373
-730.966	-80.024	-0.201	0.069
-729.952	-140.516	0.143	0.015
-728.937	-36.194	-0.149	0.082
-727.923	-89.957	-0.236	0.070
-726.908	142.980	-0.162	-0.220
-725.894	-200.000	0.068	-0.309
-724.879	76.291	-0.303	-0.328
-723.864	45.157	0.235	-0.221
-722.850	177.587	0.032	-0.047
-721.835	-135.820	-0.069	0.008
-720.821	-184.712	-0.311	-0.005
-719.806	244.575	-0.061	0.104
-718.791	-30.504	-0.141	0.082
-717.777	-51.168	0.019	0.009
-716.762	-32.264	-0.046	-0.026
-715.748	78.049	-0.023	0.025
-714.733	109.255	0.208	-0.254
-713.718	-158.288	-0.509	0.030
-712.704	36.064	-0.117	0.105
-711.689	-134.002	0.073	-0.009
-710.675	622.737	-0.143	0.367
-709.660	-54.493	-0.126	-0.058
-708.645	-120.713	-0.043	0.007
-707.631	-200.000	0.007	-0.151
-706.616	-17.805	-0.450	-0.288
-705.602	55.107	0.174	-0.172
-704.587	331.276	-0.228	-0.449
-703.572	-76.291	0.120	0.043
-702.558	-172.406	-0.362	-0.012
-701.543	-7.812	-0.259	-0.179
-700.529	-37.935	0.040	0.022
-699.514	-200.000	-0.034	-0.238
-698.499	-8.904	0.220	-0.150
-697.485	-123.902	0.454	-0.073
-696.470	-24.386	-0.235	0.143
-695.456	5.495	0.082	-0.062
-694.441	-135.052	0.203	0.025
-693.426	87.556	-0.238	-0.269
-692.412	-112.535	-0.256	-0.052
-691.397	14.953	-0.073	0.059
-690.383	-28.011	-0.357	-0.211
-689.368	-66.615	0.157	0.064
-688.354	-200.000	0.012	-0.193
-687.339	-81.078	-0.149	-0.050
-686.324	-30.772	-0.314	0.181
-685.310	136.983	0.211	0.281
-684.295	-56.961	0.341	0.154
-683.281	-163.104	-0.246	-0.012
-682.266	-122.592	-0.387	0.064
-681.251	8.869	-0.277	-0.214
-680.237	-5.791	-0.213	-0.149
-679.222	800.000	-0.098	-0.365
-678.208	-200.000	-0.025	-0.132
-677.193	-29.566	-0.084	-0.049
-676.178	800.000	0.037	-0.157
-675.164	-200.000	0.041	-0.326
-674.149	286.366	0.106	-0.196
-673.135	282.936	0.156	-0.287
-672.120	-148.926	-0.303	-0.025
-671.105	-56.550	0.130	0.059
-670.091	-15.558	-0.335	-0.218
-669.076	-154.020	0.258	-0.018
-668.062	104.855	0.155	-0.186
-667.047	-38.915	-0.152	-0.082
-666.032	800.000	-0.098	0.365
-665.018	-185.237	-0.100	-0.002
-664.003	-29.671	0.153	-0.089
-662.989	-200.000	-0.014	0.116
-661.974	-46.827	0.103	-0.052
-660.959	-103.011	-0.124	0.030
-659.945	38.906	0.170	0.155
-658.930	85.224	-0.042	-0.047
-657.916	800.000	0.046	0.185
-656.901	11.326	0.142	-0.111
-655.886	-72.337	-0.227	0.086
-654.872	133.311	-0.146	-0.193
-653.857	783.023	-0.080	0.223
-652.843	78.911	0.110	0.121
-651.828	-200.000	-0.032	-0.160
-650.814	21.038	-0.207	0.171
-649.799	478.454	0.020	0.046
-648.784	800.000	-0.088	0.276
-647.770	800.000	0.047	0.200
-646.755	-73.396	0.172	-0.064
-645.741	-200.000	0.022	0.106
-644.726	800.000	-0.024	0.076
-643.711	477.775	0.126	-0.290
-642.697	800.000	-0.027	0.095
-641.682	800.000	-0.138	0.395
-640.668	-128.388	0.190	0.028
-639.653	211.915	-0.183	-0.293
-638.638	-142.539	0.198	0.020
-637.624	127.134	0.048	0.062
-636.609	-200.000	-0.002	-0.082
-635.595	-135.527	0.297	0.036
-634.580	-122.967	0.152	-0.025
-633.565	79.270	0.180	-0.197
-632.551	97.352	-0.308	-0.361
-631.536	637.666	0.049	-0.126
-630.522	24.412	0.195	0.164
-629.507	-124.335	0.212	-0.034
-628.492	192.008	0.125	0.192
-627.478	-200.000	0.033	0.389
-626.463	-6.240	-0.233	-0.162
-625.449	461.647	0.129	0.293
-624.434	44.144	-0.042	-0.039
-623.419	324.939	-0.021	0.042
-622.405	-104.310	0.302	0.071
-621.390	-161.599	-0.280	-0.015
-620.376	157.907	0.042	0.060
-619.361	187.928	-0.046	-0.070
-618.346	213.459	-0.138	0.223
-617.332	-102.287	-0.375	0.092
-616.317	63.049	-0.046	0.047
-615.303	31.983	-0.076	-0.067
-614.288	118.393	-0.164	0.206
-613.273	-120.327	-0.102	0.018
-612.259	771.987	0.073	0.201
-611.244	-200.000	-0.012	0.292
-610.230	-139.640	0.207	-0.023
-609.215	549.596	0.090	0.221
-608.201	-200.000	0.039	0.350
-607.186	519.794	-0.083	-0.199
-606.171	800.000	-0.013	0.043
-605.157	-63.697	0.349	-0.146
-604.142	-16.484	0.037	0.024
-603.128	-78.339	-0.383	0.134
-602.113	-121.934	0.240	-0.040
-601.098	89.229	0.123	-0.140
-600.084	-84.282	0.235	-0.076
-599.069	-25.416	0.259	-0.156
-598.055	800.000	-0.080	0.291
-597.040	-17.658	0.073	0.047
-596.025	-200.000	0.055	-0.254
-595.011	70.181	0.060	0.063
-593.996	800.000	-0.117	-0.336
-592.982	-200.000	-0.007	-0.271
-591.967	-122.519	-0.182	0.030
-590.952	-112.119	0.154	-0.032
-589.938	170.351	-0.119	0.173
-588.923	222.395	-0.155	-0.253
-587.909	-200.000	0.028	0.132
-586.894	-41.950	-0.267	-0.139
-585.879	504.706	0.072	-0.169
-584.865	-18.443	0.299	0.190
-583.850	438.632	0.077	0.171
-582.836	-87.760	0.309	-0.095
-581.821	147.591	-0.071	0.098
-580.806	-200.000	0.005	-0.276
-579.792	-43.749	0.277	-0.142
-578.777	304.076	0.214	0.403
-577.763	-31.370	0.183	0.105
-576.748	-150.509	0.203	-0.016
-575.733	-62.673	-0.452	-0.191
-574.719	-162.158	0.266	-0.014
-573.704	-23.201	-0.213	-0.130
-572.690	726.741	0.140	-0.380
-571.675	800.000	0.028	0.120
-570.661	-127.207	0.214	-0.032
-569.646	279.962	0.048	-0.087
-568.631	-36.594	-0.369	0.202
-567.617	93.033	0.096	-0.111
-566.602	636.561	0.084	0.216
-565.588	305.983	-0.249	-0.470
-564.573	800.000	-0.102	0.430
-563.558	-194.651	-0.191	0.002
-562.544	-73.926	0.027	-0.010
-561.529	-142.158	-0.085	-0.009
-560.515	-29.022	-0.153	-0.089
-559.500	7.172	0.365	0.277
-558.485	416.068	-0.181	0.392
-557.471	800.000	-0.025	-0.111
-556.456	-200.000	-0.013	-0.198
-555.442	-109.209	-0.187	0.040
-554.427	50.060	0.074	0.071
-553.412	647.578	-0.040	-0.105
-552.398	86.474	0.177	0.199
-551.383	-40.840	0.293	-0.154
-550.369	-95.283	-0.193	-0.053
-549.354	2.412	-0.262	-0.193
-548.339	-88.086	-0.335	-0.102
-547.325	100.385	0.153	0.180
-546.310	63.014	0.195	0.199
-545.296	-120.851	-0.503	-0.086
-544.281	676.962	-0.128	-0.339
-543.266	800.000	0.032	-0.103
-542.252	-151.312	-0.093	0.007
-541.237	-200.000	0.044	0.401
-540.223	-28.152	0.291	0.171
-539.208	-200.000	-0.087	-0.577
-538.193	-200.000	-0.089	-0.000
-537.179	371.118	-0.243	0.501
-536.164	-113.220	0.312	-0.062
-535.150	-28.683	0.240	-0.140
-534.135	268.868	-0.119	-0.212
-533.121	352.860	0.112	0.225
-532.106	139.897	-0.101	-0.135
-531.091	66.424	-0.043	0.045
-530.077	-99.541	0.281	0.072
-529.062	33.528	-0.163	0.144
-528.048	-100.019	-0.227	-0.057
-527.033	-39.545	-0.154	0.082
-526.018	800.000	0.023	-0.086
-525.004	-70.885	0.065	-0.025
-523.989	-35.065	0.133	0.073
-522.975	-87.190	0.073	-0.023
-521.960	198.331	-0.119	0.185
-520.945	-149.042	-0.172	0.014
-519.931	10.157	0.180	-0.139
-518.916	138.603	-0.067	-0.089
-517.902	67.514	-0.161	-0.167
-516.887	105.157	0.065	0.078
-515.872	-40.298	-0.030	0.016
-514.858	-200.000	-0.048	-0.244
-513.843	800.000	-0.072	0.234
-512.829	-2.019	-0.125	-0.089
-511.814	-148.215	-0.423	0.035
-510.799	166.080	0.068	0.097
-509.785	210.584	-0.137	0.219
-508.770	-78.047	0.296	-0.104
-507.756	-103.808	-0.275	-0.065
-506.741	76.909	0.161	-0.174
-505.726	-200.000	0.035	-0.202
-504.712	-200.000	-0.057	-0.422
-503.697	-61.107	-0.299	0.128
-502.683	-59.804	-0.266	0.116
-501.668	-18.293	0.173	-0.109
-500.653	-200.000	-0.013	0.092
-499.639	800.000	0.013	-0.045
-498.624	183.151	0.140	-0.209
-497.610	800.000	0.024	-0.099
-496.595	-200.000	-0.017	-0.086
-495.581	84.173	0.177	-0.196
-494.566	-134.683	0.086	-0.011
-493.551	-200.000	0.086	0.394
-492.537	-1.266	-0.107	0.077
-491.522	44.468	-0.152	0.142
-490.508	22.311	0.218	0.181
-489.493	-152.788	-0.189	0.014
-488.478	-200.000	-0.019	-0.178
-487.464	-50.072	-0.108	0.052
-486.449	-46.703	-0.315	0.156
-485.435	-101.173	-0.175	0.043
-484.420	-200.000	-0.042	0.252
-483.405	-53.849	-0.229	0.106
-482.391	173.771	0.228	0.334
-481.376	-142.134	0.179	-0.018
-480.362	-125.671	0.325	0.050
-479.347	109.805	0.113	-0.137
-478.332	-200.000	0.044	0.402
-477.318	572.224	0.048	0.118
-476.303	297.040	-0.019	-0.036
-475.289	162.064	0.129	-0.183
-474.274	98.185	0.215	-0.251
-473.259	-200.000	-0.002	0.061
-472.245	212.143	0.110	0.175
-471.230	25.811	-0.148	0.125
-470.216	-173.906	-0.016	0.000
-469.201	-200.000	-0.011	0.174
-468.186	-21.060	-0.198	0.123
-467.172	126.529	-0.203	0.260
-466.157	518.442	0.055	0.129
-465.143	-108.363	0.089	-0.019
-464.128	12.674	-0.149	-0.116
-463.113	23.032	-0.164	-0.136
-462.099	713.742	-0.031	0.083
-461.084	-200.000	-0.021	0.240
-460.070	-30.252	-0.076	-0.044
-459.055	111.607	0.209	-0.255
-458.040	800.000	0.086	0.359
-457.026	-200.000	0.002	-0.205
-456.011	92.655	0.122	0.140
-454.997	-26.459	-0.159	0.094
-453.982	-200.000	0.062	-0.327
-452.968	703.758	0.034	0.091
-451.953	241.464	-0.150	0.254
-450.938	26.516	0.211	-0.178
-449.924	-9.667	-0.228	-0.154
-448.909	800.000	0.039	-0.156
-447.895	171.566	-0.094	-0.137
-446.880	800.000	0.061	0.171
-445.865	-138.785	0.115	0.013
-444.851	-126.569	0.328	-0.049
-443.836	-67.911	0.270	0.107
-442.822	-200.000	-0.053	-0.250
-441.807	149.597	-0.039	0.054
-440.792	-128.725	-0.059	-0.008
-439.778	261.030	0.237	0.416
-438.763	-87.179	-0.391	-0.120
-437.749	800.000	-0.031	0.123
-436.734	-200.000	-0.007	0.241
-435.719	232.291	-0.269	-0.446
-434.705	-45.845	0.303	-0.151
-433.690	800.000	0.051	0.186
-432.676	161.175	0.130	0.184
-431.661	27.301	0.148	-0.126
-430.646	365.344	-0.093	-0.189
-429.632	-200.000	-0.023	0.102
-428.617	-78.951	0.362	-0.124
-427.603	-3.381	-0.177	0.125
-426.588	146.835	-0.152	-0.206
-425.573	160.066	0.179	-0.252
-424.559	47.216	-0.285	-0.268
-423.544	-28.669	0.157	0.091
-422.530	15.543	0.238	-0.189
-421.515	291.212	0.130	0.240
-420.500	298.449	-0.142	0.264
-419.486	-114.892	-0.155	-0.030
-418.471	-200.000	0.004	-0.304
-417.457	-86.662	-0.183	-0.057
-416.442	153.848	0.089	-0.123
-415.428	231.741	-0.227	-0.376
-414.413	-81.140	-0.237	0.079
-413.398	-200.000	0.002	-0.101
-412.384	800.000	0.069	-0.288
-411.369	388.182	-0.092	0.192
-410.355	18.906	-0.177	0.144
-409.340	731.192	0.095	-0.255
-408.325	0.080	-0.287	-0.207
-407.311	-153.200	-0.142	-0.010
-406.296	227.850	-0.005	-0.008
-405.282	-75.385	0.183	-0.066
-404.267	193.560	-0.204	0.312
-403.252	-144.899	0.481	0.044
-402.238	-200.000	0.035	-0.210
-401.223	66.491	0.151	0.155
-400.209	-22.228	0.314	-0.193
-399.194	-34.523	0.069	0.038
-398.179	16.853	0.270	-0.216
-397.165	155.718	0.108	-0.151
-396.150	-200.000	0.032	0.151
-395.136	-200.000	-0.044	0.392
-394.121	800.000	-0.026	-0.113
-393.106	-96.588	0.066	-0.017
-392.092	675.041	-0.107	-0.282
-391.077	622.951	-0.071	-0.180
-390.063	-38.291	-0.260	0.139
-389.048	735.812	0.057	0.153
-388.033	800.000	0.068	-0.288
-387.019	16.649	0.521	0.416
-386.004	496.764	0.073	0.169
-384.990	70.344	-0.162	0.169
-383.975	-14.297	0.140	0.091
-382.960	146.502	-0.145	-0.197
-381.946	-33.669	-0.213	0.118
-380.931	13.815	-0.244	0.191
-379.917	-198.367	-0.220	0.001
-378.902	103.317	-0.065	-0.077
-377.888	-43.879	-0.197	-0.100
-376.873	220.355	0.070	-0.113
-375.858	-100.191	0.212	0.053
-374.844	339.786	-0.068	0.134
-373.829	320.738	0.096	0.183
-372.815	348.490	0.063	-0.126
-371.800	12.461	-0.325	0.253
-370.785	-156.719	0.104	-0.006
-369.771	-200.000	-0.015	-0.081
-368.756	-46.970	-0.273	0.134
-367.742	180.920	0.275	0.407
-366.727	152.463	-0.145	0.200
-365.712	13.156	-0.054	-0.042
-364.698	-200.000	-0.001	0.186
-363.683	155.872	-0.074	0.103
-362.669	-39.692	0.085	0.045
-361.654	-10.752	0.195	0.130
-360.639	77.818	0.058	0.063
-359.625	800.000	0.093	-0.341
-358.610	-65.800	0.080	0.032
-357.596	-30.306	-0.140	0.080
-356.581	-163.796	-0.268	0.013
-355.566	380.718	-0.178	0.369
-354.552	-108.985	-0.076	-0.016
-353.537	-0.433	-0.208	-0.149
-352.523	-80.540	-0.277	0.093
-351.508	-200.000	0.032	-0.194
-350.493	93.191	0.092	0.104
-349.479	-200.000	0.008	0.163
-348.464	218.503	-0.323	0.520
-347.450	-56.263	0.418	0.187
-346.435	-195.496	-0.154	-0.001
-345.420	-200.000	-0.011	0.128
-344.406	-112.428	-0.132	0.027
-343.391	-58.393	-0.189	0.083
-342.377	706.661	-0.050	0.134
-341.362	134.657	0.092	-0.121
-340.348	246.270	0.152	0.258
-339.333	-34.155	0.124	-0.069
-338.318	-200.000	-0.023	-0.102
-337.304	61.753	-0.190	-0.190
-336.289	128.814	-0.224	-0.288
-335.275	-88.807	0.117	-0.035
-334.260	-156.819	0.464	-0.029
-333.245	800.000	-0.039	-0.119
-332.231	-145.836	0.115	0.010
-331.216	-88.044	0.105	-0.032
-330.202	19.392	-0.269	-0.218
-329.187	28.213	0.072	0.061
-328.172	-200.000	-0.023	-0.185
-327.158	-112.866	-0.336	0.067
-326.143	-33.504	-0.115	-0.064
-325.129	32.492	-0.160	0.139
-324.114	-200.000	0.034	0.349
-323.099	-96.406	0.188	0.050
-322.085	-143.830	-0.300	0.029
-321.070	11.752	-0.149	0.116
-320.056	0.177	-0.083	0.059
-319.041	-50.472	0.017	0.008
-318.026	-200.000	-0.006	-0.036
-317.012	-200.000	-0.013	0.067
-315.997	-200.000	0.015	-0.111
-314.983	40.561	0.012	-0.011
-313.968	116.594	0.140	-0.172
-312.953	-176.040	0.276	0.007
-311.939	133.785	-0.142	0.185
-310.924	-39.884	0.209	-0.110
-309.910	28.974	-0.021	-0.018
-308.895	-137.852	-0.070	-0.008
-307.880	-200.000	-0.096	-0.463
-306.866	598.535	-0.098	-0.245
-305.851	-200.000	0.002	0.235
-304.837	190.285	0.101	0.152
-303.822	309.116	0.086	-0.162
-302.807	42.313	-0.060	-0.055
-301.793	-84.238	0.515	0.164
-300.778	18.212	-0.077	-0.062
-299.764	-200.000	-0.005	-0.112
-298.749	-127.959	-0.235	-0.034
-297.735	-33.697	-0.245	0.136
-296.720	198.273	-0.119	0.183
-295.705	-97.836	0.210	-0.055
-294.691	38.475	-0.295	0.265
-293.676	276.723	-0.038	0.068
-292.662	109.263	0.084	0.101
-291.647	-45.248	0.209	0.104
-290.632	-50.456	-0.142	-0.067
-289.618	-101.741	0.328	0.080
-288.603	302.581	-0.112	-0.209
-287.589	-200.000	0.007	-0.241
-286.574	-6.857	0.226	-0.154
-285.559	-140.155	0.213	0.022
-284.545	-56.273	-0.176	0.079
-283.530	64.250	-0.152	-0.154
-282.516	-135.865	-0.150	0.018
-281.501	-200.000	-0.014	-0.094
-280.486	-71.808	0.104	0.039
-279.472	-200.000	-0.064	-0.431
-278.457	-36.983	-0.207	0.111
-277.443	-200.000	-0.016	-0.116
-276.428	206.570	0.098	0.153
-275.413	-96.676	-0.234	-0.062
-274.399	-37.627	0.269	0.144
-273.384	-200.000	0.005	0.066
-272.370	222.494	0.102	0.165
-271.355	172.209	0.144	-0.208
-270.340	651.831	0.059	0.151
-269.326	-200.000	-0.066	-0.466
-268.311	105.084	0.310	-0.368
-267.297	-86.847	-0.094	-0.029
-266.282	-10.270	-0.015	-0.010
-265.267	-200.000	-0.001	-0.385
-264.253	-187.412	-0.139	0.002
-263.238	-155.890	-0.467	0.030
-262.224	67.056	-0.034	0.035
-261.209	-79.567	-0.110	0.037
-260.195	220.197	-0.332	0.535
-259.180	-52.010	0.121	0.057
-258.165	-56.736	0.115	-0.051
-257.151	-200.000	-0.019	-0.199
-256.136	-200.000	-0.012	-0.138
-255.122	-53.972	0.065	0.030
-254.107	-101.071	0.349	-0.086
-253.092	-10.476	0.115	0.076
-252.078	-7.868	-0.203	-0.138
-251.063	800.000	-0.022	-0.079
-250.049	-200.000	0.041	-0.212
-249.034	-102.503	-0.285	-0.069
-248.019	-42.262	0.108	-0.056
-247.005	800.000	0.095	-0.344
-245.990	388.100	0.045	-0.094
-244.976	-200.000	-0.009	-0.120
-243.961	188.042	-0.079	0.118
-242.946	-200.000	-0.061	-0.363
-241.932	-7.631	0.275	0.187
-240.917	-131.583	-0.209	0.028
-239.903	-138.616	0.230	-0.025
-238.888	464.400	0.125	0.281
-237.873	-120.817	-0.243	0.041
-236.859	-58.686	-0.233	-0.101
-235.844	800.000	-0.092	-0.262
-234.830	181.971	-0.218	0.323
-233.815	-47.739	-0.007	-0.003
-232.800	-187.789	-0.347	-0.005
-231.786	511.017	-0.006	0.015
-230.771	-17.191	0.238	-0.151
-229.757	-200.000	0.010	-0.188
-228.742	46.267	-0.179	-0.166
-227.727	41.406	0.101	-0.091
-226.713	800.000	0.007	0.020
-225.698	-200.000	-0.030	0.499
-224.684	-34.779	0.233	-0.128
-223.669	-200.000	-0.028	0.177
-222.655	800.000	-0.043	-0.164
-221.640	-127.693	-0.184	-0.027
-220.625	-65.373	0.307	-0.124
-219.611	158.098	-0.199	0.277
-218.596	2.481	-0.090	-0.065
-217.582	-86.633	-0.167	0.051
-216.567	800.000	-0.022	0.068
-215.552	-171.005	0.237	-0.008
-214.538	-135.315	0.024	0.003
-213.523	67.450	0.091	-0.093
-212.509	121.058	0.203	-0.253
-211.494	800.000	0.032	-0.127
-210.479	-200.000	-0.048	-0.219
-209.465	-111.326	-0.165	0.034
-208.450	800.000	-0.031	0.126
-207.436	302.120	0.146	-0.270
-206.421	-200.000	-0.046	-0.251
-205.406	262.526	0.123	0.213
-204.392	-31.634	0.209	0.117
-203.377	-24.452	-0.077	0.046
-202.363	800.000	0.047	0.171
-201.348	-72.127	0.250	0.093
-200.333	-120.155	0.214	-0.037
-199.319	-200.000	0.027	0.300
-198.304	68.793	0.115	0.118
-197.290	-200.000	-0.004	-0.475
-196.275	471.702	-0.040	0.089
-195.260	226.376	0.150	0.245
-194.246	115.140	-0.058	-0.070
-193.231	53.586	-0.122	-0.117
-192.217	38.502	0.080	0.072
-191.202	168.220	-0.060	0.086
-190.187	198.717	-0.133	-0.203
-189.173	415.771	-0.056	0.120
-188.158	-44.022	-0.412	0.207
-187.144	-117.489	-0.162	0.029
-186.129	150.054	-0.227	0.308
-185.114	-1.780	0.134	0.094
-184.100	-147.381	0.111	0.009
-183.085	153.357	0.014	-0.019
-182.071	278.565	-0.159	0.284
-181.056	-146.099	-0.315	0.028
-180.042	145.252	0.158	-0.211
-179.027	232.043	0.123	-0.202
-178.012	27.277	0.152	-0.128
-176.998	358.073	-0.083	0.166
-175.983	265.594	0.097	-0.169
-174.969	135.434	0.353	-0.459
-173.954	-93.061	-0.294	0.082
-172.939	411.491	0.036	0.078
-171.925	176.710	0.217	-0.316
-170.910	-113.634	0.309	0.060
-169.896	-200.000	-0.012	0.192
-168.881	-20.607	-0.076	0.047
-167.866	319.919	-0.132	-0.252
-166.852	540.258	-0.083	-0.199
-165.837	800.000	-0.038	-0.162
-164.823	-11.473	0.212	-0.140
-163.808	-150.065	0.205	0.016
-162.793	462.264	0.115	0.257
-161.779	-48.309	0.150	0.072
-160.764	-200.000	0.008	-0.150
-159.750	33.208	-0.121	-0.105
-158.735	800.000	-0.073	-0.298
-157.720	-108.627	0.288	-0.062
-156.706	-200.000	-0.035	-0.261
-155.691	800.000	0.077	0.250
-154.677	-136.470	0.262	-0.030
-153.662	75.750	0.255	0.270
-152.647	28.381	-0.234	-0.198
-151.633	265.752	0.043	0.075
-150.618	35.123	-0.273	-0.240
-149.604	18.490	-0.389	0.311
-148.589	800.000	0.047	0.152
-147.574	-200.000	0.035	0.274
-146.560	566.892	0.028	0.068
-145.545	247.294	-0.253	0.427
-144.531	410.850	-0.058	0.123
-143.516	-200.000	0.032	-0.373
-142.502	-200.000	-0.015	0.360
-141.487	-57.321	0.165	0.073
-140.472	-121.090	-0.161	-0.027
-139.458	226.544	-0.112	-0.182
-138.443	536.759	0.067	0.160
-137.429	-106.444	-0.095	-0.021
-136.414	-200.000	0.092	0.448
-135.399	-200.000	-0.011	0.135
-134.385	-56.090	-0.041	0.018
-133.370	-61.165	0.155	-0.065
-132.356	-200.000	0.000	-0.011
-131.341	-34.306	-0.157	-0.086
-130.326	43.813	-0.176	0.161
-129.312	-97.893	-0.379	-0.098
-128.297	-200.000	-0.029	0.322
-127.283	-119.516	0.139	0.024
-126.268	65.580	-0.153	-0.155
-125.253	-200.000	-0.010	-0.049
-124.239	-31.067	-0.076	-0.043
-123.224	800.000	-0.046	-0.170
-122.210	-200.000	-0.019	0.212
