DTS Sentinel unit serial number:	SN413079Multiplexer serial number:	ORYXHardware model number:	OX4-SRSoftware version number:	ORYX F/W v4.00 Oryx Data Collector v3.7.2.0data status	okinstallation	princeton_trtdifferential loss correction	single-endedforward channel	channel 1reverse channel	N/Adate	2019/09/12time	22:14:35forward acquisition time	60.00reverse acquisition time	0.00gamma	496.2192k internal	0.2327k external	0.2327temperature offset calibration	1.0151default loss term (dB/km)	0.3790temperature slope calibration	1.0000multiplexer offset coefficient	1.0000multiplexer slope coefficient	1.0000fibre end	0.00T internal ref (°C)	29.87T ext. ref 1 (°C)	3.73T ext. ref 2 (°C)	24.41length (m)	temperature (°C)	Stokes	anti-Stokes-747.200	257.256	0.121	0.209
-746.185	-73.096	0.056	0.021
-745.171	53.157	0.147	0.142
-744.156	-18.513	-0.325	0.205
-743.142	800.000	-0.053	-0.175
-742.127	63.246	-0.060	-0.060
-741.112	-115.556	0.211	-0.040
-740.098	-147.820	-0.237	0.020
-739.083	634.443	0.050	0.127
-738.069	17.087	-0.208	0.166
-737.054	-8.540	0.093	0.063
-736.039	-106.521	-0.497	-0.112
-735.025	-126.179	0.061	-0.009
-734.010	246.410	-0.058	-0.098
-732.996	-200.000	-0.007	-0.117
-731.981	201.686	-0.093	-0.144
-730.966	-200.000	-0.012	-0.134
-729.952	-136.860	0.306	0.035
-728.937	204.469	-0.253	-0.395
-727.923	231.527	-0.165	-0.273
-726.908	-200.000	-0.018	-0.125
-725.894	674.008	0.032	-0.084
-724.879	341.530	0.087	-0.172
-723.864	241.371	-0.228	0.384
-722.850	34.746	0.548	-0.482
-721.835	75.176	0.043	-0.045
-720.821	54.620	-0.169	0.164
-719.806	-200.000	0.014	-0.120
-718.791	37.807	-0.148	-0.133
-717.777	-158.221	-0.049	0.003
-716.762	77.359	-0.322	-0.345
-715.748	278.468	-0.033	0.060
-714.733	-200.000	-0.035	-0.236
-713.718	223.640	-0.035	0.057
-712.704	-112.483	-0.170	0.034
-711.689	800.000	0.117	-0.357
-710.675	-124.345	0.196	-0.031
-709.660	-109.130	-0.179	-0.038
-708.645	-200.000	0.010	-0.073
-707.631	-99.065	-0.138	-0.035
-706.616	800.000	0.105	-0.303
-705.602	-147.119	-0.213	-0.018
-704.587	31.001	-0.195	-0.168
-703.572	-164.835	-0.242	-0.011
-702.558	60.095	0.222	-0.221
-701.543	-200.000	0.005	-0.257
-700.529	79.131	-0.232	0.250
-699.514	504.307	-0.059	-0.138
-698.499	174.830	0.030	0.044
-697.485	-189.403	0.259	-0.003
-696.470	-108.572	-0.241	0.052
-695.456	-163.441	0.200	-0.010
-694.441	92.793	0.111	0.126
-693.426	-78.196	-0.328	-0.113
-692.412	-163.209	0.104	0.005
-691.397	24.853	-0.175	-0.146
-690.383	-200.000	0.027	-0.227
-689.368	64.179	0.257	-0.260
-688.354	-15.914	-0.346	-0.221
-687.339	-76.887	0.174	0.061
-686.324	-56.653	-0.320	-0.142
-685.310	-105.476	-0.121	-0.028
-684.295	536.146	-0.091	-0.217
-683.281	800.000	0.047	-0.160
-682.266	438.432	0.178	-0.390
-681.251	41.442	0.088	-0.080
-680.237	-21.152	-0.175	-0.108
-679.222	-117.239	0.275	0.050
-678.208	-200.000	-0.025	-0.296
-677.193	241.394	0.228	0.383
-676.178	-200.000	-0.002	0.272
-675.164	-88.050	0.108	-0.033
-674.149	-200.000	0.020	0.107
-673.135	557.587	0.092	0.223
-672.120	-200.000	0.005	0.158
-671.105	111.928	0.115	-0.139
-670.091	525.764	0.063	-0.149
-669.076	48.378	0.154	-0.145
-668.062	-69.890	0.419	0.161
-667.047	-103.753	0.361	-0.085
-666.032	-129.308	-0.250	0.035
-665.018	-98.357	-0.107	-0.028
-664.003	41.282	0.095	-0.086
-662.989	-66.670	0.128	-0.051
-661.974	-200.000	0.021	-0.109
-660.959	-192.558	0.327	-0.003
-659.945	188.035	-0.030	-0.044
-658.930	-11.915	-0.124	0.081
-657.916	85.243	-0.127	-0.140
-656.901	800.000	0.050	-0.147
-655.886	-149.804	-0.287	-0.023
-654.872	-12.542	-0.428	-0.281
-653.857	538.920	0.090	0.215
-652.843	360.645	-0.060	-0.122
-651.828	349.252	0.036	-0.072
-650.814	9.262	-0.108	0.082
-649.799	-142.468	-0.387	-0.038
-648.784	397.878	-0.117	-0.246
-647.770	-91.525	0.104	0.030
-646.755	-89.550	0.132	-0.039
-645.741	-36.007	0.221	-0.120
-644.726	-122.871	0.175	0.028
-643.711	-200.000	-0.020	0.124
-642.697	-45.425	0.318	0.158
-641.682	800.000	-0.023	0.076
-640.668	478.347	0.091	-0.207
-639.653	-200.000	0.038	-0.198
-638.638	-200.000	0.036	0.238
-637.624	-50.921	0.158	-0.074
-636.609	51.162	-0.215	-0.205
-635.595	378.168	0.098	0.201
-634.580	170.642	-0.067	-0.096
-633.565	107.518	-0.124	0.148
-632.551	-200.000	-0.012	0.077
-631.536	800.000	0.083	0.359
-630.522	-19.328	0.144	0.090
-629.507	-74.244	-0.140	-0.051
-628.492	329.280	-0.136	-0.262
-627.478	-97.633	0.319	0.083
-626.463	-157.116	-0.220	0.013
-625.449	800.000	0.011	-0.042
-624.434	159.683	0.177	0.247
-623.419	120.297	0.146	0.182
-622.405	-83.485	-0.206	0.066
-621.390	64.691	-0.114	0.116
-620.376	-33.281	0.252	-0.140
-619.361	-200.000	0.013	-0.196
-618.346	10.802	-0.184	0.141
-617.332	-200.000	-0.022	-0.207
-616.317	-22.905	0.023	0.014
-615.303	-113.397	0.086	-0.017
-614.288	-200.000	0.000	0.037
-613.273	-29.275	-0.146	0.084
-612.259	35.172	0.180	0.158
-611.244	592.436	-0.050	0.124
-610.230	-200.000	-0.025	-0.146
-609.215	-200.000	0.035	0.185
-608.201	-200.000	0.000	0.055
-607.186	347.937	-0.015	-0.030
-606.171	-27.618	0.115	-0.067
-605.157	-57.278	0.096	0.042
-604.142	-154.530	-0.212	-0.014
-603.128	77.661	0.142	0.152
-602.113	800.000	-0.020	-0.083
-601.098	-131.719	0.365	-0.048
-600.084	624.686	-0.057	0.143
-599.069	-165.936	0.305	-0.013
-598.055	-45.634	0.105	-0.052
-597.040	-185.828	-0.344	0.005
-596.025	-85.939	0.220	-0.068
-595.011	-200.000	0.018	0.449
-593.996	-200.000	0.038	-0.301
-592.982	800.000	-0.018	0.067
-591.967	-159.583	0.487	-0.027
-590.952	-19.816	-0.186	-0.115
-589.938	555.552	-0.094	0.228
-588.923	-183.278	0.352	0.006
-587.909	-144.714	0.149	0.014
-586.894	209.242	-0.057	-0.090
-585.879	-18.820	0.134	0.083
-584.865	132.917	0.088	0.114
-583.850	-200.000	0.002	-0.065
-582.836	800.000	-0.033	-0.123
-581.821	-84.072	0.171	0.055
-580.806	38.321	-0.098	-0.087
-579.792	61.106	0.060	-0.060
-578.777	590.857	-0.087	0.215
-577.763	262.962	0.116	-0.201
-576.748	532.009	0.114	0.270
-575.733	-63.761	0.140	0.057
-574.719	-56.897	-0.144	0.064
-573.704	800.000	0.065	-0.194
-572.690	-200.000	-0.081	-0.371
-571.675	-49.082	-0.148	0.071
-570.661	-124.770	-0.121	0.019
-569.646	-88.463	-0.271	0.081
-568.631	-24.996	-0.107	-0.064
-567.617	64.012	0.081	-0.082
-566.602	-39.060	-0.125	-0.066
-565.588	800.000	0.029	0.090
-564.573	-174.303	-0.050	0.001
-563.558	-152.215	-0.120	0.009
-562.544	121.629	-0.155	0.194
-561.529	559.696	0.106	-0.255
-560.515	800.000	-0.066	-0.211
-559.500	93.591	0.211	0.239
-558.485	-200.000	-0.005	-0.047
-557.471	7.240	0.208	0.155
-556.456	-191.765	-0.064	-0.001
-555.442	-72.766	0.057	0.021
-554.427	-126.377	0.152	0.023
-553.412	-143.007	-0.107	-0.010
-552.398	185.368	-0.186	-0.276
-551.383	-85.920	-0.114	-0.035
-550.369	361.728	-0.079	-0.159
-549.354	800.000	0.008	0.032
-548.339	-14.258	-0.156	0.100
-547.325	-116.816	-0.027	0.005
-546.310	30.390	-0.074	0.063
-545.296	-74.491	0.148	0.053
-544.281	170.520	0.204	0.292
-543.266	-200.000	-0.020	0.169
-542.252	6.311	0.260	-0.193
-541.237	159.772	-0.078	0.108
-540.223	245.631	-0.066	-0.111
-539.208	800.000	-0.032	-0.106
-538.193	220.986	-0.021	0.034
-537.179	-85.480	-0.317	0.099
-536.164	203.255	0.084	0.129
-535.150	31.061	0.228	-0.196
-534.135	-37.408	0.240	0.128
-533.121	800.000	-0.088	-0.368
-532.106	54.538	-0.316	-0.304
-531.091	-9.693	-0.332	-0.221
-530.077	20.539	0.213	0.173
-529.062	-15.981	0.007	0.004
-528.048	800.000	0.082	-0.254
-527.033	800.000	-0.080	-0.244
-526.018	-78.022	-0.051	-0.018
-525.004	452.158	0.058	0.128
-523.989	110.474	-0.245	0.294
-522.975	3.917	-0.190	-0.139
-521.960	-143.396	-0.242	0.023
-520.945	-20.549	0.135	-0.083
-519.931	-133.992	0.148	-0.018
-518.916	-200.000	0.003	0.206
-517.902	430.033	0.083	0.179
-516.887	90.393	0.075	0.084
-515.872	-101.796	-0.415	-0.100
-514.858	800.000	-0.095	-0.346
-513.843	-200.000	-0.048	0.243
-512.829	-92.144	-0.134	-0.038
-511.814	-50.594	-0.104	-0.049
-510.799	58.418	0.106	-0.104
-509.785	800.000	0.035	-0.098
-508.770	-64.635	-0.137	-0.056
-507.756	310.360	-0.082	0.154
-506.741	54.716	0.156	0.150
-505.726	800.000	0.154	-0.426
-504.712	800.000	-0.069	-0.231
-503.697	553.627	-0.202	0.486
-502.683	-200.000	0.008	0.035
-501.668	-200.000	0.015	-0.101
-500.653	-10.087	0.091	-0.060
-499.639	-167.448	-0.170	0.007
-498.624	800.000	0.023	0.093
-497.610	134.810	-0.256	0.332
-496.595	-136.456	-0.393	-0.046
-495.581	-200.000	-0.017	0.216
-494.566	89.396	-0.055	-0.062
-493.551	229.941	0.114	-0.185
-492.537	-37.952	-0.157	0.083
-491.522	492.108	0.029	0.065
-490.508	-99.019	0.215	0.054
-489.493	-65.989	-0.050	-0.020
-488.478	36.230	-0.228	-0.200
-487.464	228.011	0.247	-0.401
-486.449	-73.227	0.193	0.071
-485.435	-62.050	0.155	0.065
-484.420	-134.201	-0.247	-0.030
-483.405	137.529	0.040	-0.052
-482.391	-200.000	0.023	0.129
-481.376	336.040	-0.097	-0.187
-480.362	9.333	0.024	-0.018
-479.347	98.529	0.347	0.399
-478.332	-68.952	-0.085	0.033
-477.318	-38.290	0.020	0.011
-476.303	-116.070	0.213	-0.040
-475.289	-200.000	-0.007	-0.052
-474.274	8.289	0.212	0.159
-473.259	597.996	-0.025	0.063
-472.245	800.000	-0.029	-0.124
-471.230	-79.263	0.310	-0.105
-470.216	-154.569	-0.077	-0.005
-469.201	800.000	-0.031	-0.114
-468.186	18.875	-0.128	0.102
-467.172	-200.000	0.001	-0.126
-466.157	12.855	0.214	0.165
-465.143	-161.864	-0.140	0.007
-464.128	800.000	0.104	-0.322
-463.113	-61.580	-0.056	0.023
-462.099	800.000	-0.033	0.118
-461.084	-27.658	-0.281	0.163
-460.070	-31.236	-0.234	0.131
-459.055	-54.602	-0.106	0.048
-458.040	-82.890	-0.262	-0.084
-457.026	-25.518	-0.284	0.167
-456.011	-200.000	-0.069	0.377
-454.997	253.519	-0.086	0.146
-453.982	-121.294	0.102	0.017
-452.968	113.281	0.207	-0.251
-451.953	-200.000	0.033	-0.205
-450.938	52.544	0.199	-0.189
-449.924	-126.337	-0.136	-0.020
-448.909	800.000	-0.082	0.231
-447.895	-94.472	-0.193	-0.052
-446.880	-200.000	0.005	0.179
-445.865	559.227	-0.150	0.361
-444.851	126.888	0.257	-0.325
-443.836	-32.142	0.173	0.096
-442.822	-85.230	0.049	-0.015
-441.807	-176.119	0.127	0.003
-440.792	157.029	-0.120	-0.166
-439.778	120.249	-0.206	0.254
-438.763	-55.644	0.066	-0.029
-437.749	785.276	0.046	0.126
-436.734	113.683	0.176	0.214
-435.719	-48.737	0.077	-0.037
-434.705	311.421	-0.059	0.111
-433.690	-103.234	-0.142	-0.033
-432.676	-101.509	0.085	-0.021
-431.661	543.100	0.059	0.141
-430.646	-100.991	0.196	-0.048
-429.632	-200.000	0.003	0.384
-428.617	100.207	-0.186	0.215
-427.603	-74.998	0.335	-0.119
-426.588	-26.407	0.170	-0.099
-425.573	292.705	-0.026	0.047
-424.559	-160.761	-0.258	0.014
-423.544	-200.000	-0.004	0.148
-422.530	-6.932	-0.036	-0.025
-421.515	67.922	0.014	0.014
-420.500	-200.000	0.028	0.149
-419.486	-101.593	-0.241	-0.058
-418.471	-200.000	-0.021	-0.266
-417.457	800.000	-0.049	0.193
-416.442	800.000	0.050	-0.190
-415.428	-10.332	-0.316	0.208
-414.413	-200.000	0.008	0.362
-413.398	-21.244	0.093	0.057
-412.384	94.763	-0.230	0.260
-411.369	-200.000	0.005	-0.133
-410.355	-200.000	-0.026	-0.236
-409.340	308.193	0.183	0.339
-408.325	-80.029	0.127	0.043
-407.311	-40.122	-0.215	0.112
-406.296	-81.140	-0.216	0.071
-405.282	483.441	-0.078	0.177
-404.267	23.656	0.105	0.086
-403.252	-200.000	-0.004	0.089
-402.238	207.270	-0.085	0.132
-401.223	800.000	0.015	-0.054
-400.209	183.647	-0.075	-0.111
-399.194	-60.508	-0.035	0.015
-398.179	-45.813	0.259	-0.127
-397.165	-150.591	0.157	-0.012
-396.150	-46.722	0.258	-0.126
-395.136	57.168	-0.198	-0.192
-394.121	-200.000	0.010	0.049
-393.106	118.116	0.200	-0.245
-392.092	800.000	0.048	-0.137
-391.077	-46.587	0.160	0.078
-390.063	167.655	-0.365	-0.515
-389.048	-135.299	0.217	0.026
-388.033	-73.684	-0.437	-0.158
-387.019	-200.000	-0.005	-0.251
-386.004	800.000	-0.052	0.175
-384.990	225.010	0.009	0.014
-383.975	351.480	0.028	-0.056
-382.960	-81.175	0.184	-0.060
-381.946	536.007	-0.109	0.257
-380.931	8.393	-0.287	0.214
-379.917	528.473	0.150	0.351
-378.902	-60.941	0.138	0.058
-377.888	-200.000	-0.042	-0.317
-376.873	58.861	-0.276	-0.270
-375.858	261.804	-0.155	-0.266
-374.844	800.000	0.059	0.179
-373.829	-153.975	0.267	0.018
-372.815	413.969	-0.101	0.213
-371.800	-80.802	0.320	0.105
-370.785	-147.374	-0.158	-0.013
-369.771	-193.676	-0.128	-0.001
-368.756	530.179	0.138	0.325
-367.742	51.976	0.171	0.162
-366.727	-7.004	0.154	0.104
-365.712	-80.450	-0.406	0.135
-364.698	7.803	0.038	-0.028
-363.683	-84.026	-0.214	0.067
-362.669	186.351	0.147	-0.217
-361.654	105.105	-0.114	-0.133
-360.639	-79.149	0.072	0.024
-359.625	-34.363	-0.118	0.064
-358.610	-125.652	0.158	-0.024
-357.596	-131.653	-0.145	-0.019
-356.581	800.000	0.064	0.204
-355.566	-30.337	0.281	0.159
-354.552	-200.000	-0.020	0.095
-353.537	51.465	0.212	0.200
-352.523	292.132	0.043	-0.078
-351.508	-200.000	0.025	-0.550
-350.493	481.345	-0.073	-0.165
-349.479	-37.901	-0.043	-0.023
-348.464	345.696	-0.085	-0.166
-347.450	-120.405	0.311	-0.053
-346.435	85.805	-0.093	-0.101
-345.420	-106.178	-0.153	0.034
-344.406	12.393	-0.248	0.189
-343.391	-84.566	0.222	-0.069
-342.377	-137.826	-0.282	0.031
-341.362	800.000	0.063	-0.227
-340.348	85.994	-0.092	0.100
-339.333	62.375	-0.043	0.043
-338.318	-62.889	0.127	-0.052
-337.304	-100.909	0.114	0.028
-336.289	118.808	-0.278	0.341
-335.275	438.932	0.016	0.036
-334.260	-200.000	0.021	0.230
-333.245	-112.169	0.266	0.053
-332.231	-53.446	-0.129	-0.058
-331.216	348.001	-0.267	0.522
-330.202	477.311	-0.056	0.127
-329.187	-147.107	0.125	0.011
-328.172	-62.457	-0.304	-0.125
-327.158	65.086	0.167	-0.167
-326.143	249.528	0.185	-0.311
-325.129	362.362	-0.182	-0.362
-324.114	-53.741	-0.144	0.065
-323.099	-174.736	0.245	-0.007
-322.085	800.000	-0.083	0.350
-321.070	-141.950	0.265	0.026
-320.056	-41.752	0.150	0.076
-319.041	36.006	-0.163	-0.143
-318.026	-200.000	-0.011	0.226
-317.012	29.921	-0.100	0.085
-315.997	-145.825	-0.327	-0.029
-314.983	-148.151	0.105	-0.009
-313.968	12.363	-0.224	0.171
-312.953	107.070	-0.286	0.336
-311.939	-200.000	0.000	-0.071
-310.924	-99.446	0.074	0.018
-309.910	222.030	-0.122	0.195
-308.895	-53.646	-0.072	-0.033
-307.880	-28.861	0.182	-0.104
-306.866	-3.157	0.182	-0.126
-305.851	31.330	-0.120	0.102
-304.837	32.104	0.331	0.283
-303.822	-187.136	0.191	0.003
-302.807	800.000	-0.087	0.303
-301.793	282.815	-0.078	-0.138
-300.778	335.054	0.129	-0.247
-299.764	-200.000	0.022	0.184
-298.749	-200.000	0.040	0.290
-297.735	237.235	-0.193	-0.317
-296.720	110.005	0.048	-0.057
-295.705	-76.122	0.167	0.058
-294.691	-200.000	-0.066	0.320
-293.676	117.418	0.155	-0.189
-292.662	201.758	-0.068	0.103
-291.647	193.262	-0.110	0.165
-290.632	-14.081	-0.035	0.023
-289.618	-139.215	0.304	0.032
-288.603	121.435	-0.071	-0.088
-287.589	-0.253	-0.206	0.145
-286.574	3.172	0.222	0.160
-285.559	800.000	0.016	-0.045
-284.545	800.000	-0.112	-0.457
-283.530	4.378	-0.227	0.165
-282.516	800.000	0.076	0.266
-281.501	-42.009	0.256	0.130
-280.486	-200.000	-0.024	-0.254
-279.472	-63.941	-0.337	0.136
-278.457	-198.751	0.127	0.001
-277.443	-200.000	-0.059	-0.257
-276.428	-105.303	-0.145	0.033
-275.413	-200.000	0.055	-0.286
-274.399	-38.729	0.145	0.076
-273.384	-61.457	-0.155	-0.064
-272.370	558.854	0.045	-0.107
-271.355	250.014	0.014	0.024
-270.340	-200.000	0.057	0.256
-269.326	-135.576	0.287	0.034
-268.311	-3.785	-0.272	-0.187
-267.297	-150.505	-0.050	0.004
-266.282	-70.648	0.216	0.081
-265.267	-58.485	0.276	0.119
-264.253	-50.376	-0.209	-0.098
-263.238	-169.909	-0.328	0.012
-262.224	8.611	0.202	-0.151
-261.209	-105.581	-0.065	-0.015
-260.195	-200.000	0.021	-0.186
-259.180	-17.943	-0.289	-0.179
-258.165	-200.000	0.038	0.275
-257.151	57.813	0.301	-0.291
-256.136	55.771	0.063	-0.060
-255.122	-122.986	-0.167	-0.027
-254.107	17.204	0.138	-0.108
-253.092	-200.000	0.061	0.321
-252.078	800.000	0.039	-0.135
-251.063	365.476	0.079	0.157
-250.049	800.000	0.061	-0.183
-249.034	330.574	-0.069	0.131
-248.019	-163.777	-0.140	0.006
-247.005	-43.906	0.340	0.169
-245.990	-45.074	0.093	-0.046
-244.976	-117.662	0.237	0.042
-243.961	220.882	-0.108	-0.172
-242.946	48.942	0.139	0.129
-241.932	-162.485	-0.257	0.013
-240.917	800.000	0.082	0.253
-239.903	188.074	0.083	-0.122
-238.888	800.000	-0.071	-0.195
-237.873	190.784	0.144	0.215
-236.859	514.436	0.047	0.109
-235.844	93.404	-0.137	0.153
-234.830	16.428	-0.090	-0.071
-233.815	-200.000	-0.000	0.243
-232.800	-69.794	0.204	0.077
-231.786	-100.161	-0.158	0.039
-230.771	-153.796	0.281	0.019
-229.757	-200.000	-0.039	-0.209
-228.742	190.956	0.054	-0.081
-227.727	-17.530	0.063	-0.039
-226.713	70.233	-0.138	0.141
-225.698	-70.849	0.036	-0.013
-224.684	72.708	0.228	-0.235
-223.669	49.559	-0.203	0.189
-222.655	22.709	0.145	-0.117
-221.640	-200.000	-0.005	-0.094
-220.625	-200.000	-0.038	-0.302
-219.611	-200.000	0.037	0.304
-218.596	-29.907	0.159	-0.089
-217.582	-63.767	0.136	0.055
-216.567	-170.124	-0.290	0.010
-215.552	317.322	0.041	0.077
-214.538	-200.000	-0.003	-0.094
-213.523	-42.448	0.039	-0.020
-212.509	363.290	-0.132	-0.262
-211.494	-21.799	0.212	-0.128
-210.479	64.482	-0.236	-0.235
-209.465	185.421	-0.065	-0.095
-208.450	-200.000	0.026	0.437
-207.436	-124.540	0.291	0.045
-206.421	408.854	-0.053	0.110
-205.406	-108.925	-0.290	0.061
-204.392	38.752	0.290	0.256
-203.377	44.272	-0.270	-0.245
-202.363	154.967	0.099	-0.135
-201.348	-124.631	-0.221	0.034
-200.333	800.000	0.055	0.232
-199.319	-102.118	0.360	0.086
-198.304	-146.628	0.207	0.018
-197.290	9.244	0.097	0.072
-196.275	-200.000	0.026	0.160
-195.260	-83.932	0.110	-0.034
-194.246	-130.716	0.327	-0.043
-193.231	-70.607	-0.172	0.064
-192.217	353.750	0.058	0.114
-191.202	724.978	-0.067	-0.176
-190.187	670.528	0.083	-0.211
-189.173	-200.000	-0.019	-0.343
-188.158	-28.274	-0.409	-0.233
-187.144	164.622	-0.119	-0.165
-186.129	257.481	0.051	-0.087
-185.114	748.174	-0.101	0.268
-184.100	-12.410	0.163	0.105
-183.085	70.911	0.134	-0.137
-182.071	52.323	-0.009	-0.009
-181.056	-145.884	0.300	-0.026
-180.042	-126.206	-0.218	-0.032
-179.027	-111.631	0.134	-0.027
-178.012	800.000	0.036	-0.100
-176.998	134.057	-0.142	-0.182
-175.983	800.000	0.095	-0.284
-174.969	800.000	0.077	-0.245
-173.954	223.204	0.146	-0.232
-172.939	5.621	0.256	-0.187
-171.925	185.005	-0.113	0.166
-170.910	246.818	-0.166	0.277
-169.896	-200.000	0.003	-0.156
-168.881	115.162	-0.243	-0.293
-167.866	-18.380	-0.218	0.134
-166.852	35.985	0.093	-0.081
-165.837	-108.751	0.201	0.043
-164.823	97.035	0.023	0.026
-163.808	73.352	0.340	-0.350
-162.793	155.400	-0.272	-0.369
-161.779	178.209	-0.237	-0.341
-160.764	84.229	0.163	-0.175
-159.750	-200.000	0.120	-0.555
-158.735	-35.373	-0.246	-0.132
-157.720	194.420	-0.097	-0.145
-156.706	-139.504	-0.261	-0.027
-155.691	21.637	-0.230	-0.184
-154.677	60.626	-0.235	0.229
-153.662	284.852	-0.168	-0.297
-152.647	-130.434	0.134	-0.018
-151.633	228.869	-0.043	-0.068
-150.618	-136.825	-0.240	-0.027
-149.604	-64.936	-0.173	0.069
-148.589	-168.882	-0.298	-0.011
-147.574	93.730	0.037	-0.041
-146.560	-155.638	0.142	0.009
-145.545	132.455	0.358	0.454
-144.531	-200.000	-0.032	-0.428
-143.516	-63.772	0.281	-0.113
-142.502	159.265	0.126	0.172
-141.487	-99.835	-0.118	0.029
-140.472	421.062	0.073	-0.155
-139.458	-200.000	0.007	0.287
-138.443	-56.271	0.145	0.063
-137.429	81.826	0.352	0.375
-136.414	-65.549	-0.008	-0.003
-135.399	-85.743	-0.045	-0.014
-134.385	36.508	0.138	0.120
-133.370	238.191	0.179	0.293
-132.356	-52.252	0.150	0.068
-131.341	160.542	0.122	-0.168
-130.326	48.605	0.135	-0.125
-129.312	52.256	0.059	0.055
-128.297	85.518	-0.117	-0.126
-127.283	580.954	-0.111	-0.268
-126.268	-88.188	0.164	0.048
-125.253	-124.299	0.152	0.023
-124.239	141.643	-0.118	0.154
-123.224	40.366	0.065	-0.058
-122.210	-104.754	-0.082	-0.019
-121.195	-104.047	0.253	0.058
