DTS Sentinel unit serial number:	SN413079Multiplexer serial number:	ORYXHardware model number:	OX4-SRSoftware version number:	ORYX F/W v4.00 Oryx Data Collector v3.7.2.0data status	okinstallation	princeton_trtdifferential loss correction	single-endedforward channel	channel 1reverse channel	N/Adate	2019/09/18time	04:30:35forward acquisition time	60.00reverse acquisition time	0.00gamma	496.2192k internal	0.2339k external	0.2339temperature offset calibration	0.9980default loss term (dB/km)	0.3790temperature slope calibration	1.0000multiplexer offset coefficient	1.0000multiplexer slope coefficient	1.0000fibre end	0.00T internal ref (°C)	23.41T ext. ref 1 (°C)	0.19T ext. ref 2 (°C)	17.58length (m)	temperature (°C)	Stokes	anti-Stokes-747.200	-72.833	0.055	0.020
-746.185	374.822	0.190	0.389
-745.171	398.589	0.189	0.397
-744.156	72.822	-0.322	0.337
-743.142	-114.769	0.293	0.056
-742.127	366.556	0.141	0.286
-741.112	718.644	0.067	-0.178
-740.098	16.349	-0.140	-0.111
-739.083	-116.631	-0.261	0.048
-738.069	27.942	0.078	-0.066
-737.054	-109.499	0.211	-0.045
-736.039	-77.818	-0.145	-0.050
-735.025	277.754	0.133	0.237
-734.010	542.415	-0.107	-0.255
-732.996	-200.000	-0.055	-0.427
-731.981	263.263	0.221	-0.385
-730.966	134.968	-0.118	0.154
-729.952	-88.905	0.294	-0.087
-728.937	-95.983	-0.190	0.051
-727.923	-121.291	-0.127	-0.021
-726.908	-55.358	0.090	-0.040
-725.894	-30.176	-0.133	0.076
-724.879	42.308	-0.108	0.099
-723.864	-37.586	0.341	-0.182
-722.850	780.915	0.068	0.186
-721.835	610.807	-0.154	-0.385
-720.821	-181.614	-0.203	-0.004
-719.806	-14.160	-0.244	0.158
-718.791	800.000	-0.074	0.209
-717.777	-14.684	-0.219	0.141
-716.762	-82.818	-0.348	0.113
-715.748	800.000	-0.081	-0.295
-714.733	-23.236	0.067	0.041
-713.718	800.000	0.050	-0.170
-712.704	-200.000	0.027	-0.233
-711.689	39.919	-0.171	-0.154
-710.675	-165.156	0.183	-0.008
-709.660	-200.000	-0.010	0.271
-708.645	800.000	-0.108	-0.323
-707.631	-112.859	0.400	-0.080
-706.616	96.820	0.191	-0.219
-705.602	-200.000	0.083	0.000
-704.587	53.610	-0.084	0.081
-703.572	-134.030	0.072	-0.009
-702.558	-111.554	0.134	-0.027
-701.543	-53.804	0.235	-0.107
-700.529	-112.996	-0.276	-0.055
-699.514	-200.000	-0.007	-0.417
-698.499	-96.585	0.509	-0.134
-697.485	-77.640	0.219	-0.076
-696.470	800.000	-0.078	0.340
-695.456	251.641	0.215	0.366
-694.441	-21.440	-0.077	0.047
-693.426	174.155	-0.119	0.172
-692.412	-36.326	0.340	-0.183
-691.397	178.315	0.234	-0.342
-690.383	-200.000	-0.004	-0.527
-689.368	-74.968	0.005	0.002
-688.354	12.951	-0.214	0.165
-687.339	-87.389	0.238	-0.072
-686.324	41.325	-0.199	0.180
-685.310	551.436	-0.024	-0.057
-684.295	170.738	0.099	-0.141
-683.281	-200.000	-0.041	0.204
-682.266	495.974	0.062	-0.144
-681.251	122.461	0.206	0.258
-680.237	91.358	0.102	-0.114
-679.222	-38.004	0.101	-0.054
-678.208	800.000	-0.038	0.153
-677.193	-20.313	-0.245	-0.151
-676.178	32.298	0.240	-0.207
-675.164	748.691	-0.209	-0.564
-674.149	-53.540	-0.190	0.087
-673.135	-200.000	-0.026	-0.163
-672.120	438.477	0.095	-0.208
-671.105	-147.488	-0.201	-0.017
-670.091	-15.686	-0.078	0.050
-669.076	112.560	-0.199	-0.240
-668.062	74.853	-0.196	0.207
-667.047	-200.000	0.030	-0.245
-666.032	-65.113	0.164	0.066
-665.018	800.000	-0.052	0.164
-664.003	800.000	-0.095	0.380
-662.989	-200.000	0.024	-0.190
-661.974	104.348	0.088	0.104
-660.959	-200.000	0.009	-0.233
-659.945	-21.985	0.192	0.116
-658.930	800.000	0.042	0.118
-657.916	356.218	0.065	0.129
-656.901	-90.938	0.082	-0.024
-655.886	-169.207	0.022	-0.001
-654.872	-136.660	-0.322	0.037
-653.857	294.059	-0.069	0.127
-652.843	-141.382	-0.046	0.005
-651.828	83.516	-0.201	-0.219
-650.814	686.820	0.052	-0.137
-649.799	-189.630	-0.136	-0.002
-648.784	188.155	0.107	0.160
-647.770	800.000	-0.085	0.306
-646.755	-48.307	0.220	0.106
-645.741	-156.285	-0.371	0.023
-644.726	-200.000	0.019	0.188
-643.711	187.184	0.125	0.186
-642.697	338.282	-0.135	-0.262
-641.682	688.404	-0.055	-0.143
-640.668	35.963	-0.184	-0.162
-639.653	-5.164	-0.178	-0.123
-638.638	117.163	-0.089	-0.109
-637.624	41.676	-0.156	-0.141
-636.609	-9.088	-0.061	0.041
-635.595	800.000	0.053	-0.147
-634.580	18.132	0.176	0.141
-633.565	629.972	0.211	-0.532
-632.551	173.949	-0.135	-0.195
-631.536	-69.116	0.096	0.037
-630.522	260.736	-0.113	0.195
-629.507	-52.122	-0.051	-0.024
-628.492	-99.283	0.131	-0.033
-627.478	-80.791	-0.170	-0.057
-626.463	-73.086	-0.180	0.066
-625.449	-200.000	-0.230	-0.001
-624.434	220.502	0.262	0.420
-623.419	7.256	-0.349	-0.260
-622.405	24.668	0.193	0.160
-621.390	-200.000	-0.011	-0.158
-620.376	-101.810	0.203	0.049
-619.361	-27.663	-0.214	0.124
-618.346	-200.000	0.026	-0.224
-617.332	-7.174	0.149	0.101
-616.317	-57.694	0.329	0.144
-615.303	-200.000	0.060	0.313
-614.288	-67.354	0.159	0.062
-613.273	-51.237	0.120	0.056
-612.259	-100.847	0.253	0.062
-611.244	-200.000	0.008	0.183
-610.230	-26.602	-0.249	0.145
-609.215	72.594	-0.142	0.148
-608.201	17.192	0.128	0.101
-607.186	-64.673	0.343	-0.139
-606.171	159.253	-0.187	0.259
-605.157	-177.478	-0.119	-0.003
-604.142	-77.693	-0.121	0.042
-603.128	-41.951	0.157	-0.080
-602.113	-37.453	-0.081	0.043
-601.098	197.702	-0.097	-0.148
-600.084	62.932	0.172	-0.172
-599.069	93.338	0.142	0.160
-598.055	-200.000	0.002	0.093
-597.040	-50.335	-0.218	-0.103
-596.025	-200.000	-0.033	-0.375
-595.011	800.000	-0.034	-0.127
-593.996	800.000	0.057	-0.221
-592.982	25.384	-0.115	0.095
-591.967	-112.904	0.110	-0.022
-590.952	-132.430	-0.211	-0.027
-589.938	-200.000	-0.007	-0.093
-588.923	-47.471	0.125	0.060
-587.909	-200.000	-0.022	-0.161
-586.894	369.249	-0.082	-0.166
-585.879	-78.243	-0.195	0.067
-584.865	-175.139	-0.346	0.010
-583.850	1.000	-0.101	-0.072
-582.836	-35.363	0.096	-0.052
-581.821	-200.000	-0.052	0.295
-580.806	657.721	-0.099	0.255
-579.792	-27.207	-0.178	0.103
-578.777	-93.451	-0.283	0.078
-577.763	-119.089	-0.171	0.030
-576.748	-200.000	0.005	-0.124
-575.733	-136.286	0.205	-0.024
-574.719	800.000	-0.040	-0.171
-573.704	-200.000	0.034	-0.344
-572.690	-200.000	-0.011	0.371
-571.675	-200.000	-0.034	-0.231
-570.661	-82.183	-0.189	-0.061
-569.646	34.912	-0.126	-0.110
-568.631	-89.757	0.353	-0.103
-567.617	55.087	-0.065	-0.063
-566.602	183.722	0.197	-0.290
-565.588	-128.959	-0.193	-0.027
-564.573	-200.000	-0.020	0.214
-563.558	364.381	0.186	-0.372
-562.544	-200.000	0.020	0.180
-561.529	323.270	0.044	-0.084
-560.515	-52.811	-0.593	-0.272
-559.500	-57.586	0.180	0.079
-558.485	-200.000	-0.061	-0.424
-557.471	-200.000	-0.069	-0.403
-556.456	235.190	-0.134	0.220
-555.442	-80.768	-0.039	0.013
-554.427	436.229	-0.115	-0.249
-553.412	-136.811	0.316	-0.036
-552.398	-2.451	0.203	-0.142
-551.383	-79.825	0.294	0.098
-550.369	-200.000	0.001	0.124
-549.354	-200.000	0.026	0.385
-548.339	-200.000	0.024	-0.109
-547.325	-200.000	-0.055	-0.290
-546.310	-69.366	-0.146	0.056
-545.296	-66.076	0.095	0.038
-544.281	46.094	-0.026	0.024
-543.266	-76.727	0.147	0.051
-542.252	-200.000	-0.094	-0.414
-541.237	28.231	0.183	-0.154
-540.223	193.886	-0.168	0.254
-539.208	800.000	-0.092	0.276
-538.193	-47.043	0.134	0.065
-537.179	-116.532	0.124	-0.023
-536.164	204.442	0.023	-0.035
-535.150	330.591	-0.095	-0.182
-534.135	-106.992	-0.332	0.073
-533.121	-92.796	-0.093	0.026
-532.106	-98.998	-0.494	-0.125
-531.091	229.069	-0.137	0.222
-530.077	637.234	-0.208	-0.525
-529.062	-200.000	-0.035	-0.194
-528.048	22.227	0.052	0.043
-527.033	111.187	-0.111	-0.133
-526.018	-137.531	-0.097	0.011
-525.004	-78.474	0.140	0.048
-523.989	-200.000	0.001	0.124
-522.975	335.891	-0.057	-0.111
-521.960	800.000	0.125	0.470
-520.945	-98.077	-0.418	-0.107
-519.931	55.816	0.137	0.132
-518.916	-95.439	-0.373	-0.100
-517.902	69.894	0.151	-0.155
-516.887	-8.170	-0.356	-0.238
-515.872	80.588	-0.065	-0.070
-514.858	283.990	0.207	0.370
-513.843	-200.000	-0.024	0.145
-512.829	25.672	0.058	0.048
-511.814	118.149	-0.006	0.007
-510.799	800.000	-0.053	-0.173
-509.785	-95.712	0.202	-0.054
-508.770	-24.284	0.117	-0.069
-507.756	-173.700	0.158	-0.005
-506.741	102.279	-0.035	-0.040
-505.726	-70.050	0.097	-0.037
-504.712	95.746	-0.128	0.145
-503.697	300.445	-0.036	0.066
-502.683	-193.269	0.198	0.002
-501.668	15.504	-0.106	0.083
-500.653	-200.000	-0.010	0.266
-499.639	61.841	-0.144	0.142
-498.624	-28.613	0.071	0.041
-497.610	191.974	-0.072	-0.107
-496.595	800.000	0.092	-0.398
-495.581	-160.241	-0.270	0.014
-494.566	-9.993	-0.094	0.062
-493.551	44.016	-0.147	-0.134
-492.537	-4.938	-0.183	0.125
-491.522	-160.127	-0.147	-0.008
-490.508	-20.467	-0.121	0.074
-489.493	-65.027	-0.409	0.164
-488.478	-133.237	-0.135	0.017
-487.464	-88.190	-0.112	-0.033
-486.449	-142.884	0.297	0.029
-485.435	-106.213	-0.186	-0.042
-484.420	-200.000	-0.035	0.328
-483.405	-13.568	0.439	-0.282
-482.391	34.865	0.140	-0.122
-481.376	-0.627	0.569	-0.401
-480.362	341.270	0.217	-0.422
-479.347	-114.605	-0.364	0.069
-478.332	800.000	-0.040	0.149
-477.318	365.697	0.079	-0.159
-476.303	-11.005	-0.110	-0.072
-475.289	-167.448	-0.207	0.008
-474.274	454.010	0.124	0.272
-473.259	1.020	-0.177	0.126
-472.245	309.840	-0.063	0.117
-471.230	682.474	0.120	0.310
-470.216	13.779	-0.210	-0.162
-469.201	358.446	-0.127	0.251
-468.186	-200.000	0.003	0.040
-467.172	84.922	-0.199	-0.216
-466.157	800.000	0.071	0.297
-465.143	-137.364	0.220	0.025
-464.128	-86.081	-0.269	-0.082
-463.113	411.747	-0.058	-0.123
-462.099	-3.649	0.181	0.125
-461.084	800.000	0.021	-0.076
-460.070	-200.000	0.044	0.246
-459.055	-166.763	0.067	0.003
-458.040	800.000	0.015	0.049
-457.026	-35.835	-0.151	0.081
-456.011	-157.032	0.158	-0.010
-454.997	495.839	-0.079	-0.180
-453.982	-44.655	-0.177	-0.088
-452.968	-200.000	0.016	0.275
-451.953	-154.115	0.220	-0.015
-450.938	-70.949	-0.136	0.051
-449.924	800.000	0.034	-0.109
-448.909	733.154	0.086	0.228
-447.895	-56.156	-0.113	-0.050
-446.880	-135.052	0.115	0.014
-445.865	29.577	-0.148	0.125
-444.851	-200.000	-0.005	0.175
-443.836	-6.471	-0.166	-0.112
-442.822	-85.218	0.161	0.050
-441.807	582.368	-0.090	-0.219
-440.792	-7.926	0.187	0.125
-439.778	-200.000	0.003	-0.046
-438.763	800.000	0.069	-0.238
-437.749	-90.386	0.182	-0.052
-436.734	-127.137	-0.114	-0.017
-435.719	-200.000	0.004	-0.021
-434.705	222.938	0.060	0.095
-433.690	-200.000	-0.004	0.117
-432.676	666.479	0.082	0.209
-431.661	19.987	0.332	0.265
-430.646	-16.783	0.038	0.024
-429.632	-69.464	0.021	-0.008
-428.617	1.963	0.017	-0.012
-427.603	385.296	0.104	0.212
-426.588	-200.000	0.062	-0.344
-425.573	326.575	0.034	0.065
-424.559	-200.000	-0.008	-0.157
-423.544	185.558	0.205	-0.301
-422.530	-26.185	0.251	-0.146
-421.515	-95.327	-0.141	0.038
-420.500	69.885	0.171	-0.175
-419.486	72.382	-0.108	-0.112
-418.471	344.431	-0.116	0.225
-417.457	800.000	-0.135	0.391
-416.442	-146.754	-0.171	0.015
-415.428	-141.396	-0.221	-0.022
-414.413	619.258	0.077	-0.192
-413.398	800.000	-0.022	-0.063
-412.384	592.820	0.100	0.244
-411.369	-200.000	-0.034	-0.280
-410.355	-200.000	-0.011	0.118
-409.340	800.000	0.047	0.145
-408.325	299.700	-0.097	0.176
-407.311	-200.000	-0.011	0.198
-406.296	148.301	0.148	-0.198
-405.282	229.477	0.108	-0.174
-404.267	288.520	0.071	-0.127
-403.252	-55.385	-0.409	-0.182
-402.238	-67.676	0.026	0.010
-401.223	0.959	-0.176	-0.125
-400.209	238.465	0.083	-0.136
-399.194	-26.903	-0.132	-0.076
-398.179	-14.384	0.148	0.094
-397.165	159.693	-0.119	0.165
-396.150	116.595	0.187	-0.227
-395.136	213.785	0.165	0.259
-394.121	-118.784	0.175	0.031
-393.106	-200.000	-0.034	0.257
-392.092	40.490	-0.302	-0.270
-391.077	-150.767	0.414	-0.031
-390.063	-200.000	-0.074	0.000
-389.048	783.773	-0.117	-0.316
-388.033	800.000	-0.085	-0.358
-387.019	800.000	0.040	0.169
-386.004	526.506	-0.069	0.160
-384.990	-75.958	-0.125	0.044
-383.975	20.785	0.211	-0.169
-382.960	-26.822	0.129	0.075
-381.946	800.000	0.138	0.475
-380.931	-2.953	-0.133	0.092
-379.917	-45.624	-0.163	-0.080
-378.902	608.734	0.036	-0.088
-377.888	52.560	0.016	-0.015
-376.873	-200.000	0.034	-0.397
-375.858	800.000	0.128	-0.401
-374.844	-200.000	0.013	-0.118
-373.829	473.605	0.090	0.201
-372.815	492.325	-0.017	0.038
-371.800	114.066	0.188	0.226
-370.785	139.345	0.090	0.117
-369.771	-44.606	0.107	0.053
-368.756	-81.617	-0.074	0.024
-367.742	-200.000	-0.027	0.201
-366.727	197.905	-0.080	-0.122
-365.712	-53.668	-0.341	-0.154
-364.698	-125.972	0.027	-0.004
-363.683	150.853	-0.083	-0.111
-362.669	-53.075	0.027	-0.012
-361.654	-87.713	-0.302	-0.090
-360.639	800.000	-0.109	0.335
-359.625	14.387	0.324	-0.250
-358.610	-16.707	-0.119	-0.074
-357.596	-73.222	0.109	0.039
-356.581	-111.440	0.065	-0.013
-355.566	-101.719	0.169	0.040
-354.552	134.412	0.128	0.164
-353.537	-148.202	-0.168	0.014
-352.523	-200.000	0.044	0.517
-351.508	430.407	0.035	-0.074
-350.493	800.000	-0.088	-0.377
-349.479	-200.000	-0.021	0.091
-348.464	87.994	0.217	-0.238
-347.450	-112.015	0.275	0.055
-346.435	579.190	0.067	-0.162
-345.420	-200.000	0.017	-0.169
-344.406	-100.110	-0.012	-0.003
-343.391	339.595	-0.110	-0.211
-342.377	-19.642	-0.329	0.201
-341.362	-165.494	0.353	-0.015
-340.348	11.923	-0.192	-0.146
-339.333	-169.275	-0.153	0.006
-338.318	-200.000	0.001	-0.194
-337.304	477.231	-0.139	0.310
-336.289	-200.000	0.037	0.193
-335.275	196.226	-0.073	0.110
-334.260	800.000	-0.068	-0.208
-333.245	-22.003	0.322	-0.193
-332.231	-117.415	-0.262	0.047
-331.216	143.317	-0.050	-0.066
-330.202	-119.925	-0.154	-0.026
-329.187	13.979	0.131	0.101
-328.172	-117.821	-0.163	-0.029
-327.158	-103.439	-0.324	0.075
-326.143	-14.807	0.323	0.204
-325.129	-167.982	0.164	-0.006
-324.114	-22.608	0.128	0.076
-323.099	-200.000	0.006	0.167
-322.085	-135.577	-0.398	0.047
-321.070	-60.458	0.057	0.024
-320.056	170.207	-0.162	0.228
-319.041	776.828	-0.069	0.187
-318.026	10.576	0.242	0.182
-317.012	53.173	-0.097	0.091
-315.997	207.819	0.120	0.186
-314.983	518.398	-0.024	-0.056
-313.968	-101.934	0.299	-0.071
-312.953	-200.000	0.021	0.308
-311.939	103.682	0.255	0.295
-310.924	800.000	-0.058	-0.175
-309.910	-200.000	-0.059	-0.416
-308.895	289.710	-0.155	0.278
-307.880	800.000	0.015	0.047
-306.866	-75.540	-0.153	0.054
-305.851	-41.687	-0.080	-0.041
-304.837	800.000	-0.030	0.087
-303.822	-152.535	-0.146	-0.010
-302.807	-92.122	-0.369	-0.103
-301.793	-170.460	0.355	-0.012
-300.778	-200.000	-0.004	-0.127
-299.764	-12.514	-0.246	-0.158
-298.749	-171.686	0.084	0.003
-297.735	800.000	0.067	-0.282
-296.720	153.924	0.279	-0.378
-295.705	59.113	0.153	-0.148
-294.691	109.746	0.127	-0.151
-293.676	-28.474	-0.133	-0.075
-292.662	83.542	0.205	0.221
-291.647	115.287	-0.298	-0.359
-290.632	337.719	0.101	-0.193
-289.618	-57.695	-0.169	0.073
-288.603	-77.441	-0.488	0.167
-287.589	-122.456	0.200	-0.032
-286.574	-45.546	-0.317	0.155
-285.559	103.748	-0.083	-0.096
-284.545	800.000	-0.014	-0.043
-283.530	-200.000	-0.012	-0.197
-282.516	136.805	0.258	-0.332
-281.501	800.000	-0.027	-0.086
-280.486	125.566	0.115	0.143
-279.472	-200.000	0.063	0.356
-278.457	138.246	0.211	-0.272
-277.443	-200.000	-0.004	0.185
-276.428	800.000	-0.043	0.176
-275.413	-5.192	-0.378	0.256
-274.399	-200.000	0.003	-0.103
-273.384	249.474	0.048	0.080
-272.370	800.000	-0.070	0.190
-271.355	30.752	0.226	-0.190
-270.340	-18.466	-0.311	-0.191
-269.326	286.156	-0.029	-0.051
-268.311	-200.000	0.015	0.108
-267.297	-200.000	0.011	0.367
-266.282	26.006	0.161	0.133
-265.267	800.000	0.022	0.068
-264.253	-18.849	0.326	-0.200
-263.238	-200.000	0.028	-0.180
-262.224	-105.461	0.118	-0.026
-261.209	800.000	-0.062	-0.232
-260.195	800.000	-0.095	0.263
-259.180	762.213	-0.052	0.140
-258.165	3.348	0.067	-0.048
-257.151	81.155	0.124	0.132
-256.136	-60.817	0.471	0.196
-255.122	-67.211	-0.419	-0.162
-254.107	-38.364	0.377	0.196
-253.092	-200.000	0.065	0.374
-252.078	800.000	-0.087	0.267
-251.063	-200.000	-0.002	0.127
-250.049	800.000	-0.048	0.132
-249.034	-144.386	0.126	0.012
-248.019	-200.000	0.018	-0.249
-247.005	75.763	0.080	0.083
-245.990	-23.739	0.211	0.124
-244.976	-200.000	0.060	0.413
-243.961	-18.876	0.160	0.098
-242.946	45.021	-0.094	-0.085
-241.932	-134.931	0.180	0.021
-240.917	-90.432	-0.173	-0.049
-239.903	125.818	0.233	0.289
-238.888	-69.111	0.294	-0.111
-237.873	595.150	0.075	-0.182
-236.859	-200.000	-0.088	0.000
-235.844	-129.748	-0.137	0.018
-234.830	53.700	-0.206	-0.194
-233.815	-146.696	0.184	-0.016
-232.800	150.278	-0.032	-0.043
-231.786	-18.750	-0.053	-0.033
-230.771	-126.465	-0.034	0.005
-229.757	49.251	0.242	0.223
-228.742	82.458	0.174	0.185
-227.727	-69.289	-0.148	-0.056
-226.713	-200.000	0.009	-0.336
-225.698	-130.187	0.117	0.016
-224.684	-36.616	0.172	0.091
-223.669	-29.988	0.323	-0.181
-222.655	43.689	0.331	-0.297
-221.640	39.714	0.229	0.202
-220.625	18.511	0.181	-0.143
-219.611	-38.320	0.095	0.050
-218.596	31.945	-0.303	-0.256
-217.582	800.000	-0.034	0.113
-216.567	-103.914	0.250	-0.057
-215.552	28.047	0.163	-0.135
-214.538	14.607	-0.222	0.171
-213.523	524.703	-0.059	-0.135
-212.509	126.540	0.166	-0.207
-211.494	76.684	0.141	-0.147
-210.479	9.804	0.235	-0.175
-209.465	104.789	0.142	0.164
-208.450	-179.410	-0.100	0.002
-207.436	-200.000	-0.026	-0.166
-206.421	-101.028	0.223	0.054
-205.406	93.476	-0.263	0.293
-204.392	31.132	0.053	0.045
-203.377	-108.045	-0.111	0.024
-202.363	-54.419	0.218	0.097
-201.348	-83.762	0.267	0.084
-200.333	-109.527	-0.288	0.060
-199.319	31.727	0.052	0.044
-198.304	-200.000	-0.015	0.145
-197.290	800.000	-0.062	-0.225
-196.275	-0.608	-0.199	-0.139
-195.260	280.195	0.167	0.293
-194.246	-32.585	-0.163	-0.089
-193.231	-75.350	0.489	-0.171
-192.217	-68.935	0.122	-0.046
-191.202	-134.654	-0.396	-0.047
-190.187	-200.000	0.024	0.188
-189.173	-99.773	0.228	0.056
-188.158	-39.239	-0.150	0.077
-187.144	0.133	-0.125	0.088
-186.129	-200.000	0.033	-0.200
-185.114	124.000	0.057	0.070
-184.100	128.313	-0.271	0.338
-183.085	23.068	-0.181	-0.146
-182.071	54.129	-0.060	-0.056
-181.056	800.000	0.134	-0.403
-180.042	391.814	0.043	-0.087
-179.027	-83.595	-0.247	0.077
-178.012	-12.205	0.143	0.092
-176.998	-183.267	0.117	-0.002
-175.983	-200.000	0.071	-0.357
-174.969	10.518	0.315	0.235
-173.954	223.056	-0.087	0.137
-172.939	-153.691	-0.116	-0.008
-171.925	-115.675	0.152	0.028
-170.910	430.898	0.051	-0.107
-169.896	379.645	0.081	0.163
-168.881	800.000	-0.051	-0.170
-167.866	-200.000	0.006	-0.241
-166.852	790.411	-0.168	0.454
-165.837	94.959	-0.157	-0.175
-164.823	415.903	-0.158	0.329
-163.808	-83.273	0.102	-0.032
-162.793	370.280	0.089	0.177
-161.779	-115.209	-0.093	0.017
-160.764	-50.800	-0.293	-0.135
-159.750	327.809	0.060	-0.113
-158.735	-9.786	-0.207	-0.135
-157.720	71.641	0.187	0.191
-156.706	-200.000	0.037	0.231
-155.691	-200.000	0.005	0.171
-154.677	-200.000	-0.053	-0.403
-153.662	15.998	0.343	0.265
-152.647	-26.890	0.326	0.186
-151.633	-38.935	-0.126	0.065
-150.618	-56.964	0.108	0.047
-149.604	-21.462	-0.095	-0.057
-148.589	329.378	0.046	-0.087
-147.574	88.107	-0.050	-0.055
-146.560	298.040	-0.128	0.230
-145.545	-136.620	0.135	-0.015
-144.531	393.327	-0.044	0.091
-143.516	800.000	0.150	0.422
-142.502	-51.820	0.152	0.069
-141.487	-116.492	-0.268	0.049
-140.472	348.481	0.024	0.046
-139.458	57.355	0.156	-0.149
-138.443	800.000	0.038	-0.159
-137.429	427.865	0.094	-0.200
-136.414	475.174	-0.083	0.184
-135.399	27.271	-0.278	-0.229
-134.385	-45.670	-0.188	-0.091
-133.370	-200.000	-0.016	0.108
-132.356	-166.956	0.105	0.004
-131.341	-173.319	-0.206	-0.006
-130.326	-165.804	0.326	0.014
-129.312	-111.000	0.228	-0.046
-128.297	-136.619	0.315	-0.036
-127.283	-19.935	0.276	-0.167
-126.268	-52.983	-0.332	-0.150
-125.253	-200.000	0.008	-0.179
-124.239	-200.000	0.049	0.288
-123.224	800.000	-0.028	0.104
-122.210	165.572	0.051	-0.070
-121.195	800.000	-0.096	-0.282
