DTS Sentinel unit serial number:	SN413079Multiplexer serial number:	ORYXHardware model number:	OX4-SRSoftware version number:	ORYX F/W v4.00 Oryx Data Collector v3.7.2.0data status	okinstallation	princeton_trtdifferential loss correction	single-endedforward channel	channel 1reverse channel	N/Adate	2019/09/11time	13:32:11forward acquisition time	60.00reverse acquisition time	0.00gamma	496.2192k internal	0.2295k external	0.2295temperature offset calibration	0.9979default loss term (dB/km)	0.3790temperature slope calibration	1.0000multiplexer offset coefficient	1.0000multiplexer slope coefficient	1.0000fibre end	0.00T internal ref (°C)	41.98T ext. ref 1 (°C)	0.83T ext. ref 2 (°C)	37.19length (m)	temperature (°C)	Stokes	anti-Stokes-747.200	305.120	-0.091	0.173
-746.185	38.951	-0.359	0.328
-745.171	-24.897	0.147	0.089
-744.156	-200.000	-0.003	0.171
-743.142	-86.659	-0.310	0.097
-742.127	391.211	-0.164	0.348
-741.112	-93.626	0.333	0.094
-740.098	21.243	0.148	-0.123
-739.083	145.832	0.035	0.048
-738.069	-174.972	0.206	-0.006
-737.054	-200.000	0.037	0.426
-736.039	-62.168	0.178	-0.076
-735.025	400.033	-0.091	0.195
-734.010	-31.473	-0.344	0.198
-732.996	-41.760	-0.201	0.106
-731.981	-200.000	-0.022	0.228
-730.966	-200.000	0.049	-0.587
-729.952	-110.366	0.058	0.012
-728.937	144.750	-0.063	-0.085
-727.923	-56.166	-0.193	-0.088
-726.908	-31.426	0.243	-0.140
-725.894	-185.945	-0.081	0.001
-724.879	63.070	0.269	-0.276
-723.864	-55.230	-0.224	-0.103
-722.850	-183.485	0.206	-0.004
-721.835	11.291	-0.124	0.097
-720.821	-54.742	0.072	0.033
-719.806	-3.049	0.113	0.081
-718.791	-200.000	-0.012	-0.222
-717.777	142.238	-0.141	-0.191
-716.762	-42.516	-0.132	0.069
-715.748	123.533	-0.066	-0.084
-714.733	-108.797	0.164	-0.036
-713.718	4.936	-0.209	-0.157
-712.704	-11.113	0.035	-0.024
-711.689	32.474	-0.084	0.074
-710.675	-19.338	0.175	-0.111
-709.660	-200.000	-0.021	-0.179
-708.645	-200.000	-0.012	-0.093
-707.631	124.227	0.160	0.205
-706.616	54.380	0.106	0.105
-705.602	800.000	0.027	0.092
-704.587	115.402	-0.161	-0.201
-703.572	800.000	0.155	-0.478
-702.558	-200.000	0.012	0.336
-701.543	-121.970	-0.129	0.022
-700.529	525.243	-0.070	-0.168
-699.514	800.000	0.098	-0.293
-698.499	296.977	0.032	0.060
-697.485	7.866	0.120	0.092
-696.470	-50.115	0.202	0.098
-695.456	49.510	0.159	-0.152
-694.441	-200.000	0.038	-0.198
-693.426	-200.000	-0.044	0.200
-692.412	-200.000	0.009	0.212
-691.397	-140.581	0.244	0.026
-690.383	-200.000	-0.045	-0.225
-689.368	-123.248	0.131	0.021
-688.354	150.666	0.254	-0.351
-687.339	-103.869	-0.274	0.065
-686.324	339.647	0.177	-0.352
-685.310	630.234	0.187	-0.483
-684.295	107.425	-0.210	0.255
-683.281	-200.000	-0.004	0.045
-682.266	28.771	-0.220	-0.190
-681.251	-91.020	0.078	0.023
-680.237	44.164	-0.117	-0.109
-679.222	-39.793	-0.114	-0.061
-678.208	-58.968	-0.118	0.052
-677.193	589.175	0.101	-0.255
-676.178	-59.712	-0.227	-0.099
-675.164	56.553	0.294	-0.291
-674.149	-200.000	-0.003	-0.240
-673.135	-41.137	-0.120	-0.063
-672.120	800.000	-0.026	-0.088
-671.105	-17.782	-0.096	-0.061
-670.091	-200.000	0.003	0.028
-669.076	-200.000	-0.003	-0.070
-668.062	264.407	0.052	-0.091
-667.047	-65.791	-0.257	0.105
-666.032	-149.856	0.285	0.023
-665.018	224.562	0.122	-0.201
-664.003	86.720	0.293	-0.329
-662.989	141.463	-0.177	-0.239
-661.974	-26.107	-0.215	0.129
-660.959	-200.000	-0.029	0.490
-659.945	-158.897	-0.170	-0.010
-658.930	-200.000	-0.141	0.000
-657.916	60.218	0.211	0.212
-656.901	-64.363	-0.217	-0.090
-655.886	-200.000	0.011	-0.160
-654.872	-200.000	-0.077	-0.442
-653.857	-200.000	0.085	-0.381
-652.843	32.969	0.224	0.198
-651.828	119.686	0.379	0.478
-650.814	-148.771	-0.223	0.018
-649.799	-115.760	-0.063	-0.012
-648.784	-139.878	0.163	0.018
-647.770	800.000	-0.082	-0.310
-646.755	-55.481	0.373	-0.170
-645.741	112.896	0.030	-0.038
-644.726	-200.000	0.010	0.059
-643.711	-4.000	0.202	0.143
-642.697	100.620	-0.113	0.134
-641.682	-80.745	0.246	-0.083
-640.668	-200.000	-0.025	0.325
-639.653	-55.283	-0.192	-0.088
-638.638	-200.000	-0.027	-0.374
-637.624	-172.213	0.306	0.010
-636.609	-190.748	0.504	-0.005
-635.595	800.000	-0.044	0.129
-634.580	193.023	0.111	0.171
-633.565	-200.000	-0.040	-0.270
-632.551	180.916	0.163	-0.244
-631.536	-34.698	-0.320	-0.178
-630.522	-200.000	-0.044	0.334
-629.507	-114.302	-0.421	0.083
-628.492	131.588	-0.108	-0.141
-627.478	304.222	0.256	0.484
-626.463	-12.908	-0.255	-0.169
-625.449	800.000	0.141	0.419
-624.434	-77.312	0.342	0.121
-623.419	-50.545	0.354	-0.170
-622.405	-50.928	-0.113	-0.054
-621.390	-16.166	-0.287	-0.186
-620.376	-38.946	-0.204	0.109
-619.361	-123.607	-0.166	0.027
-618.346	-121.296	0.162	-0.028
-617.332	388.162	0.125	-0.264
-616.317	-200.000	-0.029	0.154
-615.303	-183.864	-0.176	0.003
-614.288	56.395	0.273	0.270
-613.273	-158.167	-0.323	-0.019
-612.259	36.950	0.071	-0.064
-611.244	83.950	0.188	-0.209
-610.230	-59.611	-0.282	0.123
-609.215	800.000	-0.055	0.224
-608.201	427.862	0.066	0.144
-607.186	-149.970	-0.347	0.027
-606.171	-103.160	0.406	0.098
-605.157	800.000	0.069	0.241
-604.142	-0.557	0.396	-0.286
-603.128	-97.806	-0.232	-0.061
-602.113	228.919	-0.155	-0.256
-601.098	17.787	0.116	0.094
-600.084	-200.000	-0.005	-0.254
-599.069	-122.192	0.294	-0.049
-598.055	800.000	0.055	-0.174
-597.040	92.683	0.193	-0.222
-596.025	44.788	-0.232	-0.217
-595.011	13.956	-0.081	0.064
-593.996	-3.186	-0.148	0.105
-592.982	-129.581	0.164	-0.023
-591.967	800.000	-0.076	-0.282
-590.952	-200.000	0.018	0.380
-589.938	350.994	-0.141	0.284
-588.923	-200.000	-0.008	-0.116
-587.909	800.000	-0.021	0.082
-586.894	72.351	-0.212	0.224
-585.879	-101.862	0.258	0.064
-584.865	-79.083	-0.028	0.010
-583.850	97.761	-0.136	-0.158
-582.836	374.298	0.161	0.334
-581.821	79.068	-0.117	-0.128
-580.806	564.612	-0.123	-0.302
-579.792	-75.150	-0.192	0.070
-578.777	-12.019	-0.332	0.221
-577.763	153.624	0.022	0.031
-576.748	-29.830	-0.272	0.158
-575.733	-93.601	-0.160	0.045
-574.719	441.129	0.107	-0.237
-573.704	158.124	-0.165	-0.233
-572.690	442.801	-0.069	0.155
-571.675	-36.943	0.151	-0.082
-570.661	-114.347	-0.295	0.058
-569.646	-200.000	-0.009	-0.041
-568.631	78.103	0.176	0.191
-567.617	800.000	-0.079	0.239
-566.602	-40.059	-0.087	0.046
-565.588	-126.802	-0.260	0.039
-564.573	800.000	0.080	-0.305
-563.558	-124.196	-0.160	0.025
-562.544	-26.218	-0.202	-0.121
-561.529	-0.975	0.252	-0.181
-560.515	33.768	-0.232	-0.205
-559.500	-151.651	-0.186	-0.014
-558.485	108.517	-0.145	-0.176
-557.471	166.466	0.071	-0.103
-556.456	-83.018	0.300	0.098
-555.442	800.000	-0.102	-0.454
-554.427	-43.420	-0.184	-0.094
-553.412	36.643	0.042	-0.037
-552.398	489.443	-0.046	-0.106
-551.383	-200.000	0.003	-0.145
-550.369	302.713	-0.058	0.109
-549.354	28.538	0.079	0.068
-548.339	-98.607	-0.529	-0.137
-547.325	-7.402	-0.231	-0.159
-546.310	30.230	-0.107	-0.093
-545.296	800.000	-0.090	-0.367
-544.281	3.130	-0.081	-0.060
-543.266	-200.000	-0.005	0.125
-542.252	241.518	-0.054	0.092
-541.237	300.689	-0.185	-0.347
-540.223	23.494	0.217	0.181
-539.208	-70.722	0.110	-0.042
-538.193	56.853	-0.195	-0.192
-537.179	-37.342	0.253	0.137
-536.164	-92.227	0.517	-0.148
-535.150	-200.000	-0.003	0.042
-534.135	-200.000	-0.020	-0.437
-533.121	64.390	0.051	0.052
-532.106	-181.733	0.202	-0.004
-531.091	291.858	-0.083	0.152
-530.077	-50.840	-0.383	0.183
-529.062	-90.492	-0.344	-0.101
-528.048	122.728	-0.146	-0.185
-527.033	-200.000	-0.030	0.181
-526.018	-151.282	-0.226	-0.017
-525.004	-200.000	-0.021	-0.417
-523.989	800.000	-0.151	0.483
-522.975	760.548	0.042	-0.117
-521.960	-72.219	0.195	-0.073
-520.945	586.183	0.073	-0.182
-519.931	-200.000	0.030	-0.290
-518.916	-113.001	-0.191	0.038
-517.902	62.877	-0.157	0.159
-516.887	-11.485	-0.218	-0.146
-515.872	136.910	-0.276	-0.365
-514.858	-83.111	0.448	-0.146
-513.843	800.000	-0.093	0.280
-512.829	-200.000	-0.001	0.197
-511.814	-62.288	-0.438	0.185
-510.799	-200.000	0.048	-0.311
-509.785	58.709	0.058	-0.057
-508.770	-109.083	-0.245	0.053
-507.756	259.707	0.101	0.177
-506.741	-78.965	-0.317	0.109
-505.726	-65.863	0.134	-0.054
-504.712	800.000	0.048	0.159
-503.697	201.849	0.196	0.305
-502.683	-200.000	0.045	0.353
-501.668	738.114	-0.172	0.466
-500.653	13.704	0.093	0.073
-499.639	-200.000	0.033	-0.150
-498.624	800.000	-0.015	-0.055
-497.610	611.207	0.056	-0.142
-496.595	-122.679	-0.218	0.036
-495.581	-60.975	-0.080	0.034
-494.566	29.240	0.160	0.138
-493.551	-95.533	0.249	0.068
-492.537	-200.000	0.044	-0.227
-491.522	10.749	0.210	-0.162
-490.508	-60.566	0.192	-0.083
-489.493	511.862	0.038	-0.090
-488.478	474.283	0.048	0.110
-487.464	160.266	-0.176	0.248
-486.449	429.060	-0.113	0.248
-485.435	-200.000	0.031	-0.192
-484.420	-200.000	0.039	-0.437
-483.405	-36.372	0.329	0.180
-482.391	-89.645	-0.132	0.039
-481.376	-7.611	-0.195	0.133
-480.362	249.028	0.190	-0.326
-479.347	388.323	-0.105	0.220
-478.332	104.029	0.097	0.116
-477.318	-25.841	-0.103	-0.061
-476.303	-200.000	0.009	-0.260
-475.289	57.848	-0.308	-0.304
-474.274	69.342	-0.155	-0.161
-473.259	-194.467	0.136	0.001
-472.245	800.000	0.109	-0.315
-471.230	-34.824	0.358	0.198
-470.216	-122.839	0.104	-0.017
-469.201	344.200	0.077	-0.152
-468.186	3.723	0.135	-0.100
-467.172	-78.131	-0.226	0.079
-466.157	121.179	0.096	0.121
-465.143	-178.066	0.313	-0.008
-464.128	-88.563	-0.556	0.167
-463.113	-200.000	-0.001	0.053
-462.099	-155.164	-0.185	0.012
-461.084	114.529	-0.070	-0.086
-460.070	800.000	0.115	0.397
-459.055	-51.710	-0.099	-0.047
-458.040	89.344	-0.195	-0.220
-457.026	26.254	0.133	-0.113
-456.011	-100.232	0.245	-0.062
-454.997	152.507	0.037	0.051
-453.982	130.368	-0.185	0.239
-452.968	-46.052	0.382	0.190
-451.953	-200.000	-0.002	0.286
-450.938	-200.000	-0.042	0.232
-449.924	187.648	0.127	0.191
-448.909	110.107	-0.189	0.229
-447.895	157.031	0.165	-0.230
-446.880	726.442	0.009	0.025
-445.865	-3.764	0.083	0.058
-444.851	-200.000	-0.049	0.219
-443.836	-42.165	0.217	-0.112
-442.822	19.470	0.375	-0.305
-441.807	-200.000	0.066	0.349
-440.792	-155.114	0.239	0.016
-439.778	800.000	0.006	-0.024
-438.763	-71.646	0.137	-0.052
-437.749	-63.887	0.161	-0.067
-436.734	154.086	-0.030	0.041
-435.719	332.231	0.180	0.350
-434.705	800.000	0.058	-0.185
-433.690	354.303	0.062	-0.125
-432.676	-200.000	0.012	-0.340
-431.661	800.000	0.111	-0.366
-430.646	66.442	-0.006	-0.006
-429.632	-111.079	-0.042	0.009
-428.617	-64.087	0.166	-0.068
-427.603	-70.471	0.266	0.102
-426.588	-200.000	-0.043	0.222
-425.573	-151.917	-0.126	-0.009
-424.559	-200.000	-0.018	-0.370
-423.544	-200.000	-0.007	-0.293
-422.530	61.250	-0.296	-0.297
-421.515	96.173	-0.228	-0.263
-420.500	-115.392	0.079	-0.015
-419.486	190.448	-0.082	-0.124
-418.471	-146.773	0.207	-0.018
-417.457	235.207	0.151	0.252
-416.442	-11.436	-0.169	0.112
-415.428	23.818	-0.330	-0.274
-414.413	509.446	-0.255	0.599
-413.398	-160.885	0.171	0.009
-412.384	161.895	0.233	0.330
-411.369	-123.802	0.210	0.034
-410.355	-0.177	-0.129	0.093
-409.340	425.443	0.137	0.297
-408.325	102.547	-0.142	0.167
-407.311	105.256	-0.104	-0.123
-406.296	-113.677	0.296	0.058
-405.282	160.712	-0.149	0.210
-404.267	22.415	0.127	-0.105
-403.252	800.000	0.051	-0.154
-402.238	-56.877	-0.301	0.134
-401.223	62.526	-0.258	-0.260
-400.209	79.519	-0.076	-0.082
-399.194	-37.324	0.146	-0.079
-398.179	40.390	-0.042	-0.038
-397.165	149.412	0.140	-0.191
-396.150	-200.000	-0.057	-0.447
-395.136	-126.612	0.132	-0.020
-394.121	752.327	0.040	0.110
-393.106	-87.290	-0.264	-0.081
-392.092	10.222	-0.281	0.215
-391.077	-193.959	0.225	-0.002
-390.063	68.188	0.137	0.141
-389.048	434.207	0.108	-0.237
-388.033	-35.053	0.279	-0.153
-387.019	-53.660	-0.099	0.046
-386.004	-190.670	-0.033	0.000
-384.990	-28.117	-0.148	0.086
-383.975	-148.684	-0.269	-0.022
-382.960	-99.546	0.089	0.022
-381.946	-16.343	0.004	-0.003
-380.931	136.553	-0.210	-0.276
-379.917	231.780	-0.096	-0.159
-378.902	-170.138	0.090	-0.003
-377.888	-82.219	0.052	0.017
-376.873	520.156	0.139	-0.329
-375.858	626.818	0.192	-0.487
-374.844	377.490	-0.089	-0.183
-373.829	-115.071	-0.291	-0.056
-372.815	325.671	-0.164	0.316
-371.800	-200.000	0.007	-0.204
-370.785	-67.253	-0.205	-0.081
-369.771	44.089	-0.122	-0.113
-368.756	-200.000	0.024	-0.257
-367.742	19.842	0.054	0.044
-366.727	-30.083	0.339	-0.195
-365.712	-106.366	0.224	-0.050
-364.698	-200.000	-0.060	0.275
-363.683	-119.089	0.486	-0.086
-362.669	800.000	0.050	0.144
-361.654	-151.709	-0.169	-0.013
-360.639	-200.000	0.073	-0.375
-359.625	650.560	0.027	-0.070
-358.610	-200.000	0.038	0.410
-357.596	560.333	-0.096	-0.235
-356.581	-200.000	-0.008	-0.272
-355.566	355.804	0.087	-0.174
-354.552	800.000	-0.108	0.378
-353.537	-172.086	0.117	-0.004
-352.523	116.820	-0.249	-0.308
-351.508	-156.287	-0.351	0.022
-350.493	-200.000	0.005	-0.316
-349.479	-107.262	-0.162	-0.036
-348.464	71.071	-0.225	-0.234
-347.450	65.230	0.059	-0.060
-346.435	-168.420	-0.270	0.010
-345.420	-200.000	-0.017	-0.260
-344.406	-14.232	0.183	0.119
-343.391	189.875	-0.181	-0.274
-342.377	199.592	0.066	-0.101
-341.362	526.574	-0.096	-0.228
-340.348	56.101	-0.172	0.168
-339.333	-133.995	0.325	0.041
-338.318	-88.510	0.279	-0.084
-337.304	86.969	-0.122	0.136
-336.289	-97.218	-0.055	0.015
-335.275	7.863	-0.309	-0.233
-334.260	477.964	0.067	0.152
-333.245	-1.803	-0.175	0.124
-332.231	-65.391	0.323	0.131
-331.216	-103.400	0.184	0.044
-330.202	-104.777	0.234	-0.054
-329.187	28.505	-0.220	-0.188
-328.172	-200.000	-0.007	0.203
-327.158	87.367	-0.134	-0.149
-326.143	-113.540	0.098	0.019
-325.129	163.256	-0.034	0.048
-324.114	554.027	0.116	0.280
-323.099	-95.733	-0.083	-0.022
-322.085	-59.735	-0.281	0.121
-321.070	543.353	-0.067	-0.162
-320.056	241.571	-0.192	0.323
-319.041	110.415	0.244	-0.294
-318.026	-76.262	-0.170	-0.060
-317.012	-200.000	0.021	-0.131
-315.997	627.876	0.117	0.298
-314.983	539.358	-0.068	0.163
-313.968	-69.405	0.223	0.086
-312.953	-72.482	0.171	0.063
-311.939	-113.150	-0.109	0.022
-310.924	225.550	-0.139	-0.226
-309.910	-179.133	-0.196	-0.004
-308.895	-200.000	0.002	-0.204
-307.880	5.552	-0.295	0.219
-306.866	389.324	-0.059	0.122
-305.851	94.853	-0.096	0.110
-304.837	-80.488	-0.186	0.062
-303.822	323.154	0.042	0.080
-302.807	-146.435	0.055	-0.005
-301.793	-110.522	0.062	0.013
-300.778	-85.696	0.150	-0.047
-299.764	-69.916	-0.203	0.078
-298.749	800.000	0.064	0.200
-297.735	-129.849	-0.236	0.033
-296.720	78.583	-0.050	-0.054
-295.705	242.739	0.094	-0.158
-294.691	-74.371	0.258	0.093
-293.676	659.289	0.202	0.522
-292.662	-189.709	-0.160	0.002
-291.647	-93.706	0.048	-0.013
-290.632	94.129	0.066	0.075
-289.618	-26.459	-0.091	-0.053
-288.603	4.921	0.078	0.058
-287.589	-129.119	0.095	0.013
-286.574	-80.706	0.238	0.080
-285.559	-200.000	-0.036	-0.189
-284.545	-200.000	-0.061	-0.284
-283.530	-104.078	-0.281	-0.066
-282.516	25.719	0.188	-0.157
-281.501	38.639	0.248	-0.222
-280.486	-200.000	0.040	0.392
-279.472	800.000	0.089	0.385
-278.457	-200.000	0.051	-0.229
-277.443	-45.771	-0.274	0.136
-276.428	-112.359	-0.143	-0.029
-275.413	4.933	-0.087	-0.064
-274.399	48.459	-0.252	-0.237
-273.384	427.455	-0.007	0.016
-272.370	-200.000	-0.012	0.208
-271.355	178.302	0.115	0.169
-270.340	-78.455	-0.278	0.095
-269.326	44.131	-0.136	-0.126
-268.311	46.006	0.073	0.068
-267.297	-200.000	-0.041	-0.305
-266.282	-140.641	0.129	-0.013
-265.267	800.000	0.043	0.162
-264.253	374.828	0.160	-0.327
-263.238	-200.000	0.015	-0.170
-262.224	15.893	-0.075	0.059
-261.209	-32.929	-0.459	-0.256
-260.195	39.501	0.148	-0.133
-259.180	468.178	-0.035	-0.078
-258.165	-200.000	0.011	0.120
-257.151	800.000	-0.036	-0.129
-256.136	-34.757	-0.104	-0.057
-255.122	-92.835	-0.388	0.109
-254.107	-200.000	-0.058	-0.271
-253.092	-1.850	-0.337	0.238
-252.078	-56.981	-0.145	-0.064
-251.063	-151.449	0.182	0.014
-250.049	-30.947	0.295	-0.167
-249.034	800.000	-0.049	0.190
-248.019	201.761	0.223	0.345
-247.005	-200.000	0.001	-0.281
-245.990	558.290	0.061	0.147
-244.976	-106.443	0.250	0.056
-243.961	451.296	-0.071	0.157
-242.946	-83.226	0.147	0.047
-241.932	-200.000	0.019	0.128
-240.917	110.150	0.106	0.127
-239.903	800.000	0.063	-0.259
-238.888	276.936	0.104	0.185
-237.873	263.447	0.241	0.420
-236.859	-8.322	0.167	0.113
-235.844	-111.084	0.142	-0.029
-234.830	-38.678	-0.320	0.170
-233.815	-33.765	0.116	0.064
-232.800	-83.668	0.324	0.104
-231.786	-200.000	-0.033	0.191
-230.771	14.088	0.140	-0.109
-229.757	356.525	0.188	0.375
-228.742	-200.000	0.022	0.233
-227.727	-200.000	-0.009	-0.067
-226.713	-114.634	-0.273	-0.052
-225.698	-75.347	-0.329	0.117
-224.684	51.656	0.237	0.226
-223.669	-169.283	0.291	-0.011
-222.655	413.896	-0.065	-0.138
-221.640	-32.999	0.465	0.258
-220.625	-64.845	0.274	-0.111
-219.611	78.330	-0.132	0.141
-218.596	8.623	0.054	0.041
-217.582	792.420	0.199	0.549
-216.567	129.674	0.127	0.162
-215.552	59.758	0.281	0.278
-214.538	46.883	0.224	0.209
-213.523	39.175	0.332	-0.297
-212.509	21.879	0.138	-0.113
-211.494	-67.006	-0.105	-0.041
-210.479	-82.272	-0.092	-0.030
-209.465	-45.894	-0.271	-0.134
-208.450	-81.262	-0.166	-0.055
-207.436	187.113	-0.200	-0.298
-206.421	-200.000	-0.002	0.111
-205.406	-151.714	0.223	-0.016
-204.392	165.059	-0.238	0.336
-203.377	800.000	0.082	0.333
-202.363	496.117	-0.144	0.331
-201.348	-200.000	0.008	0.111
-200.333	268.659	0.071	-0.125
-199.319	-200.000	-0.012	-0.260
-198.304	35.430	-0.330	0.290
-197.290	-147.659	-0.159	0.013
-196.275	71.250	0.093	-0.097
-195.260	800.000	-0.046	-0.131
-194.246	-116.537	0.230	0.042
-193.231	-1.244	-0.101	-0.071
-192.217	-9.736	0.117	-0.078
-191.202	800.000	-0.039	0.172
-190.187	-128.476	0.320	0.045
-189.173	-200.000	0.002	-0.115
-188.158	-17.876	-0.240	0.151
-187.144	69.925	0.205	0.211
-186.129	-63.893	0.200	-0.082
-185.114	617.141	0.040	0.100
-184.100	20.009	0.251	-0.202
-183.085	604.455	0.076	0.190
-182.071	-14.991	0.215	0.138
-181.056	-67.436	-0.248	0.097
-180.042	800.000	-0.029	-0.109
-179.027	-75.092	-0.250	-0.089
-178.012	800.000	-0.043	0.186
-176.998	92.197	0.298	-0.336
-175.983	-56.130	0.204	0.091
-174.969	-200.000	0.039	-0.268
-173.954	-14.636	-0.075	0.048
-172.939	32.982	-0.269	0.233
-171.925	-70.163	0.011	0.004
-170.910	-164.535	0.234	-0.011
-169.896	117.246	-0.102	-0.125
-168.881	800.000	0.029	0.080
-167.866	-125.237	0.058	0.009
-166.852	44.353	0.259	0.238
-165.837	74.242	-0.187	-0.196
-164.823	-30.974	0.098	0.056
-163.808	126.323	-0.153	0.194
-162.793	51.074	0.207	-0.196
-161.779	360.768	-0.059	-0.118
-160.764	43.871	-0.163	0.149
-159.750	800.000	0.126	0.348
-158.735	-124.506	0.105	0.016
-157.720	800.000	-0.075	0.226
-156.706	-200.000	-0.004	0.118
-155.691	181.866	-0.119	0.176
-154.677	412.280	0.104	0.220
-153.662	-92.628	0.296	-0.083
-152.647	377.738	0.051	0.104
-151.633	-112.199	-0.310	-0.062
-150.618	-22.724	0.207	0.125
-149.604	246.080	-0.189	0.318
-148.589	411.757	-0.104	0.220
-147.574	-21.851	-0.107	0.065
-146.560	-80.734	0.171	-0.057
-145.545	-47.419	0.412	-0.200
-144.531	-181.434	0.346	-0.007
-143.516	444.347	0.068	0.148
-142.502	-95.081	0.301	0.081
-141.487	284.139	-0.144	-0.259
-140.472	49.829	0.202	0.190
-139.458	111.833	0.118	-0.142
-138.443	68.084	0.258	-0.264
-137.429	800.000	0.045	0.188
-136.414	-156.074	0.250	-0.016
-135.399	800.000	0.119	-0.344
-134.385	108.238	0.092	0.110
-133.370	-26.154	-0.153	0.090
-132.356	-200.000	0.001	0.081
-131.341	-200.000	-0.004	0.238
-130.326	-147.482	0.270	0.023
-129.312	-66.522	0.261	-0.103
-128.297	-200.000	-0.006	0.044
-127.283	86.900	0.072	-0.080
-126.268	490.690	-0.205	0.468
-125.253	-22.430	0.151	0.091
-124.239	144.365	-0.032	0.043
-123.224	-80.604	-0.105	0.035
-122.210	215.828	0.199	0.315
-121.195	800.000	0.131	0.397
