DTS Sentinel unit serial number:	SN413079Multiplexer serial number:	ORYXHardware model number:	OX4-SRSoftware version number:	ORYX F/W v4.00 Oryx Data Collector v3.7.2.0data status	okinstallation	princeton_trtdifferential loss correction	single-endedforward channel	channel 1reverse channel	N/Adate	2019/09/13time	14:06:35forward acquisition time	60.00reverse acquisition time	0.00gamma	496.2192k internal	0.2302k external	0.2302temperature offset calibration	1.0164default loss term (dB/km)	0.3790temperature slope calibration	1.0000multiplexer offset coefficient	1.0000multiplexer slope coefficient	1.0000fibre end	0.00T internal ref (°C)	35.25T ext. ref 1 (°C)	4.60T ext. ref 2 (°C)	30.93length (m)	temperature (°C)	Stokes	anti-Stokes-747.200	45.558	0.032	0.030
-746.185	279.094	-0.158	-0.287
-745.171	318.068	-0.091	0.176
-744.156	-200.000	-0.016	0.166
-743.142	800.000	0.056	-0.191
-742.127	-196.177	0.532	-0.004
-741.112	626.566	-0.024	-0.062
-740.098	-61.519	0.229	0.098
-739.083	58.452	-0.089	0.089
-738.069	37.153	0.136	0.123
-737.054	-101.742	0.027	0.007
-736.039	-124.649	-0.056	-0.009
-735.025	-45.383	0.125	-0.063
-734.010	-151.983	-0.195	0.015
-732.996	224.975	-0.160	0.264
-731.981	800.000	-0.067	-0.190
-730.966	-18.240	0.215	0.137
-729.952	193.503	-0.084	-0.129
-728.937	800.000	0.098	-0.301
-727.923	-200.000	-0.064	0.316
-726.908	-10.837	-0.327	-0.220
-725.894	-200.000	-0.077	-0.435
-724.879	-200.000	-0.011	0.140
-723.864	189.215	-0.181	-0.276
-722.850	28.631	-0.093	0.080
-721.835	134.910	-0.169	0.224
-720.821	341.911	-0.158	0.315
-719.806	-161.557	0.221	0.012
-718.791	-200.000	-0.024	0.212
-717.777	800.000	-0.082	-0.355
-716.762	60.712	0.099	-0.100
-715.748	189.078	-0.140	-0.213
-714.733	81.099	-0.101	-0.111
-713.718	23.883	0.151	-0.127
-712.704	-200.000	-0.019	-0.091
-711.689	-36.090	-0.148	0.082
-710.675	-85.321	0.223	0.071
-709.660	-120.580	-0.345	-0.059
-708.645	617.492	0.141	0.359
-707.631	68.464	-0.208	-0.217
-706.616	-147.313	-0.292	0.025
-705.602	-43.581	0.243	0.125
-704.587	174.326	-0.210	-0.309
-703.572	-200.000	0.067	-0.312
-702.558	-160.685	-0.170	-0.009
-701.543	61.788	-0.066	0.067
-700.529	66.429	0.240	-0.249
-699.514	800.000	0.121	0.415
-698.499	16.139	0.241	-0.193
-697.485	-72.577	-0.067	0.025
-696.470	3.606	-0.238	0.177
-695.456	800.000	0.030	-0.098
-694.441	160.783	-0.074	0.105
-693.426	-46.835	-0.133	0.066
-692.412	-72.303	0.103	0.039
-691.397	-108.210	0.147	0.032
-690.383	-200.000	-0.028	-0.166
-689.368	-132.828	-0.150	0.019
-688.354	0.248	0.045	-0.033
-687.339	370.869	-0.062	-0.128
-686.324	-88.563	-0.349	-0.106
-685.310	36.589	-0.170	0.153
-684.295	138.100	-0.059	-0.079
-683.281	233.225	0.123	-0.206
-682.266	-49.271	-0.039	-0.019
-681.251	-28.198	0.174	-0.102
-680.237	-200.000	0.022	-0.130
-679.222	-200.000	0.010	0.103
-678.208	-2.145	-0.349	-0.249
-677.193	21.355	0.208	-0.172
-676.178	359.492	-0.047	-0.096
-675.164	9.396	-0.119	0.092
-674.149	-162.651	-0.441	0.022
-673.135	-68.744	0.407	-0.160
-672.120	30.570	-0.140	0.122
-671.105	-200.000	0.023	-0.154
-670.091	-175.862	-0.242	0.007
-669.076	54.326	-0.118	0.115
-668.062	43.631	0.337	0.313
-667.047	-200.000	0.006	-0.199
-666.032	169.100	-0.054	0.078
-665.018	184.433	-0.116	0.174
-664.003	74.425	-0.286	-0.305
-662.989	-23.214	0.279	0.171
-661.974	-74.867	0.367	0.134
-660.959	-102.044	-0.119	-0.029
-659.945	-85.979	-0.103	0.032
-658.930	-65.105	-0.302	0.124
-657.916	71.573	0.160	0.169
-656.901	10.756	-0.002	0.002
-655.886	-59.037	-0.054	0.024
-654.872	46.460	0.099	0.093
-653.857	430.654	0.049	-0.107
-652.843	-56.441	-0.098	-0.044
-651.828	-94.642	0.465	-0.128
-650.814	-120.002	-0.161	-0.028
-649.799	-19.578	0.061	0.039
-648.784	274.186	-0.097	-0.175
-647.770	270.888	-0.063	0.113
-646.755	-200.000	-0.089	-0.452
-645.741	-118.882	-0.258	0.046
-644.726	37.456	-0.185	0.166
-643.711	176.021	-0.082	-0.120
-642.697	-45.898	-0.183	0.092
-641.682	106.325	0.130	0.156
-640.668	260.228	-0.045	-0.080
-639.653	69.928	0.197	0.206
-638.638	800.000	-0.091	-0.309
-637.624	-106.252	0.099	-0.023
-636.609	169.911	0.178	-0.258
-635.595	-37.133	0.180	-0.098
-634.580	-12.889	0.178	-0.118
-633.565	62.924	0.143	-0.145
-632.551	228.527	0.039	0.065
-631.536	-69.455	-0.209	-0.081
-630.522	-138.099	0.075	0.008
-629.507	-200.000	-0.012	0.237
-628.492	47.399	0.274	0.259
-627.478	800.000	-0.001	-0.003
-626.463	-200.000	-0.023	-0.290
-625.449	-60.392	-0.350	0.151
-624.434	90.042	-0.073	-0.083
-623.419	144.881	0.118	-0.160
-622.405	800.000	0.080	0.236
-621.390	560.072	0.101	0.246
-620.376	606.729	0.075	0.191
-619.361	-0.932	0.151	-0.108
-618.346	97.284	-0.156	-0.182
-617.332	-13.550	-0.375	-0.247
-616.317	176.795	0.037	0.055
-615.303	-200.000	0.012	-0.163
-614.288	-118.890	-0.176	0.031
-613.273	800.000	0.092	0.402
-612.259	-127.996	-0.109	-0.016
-611.244	-4.234	-0.243	0.171
-610.230	58.058	0.105	-0.104
-609.215	60.552	0.075	-0.075
-608.201	3.503	-0.309	-0.228
-607.186	-92.227	0.150	0.043
-606.171	-97.617	-0.306	-0.081
-605.157	-86.343	-0.140	0.044
-604.142	-200.000	-0.040	-0.182
-603.128	-164.923	0.345	0.016
-602.113	-6.011	0.140	-0.097
-601.098	-170.864	-0.154	-0.005
-600.084	3.691	-0.070	0.052
-599.069	228.809	-0.144	-0.238
-598.055	-159.907	-0.395	0.022
-597.040	-16.017	0.123	-0.079
-596.025	-48.458	-0.241	0.117
-595.011	-22.232	0.331	0.204
-593.996	490.487	-0.059	0.138
-592.982	-143.862	-0.159	0.015
-591.967	-135.243	0.322	-0.039
-590.952	182.993	0.174	0.261
-589.938	-109.455	-0.126	-0.027
-588.923	99.905	-0.108	0.127
-587.909	750.618	-0.095	-0.259
-586.894	652.905	0.080	0.209
-585.879	671.756	0.070	-0.185
-584.865	-20.416	0.448	0.279
-583.850	44.917	0.103	0.096
-582.836	-8.592	-0.056	-0.038
-581.821	79.124	-0.017	0.019
-580.806	4.250	-0.028	-0.021
-579.792	70.192	0.266	-0.279
-578.777	-94.280	-0.013	-0.004
-577.763	88.299	-0.184	-0.207
-576.748	307.374	-0.172	-0.325
-575.733	72.648	0.143	0.151
-574.719	88.022	-0.212	-0.238
-573.704	-45.169	0.244	-0.123
-572.690	67.720	0.155	-0.160
-571.675	800.000	-0.068	-0.276
-570.661	329.711	-0.049	0.096
-569.646	-200.000	-0.010	-0.242
-568.631	79.256	0.341	-0.370
-567.617	236.495	0.121	0.202
-566.602	-200.000	0.025	0.323
-565.588	-98.219	-0.181	-0.047
-564.573	-141.768	0.263	-0.027
-563.558	353.896	-0.063	0.127
-562.544	480.361	0.123	-0.282
-561.529	-8.314	0.166	-0.113
-560.515	-128.641	0.123	0.018
-559.500	-169.324	0.033	-0.001
-558.485	-145.063	-0.050	-0.005
-557.471	800.000	0.051	-0.152
-556.456	-51.215	-0.162	0.077
-555.442	800.000	0.100	-0.333
-554.427	-54.460	-0.145	-0.067
-553.412	43.019	0.211	-0.195
-552.398	-111.483	-0.390	-0.080
-551.383	800.000	0.049	0.198
-550.369	-200.000	-0.032	0.203
-549.354	627.504	-0.068	0.173
-548.339	800.000	0.086	-0.328
-547.325	-44.604	0.255	-0.129
-546.310	-137.418	0.085	0.010
-545.296	800.000	0.035	-0.120
-544.281	-200.000	-0.007	-0.101
-543.266	-200.000	-0.023	0.196
-542.252	154.762	0.217	-0.302
-541.237	-49.546	0.115	-0.055
-540.223	-200.000	-0.059	-0.581
-539.208	800.000	0.010	-0.033
-538.193	800.000	0.083	0.280
-537.179	42.782	-0.161	-0.148
-536.164	-196.662	0.157	0.001
-535.150	372.212	0.121	0.247
-534.135	-144.403	-0.364	-0.034
-533.121	-39.314	0.342	-0.181
-532.106	-91.612	-0.182	0.052
-531.091	211.707	-0.062	0.098
-530.077	-137.231	0.297	-0.034
-529.062	272.763	-0.106	-0.189
-528.048	-37.876	0.120	0.065
-527.033	-200.000	0.033	0.352
-526.018	-89.512	-0.334	-0.099
-525.004	-108.045	0.208	0.046
-523.989	-131.959	0.099	0.013
-522.975	51.498	-0.067	0.065
-521.960	-73.570	-0.171	0.063
-520.945	-117.020	-0.340	0.063
-519.931	-140.787	-0.283	-0.030
-518.916	-112.498	0.035	0.007
-517.902	390.267	0.027	0.058
-516.887	699.611	-0.082	-0.217
-515.872	-200.000	0.003	-0.124
-514.858	-179.731	-0.304	0.007
-513.843	-76.929	0.270	-0.095
-512.829	-200.000	-0.006	0.026
-511.814	93.860	-0.035	-0.040
-510.799	-138.436	-0.297	0.033
-509.785	-11.648	-0.340	0.226
-508.770	54.543	0.144	-0.140
-507.756	386.472	-0.098	-0.205
-506.741	-200.000	-0.016	0.182
-505.726	-34.195	-0.069	0.038
-504.712	129.411	0.196	-0.253
-503.697	800.000	0.056	0.248
-502.683	800.000	0.058	0.176
-501.668	19.263	0.318	-0.258
-500.653	-200.000	-0.026	-0.117
-499.639	-49.024	-0.120	0.058
-498.624	32.943	0.215	0.188
-497.610	339.057	-0.055	0.108
-496.595	-200.000	0.030	0.320
-495.581	-57.213	0.451	0.201
-494.566	97.492	0.193	0.224
-493.551	114.859	0.172	0.212
-492.537	16.425	-0.175	-0.140
-491.522	-19.365	-0.112	0.070
-490.508	30.199	0.360	0.310
-489.493	52.235	0.286	0.275
-488.478	-94.133	-0.212	-0.059
-487.464	97.207	0.117	0.136
-486.449	206.979	0.180	0.283
-485.435	-61.727	-0.207	-0.087
-484.420	-61.014	0.083	-0.035
-483.405	509.023	0.163	0.382
-482.391	-200.000	-0.020	0.439
-481.376	66.779	-0.116	0.119
-480.362	22.304	0.169	0.139
-479.347	800.000	-0.081	0.227
-478.332	-40.963	0.313	-0.163
-477.318	28.574	0.114	-0.098
-476.303	-85.350	-0.158	0.050
-475.289	-156.053	-0.443	0.028
-474.274	232.074	0.065	0.107
-473.259	520.694	0.074	0.174
-472.245	-200.000	-0.007	-0.267
-471.230	224.625	0.108	0.175
-470.216	-99.104	0.093	0.024
-469.201	-200.000	0.091	0.445
-468.186	800.000	-0.026	-0.097
-467.172	101.538	0.151	-0.178
-466.157	517.669	-0.088	-0.207
-465.143	196.545	-0.187	-0.287
-464.128	-97.040	0.241	0.064
-463.113	120.961	-0.031	0.039
-462.099	-124.839	0.252	0.039
-461.084	800.000	0.057	0.234
-460.070	-96.237	0.155	-0.042
-459.055	6.350	-0.066	0.049
-458.040	232.170	0.060	-0.100
-457.026	-152.560	-0.198	0.014
-456.011	412.808	0.069	-0.147
-454.997	121.608	0.230	-0.289
-453.982	33.867	0.209	0.183
-452.968	-200.000	0.043	-0.287
-451.953	-200.000	0.025	0.135
-450.938	0.487	-0.275	0.198
-449.924	800.000	-0.018	0.052
-448.909	-200.000	-0.008	0.202
-447.895	-23.060	-0.124	0.075
-446.880	-190.774	0.151	-0.002
-445.865	331.693	0.118	-0.230
-444.851	666.734	-0.049	-0.127
-443.836	-10.199	-0.352	0.235
-442.822	-138.133	-0.170	-0.019
-441.807	58.960	-0.268	0.265
-440.792	192.368	-0.025	0.037
-439.778	-200.000	0.025	-0.198
-438.763	171.074	0.135	-0.195
-437.749	-200.000	-0.030	-0.236
-436.734	211.887	-0.171	0.271
-435.719	91.840	-0.211	0.239
-434.705	44.424	-0.151	-0.139
-433.690	800.000	0.045	-0.151
-432.676	30.304	0.175	-0.150
-431.661	705.883	0.114	0.303
-430.646	800.000	-0.100	-0.340
-429.632	52.126	-0.235	0.225
-428.617	-80.578	-0.079	0.026
-427.603	-151.531	0.100	-0.007
-426.588	119.740	-0.065	-0.081
-425.573	800.000	-0.093	0.324
-424.559	-200.000	0.045	0.246
-423.544	-34.909	-0.297	0.163
-422.530	-200.000	-0.017	-0.076
-421.515	-200.000	-0.003	0.025
-420.500	261.516	-0.136	0.237
-419.486	-177.252	0.355	0.009
-418.471	800.000	-0.063	-0.204
-417.457	162.798	0.093	0.131
-416.442	-120.620	-0.352	-0.060
-415.428	4.209	0.447	-0.329
-414.413	-45.138	-0.370	0.185
-413.398	158.344	-0.114	0.159
-412.384	72.920	-0.225	0.236
-411.369	221.067	0.143	-0.231
-410.355	30.270	-0.207	-0.178
-409.340	-73.248	-0.219	-0.081
-408.325	-5.095	0.149	0.103
-407.311	378.488	-0.151	-0.310
-406.296	-50.727	-0.424	-0.201
-405.282	85.844	0.138	0.152
-404.267	-162.178	0.339	-0.017
-403.252	-200.000	0.002	-0.125
-402.238	-156.479	-0.282	-0.018
-401.223	-152.840	0.199	0.014
-400.209	-200.000	-0.052	0.536
-399.194	-132.767	0.190	0.024
-398.179	52.557	-0.151	-0.145
-397.165	27.642	-0.206	0.174
-396.150	513.295	0.069	0.163
-395.136	137.545	-0.148	0.195
-394.121	-170.266	-0.307	0.011
-393.106	-110.134	-0.181	-0.038
-392.092	-93.861	-0.130	0.036
-391.077	800.000	0.020	-0.059
-390.063	102.370	-0.264	-0.310
-389.048	-98.104	0.104	-0.027
-388.033	-200.000	-0.044	0.377
-387.019	-20.354	-0.186	-0.115
-386.004	800.000	-0.019	0.081
-384.990	-87.563	-0.298	0.091
-383.975	108.043	-0.043	-0.052
-382.960	-78.446	0.075	0.026
-381.946	800.000	0.055	0.158
-380.931	244.301	-0.115	0.193
-379.917	-200.000	0.041	-0.243
-378.902	-200.000	-0.020	-0.238
-377.888	283.342	0.071	-0.129
-376.873	-14.161	0.068	0.044
-375.858	-104.197	0.240	0.056
-374.844	74.336	-0.112	0.119
-373.829	467.474	0.041	-0.092
-372.815	-25.448	0.482	-0.286
-371.800	-60.937	-0.320	0.136
-370.785	-50.537	0.172	0.082
-369.771	189.676	-0.007	0.010
-368.756	-23.102	-0.235	-0.142
-367.742	207.546	-0.103	-0.161
-366.727	-70.348	-0.155	-0.059
-365.712	-27.493	-0.219	0.128
-364.698	226.793	-0.073	0.119
-363.683	-61.775	0.083	-0.035
-362.669	166.967	-0.039	-0.056
-361.654	-176.964	-0.412	0.010
-360.639	-62.424	0.282	-0.118
-359.625	-45.716	-0.236	-0.117
-358.610	671.742	-0.102	-0.266
-357.596	303.807	0.020	0.037
-356.581	-45.373	-0.292	-0.145
-355.566	-53.813	0.204	0.093
-354.552	403.236	-0.040	0.085
-353.537	-41.218	0.098	0.051
-352.523	505.811	-0.094	0.220
-351.508	-200.000	-0.007	0.056
-350.493	-99.329	0.237	-0.060
-349.479	800.000	-0.058	-0.233
-348.464	6.537	-0.194	0.144
-347.450	-200.000	0.010	-0.103
-346.435	28.499	0.252	0.214
-345.420	-134.774	0.116	-0.014
-344.406	573.751	0.013	0.031
-343.391	267.459	0.053	0.092
-342.377	23.295	-0.277	-0.228
-341.362	378.255	-0.104	0.214
-340.348	159.728	0.075	0.105
-339.333	107.554	0.179	0.214
-338.318	40.406	-0.121	0.109
-337.304	-49.858	0.053	-0.025
-336.289	237.444	-0.024	0.039
-335.275	-20.418	0.150	0.092
-334.260	229.863	-0.067	-0.109
-333.245	245.979	-0.074	0.125
-332.231	66.853	0.036	-0.037
-331.216	91.733	-0.256	-0.289
-330.202	109.241	0.159	0.191
-329.187	-72.333	-0.158	-0.059
-328.172	-26.189	-0.195	-0.115
-327.158	126.502	0.201	-0.255
-326.143	-200.000	-0.013	-0.124
-325.129	-59.067	-0.037	0.016
-324.114	-92.209	-0.100	0.028
-323.099	218.848	-0.117	0.188
-322.085	-200.000	-0.048	0.419
-321.070	-200.000	0.005	-0.146
-320.056	800.000	-0.010	0.031
-319.041	360.833	-0.195	-0.391
-318.026	306.814	-0.027	0.050
-317.012	-11.891	-0.133	0.087
-315.997	800.000	-0.094	0.346
-314.983	-13.291	0.058	-0.038
-313.968	-200.000	0.007	-0.095
-312.953	334.894	-0.149	-0.289
-311.939	-67.146	0.051	-0.020
-310.924	12.140	-0.108	0.084
-309.910	-75.389	0.106	-0.038
-308.895	-160.635	-0.154	0.008
-307.880	590.859	0.035	0.086
-306.866	-200.000	-0.027	-0.225
-305.851	-117.858	-0.055	0.010
-304.837	-102.702	0.094	0.022
-303.822	646.706	0.078	-0.200
-302.807	-138.291	-0.099	0.011
-301.793	-100.674	-0.285	0.071
-300.778	73.997	0.129	0.136
-299.764	339.797	-0.060	0.117
-298.749	355.397	-0.095	-0.189
-297.735	-79.108	-0.473	-0.161
-296.720	-200.000	-0.035	-0.282
-295.705	-200.000	0.059	0.435
-294.691	-83.325	-0.366	-0.118
-293.676	-37.090	0.288	-0.155
-292.662	-85.606	0.331	0.103
-291.647	246.225	0.084	0.142
-290.632	-58.922	-0.099	-0.043
-289.618	-119.473	-0.204	0.035
-288.603	-200.000	-0.003	0.290
-287.589	-200.000	0.048	0.220
-286.574	16.868	-0.138	-0.110
-285.559	62.182	-0.127	0.126
-284.545	-24.291	0.243	-0.145
-283.530	411.475	-0.098	-0.207
-282.516	47.005	0.137	0.127
-281.501	-113.027	-0.226	-0.045
-280.486	122.083	0.117	-0.146
-279.472	41.136	0.202	-0.182
-278.457	69.159	0.246	-0.253
-277.443	155.156	0.114	-0.158
-276.428	-144.295	0.168	0.016
-275.413	-4.534	0.222	0.154
-274.399	-200.000	0.017	0.092
-273.384	-108.332	-0.151	-0.033
-272.370	-109.061	0.247	-0.053
-271.355	-146.665	0.251	0.022
-270.340	-34.932	0.197	-0.108
-269.326	528.727	-0.120	-0.284
-268.311	800.000	0.065	0.238
-267.297	16.086	-0.242	-0.191
-266.282	800.000	0.027	0.089
-265.267	-91.851	0.171	-0.049
-264.253	257.866	0.141	-0.242
-263.238	-200.000	0.001	0.111
-262.224	-200.000	-0.015	-0.078
-261.209	126.892	0.039	0.049
-260.195	-151.939	0.197	-0.014
-259.180	157.671	-0.136	0.189
-258.165	-60.073	0.320	0.137
-257.151	-120.606	-0.520	0.088
-256.136	-156.042	-0.265	-0.017
-255.122	72.952	-0.086	0.090
-254.107	110.728	-0.075	-0.090
-253.092	-144.449	0.095	-0.009
-252.078	-30.986	0.420	0.237
-251.063	293.698	-0.275	-0.502
-250.049	219.101	-0.165	-0.264
-249.034	-36.938	-0.201	0.108
-248.019	-146.143	-0.177	-0.016
-247.005	-79.100	-0.306	-0.104
-245.990	560.854	-0.051	-0.122
-244.976	762.273	-0.078	-0.211
-243.961	245.224	0.244	0.410
-242.946	51.400	-0.240	0.228
-241.932	-46.800	-0.074	0.036
-240.917	-172.587	-0.366	0.012
-239.903	6.257	0.193	-0.143
-238.888	-200.000	0.002	-0.170
-237.873	405.469	0.116	0.244
-236.859	-65.814	0.052	0.021
-235.844	-200.000	0.003	-0.041
-234.830	481.856	0.044	0.099
-233.815	157.815	0.105	-0.145
-232.800	500.986	-0.121	0.279
-231.786	-200.000	-0.052	-0.313
-230.771	373.674	-0.079	0.160
-229.757	-36.198	-0.335	-0.181
-228.742	800.000	-0.023	-0.102
-227.727	-106.965	0.191	0.042
-226.713	127.298	0.087	-0.111
-225.698	-64.557	-0.306	0.124
-224.684	-133.580	0.395	-0.049
-223.669	276.774	-0.113	-0.201
-222.655	800.000	-0.100	-0.304
-221.640	-82.488	0.431	-0.140
-220.625	35.463	0.217	0.190
-219.611	-66.649	0.228	0.090
-218.596	556.777	-0.049	-0.118
-217.582	800.000	0.063	0.181
-216.567	800.000	0.102	0.286
-215.552	292.919	0.063	-0.114
-214.538	198.676	-0.067	-0.103
-213.523	417.439	0.090	-0.193
-212.509	18.416	-0.312	-0.249
-211.494	-139.604	0.205	-0.022
-210.479	148.716	0.133	-0.180
-209.465	117.825	0.129	-0.159
-208.450	-92.901	-0.292	0.081
-207.436	-87.607	0.217	0.065
-206.421	-10.256	0.420	-0.278
-205.406	119.849	0.010	0.012
-204.392	219.235	0.146	-0.233
-203.377	190.357	0.268	0.402
-202.363	-200.000	-0.033	0.190
-201.348	-3.903	-0.200	-0.138
-200.333	-57.807	0.294	-0.128
-199.319	404.080	0.105	0.221
-198.304	48.056	-0.035	0.033
-197.290	128.343	0.101	0.128
-196.275	-180.529	-0.221	0.005
-195.260	-114.044	0.119	0.023
-194.246	-169.143	0.444	0.016
-193.231	-31.915	0.445	0.248
-192.217	24.963	0.240	-0.198
-191.202	-80.889	0.102	-0.034
-190.187	-8.146	-0.024	0.016
-189.173	-109.298	-0.107	-0.023
-188.158	202.472	-0.094	0.145
-187.144	800.000	-0.057	-0.161
-186.129	-200.000	0.001	0.309
-185.114	229.253	-0.166	-0.271
-184.100	-102.267	-0.138	0.033
-183.085	-200.000	0.032	0.195
-182.071	36.812	0.270	0.238
-181.056	336.011	0.024	-0.047
-180.042	41.884	-0.053	-0.048
-179.027	-44.890	-0.173	-0.086
-178.012	29.686	0.062	-0.052
-176.998	-111.915	-0.272	-0.055
-175.983	-96.248	0.159	-0.042
-174.969	-200.000	0.022	0.111
-173.954	-150.799	0.177	-0.013
-172.939	-200.000	0.025	-0.270
-171.925	626.686	0.089	0.224
-170.910	800.000	0.008	0.030
-169.896	317.143	-0.143	-0.270
-168.881	-12.797	0.276	0.179
-167.866	615.436	0.144	0.361
-166.852	-8.630	0.236	0.158
-165.837	-200.000	-0.017	0.246
-164.823	194.074	-0.111	-0.168
-163.808	19.725	0.103	0.083
-162.793	-166.312	-0.077	-0.003
-161.779	139.060	0.116	-0.151
-160.764	-99.409	-0.165	-0.041
-159.750	38.416	0.291	0.258
-158.735	77.723	-0.131	0.139
-157.720	-8.358	0.245	0.164
-156.706	533.692	-0.168	0.397
-155.691	-200.000	0.024	0.138
-154.677	38.057	0.269	-0.239
-153.662	-200.000	0.041	-0.200
-152.647	1.374	0.232	-0.166
-151.633	-153.890	-0.143	0.010
-150.618	72.430	-0.195	0.202
-149.604	-169.787	-0.268	0.010
-148.589	800.000	-0.131	-0.362
-147.574	0.124	0.132	0.094
-146.560	800.000	-0.118	0.326
-145.545	-200.000	-0.022	-0.111
-144.531	-200.000	0.066	0.309
-143.516	-46.564	0.327	0.160
-142.502	-24.694	-0.097	-0.058
-141.487	-72.558	-0.093	-0.034
-140.472	-200.000	-0.038	0.322
-139.458	403.866	-0.084	0.176
-138.443	-62.856	-0.119	-0.049
-137.429	90.659	-0.104	-0.116
-136.414	-120.559	0.290	-0.049
-135.399	34.846	0.163	-0.142
-134.385	800.000	0.026	0.093
-133.370	-57.314	-0.024	0.011
-132.356	-152.980	-0.076	-0.005
-131.341	98.877	0.052	-0.060
-130.326	-85.874	-0.283	0.087
-129.312	-64.447	-0.192	0.078
-128.297	570.434	0.086	0.208
-127.283	-86.162	0.075	0.023
-126.268	-12.228	-0.141	0.092
-125.253	24.596	0.249	-0.205
-124.239	-1.031	0.315	-0.222
-123.224	66.133	0.202	-0.204
-122.210	-74.832	0.265	-0.095
-121.195	45.152	-0.122	-0.112
-120.180	43.209	0.091	0.083
