DTS Sentinel unit serial number:	SN413079Multiplexer serial number:	ORYXHardware model number:	OX4-SRSoftware version number:	ORYX F/W v4.00 Oryx Data Collector v3.7.2.0data status	okinstallation	princeton_trtdifferential loss correction	single-endedforward channel	channel 1reverse channel	N/Adate	2019/09/14time	08:30:35forward acquisition time	60.00reverse acquisition time	0.00gamma	496.2192k internal	0.2327k external	0.2327temperature offset calibration	1.0071default loss term (dB/km)	0.3790temperature slope calibration	1.0000multiplexer offset coefficient	1.0000multiplexer slope coefficient	1.0000fibre end	0.00T internal ref (°C)	28.44T ext. ref 1 (°C)	3.62T ext. ref 2 (°C)	25.86length (m)	temperature (°C)	Stokes	anti-Stokes-747.200	775.283	-0.129	0.356
-746.185	800.000	0.161	0.476
-745.171	477.840	-0.089	0.204
-744.156	-200.000	0.015	0.211
-743.142	-200.000	-0.032	0.148
-742.127	398.325	0.123	0.260
-741.112	800.000	-0.075	0.263
-740.098	109.280	0.144	0.173
-739.083	246.170	0.166	0.282
-738.069	-6.973	-0.375	0.257
-737.054	-200.000	-0.041	0.196
-736.039	202.577	-0.088	-0.136
-735.025	-34.018	0.200	0.111
-734.010	-200.000	0.053	-0.373
-732.996	417.922	-0.178	-0.383
-731.981	205.525	0.088	0.138
-730.966	-50.853	0.311	0.147
-729.952	-48.734	0.141	0.068
-728.937	31.665	-0.405	-0.351
-727.923	800.000	-0.112	-0.354
-726.908	-70.941	-0.311	0.118
-725.894	205.337	-0.039	0.061
-724.879	-167.083	0.258	-0.011
-723.864	65.709	0.019	-0.020
-722.850	-43.244	0.300	-0.153
-721.835	-61.059	-0.044	-0.019
-720.821	46.083	0.173	-0.161
-719.806	160.819	0.036	0.050
-718.791	470.039	0.051	-0.116
-717.777	-200.000	-0.015	0.085
-716.762	800.000	0.022	0.076
-715.748	109.931	0.058	0.071
-714.733	42.899	-0.152	-0.139
-713.718	800.000	0.063	-0.249
-712.704	-18.967	-0.277	0.174
-711.689	-71.928	-0.261	-0.098
-710.675	-145.484	-0.201	0.018
-709.660	-200.000	0.058	0.263
-708.645	-12.218	-0.189	-0.124
-707.631	-200.000	-0.031	0.253
-706.616	42.014	-0.045	-0.041
-705.602	-78.432	-0.165	0.057
-704.587	-200.000	0.098	-0.443
-703.572	800.000	-0.024	0.078
-702.558	-64.466	0.174	-0.071
-701.543	-200.000	-0.054	-0.338
-700.529	1.803	0.224	-0.163
-699.514	-120.112	0.577	-0.099
-698.499	-129.264	0.226	-0.032
-697.485	800.000	-0.062	-0.192
-696.470	800.000	-0.107	-0.310
-695.456	229.744	0.159	-0.262
-694.441	78.558	0.133	-0.143
-693.426	-122.105	-0.179	-0.030
-692.412	-126.799	0.286	-0.042
-691.397	-200.000	0.007	0.102
-690.383	-200.000	-0.035	0.174
-689.368	-55.031	0.346	0.157
-688.354	-76.423	0.088	0.031
-687.339	-57.600	-0.112	0.050
-686.324	-200.000	-0.002	0.212
-685.310	-200.000	0.011	0.108
-684.295	177.925	-0.056	-0.083
-683.281	-4.579	-0.161	0.112
-682.266	800.000	-0.108	0.385
-681.251	-97.832	0.296	-0.077
-680.237	-48.636	0.130	0.063
-679.222	226.635	0.219	0.357
-678.208	800.000	-0.047	0.143
-677.193	800.000	0.066	0.287
-676.178	800.000	-0.086	-0.274
-675.164	489.290	-0.094	-0.216
-674.149	-200.000	0.002	0.037
-673.135	85.371	-0.242	0.267
-672.120	101.774	-0.120	0.141
-671.105	364.095	-0.153	0.310
-670.091	800.000	0.049	-0.152
-669.076	203.684	0.174	0.271
-668.062	75.923	-0.324	0.345
-667.047	-200.000	-0.004	0.237
-666.032	-200.000	0.006	-0.171
-665.018	800.000	-0.034	-0.097
-664.003	-200.000	0.035	0.215
-662.989	-117.774	0.298	0.054
-661.974	800.000	0.085	-0.283
-660.959	69.915	0.252	0.261
-659.945	25.653	-0.219	-0.183
-658.930	55.719	0.340	-0.331
-657.916	-200.000	0.004	-0.095
-656.901	-69.488	-0.037	-0.014
-655.886	800.000	-0.109	-0.328
-654.872	129.302	-0.043	-0.055
-653.857	393.542	0.039	0.082
-652.843	-109.768	0.468	0.099
-651.828	90.168	-0.039	-0.043
-650.814	329.222	0.073	0.142
-649.799	-99.572	-0.152	0.038
-648.784	-88.849	-0.035	0.011
-647.770	679.909	-0.137	0.359
-646.755	-56.053	0.298	-0.133
-645.741	800.000	0.042	-0.168
-644.726	800.000	-0.140	-0.602
-643.711	218.235	0.142	-0.228
-642.697	-0.058	0.197	0.141
-641.682	-54.290	-0.132	-0.060
-640.668	76.115	0.036	0.038
-639.653	-16.628	-0.097	-0.062
-638.638	40.511	0.071	0.064
-637.624	440.431	0.194	-0.425
-636.609	-33.019	-0.540	-0.301
-635.595	-30.994	0.094	-0.053
-634.580	-35.528	0.133	-0.072
-633.565	-99.615	-0.362	0.091
-632.551	170.505	-0.208	-0.299
-631.536	19.222	0.124	0.100
-630.522	579.238	0.085	-0.208
-629.507	259.911	-0.165	-0.287
-628.492	-37.511	0.158	-0.085
-627.478	-200.000	0.003	0.181
-626.463	800.000	0.051	-0.171
-625.449	800.000	0.058	-0.248
-624.434	-200.000	-0.027	-0.166
-623.419	145.748	-0.090	-0.122
-622.405	-78.555	-0.168	0.058
-621.390	193.925	-0.171	-0.260
-620.376	-200.000	-0.339	0.001
-619.361	-16.415	-0.064	-0.041
-618.346	70.712	0.183	0.190
-617.332	-13.343	-0.112	-0.073
-616.317	-78.253	-0.263	-0.091
-615.303	440.619	0.164	0.359
-614.288	-47.295	0.329	-0.161
-613.273	-45.197	-0.396	0.198
-612.259	-200.000	-0.003	-0.139
-611.244	-73.397	-0.301	-0.110
-610.230	0.016	-0.070	-0.050
-609.215	42.807	-0.170	-0.155
-608.201	-64.234	-0.298	-0.122
-607.186	31.260	0.232	-0.199
-606.171	118.070	-0.119	0.147
-605.157	106.496	0.267	0.317
-604.142	-200.000	-0.013	-0.095
-603.128	225.424	0.059	0.097
-602.113	-112.266	-0.380	0.076
-601.098	-200.000	0.050	0.245
-600.084	800.000	0.037	-0.140
-599.069	123.476	-0.158	-0.199
-598.055	800.000	-0.099	-0.293
-597.040	-200.000	-0.015	-0.130
-596.025	99.347	-0.136	0.157
-595.011	32.189	-0.027	0.023
-593.996	-200.000	-0.040	0.231
-592.982	-140.083	0.083	0.009
-591.967	347.513	-0.051	-0.100
-590.952	197.243	-0.120	-0.183
-589.938	-149.654	0.236	-0.019
-588.923	-77.052	0.071	0.025
-587.909	88.011	0.156	-0.173
-586.894	-137.570	-0.320	0.036
-585.879	15.602	-0.218	-0.171
-584.865	16.174	-0.411	0.324
-583.850	0.119	0.297	0.212
-582.836	253.513	-0.118	-0.202
-581.821	3.609	-0.104	-0.076
-580.806	-61.742	0.051	0.021
-579.792	-70.437	-0.359	0.136
-578.777	621.690	0.082	-0.207
-577.763	42.746	0.074	0.068
-576.748	400.811	-0.139	0.292
-575.733	-2.661	-0.174	0.122
-574.719	800.000	-0.099	-0.276
-573.704	-48.619	0.277	0.134
-572.690	115.831	-0.125	0.153
-571.675	458.677	-0.042	0.094
-570.661	-53.131	-0.164	-0.076
-569.646	54.380	-0.227	0.219
-568.631	324.870	-0.118	0.225
-567.617	-200.000	-0.017	0.198
-566.602	33.808	-0.157	0.137
-565.588	-54.416	-0.208	0.094
-564.573	-9.737	-0.314	0.209
-563.558	800.000	-0.062	-0.229
-562.544	342.006	-0.108	0.211
-561.529	-52.290	0.120	0.056
-560.515	-142.879	0.030	0.003
-559.500	122.190	0.022	0.027
-558.485	800.000	0.114	0.453
-557.471	-31.805	-0.250	-0.140
-556.456	330.990	0.138	-0.265
-555.442	-98.142	0.222	-0.057
-554.427	-147.932	-0.286	0.024
-553.412	33.515	0.125	-0.109
-552.398	172.705	0.112	-0.161
-551.383	800.000	0.048	0.189
-550.369	58.994	-0.316	-0.311
-549.354	-34.770	-0.369	0.202
-548.339	141.829	-0.047	-0.063
-547.325	-57.440	-0.159	0.070
-546.310	-200.000	0.027	-0.217
-545.296	494.068	-0.086	0.196
-544.281	-80.130	0.118	0.040
-543.266	-175.007	-0.079	-0.002
-542.252	-34.406	-0.299	0.164
-541.237	-138.196	0.468	-0.052
-540.223	800.000	-0.017	0.069
-539.208	789.128	-0.133	-0.365
-538.193	-200.000	-0.007	-0.310
-537.179	42.823	0.179	-0.163
-536.164	800.000	-0.065	0.205
-535.150	800.000	0.101	-0.324
-534.135	-150.405	-0.341	0.026
-533.121	-127.034	0.217	0.032
-532.106	-151.277	0.189	-0.014
-531.091	-200.000	0.001	0.082
-530.077	24.067	0.033	-0.027
-529.062	800.000	-0.023	-0.074
-528.048	95.751	-0.128	0.146
-527.033	337.276	0.083	0.162
-526.018	-54.294	0.276	-0.125
-525.004	-83.707	-0.226	-0.072
-523.989	-41.062	-0.042	0.022
-522.975	-88.318	0.233	-0.070
-521.960	-12.348	0.093	0.061
-520.945	800.000	-0.048	0.203
-519.931	422.325	-0.110	0.235
-518.916	-200.000	-0.001	0.402
-517.902	166.085	0.154	0.218
-516.887	800.000	-0.073	0.282
-515.872	800.000	0.024	0.071
-514.858	43.383	-0.274	-0.250
-513.843	24.478	0.101	0.083
-512.829	-94.333	-0.234	-0.064
-511.814	-83.293	0.300	0.096
-510.799	-154.961	0.249	0.016
-509.785	377.251	-0.094	-0.191
-508.770	-200.000	0.014	0.327
-507.756	168.593	0.022	-0.031
-506.741	-183.465	0.087	0.002
-505.726	632.251	-0.088	0.222
-504.712	-71.749	0.100	-0.037
-503.697	-47.683	0.130	0.063
-502.683	-24.986	-0.363	-0.215
-501.668	-200.000	-0.052	-0.242
-500.653	-56.390	-0.445	-0.197
-499.639	800.000	0.028	-0.082
-498.624	24.791	0.150	0.124
-497.610	-95.172	-0.154	0.041
-496.595	800.000	-0.084	-0.247
-495.581	-200.000	-0.031	-0.191
-494.566	92.617	0.215	0.242
-493.551	420.670	-0.156	-0.334
-492.537	-54.742	0.143	-0.065
-491.522	-70.513	0.136	-0.051
-490.508	-46.553	0.075	-0.036
-489.493	-136.855	-0.183	0.021
-488.478	60.441	0.116	-0.115
-487.464	-200.000	-0.050	-0.496
-486.449	106.150	-0.078	0.092
-485.435	110.232	-0.177	0.212
-484.420	-154.922	-0.234	-0.015
-483.405	367.390	0.081	0.163
-482.391	190.672	0.102	0.153
-481.376	800.000	-0.045	-0.127
-480.362	749.775	0.076	-0.205
-479.347	58.978	0.241	-0.237
-478.332	141.152	0.174	-0.230
-477.318	-105.280	-0.186	0.042
-476.303	14.408	-0.284	0.221
-475.289	9.142	0.301	0.227
-474.274	59.473	-0.142	-0.140
-473.259	-133.438	0.278	0.035
-472.245	-23.743	-0.146	-0.087
-471.230	542.828	0.111	0.265
-470.216	759.700	0.120	-0.325
-469.201	-135.381	0.179	0.021
-468.186	800.000	-0.048	-0.136
-467.172	158.035	0.185	0.256
-466.157	-200.000	0.031	0.295
-465.143	-67.547	-0.070	-0.027
-464.128	69.170	0.065	0.066
-463.113	-13.909	-0.154	-0.099
-462.099	789.373	0.017	-0.048
-461.084	255.997	0.202	0.346
-460.070	-122.617	-0.213	0.034
-459.055	-71.769	-0.464	0.173
-458.040	277.006	0.111	-0.197
-457.026	173.162	-0.203	-0.292
-456.011	-200.000	0.045	-0.260
-454.997	-60.426	-0.092	0.039
-453.982	180.793	0.075	-0.110
-452.968	16.436	0.068	-0.053
-451.953	-66.285	-0.158	0.063
-450.938	602.909	0.032	-0.078
-449.924	800.000	0.098	0.347
-448.909	39.431	-0.272	-0.243
-447.895	-200.000	-0.008	-0.353
-446.880	-151.725	0.057	-0.004
-445.865	800.000	0.112	0.413
-444.851	-134.324	0.171	0.021
-443.836	179.493	-0.094	0.137
-442.822	-200.000	-0.017	0.147
-441.807	595.970	-0.028	0.070
-440.792	-177.157	-0.408	-0.010
-439.778	15.696	0.099	0.077
-438.763	-134.583	0.295	0.036
-437.749	347.207	0.125	-0.244
-436.734	-189.427	-0.093	-0.001
-435.719	-200.000	0.006	-0.158
-434.705	-141.656	-0.056	0.006
-433.690	-124.429	0.069	0.011
-432.676	19.303	0.209	-0.167
-431.661	103.256	-0.105	0.122
-430.646	149.178	0.230	0.310
-429.632	-200.000	0.065	0.347
-428.617	-81.754	-0.253	0.082
-427.603	362.145	-0.036	0.071
-426.588	70.134	-0.048	-0.049
-425.573	-163.794	-0.471	0.022
-424.559	177.747	0.178	0.259
-423.544	-99.401	0.141	-0.035
-422.530	390.206	0.050	-0.103
-421.515	167.590	-0.146	-0.207
-420.500	-78.386	0.405	0.138
-419.486	-200.000	0.007	0.199
-418.471	-200.000	0.018	0.140
-417.457	-200.000	0.034	-0.148
-416.442	616.830	0.081	-0.203
-415.428	-87.942	-0.119	-0.036
-414.413	183.379	0.057	-0.084
-413.398	-155.412	0.295	0.019
-412.384	-32.193	-0.229	-0.127
-411.369	290.187	-0.181	-0.328
-410.355	-200.000	-0.017	0.118
-409.340	255.172	0.047	-0.080
-408.325	800.000	0.040	0.130
-407.311	50.863	-0.096	-0.090
-406.296	346.038	0.122	-0.239
-405.282	-70.541	-0.326	-0.123
-404.267	-150.722	-0.210	-0.016
-403.252	800.000	-0.058	-0.250
-402.238	-1.380	-0.290	-0.203
-401.223	229.730	-0.046	0.074
-400.209	-200.000	-0.065	-0.381
-399.194	-200.000	-0.029	0.250
-398.179	800.000	-0.021	-0.082
-397.165	-17.373	0.261	0.164
-396.150	347.181	0.114	-0.223
-395.136	1.168	-0.253	0.181
-394.121	174.722	-0.073	-0.105
-393.106	-57.639	0.469	-0.204
-392.092	-165.069	0.106	0.005
-391.077	-80.773	0.044	-0.015
-390.063	-200.000	0.012	0.308
-389.048	800.000	0.036	0.105
-388.033	-200.000	0.001	-0.042
-387.019	179.357	-0.127	-0.184
-386.004	-105.313	0.173	0.039
-384.990	-140.848	0.320	-0.033
-383.975	-200.000	0.056	0.355
-382.960	743.419	0.102	0.273
-381.946	-123.707	-0.245	0.039
-380.931	-200.000	0.277	-0.000
-379.917	-116.161	0.191	0.035
-378.902	800.000	-0.052	-0.187
-377.888	132.606	0.186	-0.239
-376.873	7.960	-0.108	0.080
-375.858	-7.310	0.138	0.093
-374.844	-200.000	-0.014	-0.332
-373.829	-200.000	-0.060	0.264
-372.815	-144.495	-0.101	-0.009
-371.800	247.564	0.054	-0.091
-370.785	123.206	-0.163	-0.203
-369.771	26.606	0.254	-0.211
-368.756	-200.000	0.003	-0.200
-367.742	-200.000	-0.014	0.463
-366.727	132.757	-0.037	-0.048
-365.712	-109.226	-0.249	0.052
-364.698	127.604	0.251	0.316
-363.683	-3.716	-0.118	0.081
-362.669	-101.490	-0.170	0.041
-361.654	341.883	-0.071	0.138
-360.639	800.000	0.003	0.012
-359.625	-200.000	0.036	0.219
-358.610	-97.208	-0.364	0.094
-357.596	-200.000	-0.021	-0.194
-356.581	-124.595	0.217	-0.034
-355.566	-200.000	0.010	0.112
-354.552	4.877	-0.287	0.210
-353.537	-80.850	0.149	0.049
-352.523	186.667	0.059	0.087
-351.508	-200.000	0.074	-0.350
-350.493	-200.000	-0.002	0.081
-349.479	-87.156	0.257	0.078
-348.464	-200.000	-0.012	0.190
-347.450	762.152	-0.167	0.449
-346.435	32.062	0.225	0.193
-345.420	376.202	-0.048	0.097
-344.406	-150.035	-0.292	0.023
-343.391	-73.394	0.223	0.081
-342.377	-200.000	0.054	-0.278
-341.362	-68.897	0.082	0.031
-340.348	56.975	0.150	-0.146
-339.333	-57.318	-0.209	-0.091
-338.318	-113.019	-0.250	0.049
-337.304	800.000	0.071	0.209
-336.289	800.000	-0.088	-0.273
-335.275	25.492	-0.200	-0.165
-334.260	6.501	0.038	-0.028
-333.245	-121.663	0.057	0.009
-332.231	375.253	0.073	0.148
-331.216	-181.255	-0.338	0.007
-330.202	-22.084	0.169	-0.102
-329.187	-200.000	-0.024	0.194
-328.172	-141.622	0.156	-0.016
-327.158	-200.000	-0.052	0.357
-326.143	-200.000	-0.009	0.266
-325.129	74.048	-0.053	0.055
-324.114	-99.580	0.162	-0.040
-323.099	-200.000	-0.039	-0.185
-322.085	-144.871	-0.095	0.009
-321.070	-200.000	0.051	0.266
-320.056	-23.602	0.259	0.154
-319.041	-162.536	-0.213	-0.010
-318.026	202.044	0.015	0.023
-317.012	22.049	0.365	0.295
-315.997	-200.000	-0.016	-0.119
-314.983	-200.000	0.032	-0.200
-313.968	404.673	0.210	-0.438
-312.953	163.653	0.186	-0.260
-311.939	-94.709	0.217	-0.058
-310.924	800.000	0.077	0.222
-309.910	25.394	-0.233	0.192
-308.895	-82.758	0.231	-0.074
-307.880	-195.885	0.172	0.001
-306.866	-140.249	0.303	0.031
-305.851	-118.890	-0.211	-0.037
-304.837	11.900	0.132	-0.101
-303.822	-173.588	-0.226	0.007
-302.807	248.105	-0.081	0.136
-301.793	81.645	-0.126	0.135
-300.778	-200.000	-0.065	0.419
-299.764	168.858	-0.082	-0.116
-298.749	175.842	-0.096	-0.138
-297.735	266.814	0.134	0.232
-296.720	-39.267	0.290	0.151
-295.705	-152.552	0.247	-0.017
-294.691	-121.572	-0.341	0.056
-293.676	-127.365	0.311	0.045
-292.662	800.000	-0.127	0.363
-291.647	-92.905	-0.204	-0.057
-290.632	32.610	-0.213	-0.182
-289.618	6.831	0.239	-0.176
-288.603	-200.000	-0.004	0.194
-287.589	563.530	0.036	-0.087
-286.574	15.205	0.152	0.118
-285.559	-83.117	0.056	0.018
-284.545	23.382	-0.352	-0.287
-283.530	193.518	-0.198	0.297
-282.516	-162.548	0.260	0.013
-281.501	723.699	-0.076	-0.199
-280.486	-191.199	0.135	-0.001
-279.472	-14.362	0.183	0.117
-278.457	-33.154	-0.228	-0.125
-277.443	224.436	0.198	-0.316
-276.428	23.771	0.074	0.060
-275.413	26.388	0.132	0.110
-274.399	-79.102	-0.305	-0.102
-273.384	727.014	-0.054	-0.141
-272.370	-120.354	-0.256	-0.043
-271.355	744.411	0.072	-0.192
-270.340	-10.744	0.252	-0.165
-269.326	-52.012	0.073	-0.034
-268.311	367.740	0.031	-0.062
-267.297	391.533	0.086	0.177
-266.282	48.754	-0.274	-0.254
-265.267	-10.201	0.200	-0.131
-264.253	-200.000	-0.033	0.201
-263.238	40.511	-0.164	0.146
-262.224	309.054	-0.064	-0.118
-261.209	67.095	-0.222	0.224
-260.195	70.986	0.104	-0.107
-259.180	-30.289	0.056	0.031
-258.165	-30.723	-0.269	-0.150
-257.151	-200.000	-0.014	0.089
-256.136	459.090	-0.086	0.189
-255.122	44.228	0.160	0.145
-254.107	-200.000	0.011	-0.105
-253.092	201.570	0.124	-0.189
-252.078	-86.846	0.144	-0.043
-251.063	-200.000	-0.039	0.436
-250.049	-75.041	-0.144	0.051
-249.034	-148.135	-0.230	-0.019
-248.019	800.000	-0.062	-0.205
-247.005	800.000	0.090	0.260
-245.990	72.076	0.192	-0.197
-244.976	-105.562	-0.113	0.025
-243.961	-200.000	0.002	0.139
-242.946	-21.041	0.190	-0.115
-241.932	-56.555	0.225	-0.098
-240.917	-119.090	-0.104	-0.018
-239.903	800.000	0.096	0.281
-238.888	-191.273	0.071	-0.001
-237.873	140.939	0.044	0.058
-236.859	193.805	0.202	0.302
-235.844	2.677	0.311	-0.223
-234.830	692.109	-0.061	0.157
-233.815	-200.000	-0.007	-0.050
-232.800	800.000	-0.025	-0.070
-231.786	-22.305	0.201	0.120
-230.771	-2.038	-0.288	0.200
-229.757	-55.197	0.038	-0.017
-228.742	235.675	-0.117	0.191
-227.727	-129.894	0.370	0.050
-226.713	-157.799	-0.302	0.018
-225.698	-200.000	-0.022	-0.173
-224.684	36.078	0.066	0.057
-223.669	114.868	-0.112	-0.134
-222.655	800.000	0.027	-0.117
-221.640	93.547	-0.054	0.061
-220.625	43.200	-0.319	0.288
-219.611	-200.000	0.023	-0.105
-218.596	-200.000	-0.005	-0.130
-217.582	121.129	0.162	-0.199
-216.567	-200.000	0.008	0.066
-215.552	63.886	0.208	-0.207
-214.538	179.641	0.124	-0.179
-213.523	-77.607	-0.231	-0.079
-212.509	-200.000	0.012	0.087
-211.494	368.742	0.204	-0.407
-210.479	-63.589	0.316	-0.128
-209.465	313.197	-0.066	0.122
-208.450	-200.000	0.029	0.193
-207.436	-200.000	-0.020	0.121
-206.421	-15.016	-0.040	-0.025
-205.406	800.000	0.070	-0.214
-204.392	-130.564	0.404	0.054
-203.377	-27.951	0.158	0.090
-202.363	-60.166	0.272	0.114
-201.348	-138.552	-0.089	0.010
-200.333	92.426	-0.146	-0.162
-199.319	-167.397	0.252	-0.010
-198.304	393.994	-0.059	-0.122
-197.290	3.525	0.197	-0.142
-196.275	339.618	-0.074	-0.142
-195.260	-17.206	-0.200	-0.125
-194.246	-136.472	0.160	0.018
-193.231	177.207	0.230	0.330
-192.217	-200.000	0.037	-0.231
-191.202	42.390	0.146	0.131
-190.187	36.467	-0.333	-0.290
-189.173	590.863	-0.071	-0.174
-188.158	800.000	0.081	-0.285
-187.144	-38.712	0.151	-0.079
-186.129	-94.205	0.457	-0.123
-185.114	-172.014	0.317	-0.010
-184.100	159.668	-0.251	0.345
-183.085	-7.027	-0.263	0.176
-182.071	-88.097	0.298	0.088
-181.056	800.000	-0.050	-0.162
-180.042	-7.891	-0.173	0.115
-179.027	158.027	-0.072	-0.098
-178.012	-81.651	-0.269	0.087
-176.998	566.292	0.100	0.239
-175.983	-36.408	-0.216	0.115
-174.969	103.912	0.217	-0.251
-173.954	268.329	0.200	0.346
-172.939	-50.311	0.266	-0.124
-171.925	-84.568	0.198	-0.062
-170.910	-15.282	0.244	-0.154
-169.896	11.839	0.275	0.208
-168.881	-84.521	0.113	-0.035
-167.866	-68.830	0.247	-0.094
-166.852	800.000	-0.108	0.305
-165.837	-77.205	0.259	0.089
-164.823	800.000	-0.058	-0.163
-163.808	-147.884	-0.373	-0.031
-162.793	-160.933	0.347	-0.018
-161.779	800.000	0.038	-0.135
-160.764	-52.673	0.127	0.058
-159.750	800.000	0.119	0.439
-158.735	160.310	0.020	-0.028
-157.720	-200.000	0.038	0.272
-156.706	-200.000	0.005	-0.347
-155.691	-200.000	0.036	0.337
-154.677	200.818	-0.170	0.258
-153.662	-200.000	0.026	-0.219
-152.647	319.122	-0.078	0.146
-151.633	-200.000	-0.004	0.030
-150.618	143.732	0.100	0.131
-149.604	-91.128	0.194	0.055
-148.589	277.143	-0.126	0.221
-147.574	237.707	-0.161	0.264
-146.560	163.201	0.188	0.260
-145.545	-137.620	0.114	0.013
-144.531	53.082	-0.212	-0.200
-143.516	-0.535	0.335	0.234
-142.502	-47.278	0.389	0.187
-141.487	-22.224	-0.232	-0.139
-140.472	-148.410	0.218	0.018
-139.458	800.000	0.052	0.167
-138.443	-52.663	-0.244	0.111
-137.429	21.115	0.153	0.122
-136.414	-12.620	0.376	0.242
-135.399	-110.540	0.329	0.067
-134.385	36.982	0.055	0.048
-133.370	-129.787	0.256	-0.035
-132.356	515.504	0.075	0.171
-131.341	-200.000	-0.025	-0.254
-130.326	-200.000	-0.057	-0.409
-129.312	-168.398	0.303	0.011
-128.297	78.859	-0.228	0.240
-127.283	-200.000	0.052	0.263
-126.268	521.613	-0.026	0.060
-125.253	114.241	0.164	0.197
-124.239	106.780	0.145	0.169
-123.224	324.308	-0.190	0.358
-122.210	-74.567	0.442	0.157
-121.195	-8.145	0.174	0.115
-120.180	196.870	-0.075	-0.113
