DTS Sentinel unit serial number:	SN413079Multiplexer serial number:	ORYXHardware model number:	OX4-SRSoftware version number:	ORYX F/W v4.00 Oryx Data Collector v3.7.2.0data status	okinstallation	princeton_trtdifferential loss correction	single-endedforward channel	channel 1reverse channel	N/Adate	2019/09/16time	16:46:35forward acquisition time	60.00reverse acquisition time	0.00gamma	496.2192k internal	0.2296k external	0.2296temperature offset calibration	0.9963default loss term (dB/km)	0.3790temperature slope calibration	1.0000multiplexer offset coefficient	1.0000multiplexer slope coefficient	1.0000fibre end	0.00T internal ref (°C)	39.67T ext. ref 1 (°C)	15.19T ext. ref 2 (°C)	33.88length (m)	temperature (°C)	Stokes	anti-Stokes-747.200	9.980	0.123	0.095
-746.185	549.769	0.212	0.518
-745.171	46.088	-0.018	0.017
-744.156	-162.727	0.231	-0.012
-743.142	10.362	0.297	-0.231
-742.127	-200.000	-0.018	0.182
-741.112	381.173	-0.137	-0.288
-740.098	457.279	-0.164	0.372
-739.083	15.131	-0.196	0.157
-738.069	288.034	-0.114	0.210
-737.054	37.566	-0.220	0.200
-736.039	42.765	-0.268	-0.249
-735.025	287.969	0.079	-0.146
-734.010	-36.610	0.124	-0.068
-732.996	-48.220	-0.572	-0.282
-731.981	800.000	0.049	0.179
-730.966	-21.044	0.103	-0.064
-729.952	-80.880	-0.178	0.060
-728.937	270.173	0.010	0.018
-727.923	-111.647	-0.293	0.061
-726.908	-200.000	0.007	0.075
-725.894	115.432	0.103	-0.128
-724.879	800.000	-0.110	-0.420
-723.864	45.480	0.068	-0.064
-722.850	-200.000	0.017	0.118
-721.835	316.126	-0.068	-0.131
-720.821	104.181	-0.267	-0.320
-719.806	43.770	-0.064	-0.060
-718.791	149.004	-0.191	-0.264
-717.777	-200.000	-0.008	0.099
-716.762	-79.137	0.127	-0.044
-715.748	-128.388	-0.253	0.037
-714.733	-39.645	-0.148	0.079
-713.718	-155.534	0.319	0.021
-712.704	13.665	-0.222	0.176
-711.689	182.155	0.145	0.217
-710.675	88.819	0.202	-0.229
-709.660	254.699	0.092	0.161
-708.645	-67.441	0.367	0.147
-707.631	136.254	0.249	-0.331
-706.616	800.000	-0.050	-0.212
-705.602	-200.000	-0.052	0.277
-704.587	-108.670	0.269	0.059
-703.572	249.287	-0.111	0.191
-702.558	-200.000	-0.048	0.284
-701.543	29.455	-0.240	0.208
-700.529	-89.720	0.290	0.087
-699.514	-17.617	0.063	0.040
-698.499	565.939	-0.114	-0.282
-697.485	26.429	0.259	-0.221
-696.470	-108.954	0.246	-0.054
-695.456	-200.000	0.002	0.054
-694.441	128.870	-0.119	-0.155
-693.426	-133.402	0.238	0.030
-692.412	91.430	0.310	-0.355
-691.397	-63.856	-0.091	0.038
-690.383	113.556	0.242	0.300
-689.368	-91.125	-0.266	0.078
-688.354	-64.256	0.159	-0.066
-687.339	-200.000	0.013	0.114
-686.324	-200.000	-0.016	0.196
-685.310	-61.590	0.332	0.142
-684.295	42.964	0.343	0.319
-683.281	-93.455	0.216	-0.061
-682.266	-91.556	0.033	-0.009
-681.251	-122.107	-0.465	-0.078
-680.237	43.708	-0.063	-0.058
-679.222	254.718	-0.195	-0.341
-678.208	-155.800	-0.253	-0.016
-677.193	10.276	0.165	-0.128
-676.178	-35.679	0.224	-0.124
-675.164	194.374	0.243	0.376
-674.149	566.683	-0.046	-0.113
-673.135	64.173	-0.336	-0.344
-672.120	-139.394	0.231	-0.025
-671.105	800.000	-0.073	-0.265
-670.091	-77.293	0.278	0.098
-669.076	800.000	-0.122	0.522
-668.062	-76.346	0.258	0.092
-667.047	76.017	-0.071	0.077
-666.032	124.704	-0.041	0.052
-665.018	-200.000	-0.064	-0.420
-664.003	-39.521	-0.153	-0.082
-662.989	-200.000	0.008	-0.046
-661.974	50.659	0.109	-0.105
-660.959	-200.000	0.044	0.246
-659.945	-200.000	-0.012	0.161
-658.930	-21.602	0.294	-0.182
-657.916	44.830	0.044	-0.041
-656.901	-200.000	-0.029	0.176
-655.886	800.000	-0.021	0.090
-654.872	12.327	-0.416	0.326
-653.857	722.559	-0.005	0.013
-652.843	138.128	-0.080	0.107
-651.828	254.600	-0.118	0.206
-650.814	-200.000	0.028	0.227
-649.799	-58.576	-0.135	0.060
-648.784	-200.000	0.004	0.198
-647.770	-154.450	-0.280	-0.019
-646.755	17.242	0.080	0.065
-645.741	-200.000	-0.005	-0.141
-644.726	-94.159	-0.529	-0.148
-643.711	-13.837	-0.195	0.129
-642.697	183.973	0.111	0.168
-641.682	-200.000	-0.017	0.284
-640.668	76.553	0.228	0.246
-639.653	-81.924	-0.228	-0.076
-638.638	-200.000	0.020	-0.189
-637.624	-113.438	0.103	-0.021
-636.609	-186.232	0.052	0.001
-635.595	800.000	0.090	-0.375
-634.580	586.721	-0.055	0.138
-633.565	-105.468	-0.315	-0.073
-632.551	-10.619	-0.246	-0.165
-631.536	-189.009	-0.077	0.001
-630.522	63.665	-0.242	0.248
-629.507	3.229	0.033	0.024
-628.492	-104.136	-0.147	0.035
-627.478	336.450	-0.167	-0.331
-626.463	38.051	0.145	0.131
-625.449	-65.874	-0.277	0.113
-624.434	-58.270	0.172	0.076
-623.419	-66.921	-0.162	0.065
-622.405	-97.994	-0.304	0.080
-621.390	248.560	0.277	0.476
-620.376	89.552	0.126	-0.143
-619.361	331.112	-0.087	-0.170
-618.346	800.000	-0.083	-0.240
-617.332	-101.035	0.307	-0.076
-616.317	37.614	-0.053	0.048
-615.303	-200.000	0.033	-0.230
-614.288	357.106	0.066	0.134
-613.273	-151.161	-0.108	0.008
-612.259	-118.497	0.192	-0.035
-611.244	-67.894	-0.128	-0.051
-610.230	-200.000	-0.056	0.265
-609.215	-114.825	0.238	-0.046
-608.201	244.544	-0.109	0.186
-607.186	-65.506	0.184	0.075
-606.171	800.000	-0.134	-0.418
-605.157	-64.191	-0.171	-0.071
-604.142	76.508	-0.166	0.179
-603.128	-81.496	0.337	-0.113
-602.113	510.281	0.057	-0.136
-601.098	-53.806	0.203	-0.094
-600.084	-200.000	0.010	-0.293
-599.069	20.882	-0.249	-0.205
-598.055	-176.619	-0.130	-0.003
-597.040	-85.203	0.262	0.083
-596.025	-98.733	0.228	-0.059
-595.011	-42.317	-0.217	0.113
-593.996	-51.085	-0.172	-0.082
-592.982	176.159	-0.093	0.138
-591.967	-200.000	0.045	-0.593
-590.952	-19.440	-0.123	0.077
-589.938	233.706	0.032	0.053
-588.923	800.000	0.035	0.145
-587.909	-56.960	0.239	0.107
-586.894	-149.024	-0.138	-0.011
-585.879	414.681	0.093	-0.201
-584.865	-150.744	-0.130	-0.010
-583.850	-27.593	0.236	0.139
-582.836	69.072	0.053	-0.055
-581.821	129.884	0.171	0.222
-580.806	189.733	-0.221	-0.336
-579.792	25.765	-0.091	-0.077
-578.777	205.365	0.104	-0.164
-577.763	800.000	-0.063	-0.218
-576.748	99.366	0.050	0.058
-575.733	-200.000	0.038	0.369
-574.719	-8.129	0.246	-0.169
-573.704	-24.841	0.079	-0.048
-572.690	-162.768	-0.261	0.013
-571.675	800.000	-0.116	-0.357
-570.661	800.000	-0.096	-0.371
-569.646	800.000	0.017	-0.073
-568.631	-87.904	-0.139	0.043
-567.617	294.310	-0.043	0.079
-566.602	-87.889	-0.035	0.011
-565.588	-42.688	-0.143	0.074
-564.573	-200.000	0.003	0.051
-563.558	-200.000	0.023	0.116
-562.544	160.706	-0.090	-0.128
-561.529	112.893	0.081	-0.100
-560.515	-134.240	-0.188	0.024
-559.500	77.831	-0.108	0.117
-558.485	-53.833	-0.180	0.083
-557.471	63.588	-0.023	-0.023
-556.456	-200.000	-0.062	-0.410
-555.442	431.961	0.071	-0.156
-554.427	83.708	0.189	-0.209
-553.412	650.693	0.087	-0.227
-552.398	55.672	-0.271	0.266
-551.383	-200.000	-0.034	-0.233
-550.369	800.000	0.045	-0.178
-549.354	8.063	-0.095	-0.072
-548.339	800.000	0.010	0.045
-547.325	121.719	0.160	-0.203
-546.310	115.968	-0.053	0.065
-545.296	-58.737	0.254	-0.112
-544.281	639.611	-0.112	-0.290
-543.266	-134.799	0.288	-0.035
-542.252	-19.129	0.194	0.122
-541.237	309.895	0.152	0.289
-540.223	440.618	0.177	-0.392
-539.208	-200.000	0.042	0.228
-538.193	-47.245	0.028	0.014
-537.179	-92.308	-0.189	-0.054
-536.164	-60.472	-0.387	-0.167
-535.150	-163.721	-0.122	0.006
-534.135	-135.754	0.140	0.017
-533.121	-101.658	0.239	0.059
-532.106	-75.090	-0.281	-0.102
-531.091	379.533	-0.103	-0.214
-530.077	-96.119	-0.115	0.031
-529.062	-200.000	-0.016	-0.186
-528.048	49.048	-0.281	-0.268
-527.033	381.977	0.055	0.114
-526.018	-200.000	-0.009	0.060
-525.004	-132.116	-0.199	0.026
-523.989	0.088	-0.260	-0.188
-522.975	75.824	-0.169	-0.181
-521.960	-99.028	0.047	-0.012
-520.945	210.323	0.129	-0.204
-519.931	170.905	-0.108	0.157
-518.916	800.000	0.009	0.031
-517.902	141.073	0.080	0.107
-516.887	14.634	0.263	0.208
-515.872	-102.182	0.247	0.060
-514.858	269.047	-0.068	-0.121
-513.843	-119.306	0.133	0.024
-512.829	-60.590	0.459	0.197
-511.814	-135.831	-0.310	0.037
-510.799	-152.190	0.208	-0.015
-509.785	-23.206	0.096	-0.058
-508.770	-41.941	-0.263	0.137
-507.756	-67.530	-0.237	-0.094
-506.741	-200.000	0.010	0.079
-505.726	-100.256	-0.164	-0.041
-504.712	-200.000	0.008	0.131
-503.697	-7.075	0.211	-0.145
-502.683	-200.000	0.071	-0.475
-501.668	-120.157	-0.208	0.036
-500.653	280.295	-0.027	0.049
-499.639	-200.000	0.008	-0.118
-498.624	-200.000	-0.011	0.386
-497.610	259.199	-0.160	0.279
-496.595	800.000	-0.090	0.303
-495.581	773.095	0.081	0.225
-494.566	-155.435	-0.276	-0.018
-493.551	-99.622	0.225	0.057
-492.537	131.449	-0.073	0.095
-491.522	-81.420	0.050	-0.017
-490.508	25.732	-0.157	0.132
-489.493	64.798	0.172	0.176
-488.478	58.107	0.131	0.130
-487.464	-68.647	-0.086	0.034
-486.449	-200.000	0.014	-0.071
-485.435	-200.000	-0.000	0.019
-484.420	153.074	-0.047	-0.065
-483.405	-65.770	0.168	-0.068
-482.391	-57.062	-0.263	0.117
-481.376	-63.870	-0.329	-0.136
-480.362	284.597	-0.086	-0.157
-479.347	174.407	-0.126	0.185
-478.332	-13.565	-0.173	0.113
-477.318	6.402	-0.181	-0.136
-476.303	-148.532	0.256	0.021
-475.289	57.111	-0.211	0.208
-474.274	-28.813	-0.121	0.070
-473.259	186.428	-0.156	-0.235
-472.245	800.000	0.043	-0.158
-471.230	-170.569	0.082	0.003
-470.216	800.000	-0.032	-0.137
-469.201	-92.899	0.326	-0.092
-468.186	-33.577	0.085	0.047
-467.172	-200.000	-0.007	0.176
-466.157	383.691	0.061	0.127
-465.143	30.131	-0.051	-0.044
-464.128	461.172	-0.063	-0.141
-463.113	138.176	0.219	-0.291
-462.099	238.446	-0.112	-0.188
-461.084	-200.000	0.034	-0.276
-460.070	-20.249	-0.166	0.103
-459.055	87.184	0.112	-0.125
-458.040	154.706	-0.183	0.253
-457.026	234.380	0.267	0.444
-456.011	-127.828	-0.227	-0.033
-454.997	-146.766	-0.351	0.031
-453.982	800.000	-0.040	-0.165
-452.968	72.704	-0.192	0.203
-451.953	328.703	-0.140	0.272
-450.938	112.093	0.140	-0.170
-449.924	-54.575	-0.322	-0.147
-448.909	-200.000	0.041	0.278
-447.895	-200.000	-0.013	-0.268
-446.880	45.464	0.208	0.194
-445.865	91.680	0.155	0.175
-444.851	-45.930	-0.056	0.028
-443.836	-200.000	0.012	0.301
-442.822	93.052	-0.105	0.120
-441.807	-127.182	-0.163	0.024
-440.792	800.000	-0.146	0.469
-439.778	-78.173	-0.112	-0.039
-438.763	-98.634	-0.115	-0.030
-437.749	51.783	-0.243	-0.233
-436.734	-44.595	-0.028	0.014
-435.719	800.000	0.034	-0.119
-434.705	-3.689	-0.047	-0.033
-433.690	800.000	0.066	-0.220
-432.676	800.000	-0.051	0.216
-431.661	546.116	0.070	0.170
-430.646	71.778	0.107	-0.112
-429.632	800.000	0.055	-0.174
-428.617	47.890	-0.085	0.080
-427.603	-200.000	0.013	0.376
-426.588	-129.053	0.251	0.035
-425.573	445.638	0.106	0.235
-424.559	229.157	0.037	0.061
-423.544	-8.749	0.225	0.152
-422.530	-200.000	-0.023	-0.186
-421.515	325.927	-0.073	0.141
-420.500	25.187	-0.143	0.119
-419.486	800.000	-0.071	-0.224
-418.471	-200.000	0.013	-0.062
-417.457	800.000	0.016	-0.050
-416.442	-135.111	0.401	0.049
-415.428	524.242	0.019	-0.045
-414.413	-200.000	-0.027	-0.143
-413.398	32.292	0.113	-0.098
-412.384	-200.000	-0.000	-0.125
-411.369	47.137	-0.046	-0.044
-410.355	-129.111	0.349	0.049
-409.340	-114.179	0.342	-0.067
-408.325	-200.000	0.026	-0.347
-407.311	-101.648	0.108	0.026
-406.296	-164.867	0.267	0.012
-405.282	-94.521	0.161	-0.044
-404.267	41.410	-0.080	-0.073
-403.252	740.428	0.054	0.147
-402.238	-38.656	-0.220	0.117
-401.223	-9.261	-0.216	-0.146
-400.209	743.142	-0.046	0.125
-399.194	-123.364	0.357	0.057
-398.179	-51.394	-0.500	-0.236
-397.165	-200.000	-0.001	-0.119
-396.150	-101.704	-0.130	0.032
-395.136	46.001	0.175	0.163
-394.121	43.047	0.070	0.064
-393.106	-15.829	-0.021	0.013
-392.092	800.000	0.025	0.083
-391.077	-185.518	-0.114	-0.002
-390.063	-59.700	0.167	0.072
-389.048	-73.815	-0.094	-0.034
-388.033	169.706	-0.046	0.066
-387.019	330.193	0.099	0.191
-386.004	517.889	0.135	0.317
-384.990	76.474	-0.077	0.082
-383.975	-4.208	0.248	0.173
-382.960	-18.395	0.172	0.108
-381.946	514.018	-0.021	0.050
-380.931	-24.495	-0.129	0.077
-379.917	-53.315	0.099	-0.046
-378.902	-139.777	-0.279	-0.030
-377.888	-105.944	-0.167	-0.038
-376.873	-80.786	-0.213	-0.071
-375.858	-53.206	-0.220	-0.102
-374.844	800.000	-0.100	0.346
-373.829	-40.864	-0.043	-0.023
-372.815	-200.000	-0.032	-0.546
-371.800	207.822	-0.144	-0.227
-370.785	-200.000	-0.003	0.234
-369.771	4.179	0.170	-0.126
-368.756	-62.160	0.411	-0.173
-367.742	104.114	-0.122	0.145
-366.727	800.000	0.019	0.052
-365.712	-120.013	0.319	0.055
-364.698	-200.000	0.000	-0.146
-363.683	-54.489	-0.092	-0.042
-362.669	-47.898	-0.149	-0.073
-361.654	-11.660	-0.063	0.042
-360.639	-121.002	0.197	0.033
-359.625	-82.510	0.312	-0.102
-358.610	-16.848	-0.071	0.045
-357.596	263.581	-0.041	0.071
-356.581	138.911	-0.094	0.124
-355.566	-116.590	0.089	-0.016
-354.552	-164.076	-0.283	-0.013
-353.537	800.000	-0.055	0.215
-352.523	-104.947	0.524	0.121
-351.508	167.177	0.146	-0.208
-350.493	41.572	-0.213	-0.194
-349.479	222.551	-0.038	0.062
-348.464	54.066	0.277	-0.268
-347.450	-200.000	0.012	-0.158
-346.435	-200.000	0.025	-0.219
-345.420	-124.442	-0.087	0.014
-344.406	115.138	-0.147	-0.181
-343.391	-59.689	0.255	0.110
-342.377	75.246	-0.308	0.327
-341.362	-10.434	0.101	0.067
-340.348	-114.883	0.456	-0.087
-339.333	149.085	0.095	-0.130
-338.318	50.473	0.063	0.060
-337.304	42.926	-0.090	0.083
-336.289	47.883	-0.156	0.147
-335.275	800.000	0.041	0.176
-334.260	763.613	-0.074	-0.203
-333.245	297.381	-0.097	0.180
-332.231	-200.000	-0.004	0.065
-331.216	-38.575	0.246	0.131
-330.202	-32.753	-0.160	0.089
-329.187	217.800	-0.132	0.212
-328.172	-200.000	0.029	-0.171
-327.158	151.049	0.187	-0.255
-326.143	-112.339	-0.256	0.052
-325.129	-200.000	0.001	0.136
-324.114	36.261	-0.093	0.083
-323.099	24.330	0.181	0.150
-322.085	239.315	0.081	0.136
-321.070	-9.674	0.287	0.192
-320.056	45.648	0.243	0.226
-319.041	-100.268	-0.135	-0.034
-318.026	-138.263	-0.012	-0.001
-317.012	-80.040	0.116	-0.039
-315.997	18.008	-0.190	-0.153
-314.983	213.785	-0.209	0.332
-313.968	271.017	0.117	0.207
-312.953	196.509	0.081	-0.123
-311.939	160.406	-0.170	0.239
-310.924	558.141	-0.083	-0.201
-309.910	-200.000	0.035	0.289
-308.895	-149.713	0.366	-0.029
-307.880	147.324	0.060	-0.081
-306.866	-113.814	0.166	0.032
-305.851	353.721	0.035	-0.070
-304.837	-43.155	0.275	0.140
-303.822	448.704	0.141	-0.311
-302.807	4.487	0.251	-0.185
-301.793	6.236	0.069	0.052
-300.778	232.270	0.033	0.055
-299.764	234.579	0.096	-0.160
-298.749	94.937	0.158	-0.180
-297.735	116.573	0.053	0.066
-296.720	414.901	0.114	0.243
-295.705	-58.099	0.170	-0.075
-294.691	-16.052	0.123	-0.079
-293.676	64.246	-0.218	-0.220
-292.662	265.393	0.071	-0.125
-291.647	-121.900	0.288	0.048
-290.632	-200.000	-0.050	0.331
-289.618	-54.015	-0.087	0.040
-288.603	-200.000	0.013	0.156
-287.589	-48.262	0.054	-0.026
-286.574	19.314	0.274	0.221
-285.559	-200.000	0.019	0.189
-284.545	-87.493	-0.414	0.126
-283.530	-44.645	0.022	0.011
-282.516	24.075	-0.090	0.075
-281.501	-200.000	0.019	0.169
-280.486	280.159	0.102	0.183
-279.472	800.000	-0.108	0.303
-278.457	-85.783	0.176	-0.055
-277.443	164.554	-0.119	-0.169
-276.428	-30.980	-0.209	0.118
-275.413	16.512	0.451	-0.357
-274.399	800.000	0.020	-0.065
-273.384	-112.357	-0.109	-0.022
-272.370	-82.431	0.353	-0.115
-271.355	-53.333	0.232	-0.107
-270.340	-200.000	0.031	0.348
-269.326	-200.000	0.047	-0.383
-268.311	-56.397	-0.203	0.090
-267.297	-82.874	0.270	-0.087
-266.282	612.140	-0.103	-0.259
-265.267	59.073	0.206	-0.203
-264.253	-110.182	0.179	-0.037
-263.238	40.241	0.084	-0.076
-262.224	693.125	-0.153	-0.403
-261.209	424.181	0.047	-0.102
-260.195	447.584	0.124	0.273
-259.180	67.154	0.212	-0.217
-258.165	-200.000	0.018	-0.228
-257.151	-200.000	0.004	0.054
-256.136	-85.361	0.144	0.045
-255.122	-159.276	-0.151	0.009
-254.107	-97.377	-0.346	-0.090
-253.092	800.000	-0.088	-0.302
-252.078	21.283	0.268	0.219
-251.063	-149.690	0.145	-0.011
-250.049	291.704	0.018	-0.033
-249.034	513.898	-0.120	0.281
-248.019	-95.142	0.287	-0.078
-247.005	22.889	0.077	-0.063
-245.990	310.449	-0.135	-0.253
-244.976	-81.661	0.325	-0.107
-243.961	43.692	-0.092	0.085
-242.946	93.706	0.189	0.215
-241.932	-55.244	-0.099	0.045
-240.917	-200.000	0.106	-0.525
-239.903	84.027	0.119	0.130
-238.888	-9.575	-0.165	0.110
-237.873	155.934	0.061	-0.084
-236.859	35.399	0.130	-0.115
-235.844	-164.150	-0.317	-0.015
-234.830	-48.221	0.047	0.023
-233.815	-200.000	0.025	-0.222
-232.800	117.701	-0.173	0.213
-231.786	-200.000	0.050	-0.275
-230.771	20.679	-0.047	-0.038
-229.757	-200.000	-0.055	0.254
-228.742	243.190	-0.159	0.267
-227.727	800.000	-0.091	0.316
-226.713	172.131	-0.103	0.148
-225.698	301.320	0.219	0.405
-224.684	-200.000	-0.028	0.400
-223.669	800.000	-0.010	0.043
-222.655	-43.865	0.029	-0.015
-221.640	38.738	0.231	-0.207
-220.625	-100.307	0.295	-0.073
-219.611	-19.000	0.306	-0.190
-218.596	124.114	-0.146	0.184
-217.582	78.118	-0.246	-0.263
-216.567	-110.213	0.336	0.070
-215.552	399.193	0.023	0.049
-214.538	-60.181	-0.038	0.016
-213.523	-107.639	0.028	0.006
-212.509	723.289	0.070	-0.186
-211.494	-53.101	0.052	0.024
-210.479	223.128	-0.107	-0.173
-209.465	131.886	0.097	-0.125
-208.450	-200.000	-0.023	0.112
-207.436	800.000	-0.044	-0.178
-206.421	61.525	0.008	-0.008
-205.406	176.854	0.023	-0.034
-204.392	-172.528	-0.389	-0.012
-203.377	78.073	-0.197	0.211
-202.363	234.175	-0.154	0.255
-201.348	-12.148	0.218	-0.143
-200.333	2.750	-0.067	0.049
-199.319	-61.332	-0.310	-0.131
-198.304	589.546	0.137	0.337
-197.290	-200.000	0.012	0.469
-196.275	76.804	-0.345	-0.366
-195.260	87.113	0.121	-0.133
-194.246	-46.154	-0.230	0.113
-193.231	-200.000	0.009	0.374
-192.217	-200.000	-0.007	0.296
-191.202	800.000	-0.063	0.217
-190.187	-21.041	-0.214	-0.131
-189.173	-24.422	0.141	0.084
-188.158	81.895	-0.095	0.103
-187.144	19.183	-0.215	-0.173
-186.129	-58.032	-0.275	0.120
-185.114	-60.702	0.189	0.080
-184.100	-162.142	-0.142	-0.007
-183.085	-200.000	0.008	0.124
-182.071	-200.000	0.027	-0.304
-181.056	-200.000	-0.141	-0.000
-180.042	-95.600	0.226	0.060
-179.027	1.858	0.132	-0.095
-178.012	172.778	-0.194	-0.279
-176.998	-59.595	-0.138	-0.059
-175.983	63.510	0.009	0.009
-174.969	800.000	0.094	-0.289
-173.954	800.000	0.102	0.423
-172.939	31.357	0.327	-0.281
-171.925	-96.306	0.108	0.029
-170.910	-76.528	-0.416	-0.146
-169.896	-200.000	-0.004	0.403
-168.881	-125.093	0.157	-0.024
-167.866	184.984	-0.089	0.131
-166.852	-51.859	-0.253	0.117
-165.837	-200.000	-0.070	-0.494
-164.823	255.372	0.118	-0.202
-163.808	39.984	0.091	0.082
-162.793	-200.000	0.012	0.071
-161.779	-45.338	-0.213	0.106
-160.764	439.458	0.103	0.224
-159.750	-177.408	0.491	0.012
-158.735	-16.203	0.071	-0.045
-157.720	-155.528	-0.237	-0.015
-156.706	612.749	-0.049	-0.122
-155.691	800.000	0.029	-0.094
-154.677	217.969	-0.153	0.244
-153.662	-41.014	0.058	-0.030
-152.647	34.338	-0.126	-0.110
-151.633	228.862	-0.111	-0.181
-150.618	-33.866	0.260	0.143
-149.604	753.088	0.126	0.340
-148.589	-200.000	-0.080	-0.401
-147.574	800.000	-0.029	0.087
-146.560	149.847	0.083	-0.113
-145.545	675.409	0.053	-0.136
-144.531	-200.000	-0.019	0.319
-143.516	-200.000	-0.000	0.269
-142.502	333.453	0.142	0.273
-141.487	800.000	0.034	0.130
-140.472	-186.439	-0.152	-0.002
-139.458	-137.880	0.448	0.050
-138.443	-163.931	0.107	0.005
-137.429	18.790	0.212	0.169
-136.414	71.317	0.207	0.214
-135.399	800.000	-0.105	0.301
-134.385	-40.920	0.183	0.095
-133.370	454.236	-0.168	-0.370
-132.356	12.951	0.241	0.186
-131.341	336.403	0.131	0.254
-130.326	59.516	-0.123	0.121
-129.312	-184.172	0.223	-0.004
-128.297	56.986	-0.130	-0.127
-127.283	129.074	0.193	0.245
-126.268	-86.760	-0.191	-0.058
-125.253	636.982	0.067	-0.170
-124.239	-64.779	-0.113	0.046
-123.224	-131.978	-0.356	0.046
-122.210	-83.880	-0.170	0.054
-121.195	-48.112	0.194	0.093
-120.180	225.586	-0.164	0.264
-119.166	433.048	0.068	0.147
