DTS Sentinel unit serial number:	SN413079Multiplexer serial number:	ORYXHardware model number:	OX4-SRSoftware version number:	ORYX F/W v4.00 Oryx Data Collector v3.7.2.0data status	okinstallation	princeton_trtdifferential loss correction	single-endedforward channel	channel 1reverse channel	N/Adate	2019/09/13time	15:18:35forward acquisition time	60.00reverse acquisition time	0.00gamma	496.2192k internal	0.2303k external	0.2303temperature offset calibration	1.0163default loss term (dB/km)	0.3790temperature slope calibration	1.0000multiplexer offset coefficient	1.0000multiplexer slope coefficient	1.0000fibre end	0.00T internal ref (°C)	35.44T ext. ref 1 (°C)	4.73T ext. ref 2 (°C)	29.55length (m)	temperature (°C)	Stokes	anti-Stokes-747.200	-122.448	0.040	0.007
-746.185	800.000	0.063	0.195
-745.171	800.000	0.025	-0.111
-744.156	-195.009	-0.199	0.002
-743.142	53.839	-0.194	0.190
-742.127	104.292	0.075	0.090
-741.112	-98.072	-0.215	-0.056
-740.098	-200.000	-0.005	0.398
-739.083	515.128	0.177	0.421
-738.069	-101.773	-0.222	-0.055
-737.054	180.668	0.168	0.250
-736.039	800.000	-0.070	0.227
-735.025	-200.000	-0.015	0.368
-734.010	-200.000	-0.025	0.146
-732.996	17.244	0.120	0.097
-731.981	-38.808	-0.292	-0.157
-730.966	-35.139	-0.252	0.140
-729.952	-95.411	-0.125	-0.034
-728.937	-5.912	-0.324	0.226
-727.923	-153.079	0.142	-0.010
-726.908	106.498	-0.217	0.262
-725.894	319.030	-0.089	-0.172
-724.879	-180.669	-0.340	-0.007
-723.864	365.330	-0.127	-0.259
-722.850	504.762	-0.062	0.147
-721.835	201.823	0.088	0.138
-720.821	-189.041	-0.338	-0.004
-719.806	363.187	0.153	-0.312
-718.791	9.594	-0.026	0.020
-717.777	176.388	0.255	-0.377
-716.762	-200.000	0.005	-0.207
-715.748	70.258	-0.201	-0.211
-714.733	349.446	-0.214	-0.431
-713.718	269.724	-0.095	-0.170
-712.704	3.751	-0.224	-0.166
-711.689	149.601	-0.107	-0.147
-710.675	-134.369	-0.282	-0.035
-709.660	28.404	-0.138	0.118
-708.645	452.826	0.138	-0.309
-707.631	-107.710	0.248	0.055
-706.616	-71.102	-0.306	-0.117
-705.602	-200.000	-0.007	-0.045
-704.587	352.366	-0.061	0.122
-703.572	-200.000	-0.075	-0.421
-702.558	39.873	0.114	-0.104
-701.543	61.731	0.168	-0.170
-700.529	190.938	0.090	-0.138
-699.514	18.926	-0.181	-0.147
-698.499	-32.691	-0.168	0.095
-697.485	11.664	-0.157	0.122
-696.470	-33.746	-0.405	-0.227
-695.456	109.693	-0.265	-0.324
-694.441	-79.551	0.278	-0.095
-693.426	-8.720	0.151	-0.103
-692.412	-200.000	0.036	-0.282
-691.397	-88.613	-0.186	0.056
-690.383	216.694	0.076	0.124
-689.368	800.000	0.079	-0.303
-688.354	242.348	-0.165	0.281
-687.339	60.249	0.115	-0.116
-686.324	206.698	-0.212	0.335
-685.310	-200.000	-0.010	-0.199
-684.295	-152.408	-0.583	0.043
-683.281	501.571	0.121	-0.284
-682.266	-200.000	0.003	-0.127
-681.251	1.072	-0.230	0.168
-680.237	90.019	-0.358	-0.406
-679.222	78.292	0.082	-0.089
-678.208	-76.172	0.169	-0.061
-677.193	4.140	-0.211	0.157
-676.178	145.382	-0.238	-0.324
-675.164	-65.959	-0.127	-0.052
-674.149	-200.000	-0.007	0.086
-673.135	-171.616	-0.330	-0.011
-672.120	-92.721	0.195	0.056
-671.105	163.718	-0.184	0.263
-670.091	-111.540	-0.489	0.101
-669.076	-200.000	-0.001	-0.160
-668.062	-92.121	-0.243	-0.070
-667.047	-96.461	-0.112	0.030
-666.032	-87.694	0.193	-0.059
-665.018	-200.000	-0.019	0.195
-664.003	-200.000	-0.070	0.474
-662.989	44.752	-0.220	0.206
-661.974	-82.472	0.150	-0.049
-660.959	800.000	0.055	0.218
-659.945	-0.445	0.292	0.210
-658.930	-147.476	0.093	-0.008
-657.916	-200.000	0.220	0.001
-656.901	3.295	-0.244	-0.181
-655.886	-59.879	-0.134	0.058
-654.872	-16.041	-0.129	-0.084
-653.857	-29.870	-0.112	-0.065
-652.843	202.259	-0.013	0.020
-651.828	-65.893	-0.224	0.091
-650.814	71.276	-0.126	0.133
-649.799	-8.891	0.117	0.079
-648.784	218.081	-0.076	-0.123
-647.770	-71.526	0.094	-0.036
-646.755	23.700	-0.155	0.130
-645.741	72.041	0.071	0.075
-644.726	-200.000	-0.020	-0.109
-643.711	-139.056	-0.278	-0.031
-642.697	381.633	-0.143	-0.299
-641.682	800.000	-0.082	-0.252
-640.668	-199.770	-0.157	0.001
-639.653	169.172	-0.169	0.245
-638.638	-65.211	0.266	0.109
-637.624	-29.987	0.252	0.145
-636.609	86.498	-0.137	0.153
-635.595	164.968	-0.220	0.314
-634.580	-200.000	-0.011	0.071
-633.565	-55.783	-0.236	-0.107
-632.551	50.796	0.120	-0.115
-631.536	-75.505	-0.243	-0.088
-630.522	800.000	0.041	-0.146
-629.507	-200.000	-0.035	0.258
-628.492	19.298	-0.078	0.063
-627.478	-22.660	0.149	0.091
-626.463	247.920	0.136	-0.233
-625.449	-200.000	0.003	-0.157
-624.434	347.780	-0.097	0.194
-623.419	516.292	-0.129	-0.307
-622.405	608.076	-0.047	0.118
-621.390	197.151	-0.137	-0.211
-620.376	-160.730	0.084	-0.005
-619.361	309.012	0.091	-0.173
-618.346	0.296	0.124	-0.090
-617.332	-200.000	0.019	-0.210
-616.317	7.117	0.075	0.057
-615.303	202.079	0.126	-0.197
-614.288	132.020	-0.305	-0.398
-613.273	-200.000	0.048	0.464
-612.259	-40.157	0.044	0.023
-611.244	-164.835	0.287	-0.013
-610.230	441.664	-0.093	-0.205
-609.215	269.378	-0.122	-0.217
-608.201	-174.010	-0.113	-0.003
-607.186	57.452	0.162	0.160
-606.171	28.774	0.213	-0.183
-605.157	-70.897	-0.189	0.072
-604.142	-90.419	-0.264	0.077
-603.128	186.183	-0.101	0.152
-602.113	58.926	0.040	0.040
-601.098	-200.000	-0.023	-0.318
-600.084	-42.680	-0.181	0.093
-599.069	-55.354	-0.230	-0.105
-598.055	3.525	0.204	-0.150
-597.040	-200.000	-0.003	0.178
-596.025	-102.083	-0.413	-0.101
-595.011	-111.197	-0.410	-0.085
-593.996	-89.334	0.183	-0.055
-592.982	-92.395	0.220	0.063
-591.967	-200.000	0.000	0.192
-590.952	400.615	0.174	-0.370
-589.938	20.238	-0.232	0.189
-588.923	-34.770	-0.340	0.188
-587.909	0.807	0.114	0.083
-586.894	276.166	-0.085	-0.153
-585.879	-65.142	0.055	0.022
-584.865	-48.770	0.325	0.158
-583.850	-9.190	0.164	-0.111
-582.836	-115.099	-0.091	-0.017
-581.821	182.550	0.017	0.025
-580.806	-200.000	0.001	-0.005
-579.792	-67.974	0.315	-0.124
-578.777	-2.243	0.200	-0.142
-577.763	301.663	0.165	-0.309
-576.748	372.889	0.077	-0.159
-575.733	-8.455	-0.451	-0.307
-574.719	267.117	-0.069	0.121
-573.704	-27.149	-0.350	-0.207
-572.690	-149.758	0.308	-0.024
-571.675	-200.000	0.009	-0.154
-570.661	239.214	0.026	0.044
-569.646	482.193	-0.109	0.251
-568.631	45.216	-0.168	0.157
-567.617	-200.000	-0.023	0.359
-566.602	32.913	-0.096	0.084
-565.588	217.342	-0.086	0.139
-564.573	-46.423	-0.199	0.099
-563.558	32.393	0.085	0.074
-562.544	800.000	-0.129	-0.511
-561.529	800.000	0.074	0.253
-560.515	-168.636	0.144	0.006
-559.500	60.978	-0.089	-0.089
-558.485	121.137	-0.113	-0.142
-557.471	-43.879	-0.037	0.019
-556.456	-200.000	-0.025	0.400
-555.442	-102.229	-0.173	0.042
-554.427	40.212	0.153	-0.139
-553.412	-57.068	0.106	-0.047
-552.398	-200.000	0.031	0.234
-551.383	-126.424	0.098	-0.015
-550.369	-136.664	0.351	-0.041
-549.354	-102.909	0.544	0.131
-548.339	-86.565	-0.504	-0.156
-547.325	35.139	-0.256	0.226
-546.310	-115.738	0.299	-0.057
-545.296	42.941	0.136	-0.125
-544.281	-9.478	-0.307	0.207
-543.266	-200.000	0.032	-0.261
-542.252	28.342	0.059	0.051
-541.237	73.651	0.147	-0.155
-540.223	-154.186	-0.234	-0.016
-539.208	800.000	-0.061	-0.244
-538.193	-159.653	-0.378	0.021
-537.179	46.111	0.076	-0.071
-536.164	72.251	0.217	0.229
-535.150	-67.214	-0.379	0.151
-534.135	800.000	0.062	0.248
-533.121	-200.000	0.009	-0.155
-532.106	-29.684	-0.288	0.166
-531.091	-104.889	0.230	-0.053
-530.077	-130.063	0.450	0.062
-529.062	224.971	-0.152	-0.249
-528.048	-26.893	0.023	0.014
-527.033	-47.556	-0.081	-0.040
-526.018	704.218	-0.055	-0.147
-525.004	-50.699	-0.144	0.068
-523.989	206.534	0.090	-0.141
-522.975	-200.000	-0.008	-0.253
-521.960	-200.000	-0.014	0.163
-520.945	88.265	-0.160	-0.179
-519.931	732.271	0.107	-0.289
-518.916	-42.557	-0.256	0.132
-517.902	164.758	0.096	0.136
-516.887	51.424	-0.123	0.118
-515.872	800.000	-0.050	-0.157
-514.858	-65.118	-0.152	-0.062
-513.843	800.000	0.051	-0.172
-512.829	-66.346	0.231	0.093
-511.814	-15.656	-0.154	0.099
-510.799	-26.186	0.209	0.124
-509.785	69.720	0.108	-0.112
-508.770	800.000	0.015	0.059
-507.756	-121.383	0.249	0.042
-506.741	-16.534	-0.072	0.046
-505.726	75.184	0.049	-0.052
-504.712	-92.529	-0.156	-0.044
-503.697	-200.000	0.044	-0.333
-502.683	-23.843	-0.056	0.034
-501.668	-26.421	0.173	-0.103
-500.653	-200.000	0.035	-0.190
-499.639	531.027	0.066	0.156
-498.624	-86.726	-0.150	-0.046
-497.610	-200.000	0.023	-0.303
-496.595	25.483	-0.139	-0.117
-495.581	402.076	0.070	0.147
-494.566	-92.505	-0.550	-0.156
-493.551	201.235	-0.094	-0.145
-492.537	-120.298	0.070	-0.012
-491.522	63.157	-0.091	-0.092
-490.508	-200.000	0.014	0.189
-489.493	-144.501	-0.396	0.037
-488.478	131.477	0.199	-0.258
-487.464	57.515	-0.086	-0.085
-486.449	372.854	0.065	-0.132
-485.435	-200.000	0.005	-0.176
-484.420	165.658	0.073	-0.103
-483.405	382.712	0.076	-0.158
-482.391	357.268	-0.064	-0.129
-481.376	-200.000	0.034	0.288
-480.362	-200.000	0.015	-0.218
-479.347	-123.695	-0.270	-0.043
-478.332	-92.848	-0.064	-0.018
-477.318	-97.677	0.210	0.055
-476.303	-114.158	0.032	-0.006
-475.289	-152.666	0.037	-0.003
-474.274	50.279	-0.028	-0.026
-473.259	800.000	0.108	0.307
-472.245	189.307	-0.093	-0.141
-471.230	44.371	0.208	-0.193
-470.216	15.871	0.173	-0.137
-469.201	368.394	0.154	-0.314
-468.186	-65.131	-0.117	0.048
-467.172	22.427	-0.241	-0.199
-466.157	193.892	0.059	0.090
-465.143	800.000	0.021	-0.074
-464.128	71.876	-0.072	-0.075
-463.113	-75.106	-0.255	-0.092
-462.099	396.766	0.116	0.243
-461.084	800.000	-0.057	0.163
-460.070	-200.000	0.053	0.247
-459.055	-145.796	-0.120	0.011
-458.040	-6.383	0.111	0.076
-457.026	35.016	0.169	-0.149
-456.011	800.000	0.071	-0.244
-454.997	67.049	0.207	0.213
-453.982	40.480	-0.215	0.195
-452.968	-200.000	0.009	0.173
-451.953	-200.000	0.015	-0.224
-450.938	88.755	0.388	0.435
-449.924	281.676	0.151	0.272
-448.909	-103.620	-0.188	0.044
-447.895	523.017	0.064	0.152
-446.880	424.580	0.087	0.188
-445.865	10.772	-0.051	0.039
-444.851	-139.268	0.189	-0.020
-443.836	790.471	-0.008	0.021
-442.822	-195.054	-0.178	0.001
-441.807	800.000	-0.088	0.320
-440.792	-59.092	0.168	-0.073
-439.778	-24.480	-0.166	-0.100
-438.763	38.613	-0.077	0.069
-437.749	-49.872	0.343	0.164
-436.734	800.000	-0.122	-0.361
-435.719	2.636	0.020	-0.015
-434.705	-96.091	0.314	-0.084
-433.690	-200.000	-0.010	-0.459
-432.676	-200.000	-0.026	-0.303
-431.661	-200.000	0.002	-0.097
-430.646	-200.000	0.009	-0.076
-429.632	31.509	-0.225	0.195
-428.617	308.528	0.024	-0.044
-427.603	542.568	0.108	-0.260
-426.588	355.606	-0.073	-0.146
-425.573	-200.000	0.001	-0.303
-424.559	-149.584	-0.060	0.005
-423.544	800.000	-0.115	0.341
-422.530	-193.054	-0.284	0.003
-421.515	-119.365	-0.210	-0.037
-420.500	102.956	-0.163	0.192
-419.486	86.146	-0.146	0.162
-418.471	197.578	0.266	0.409
-417.457	14.701	-0.295	0.232
-416.442	34.389	0.149	-0.131
-415.428	-6.878	0.252	0.172
-414.413	-180.274	-0.280	-0.006
-413.398	-117.772	-0.306	-0.055
-412.384	-200.000	-0.042	-0.278
-411.369	138.462	0.130	-0.171
-410.355	-107.453	0.228	0.050
-409.340	-200.000	0.008	-0.296
-408.325	21.679	-0.073	-0.060
-407.311	520.589	0.106	-0.250
-406.296	795.256	-0.061	0.168
-405.282	-200.000	-0.004	-0.232
-404.267	57.849	0.147	0.145
-403.252	34.493	0.034	0.030
-402.238	-76.115	0.130	-0.046
-401.223	-200.000	-0.058	0.373
-400.209	251.709	0.248	0.424
-399.194	199.705	0.102	-0.158
-398.179	7.197	-0.020	-0.015
-397.165	-93.580	-0.093	0.026
-396.150	238.473	0.093	0.156
-395.136	-200.000	-0.009	0.090
-394.121	-140.070	-0.131	0.014
-393.106	164.592	0.127	0.181
-392.092	8.597	-0.242	0.183
-391.077	-29.486	-0.239	-0.137
-390.063	-16.432	-0.140	0.089
-389.048	-200.000	0.003	-0.094
-388.033	-85.361	-0.133	-0.042
-387.019	164.172	-0.102	-0.144
-386.004	800.000	-0.071	-0.290
-384.990	-200.000	0.030	0.331
-383.975	26.318	0.045	-0.038
-382.960	-23.858	0.108	-0.065
-381.946	96.356	-0.109	0.125
-380.931	66.151	-0.115	0.117
-379.917	-50.207	0.206	0.098
-378.902	109.776	-0.128	0.154
-377.888	-200.000	0.015	0.369
-376.873	135.984	0.137	0.179
-375.858	274.714	0.173	-0.308
-374.844	26.988	0.125	-0.105
-373.829	-200.000	0.000	0.105
-372.815	-65.123	-0.455	0.184
-371.800	-79.792	0.205	-0.069
-370.785	-200.000	0.028	-0.180
-369.771	108.382	0.346	-0.414
-368.756	-116.681	0.324	0.060
-367.742	-131.879	-0.143	0.019
-366.727	239.478	-0.084	-0.140
-365.712	-200.000	-0.017	-0.132
-364.698	295.935	-0.161	0.297
-363.683	159.948	-0.078	-0.110
-362.669	689.854	-0.058	0.153
-361.654	-100.063	0.141	0.035
-360.639	277.056	-0.100	-0.178
-359.625	-200.000	-0.051	0.348
-358.610	-23.672	0.071	0.043
-357.596	33.965	0.063	0.055
-356.581	6.835	-0.109	0.081
-355.566	-145.272	-0.134	-0.012
-354.552	326.768	0.117	0.226
-353.537	800.000	0.103	-0.345
-352.523	26.903	-0.154	-0.129
-351.508	800.000	-0.087	-0.255
-350.493	-13.585	-0.225	-0.146
-349.479	-83.092	-0.249	0.080
-348.464	133.670	-0.182	-0.236
-347.450	316.212	0.085	-0.162
-346.435	470.842	0.153	-0.344
-345.420	-92.074	-0.183	-0.052
-344.406	148.123	-0.211	0.285
-343.391	-200.000	0.012	-0.314
-342.377	23.411	-0.267	-0.220
-341.362	-45.055	0.324	-0.162
-340.348	-48.253	-0.239	0.115
-339.333	256.804	-0.096	-0.165
-338.318	-113.476	-0.052	0.010
-337.304	98.942	0.028	-0.033
-336.289	-124.741	-0.043	0.007
-335.275	32.625	0.046	0.040
-334.260	271.182	0.119	0.210
-333.245	-75.701	0.172	0.061
-332.231	-11.093	0.210	0.139
-331.216	-79.044	-0.276	-0.094
-330.202	8.834	0.116	-0.088
-329.187	166.493	0.025	0.035
-328.172	14.133	-0.344	-0.268
-327.158	-187.615	0.288	-0.004
-326.143	16.392	-0.256	-0.203
-325.129	338.571	-0.195	0.380
-324.114	90.169	-0.101	-0.113
-323.099	-200.000	0.047	0.331
-322.085	32.369	0.242	0.210
-321.070	53.080	-0.183	-0.176
-320.056	40.133	0.081	-0.073
-319.041	525.900	-0.044	0.105
-318.026	-16.710	-0.071	-0.045
-317.012	-60.126	-0.093	-0.040
-315.997	-75.578	-0.106	0.038
-314.983	83.288	0.070	0.076
-313.968	219.001	-0.158	-0.253
-312.953	-200.000	0.038	0.249
-311.939	-71.504	0.352	-0.132
-310.924	-132.654	0.311	0.040
-309.910	800.000	0.104	-0.339
-308.895	5.656	-0.169	0.125
-307.880	-200.000	0.015	0.196
-306.866	267.017	-0.068	-0.120
-305.851	77.793	0.144	-0.154
-304.837	221.766	-0.133	0.214
-303.822	-44.127	-0.078	-0.039
-302.807	-200.000	0.059	-0.283
-301.793	-153.505	0.235	-0.016
-300.778	-146.580	0.166	0.014
-299.764	-200.000	-0.057	0.315
-298.749	-123.173	-0.397	0.064
-297.735	-41.020	-0.180	-0.093
-296.720	-73.815	-0.124	0.045
-295.705	-200.000	-0.003	0.310
-294.691	68.345	0.161	0.165
-293.676	-200.000	-0.051	-0.369
-292.662	109.878	0.111	-0.133
-291.647	-55.874	-0.300	-0.134
-290.632	293.025	-0.115	-0.211
-289.618	-200.000	0.068	0.447
-288.603	-68.016	0.080	-0.031
-287.589	303.350	-0.187	0.347
-286.574	-58.625	-0.302	-0.131
-285.559	-200.000	-0.059	-0.452
-284.545	-30.742	-0.225	-0.127
-283.530	436.538	0.123	0.267
-282.516	-28.883	-0.068	0.039
-281.501	465.001	0.090	0.202
-280.486	191.505	-0.086	-0.129
-279.472	762.195	0.071	-0.193
-278.457	-119.485	0.419	0.073
-277.443	-129.078	0.148	-0.021
-276.428	18.809	-0.304	-0.244
-275.413	3.074	0.135	-0.098
-274.399	187.667	-0.149	-0.222
-273.384	-21.285	-0.172	-0.105
-272.370	-186.386	-0.173	-0.002
-271.355	-200.000	0.035	-0.247
-270.340	-200.000	0.016	0.201
-269.326	410.471	0.123	-0.261
-268.311	-102.921	-0.146	0.035
-267.297	63.685	0.227	-0.228
-266.282	479.430	0.088	0.199
-265.267	108.981	-0.141	0.169
-264.253	-28.751	0.089	0.051
-263.238	-127.584	0.311	0.045
-262.224	344.682	0.214	-0.421
-261.209	49.822	0.159	0.150
-260.195	-200.000	0.002	0.342
-259.180	-140.501	0.148	-0.015
-258.165	800.000	0.110	0.353
-257.151	180.611	0.120	0.177
-256.136	-65.514	0.208	0.084
-255.122	271.558	0.067	0.117
-254.107	-131.795	-0.173	0.023
-253.092	36.478	-0.164	-0.145
-252.078	800.000	-0.085	0.292
-251.063	-33.783	-0.274	0.151
-250.049	-98.936	-0.495	0.125
-249.034	-28.719	-0.200	0.115
-248.019	-21.075	0.105	-0.064
-247.005	-4.606	0.172	0.119
-245.990	217.386	-0.050	0.079
-244.976	-200.000	0.038	0.751
-243.961	-41.040	-0.186	0.096
-242.946	-200.000	-0.018	0.162
-241.932	248.300	0.070	-0.118
-240.917	123.945	0.104	-0.130
-239.903	-140.580	-0.323	0.033
-238.888	-200.000	-0.023	0.318
-237.873	800.000	-0.049	0.189
-236.859	-200.000	0.036	-0.269
-235.844	-200.000	0.066	-0.334
-234.830	-102.584	-0.115	0.028
-233.815	17.388	0.189	0.150
-232.800	-53.982	-0.167	-0.076
-231.786	800.000	0.058	0.173
-230.771	800.000	0.032	0.113
-229.757	47.631	-0.186	0.173
-228.742	384.152	0.129	0.264
-227.727	-200.000	0.028	0.168
-226.713	-140.910	0.389	-0.040
-225.698	800.000	0.049	0.171
-224.684	-66.153	0.057	-0.023
-223.669	25.450	0.163	-0.135
-222.655	-200.000	-0.032	-0.299
-221.640	-200.000	-0.010	-0.263
-220.625	-26.425	0.077	-0.045
-219.611	254.136	0.048	0.083
-218.596	-144.449	0.371	0.034
-217.582	-72.265	0.213	-0.079
-216.567	228.949	-0.077	0.125
-215.552	-200.000	-0.016	0.292
-214.538	-179.530	0.234	0.005
-213.523	-157.844	-0.131	0.008
-212.509	-200.000	-0.001	0.145
-211.494	-200.000	0.033	-0.186
-210.479	800.000	0.037	-0.125
-209.465	475.895	-0.160	0.360
-208.450	176.153	0.170	0.247
-207.436	86.131	0.112	-0.123
-206.421	22.990	0.281	-0.230
-205.406	-200.000	-0.005	0.048
-204.392	253.663	0.294	0.501
-203.377	97.442	-0.082	-0.094
-202.363	30.215	-0.306	-0.261
-201.348	-4.599	0.200	-0.137
-200.333	563.446	0.079	0.192
-199.319	106.623	0.290	0.344
-198.304	0.807	0.344	-0.245
-197.290	19.318	0.232	-0.186
-196.275	-161.786	0.350	-0.018
-195.260	160.117	0.104	-0.144
-194.246	310.099	0.039	0.073
-193.231	157.749	0.204	-0.282
-192.217	800.000	0.018	-0.064
-191.202	-200.000	0.018	0.319
-190.187	221.560	-0.196	0.314
-189.173	-58.175	0.115	-0.050
-188.158	171.731	-0.084	-0.120
-187.144	240.562	0.168	-0.279
-186.129	-64.404	0.181	0.073
-185.114	800.000	-0.025	0.093
-184.100	-42.967	-0.371	0.188
-183.085	33.244	0.198	-0.171
-182.071	492.240	0.056	-0.128
-181.056	104.387	0.042	-0.050
-180.042	-89.382	0.251	0.074
-179.027	15.959	-0.277	0.217
-178.012	30.989	0.185	0.158
-176.998	-200.000	-0.011	0.049
-175.983	-125.624	-0.252	0.038
-174.969	800.000	0.066	0.189
-173.954	-96.111	0.402	-0.107
-172.939	-89.941	-0.123	-0.036
-171.925	-59.859	-0.244	-0.104
-170.910	-124.001	-0.059	-0.009
-169.896	-8.390	0.393	0.263
-168.881	-154.127	0.340	-0.023
-167.866	69.941	0.174	0.178
-166.852	63.097	-0.069	0.069
-165.837	83.671	0.187	-0.203
-164.823	-95.950	0.277	-0.073
-163.808	292.368	0.040	-0.073
-162.793	-200.000	0.041	-0.358
-161.779	-200.000	0.025	0.262
-160.764	45.778	-0.146	0.134
-159.750	57.201	0.155	0.151
-158.735	-200.000	-0.098	0.511
-157.720	145.896	0.083	0.111
-156.706	-200.000	0.033	-0.151
-155.691	202.753	-0.086	0.132
-154.677	-27.930	-0.168	-0.097
-153.662	-200.000	-0.017	-0.110
-152.647	-33.331	-0.069	0.038
-151.633	392.088	0.158	0.326
-150.618	-8.102	0.078	-0.052
-149.604	101.321	-0.076	-0.088
-148.589	800.000	0.042	-0.160
-147.574	204.163	-0.316	0.488
-146.560	-137.064	-0.388	0.044
-145.545	-200.000	0.013	0.089
-144.531	147.637	0.055	-0.073
-143.516	800.000	-0.033	0.128
-142.502	-77.933	-0.132	0.045
-141.487	-200.000	0.049	-0.272
-140.472	17.883	0.056	-0.044
-139.458	800.000	-0.103	-0.295
-138.443	-85.558	0.253	-0.078
-137.429	-200.000	0.047	-0.318
-136.414	-75.531	-0.112	0.040
-135.399	197.686	-0.081	-0.123
-134.385	13.307	-0.304	0.235
-133.370	-103.910	-0.534	-0.124
-132.356	342.572	0.055	0.108
-131.341	457.238	0.082	-0.181
-130.326	-58.093	0.176	-0.076
-129.312	104.699	-0.168	0.196
-128.297	-92.168	0.115	-0.032
-127.283	310.429	0.150	0.278
-126.268	-122.749	-0.440	-0.071
-125.253	25.254	-0.096	0.079
-124.239	-200.000	0.052	0.252
-123.224	800.000	-0.014	-0.048
-122.210	89.911	0.048	0.053
-121.195	79.211	0.246	0.262
-120.180	800.000	-0.102	0.424
