DTS Sentinel unit serial number:	SN413079Multiplexer serial number:	ORYXHardware model number:	OX4-SRSoftware version number:	ORYX F/W v4.00 Oryx Data Collector v3.7.2.0data status	okinstallation	princeton_trtdifferential loss correction	single-endedforward channel	channel 1reverse channel	N/Adate	2019/09/10time	20:36:11forward acquisition time	60.00reverse acquisition time	0.00gamma	496.2192k internal	0.2327k external	0.2327temperature offset calibration	0.9934default loss term (dB/km)	0.3790temperature slope calibration	1.0000multiplexer offset coefficient	1.0000multiplexer slope coefficient	1.0000fibre end	0.00T internal ref (°C)	31.94T ext. ref 1 (°C)	-0.31T ext. ref 2 (°C)	25.13length (m)	temperature (°C)	Stokes	anti-Stokes-747.200	96.364	0.200	-0.231
-746.185	121.700	0.260	0.326
-745.171	572.400	0.128	0.314
-744.156	-200.000	-0.044	0.520
-743.142	229.327	0.268	0.441
-742.127	-200.000	0.008	0.114
-741.112	-76.322	0.407	-0.144
-740.098	297.398	-0.115	0.213
-739.083	-37.538	-0.095	0.051
-738.069	-87.364	-0.417	0.127
-737.054	-134.842	-0.310	0.038
-736.039	-152.978	-0.328	-0.023
-735.025	-21.931	-0.105	-0.064
-734.010	-134.538	0.257	0.032
-732.996	99.042	-0.228	0.266
-731.981	-200.000	0.216	0.001
-730.966	-193.716	0.210	-0.002
-729.952	11.653	-0.227	-0.176
-728.937	-61.308	0.053	0.023
-727.923	248.739	-0.194	0.331
-726.908	-143.331	-0.200	-0.019
-725.894	86.246	-0.114	0.126
-724.879	253.211	0.148	0.254
-723.864	-58.626	-0.190	-0.083
-722.850	-79.775	0.227	0.077
-721.835	86.067	0.140	-0.155
-720.821	4.123	-0.168	0.124
-719.806	-193.598	-0.052	-0.000
-718.791	731.409	0.165	-0.443
-717.777	-87.667	-0.521	-0.158
-716.762	-31.043	0.335	-0.190
-715.748	111.776	-0.025	-0.030
-714.733	-163.787	0.154	0.007
-713.718	464.966	0.043	-0.097
-712.704	-32.720	-0.243	-0.136
-711.689	800.000	-0.022	-0.095
-710.675	-19.931	0.173	0.108
-709.660	-98.349	0.197	-0.051
-708.645	-17.124	0.118	-0.075
-707.631	135.414	0.105	-0.138
-706.616	-155.651	-0.349	-0.023
-705.602	-42.044	-0.370	-0.191
-704.587	-40.826	0.123	-0.064
-703.572	-136.033	-0.107	-0.013
-702.558	29.488	0.115	-0.099
-701.543	-186.378	0.308	0.004
-700.529	134.689	-0.093	0.122
-699.514	-37.078	0.152	0.082
-698.499	61.934	0.150	-0.151
-697.485	6.885	0.152	0.114
-696.470	800.000	-0.063	-0.274
-695.456	104.089	0.031	0.036
-694.441	187.362	-0.010	0.015
-693.426	-200.000	-0.002	-0.053
-692.412	-62.617	0.305	-0.127
-691.397	-77.295	-0.233	-0.082
-690.383	-193.172	-0.249	0.002
-689.368	-101.238	0.109	0.027
-688.354	-200.000	-0.012	0.309
-687.339	49.549	-0.199	0.188
-686.324	58.879	0.040	-0.040
-685.310	56.656	0.093	0.091
-684.295	9.075	-0.132	0.100
-683.281	-55.013	0.219	0.099
-682.266	-98.158	-0.252	-0.065
-681.251	381.705	-0.103	0.213
-680.237	-119.541	-0.169	0.029
-679.222	800.000	-0.020	-0.073
-678.208	174.560	-0.171	0.249
-677.193	-200.000	-0.013	0.065
-676.178	186.824	0.016	0.024
-675.164	430.944	-0.114	-0.249
-674.149	547.217	0.124	-0.297
-673.135	800.000	-0.095	-0.291
-672.120	52.936	0.101	-0.097
-671.105	-189.655	-0.193	-0.002
-670.091	12.671	-0.071	0.055
-669.076	-85.851	-0.135	-0.042
-668.062	717.715	-0.065	0.174
-667.047	800.000	-0.136	0.378
-666.032	-200.000	-0.026	-0.229
-665.018	-134.789	0.241	0.029
-664.003	423.870	0.038	0.081
-662.989	28.216	0.170	0.144
-661.974	-200.000	0.023	0.123
-660.959	-102.124	-0.059	-0.014
-659.945	338.748	0.093	-0.183
-658.930	-200.000	-0.037	-0.215
-657.916	-106.889	-0.152	0.034
-656.901	800.000	0.014	0.042
-655.886	140.407	-0.260	0.345
-654.872	-144.858	0.119	-0.011
-653.857	-102.983	-0.383	0.091
-652.843	-71.462	0.241	-0.091
-651.828	21.970	-0.219	-0.180
-650.814	63.674	-0.275	0.277
-649.799	608.499	0.036	0.090
-648.784	-200.000	0.104	-0.491
-647.770	-92.841	0.351	0.098
-646.755	474.237	-0.078	-0.177
-645.741	27.250	0.102	0.086
-644.726	588.194	-0.050	0.124
-643.711	-60.505	0.192	-0.082
-642.697	800.000	-0.197	-0.621
-641.682	-48.356	0.144	0.070
-640.668	-13.309	-0.197	-0.129
-639.653	570.204	0.184	0.449
-638.638	546.505	0.072	-0.174
-637.624	800.000	-0.030	0.089
-636.609	-200.000	0.061	-0.308
-635.595	353.031	0.090	-0.179
-634.580	215.680	0.145	0.231
-633.565	-67.547	-0.410	0.161
-632.551	-108.992	0.376	0.080
-631.536	-128.205	0.222	0.032
-630.522	800.000	0.052	0.179
-629.507	-144.795	-0.355	0.033
-628.492	124.807	-0.088	-0.112
-627.478	-130.418	0.170	-0.023
-626.463	-69.055	0.205	-0.079
-625.449	-108.692	-0.316	-0.068
-624.434	-47.496	-0.083	-0.041
-623.419	38.366	-0.116	0.104
-622.405	-200.000	0.010	-0.059
-621.390	149.277	-0.115	-0.156
-620.376	-8.056	0.075	-0.051
-619.361	-52.908	0.043	0.020
-618.346	97.461	-0.096	-0.110
-617.332	-58.272	-0.484	-0.211
-616.317	800.000	0.082	-0.288
-615.303	16.318	0.237	-0.188
-614.288	29.918	-0.232	-0.198
-613.273	1.229	-0.207	0.149
-612.259	-200.000	-0.016	-0.115
-611.244	-200.000	0.006	-0.545
-610.230	-116.100	0.062	-0.012
-609.215	-39.322	0.243	-0.128
-608.201	522.613	0.096	-0.225
-607.186	-33.943	-0.279	-0.154
-606.171	357.979	0.144	-0.289
-605.157	-49.489	0.262	0.125
-604.142	-200.000	0.038	0.436
-603.128	-200.000	0.011	-0.063
-602.113	-200.000	0.021	0.178
-601.098	83.401	0.146	0.160
-600.084	-200.000	0.002	-0.224
-599.069	-66.034	-0.164	0.065
-598.055	33.991	0.247	0.216
-597.040	-141.186	-0.257	-0.026
-596.025	-128.175	-0.163	0.023
-595.011	-141.379	0.343	-0.035
-593.996	6.766	-0.162	-0.121
-592.982	230.559	-0.089	-0.146
-591.967	97.628	-0.073	0.084
-590.952	800.000	-0.028	-0.099
-589.938	91.152	-0.265	-0.298
-588.923	470.692	0.126	-0.284
-587.909	-200.000	-0.041	-0.291
-586.894	72.623	-0.141	-0.148
-585.879	-200.000	0.048	-0.454
-584.865	800.000	0.011	0.040
-583.850	800.000	0.095	0.281
-582.836	-161.538	-0.124	0.006
-581.821	-200.000	0.033	-0.313
-580.806	-23.224	0.101	0.061
-579.792	73.779	0.183	0.192
-578.777	352.397	-0.183	0.364
-577.763	-140.635	-0.135	0.014
-576.748	420.983	-0.135	-0.291
-575.733	-9.293	-0.220	0.147
-574.719	199.178	-0.063	-0.096
-573.704	346.624	0.088	-0.173
-572.690	-21.206	-0.189	-0.116
-571.675	284.791	-0.018	0.032
-570.661	19.117	0.199	0.160
-569.646	560.236	0.017	-0.040
-568.631	-200.000	-0.005	0.135
-567.617	-100.042	-0.270	0.067
-566.602	302.518	-0.059	-0.110
-565.588	177.184	0.277	0.404
-564.573	800.000	-0.058	0.236
-563.558	260.201	-0.096	0.166
-562.544	31.884	0.138	0.119
-561.529	800.000	0.069	0.211
-560.515	-164.422	-0.198	0.009
-559.500	-139.780	0.078	0.008
-558.485	117.887	-0.181	-0.223
-557.471	-55.553	0.199	0.089
-556.456	800.000	0.025	0.079
-555.442	72.235	0.181	0.189
-554.427	364.489	0.096	-0.194
-553.412	-200.000	-0.019	-0.192
-552.398	574.830	-0.057	0.140
-551.383	-200.000	-0.015	0.078
-550.369	-44.801	0.152	-0.076
-549.354	-200.000	-0.001	-0.361
-548.339	-200.000	-0.030	-0.153
-547.325	-200.000	0.017	0.095
-546.310	-9.692	0.196	0.131
-545.296	800.000	0.070	0.285
-544.281	-59.492	0.119	0.051
-543.266	115.691	0.201	0.245
-542.252	-72.674	-0.375	0.138
-541.237	50.645	0.187	0.177
-540.223	-200.000	-0.011	0.209
-539.208	-200.000	0.014	-0.409
-538.193	-200.000	-0.002	-0.078
-537.179	169.980	0.260	-0.371
-536.164	200.371	0.141	0.217
-535.150	-34.073	-0.260	-0.143
-534.135	86.224	0.217	-0.239
-533.121	800.000	0.064	0.212
-532.106	-146.512	-0.090	0.008
-531.091	800.000	0.065	-0.281
-530.077	800.000	0.055	-0.203
-529.062	-101.040	0.177	-0.043
-528.048	-96.991	0.328	-0.086
-527.033	597.789	0.047	0.116
-526.018	-167.403	-0.140	0.006
-525.004	-19.785	-0.284	-0.175
-523.989	-20.175	-0.054	0.033
-522.975	800.000	-0.081	-0.226
-521.960	29.322	0.079	0.067
-520.945	-200.000	-0.006	-0.123
-519.931	18.970	-0.144	0.115
-518.916	-37.161	-0.378	0.202
-517.902	800.000	0.045	-0.145
-516.887	40.727	0.104	0.094
-515.872	-9.033	-0.252	-0.169
-514.858	-66.691	-0.195	0.077
-513.843	51.311	-0.179	-0.169
-512.829	-172.760	0.048	0.001
-511.814	-97.350	0.241	0.063
-510.799	14.436	-0.058	-0.046
-509.785	28.930	0.431	0.365
-508.770	35.428	-0.362	-0.317
-507.756	-29.641	0.304	-0.173
-506.741	-200.000	0.027	-0.126
-505.726	10.716	0.134	0.102
-504.712	-200.000	-0.030	0.252
-503.697	70.210	-0.255	-0.263
-502.683	81.783	0.226	0.245
-501.668	-49.499	-0.280	0.133
-500.653	241.267	-0.048	-0.080
-499.639	-20.037	0.212	0.130
-498.624	-200.000	-0.021	0.303
-497.610	-6.592	0.136	0.092
-496.595	-115.033	0.231	-0.044
-495.581	184.351	0.074	-0.110
-494.566	-39.790	-0.294	-0.154
-493.551	-76.671	-0.369	-0.129
-492.537	-200.000	0.015	0.074
-491.522	800.000	0.093	0.309
-490.508	30.297	-0.136	-0.116
-489.493	-75.717	0.226	0.080
-488.478	-148.626	-0.276	0.022
-487.464	182.188	-0.056	0.082
-486.449	-0.481	-0.095	-0.067
-485.435	-12.340	0.135	-0.088
-484.420	-147.557	0.124	0.010
-483.405	6.504	-0.288	-0.213
-482.391	800.000	0.093	-0.268
-481.376	699.532	-0.128	-0.336
-480.362	535.876	-0.021	-0.049
-479.347	-200.000	0.013	-0.099
-478.332	-200.000	-0.005	0.190
-477.318	800.000	0.043	-0.129
-476.303	-30.152	-0.240	-0.136
-475.289	800.000	0.020	-0.084
-474.274	-62.297	0.124	-0.052
-473.259	-132.630	-0.283	-0.036
-472.245	-133.428	-0.315	0.040
-471.230	163.754	0.076	-0.107
-470.216	84.497	0.195	-0.213
-469.201	27.939	-0.234	0.197
-468.186	-177.843	-0.130	0.003
-467.172	135.320	0.116	-0.150
-466.157	-8.926	0.363	-0.242
-465.143	-136.711	0.061	-0.007
-464.128	211.514	-0.158	-0.247
-463.113	-38.493	0.261	0.137
-462.099	-55.882	0.260	-0.116
-461.084	-38.991	-0.293	-0.154
-460.070	284.690	-0.152	-0.274
-459.055	92.302	-0.210	0.236
-458.040	-75.397	0.153	-0.054
-457.026	267.752	0.040	0.069
-456.011	166.547	0.178	-0.252
-454.997	307.198	0.176	-0.327
-453.982	26.961	0.218	-0.183
-452.968	800.000	-0.069	0.263
-451.953	338.604	0.114	-0.221
-450.938	30.242	0.283	-0.241
-449.924	0.314	0.253	0.180
-448.909	-159.045	-0.205	0.012
-447.895	431.373	0.051	-0.110
-446.880	-48.394	0.191	0.092
-445.865	-48.679	0.070	-0.034
-444.851	-120.540	0.244	-0.041
-443.836	-64.215	-0.172	0.070
-442.822	800.000	0.054	0.210
-441.807	58.887	-0.093	-0.091
-440.792	-200.000	-0.038	0.214
-439.778	800.000	0.064	-0.215
-438.763	483.663	0.108	-0.245
-437.749	-170.542	0.086	-0.003
-436.734	4.342	0.100	0.073
-435.719	-72.179	-0.275	0.102
-434.705	-66.948	0.231	0.091
-433.690	-59.215	-0.141	-0.061
-432.676	-135.965	0.080	-0.009
-431.661	212.516	-0.111	0.174
-430.646	219.365	0.068	-0.109
-429.632	-60.708	0.284	0.120
-428.617	-0.923	0.285	-0.201
-427.603	800.000	-0.030	0.083
-426.588	672.153	-0.087	-0.226
-425.573	73.659	0.102	0.107
-424.559	800.000	0.067	0.236
-423.544	38.522	-0.165	0.147
-422.530	83.947	-0.132	-0.143
-421.515	-98.774	0.161	0.041
-420.500	112.628	-0.292	0.351
-419.486	30.916	-0.232	-0.198
-418.471	649.405	0.127	-0.323
-417.457	523.436	-0.151	-0.353
-416.442	-56.001	-0.213	0.094
-415.428	-97.649	0.429	-0.111
-414.413	-71.859	0.174	-0.064
-413.398	20.691	-0.198	-0.159
-412.384	322.515	-0.074	-0.140
-411.369	-200.000	0.008	0.169
-410.355	88.774	-0.179	0.199
-409.340	6.516	0.182	0.135
-408.325	-27.710	-0.228	0.132
-407.311	-200.000	-0.048	-0.274
-406.296	800.000	-0.069	-0.252
-405.282	107.756	0.104	0.124
-404.267	-185.430	0.137	-0.002
-403.252	-200.000	0.079	0.366
-402.238	91.844	0.180	0.202
-401.223	-23.456	0.145	0.087
-400.209	800.000	-0.025	0.079
-399.194	-171.287	0.462	-0.015
-398.179	-3.325	-0.479	-0.332
-397.165	127.127	0.125	0.158
-396.150	154.710	0.083	-0.114
-395.136	-91.691	-0.140	-0.040
-394.121	43.677	-0.076	0.069
-393.106	-200.000	0.009	0.418
-392.092	-200.000	-0.026	-0.151
-391.077	41.141	-0.321	0.289
-390.063	299.297	-0.104	0.190
-389.048	800.000	0.038	-0.122
-388.033	-131.540	0.239	-0.031
-387.019	729.121	0.107	-0.283
-386.004	-200.000	0.058	-0.360
-384.990	-98.560	0.111	0.028
-383.975	59.423	0.279	0.273
-382.960	218.234	0.246	0.391
-381.946	172.031	-0.194	0.277
-380.931	-37.653	0.261	-0.138
-379.917	360.793	-0.113	0.224
-378.902	-165.918	-0.230	-0.010
-377.888	192.905	-0.234	0.352
-376.873	582.073	0.112	0.273
-375.858	56.460	-0.154	0.149
-374.844	-200.000	-0.003	0.042
-373.829	23.920	0.251	0.206
-372.815	-13.344	-0.329	0.212
-371.800	-113.490	0.349	-0.068
-370.785	-61.938	-0.091	-0.038
-369.771	73.820	0.178	-0.186
-368.756	-115.834	0.157	0.029
-367.742	-200.000	-0.029	-0.247
-366.727	-132.342	-0.102	-0.013
-365.712	306.382	-0.121	0.223
-364.698	-82.135	-0.174	0.056
-363.683	103.846	0.119	-0.139
-362.669	-111.290	-0.176	-0.036
-361.654	290.576	0.113	0.203
-360.639	-177.764	0.093	-0.002
-359.625	775.550	0.104	-0.282
-358.610	790.086	0.077	0.210
-357.596	169.476	-0.212	-0.301
-356.581	-200.000	0.030	0.233
-355.566	800.000	0.066	0.266
-354.552	-69.217	-0.149	0.057
-353.537	-200.000	0.029	0.130
-352.523	3.599	0.249	-0.181
-351.508	45.656	-0.092	0.084
-350.493	-116.464	0.302	-0.055
-349.479	-86.121	0.106	-0.033
-348.464	-200.000	-0.019	-0.189
-347.450	94.909	0.111	0.125
-346.435	116.295	0.049	0.059
-345.420	82.646	0.250	0.270
-344.406	800.000	-0.133	-0.502
-343.391	100.737	0.116	0.134
-342.377	40.378	0.206	0.184
-341.362	137.187	-0.145	-0.188
-340.348	-45.717	0.089	-0.044
-339.333	614.944	-0.043	0.108
-338.318	244.221	0.137	0.229
-337.304	-24.376	0.127	-0.075
-336.289	-60.419	0.250	0.106
-335.275	229.138	0.020	0.033
-334.260	-200.000	0.016	-0.122
-333.245	-6.896	0.253	0.170
-332.231	1.204	0.251	0.179
-331.216	-27.308	0.140	0.081
-330.202	800.000	-0.054	0.179
-329.187	-144.591	-0.277	-0.025
-328.172	18.180	0.175	-0.139
-327.158	2.977	-0.167	-0.120
-326.143	26.961	-0.094	-0.078
-325.129	-121.695	-0.188	0.031
-324.114	-10.343	-0.302	0.199
-323.099	-26.736	0.222	-0.129
-322.085	-81.083	-0.366	0.120
-321.070	-51.177	0.166	0.077
-320.056	306.847	0.073	0.135
-319.041	-30.175	-0.200	-0.113
-318.026	-200.000	-0.002	0.089
-317.012	283.116	0.070	-0.125
-315.997	86.062	0.104	0.113
-314.983	-200.000	-0.003	-0.177
-313.968	-200.000	-0.009	0.156
-312.953	-200.000	-0.005	-0.128
-311.939	-109.555	-0.065	-0.014
-310.924	144.062	-0.292	0.386
-309.910	163.698	-0.234	-0.327
-308.895	32.730	0.106	-0.091
-307.880	800.000	-0.091	-0.252
-306.866	-57.541	0.117	0.051
-305.851	-61.999	-0.262	0.108
-304.837	145.058	-0.259	-0.343
-303.822	-68.575	-0.275	0.106
-302.807	-134.455	0.199	0.024
-301.793	-200.000	-0.012	0.186
-300.778	181.005	0.056	0.082
-299.764	-23.919	-0.126	-0.075
-298.749	325.987	0.101	0.191
-297.735	15.285	0.077	-0.060
-296.720	144.646	-0.142	0.188
-295.705	238.319	-0.035	0.057
-294.691	151.186	-0.225	-0.303
-293.676	458.026	-0.019	0.043
-292.662	87.841	-0.125	-0.137
-291.647	88.062	-0.089	-0.098
-290.632	32.015	-0.109	-0.093
-289.618	-168.078	-0.100	-0.004
-288.603	-200.000	-0.076	-0.353
-287.589	144.240	0.012	-0.016
-286.574	40.036	0.204	0.181
-285.559	-76.376	0.052	-0.018
-284.545	147.444	-0.169	-0.225
-283.530	36.297	-0.256	-0.223
-282.516	133.406	-0.236	-0.302
-281.501	-125.789	-0.278	-0.042
-280.486	3.791	0.182	0.132
-279.472	-37.923	-0.054	-0.029
-278.457	101.592	-0.290	-0.335
-277.443	110.863	0.202	-0.240
-276.428	46.096	-0.317	0.291
-275.413	-39.104	-0.120	0.063
-274.399	25.518	-0.158	0.130
-273.384	-6.417	-0.062	-0.042
-272.370	-110.652	0.457	-0.094
-271.355	-200.000	0.033	0.172
-270.340	137.410	0.122	0.158
-269.326	-116.693	-0.178	-0.032
-268.311	-23.218	-0.255	0.152
-267.297	10.974	0.196	0.148
-266.282	221.728	-0.162	0.258
-265.267	-200.000	-0.026	0.120
-264.253	-200.000	-0.022	-0.116
-263.238	-60.718	-0.056	-0.023
-262.224	800.000	0.119	-0.362
-261.209	34.485	-0.155	0.134
-260.195	-49.669	0.374	-0.176
-259.180	800.000	0.066	0.187
-258.165	-71.869	-0.212	-0.078
-257.151	222.187	-0.140	0.223
-256.136	510.003	-0.036	-0.082
-255.122	800.000	-0.039	0.142
-254.107	-98.983	-0.179	-0.045
-253.092	-2.364	0.301	0.209
-252.078	-99.230	0.237	-0.059
-251.063	-144.189	-0.182	-0.017
-250.049	-69.149	-0.183	0.070
-249.034	92.461	-0.053	-0.059
-248.019	-149.821	0.056	-0.004
-247.005	-107.166	0.180	-0.039
-245.990	-116.819	0.225	0.041
-244.976	299.730	0.007	-0.013
-243.961	800.000	0.099	-0.349
-242.946	415.852	-0.149	0.314
-241.932	-200.000	0.040	-0.185
-240.917	-200.000	0.039	0.216
-239.903	-81.280	0.258	0.084
-238.888	693.283	0.024	0.063
-237.873	-79.757	0.235	0.078
-236.859	-32.440	0.338	-0.186
-235.844	-95.867	-0.137	-0.036
-234.830	-200.000	0.013	0.272
-233.815	800.000	0.043	0.156
-232.800	-81.133	0.076	-0.025
-231.786	-149.748	-0.222	-0.017
-230.771	105.917	0.079	0.092
-229.757	-101.240	-0.107	-0.026
-228.742	428.602	0.018	-0.039
-227.727	408.665	0.107	0.225
-226.713	-150.407	0.063	-0.005
-225.698	800.000	-0.066	0.225
-224.684	800.000	-0.092	0.371
-223.669	467.269	0.168	-0.372
-222.655	207.550	0.042	0.064
-221.640	108.080	0.315	0.371
-220.625	16.330	0.438	0.341
-219.611	-200.000	-0.018	0.359
-218.596	-45.963	-0.039	-0.019
-217.582	205.969	0.155	0.238
-216.567	-200.000	-0.068	0.448
-215.552	-125.053	-0.064	-0.010
-214.538	-19.387	0.267	-0.163
-213.523	151.729	0.082	0.110
-212.509	401.749	-0.031	-0.064
-211.494	-53.198	-0.299	0.135
-210.479	153.602	0.032	0.043
-209.465	429.928	0.046	0.097
-208.450	108.525	-0.174	-0.205
-207.436	-41.110	0.036	0.019
-206.421	-200.000	-0.013	-0.129
-205.406	52.337	-0.104	-0.098
-204.392	-55.132	0.338	-0.150
-203.377	800.000	-0.098	0.380
-202.363	-200.000	-0.037	0.446
-201.348	93.646	0.257	-0.287
-200.333	445.465	-0.087	-0.189
-199.319	-100.956	0.336	0.081
-198.304	800.000	0.064	-0.215
-197.290	800.000	-0.086	0.289
-196.275	-139.328	-0.084	0.009
-195.260	247.043	-0.111	-0.185
-194.246	88.005	0.214	0.234
-193.231	-120.451	-0.136	0.023
-192.217	-7.102	-0.264	-0.177
-191.202	-56.785	-0.154	-0.067
-190.187	-102.560	0.225	-0.053
-189.173	503.527	0.077	0.175
-188.158	190.024	-0.136	-0.201
-187.144	-62.218	-0.275	-0.113
-186.129	-200.000	0.004	-0.093
-185.114	800.000	-0.047	0.191
-184.100	56.757	-0.269	0.258
-183.085	391.991	-0.120	0.246
-182.071	91.766	0.360	0.399
-181.056	-177.926	-0.089	-0.002
-180.042	800.000	-0.097	0.296
-179.027	279.325	-0.089	-0.157
-178.012	-107.336	-0.247	-0.054
-176.998	-98.511	0.146	-0.037
-175.983	15.602	-0.237	0.184
-174.969	-181.962	0.096	-0.002
-173.954	210.564	-0.220	0.341
-172.939	99.189	-0.123	-0.140
-171.925	536.526	-0.121	-0.283
-170.910	94.256	-0.189	0.212
-169.896	92.222	0.128	0.143
-168.881	109.358	0.175	0.207
-167.866	38.859	-0.090	0.080
-166.852	-200.000	0.004	-0.073
-165.837	-142.548	-0.017	0.002
-164.823	-52.424	-0.302	-0.138
-163.808	63.549	0.099	0.098
-162.793	-111.817	0.075	-0.015
-161.779	24.072	-0.266	-0.217
-160.764	-168.442	-0.114	0.004
-159.750	-108.466	0.192	0.041
-158.735	-103.265	-0.294	0.068
-157.720	57.020	-0.221	0.213
-156.706	-64.253	0.430	-0.173
-155.691	-167.433	-0.274	0.011
-154.677	24.810	-0.146	-0.119
-153.662	81.815	-0.143	-0.153
-152.647	99.714	0.110	0.125
-151.633	294.448	0.093	-0.168
-150.618	76.904	-0.117	-0.123
-149.604	-69.442	-0.093	-0.035
-148.589	60.572	0.239	0.233
-147.574	800.000	-0.026	0.099
-146.560	-200.000	0.006	-0.045
-145.545	-200.000	0.075	0.330
-144.531	800.000	0.029	0.090
-143.516	-40.938	-0.259	0.132
-142.502	0.632	0.144	0.101
-141.487	-200.000	-0.024	0.267
-140.472	36.681	-0.329	0.286
-139.458	-185.373	-0.167	0.003
-138.443	-24.098	-0.274	0.161
-137.429	800.000	-0.049	0.163
-136.414	-41.766	0.313	-0.158
-135.399	-109.262	0.378	-0.079
-134.385	-4.641	0.158	-0.107
-133.370	-3.133	-0.431	0.296
-132.356	59.150	-0.100	0.097
-131.341	-200.000	-0.026	0.390
-130.326	-119.566	0.173	-0.029
-129.312	-26.968	0.129	-0.074
-128.297	-0.839	0.059	0.041
-127.283	-200.000	0.015	0.108
-126.268	-200.000	-0.046	0.337
-125.253	-200.000	0.067	0.411
-124.239	-200.000	0.018	-0.164
-123.224	-46.043	-0.152	-0.074
-122.210	121.893	0.091	0.112
-121.195	800.000	0.149	0.524
-120.180	522.665	-0.098	0.227
-119.166	-200.000	0.010	-0.166
