DTS Sentinel unit serial number:	SN413079Multiplexer serial number:	ORYXHardware model number:	OX4-SRSoftware version number:	ORYX F/W v4.00 Oryx Data Collector v3.7.2.0data status	okinstallation	princeton_trtdifferential loss correction	single-endedforward channel	channel 1reverse channel	N/Adate	2019/09/11time	12:52:11forward acquisition time	60.00reverse acquisition time	0.00gamma	496.2192k internal	0.2295k external	0.2295temperature offset calibration	0.9943default loss term (dB/km)	0.3790temperature slope calibration	1.0000multiplexer offset coefficient	1.0000multiplexer slope coefficient	1.0000fibre end	0.00T internal ref (°C)	41.31T ext. ref 1 (°C)	0.22T ext. ref 2 (°C)	38.81length (m)	temperature (°C)	Stokes	anti-Stokes-747.200	800.000	0.048	0.191
-746.185	254.790	-0.292	0.512
-745.171	-89.317	0.166	-0.050
-744.156	-66.778	0.362	0.146
-743.142	-174.959	0.244	-0.007
-742.127	113.696	-0.051	0.063
-741.112	-200.000	0.037	-0.206
-740.098	-56.465	-0.408	0.185
-739.083	-200.000	0.006	-0.084
-738.069	800.000	-0.032	0.117
-737.054	-63.143	-0.414	-0.174
-736.039	3.709	-0.123	0.092
-735.025	66.045	-0.252	0.261
-734.010	23.248	-0.122	0.103
-732.996	-99.185	0.174	-0.045
-731.981	17.159	-0.015	-0.012
-730.966	-200.000	0.013	0.168
-729.952	-20.052	-0.330	-0.208
-728.937	139.806	-0.045	-0.061
-727.923	194.182	-0.044	0.068
-726.908	-121.769	0.342	0.058
-725.894	-67.185	-0.110	-0.044
-724.879	-200.000	-0.020	0.121
-723.864	758.899	-0.050	0.138
-722.850	-95.312	-0.270	0.074
-721.835	-74.562	-0.360	0.132
-720.821	-130.058	-0.104	-0.015
-719.806	359.654	-0.042	0.085
-718.791	174.713	0.053	0.079
-717.777	-66.896	-0.260	0.105
-716.762	135.800	0.078	-0.104
-715.748	-61.285	-0.468	-0.201
-714.733	-52.102	0.110	0.052
-713.718	800.000	-0.010	-0.036
-712.704	-200.000	-0.012	-0.271
-711.689	-79.405	-0.038	0.013
-710.675	243.681	0.091	-0.156
-709.660	-5.691	-0.516	0.361
-708.645	381.132	-0.039	-0.083
-707.631	-200.000	0.021	0.211
-706.616	11.328	-0.282	-0.220
-705.602	20.416	-0.074	0.061
-704.587	410.663	0.070	-0.151
-703.572	-13.825	0.141	-0.093
-702.558	4.344	-0.167	0.125
-701.543	-133.679	0.127	-0.016
-700.529	800.000	-0.073	-0.230
-699.514	47.792	-0.229	-0.218
-698.499	-200.000	-0.004	0.206
-697.485	200.032	0.063	0.099
-696.470	11.196	-0.177	-0.138
-695.456	-200.000	0.007	0.073
-694.441	-86.086	-0.063	0.020
-693.426	47.861	0.212	-0.202
-692.412	538.293	-0.029	0.071
-691.397	-96.696	0.236	-0.063
-690.383	-126.701	0.037	0.006
-689.368	-83.419	0.157	-0.051
-688.354	342.892	0.020	0.040
-687.339	-200.000	0.014	-0.067
-686.324	-121.462	0.143	0.024
-685.310	99.837	-0.182	0.215
-684.295	-18.020	-0.268	0.171
-683.281	800.000	0.052	-0.192
-682.266	800.000	-0.049	-0.175
-681.251	106.317	-0.199	-0.240
-680.237	-200.000	-0.028	0.163
-679.222	-21.557	0.205	-0.128
-678.208	19.530	-0.110	-0.090
-677.193	-78.516	-0.571	-0.199
-676.178	-200.000	-0.399	-0.000
-675.164	-178.330	-0.301	-0.007
-674.149	-114.153	-0.237	0.047
-673.135	33.243	-0.297	0.263
-672.120	470.204	-0.071	0.162
-671.105	-138.207	-0.202	0.023
-670.091	-178.186	0.210	0.005
-669.076	8.674	-0.221	0.170
-668.062	246.627	-0.031	-0.054
-667.047	-200.000	-0.085	0.394
-666.032	-120.400	-0.439	-0.076
-665.018	-9.032	-0.302	0.206
-664.003	-50.657	-0.168	-0.081
-662.989	-108.194	0.176	-0.039
-661.974	-77.019	0.047	0.017
-660.959	196.427	0.082	-0.128
-659.945	167.215	-0.210	-0.304
-658.930	15.980	0.181	0.145
-657.916	-140.265	-0.115	-0.012
-656.901	800.000	0.091	-0.256
-655.886	-35.043	0.074	0.041
-654.872	-200.000	-0.022	-0.263
-653.857	133.883	0.140	-0.184
-652.843	305.717	-0.043	-0.082
-651.828	161.608	0.224	0.319
-650.814	-200.000	-0.008	0.059
-649.799	-200.000	0.004	0.038
-648.784	-136.761	0.090	0.011
-647.770	-200.000	-0.020	0.123
-646.755	63.229	-0.238	0.243
-645.741	-46.071	0.137	0.069
-644.726	95.115	0.077	0.089
-643.711	18.133	-0.164	0.134
-642.697	414.988	-0.105	-0.228
-641.682	230.298	0.072	0.120
-640.668	-16.176	-0.127	0.082
-639.653	-200.000	0.026	-0.173
-638.638	800.000	-0.063	-0.255
-637.624	-179.701	-0.296	0.007
-636.609	-62.725	-0.386	0.163
-635.595	-61.262	-0.011	-0.005
-634.580	22.411	-0.191	0.159
-633.565	-7.067	-0.204	0.141
-632.551	-71.702	0.152	0.058
-631.536	149.233	0.035	-0.048
-630.522	-7.005	-0.233	0.161
-629.507	-87.558	-0.315	0.097
-628.492	17.806	0.077	-0.062
-627.478	-87.382	0.172	0.053
-626.463	234.455	0.044	-0.074
-625.449	-200.000	-0.029	0.235
-624.434	-107.311	-0.071	-0.016
-623.419	99.516	-0.215	0.254
-622.405	163.819	-0.171	0.245
-621.390	-1.258	-0.308	-0.222
-620.376	1.479	0.268	-0.196
-619.361	20.244	0.104	-0.086
-618.346	-51.006	0.177	0.084
-617.332	-6.467	-0.078	-0.054
-616.317	-27.213	-0.133	0.079
-615.303	-88.584	0.219	0.066
-614.288	-200.000	0.031	0.157
-613.273	-69.216	0.127	-0.050
-612.259	343.127	0.072	0.144
-611.244	339.186	0.132	-0.261
-610.230	-74.187	0.162	-0.060
-609.215	143.593	0.196	-0.266
-608.201	800.000	0.022	0.078
-607.186	-14.181	-0.170	-0.111
-606.171	189.818	0.168	-0.257
-605.157	-200.000	0.022	-0.215
-604.142	574.068	0.039	0.097
-603.128	17.757	-0.354	-0.286
-602.113	376.623	0.084	-0.175
-601.098	58.046	-0.078	-0.078
-600.084	-94.672	0.301	-0.083
-599.069	0.902	0.256	-0.186
-598.055	25.078	0.091	0.077
-597.040	-80.817	0.314	0.106
-596.025	16.717	0.197	-0.158
-595.011	41.864	-0.054	-0.049
-593.996	478.161	-0.154	-0.355
-592.982	-200.000	0.037	-0.173
-591.967	-7.756	-0.300	0.206
-590.952	120.237	0.075	0.094
-589.938	-200.000	-0.000	-0.228
-588.923	43.476	0.131	-0.121
-587.909	153.413	-0.203	0.282
-586.894	32.141	0.093	-0.082
-585.879	50.145	-0.170	-0.163
-584.865	170.963	-0.058	0.084
-583.850	-200.000	-0.029	-0.137
-582.836	800.000	-0.021	0.079
-581.821	342.331	0.070	0.140
-580.806	353.043	0.154	0.310
-579.792	158.096	-0.141	-0.198
-578.777	316.201	0.209	0.401
-577.763	-30.100	0.397	0.229
-576.748	800.000	-0.061	0.209
-575.733	24.607	0.223	0.188
-574.719	376.740	0.042	-0.086
-573.704	157.010	-0.221	0.310
-572.690	165.891	-0.065	0.093
-571.675	54.688	0.303	0.296
-570.661	800.000	0.092	0.298
-569.646	115.249	0.191	-0.237
-568.631	-6.509	-0.077	0.053
-567.617	-200.000	-0.073	0.541
-566.602	800.000	-0.089	0.334
-565.588	-132.221	0.246	0.032
-564.573	-200.000	0.010	-0.111
-563.558	-17.103	-0.209	0.134
-562.544	387.747	0.095	0.200
-561.529	-38.110	-0.390	-0.210
-560.515	235.172	0.127	-0.213
-559.500	-44.949	-0.224	-0.113
-558.485	800.000	0.076	-0.261
-557.471	628.376	-0.142	-0.364
-556.456	-200.000	-0.005	0.083
-555.442	16.053	0.363	-0.290
-554.427	190.389	-0.183	0.279
-553.412	-168.061	0.309	0.012
-552.398	-200.000	0.001	-0.189
-551.383	-172.369	-0.204	0.007
-550.369	-97.225	-0.354	0.094
-549.354	482.255	-0.051	-0.118
-548.339	-101.787	0.167	-0.041
-547.325	25.757	0.160	-0.135
-546.310	413.218	0.129	0.278
-545.296	152.089	-0.288	0.398
-544.281	128.265	-0.079	0.102
-543.266	800.000	-0.088	0.288
-542.252	-12.198	0.136	-0.090
-541.237	-192.358	0.241	0.002
-540.223	-82.807	-0.056	-0.018
-539.208	160.322	-0.126	-0.179
-538.193	-39.074	-0.104	-0.055
-537.179	232.687	0.158	-0.264
-536.164	-96.577	0.152	-0.041
-535.150	800.000	-0.007	-0.028
-534.135	-93.645	-0.091	0.025
-533.121	-87.441	0.106	-0.033
-532.106	76.148	-0.056	0.060
-531.091	349.614	0.068	0.136
-530.077	194.988	-0.051	0.079
-529.062	-200.000	0.011	0.226
-528.048	-122.366	0.212	-0.035
-527.033	83.747	-0.174	0.193
-526.018	-200.000	-0.058	-0.290
-525.004	800.000	0.020	-0.062
-523.989	-9.465	0.044	-0.030
-522.975	-102.659	0.275	-0.066
-521.960	-29.049	-0.072	0.042
-520.945	-177.810	0.326	0.008
-519.931	-153.260	-0.163	-0.012
-518.916	-200.000	0.062	-0.301
-517.902	-200.000	0.020	0.185
-516.887	-104.722	0.165	0.038
-515.872	-141.920	-0.472	-0.048
-514.858	800.000	-0.077	-0.267
-513.843	-130.355	0.261	0.036
-512.829	170.849	0.057	0.083
-511.814	18.765	0.179	0.145
-510.799	-105.589	0.083	0.019
-509.785	-200.000	0.053	-0.390
-508.770	164.986	0.052	0.074
-507.756	-125.040	0.170	-0.026
-506.741	-36.639	-0.218	0.119
-505.726	800.000	-0.112	0.468
-504.712	-74.952	-0.189	0.069
-503.697	-200.000	-0.016	0.201
-502.683	-58.861	0.279	0.122
-501.668	-105.702	-0.246	0.056
-500.653	-75.345	0.046	0.017
-499.639	800.000	-0.068	0.284
-498.624	70.067	-0.119	0.125
-497.610	134.539	-0.232	-0.305
-496.595	800.000	-0.072	0.240
-495.581	244.899	0.072	0.122
-494.566	18.146	-0.071	-0.058
-493.551	-95.899	0.253	-0.068
-492.537	8.508	0.147	-0.112
-491.522	73.748	-0.058	0.061
-490.508	106.962	-0.072	0.087
-489.493	-75.766	-0.213	0.076
-488.478	330.480	0.079	-0.154
-487.464	800.000	-0.055	-0.155
-486.449	-15.789	0.054	0.035
-485.435	-118.711	0.413	0.074
-484.420	-32.285	0.089	-0.050
-483.405	-123.072	-0.470	0.076
-482.391	519.681	-0.022	0.052
-481.376	-46.426	0.182	0.090
-480.362	-6.603	0.093	-0.064
-479.347	-200.000	-0.012	0.065
-478.332	529.120	-0.057	0.135
-477.318	-75.962	0.101	0.036
-476.303	-189.312	-0.218	0.003
-475.289	-32.499	0.199	-0.112
-474.274	42.057	0.294	-0.270
-473.259	150.759	0.109	-0.150
-472.245	80.463	-0.322	0.351
-471.230	-119.597	0.332	-0.058
-470.216	97.384	0.076	-0.088
-469.201	-137.308	0.342	-0.039
-468.186	41.531	-0.219	-0.201
-467.172	-200.000	0.025	0.227
-466.157	-131.146	-0.218	0.029
-465.143	229.575	0.046	0.076
-464.128	-40.821	-0.120	0.063
-463.113	-200.000	0.005	-0.175
-462.099	-200.000	-0.033	-0.156
-461.084	84.387	0.171	0.190
-460.070	-123.359	-0.271	-0.044
-459.055	575.848	0.090	0.221
-458.040	-200.000	-0.003	0.128
-457.026	-137.010	-0.308	-0.036
-456.011	754.963	-0.049	0.133
-454.997	67.401	0.180	0.186
-453.982	-5.921	-0.220	0.152
-452.968	268.893	0.117	-0.208
-451.953	-200.000	-0.001	-0.112
-450.938	-78.312	-0.189	-0.066
-449.924	128.806	-0.235	0.303
-448.909	-86.111	-0.081	-0.025
-447.895	148.448	0.053	-0.072
-446.880	-200.000	0.021	0.223
-445.865	-127.046	-0.252	-0.037
-444.851	19.099	-0.070	0.057
-443.836	98.643	-0.185	0.215
-442.822	-200.000	0.023	-0.160
-441.807	800.000	-0.066	-0.286
-440.792	-88.775	0.187	0.056
-439.778	101.891	0.095	-0.112
-438.763	118.615	-0.181	0.226
-437.749	800.000	-0.096	-0.277
-436.734	-5.743	-0.233	0.161
-435.719	10.229	0.114	0.088
-434.705	564.068	0.111	0.273
-433.690	800.000	-0.046	-0.134
-432.676	163.158	-0.085	0.121
-431.661	20.071	0.103	0.084
-430.646	-200.000	-0.041	-0.369
-429.632	-98.454	-0.225	0.058
-428.617	-68.728	-0.289	-0.113
-427.603	138.792	-0.235	-0.312
-426.588	-59.594	0.123	0.053
-425.573	-101.967	-0.401	0.098
-424.559	-117.762	0.267	-0.048
-423.544	-1.433	-0.162	0.115
-422.530	110.245	0.024	-0.029
-421.515	-4.264	0.368	-0.257
-420.500	72.268	0.113	-0.119
-419.486	-14.979	0.220	-0.142
-418.471	73.670	0.459	-0.486
-417.457	-60.194	-0.248	-0.107
-416.442	800.000	-0.035	-0.154
-415.428	-95.252	-0.053	0.014
-414.413	257.067	-0.118	0.204
-413.398	322.915	-0.081	0.156
-412.384	-92.856	-0.239	0.067
-411.369	47.950	-0.127	-0.119
-410.355	499.559	-0.064	-0.148
-409.340	91.126	0.036	0.040
-408.325	-56.322	0.060	0.027
-407.311	241.947	-0.199	-0.336
-406.296	125.318	-0.250	-0.318
-405.282	-47.396	0.199	-0.098
-404.267	761.845	-0.024	-0.065
-403.252	-88.857	-0.109	-0.033
-402.238	-200.000	0.006	-0.111
-401.223	800.000	0.079	-0.256
-400.209	306.588	0.040	-0.076
-399.194	-103.149	0.384	-0.092
-398.179	-97.995	-0.277	-0.072
-397.165	-129.386	0.450	-0.063
-396.150	-2.666	0.245	-0.173
-395.136	472.015	-0.125	-0.284
-394.121	-53.321	0.351	0.162
-393.106	-90.520	0.351	0.102
-392.092	299.334	-0.101	-0.188
-391.077	250.477	-0.091	0.155
-390.063	-200.000	0.003	0.283
-389.048	-200.000	-0.032	-0.260
-388.033	-30.533	0.236	0.135
-387.019	800.000	-0.081	0.265
-386.004	-84.142	0.076	-0.024
-384.990	-200.000	-0.032	-0.188
-383.975	800.000	-0.082	0.268
-382.960	199.063	-0.079	0.123
-381.946	-43.264	0.290	0.148
-380.931	-89.737	-0.210	-0.062
-379.917	800.000	0.053	-0.188
-378.902	-151.679	0.173	-0.013
-377.888	-1.130	0.244	-0.174
-376.873	-135.011	-0.113	-0.014
-375.858	-200.000	-0.040	-0.444
-374.844	800.000	0.059	0.175
-373.829	62.946	0.230	-0.232
-372.815	800.000	-0.006	-0.025
-371.800	30.066	0.330	0.283
-370.785	6.929	0.180	0.135
-369.771	-200.000	-0.028	0.253
-368.756	50.878	0.177	-0.169
-367.742	-168.881	0.298	-0.011
-366.727	24.591	-0.145	0.121
-365.712	-165.148	-0.196	0.009
-364.698	15.479	0.170	0.134
-363.683	513.420	-0.081	-0.191
-362.669	208.190	-0.139	0.218
-361.654	-47.602	-0.116	0.057
-360.639	281.741	-0.114	-0.207
-359.625	-172.268	-0.299	0.010
-358.610	136.805	-0.141	-0.185
-357.596	-168.334	-0.359	-0.014
-356.581	-200.000	0.027	0.242
-355.566	-200.000	-0.005	-0.129
-354.552	-80.674	0.122	0.041
-353.537	470.212	0.043	0.097
-352.523	-126.205	0.226	0.034
-351.508	113.768	-0.165	-0.202
-350.493	-105.278	-0.175	0.040
-349.479	-138.776	-0.341	0.038
-348.464	-1.847	0.138	0.098
-347.450	322.130	-0.132	0.253
-346.435	84.616	0.256	0.282
-345.420	-120.539	-0.137	0.023
-344.406	-144.605	0.311	0.029
-343.391	-200.000	-0.041	0.188
-342.377	400.993	0.103	0.218
-341.362	800.000	0.099	0.349
-340.348	177.692	0.128	-0.187
-339.333	-75.576	-0.266	0.095
-338.318	-200.000	0.004	-0.128
-337.304	134.424	-0.065	-0.084
-336.289	-26.324	-0.205	0.121
-335.275	53.159	-0.046	0.044
-334.260	-22.935	0.198	0.120
-333.245	-200.000	0.041	0.198
-332.231	513.821	0.063	0.149
-331.216	-152.343	0.243	-0.018
-330.202	559.157	-0.064	0.156
-329.187	-162.274	-0.210	-0.011
-328.172	148.616	-0.022	0.030
-327.158	39.440	-0.198	0.178
-326.143	-87.747	0.076	0.023
-325.129	46.413	-0.126	0.118
-324.114	800.000	0.025	0.088
-323.099	71.370	0.117	-0.122
-322.085	77.360	-0.056	-0.060
-321.070	800.000	0.075	-0.227
-320.056	-132.163	-0.320	0.042
-319.041	410.996	0.024	0.051
-318.026	368.431	-0.063	-0.128
-317.012	96.277	-0.183	-0.210
-315.997	77.872	-0.257	-0.276
-314.983	800.000	-0.064	-0.200
-313.968	309.326	-0.170	-0.320
-312.953	-200.000	0.022	-0.345
-311.939	278.048	-0.163	-0.292
-310.924	114.507	-0.034	-0.042
-309.910	-181.854	0.351	-0.007
-308.895	77.513	0.192	-0.206
-307.880	-200.000	-0.004	-0.126
-306.866	775.961	-0.051	-0.141
-305.851	-114.924	0.087	-0.017
-304.837	20.799	0.164	0.133
-303.822	175.397	0.157	0.228
-302.807	800.000	0.105	-0.338
-301.793	-46.767	-0.228	-0.112
-300.778	425.156	0.134	-0.290
-299.764	-90.166	0.435	-0.127
-298.749	-20.161	-0.125	-0.078
-297.735	130.008	-0.060	0.078
-296.720	508.665	-0.192	0.449
-295.705	13.000	0.290	0.225
-294.691	-17.479	0.341	0.215
-293.676	800.000	-0.038	-0.158
-292.662	316.604	0.047	-0.089
-291.647	-200.000	0.082	0.439
-290.632	-164.338	-0.312	0.014
-289.618	42.949	0.236	-0.216
-288.603	800.000	0.087	-0.369
-287.589	-34.527	-0.207	-0.114
-286.574	-95.135	0.192	-0.052
-285.559	276.543	0.036	-0.064
-284.545	439.503	0.200	-0.438
-283.530	70.213	0.143	-0.149
-282.516	800.000	0.040	0.158
-281.501	12.243	0.327	0.253
-280.486	568.415	-0.035	-0.085
-279.472	-31.850	-0.207	-0.116
-278.457	10.725	-0.084	-0.065
-277.443	-102.043	0.317	0.077
-276.428	-3.879	-0.330	0.230
-275.413	193.551	-0.100	0.152
-274.399	-200.000	-0.010	-0.106
-273.384	482.048	0.153	-0.349
-272.370	46.191	0.309	-0.288
-271.355	-30.644	-0.404	0.230
-270.340	-24.223	0.293	-0.176
-269.326	-77.449	-0.464	0.162
-268.311	-75.744	0.075	-0.027
-267.297	29.403	0.025	-0.022
-266.282	-200.000	0.026	0.241
-265.267	241.475	0.104	0.175
-264.253	-200.000	-0.003	0.239
-263.238	-137.338	-0.144	-0.016
-262.224	-162.667	-0.295	0.015
-261.209	-200.000	0.043	0.223
-260.195	-200.000	0.051	0.261
-259.180	53.404	-0.069	0.066
-258.165	-82.453	-0.269	0.088
-257.151	237.008	-0.151	0.250
-256.136	800.000	-0.045	-0.133
-255.122	27.052	-0.253	-0.213
-254.107	-67.465	-0.064	-0.025
-253.092	509.843	0.012	0.028
-252.078	-200.000	0.035	0.188
-251.063	-47.759	0.402	0.195
-250.049	-113.321	-0.299	-0.059
-249.034	-20.208	0.227	-0.140
-248.019	-39.208	0.048	-0.025
-247.005	-200.000	0.004	0.186
-245.990	85.098	0.163	0.179
-244.976	-53.908	-0.285	0.130
-243.961	-200.000	-0.043	0.516
-242.946	262.192	0.125	-0.218
-241.932	-54.249	-0.389	-0.177
-240.917	-200.000	-0.021	0.169
-239.903	-12.321	0.226	-0.148
-238.888	179.961	0.101	-0.148
-237.873	161.390	0.156	0.219
-236.859	-102.667	0.381	0.091
-235.844	156.302	0.106	-0.147
-234.830	-68.859	0.017	0.007
-233.815	-147.700	-0.190	0.016
-232.800	-200.000	-0.000	-0.003
-231.786	-200.000	-0.009	-0.293
-230.771	-45.148	-0.284	-0.142
-229.757	11.271	0.118	-0.091
-228.742	-200.000	-0.002	-0.328
-227.727	1.915	-0.051	-0.037
-226.713	-153.728	-0.264	0.018
-225.698	800.000	-0.038	-0.112
-224.684	-26.523	0.184	-0.108
-223.669	-138.899	0.260	-0.028
-222.655	-200.000	-0.048	0.232
-221.640	-128.978	0.184	0.026
-220.625	546.738	-0.148	0.354
-219.611	61.783	-0.077	0.076
-218.596	800.000	0.044	-0.129
-217.582	-78.549	-0.184	-0.063
-216.567	-200.000	-0.037	-0.204
-215.552	67.812	0.083	-0.085
-214.538	-29.567	0.254	-0.145
-213.523	-19.593	0.198	-0.122
-212.509	-48.834	-0.143	0.069
-211.494	-114.559	0.214	0.041
-210.479	-55.476	0.378	0.170
-209.465	4.318	0.244	-0.179
-208.450	-132.357	0.060	-0.008
-207.436	230.499	-0.225	-0.369
-206.421	-200.000	0.029	-0.323
-205.406	217.485	-0.016	-0.025
-204.392	800.000	-0.058	0.250
-203.377	800.000	0.070	0.264
-202.363	-200.000	-0.012	-0.255
-201.348	14.353	-0.304	0.238
-200.333	114.537	0.039	0.048
-199.319	103.197	-0.164	0.193
-198.304	23.153	-0.389	-0.319
-197.290	28.532	0.274	-0.232
-196.275	49.947	0.283	0.267
-195.260	-39.888	-0.075	0.039
-194.246	-118.509	-0.143	-0.025
-193.231	25.556	0.103	0.086
-192.217	-32.529	-0.179	0.100
-191.202	800.000	-0.012	-0.047
-190.187	669.627	-0.068	-0.177
-189.173	-200.000	-0.051	0.294
-188.158	-102.373	-0.285	-0.068
-187.144	-62.716	-0.246	0.102
-186.129	191.179	-0.185	-0.278
-185.114	216.191	0.156	-0.248
-184.100	-152.247	-0.604	0.044
-183.085	247.792	-0.078	-0.132
-182.071	45.421	0.258	0.238
-181.056	-83.480	0.375	-0.120
-180.042	26.515	0.124	-0.104
-179.027	269.716	-0.252	-0.443
-178.012	800.000	-0.006	-0.025
-176.998	669.235	0.052	0.135
-175.983	-1.767	-0.251	-0.177
-174.969	500.856	-0.126	0.291
-173.954	-168.453	-0.095	-0.004
-172.939	-63.579	-0.321	-0.132
-171.925	304.143	0.095	0.175
-170.910	800.000	0.015	0.064
-169.896	-18.988	0.322	-0.200
-168.881	232.823	0.042	-0.068
-167.866	800.000	0.044	-0.176
-166.852	-107.511	-0.256	0.056
-165.837	-78.299	0.074	-0.025
-164.823	-101.156	0.290	-0.071
-163.808	53.204	0.344	0.329
-162.793	-86.046	-0.356	0.110
-161.779	-128.546	-0.238	0.034
-160.764	-95.736	-0.167	0.044
-159.750	-29.782	0.213	-0.122
-158.735	144.513	0.244	0.326
-157.720	685.280	0.074	0.193
-156.706	-200.000	-0.004	-0.037
-155.691	-28.004	0.211	-0.122
-154.677	-200.000	0.062	-0.334
-153.662	190.146	0.092	-0.139
-152.647	612.603	-0.103	0.257
-151.633	800.000	-0.074	0.242
-150.618	87.026	-0.107	-0.118
-149.604	86.239	-0.298	0.328
-148.589	-100.574	0.436	0.108
-147.574	-8.426	-0.365	0.245
-146.560	-19.188	-0.159	0.099
-145.545	12.028	0.120	0.092
-144.531	-200.000	0.032	-0.168
-143.516	128.350	0.097	0.123
-142.502	-110.799	-0.176	-0.036
-141.487	-145.540	0.029	-0.003
-140.472	741.285	0.059	-0.158
-139.458	800.000	0.039	0.122
-138.443	800.000	-0.013	-0.054
-137.429	-56.626	0.160	-0.071
-136.414	-106.167	0.087	0.019
-135.399	-90.933	-0.194	-0.056
-134.385	800.000	-0.037	-0.122
-133.370	259.902	-0.062	0.107
-132.356	-135.686	0.158	0.019
-131.341	-200.000	-0.053	0.271
-130.326	-86.058	0.163	0.050
-129.312	244.650	-0.148	0.248
-128.297	-200.000	-0.024	-0.456
-127.283	-19.389	-0.373	-0.231
-126.268	135.559	0.073	-0.095
-125.253	-128.067	-0.135	-0.019
-124.239	145.881	-0.120	-0.160
-123.224	39.148	0.175	0.156
-122.210	-200.000	-0.020	-0.290
-121.195	-43.798	-0.090	0.045
-120.180	-128.464	0.408	0.058
