DTS Sentinel unit serial number:	SN413079Multiplexer serial number:	ORYXHardware model number:	OX4-SRSoftware version number:	ORYX F/W v4.00 Oryx Data Collector v3.7.2.0data status	okinstallation	princeton_trtdifferential loss correction	single-endedforward channel	channel 1reverse channel	N/Adate	2019/09/16time	20:18:35forward acquisition time	60.00reverse acquisition time	0.00gamma	496.2192k internal	0.2322k external	0.2322temperature offset calibration	0.9952default loss term (dB/km)	0.3790temperature slope calibration	1.0000multiplexer offset coefficient	1.0000multiplexer slope coefficient	1.0000fibre end	0.00T internal ref (°C)	32.87T ext. ref 1 (°C)	0.08T ext. ref 2 (°C)	26.71length (m)	temperature (°C)	Stokes	anti-Stokes-747.200	-200.000	-0.081	0.498
-746.185	-148.459	0.304	0.025
-745.171	-78.594	-0.104	-0.036
-744.156	-107.402	-0.269	0.060
-743.142	-135.773	0.045	-0.005
-742.127	217.700	-0.067	0.108
-741.112	47.867	0.040	-0.038
-740.098	287.085	-0.204	0.373
-739.083	98.919	0.147	0.172
-738.069	39.739	0.139	0.126
-737.054	800.000	-0.132	0.511
-736.039	-110.467	-0.079	0.017
-735.025	-107.018	-0.112	0.025
-734.010	-26.451	0.086	0.051
-732.996	-110.996	-0.296	-0.061
-731.981	4.847	-0.112	0.083
-730.966	800.000	0.039	0.128
-729.952	109.459	0.143	-0.173
-728.937	-154.637	-0.124	-0.008
-727.923	535.642	-0.087	-0.209
-726.908	-72.693	-0.182	-0.068
-725.894	63.175	-0.203	-0.206
-724.879	26.447	0.182	-0.154
-723.864	-46.959	-0.372	0.183
-722.850	-80.578	0.147	0.050
-721.835	-200.000	0.024	-0.273
-720.821	-96.239	-0.294	0.079
-719.806	91.339	-0.096	0.109
-718.791	800.000	-0.093	0.308
-717.777	-200.000	0.009	-0.175
-716.762	10.516	-0.131	-0.101
-715.748	-200.000	0.009	-0.206
-714.733	800.000	-0.057	-0.184
-713.718	218.330	0.104	-0.167
-712.704	321.468	0.059	-0.112
-711.689	800.000	-0.055	-0.188
-710.675	137.712	-0.227	0.299
-709.660	-40.591	-0.129	0.067
-708.645	41.775	-0.184	-0.168
-707.631	-200.000	-0.019	0.131
-706.616	-200.000	0.012	-0.301
-705.602	602.935	0.070	-0.176
-704.587	50.163	-0.185	-0.176
-703.572	79.746	-0.158	0.171
-702.558	-61.344	-0.106	-0.045
-701.543	26.524	-0.204	-0.172
-700.529	800.000	-0.035	0.102
-699.514	-123.198	-0.504	0.081
-698.499	-63.294	-0.534	-0.222
-697.485	540.189	-0.101	-0.242
-696.470	-200.000	-0.028	-0.249
-695.456	-200.000	-0.025	-0.322
-694.441	-200.000	-0.002	-0.209
-693.426	259.817	-0.052	-0.091
-692.412	-96.725	-0.329	0.087
-691.397	-119.429	0.172	-0.030
-690.383	54.032	0.089	-0.086
-689.368	105.984	-0.134	-0.160
-688.354	-84.362	0.338	-0.108
-687.339	-118.504	-0.198	0.035
-686.324	166.916	-0.122	-0.174
-685.310	136.800	-0.049	0.065
-684.295	-200.000	0.009	0.301
-683.281	63.435	-0.052	-0.052
-682.266	640.469	-0.087	0.223
-681.251	-200.000	0.025	-0.339
-680.237	66.431	-0.313	-0.320
-679.222	-200.000	0.076	-0.400
-678.208	-73.576	0.071	0.026
-677.193	89.107	-0.143	0.160
-676.178	441.497	-0.087	-0.193
-675.164	-137.027	-0.179	0.021
-674.149	134.881	-0.138	-0.181
-673.135	-200.000	0.023	-0.395
-672.120	-83.542	0.042	0.014
-671.105	217.611	-0.127	0.204
-670.091	168.949	-0.128	-0.185
-669.076	-200.000	-0.035	-0.531
-668.062	800.000	0.019	0.069
-667.047	800.000	0.055	-0.183
-666.032	-183.540	0.126	0.002
-665.018	-200.000	-0.008	0.168
-664.003	-200.000	-0.000	-0.027
-662.989	100.403	0.232	-0.271
-661.974	197.060	-0.156	-0.239
-660.959	-8.487	0.185	0.125
-659.945	-200.000	0.029	-0.297
-658.930	800.000	0.132	-0.378
-657.916	-145.037	-0.110	0.010
-656.901	197.610	-0.047	0.072
-655.886	216.131	0.128	0.205
-654.872	-164.996	0.229	0.010
-653.857	-200.000	0.063	-0.463
-652.843	-39.975	-0.235	-0.123
-651.828	-200.000	0.015	0.246
-650.814	-200.000	0.024	-0.613
-649.799	-115.787	-0.380	-0.072
-648.784	-21.874	0.219	0.134
-647.770	58.884	0.159	-0.157
-646.755	221.328	-0.197	0.319
-645.741	-200.000	-0.063	-0.445
-644.726	706.364	0.098	-0.259
-643.711	425.182	-0.090	-0.196
-642.697	800.000	-0.190	-0.543
-641.682	-116.558	0.169	-0.031
-640.668	-188.336	-0.319	0.004
-639.653	800.000	-0.048	0.134
-638.638	48.471	0.168	-0.158
-637.624	-200.000	0.011	-0.394
-636.609	-8.182	-0.127	0.086
-635.595	572.899	-0.132	0.324
-634.580	103.912	-0.151	-0.178
-633.565	800.000	-0.025	0.088
-632.551	48.514	-0.347	0.327
-631.536	-128.230	0.338	0.048
-630.522	8.730	-0.147	-0.112
-629.507	800.000	0.027	0.119
-628.492	-77.630	0.168	0.059
-627.478	-200.000	0.028	-0.336
-626.463	800.000	-0.083	0.279
-625.449	454.163	0.090	-0.200
-624.434	103.703	0.086	0.101
-623.419	-91.738	0.164	-0.047
-622.405	152.749	-0.114	-0.156
-621.390	-20.105	-0.094	-0.058
-620.376	-34.208	0.181	-0.100
-619.361	800.000	-0.005	0.015
-618.346	101.906	-0.127	0.149
-617.332	800.000	0.012	0.053
-616.317	-200.000	0.010	-0.209
-615.303	-200.000	-0.040	-0.258
-614.288	-200.000	0.027	-0.236
-613.273	-112.853	-0.112	0.022
-612.259	279.822	-0.208	0.374
-611.244	328.169	0.341	0.659
-610.230	-90.730	-0.325	0.094
-609.215	-200.000	-0.056	0.377
-608.201	-61.992	-0.116	-0.049
-607.186	173.876	-0.163	-0.236
-606.171	91.017	-0.142	0.160
-605.157	-32.714	0.176	-0.098
-604.142	-178.187	-0.080	-0.002
-603.128	-200.000	0.005	0.165
-602.113	-200.000	-0.278	0.000
-601.098	-200.000	0.029	0.251
-600.084	-130.478	-0.260	-0.035
-599.069	40.927	-0.184	0.167
-598.055	-155.455	-0.210	-0.014
-597.040	-61.118	-0.233	0.099
-596.025	800.000	0.036	0.125
-595.011	-200.000	0.000	-0.130
-593.996	-200.000	0.039	0.195
-592.982	-34.098	-0.154	-0.085
-591.967	162.559	-0.093	0.131
-590.952	-200.000	0.059	0.271
-589.938	-57.293	-0.386	0.170
-588.923	438.708	0.193	0.423
-587.909	-60.191	0.512	0.219
-586.894	800.000	0.026	-0.093
-585.879	800.000	0.066	-0.190
-584.865	800.000	0.039	-0.110
-583.850	800.000	-0.014	-0.052
-582.836	-76.323	0.278	0.098
-581.821	-100.801	-0.064	0.016
-580.806	-163.182	0.388	-0.019
-579.792	-112.645	0.194	-0.039
-578.777	358.392	0.050	0.100
-577.763	196.591	0.092	-0.141
-576.748	-28.073	-0.350	0.203
-575.733	800.000	-0.076	-0.248
-574.719	-36.311	0.233	-0.126
-573.704	-24.631	0.041	0.024
-572.690	-149.166	-0.090	0.007
-571.675	491.893	-0.115	0.263
-570.661	800.000	-0.110	0.329
-569.646	184.341	-0.199	0.295
-568.631	-200.000	-0.006	-0.108
-567.617	324.525	0.209	0.401
-566.602	-137.758	0.137	0.015
-565.588	-200.000	-0.018	-0.119
-564.573	-200.000	-0.037	-0.424
-563.558	-200.000	-0.013	0.148
-562.544	-1.917	-0.303	0.214
-561.529	-200.000	0.044	-0.298
-560.515	46.487	0.307	0.286
-559.500	-28.611	0.461	-0.266
-558.485	-200.000	0.048	-0.277
-557.471	636.767	-0.159	-0.405
-556.456	64.110	-0.220	0.222
-555.442	261.317	0.072	-0.126
-554.427	26.856	0.253	-0.213
-553.412	-200.000	-0.028	-0.146
-552.398	-155.505	-0.311	0.020
-551.383	681.201	0.067	0.175
-550.369	-113.732	-0.039	-0.008
-549.354	350.233	0.068	-0.136
-548.339	-106.962	0.348	0.077
-547.325	-117.319	0.043	-0.008
-546.310	1.382	0.288	0.207
-545.296	88.666	-0.146	-0.163
-544.281	-200.000	-0.009	0.062
-543.266	-200.000	0.021	-0.245
-542.252	800.000	-0.072	-0.203
-541.237	-164.338	-0.204	0.009
-540.223	289.198	-0.162	0.294
-539.208	101.673	0.025	0.029
-538.193	-10.325	0.083	-0.055
-537.179	-80.512	-0.225	-0.075
-536.164	800.000	-0.091	0.290
-535.150	511.994	-0.051	0.120
-534.135	-75.962	0.303	0.107
-533.121	-72.427	0.354	-0.131
-532.106	800.000	-0.063	0.253
-531.091	-200.000	0.003	0.134
-530.077	-200.000	-0.065	-0.505
-529.062	38.500	0.290	0.259
-528.048	-65.722	-0.157	0.063
-527.033	800.000	-0.045	-0.138
-526.018	110.722	-0.146	0.176
-525.004	-83.659	0.143	-0.046
-523.989	264.097	-0.174	-0.303
-522.975	800.000	0.022	0.074
-521.960	-131.774	0.234	0.031
-520.945	-200.000	-0.032	0.169
-519.931	-180.142	-0.416	-0.009
-518.916	0.585	0.247	-0.177
-517.902	-200.000	-0.004	0.222
-516.887	141.001	-0.122	-0.162
-515.872	-64.633	0.142	0.058
-514.858	-159.212	-0.196	0.011
-513.843	-200.000	0.067	-0.389
-512.829	-105.200	0.234	-0.053
-511.814	227.869	-0.156	0.254
-510.799	-126.637	0.102	-0.015
-509.785	133.735	0.125	-0.162
-508.770	-43.346	-0.260	-0.132
-507.756	-41.279	0.427	-0.220
-506.741	-75.506	0.066	0.024
-505.726	263.703	-0.090	0.157
-504.712	743.080	0.163	-0.439
-503.697	-200.000	-0.013	0.064
-502.683	-200.000	-0.015	-0.156
-501.668	-200.000	-0.044	0.249
-500.653	190.255	0.034	-0.052
-499.639	-200.000	-0.068	-0.301
-498.624	439.606	0.192	-0.419
-497.610	-0.287	0.230	0.164
-496.595	-148.443	0.315	0.026
-495.581	-92.828	0.454	-0.127
-494.566	-55.216	-0.216	0.097
-493.551	-66.986	0.475	0.188
-492.537	176.025	0.133	0.193
-491.522	194.917	-0.103	-0.156
-490.508	392.720	-0.012	0.025
-489.493	800.000	-0.036	0.100
-488.478	-151.990	0.322	0.023
-487.464	76.075	-0.076	-0.080
-486.449	210.524	-0.048	0.075
-485.435	260.437	0.094	-0.162
-484.420	87.192	-0.033	0.036
-483.405	800.000	-0.048	-0.192
-482.391	-200.000	-0.003	-0.146
-481.376	-172.805	-0.308	0.010
-480.362	44.790	0.219	-0.202
-479.347	181.054	-0.127	-0.187
-478.332	30.032	0.222	0.190
-477.318	-25.462	0.140	-0.083
-476.303	302.822	0.045	0.083
-475.289	42.885	-0.071	0.065
-474.274	251.274	0.163	0.278
-473.259	800.000	0.084	0.308
-472.245	-200.000	0.014	0.141
-471.230	-67.702	0.121	0.047
-470.216	800.000	0.068	0.258
-469.201	-200.000	-0.016	-0.301
-468.186	54.418	-0.100	-0.096
-467.172	182.648	-0.238	-0.350
-466.157	345.358	-0.058	0.115
-465.143	655.543	0.042	0.108
-464.128	-27.278	-0.127	-0.074
-463.113	243.194	0.130	-0.217
-462.099	-200.000	-0.013	0.207
-461.084	95.058	0.063	0.071
-460.070	-5.795	0.178	-0.122
-459.055	-114.285	-0.097	-0.019
-458.040	1.778	-0.274	0.198
-457.026	-196.153	-0.272	0.002
-456.011	-105.182	-0.025	-0.006
-454.997	630.173	-0.134	0.338
-453.982	-85.933	-0.180	0.056
-452.968	800.000	-0.051	-0.207
-451.953	800.000	-0.068	-0.269
-450.938	-200.000	0.034	0.245
-449.924	243.555	-0.100	-0.168
-448.909	314.430	-0.202	-0.380
-447.895	-123.188	0.138	-0.022
-446.880	768.683	0.140	0.380
-445.865	-104.230	0.262	0.061
-444.851	-137.305	-0.500	-0.057
-443.836	261.179	-0.112	0.194
-442.822	-200.000	0.025	-0.141
-441.807	-137.590	-0.153	-0.017
-440.792	800.000	-0.119	0.501
-439.778	-200.000	0.000	-0.225
-438.763	-200.000	0.016	0.115
-437.749	197.920	0.042	-0.064
-436.734	-200.000	0.022	0.099
-435.719	221.760	0.109	-0.176
-434.705	137.452	-0.242	-0.317
-433.690	-81.979	0.228	-0.074
-432.676	-125.645	-0.241	-0.036
-431.661	-30.371	0.149	0.084
-430.646	-200.000	-0.007	-0.194
-429.632	-43.503	-0.300	0.151
-428.617	620.043	-0.056	-0.142
-427.603	-42.386	0.077	-0.039
-426.588	-100.718	-0.030	-0.007
-425.573	800.000	-0.084	0.276
-424.559	495.487	0.109	-0.249
-423.544	-109.358	0.347	0.073
-422.530	800.000	-0.080	0.318
-421.515	-98.394	0.208	0.053
-420.500	800.000	0.120	-0.400
-419.486	426.962	0.077	0.167
-418.471	94.438	0.154	-0.174
-417.457	-34.784	-0.090	0.049
-416.442	174.985	-0.237	-0.343
-415.428	-84.763	0.356	0.112
-414.413	124.140	-0.045	0.056
-413.398	395.560	-0.096	-0.199
-412.384	170.031	0.017	-0.025
-411.369	-104.091	-0.371	-0.086
-410.355	-30.542	0.094	0.053
-409.340	142.479	-0.113	-0.149
-408.325	-9.955	0.220	0.146
-407.311	97.553	-0.112	-0.128
-406.296	-200.000	0.025	0.203
-405.282	-36.654	0.218	0.117
-404.267	-9.856	-0.091	-0.061
-403.252	-27.797	-0.299	-0.173
-402.238	-15.900	-0.140	0.089
-401.223	-59.416	-0.299	0.128
-400.209	800.000	0.047	0.188
-399.194	-54.275	-0.208	0.094
-398.179	307.461	-0.107	-0.199
-397.165	-200.000	0.045	-0.291
-396.150	-47.003	0.029	0.014
-395.136	800.000	-0.045	0.132
-394.121	130.425	0.141	-0.181
-393.106	46.357	0.089	0.083
-392.092	-87.172	0.178	-0.054
-391.077	362.841	0.103	-0.207
-390.063	-45.882	-0.181	0.089
-389.048	-126.520	-0.254	0.038
-388.033	-124.644	0.225	-0.035
-387.019	408.613	0.135	0.284
-386.004	800.000	-0.051	-0.175
-384.990	-88.376	0.041	-0.012
-383.975	-84.023	0.247	-0.078
-382.960	23.180	0.350	-0.286
-381.946	-104.164	-0.184	-0.042
-380.931	-26.036	-0.085	0.050
-379.917	-23.805	0.102	0.061
-378.902	-129.665	0.180	0.025
-377.888	-16.620	-0.227	0.143
-376.873	44.026	0.338	0.309
-375.858	213.472	0.032	0.050
-374.844	640.376	-0.097	0.245
-373.829	800.000	-0.038	-0.117
-372.815	-115.936	0.377	0.070
-371.800	172.828	-0.100	0.143
-370.785	387.127	0.083	0.170
-369.771	-137.180	-0.100	-0.011
-368.756	-36.384	-0.240	-0.129
-367.742	-200.000	0.006	-0.340
-366.727	371.838	-0.031	0.064
-365.712	-116.586	-0.475	-0.087
-364.698	-200.000	0.036	0.504
-363.683	-133.018	0.248	-0.031
-362.669	800.000	0.060	0.166
-361.654	455.938	0.056	-0.123
-360.639	-46.295	-0.384	-0.188
-359.625	-81.828	0.458	0.149
-358.610	87.954	-0.122	-0.134
-357.596	-200.000	0.016	-0.190
-356.581	638.852	0.145	-0.366
-355.566	-107.822	0.204	0.044
-354.552	-18.011	-0.302	0.188
-353.537	-200.000	-0.029	-0.150
-352.523	-183.726	0.203	0.003
-351.508	-115.319	-0.272	0.051
-350.493	-200.000	-0.008	0.077
-349.479	-109.591	-0.207	0.043
-348.464	-200.000	-0.028	0.212
-347.450	91.893	-0.121	0.135
-346.435	-200.000	-0.031	0.154
-345.420	143.634	-0.165	-0.219
-344.406	-29.897	-0.095	-0.054
-343.391	134.521	-0.065	0.083
-342.377	-200.000	0.042	-0.301
-341.362	-200.000	-0.006	0.030
-340.348	-115.001	-0.262	0.049
-339.333	-200.000	-0.025	-0.235
-338.318	64.671	-0.096	-0.096
-337.304	19.435	-0.203	-0.162
-336.289	-200.000	-0.047	-0.455
-335.275	-200.000	-0.009	-0.240
-334.260	-75.175	0.096	0.034
-333.245	-3.975	0.348	0.240
-332.231	-30.232	-0.234	0.132
-331.216	294.209	0.037	0.067
-330.202	-200.000	-0.027	0.131
-329.187	800.000	0.094	-0.274
-328.172	85.424	0.198	-0.216
-327.158	36.998	-0.316	0.278
-326.143	142.055	-0.239	0.315
-325.129	-136.098	0.075	-0.009
-324.114	118.763	-0.105	0.129
-323.099	185.313	0.060	-0.089
-322.085	-146.926	-0.191	-0.016
-321.070	93.801	0.106	0.119
-320.056	-56.997	0.227	-0.100
-319.041	800.000	-0.066	-0.230
-318.026	-119.553	0.120	0.021
-317.012	-200.000	-0.033	0.158
-315.997	-52.990	-0.168	-0.077
-314.983	463.894	-0.155	-0.343
-313.968	26.953	-0.086	0.072
-312.953	235.490	-0.128	0.210
-311.939	-148.332	0.105	-0.009
-310.924	126.122	0.320	0.402
-309.910	25.074	0.242	-0.199
-308.895	796.419	-0.111	0.303
-307.880	-200.000	0.040	-0.523
-306.866	23.297	0.251	-0.205
-305.851	-200.000	-0.024	0.128
-304.837	-4.518	0.245	0.168
-303.822	224.016	-0.226	0.362
-302.807	-52.913	0.140	0.064
-301.793	-112.579	-0.137	0.027
-300.778	104.175	-0.184	-0.215
-299.764	-120.058	-0.175	-0.030
-298.749	-200.000	0.006	0.113
-297.735	-53.384	-0.172	-0.078
-296.720	800.000	-0.121	-0.474
-295.705	-200.000	0.061	-0.282
-294.691	134.448	-0.272	-0.350
-293.676	280.526	0.129	0.228
-292.662	-200.000	-0.034	0.263
-291.647	283.998	-0.210	0.375
-290.632	-80.685	0.159	0.053
-289.618	-70.232	-0.173	-0.065
-288.603	800.000	-0.023	0.083
-287.589	-171.531	-0.253	0.008
-286.574	-154.441	0.171	0.011
-285.559	-92.504	0.444	-0.124
-284.545	800.000	-0.065	0.275
-283.530	-70.798	0.139	-0.052
-282.516	-101.988	-0.124	0.030
-281.501	-74.440	0.076	0.027
-280.486	-133.199	-0.017	0.002
-279.472	800.000	-0.060	0.215
-278.457	-200.000	-0.070	0.364
-277.443	183.790	0.131	0.192
-276.428	86.733	-0.189	-0.207
-275.413	50.517	0.136	0.128
-274.399	11.932	-0.216	0.165
-273.384	-165.315	-0.225	0.010
-272.370	-200.000	-0.004	0.213
-271.355	550.724	0.049	0.116
-270.340	-104.410	-0.351	-0.080
-269.326	-13.300	0.253	-0.163
-268.311	-88.090	-0.103	-0.031
-267.297	-200.000	0.062	-0.464
-266.282	-40.176	-0.123	-0.064
-265.267	263.738	-0.106	-0.183
-264.253	800.000	0.131	0.362
-263.238	593.576	-0.162	0.397
-262.224	-135.703	0.202	0.024
-261.209	-115.884	0.350	0.065
-260.195	-16.115	0.354	-0.223
-259.180	-200.000	-0.039	-0.242
-258.165	800.000	-0.013	0.040
-257.151	-200.000	0.023	-0.261
-256.136	-96.939	-0.235	-0.061
-255.122	-200.000	-0.023	0.554
-254.107	-200.000	0.015	0.127
-253.092	-200.000	-0.015	0.084
-252.078	241.992	0.087	0.145
-251.063	-151.602	-0.386	0.028
-250.049	47.373	0.182	-0.168
-249.034	-200.000	-0.023	-0.424
-248.019	-90.102	-0.330	-0.095
-247.005	637.973	0.102	-0.258
-245.990	-200.000	-0.032	0.140
-244.976	-157.667	0.202	0.012
-243.961	-148.784	0.230	-0.018
-242.946	-120.096	-0.371	0.063
-241.932	-200.000	0.006	-0.177
-240.917	-86.919	-0.133	-0.040
-239.903	-28.435	-0.106	-0.061
-238.888	-94.032	-0.145	-0.039
-237.873	800.000	-0.011	0.035
-236.859	800.000	0.100	0.351
-235.844	117.762	-0.202	-0.247
-234.830	-41.705	-0.215	0.109
-233.815	51.600	-0.076	-0.072
-232.800	-200.000	-0.023	0.213
-231.786	7.378	0.236	-0.175
-230.771	-43.121	0.273	0.137
-229.757	274.113	-0.168	0.295
-228.742	129.749	0.155	-0.196
-227.727	-61.205	0.271	0.113
-226.713	486.569	0.087	-0.196
-225.698	125.437	-0.122	0.153
-224.684	-200.000	0.016	0.215
-223.669	-176.589	0.107	-0.003
-222.655	-200.000	-0.033	0.463
-221.640	-87.994	-0.126	-0.037
-220.625	461.981	-0.041	0.090
-219.611	14.389	-0.221	0.171
-218.596	323.416	0.111	0.209
-217.582	150.278	-0.107	0.144
-216.567	-200.000	0.013	-0.171
-215.552	-161.505	0.260	-0.013
-214.538	800.000	0.081	-0.303
-213.523	-46.842	0.226	-0.110
-212.509	372.194	-0.233	-0.469
-211.494	125.586	-0.206	-0.258
-210.479	-173.576	0.439	-0.013
-209.465	-103.360	-0.058	-0.014
-208.450	-112.725	0.218	0.043
-207.436	44.036	-0.118	-0.107
-206.421	-81.252	-0.077	-0.025
-205.406	91.367	0.161	-0.179
-204.392	800.000	-0.075	0.236
-203.377	-200.000	-0.001	-0.090
-202.363	522.002	0.107	0.248
-201.348	79.028	0.294	0.312
-200.333	32.773	-0.130	-0.111
-199.319	21.540	-0.125	-0.100
-198.304	-200.000	-0.004	0.044
-197.290	100.182	-0.057	0.065
-196.275	-56.912	0.312	-0.136
-195.260	612.863	-0.130	-0.322
-194.246	800.000	0.117	-0.431
-193.231	261.262	-0.082	0.141
-192.217	800.000	0.065	-0.212
-191.202	32.619	0.123	0.105
-190.187	-103.593	0.189	0.044
-189.173	101.225	0.065	0.075
-188.158	373.717	-0.012	-0.025
-187.144	-17.909	0.130	0.081
-186.129	800.000	-0.022	0.092
-185.114	-145.067	0.022	-0.002
-184.100	-200.000	-0.014	0.162
-183.085	-200.000	-0.026	0.162
-182.071	800.000	-0.014	-0.050
-181.056	-200.000	0.018	-0.090
-180.042	800.000	0.036	0.108
-179.027	69.091	-0.079	0.080
-178.012	-200.000	0.038	-0.211
-176.998	163.919	0.169	-0.235
-175.983	17.228	0.187	-0.147
-174.969	-200.000	-0.014	0.164
-173.954	-140.227	0.270	0.028
-172.939	102.213	0.036	-0.042
-171.925	-141.230	-0.228	-0.023
-170.910	-144.442	0.103	0.009
-169.896	641.604	-0.088	0.220
-168.881	234.863	-0.231	-0.376
-167.866	-68.008	0.030	0.012
-166.852	-144.624	0.242	0.022
-165.837	-86.144	-0.257	-0.078
-164.823	800.000	-0.053	0.219
-163.808	-38.779	-0.252	-0.131
-162.793	108.814	0.180	0.213
-161.779	266.373	0.113	0.194
-160.764	-45.339	0.185	-0.091
-159.750	76.772	0.248	-0.259
-158.735	800.000	0.059	0.211
-157.720	185.319	-0.109	-0.159
-156.706	142.727	0.070	0.091
-155.691	800.000	-0.015	0.046
-154.677	-160.338	0.238	-0.013
-153.662	195.507	0.057	-0.085
-152.647	433.961	-0.051	0.110
-151.633	800.000	0.086	0.283
-150.618	-117.727	0.125	-0.022
-149.604	5.465	-0.292	-0.213
-148.589	134.164	-0.181	-0.231
-147.574	-141.031	0.541	0.055
-146.560	-62.530	0.231	-0.095
-145.545	-200.000	0.021	-0.112
-144.531	104.347	0.253	-0.293
-143.516	-85.802	-0.382	0.117
-142.502	-68.965	0.315	0.120
-141.487	-136.781	-0.067	0.008
-140.472	-43.287	-0.444	-0.221
-139.458	-200.000	-0.006	-0.086
-138.443	-133.605	-0.339	0.042
-137.429	-154.623	-0.230	-0.015
-136.414	-43.159	-0.471	-0.236
-135.399	-200.000	0.022	-0.123
-134.385	-200.000	0.008	0.216
-133.370	800.000	0.084	0.244
-132.356	-113.462	-0.276	0.053
-131.341	-200.000	-0.049	-0.336
-130.326	12.776	-0.142	0.108
-129.312	70.439	-0.139	0.142
-128.297	220.253	-0.168	0.265
-127.283	-25.160	0.088	0.052
-126.268	67.203	0.031	0.031
-125.253	800.000	0.051	-0.163
-124.239	196.727	0.156	-0.235
-123.224	23.221	-0.384	0.311
