DTS Sentinel unit serial number:	SN413079Multiplexer serial number:	ORYXHardware model number:	OX4-SRSoftware version number:	ORYX F/W v4.00 Oryx Data Collector v3.7.2.0data status	okinstallation	princeton_trtdifferential loss correction	single-endedforward channel	channel 1reverse channel	N/Adate	2019/09/19time	08:50:35forward acquisition time	60.00reverse acquisition time	0.00gamma	496.2192k internal	0.2343k external	0.2343temperature offset calibration	1.0005default loss term (dB/km)	0.3790temperature slope calibration	1.0000multiplexer offset coefficient	1.0000multiplexer slope coefficient	1.0000fibre end	0.00T internal ref (°C)	21.19T ext. ref 1 (°C)	0.59T ext. ref 2 (°C)	16.85length (m)	temperature (°C)	Stokes	anti-Stokes-747.200	56.978	0.128	-0.125
-746.185	235.616	-0.039	-0.064
-745.171	800.000	-0.127	0.355
-744.156	-91.832	-0.182	0.052
-743.142	400.026	-0.072	-0.152
-742.127	-102.130	0.170	0.041
-741.112	800.000	0.044	0.170
-740.098	-41.796	-0.358	0.184
-739.083	-73.745	0.157	-0.057
-738.069	-200.000	0.051	0.352
-737.054	605.483	0.076	0.189
-736.039	96.268	-0.071	-0.081
-735.025	127.967	0.123	0.156
-734.010	-198.039	-0.274	0.002
-732.996	703.158	0.067	-0.177
-731.981	-104.569	-0.203	-0.047
-730.966	553.267	0.180	0.432
-729.952	-77.825	-0.280	0.097
-728.937	-32.934	-0.256	0.143
-727.923	-8.942	-0.190	-0.127
-726.908	15.530	-0.396	-0.311
-725.894	93.963	-0.085	-0.096
-724.879	-200.000	-0.010	0.159
-723.864	-139.561	-0.403	0.043
-722.850	-25.189	0.240	-0.142
-721.835	17.513	0.030	-0.024
-720.821	-200.000	-0.021	0.239
-719.806	120.823	-0.119	-0.148
-718.791	-119.458	-0.260	-0.045
-717.777	800.000	0.006	-0.019
-716.762	-200.000	-0.063	-0.425
-715.748	236.537	-0.035	0.058
-714.733	-200.000	0.027	-0.151
-713.718	-176.340	-0.011	0.000
-712.704	-107.121	0.144	-0.032
-711.689	800.000	0.119	0.420
-710.675	73.818	-0.048	0.050
-709.660	95.819	-0.194	0.221
-708.645	0.999	0.035	-0.025
-707.631	-108.482	-0.306	0.066
-706.616	-6.070	-0.169	-0.115
-705.602	-200.000	-0.022	0.114
-704.587	89.635	0.016	-0.018
-703.572	10.751	-0.313	0.239
-702.558	800.000	0.063	-0.188
-701.543	165.732	0.183	-0.259
-700.529	800.000	0.045	-0.178
-699.514	163.941	-0.071	0.100
-698.499	-33.944	0.248	-0.137
-697.485	25.260	0.364	0.302
-696.470	264.161	0.208	0.362
-695.456	-200.000	0.066	0.295
-694.441	-140.597	-0.332	0.034
-693.426	-64.915	0.198	0.080
-692.412	754.789	-0.084	-0.227
-691.397	55.309	-0.245	0.237
-690.383	68.834	-0.164	0.168
-689.368	-39.120	-0.307	0.161
-688.354	273.476	-0.130	-0.230
-687.339	-172.880	0.263	-0.008
-686.324	-126.384	0.086	0.013
-685.310	333.764	-0.161	-0.311
-684.295	-21.958	-0.227	0.138
-683.281	170.504	0.038	-0.054
-682.266	-200.000	-0.008	0.076
-681.251	230.499	-0.094	0.153
-680.237	-200.000	0.031	-0.226
-679.222	65.608	-0.246	-0.248
-678.208	800.000	-0.016	0.058
-677.193	-200.000	0.010	-0.260
-676.178	-51.375	-0.107	0.050
-675.164	-48.100	0.110	0.053
-674.149	133.476	0.120	0.155
-673.135	-200.000	-0.018	0.131
-672.120	-158.088	-0.296	0.017
-671.105	214.198	0.135	-0.214
-670.091	105.780	-0.173	-0.205
-669.076	-61.832	-0.301	-0.126
-668.062	-200.000	-0.026	-0.141
-667.047	-200.000	-0.058	-0.324
-666.032	-13.300	0.190	-0.123
-665.018	-200.000	-0.042	0.301
-664.003	800.000	0.098	0.313
-662.989	-61.797	-0.263	0.110
-661.974	-71.917	-0.249	0.093
-660.959	17.090	-0.179	0.141
-659.945	92.950	0.214	-0.241
-658.930	-200.000	-0.019	-0.133
-657.916	-175.840	-0.275	-0.007
-656.901	-6.052	0.299	-0.204
-655.886	-2.091	0.126	-0.088
-654.872	-56.903	-0.128	0.056
-653.857	-26.890	-0.136	0.080
-652.843	800.000	-0.038	0.133
-651.828	-88.794	0.204	0.061
-650.814	800.000	0.048	-0.145
-649.799	103.948	-0.186	-0.218
-648.784	23.940	-0.185	0.152
-647.770	240.349	-0.108	-0.179
-646.755	127.776	-0.212	-0.269
-645.741	173.623	0.049	0.070
-644.726	124.329	-0.086	-0.108
-643.711	-3.020	-0.247	-0.172
-642.697	-51.220	0.196	0.092
-641.682	-85.330	0.047	0.015
-640.668	-109.813	-0.194	0.041
-639.653	-94.655	0.137	0.037
-638.638	-168.204	0.100	-0.004
-637.624	-89.903	-0.044	0.013
-636.609	239.611	-0.066	0.110
-635.595	-66.073	-0.320	0.127
-634.580	-11.667	0.442	0.289
-633.565	779.519	0.160	0.436
-632.551	-156.387	0.050	0.003
-631.536	-200.000	-0.033	0.240
-630.522	300.762	0.065	-0.120
-629.507	0.297	0.235	0.167
-628.492	24.526	-0.166	0.137
-627.478	106.367	-0.177	0.209
-626.463	800.000	0.016	-0.060
-625.449	42.076	0.183	0.166
-624.434	664.229	0.087	-0.223
-623.419	-29.391	0.222	0.127
-622.405	800.000	0.081	0.278
-621.390	50.490	0.229	-0.215
-620.376	34.014	-0.136	0.118
-619.361	-0.563	-0.197	0.139
-618.346	-34.254	0.327	0.179
-617.332	-192.688	0.157	0.001
-616.317	800.000	-0.019	-0.061
-615.303	-36.697	0.060	0.032
-614.288	322.049	-0.104	-0.196
-613.273	319.682	0.051	-0.096
-612.259	-199.676	-0.202	0.001
-611.244	-11.905	-0.147	-0.096
-610.230	-200.000	-0.029	0.178
-609.215	-200.000	-0.088	-0.470
-608.201	76.334	0.208	-0.220
-607.186	-200.000	-0.001	-0.078
-606.171	-42.602	-0.070	0.035
-605.157	-1.862	0.041	0.029
-604.142	-62.175	0.198	0.082
-603.128	-81.621	-0.315	-0.103
-602.113	-200.000	-0.002	-0.155
-601.098	800.000	0.073	0.301
-600.084	-29.792	0.076	0.043
-599.069	231.655	-0.299	-0.489
-598.055	800.000	0.041	-0.138
-597.040	92.658	-0.155	-0.175
-596.025	253.421	0.110	-0.187
-595.011	20.384	0.290	0.233
-593.996	-27.140	0.070	-0.040
-592.982	-2.680	-0.250	0.174
-591.967	-180.570	-0.102	-0.002
-590.952	276.156	-0.104	-0.185
-589.938	-200.000	0.010	0.188
-588.923	-50.328	-0.172	0.081
-587.909	-162.067	-0.383	-0.019
-586.894	-159.099	-0.162	-0.009
-585.879	667.941	-0.028	0.073
-584.865	-200.000	0.008	0.259
-583.850	-75.855	0.232	0.082
-582.836	-200.000	0.004	0.314
-581.821	271.492	-0.129	-0.227
-580.806	117.578	-0.056	-0.068
-579.792	562.712	-0.081	0.195
-578.777	129.558	0.114	-0.145
-577.763	1.502	0.184	-0.132
-576.748	-65.743	0.170	-0.068
-575.733	-115.874	0.169	-0.031
-574.719	-200.000	-0.042	0.250
-573.704	171.656	-0.153	-0.218
-572.690	800.000	-0.025	-0.099
-571.675	-132.818	-0.100	-0.013
-570.661	-104.033	0.415	0.096
-569.646	439.755	0.170	0.369
-568.631	-105.301	0.406	-0.092
-567.617	-200.000	0.027	-0.251
-566.602	-41.875	0.059	-0.030
-565.588	42.333	0.203	-0.184
-564.573	-200.000	-0.008	-0.067
-563.558	3.154	-0.183	0.132
-562.544	-200.000	-0.002	-0.099
-561.529	-110.136	0.326	0.068
-560.515	-87.001	0.143	-0.043
-559.500	800.000	0.029	-0.085
-558.485	154.139	-0.098	0.133
-557.471	-3.231	0.121	0.084
-556.456	-106.086	-0.196	0.044
-555.442	-113.102	-0.385	0.076
-554.427	-200.000	0.034	-0.230
-553.412	-61.579	-0.649	-0.271
-552.398	323.853	-0.112	-0.212
-551.383	51.267	-0.359	-0.339
-550.369	56.483	-0.096	-0.092
-549.354	-11.333	0.160	0.105
-548.339	278.637	-0.042	0.075
-547.325	-17.990	0.102	-0.063
-546.310	-93.674	-0.291	0.080
-545.296	54.678	-0.225	0.215
-544.281	-200.000	0.009	0.145
-543.266	59.417	0.325	0.318
-542.252	134.673	-0.264	-0.340
-541.237	352.511	0.042	-0.082
-540.223	-25.726	-0.079	0.046
-539.208	-62.170	-0.298	-0.123
-538.193	74.732	-0.060	-0.063
-537.179	461.399	0.114	-0.252
-536.164	-200.000	-0.017	-0.187
-535.150	-4.516	0.314	-0.215
-534.135	800.000	-0.057	0.162
-533.121	-46.674	-0.391	0.190
-532.106	-200.000	0.019	-0.353
-531.091	215.999	0.266	-0.420
-530.077	-17.123	-0.238	-0.149
-529.062	360.258	0.116	0.231
-528.048	-0.712	-0.291	-0.205
-527.033	-107.362	-0.247	0.054
-526.018	15.294	-0.139	0.108
-525.004	25.612	0.144	0.119
-523.989	125.452	-0.122	0.153
-522.975	102.668	-0.127	0.147
-521.960	61.999	-0.179	-0.177
-520.945	-200.000	0.029	-0.233
-519.931	194.863	0.173	-0.260
-518.916	-200.000	0.007	0.056
-517.902	449.160	-0.101	-0.220
-516.887	8.649	0.239	-0.178
-515.872	21.064	0.314	-0.253
-514.858	-200.000	0.025	-0.231
-513.843	412.459	-0.125	-0.264
-512.829	221.404	-0.176	-0.280
-511.814	475.613	-0.122	0.273
-510.799	-52.266	0.168	-0.077
-509.785	133.534	0.054	0.070
-508.770	-26.810	-0.212	-0.123
-507.756	-200.000	0.024	0.363
-506.741	6.585	-0.086	0.063
-505.726	68.780	0.224	0.228
-504.712	-175.756	0.145	-0.004
-503.697	163.911	0.090	0.126
-502.683	-122.783	0.222	0.036
-501.668	-70.982	0.042	0.016
-500.653	-200.000	-0.043	-0.253
-499.639	-4.877	0.291	-0.199
-498.624	-200.000	-0.021	0.118
-497.610	-200.000	0.025	-0.372
-496.595	-200.000	0.282	-0.001
-495.581	-11.377	-0.174	0.114
-494.566	395.831	0.112	-0.232
-493.551	800.000	0.018	-0.062
-492.537	800.000	0.053	-0.171
-491.522	456.755	0.159	0.350
-490.508	230.879	-0.071	0.116
-489.493	-70.943	0.304	-0.114
-488.478	352.951	0.131	-0.257
-487.464	145.762	0.168	0.223
-486.449	800.000	0.037	0.125
-485.435	-130.528	0.179	-0.024
-484.420	-200.000	-0.034	-0.213
-483.405	-84.409	-0.432	-0.135
-482.391	-159.283	0.139	0.008
-481.376	-200.000	-0.030	0.211
-480.362	15.855	0.073	0.057
-479.347	-38.243	0.207	0.109
-478.332	-200.000	0.014	-0.124
-477.318	-97.017	0.178	0.046
-476.303	-200.000	-0.109	-0.599
-475.289	66.115	0.177	0.178
-474.274	154.025	-0.115	0.157
-473.259	-88.376	-0.247	0.073
-472.245	-149.672	-0.236	0.018
-471.230	520.875	-0.077	0.179
-470.216	-200.000	-0.000	0.209
-469.201	-157.360	0.113	0.007
-468.186	117.028	0.060	0.073
-467.172	82.698	-0.026	-0.028
-466.157	-200.000	0.027	-0.178
-465.143	-32.503	-0.330	0.182
-464.128	295.121	0.157	-0.285
-463.113	-111.175	-0.387	-0.078
-462.099	-183.037	-0.388	-0.007
-461.084	10.124	0.266	-0.201
-460.070	-149.177	0.064	-0.005
-459.055	32.911	-0.258	-0.221
-458.040	16.781	0.160	0.125
-457.026	325.283	0.157	-0.297
-456.011	800.000	-0.086	0.297
-454.997	-53.934	0.108	-0.049
-453.982	-196.850	-0.570	0.004
-452.968	800.000	-0.080	0.343
-451.953	293.532	0.076	-0.137
-450.938	15.370	-0.243	-0.189
-449.924	30.418	-0.213	0.180
-448.909	99.916	0.014	-0.015
-447.895	-60.923	-0.203	0.085
-446.880	-200.000	0.000	0.152
-445.865	-83.523	0.231	-0.073
-444.851	-69.791	-0.037	-0.014
-443.836	388.035	0.117	0.240
-442.822	-200.000	0.001	0.279
-441.807	39.095	-0.221	-0.195
-440.792	800.000	0.053	-0.170
-439.778	-117.146	-0.227	0.041
-438.763	-126.375	0.195	-0.029
-437.749	140.682	0.107	-0.140
-436.734	-157.068	-0.233	0.014
-435.719	-116.174	-0.226	-0.041
-434.705	800.000	0.059	0.192
-433.690	-190.927	0.271	0.003
-432.676	149.744	-0.135	-0.181
-431.661	-175.781	0.218	0.006
-430.646	193.555	0.081	0.121
-429.632	800.000	-0.054	-0.174
-428.617	-142.697	0.267	-0.026
-427.603	-182.594	-0.221	0.004
-426.588	-19.402	0.190	-0.117
-425.573	-200.000	0.010	0.177
-424.559	800.000	0.014	-0.038
-423.544	-34.599	-0.220	-0.119
-422.530	-19.381	0.171	0.105
-421.515	-30.984	-0.325	0.181
-420.500	800.000	-0.120	-0.426
-419.486	103.153	0.208	0.241
-418.471	524.216	0.175	0.407
-417.457	800.000	-0.084	0.304
-416.442	7.363	-0.138	0.102
-415.428	-143.956	-0.187	0.017
-414.413	169.988	-0.101	-0.142
-413.398	-178.248	-0.186	-0.004
-412.384	-200.000	-0.063	0.357
-411.369	-200.000	0.056	-0.256
-410.355	-4.679	0.200	-0.136
-409.340	466.992	0.071	0.157
-408.325	229.856	-0.011	-0.018
-407.311	83.601	0.090	0.097
-406.296	-37.376	-0.132	0.070
-405.282	-85.139	0.090	0.028
-404.267	438.507	-0.053	0.114
-403.252	176.136	-0.244	0.350
-402.238	612.695	-0.079	-0.195
-401.223	-73.099	-0.192	0.070
-400.209	-94.560	0.211	-0.057
-399.194	116.945	-0.051	-0.062
-398.179	-92.780	0.147	-0.041
-397.165	-200.000	0.024	0.169
-396.150	-30.361	-0.131	-0.073
-395.136	620.995	-0.033	0.083
-394.121	800.000	-0.081	0.275
-393.106	800.000	0.036	0.116
-392.092	800.000	0.035	-0.127
-391.077	-138.522	-0.271	0.029
-390.063	436.916	-0.026	0.056
-389.048	-116.752	0.219	0.040
-388.033	-91.522	0.239	0.067
-387.019	282.532	0.098	-0.173
-386.004	-139.092	0.156	-0.017
-384.990	-89.030	-0.382	0.112
-383.975	78.471	0.028	-0.030
-382.960	19.288	0.331	0.262
-381.946	-200.000	-0.047	0.208
-380.931	-122.567	-0.076	0.012
-379.917	-22.224	-0.127	0.076
-378.902	-200.000	-0.010	-0.128
-377.888	335.619	-0.159	-0.304
-376.873	-47.670	0.167	-0.080
-375.858	-200.000	0.065	0.325
-374.844	120.626	-0.218	0.267
-373.829	-153.679	-0.158	-0.011
-372.815	330.707	0.135	0.256
-371.800	-160.586	-0.340	-0.018
-370.785	256.704	0.019	-0.033
-369.771	99.612	0.270	-0.308
-368.756	16.741	0.028	-0.022
-367.742	-200.000	-0.046	-0.307
-366.727	-200.000	-0.010	-0.184
-365.712	543.026	-0.019	0.045
-364.698	24.897	-0.124	-0.101
-363.683	44.764	-0.168	-0.153
-362.669	306.437	-0.078	-0.143
-361.654	276.128	0.221	0.386
-360.639	-88.674	-0.469	-0.138
-359.625	173.711	0.105	0.149
-358.610	142.047	-0.233	-0.305
-357.596	-16.343	-0.104	-0.065
-356.581	-101.841	0.049	0.012
-355.566	-107.437	-0.373	0.081
-354.552	325.742	0.039	-0.073
-353.537	-200.000	-0.015	-0.257
-352.523	594.353	0.173	-0.421
-351.508	-44.967	-0.432	-0.212
-350.493	800.000	-0.076	-0.225
-349.479	-200.000	0.035	-0.394
-348.464	411.830	-0.081	-0.169
-347.450	800.000	0.100	-0.393
-346.435	222.239	0.160	0.254
-345.420	225.776	-0.113	0.181
-344.406	-87.122	0.290	0.087
-343.391	-28.147	-0.215	-0.123
-342.377	-134.280	-0.272	-0.033
-341.362	-200.000	-0.031	0.332
-340.348	-139.616	-0.188	0.020
-339.333	-60.067	-0.244	-0.103
-338.318	68.031	0.230	0.232
-337.304	328.497	-0.119	-0.225
-336.289	-42.214	0.377	-0.190
-335.275	-174.777	0.254	0.007
-334.260	-45.898	0.341	-0.166
-333.245	-39.237	0.143	-0.074
-332.231	-59.606	-0.198	0.084
-331.216	85.458	0.255	0.276
-330.202	-43.268	0.292	-0.145
-329.187	-80.210	-0.277	-0.091
-328.172	238.865	-0.170	-0.279
-327.158	-200.000	-0.004	0.042
-326.143	-149.691	-0.239	0.019
-325.129	164.345	0.058	0.080
-324.114	-128.762	-0.204	0.028
-323.099	85.153	0.222	-0.240
-322.085	83.686	0.164	0.176
-321.070	210.196	0.216	0.334
-320.056	800.000	-0.064	-0.200
-319.041	121.855	-0.051	0.063
-318.026	74.021	-0.303	-0.313
-317.012	336.822	0.006	0.011
-315.997	40.655	-0.236	-0.210
-314.983	-6.572	0.199	0.133
-313.968	-40.591	0.110	0.056
-312.953	800.000	-0.081	0.246
-311.939	-60.072	0.124	-0.052
-310.924	-200.000	-0.013	-0.355
-309.910	-14.747	0.405	0.256
-308.895	-95.041	-0.312	-0.083
-307.880	204.267	-0.077	0.118
-306.866	-151.368	0.327	0.024
-305.851	-200.000	-0.066	-0.339
-304.837	800.000	-0.003	-0.009
-303.822	314.649	-0.049	0.091
-302.807	53.252	0.211	0.199
-301.793	137.714	-0.281	0.362
-300.778	-145.278	0.346	-0.031
-299.764	84.244	0.077	0.083
-298.749	800.000	0.093	0.265
-297.735	800.000	-0.090	-0.290
-296.720	-28.418	-0.350	0.199
-295.705	-171.492	0.078	-0.003
-294.691	-162.105	-0.254	0.013
-293.676	632.043	0.135	0.337
-292.662	-139.347	0.303	0.032
-291.647	366.763	0.185	0.366
-290.632	-133.098	-0.101	0.013
-289.618	-109.788	0.118	-0.024
-288.603	800.000	0.052	-0.188
-287.589	800.000	0.069	0.208
-286.574	217.096	-0.124	0.194
-285.559	-46.574	0.200	-0.096
-284.545	-100.804	0.125	-0.030
-283.530	360.446	0.094	-0.185
-282.516	226.528	-0.180	-0.287
-281.501	-150.861	-0.034	-0.003
-280.486	-200.000	0.021	-0.161
-279.472	-28.091	0.235	-0.134
-278.457	-200.000	0.044	-0.384
-277.443	-200.000	-0.046	-0.273
-276.428	-35.394	-0.150	0.080
-275.413	327.837	0.026	-0.048
-274.399	-121.717	0.176	-0.029
-273.384	-113.552	-0.280	-0.054
-272.370	800.000	-0.108	0.332
-271.355	-145.425	0.319	-0.028
-270.340	17.693	0.135	-0.106
-269.326	157.401	-0.094	0.128
-268.311	-20.525	-0.364	0.220
-267.297	-200.000	-0.053	0.369
-266.282	245.650	0.143	0.237
-265.267	-27.091	0.381	0.218
-264.253	800.000	-0.081	-0.314
-263.238	-200.000	0.048	0.275
-262.224	-66.007	0.096	0.038
-261.209	-91.695	-0.530	0.148
-260.195	730.380	0.137	0.361
-259.180	-101.622	0.428	0.102
-258.165	-161.511	0.308	0.016
-257.151	-128.626	0.137	-0.019
-256.136	-56.311	0.184	-0.080
-255.122	-200.000	-0.015	0.156
-254.107	800.000	0.005	-0.017
-253.092	-163.743	0.203	0.009
-252.078	-109.736	0.331	0.068
-251.063	33.667	-0.109	0.093
-250.049	-63.274	-0.366	0.148
-249.034	-132.067	0.291	-0.037
-248.019	-98.324	-0.278	0.070
-247.005	-12.018	-0.285	-0.184
-245.990	-137.022	0.344	-0.039
-244.976	-67.427	-0.159	-0.061
-243.961	71.600	-0.116	0.118
-242.946	-23.368	-0.110	0.065
-241.932	33.049	0.329	-0.280
-240.917	-42.544	-0.278	0.139
-239.903	151.978	0.181	0.243
-238.888	600.105	0.133	0.325
-237.873	-17.364	-0.368	-0.228
-236.859	-200.000	0.031	-0.188
-235.844	-7.927	0.111	-0.074
-234.830	800.000	0.021	0.086
-233.815	-149.272	0.266	-0.021
-232.800	-89.320	-0.408	-0.118
-231.786	-102.428	-0.116	-0.027
-230.771	-200.000	-0.007	0.347
-229.757	56.386	0.146	0.139
-228.742	-32.858	-0.244	0.133
-227.727	-99.528	0.219	0.054
-226.713	34.714	0.044	0.038
-225.698	3.538	0.252	0.180
-224.684	253.492	0.089	-0.149
-223.669	14.748	0.260	-0.200
-222.655	-17.736	0.188	0.116
-221.640	-173.039	0.272	-0.008
-220.625	90.621	0.100	-0.109
-219.611	800.000	-0.063	0.250
-218.596	327.312	0.093	0.175
-217.582	39.371	-0.154	0.136
-216.567	-74.175	0.252	0.089
-215.552	-92.058	0.106	0.030
-214.538	-104.590	0.137	-0.031
-213.523	-3.962	-0.246	-0.167
-212.509	-107.144	-0.190	-0.041
-211.494	-200.000	-0.040	-0.314
-210.479	247.304	0.181	-0.300
-209.465	-57.576	-0.219	-0.094
-208.450	51.742	0.272	0.253
-207.436	-74.463	0.206	-0.073
-206.421	-91.403	-0.207	-0.058
-205.406	-200.000	0.012	0.068
-204.392	-135.183	-0.256	0.030
-203.377	54.759	-0.245	0.232
-202.363	-200.000	-0.006	0.307
-201.348	39.987	0.204	0.180
-200.333	353.410	-0.041	-0.081
-199.319	136.542	-0.196	-0.251
-198.304	-200.000	0.005	-0.064
-197.290	-200.000	0.014	-0.230
-196.275	-200.000	-0.016	-0.135
-195.260	-74.383	-0.245	0.087
-194.246	-200.000	0.103	-0.507
-193.231	-165.450	-0.214	0.009
-192.217	-200.000	0.011	0.049
-191.202	-22.993	-0.191	-0.113
-190.187	-38.349	0.234	0.121
-189.173	-42.402	0.307	0.154
-188.158	-61.500	0.231	-0.095
-187.144	-200.000	-0.030	-0.156
-186.129	610.255	-0.010	0.024
-185.114	-69.420	0.351	0.132
-184.100	97.563	-0.142	0.159
-183.085	116.749	-0.121	-0.146
-182.071	-200.000	-0.036	-0.180
-181.056	131.111	-0.041	-0.051
-180.042	-200.000	-0.013	0.111
-179.027	-26.827	-0.054	0.031
-178.012	-161.827	0.042	-0.002
-176.998	-200.000	0.012	0.065
-175.983	95.239	-0.144	-0.160
-174.969	-85.533	0.200	-0.061
-173.954	147.978	-0.116	0.153
-172.939	509.801	-0.143	0.325
-171.925	156.903	0.289	-0.390
-170.910	-80.367	-0.142	0.046
-169.896	-110.074	0.353	0.072
-168.881	723.042	0.026	-0.069
-167.866	-155.154	0.165	-0.011
-166.852	800.000	-0.054	0.161
-165.837	-73.403	0.297	0.106
-164.823	143.799	0.095	0.124
-163.808	209.234	-0.089	-0.136
-162.793	24.414	0.110	0.089
-161.779	-74.505	-0.187	-0.066
-160.764	-89.539	0.031	0.009
-159.750	-200.000	0.090	0.449
-158.735	-46.120	0.168	0.081
-157.720	158.962	-0.196	0.266
-156.706	-200.000	0.067	-0.429
-155.691	-33.364	-0.231	0.125
-154.677	-122.072	-0.305	-0.049
-153.662	82.671	0.283	0.301
-152.647	28.480	0.198	0.164
-151.633	6.593	0.059	0.043
-150.618	-116.673	0.171	-0.031
-149.604	-194.034	-0.056	-0.000
-148.589	-16.837	-0.271	0.168
-147.574	148.527	-0.024	0.032
-146.560	-34.147	0.353	0.190
-145.545	-25.345	0.065	-0.038
-144.531	800.000	0.020	-0.060
-143.516	-25.225	0.213	0.123
-142.502	80.623	-0.228	0.240
-141.487	40.198	0.074	-0.065
-140.472	557.478	-0.042	-0.100
-139.458	490.932	-0.110	-0.245
-138.443	-53.301	0.379	0.170
-137.429	791.971	-0.135	0.364
-136.414	38.832	0.182	0.159
-135.399	-145.677	-0.168	-0.015
-134.385	-59.550	0.161	-0.068
-133.370	-200.000	0.027	-0.359
-132.356	-12.220	0.294	-0.188
-131.341	401.510	0.080	-0.164
-130.326	-200.000	0.026	-0.276
-129.312	-67.356	0.365	0.140
-128.297	351.506	0.045	-0.087
-127.283	570.372	-0.033	-0.079
-126.268	12.042	0.205	-0.154
-125.253	137.174	-0.094	-0.120
-124.239	20.616	-0.108	-0.085
-123.224	178.115	-0.192	-0.273
-122.210	76.076	0.217	0.224
-121.195	-39.834	0.043	0.022
