DTS Sentinel unit serial number:	SN413079Multiplexer serial number:	ORYXHardware model number:	OX4-SRSoftware version number:	ORYX F/W v4.00 Oryx Data Collector v3.7.2.0data status	okinstallation	princeton_trtdifferential loss correction	single-endedforward channel	channel 1reverse channel	N/Adate	2019/09/11time	01:52:11forward acquisition time	60.00reverse acquisition time	0.00gamma	496.2192k internal	0.2331k external	0.2331temperature offset calibration	0.9927default loss term (dB/km)	0.3790temperature slope calibration	1.0000multiplexer offset coefficient	1.0000multiplexer slope coefficient	1.0000fibre end	0.00T internal ref (°C)	29.19T ext. ref 1 (°C)	-0.31T ext. ref 2 (°C)	23.18length (m)	temperature (°C)	Stokes	anti-Stokes-747.200	-179.948	-0.206	0.004
-746.185	-21.193	0.384	0.236
-745.171	578.390	0.090	-0.220
-744.156	204.517	0.038	-0.059
-743.142	469.545	-0.066	0.148
-742.127	800.000	-0.032	-0.110
-741.112	-200.000	0.005	-0.197
-740.098	-200.000	0.017	0.200
-739.083	-135.622	0.081	-0.010
-738.069	-41.702	-0.296	0.153
-737.054	800.000	-0.054	0.202
-736.039	-12.586	-0.149	-0.098
-735.025	19.085	0.234	0.189
-734.010	-102.893	-0.136	0.032
-732.996	35.139	-0.163	-0.143
-731.981	57.063	-0.224	-0.219
-730.966	-127.687	-0.274	-0.040
-729.952	53.856	0.252	-0.243
-728.937	150.659	-0.217	-0.296
-727.923	96.571	0.085	-0.098
-726.908	-90.129	0.231	-0.068
-725.894	-200.000	0.090	-0.439
-724.879	800.000	0.059	-0.204
-723.864	-200.000	-0.031	-0.397
-722.850	388.282	0.012	0.025
-721.835	-87.581	0.151	0.046
-720.821	207.107	-0.231	-0.362
-719.806	144.847	-0.173	-0.233
-718.791	-200.000	-0.072	-0.344
-717.777	171.724	-0.384	-0.555
-716.762	29.093	-0.087	-0.074
-715.748	-109.766	-0.180	0.038
-714.733	179.476	0.222	-0.326
-713.718	-119.637	-0.284	-0.049
-712.704	-200.000	0.060	0.441
-711.689	77.401	0.027	-0.029
-710.675	378.870	0.161	-0.331
-709.660	-2.941	-0.193	-0.135
-708.645	-115.609	-0.214	-0.040
-707.631	287.390	0.087	0.158
-706.616	240.045	-0.086	-0.144
-705.602	-58.787	0.376	-0.164
-704.587	182.417	0.076	0.113
-703.572	-200.000	0.033	0.172
-702.558	349.988	0.085	0.169
-701.543	-66.964	-0.229	-0.091
-700.529	-114.266	0.169	-0.033
-699.514	-163.312	0.167	-0.008
-698.499	58.167	-0.124	-0.122
-697.485	157.425	-0.075	0.104
-696.470	297.758	-0.022	-0.040
-695.456	800.000	0.034	0.103
-694.441	-132.470	-0.255	-0.033
-693.426	800.000	-0.017	-0.065
-692.412	133.969	0.121	-0.157
-691.397	114.973	-0.248	-0.304
-690.383	-58.208	-0.073	-0.032
-689.368	106.096	0.154	-0.184
-688.354	-118.829	0.196	-0.035
-687.339	-200.000	0.001	-0.041
-686.324	-159.530	-0.108	0.006
-685.310	800.000	0.008	-0.024
-684.295	50.896	0.415	-0.395
-683.281	138.733	0.063	0.084
-682.266	211.977	-0.216	-0.342
-681.251	301.813	-0.087	0.162
-680.237	-124.632	0.300	-0.047
-679.222	130.489	0.084	0.108
-678.208	104.282	0.315	-0.372
-677.193	99.264	-0.159	-0.185
-676.178	-52.116	-0.178	-0.083
-675.164	61.985	0.098	0.098
-674.149	-200.000	0.062	0.373
-673.135	-200.000	0.005	0.401
-672.120	-200.000	0.008	0.090
-671.105	139.495	-0.127	-0.167
-670.091	-200.000	0.008	-0.335
-669.076	126.513	0.133	0.169
-668.062	-50.098	-0.254	-0.121
-667.047	125.424	0.127	-0.161
-666.032	-81.636	-0.250	-0.082
-665.018	99.952	0.127	0.148
-664.003	110.413	0.121	-0.146
-662.989	-200.000	0.013	-0.262
-661.974	758.268	-0.066	-0.180
-660.959	732.693	-0.089	0.239
-659.945	213.594	-0.059	0.093
-658.930	-2.727	-0.210	0.147
-657.916	800.000	0.055	0.189
-656.901	-200.000	-0.010	-0.278
-655.886	67.181	0.302	-0.308
-654.872	-172.631	0.168	0.005
-653.857	-200.000	-0.024	-0.232
-652.843	-200.000	0.002	-0.224
-651.828	-200.000	0.039	-0.244
-650.814	88.184	-0.132	0.147
-649.799	101.522	-0.102	-0.119
-648.784	-81.829	0.101	0.033
-647.770	-71.724	-0.096	-0.036
-646.755	9.461	-0.003	-0.002
-645.741	55.343	-0.172	-0.167
-644.726	-12.835	-0.158	-0.103
-643.711	-61.632	0.072	0.030
-642.697	-2.091	0.067	-0.047
-641.682	442.768	-0.061	0.133
-640.668	-200.000	0.019	-0.117
-639.653	-139.494	-0.133	-0.014
-638.638	15.637	0.087	-0.068
-637.624	800.000	-0.029	-0.118
-636.609	-120.349	-0.249	0.043
-635.595	616.759	0.050	0.126
-634.580	129.862	-0.206	0.264
-633.565	-18.559	0.268	-0.167
-632.551	-200.000	-0.218	0.000
-631.536	800.000	0.090	-0.325
-630.522	84.823	-0.092	0.101
-629.507	800.000	-0.037	0.147
-628.492	-200.000	-0.039	0.179
-627.478	369.516	-0.113	0.228
-626.463	500.771	0.081	0.187
-625.449	339.274	-0.086	0.167
-624.434	299.208	-0.182	0.335
-623.419	188.019	0.085	0.127
-622.405	61.853	-0.265	-0.265
-621.390	95.530	0.058	-0.066
-620.376	800.000	0.045	-0.147
-619.361	-101.848	0.254	0.062
-618.346	191.218	0.155	-0.233
-617.332	226.122	0.066	-0.106
-616.317	-22.717	-0.133	0.081
-615.303	-51.064	-0.117	-0.055
-614.288	-122.017	0.332	0.055
-613.273	-10.678	0.110	-0.073
-612.259	-109.077	0.071	-0.015
-611.244	439.199	0.080	0.176
-610.230	-77.077	0.128	0.045
-609.215	121.267	0.155	0.194
-608.201	131.929	0.010	0.013
-607.186	800.000	0.131	0.511
-606.171	-47.318	-0.185	0.090
-605.157	-65.159	-0.070	-0.028
-604.142	-74.010	0.293	-0.106
-603.128	-0.098	-0.081	-0.058
-602.113	-200.000	-0.037	-0.210
-601.098	-200.000	0.026	0.278
-600.084	22.224	-0.172	-0.141
-599.069	-73.527	0.083	-0.030
-598.055	-200.000	-0.067	0.382
-597.040	-140.659	-0.251	-0.026
-596.025	307.865	-0.115	0.215
-595.011	-56.046	-0.146	-0.065
-593.996	-79.632	-0.124	-0.042
-592.982	234.881	0.214	-0.354
-591.967	-51.724	-0.199	0.093
-590.952	69.888	0.294	-0.303
-589.938	-200.000	-0.024	-0.123
-588.923	132.954	0.201	-0.260
-587.909	159.915	-0.151	-0.210
-586.894	-112.320	0.122	-0.024
-585.879	-108.306	-0.230	0.050
-584.865	-200.000	0.038	-0.233
-583.850	269.751	0.077	-0.136
-582.836	-88.371	-0.251	-0.075
-581.821	800.000	-0.106	-0.360
-580.806	-23.074	-0.337	0.203
-579.792	-31.747	0.126	0.070
-578.777	-155.308	0.286	-0.019
-577.763	287.049	0.105	0.189
-576.748	-118.909	0.465	0.082
-575.733	-200.000	0.021	-0.186
-574.719	-36.046	0.229	0.124
-573.704	-44.349	-0.018	0.009
-572.690	-200.000	-0.029	-0.139
-571.675	-200.000	-0.035	-0.209
-570.661	45.586	0.106	0.098
-569.646	98.970	-0.260	0.300
-568.631	-200.000	-0.003	-0.274
-567.617	800.000	0.068	0.212
-566.602	129.789	0.178	-0.227
-565.588	-83.641	0.193	-0.062
-564.573	112.011	0.319	0.385
-563.558	184.604	-0.230	0.341
-562.544	-200.000	0.004	0.364
-561.529	-200.000	0.007	0.057
-560.515	164.296	0.084	0.118
-559.500	243.755	-0.066	-0.111
-558.485	86.333	0.070	-0.077
-557.471	93.270	0.072	0.082
-556.456	86.142	0.279	0.307
-555.442	229.281	-0.087	0.143
-554.427	-66.750	0.284	0.112
-553.412	612.177	-0.081	-0.203
-552.398	800.000	-0.064	0.193
-551.383	-70.144	-0.039	0.015
-550.369	-200.000	0.001	0.014
-549.354	23.125	-0.059	-0.049
-548.339	-22.526	-0.150	0.091
-547.325	-200.000	0.069	0.321
-546.310	-113.177	0.142	-0.028
-545.296	499.941	-0.127	-0.293
-544.281	357.142	0.154	0.306
-543.266	-101.284	0.357	-0.087
-542.252	-101.435	-0.095	-0.023
-541.237	800.000	-0.039	-0.163
-540.223	-46.362	0.143	-0.070
-539.208	-110.952	0.253	-0.052
-538.193	275.808	-0.211	0.374
-537.179	49.111	0.236	0.221
-536.164	-51.198	0.114	0.054
-535.150	125.044	-0.268	-0.337
-534.135	800.000	0.038	0.121
-533.121	800.000	0.084	-0.239
-532.106	-107.662	0.073	-0.016
-531.091	-69.295	0.175	0.067
-530.077	46.849	0.121	-0.113
-529.062	-200.000	0.029	-0.238
-528.048	-118.673	-0.086	0.015
-527.033	196.708	-0.070	0.106
-526.018	-200.000	0.001	-0.189
-525.004	348.753	0.124	0.243
-523.989	-120.932	-0.426	-0.072
-522.975	-12.258	0.076	0.050
-521.960	-200.000	0.020	-0.171
-520.945	800.000	-0.062	-0.234
-519.931	-200.000	-0.294	0.001
-518.916	101.124	0.078	-0.091
-517.902	189.499	-0.148	-0.221
-516.887	90.656	-0.185	-0.206
-515.872	-200.000	-0.071	-0.410
-514.858	-126.733	0.120	-0.018
-513.843	-84.367	0.053	0.017
-512.829	-69.397	0.215	-0.082
-511.814	-200.000	-0.055	0.316
-510.799	-116.935	0.112	-0.020
-509.785	800.000	0.112	-0.432
-508.770	653.915	0.066	-0.169
-507.756	32.216	0.155	-0.134
-506.741	135.317	0.018	-0.024
-505.726	477.271	0.099	-0.223
-504.712	-169.865	-0.382	-0.014
-503.697	64.774	-0.200	-0.201
-502.683	103.563	0.080	0.093
-501.668	-110.781	0.268	0.055
-500.653	172.398	0.281	-0.403
-499.639	572.409	-0.056	-0.137
-498.624	800.000	-0.025	-0.072
-497.610	39.761	-0.167	-0.149
-496.595	-200.000	-0.012	0.121
-495.581	-20.313	-0.031	-0.019
-494.566	-78.271	0.116	0.040
-493.551	220.269	-0.189	0.302
-492.537	210.836	-0.117	0.184
-491.522	-92.727	0.035	-0.010
-490.508	800.000	0.025	0.085
-489.493	410.414	0.046	-0.097
-488.478	-120.277	0.364	0.062
-487.464	-200.000	-0.092	-0.557
-486.449	22.516	-0.091	-0.074
-485.435	-100.638	-0.311	-0.077
-484.420	-93.933	0.469	-0.129
-483.405	800.000	-0.036	0.102
-482.391	-83.828	-0.310	0.098
-481.376	161.256	-0.175	-0.244
-480.362	-11.878	-0.334	-0.218
-479.347	-60.999	-0.292	-0.123
-478.332	-200.000	-0.014	-0.129
-477.318	-51.016	-0.197	0.092
-476.303	800.000	0.076	-0.243
-475.289	-27.799	-0.170	0.098
-474.274	-9.412	-0.208	-0.138
-473.259	44.973	-0.056	0.052
-472.245	-23.351	-0.323	-0.193
-471.230	800.000	-0.049	-0.145
-470.216	-130.879	0.060	-0.008
-469.201	-153.311	0.272	-0.019
-468.186	-125.800	-0.314	-0.047
-467.172	-70.508	-0.166	-0.063
-466.157	474.931	-0.173	0.389
-465.143	-1.254	-0.090	-0.063
-464.128	-200.000	-0.010	0.127
-463.113	-113.028	0.139	-0.027
-462.099	-98.507	0.086	-0.022
-461.084	-25.178	0.245	-0.145
-460.070	-100.646	0.071	0.017
-459.055	-80.304	-0.358	0.119
-458.040	-171.437	-0.122	-0.004
-457.026	-200.000	-0.019	-0.171
-456.011	-26.205	-0.226	-0.132
-454.997	173.368	-0.106	0.152
-453.982	247.648	-0.152	-0.255
-452.968	27.309	-0.209	-0.175
-451.953	-71.301	-0.126	-0.047
-450.938	-75.717	0.118	-0.042
-449.924	800.000	-0.099	0.414
-448.909	800.000	0.044	0.156
-447.895	-5.597	-0.358	0.244
-446.880	373.013	0.098	0.198
-445.865	-200.000	0.052	0.287
-444.851	800.000	-0.123	0.349
-443.836	8.164	0.030	0.022
-442.822	54.003	-0.201	0.192
-441.807	-107.402	0.242	0.053
-440.792	167.258	0.244	-0.345
-439.778	-149.325	0.078	0.006
-438.763	22.442	0.158	-0.129
-437.749	-200.000	-0.025	0.126
-436.734	-76.618	-0.224	0.078
-435.719	-92.360	0.462	-0.129
-434.705	-200.000	-0.006	-0.194
-433.690	-200.000	-0.057	0.299
-432.676	-146.768	0.195	0.017
-431.661	15.697	-0.322	0.252
-430.646	147.540	-0.125	0.167
-429.632	109.267	-0.158	-0.188
-428.617	160.303	-0.110	-0.152
-427.603	368.939	-0.075	-0.151
-426.588	21.656	0.067	0.055
-425.573	28.264	0.089	0.075
-424.559	-200.000	0.040	0.189
-423.544	32.982	0.091	-0.078
-422.530	-122.144	-0.395	-0.064
-421.515	800.000	-0.031	-0.115
-420.500	169.182	0.052	-0.074
-419.486	326.536	0.153	-0.291
-418.471	0.980	-0.129	0.092
-417.457	359.198	0.100	0.198
-416.442	-110.481	-0.376	-0.077
-415.428	-92.721	-0.161	0.045
-414.413	800.000	0.025	0.089
-413.398	159.825	-0.207	-0.286
-412.384	315.276	-0.037	-0.069
-411.369	-7.484	0.180	0.121
-410.355	-125.996	0.182	-0.027
-409.340	16.960	-0.102	0.080
-408.325	-200.000	0.000	-0.043
-407.311	176.417	0.186	-0.269
-406.296	-32.967	-0.032	0.018
-405.282	-200.000	0.011	0.352
-404.267	154.496	0.062	0.085
-403.252	-20.995	0.019	0.012
-402.238	800.000	0.077	0.256
-401.223	-200.000	-0.040	-0.181
-400.209	-200.000	-0.023	-0.272
-399.194	-14.100	-0.357	-0.228
-398.179	324.823	0.082	-0.156
-397.165	-108.187	0.185	-0.040
-396.150	-157.366	0.139	-0.008
-395.136	-177.185	0.287	0.007
-394.121	1.568	0.493	0.352
-393.106	-134.042	-0.200	-0.025
-392.092	800.000	-0.082	-0.226
-391.077	-107.952	0.267	0.058
-390.063	-200.000	-0.007	0.216
-389.048	800.000	0.033	-0.095
-388.033	41.511	-0.139	-0.125
-387.019	615.350	0.113	0.281
-386.004	-98.987	0.243	-0.061
-384.990	-169.821	-0.142	-0.005
-383.975	-44.266	0.142	0.070
-382.960	-47.838	0.267	-0.129
-381.946	-110.242	0.534	0.110
-380.931	-15.803	-0.229	0.145
-379.917	-192.168	-0.482	0.005
-378.902	791.577	-0.014	-0.039
-377.888	394.146	0.069	-0.143
-376.873	-61.403	0.083	-0.034
-375.858	-107.886	-0.234	-0.050
-374.844	15.637	-0.154	0.120
-373.829	35.141	-0.160	0.139
-372.815	17.338	0.200	-0.157
-371.800	2.258	0.196	-0.140
-370.785	261.207	-0.075	-0.128
-369.771	-200.000	-0.012	0.078
-368.756	117.568	-0.176	-0.215
-367.742	-80.704	-0.162	0.054
-366.727	800.000	0.033	0.144
-365.712	-115.423	-0.304	-0.057
-364.698	18.794	0.146	0.116
-363.683	17.319	0.165	-0.130
-362.669	634.659	-0.073	-0.184
-361.654	-117.960	-0.296	0.052
-360.639	-57.310	0.338	-0.147
-359.625	112.796	0.048	0.058
-358.610	-124.739	0.198	-0.030
-357.596	-14.129	-0.225	-0.144
-356.581	-29.935	0.270	-0.152
-355.566	-125.788	-0.189	0.028
-354.552	240.103	-0.147	-0.242
-353.537	-76.447	0.311	-0.108
-352.523	124.688	0.269	-0.336
-351.508	-107.540	0.116	0.025
-350.493	112.501	0.019	0.023
-349.479	-200.000	0.016	-0.077
-348.464	559.498	-0.148	0.355
-347.450	49.709	0.298	-0.278
-346.435	150.279	-0.094	0.127
-345.420	234.813	0.100	0.164
-344.406	-200.000	-0.018	0.411
-343.391	-142.066	0.426	0.042
-342.377	-106.856	0.293	0.064
-341.362	-78.659	-0.234	0.079
-340.348	-124.178	-0.084	-0.013
-339.333	-200.000	-0.000	0.130
-338.318	800.000	0.051	-0.217
-337.304	-25.384	0.161	0.094
-336.289	-145.733	-0.303	-0.027
-335.275	420.397	-0.121	-0.258
-334.260	140.660	-0.100	0.131
-333.245	800.000	0.074	0.254
-332.231	149.139	0.170	0.228
-331.216	15.994	-0.227	-0.177
-330.202	-200.000	-0.013	0.200
-329.187	-145.238	-0.045	-0.004
-328.172	-200.000	-0.014	0.260
-327.158	-154.870	0.044	-0.003
-326.143	11.369	0.167	-0.127
-325.129	-167.013	0.437	-0.018
-324.114	145.316	-0.102	0.136
-323.099	-200.000	0.115	-0.000
-322.085	218.347	-0.095	-0.149
-321.070	-200.000	-0.022	0.291
-320.056	715.444	0.076	-0.200
-319.041	800.000	0.078	0.232
-318.026	-109.523	0.041	-0.009
-317.012	4.907	-0.384	-0.279
-315.997	782.748	0.107	-0.291
-314.983	620.159	-0.147	-0.366
-313.968	35.912	0.244	0.212
-312.953	99.988	-0.309	-0.355
-311.939	-160.518	0.281	-0.015
-310.924	-200.000	0.054	-0.294
-309.910	376.370	0.070	-0.141
-308.895	-164.626	-0.355	-0.016
-307.880	180.916	-0.145	0.211
-306.866	100.355	-0.131	-0.151
-305.851	-15.182	-0.231	0.146
-304.837	33.777	0.195	0.168
-303.822	800.000	0.085	-0.311
-302.807	-200.000	-0.041	-0.234
-301.793	15.319	0.042	0.033
-300.778	-200.000	0.024	0.210
-299.764	-58.566	-0.239	-0.103
-298.749	-62.652	-0.214	0.088
-297.735	589.375	0.060	-0.146
-296.720	372.500	0.125	0.251
-295.705	-182.324	0.144	0.003
-294.691	-103.348	-0.379	-0.088
-293.676	-196.916	-0.166	-0.001
-292.662	-200.000	-0.067	0.440
-291.647	-200.000	-0.021	-0.114
-290.632	12.788	0.219	0.167
-289.618	419.451	-0.111	-0.234
-288.603	173.045	-0.074	0.105
-287.589	293.751	0.066	-0.119
-286.574	-17.019	0.181	0.113
-285.559	168.849	0.112	0.158
-284.545	785.482	-0.043	0.117
-283.530	674.436	0.056	-0.145
-282.516	-67.626	0.249	0.096
-281.501	-34.274	0.317	0.172
-280.486	-200.000	0.002	-0.296
-279.472	229.854	-0.038	0.062
-278.457	204.032	-0.047	-0.072
-277.443	8.883	0.122	0.091
-276.428	-121.776	-0.216	-0.035
-275.413	681.769	0.040	-0.104
-274.399	-124.155	0.058	-0.009
-273.384	42.210	-0.186	0.167
-272.370	198.429	-0.246	-0.372
-271.355	31.466	-0.064	-0.054
-270.340	94.365	-0.291	0.326
-269.326	-67.040	0.075	0.029
-268.311	6.715	-0.312	-0.230
-267.297	800.000	0.070	0.224
-266.282	-127.687	0.105	-0.015
-265.267	-144.474	-0.295	-0.027
-264.253	-32.454	-0.115	0.063
-263.238	-35.275	0.203	0.109
-262.224	-128.485	-0.167	0.023
-261.209	-200.000	-0.105	0.578
-260.195	168.191	0.182	0.255
-259.180	-131.854	-0.414	-0.053
-258.165	-181.213	-0.014	0.000
-257.151	-55.499	0.260	-0.115
-256.136	18.989	0.095	-0.075
-255.122	-200.000	-0.053	0.233
-254.107	-125.556	-0.126	-0.019
-253.092	-123.512	0.201	0.032
-252.078	-200.000	0.004	0.055
-251.063	-174.409	-0.440	-0.012
-250.049	800.000	0.018	-0.068
-249.034	-144.302	0.122	0.011
-248.019	-200.000	0.012	0.236
-247.005	800.000	-0.086	-0.348
-245.990	-117.627	0.318	-0.057
-244.976	81.745	0.134	-0.143
-243.961	-200.000	-0.015	0.259
-242.946	4.430	-0.056	0.041
-241.932	800.000	-0.065	0.263
-240.917	649.678	-0.034	-0.085
-239.903	17.381	-0.235	0.184
-238.888	119.632	0.229	0.280
-237.873	-65.546	0.194	0.077
-236.859	325.571	-0.124	-0.234
-235.844	-105.872	0.233	-0.052
-234.830	53.274	0.071	-0.067
-233.815	-4.525	-0.190	0.130
-232.800	-200.000	-0.058	0.286
-231.786	43.603	0.311	-0.281
-230.771	800.000	0.103	-0.328
-229.757	800.000	0.067	-0.189
-228.742	-24.960	0.240	0.140
-227.727	800.000	-0.009	-0.032
-226.713	86.439	0.117	-0.127
-225.698	-200.000	0.038	0.297
-224.684	138.365	0.027	-0.035
-223.669	18.977	0.094	-0.074
-222.655	-56.141	0.304	-0.133
-221.640	-103.899	-0.417	0.096
-220.625	-200.000	-0.004	-0.095
-219.611	68.612	0.292	0.296
-218.596	-44.494	0.055	-0.027
-217.582	-200.000	0.087	-0.395
-216.567	208.025	0.124	-0.191
-215.552	-0.644	-0.105	-0.073
-214.538	92.692	-0.122	-0.136
-213.523	629.797	-0.154	-0.383
-212.509	-200.000	-0.051	-0.262
-211.494	-81.080	-0.243	-0.079
-210.479	-20.358	-0.276	0.167
-209.465	-135.238	0.030	-0.004
-208.450	179.367	0.076	-0.110
-207.436	-32.542	-0.076	0.042
-206.421	800.000	-0.048	0.148
-205.406	-147.443	0.233	0.019
-204.392	-200.000	-0.014	-0.253
-203.377	-27.183	-0.089	0.051
-202.363	118.925	-0.124	0.151
-201.348	-31.565	0.254	-0.140
-200.333	75.001	-0.160	-0.166
-199.319	-2.684	0.044	0.031
-198.304	800.000	-0.096	-0.292
-197.290	77.265	0.215	-0.225
-196.275	-25.399	0.109	0.063
-195.260	-130.120	-0.167	0.022
-194.246	-139.423	0.266	-0.028
-193.231	800.000	0.052	0.172
-192.217	402.413	0.201	0.415
-191.202	289.803	-0.163	-0.291
-190.187	-97.136	-0.123	-0.032
-189.173	-200.000	0.011	0.215
-188.158	-13.730	0.168	0.107
-187.144	-27.224	-0.153	0.088
-186.129	81.216	0.174	0.185
-185.114	69.975	0.200	0.203
-184.100	-200.000	-0.004	0.083
-183.085	-103.840	0.132	-0.030
-182.071	-48.901	-0.066	-0.031
-181.056	-170.188	-0.297	0.010
-180.042	800.000	-0.032	0.114
-179.027	-200.000	0.036	0.246
-178.012	61.936	-0.005	0.005
-176.998	-200.000	-0.013	-0.377
-175.983	800.000	-0.078	0.317
-174.969	-200.000	0.081	0.355
-173.954	800.000	-0.120	0.447
-172.939	127.824	0.141	0.177
-171.925	704.124	-0.133	0.344
-170.910	125.180	0.078	0.097
-169.896	800.000	0.084	-0.245
-168.881	83.167	0.333	0.357
-167.866	800.000	0.089	0.309
-166.852	96.594	-0.073	0.083
-165.837	-10.795	-0.055	-0.036
-164.823	171.625	0.201	-0.284
-163.808	63.435	-0.018	0.018
-162.793	-126.211	0.200	-0.029
-161.779	-200.000	0.055	0.327
-160.764	-46.550	0.118	0.057
-159.750	-200.000	-0.023	0.244
-158.735	-50.289	-0.139	0.065
-157.720	-200.000	-0.012	-0.179
-156.706	129.545	-0.129	-0.163
-155.691	-24.031	-0.245	0.144
-154.677	-200.000	-0.031	0.163
-153.662	-200.000	-0.026	-0.160
-152.647	-48.793	-0.249	0.117
-151.633	-4.241	0.194	-0.132
-150.618	-116.819	-0.146	-0.026
-149.604	800.000	0.055	-0.180
-148.589	-122.416	-0.058	-0.009
-147.574	800.000	-0.079	0.304
-146.560	-17.766	-0.249	0.153
-145.545	-24.737	0.221	0.129
-144.531	800.000	-0.056	-0.240
-143.516	10.279	0.301	-0.225
-142.502	515.272	-0.071	-0.162
-141.487	-10.409	0.080	-0.052
-140.472	-200.000	0.022	-0.151
-139.458	271.281	-0.123	-0.213
-138.443	213.441	0.054	-0.084
-137.429	108.786	0.224	-0.262
-136.414	-200.000	-0.011	-0.188
-135.399	-200.000	0.005	-0.045
-134.385	27.735	0.261	-0.216
-133.370	210.926	-0.022	-0.034
-132.356	91.625	-0.123	-0.136
-131.341	19.569	-0.161	-0.127
-130.326	-93.705	-0.086	0.023
-129.312	-200.000	-0.020	0.135
-128.297	202.064	-0.206	-0.312
-127.283	9.379	-0.149	-0.110
-126.268	233.048	0.042	0.067
-125.253	-110.356	0.166	0.034
-124.239	54.344	-0.263	-0.249
-123.224	-200.000	0.025	0.142
-122.210	8.147	0.198	0.146
