DTS Sentinel unit serial number:	SN413079Multiplexer serial number:	ORYXHardware model number:	OX4-SRSoftware version number:	ORYX F/W v4.00 Oryx Data Collector v3.7.2.0data status	okinstallation	princeton_trtdifferential loss correction	single-endedforward channel	channel 1reverse channel	N/Adate	2019/09/12time	02:36:11forward acquisition time	60.00reverse acquisition time	0.00gamma	496.2192k internal	0.2322k external	0.2322temperature offset calibration	1.0081default loss term (dB/km)	0.3790temperature slope calibration	1.0000multiplexer offset coefficient	1.0000multiplexer slope coefficient	1.0000fibre end	0.00T internal ref (°C)	32.44T ext. ref 1 (°C)	2.09T ext. ref 2 (°C)	27.22length (m)	temperature (°C)	Stokes	anti-Stokes-747.200	210.952	-0.101	-0.160
-746.185	-147.679	-0.105	-0.009
-745.171	436.598	-0.151	0.332
-744.156	108.301	-0.202	-0.243
-743.142	18.913	0.322	-0.261
-742.127	800.000	-0.050	0.203
-741.112	99.567	0.163	-0.191
-740.098	-200.000	-0.016	0.269
-739.083	-33.717	-0.036	0.020
-738.069	331.597	-0.158	0.307
-737.054	-131.289	-0.046	-0.006
-736.039	92.271	-0.322	0.366
-735.025	-200.000	-0.022	0.343
-734.010	89.751	-0.079	-0.089
-732.996	800.000	-0.115	-0.330
-731.981	-49.879	0.176	-0.084
-730.966	-108.107	-0.111	-0.024
-729.952	-136.025	0.158	-0.019
-728.937	52.089	0.021	0.020
-727.923	-113.869	-0.058	-0.011
-726.908	-36.071	0.116	0.063
-725.894	-87.314	-0.133	0.041
-724.879	336.981	0.039	0.077
-723.864	-33.490	-0.454	0.253
-722.850	-200.000	-0.049	0.367
-721.835	-171.236	0.067	-0.002
-720.821	-62.352	-0.152	0.064
-719.806	-23.126	-0.261	0.159
-718.791	-200.000	-0.010	0.088
-717.777	154.916	0.204	0.283
-716.762	-82.851	0.180	-0.059
-715.748	800.000	0.128	-0.416
-714.733	-200.000	-0.027	-0.251
-713.718	145.183	-0.015	0.021
-712.704	-108.858	-0.200	-0.043
-711.689	685.742	0.072	0.190
-710.675	173.702	-0.281	-0.409
-709.660	-118.798	0.133	0.024
-708.645	-80.120	-0.354	0.120
-707.631	-97.301	0.059	-0.016
-706.616	110.406	0.206	-0.250
-705.602	-200.000	-0.024	-0.137
-704.587	7.299	0.139	-0.104
-703.572	-200.000	-0.018	0.411
-702.558	800.000	0.015	0.048
-701.543	63.499	0.072	-0.073
-700.529	-31.531	-0.072	0.041
-699.514	139.524	-0.166	-0.221
-698.499	-111.794	0.212	-0.043
-697.485	559.401	0.159	0.388
-696.470	-109.334	0.295	-0.063
-695.456	9.778	-0.150	0.115
-694.441	-200.000	-0.011	-0.193
-693.426	286.320	0.142	-0.259
-692.412	-200.000	0.004	-0.080
-691.397	-127.082	0.185	-0.027
-690.383	-39.259	0.307	0.163
-689.368	21.006	0.107	-0.088
-688.354	233.570	-0.084	-0.139
-687.339	227.985	-0.065	-0.107
-686.324	-200.000	-0.347	-0.001
-685.310	-200.000	0.001	-0.081
-684.295	783.347	0.098	-0.272
-683.281	8.986	0.198	0.150
-682.266	253.147	0.020	0.034
-681.251	-95.328	-0.125	-0.034
-680.237	240.348	0.038	0.063
-679.222	-6.810	-0.329	-0.225
-678.208	124.488	0.114	0.144
-677.193	309.519	0.140	0.263
-676.178	800.000	-0.138	-0.403
-675.164	29.833	0.081	0.070
-674.149	203.013	-0.049	0.076
-673.135	154.406	0.022	-0.031
-672.120	205.260	-0.047	0.073
-671.105	-93.099	0.163	0.046
-670.091	192.399	-0.068	0.103
-669.076	-18.751	-0.364	-0.228
-668.062	-40.849	-0.085	-0.045
-667.047	420.834	0.057	0.123
-666.032	-88.876	-0.227	0.068
-665.018	194.558	-0.194	-0.296
-664.003	191.549	0.222	0.336
-662.989	-200.000	-0.036	0.196
-661.974	800.000	0.041	-0.126
-660.959	-75.604	-0.093	0.033
-659.945	-45.120	-0.154	-0.077
-658.930	-118.266	-0.204	0.037
-657.916	-101.218	0.219	0.054
-656.901	308.669	-0.136	0.256
-655.886	800.000	-0.032	-0.103
-654.872	-84.581	0.286	0.091
-653.857	-81.581	-0.161	-0.053
-652.843	-200.000	-0.002	0.122
-651.828	491.221	0.075	-0.172
-650.814	0.624	0.157	0.113
-649.799	-40.733	0.329	-0.172
-648.784	-106.561	-0.421	-0.095
-647.770	92.308	-0.280	0.318
-646.755	-200.000	-0.027	-0.149
-645.741	26.007	0.047	0.040
-644.726	653.296	-0.049	0.127
-643.711	156.537	0.168	0.233
-642.697	-168.085	0.228	-0.009
-641.682	-200.000	0.039	0.405
-640.668	4.236	0.125	-0.092
-639.653	-160.914	0.304	0.016
-638.638	381.570	-0.056	-0.115
-637.624	-200.000	-0.014	0.095
-636.609	800.000	0.079	-0.223
-635.595	430.466	-0.058	-0.127
-634.580	800.000	-0.133	-0.543
-633.565	-46.592	-0.312	-0.154
-632.551	-77.408	0.221	0.077
-631.536	-67.196	0.199	-0.079
-630.522	-101.478	-0.350	-0.086
-629.507	-200.000	0.014	0.202
-628.492	-200.000	-0.003	-0.335
-627.478	31.730	0.042	0.037
-626.463	-200.000	0.024	0.223
-625.449	69.059	0.174	-0.180
-624.434	39.621	-0.144	-0.130
-623.419	-59.719	0.104	0.045
-622.405	69.394	-0.074	-0.077
-621.390	223.470	-0.186	-0.301
-620.376	-200.000	0.024	-0.325
-619.361	-200.000	-0.007	0.436
-618.346	800.000	-0.044	-0.154
-617.332	-114.530	0.130	0.025
-616.317	352.659	0.137	0.273
-615.303	-127.063	0.191	-0.028
-614.288	-18.136	0.085	0.054
-613.273	-57.681	-0.414	0.182
-612.259	-59.638	-0.090	0.039
-611.244	800.000	-0.122	0.379
-610.230	294.798	0.094	-0.173
-609.215	-75.568	0.117	0.042
-608.201	-89.502	-0.071	0.021
-607.186	265.906	0.112	-0.197
-606.171	78.349	0.187	0.201
-605.157	-7.392	0.135	0.092
-604.142	-8.554	-0.110	0.075
-603.128	-57.000	-0.064	0.028
-602.113	-53.191	0.203	0.094
-601.098	-105.564	-0.260	0.059
-600.084	-106.809	-0.194	-0.043
-599.069	347.742	-0.043	-0.085
-598.055	800.000	-0.113	0.352
-597.040	304.017	0.123	0.229
-596.025	-200.000	-0.251	0.001
-595.011	-47.525	0.091	0.045
-593.996	17.318	-0.212	0.169
-592.982	246.075	-0.245	-0.415
-591.967	-200.000	0.010	0.060
-590.952	3.251	0.094	0.069
-589.938	263.929	0.016	0.029
-588.923	-14.469	-0.098	0.064
-587.909	-200.000	0.019	-0.128
-586.894	-73.619	0.052	-0.019
-585.879	800.000	-0.053	0.153
-584.865	389.634	-0.077	0.161
-583.850	-49.555	-0.103	0.049
-582.836	185.194	-0.108	0.161
-581.821	245.888	0.061	0.104
-580.806	-200.000	0.007	-0.213
-579.792	80.592	-0.179	-0.193
-578.777	-102.041	-0.418	-0.101
-577.763	96.420	-0.077	-0.089
-576.748	-88.519	-0.071	-0.021
-575.733	-161.396	-0.041	-0.002
-574.719	-15.759	-0.160	-0.102
-573.704	-3.049	-0.418	0.292
-572.690	-1.887	-0.168	0.118
-571.675	183.282	-0.219	0.325
-570.661	-121.915	-0.283	-0.047
-569.646	71.967	-0.134	0.140
-568.631	-162.709	-0.186	0.009
-567.617	-156.824	0.128	-0.008
-566.602	256.522	-0.175	-0.302
-565.588	225.823	-0.171	0.279
-564.573	524.928	-0.026	-0.060
-563.558	-95.435	0.240	-0.065
-562.544	612.671	-0.104	-0.262
-561.529	50.485	0.199	0.189
-560.515	-68.320	-0.218	-0.085
-559.500	21.099	0.212	0.172
-558.485	-79.201	0.158	-0.054
-557.471	800.000	0.062	0.206
-556.456	-22.526	0.049	-0.030
-555.442	386.519	-0.096	0.199
-554.427	13.942	0.199	0.155
-553.412	-200.000	-0.011	-0.391
-552.398	170.173	0.089	-0.127
-551.383	140.283	0.074	0.098
-550.369	-157.345	-0.163	-0.010
-549.354	134.781	-0.156	-0.203
-548.339	208.812	0.073	0.115
-547.325	108.518	0.329	-0.393
-546.310	608.100	0.112	0.280
-545.296	-41.941	0.336	0.173
-544.281	-18.150	0.050	-0.031
-543.266	-155.445	-0.218	-0.014
-542.252	-170.208	-0.136	0.005
-541.237	800.000	-0.133	0.490
-540.223	-37.404	0.078	-0.042
-539.208	47.497	0.372	-0.347
-538.193	-43.058	-0.186	-0.095
-537.179	-200.000	0.007	-0.096
-536.164	-37.675	-0.337	0.180
-535.150	775.448	0.107	0.292
-534.135	-137.507	0.248	0.028
-533.121	211.893	0.154	0.243
-532.106	-74.385	-0.279	-0.101
-531.091	32.046	-0.439	-0.380
-530.077	-116.949	-0.161	-0.029
-529.062	-200.000	0.014	-0.241
-528.048	-87.259	0.128	0.039
-527.033	-81.016	0.102	0.034
-526.018	91.943	-0.158	-0.179
-525.004	25.537	-0.177	0.148
-523.989	102.920	-0.232	0.272
-522.975	800.000	-0.010	-0.042
-521.960	145.824	0.017	0.023
-520.945	320.638	-0.159	-0.303
-519.931	-200.000	0.016	0.156
-518.916	61.044	0.103	-0.103
-517.902	9.025	-0.290	0.219
-516.887	197.769	0.246	0.377
-515.872	70.296	0.166	0.171
-514.858	-78.521	-0.048	-0.017
-513.843	-45.261	0.193	-0.096
-512.829	640.710	0.125	-0.319
-511.814	791.827	0.164	-0.452
-510.799	800.000	-0.031	0.107
-509.785	-200.000	-0.042	-0.201
-508.770	43.290	0.313	0.286
-507.756	18.340	0.282	-0.225
-506.741	800.000	0.018	0.062
-505.726	-200.000	-0.017	0.097
-504.712	-68.424	0.138	0.054
-503.697	36.231	-0.144	-0.127
-502.683	-1.052	-0.151	0.107
-501.668	-200.000	-0.007	0.212
-500.653	62.910	0.033	0.033
-499.639	-200.000	-0.019	-0.103
-498.624	347.813	0.151	-0.298
-497.610	-200.000	-0.046	-0.416
-496.595	170.623	0.057	0.082
-495.581	-200.000	0.015	-0.092
-494.566	-34.283	0.106	-0.058
-493.551	-115.379	-0.310	-0.059
-492.537	-200.000	-0.052	0.262
-491.522	373.485	-0.107	0.217
-490.508	40.084	-0.138	0.124
-489.493	419.779	-0.146	-0.313
-488.478	191.225	0.071	0.107
-487.464	653.279	-0.074	0.190
-486.449	3.921	0.080	-0.058
-485.435	103.430	-0.188	0.221
-484.420	-200.000	-0.021	0.132
-483.405	455.686	0.084	0.187
-482.391	-154.343	-0.079	0.005
-481.376	-46.362	0.257	0.126
-480.362	-174.905	-0.553	0.016
-479.347	-200.000	-0.011	0.065
-478.332	-46.271	0.533	0.262
-477.318	151.951	-0.247	0.337
-476.303	0.078	0.123	-0.088
-475.289	-200.000	-0.016	-0.196
-474.274	312.772	-0.060	-0.112
-473.259	-200.000	-0.066	0.323
-472.245	682.161	-0.146	-0.381
-471.230	-200.000	-0.007	-0.329
-470.216	-200.000	-0.014	0.102
-469.201	-45.373	0.253	-0.126
-468.186	-200.000	-0.039	-0.269
-467.172	-117.738	0.182	0.033
-466.157	-200.000	-0.020	0.283
-465.143	-65.744	0.425	0.170
-464.128	461.491	0.080	-0.177
-463.113	346.025	0.031	-0.061
-462.099	-188.547	0.075	-0.001
-461.084	-135.244	0.159	0.019
-460.070	800.000	-0.083	-0.271
-459.055	-95.033	0.166	-0.045
-458.040	-200.000	0.000	-0.128
-457.026	-56.346	0.115	-0.051
-456.011	457.717	-0.124	-0.275
-454.997	800.000	-0.053	-0.178
-453.982	800.000	0.060	-0.171
-452.968	173.340	0.081	-0.117
-451.953	2.152	0.179	0.129
-450.938	-164.661	-0.166	-0.007
-449.924	-99.677	-0.213	0.053
-448.909	-163.531	-0.168	0.008
-447.895	243.802	0.157	0.264
-446.880	800.000	0.043	-0.127
-445.865	22.375	0.084	-0.069
-444.851	22.437	0.199	0.163
-443.836	-200.000	-0.018	0.344
-442.822	-130.214	-0.215	-0.029
-441.807	800.000	0.082	0.260
-440.792	51.481	-0.237	-0.225
-439.778	-45.523	0.271	-0.134
-438.763	267.388	0.083	0.146
-437.749	800.000	-0.033	0.122
-436.734	44.852	0.218	-0.201
-435.719	16.274	0.232	0.183
-434.705	64.578	-0.125	0.125
-433.690	-13.053	0.112	-0.073
-432.676	-52.716	0.188	-0.087
-431.661	-19.234	0.208	-0.129
-430.646	-121.962	0.165	0.027
-429.632	-21.286	0.256	0.156
-428.617	-101.201	-0.248	0.061
-427.603	-109.895	-0.054	0.011
-426.588	245.737	-0.006	-0.009
-425.573	-27.859	-0.175	0.101
-424.559	-42.624	-0.176	0.089
-423.544	152.740	0.304	0.415
-422.530	-200.000	0.085	0.421
-421.515	595.333	-0.113	-0.279
-420.500	441.751	-0.041	0.090
-419.486	-91.959	-0.324	0.091
-418.471	-3.175	-0.112	-0.078
-417.457	6.114	0.158	-0.117
-416.442	7.732	0.113	-0.085
-415.428	-85.769	0.114	0.035
-414.413	800.000	-0.106	0.293
-413.398	-140.504	0.254	-0.026
-412.384	-83.050	-0.400	0.128
-411.369	79.867	-0.157	0.169
-410.355	-200.000	0.080	0.551
-409.340	-52.244	0.312	-0.144
-408.325	-200.000	0.005	-0.182
-407.311	-173.053	0.423	0.013
-406.296	106.576	-0.081	0.095
-405.282	278.358	-0.046	-0.082
-404.267	226.472	-0.078	0.126
-403.252	-200.000	-0.049	-0.350
-402.238	-200.000	-0.063	0.315
-401.223	-11.433	-0.327	-0.215
-400.209	-200.000	0.001	-0.019
-399.194	46.996	-0.338	0.314
-398.179	75.866	0.343	0.361
-397.165	800.000	0.007	-0.029
-396.150	-31.395	0.097	0.054
-395.136	194.733	-0.105	-0.159
-394.121	-19.588	0.154	-0.095
-393.106	800.000	0.077	-0.251
-392.092	14.573	-0.157	-0.122
-391.077	256.485	-0.256	-0.439
-390.063	-200.000	0.025	-0.210
-389.048	800.000	0.076	-0.245
-388.033	413.321	-0.086	0.183
-387.019	508.988	-0.081	-0.188
-386.004	48.644	0.156	-0.146
-384.990	-197.391	0.340	-0.002
-383.975	-60.161	0.113	-0.048
-382.960	19.903	-0.151	-0.121
-381.946	-200.000	-0.035	-0.289
-380.931	-184.444	-0.432	-0.007
-379.917	-47.499	-0.072	-0.035
-378.902	-200.000	0.037	0.353
-377.888	-200.000	0.073	0.343
-376.873	-129.968	-0.274	-0.037
-375.858	-88.641	0.247	-0.073
-374.844	208.005	0.057	-0.088
-373.829	-200.000	0.051	0.318
-372.815	-30.292	0.146	0.083
-371.800	-200.000	-0.008	-0.303
-370.785	-95.413	0.168	0.045
-369.771	287.735	-0.153	0.275
-368.756	-51.454	0.062	0.029
-367.742	340.805	-0.151	-0.294
-366.727	71.982	-0.275	-0.285
-365.712	-80.372	-0.272	0.091
-364.698	112.457	-0.207	-0.249
-363.683	306.673	-0.022	0.041
-362.669	42.474	0.135	-0.122
-361.654	82.239	0.156	-0.168
-360.639	316.605	-0.107	0.202
-359.625	-13.305	0.269	0.174
-358.610	-176.791	0.168	0.004
-357.596	47.854	0.117	-0.108
-356.581	-200.000	-0.028	0.230
-355.566	79.307	-0.114	-0.121
-354.552	-49.587	0.135	-0.064
-353.537	-45.663	-0.185	-0.091
-352.523	-200.000	-0.028	-0.433
-351.508	-136.240	0.169	-0.020
-350.493	-200.000	0.030	0.191
-349.479	-120.682	0.024	-0.004
-348.464	-200.000	0.191	-0.001
-347.450	-26.603	-0.140	0.082
-346.435	699.246	-0.067	-0.176
-345.420	-64.008	-0.258	0.105
-344.406	-200.000	0.002	0.567
-343.391	800.000	0.058	-0.203
-342.377	800.000	0.078	-0.295
-341.362	-106.269	-0.057	0.013
-340.348	108.936	0.137	0.163
-339.333	457.425	0.060	0.133
-338.318	110.843	-0.188	-0.225
-337.304	1.955	-0.374	-0.269
-336.289	800.000	-0.028	-0.084
-335.275	477.508	0.185	-0.416
-334.260	59.767	0.176	-0.173
-333.245	-66.336	0.097	-0.038
-332.231	-105.278	-0.241	-0.055
-331.216	1.855	0.129	-0.093
-330.202	77.011	0.157	0.166
-329.187	164.806	0.169	-0.237
-328.172	-200.000	0.053	-0.319
-327.158	198.525	-0.076	0.116
-326.143	-14.207	0.105	0.067
-325.129	-161.174	0.322	0.017
-324.114	397.836	0.092	0.192
-323.099	29.458	-0.131	-0.111
-322.085	518.699	0.100	-0.232
-321.070	-24.829	-0.421	-0.248
-320.056	137.128	-0.145	-0.188
-319.041	7.853	0.158	0.118
-318.026	-121.786	0.092	-0.015
-317.012	-126.209	-0.104	-0.015
-315.997	11.276	0.176	0.134
-314.983	406.842	-0.056	-0.117
-313.968	2.492	0.107	0.077
-312.953	173.889	-0.012	-0.017
-311.939	214.720	0.178	0.280
-310.924	63.334	0.135	-0.135
-309.910	161.861	-0.099	-0.138
-308.895	330.133	-0.142	0.271
-307.880	-27.904	0.140	0.080
-306.866	-92.033	-0.336	0.095
-305.851	317.354	0.056	0.105
-304.837	-139.146	0.070	-0.007
-303.822	394.135	0.095	0.196
-302.807	-32.910	0.095	-0.052
-301.793	18.221	-0.200	-0.159
-300.778	-34.984	0.180	0.098
-299.764	-130.018	-0.219	-0.030
-298.749	800.000	0.104	-0.410
-297.735	-100.093	0.155	-0.038
-296.720	-200.000	-0.020	0.179
-295.705	786.822	-0.100	-0.272
-294.691	-200.000	0.056	-0.318
-293.676	69.716	-0.153	0.157
-292.662	4.314	0.196	0.143
-291.647	551.866	-0.011	-0.026
-290.632	-200.000	0.008	-0.174
-289.618	-200.000	0.015	-0.124
-288.603	-200.000	0.010	0.257
-287.589	403.577	-0.169	0.352
-286.574	-99.979	0.149	-0.037
-285.559	-200.000	0.056	-0.408
-284.545	-7.871	0.078	0.052
-283.530	800.000	0.013	0.057
-282.516	-196.435	-0.449	-0.003
-281.501	295.910	-0.074	-0.135
-280.486	800.000	-0.062	-0.198
-279.472	223.820	0.032	0.052
-278.457	49.050	0.138	-0.129
-277.443	-166.404	0.081	0.003
-276.428	800.000	-0.036	0.150
-275.413	-69.983	0.290	0.110
-274.399	-200.000	-0.034	-0.187
-273.384	-200.000	0.045	-0.216
-272.370	-68.502	-0.268	-0.103
-271.355	552.281	-0.095	0.227
-270.340	239.308	-0.068	-0.113
-269.326	-200.000	0.031	0.226
-268.311	162.437	-0.122	-0.170
-267.297	372.635	0.011	0.021
-266.282	-63.044	0.109	-0.045
-265.267	-96.884	-0.141	0.037
-264.253	-60.951	0.197	-0.082
-263.238	-200.000	0.002	-0.140
-262.224	-112.524	0.054	0.011
-261.209	479.675	0.053	-0.118
-260.195	32.103	-0.275	-0.235
-259.180	97.802	-0.213	0.242
-258.165	-200.000	-0.050	-0.238
-257.151	-200.000	-0.065	-0.518
-256.136	-200.000	0.004	0.017
-255.122	3.303	-0.208	0.150
-254.107	384.152	0.128	0.261
-253.092	-23.714	-0.164	-0.097
-252.078	113.421	0.128	0.154
-251.063	-200.000	0.065	-0.307
-250.049	-183.072	0.207	0.004
-249.034	-71.213	-0.260	-0.097
-248.019	-104.096	0.195	0.045
-247.005	114.184	-0.180	-0.217
-245.990	-129.919	0.267	-0.036
-244.976	349.944	0.031	0.062
-243.961	-200.000	0.017	0.202
-242.946	-108.508	0.149	-0.032
-241.932	-144.224	-0.182	-0.017
-240.917	335.073	0.088	-0.168
-239.903	-67.594	0.129	-0.050
-238.888	-200.000	-0.003	-0.148
-237.873	47.339	-0.134	-0.124
-236.859	-19.296	-0.054	0.033
-235.844	-200.000	-0.008	0.372
-234.830	800.000	-0.025	0.097
-233.815	800.000	-0.044	0.142
-232.800	-200.000	0.002	0.179
-231.786	51.937	-0.119	0.112
-230.771	-200.000	0.058	-0.308
-229.757	-98.583	0.370	-0.094
-228.742	183.504	-0.132	-0.194
-227.727	-200.000	0.010	0.046
-226.713	800.000	-0.035	0.122
-225.698	314.148	-0.120	-0.223
-224.684	-200.000	0.009	0.392
-223.669	-109.130	0.298	-0.063
-222.655	-13.632	-0.157	0.101
-221.640	344.794	-0.062	-0.121
-220.625	-200.000	-0.034	0.186
-219.611	-161.670	0.186	0.009
-218.596	-87.243	0.262	0.079
-217.582	388.306	0.073	-0.149
-216.567	602.810	-0.127	0.313
-215.552	13.765	0.304	0.234
-214.538	297.192	0.146	0.265
-213.523	112.304	-0.286	-0.342
-212.509	-35.251	-0.161	-0.087
-211.494	-35.495	-0.251	-0.135
-210.479	800.000	0.008	-0.022
-209.465	-107.244	0.395	-0.086
-208.450	800.000	0.039	0.121
-207.436	-116.437	0.480	-0.088
-206.421	-102.353	-0.434	0.103
-205.406	501.567	0.092	-0.209
-204.392	-11.686	0.210	-0.137
-203.377	-32.387	0.190	-0.105
-202.363	800.000	-0.091	0.261
-201.348	205.221	-0.254	0.389
-200.333	83.569	0.274	-0.296
-199.319	333.853	-0.161	-0.309
-198.304	-11.176	-0.217	0.142
-197.290	-200.000	0.004	0.116
-196.275	258.453	0.121	0.207
-195.260	800.000	-0.028	-0.102
-194.246	-68.555	0.232	0.089
-193.231	17.639	0.214	-0.169
-192.217	-136.634	-0.304	0.035
-191.202	-40.476	0.117	0.060
-190.187	35.837	0.207	0.180
-189.173	-162.242	-0.097	-0.005
-188.158	674.368	0.050	0.129
-187.144	-200.000	0.044	0.254
-186.129	-55.590	0.053	-0.023
-185.114	-200.000	-0.046	0.312
-184.100	661.389	0.105	0.268
-183.085	-147.798	0.301	0.025
-182.071	-200.000	-0.039	0.282
-181.056	513.308	-0.052	0.119
-180.042	-200.000	-0.010	-0.109
-179.027	-88.654	0.200	-0.059
-178.012	142.497	-0.165	0.216
-176.998	211.252	0.073	0.113
-175.983	-200.000	0.036	0.258
-174.969	-111.528	-0.090	-0.018
-173.954	-28.798	-0.226	0.128
-172.939	-82.207	-0.359	0.115
-171.925	172.470	-0.194	-0.276
-170.910	-87.968	0.261	0.078
-169.896	-3.150	0.240	0.165
-168.881	-2.916	-0.284	0.196
-167.866	-141.855	0.081	-0.008
-166.852	162.055	0.251	-0.347
-165.837	800.000	0.099	-0.290
-164.823	313.574	0.079	0.148
-163.808	43.055	0.259	-0.234
-162.793	-144.470	-0.051	-0.005
-161.779	-42.235	0.148	-0.075
-160.764	-37.139	-0.277	0.147
-159.750	800.000	0.062	0.188
-158.735	-200.000	0.006	0.050
-157.720	-69.899	-0.142	0.054
-156.706	78.811	0.164	-0.173
-155.691	181.977	-0.126	-0.183
-154.677	-20.036	0.250	0.152
-153.662	-77.666	-0.343	0.117
-152.647	-74.899	-0.217	-0.077
-151.633	800.000	0.029	-0.114
-150.618	107.022	0.248	0.291
-149.604	-129.571	-0.129	-0.018
-148.589	312.873	0.087	-0.162
-147.574	546.326	0.097	-0.229
-146.560	-47.549	0.382	0.183
-145.545	800.000	0.052	0.213
-144.531	-155.911	0.287	-0.018
-143.516	-200.000	0.029	-0.127
-142.502	48.375	0.130	-0.120
-141.487	79.676	0.077	-0.082
-140.472	102.483	-0.133	0.154
-139.458	27.245	0.148	-0.123
-138.443	800.000	-0.073	0.206
-137.429	-99.522	0.022	-0.005
-136.414	-42.771	-0.226	0.114
-135.399	265.936	0.071	0.122
-134.385	-163.682	0.094	0.004
-133.370	-103.412	0.366	-0.085
-132.356	218.661	0.042	-0.066
-131.341	370.068	0.134	-0.267
-130.326	449.539	0.066	0.143
-129.312	-26.081	0.196	0.113
-128.297	-93.256	0.105	-0.029
-127.283	616.244	0.054	-0.133
-126.268	24.892	0.153	0.125
-125.253	2.260	-0.249	0.177
-124.239	800.000	0.012	0.037
-123.224	-200.000	-0.016	0.242
-122.210	154.712	-0.082	-0.111
-121.195	222.730	0.170	0.271
-120.180	-112.155	-0.274	-0.054
