DTS Sentinel unit serial number:	SN413079Multiplexer serial number:	ORYXHardware model number:	OX4-SRSoftware version number:	ORYX F/W v4.00 Oryx Data Collector v3.7.2.0data status	okinstallation	princeton_trtdifferential loss correction	single-endedforward channel	channel 1reverse channel	N/Adate	2019/09/15time	17:30:36forward acquisition time	60.00reverse acquisition time	0.00gamma	496.2192k internal	0.2291k external	0.2291temperature offset calibration	0.9934default loss term (dB/km)	0.3790temperature slope calibration	1.0000multiplexer offset coefficient	1.0000multiplexer slope coefficient	1.0000fibre end	0.00T internal ref (°C)	44.81T ext. ref 1 (°C)	6.16T ext. ref 2 (°C)	40.52length (m)	temperature (°C)	Stokes	anti-Stokes-747.200	52.254	-0.145	0.141
-746.185	-200.000	0.052	0.333
-745.171	-79.789	0.233	0.080
-744.156	-200.000	-0.018	0.300
-743.142	-15.989	-0.066	0.043
-742.127	-200.000	-0.004	0.258
-741.112	-200.000	0.027	0.238
-740.098	-147.171	0.273	0.024
-739.083	285.480	-0.092	-0.170
-738.069	4.259	-0.227	0.170
-737.054	-94.585	-0.259	0.072
-736.039	-92.189	-0.361	-0.104
-735.025	528.677	-0.121	-0.294
-734.010	58.397	-0.048	0.049
-732.996	541.122	-0.157	-0.383
-731.981	-41.130	-0.130	-0.069
-730.966	-200.000	0.007	-0.219
-729.952	-200.000	-0.002	-0.386
-728.937	-33.767	0.290	-0.164
-727.923	-80.816	-0.136	-0.046
-726.908	135.751	-0.125	-0.167
-725.894	217.269	-0.156	0.254
-724.879	-78.159	-0.385	0.136
-723.864	44.966	-0.062	0.059
-722.850	-95.947	0.061	-0.017
-721.835	-200.000	-0.016	0.239
-720.821	800.000	0.097	-0.355
-719.806	146.599	0.035	-0.048
-718.791	-200.000	-0.023	-0.133
-717.777	49.092	0.151	-0.145
-716.762	-61.317	0.231	-0.099
-715.748	-33.795	-0.493	0.278
-714.733	-36.926	-0.157	0.086
-713.718	516.278	-0.084	-0.201
-712.704	-42.059	0.197	-0.103
-711.689	-72.867	0.292	-0.110
-710.675	-46.819	0.324	-0.162
-709.660	-200.000	-0.027	-0.303
-708.645	31.380	-0.246	-0.217
-707.631	-200.000	0.028	-0.139
-706.616	-35.904	-0.237	0.131
-705.602	144.449	0.090	-0.122
-704.587	-23.272	-0.110	-0.068
-703.572	-111.266	-0.496	0.104
-702.558	-141.222	-0.095	-0.010
-701.543	44.914	0.197	-0.185
-700.529	-76.316	-0.107	-0.038
-699.514	-37.927	0.133	-0.072
-698.499	-168.850	0.322	-0.012
-697.485	-103.236	-0.222	0.054
-696.470	99.044	-0.155	-0.183
-695.456	-161.158	-0.266	-0.014
-694.441	756.987	0.058	-0.161
-693.426	-24.034	-0.207	0.126
-692.412	150.470	-0.092	0.128
-691.397	-152.744	0.407	-0.030
-690.383	-125.398	-0.237	0.037
-689.368	-35.831	-0.118	-0.065
-688.354	-200.000	0.059	0.333
-687.339	133.361	-0.116	0.153
-686.324	-46.692	-0.364	0.182
-685.310	-26.523	0.221	0.132
-684.295	119.978	0.111	-0.141
-683.281	-200.000	-0.041	-0.253
-682.266	-1.091	0.141	-0.102
-681.251	-2.402	0.173	0.124
-680.237	-53.267	-0.056	0.026
-679.222	602.185	-0.067	0.169
-678.208	429.319	0.072	0.159
-677.193	-136.148	-0.168	-0.020
-676.178	-24.436	-0.449	-0.273
-675.164	-56.420	-0.196	-0.089
-674.149	-3.458	-0.210	0.149
-673.135	-136.538	0.049	-0.006
-672.120	800.000	-0.023	-0.087
-671.105	-46.373	0.457	-0.230
-670.091	-102.784	-0.183	-0.044
-669.076	391.862	-0.084	-0.179
-668.062	175.453	0.123	0.182
-667.047	539.804	-0.056	0.136
-666.032	-200.000	0.005	-0.072
-665.018	292.653	-0.188	0.350
-664.003	-135.840	-0.401	-0.048
-662.989	-89.388	-0.051	-0.015
-661.974	-5.970	-0.021	-0.015
-660.959	-197.019	-0.160	-0.001
-659.945	-200.000	-0.044	0.509
-658.930	-200.000	-0.006	-0.178
-657.916	394.498	0.057	0.122
-656.901	-63.395	-0.228	-0.096
-655.886	96.713	-0.077	0.090
-654.872	26.947	-0.055	-0.047
-653.857	-200.000	0.003	-0.064
-652.843	-200.000	0.067	0.320
-651.828	-103.942	-0.061	0.014
-650.814	-103.252	0.103	0.025
-649.799	477.673	0.132	0.305
-648.784	800.000	0.022	-0.092
-647.770	-8.749	-0.118	-0.081
-646.755	516.968	-0.064	0.153
-645.741	7.418	-0.150	-0.115
-644.726	209.482	0.026	-0.042
-643.711	4.144	-0.227	-0.170
-642.697	162.276	0.026	0.038
-641.682	800.000	0.046	-0.134
-640.668	-151.892	0.282	0.021
-639.653	-136.718	-0.023	-0.003
-638.638	284.077	0.175	-0.320
-637.624	-143.328	-0.153	0.015
-636.609	-200.000	0.026	0.169
-635.595	143.932	0.076	0.103
-634.580	-87.300	0.154	0.048
-633.565	-200.000	0.022	-0.105
-632.551	725.239	-0.130	0.354
-631.536	44.939	-0.344	-0.323
-630.522	-200.000	0.035	0.176
-629.507	640.132	-0.058	-0.151
-628.492	800.000	-0.077	-0.221
-627.478	-200.000	-0.003	-0.098
-626.463	-200.000	-0.005	-0.035
-625.449	-200.000	0.062	0.303
-624.434	-135.096	-0.069	-0.008
-623.419	117.122	0.271	-0.340
-622.405	-20.330	0.104	-0.065
-621.390	0.958	-0.147	0.108
-620.376	-87.771	-0.107	-0.033
-619.361	-192.653	-0.033	0.000
-618.346	229.861	-0.081	-0.135
-617.332	-200.000	0.038	-0.317
-616.317	-25.256	0.074	-0.045
-615.303	-7.117	0.319	-0.220
-614.288	-200.000	0.001	0.241
-613.273	-35.654	0.141	0.078
-612.259	-150.620	-0.380	-0.030
-611.244	-200.000	-0.012	0.179
-610.230	800.000	0.106	0.432
-609.215	39.114	-0.127	0.116
-608.201	-83.309	-0.166	0.054
-607.186	86.325	0.196	0.220
-606.171	-200.000	0.029	0.394
-605.157	-200.000	-0.042	0.264
-604.142	-143.894	-0.183	-0.018
-603.128	-68.718	-0.121	0.048
-602.113	-166.668	0.211	-0.009
-601.098	133.435	0.202	0.266
-600.084	-56.347	0.310	0.140
-599.069	-37.645	-0.084	-0.046
-598.055	-26.253	-0.253	-0.151
-597.040	538.038	0.060	-0.146
-596.025	-112.982	0.219	-0.044
-595.011	112.483	0.147	-0.181
-593.996	-135.733	0.282	0.034
-592.982	-113.276	0.218	0.044
-591.967	-19.495	0.128	0.081
-590.952	-200.000	-0.011	0.154
-589.938	-37.503	0.258	-0.140
-588.923	52.133	-0.337	-0.327
-587.909	-142.288	0.171	-0.017
-586.894	-157.650	-0.220	0.013
-585.879	-35.700	0.169	-0.093
-584.865	446.329	-0.127	-0.284
-583.850	-200.000	-0.001	-0.230
-582.836	-49.248	-0.116	0.056
-581.821	-148.652	0.154	0.013
-580.806	-47.299	0.152	0.075
-579.792	-200.000	-0.019	-0.283
-578.777	-84.037	0.232	-0.075
-577.763	153.896	0.121	0.169
-576.748	-87.562	-0.229	-0.071
-575.733	251.475	0.042	-0.073
-574.719	-72.587	0.127	-0.048
-573.704	-37.769	0.111	0.060
-572.690	-111.548	-0.092	0.019
-571.675	800.000	-0.054	0.176
-570.661	163.865	-0.101	-0.144
-569.646	93.572	0.158	0.182
-568.631	-81.113	-0.075	-0.025
-567.617	-109.264	-0.087	-0.019
-566.602	3.948	0.281	-0.209
-565.588	-200.000	-0.026	-0.310
-564.573	-89.958	-0.064	0.019
-563.558	53.793	0.309	-0.302
-562.544	495.902	-0.131	0.305
-561.529	92.131	-0.073	-0.083
-560.515	255.893	-0.127	0.222
-559.500	-22.303	-0.270	-0.167
-558.485	800.000	-0.075	0.262
-557.471	127.065	0.169	0.217
-556.456	-116.546	0.143	0.027
-555.442	-200.000	-0.002	0.053
-554.427	83.927	0.289	0.321
-553.412	4.378	-0.061	0.046
-552.398	-30.143	-0.272	0.157
-551.383	-200.000	0.032	-0.275
-550.369	800.000	0.037	-0.134
-549.354	-180.517	0.178	-0.004
-548.339	-200.000	0.009	-0.044
-547.325	171.721	0.210	-0.307
-546.310	-154.085	-0.201	-0.014
-545.296	-36.418	0.055	0.030
-544.281	521.063	0.022	-0.053
-543.266	800.000	-0.095	0.283
-542.252	-122.947	-0.146	-0.024
-541.237	-200.000	0.046	0.274
-540.223	-188.024	0.131	0.002
-539.208	800.000	-0.080	0.306
-538.193	-75.333	0.226	-0.082
-537.179	-79.193	-0.146	-0.050
-536.164	800.000	-0.037	-0.151
-535.150	54.986	-0.087	0.086
-534.135	-171.961	0.412	0.014
-533.121	-200.000	0.015	0.103
-532.106	-31.104	0.134	0.077
-531.091	800.000	0.115	-0.355
-530.077	483.094	0.012	-0.028
-529.062	92.111	0.186	0.212
-528.048	-8.696	-0.256	-0.174
-527.033	-13.021	-0.267	0.177
-526.018	800.000	0.062	0.179
-525.004	-200.000	-0.005	0.113
-523.989	-145.509	-0.173	0.016
-522.975	166.662	-0.137	-0.197
-521.960	800.000	0.121	-0.350
-520.945	213.923	-0.203	-0.327
-519.931	128.181	-0.190	-0.245
-518.916	800.000	-0.039	-0.140
-517.902	-159.073	-0.228	0.013
-516.887	-77.493	0.416	0.146
-515.872	-48.090	-0.206	0.101
-514.858	361.595	-0.192	0.390
-513.843	27.172	-0.247	-0.211
-512.829	800.000	0.045	-0.132
-511.814	253.030	0.056	-0.097
-510.799	-123.806	-0.224	0.036
-509.785	-49.961	0.093	-0.045
-508.770	800.000	0.057	-0.208
-507.756	132.783	-0.054	0.071
-506.741	800.000	0.026	0.118
-505.726	-75.686	0.135	-0.049
-504.712	800.000	0.121	0.515
-503.697	237.366	-0.272	0.458
-502.683	-119.372	0.294	0.052
-501.668	800.000	-0.042	-0.138
-500.653	-89.747	0.201	0.060
-499.639	-30.525	0.155	-0.089
-498.624	76.816	-0.036	-0.039
-497.610	-200.000	0.016	0.125
-496.595	-200.000	-0.020	0.371
-495.581	-35.999	0.053	-0.029
-494.566	-47.884	0.085	-0.042
-493.551	-54.300	0.079	0.036
-492.537	312.753	-0.080	0.152
-491.522	800.000	0.068	0.265
-490.508	584.063	0.038	0.096
-489.493	-107.455	-0.174	-0.039
-488.478	-95.505	0.221	-0.060
-487.464	-150.632	-0.260	0.020
-486.449	800.000	0.137	-0.385
-485.435	-89.297	0.198	0.059
-484.420	-113.356	0.192	0.038
-483.405	28.175	-0.166	0.142
-482.391	-79.241	-0.135	-0.047
-481.376	-54.923	-0.026	-0.012
-480.362	85.939	0.156	0.174
-479.347	-171.145	0.201	-0.007
-478.332	-153.345	0.217	0.015
-477.318	16.982	-0.266	0.213
-476.303	800.000	0.096	-0.324
-475.289	222.557	-0.074	0.120
-474.274	-165.362	0.071	0.003
-473.259	-86.739	0.418	-0.130
-472.245	-105.061	-0.209	-0.048
-471.230	86.167	-0.180	-0.201
-470.216	-42.318	-0.209	-0.108
-469.201	176.658	-0.132	0.195
-468.186	800.000	-0.069	-0.222
-467.172	491.121	0.045	-0.104
-466.157	456.048	0.153	-0.345
-465.143	800.000	0.055	0.213
-464.128	-68.607	-0.380	0.149
-463.113	-44.940	-0.231	-0.117
-462.099	-23.893	-0.199	-0.121
-461.084	-46.618	0.051	-0.025
-460.070	-200.000	-0.029	-0.176
-459.055	-49.114	0.435	0.211
-458.040	156.479	-0.273	-0.381
-457.026	-42.253	0.062	-0.032
-456.011	412.307	-0.057	0.122
-454.997	-73.427	-0.227	-0.084
-453.982	290.318	0.123	-0.226
-452.968	-200.000	-0.018	-0.095
-451.953	86.732	0.181	0.202
-450.938	-21.454	0.354	-0.219
-449.924	-150.164	0.278	0.022
-448.909	533.114	0.080	0.191
-447.895	448.332	-0.066	0.147
-446.880	259.020	0.026	0.046
-445.865	-39.441	0.470	0.249
-444.851	78.080	0.139	0.150
-443.836	401.666	0.232	-0.494
-442.822	251.680	-0.087	0.150
-441.807	127.093	-0.191	0.245
-440.792	-200.000	-0.032	0.368
-439.778	44.798	-0.133	0.124
-438.763	-124.247	-0.176	0.028
-437.749	-200.000	0.015	-0.378
-436.734	-80.953	0.377	-0.126
-435.719	431.279	0.061	0.134
-434.705	-200.000	0.030	-0.207
-433.690	-60.209	0.296	0.128
-432.676	-115.331	0.351	0.067
-431.661	59.288	-0.150	0.150
-430.646	223.754	0.198	0.323
-429.632	160.212	-0.098	-0.138
-428.617	179.045	0.087	-0.128
-427.603	-51.851	0.275	-0.129
-426.588	34.584	0.311	-0.275
-425.573	800.000	0.051	-0.171
-424.559	-75.279	0.207	-0.075
-423.544	-41.429	-0.123	0.064
-422.530	56.645	-0.214	-0.211
-421.515	778.258	-0.053	0.146
-420.500	36.622	-0.181	-0.161
-419.486	-200.000	0.056	-0.273
-418.471	800.000	0.019	-0.071
-417.457	281.256	-0.046	-0.083
-416.442	-200.000	0.002	-0.127
-415.428	800.000	0.049	-0.138
-414.413	509.593	0.118	-0.278
-413.398	-63.134	0.270	0.113
-412.384	-113.334	0.210	-0.042
-411.369	20.841	0.116	-0.095
-410.355	159.736	0.112	-0.157
-409.340	-25.493	-0.094	-0.056
-408.325	131.607	0.052	-0.068
-407.311	106.564	-0.141	-0.169
-406.296	17.051	-0.138	-0.110
-405.282	-109.468	-0.100	0.021
-404.267	-113.404	0.524	-0.104
-403.252	-38.815	0.042	-0.023
-402.238	-123.238	0.342	0.055
-401.223	-166.264	-0.259	0.011
-400.209	520.731	0.080	-0.190
-399.194	-17.247	0.216	-0.137
-398.179	201.325	0.133	-0.207
-397.165	-43.635	-0.174	0.088
-396.150	187.322	-0.119	0.179
-395.136	-98.643	0.307	0.079
-394.121	-200.000	-0.027	0.142
-393.106	61.419	-0.122	-0.123
-392.092	159.484	-0.065	0.091
-391.077	-200.000	-0.043	0.252
-390.063	433.316	0.132	0.290
-389.048	222.474	0.194	0.316
-388.033	-21.187	0.248	-0.153
-387.019	7.553	-0.218	0.164
-386.004	-92.228	0.257	0.073
-384.990	-53.859	0.385	-0.177
-383.975	-190.411	0.100	-0.001
-382.960	800.000	0.064	0.229
-381.946	160.368	-0.110	0.155
-380.931	-63.161	-0.229	-0.096
-379.917	800.000	-0.143	0.482
-378.902	-3.326	-0.145	-0.102
-377.888	-200.000	0.025	-0.255
-376.873	-200.000	-0.016	-0.256
-375.858	-183.765	0.358	-0.006
-374.844	-84.722	-0.094	-0.030
-373.829	131.067	0.093	0.120
-372.815	-6.931	-0.090	0.061
-371.800	-96.727	0.262	0.070
-370.785	96.841	0.051	0.058
-369.771	800.000	-0.075	-0.250
-368.756	460.151	0.070	0.157
-367.742	800.000	0.047	0.145
-366.727	175.073	-0.121	0.177
-365.712	-46.757	-0.194	-0.096
-364.698	-2.529	-0.521	-0.368
-363.683	-42.031	0.254	-0.131
-362.669	-92.385	-0.244	-0.069
-361.654	189.609	-0.194	-0.294
-360.639	-59.224	0.050	-0.022
-359.625	-51.806	-0.185	0.087
-358.610	800.000	0.054	-0.160
-357.596	177.224	-0.078	0.115
-356.581	185.291	0.009	-0.013
-355.566	-72.721	0.278	-0.103
-354.552	40.528	-0.413	-0.375
-353.537	-100.808	0.312	-0.078
-352.523	-110.536	0.099	0.021
-351.508	222.091	0.072	0.116
-350.493	300.165	-0.155	0.288
-349.479	-51.659	0.183	0.086
-348.464	169.775	0.119	0.171
-347.450	-127.020	-0.137	-0.020
-346.435	-116.132	-0.140	0.026
-345.420	-200.000	0.038	0.219
-344.406	123.492	-0.034	0.042
-343.391	-70.139	-0.233	0.089
-342.377	-115.402	-0.260	-0.049
-341.362	168.680	0.075	-0.108
-340.348	-41.885	-0.169	0.087
-339.333	-81.514	-0.070	0.023
-338.318	472.583	-0.116	-0.263
-337.304	288.100	-0.017	0.031
-336.289	561.793	0.093	-0.227
-335.275	220.935	0.159	-0.257
-334.260	800.000	-0.031	-0.113
-333.245	23.127	0.459	0.379
-332.231	-7.358	-0.166	0.113
-331.216	509.145	-0.104	-0.244
-330.202	236.311	-0.102	-0.170
-329.187	186.583	0.231	0.346
-328.172	-200.000	0.031	0.283
-327.158	-39.645	-0.137	0.072
-326.143	5.866	0.162	-0.121
-325.129	-33.013	0.156	-0.087
-324.114	-122.399	0.217	-0.036
-323.099	-18.400	0.034	-0.021
-322.085	-108.799	0.241	-0.052
-321.070	-200.000	0.067	0.337
-320.056	552.395	-0.055	0.133
-319.041	426.384	-0.014	-0.031
-318.026	687.872	-0.083	0.219
-317.012	208.836	-0.161	-0.254
-315.997	415.885	-0.178	-0.382
-314.983	-200.000	-0.387	0.001
-313.968	-127.279	0.015	-0.002
-312.953	-67.305	-0.418	0.166
-311.939	2.080	-0.078	0.057
-310.924	-200.000	-0.018	0.190
-309.910	-15.140	-0.107	0.069
-308.895	-152.075	-0.313	0.023
-307.880	58.455	-0.339	0.335
-306.866	-200.000	-0.003	0.058
-305.851	487.018	-0.031	0.072
-304.837	-73.565	-0.189	-0.069
-303.822	427.419	-0.101	0.220
-302.807	-200.000	0.015	0.075
-301.793	440.890	-0.035	0.077
-300.778	-113.146	-0.132	-0.026
-299.764	-18.951	0.216	-0.135
-298.749	798.188	-0.068	-0.189
-297.735	800.000	-0.070	0.214
-296.720	93.856	-0.341	-0.389
-295.705	250.331	-0.070	-0.120
-294.691	282.484	0.146	0.263
-293.676	800.000	-0.019	-0.067
-292.662	-200.000	-0.023	-0.252
-291.647	191.975	-0.034	-0.052
-290.632	282.026	0.137	0.247
-289.618	-200.000	0.108	0.588
-288.603	800.000	0.043	0.160
-287.589	-57.688	-0.151	0.066
-286.574	-200.000	0.000	-0.279
-285.559	601.751	-0.047	-0.117
-284.545	-200.000	0.024	-0.404
-283.530	-59.283	-0.225	-0.098
-282.516	-100.701	0.302	0.075
-281.501	800.000	-0.037	0.130
-280.486	-200.000	0.016	-0.117
-279.472	800.000	-0.017	-0.062
-278.457	504.310	0.052	0.121
-277.443	-103.584	0.131	-0.031
-276.428	130.831	-0.262	0.338
-275.413	-22.165	-0.115	-0.070
-274.399	-114.700	-0.294	-0.057
-273.384	272.038	0.054	0.096
-272.370	-200.000	0.013	0.073
-271.355	-200.000	-0.014	0.242
-270.340	100.975	-0.082	-0.096
-269.326	179.863	0.166	-0.245
-268.311	-96.366	-0.320	-0.085
-267.297	-92.797	-0.338	-0.095
-266.282	-119.724	-0.264	0.046
-265.267	401.226	-0.151	0.320
-264.253	800.000	-0.052	-0.204
-263.238	-191.846	0.149	0.001
-262.224	368.554	-0.175	-0.355
-261.209	657.593	0.083	-0.214
-260.195	-132.259	0.322	-0.042
-259.180	-200.000	-0.002	-0.249
-258.165	800.000	0.104	0.313
-257.151	-200.000	-0.155	-0.000
-256.136	446.656	-0.010	-0.021
-255.122	800.000	-0.071	-0.237
-254.107	50.535	-0.138	0.131
-253.092	3.665	-0.052	-0.038
-252.078	10.963	-0.364	-0.280
-251.063	58.090	-0.064	-0.063
-250.049	-163.658	-0.244	-0.012
-249.034	-12.148	-0.343	0.226
-248.019	118.250	-0.179	0.221
-247.005	-41.856	0.041	0.021
-245.990	-200.000	-0.004	-0.466
-244.976	-89.145	-0.410	0.122
-243.961	800.000	0.084	-0.257
-242.946	-26.985	0.116	0.068
-241.932	32.395	0.093	0.081
-240.917	541.986	-0.059	0.142
-239.903	100.825	-0.182	-0.213
-238.888	800.000	0.035	-0.112
-237.873	-200.000	0.003	0.055
-236.859	800.000	0.020	0.058
-235.844	-41.665	0.339	0.175
-234.830	-17.114	0.256	-0.162
-233.815	638.463	0.086	0.219
-232.800	-200.000	0.005	0.143
-231.786	-172.265	0.272	-0.009
-230.771	-108.837	-0.040	-0.009
-229.757	90.494	-0.066	-0.074
-228.742	37.943	0.180	-0.161
-227.727	800.000	0.080	-0.326
-226.713	-200.000	0.045	-0.227
-225.698	70.610	-0.128	0.132
-224.684	529.776	-0.059	0.139
-223.669	-200.000	-0.007	-0.057
-222.655	189.406	0.096	0.144
-221.640	-59.779	-0.104	0.045
-220.625	-90.137	-0.104	-0.030
-219.611	-0.530	0.117	-0.083
-218.596	-200.000	0.054	0.326
-217.582	28.896	-0.424	-0.361
-216.567	-30.124	-0.336	-0.192
-215.552	93.749	0.116	0.132
-214.538	342.931	-0.033	-0.064
-213.523	132.388	-0.147	-0.190
-212.509	-200.000	0.048	-0.351
-211.494	-166.857	0.163	-0.007
-210.479	432.257	0.215	0.467
-209.465	800.000	0.009	-0.032
-208.450	44.917	-0.152	0.141
-207.436	66.552	0.122	0.124
-206.421	-59.204	0.116	-0.050
-205.406	210.118	-0.069	0.108
-204.392	-200.000	-0.068	-0.354
-203.377	-54.851	0.247	0.112
-202.363	-175.500	-0.168	0.005
-201.348	254.372	-0.094	0.161
-200.333	-55.782	-0.184	0.082
-199.319	-156.155	-0.491	-0.031
-198.304	-125.012	0.281	0.043
-197.290	700.301	0.008	-0.022
-196.275	74.047	-0.220	-0.232
-195.260	800.000	-0.057	0.229
-194.246	-78.525	0.300	0.103
-193.231	29.755	0.017	0.014
-192.217	191.973	0.224	-0.339
-191.202	19.646	-0.149	0.120
-190.187	-118.078	0.227	-0.041
-189.173	-200.000	0.003	0.254
-188.158	-148.865	-0.182	-0.015
-187.144	-3.160	0.479	-0.335
-186.129	-56.969	-0.277	0.123
-185.114	-125.910	-0.363	0.055
-184.100	-90.420	-0.302	0.088
-183.085	166.718	-0.166	0.236
-182.071	-200.000	0.034	-0.398
-181.056	-17.026	-0.102	-0.065
-180.042	-23.315	-0.143	-0.086
-179.027	362.432	0.221	0.445
-178.012	-5.514	0.349	0.240
-176.998	217.791	0.270	0.431
-175.983	97.705	-0.104	-0.119
-174.969	-200.000	-0.029	0.136
-173.954	-200.000	0.051	-0.248
-172.939	-200.000	-0.013	0.100
-171.925	800.000	0.069	-0.202
-170.910	-200.000	0.027	-0.225
-169.896	69.722	-0.173	0.178
-168.881	103.803	-0.188	0.221
-167.866	800.000	0.102	0.447
-166.852	2.272	-0.032	-0.023
-165.837	-18.445	0.400	-0.250
-164.823	-40.122	0.132	-0.069
-163.808	455.506	0.066	0.147
-162.793	68.055	-0.204	-0.209
-161.779	456.366	0.146	0.325
-160.764	419.432	-0.067	0.144
-159.750	-16.423	-0.133	0.085
-158.735	-200.000	-0.001	0.153
-157.720	-200.000	-0.017	0.197
-156.706	10.575	-0.184	0.141
-155.691	-104.495	-0.203	0.047
-154.677	-35.158	-0.188	-0.102
-153.662	-1.399	-0.192	-0.136
-152.647	800.000	-0.043	-0.168
-151.633	-121.574	0.361	0.060
-150.618	-200.000	-0.035	0.193
-149.604	649.855	0.096	0.246
-148.589	-200.000	0.002	-0.211
-147.574	-146.173	-0.152	0.013
-146.560	-101.905	0.237	-0.057
-145.545	-200.000	0.073	0.000
-144.531	37.978	-0.077	0.069
-143.516	-3.726	-0.168	0.117
-142.502	132.245	-0.087	0.112
-141.487	-71.169	0.286	0.107
-140.472	-98.250	0.166	-0.043
-139.458	17.778	-0.196	0.156
-138.443	-162.056	0.131	0.007
-137.429	-200.000	-0.007	-0.194
-136.414	-76.174	-0.376	0.133
-135.399	-71.980	-0.026	-0.010
-134.385	-115.385	0.427	-0.081
-133.370	-132.115	-0.150	-0.019
-132.356	-200.000	-0.015	-0.070
-131.341	-200.000	-0.012	0.145
-130.326	-125.875	-0.206	0.031
-129.312	131.264	0.025	0.032
-128.297	64.526	-0.254	-0.256
-127.283	-90.107	0.167	0.049
-126.268	800.000	0.024	0.099
-125.253	117.077	-0.105	0.129
-124.239	-73.506	0.424	0.155
-123.224	118.586	-0.118	-0.146
