DTS Sentinel unit serial number:	SN413079Multiplexer serial number:	ORYXHardware model number:	OX4-SRSoftware version number:	ORYX F/W v4.00 Oryx Data Collector v3.7.2.0data status	okinstallation	princeton_trtdifferential loss correction	single-endedforward channel	channel 1reverse channel	N/Adate	2019/09/12time	03:04:11forward acquisition time	60.00reverse acquisition time	0.00gamma	496.2192k internal	0.2322k external	0.2322temperature offset calibration	1.0075default loss term (dB/km)	0.3790temperature slope calibration	1.0000multiplexer offset coefficient	1.0000multiplexer slope coefficient	1.0000fibre end	0.00T internal ref (°C)	32.31T ext. ref 1 (°C)	2.12T ext. ref 2 (°C)	27.39length (m)	temperature (°C)	Stokes	anti-Stokes-747.200	-92.134	-0.281	0.080
-746.185	-47.961	-0.130	-0.064
-745.171	33.677	-0.207	0.182
-744.156	249.969	-0.273	0.468
-743.142	-5.906	0.087	-0.060
-742.127	6.248	-0.040	0.030
-741.112	800.000	0.065	0.229
-740.098	66.878	-0.124	-0.127
-739.083	-126.481	-0.180	0.027
-738.069	-87.791	0.134	-0.041
-737.054	800.000	-0.072	-0.315
-736.039	-11.754	-0.468	-0.310
-735.025	233.433	0.113	-0.189
-734.010	-200.000	-0.012	0.079
-732.996	239.180	-0.183	-0.308
-731.981	109.153	0.251	0.303
-730.966	-200.000	-0.042	-0.254
-729.952	-115.840	0.144	-0.027
-728.937	800.000	0.041	0.154
-727.923	-136.039	0.103	-0.012
-726.908	-79.103	-0.228	0.078
-725.894	-200.000	-0.026	0.404
-724.879	-200.000	0.038	0.246
-723.864	-115.967	-0.237	-0.045
-722.850	-116.870	0.111	0.021
-721.835	-63.281	-0.092	0.038
-720.821	800.000	-0.012	-0.040
-719.806	348.215	-0.032	0.063
-718.791	-133.222	0.146	0.019
-717.777	-103.260	-0.111	0.026
-716.762	-60.656	-0.218	-0.093
-715.748	119.933	0.095	-0.119
-714.733	313.468	0.077	-0.145
-713.718	-200.000	-0.012	-0.121
-712.704	-200.000	0.024	-0.196
-711.689	800.000	0.035	0.145
-710.675	-19.146	-0.048	0.030
-709.660	-68.703	0.242	0.095
-708.645	-200.000	0.006	0.113
-707.631	-128.519	-0.140	-0.020
-706.616	-67.400	0.265	-0.105
-705.602	-2.440	0.123	0.087
-704.587	-38.366	-0.144	0.077
-703.572	125.071	-0.044	-0.056
-702.558	92.254	-0.121	-0.137
-701.543	-200.000	-0.038	-0.251
-700.529	-97.602	0.080	-0.021
-699.514	-200.000	0.026	-0.520
-698.499	176.874	0.065	-0.095
-697.485	-104.396	-0.225	0.052
-696.470	727.132	-0.074	-0.198
-695.456	312.745	0.154	-0.292
-694.441	4.562	-0.023	-0.017
-693.426	-3.364	-0.251	0.176
-692.412	117.388	0.100	-0.124
-691.397	311.142	0.040	0.076
-690.383	-129.879	-0.180	-0.025
-689.368	800.000	0.006	-0.025
-688.354	-23.406	-0.192	0.116
-687.339	39.003	-0.107	0.096
-686.324	-13.774	0.292	0.190
-685.310	800.000	-0.071	0.248
-684.295	-58.084	-0.183	-0.081
-683.281	109.968	0.201	0.243
-682.266	800.000	0.049	0.198
-681.251	-55.322	-0.211	0.095
-680.237	-17.216	-0.265	-0.168
-679.222	-200.000	-0.043	-0.198
-678.208	800.000	-0.084	-0.334
-677.193	-200.000	-0.011	-0.139
-676.178	800.000	-0.096	0.405
-675.164	-107.349	0.201	-0.044
-674.149	464.216	-0.056	-0.127
-673.135	-200.000	0.007	-0.248
-672.120	406.807	-0.139	-0.296
-671.105	800.000	0.043	-0.131
-670.091	-126.664	-0.053	-0.008
-669.076	-59.191	0.129	0.056
-668.062	-121.608	-0.068	0.011
-667.047	446.144	0.067	-0.149
-666.032	-200.000	0.004	-0.204
-665.018	216.232	-0.112	-0.179
-664.003	336.438	0.075	-0.148
-662.989	-73.028	0.231	-0.085
-661.974	-200.000	0.016	-0.148
-660.959	800.000	-0.049	-0.215
-659.945	-200.000	-0.007	0.034
-658.930	-1.682	-0.084	-0.059
-657.916	-200.000	0.004	0.222
-656.901	52.738	-0.249	-0.239
-655.886	-74.231	-0.107	0.039
-654.872	278.108	-0.250	-0.448
-653.857	-25.300	-0.145	-0.086
-652.843	-83.411	0.198	0.064
-651.828	800.000	-0.030	-0.110
-650.814	-103.865	0.236	-0.055
-649.799	-160.570	-0.172	-0.009
-648.784	1.895	-0.013	-0.009
-647.770	-117.761	-0.136	-0.025
-646.755	-200.000	0.039	-0.235
-645.741	-27.018	0.239	-0.140
-644.726	-51.488	0.102	-0.048
-643.711	-87.030	-0.132	0.041
-642.697	73.189	0.126	-0.133
-641.682	25.271	0.058	0.048
-640.668	229.090	-0.177	-0.291
-639.653	39.846	-0.164	0.148
-638.638	800.000	-0.053	-0.187
-637.624	-134.223	-0.269	0.033
-636.609	-66.417	0.287	0.115
-635.595	-67.108	0.094	-0.037
-634.580	88.369	-0.178	-0.199
-633.565	800.000	0.022	0.063
-632.551	800.000	-0.117	0.382
-631.536	-161.674	0.273	-0.014
-630.522	-35.714	0.103	0.056
-629.507	-49.233	-0.096	0.046
-628.492	-196.772	0.255	0.002
-627.478	-41.139	0.172	-0.089
-626.463	-48.759	-0.120	0.058
-625.449	-69.410	-0.113	0.043
-624.434	800.000	0.045	0.140
-623.419	-31.496	-0.224	-0.126
-622.405	-21.117	0.074	0.045
-621.390	365.261	-0.213	0.430
-620.376	-73.048	-0.252	0.093
-619.361	-200.000	0.000	-0.087
-618.346	-23.139	0.187	-0.113
-617.332	4.094	0.193	-0.142
-616.317	91.205	-0.035	0.040
-615.303	5.889	-0.101	-0.075
-614.288	70.780	-0.200	-0.208
-613.273	-200.000	-0.003	-0.125
-612.259	-108.687	-0.274	0.059
-611.244	9.844	0.157	0.120
-610.230	511.939	-0.070	-0.164
-609.215	800.000	0.066	-0.203
-608.201	-69.649	-0.036	-0.014
-607.186	498.895	-0.080	-0.186
-606.171	-200.000	-0.008	-0.336
-605.157	-200.000	-0.038	0.210
-604.142	9.364	-0.089	0.068
-603.128	-166.427	0.241	-0.010
-602.113	772.221	0.048	-0.132
-601.098	111.080	0.191	0.231
-600.084	336.329	-0.107	-0.209
-599.069	-53.026	-0.248	0.115
-598.055	-87.649	0.153	0.046
-597.040	512.791	-0.033	0.077
-596.025	168.343	-0.122	-0.174
-595.011	-110.083	0.540	-0.113
-593.996	800.000	-0.044	0.162
-592.982	-46.961	-0.192	0.094
-591.967	-200.000	-0.005	0.370
-590.952	467.443	0.100	-0.226
-589.938	39.563	-0.271	-0.244
-588.923	-40.070	0.271	0.142
-587.909	-200.000	0.005	-0.060
-586.894	-88.741	-0.088	-0.026
-585.879	-200.000	0.011	-0.245
-584.865	45.757	-0.130	-0.121
-583.850	69.127	-0.095	0.098
-582.836	109.014	-0.133	-0.160
-581.821	-84.304	0.117	0.037
-580.806	-4.334	0.148	-0.103
-579.792	-39.420	-0.344	0.181
-578.777	-125.162	-0.500	-0.077
-577.763	-200.000	0.022	-0.225
-576.748	-64.288	-0.133	0.054
-575.733	307.316	-0.120	0.225
-574.719	707.599	0.102	-0.270
-573.704	366.767	-0.088	0.179
-572.690	318.887	0.055	0.105
-571.675	-200.000	0.040	0.212
-570.661	-29.558	0.069	0.040
-569.646	479.226	0.042	-0.095
-568.631	372.385	-0.135	0.275
-567.617	-200.000	-0.014	0.174
-566.602	-126.213	0.151	-0.023
-565.588	-101.034	0.074	-0.018
-564.573	-121.929	-0.225	-0.037
-563.558	-56.740	0.326	-0.145
-562.544	800.000	0.046	0.139
-561.529	51.433	-0.140	0.133
-560.515	-38.748	0.108	0.057
-559.500	-130.978	-0.100	-0.013
-558.485	-55.638	-0.365	-0.164
-557.471	90.108	0.121	-0.135
-556.456	-58.205	0.094	-0.041
-555.442	-200.000	-0.014	0.245
-554.427	-95.670	0.383	0.103
-553.412	608.824	-0.044	0.111
-552.398	-52.698	-0.140	-0.065
-551.383	33.602	-0.243	0.212
-550.369	165.542	0.054	-0.076
-549.354	576.954	0.096	0.236
-548.339	3.484	0.385	0.281
-547.325	102.194	-0.179	-0.210
-546.310	-200.000	-0.011	0.088
-545.296	-200.000	0.012	-0.265
-544.281	-118.867	-0.209	0.037
-543.266	-76.827	-0.381	-0.134
-542.252	-200.000	-0.041	-0.247
-541.237	-89.735	0.083	-0.024
-540.223	800.000	-0.053	-0.163
-539.208	-107.038	0.070	-0.016
-538.193	-15.016	-0.394	-0.253
-537.179	46.161	0.194	0.180
-536.164	213.872	0.120	0.190
-535.150	-22.389	0.126	-0.076
-534.135	10.267	-0.102	-0.078
-533.121	161.039	-0.104	-0.146
-532.106	103.100	-0.204	-0.239
-531.091	-92.555	-0.237	0.067
-530.077	190.570	-0.077	-0.116
-529.062	220.289	-0.097	0.156
-528.048	-112.322	0.399	-0.080
-527.033	84.592	0.214	-0.235
-526.018	-14.805	-0.285	-0.183
-525.004	-200.000	-0.011	0.155
-523.989	125.521	0.079	0.100
-522.975	581.990	0.060	0.147
-521.960	-5.345	0.182	0.125
-520.945	-94.420	0.384	0.105
-519.931	800.000	0.033	-0.140
-518.916	-7.406	0.086	0.058
-517.902	324.826	-0.052	-0.099
-516.887	71.635	0.123	-0.128
-515.872	-162.341	-0.091	-0.005
-514.858	56.168	0.153	-0.149
-513.843	-31.394	0.157	-0.089
-512.829	-63.635	-0.025	-0.010
-511.814	-24.206	0.078	0.047
-510.799	-47.792	-0.123	-0.060
-509.785	-147.888	0.219	-0.018
-508.770	-158.636	0.040	0.002
-507.756	-200.000	-0.081	0.406
-506.741	-130.345	0.344	0.047
-505.726	800.000	0.093	0.269
-504.712	-200.000	-0.024	0.157
-503.697	14.559	-0.212	0.166
-502.683	-200.000	-0.024	-0.117
-501.668	95.872	0.233	-0.266
-500.653	245.345	-0.080	-0.134
-499.639	95.150	-0.141	0.161
-498.624	-70.292	0.266	0.101
-497.610	-102.580	-0.339	0.081
-496.595	-120.848	-0.313	-0.053
-495.581	-108.106	0.403	-0.087
-494.566	-200.000	0.006	-0.144
-493.551	-44.943	-0.236	-0.117
-492.537	-200.000	-0.054	-0.362
-491.522	-15.410	-0.239	-0.152
-490.508	-200.000	0.031	-0.138
-489.493	-24.636	-0.114	-0.068
-488.478	10.414	-0.376	-0.286
-487.464	134.996	-0.170	-0.221
-486.449	-34.015	-0.246	0.135
-485.435	-200.000	0.034	-0.250
-484.420	78.773	-0.057	0.061
-483.405	-200.000	-0.084	-0.381
-482.391	-82.860	-0.197	0.064
-481.376	-66.051	0.358	0.143
-480.362	-44.420	-0.048	-0.024
-479.347	800.000	-0.016	-0.057
-478.332	-200.000	-0.086	-0.428
-477.318	-42.974	0.248	0.126
-476.303	-200.000	-0.055	-0.255
-475.289	178.640	0.229	0.334
-474.274	-200.000	-0.035	0.182
-473.259	480.893	0.046	0.105
-472.245	800.000	-0.009	0.029
-471.230	264.644	0.192	0.333
-470.216	169.799	0.092	-0.131
-469.201	800.000	-0.038	-0.118
-468.186	236.905	0.075	-0.125
-467.172	-38.009	0.206	-0.109
-466.157	-103.091	-0.285	-0.067
-465.143	11.548	0.345	0.265
-464.128	-73.051	0.296	-0.108
-463.113	760.052	0.079	-0.213
-462.099	-153.296	0.331	0.023
-461.084	132.442	-0.187	0.240
-460.070	-200.000	-0.021	-0.130
-459.055	800.000	0.075	-0.216
-458.040	-160.269	-0.164	-0.009
-457.026	-47.674	0.255	-0.123
-456.011	148.470	-0.186	0.250
-454.997	800.000	-0.047	-0.171
-453.982	-42.006	0.296	0.151
-452.968	-68.521	-0.057	-0.022
-451.953	-157.124	-0.316	0.019
-450.938	-76.449	0.178	0.062
-449.924	-200.000	-0.001	0.423
-448.909	-98.318	0.068	-0.017
-447.895	-129.187	-0.324	0.045
-446.880	-65.626	0.222	0.089
-445.865	152.941	0.090	-0.122
-444.851	126.178	-0.050	0.064
-443.836	800.000	0.141	-0.565
-442.822	-67.660	-0.306	-0.120
-441.807	-7.211	0.164	-0.111
-440.792	-26.548	-0.324	-0.190
-439.778	-108.188	0.209	-0.045
-438.763	-90.562	-0.247	0.071
-437.749	-12.973	-0.150	0.098
-436.734	142.071	-0.037	-0.049
-435.719	-165.071	-0.216	-0.010
-434.705	53.635	-0.105	0.101
-433.690	26.400	0.366	0.306
-432.676	-79.466	0.184	0.062
-431.661	10.491	-0.118	-0.090
-430.646	110.311	-0.161	0.193
-429.632	88.573	-0.121	0.134
-428.617	105.723	0.086	-0.101
-427.603	24.865	0.097	0.080
-426.588	72.110	-0.200	-0.207
-425.573	2.660	0.205	0.148
-424.559	0.611	0.088	-0.063
-423.544	-153.611	0.124	-0.009
-422.530	112.767	0.057	0.069
-421.515	-200.000	0.022	0.107
-420.500	-86.431	0.070	0.021
-419.486	-0.382	0.122	0.087
-418.471	800.000	-0.066	0.201
-417.457	120.885	0.169	0.210
-416.442	-82.170	-0.206	-0.067
-415.428	254.516	0.116	0.198
-414.413	-200.000	-0.018	-0.253
-413.398	349.477	0.067	-0.132
-412.384	75.212	-0.237	0.249
-411.369	200.542	-0.130	0.200
-410.355	-200.000	0.007	0.346
-409.340	-89.601	-0.165	0.048
-408.325	-200.000	0.021	0.201
-407.311	190.636	-0.067	-0.100
-406.296	-113.985	0.091	-0.018
-405.282	180.525	0.090	0.132
-404.267	-31.188	-0.327	-0.184
-403.252	-117.167	0.279	-0.051
-402.238	9.294	-0.244	0.184
-401.223	268.968	-0.140	0.245
-400.209	188.788	-0.072	0.108
-399.194	90.511	0.149	0.166
-398.179	24.260	-0.124	-0.102
-397.165	-183.577	-0.204	-0.003
-396.150	-129.417	-0.205	-0.028
-395.136	-200.000	-0.006	-0.037
-394.121	-100.365	0.083	0.020
-393.106	223.726	0.033	-0.052
-392.092	374.861	-0.058	0.118
-391.077	-200.000	0.026	-0.231
-390.063	-105.540	0.191	-0.043
-389.048	-172.780	0.140	0.004
-388.033	-200.000	-0.052	-0.374
-387.019	-200.000	0.017	-0.158
-386.004	-60.132	0.318	-0.135
-384.990	-92.418	-0.076	0.021
-383.975	-76.738	-0.282	-0.098
-382.960	-121.150	-0.129	-0.021
-381.946	-132.904	-0.190	0.024
-380.931	87.417	0.230	-0.254
-379.917	800.000	0.023	0.074
-378.902	505.030	-0.005	-0.012
-377.888	254.241	-0.172	-0.293
-376.873	245.401	0.034	0.057
-375.858	-73.652	0.200	-0.072
-374.844	737.898	0.079	0.212
-373.829	-102.604	-0.119	0.028
-372.815	-200.000	0.016	-0.335
-371.800	81.796	0.102	-0.110
-370.785	-27.700	-0.440	0.254
-369.771	-1.571	0.077	0.054
-368.756	-200.000	-0.005	-0.081
-367.742	-200.000	-0.070	0.308
-366.727	255.738	0.106	0.181
-365.712	286.024	0.114	-0.205
-364.698	800.000	-0.011	0.035
-363.683	-4.200	-0.034	-0.024
-362.669	196.350	-0.069	0.105
-361.654	78.479	0.042	0.045
-360.639	6.245	-0.197	-0.145
-359.625	800.000	0.049	0.171
-358.610	-131.365	-0.207	-0.027
-357.596	10.154	-0.188	0.142
-356.581	-133.125	0.169	-0.021
-355.566	128.647	0.122	0.154
-354.552	641.208	0.118	0.300
-353.537	-102.656	0.152	-0.036
-352.523	-200.000	0.049	-0.264
-351.508	800.000	-0.100	-0.288
-350.493	-17.968	0.057	0.036
-349.479	483.806	-0.022	0.051
-348.464	800.000	0.085	0.244
-347.450	114.383	0.099	-0.120
-346.435	-171.815	0.038	0.001
-345.420	800.000	-0.150	-0.494
-344.406	800.000	0.071	0.199
-343.391	109.269	0.191	0.227
-342.377	-200.000	-0.031	0.251
-341.362	77.210	0.226	-0.238
-340.348	325.834	-0.028	-0.052
-339.333	-52.098	-0.115	0.053
-338.318	-200.000	-0.023	-0.165
-337.304	5.320	0.128	0.094
-336.289	33.262	-0.384	0.331
-335.275	65.872	0.110	0.111
-334.260	16.339	-0.128	-0.101
-333.245	-146.494	0.467	0.040
-332.231	-200.000	-0.025	0.156
-331.216	258.514	-0.272	0.466
-330.202	-200.000	-0.007	0.298
-329.187	-112.417	0.068	0.013
-328.172	233.806	0.022	0.037
-327.158	-200.000	-0.019	-0.126
-326.143	-68.411	0.272	0.105
-325.129	-100.190	-0.125	-0.031
-324.114	40.882	0.149	0.134
-323.099	-200.000	-0.055	0.318
-322.085	-60.229	0.105	0.044
-321.070	-200.000	0.065	0.572
-320.056	800.000	0.054	0.179
-319.041	800.000	-0.010	-0.038
-318.026	28.365	-0.206	-0.173
-317.012	223.003	0.158	0.254
-315.997	754.536	0.046	-0.124
-314.983	3.696	-0.174	0.126
-313.968	-77.456	0.109	0.037
-312.953	-124.158	-0.124	0.019
-311.939	800.000	-0.064	0.222
-310.924	-119.998	-0.074	-0.013
-309.910	272.179	0.104	0.182
-308.895	43.572	0.403	-0.366
-307.880	197.758	0.158	-0.240
-306.866	356.393	0.039	0.078
-305.851	660.779	-0.135	0.344
-304.837	-36.721	-0.139	-0.074
-303.822	-42.906	0.193	-0.097
-302.807	370.495	-0.057	0.114
-301.793	-200.000	-0.068	0.366
-300.778	-79.477	-0.109	-0.037
-299.764	-56.636	0.282	-0.124
-298.749	-200.000	-0.030	0.201
-297.735	133.216	-0.060	-0.077
-296.720	-127.750	-0.266	-0.038
-295.705	139.139	0.164	0.214
-294.691	-32.241	0.184	-0.102
-293.676	26.774	0.102	0.085
-292.662	-118.817	-0.188	-0.033
-291.647	-200.000	-0.011	-0.211
-290.632	83.383	0.162	0.176
-289.618	-200.000	-0.039	-0.198
-288.603	-11.024	0.083	0.054
-287.589	659.726	-0.052	0.132
-286.574	-146.136	0.018	0.002
-285.559	-72.455	-0.373	0.137
-284.545	755.443	0.065	0.175
-283.530	-200.000	-0.018	-0.517
-282.516	-123.522	0.269	-0.042
-281.501	-84.674	0.267	-0.083
-280.486	800.000	0.055	0.152
-279.472	14.667	-0.357	0.277
-278.457	-193.605	-0.394	0.003
-277.443	800.000	-0.027	-0.094
-276.428	374.672	-0.100	0.202
-275.413	290.486	0.094	0.169
-274.399	-200.000	0.000	0.154
-273.384	64.027	-0.262	0.261
-272.370	800.000	0.099	0.316
-271.355	2.750	0.033	-0.024
-270.340	-200.000	0.064	-0.426
-269.326	-200.000	-0.015	0.072
-268.311	800.000	-0.096	-0.274
-267.297	-200.000	0.020	-0.098
-266.282	-186.330	0.265	0.004
-265.267	-200.000	0.018	-0.192
-264.253	800.000	-0.068	-0.276
-263.238	-123.404	-0.342	-0.054
-262.224	24.613	-0.031	-0.026
-261.209	-58.504	-0.216	-0.093
-260.195	246.330	0.240	0.402
-259.180	-108.627	-0.087	0.018
-258.165	-96.454	-0.001	-0.000
-257.151	-200.000	0.011	-0.361
-256.136	41.129	0.109	0.098
-255.122	-69.512	-0.208	-0.079
-254.107	-88.525	0.148	-0.044
-253.092	74.810	0.392	0.409
-252.078	800.000	0.088	0.302
-251.063	458.876	-0.090	0.198
-250.049	488.896	-0.058	0.131
-249.034	-73.867	0.452	0.163
-248.019	-103.357	-0.265	0.062
-247.005	460.941	0.045	-0.099
-245.990	-115.369	0.304	-0.057
-244.976	-200.000	0.018	-0.173
-243.961	-95.634	0.267	-0.071
-242.946	-90.154	0.303	-0.087
-241.932	800.000	-0.070	-0.224
-240.917	-116.558	0.092	-0.017
-239.903	44.471	-0.166	0.151
-238.888	374.024	-0.026	0.053
-237.873	70.045	-0.255	0.261
-236.859	-35.397	-0.092	-0.049
-235.844	57.757	-0.189	-0.183
-234.830	-165.640	0.088	-0.004
-233.815	13.929	-0.021	-0.016
-232.800	-126.876	0.464	0.068
-231.786	-104.943	-0.309	0.070
-230.771	-19.942	-0.106	-0.065
-229.757	-200.000	0.243	0.001
-228.742	-200.000	-0.081	0.392
-227.727	275.205	0.201	-0.353
-226.713	235.688	-0.072	0.117
-225.698	-200.000	-0.031	-0.325
-224.684	800.000	-0.091	-0.268
-223.669	-167.776	-0.176	-0.007
-222.655	-144.685	-0.185	0.017
-221.640	187.622	-0.131	0.194
-220.625	8.864	-0.201	-0.150
-219.611	520.169	-0.038	-0.089
-218.596	-40.988	-0.240	-0.123
-217.582	-200.000	0.031	0.398
-216.567	800.000	-0.044	-0.182
-215.552	423.531	-0.107	-0.228
-214.538	322.011	0.051	0.096
-213.523	800.000	0.070	0.204
-212.509	55.139	-0.099	-0.095
-211.494	-19.410	-0.128	0.079
-210.479	-44.640	0.145	0.072
-209.465	-200.000	-0.003	-0.296
-208.450	-65.921	0.281	-0.111
-207.436	-200.000	-0.042	0.208
-206.421	102.870	0.127	-0.147
-205.406	116.289	0.011	-0.013
-204.392	-91.048	0.149	0.042
-203.377	606.271	0.126	-0.310
-202.363	257.752	0.063	-0.107
-201.348	-200.000	0.004	0.078
-200.333	140.024	0.102	0.133
-199.319	-129.700	-0.360	-0.049
-198.304	0.269	-0.486	-0.343
-197.290	172.038	0.176	-0.251
-196.275	-104.449	0.405	-0.093
-195.260	-200.000	0.004	-0.029
-194.246	277.517	0.052	0.092
-193.231	-50.186	0.170	-0.080
-192.217	-200.000	0.002	0.464
-191.202	292.559	0.222	0.399
-190.187	800.000	0.087	-0.312
-189.173	800.000	0.094	-0.265
-188.158	178.345	-0.156	-0.225
-187.144	181.130	0.222	0.322
-186.129	23.652	0.201	0.164
-185.114	29.092	-0.190	0.159
-184.100	108.376	-0.062	0.073
-183.085	128.945	-0.185	-0.233
-182.071	-200.000	-0.004	-0.114
-181.056	-149.034	-0.227	-0.018
-180.042	-200.000	0.094	-0.493
-179.027	800.000	0.037	-0.144
-178.012	-56.692	-0.119	-0.052
-176.998	161.406	-0.183	0.253
-175.983	-67.091	-0.115	0.045
-174.969	800.000	-0.117	-0.326
-173.954	244.795	-0.106	0.176
-172.939	562.992	-0.159	0.380
-171.925	25.555	-0.165	-0.136
-170.910	-82.525	0.300	0.096
-169.896	686.851	-0.142	-0.366
-168.881	-102.331	-0.090	-0.021
-167.866	124.051	0.054	0.067
-166.852	11.441	-0.052	-0.040
-165.837	-200.000	-0.007	0.236
-164.823	-200.000	0.006	0.154
-163.808	-97.532	0.343	-0.088
-162.793	-99.654	-0.187	0.046
-161.779	-76.731	-0.292	0.101
-160.764	-82.595	0.377	-0.121
-159.750	-20.015	-0.092	0.056
-158.735	-200.000	0.012	-0.207
-157.720	318.379	0.108	0.202
-156.706	800.000	0.098	-0.344
-155.691	-127.491	0.073	0.010
-154.677	39.403	0.176	-0.155
-153.662	-82.116	0.327	-0.105
-152.647	55.474	0.324	-0.310
-151.633	-39.255	0.168	0.087
-150.618	281.396	0.105	-0.185
-149.604	-106.128	0.216	-0.048
-148.589	64.123	0.195	0.194
-147.574	-200.000	0.021	-0.142
-146.560	-59.871	-0.193	0.081
-145.545	-92.123	-0.207	-0.058
-144.531	-153.536	-0.308	0.021
-143.516	-123.509	-0.204	0.032
-142.502	-200.000	-0.037	-0.244
-141.487	48.877	0.069	-0.064
-140.472	242.286	0.227	0.374
-139.458	227.517	-0.081	-0.129
-138.443	-50.976	0.050	0.023
-137.429	-200.000	-0.033	-0.227
-136.414	-52.141	-0.494	0.226
-135.399	148.336	-0.280	0.373
-134.385	38.743	-0.221	-0.195
-133.370	800.000	0.031	-0.130
-132.356	-38.413	0.181	0.094
-131.341	-96.107	-0.410	-0.108
-130.326	699.068	-0.167	-0.434
-129.312	-75.801	-0.223	0.078
-128.297	535.733	-0.092	0.214
-127.283	-77.377	0.086	0.029
-126.268	138.076	0.157	0.203
-125.253	186.106	-0.127	-0.186
-124.239	238.555	0.090	-0.148
-123.224	-64.705	-0.062	-0.025
-122.210	-200.000	-0.012	-0.067
