DTS Sentinel unit serial number:	SN413079Multiplexer serial number:	ORYXHardware model number:	OX4-SRSoftware version number:	ORYX F/W v4.00 Oryx Data Collector v3.7.2.0data status	okinstallation	princeton_trtdifferential loss correction	single-endedforward channel	channel 1reverse channel	N/Adate	2019/09/17time	09:06:35forward acquisition time	60.00reverse acquisition time	0.00gamma	496.2192k internal	0.2326k external	0.2326temperature offset calibration	0.9961default loss term (dB/km)	0.3790temperature slope calibration	1.0000multiplexer offset coefficient	1.0000multiplexer slope coefficient	1.0000fibre end	0.00T internal ref (°C)	28.19T ext. ref 1 (°C)	0.14T ext. ref 2 (°C)	24.95length (m)	temperature (°C)	Stokes	anti-Stokes-747.200	-118.352	0.061	-0.011
-746.185	-15.855	0.213	0.137
-745.171	-85.497	-0.264	-0.083
-744.156	-200.000	0.004	-0.312
-743.142	-200.000	0.025	0.287
-742.127	118.895	-0.215	0.267
-741.112	695.930	0.084	-0.221
-740.098	83.892	0.132	0.145
-739.083	-32.389	0.092	0.052
-738.069	800.000	-0.083	0.276
-737.054	-78.781	-0.456	-0.157
-736.039	-10.622	-0.304	-0.203
-735.025	56.028	0.292	0.286
-734.010	-16.419	-0.274	0.175
-732.996	25.338	0.132	0.111
-731.981	-78.308	0.255	-0.088
-730.966	-127.637	0.360	0.053
-729.952	800.000	0.110	-0.372
-728.937	-121.830	-0.140	-0.023
-727.923	45.490	0.073	0.068
-726.908	401.749	-0.114	-0.242
-725.894	-172.246	-0.377	-0.012
-724.879	103.580	-0.173	0.205
-723.864	-39.593	0.214	0.113
-722.850	151.937	-0.158	-0.217
-721.835	-200.000	0.008	0.138
-720.821	107.436	0.101	-0.121
-719.806	355.971	-0.180	-0.361
-718.791	-60.216	-0.160	-0.069
-717.777	800.000	0.071	-0.265
-716.762	-200.000	-0.079	-0.384
-715.748	325.352	0.172	-0.332
-714.733	-200.000	-0.021	-0.154
-713.718	-8.382	0.509	-0.345
-712.704	147.468	0.139	-0.188
-711.689	-4.406	0.241	0.168
-710.675	20.794	0.263	0.215
-709.660	-145.612	0.321	0.029
-708.645	800.000	-0.125	0.413
-707.631	-200.000	0.021	0.144
-706.616	-108.723	-0.338	0.073
-705.602	103.784	-0.162	-0.191
-704.587	54.981	0.014	0.013
-703.572	800.000	0.058	-0.166
-702.558	-200.000	0.067	-0.344
-701.543	-25.126	-0.046	0.027
-700.529	-22.235	0.174	-0.106
-699.514	-200.000	0.042	0.208
-698.499	-199.799	-0.236	-0.001
-697.485	127.346	-0.139	0.178
-696.470	-110.970	0.276	-0.057
-695.456	-145.882	0.121	0.011
-694.441	-90.911	0.306	0.089
-693.426	-46.373	-0.088	-0.044
-692.412	308.162	0.059	0.110
-691.397	44.932	-0.299	0.278
-690.383	32.052	0.072	-0.063
-689.368	-69.457	0.030	0.011
-688.354	-200.000	0.023	-0.149
-687.339	398.219	0.033	-0.070
-686.324	311.164	-0.085	-0.159
-685.310	169.783	-0.133	0.191
-684.295	-200.000	-0.008	-0.110
-683.281	649.109	-0.065	-0.168
-682.266	800.000	-0.076	-0.215
-681.251	-200.000	0.015	0.225
-680.237	-5.121	0.118	0.082
-679.222	4.464	0.211	0.156
-678.208	787.647	-0.129	0.356
-677.193	-139.912	0.407	0.043
-676.178	95.426	0.106	-0.121
-675.164	-115.509	0.098	-0.019
-674.149	-114.110	-0.182	-0.035
-673.135	-38.158	0.348	0.186
-672.120	330.815	0.060	0.116
-671.105	-199.304	-0.331	0.002
-670.091	-138.493	0.180	-0.020
-669.076	-200.000	-0.035	-0.405
-668.062	-169.411	-0.052	0.002
-667.047	800.000	0.076	0.301
-666.032	800.000	0.040	-0.148
-665.018	-87.600	0.220	0.067
-664.003	-200.000	0.076	0.668
-662.989	-5.846	-0.105	-0.072
-661.974	-89.537	-0.185	-0.055
-660.959	-174.617	-0.155	0.004
-659.945	18.698	-0.069	-0.056
-658.930	-71.380	0.188	-0.071
-657.916	-200.000	-0.023	-0.166
-656.901	800.000	0.166	0.466
-655.886	-22.034	0.293	0.179
-654.872	-114.219	0.380	-0.074
-653.857	197.581	-0.080	0.123
-652.843	800.000	-0.104	0.388
-651.828	336.986	0.193	0.377
-650.814	-200.000	0.054	0.432
-649.799	277.665	-0.108	0.193
-648.784	109.811	-0.070	-0.085
-647.770	-10.803	-0.141	0.093
-646.755	444.747	0.073	0.160
-645.741	-120.504	-0.521	-0.089
-644.726	232.923	0.187	0.309
-643.711	-200.000	0.025	0.379
-642.697	515.834	0.141	0.331
-641.682	130.157	-0.197	0.253
-640.668	-54.562	-0.162	0.074
-639.653	-140.221	-0.189	-0.020
-638.638	-45.238	-0.137	0.069
-637.624	413.588	0.040	0.086
-636.609	24.714	-0.051	-0.042
-635.595	110.481	0.395	-0.477
-634.580	229.563	-0.228	-0.373
-633.565	674.238	-0.102	-0.266
-632.551	724.796	0.026	-0.070
-631.536	-40.983	0.130	0.068
-630.522	631.261	0.099	-0.251
-629.507	-138.806	-0.278	-0.030
-628.492	-177.603	0.175	0.004
-627.478	-81.588	-0.097	0.032
-626.463	-65.260	-0.322	0.130
-625.449	800.000	-0.039	-0.109
-624.434	-135.316	-0.207	0.025
-623.419	71.870	-0.059	0.061
-622.405	-200.000	0.074	-0.444
-621.390	473.384	-0.101	-0.228
-620.376	-56.464	-0.213	0.095
-619.361	-0.951	0.179	-0.127
-618.346	356.744	-0.183	0.367
-617.332	245.370	0.067	-0.113
-616.317	800.000	0.063	-0.194
-615.303	-200.000	-0.010	0.266
-614.288	-27.818	0.095	-0.056
-613.273	444.011	-0.024	-0.054
-612.259	10.049	-0.175	0.133
-611.244	-55.008	-0.377	0.170
-610.230	-200.000	-0.066	0.308
-609.215	-6.067	-0.194	0.133
-608.201	-62.641	-0.307	0.128
-607.186	800.000	-0.044	0.159
-606.171	32.616	0.160	-0.139
-605.157	-200.000	0.008	0.278
-604.142	-200.000	-0.027	0.152
-603.128	-88.650	0.132	-0.039
-602.113	-10.682	-0.252	0.167
-601.098	72.540	0.063	-0.066
-600.084	23.896	0.316	0.262
-599.069	-57.171	0.107	-0.047
-598.055	-42.831	0.390	-0.199
-597.040	107.113	0.255	-0.303
-596.025	108.051	0.269	-0.322
-595.011	-16.031	-0.198	-0.126
-593.996	117.186	-0.174	-0.214
-592.982	50.766	-0.215	-0.205
-591.967	800.000	-0.051	-0.163
-590.952	-6.426	-0.117	0.080
-589.938	800.000	-0.068	0.253
-588.923	19.048	0.237	0.191
-587.909	-200.000	0.010	-0.065
-586.894	-187.358	-0.285	0.004
-585.879	-66.940	-0.147	0.058
-584.865	3.698	-0.211	-0.154
-583.850	-94.754	-0.077	0.021
-582.836	-113.925	-0.171	-0.033
-581.821	-79.731	0.247	-0.083
-580.806	198.544	0.089	0.137
-579.792	128.574	-0.088	0.112
-578.777	-20.654	-0.137	0.084
-577.763	-15.288	0.094	-0.060
-576.748	35.264	-0.201	0.177
-575.733	800.000	-0.043	-0.120
-574.719	-45.148	-0.101	0.050
-573.704	202.998	0.104	-0.161
-572.690	-64.733	0.103	-0.042
-571.675	557.587	-0.024	0.058
-570.661	526.350	0.103	-0.244
-569.646	-66.426	0.136	0.054
-568.631	-68.432	0.284	-0.110
-567.617	511.085	-0.045	0.106
-566.602	-200.000	-0.029	-0.312
-565.588	-96.028	0.283	-0.075
-564.573	268.400	0.196	-0.345
-563.558	109.050	-0.226	-0.271
-562.544	229.080	0.146	0.239
-561.529	-51.271	-0.015	0.007
-560.515	-158.155	0.038	0.002
-559.500	96.695	-0.247	-0.283
-558.485	95.815	0.115	0.131
-557.471	-144.590	0.180	-0.017
-556.456	-46.735	-0.291	0.143
-555.442	44.564	0.077	0.071
-554.427	800.000	-0.093	-0.336
-553.412	37.275	-0.191	-0.170
-552.398	-15.841	0.268	-0.171
-551.383	301.953	0.195	0.362
-550.369	-143.296	-0.136	0.013
-549.354	-58.262	0.187	-0.081
-548.339	212.110	-0.203	-0.321
-547.325	-13.384	0.292	-0.189
-546.310	44.911	0.039	-0.035
-545.296	64.308	-0.135	0.136
-544.281	-94.807	-0.262	0.071
-543.266	-200.000	-0.013	0.142
-542.252	116.888	0.187	-0.229
-541.237	-158.243	-0.233	0.014
-540.223	-89.337	-0.356	-0.105
-539.208	-200.000	0.028	-0.219
-538.193	345.128	0.093	0.182
-537.179	-189.014	0.137	-0.002
-536.164	557.899	0.101	0.243
-535.150	-200.000	-0.020	-0.163
-534.135	239.173	0.128	-0.214
-533.121	-48.709	0.304	0.146
-532.106	159.458	-0.059	-0.081
-531.091	401.211	-0.026	0.054
-530.077	127.838	-0.187	-0.238
-529.062	189.285	-0.107	-0.160
-528.048	-47.083	0.218	-0.106
-527.033	800.000	-0.043	-0.149
-526.018	-190.564	0.359	-0.004
-525.004	270.379	0.072	-0.127
-523.989	37.159	0.164	-0.145
-522.975	-161.460	0.081	-0.004
-521.960	40.457	-0.035	0.032
-520.945	-200.000	0.011	0.196
-519.931	150.314	0.135	0.183
-518.916	-103.036	-0.263	0.062
-517.902	-117.686	-0.356	0.064
-516.887	-62.736	-0.184	0.076
-515.872	800.000	-0.047	0.151
-514.858	585.380	0.076	0.188
-513.843	-121.063	-0.075	0.013
-512.829	172.603	-0.139	-0.200
-511.814	-145.831	0.227	0.020
-510.799	37.410	0.225	-0.200
-509.785	-156.729	-0.246	-0.015
-508.770	33.439	0.073	0.064
-507.756	599.737	-0.027	-0.068
-506.741	13.740	-0.181	-0.141
-505.726	800.000	-0.130	-0.523
-504.712	-54.299	-0.059	0.027
-503.697	-107.616	-0.413	-0.090
-502.683	210.392	-0.134	-0.210
-501.668	94.076	-0.200	-0.227
-500.653	72.496	0.166	0.173
-499.639	470.008	0.073	-0.165
-498.624	-158.030	-0.053	-0.003
-497.610	-200.000	0.011	-0.106
-496.595	157.003	0.159	0.220
-495.581	65.846	0.136	0.137
-494.566	-115.702	0.562	0.105
-493.551	-200.000	-0.019	0.109
-492.537	59.406	-0.046	0.046
-491.522	-200.000	0.021	0.188
-490.508	800.000	0.067	-0.228
-489.493	800.000	-0.012	0.034
-488.478	-8.904	0.172	0.115
-487.464	-200.000	0.003	0.153
-486.449	-48.655	0.146	-0.070
-485.435	420.798	-0.036	-0.077
-484.420	-129.075	0.348	0.049
-483.405	-200.000	0.001	-0.075
-482.391	15.780	-0.209	-0.164
-481.376	-200.000	0.023	-0.126
-480.362	-35.990	-0.120	-0.065
-479.347	800.000	-0.022	0.082
-478.332	71.656	-0.133	-0.138
-477.318	-200.000	0.041	0.310
-476.303	-200.000	0.036	0.293
-475.289	-200.000	0.058	0.286
-474.274	-114.522	-0.121	0.023
-473.259	-34.536	-0.142	-0.077
-472.245	404.067	0.041	-0.086
-471.230	141.508	-0.026	0.034
-470.216	-146.540	0.378	0.033
-469.201	-200.000	-0.008	0.070
-468.186	-78.197	-0.148	0.051
-467.172	-138.906	0.267	-0.029
-466.157	-185.390	-0.224	-0.003
-465.143	-128.693	-0.127	-0.018
-464.128	-32.808	0.279	-0.155
-463.113	11.594	0.371	-0.283
-462.099	-87.552	-0.094	-0.028
-461.084	48.593	0.263	0.246
-460.070	-89.331	-0.251	0.074
-459.055	-156.746	-0.084	0.005
-458.040	605.851	0.070	0.173
-457.026	-65.067	0.181	-0.073
-456.011	-100.743	0.266	-0.065
-454.997	84.174	0.181	-0.198
-453.982	-63.450	-0.298	0.122
-452.968	174.482	-0.139	-0.200
-451.953	-200.000	0.020	0.196
-450.938	-200.000	-0.038	0.169
-449.924	344.303	0.115	-0.224
-448.909	800.000	0.075	-0.207
-447.895	-178.063	-0.407	0.010
-446.880	-145.309	-0.086	0.008
-445.865	-117.566	-0.194	-0.035
-444.851	73.898	-0.047	0.049
-443.836	118.940	-0.038	0.047
-442.822	-11.025	0.357	0.235
-441.807	170.360	0.061	0.088
-440.792	-188.084	0.198	-0.003
-439.778	-200.000	0.060	0.299
-438.763	-90.151	0.211	0.061
-437.749	62.973	-0.187	0.187
-436.734	-79.127	-0.076	-0.026
-435.719	800.000	0.012	0.046
-434.705	2.100	-0.075	-0.054
-433.690	800.000	-0.068	0.275
-432.676	800.000	-0.009	0.040
-431.661	800.000	0.019	-0.055
-430.646	227.986	0.073	0.119
-429.632	75.299	0.049	0.051
-428.617	-16.912	0.160	-0.101
-427.603	-80.043	-0.511	-0.171
-426.588	-64.635	0.196	0.079
-425.573	133.116	-0.148	-0.191
-424.559	-181.944	-0.258	0.005
-423.544	-200.000	0.002	-0.228
-422.530	455.148	0.015	-0.033
-421.515	800.000	-0.127	-0.438
-420.500	138.190	0.055	0.071
-419.486	-125.619	-0.255	-0.038
-418.471	-200.000	0.002	-0.043
-417.457	800.000	0.054	0.150
-416.442	-24.384	0.273	-0.162
-415.428	-82.616	-0.283	0.091
-414.413	69.439	-0.140	-0.144
-413.398	-42.061	0.199	0.101
-412.384	-108.150	0.202	-0.043
-411.369	-176.054	-0.351	-0.009
-410.355	-59.579	0.121	-0.052
-409.340	800.000	-0.096	0.366
-408.325	-125.361	-0.212	-0.032
-407.311	800.000	0.105	-0.327
-406.296	-93.477	0.201	0.055
-405.282	-144.537	0.098	0.009
-404.267	36.066	0.033	-0.029
-403.252	-144.441	-0.280	-0.026
-402.238	-200.000	0.018	0.159
-401.223	89.021	-0.153	0.169
-400.209	-151.817	-0.138	-0.010
-399.194	-62.699	0.288	-0.119
-398.179	-41.993	0.332	-0.169
-397.165	-200.000	0.028	0.329
-396.150	0.243	0.024	0.017
-395.136	691.118	0.134	-0.349
-394.121	-200.000	0.036	0.162
-393.106	71.134	-0.161	0.166
-392.092	-52.858	-0.335	-0.153
-391.077	-200.000	-0.028	-0.237
-390.063	-106.357	0.252	-0.056
-389.048	188.552	0.135	-0.201
-388.033	467.316	0.034	0.076
-387.019	-73.875	0.250	-0.090
-386.004	800.000	0.081	0.260
-384.990	382.025	0.081	0.165
-383.975	592.485	0.063	-0.155
-382.960	-200.000	0.012	0.112
-381.946	342.374	-0.123	0.240
-380.931	-152.916	0.258	-0.018
-379.917	-99.548	-0.076	-0.019
-378.902	-200.000	0.018	-0.138
-377.888	-185.764	-0.160	-0.002
-376.873	201.496	0.073	-0.112
-375.858	331.772	-0.085	0.163
-374.844	647.764	0.082	0.209
-373.829	-200.000	-0.104	-0.492
-372.815	76.508	-0.061	0.064
-371.800	181.362	0.180	0.262
-370.785	83.872	0.040	0.043
-369.771	800.000	-0.023	-0.089
-368.756	-200.000	0.033	-0.572
-367.742	-79.167	0.160	-0.054
-366.727	-45.979	0.134	-0.066
-365.712	-15.343	-0.108	0.068
-364.698	-125.760	0.377	-0.057
-363.683	323.013	0.120	-0.228
-362.669	-89.945	0.453	-0.131
-361.654	247.410	-0.177	0.297
-360.639	-110.706	-0.254	0.052
-359.625	-53.981	-0.174	-0.079
-358.610	-200.000	-0.027	-0.162
-357.596	99.561	-0.139	-0.160
-356.581	-200.000	-0.009	0.047
-355.566	-92.994	0.208	-0.058
-354.552	-200.000	0.021	-0.099
-353.537	73.712	0.097	-0.100
-352.523	-1.933	0.228	-0.159
-351.508	67.221	-0.260	0.264
-350.493	-156.822	0.112	-0.007
-349.479	-200.000	0.022	0.237
-348.464	-34.295	-0.533	0.290
-347.450	-71.433	0.113	-0.042
-346.435	185.750	-0.049	-0.072
-345.420	163.485	0.072	0.101
-344.406	-111.916	-0.065	-0.013
-343.391	-68.485	-0.011	-0.004
-342.377	-160.282	0.025	0.001
-341.362	210.846	0.063	0.099
-340.348	-42.287	0.112	0.057
-339.333	367.615	0.203	0.407
-338.318	800.000	0.055	-0.199
-337.304	42.718	-0.251	-0.227
-336.289	0.617	-0.234	-0.166
-335.275	8.299	0.101	-0.076
-334.260	47.601	0.047	0.043
-333.245	566.582	0.077	0.186
-332.231	-4.105	-0.265	0.182
-331.216	-200.000	0.017	0.106
-330.202	800.000	-0.053	-0.210
-329.187	-65.294	-0.357	0.143
-328.172	580.993	0.062	-0.150
-327.158	794.710	0.144	0.392
-326.143	-13.276	-0.200	-0.129
-325.129	70.673	-0.236	0.243
-324.114	-170.977	-0.027	-0.001
-323.099	98.207	-0.037	0.042
-322.085	-43.202	-0.273	-0.137
-321.070	-140.289	-0.081	0.008
-320.056	83.882	-0.029	0.031
-319.041	90.247	0.158	0.175
-318.026	-16.175	-0.189	0.119
-317.012	308.533	0.051	0.095
-315.997	-200.000	0.011	0.156
-314.983	-40.872	0.160	0.082
-313.968	-169.004	-0.065	-0.002
-312.953	-200.000	-0.012	-0.093
-311.939	-96.094	-0.150	0.039
-310.924	20.938	-0.041	-0.033
-309.910	90.705	0.159	0.176
-308.895	800.000	-0.015	0.064
-307.880	800.000	0.039	0.113
-306.866	-200.000	-0.058	-0.397
-305.851	-200.000	0.023	-0.330
-304.837	138.378	0.075	0.097
-303.822	-23.914	0.271	0.161
-302.807	-83.722	0.202	-0.064
-301.793	69.712	-0.553	-0.565
-300.778	104.746	-0.112	0.130
-299.764	-29.375	0.311	0.176
-298.749	-200.000	0.031	0.158
-297.735	23.048	0.070	-0.057
-296.720	9.511	0.070	-0.053
-295.705	-57.476	-0.186	0.081
-294.691	136.825	0.153	-0.198
-293.676	-110.251	0.030	-0.006
-292.662	-200.000	0.017	-0.143
-291.647	4.229	0.105	-0.076
-290.632	-155.775	-0.283	0.018
-289.618	-149.845	-0.055	0.004
-288.603	-200.000	-0.044	0.200
-287.589	800.000	-0.045	0.185
-286.574	75.197	0.162	0.169
-285.559	-200.000	0.046	0.263
-284.545	24.676	-0.340	-0.279
-283.530	145.497	0.126	0.167
-282.516	-150.585	0.147	0.011
-281.501	-122.849	-0.169	0.027
-280.486	21.178	-0.106	-0.086
-279.472	-125.805	-0.095	-0.014
-278.457	626.307	-0.078	0.195
-277.443	-200.000	-0.011	-0.269
-276.428	123.453	0.106	0.131
-275.413	771.165	0.076	0.206
-274.399	45.463	0.129	0.118
-273.384	-38.234	-0.126	0.066
-272.370	800.000	0.103	-0.378
-271.355	331.417	-0.070	0.133
-270.340	-41.831	0.205	0.104
-269.326	-200.000	0.000	0.102
-268.311	-200.000	-0.005	0.177
-267.297	342.751	-0.081	0.156
-266.282	800.000	0.072	-0.223
-265.267	800.000	0.105	0.290
-264.253	7.849	-0.082	-0.061
-263.238	30.865	-0.097	0.083
-262.224	354.983	0.117	0.230
-261.209	382.228	-0.032	0.065
-260.195	521.731	0.080	-0.186
-259.180	80.833	0.244	0.260
-258.165	-119.968	-0.038	0.007
-257.151	-200.000	-0.049	0.256
-256.136	-83.579	-0.159	-0.050
-255.122	-145.279	-0.115	-0.010
-254.107	302.859	0.140	0.257
-253.092	-200.000	-0.004	-0.280
-252.078	-102.353	0.311	0.074
-251.063	583.234	-0.077	-0.188
-250.049	97.197	-0.338	-0.384
-249.034	285.069	0.251	-0.448
-248.019	29.845	-0.103	-0.087
-247.005	98.644	-0.114	-0.130
-245.990	-9.359	-0.371	-0.245
-244.976	-200.000	0.030	-0.404
-243.961	-57.245	-0.371	-0.162
-242.946	-196.749	-0.382	0.003
-241.932	575.075	0.107	-0.259
-240.917	94.762	-0.088	0.099
-239.903	-115.233	0.182	0.034
-238.888	20.472	-0.083	-0.067
-237.873	50.761	0.192	-0.180
-236.859	800.000	0.032	-0.122
-235.844	269.758	0.120	0.209
-234.830	497.666	-0.084	0.191
-233.815	399.072	-0.168	0.348
-232.800	578.781	0.059	-0.144
-231.786	-4.809	0.110	-0.075
-230.771	-200.000	-0.014	-0.222
-229.757	-82.755	0.254	-0.081
-228.742	159.276	-0.116	-0.160
-227.727	269.180	-0.086	0.149
-226.713	-200.000	-0.037	-0.193
-225.698	26.954	0.280	-0.232
-224.684	70.834	-0.021	-0.022
-223.669	-34.196	0.155	0.084
-222.655	78.916	0.151	0.160
-221.640	6.645	0.255	0.187
-220.625	96.876	-0.071	0.080
-219.611	5.634	0.155	-0.113
-218.596	70.511	0.073	0.075
-217.582	-123.218	-0.325	0.051
-216.567	-59.125	-0.347	0.148
-215.552	3.716	0.100	-0.072
-214.538	-200.000	0.046	0.257
-213.523	-200.000	0.038	-0.216
-212.509	-108.565	0.442	0.094
-211.494	-200.000	-0.030	0.230
-210.479	-200.000	0.053	0.247
-209.465	232.010	0.109	-0.177
-208.450	-174.609	-0.338	-0.010
-207.436	-200.000	-0.037	-0.269
-206.421	-200.000	-0.024	0.320
-205.406	136.422	-0.074	0.095
-204.392	106.583	-0.035	0.041
-203.377	32.079	-0.027	-0.023
-202.363	-163.075	0.208	0.010
-201.348	227.999	0.121	0.195
-200.333	45.516	-0.272	0.248
-199.319	21.303	-0.169	0.136
-198.304	345.332	0.076	-0.148
-197.290	-200.000	-0.034	0.239
-196.275	-2.082	0.270	0.187
-195.260	-24.356	-0.143	0.084
-194.246	-119.265	0.319	0.055
-193.231	-200.000	-0.006	0.249
-192.217	177.768	0.183	0.264
-191.202	189.968	-0.058	0.086
-190.187	-200.000	0.042	-0.325
-189.173	-54.788	-0.238	0.106
-188.158	149.366	0.267	0.357
-187.144	177.255	-0.099	-0.142
-186.129	-90.109	0.184	0.053
-185.114	49.836	0.123	0.114
-184.100	-168.180	0.116	0.004
-183.085	-127.923	0.149	-0.021
-182.071	-200.000	-0.050	-0.420
-181.056	-20.690	-0.256	-0.155
-180.042	48.308	-0.064	0.059
-179.027	602.233	-0.016	-0.039
-178.012	-47.061	-0.144	0.069
-176.998	-130.067	0.280	-0.038
-175.983	242.420	0.117	-0.192
-174.969	800.000	0.017	-0.059
-173.954	-61.661	0.221	0.092
-172.939	-86.545	0.391	-0.118
-171.925	-56.775	-0.324	-0.141
-170.910	-134.121	-0.574	0.070
-169.896	18.214	0.079	-0.063
-168.881	-200.000	0.051	-0.265
-167.866	-200.000	-0.027	-0.242
-166.852	-34.469	-0.047	0.025
-165.837	-21.676	0.178	-0.107
-164.823	800.000	-0.016	0.060
-163.808	-172.007	0.482	0.015
-162.793	494.453	0.074	0.168
-161.779	-182.037	0.192	-0.004
-160.764	289.799	-0.043	0.077
-159.750	311.895	0.037	0.068
-158.735	800.000	0.052	0.168
-157.720	75.896	-0.092	0.095
-156.706	-39.034	0.242	-0.125
-155.691	-41.327	-0.169	0.086
-154.677	-60.414	-0.228	0.096
-153.662	800.000	0.092	0.254
-152.647	-200.000	0.026	0.150
-151.633	55.327	0.223	0.213
-150.618	-200.000	0.039	0.280
-149.604	669.754	0.092	0.234
-148.589	-19.029	0.163	0.100
-147.574	-200.000	0.454	-0.002
-146.560	800.000	0.068	-0.283
-145.545	-73.742	0.227	-0.081
-144.531	1.970	0.410	-0.292
-143.516	-93.980	0.031	-0.008
-142.502	-200.000	-0.070	0.461
-141.487	-115.477	0.225	0.042
-140.472	13.175	-0.308	0.235
-139.458	-200.000	0.017	0.148
-138.443	-97.241	0.274	-0.071
-137.429	763.531	-0.184	-0.493
-136.414	-33.209	0.277	0.151
-135.399	237.621	0.087	-0.142
-134.385	-175.615	0.201	-0.005
-133.370	38.127	0.216	0.190
-132.356	-200.000	0.018	-0.173
-131.341	-59.915	-0.040	0.017
-130.326	-65.980	0.507	0.199
-129.312	210.706	-0.030	0.047
-128.297	-124.453	0.213	0.033
-127.283	-71.402	0.598	-0.220
-126.268	-133.719	-0.052	0.006
-125.253	-200.000	0.000	0.060
-124.239	-200.000	0.009	0.134
-123.224	800.000	-0.053	0.210
-122.210	-92.905	0.040	-0.011
-121.195	-184.334	0.421	0.007
-120.180	-200.000	0.062	0.614
