DTS Sentinel unit serial number:	SN413079Multiplexer serial number:	ORYXHardware model number:	OX4-SRSoftware version number:	ORYX F/W v4.00 Oryx Data Collector v3.7.2.0data status	okinstallation	princeton_trtdifferential loss correction	single-endedforward channel	channel 1reverse channel	N/Adate	2019/09/15time	19:06:35forward acquisition time	60.00reverse acquisition time	0.00gamma	496.2192k internal	0.2293k external	0.2293temperature offset calibration	0.9951default loss term (dB/km)	0.3790temperature slope calibration	1.0000multiplexer offset coefficient	1.0000multiplexer slope coefficient	1.0000fibre end	0.00T internal ref (°C)	41.45T ext. ref 1 (°C)	7.07T ext. ref 2 (°C)	30.88length (m)	temperature (°C)	Stokes	anti-Stokes-747.200	-131.046	0.296	0.040
-746.185	134.361	-0.195	0.259
-745.171	-7.139	0.146	-0.102
-744.156	-107.690	-0.207	0.046
-743.142	334.862	0.053	0.105
-742.127	687.647	-0.128	0.342
-741.112	4.638	0.436	0.328
-740.098	-77.196	-0.091	0.033
-739.083	-137.186	0.251	0.029
-738.069	-6.898	0.137	0.095
-737.054	-95.650	0.371	0.101
-736.039	-64.804	-0.371	0.153
-735.025	-200.000	0.016	-0.086
-734.010	-69.754	0.204	0.080
-732.996	-81.978	0.356	0.119
-731.981	800.000	-0.027	0.099
-730.966	110.875	-0.096	0.118
-729.952	-138.120	0.209	0.024
-728.937	-38.578	0.250	0.135
-727.923	-200.000	0.002	-0.135
-726.908	129.908	-0.104	-0.136
-725.894	-4.467	0.309	0.218
-724.879	112.292	-0.128	-0.159
-723.864	-59.863	-0.403	-0.176
-722.850	-154.620	-0.191	-0.013
-721.835	-61.965	-0.175	0.075
-720.821	-73.921	-0.272	-0.101
-719.806	193.067	-0.185	-0.287
-718.791	93.515	0.118	-0.137
-717.777	-0.530	0.133	0.096
-716.762	278.094	0.057	0.104
-715.748	88.032	0.181	-0.206
-714.733	-200.000	0.006	-0.145
-713.718	394.098	-0.042	0.090
-712.704	-153.641	-0.311	-0.022
-711.689	37.077	-0.146	0.132
-710.675	-200.000	0.066	0.000
-709.660	-144.179	-0.289	-0.028
-708.645	-200.000	-0.016	0.079
-707.631	-200.000	-0.022	0.135
-706.616	244.733	-0.132	-0.226
-705.602	-200.000	0.028	-0.217
-704.587	53.691	0.082	-0.081
-703.572	776.738	-0.084	-0.234
-702.558	396.572	-0.103	0.219
-701.543	-176.925	0.276	-0.007
-700.529	-200.000	0.018	0.169
-699.514	-16.181	0.047	-0.031
-698.499	462.269	-0.156	0.356
-697.485	14.041	-0.193	-0.153
-696.470	-59.773	0.059	0.026
-695.456	-131.530	0.051	0.007
-694.441	-200.000	0.034	0.302
-693.426	188.399	0.067	-0.103
-692.412	0.670	-0.010	-0.007
-691.397	-171.586	0.250	-0.008
-690.383	-77.119	0.423	-0.151
-689.368	-98.338	-0.083	0.022
-688.354	86.822	0.057	0.064
-687.339	80.690	-0.260	-0.286
-686.324	89.232	-0.009	-0.010
-685.310	-9.561	-0.142	-0.096
-684.295	-10.938	0.508	-0.342
-683.281	85.375	-0.186	0.208
-682.266	-3.718	-0.014	-0.010
-681.251	508.639	-0.092	-0.219
-680.237	17.154	-0.197	-0.159
-679.222	-163.561	0.282	-0.014
-678.208	14.759	0.176	0.141
-677.193	216.470	0.097	0.157
-676.178	79.038	0.168	0.184
-675.164	99.723	-0.190	0.224
-674.149	164.272	0.096	-0.139
-673.135	19.796	-0.208	0.171
-672.120	142.111	-0.036	-0.049
-671.105	-59.675	0.149	-0.065
-670.091	-157.403	-0.026	-0.002
-669.076	187.223	0.235	0.357
-668.062	-83.416	-0.275	0.090
-667.047	247.780	0.024	0.042
-666.032	799.235	-0.078	0.221
-665.018	800.000	-0.114	0.398
-664.003	25.175	0.117	0.099
-662.989	-50.951	-0.136	-0.065
-661.974	92.836	0.210	0.242
-660.959	-200.000	0.011	-0.163
-659.945	-110.430	-0.079	0.017
-658.930	800.000	0.011	0.035
-657.916	673.188	0.110	-0.291
-656.901	-61.143	0.050	-0.022
-655.886	-55.405	-0.180	0.082
-654.872	-162.623	-0.181	0.009
-653.857	186.621	-0.105	-0.159
-652.843	9.200	-0.093	0.071
-651.828	-128.335	0.095	-0.014
-650.814	-26.000	-0.184	-0.110
-649.799	-57.316	-0.160	0.072
-648.784	-94.732	0.320	-0.089
-647.770	110.132	-0.154	-0.189
-646.755	589.409	0.065	-0.163
-645.741	-101.476	-0.421	-0.104
-644.726	-8.612	0.172	-0.117
-643.711	238.178	-0.131	0.222
-642.697	800.000	-0.074	0.243
-641.682	116.539	0.172	0.216
-640.668	-200.000	-0.002	-0.053
-639.653	-159.332	0.288	-0.016
-638.638	84.211	-0.019	-0.021
-637.624	-190.466	-0.099	0.001
-636.609	-200.000	0.019	0.183
-635.595	-142.246	0.137	-0.014
-634.580	-124.326	-0.438	-0.070
-633.565	-12.237	-0.359	0.239
-632.551	-165.411	0.166	-0.007
-631.536	-44.469	0.149	0.076
-630.522	-176.556	-0.492	-0.013
-629.507	57.525	0.298	-0.296
-628.492	176.958	-0.185	0.274
-627.478	103.114	0.219	-0.261
-626.463	298.631	0.086	0.162
-625.449	581.662	-0.086	0.215
-624.434	-84.545	0.125	0.040
-623.419	106.064	0.127	-0.153
-622.405	82.115	-0.014	-0.015
-621.390	66.651	-0.198	0.205
-620.376	-125.581	-0.255	-0.039
-619.361	-61.622	0.059	0.025
-618.346	-131.155	0.214	-0.029
-617.332	172.908	0.106	-0.155
-616.317	-94.638	0.230	-0.064
-615.303	-112.265	-0.258	-0.053
-614.288	-6.394	0.223	0.155
-613.273	2.902	-0.136	-0.100
-612.259	-98.256	-0.268	0.070
-611.244	-53.323	-0.056	-0.026
-610.230	14.467	0.081	0.065
-609.215	183.597	0.099	-0.149
-608.201	-178.157	0.335	0.008
-607.186	-195.919	0.322	-0.002
-606.171	96.795	0.152	-0.177
-605.157	165.944	-0.061	0.088
-604.142	-26.345	-0.232	-0.139
-603.128	-200.000	-0.066	-0.312
-602.113	266.854	-0.160	0.285
-601.098	34.447	-0.239	0.213
-600.084	109.579	0.132	-0.160
-599.069	-200.000	0.036	-0.391
-598.055	159.109	-0.089	0.125
-597.040	78.355	-0.141	0.153
-596.025	5.120	-0.229	0.171
-595.011	106.126	0.164	-0.198
-593.996	-71.571	-0.445	0.169
-592.982	104.184	0.095	0.113
-591.967	84.097	-0.144	0.160
-590.952	51.866	-0.153	-0.148
-589.938	-200.000	0.022	-0.206
-588.923	123.109	-0.154	0.196
-587.909	-200.000	0.016	-0.224
-586.894	-135.819	0.118	-0.014
-585.879	-61.665	0.113	-0.048
-584.865	51.790	0.063	-0.061
-583.850	180.118	-0.182	-0.271
-582.836	-200.000	-0.025	-0.191
-581.821	800.000	-0.056	-0.229
-580.806	-200.000	0.029	0.296
-579.792	274.130	0.039	0.071
-578.777	-25.134	-0.070	-0.042
-577.763	-66.848	0.167	-0.067
-576.748	65.012	0.213	-0.219
-575.733	-27.973	0.130	0.077
-574.719	-67.943	0.267	-0.106
-573.704	800.000	-0.085	0.320
-572.690	800.000	0.086	0.357
-571.675	-12.576	-0.386	-0.256
-570.661	800.000	-0.036	0.112
-569.646	270.694	0.100	-0.179
-568.631	-22.563	-0.199	-0.122
-567.617	-108.547	-0.155	-0.034
-566.602	-18.317	-0.197	-0.125
-565.588	-15.049	-0.211	0.137
-564.573	52.346	0.048	0.047
-563.558	40.244	-0.190	0.173
-562.544	-28.169	0.257	-0.151
-561.529	189.074	0.132	0.201
-560.515	-200.000	-0.005	-0.031
-559.500	117.891	-0.146	-0.182
-558.485	10.566	0.270	-0.209
-557.471	54.665	0.455	-0.445
-556.456	-54.803	0.202	0.093
-555.442	-169.269	-0.610	-0.023
-554.427	-111.572	-0.186	-0.038
-553.412	134.227	-0.151	0.198
-552.398	-20.365	0.416	-0.260
-551.383	-119.685	0.112	-0.020
-550.369	-125.732	0.160	0.025
-549.354	548.375	-0.205	0.499
-548.339	-78.581	-0.290	-0.101
-547.325	-61.532	0.399	0.170
-546.310	-56.486	-0.083	-0.037
-545.296	169.003	-0.059	0.085
-544.281	115.952	0.112	0.139
-543.266	-200.000	-0.023	-0.185
-542.252	-169.100	-0.072	0.003
-541.237	-57.098	0.171	0.077
-540.223	25.900	0.143	0.121
-539.208	-200.000	0.006	-0.174
-538.193	-157.208	0.076	-0.005
-537.179	-26.581	0.330	-0.196
-536.164	75.453	-0.079	0.084
-535.150	-200.000	-0.019	0.236
-534.135	227.806	-0.083	0.138
-533.121	800.000	0.095	0.327
-532.106	800.000	-0.063	0.188
-531.091	-27.432	-0.459	0.271
-530.077	-200.000	-0.009	-0.116
-529.062	162.149	0.062	-0.089
-528.048	128.930	-0.038	0.049
-527.033	-64.521	0.219	-0.090
-526.018	800.000	-0.023	-0.103
-525.004	-128.697	0.132	0.019
-523.989	-11.783	-0.166	0.110
-522.975	-157.338	-0.259	-0.016
-521.960	448.971	-0.041	0.092
-520.945	-200.000	0.050	-0.304
-519.931	70.825	0.213	0.224
-518.916	-87.043	0.039	-0.012
-517.902	-98.350	0.136	-0.035
-516.887	-170.913	-0.171	-0.006
-515.872	-200.000	-0.001	-0.261
-514.858	0.299	0.173	0.125
-513.843	-138.326	0.345	0.039
-512.829	-72.084	-0.222	-0.083
-511.814	29.692	0.187	-0.162
-510.799	13.346	-0.200	0.158
-509.785	800.000	0.042	-0.140
-508.770	-61.369	-0.174	0.074
-507.756	-20.841	0.033	0.020
-506.741	-48.226	0.307	-0.150
-505.726	-104.694	-0.517	0.121
-504.712	-11.449	-0.011	0.007
-503.697	-103.682	-0.084	-0.020
-502.683	-32.587	0.219	-0.124
-501.668	25.234	0.282	-0.238
-500.653	-130.253	0.272	-0.038
-499.639	-52.825	-0.265	0.124
-498.624	-200.000	-0.008	-0.145
-497.610	51.987	0.394	-0.380
-496.595	-200.000	-0.021	-0.111
-495.581	-145.305	-0.311	-0.028
-494.566	-83.496	-0.152	-0.049
-493.551	77.438	0.216	-0.233
-492.537	-108.313	-0.126	-0.027
-491.522	-48.758	-0.093	-0.045
-490.508	-145.634	0.153	0.014
-489.493	137.271	-0.130	-0.172
-488.478	209.995	0.115	-0.183
-487.464	-49.853	-0.171	0.082
-486.449	-140.930	0.248	-0.026
-485.435	789.174	-0.046	-0.127
-484.420	-13.485	-0.314	-0.206
-483.405	800.000	0.092	-0.286
-482.391	-62.728	-0.315	-0.132
-481.376	-101.771	0.224	-0.055
-480.362	432.373	0.147	0.322
-479.347	-87.781	-0.133	-0.040
-478.332	-200.000	0.050	-0.453
-477.318	-82.732	0.243	0.079
-476.303	149.068	0.287	0.393
-475.289	-200.000	-0.046	-0.210
-474.274	317.558	-0.111	-0.212
-473.259	-34.321	0.098	0.055
-472.245	-200.000	-0.035	-0.208
-471.230	85.643	-0.173	0.192
-470.216	-200.000	-0.024	0.661
-469.201	98.647	-0.327	0.382
-468.186	502.152	-0.001	0.002
-467.172	-180.816	-0.183	0.004
-466.157	-170.037	0.017	0.001
-465.143	356.424	-0.041	-0.083
-464.128	254.751	0.102	-0.176
-463.113	227.559	0.166	0.273
-462.099	-200.000	0.014	0.104
-461.084	101.430	-0.235	-0.277
-460.070	102.577	0.074	0.087
-459.055	5.421	-0.331	-0.247
-458.040	-154.052	-0.257	0.018
-457.026	-124.194	0.227	0.036
-456.011	-74.094	0.064	0.023
-454.997	800.000	-0.072	-0.225
-453.982	-21.438	0.069	0.043
-452.968	-82.359	0.306	-0.101
-451.953	800.000	-0.013	-0.048
-450.938	103.019	0.147	-0.174
-449.924	45.879	-0.247	-0.231
-448.909	-55.963	0.028	0.013
-447.895	1.024	-0.095	-0.069
-446.880	800.000	0.065	0.263
-445.865	-200.000	-0.002	-0.343
-444.851	800.000	-0.074	-0.302
-443.836	-134.197	0.219	0.027
-442.822	330.730	0.069	-0.134
-441.807	-60.056	-0.129	-0.056
-440.792	196.709	-0.061	-0.094
-439.778	-161.968	-0.102	0.005
-438.763	213.834	-0.156	-0.250
-437.749	-119.121	0.361	-0.064
-436.734	73.977	-0.165	-0.175
-435.719	136.250	0.096	-0.126
-434.705	-87.397	0.180	0.055
-433.690	221.888	0.141	0.229
-432.676	-200.000	0.060	0.371
-431.661	-8.684	0.205	0.139
-430.646	-200.000	0.000	-0.199
-429.632	-132.356	0.228	0.030
-428.617	244.840	-0.178	0.303
-427.603	679.982	0.124	-0.325
-426.588	800.000	-0.046	0.187
-425.573	59.065	-0.287	-0.285
-424.559	360.033	-0.084	-0.170
-423.544	-34.220	-0.259	0.144
-422.530	-73.254	0.089	-0.033
-421.515	-20.598	-0.137	-0.085
-420.500	94.627	-0.236	0.271
-419.486	438.420	0.081	-0.179
-418.471	-67.817	-0.156	-0.062
-417.457	800.000	-0.062	-0.173
-416.442	285.629	0.085	-0.154
-415.428	800.000	0.030	-0.113
-414.413	-15.154	-0.223	-0.144
-413.398	-12.430	-0.128	0.084
-412.384	-81.696	-0.365	0.121
-411.369	-85.740	0.191	-0.060
-410.355	15.584	0.159	-0.126
-409.340	309.977	-0.109	-0.207
-408.325	-200.000	-0.064	0.297
-407.311	211.249	-0.022	0.036
-406.296	-87.876	0.415	0.126
-405.282	-18.420	-0.181	-0.114
-404.267	-117.978	0.243	0.044
-403.252	-55.643	0.057	-0.026
-402.238	317.281	-0.173	-0.331
-401.223	-73.198	-0.094	0.035
-400.209	800.000	-0.045	-0.185
-399.194	-91.560	0.240	0.069
-398.179	-82.957	-0.200	0.065
-397.165	-117.991	0.190	0.034
-396.150	271.568	-0.125	-0.222
-395.136	-52.675	-0.297	0.138
-394.121	218.770	-0.138	-0.223
-393.106	-35.179	0.231	-0.127
-392.092	-200.000	-0.025	-0.210
-391.077	-200.000	-0.078	0.399
-390.063	-200.000	0.021	-0.179
-389.048	133.587	0.163	-0.213
-388.033	800.000	0.099	0.376
-387.019	-78.619	-0.117	0.040
-386.004	-200.000	0.014	-0.084
-384.990	-129.616	-0.409	0.057
-383.975	50.585	0.146	-0.139
-382.960	-72.353	0.223	0.083
-381.946	-83.367	0.163	-0.053
-380.931	681.573	-0.099	-0.260
-379.917	-82.703	-0.270	-0.088
-378.902	16.380	-0.250	0.199
-377.888	230.371	0.063	0.104
-376.873	-128.703	0.289	0.041
-375.858	21.491	0.146	-0.120
-374.844	-54.546	0.340	-0.155
-373.829	-123.243	0.177	-0.029
-372.815	800.000	-0.152	0.436
-371.800	-200.000	-0.003	0.497
-370.785	800.000	-0.101	0.396
-369.771	84.324	-0.097	0.107
-368.756	-167.322	-0.098	-0.004
-367.742	-200.000	-0.006	-0.261
-366.727	122.572	-0.062	0.078
-365.712	434.799	-0.045	0.099
-364.698	718.091	0.047	-0.126
-363.683	-200.000	-0.006	0.153
-362.669	-32.765	-0.120	-0.067
-361.654	-200.000	0.062	0.493
-360.639	-200.000	-0.045	0.218
-359.625	190.117	0.037	0.056
-358.610	-22.969	0.381	0.232
-357.596	-200.000	0.011	0.148
-356.581	126.141	-0.225	0.286
-355.566	-171.144	-0.206	0.007
-354.552	77.645	-0.164	-0.176
-353.537	697.029	0.107	0.283
-352.523	13.119	0.157	-0.123
-351.508	87.068	0.167	-0.186
-350.493	800.000	0.051	-0.146
-349.479	778.219	0.089	0.245
-348.464	-95.255	0.092	0.025
-347.450	-6.249	-0.259	0.178
-346.435	-11.998	-0.292	0.193
-345.420	277.553	-0.074	0.133
-344.406	-159.649	-0.258	-0.014
-343.391	-147.589	0.081	0.007
-342.377	-162.300	0.293	-0.015
-341.362	-200.000	0.040	0.287
-340.348	228.181	-0.103	0.169
-339.333	-200.000	-0.028	-0.134
-338.318	398.913	0.034	0.071
-337.304	800.000	0.135	0.474
-336.289	261.238	-0.070	-0.122
-335.275	21.316	0.081	-0.066
-334.260	800.000	-0.101	-0.307
-333.245	588.578	0.100	-0.247
-332.231	-131.206	-0.364	-0.049
-331.216	-142.947	-0.276	-0.027
-330.202	471.135	-0.079	0.179
-329.187	800.000	0.043	-0.129
-328.172	-143.911	0.116	-0.011
-327.158	800.000	0.045	-0.165
-326.143	-200.000	0.040	0.420
-325.129	-200.000	0.037	0.267
-324.114	134.554	0.078	0.102
-323.099	-200.000	0.008	0.191
-322.085	335.289	0.113	0.220
-321.070	-200.000	-0.037	-0.294
-320.056	-132.595	0.099	-0.013
-319.041	-200.000	0.092	0.431
-318.026	-115.956	-0.315	-0.059
-317.012	90.621	-0.097	-0.110
-315.997	-181.289	0.253	-0.005
-314.983	-200.000	-0.036	0.180
-313.968	165.418	-0.158	-0.224
-312.953	55.844	-0.153	0.149
-311.939	52.636	0.067	0.065
-310.924	-162.029	-0.253	0.013
-309.910	232.823	-0.005	-0.008
-308.895	169.250	-0.043	0.062
-307.880	800.000	0.047	0.133
-306.866	-127.517	-0.420	-0.061
-305.851	135.640	0.091	0.119
-304.837	800.000	0.033	-0.129
-303.822	-147.845	-0.311	0.026
-302.807	-65.163	0.460	0.186
-301.793	-200.000	-0.045	-0.318
-300.778	-7.780	0.105	0.071
-299.764	800.000	-0.060	-0.193
-298.749	-200.000	-0.005	0.141
-297.735	-75.396	-0.380	-0.136
-296.720	-200.000	0.059	-0.268
-295.705	-48.736	0.195	0.094
-294.691	-1.165	-0.004	0.003
-293.676	-200.000	0.016	-0.152
-292.662	-129.319	-0.272	-0.038
-291.647	-200.000	-0.002	-0.208
-290.632	-200.000	-0.013	-0.062
-289.618	-200.000	0.056	-0.262
-288.603	-140.062	0.070	-0.007
-287.589	-48.579	0.297	-0.144
-286.574	-200.000	-0.017	0.224
-285.559	-200.000	0.001	-0.235
-284.545	-8.934	-0.297	0.200
-283.530	-91.628	-0.148	-0.042
-282.516	-155.408	0.275	-0.018
-281.501	34.909	0.119	0.105
-280.486	80.271	0.127	-0.137
-279.472	225.028	0.060	0.098
-278.457	-101.467	0.225	0.055
-277.443	471.616	-0.058	0.131
-276.428	350.690	0.129	0.255
-275.413	591.400	0.058	-0.145
-274.399	103.917	-0.239	-0.282
-273.384	-153.891	0.207	-0.014
-272.370	-56.672	0.190	0.085
-271.355	-200.000	0.050	-0.300
-270.340	-96.459	-0.237	-0.063
-269.326	-200.000	0.058	0.489
-268.311	132.245	0.087	-0.113
-267.297	-51.098	-0.135	0.064
-266.282	-200.000	-0.010	-0.079
-265.267	-200.000	-0.033	0.188
-264.253	800.000	-0.106	0.347
-263.238	-200.000	0.025	0.149
-262.224	-200.000	-0.068	-0.410
-261.209	282.658	-0.055	-0.099
-260.195	58.298	-0.047	-0.046
-259.180	-200.000	-0.077	0.450
-258.165	800.000	0.082	0.265
-257.151	433.515	0.133	-0.289
-256.136	0.024	0.353	0.252
-255.122	170.783	0.160	0.230
-254.107	-139.094	0.403	0.044
-253.092	112.593	0.203	0.247
-252.078	-200.000	-0.047	0.243
-251.063	-158.616	0.265	0.015
-250.049	-200.000	0.002	0.209
-249.034	500.990	0.078	0.181
-248.019	-69.692	-0.066	0.025
-247.005	-90.686	-0.124	-0.036
-245.990	800.000	-0.041	0.143
-244.976	48.552	0.193	0.181
-243.961	-123.434	-0.331	0.053
-242.946	-200.000	-0.050	0.227
-241.932	800.000	0.028	-0.093
-240.917	-102.517	0.130	-0.031
-239.903	20.307	-0.192	0.156
-238.888	-108.053	0.297	0.065
-237.873	39.624	-0.299	-0.269
-236.859	-58.466	-0.227	0.099
-235.844	-40.544	0.159	-0.083
-234.830	65.328	-0.144	0.146
-233.815	177.224	0.031	0.045
-232.800	18.556	0.066	-0.053
-231.786	59.724	-0.255	-0.252
-230.771	-110.342	-0.157	-0.033
-229.757	-185.052	-0.154	0.002
-228.742	17.111	0.276	-0.219
-227.727	-200.000	-0.048	0.258
-226.713	-75.113	-0.099	-0.035
-225.698	-200.000	0.005	-0.157
-224.684	800.000	0.037	0.123
-223.669	154.539	-0.100	0.138
-222.655	544.963	0.092	0.219
-221.640	-77.964	-0.248	-0.086
-220.625	267.329	-0.065	0.113
-219.611	-80.938	0.288	0.096
-218.596	-72.155	-0.183	0.068
-217.582	-22.167	-0.263	-0.160
-216.567	221.307	0.093	0.149
-215.552	21.870	0.234	0.191
-214.538	-82.223	-0.049	0.016
-213.523	53.764	-0.217	-0.208
-212.509	41.103	0.249	0.225
-211.494	12.284	-0.185	0.143
-210.479	-35.528	-0.006	-0.003
-209.465	-200.000	-0.002	-0.142
-208.450	140.527	-0.104	-0.138
-207.436	129.148	-0.134	-0.172
-206.421	-200.000	-0.029	-0.136
-205.406	800.000	-0.058	0.248
-204.392	-85.096	-0.248	-0.078
-203.377	-200.000	-0.056	-0.260
-202.363	-200.000	0.022	0.220
-201.348	-155.093	-0.117	-0.008
-200.333	377.076	0.076	0.156
-199.319	124.729	0.217	0.274
-198.304	800.000	-0.061	-0.219
-197.290	-200.000	0.002	-0.312
-196.275	28.850	-0.358	-0.304
-195.260	32.273	0.223	-0.193
-194.246	-8.605	0.324	-0.218
-193.231	-200.000	0.020	-0.260
-192.217	65.074	-0.060	-0.061
-191.202	160.026	0.056	0.079
-190.187	8.779	0.185	0.140
-189.173	-79.513	0.088	0.030
-188.158	-9.433	-0.166	-0.111
-187.144	120.730	0.195	0.243
-186.129	-200.000	-0.027	-0.219
-185.114	-142.277	0.094	-0.009
-184.100	-200.000	0.073	-0.522
-183.085	-48.449	0.343	0.165
-182.071	120.914	0.191	0.238
-181.056	40.835	0.139	0.126
-180.042	-50.060	0.288	-0.137
-179.027	-200.000	0.006	-0.248
-178.012	17.354	0.224	0.178
-176.998	-148.406	0.484	-0.040
-175.983	-103.393	-0.215	0.051
-174.969	800.000	0.122	0.418
-173.954	-117.740	-0.043	-0.008
-172.939	-14.330	0.160	0.103
-171.925	-175.670	0.082	-0.002
-170.910	-152.138	-0.199	0.014
-169.896	-100.225	-0.180	0.045
-168.881	188.692	-0.050	0.075
-167.866	-200.000	0.003	0.014
-166.852	-131.133	0.281	0.037
-165.837	-105.644	-0.028	-0.006
-164.823	16.036	-0.155	-0.122
-163.808	-200.000	0.073	-0.343
-162.793	-10.603	-0.098	-0.065
-161.779	-200.000	0.033	0.187
-160.764	202.828	-0.065	-0.101
-159.750	490.552	-0.029	-0.067
-158.735	123.636	-0.167	0.209
-157.720	-63.422	-0.101	-0.041
-156.706	800.000	0.103	0.441
-155.691	30.193	0.282	-0.241
-154.677	-200.000	-0.049	-0.385
-153.662	80.118	0.036	0.039
-152.647	170.807	0.114	-0.163
-151.633	141.472	0.179	-0.237
-150.618	-100.413	-0.381	-0.094
-149.604	84.034	-0.262	-0.286
-148.589	-200.000	0.033	0.159
-147.574	740.798	-0.044	0.118
-146.560	-71.257	0.303	-0.114
-145.545	-200.000	0.064	0.332
-144.531	-30.042	-0.362	0.206
-143.516	800.000	-0.030	-0.121
-142.502	88.753	0.084	-0.094
-141.487	-200.000	0.032	0.199
-140.472	800.000	-0.053	-0.191
-139.458	203.336	-0.044	0.068
-138.443	-200.000	-0.053	0.311
-137.429	442.737	-0.058	-0.126
-136.414	-4.234	-0.252	0.174
-135.399	47.760	0.186	0.174
-134.385	800.000	-0.073	0.265
-133.370	-120.667	-0.106	-0.018
-132.356	-200.000	-0.051	0.294
-131.341	-16.747	0.124	0.078
-130.326	-98.729	0.136	-0.035
-129.312	371.046	-0.051	0.103
-128.297	-200.000	-0.073	-0.341
-127.283	463.989	0.049	-0.110
-126.268	23.663	0.080	-0.066
-125.253	368.485	-0.167	-0.337
-124.239	800.000	0.067	0.185
-123.224	170.009	0.133	-0.189
-122.210	-145.148	-0.155	0.014
