DTS Sentinel unit serial number:	SN413079Multiplexer serial number:	ORYXHardware model number:	OX4-SRSoftware version number:	ORYX F/W v4.00 Oryx Data Collector v3.7.2.0data status	okinstallation	princeton_trtdifferential loss correction	single-endedforward channel	channel 1reverse channel	N/Adate	2019/09/18time	10:58:35forward acquisition time	60.00reverse acquisition time	0.00gamma	496.2192k internal	0.2326k external	0.2326temperature offset calibration	0.9974default loss term (dB/km)	0.3790temperature slope calibration	1.0000multiplexer offset coefficient	1.0000multiplexer slope coefficient	1.0000fibre end	0.00T internal ref (°C)	29.25T ext. ref 1 (°C)	0.39T ext. ref 2 (°C)	25.65length (m)	temperature (°C)	Stokes	anti-Stokes-747.200	27.385	-0.258	-0.218
-746.185	800.000	-0.183	0.564
-745.171	-68.584	0.153	0.060
-744.156	259.759	0.166	0.289
-743.142	-19.391	0.498	-0.311
-742.127	-16.801	-0.208	0.132
-741.112	-33.867	-0.197	-0.109
-740.098	-76.992	-0.160	0.056
-739.083	-69.931	-0.311	0.120
-738.069	-65.363	0.304	-0.123
-737.054	-119.834	-0.190	0.033
-736.039	557.764	-0.032	-0.077
-735.025	-200.000	-0.016	0.421
-734.010	189.664	-0.174	-0.263
-732.996	284.824	-0.061	0.110
-731.981	14.595	0.374	0.294
-730.966	-61.981	-0.090	-0.038
-729.952	800.000	0.034	-0.149
-728.937	518.830	0.191	0.451
-727.923	-200.000	-0.002	-0.164
-726.908	-86.178	-0.376	-0.117
-725.894	-110.421	-0.162	0.034
-724.879	-25.826	0.387	0.230
-723.864	-42.222	-0.032	-0.017
-722.850	800.000	0.059	-0.173
-721.835	-200.000	0.058	-0.323
-720.821	-14.300	0.241	-0.157
-719.806	22.231	-0.118	-0.097
-718.791	-169.576	-0.102	-0.004
-717.777	800.000	-0.080	-0.306
-716.762	5.634	-0.165	-0.123
-715.748	-200.000	0.003	-0.083
-714.733	290.596	0.023	-0.042
-713.718	-200.000	-0.009	0.155
-712.704	211.772	-0.215	-0.341
-711.689	800.000	-0.086	-0.357
-710.675	26.384	0.239	-0.201
-709.660	-54.591	0.321	-0.146
-708.645	-3.542	-0.322	-0.225
-707.631	-24.701	-0.518	0.310
-706.616	-127.811	-0.050	-0.007
-705.602	314.754	-0.115	-0.219
-704.587	-15.463	-0.140	0.090
-703.572	650.814	-0.031	-0.079
-702.558	270.981	0.096	-0.170
-701.543	70.956	-0.095	-0.099
-700.529	-126.230	0.089	0.013
-699.514	-32.651	-0.346	-0.194
-698.499	121.419	0.172	-0.216
-697.485	-200.000	-0.029	-0.142
-696.470	-110.854	0.151	0.031
-695.456	248.140	0.233	-0.397
-694.441	-29.483	-0.175	-0.101
-693.426	-200.000	-0.035	0.222
-692.412	-41.322	-0.074	0.039
-691.397	-8.287	0.459	0.311
-690.383	500.749	0.044	-0.101
-689.368	-200.000	-0.013	0.314
-688.354	-200.000	-0.012	0.217
-687.339	-101.254	0.146	0.036
-686.324	-122.921	-0.454	-0.074
-685.310	477.984	-0.061	-0.139
-684.295	119.316	-0.151	-0.188
-683.281	94.715	0.200	-0.229
-682.266	36.744	-0.238	0.211
-681.251	-178.845	0.279	-0.006
-680.237	-86.566	-0.087	0.027
-679.222	-30.737	0.483	-0.275
-678.208	-84.099	-0.299	-0.096
-677.193	-8.186	0.287	0.195
-676.178	-16.518	-0.313	0.199
-675.164	-130.015	0.134	0.018
-674.149	-200.000	0.025	-0.125
-673.135	-66.898	0.113	0.045
-672.120	368.259	-0.094	-0.192
-671.105	-128.702	-0.154	-0.022
-670.091	-200.000	-0.018	-0.156
-669.076	-77.502	0.017	-0.006
-668.062	-143.481	-0.556	0.053
-667.047	2.580	-0.195	-0.142
-666.032	-71.077	-0.255	0.096
-665.018	800.000	-0.047	0.142
-664.003	369.431	0.124	0.252
-662.989	442.245	-0.086	-0.190
-661.974	-174.840	-0.171	0.005
-660.959	-108.183	-0.246	-0.054
-659.945	318.462	0.126	0.240
-658.930	-152.021	0.128	0.009
-657.916	800.000	0.041	-0.137
-656.901	93.454	-0.131	-0.149
-655.886	12.262	-0.144	-0.111
-654.872	91.901	-0.163	0.184
-653.857	57.406	-0.083	-0.081
-652.843	-68.974	-0.273	-0.106
-651.828	800.000	-0.046	-0.155
-650.814	124.930	-0.162	-0.205
-649.799	-19.203	-0.209	0.131
-648.784	800.000	0.061	0.206
-647.770	-114.423	-0.258	0.050
-646.755	800.000	0.162	-0.508
-645.741	47.168	-0.103	0.096
-644.726	800.000	-0.057	0.174
-643.711	697.117	0.063	0.166
-642.697	16.151	-0.040	0.031
-641.682	-136.471	0.223	0.026
-640.668	-200.000	0.004	0.139
-639.653	-129.695	0.134	-0.019
-638.638	800.000	-0.047	0.189
-637.624	176.441	0.101	0.147
-636.609	-36.667	0.378	0.204
-635.595	800.000	-0.052	0.222
-634.580	391.144	-0.032	0.066
-633.565	353.920	-0.129	-0.257
-632.551	25.401	0.079	0.066
-631.536	-200.000	0.030	0.180
-630.522	163.181	-0.059	-0.084
-629.507	-200.000	0.032	-0.237
-628.492	761.938	-0.020	-0.055
-627.478	6.669	-0.280	-0.209
-626.463	-105.498	0.322	0.073
-625.449	800.000	-0.079	0.292
-624.434	-58.999	0.132	-0.057
-623.419	-114.592	0.518	-0.100
-622.405	-149.181	-0.233	-0.019
-621.390	-115.331	0.170	0.032
-620.376	-45.657	-0.157	-0.078
-619.361	-82.239	-0.158	0.052
-618.346	750.034	0.084	-0.227
-617.332	179.783	0.060	0.089
-616.317	213.553	0.141	0.223
-615.303	-95.520	-0.213	-0.057
-614.288	376.948	-0.157	-0.321
-613.273	-200.000	0.011	0.209
-612.259	348.201	0.061	0.120
-611.244	108.706	-0.168	0.201
-610.230	-200.000	-0.082	0.378
-609.215	-59.303	-0.166	-0.072
-608.201	-139.571	0.357	-0.038
-607.186	800.000	-0.010	-0.029
-606.171	800.000	0.039	-0.134
-605.157	800.000	0.102	-0.358
-604.142	18.000	0.094	-0.075
-603.128	-200.000	-0.042	-0.233
-602.113	-89.384	0.214	-0.063
-601.098	-200.000	0.065	0.307
-600.084	-35.417	0.176	0.096
-599.069	800.000	0.017	-0.058
-598.055	-100.582	0.059	-0.015
-597.040	-45.441	-0.135	0.067
-596.025	21.213	0.249	-0.202
-595.011	478.358	-0.203	-0.462
-593.996	468.154	-0.108	-0.244
-592.982	175.414	-0.213	0.310
-591.967	69.835	0.372	-0.385
-590.952	-200.000	0.021	0.112
-589.938	-134.695	-0.058	-0.007
-588.923	-62.255	-0.105	-0.044
-587.909	800.000	-0.040	-0.141
-586.894	-68.440	0.081	0.031
-585.879	-113.053	0.495	-0.098
-584.865	-200.000	-0.022	-0.181
-583.850	730.871	0.094	0.253
-582.836	118.107	-0.026	-0.032
-581.821	800.000	-0.023	-0.083
-580.806	-143.654	-0.181	-0.017
-579.792	-60.674	0.128	0.054
-578.777	-138.359	0.165	-0.018
-577.763	-47.268	-0.299	0.146
-576.748	147.195	-0.176	-0.238
-575.733	-20.511	-0.246	-0.151
-574.719	800.000	-0.030	0.085
-573.704	-184.743	0.102	0.002
-572.690	-57.656	0.050	-0.022
-571.675	-107.925	-0.144	0.031
-570.661	54.141	-0.352	-0.339
-569.646	64.513	-0.071	0.072
-568.631	131.332	-0.118	0.152
-567.617	241.892	-0.087	0.146
-566.602	800.000	0.108	0.453
-565.588	157.457	-0.130	0.181
-564.573	-200.000	0.050	0.237
-563.558	-7.125	-0.144	-0.098
-562.544	-82.095	0.340	0.111
-561.529	343.730	-0.095	-0.187
-560.515	-200.000	-0.163	0.000
-559.500	276.212	0.035	0.063
-558.485	-30.773	-0.150	-0.085
-557.471	800.000	-0.096	-0.273
-556.456	-57.020	0.279	0.123
-555.442	318.086	-0.137	-0.259
-554.427	142.800	-0.131	0.174
-553.412	-37.244	-0.195	-0.104
-552.398	30.796	0.268	-0.229
-551.383	-43.148	-0.153	-0.077
-550.369	172.071	-0.065	-0.093
-549.354	-56.458	-0.180	-0.080
-548.339	21.798	0.193	-0.158
-547.325	65.936	-0.065	0.066
-546.310	368.807	-0.057	0.115
-545.296	-84.608	0.275	0.087
-544.281	77.298	0.249	0.265
-543.266	-124.562	-0.353	-0.055
-542.252	-171.728	0.120	0.004
-541.237	-200.000	-0.074	0.414
-540.223	-79.622	0.271	0.091
-539.208	-29.027	0.240	-0.138
-538.193	-56.606	0.329	-0.146
-537.179	-200.000	0.036	-0.301
-536.164	-28.055	0.141	0.082
-535.150	151.911	0.171	0.233
-534.135	-200.000	0.024	-0.229
-533.121	-57.066	0.258	0.114
-532.106	130.934	-0.110	0.141
-531.091	687.619	-0.035	0.091
-530.077	-200.000	-0.013	-0.190
-529.062	800.000	-0.034	0.133
-528.048	800.000	0.071	0.211
-527.033	-89.797	-0.170	0.050
-526.018	-0.729	0.077	-0.054
-525.004	-130.193	-0.210	0.029
-523.989	263.828	0.064	-0.111
-522.975	800.000	0.088	-0.254
-521.960	116.719	-0.123	-0.151
-520.945	39.934	0.076	0.068
-519.931	-200.000	-0.004	0.023
-518.916	-36.245	-0.360	0.194
-517.902	260.154	0.072	0.124
-516.887	-200.000	0.043	-0.256
-515.872	-31.603	-0.315	0.177
-514.858	800.000	-0.064	-0.205
-513.843	375.174	-0.092	-0.187
-512.829	545.216	0.125	0.300
-511.814	451.125	-0.053	-0.117
-510.799	70.807	0.217	0.224
-509.785	-152.377	-0.374	-0.027
-508.770	527.376	0.139	0.328
-507.756	137.791	0.183	0.239
-506.741	575.729	-0.222	0.541
-505.726	-200.000	-0.006	0.029
-504.712	38.465	-0.277	0.247
-503.697	-156.059	-0.191	-0.012
-502.683	248.040	0.086	0.146
-501.668	-200.000	-0.007	-0.146
-500.653	71.325	-0.136	-0.141
-499.639	259.879	-0.081	-0.139
-498.624	373.347	-0.176	0.357
-497.610	-10.533	0.175	0.116
-496.595	-200.000	0.012	0.216
-495.581	495.378	0.033	-0.075
-494.566	60.959	0.057	0.057
-493.551	-75.458	-0.196	0.070
-492.537	383.484	-0.092	-0.189
-491.522	-176.905	0.549	-0.014
-490.508	158.965	-0.110	0.153
-489.493	-200.000	-0.017	-0.144
-488.478	620.178	-0.114	0.286
-487.464	-138.080	-0.120	0.013
-486.449	20.275	0.243	0.196
-485.435	113.937	-0.206	-0.251
-484.420	122.363	-0.120	-0.149
-483.405	127.522	-0.037	-0.047
-482.391	-200.000	0.004	0.026
-481.376	-200.000	-0.021	-0.093
-480.362	-146.009	-0.155	0.014
-479.347	-126.743	-0.348	-0.051
-478.332	800.000	0.089	-0.322
-477.318	800.000	0.068	-0.247
-476.303	-97.740	0.252	-0.065
-475.289	-151.919	-0.137	-0.010
-474.274	10.720	0.206	0.157
-473.259	-110.092	-0.283	-0.059
-472.245	-69.031	-0.199	0.076
-471.230	458.089	-0.114	-0.252
-470.216	-200.000	-0.046	-0.256
-469.201	800.000	0.056	-0.192
-468.186	-200.000	-0.016	0.089
-467.172	-34.872	-0.265	0.144
-466.157	-7.648	0.239	0.161
-465.143	-155.150	-0.242	-0.016
-464.128	-146.943	-0.274	-0.023
-463.113	-71.814	-0.319	-0.119
-462.099	-31.137	-0.149	0.084
-461.084	397.082	-0.094	0.195
-460.070	506.642	-0.115	-0.267
-459.055	491.352	0.019	0.044
-458.040	-31.416	0.245	-0.138
-457.026	589.953	0.104	0.256
-456.011	-163.565	-0.101	0.005
-454.997	-200.000	0.027	-0.418
-453.982	67.708	0.106	-0.108
-452.968	-159.011	-0.290	-0.016
-451.953	756.900	-0.111	-0.299
-450.938	399.607	0.148	0.310
-449.924	376.355	-0.034	-0.070
-448.909	392.898	-0.115	0.239
-447.895	1.583	0.148	0.106
-446.880	224.989	-0.178	-0.288
-445.865	-130.016	-0.242	0.033
-444.851	-200.000	0.026	0.356
-443.836	554.397	-0.023	-0.055
-442.822	-62.781	-0.186	-0.077
-441.807	169.811	-0.153	-0.217
-440.792	-144.248	-0.090	0.008
-439.778	72.392	0.363	0.377
-438.763	-200.000	-0.045	0.368
-437.749	800.000	0.108	-0.327
-436.734	-200.000	0.041	-0.424
-435.719	-200.000	0.037	-0.320
-434.705	-62.988	0.043	0.018
-433.690	286.904	0.070	0.127
-432.676	75.036	-0.256	-0.268
-431.661	-130.076	-0.332	0.045
-430.646	-171.335	-0.273	-0.009
-429.632	-59.082	-0.115	-0.049
-428.617	-46.947	0.487	-0.237
-427.603	-53.305	0.116	0.053
-426.588	154.145	0.137	-0.187
-425.573	-108.243	-0.307	-0.066
-424.559	125.434	0.093	0.117
-423.544	-194.671	-0.038	0.000
-422.530	-91.620	0.235	0.067
-421.515	96.115	-0.234	-0.266
-420.500	-165.210	0.313	0.014
-419.486	357.446	0.226	0.448
-418.471	0.245	-0.119	0.085
-417.457	535.271	0.013	0.031
-416.442	-200.000	-0.058	0.440
-415.428	-125.771	-0.172	0.026
-414.413	-99.539	-0.230	-0.058
-413.398	-200.000	-0.022	-0.137
-412.384	-26.004	-0.240	0.141
-411.369	79.832	0.067	0.072
-410.355	-200.000	0.002	-0.451
-409.340	800.000	-0.003	-0.011
-408.325	571.130	0.124	0.300
-407.311	-200.000	0.005	0.108
-406.296	-200.000	-0.011	-0.250
-405.282	800.000	-0.048	0.153
-404.267	66.348	0.096	-0.097
-403.252	-113.565	-0.363	0.071
-402.238	-200.000	0.006	0.139
-401.223	-200.000	0.010	-0.215
-400.209	-21.339	0.124	-0.076
-399.194	-56.758	0.147	0.065
-398.179	800.000	0.067	0.277
-397.165	336.105	0.051	0.099
-396.150	671.477	-0.097	-0.251
-395.136	-46.136	-0.427	-0.209
-394.121	-118.503	0.204	0.036
-393.106	142.364	0.368	0.486
-392.092	223.775	-0.158	-0.254
-391.077	24.738	0.087	0.072
-390.063	-171.729	0.174	-0.006
-389.048	-65.554	-0.351	0.140
-388.033	-124.594	-0.138	0.021
-387.019	-38.307	-0.285	-0.150
-386.004	-200.000	0.039	0.201
-384.990	390.548	0.087	-0.180
-383.975	105.801	-0.013	0.015
-382.960	74.365	-0.313	-0.327
-381.946	-4.152	0.199	-0.137
-380.931	-9.162	0.197	0.131
-379.917	207.778	-0.070	-0.109
-378.902	535.660	0.166	-0.391
-377.888	449.742	0.113	0.247
-376.873	146.757	-0.221	0.295
-375.858	800.000	-0.108	0.303
-374.844	-200.000	-0.002	-0.331
-373.829	21.131	-0.186	-0.150
-372.815	-200.000	0.008	0.042
-371.800	-42.580	0.073	0.037
-370.785	-92.890	0.151	0.042
-369.771	195.113	0.106	-0.160
-368.756	-77.732	0.233	0.080
-367.742	370.516	0.118	0.237
-366.727	-200.000	0.001	0.074
-365.712	61.108	-0.082	-0.081
-364.698	241.120	-0.197	-0.327
-363.683	-70.153	0.188	-0.071
-362.669	-200.000	-0.065	0.296
-361.654	-24.898	-0.298	-0.176
-360.639	-64.218	0.104	0.042
-359.625	614.801	-0.023	0.058
-358.610	-84.651	-0.365	-0.114
-357.596	-200.000	0.003	-0.242
-356.581	-63.928	0.160	0.065
-355.566	262.969	-0.009	-0.015
-354.552	-112.940	0.265	-0.052
-353.537	-200.000	-0.029	-0.218
-352.523	55.269	0.099	-0.095
-351.508	192.541	-0.166	0.249
-350.493	-67.224	-0.049	0.019
-349.479	-200.000	-0.030	-0.261
-348.464	-91.153	-0.197	-0.056
-347.450	-30.110	0.386	0.218
-346.435	-58.805	0.223	-0.096
-345.420	128.445	0.113	-0.143
-344.406	57.277	-0.203	-0.197
-343.391	517.553	0.021	0.049
-342.377	86.068	0.106	-0.116
-341.362	-200.000	-0.150	0.000
-340.348	-147.620	0.204	0.017
-339.333	44.881	0.393	-0.359
-338.318	-96.609	-0.228	-0.060
-337.304	-45.483	0.126	0.062
-336.289	316.827	0.066	-0.123
-335.275	-200.000	0.005	0.028
-334.260	-200.000	-0.008	0.265
-333.245	-35.007	0.079	0.043
-332.231	-33.370	0.433	-0.238
-331.216	79.100	0.130	-0.138
-330.202	-81.832	0.110	-0.036
-329.187	136.011	-0.199	-0.257
-328.172	40.776	0.099	-0.089
-327.158	137.202	0.278	0.361
-326.143	-90.681	-0.105	-0.030
-325.129	-53.807	0.126	-0.057
-324.114	64.676	-0.151	0.151
-323.099	-11.882	-0.425	0.276
-322.085	105.965	-0.097	0.114
-321.070	-76.120	-0.256	-0.090
-320.056	-200.000	-0.002	-0.185
-319.041	420.317	0.050	0.107
-318.026	-128.954	-0.382	-0.053
-317.012	-53.467	0.307	-0.140
-315.997	-73.679	0.037	0.013
-314.983	65.955	0.270	0.272
-313.968	-44.332	-0.218	-0.108
-312.953	800.000	0.066	-0.255
-311.939	800.000	0.063	-0.216
-310.924	65.416	-0.026	-0.026
-309.910	-61.992	0.143	0.059
-308.895	67.393	0.052	-0.052
-307.880	638.588	0.059	0.149
-306.866	-200.000	-0.053	-0.252
-305.851	748.819	0.056	0.150
-304.837	-29.463	0.140	0.079
-303.822	800.000	-0.031	-0.090
-302.807	90.239	0.321	-0.356
-301.793	42.141	0.124	-0.112
-300.778	82.101	0.181	0.194
-299.764	-139.705	-0.459	0.048
-298.749	481.030	-0.114	-0.257
-297.735	-200.000	-0.080	-0.420
-296.720	-33.011	-0.223	-0.123
-295.705	39.424	-0.135	0.120
-294.691	732.398	-0.055	-0.146
-293.676	7.019	0.028	-0.021
-292.662	-46.769	0.224	-0.109
-291.647	393.588	0.064	0.132
-290.632	14.228	-0.158	-0.122
-289.618	-154.225	0.344	-0.023
-288.603	213.659	0.079	-0.124
-287.589	-97.798	-0.249	-0.064
-286.574	-142.418	0.534	0.052
-285.559	327.428	-0.074	0.140
-284.545	800.000	0.137	0.487
-283.530	800.000	-0.105	0.336
-282.516	-20.125	-0.178	0.108
-281.501	154.589	0.066	-0.090
-280.486	800.000	-0.035	-0.106
-279.472	-200.000	-0.004	-0.133
-278.457	247.986	-0.099	0.165
-277.443	264.381	0.106	-0.183
-276.428	-148.955	-0.449	0.036
-275.413	-200.000	-0.019	0.240
-274.399	305.188	0.169	0.311
-273.384	-200.000	0.000	0.223
-272.370	-3.538	-0.360	0.248
-271.355	235.259	-0.206	0.337
-270.340	-9.389	0.282	0.186
-269.326	31.118	-0.265	-0.225
-268.311	-200.000	0.008	0.211
-267.297	233.854	-0.139	-0.226
-266.282	112.842	-0.254	-0.304
-265.267	5.285	-0.249	0.182
-264.253	137.584	0.086	-0.112
-263.238	282.061	-0.061	-0.108
-262.224	21.334	0.112	0.090
-261.209	-200.000	0.078	0.497
-260.195	506.251	-0.075	0.173
-259.180	800.000	-0.080	-0.245
-258.165	800.000	-0.055	0.192
-257.151	-104.548	0.221	-0.051
-256.136	163.964	-0.123	-0.171
-255.122	-146.375	0.256	0.022
-254.107	-200.000	-0.021	-0.182
-253.092	-83.796	0.159	-0.050
-252.078	241.806	-0.124	0.205
-251.063	-200.000	0.016	0.373
-250.049	-38.269	0.185	0.097
-249.034	-42.533	-0.047	-0.023
-248.019	800.000	0.078	-0.260
-247.005	500.063	0.037	-0.085
-245.990	568.220	0.087	-0.208
-244.976	399.463	-0.089	0.184
-243.961	117.622	0.098	-0.119
-242.946	-86.366	0.227	0.069
-241.932	91.799	-0.245	-0.273
-240.917	-200.000	0.020	-0.189
-239.903	-106.340	0.298	0.066
-238.888	800.000	0.091	0.325
-237.873	-127.507	-0.169	-0.024
-236.859	-48.068	-0.112	-0.053
-235.844	-200.000	0.007	0.101
-234.830	-79.258	-0.242	0.081
-233.815	800.000	-0.093	0.258
-232.800	-10.899	0.277	-0.181
-231.786	-200.000	-0.044	0.205
-230.771	703.126	0.107	-0.278
-229.757	-200.000	-0.047	0.412
-228.742	287.768	0.213	0.381
-227.727	250.760	-0.102	0.171
-226.713	-200.000	-0.034	0.178
-225.698	-36.433	-0.080	-0.043
-224.684	-200.000	-0.047	-0.280
-223.669	-158.265	0.354	0.020
-222.655	-106.429	-0.128	0.028
-221.640	-200.000	0.011	-0.143
-220.625	725.230	0.022	0.059
-219.611	-40.576	-0.336	-0.172
-218.596	7.882	-0.197	-0.146
-217.582	532.109	-0.023	0.053
-216.567	-96.683	0.141	-0.037
-215.552	259.863	0.071	-0.122
-214.538	800.000	0.069	0.216
-213.523	-102.694	-0.156	0.037
-212.509	125.335	0.058	-0.073
-211.494	291.053	0.090	-0.162
-210.479	125.605	-0.152	-0.190
-209.465	237.528	-0.067	0.110
-208.450	800.000	0.081	0.247
-207.436	-200.000	0.015	-0.243
-206.421	432.825	-0.095	-0.203
-205.406	2.913	0.346	0.248
-204.392	-28.859	0.263	-0.149
-203.377	-185.246	0.152	0.002
-202.363	-200.000	-0.009	-0.100
-201.348	41.079	0.115	-0.103
-200.333	-200.000	-0.011	0.355
-199.319	800.000	0.029	0.099
-198.304	-62.593	0.344	-0.141
-197.290	800.000	0.067	-0.186
-196.275	-56.068	0.139	-0.061
-195.260	100.178	0.252	-0.289
-194.246	-140.368	-0.228	-0.023
-193.231	-54.833	-0.097	-0.043
-192.217	-82.090	0.129	0.042
-191.202	-16.251	-0.212	0.133
-190.187	-124.345	-0.312	0.048
-189.173	273.677	0.144	0.250
-188.158	-21.849	0.234	-0.141
-187.144	-161.365	-0.274	-0.014
-186.129	800.000	0.040	-0.123
-185.114	-77.101	0.147	-0.051
-184.100	-200.000	0.002	-0.037
-183.085	50.872	0.042	0.039
-182.071	336.674	0.023	0.044
-181.056	-200.000	-0.002	0.032
-180.042	43.988	0.188	0.170
-179.027	602.712	0.023	-0.056
-178.012	800.000	-0.088	-0.288
-176.998	-200.000	-0.001	0.110
-175.983	172.093	-0.106	-0.150
-174.969	306.457	0.024	0.044
-173.954	-57.345	-0.317	0.138
-172.939	123.445	0.076	0.093
-171.925	-200.000	0.011	-0.061
-170.910	-41.318	-0.024	0.012
-169.896	5.813	0.124	0.090
-168.881	-72.514	0.342	0.125
-167.866	246.941	-0.098	-0.163
-166.852	-116.179	0.066	-0.012
-165.837	104.741	0.273	0.317
-164.823	-200.000	0.044	0.475
-163.808	-1.853	0.256	0.177
-162.793	-60.693	-0.194	-0.081
-161.779	-132.947	0.401	0.050
-160.764	254.389	-0.157	0.264
-159.750	8.395	0.107	-0.080
-158.735	-200.000	0.037	0.255
-157.720	165.151	-0.153	-0.214
-156.706	-60.323	0.134	-0.056
-155.691	14.647	0.140	0.108
-154.677	800.000	-0.040	-0.123
-153.662	393.333	-0.041	-0.084
-152.647	223.515	0.172	-0.273
-151.633	800.000	0.062	-0.193
-150.618	-200.000	0.008	-0.271
-149.604	230.981	-0.061	-0.098
-148.589	-25.360	0.171	0.099
-147.574	-2.645	-0.061	-0.042
-146.560	-68.427	0.420	0.161
-145.545	-200.000	-0.025	0.176
-144.531	-121.349	0.084	-0.014
-143.516	800.000	0.041	-0.134
-142.502	-131.670	-0.042	-0.005
-141.487	-119.246	0.051	-0.009
-140.472	-12.137	-0.186	-0.120
-139.458	121.738	0.076	0.093
-138.443	-12.958	0.217	-0.139
-137.429	800.000	0.153	-0.496
-136.414	-184.377	0.086	-0.001
-135.399	107.570	-0.169	0.198
-134.385	33.232	0.299	-0.255
-133.370	615.541	0.072	0.177
-132.356	-200.000	-0.001	0.135
-131.341	-81.939	-0.089	0.029
-130.326	-133.149	0.320	0.040
-129.312	59.754	-0.107	0.104
-128.297	224.214	0.026	-0.042
-127.283	577.823	-0.028	-0.068
-126.268	325.864	0.195	0.367
-125.253	-30.841	-0.152	0.085
-124.239	47.298	0.019	-0.018
-123.224	-63.395	0.018	-0.007
-122.210	202.799	-0.034	-0.052
