DTS Sentinel unit serial number:	SN413079Multiplexer serial number:	ORYXHardware model number:	OX4-SRSoftware version number:	ORYX F/W v4.00 Oryx Data Collector v3.7.2.0data status	okinstallation	princeton_trtdifferential loss correction	single-endedforward channel	channel 1reverse channel	N/Adate	2019/09/13time	09:10:35forward acquisition time	60.00reverse acquisition time	0.00gamma	496.2192k internal	0.2326k external	0.2326temperature offset calibration	1.0158default loss term (dB/km)	0.3790temperature slope calibration	1.0000multiplexer offset coefficient	1.0000multiplexer slope coefficient	1.0000fibre end	0.00T internal ref (°C)	28.81T ext. ref 1 (°C)	4.39T ext. ref 2 (°C)	26.26length (m)	temperature (°C)	Stokes	anti-Stokes-747.200	381.223	0.085	0.176
-746.185	-200.000	-0.060	0.632
-745.171	200.404	0.230	0.356
-744.156	-89.541	-0.324	-0.096
-743.142	58.069	0.175	0.173
-742.127	-21.793	-0.157	0.096
-741.112	78.996	0.107	-0.115
-740.098	-200.000	-0.003	-0.191
-739.083	-6.225	-0.160	0.110
-738.069	-37.985	-0.108	0.058
-737.054	-56.158	0.165	-0.074
-736.039	-200.000	0.030	-0.505
-735.025	-8.127	0.292	-0.198
-734.010	-200.000	0.024	-0.196
-732.996	800.000	0.085	0.316
-731.981	-60.594	-0.173	0.074
-730.966	-39.271	-0.141	-0.075
-729.952	-38.161	-0.260	-0.139
-728.937	-150.936	-0.327	-0.025
-727.923	142.439	-0.268	0.359
-726.908	678.786	-0.031	0.080
-725.894	-148.336	0.125	-0.010
-724.879	-54.832	0.067	-0.030
-723.864	-82.658	-0.426	-0.139
-722.850	12.447	0.155	-0.121
-721.835	500.644	0.113	0.264
-720.821	-171.333	0.171	-0.006
-719.806	-64.863	0.343	-0.140
-718.791	-200.000	0.015	0.142
-717.777	-200.000	-0.076	0.346
-716.762	800.000	-0.070	-0.232
-715.748	221.066	0.076	-0.122
-714.733	-25.151	0.276	0.165
-713.718	-129.308	0.096	-0.013
-712.704	105.584	-0.116	0.138
-711.689	-129.033	0.208	0.029
-710.675	82.493	0.227	-0.249
-709.660	-200.000	-0.060	0.496
-708.645	-73.900	0.070	0.026
-707.631	-124.797	0.114	-0.018
-706.616	146.605	-0.151	-0.204
-705.602	184.559	-0.108	0.162
-704.587	-135.534	0.084	0.010
-703.572	-179.450	0.223	0.005
-702.558	-42.570	-0.220	0.113
-701.543	-200.000	-0.018	-0.277
-700.529	-110.302	0.226	-0.047
-699.514	223.529	0.184	-0.298
-698.499	28.427	-0.198	-0.169
-697.485	65.344	0.057	0.058
-696.470	94.614	0.209	0.239
-695.456	153.442	-0.065	0.090
-694.441	-167.924	0.248	0.010
-693.426	-68.590	-0.056	-0.022
-692.412	154.951	-0.081	0.111
-691.397	-200.000	0.057	0.438
-690.383	800.000	-0.062	-0.251
-689.368	171.075	-0.056	-0.081
-688.354	-132.231	0.202	-0.026
-687.339	-63.337	-0.346	0.143
-686.324	-58.852	0.132	0.057
-685.310	-10.011	0.246	-0.164
-684.295	290.229	0.037	0.067
-683.281	-20.924	-0.195	0.120
-682.266	153.982	-0.070	0.096
-681.251	-33.884	-0.199	-0.110
-680.237	596.166	0.071	0.176
-679.222	-200.000	-0.009	0.080
-678.208	-152.742	-0.251	-0.018
-677.193	103.451	0.027	-0.032
-676.178	20.719	-0.280	-0.228
-675.164	676.792	-0.178	0.465
-674.149	-62.987	-0.320	-0.133
-673.135	122.984	-0.242	-0.305
-672.120	800.000	0.094	0.333
-671.105	242.461	0.181	0.305
-670.091	-49.944	-0.222	0.106
-669.076	-146.949	0.222	0.019
-668.062	800.000	0.048	0.137
-667.047	72.182	0.123	0.128
-666.032	7.480	0.167	-0.126
-665.018	800.000	-0.114	-0.333
-664.003	290.781	-0.118	-0.215
-662.989	-133.768	0.105	-0.013
-661.974	-200.000	-0.002	0.091
-660.959	-200.000	-0.075	0.534
-659.945	96.315	-0.046	-0.052
-658.930	403.936	-0.036	-0.076
-657.916	-134.665	0.166	0.020
-656.901	-97.819	0.164	-0.043
-655.886	-35.206	-0.155	0.085
-654.872	-116.656	0.354	-0.065
-653.857	2.136	0.197	-0.143
-652.843	142.565	0.059	0.079
-651.828	187.938	0.048	-0.073
-650.814	717.594	-0.065	-0.173
-649.799	800.000	0.013	0.038
-648.784	-120.194	0.031	0.005
-647.770	800.000	0.053	0.148
-646.755	437.497	0.091	-0.200
-645.741	170.860	0.072	-0.104
-644.726	249.336	-0.104	-0.178
-643.711	637.288	0.039	0.100
-642.697	140.057	-0.232	-0.308
-641.682	-200.000	-0.043	0.214
-640.668	-186.206	0.327	0.005
-639.653	136.057	0.040	-0.052
-638.638	315.437	0.118	-0.223
-637.624	-200.000	-0.006	0.058
-636.609	241.763	-0.085	-0.142
-635.595	35.786	-0.112	0.099
-634.580	423.518	0.011	-0.023
-633.565	-149.825	-0.089	0.007
-632.551	-144.668	-0.338	-0.031
-631.536	149.903	-0.110	0.150
-630.522	-66.836	0.156	0.062
-629.507	-42.162	0.270	0.139
-628.492	111.716	-0.128	-0.155
-627.478	15.569	-0.124	-0.098
-626.463	-95.327	0.162	0.044
-625.449	272.602	0.187	0.332
-624.434	394.590	-0.060	-0.125
-623.419	107.352	-0.062	0.074
-622.405	-118.994	0.272	-0.048
-621.390	-139.776	-0.359	0.038
-620.376	-200.000	-0.002	-0.162
-619.361	623.574	0.146	-0.368
-618.346	-107.569	0.180	-0.040
-617.332	-104.026	-0.341	0.080
-616.317	201.928	-0.194	0.300
-615.303	-151.239	0.158	0.012
-614.288	220.483	-0.178	0.286
-613.273	229.891	-0.109	-0.178
-612.259	37.896	-0.398	-0.355
-611.244	-200.000	-0.024	-0.173
-610.230	-34.500	0.047	0.026
-609.215	24.467	-0.161	-0.134
-608.201	46.917	0.078	-0.073
-607.186	-74.174	-0.207	-0.075
-606.171	68.055	-0.188	-0.193
-605.157	-24.074	-0.174	0.104
-604.142	-200.000	0.043	0.456
-603.128	-165.224	-0.291	-0.013
-602.113	312.015	0.067	0.126
-601.098	-200.000	-0.024	-0.208
-600.084	0.157	-0.176	-0.126
-599.069	-200.000	-0.035	-0.189
-598.055	-6.018	0.148	0.102
-597.040	-173.193	-0.188	-0.006
-596.025	-163.598	-0.112	-0.005
-595.011	-69.879	0.307	-0.117
-593.996	642.773	-0.006	0.015
-592.982	-66.640	-0.258	-0.103
-591.967	-101.541	-0.220	0.054
-590.952	106.520	-0.144	-0.171
-589.938	15.962	0.254	-0.201
-588.923	-54.981	-0.260	-0.118
-587.909	-106.508	0.223	-0.050
-586.894	-200.000	-0.024	0.280
-585.879	263.703	0.120	-0.210
-584.865	-200.000	-0.027	-0.181
-583.850	-200.000	-0.288	0.001
-582.836	-200.000	-0.032	-0.248
-581.821	800.000	-0.023	0.085
-580.806	363.296	0.131	-0.264
-579.792	-39.507	0.459	0.241
-578.777	-200.000	-0.051	-0.223
-577.763	-71.951	0.318	0.118
-576.748	425.144	-0.036	0.079
-575.733	382.413	-0.086	0.177
-574.719	-200.000	-0.046	0.298
-573.704	380.369	-0.037	0.076
-572.690	-88.685	0.039	-0.012
-571.675	56.341	-0.246	0.239
-570.661	-91.415	0.459	0.131
-569.646	-161.832	-0.133	-0.007
-568.631	-145.708	-0.083	-0.007
-567.617	105.184	-0.032	-0.038
-566.602	-20.902	0.027	0.017
-565.588	-135.686	0.203	-0.024
-564.573	-200.000	0.010	0.218
-563.558	84.376	-0.228	0.249
-562.544	800.000	-0.031	-0.107
-561.529	-200.000	-0.001	0.101
-560.515	800.000	0.075	0.300
-559.500	-200.000	-0.058	-0.404
-558.485	-126.022	-0.184	-0.028
-557.471	796.250	0.049	-0.134
-556.456	7.249	0.268	0.200
-555.442	-34.808	0.191	-0.105
-554.427	-85.814	-0.114	-0.035
-553.412	-51.230	0.178	-0.084
-552.398	8.511	0.104	-0.078
-551.383	405.189	0.029	0.062
-550.369	-75.852	-0.219	0.078
-549.354	-83.138	-0.424	-0.137
-548.339	800.000	0.037	-0.106
-547.325	-77.583	0.284	0.099
-546.310	119.094	0.137	0.169
-545.296	82.521	-0.119	0.129
-544.281	-47.947	0.175	0.085
-543.266	23.750	-0.260	-0.215
-542.252	-97.641	0.110	0.029
-541.237	-15.884	-0.176	0.112
-540.223	-75.719	0.243	0.086
-539.208	78.250	-0.235	-0.251
-538.193	37.416	-0.163	-0.144
-537.179	258.060	-0.182	-0.313
-536.164	37.828	0.229	-0.204
-535.150	-200.000	0.277	-0.001
-534.135	281.032	-0.185	-0.332
-533.121	-68.368	-0.278	0.108
-532.106	-57.119	-0.073	-0.032
-531.091	128.782	0.139	0.177
-530.077	-18.895	0.034	0.021
-529.062	680.112	0.136	-0.354
-528.048	-126.735	-0.124	0.018
-527.033	353.527	-0.009	-0.017
-526.018	244.772	0.198	-0.332
-525.004	800.000	-0.047	0.152
-523.989	57.451	-0.025	-0.024
-522.975	123.209	0.183	-0.230
-521.960	-116.395	-0.261	0.048
-520.945	-159.124	0.275	-0.016
-519.931	-2.243	-0.168	-0.118
-518.916	-88.119	-0.395	-0.118
-517.902	-130.065	-0.371	-0.051
-516.887	446.337	0.075	0.164
-515.872	-137.213	0.133	0.015
-514.858	36.802	-0.068	-0.060
-513.843	-200.000	0.004	0.120
-512.829	-200.000	0.012	0.207
-511.814	190.733	0.101	-0.152
-510.799	-131.542	0.251	0.033
-509.785	-126.740	-0.330	0.049
-508.770	711.997	-0.063	0.166
-507.756	26.605	-0.236	0.197
-506.741	16.827	0.097	-0.077
-505.726	-103.386	0.283	-0.067
-504.712	-34.364	-0.416	-0.228
-503.697	800.000	0.058	-0.168
-502.683	690.476	0.160	-0.420
-501.668	-73.320	0.259	-0.095
-500.653	98.500	0.141	-0.163
-499.639	-200.000	0.030	-0.232
-498.624	380.504	-0.114	0.233
-497.610	241.160	0.102	0.170
-496.595	19.706	-0.153	-0.123
-495.581	-98.576	0.226	-0.058
-494.566	-200.000	0.019	-0.097
-493.551	800.000	-0.060	-0.211
-492.537	75.752	-0.149	-0.158
-491.522	-80.103	-0.090	0.030
-490.508	-118.449	0.532	-0.094
-489.493	511.537	0.106	-0.246
-488.478	72.592	0.224	0.233
-487.464	-87.932	0.196	-0.059
-486.449	120.424	-0.230	0.285
-485.435	352.487	0.114	-0.226
-484.420	-200.000	-0.053	-0.249
-483.405	-200.000	-0.025	-0.241
-482.391	-200.000	-0.032	-0.405
-481.376	-91.503	-0.153	0.044
-480.362	535.440	-0.113	-0.267
-479.347	-200.000	-0.077	-0.000
-478.332	-49.291	-0.236	-0.113
-477.318	-11.000	-0.113	-0.075
-476.303	-124.104	0.126	-0.020
-475.289	-76.484	-0.087	-0.031
-474.274	112.284	-0.097	-0.117
-473.259	155.536	-0.238	-0.327
-472.245	13.439	-0.114	-0.089
-471.230	-101.516	0.106	0.026
-470.216	29.710	0.054	0.046
-469.201	-67.446	0.512	0.201
-468.186	400.932	-0.067	0.141
-467.172	38.084	-0.241	0.214
-466.157	69.546	-0.177	-0.182
-465.143	-200.000	-0.023	-0.248
-464.128	82.345	0.290	-0.314
-463.113	-160.509	-0.389	0.021
-462.099	-109.607	0.227	0.048
-461.084	-24.682	0.099	0.058
-460.070	84.381	-0.164	0.179
-459.055	-200.000	0.015	0.246
-458.040	177.834	0.064	0.093
-457.026	-93.097	0.273	0.076
-456.011	-61.638	0.209	0.087
-454.997	-200.000	-0.032	-0.148
-453.982	9.291	-0.173	-0.130
-452.968	-117.562	-0.213	0.038
-451.953	-43.838	0.164	0.082
-450.938	92.771	-0.338	-0.381
-449.924	-181.348	0.247	-0.005
-448.909	-19.690	-0.128	0.079
-447.895	125.314	0.234	0.294
-446.880	140.634	-0.110	0.145
-445.865	459.199	0.151	0.335
-444.851	35.657	0.236	0.207
-443.836	-100.696	-0.133	-0.033
-442.822	598.391	0.143	0.354
-441.807	-10.627	0.040	0.026
-440.792	-87.129	-0.127	-0.038
-439.778	133.545	-0.300	-0.387
-438.763	-200.000	0.057	-0.364
-437.749	49.296	0.165	0.155
-436.734	48.924	0.074	0.069
-435.719	-189.560	-0.119	0.001
-434.705	72.261	0.116	0.120
-433.690	800.000	0.037	0.155
-432.676	6.467	0.158	-0.117
-431.661	-134.085	0.355	-0.044
-430.646	-93.133	-0.160	0.044
-429.632	-75.716	-0.020	-0.007
-428.617	55.894	0.244	-0.236
-427.603	800.000	-0.034	-0.138
-426.588	87.752	-0.240	-0.265
-425.573	-200.000	-0.005	-0.248
-424.559	5.505	0.412	0.303
-423.544	307.232	-0.172	0.319
-422.530	224.922	-0.041	0.065
-421.515	-148.234	0.042	0.003
-420.500	-94.345	-0.336	-0.091
-419.486	261.665	0.066	-0.114
-418.471	321.346	-0.044	-0.084
-417.457	-129.245	0.141	-0.020
-416.442	-12.916	-0.129	0.084
-415.428	-96.701	0.119	0.031
-414.413	-200.000	-0.019	0.104
-413.398	135.099	-0.067	-0.086
-412.384	-118.556	0.146	-0.026
-411.369	133.026	0.139	0.178
-410.355	-200.000	-0.020	0.101
-409.340	148.862	-0.074	-0.099
-408.325	-200.000	-0.046	-0.417
-407.311	-200.000	0.027	-0.205
-406.296	340.274	-0.138	-0.268
-405.282	-21.499	-0.304	-0.184
-404.267	-28.958	-0.106	0.061
-403.252	73.990	-0.137	-0.143
-402.238	-200.000	0.049	0.238
-401.223	125.578	-0.122	-0.153
-400.209	257.360	0.166	-0.284
-399.194	740.791	0.103	-0.276
-398.179	-161.564	0.145	-0.007
-397.165	-200.000	0.029	0.203
-396.150	134.658	0.147	-0.190
-395.136	230.079	0.157	0.255
-394.121	122.009	0.023	-0.029
-393.106	143.707	0.013	0.018
-392.092	-200.000	0.031	-0.209
-391.077	-168.249	-0.311	-0.012
-390.063	498.303	0.075	0.171
-389.048	-116.170	-0.182	0.034
-388.033	-47.897	0.278	0.134
-387.019	-200.000	-0.013	0.279
-386.004	-111.860	0.386	-0.078
-384.990	-76.098	0.201	-0.071
-383.975	-54.922	-0.190	-0.085
-382.960	-200.000	-0.019	-0.139
-381.946	-151.600	0.097	-0.007
-380.931	-200.000	-0.047	-0.228
-379.917	-200.000	0.048	-0.350
-378.902	620.517	0.041	-0.103
-377.888	65.703	-0.108	0.109
-376.873	56.920	-0.203	0.196
-375.858	275.155	-0.067	0.118
-374.844	220.472	0.099	-0.158
-373.829	-39.144	0.185	-0.097
-372.815	68.367	-0.288	0.293
-371.800	-65.621	-0.202	0.081
-370.785	-189.657	0.152	-0.002
-369.771	262.684	-0.133	0.230
-368.756	-168.677	0.320	0.012
-367.742	200.825	0.135	0.206
-366.727	-200.000	-0.033	-0.369
-365.712	-74.180	0.155	-0.056
-364.698	74.384	0.202	-0.211
-363.683	-200.000	-0.039	0.227
-362.669	-68.025	0.196	0.076
-361.654	-175.233	0.194	-0.005
-360.639	-200.000	-0.002	-0.388
-359.625	306.751	-0.045	0.083
-358.610	-36.598	0.126	-0.067
-357.596	-92.758	-0.046	0.013
-356.581	-195.831	0.182	-0.001
-355.566	781.743	0.052	-0.143
-354.552	-200.000	0.062	-0.422
-353.537	672.148	0.050	-0.128
-352.523	-110.735	-0.233	-0.048
-351.508	96.153	0.134	-0.152
-350.493	800.000	-0.087	0.358
-349.479	18.584	0.125	-0.099
-348.464	-152.920	-0.065	-0.005
-347.450	-83.933	0.203	0.064
-346.435	-38.684	0.056	0.029
-345.420	-42.853	-0.099	-0.050
-344.406	140.576	-0.080	0.105
-343.391	156.642	0.081	-0.111
-342.377	130.028	0.077	0.098
-341.362	50.973	0.104	0.098
-340.348	-200.000	-0.009	0.301
-339.333	376.649	-0.113	0.229
-338.318	-19.977	-0.153	0.094
-337.304	-200.000	0.026	-0.131
-336.289	-68.416	-0.250	0.096
-335.275	305.734	0.013	0.024
-334.260	-111.822	-0.074	-0.015
-333.245	-60.394	-0.101	0.042
-332.231	81.896	-0.278	0.298
-331.216	-200.000	-0.010	-0.250
-330.202	-1.753	-0.082	0.057
-329.187	800.000	0.060	-0.231
-328.172	-69.536	0.193	0.073
-327.158	182.809	-0.141	-0.206
-326.143	371.044	-0.113	0.227
-325.129	-200.000	0.011	0.177
-324.114	663.886	-0.125	-0.319
-323.099	183.792	-0.051	-0.075
-322.085	-132.010	-0.180	-0.023
-321.070	-200.000	0.030	0.251
-320.056	154.047	-0.104	0.142
-319.041	-200.000	0.020	0.126
-318.026	-45.457	0.230	0.113
-317.012	-200.000	-0.010	-0.218
-315.997	-200.000	-0.007	0.312
-314.983	-200.000	0.043	0.369
-313.968	269.131	0.184	0.320
-312.953	124.648	-0.139	0.173
-311.939	-73.092	0.095	0.035
-310.924	-105.758	0.194	-0.043
-309.910	800.000	0.081	0.272
-308.895	36.369	-0.305	0.266
-307.880	70.551	0.096	-0.098
-306.866	-112.861	0.230	0.045
-305.851	-96.388	0.533	0.140
-304.837	-200.000	0.019	0.109
-303.822	89.509	-0.225	0.249
-302.807	-200.000	-0.047	0.341
-301.793	93.524	0.225	0.253
-300.778	-33.382	-0.034	-0.019
-299.764	230.590	0.179	0.290
-298.749	-200.000	-0.040	0.190
-297.735	-109.559	-0.100	-0.021
-296.720	-200.000	-0.040	-0.198
-295.705	58.482	-0.144	0.140
-294.691	800.000	-0.065	0.248
-293.676	-129.265	-0.175	0.024
-292.662	-200.000	0.007	-0.273
-291.647	18.930	-0.155	-0.123
-290.632	182.238	-0.094	-0.138
-289.618	38.907	0.219	0.193
-288.603	39.036	-0.147	-0.130
-287.589	-89.151	-0.225	0.066
-286.574	-133.665	0.095	0.012
-285.559	53.925	-0.104	0.099
-284.545	597.672	-0.063	-0.155
-283.530	167.869	-0.221	0.311
-282.516	-134.077	-0.304	0.037
-281.501	65.358	0.143	0.143
-280.486	21.649	0.375	-0.302
-279.472	-166.950	-0.041	0.002
-278.457	13.600	-0.127	-0.098
-277.443	224.289	0.263	0.421
-276.428	-121.767	0.168	0.027
-275.413	800.000	-0.041	-0.133
-274.399	49.564	-0.190	0.177
-273.384	-200.000	-0.026	0.167
-272.370	98.023	0.111	0.127
-271.355	-35.368	-0.117	0.063
-270.340	35.677	-0.267	0.232
-269.326	252.003	-0.222	-0.375
-268.311	-188.179	0.081	-0.001
-267.297	273.595	0.199	0.349
-266.282	-55.979	-0.237	0.104
-265.267	-44.777	-0.404	0.199
-264.253	295.911	0.113	0.204
-263.238	21.639	0.107	-0.086
-262.224	-156.456	-0.081	-0.005
-261.209	-128.211	-0.098	0.014
-260.195	-200.000	0.006	0.122
-259.180	11.049	0.281	-0.212
-258.165	-200.000	-0.151	-0.000
-257.151	-168.592	0.038	-0.001
-256.136	-119.612	-0.169	0.029
-255.122	-200.000	0.043	-0.202
-254.107	120.610	0.095	0.117
-253.092	71.951	0.139	-0.143
-252.078	88.245	0.217	0.238
-251.063	285.350	-0.086	0.153
-250.049	-96.270	-0.224	-0.059
-249.034	-95.889	0.196	-0.052
-248.019	166.703	0.146	0.205
-247.005	46.097	0.085	0.078
-245.990	-34.183	0.195	0.106
-244.976	70.230	-0.313	-0.320
-243.961	-66.599	-0.241	0.094
-242.946	-88.975	-0.130	0.038
-241.932	-123.132	0.437	-0.069
-240.917	-200.000	-0.009	0.041
-239.903	-42.334	-0.252	0.127
-238.888	-200.000	0.001	0.345
-237.873	398.549	0.099	0.204
-236.859	800.000	0.097	0.274
-235.844	-52.280	0.279	0.128
-234.830	55.332	-0.092	-0.088
-233.815	800.000	0.027	0.094
-232.800	93.216	-0.088	-0.098
-231.786	545.481	-0.064	0.151
-230.771	-65.009	0.425	-0.170
-229.757	-161.937	-0.104	0.005
-228.742	-29.335	0.216	0.122
-227.727	-200.000	-0.002	0.316
-226.713	282.063	-0.082	0.145
-225.698	-200.000	0.013	-0.289
-224.684	153.088	-0.019	-0.025
-223.669	612.528	-0.106	0.262
-222.655	23.125	-0.167	-0.135
-221.640	274.600	-0.076	0.132
-220.625	-200.000	0.003	-0.090
-219.611	174.320	0.109	0.155
-218.596	77.689	-0.082	-0.086
-217.582	-36.948	0.107	0.057
-216.567	136.339	-0.178	0.229
-215.552	-88.839	-0.279	-0.082
-214.538	-200.000	0.042	-0.479
-213.523	800.000	0.100	0.307
-212.509	577.185	-0.183	0.442
-211.494	-200.000	-0.005	0.328
-210.479	9.199	0.194	-0.145
-209.465	85.095	-0.108	0.116
-208.450	-118.461	0.104	0.018
-207.436	65.647	0.253	0.253
-206.421	128.987	-0.045	0.056
-205.406	-68.603	-0.201	-0.077
-204.392	-65.418	-0.320	-0.127
-203.377	-81.252	0.296	0.096
-202.363	-112.865	-0.343	-0.067
-201.348	138.032	0.086	-0.111
-200.333	-30.650	-0.109	0.061
-199.319	34.060	-0.190	0.163
-198.304	-122.828	0.414	0.066
-197.290	684.601	0.113	-0.291
-196.275	-200.000	0.019	-0.257
-195.260	238.196	-0.054	0.089
-194.246	-35.200	-0.160	0.086
-193.231	-200.000	0.022	-0.097
-192.217	-65.327	-0.371	0.147
-191.202	229.204	0.028	0.046
-190.187	-77.050	-0.198	-0.068
-189.173	8.360	-0.205	-0.152
-188.158	-6.382	-0.237	0.159
-187.144	277.511	0.079	-0.139
-186.129	-31.209	0.336	-0.187
-185.114	143.373	0.204	-0.268
-184.100	-179.061	-0.223	0.005
-183.085	800.000	-0.021	0.086
-182.071	106.231	-0.186	-0.217
-181.056	391.720	0.031	-0.063
-180.042	151.127	0.089	-0.119
-179.027	-65.930	-0.207	0.082
-178.012	94.813	0.166	0.187
-176.998	343.553	0.111	-0.214
-175.983	28.911	0.082	0.069
-174.969	93.319	0.174	0.194
-173.954	-17.191	0.100	-0.062
-172.939	357.216	-0.052	-0.103
-171.925	-55.237	0.216	-0.096
-170.910	208.140	-0.118	0.183
-169.896	-40.751	0.341	-0.174
-168.881	-80.057	0.131	-0.043
-167.866	800.000	-0.148	0.435
-166.852	604.119	0.061	-0.151
-165.837	-200.000	0.054	-0.277
-164.823	-139.046	0.284	0.030
-163.808	-200.000	0.071	0.436
-162.793	-79.472	-0.175	-0.058
-161.779	-67.106	0.108	0.042
-160.764	399.808	-0.077	-0.158
-159.750	-200.000	-0.009	0.071
-158.735	800.000	0.062	-0.235
-157.720	-98.191	0.287	0.073
-156.706	-97.019	0.133	-0.034
-155.691	132.404	-0.113	-0.143
-154.677	258.470	-0.025	0.042
-153.662	-174.857	0.194	0.005
-152.647	-148.916	0.153	0.012
-151.633	23.360	0.140	-0.114
-150.618	-6.327	-0.104	-0.070
-149.604	800.000	-0.063	0.198
-148.589	223.871	-0.011	-0.018
-147.574	-95.796	0.257	0.068
-146.560	328.647	-0.074	-0.141
-145.545	79.117	0.228	-0.241
-144.531	-74.262	0.070	-0.025
-143.516	-200.000	0.002	0.175
-142.502	540.342	-0.085	0.200
-141.487	-140.901	-0.238	0.024
-140.472	-142.519	0.121	0.012
-139.458	-200.000	-0.020	0.173
-138.443	-174.414	-0.116	0.003
-137.429	800.000	0.034	-0.108
-136.414	-200.000	0.001	-0.136
-135.399	-94.778	0.436	0.117
-134.385	-200.000	0.019	0.138
-133.370	-159.643	0.175	0.010
-132.356	-64.492	-0.413	-0.165
-131.341	51.501	0.047	-0.044
-130.326	-8.205	-0.137	-0.091
-129.312	-109.296	0.385	0.080
-128.297	203.713	-0.099	0.150
-127.283	324.125	0.068	-0.127
-126.268	-5.454	-0.230	0.155
-125.253	-166.768	0.090	-0.004
-124.239	800.000	-0.068	0.270
-123.224	-97.666	-0.396	-0.101
-122.210	197.122	-0.069	-0.103
-121.195	294.515	0.226	-0.407
