DTS Sentinel unit serial number:	SN413079Multiplexer serial number:	ORYXHardware model number:	OX4-SRSoftware version number:	ORYX F/W v4.00 Oryx Data Collector v3.7.2.0data status	okinstallation	princeton_trtdifferential loss correction	single-endedforward channel	channel 1reverse channel	N/Adate	2019/09/14time	01:02:35forward acquisition time	60.00reverse acquisition time	0.00gamma	496.2192k internal	0.2337k external	0.2337temperature offset calibration	1.0077default loss term (dB/km)	0.3790temperature slope calibration	1.0000multiplexer offset coefficient	1.0000multiplexer slope coefficient	1.0000fibre end	0.00T internal ref (°C)	26.37T ext. ref 1 (°C)	3.16T ext. ref 2 (°C)	21.36length (m)	temperature (°C)	Stokes	anti-Stokes-747.200	-87.984	0.245	0.074
-746.185	486.645	-0.096	0.221
-745.171	-92.951	-0.299	-0.084
-744.156	142.076	-0.211	-0.281
-743.142	30.808	0.111	0.096
-742.127	-18.989	-0.132	0.082
-741.112	31.693	0.114	-0.099
-740.098	-94.093	-0.282	0.078
-739.083	-200.000	0.011	0.157
-738.069	90.687	-0.072	0.081
-737.054	-200.000	-0.013	0.296
-736.039	-35.790	-0.388	-0.211
-735.025	800.000	0.108	0.378
-734.010	-10.551	0.296	0.197
-732.996	-184.199	-0.327	-0.005
-731.981	-166.744	-0.354	0.015
-730.966	-110.888	0.393	-0.081
-729.952	-73.555	-0.211	0.077
-728.937	28.605	-0.215	-0.183
-727.923	-200.000	0.017	0.142
-726.908	-99.261	-0.208	0.053
-725.894	-43.150	-0.235	-0.120
-724.879	364.287	0.128	-0.258
-723.864	-173.121	-0.405	-0.012
-722.850	183.792	0.107	-0.158
-721.835	-103.779	-0.080	-0.019
-720.821	171.071	0.232	0.334
-719.806	800.000	0.049	0.150
-718.791	10.521	-0.125	-0.095
-717.777	655.791	-0.074	-0.191
-716.762	-69.552	-0.183	-0.070
-715.748	791.566	-0.038	0.106
-714.733	-98.861	0.166	0.042
-713.718	-200.000	0.054	-0.262
-712.704	-105.305	-0.444	0.101
-711.689	156.943	-0.174	0.242
-710.675	-67.156	-0.131	-0.052
-709.660	-119.721	-0.021	-0.004
-708.645	-50.846	-0.298	0.140
-707.631	-34.024	0.108	-0.060
-706.616	119.054	0.181	0.225
-705.602	800.000	-0.027	-0.093
-704.587	-76.818	0.064	0.022
-703.572	-162.682	-0.414	-0.020
-702.558	-200.000	-0.045	0.318
-701.543	547.146	0.118	-0.282
-700.529	-145.891	0.135	-0.012
-699.514	-200.000	0.033	0.201
-698.499	97.598	0.105	-0.121
-697.485	800.000	0.022	0.073
-696.470	82.583	0.194	-0.211
-695.456	-200.000	-0.037	-0.197
-694.441	-200.000	-0.026	-0.376
-693.426	800.000	-0.094	-0.276
-692.412	-87.360	-0.282	0.086
-691.397	31.215	0.203	-0.174
-690.383	-98.537	0.314	0.080
-689.368	-45.633	0.317	0.157
-688.354	-0.811	0.258	0.183
-687.339	-111.101	0.275	0.056
-686.324	333.567	-0.106	0.205
-685.310	-19.700	-0.140	-0.087
-684.295	142.622	-0.127	0.170
-683.281	60.033	-0.230	-0.228
-682.266	-90.755	0.319	-0.092
-681.251	-160.169	0.090	-0.005
-680.237	207.627	-0.069	0.108
-679.222	-105.751	-0.297	-0.067
-678.208	-166.954	0.313	0.013
-677.193	-111.377	-0.129	-0.026
-676.178	4.422	0.169	-0.124
-675.164	-18.442	0.051	0.032
-674.149	-70.077	0.282	-0.107
-673.135	57.131	-0.113	0.110
-672.120	62.910	0.301	-0.301
-671.105	-169.145	0.160	-0.006
-670.091	-160.422	-0.270	-0.014
-669.076	351.837	-0.180	0.356
-668.062	92.068	-0.110	-0.124
-667.047	-19.196	0.154	-0.096
-666.032	800.000	0.026	-0.098
-665.018	18.696	-0.075	0.060
-664.003	-32.402	0.161	0.090
-662.989	158.129	-0.049	0.068
-661.974	-24.042	0.241	-0.144
-660.959	54.137	-0.159	-0.153
-659.945	673.494	-0.161	-0.419
-658.930	106.144	0.217	-0.257
-657.916	800.000	-0.129	-0.368
-656.901	38.442	0.250	0.223
-655.886	-39.439	-0.197	0.103
-654.872	100.221	0.110	-0.128
-653.857	-38.152	-0.583	-0.310
-652.843	-101.374	-0.201	0.049
-651.828	537.382	-0.108	0.257
-650.814	-80.704	0.162	0.054
-649.799	335.598	0.070	-0.135
-648.784	-140.615	-0.458	0.048
-647.770	-200.000	0.000	-0.044
-646.755	-10.047	-0.045	0.030
-645.741	-200.000	-0.004	0.111
-644.726	-19.403	-0.324	-0.201
-643.711	-200.000	-0.040	-0.223
-642.697	800.000	0.128	0.390
-641.682	-200.000	0.024	-0.262
-640.668	800.000	0.054	0.220
-639.653	-67.378	-0.089	0.035
-638.638	800.000	-0.085	0.245
-637.624	99.278	-0.130	0.151
-636.609	210.058	-0.142	0.222
-635.595	-200.000	-0.009	0.050
-634.580	42.552	0.189	-0.172
-633.565	197.553	0.132	-0.201
-632.551	-127.696	-0.365	-0.053
-631.536	515.782	0.022	0.051
-630.522	-200.000	-0.010	0.185
-629.507	-200.000	-0.134	0.000
-628.492	347.103	-0.118	0.233
-627.478	-172.997	-0.522	-0.016
-626.463	185.565	-0.127	-0.188
-625.449	326.556	0.093	0.178
-624.434	111.833	-0.102	0.123
-623.419	-200.000	0.003	0.408
-622.405	-137.181	-0.093	-0.011
-621.390	-51.423	-0.328	0.153
-620.376	-158.732	-0.402	-0.023
-619.361	-200.000	0.013	-0.137
-618.346	-90.399	0.102	0.030
-617.332	-127.058	0.290	0.043
-616.317	99.180	-0.061	-0.070
-615.303	-142.244	-0.140	0.014
-614.288	51.193	0.231	0.219
-613.273	-25.195	0.211	0.125
-612.259	48.626	0.045	0.042
-611.244	-17.480	-0.072	0.045
-610.230	83.790	0.213	0.232
-609.215	-200.000	-0.008	0.256
-608.201	-76.063	-0.216	-0.076
-607.186	-23.796	0.163	-0.098
-606.171	-97.550	-0.137	-0.035
-605.157	-200.000	0.005	-0.228
-604.142	165.449	-0.097	-0.137
-603.128	800.000	0.077	0.280
-602.113	-34.112	-0.291	-0.160
-601.098	96.962	-0.211	-0.242
-600.084	0.928	0.206	-0.148
-599.069	800.000	0.055	-0.179
-598.055	-62.010	-0.101	0.042
-597.040	96.842	0.217	-0.248
-596.025	66.159	0.132	-0.134
-595.011	-200.000	-0.029	0.139
-593.996	-83.530	-0.244	-0.078
-592.982	-133.964	-0.123	-0.015
-591.967	-200.000	-0.001	0.082
-590.952	-100.576	0.316	-0.078
-589.938	-122.174	-0.557	-0.091
-588.923	800.000	0.051	0.154
-587.909	18.042	0.204	0.162
-586.894	-1.378	0.233	0.164
-585.879	17.387	0.197	-0.156
-584.865	260.384	0.096	0.165
-583.850	486.527	-0.104	0.237
-582.836	97.906	-0.130	0.150
-581.821	-136.354	-0.305	-0.035
-580.806	-81.517	-0.281	-0.092
-579.792	-200.000	0.026	0.181
-578.777	-200.000	0.001	-0.041
-577.763	-143.120	-0.327	-0.031
-576.748	85.578	0.223	-0.244
-575.733	-120.524	0.303	0.051
-574.719	70.373	0.179	-0.185
-573.704	-200.000	-0.011	-0.294
-572.690	-200.000	-0.054	0.471
-571.675	66.298	-0.071	-0.072
-570.661	-129.772	-0.124	-0.017
-569.646	-200.000	0.008	-0.285
-568.631	635.857	-0.059	-0.148
-567.617	800.000	-0.045	-0.125
-566.602	800.000	0.074	-0.239
-565.588	122.544	0.138	-0.173
-564.573	416.585	-0.177	0.377
-563.558	-105.864	-0.110	0.025
-562.544	-93.356	0.127	0.035
-561.529	-98.555	0.119	-0.030
-560.515	307.671	-0.033	-0.061
-559.500	29.859	0.109	-0.093
-558.485	51.191	0.052	0.049
-557.471	248.985	-0.029	0.049
-556.456	-42.766	-0.222	0.113
-555.442	-52.236	0.033	-0.015
-554.427	162.603	0.089	-0.125
-553.412	117.167	0.054	0.066
-552.398	-41.296	0.217	-0.111
-551.383	195.460	-0.189	-0.286
-550.369	-200.000	0.016	0.270
-549.354	378.859	0.152	-0.311
-548.339	235.301	-0.200	-0.329
-547.325	-200.000	-0.039	-0.301
-546.310	-82.076	-0.534	-0.174
-545.296	-200.000	0.004	0.228
-544.281	-3.717	0.086	-0.059
-543.266	-142.165	0.116	0.011
-542.252	800.000	-0.086	0.244
-541.237	-54.351	0.177	-0.080
-540.223	-142.565	0.226	0.022
-539.208	800.000	-0.082	0.282
-538.193	-45.292	0.269	-0.133
-537.179	133.681	-0.179	0.231
-536.164	103.652	0.138	-0.161
-535.150	101.862	-0.066	-0.077
-534.135	-43.485	0.303	-0.153
-533.121	-200.000	-0.019	0.096
-532.106	-116.375	-0.214	-0.039
-531.091	403.446	-0.028	0.060
-530.077	337.604	-0.120	0.232
-529.062	-116.900	-0.248	-0.045
-528.048	-63.811	0.387	-0.158
-527.033	-74.749	-0.342	-0.122
-526.018	211.274	-0.156	-0.244
-525.004	-36.415	0.231	0.124
-523.989	57.321	0.073	-0.070
-522.975	-125.917	0.262	0.039
-521.960	-4.098	0.110	0.076
-520.945	163.187	-0.194	0.271
-519.931	-57.763	-0.106	-0.046
-518.916	57.661	-0.087	0.085
-517.902	-116.471	-0.123	-0.023
-516.887	-78.824	-0.269	-0.091
-515.872	-160.367	0.037	0.002
-514.858	93.115	0.030	-0.033
-513.843	6.348	-0.082	-0.060
-512.829	-100.441	0.137	0.034
-511.814	-17.224	-0.193	-0.121
-510.799	285.943	0.086	0.154
-509.785	-191.329	-0.332	-0.003
-508.770	206.634	0.242	0.375
-507.756	-47.299	0.181	-0.088
-506.741	96.749	0.098	-0.111
-505.726	-200.000	0.032	0.179
-504.712	-97.322	-0.138	-0.036
-503.697	800.000	0.044	-0.133
-502.683	800.000	-0.058	-0.205
-501.668	39.087	-0.274	-0.243
-500.653	-200.000	0.016	0.130
-499.639	-200.000	0.029	0.226
-498.624	-84.008	0.136	0.043
-497.610	800.000	0.044	0.143
-496.595	85.230	-0.110	-0.120
-495.581	-200.000	0.029	0.131
-494.566	168.927	0.211	0.300
-493.551	115.421	-0.287	0.349
-492.537	102.173	0.065	0.076
-491.522	-200.000	-0.012	-0.333
-490.508	422.678	0.048	-0.103
-489.493	65.025	0.185	-0.186
-488.478	-200.000	-0.025	-0.122
-487.464	113.053	0.076	0.092
-486.449	-26.659	0.103	0.060
-485.435	-52.981	0.400	-0.183
-484.420	470.549	0.044	-0.099
-483.405	-62.981	-0.500	0.205
-482.391	26.241	-0.133	0.110
-481.376	-83.507	-0.206	0.066
-480.362	-200.000	-0.029	-0.149
-479.347	34.298	-0.200	0.173
-478.332	800.000	-0.103	0.327
-477.318	114.074	0.212	0.256
-476.303	49.821	-0.154	-0.144
-475.289	257.026	0.220	0.375
-474.274	703.926	0.011	-0.028
-473.259	311.046	-0.050	0.093
-472.245	-113.556	0.484	0.094
-471.230	-53.884	-0.274	-0.124
-470.216	114.075	0.206	0.249
-469.201	-200.000	-0.033	0.216
-468.186	-57.208	0.199	0.087
-467.172	800.000	-0.056	-0.187
-466.157	-200.000	-0.032	-0.332
-465.143	-2.436	0.080	0.055
-464.128	-42.427	0.147	-0.075
-463.113	800.000	0.035	0.102
-462.099	-85.557	-0.117	0.036
-461.084	-41.494	-0.193	0.098
-460.070	-200.000	-0.121	-0.535
-459.055	-95.888	-0.305	0.081
-458.040	-200.000	0.043	-0.273
-457.026	-200.000	-0.060	0.280
-456.011	-107.792	-0.318	-0.069
-454.997	35.545	0.191	-0.166
-453.982	-200.000	0.034	0.296
-452.968	-200.000	-0.049	-0.286
-451.953	126.523	0.158	-0.198
-450.938	57.635	-0.179	-0.174
-449.924	-48.792	0.310	-0.148
-448.909	291.903	-0.165	-0.298
-447.895	-122.875	0.170	0.027
-446.880	800.000	-0.047	0.190
-445.865	70.104	-0.202	-0.207
-444.851	-200.000	-0.003	0.033
-443.836	-153.893	0.116	-0.008
-442.822	-200.000	-0.022	-0.259
-441.807	64.377	0.052	0.052
-440.792	-152.333	-0.255	-0.018
-439.778	656.771	0.186	-0.474
-438.763	219.613	-0.053	0.085
-437.749	622.470	-0.110	0.276
-436.734	471.174	0.161	-0.360
-435.719	-200.000	-0.019	0.121
-434.705	800.000	0.024	-0.095
-433.690	240.315	-0.080	0.132
-432.676	56.907	0.054	0.052
-431.661	130.066	0.098	-0.124
-430.646	-200.000	-0.010	-0.273
-429.632	-90.676	-0.180	0.052
-428.617	135.736	-0.011	0.014
-427.603	800.000	0.039	-0.113
-426.588	-53.700	-0.109	-0.049
-425.573	800.000	-0.062	0.222
-424.559	-33.795	-0.163	0.089
-423.544	557.128	0.079	-0.188
-422.530	-117.270	-0.069	-0.012
-421.515	-91.144	0.203	-0.058
-420.500	-200.000	-0.024	-0.136
-419.486	491.782	0.109	0.247
-418.471	-158.031	-0.185	-0.011
-417.457	-15.872	-0.109	0.069
-416.442	6.952	-0.144	0.107
-415.428	122.563	-0.154	-0.191
-414.413	-74.142	0.249	-0.089
-413.398	80.881	0.206	0.220
-412.384	-200.000	-0.055	-0.307
-411.369	800.000	-0.129	0.421
-410.355	-46.459	-0.372	0.181
-409.340	-200.000	0.030	0.211
-408.325	382.519	-0.070	-0.144
-407.311	800.000	0.084	0.335
-406.296	221.390	0.110	-0.175
-405.282	-91.557	0.110	-0.031
-404.267	59.550	0.276	-0.269
-403.252	-200.000	0.045	0.569
-402.238	-9.387	0.143	0.094
-401.223	621.006	-0.104	0.260
-400.209	-101.832	0.104	-0.025
-399.194	727.178	-0.028	-0.075
-398.179	349.020	-0.177	0.346
-397.165	-200.000	-0.032	0.145
-396.150	82.179	0.152	0.164
-395.136	170.917	0.025	0.036
-394.121	52.827	0.100	-0.095
-393.106	-5.471	0.192	-0.131
-392.092	210.033	-0.081	-0.126
-391.077	-120.658	0.251	-0.042
-390.063	249.192	0.151	-0.253
-389.048	5.486	0.325	-0.238
-388.033	13.412	0.272	0.209
-387.019	-200.000	0.035	-0.375
-386.004	96.521	0.096	0.108
-384.990	-19.252	-0.298	0.183
-383.975	223.303	-0.163	-0.260
-382.960	-200.000	-0.010	0.377
-381.946	-193.973	-0.246	-0.002
-380.931	-147.987	-0.258	-0.021
-379.917	-200.000	-0.018	-0.212
-378.902	224.142	0.057	-0.092
-377.888	-200.000	-0.006	-0.067
-376.873	-27.054	-0.112	0.065
-375.858	72.369	0.198	0.204
-374.844	800.000	-0.040	-0.149
-373.829	302.347	0.117	-0.214
-372.815	15.992	0.176	-0.137
-371.800	241.242	0.164	-0.271
-370.785	6.066	0.154	0.113
-369.771	-54.085	-0.122	-0.055
-368.756	-108.147	-0.051	-0.011
-367.742	-88.172	0.197	-0.058
-366.727	380.430	-0.022	0.045
-365.712	5.227	-0.165	-0.121
-364.698	-99.868	0.250	-0.062
-363.683	800.000	0.130	-0.356
-362.669	-65.082	0.150	-0.060
-361.654	-200.000	0.027	0.150
-360.639	-200.000	-0.016	-0.188
-359.625	-8.059	0.048	-0.032
-358.610	-200.000	0.004	-0.315
-357.596	-31.449	-0.043	0.024
-356.581	296.213	-0.119	-0.216
-355.566	-128.955	0.067	-0.009
-354.552	-20.233	0.152	-0.093
-353.537	800.000	0.087	0.335
-352.523	566.943	-0.225	0.540
-351.508	145.324	-0.182	0.241
-350.493	-126.903	0.044	0.006
-349.479	-2.074	-0.225	-0.157
-348.464	-124.693	0.466	0.071
-347.450	-7.751	0.220	-0.147
-346.435	136.023	-0.364	-0.469
-345.420	-200.000	0.074	-0.432
-344.406	-164.998	0.219	-0.010
-343.391	-28.195	-0.361	0.206
-342.377	93.124	0.188	0.210
-341.362	-47.457	0.212	0.102
-340.348	-103.970	0.397	0.091
-339.333	-15.367	-0.051	-0.032
-338.318	-200.000	0.045	0.223
-337.304	-61.636	0.320	0.132
-336.289	87.999	-0.177	-0.194
-335.275	0.466	0.143	-0.101
-334.260	-200.000	-0.014	0.161
-333.245	-200.000	-0.001	-0.035
-332.231	800.000	-0.072	-0.268
-331.216	-158.222	-0.146	-0.008
-330.202	126.460	0.366	-0.458
-329.187	234.593	0.162	-0.263
-328.172	-82.688	0.176	0.056
-327.158	101.149	-0.256	0.294
-326.143	107.071	0.144	-0.170
-325.129	458.852	-0.115	0.254
-324.114	-94.068	-0.204	-0.055
-323.099	-80.614	0.179	0.059
-322.085	-20.788	-0.314	0.190
-321.070	-30.726	0.269	-0.150
-320.056	-30.023	0.108	-0.060
-319.041	173.575	-0.105	0.150
-318.026	1.649	-0.152	-0.108
-317.012	-60.381	0.166	0.070
-315.997	-83.056	-0.199	-0.063
-314.983	69.948	0.282	-0.287
-313.968	11.928	0.230	0.174
-312.953	311.383	0.032	0.060
-311.939	-20.131	-0.261	0.159
-310.924	50.408	-0.229	0.214
-309.910	139.068	-0.191	0.249
-308.895	1.588	0.361	0.257
-307.880	-47.563	-0.147	0.071
-306.866	214.044	0.181	-0.283
-305.851	55.263	-0.250	-0.239
-304.837	-0.477	-0.206	-0.144
-303.822	-66.648	0.164	-0.064
-302.807	800.000	0.003	0.010
-301.793	-200.000	0.009	-0.063
-300.778	-200.000	0.029	0.308
-299.764	369.910	0.035	0.069
-298.749	121.463	0.102	-0.126
-297.735	-116.791	0.346	0.063
-296.720	223.974	-0.015	0.024
-295.705	-200.000	0.019	0.316
-294.691	-53.382	-0.189	-0.085
-293.676	800.000	-0.046	-0.183
-292.662	69.601	0.210	0.214
-291.647	-200.000	0.003	0.355
-290.632	-103.665	-0.282	-0.065
-289.618	38.859	-0.013	-0.012
-288.603	-9.009	0.226	0.149
-287.589	800.000	-0.072	-0.245
-286.574	-76.200	-0.110	-0.038
-285.559	-200.000	-0.015	0.156
-284.545	209.925	-0.102	-0.158
-283.530	290.994	-0.023	-0.041
-282.516	55.798	0.248	-0.237
-281.501	-140.755	0.083	-0.008
-280.486	-200.000	-0.076	-0.348
-279.472	81.173	0.080	0.085
-278.457	116.929	0.130	-0.157
-277.443	268.390	0.109	0.189
-276.428	-200.000	0.006	-0.296
-275.413	65.297	0.055	-0.055
-274.399	-200.000	-0.003	0.130
-273.384	130.279	0.225	0.283
-272.370	-39.195	-0.277	-0.144
-271.355	85.259	0.220	-0.238
-270.340	-41.027	-0.151	-0.077
-269.326	-136.604	-0.264	0.030
-268.311	463.533	0.070	-0.153
-267.297	-29.186	-0.099	0.056
-266.282	-66.673	0.195	-0.076
-265.267	-45.855	0.084	0.041
-264.253	20.220	-0.307	0.244
-263.238	-51.380	-0.298	-0.137
-262.224	-185.085	0.343	-0.005
-261.209	87.932	-0.089	-0.097
-260.195	-200.000	0.047	-0.258
-259.180	142.801	0.113	0.148
-258.165	793.161	0.115	0.311
-257.151	44.884	0.239	-0.217
-256.136	800.000	0.035	0.129
-255.122	-200.000	0.003	-0.203
-254.107	-98.763	0.102	-0.025
-253.092	-132.636	-0.309	-0.039
-252.078	-200.000	0.045	0.218
-251.063	-140.434	-0.284	0.029
-250.049	8.353	0.211	-0.156
-249.034	-114.571	0.094	0.018
-248.019	96.940	0.239	-0.269
-247.005	-74.077	-0.218	0.078
-245.990	800.000	-0.134	0.447
-244.976	-200.000	0.002	-0.065
-243.961	-99.786	0.137	-0.034
-242.946	4.772	-0.245	0.177
-241.932	-200.000	0.005	-0.169
-240.917	-114.697	-0.278	-0.052
-239.903	-164.133	-0.234	-0.011
-238.888	-85.112	0.342	0.105
-237.873	10.406	-0.301	-0.226
-236.859	478.324	-0.099	0.221
-235.844	-66.860	-0.320	0.124
-234.830	-200.000	0.018	0.160
-233.815	677.525	0.080	0.205
-232.800	-41.174	-0.202	-0.102
-231.786	-46.568	-0.170	0.082
-230.771	50.911	-0.121	0.113
-229.757	-15.180	-0.162	-0.102
-228.742	51.109	0.158	0.148
-227.727	-200.000	0.020	0.360
-226.713	-200.000	0.029	0.182
-225.698	-121.802	0.095	0.015
-224.684	800.000	-0.040	-0.149
-223.669	776.622	0.116	0.311
-222.655	64.463	0.054	0.054
-221.640	197.285	-0.047	-0.070
-220.625	-200.000	-0.041	0.357
-219.611	-200.000	0.001	0.081
-218.596	-143.196	0.408	-0.039
-217.582	349.850	-0.155	-0.302
-216.567	-200.000	0.001	-0.480
-215.552	-71.979	0.421	0.154
-214.538	92.804	0.196	0.218
-213.523	-148.161	-0.216	0.018
-212.509	235.449	0.018	-0.030
-211.494	210.498	0.110	-0.170
-210.479	-101.065	0.280	-0.068
-209.465	800.000	0.075	0.243
-208.450	800.000	-0.067	-0.185
-207.436	-88.398	-0.264	0.077
-206.421	-84.572	-0.274	-0.085
-205.406	-200.000	0.046	-0.283
-204.392	-63.717	0.080	-0.032
-203.377	-55.090	0.149	0.066
-202.363	-48.807	-0.405	-0.191
-201.348	-71.047	-0.278	-0.103
-200.333	120.972	-0.060	-0.073
-199.319	72.080	0.096	0.098
-198.304	28.956	0.152	-0.127
-197.290	-14.673	0.050	0.032
-196.275	780.692	-0.067	0.180
-195.260	271.167	-0.095	0.165
-194.246	120.844	0.170	-0.208
-193.231	41.641	-0.077	-0.068
-192.217	-165.238	0.271	-0.012
-191.202	800.000	0.079	0.252
-190.187	-200.000	-0.005	0.205
-189.173	-13.556	0.190	-0.121
-188.158	36.560	0.127	0.110
-187.144	-200.000	0.001	0.347
-186.129	-7.649	-0.148	0.098
-185.114	-129.959	0.265	0.036
-184.100	-30.598	0.346	-0.193
-183.085	61.773	-0.293	0.287
-182.071	-200.000	0.054	-0.356
-181.056	-200.000	-0.040	0.436
-180.042	-31.876	0.118	-0.065
-179.027	-93.069	-0.120	-0.033
-178.012	105.333	-0.121	-0.140
-176.998	-200.000	0.149	-0.001
-175.983	302.741	-0.095	-0.173
-174.969	280.926	-0.020	-0.036
-173.954	-29.345	-0.084	-0.047
-172.939	-200.000	0.053	0.399
-171.925	-163.673	0.128	0.006
-170.910	-38.370	-0.244	-0.127
-169.896	-200.000	-0.049	-0.330
-168.881	-11.624	0.053	-0.034
-167.866	-200.000	0.020	0.383
-166.852	-162.926	0.107	0.005
-165.837	192.814	-0.084	-0.124
-164.823	-55.952	-0.169	-0.074
-163.808	-87.871	0.322	-0.095
-162.793	-78.049	-0.205	-0.069
-161.779	-200.000	0.026	-0.337
-160.764	233.887	0.089	0.144
-159.750	269.045	-0.092	0.159
-158.735	167.818	0.227	0.317
-157.720	-200.000	-0.012	-0.221
-156.706	-39.705	0.379	0.195
-155.691	487.278	-0.179	0.400
-154.677	24.027	0.048	-0.039
-153.662	295.854	0.090	-0.161
-152.647	-27.358	0.094	-0.054
-151.633	202.970	0.045	-0.068
-150.618	-45.992	0.101	-0.049
-149.604	-57.665	0.190	0.082
-148.589	-129.979	-0.304	0.041
-147.574	-200.000	0.047	0.356
-146.560	-114.734	0.313	-0.059
-145.545	78.617	-0.046	0.049
-144.531	-90.507	0.260	0.074
-143.516	800.000	0.094	-0.331
-142.502	-200.000	0.010	0.228
-141.487	-179.218	-0.293	-0.006
-140.472	102.403	-0.230	-0.264
-139.458	314.615	-0.148	0.274
-138.443	22.933	-0.289	0.233
-137.429	800.000	-0.059	-0.173
-136.414	5.079	0.189	0.136
-135.399	110.508	-0.210	-0.247
-134.385	-151.801	-0.129	0.009
-133.370	454.045	-0.231	-0.502
-132.356	-135.390	0.100	-0.012
-131.341	192.931	0.159	0.236
-130.326	-93.643	0.341	0.092
-129.312	-180.463	-0.212	-0.004
-128.297	1.465	0.270	0.191
-127.283	-71.326	-0.213	-0.078
-126.268	-200.000	-0.023	-0.125
-125.253	279.995	0.121	-0.211
-124.239	-200.000	0.031	-0.301
-123.224	-111.662	0.223	0.044
-122.210	18.587	-0.107	-0.084
-121.195	6.739	0.038	0.028
