DTS Sentinel unit serial number:	SN413079Multiplexer serial number:	ORYXHardware model number:	OX4-SRSoftware version number:	ORYX F/W v4.00 Oryx Data Collector v3.7.2.0data status	okinstallation	princeton_trtdifferential loss correction	single-endedforward channel	channel 1reverse channel	N/Adate	2019/09/16time	13:26:35forward acquisition time	60.00reverse acquisition time	0.00gamma	496.2192k internal	0.2294k external	0.2294temperature offset calibration	0.9951default loss term (dB/km)	0.3790temperature slope calibration	1.0000multiplexer offset coefficient	1.0000multiplexer slope coefficient	1.0000fibre end	0.00T internal ref (°C)	41.59T ext. ref 1 (°C)	13.79T ext. ref 2 (°C)	39.40length (m)	temperature (°C)	Stokes	anti-Stokes-747.200	273.800	0.201	0.363
-746.185	-115.347	0.052	-0.010
-745.171	-45.078	-0.116	-0.059
-744.156	75.781	0.167	0.180
-743.142	427.059	0.205	0.451
-742.127	-134.877	-0.256	0.032
-741.112	-85.157	-0.222	0.071
-740.098	-200.000	0.008	0.471
-739.083	141.404	-0.070	-0.094
-738.069	-127.483	-0.232	0.035
-737.054	-30.636	-0.238	0.138
-736.039	495.176	-0.167	-0.392
-735.025	800.000	0.102	0.359
-734.010	-110.031	-0.389	-0.083
-732.996	-113.176	0.302	-0.061
-731.981	-28.007	-0.241	0.142
-730.966	-200.000	0.002	0.090
-729.952	42.739	-0.025	0.023
-728.937	-50.112	-0.226	0.109
-727.923	-56.445	-0.218	0.099
-726.908	-101.976	-0.253	-0.062
-725.894	-171.410	-0.242	0.008
-724.879	800.000	0.075	-0.223
-723.864	19.265	-0.228	-0.187
-722.850	-189.331	-0.183	-0.002
-721.835	-200.000	0.006	-0.045
-720.821	-109.499	0.308	-0.067
-719.806	157.562	0.171	-0.242
-718.791	125.970	-0.163	-0.210
-717.777	-173.840	0.169	0.005
-716.762	800.000	-0.086	-0.291
-715.748	-37.209	0.339	-0.185
-714.733	478.506	0.106	-0.245
-713.718	657.529	0.096	-0.251
-712.704	-38.840	0.110	-0.059
-711.689	-174.772	-0.059	0.002
-710.675	-103.209	-0.111	-0.027
-709.660	-200.000	-0.044	-0.447
-708.645	3.127	-0.252	-0.187
-707.631	-114.840	-0.408	-0.079
-706.616	108.146	-0.109	0.133
-705.602	13.459	0.352	0.279
-704.587	350.151	0.086	0.173
-703.572	223.129	-0.148	-0.244
-702.558	-40.544	0.111	0.059
-701.543	-200.000	0.092	-0.515
-700.529	731.478	-0.115	0.315
-699.514	800.000	-0.108	-0.470
-698.499	800.000	-0.043	-0.140
-697.485	-118.634	0.175	0.032
-696.470	-0.672	-0.271	0.196
-695.456	-200.000	-0.056	0.251
-694.441	-58.525	-0.070	-0.031
-693.426	-200.000	0.049	-0.223
-692.412	-200.000	-0.111	-0.542
-691.397	-150.100	0.348	-0.028
-690.383	-200.000	-0.014	-0.078
-689.368	-200.000	0.018	-0.084
-688.354	794.105	0.014	0.040
-687.339	195.541	0.138	-0.214
-686.324	360.476	-0.070	0.142
-685.310	800.000	-0.068	0.237
-684.295	-85.185	0.143	0.045
-683.281	-73.653	-0.172	0.064
-682.266	123.700	0.165	-0.211
-681.251	800.000	0.046	0.159
-680.237	-157.414	0.198	-0.012
-679.222	381.420	-0.142	-0.298
-678.208	-200.000	-0.001	-0.106
-677.193	-200.000	0.015	0.367
-676.178	-28.850	-0.334	-0.196
-675.164	-200.000	0.024	-0.280
-674.149	149.606	-0.236	-0.326
-673.135	800.000	0.043	-0.134
-672.120	701.414	-0.061	-0.164
-671.105	-55.072	0.385	0.177
-670.091	-147.730	0.264	-0.023
-669.076	-39.435	0.179	-0.096
-668.062	-200.000	0.009	-0.246
-667.047	-92.899	-0.110	0.031
-666.032	-200.000	0.010	-0.137
-665.018	800.000	0.044	-0.136
-664.003	-172.004	0.392	0.013
-662.989	141.654	-0.234	-0.316
-661.974	769.633	0.102	-0.284
-660.959	-200.000	-0.043	-0.317
-659.945	-126.119	-0.137	0.021
-658.930	-200.000	0.050	0.291
-657.916	-148.428	0.193	-0.016
-656.901	-133.567	-0.110	0.014
-655.886	101.335	0.039	0.047
-654.872	34.431	0.191	0.170
-653.857	-200.000	0.013	0.153
-652.843	652.184	0.010	-0.026
-651.828	8.787	0.240	-0.184
-650.814	61.446	-0.129	-0.130
-649.799	-96.416	0.165	-0.045
-648.784	-200.000	-0.056	0.297
-647.770	-43.795	-0.151	0.078
-646.755	-200.000	0.024	-0.241
-645.741	66.406	0.060	0.063
-644.726	-91.348	-0.305	-0.089
-643.711	-200.000	0.019	0.166
-642.697	21.085	0.129	0.107
-641.682	-141.632	0.127	-0.013
-640.668	-35.851	0.039	0.022
-639.653	-53.254	-0.114	-0.053
-638.638	-129.405	0.156	-0.022
-637.624	-200.000	0.017	-0.208
-636.609	-130.430	-0.202	-0.028
-635.595	-189.412	0.646	-0.008
-634.580	-200.000	0.094	0.555
-633.565	800.000	-0.076	0.292
-632.551	714.538	-0.052	0.140
-631.536	-22.532	-0.093	0.057
-630.522	800.000	0.116	0.340
-629.507	39.474	-0.176	-0.161
-628.492	290.061	0.047	-0.087
-627.478	-80.865	0.106	-0.036
-626.463	-200.000	0.035	0.359
-625.449	277.396	0.051	-0.092
-624.434	-69.474	-0.087	0.034
-623.419	-53.222	-0.105	-0.049
-622.405	-151.735	0.082	-0.006
-621.390	-148.789	0.297	-0.024
-620.376	-100.083	0.232	0.059
-619.361	-21.793	0.107	-0.066
-618.346	-36.784	0.156	-0.085
-617.332	-135.266	-0.191	0.023
-616.317	-200.000	0.030	-0.174
-615.303	63.121	0.203	0.207
-614.288	-200.000	0.038	-0.171
-613.273	58.226	0.142	0.142
-612.259	75.931	0.170	-0.183
-611.244	-200.000	-0.007	0.211
-610.230	501.455	0.080	-0.187
-609.215	-96.837	-0.052	-0.014
-608.201	-116.271	0.150	-0.028
-607.186	57.144	-0.221	0.220
-606.171	-3.156	-0.097	-0.069
-605.157	120.471	-0.125	0.158
-604.142	-200.000	-0.023	0.347
-603.128	-94.992	0.256	0.070
-602.113	-165.739	-0.232	0.010
-601.098	-102.046	-0.243	-0.060
-600.084	404.559	0.053	0.114
-599.069	-17.415	0.090	-0.058
-598.055	-200.000	-0.065	0.317
-597.040	607.008	-0.043	-0.109
-596.025	-200.000	0.024	0.502
-595.011	-132.744	-0.062	0.008
-593.996	-35.835	0.049	-0.027
-592.982	-200.000	-0.030	0.201
-591.967	-28.299	-0.190	-0.112
-590.952	-27.978	0.038	-0.023
-589.938	112.970	0.057	-0.071
-588.923	-200.000	0.015	0.266
-587.909	-94.836	-0.130	-0.036
-586.894	169.788	-0.115	-0.167
-585.879	-200.000	0.010	0.089
-584.865	254.806	0.063	0.109
-583.850	800.000	-0.045	-0.178
-582.836	-200.000	0.001	0.301
-581.821	-101.663	-0.225	-0.055
-580.806	-200.000	-0.017	0.158
-579.792	-58.590	0.134	-0.059
-578.777	-87.368	-0.180	0.056
-577.763	800.000	-0.025	0.073
-576.748	-8.185	-0.108	-0.074
-575.733	-191.622	-0.199	-0.002
-574.719	-138.388	-0.073	-0.008
-573.704	-127.231	0.232	-0.034
-572.690	-131.369	-0.310	-0.042
-571.675	-172.990	-0.239	-0.008
-570.661	197.217	-0.083	0.128
-569.646	56.932	-0.153	0.152
-568.631	-29.066	-0.189	-0.110
-567.617	191.176	0.080	-0.123
-566.602	24.886	-0.111	0.093
-565.588	-86.930	-0.256	0.079
-564.573	-200.000	0.031	-0.296
-563.558	-200.000	0.009	0.406
-562.544	-200.000	-0.000	0.184
-561.529	-200.000	-0.028	0.206
-560.515	-125.179	-0.245	-0.038
-559.500	378.258	0.060	0.124
-558.485	-4.644	0.426	-0.299
-557.471	-63.039	-0.180	0.076
-556.456	-64.944	-0.095	-0.039
-555.442	163.890	0.197	-0.281
-554.427	-200.000	-0.035	-0.285
-553.412	-66.249	-0.181	0.073
-552.398	-85.614	-0.351	-0.111
-551.383	-139.739	0.089	0.010
-550.369	-140.832	0.086	0.009
-549.354	278.284	-0.286	-0.517
-548.339	381.881	0.025	0.053
-547.325	800.000	-0.028	-0.081
-546.310	-33.604	0.115	0.065
-545.296	800.000	0.083	0.317
-544.281	-34.611	-0.291	0.161
-543.266	-89.109	-0.131	-0.039
-542.252	-200.000	0.000	0.145
-541.237	-200.000	-0.061	0.279
-540.223	193.050	-0.059	-0.090
-539.208	64.184	0.033	-0.034
-538.193	-3.879	0.263	0.185
-537.179	-152.834	-0.125	-0.009
-536.164	-200.000	0.049	-0.307
-535.150	800.000	-0.010	-0.031
-534.135	-124.036	0.233	-0.037
-533.121	-12.382	0.038	-0.025
-532.106	-200.000	0.117	0.579
-531.091	61.986	-0.087	0.088
-530.077	-125.259	0.154	-0.024
-529.062	800.000	0.084	0.235
-528.048	-200.000	0.001	-0.218
-527.033	-21.205	0.217	0.134
-526.018	298.009	0.093	0.174
-525.004	-56.937	-0.124	0.055
-523.989	302.050	0.013	0.024
-522.975	270.703	-0.106	0.188
-521.960	152.984	-0.014	-0.020
-520.945	-63.992	-0.260	0.108
-519.931	-28.085	-0.216	-0.126
-518.916	14.294	0.192	0.152
-517.902	340.261	-0.079	0.157
-516.887	800.000	0.111	0.347
-515.872	-115.917	-0.225	0.043
-514.858	120.185	-0.147	0.185
-513.843	235.421	0.092	0.154
-512.829	-37.611	-0.355	0.192
-511.814	368.500	-0.060	-0.122
-510.799	800.000	0.069	0.194
-509.785	-166.096	0.210	-0.009
-508.770	268.647	0.067	0.119
-507.756	-161.092	0.221	-0.012
-506.741	-8.768	-0.133	-0.090
-505.726	-3.569	0.147	-0.104
-504.712	-127.935	0.226	0.033
-503.697	-20.239	-0.262	-0.163
-502.683	123.916	-0.041	-0.052
-501.668	22.461	-0.210	-0.174
-500.653	188.074	0.069	0.104
-499.639	-17.339	0.152	0.097
-498.624	150.418	0.138	0.190
-497.610	-200.000	0.034	0.359
-496.595	605.100	-0.096	-0.241
-495.581	48.027	0.280	0.265
-494.566	-171.931	-0.164	0.005
-493.551	-72.137	0.181	0.068
-492.537	147.260	-0.257	-0.350
-491.522	800.000	-0.048	0.202
-490.508	53.530	0.151	-0.147
-489.493	-71.788	-0.276	-0.104
-488.478	-200.000	0.008	0.096
-487.464	-200.000	-0.029	-0.145
-486.449	14.436	-0.015	-0.012
-485.435	597.344	-0.073	0.184
-484.420	-30.373	-0.382	-0.219
-483.405	174.029	-0.019	-0.028
-482.391	-56.619	0.262	0.117
-481.376	433.471	0.120	0.264
-480.362	417.531	0.131	-0.283
-479.347	-144.238	-0.450	0.043
-478.332	-108.434	0.109	-0.024
-477.318	-69.502	-0.090	-0.035
-476.303	-162.666	0.118	-0.006
-475.289	123.440	-0.319	-0.405
-474.274	42.280	0.104	-0.095
-473.259	358.822	-0.148	-0.300
-472.245	5.784	-0.119	-0.089
-471.230	800.000	0.021	-0.076
-470.216	-129.759	0.135	-0.019
-469.201	-67.412	0.278	0.111
-468.186	132.870	-0.087	0.113
-467.172	-95.245	-0.119	-0.032
-466.157	-41.645	-0.128	-0.067
-465.143	81.505	-0.088	-0.097
-464.128	148.231	0.152	0.207
-463.113	-14.750	-0.152	-0.099
-462.099	259.785	-0.149	0.261
-461.084	245.932	0.076	-0.130
-460.070	185.424	-0.169	-0.254
-459.055	800.000	0.065	-0.265
-458.040	-104.180	-0.228	0.054
-457.026	155.004	-0.237	-0.330
-456.011	142.921	-0.221	0.298
-454.997	80.807	-0.100	-0.109
-453.982	5.227	0.286	-0.213
-452.968	-20.564	-0.118	0.073
-451.953	-108.985	-0.180	-0.039
-450.938	195.700	0.102	-0.156
-449.924	-200.000	0.003	-0.091
-448.909	91.891	-0.138	0.157
-447.895	495.525	0.106	0.246
-446.880	220.629	-0.011	0.017
-445.865	-126.249	-0.188	0.028
-444.851	800.000	-0.044	-0.188
-443.836	40.035	-0.138	-0.126
-442.822	-77.507	0.336	-0.118
-441.807	525.058	-0.029	0.069
-440.792	716.417	0.073	-0.195
-439.778	-158.887	-0.202	0.012
-438.763	-54.296	0.083	-0.038
-437.749	-172.349	-0.274	0.009
-436.734	422.927	0.121	0.262
-435.719	119.631	0.093	0.117
-434.705	-69.400	-0.067	0.026
-433.690	800.000	0.159	-0.470
-432.676	352.105	0.090	-0.180
-431.661	-137.470	0.215	0.025
-430.646	-200.000	0.068	0.306
-429.632	-29.560	0.154	-0.089
-428.617	-162.830	-0.088	0.004
-427.603	-200.000	0.022	0.147
-426.588	77.929	0.087	-0.094
-425.573	39.026	0.112	-0.101
-424.559	205.906	0.085	-0.134
-423.544	92.844	-0.044	0.050
-422.530	-80.423	0.140	-0.047
-421.515	22.657	0.142	0.117
-420.500	20.481	0.082	0.067
-419.486	-200.000	-0.069	-0.326
-418.471	-56.407	0.434	-0.194
-417.457	-21.975	-0.084	-0.052
-416.442	-113.111	0.274	0.055
-415.428	-6.247	0.143	0.098
-414.413	5.032	0.148	-0.110
-413.398	-114.960	-0.145	0.028
-412.384	52.594	-0.162	-0.157
-411.369	559.342	-0.042	-0.102
-410.355	-30.219	-0.145	0.083
-409.340	-200.000	-0.027	-0.298
-408.325	-200.000	0.015	-0.204
-407.311	-23.273	0.334	-0.203
-406.296	-86.661	-0.120	-0.037
-405.282	12.946	-0.062	-0.048
-404.267	-200.000	-0.012	0.174
-403.252	59.930	-0.074	0.074
-402.238	800.000	0.114	0.362
-401.223	-200.000	-0.015	0.153
-400.209	696.401	-0.085	-0.226
-399.194	-200.000	-0.113	-0.640
-398.179	24.182	-0.196	-0.163
-397.165	41.803	0.044	-0.040
-396.150	602.789	0.124	-0.312
-395.136	-159.516	0.136	-0.008
-394.121	195.989	0.025	-0.039
-393.106	364.525	-0.161	0.328
-392.092	142.291	-0.120	0.160
-391.077	273.602	0.046	0.082
-390.063	-169.224	-0.405	-0.015
-389.048	-102.881	0.420	0.101
-388.033	-85.729	0.265	0.083
-387.019	2.202	-0.184	-0.134
-386.004	-200.000	0.029	0.203
-384.990	800.000	-0.109	-0.388
-383.975	-3.899	0.367	0.257
-382.960	70.029	0.010	0.010
-381.946	800.000	0.031	-0.106
-380.931	-114.827	0.125	0.024
-379.917	-77.867	-0.389	-0.135
-378.902	-200.000	-0.038	-0.275
-377.888	-132.588	-0.058	0.007
-376.873	764.321	0.025	0.068
-375.858	-133.336	0.366	0.047
-374.844	49.315	-0.224	0.212
-373.829	27.587	0.122	0.103
-372.815	490.065	-0.012	0.027
-371.800	-22.896	-0.142	0.086
-370.785	296.437	-0.053	0.099
-369.771	101.875	0.024	0.028
-368.756	-200.000	-0.039	0.208
-367.742	567.839	-0.032	0.079
-366.727	147.816	0.064	-0.087
-365.712	-136.615	0.362	-0.042
-364.698	49.588	0.340	-0.322
-363.683	-200.000	-0.017	-0.294
-362.669	-60.120	0.264	0.114
-361.654	-68.050	-0.233	0.092
-360.639	625.367	0.027	-0.069
-359.625	25.639	-0.204	0.171
-358.610	-11.500	0.213	0.141
-357.596	221.399	0.100	0.161
-356.581	800.000	0.097	0.400
-355.566	-135.540	-0.200	0.024
-354.552	-200.000	-0.014	-0.148
-353.537	50.168	-0.081	0.077
-352.523	93.603	-0.235	0.268
-351.508	800.000	-0.093	-0.326
-350.493	-50.684	0.103	0.049
-349.479	-200.000	0.031	0.226
-348.464	-200.000	-0.037	-0.372
-347.450	-200.000	-0.036	-0.172
-346.435	100.857	0.094	-0.110
-345.420	-27.534	-0.091	0.053
-344.406	200.786	0.154	-0.238
-343.391	-38.012	0.255	0.136
-342.377	167.901	-0.090	0.129
-341.362	-200.000	0.014	0.075
-340.348	116.437	-0.196	-0.242
-339.333	-133.667	-0.402	0.051
-338.318	225.112	0.069	0.113
-337.304	800.000	0.082	0.234
-336.289	-54.132	-0.100	-0.046
-335.275	-200.000	0.115	0.580
-334.260	-152.617	0.094	-0.007
-333.245	90.962	-0.182	-0.206
-332.231	-61.826	-0.259	0.109
-331.216	-123.635	0.142	0.023
-330.202	-16.915	0.076	0.048
-329.187	-99.338	0.300	-0.076
-328.172	50.250	0.181	0.172
-327.158	-200.000	0.006	0.212
-326.143	-57.168	0.191	-0.085
-325.129	-130.056	-0.210	-0.029
-324.114	199.949	-0.250	-0.387
-323.099	800.000	0.033	-0.110
-322.085	40.700	-0.347	0.314
-321.070	31.781	-0.318	-0.275
-320.056	-83.338	0.378	0.122
-319.041	230.194	0.053	0.087
-318.026	-20.589	-0.363	0.224
-317.012	-5.355	-0.216	-0.149
-315.997	-121.011	-0.417	-0.070
-314.983	-7.625	-0.249	-0.169
-313.968	410.797	-0.103	-0.220
-312.953	-27.285	-0.141	-0.083
-311.939	-200.000	0.026	-0.218
-310.924	-35.804	0.141	0.077
-309.910	-127.919	-0.112	0.016
-308.895	26.426	-0.364	0.306
-307.880	-42.338	0.216	-0.111
-306.866	800.000	0.083	0.234
-305.851	389.614	-0.140	-0.291
-304.837	198.211	0.056	-0.086
-303.822	69.191	0.118	-0.122
-302.807	-200.000	0.023	-0.132
-301.793	142.489	-0.204	0.272
-300.778	-200.000	0.062	-0.288
-299.764	219.974	-0.136	-0.219
-298.749	22.768	-0.229	0.189
-297.735	-200.000	0.014	-0.155
-296.720	42.694	-0.103	0.094
-295.705	212.572	-0.170	0.269
-294.691	195.298	-0.089	-0.135
-293.676	-120.322	-0.221	0.038
-292.662	69.320	0.275	0.284
-291.647	-200.000	-0.003	0.075
-290.632	-184.167	-0.091	0.002
-289.618	471.327	0.082	0.186
-288.603	-200.000	0.004	0.059
-287.589	386.380	-0.033	-0.068
-286.574	112.096	-0.113	0.138
-285.559	86.006	0.070	-0.077
-284.545	800.000	-0.025	-0.100
-283.530	23.856	0.219	0.182
-282.516	-200.000	0.019	-0.092
-281.501	478.054	0.172	0.392
-280.486	50.897	0.181	-0.172
-279.472	614.124	0.137	0.345
-278.457	-146.581	0.229	-0.020
-277.443	-82.635	0.246	-0.080
-276.428	128.467	0.136	-0.174
-275.413	27.845	-0.149	-0.126
-274.399	84.976	0.123	0.135
-273.384	-136.679	-0.099	0.012
-272.370	332.983	-0.049	0.095
-271.355	-200.000	-0.044	0.249
-270.340	-20.380	-0.147	0.091
-269.326	-18.554	0.214	-0.134
-268.311	488.426	0.028	-0.064
-267.297	410.623	-0.108	-0.230
-266.282	-88.124	0.080	-0.024
-265.267	-200.000	-0.040	-0.291
-264.253	81.465	-0.090	-0.098
-263.238	-59.834	-0.392	0.168
-262.224	77.392	-0.225	0.240
-261.209	-133.375	0.489	-0.062
-260.195	-95.286	-0.109	-0.030
-259.180	-200.000	0.050	-0.325
-258.165	-132.937	-0.189	-0.024
-257.151	-44.034	-0.368	-0.185
-256.136	-145.883	0.412	-0.037
-255.122	800.000	-0.074	0.226
-254.107	-168.451	0.096	-0.004
-253.092	300.329	0.116	0.215
-252.078	130.788	0.168	-0.216
-251.063	402.968	0.053	0.111
-250.049	5.384	-0.146	0.108
-249.034	800.000	0.031	-0.090
-248.019	-8.444	0.393	-0.265
-247.005	-106.960	-0.219	-0.049
-245.990	-200.000	0.012	0.077
-244.976	165.584	0.207	0.293
-243.961	-134.281	0.395	0.049
-242.946	170.569	0.046	0.066
-241.932	25.486	-0.168	-0.140
-240.917	80.598	0.221	-0.239
-239.903	135.265	-0.135	0.176
-238.888	800.000	0.083	-0.250
-237.873	-126.769	-0.193	0.029
-236.859	-200.000	0.006	-0.077
-235.844	-200.000	0.033	0.197
-234.830	329.601	0.180	-0.347
-233.815	800.000	-0.101	-0.297
-232.800	390.888	0.122	-0.254
-231.786	-82.675	-0.075	0.024
-230.771	-52.363	-0.093	-0.043
-229.757	478.765	-0.042	0.095
-228.742	-177.937	0.146	0.003
-227.727	-41.680	-0.347	-0.179
-226.713	165.060	-0.096	0.135
-225.698	-136.357	0.219	-0.026
-224.684	800.000	-0.100	-0.326
-223.669	-200.000	-0.047	0.388
-222.655	265.039	-0.085	0.149
-221.640	800.000	0.074	-0.268
-220.625	35.136	0.160	0.140
-219.611	-87.690	0.301	-0.091
-218.596	-153.626	0.386	0.027
-217.582	800.000	0.090	-0.266
-216.567	-118.458	0.316	-0.056
-215.552	-13.928	0.203	0.131
-214.538	-200.000	-0.014	-0.330
-213.523	9.052	0.090	0.068
-212.509	323.846	0.029	0.055
-211.494	800.000	-0.086	0.262
-210.479	-123.678	0.084	0.013
-209.465	-200.000	0.032	-0.409
-208.450	9.137	0.048	0.036
-207.436	34.327	-0.430	-0.376
-206.421	-200.000	0.042	-0.267
-205.406	241.076	0.060	-0.100
-204.392	800.000	-0.025	0.092
-203.377	2.724	-0.013	0.009
-202.363	142.721	-0.051	0.068
-201.348	800.000	0.091	0.389
-200.333	-103.406	-0.113	0.027
-199.319	-146.489	0.345	-0.030
-198.304	641.383	-0.082	0.208
-197.290	-14.213	0.098	-0.064
-196.275	7.362	-0.137	-0.102
-195.260	-125.386	-0.164	-0.025
-194.246	-87.599	0.250	-0.076
-193.231	-200.000	0.030	-0.193
-192.217	-200.000	0.023	-0.107
-191.202	194.549	-0.124	-0.188
-190.187	-200.000	-0.013	-0.114
-189.173	-16.220	-0.112	0.071
-188.158	98.695	-0.092	-0.106
-187.144	93.668	0.156	-0.177
-186.129	-36.815	0.109	0.058
-185.114	-200.000	0.074	0.403
-184.100	-48.260	0.212	-0.102
-183.085	-200.000	0.013	0.077
-182.071	-54.212	-0.272	0.124
-181.056	-112.962	0.125	0.025
-180.042	-37.852	-0.179	0.095
-179.027	488.881	-0.023	-0.052
-178.012	-4.516	0.126	-0.087
-176.998	369.197	0.232	0.470
-175.983	800.000	-0.060	0.174
-174.969	-81.304	0.165	-0.054
-173.954	-200.000	0.055	-0.456
-172.939	-115.343	0.127	-0.024
-171.925	-13.374	-0.055	0.036
-170.910	-59.797	-0.270	0.116
-169.896	73.979	0.169	-0.177
-168.881	79.026	-0.188	0.201
-167.866	6.820	-0.101	-0.075
-166.852	-200.000	0.039	-0.245
-165.837	129.981	0.043	0.055
-164.823	504.054	-0.079	-0.182
-163.808	-200.000	0.006	0.184
-162.793	800.000	0.128	-0.394
-161.779	800.000	0.091	-0.390
-160.764	354.804	-0.108	-0.214
-159.750	-46.267	0.271	0.133
-158.735	55.677	0.230	-0.223
-157.720	-200.000	0.003	-0.100
-156.706	-106.112	-0.138	-0.031
-155.691	800.000	0.087	-0.300
-154.677	-96.695	0.160	-0.042
-153.662	800.000	0.116	0.336
-152.647	-200.000	-0.028	0.393
-151.633	-200.000	0.000	-0.055
-150.618	112.238	-0.204	-0.247
-149.604	800.000	-0.056	-0.159
-148.589	442.545	-0.095	-0.208
-147.574	800.000	-0.056	0.195
-146.560	800.000	0.044	-0.149
-145.545	-200.000	0.008	0.043
-144.531	403.952	0.075	0.159
-143.516	-2.448	-0.305	-0.213
-142.502	40.627	0.127	0.115
-141.487	-121.181	-0.288	-0.048
-140.472	-200.000	0.006	-0.027
-139.458	-200.000	0.011	0.336
-138.443	76.265	0.131	-0.139
-137.429	-79.080	-0.143	0.049
-136.414	314.117	0.097	-0.183
-135.399	119.110	-0.253	0.313
-134.385	326.048	0.173	0.331
-133.370	263.274	-0.094	-0.163
-132.356	-43.055	0.161	0.082
-131.341	-151.684	0.211	0.016
-130.326	511.635	0.126	-0.294
-129.312	-73.162	-0.107	0.039
-128.297	98.324	0.254	0.292
-127.283	-93.166	-0.064	-0.018
-126.268	750.013	0.044	-0.117
-125.253	-200.000	-0.050	-0.263
-124.239	-55.140	0.260	0.117
-123.224	321.765	-0.069	-0.131
-122.210	-200.000	-0.000	-0.008
