DTS Sentinel unit serial number:	SN413079Multiplexer serial number:	ORYXHardware model number:	OX4-SRSoftware version number:	ORYX F/W v4.00 Oryx Data Collector v3.7.2.0data status	okinstallation	princeton_trtdifferential loss correction	single-endedforward channel	channel 1reverse channel	N/Adate	2019/09/16time	22:10:35forward acquisition time	60.00reverse acquisition time	0.00gamma	496.2192k internal	0.2324k external	0.2324temperature offset calibration	0.9953default loss term (dB/km)	0.3790temperature slope calibration	1.0000multiplexer offset coefficient	1.0000multiplexer slope coefficient	1.0000fibre end	0.00T internal ref (°C)	31.06T ext. ref 1 (°C)	0.09T ext. ref 2 (°C)	24.81length (m)	temperature (°C)	Stokes	anti-Stokes-747.200	381.309	0.086	0.179
-746.185	93.975	-0.140	-0.160
-745.171	-115.808	-0.232	-0.044
-744.156	770.600	-0.109	0.301
-743.142	-141.033	0.161	-0.017
-742.127	800.000	-0.039	0.128
-741.112	326.074	0.027	-0.051
-740.098	-200.000	-0.055	0.373
-739.083	91.075	-0.158	-0.179
-738.069	-200.000	0.021	0.226
-737.054	-147.751	-0.107	0.009
-736.039	-178.882	-0.517	0.012
-735.025	1.653	0.246	0.179
-734.010	492.756	0.104	-0.242
-732.996	203.569	0.234	0.366
-731.981	800.000	0.101	0.445
-730.966	-151.764	-0.401	-0.030
-729.952	82.532	-0.171	-0.188
-728.937	-104.331	-0.300	0.070
-727.923	-91.934	0.219	0.063
-726.908	-22.932	-0.193	-0.117
-725.894	-200.000	0.068	0.000
-724.879	21.755	-0.174	-0.143
-723.864	-83.388	0.380	-0.123
-722.850	-146.563	-0.231	0.020
-721.835	-31.512	-0.124	-0.070
-720.821	99.383	-0.109	-0.127
-719.806	-200.000	-0.062	0.376
-718.791	2.728	-0.253	0.185
-717.777	-200.000	0.001	0.217
-716.762	-200.000	-0.060	-0.272
-715.748	-13.429	0.351	-0.229
-714.733	-18.577	-0.183	-0.115
-713.718	-98.323	0.070	-0.018
-712.704	9.394	-0.239	-0.182
-711.689	-134.149	0.101	-0.013
-710.675	114.111	0.160	-0.196
-709.660	-81.016	-0.364	0.121
-708.645	-132.930	0.210	0.027
-707.631	26.191	-0.138	-0.116
-706.616	-47.645	0.116	-0.057
-705.602	-200.000	0.070	-0.533
-704.587	-200.000	-0.020	-0.485
-703.572	-185.510	0.141	0.002
-702.558	800.000	0.035	-0.118
-701.543	24.178	0.073	-0.061
-700.529	618.025	-0.175	0.443
-699.514	-200.000	-0.018	0.308
-698.499	-200.000	0.073	-0.322
-697.485	-128.299	-0.280	0.040
-696.470	-200.000	-0.023	0.115
-695.456	-85.551	-0.399	0.125
-694.441	-46.569	-0.236	0.116
-693.426	-63.540	0.212	-0.088
-692.412	170.593	-0.054	-0.078
-691.397	318.569	0.132	-0.252
-690.383	412.436	-0.072	-0.154
-689.368	90.016	-0.095	-0.107
-688.354	-135.489	0.100	0.012
-687.339	-200.000	0.053	-0.247
-686.324	-12.033	-0.075	-0.049
-685.310	268.127	0.050	-0.089
-684.295	-25.828	0.104	0.062
-683.281	-140.324	-0.256	0.027
-682.266	-127.147	-0.140	0.021
-681.251	74.093	0.170	0.179
-680.237	-200.000	-0.024	0.174
-679.222	800.000	-0.031	-0.121
-678.208	-94.791	0.065	-0.018
-677.193	-157.365	-0.114	-0.007
-676.178	-200.000	0.027	-0.253
-675.164	-112.572	-0.159	0.032
-674.149	69.666	-0.137	0.142
-673.135	800.000	-0.086	-0.261
-672.120	800.000	-0.078	-0.304
-671.105	-111.942	-0.267	0.054
-670.091	696.069	0.077	-0.204
-669.076	800.000	0.055	-0.164
-668.062	-200.000	0.020	-0.162
-667.047	-18.601	0.333	-0.209
-666.032	800.000	0.085	-0.244
-665.018	115.114	-0.274	-0.337
-664.003	-68.631	0.222	-0.086
-662.989	527.668	0.153	0.363
-661.974	227.610	-0.129	0.211
-660.959	-111.546	-0.457	-0.093
-659.945	469.736	0.120	0.272
-658.930	-159.487	0.433	-0.024
-657.916	-58.414	0.180	0.079
-656.901	-20.680	0.116	-0.071
-655.886	593.843	0.138	0.343
-654.872	-200.000	0.006	-0.074
-653.857	-143.068	-0.235	0.023
-652.843	-200.000	0.036	-0.371
-651.828	76.518	0.208	-0.222
-650.814	62.353	-0.080	0.080
-649.799	-200.000	0.024	-0.127
-648.784	-200.000	-0.005	0.207
-647.770	-113.150	-0.236	0.047
-646.755	-200.000	0.097	-0.000
-645.741	-97.675	-0.310	-0.081
-644.726	-200.000	0.022	-0.140
-643.711	-200.000	0.044	-0.282
-642.697	91.994	-0.162	-0.184
-641.682	800.000	-0.046	0.174
-640.668	92.897	0.046	0.052
-639.653	302.402	0.097	-0.180
-638.638	-153.398	-0.277	-0.019
-637.624	-23.452	-0.155	0.094
-636.609	285.288	-0.213	-0.387
-635.595	29.097	-0.268	-0.229
-634.580	-17.465	-0.269	-0.170
-633.565	800.000	-0.081	-0.234
-632.551	-78.318	0.366	-0.126
-631.536	2.957	-0.189	-0.138
-630.522	473.661	0.040	-0.091
-629.507	-77.939	-0.142	-0.049
-628.492	379.637	0.107	0.220
-627.478	-200.000	-0.033	0.175
-626.463	162.527	0.084	-0.118
-625.449	800.000	-0.071	-0.300
-624.434	-200.000	0.053	0.267
-623.419	-152.829	-0.251	-0.018
-622.405	57.259	-0.159	-0.156
-621.390	-61.125	0.456	-0.193
-620.376	-36.729	-0.117	-0.063
-619.361	800.000	-0.042	-0.127
-618.346	800.000	-0.036	-0.100
-617.332	-99.907	-0.126	-0.032
-616.317	-115.692	-0.062	-0.012
-615.303	686.109	-0.090	0.237
-614.288	-77.980	0.143	0.050
-613.273	-65.191	0.304	0.123
-612.259	-112.873	-0.375	0.075
-611.244	-86.806	-0.169	-0.052
-610.230	47.005	-0.031	-0.029
-609.215	-103.336	0.304	0.072
-608.201	294.852	0.076	-0.140
-607.186	9.393	-0.305	-0.232
-606.171	-80.779	-0.112	0.038
-605.157	-26.179	0.200	0.118
-604.142	-61.707	-0.371	-0.156
-603.128	-75.513	-0.220	-0.078
-602.113	-173.599	0.111	-0.003
-601.098	627.933	0.055	0.139
-600.084	-101.430	0.170	0.042
-599.069	111.621	-0.165	-0.200
-598.055	-56.594	-0.073	-0.033
-597.040	-99.755	0.234	0.059
-596.025	-57.814	-0.368	-0.161
-595.011	800.000	0.030	-0.106
-593.996	-200.000	-0.042	0.294
-592.982	334.767	0.050	0.097
-591.967	490.230	-0.183	-0.421
-590.952	48.653	-0.170	-0.160
-589.938	-12.543	0.027	0.018
-588.923	-200.000	0.011	-0.078
-587.909	-200.000	-0.018	0.168
-586.894	314.218	0.184	-0.348
-585.879	150.302	0.020	0.027
-584.865	335.546	-0.155	-0.301
-583.850	43.736	0.053	0.048
-582.836	25.216	0.094	0.078
-581.821	60.922	-0.145	0.144
-580.806	-9.050	0.432	-0.290
-579.792	306.766	0.135	0.253
-578.777	-40.940	-0.595	0.309
-577.763	397.909	-0.107	-0.225
-576.748	599.466	-0.174	-0.432
-575.733	682.528	-0.023	0.060
-574.719	-135.249	-0.013	-0.002
-573.704	-3.622	0.230	-0.160
-572.690	-45.396	0.175	0.087
-571.675	-200.000	0.030	0.446
-570.661	75.936	0.224	0.237
-569.646	159.308	0.158	0.220
-568.631	-157.914	-0.212	-0.013
-567.617	-20.900	-0.258	-0.158
-566.602	-130.283	0.116	0.016
-565.588	653.138	0.068	0.174
-564.573	136.749	-0.141	-0.185
-563.558	-200.000	0.072	-0.322
-562.544	800.000	0.069	0.261
-561.529	-72.092	0.198	0.074
-560.515	-71.903	-0.101	-0.038
-559.500	308.474	-0.139	0.261
-558.485	-102.022	-0.298	-0.072
-557.471	120.571	-0.069	-0.086
-556.456	-200.000	0.002	0.308
-555.442	800.000	-0.053	0.215
-554.427	-152.095	0.191	0.014
-553.412	233.568	0.013	-0.022
-552.398	-79.914	-0.339	-0.114
-551.383	31.671	-0.191	-0.165
-550.369	-200.000	-0.028	0.122
-549.354	-120.873	-0.278	-0.047
-548.339	45.787	0.125	-0.116
-547.325	426.759	-0.109	0.236
-546.310	290.157	0.042	0.076
-545.296	-154.479	0.147	-0.010
-544.281	800.000	-0.108	-0.335
-543.266	191.916	0.084	-0.126
-542.252	-45.949	-0.131	-0.065
-541.237	800.000	0.135	-0.420
-540.223	-148.137	0.246	-0.020
-539.208	-43.060	-0.191	0.097
-538.193	32.668	0.139	-0.120
-537.179	-107.525	-0.158	-0.035
-536.164	12.823	-0.073	0.057
-535.150	-86.414	-0.110	-0.034
-534.135	-200.000	0.016	0.150
-533.121	31.574	-0.115	0.099
-532.106	-200.000	0.044	0.534
-531.091	-200.000	-0.034	0.241
-530.077	529.551	0.070	-0.165
-529.062	-95.039	0.508	-0.137
-528.048	564.687	0.060	0.147
-527.033	5.089	-0.316	-0.233
-526.018	36.263	0.186	-0.164
-525.004	-116.837	-0.234	-0.043
-523.989	800.000	0.030	0.093
-522.975	800.000	-0.017	-0.056
-521.960	-150.774	0.378	-0.029
-520.945	800.000	0.067	0.256
-519.931	15.161	-0.242	0.190
-518.916	-106.117	-0.144	-0.032
-517.902	-114.288	0.124	0.024
-516.887	-107.061	-0.437	0.097
-515.872	153.697	0.157	0.216
-514.858	-102.343	0.112	0.027
-513.843	5.803	0.092	-0.068
-512.829	-9.259	0.211	-0.141
-511.814	6.099	0.377	-0.279
-510.799	-51.630	0.412	-0.192
-509.785	710.534	-0.053	-0.140
-508.770	-21.004	-0.105	-0.065
-507.756	-117.281	0.440	0.080
-506.741	-99.334	-0.297	0.075
-505.726	44.649	-0.097	0.089
-504.712	-200.000	-0.059	-0.294
-503.697	572.368	-0.108	-0.263
-502.683	-133.040	-0.126	-0.016
-501.668	38.334	0.144	0.128
-500.653	-200.000	-0.015	-0.232
-499.639	-132.896	-0.133	0.017
-498.624	-3.235	-0.147	-0.102
-497.610	-200.000	-0.020	0.116
-496.595	-56.367	-0.236	0.105
-495.581	-138.428	-0.347	-0.038
-494.566	50.722	0.078	0.073
-493.551	185.765	0.163	0.242
-492.537	331.977	0.062	0.119
-491.522	-155.215	0.181	0.012
-490.508	800.000	0.115	-0.363
-489.493	-94.870	-0.190	0.051
-488.478	-200.000	0.018	-0.127
-487.464	-30.970	0.200	-0.113
-486.449	800.000	-0.024	0.093
-485.435	-44.453	-0.074	0.037
-484.420	800.000	0.047	-0.182
-483.405	800.000	0.134	-0.377
-482.391	-118.212	0.322	-0.057
-481.376	265.039	-0.013	0.023
-480.362	201.214	0.128	0.197
-479.347	-87.590	0.182	0.055
-478.332	-200.000	0.008	-0.153
-477.318	-200.000	0.048	0.362
-476.303	556.058	-0.171	0.411
-475.289	-98.101	0.225	0.058
-474.274	266.321	0.057	-0.100
-473.259	-123.938	-0.245	0.039
-472.245	481.883	-0.029	-0.066
-471.230	-10.121	-0.095	-0.063
-470.216	7.774	-0.128	0.096
-469.201	362.995	0.074	-0.149
-468.186	100.236	-0.078	0.090
-467.172	21.707	-0.166	-0.135
-466.157	87.654	0.108	-0.119
-465.143	800.000	0.111	0.314
-464.128	355.629	-0.140	0.277
-463.113	53.924	0.163	-0.156
-462.099	-66.673	0.182	0.072
-461.084	-55.869	-0.280	0.125
-460.070	445.060	-0.055	-0.122
-459.055	42.734	0.133	-0.121
-458.040	119.248	-0.095	0.117
-457.026	-200.000	0.016	0.217
-456.011	-86.755	0.503	-0.153
-454.997	77.976	0.194	0.206
-453.982	445.725	0.081	-0.178
-452.968	-102.731	0.405	0.096
-451.953	-9.432	0.092	-0.061
-450.938	-181.315	0.161	-0.003
-449.924	-200.000	0.028	0.175
-448.909	54.267	-0.105	-0.101
-447.895	-69.961	0.072	-0.028
-446.880	800.000	0.060	0.178
-445.865	800.000	-0.040	-0.150
-444.851	800.000	-0.032	-0.136
-443.836	800.000	0.105	0.294
-442.822	-4.200	-0.038	-0.026
-441.807	-78.533	0.235	0.080
-440.792	145.098	0.140	-0.187
-439.778	800.000	0.067	-0.221
-438.763	13.799	-0.124	-0.096
-437.749	328.664	0.104	-0.199
-436.734	-200.000	-0.014	-0.287
-435.719	207.326	-0.171	0.265
-434.705	-200.000	-0.049	-0.245
-433.690	305.432	-0.107	-0.198
-432.676	-56.818	0.340	0.150
-431.661	100.322	-0.101	-0.117
-430.646	-99.105	-0.201	-0.051
-429.632	800.000	-0.054	0.189
-428.617	211.899	0.117	0.183
-427.603	210.254	-0.041	-0.064
-426.588	45.059	-0.034	0.031
-425.573	800.000	-0.052	0.196
-424.559	175.438	-0.158	-0.228
-423.544	-184.454	0.150	-0.002
-422.530	34.498	-0.121	-0.106
-421.515	-56.231	0.116	-0.052
-420.500	251.878	0.057	0.096
-419.486	-146.295	0.176	-0.015
-418.471	-200.000	0.051	0.321
-417.457	800.000	0.068	-0.205
-416.442	-111.107	-0.477	-0.097
-415.428	-152.254	0.325	0.023
-414.413	0.364	0.195	0.138
-413.398	-100.781	-0.303	-0.074
-412.384	-20.729	-0.092	-0.056
-411.369	556.459	-0.036	-0.086
-410.355	-145.291	-0.212	0.019
-409.340	-149.277	-0.098	-0.008
-408.325	18.645	0.110	-0.088
-407.311	98.297	-0.116	0.133
-406.296	437.444	0.085	-0.184
-405.282	-121.361	0.274	0.046
-404.267	-200.000	-0.070	0.310
-403.252	563.396	-0.071	-0.170
-402.238	-200.000	-0.028	0.207
-401.223	-200.000	0.036	-0.345
-400.209	-95.573	0.341	0.091
-399.194	478.349	0.033	-0.074
-398.179	298.537	-0.183	0.334
-397.165	660.866	-0.049	-0.126
-396.150	186.886	0.152	-0.226
-395.136	-200.000	0.017	0.146
-394.121	-73.021	-0.407	-0.149
-393.106	-10.666	-0.175	0.115
-392.092	50.077	0.192	0.181
-391.077	-188.947	0.415	0.005
-390.063	-4.701	0.055	-0.038
-389.048	-173.918	-0.150	0.004
-388.033	-200.000	0.047	0.257
-387.019	-110.566	-0.187	0.039
-386.004	126.110	0.269	-0.339
-384.990	-200.000	0.035	0.184
-383.975	-36.902	-0.116	0.062
-382.960	503.022	-0.107	0.246
-381.946	800.000	0.056	0.208
-380.931	-102.533	-0.300	-0.071
-379.917	800.000	0.111	-0.307
-378.902	581.708	-0.086	-0.209
-377.888	-50.596	0.215	-0.101
-376.873	16.180	0.141	0.111
-375.858	315.528	0.079	0.149
-374.844	106.401	0.264	0.312
-373.829	380.763	0.116	0.237
-372.815	6.935	0.192	-0.142
-371.800	653.697	0.172	-0.438
-370.785	123.409	-0.173	-0.216
-369.771	766.892	0.053	-0.144
-368.756	-200.000	0.016	0.322
-367.742	-0.762	0.293	0.207
-366.727	-97.420	-0.067	0.017
-365.712	-200.000	-0.038	-0.194
-364.698	-92.479	0.282	0.079
-363.683	-39.965	-0.327	0.170
-362.669	-92.156	0.292	-0.082
-361.654	-200.000	0.021	0.124
-360.639	-44.491	-0.073	-0.036
-359.625	-76.515	-0.195	-0.068
-358.610	-42.816	-0.180	0.091
-357.596	463.433	-0.162	-0.361
-356.581	-94.920	0.126	0.034
-355.566	-200.000	-0.003	0.183
-354.552	800.000	0.014	0.041
-353.537	-27.097	-0.206	0.119
-352.523	-200.000	-0.031	0.220
-351.508	453.152	-0.097	-0.214
-350.493	-200.000	-0.035	0.168
-349.479	228.873	-0.238	0.385
-348.464	-200.000	-0.023	0.161
-347.450	-29.975	-0.124	-0.070
-346.435	89.399	-0.081	0.090
-345.420	-32.774	0.202	-0.112
-344.406	-115.914	-0.054	0.010
-343.391	-109.827	-0.219	-0.046
-342.377	-169.535	0.113	0.004
-341.362	72.661	-0.050	0.052
-340.348	159.747	-0.315	0.436
-339.333	-200.000	0.001	0.217
-338.318	32.659	0.196	-0.169
-337.304	800.000	-0.070	-0.237
-336.289	25.917	-0.036	0.030
-335.275	-108.350	0.136	0.029
-334.260	-200.000	0.057	-0.254
-333.245	9.326	-0.109	-0.082
-332.231	-69.137	0.158	0.060
-331.216	-135.809	-0.100	-0.012
-330.202	-7.098	0.108	-0.073
-329.187	-70.573	0.181	0.068
-328.172	93.459	-0.248	-0.279
-327.158	96.690	-0.134	0.153
-326.143	-200.000	-0.017	-0.088
-325.129	101.212	-0.264	0.305
-324.114	-101.673	-0.285	0.069
-323.099	-161.042	-0.132	-0.007
-322.085	-22.998	0.304	-0.182
-321.070	-129.275	-0.357	-0.049
-320.056	-131.031	0.208	-0.028
-319.041	-59.561	0.332	-0.141
-318.026	-200.000	-0.042	0.377
-317.012	136.784	-0.146	-0.189
-315.997	-200.000	-0.054	0.271
-314.983	150.120	-0.204	0.274
-313.968	-53.125	0.099	0.045
-312.953	-46.955	-0.280	0.136
-311.939	-200.000	0.029	-0.238
-310.924	-174.120	0.115	-0.003
-309.910	147.745	0.133	0.178
-308.895	780.047	-0.094	0.256
-307.880	61.002	-0.225	-0.221
-306.866	-4.876	-0.160	-0.110
-305.851	84.250	-0.050	0.054
-304.837	87.104	0.215	-0.235
-303.822	-38.098	-0.144	-0.076
-302.807	-79.973	-0.280	-0.093
-301.793	-123.023	-0.458	-0.073
-300.778	-53.436	0.246	0.112
-299.764	316.158	0.127	-0.238
-298.749	800.000	-0.098	0.290
-297.735	-2.459	0.084	-0.058
-296.720	378.907	-0.029	-0.058
-295.705	-200.000	0.002	-0.020
-294.691	-200.000	-0.039	0.307
-293.676	284.882	0.071	-0.126
-292.662	-83.176	-0.097	0.031
-291.647	-158.258	0.230	-0.013
-290.632	-38.071	-0.234	0.123
-289.618	-200.000	-0.027	0.197
-288.603	56.754	-0.064	-0.062
-287.589	-125.055	0.169	0.026
-286.574	142.571	-0.030	-0.039
-285.559	93.949	-0.091	0.102
-284.545	800.000	-0.114	-0.337
-283.530	136.245	0.298	-0.386
-282.516	-141.102	0.719	0.073
-281.501	586.012	0.086	0.209
-280.486	-60.553	0.214	-0.090
-279.472	1.242	0.071	0.050
-278.457	-164.151	0.190	0.009
-277.443	495.336	0.065	-0.148
-276.428	19.160	0.268	0.213
-275.413	106.611	-0.047	0.055
-274.399	-1.364	0.216	0.151
-273.384	31.374	0.174	-0.148
-272.370	-22.840	-0.044	-0.026
-271.355	-82.681	0.299	0.096
-270.340	3.748	0.191	-0.138
-269.326	515.369	0.061	-0.141
-268.311	676.352	-0.091	0.234
-267.297	-200.000	-0.022	-0.200
-266.282	-57.597	-0.246	0.107
-265.267	105.961	0.102	-0.120
-264.253	35.147	0.216	0.188
-263.238	-107.931	0.142	0.031
-262.224	-26.377	-0.257	-0.149
-261.209	-138.066	-0.145	0.016
-260.195	-200.000	-0.052	-0.244
-259.180	299.664	0.057	0.103
-258.165	129.826	-0.012	-0.015
-257.151	-200.000	0.018	-0.154
-256.136	460.585	0.048	-0.106
-255.122	800.000	0.023	0.078
-254.107	512.386	-0.125	-0.288
-253.092	-114.804	-0.117	-0.022
-252.078	438.274	-0.182	0.394
-251.063	32.835	0.203	0.174
-250.049	-200.000	0.045	0.240
-249.034	-68.721	-0.271	0.104
-248.019	-174.241	-0.303	0.009
-247.005	800.000	-0.022	0.088
-245.990	103.699	0.132	0.154
-244.976	-43.972	-0.161	0.080
-243.961	-200.000	0.032	0.372
-242.946	264.110	0.069	-0.119
-241.932	162.750	0.252	-0.351
-240.917	101.288	-0.120	0.138
-239.903	-200.000	0.061	0.497
-238.888	-152.131	0.261	-0.019
-237.873	-200.000	-0.033	-0.153
-236.859	609.838	-0.113	0.278
-235.844	-157.203	0.274	0.016
-234.830	800.000	-0.070	-0.201
-233.815	-26.100	0.075	0.044
-232.800	-51.762	-0.131	0.061
-231.786	495.240	-0.181	0.411
-230.771	-115.514	-0.205	0.038
-229.757	-66.053	0.055	-0.022
-228.742	-67.167	0.251	0.098
-227.727	8.426	-0.199	-0.148
-226.713	61.957	0.265	-0.261
-225.698	-128.296	0.137	-0.019
-224.684	497.350	0.033	-0.075
-223.669	-160.229	0.467	-0.025
-222.655	-200.000	0.068	-0.411
-221.640	165.849	-0.216	-0.302
-220.625	151.195	0.133	0.179
-219.611	0.771	0.333	0.236
-218.596	95.232	0.241	-0.272
-217.582	105.371	0.204	0.238
-216.567	-110.104	-0.330	-0.068
-215.552	-71.437	-0.098	-0.036
-214.538	-100.857	0.137	0.033
-213.523	-200.000	-0.131	-0.626
-212.509	-99.634	0.158	-0.039
-211.494	-200.000	-0.030	0.169
-210.479	-200.000	0.016	0.316
-209.465	323.084	0.100	0.189
-208.450	190.312	0.104	0.155
-207.436	293.077	-0.138	-0.249
-206.421	-187.532	0.232	0.003
-205.406	533.224	-0.017	-0.040
-204.392	-200.000	-0.030	0.136
-203.377	-200.000	0.047	-0.270
-202.363	-19.933	0.255	0.156
-201.348	-78.727	-0.095	0.032
-200.333	144.504	0.108	0.142
-199.319	604.265	0.035	-0.086
-198.304	-94.407	-0.103	-0.028
-197.290	-56.674	-0.189	-0.083
-196.275	-159.392	-0.141	-0.008
-195.260	-101.556	0.170	0.041
-194.246	-133.055	0.092	-0.011
-193.231	-57.730	0.220	-0.095
-192.217	139.891	0.110	0.143
-191.202	-119.795	0.225	-0.038
-190.187	-77.372	-0.092	0.032
-189.173	-130.329	-0.294	-0.039
-188.158	-200.000	-0.019	-0.230
-187.144	-200.000	-0.014	-0.128
-186.129	-200.000	0.016	-0.088
-185.114	70.200	0.102	-0.104
-184.100	183.963	-0.089	-0.130
-183.085	-189.348	-0.235	-0.003
-182.071	182.140	-0.156	0.227
-181.056	313.623	-0.090	0.168
-180.042	-200.000	-0.009	-0.056
-179.027	-200.000	0.006	0.094
-178.012	800.000	-0.087	0.241
-176.998	-44.800	0.229	0.113
-175.983	-174.499	-0.191	-0.005
-174.969	800.000	0.012	0.045
-173.954	-200.000	0.008	0.094
-172.939	42.162	-0.082	-0.073
-171.925	381.999	-0.046	-0.093
-170.910	-25.353	-0.200	-0.117
-169.896	-54.800	0.157	-0.070
-168.881	211.105	0.248	0.385
-167.866	-37.368	-0.131	0.069
-166.852	398.256	-0.105	-0.217
-165.837	395.932	-0.142	0.292
-164.823	-77.349	-0.256	0.088
-163.808	130.543	0.046	0.058
-162.793	-88.739	0.316	0.093
-161.779	-53.166	0.152	-0.069
-160.764	40.228	-0.191	-0.169
-159.750	54.023	-0.196	-0.186
-158.735	-200.000	0.019	0.124
-157.720	201.014	-0.183	0.277
-156.706	-53.064	-0.076	-0.034
-155.691	119.572	0.224	0.273
-154.677	-200.000	0.034	0.199
-153.662	800.000	0.009	-0.029
-152.647	-28.494	-0.167	-0.095
-151.633	-76.679	-0.181	0.063
-150.618	520.316	0.080	0.186
-149.604	123.182	-0.117	0.144
-148.589	22.986	-0.172	0.139
-147.574	-87.034	0.211	-0.063
-146.560	-21.995	0.329	0.197
-145.545	-136.643	0.139	-0.016
-144.531	800.000	-0.157	0.593
-143.516	-126.379	-0.247	0.036
-142.502	344.050	0.174	0.336
-141.487	800.000	-0.025	0.093
-140.472	-82.234	0.052	0.017
-139.458	800.000	0.088	0.249
-138.443	-108.405	-0.085	-0.018
-137.429	41.510	0.246	-0.219
-136.414	-118.263	-0.291	0.051
-135.399	281.755	0.063	-0.112
-134.385	101.078	-0.129	-0.148
-133.370	-200.000	0.015	-0.203
-132.356	59.127	0.277	0.269
-131.341	-36.502	-0.065	-0.034
-130.326	137.942	-0.069	-0.090
-129.312	800.000	0.054	-0.163
-128.297	-112.461	0.347	-0.068
-127.283	-60.567	-0.505	0.211
-126.268	25.160	-0.334	0.273
-125.253	34.708	-0.100	0.087
-124.239	-200.000	-0.034	0.164
-123.224	800.000	0.095	0.347
-122.210	-49.159	-0.157	-0.074
