DTS Sentinel unit serial number:	SN413079Multiplexer serial number:	ORYXHardware model number:	OX4-SRSoftware version number:	ORYX F/W v4.00 Oryx Data Collector v3.7.2.0data status	okinstallation	princeton_trtdifferential loss correction	single-endedforward channel	channel 1reverse channel	N/Adate	2019/09/17time	00:46:35forward acquisition time	60.00reverse acquisition time	0.00gamma	496.2192k internal	0.2324k external	0.2324temperature offset calibration	0.9961default loss term (dB/km)	0.3790temperature slope calibration	1.0000multiplexer offset coefficient	1.0000multiplexer slope coefficient	1.0000fibre end	0.00T internal ref (°C)	29.44T ext. ref 1 (°C)	0.11T ext. ref 2 (°C)	24.06length (m)	temperature (°C)	Stokes	anti-Stokes-747.200	-75.042	0.111	-0.040
-746.185	-200.000	-0.027	0.330
-745.171	-120.181	-0.123	0.021
-744.156	9.906	-0.114	0.088
-743.142	800.000	0.100	0.338
-742.127	-105.781	-0.319	0.073
-741.112	-200.000	-0.019	0.169
-740.098	-200.000	-0.026	0.327
-739.083	-200.000	0.005	0.470
-738.069	206.519	0.337	0.530
-737.054	397.017	-0.069	0.146
-736.039	-38.016	-0.209	0.112
-735.025	45.067	0.057	-0.053
-734.010	-63.286	0.166	-0.069
-732.996	116.777	-0.207	0.256
-731.981	512.617	-0.140	-0.329
-730.966	-152.075	-0.280	0.021
-729.952	14.220	-0.228	-0.179
-728.937	-88.934	-0.114	0.034
-727.923	-81.562	0.044	-0.015
-726.908	157.440	-0.108	0.150
-725.894	-75.098	-0.250	-0.090
-724.879	-200.000	0.019	-0.340
-723.864	-200.000	-0.039	-0.202
-722.850	-200.000	-0.016	0.103
-721.835	43.608	-0.051	-0.047
-720.821	-107.223	0.179	-0.040
-719.806	-133.390	-0.403	-0.051
-718.791	328.591	0.057	0.109
-717.777	800.000	-0.051	0.213
-716.762	225.398	0.025	0.041
-715.748	-95.291	0.170	0.046
-714.733	607.636	0.058	-0.145
-713.718	99.565	0.103	-0.120
-712.704	-93.216	0.137	-0.038
-711.689	800.000	-0.036	0.145
-710.675	800.000	-0.103	0.316
-709.660	468.777	0.028	-0.064
-708.645	-123.023	0.469	-0.076
-707.631	71.305	-0.045	0.047
-706.616	800.000	0.046	0.183
-705.602	67.943	0.272	-0.280
-704.587	-200.000	0.073	-0.341
-703.572	459.648	-0.145	-0.324
-702.558	-200.000	-0.061	0.272
-701.543	-80.948	0.315	-0.105
-700.529	81.798	-0.061	-0.066
-699.514	-130.070	0.307	0.042
-698.499	-128.041	-0.202	-0.029
-697.485	-38.247	-0.212	-0.113
-696.470	-200.000	0.009	-0.175
-695.456	115.741	-0.130	0.160
-694.441	26.355	-0.258	-0.217
-693.426	-200.000	-0.017	0.258
-692.412	800.000	0.082	0.301
-691.397	-200.000	-0.016	-0.147
-690.383	77.334	-0.252	-0.270
-689.368	-106.660	-0.126	-0.028
-688.354	104.029	-0.121	0.143
-687.339	-150.733	-0.323	-0.025
-686.324	298.212	-0.074	0.138
-685.310	603.298	-0.101	-0.253
-684.295	-200.000	-0.014	-0.200
-683.281	67.026	0.218	0.224
-682.266	160.176	0.163	-0.229
-681.251	-65.803	-0.408	0.164
-680.237	-200.000	-0.012	-0.126
-679.222	-45.862	-0.072	0.036
-678.208	70.871	0.186	0.194
-677.193	-9.072	0.163	-0.110
-676.178	800.000	-0.030	0.098
-675.164	16.715	-0.182	-0.145
-674.149	333.974	-0.049	-0.096
-673.135	-0.889	0.078	0.056
-672.120	-84.054	0.162	0.052
-671.105	-46.199	-0.189	0.094
-670.091	-200.000	-0.017	0.220
-669.076	-18.761	-0.184	0.115
-668.062	18.639	-0.175	0.141
-667.047	219.887	-0.132	0.214
-666.032	-174.088	-0.139	-0.004
-665.018	6.845	-0.116	0.087
-664.003	434.600	-0.112	-0.246
-662.989	-24.684	-0.048	0.029
-661.974	-200.000	0.073	0.332
-660.959	-183.214	-0.317	-0.006
-659.945	98.293	-0.185	0.214
-658.930	-34.904	0.224	0.123
-657.916	-191.489	0.212	0.002
-656.901	183.926	-0.014	-0.021
-655.886	-200.000	-0.005	0.061
-654.872	-200.000	-0.017	0.293
-653.857	-200.000	0.044	-0.405
-652.843	289.562	-0.223	-0.407
-651.828	-26.883	-0.252	0.148
-650.814	-200.000	-0.003	-0.095
-649.799	-131.889	-0.180	0.024
-648.784	800.000	0.018	0.057
-647.770	-82.159	0.301	-0.099
-646.755	-65.656	0.198	-0.080
-645.741	-200.000	-0.079	-0.400
-644.726	-199.328	-0.399	0.002
-643.711	800.000	0.055	-0.225
-642.697	43.801	-0.224	-0.206
-641.682	-200.000	0.044	-0.370
-640.668	-82.419	0.160	-0.052
-639.653	-138.142	0.307	-0.034
-638.638	459.809	0.068	0.151
-637.624	272.232	0.130	0.231
-636.609	179.338	-0.047	-0.069
-635.595	85.150	-0.278	0.306
-634.580	800.000	0.080	-0.276
-633.565	-200.000	-0.032	0.255
-632.551	240.686	-0.065	-0.108
-631.536	-83.719	-0.361	-0.116
-630.522	172.935	0.020	0.029
-629.507	546.923	0.049	0.117
-628.492	-119.808	0.182	-0.032
-627.478	-200.000	0.063	-0.391
-626.463	76.259	0.238	-0.254
-625.449	42.794	-0.094	-0.086
-624.434	214.652	-0.065	0.104
-623.419	-36.994	-0.225	0.121
-622.405	86.685	0.148	-0.164
-621.390	800.000	-0.091	-0.321
-620.376	-97.073	0.203	-0.053
-619.361	-156.212	0.069	0.004
-618.346	-22.003	0.203	-0.124
-617.332	71.439	-0.074	-0.077
-616.317	800.000	-0.038	0.150
-615.303	195.233	-0.122	-0.185
-614.288	-122.493	0.204	0.033
-613.273	-124.778	-0.158	-0.025
-612.259	37.241	0.249	-0.221
-611.244	800.000	-0.081	-0.313
-610.230	305.093	0.070	0.130
-609.215	-95.315	-0.198	0.053
-608.201	-191.249	-0.300	-0.003
-607.186	90.034	0.074	-0.083
-606.171	188.551	-0.069	0.104
-605.157	800.000	-0.019	0.060
-604.142	800.000	0.099	-0.411
-603.128	514.707	0.060	-0.141
-602.113	-45.859	-0.099	0.049
-601.098	-200.000	0.030	-0.255
-600.084	276.739	0.153	-0.273
-599.069	-71.234	-0.189	0.071
-598.055	-200.000	-0.042	-0.404
-597.040	-200.000	-0.060	0.309
-596.025	-100.247	0.403	0.101
-595.011	-81.363	-0.344	-0.114
-593.996	365.979	-0.098	-0.199
-592.982	35.590	0.122	-0.107
-591.967	-50.578	-0.082	0.039
-590.952	-39.566	0.063	-0.033
-589.938	-200.000	0.025	0.321
-588.923	27.007	-0.216	0.182
-587.909	-54.705	0.404	-0.183
-586.894	-192.436	-0.246	-0.002
-585.879	-200.000	0.002	-0.169
-584.865	-79.082	0.263	-0.090
-583.850	-76.513	0.114	0.040
-582.836	-48.198	0.173	0.084
-581.821	185.230	-0.095	0.141
-580.806	-73.958	-0.240	0.088
-579.792	225.206	0.270	-0.438
-578.777	132.041	0.276	-0.356
-577.763	800.000	0.072	0.257
-576.748	76.913	0.105	0.112
-575.733	800.000	-0.016	-0.051
-574.719	-161.902	0.180	0.009
-573.704	-158.168	-0.145	0.008
-572.690	307.969	-0.016	-0.030
-571.675	-15.832	-0.146	-0.093
-570.661	-200.000	0.003	0.175
-569.646	147.695	0.277	-0.375
-568.631	-200.000	-0.044	0.463
-567.617	270.145	-0.052	-0.092
-566.602	62.110	0.096	-0.096
-565.588	419.463	0.129	-0.276
-564.573	-113.357	-0.207	0.041
-563.558	59.344	0.078	0.077
-562.544	-159.313	-0.237	-0.013
-561.529	-107.260	0.310	-0.068
-560.515	-112.729	0.421	0.084
-559.500	800.000	0.064	0.274
-558.485	77.785	-0.040	-0.043
-557.471	-67.594	-0.437	-0.172
-556.456	-200.000	0.005	-0.362
-555.442	800.000	-0.052	0.188
-554.427	-200.000	0.016	0.389
-553.412	48.879	-0.335	-0.315
-552.398	510.250	-0.128	-0.298
-551.383	-200.000	0.038	0.257
-550.369	800.000	-0.001	0.003
-549.354	150.319	-0.078	0.105
-548.339	317.147	-0.046	-0.088
-547.325	-200.000	-0.091	0.413
-546.310	-83.758	-0.124	-0.040
-545.296	17.764	0.047	-0.037
-544.281	800.000	-0.087	0.270
-543.266	-200.000	-0.003	0.387
-542.252	-200.000	0.050	0.263
-541.237	-85.206	-0.220	-0.069
-540.223	285.725	0.077	0.139
-539.208	68.463	0.064	0.066
-538.193	-116.835	0.141	0.026
-537.179	15.050	-0.234	0.184
-536.164	-0.903	-0.196	0.139
-535.150	800.000	0.062	0.227
-534.135	206.560	-0.098	0.154
-533.121	5.034	-0.097	0.071
-532.106	-200.000	-0.021	0.260
-531.091	426.896	0.069	0.148
-530.077	91.733	0.211	0.237
-529.062	115.218	-0.268	0.327
-528.048	-0.291	-0.088	-0.063
-527.033	94.009	-0.261	-0.296
-526.018	-16.283	0.093	-0.059
-525.004	-200.000	-0.003	0.369
-523.989	191.920	0.279	-0.421
-522.975	-49.139	-0.096	0.046
-521.960	-200.000	0.005	0.028
-520.945	38.737	0.174	-0.155
-519.931	-200.000	0.048	0.213
-518.916	697.425	-0.109	-0.287
-517.902	-200.000	0.023	-0.382
-516.887	466.348	0.046	-0.104
-515.872	-43.250	-0.090	-0.046
-514.858	800.000	-0.129	0.361
-513.843	92.608	0.075	0.084
-512.829	-28.319	0.257	0.149
-511.814	53.470	0.055	-0.053
-510.799	800.000	-0.051	-0.185
-509.785	36.098	0.136	-0.120
-508.770	-185.211	-0.184	0.003
-507.756	-200.000	-0.006	0.303
-506.741	-24.928	0.197	0.117
-505.726	0.253	0.107	-0.076
-504.712	27.900	-0.100	0.085
-503.697	111.020	-0.110	-0.132
-502.683	-41.197	-0.090	-0.046
-501.668	-49.826	0.094	0.045
-500.653	689.255	0.106	-0.278
-499.639	800.000	-0.036	0.122
-498.624	47.686	0.296	0.276
-497.610	69.261	0.224	-0.230
-496.595	-200.000	0.017	0.302
-495.581	439.097	0.084	-0.183
-494.566	-200.000	-0.053	0.256
-493.551	275.383	-0.041	-0.072
-492.537	6.534	0.202	0.150
-491.522	39.503	0.151	-0.135
-490.508	599.992	0.115	-0.286
-489.493	193.994	-0.203	-0.307
-488.478	29.751	0.213	-0.182
-487.464	35.846	0.216	-0.190
-486.449	210.311	0.184	0.289
-485.435	32.295	0.279	0.241
-484.420	68.444	-0.177	0.181
-483.405	-192.351	0.403	-0.004
-482.391	-200.000	0.037	-0.223
-481.376	-113.894	-0.133	0.026
-480.362	25.013	0.253	-0.210
-479.347	800.000	0.053	-0.191
-478.332	142.693	-0.022	-0.029
-477.318	132.557	0.184	0.237
-476.303	652.224	-0.052	-0.133
-475.289	-79.269	-0.248	-0.084
-474.274	86.074	-0.177	0.195
-473.259	10.528	0.299	0.227
-472.245	-200.000	-0.015	-0.130
-471.230	800.000	-0.111	0.397
-470.216	-200.000	-0.077	0.521
-469.201	34.540	0.113	0.099
-468.186	-200.000	0.078	0.351
-467.172	-38.188	-0.208	0.110
-466.157	-200.000	-0.012	-0.169
-465.143	254.852	0.025	0.044
-464.128	-61.673	0.172	0.072
-463.113	-115.594	0.226	0.042
-462.099	-29.013	-0.060	0.034
-461.084	-29.139	-0.367	-0.210
-460.070	516.119	0.018	-0.043
-459.055	112.082	-0.109	-0.132
-458.040	-200.000	0.011	-0.121
-457.026	174.316	0.343	0.495
-456.011	-7.970	0.230	-0.155
-454.997	33.334	0.253	-0.220
-453.982	-129.534	-0.107	-0.015
-452.968	-58.721	-0.124	0.054
-451.953	-3.923	0.031	0.022
-450.938	-55.215	-0.256	-0.115
-449.924	-110.104	0.112	-0.023
-448.909	442.277	-0.049	-0.107
-447.895	-157.997	-0.241	0.014
-446.880	-86.252	-0.132	0.040
-445.865	-158.152	0.196	0.011
-444.851	68.242	-0.042	-0.043
-443.836	-200.000	-0.043	-0.256
-442.822	47.426	-0.165	0.153
-441.807	87.523	0.227	0.251
-440.792	54.723	0.072	0.069
-439.778	-131.115	-0.115	0.015
-438.763	-121.153	0.127	-0.021
-437.749	800.000	0.026	-0.102
-436.734	366.465	0.101	0.204
-435.719	-157.799	-0.164	0.010
-434.705	268.991	0.185	0.324
-433.690	222.361	0.111	0.178
-432.676	239.375	-0.108	0.179
-431.661	-96.216	0.077	-0.020
-430.646	800.000	0.068	0.241
-429.632	17.983	0.050	0.039
-428.617	-200.000	0.037	-0.186
-427.603	-70.744	-0.358	0.135
-426.588	173.324	-0.179	-0.257
-425.573	217.831	0.189	0.300
-424.559	-81.989	-0.064	-0.021
-423.544	66.971	0.224	0.228
-422.530	-200.000	-0.018	0.301
-421.515	701.012	0.056	-0.148
-420.500	568.623	-0.128	-0.310
-419.486	292.191	-0.051	-0.092
-418.471	12.352	0.138	-0.106
-417.457	-200.000	0.020	0.091
-416.442	14.193	-0.220	0.171
-415.428	31.669	0.169	0.145
-414.413	-200.000	0.000	-0.262
-413.398	-116.651	-0.221	-0.040
-412.384	-200.000	-0.032	-0.155
-411.369	-7.757	0.282	-0.190
-410.355	800.000	-0.077	0.222
-409.340	-44.118	-0.102	0.051
-408.325	-200.000	-0.027	-0.180
-407.311	-56.958	-0.289	-0.127
-406.296	-200.000	-0.034	0.422
-405.282	21.178	-0.054	-0.044
-404.267	-200.000	0.004	-0.092
-403.252	-200.000	-0.023	0.229
-402.238	-122.828	0.372	0.060
-401.223	-200.000	-0.006	0.068
-400.209	800.000	-0.119	0.363
-399.194	-68.893	-0.683	-0.262
-398.179	-163.595	0.412	-0.019
-397.165	-200.000	0.002	0.084
-396.150	-74.036	0.407	0.147
-395.136	-18.984	0.207	0.128
-394.121	-34.225	0.113	-0.062
-393.106	-200.000	-0.008	-0.067
-392.092	423.773	-0.191	-0.409
-391.077	113.398	-0.124	-0.149
-390.063	558.150	0.061	0.148
-389.048	-154.029	-0.147	0.010
-388.033	360.192	-0.087	0.174
-387.019	-200.000	-0.054	0.240
-386.004	-52.967	0.313	0.143
-384.990	-130.177	0.247	0.033
-383.975	-185.400	-0.296	0.005
-382.960	14.968	-0.269	-0.209
-381.946	456.764	0.096	-0.212
-380.931	-200.000	0.018	-0.218
-379.917	-200.000	-0.012	-0.306
-378.902	204.747	0.247	-0.382
-377.888	-59.567	0.174	-0.074
-376.873	-200.000	0.012	-0.163
-375.858	-158.947	0.162	-0.009
-374.844	-200.000	0.054	0.289
-373.829	357.544	0.068	0.135
-372.815	800.000	-0.017	0.073
-371.800	-65.814	-0.142	-0.056
-370.785	-200.000	-0.023	0.216
-369.771	800.000	-0.049	-0.169
-368.756	72.457	-0.156	0.162
-367.742	-95.359	-0.190	0.051
-366.727	157.750	0.117	0.162
-365.712	8.000	0.194	0.145
-364.698	-200.000	-0.008	0.130
-363.683	261.778	-0.066	0.113
-362.669	-112.772	0.030	0.006
-361.654	-146.300	0.079	0.007
-360.639	-135.615	-0.141	0.017
-359.625	-154.190	0.083	0.006
-358.610	52.153	-0.125	0.119
-357.596	-200.000	-0.021	0.112
-356.581	-138.243	-0.152	-0.017
-355.566	-79.639	-0.254	-0.085
-354.552	392.032	-0.286	-0.590
-353.537	182.781	-0.018	-0.026
-352.523	-200.000	-0.021	0.133
-351.508	613.628	0.079	0.196
-350.493	82.929	0.177	0.191
-349.479	-55.118	0.132	0.059
-348.464	-200.000	-0.077	0.339
-347.450	-39.352	0.225	0.117
-346.435	800.000	-0.155	0.459
-345.420	-89.797	-0.317	0.092
-344.406	800.000	-0.081	0.308
-343.391	-29.807	-0.338	-0.192
-342.377	-117.032	-0.081	0.015
-341.362	-110.690	-0.199	-0.041
-340.348	37.627	-0.012	-0.011
-339.333	-200.000	0.039	0.239
-338.318	-98.239	0.334	-0.085
-337.304	-21.033	-0.151	-0.092
-336.289	-200.000	-0.007	0.069
-335.275	73.887	-0.245	0.255
-334.260	416.466	-0.025	0.052
-333.245	-200.000	0.009	-0.317
-332.231	-200.000	-0.004	-0.095
-331.216	-200.000	-0.007	0.045
-330.202	381.907	-0.129	-0.264
-329.187	67.167	0.173	0.176
-328.172	-100.698	0.057	0.014
-327.158	-80.827	-0.365	-0.120
-326.143	732.625	0.118	-0.312
-325.129	-142.145	0.218	0.021
-324.114	-8.096	-0.210	-0.141
-323.099	128.717	0.182	-0.230
-322.085	587.755	0.104	0.255
-321.070	800.000	-0.083	0.326
-320.056	289.079	-0.082	-0.148
-319.041	150.438	-0.074	-0.100
-318.026	181.016	0.020	0.029
-317.012	-95.309	0.275	0.074
-315.997	-93.802	0.211	0.058
-314.983	618.807	-0.035	0.087
-313.968	800.000	0.042	-0.158
-312.953	227.837	-0.162	-0.262
-311.939	-4.860	-0.308	-0.211
-310.924	800.000	0.061	-0.207
-309.910	-164.535	-0.290	0.013
-308.895	-200.000	-0.000	-0.064
-307.880	-71.777	0.186	-0.069
-306.866	800.000	0.044	-0.125
-305.851	444.707	0.020	-0.044
-304.837	0.265	0.018	0.013
-303.822	33.356	0.336	-0.290
-302.807	377.157	-0.032	-0.065
-301.793	545.566	-0.171	-0.405
-300.778	38.491	0.243	0.215
-299.764	347.649	-0.061	-0.120
-298.749	-200.000	-0.003	-0.096
-297.735	-200.000	0.017	0.268
-296.720	671.674	0.124	0.320
-295.705	-56.308	-0.155	0.068
-294.691	-48.750	-0.200	-0.095
-293.676	-14.455	0.250	-0.160
-292.662	-69.076	-0.255	0.097
-291.647	-200.000	0.037	-0.177
-290.632	420.230	-0.052	-0.111
-289.618	-22.416	-0.249	0.150
-288.603	474.730	0.179	-0.400
-287.589	335.379	-0.132	-0.253
-286.574	-200.000	-0.520	-0.002
-285.559	-70.179	0.351	-0.132
-284.545	-45.861	-0.293	-0.143
-283.530	251.925	0.091	-0.154
-282.516	-65.090	-0.193	0.077
-281.501	-0.119	0.294	-0.208
-280.486	134.786	0.143	-0.184
-279.472	-65.873	-0.044	0.017
-278.457	226.546	-0.101	-0.163
-277.443	-107.640	0.284	-0.061
-276.428	-200.000	0.016	0.135
-275.413	-200.000	0.032	0.417
-274.399	-11.453	-0.313	0.204
-273.384	267.841	0.169	-0.294
-272.370	-200.000	-0.027	-0.167
-271.355	22.927	-0.163	-0.132
-270.340	-77.047	0.275	-0.095
-269.326	-200.000	-0.004	0.108
-268.311	53.687	-0.207	0.197
-267.297	166.366	0.158	0.222
-266.282	-112.209	-0.085	0.017
-265.267	338.002	0.160	0.309
-264.253	15.831	-0.024	-0.019
-263.238	-4.304	0.186	-0.128
-262.224	-49.290	-0.149	-0.071
-261.209	-200.000	-0.005	0.272
-260.195	35.946	-0.225	0.197
-259.180	-130.403	-0.181	0.024
-258.165	-200.000	-0.031	0.222
-257.151	-79.410	0.055	0.019
-256.136	151.516	0.135	0.182
-255.122	-95.785	0.139	0.037
-254.107	-175.418	0.145	0.004
-253.092	35.896	0.297	0.259
-252.078	-79.204	0.173	-0.058
-251.063	575.116	-0.129	-0.312
-250.049	-157.169	-0.144	0.009
-249.034	-200.000	0.024	0.186
-248.019	153.987	-0.064	-0.086
-247.005	-108.281	0.024	0.005
-245.990	-136.245	-0.107	0.012
-244.976	63.605	-0.169	0.168
-243.961	-200.000	-0.055	-0.301
-242.946	-77.259	0.051	-0.018
-241.932	15.627	0.230	-0.179
-240.917	800.000	-0.031	-0.115
-239.903	212.637	0.087	0.135
-238.888	733.400	0.052	0.137
-237.873	105.666	0.272	0.318
-236.859	-9.319	-0.213	0.141
-235.844	292.258	-0.132	0.238
-234.830	-109.975	0.235	-0.049
-233.815	-77.549	-0.168	0.058
-232.800	65.868	-0.231	0.232
-231.786	800.000	0.038	0.155
-230.771	98.604	-0.051	0.058
-229.757	57.644	0.210	0.203
-228.742	-200.000	0.002	0.225
-227.727	323.923	0.052	0.097
-226.713	-89.019	-0.366	0.107
-225.698	111.401	-0.135	0.161
-224.684	-87.515	-0.319	0.095
-223.669	-200.000	0.023	0.150
-222.655	-200.000	0.011	0.454
-221.640	9.694	-0.072	0.054
-220.625	-61.998	0.226	-0.094
-219.611	142.633	0.137	-0.180
-218.596	-200.000	-0.026	0.212
-217.582	110.011	0.160	-0.190
-216.567	115.560	-0.118	-0.143
-215.552	-37.181	-0.283	-0.150
-214.538	-112.880	-0.142	-0.028
-213.523	92.642	0.128	-0.143
-212.509	-112.587	-0.241	0.047
-211.494	-200.000	0.036	0.172
-210.479	-200.000	0.060	-0.468
-209.465	-70.064	0.352	0.133
-208.450	800.000	-0.054	-0.176
-207.436	18.647	0.099	0.078
-206.421	89.744	-0.178	0.196
-205.406	330.544	0.176	-0.334
-204.392	788.806	-0.049	-0.134
-203.377	-98.542	-0.188	-0.047
-202.363	-87.810	0.167	-0.050
-201.348	-200.000	0.095	0.539
-200.333	800.000	-0.042	-0.140
-199.319	-133.631	0.491	-0.061
-198.304	577.094	-0.030	0.071
-197.290	232.567	0.065	-0.106
-196.275	800.000	0.083	-0.342
-195.260	32.497	0.126	0.108
-194.246	800.000	-0.081	-0.224
-193.231	235.381	-0.131	-0.214
-192.217	-183.432	-0.236	0.004
-191.202	69.925	-0.173	-0.176
-190.187	384.026	0.133	0.270
-189.173	800.000	0.055	0.210
-188.158	-39.627	-0.124	-0.064
-187.144	-144.476	-0.132	-0.012
-186.129	-40.098	-0.279	-0.144
-185.114	-122.899	-0.016	-0.003
-184.100	24.377	-0.191	-0.156
-183.085	16.397	-0.234	-0.182
-182.071	800.000	0.070	-0.207
-181.056	-138.083	-0.133	0.015
-180.042	-139.570	0.433	0.046
-179.027	-200.000	-0.022	0.160
-178.012	800.000	-0.064	-0.185
-176.998	268.662	0.070	-0.121
-175.983	-117.612	-0.085	0.015
-174.969	-187.881	-0.097	0.001
-173.954	-200.000	-0.018	0.094
-172.939	-112.128	-0.237	0.047
-171.925	51.319	-0.048	-0.045
-170.910	-200.000	-0.045	-0.275
-169.896	-120.155	-0.153	-0.026
-168.881	773.684	0.033	0.089
-167.866	-145.513	-0.086	0.008
-166.852	800.000	-0.025	-0.070
-165.837	-200.000	0.014	0.366
-164.823	-105.333	0.134	-0.030
-163.808	-80.283	0.409	-0.135
-162.793	-68.033	-0.112	0.043
-161.779	-200.000	-0.064	0.340
-160.764	800.000	0.069	-0.213
-159.750	-144.590	0.132	0.012
-158.735	-200.000	0.002	-0.090
-157.720	-25.442	-0.116	-0.068
-156.706	-46.396	0.104	-0.050
-155.691	-49.245	-0.229	-0.108
-154.677	800.000	0.047	0.170
-153.662	104.569	0.099	-0.115
-152.647	207.441	0.178	-0.275
-151.633	230.443	-0.148	-0.238
-150.618	800.000	0.029	0.124
-149.604	43.364	0.060	-0.054
-148.589	-200.000	0.012	-0.312
-147.574	9.331	-0.117	-0.087
-146.560	-139.999	0.158	0.016
-145.545	-150.030	-0.082	0.006
-144.531	9.847	-0.103	-0.077
-143.516	414.354	0.146	0.306
-142.502	-141.761	-0.431	0.043
-141.487	-6.773	0.294	-0.197
-140.472	-39.275	0.443	-0.229
-139.458	41.996	-0.266	-0.238
-138.443	-103.222	-0.107	-0.025
-137.429	-71.027	-0.301	0.112
-136.414	331.034	-0.015	-0.029
-135.399	-100.140	0.078	-0.019
-134.385	-16.972	0.301	0.187
-133.370	-82.512	-0.527	0.168
-132.356	191.658	-0.079	-0.117
-131.341	-129.783	0.230	0.031
-130.326	-31.994	0.138	0.076
-129.312	-93.377	-0.121	-0.033
-128.297	652.859	0.044	-0.111
-127.283	800.000	0.101	-0.294
-126.268	684.338	0.093	0.239
-125.253	800.000	0.036	0.140
-124.239	82.212	0.292	-0.312
-123.224	713.506	0.085	0.221
-122.210	-193.133	-0.027	-0.000
