DTS Sentinel unit serial number:	SN413079Multiplexer serial number:	ORYXHardware model number:	OX4-SRSoftware version number:	ORYX F/W v4.00 Oryx Data Collector v3.7.2.0data status	okinstallation	princeton_trtdifferential loss correction	single-endedforward channel	channel 1reverse channel	N/Adate	2019/09/13time	22:30:35forward acquisition time	60.00reverse acquisition time	0.00gamma	496.2192k internal	0.2332k external	0.2332temperature offset calibration	1.0090default loss term (dB/km)	0.3790temperature slope calibration	1.0000multiplexer offset coefficient	1.0000multiplexer slope coefficient	1.0000fibre end	0.00T internal ref (°C)	27.75T ext. ref 1 (°C)	3.24T ext. ref 2 (°C)	22.18length (m)	temperature (°C)	Stokes	anti-Stokes-747.200	57.001	0.166	-0.163
-746.185	-10.933	-0.465	0.309
-745.171	129.061	-0.127	-0.163
-744.156	-85.084	-0.334	-0.105
-743.142	800.000	0.108	-0.339
-742.127	-119.378	-0.473	-0.083
-741.112	16.203	-0.066	0.053
-740.098	-106.250	0.114	0.026
-739.083	-100.574	0.155	-0.039
-738.069	56.349	-0.123	0.120
-737.054	12.484	0.090	-0.070
-736.039	-38.302	-0.157	0.084
-735.025	63.541	0.251	0.253
-734.010	-200.000	0.024	-0.138
-732.996	-49.935	0.281	-0.134
-731.981	-131.209	0.295	0.039
-730.966	800.000	0.059	-0.200
-729.952	-45.293	-0.167	-0.084
-728.937	-77.726	-0.338	-0.117
-727.923	-200.000	0.019	-0.113
-726.908	800.000	-0.080	-0.270
-725.894	-119.241	0.164	0.029
-724.879	-117.592	-0.050	-0.009
-723.864	-122.029	-0.146	-0.024
-722.850	14.987	-0.375	0.295
-721.835	-183.236	-0.162	-0.003
-720.821	-45.810	0.088	0.044
-719.806	65.019	0.193	-0.196
-718.791	247.844	-0.188	-0.319
-717.777	-200.000	0.023	-0.157
-716.762	-200.000	-0.025	-0.198
-715.748	-172.776	-0.264	0.008
-714.733	62.408	-0.158	0.159
-713.718	-62.496	-0.107	-0.045
-712.704	-176.878	0.299	0.008
-711.689	-127.027	-0.172	0.025
-710.675	-200.000	-0.035	-0.237
-709.660	-28.577	0.257	-0.149
-708.645	-200.000	-0.066	0.397
-707.631	432.430	-0.129	0.280
-706.616	-5.568	-0.152	0.105
-705.602	-169.570	0.174	0.006
-704.587	102.238	-0.163	-0.191
-703.572	-60.093	-0.230	-0.098
-702.558	800.000	0.036	-0.100
-701.543	-172.720	-0.197	0.006
-700.529	6.803	0.140	0.104
-699.514	9.040	-0.238	-0.180
-698.499	-71.098	-0.346	0.131
-697.485	-72.652	0.248	-0.092
-696.470	-200.000	0.012	0.233
-695.456	567.577	0.083	-0.202
-694.441	218.842	-0.139	-0.223
-693.426	-200.000	-0.036	-0.190
-692.412	273.673	0.137	0.244
-691.397	83.418	0.011	0.013
-690.383	-68.051	-0.169	0.066
-689.368	137.596	-0.213	0.280
-688.354	-71.633	0.033	0.012
-687.339	170.606	-0.037	-0.053
-686.324	106.658	-0.080	-0.095
-685.310	-112.005	-0.202	0.041
-684.295	89.627	-0.352	-0.394
-683.281	-200.000	0.024	0.213
-682.266	6.225	-0.295	0.220
-681.251	433.114	-0.100	-0.217
-680.237	104.424	0.122	-0.144
-679.222	-45.146	0.312	-0.156
-678.208	605.033	-0.061	0.152
-677.193	-200.000	-0.019	-0.184
-676.178	41.396	-0.126	0.114
-675.164	-200.000	-0.014	-0.101
-674.149	609.279	-0.063	-0.157
-673.135	-83.763	0.140	-0.045
-672.120	-73.382	-0.250	-0.092
-671.105	143.896	0.307	-0.411
-670.091	64.840	-0.064	-0.065
-669.076	-12.485	0.049	0.032
-668.062	800.000	0.053	0.232
-667.047	60.623	-0.124	-0.123
-666.032	-200.000	-0.019	-0.149
-665.018	10.935	0.091	0.070
-664.003	-155.992	-0.254	-0.016
-662.989	-29.087	0.299	-0.172
-661.974	-8.487	-0.286	0.193
-660.959	-81.841	-0.325	-0.107
-659.945	-84.848	-0.230	0.072
-658.930	-108.379	0.310	0.067
-657.916	-136.430	-0.312	0.036
-656.901	174.578	0.150	-0.218
-655.886	7.886	-0.030	0.023
-654.872	800.000	-0.064	-0.234
-653.857	63.723	-0.231	0.233
-652.843	-154.737	0.045	-0.003
-651.828	-87.532	-0.308	0.093
-650.814	523.292	-0.060	0.141
-649.799	800.000	0.021	-0.062
-648.784	-66.690	-0.305	-0.121
-647.770	9.146	0.322	0.244
-646.755	470.727	-0.099	0.224
-645.741	-200.000	-0.011	0.268
-644.726	276.408	-0.173	-0.308
-643.711	58.097	-0.182	-0.179
-642.697	125.045	-0.113	0.142
-641.682	366.375	-0.071	-0.143
-640.668	196.000	0.219	-0.333
-639.653	181.147	0.086	-0.127
-638.638	101.378	-0.354	0.413
-637.624	-200.000	-0.021	-0.283
-636.609	716.153	-0.048	-0.127
-635.595	-154.854	-0.195	-0.013
-634.580	800.000	0.084	-0.268
-633.565	-18.080	-0.043	-0.027
-632.551	-24.074	0.169	-0.101
-631.536	-1.504	0.026	-0.018
-630.522	421.894	0.109	-0.234
-629.507	800.000	0.043	-0.160
-628.492	-70.474	0.045	-0.017
-627.478	-4.243	0.264	0.183
-626.463	-200.000	-0.266	0.000
-625.449	216.846	-0.045	-0.072
-624.434	-200.000	-0.036	-0.194
-623.419	112.957	0.062	-0.075
-622.405	-159.355	-0.055	0.003
-621.390	-200.000	-0.047	-0.296
-620.376	-93.241	-0.206	0.057
-619.361	-26.329	-0.074	-0.043
-618.346	372.056	-0.101	-0.205
-617.332	-200.000	0.020	-0.198
-616.317	-122.857	-0.334	0.054
-615.303	-4.244	0.279	-0.193
-614.288	-39.196	-0.232	-0.122
-613.273	246.916	0.106	-0.180
-612.259	3.666	-0.198	-0.145
-611.244	13.618	0.260	-0.202
-610.230	-200.000	0.003	-0.048
-609.215	42.680	-0.164	0.150
-608.201	800.000	0.017	0.073
-607.186	-36.584	-0.255	-0.137
-606.171	118.134	0.070	-0.087
-605.157	236.992	-0.101	-0.167
-604.142	800.000	0.085	-0.303
-603.128	67.742	-0.049	-0.050
-602.113	-129.091	0.207	-0.029
-601.098	435.945	0.091	-0.199
-600.084	-169.989	-0.257	0.009
-599.069	800.000	0.026	0.079
-598.055	-155.046	0.379	0.025
-597.040	526.798	0.021	0.049
-596.025	-197.093	0.121	-0.001
-595.011	-89.174	0.099	-0.029
-593.996	-78.997	-0.215	0.073
-592.982	-29.660	0.422	0.241
-591.967	13.287	-0.142	-0.110
-590.952	190.213	0.155	-0.232
-589.938	-68.846	0.275	0.106
-588.923	21.692	0.164	0.133
-587.909	256.737	0.154	0.264
-586.894	-200.000	-0.031	0.142
-585.879	800.000	-0.078	-0.283
-584.865	30.492	-0.210	0.179
-583.850	-27.558	0.070	-0.041
-582.836	144.199	0.230	-0.306
-581.821	-5.010	-0.042	0.029
-580.806	596.164	0.186	0.461
-579.792	398.085	0.008	0.016
-578.777	-2.521	0.039	0.027
-577.763	-109.911	-0.391	0.082
-576.748	-115.524	-0.308	-0.058
-575.733	772.301	0.078	0.212
-574.719	27.868	-0.091	0.076
-573.704	800.000	-0.104	0.289
-572.690	111.802	-0.153	0.184
-571.675	-62.170	0.118	-0.049
-570.661	-82.281	-0.116	-0.038
-569.646	-200.000	-0.014	0.061
-568.631	-104.007	0.299	-0.070
-567.617	2.948	0.156	0.113
-566.602	74.233	-0.324	-0.340
-565.588	9.326	0.177	-0.134
-564.573	-200.000	-0.020	-0.310
-563.558	-76.298	-0.010	0.004
-562.544	72.040	-0.033	0.034
-561.529	168.456	-0.132	-0.187
-560.515	-120.619	0.366	-0.062
-559.500	-200.000	0.032	0.351
-558.485	312.634	-0.024	0.044
-557.471	127.520	-0.174	-0.221
-556.456	332.519	-0.124	0.239
-555.442	383.416	-0.099	0.204
-554.427	-200.000	0.008	0.159
-553.412	-86.713	-0.380	-0.116
-552.398	800.000	0.082	-0.275
-551.383	-22.776	-0.257	-0.155
-550.369	271.270	-0.104	0.183
-549.354	166.916	0.186	-0.263
-548.339	-145.981	-0.380	0.034
-547.325	-200.000	-0.015	0.121
-546.310	11.114	0.194	-0.148
-545.296	-82.072	-0.153	0.050
-544.281	409.784	0.201	0.424
-543.266	-73.485	0.055	-0.020
-542.252	-91.055	0.137	-0.039
-541.237	87.616	0.122	0.135
-540.223	734.978	-0.107	0.287
-539.208	-5.413	0.221	-0.151
-538.193	-27.371	0.262	-0.152
-537.179	132.467	0.065	-0.083
-536.164	133.197	0.213	0.274
-535.150	135.719	-0.312	0.405
-534.135	-103.857	0.287	-0.067
-533.121	65.271	-0.146	-0.147
-532.106	-72.184	0.102	0.038
-531.091	800.000	-0.031	0.086
-530.077	-49.584	0.239	-0.114
-529.062	-56.653	-0.153	0.067
-528.048	-65.583	0.024	-0.010
-527.033	-14.237	0.223	0.143
-526.018	-106.590	-0.337	-0.075
-525.004	-61.349	0.326	0.137
-523.989	800.000	-0.026	-0.097
-522.975	800.000	0.069	0.273
-521.960	-115.444	-0.182	-0.034
-520.945	185.728	-0.049	0.073
-519.931	-84.762	-0.327	-0.103
-518.916	-43.208	0.168	-0.085
-517.902	128.122	0.184	0.233
-516.887	-74.940	0.156	0.056
-515.872	44.388	0.145	-0.133
-514.858	240.194	-0.047	-0.078
-513.843	-200.000	-0.006	-0.092
-512.829	26.221	-0.169	-0.140
-511.814	-37.927	0.344	-0.182
-510.799	173.444	-0.123	-0.177
-509.785	345.626	-0.097	-0.191
-508.770	-23.222	0.289	0.173
-507.756	54.785	0.068	-0.066
-506.741	800.000	0.027	-0.109
-505.726	-90.609	0.089	0.026
-504.712	800.000	0.072	0.288
-503.697	-86.737	0.236	0.072
-502.683	39.332	-0.238	0.212
-501.668	-100.660	0.262	-0.065
-500.653	104.738	0.200	0.235
-499.639	-200.000	0.009	0.116
-498.624	482.456	-0.052	0.118
-497.610	-159.135	-0.154	0.009
-496.595	15.545	-0.241	0.188
-495.581	800.000	0.113	-0.491
-494.566	157.149	-0.147	-0.202
-493.551	639.813	-0.101	-0.257
-492.537	800.000	0.055	-0.154
-491.522	-117.762	-0.021	0.004
-490.508	46.696	-0.112	0.104
-489.493	-200.000	-0.003	0.033
-488.478	-118.749	0.273	-0.048
-487.464	-29.422	-0.136	-0.078
-486.449	-116.047	0.161	-0.030
-485.435	36.808	-0.229	-0.201
-484.420	800.000	0.046	-0.169
-483.405	800.000	-0.015	0.048
-482.391	-76.737	0.223	0.078
-481.376	75.180	-0.222	-0.233
-480.362	-53.097	0.306	-0.140
-479.347	445.017	0.057	0.124
-478.332	127.959	-0.166	0.210
-477.318	221.848	-0.197	0.316
-476.303	-145.018	0.367	-0.033
-475.289	-200.000	-0.060	-0.462
-474.274	46.110	-0.098	0.090
-473.259	-111.853	-0.263	0.053
-472.245	55.349	-0.225	-0.217
-471.230	-130.529	-0.095	-0.013
-470.216	-163.645	0.140	-0.007
-469.201	-200.000	0.011	0.110
-468.186	-188.647	-0.426	-0.005
-467.172	-200.000	0.010	0.208
-466.157	-7.110	0.100	0.067
-465.143	-84.344	-0.056	-0.018
-464.128	-42.347	0.066	-0.034
-463.113	800.000	0.049	-0.161
-462.099	-134.861	0.396	-0.048
-461.084	-150.298	-0.120	-0.009
-460.070	-123.399	-0.242	0.038
-459.055	-165.431	-0.021	0.001
-458.040	-43.968	0.025	0.012
-457.026	28.454	0.088	-0.074
-456.011	-200.000	-0.045	-0.221
-454.997	-134.039	0.094	-0.012
-453.982	-64.654	-0.091	-0.037
-452.968	-27.208	0.172	0.099
-451.953	-87.459	-0.095	0.029
-450.938	800.000	-0.105	0.406
-449.924	684.761	0.065	0.169
-448.909	-200.000	-0.002	-0.257
-447.895	314.287	-0.190	-0.356
-446.880	349.719	0.125	-0.246
-445.865	-200.000	0.040	-0.357
-444.851	27.051	0.185	0.154
-443.836	800.000	0.110	0.403
-442.822	-200.000	-0.039	0.180
-441.807	-121.645	-0.162	0.027
-440.792	800.000	0.066	0.260
-439.778	55.404	-0.205	0.198
-438.763	106.592	-0.131	-0.155
-437.749	-199.056	0.255	-0.001
-436.734	59.179	-0.114	-0.112
-435.719	-200.000	-0.022	-0.394
-434.705	-138.647	-0.108	-0.012
-433.690	-75.527	0.301	-0.107
-432.676	-159.873	-0.231	-0.013
-431.661	-139.758	0.256	0.027
-430.646	514.240	-0.093	0.215
-429.632	-200.000	-0.024	-0.209
-428.617	-108.594	0.291	-0.062
-427.603	57.169	-0.090	0.088
-426.588	146.281	0.085	0.113
-425.573	-200.000	-0.006	-0.264
-424.559	-0.571	-0.281	0.198
-423.544	-200.000	-0.079	0.471
-422.530	-75.494	-0.120	-0.042
-421.515	265.255	0.159	0.275
-420.500	-87.536	0.227	-0.068
-419.486	-43.156	-0.377	0.189
-418.471	800.000	0.094	-0.336
-417.457	98.206	-0.104	-0.119
-416.442	308.910	0.119	0.220
-415.428	-151.335	0.328	0.024
-414.413	-200.000	0.042	-0.348
-413.398	333.347	0.103	-0.198
-412.384	-29.421	0.139	-0.079
-411.369	-57.354	-0.308	-0.134
-410.355	20.342	-0.263	-0.211
-409.340	800.000	0.005	-0.018
-408.325	-200.000	-0.058	-0.273
-407.311	-152.586	-0.297	-0.021
-406.296	30.296	0.129	0.109
-405.282	-71.725	0.199	0.074
-404.267	100.281	-0.292	0.336
-403.252	-200.000	-0.239	-0.000
-402.238	-41.811	0.096	0.049
-401.223	-200.000	0.054	0.274
-400.209	-97.001	0.353	0.092
-399.194	280.873	0.080	0.142
-398.179	800.000	-0.030	0.125
-397.165	-19.019	-0.094	0.058
-396.150	-149.491	0.251	-0.020
-395.136	-149.106	0.301	-0.024
-394.121	238.362	0.127	-0.210
-393.106	-87.695	-0.095	0.028
-392.092	1.835	-0.337	-0.241
-391.077	-111.713	0.206	0.042
-390.063	225.887	0.081	0.131
-389.048	-89.721	-0.278	0.081
-388.033	44.204	-0.116	0.106
-387.019	-20.805	0.216	-0.132
-386.004	-1.165	0.117	-0.082
-384.990	-53.839	0.293	-0.132
-383.975	55.707	0.108	0.104
-382.960	-40.806	-0.412	-0.211
-381.946	-50.557	0.264	0.123
-380.931	302.562	-0.072	0.133
-379.917	-85.390	-0.031	0.010
-378.902	237.973	-0.156	-0.257
-377.888	800.000	0.065	-0.264
-376.873	-200.000	-0.009	0.298
-375.858	-200.000	-0.039	0.398
-374.844	-70.888	0.075	0.028
-373.829	-4.020	-0.181	-0.124
-372.815	800.000	0.064	0.188
-371.800	-200.000	0.035	-0.327
-370.785	304.700	-0.041	0.076
-369.771	800.000	-0.096	-0.291
-368.756	-200.000	0.094	-0.449
-367.742	-139.638	-0.069	0.007
-366.727	-23.400	0.285	0.170
-365.712	33.393	0.242	-0.208
-364.698	300.009	0.176	-0.321
-363.683	58.184	-0.184	-0.179
-362.669	-102.000	-0.185	0.044
-361.654	-37.057	0.298	0.158
-360.639	-130.697	-0.389	0.052
-359.625	53.480	-0.094	0.089
-358.610	-152.620	-0.262	0.019
-357.596	-59.931	-0.282	-0.120
-356.581	105.927	-0.281	-0.329
-355.566	273.291	0.129	-0.226
-354.552	-127.663	0.217	0.031
-353.537	-200.000	0.054	-0.294
-352.523	800.000	-0.033	-0.115
-351.508	350.283	0.117	0.229
-350.493	-107.700	-0.304	-0.066
-349.479	11.980	0.070	-0.053
-348.464	10.469	-0.318	-0.240
-347.450	18.902	0.089	0.070
-346.435	-21.351	-0.138	0.084
-345.420	182.705	0.107	0.157
-344.406	193.993	0.056	-0.084
-343.391	-122.288	-0.301	-0.049
-342.377	-200.000	-0.035	-0.188
-341.362	93.552	-0.260	0.292
-340.348	-132.205	-0.375	-0.048
-339.333	-155.037	-0.124	0.008
-338.318	-200.000	-0.029	-0.321
-337.304	-200.000	0.024	0.296
-336.289	-200.000	-0.025	0.117
-335.275	-119.706	-0.369	-0.063
-334.260	800.000	0.056	0.169
-333.245	-15.136	-0.052	0.033
-332.231	-71.515	0.349	-0.129
-331.216	800.000	-0.098	0.286
-330.202	205.908	-0.104	-0.160
-329.187	-101.677	0.060	-0.015
-328.172	-76.200	-0.217	-0.076
-327.158	145.536	-0.131	0.174
-326.143	73.604	-0.104	-0.108
-325.129	70.252	0.085	0.086
-324.114	259.134	0.101	-0.173
-323.099	-57.026	0.133	-0.058
-322.085	30.400	0.076	0.064
-321.070	-6.735	-0.331	0.223
-320.056	-89.914	0.243	-0.070
-319.041	-80.109	-0.086	0.029
-318.026	-61.013	-0.121	-0.051
-317.012	61.666	0.159	0.156
-315.997	-200.000	-0.007	0.127
-314.983	-1.971	-0.273	0.190
-313.968	127.479	-0.175	-0.220
-312.953	-82.080	0.297	-0.096
-311.939	175.607	0.108	0.155
-310.924	135.330	0.027	0.034
-309.910	-200.000	0.021	0.099
-308.895	-200.000	0.016	-0.276
-307.880	-130.120	0.178	-0.024
-306.866	-132.775	-0.230	0.029
-305.851	428.519	0.086	0.183
-304.837	153.677	-0.071	0.096
-303.822	-42.962	-0.290	0.146
-302.807	-32.491	-0.319	0.176
-301.793	7.634	0.333	0.246
-300.778	800.000	-0.080	-0.323
-299.764	-6.340	0.354	-0.239
-298.749	-38.772	-0.219	-0.114
-297.735	203.463	-0.071	0.109
-296.720	-200.000	-0.007	-0.129
-295.705	-168.840	0.169	-0.006
-294.691	37.897	-0.264	0.232
-293.676	167.473	0.050	0.071
-292.662	75.374	0.206	-0.214
-291.647	-200.000	0.026	0.204
-290.632	-138.081	0.285	-0.031
-289.618	-129.042	0.198	-0.027
-288.603	-31.714	-0.137	0.076
-287.589	-200.000	-0.057	-0.357
-286.574	46.179	-0.306	-0.280
-285.559	-107.623	0.221	0.048
-284.545	-200.000	0.001	-0.069
-283.530	509.494	0.149	0.341
-282.516	-111.897	0.370	-0.074
-281.501	-200.000	0.041	-0.229
-280.486	-48.804	-0.157	0.075
-279.472	-143.285	-0.263	-0.025
-278.457	19.121	0.176	-0.139
-277.443	-200.000	0.010	0.617
-276.428	-104.219	0.111	0.026
-275.413	713.518	-0.028	0.073
-274.399	-138.662	-0.039	0.004
-273.384	-4.688	0.151	0.103
-272.370	-23.346	-0.110	0.065
-271.355	122.893	0.033	-0.041
-270.340	-183.317	-0.371	0.006
-269.326	-168.786	-0.123	0.005
-268.311	-200.000	0.005	0.172
-267.297	-200.000	0.053	-0.380
-266.282	-98.576	-0.367	0.093
-265.267	-200.000	0.003	0.036
-264.253	-62.941	-0.225	-0.092
-263.238	32.475	0.346	0.295
-262.224	120.273	0.205	0.251
-261.209	-81.341	-0.139	0.045
-260.195	-200.000	-0.005	-0.043
-259.180	-200.000	-0.028	0.238
-258.165	249.141	0.068	-0.115
-257.151	221.987	0.159	0.252
-256.136	-200.000	0.016	0.313
-255.122	800.000	0.031	-0.092
-254.107	-79.698	0.068	0.023
-253.092	593.151	-0.049	-0.121
-252.078	-200.000	-0.003	0.324
-251.063	619.134	-0.014	0.036
-250.049	429.324	0.092	-0.197
-249.034	-200.000	-0.037	-0.285
-248.019	127.638	-0.123	0.154
-247.005	-32.244	0.171	0.094
-245.990	-200.000	0.024	0.231
-244.976	-30.751	0.371	0.207
-243.961	87.155	-0.173	0.189
-242.946	-149.014	-0.463	0.037
-241.932	-181.571	0.200	-0.004
-240.917	-70.311	-0.122	-0.046
-239.903	-23.975	0.334	0.197
-238.888	341.666	-0.144	-0.277
-237.873	800.000	-0.013	-0.046
-236.859	-130.895	0.347	0.046
-235.844	800.000	-0.051	0.212
-234.830	-200.000	-0.009	-0.067
-233.815	-59.049	0.076	-0.032
-232.800	552.266	0.112	-0.266
-231.786	-45.668	-0.047	-0.023
-230.771	227.213	-0.056	0.089
-229.757	-116.230	0.479	-0.088
-228.742	-200.000	-0.001	0.135
-227.727	-173.642	-0.101	0.003
-226.713	-125.142	0.126	-0.019
-225.698	338.078	0.121	-0.233
-224.684	-11.107	0.187	0.122
-223.669	-200.000	0.020	0.146
-222.655	-200.000	0.010	-0.069
-221.640	-59.806	0.119	0.050
-220.625	800.000	-0.071	0.305
-219.611	-22.947	-0.293	0.174
-218.596	88.878	-0.312	-0.342
-217.582	141.847	-0.066	0.087
-216.567	55.537	-0.064	0.061
-215.552	-59.073	0.085	-0.036
-214.538	-26.248	0.085	-0.049
-213.523	-200.000	0.029	0.200
-212.509	-200.000	0.024	-0.300
-211.494	-126.944	0.187	-0.027
-210.479	180.878	0.080	-0.116
-209.465	-110.403	0.355	0.073
-208.450	-66.076	0.281	0.110
-207.436	108.081	0.149	0.175
-206.421	-66.472	0.389	-0.152
-205.406	-200.000	-0.023	0.222
-204.392	800.000	-0.078	0.290
-203.377	-0.335	0.219	0.153
-202.363	-200.000	-0.037	0.503
-201.348	800.000	0.032	-0.102
-200.333	800.000	-0.016	-0.047
-199.319	-151.623	-0.200	-0.015
-198.304	800.000	-0.056	-0.177
-197.290	22.070	0.105	-0.085
-196.275	-200.000	-0.056	-0.386
-195.260	-200.000	-0.083	0.000
-194.246	13.960	0.105	0.081
-193.231	800.000	-0.041	-0.134
-192.217	-19.953	0.134	-0.081
-191.202	-200.000	-0.035	-0.327
-190.187	172.944	0.135	0.191
-189.173	-200.000	-0.070	0.488
-188.158	800.000	-0.015	0.056
-187.144	13.381	0.138	0.105
-186.129	255.090	-0.179	0.302
-185.114	190.162	-0.087	0.128
-184.100	44.521	-0.145	-0.131
-183.085	355.220	-0.052	0.102
-182.071	-31.979	0.246	-0.136
-181.056	-37.280	-0.172	-0.090
-180.042	-73.042	0.199	0.072
-179.027	34.184	-0.121	-0.104
-178.012	-76.800	-0.048	0.017
-176.998	-18.692	-0.260	0.159
-175.983	-22.764	-0.170	0.101
-174.969	-200.000	0.026	0.286
-173.954	-36.256	0.319	-0.170
-172.939	-123.405	0.471	0.074
-171.925	-169.151	0.399	-0.015
-170.910	739.283	0.016	-0.042
-169.896	-93.101	-0.228	-0.062
-168.881	-58.368	-0.375	-0.160
-167.866	-110.376	-0.133	-0.027
-166.852	344.356	0.059	0.113
-165.837	76.938	-0.041	0.043
-164.823	-139.767	-0.270	0.028
-163.808	800.000	0.069	0.253
-162.793	-15.896	0.349	-0.219
-161.779	-56.036	-0.190	0.083
-160.764	-23.051	-0.126	-0.075
-159.750	-88.003	0.175	0.052
-158.735	-63.259	-0.294	-0.119
-157.720	33.631	0.200	0.171
-156.706	-200.000	-0.039	0.237
-155.691	52.405	-0.140	-0.131
-154.677	435.071	-0.085	-0.182
-153.662	800.000	-0.133	0.397
-152.647	-200.000	0.013	0.109
-151.633	-200.000	0.006	0.030
-150.618	93.213	-0.201	0.223
-149.604	-179.669	0.151	0.003
-148.589	234.215	0.156	0.252
-147.574	800.000	0.027	0.085
-146.560	-200.000	0.115	-0.630
-145.545	274.245	0.142	0.248
-144.531	65.628	0.412	0.410
-143.516	91.014	0.238	-0.262
-142.502	136.409	0.036	-0.046
-141.487	655.466	-0.064	-0.163
-140.472	-46.046	0.273	0.132
-139.458	-119.279	0.237	-0.041
-138.443	-43.069	0.198	0.099
-137.429	-200.000	0.004	0.105
-136.414	39.114	-0.200	0.175
-135.399	-200.000	-0.006	-0.067
-134.385	151.538	-0.214	-0.286
-133.370	91.157	0.086	0.095
-132.356	559.280	0.093	-0.221
-131.341	283.455	0.083	0.147
-130.326	800.000	0.040	-0.135
-129.312	793.268	-0.041	-0.112
-128.297	0.692	0.174	-0.122
-127.283	175.385	-0.071	0.100
-126.268	800.000	0.014	0.043
-125.253	-168.700	0.356	-0.013
-124.239	-41.709	-0.285	0.144
-123.224	-157.182	-0.236	0.014
-122.210	-60.074	-0.124	-0.052
