DTS Sentinel unit serial number:	SN413079Multiplexer serial number:	ORYXHardware model number:	OX4-SRSoftware version number:	ORYX F/W v4.00 Oryx Data Collector v3.7.2.0data status	okinstallation	princeton_trtdifferential loss correction	single-endedforward channel	channel 1reverse channel	N/Adate	2019/09/17time	01:26:35forward acquisition time	60.00reverse acquisition time	0.00gamma	496.2192k internal	0.2324k external	0.2324temperature offset calibration	0.9957default loss term (dB/km)	0.3790temperature slope calibration	1.0000multiplexer offset coefficient	1.0000multiplexer slope coefficient	1.0000fibre end	0.00T internal ref (°C)	29.50T ext. ref 1 (°C)	0.12T ext. ref 2 (°C)	24.34length (m)	temperature (°C)	Stokes	anti-Stokes-747.200	98.132	0.243	0.282
-746.185	-15.529	-0.284	0.183
-745.171	800.000	0.042	0.148
-744.156	-65.813	-0.172	0.070
-743.142	-129.559	0.227	0.032
-742.127	782.210	0.016	0.045
-741.112	-200.000	0.023	-0.115
-740.098	-200.000	-0.014	-0.087
-739.083	-121.500	-0.046	-0.008
-738.069	255.649	-0.158	0.273
-737.054	-200.000	0.039	0.386
-736.039	800.000	-0.119	0.337
-735.025	800.000	0.059	0.181
-734.010	570.726	-0.044	-0.107
-732.996	-95.819	-0.264	-0.071
-731.981	-200.000	-0.017	-0.105
-730.966	43.924	-0.194	-0.179
-729.952	30.982	-0.092	-0.080
-728.937	-174.463	-0.213	-0.006
-727.923	-38.927	-0.328	0.174
-726.908	4.214	-0.205	0.151
-725.894	-79.417	-0.164	0.056
-724.879	-183.010	-0.351	0.006
-723.864	-200.000	-0.012	0.103
-722.850	-79.498	-0.277	0.094
-721.835	57.474	-0.054	0.053
-720.821	800.000	0.195	-0.612
-719.806	-126.028	0.312	0.047
-718.791	-70.644	-0.044	-0.017
-717.777	-126.735	-0.129	-0.019
-716.762	-21.975	-0.197	-0.120
-715.748	267.649	-0.112	-0.197
-714.733	-74.721	0.312	-0.113
-713.718	196.008	-0.085	-0.130
-712.704	-117.028	-0.276	-0.051
-711.689	88.885	0.050	-0.056
-710.675	-26.360	-0.155	-0.092
-709.660	261.633	0.046	-0.081
-708.645	-55.801	-0.090	-0.041
-707.631	201.146	-0.103	0.160
-706.616	510.912	-0.043	0.102
-705.602	-200.000	-0.010	0.104
-704.587	37.290	-0.144	0.129
-703.572	80.794	-0.129	0.140
-702.558	-59.353	-0.259	0.112
-701.543	172.155	-0.072	0.104
-700.529	155.473	-0.118	0.164
-699.514	-96.654	-0.162	0.043
-698.499	226.888	-0.113	0.185
-697.485	-87.727	0.344	0.105
-696.470	465.062	-0.100	-0.225
-695.456	800.000	0.074	-0.217
-694.441	-173.905	-0.078	-0.002
-693.426	-200.000	0.011	-0.069
-692.412	800.000	0.074	-0.208
-691.397	-29.674	-0.175	0.101
-690.383	-200.000	0.026	0.147
-689.368	-54.784	-0.197	-0.089
-688.354	800.000	-0.062	-0.190
-687.339	400.249	0.076	0.160
-686.324	-28.395	0.380	-0.221
-685.310	800.000	0.060	0.173
-684.295	-200.000	0.010	0.050
-683.281	-115.786	-0.341	-0.064
-682.266	-133.702	0.499	0.063
-681.251	-78.669	-0.269	-0.093
-680.237	800.000	0.037	0.163
-679.222	-57.490	-0.281	-0.124
-678.208	-200.000	-0.023	-0.133
-677.193	-200.000	0.005	-0.315
-676.178	800.000	-0.065	-0.256
-675.164	-44.895	0.335	-0.168
-674.149	411.660	-0.102	-0.217
-673.135	313.042	-0.046	-0.088
-672.120	-141.072	0.179	-0.018
-671.105	800.000	-0.088	0.311
-670.091	-126.440	-0.204	0.030
-669.076	-200.000	-0.004	0.109
-668.062	-61.171	-0.299	0.127
-667.047	300.502	0.159	0.296
-666.032	-200.000	0.014	0.124
-665.018	-127.001	-0.438	0.065
-664.003	291.678	0.073	0.133
-662.989	372.641	-0.017	0.034
-661.974	11.793	-0.217	-0.168
-660.959	-200.000	0.003	0.130
-659.945	-200.000	-0.026	-0.175
-658.930	-200.000	0.028	0.334
-657.916	-140.680	-0.329	-0.034
-656.901	241.467	-0.093	-0.156
-655.886	-191.664	-0.141	0.001
-654.872	-141.233	-0.263	-0.027
-653.857	106.275	-0.067	0.079
-652.843	-78.788	-0.224	0.077
-651.828	-101.933	-0.071	0.017
-650.814	50.887	-0.280	0.267
-649.799	-37.102	0.151	-0.081
-648.784	-45.275	-0.169	-0.084
-647.770	70.830	-0.255	-0.266
-646.755	800.000	-0.136	0.421
-645.741	-200.000	-0.023	-0.287
-644.726	-122.191	-0.179	0.029
-643.711	-200.000	-0.002	0.231
-642.697	-1.685	0.108	0.077
-641.682	102.206	0.086	0.101
-640.668	-200.000	0.042	0.216
-639.653	-200.000	-0.044	0.233
-638.638	34.346	-0.136	0.119
-637.624	327.453	0.114	-0.220
-636.609	-144.531	0.478	-0.044
-635.595	-200.000	-0.009	0.054
-634.580	579.470	-0.101	0.249
-633.565	31.088	-0.100	-0.086
-632.551	-92.897	-0.226	-0.063
-631.536	-117.118	0.129	0.024
-630.522	17.137	0.113	-0.090
-629.507	262.527	0.149	0.259
-628.492	-153.160	0.140	-0.010
-627.478	167.205	-0.169	-0.242
-626.463	-27.701	-0.281	0.164
-625.449	-42.154	0.311	0.160
-624.434	127.038	0.186	0.236
-623.419	91.273	-0.175	-0.198
-622.405	132.105	-0.200	-0.259
-621.390	38.416	-0.170	0.152
-620.376	-101.948	-0.273	0.066
-619.361	-200.000	0.044	-0.263
-618.346	-200.000	-0.026	0.191
-617.332	-107.023	0.309	0.069
-616.317	317.549	-0.153	0.291
-615.303	-200.000	0.049	-0.362
-614.288	362.734	-0.062	0.125
-613.273	194.342	0.097	-0.148
-612.259	242.453	0.161	-0.271
-611.244	671.571	0.051	0.133
-610.230	-69.285	-0.386	0.149
-609.215	35.181	0.086	0.076
-608.201	798.238	0.041	0.114
-607.186	331.918	0.179	-0.347
-606.171	-200.000	-0.017	-0.244
-605.157	-79.775	0.309	0.104
-604.142	-96.669	0.029	-0.008
-603.128	-140.476	0.035	-0.004
-602.113	243.637	0.136	0.229
-601.098	-200.000	0.024	-0.132
-600.084	19.538	0.122	0.098
-599.069	-200.000	-0.007	0.242
-598.055	133.381	-0.136	0.176
-597.040	-83.289	-0.168	-0.054
-596.025	-42.754	0.185	-0.094
-595.011	9.720	-0.122	0.093
-593.996	700.784	0.152	-0.403
-592.982	-200.000	-0.021	-0.215
-591.967	-4.696	-0.263	-0.182
-590.952	227.967	-0.231	-0.378
-589.938	63.274	-0.345	-0.347
-588.923	-80.911	-0.228	-0.076
-587.909	70.697	-0.289	-0.300
-586.894	-200.000	0.015	-0.156
-585.879	148.691	-0.147	0.200
-584.865	223.808	-0.031	0.051
-583.850	66.452	-0.028	0.028
-582.836	-118.458	0.083	-0.015
-581.821	-124.885	-0.097	-0.015
-580.806	38.346	-0.107	-0.096
-579.792	800.000	-0.016	0.069
-578.777	-200.000	0.004	0.038
-577.763	-14.688	-0.248	0.160
-576.748	75.771	0.130	-0.138
-575.733	800.000	0.083	-0.259
-574.719	-107.273	0.412	-0.091
-573.704	-200.000	-0.008	-0.418
-572.690	41.910	-0.139	-0.127
-571.675	126.943	0.130	-0.166
-570.661	181.045	0.057	-0.084
-569.646	9.322	-0.226	0.172
-568.631	-133.497	-0.211	-0.026
-567.617	50.963	0.059	-0.056
-566.602	391.706	-0.056	0.116
-565.588	-168.057	-0.476	0.019
-564.573	-37.654	-0.143	-0.077
-563.558	-200.000	0.002	0.153
-562.544	-200.000	0.011	-0.341
-561.529	-46.981	-0.095	-0.047
-560.515	-162.663	0.101	0.005
-559.500	223.092	-0.111	-0.180
-558.485	138.209	0.131	-0.172
-557.471	-56.484	-0.222	-0.099
-556.456	-135.076	0.372	-0.045
-555.442	371.258	-0.127	-0.258
-554.427	-164.953	-0.310	-0.014
-553.412	800.000	0.066	0.198
-552.398	-200.000	0.022	0.129
-551.383	-155.385	-0.113	-0.007
-550.369	-72.996	-0.150	0.055
-549.354	-98.521	-0.089	0.023
-548.339	74.224	0.255	-0.268
-547.325	136.158	0.157	-0.205
-546.310	-161.005	-0.137	-0.007
-545.296	-200.000	-0.014	0.078
-544.281	-116.329	-0.185	-0.034
-543.266	-69.817	-0.169	-0.065
-542.252	800.000	-0.055	-0.217
-541.237	-200.000	0.001	-0.048
-540.223	-78.969	-0.168	-0.057
-539.208	50.365	-0.031	0.030
-538.193	43.792	-0.212	-0.195
-537.179	800.000	-0.085	-0.311
-536.164	174.177	0.053	0.076
-535.150	-200.000	0.034	0.212
-534.135	54.280	0.175	0.168
-533.121	800.000	0.097	-0.339
-532.106	-34.342	-0.229	-0.126
-531.091	-200.000	0.036	0.488
-530.077	118.707	-0.063	-0.078
-529.062	22.423	0.070	-0.057
-528.048	206.347	-0.178	0.278
-527.033	-143.905	0.021	0.002
-526.018	-96.961	0.320	0.084
-525.004	-100.127	-0.092	-0.023
-523.989	0.693	-0.176	-0.126
-522.975	770.261	0.079	-0.216
-521.960	-137.404	-0.166	-0.019
-520.945	271.604	0.105	0.185
-519.931	-37.541	0.134	0.072
-518.916	-200.000	-0.032	0.341
-517.902	195.954	0.051	0.078
-516.887	5.505	0.066	0.049
-515.872	-55.850	-0.055	-0.024
-514.858	-97.252	0.419	0.109
-513.843	-151.477	0.273	-0.020
-512.829	-200.000	-0.042	0.258
-511.814	800.000	-0.025	-0.106
-510.799	-68.148	-0.184	0.072
-509.785	207.948	-0.107	0.167
-508.770	-29.147	0.048	0.027
-507.756	-200.000	0.005	0.231
-506.741	-200.000	-0.082	0.000
-505.726	-14.721	-0.227	0.146
-504.712	-49.421	0.218	0.104
-503.697	573.873	-0.117	0.284
-502.683	254.368	-0.202	-0.345
-501.668	-200.000	0.019	-0.098
-500.653	344.288	-0.064	-0.126
-499.639	-168.129	0.059	0.002
-498.624	-130.852	-0.110	-0.015
-497.610	624.189	-0.076	0.193
-496.595	-167.405	0.295	-0.012
-495.581	-200.000	-0.005	-0.095
-494.566	-171.551	0.119	-0.004
-493.551	29.752	-0.159	0.136
-492.537	800.000	-0.120	-0.380
-491.522	146.153	-0.139	0.186
-490.508	153.508	-0.128	-0.176
-489.493	-81.899	-0.116	-0.038
-488.478	-11.601	0.044	-0.029
-487.464	-30.072	0.298	-0.170
-486.449	232.785	-0.072	-0.118
-485.435	279.144	-0.157	0.280
-484.420	334.165	0.102	-0.197
-483.405	-109.638	-0.351	0.074
-482.391	123.752	-0.161	-0.201
-481.376	-83.583	-0.052	-0.017
-480.362	-110.476	0.053	-0.011
-479.347	-200.000	-0.024	0.231
-478.332	-5.916	-0.406	-0.278
-477.318	199.754	0.071	0.108
-476.303	24.409	0.129	0.106
-475.289	-65.107	-0.197	-0.079
-474.274	7.210	-0.105	-0.078
-473.259	-200.000	-0.009	0.389
-472.245	-200.000	0.004	0.048
-471.230	-68.501	0.261	-0.101
-470.216	105.579	-0.200	-0.237
-469.201	253.530	0.075	0.128
-468.186	-74.230	0.109	0.040
-467.172	226.244	0.047	-0.077
-466.157	-200.000	-0.008	-0.050
-465.143	354.516	0.119	0.236
-464.128	101.598	0.322	0.375
-463.113	0.172	-0.235	0.167
-462.099	-51.733	-0.125	-0.058
-461.084	47.315	-0.133	-0.124
-460.070	-28.106	0.284	0.164
-459.055	225.039	-0.107	-0.173
-458.040	-65.790	-0.129	0.052
-457.026	-33.853	0.122	-0.067
-456.011	30.573	-0.135	-0.115
-454.997	36.579	-0.127	-0.112
-453.982	483.377	0.064	-0.145
-452.968	-200.000	0.001	0.154
-451.953	626.259	0.089	0.224
-450.938	-10.086	-0.236	-0.157
-449.924	580.769	-0.105	0.257
-448.909	270.539	-0.210	0.369
-447.895	119.826	0.125	0.154
-446.880	-183.523	-0.237	-0.004
-445.865	-14.176	0.276	0.177
-444.851	7.570	0.187	0.140
-443.836	30.250	-0.225	-0.191
-442.822	-118.519	-0.097	-0.017
-441.807	-200.000	0.032	-0.280
-440.792	-28.056	-0.312	-0.180
-439.778	-200.000	0.018	-0.243
-438.763	556.733	-0.081	0.195
-437.749	45.407	-0.090	0.083
-436.734	259.971	0.089	0.153
-435.719	111.063	-0.174	0.210
-434.705	-58.431	-0.244	0.106
-433.690	94.129	0.120	-0.135
-432.676	-139.618	0.119	0.013
-431.661	-0.475	-0.194	-0.137
-430.646	70.178	-0.130	0.134
-429.632	74.639	-0.238	0.250
-428.617	-200.000	0.069	0.355
-427.603	-78.198	0.265	-0.091
-426.588	777.507	0.041	0.112
-425.573	131.379	0.121	0.155
-424.559	754.033	-0.087	0.234
-423.544	77.250	-0.119	-0.126
-422.530	674.299	0.119	-0.307
-421.515	-200.000	-0.080	-0.404
-420.500	-200.000	0.019	0.397
-419.486	-91.848	-0.178	-0.050
-418.471	426.549	0.024	0.051
-417.457	392.026	-0.040	-0.084
-416.442	231.734	0.199	-0.326
-415.428	-200.000	0.001	-0.050
-414.413	129.088	-0.103	0.131
-413.398	311.177	-0.128	-0.239
-412.384	-127.777	0.405	-0.058
-411.369	800.000	0.024	-0.075
-410.355	800.000	0.112	-0.411
-409.340	7.044	-0.113	-0.084
-408.325	800.000	0.170	0.491
-407.311	21.819	-0.227	-0.184
-406.296	-200.000	0.007	-0.148
-405.282	-92.960	0.114	0.032
-404.267	-160.174	0.243	0.013
-403.252	-190.803	0.235	-0.002
-402.238	-158.612	0.076	0.004
-401.223	-100.909	0.086	0.021
-400.209	-145.902	0.068	0.006
-399.194	-114.789	0.162	0.031
-398.179	-200.000	-0.147	0.001
-397.165	113.140	0.098	-0.118
-396.150	800.000	0.040	0.174
-395.136	560.417	-0.100	0.241
-394.121	-94.665	-0.457	0.124
-393.106	-79.890	-0.462	-0.155
-392.092	-200.000	0.006	-0.138
-391.077	-122.919	-0.229	-0.037
-390.063	106.349	0.138	0.163
-389.048	213.540	0.082	-0.128
-388.033	3.387	0.382	-0.277
-387.019	-168.033	0.167	-0.006
-386.004	-200.000	-0.004	0.122
-384.990	35.571	0.177	0.155
-383.975	-116.936	0.541	0.098
-382.960	-50.250	-0.221	0.104
-381.946	-200.000	-0.002	-0.292
-380.931	-75.571	-0.467	-0.165
-379.917	800.000	-0.110	0.327
-378.902	-73.502	0.224	0.082
-377.888	-200.000	-0.003	-0.109
-376.873	-44.353	0.151	-0.075
-375.858	800.000	0.131	0.411
-374.844	678.154	-0.070	-0.181
-373.829	-138.365	0.266	-0.029
-372.815	800.000	-0.024	-0.082
-371.800	335.918	-0.156	0.300
-370.785	800.000	-0.051	0.176
-369.771	800.000	0.071	0.252
-368.756	-36.124	0.079	-0.043
-367.742	-73.326	-0.080	0.029
-366.727	26.354	0.146	-0.121
-365.712	-26.805	-0.217	0.126
-364.698	-158.698	-0.209	0.012
-363.683	-55.257	-0.447	-0.200
-362.669	-103.320	-0.232	0.055
-361.654	-25.066	0.476	0.281
-360.639	-200.000	-0.016	-0.185
-359.625	31.020	-0.110	-0.094
-358.610	-200.000	0.076	-0.000
-357.596	-51.240	0.220	-0.102
-356.581	-96.369	0.138	0.036
-355.566	-92.642	0.327	0.091
-354.552	10.065	-0.123	0.093
-353.537	483.714	-0.049	-0.111
-352.523	20.241	0.107	0.086
-351.508	-200.000	0.010	0.083
-350.493	154.859	-0.114	0.156
-349.479	144.218	-0.196	0.259
-348.464	623.644	0.022	-0.056
-347.450	33.071	0.019	-0.016
-346.435	-140.513	0.453	0.047
-345.420	635.881	0.099	-0.250
-344.406	-1.751	0.068	-0.047
-343.391	-200.000	0.023	0.132
-342.377	-60.810	-0.074	-0.031
-341.362	800.000	0.062	-0.258
-340.348	-26.310	0.249	-0.145
-339.333	366.039	0.212	-0.425
-338.318	308.532	-0.065	-0.121
-337.304	-200.000	-0.008	0.089
-336.289	52.494	-0.223	0.212
-335.275	33.129	0.166	-0.143
-334.260	-93.405	0.326	0.090
-333.245	800.000	-0.027	0.096
-332.231	163.735	0.231	0.323
-331.216	-200.000	0.068	-0.404
-330.202	95.675	0.317	0.359
-329.187	800.000	-0.009	0.031
-328.172	5.365	0.238	-0.175
-327.158	-73.506	-0.114	-0.041
-326.143	73.389	-0.130	0.136
-325.129	-113.999	-0.214	-0.041
-324.114	-126.738	0.327	0.048
-323.099	-137.776	-0.242	-0.027
-322.085	-200.000	-0.029	0.192
-321.070	264.235	0.083	0.144
-320.056	-200.000	-0.053	0.391
-319.041	-80.500	0.297	0.098
-318.026	-157.773	-0.090	-0.005
-317.012	-75.467	-0.150	0.053
-315.997	800.000	-0.022	-0.091
-314.983	-200.000	-0.014	-0.145
-313.968	-7.861	-0.125	0.084
-312.953	457.818	-0.081	0.180
-311.939	-108.105	0.335	-0.072
-310.924	-200.000	0.038	-0.195
-309.910	-66.243	0.175	0.069
-308.895	-85.643	0.226	-0.070
-307.880	-78.539	-0.254	0.086
-306.866	172.062	-0.182	-0.259
-305.851	316.255	0.068	-0.128
-304.837	388.973	-0.127	-0.260
-303.822	256.124	-0.188	-0.319
-302.807	-200.000	-0.029	0.223
-301.793	26.014	0.152	0.126
-300.778	-127.550	0.028	0.004
-299.764	757.146	0.183	-0.491
-298.749	-104.210	-0.175	-0.040
-297.735	33.650	0.270	0.233
-296.720	-159.637	-0.101	0.006
-295.705	-170.788	0.207	-0.007
-294.691	-2.618	0.223	0.155
-293.676	167.741	-0.159	-0.224
-292.662	-174.204	0.245	-0.007
-291.647	-200.000	0.017	-0.234
-290.632	88.782	-0.094	0.104
-289.618	-65.847	-0.091	-0.036
-288.603	-73.265	-0.449	0.163
-287.589	-200.000	0.027	0.544
-286.574	-118.370	-0.187	-0.033
-285.559	-42.056	0.206	-0.105
-284.545	-5.644	0.135	0.092
-283.530	-23.035	0.185	0.111
-282.516	-44.396	0.354	0.176
-281.501	-112.972	0.090	0.018
-280.486	-200.000	-0.003	0.030
-279.472	110.531	-0.056	-0.067
-278.457	-41.732	0.185	-0.094
-277.443	355.696	-0.149	0.295
-276.428	-139.199	0.330	-0.035
-275.413	-45.740	0.324	0.159
-274.399	-109.163	0.222	-0.047
-273.384	-200.000	-0.099	0.447
-272.370	-200.000	-0.015	0.250
-271.355	-200.000	-0.037	0.231
-270.340	-69.114	0.230	0.088
-269.326	254.202	0.127	-0.216
-268.311	315.986	0.167	-0.313
-267.297	-200.000	0.014	0.193
-266.282	22.480	0.185	0.150
-265.267	-45.562	0.204	0.100
-264.253	57.196	-0.079	-0.076
-263.238	678.325	-0.031	-0.080
-262.224	410.034	0.099	0.209
-261.209	-200.000	-0.010	0.162
-260.195	84.604	-0.180	-0.195
-259.180	-200.000	-0.008	-0.147
-258.165	382.792	0.132	-0.268
-257.151	-169.311	-0.136	0.005
-256.136	239.270	0.049	0.081
-255.122	357.013	0.097	0.191
-254.107	469.792	0.039	-0.088
-253.092	-92.073	-0.268	0.075
-252.078	-19.778	0.081	-0.050
-251.063	-22.785	0.281	0.168
-250.049	800.000	0.049	0.150
-249.034	-200.000	-0.013	0.214
-248.019	17.294	0.164	-0.129
-247.005	218.003	-0.203	-0.321
-245.990	60.202	-0.147	-0.144
-244.976	-200.000	-0.052	0.389
-243.961	22.951	-0.216	0.175
-242.946	156.394	0.212	-0.289
-241.932	-26.503	-0.131	-0.076
-240.917	-130.924	0.187	-0.025
-239.903	313.879	0.061	0.113
-238.888	-85.542	-0.044	-0.014
-237.873	92.393	0.034	0.038
-236.859	23.850	0.128	0.105
-235.844	-94.222	0.082	0.022
-234.830	94.407	0.219	0.246
-233.815	-100.471	-0.327	0.080
-232.800	66.233	-0.122	-0.123
-231.786	-8.871	-0.155	-0.102
-230.771	-200.000	-0.002	-0.089
-229.757	-94.189	-0.253	-0.069
-228.742	800.000	0.054	-0.213
-227.727	187.247	-0.092	-0.136
-226.713	-48.787	-0.127	-0.061
-225.698	-122.918	0.198	0.032
-224.684	-200.000	0.041	-0.207
-223.669	-103.566	0.347	-0.081
-222.655	236.617	-0.221	0.362
-221.640	-200.000	-0.044	-0.309
-220.625	-1.358	0.195	-0.136
-219.611	-195.395	-0.009	0.000
-218.596	-200.000	-0.003	-0.113
-217.582	-29.039	-0.363	0.206
-216.567	-102.080	0.082	0.020
-215.552	4.885	-0.170	0.123
-214.538	800.000	-0.138	0.394
-213.523	-2.012	0.311	0.216
-212.509	-53.870	-0.126	-0.057
-211.494	112.236	-0.229	-0.274
-210.479	43.450	-0.098	0.088
-209.465	800.000	-0.127	-0.354
-208.450	302.548	-0.040	-0.073
-207.436	-200.000	-0.013	-0.239
-206.421	-200.000	0.013	-0.179
-205.406	71.421	-0.109	0.112
-204.392	334.381	-0.095	0.181
-203.377	-200.000	0.015	-0.273
-202.363	-38.614	-0.217	-0.113
-201.348	800.000	0.037	0.122
-200.333	-21.291	0.118	-0.071
-199.319	194.695	0.062	0.093
-198.304	355.911	0.085	0.166
-197.290	417.918	-0.004	-0.009
-196.275	-105.447	0.325	0.073
-195.260	-195.358	0.191	0.001
-194.246	-83.256	-0.238	0.075
-193.231	-200.000	0.007	-0.209
-192.217	-178.488	0.164	0.004
-191.202	-200.000	0.004	0.276
-190.187	-183.482	-0.038	0.001
-189.173	-26.544	0.149	-0.086
-188.158	312.492	0.037	0.069
-187.144	10.547	-0.238	0.179
-186.129	205.444	-0.101	-0.156
-185.114	231.783	-0.047	0.077
-184.100	673.412	0.063	-0.160
-183.085	-51.756	0.225	-0.103
-182.071	-200.000	-0.029	0.130
-181.056	68.778	0.103	0.105
-180.042	-133.706	0.081	0.010
-179.027	-151.604	0.156	0.011
-178.012	98.231	0.099	0.113
-176.998	800.000	-0.085	-0.259
-175.983	-102.633	0.096	0.023
-174.969	61.623	-0.117	-0.115
-173.954	-151.107	0.257	-0.019
-172.939	183.710	-0.184	0.268
-171.925	50.626	0.397	-0.371
-170.910	60.298	-0.228	0.223
-169.896	-200.000	-0.051	0.290
-168.881	583.021	-0.124	-0.300
-167.866	21.907	-0.245	-0.198
-166.852	-66.653	0.031	0.012
-165.837	800.000	-0.012	-0.042
-164.823	-13.850	0.019	0.012
-163.808	-180.756	0.307	-0.006
-162.793	-200.000	-0.011	0.154
-161.779	41.946	0.164	-0.147
-160.764	208.153	0.103	-0.159
-159.750	-200.000	0.001	-0.147
-158.735	-195.831	0.095	-0.001
-157.720	-159.709	-0.080	0.004
-156.706	514.113	-0.057	0.130
-155.691	-200.000	0.033	0.174
-154.677	-29.454	-0.148	-0.083
-153.662	323.991	0.150	-0.282
-152.647	-191.504	-0.113	-0.001
-151.633	800.000	-0.023	0.101
-150.618	131.369	0.103	0.131
-149.604	800.000	0.129	0.355
-148.589	158.527	-0.040	0.054
-147.574	42.470	0.197	-0.177
-146.560	-200.000	0.575	0.000
-145.545	554.839	0.020	-0.048
-144.531	2.378	0.263	-0.188
-143.516	60.607	-0.125	0.122
-142.502	-200.000	0.008	0.526
-141.487	-200.000	-0.016	-0.560
-140.472	-16.268	0.039	-0.024
-139.458	172.967	0.028	0.039
-138.443	-100.817	0.024	-0.006
-137.429	194.096	-0.042	-0.063
-136.414	-200.000	0.011	0.048
-135.399	78.832	-0.279	-0.294
-134.385	-25.213	0.216	0.126
-133.370	-95.624	-0.277	-0.073
-132.356	800.000	-0.052	-0.192
-131.341	-200.000	-0.035	0.349
-130.326	99.170	-0.295	0.336
-129.312	800.000	-0.084	-0.266
-128.297	19.784	0.300	-0.238
-127.283	-101.051	-0.221	-0.053
-126.268	34.746	-0.452	0.389
-125.253	695.321	-0.058	-0.151
-124.239	800.000	-0.056	0.154
-123.224	-177.206	-0.222	-0.005
-122.210	-38.710	-0.196	0.102
