DTS Sentinel unit serial number:	SN413079Multiplexer serial number:	ORYXHardware model number:	OX4-SRSoftware version number:	ORYX F/W v4.00 Oryx Data Collector v3.7.2.0data status	okinstallation	princeton_trtdifferential loss correction	single-endedforward channel	channel 1reverse channel	N/Adate	2019/09/14time	22:42:35forward acquisition time	60.00reverse acquisition time	0.00gamma	496.2192k internal	0.2319k external	0.2319temperature offset calibration	1.0003default loss term (dB/km)	0.3790temperature slope calibration	1.0000multiplexer offset coefficient	1.0000multiplexer slope coefficient	1.0000fibre end	0.00T internal ref (°C)	32.50T ext. ref 1 (°C)	4.67T ext. ref 2 (°C)	27.52length (m)	temperature (°C)	Stokes	anti-Stokes-747.200	-16.755	-0.175	-0.112
-746.185	-114.577	-0.235	-0.046
-745.171	259.789	0.140	-0.245
-744.156	800.000	0.042	0.121
-743.142	-200.000	0.002	-0.026
-742.127	-200.000	0.025	0.130
-741.112	-56.836	0.352	0.157
-740.098	14.209	-0.162	-0.128
-739.083	-68.101	-0.254	0.100
-738.069	164.877	-0.336	0.479
-737.054	163.333	-0.201	0.286
-736.039	400.897	-0.119	0.252
-735.025	131.536	-0.060	0.078
-734.010	-195.677	-0.222	0.002
-732.996	-23.111	-0.312	-0.190
-731.981	13.360	0.207	-0.162
-730.966	800.000	-0.077	-0.254
-729.952	800.000	-0.074	0.313
-728.937	800.000	-0.076	-0.217
-727.923	-39.818	-0.161	-0.085
-726.908	-6.641	-0.209	0.144
-725.894	680.114	-0.049	-0.130
-724.879	-200.000	0.007	-0.238
-723.864	29.007	-0.050	0.043
-722.850	215.676	0.163	0.261
-721.835	800.000	-0.029	-0.122
-720.821	-157.375	-0.246	0.015
-719.806	-42.521	0.148	0.076
-718.791	-122.321	-0.104	0.017
-717.777	-21.382	-0.079	-0.049
-716.762	-200.000	-0.003	-0.178
-715.748	166.819	-0.129	-0.184
-714.733	-90.347	-0.083	0.024
-713.718	6.119	-0.204	0.153
-712.704	-25.083	0.064	-0.038
-711.689	-137.405	-0.200	-0.023
-710.675	-200.000	-0.024	0.121
-709.660	-64.226	-0.145	-0.060
-708.645	114.832	-0.140	0.172
-707.631	137.443	-0.123	0.163
-706.616	27.210	0.128	-0.109
-705.602	-36.418	-0.101	-0.055
-704.587	-200.000	0.033	-0.167
-703.572	53.546	-0.111	-0.107
-702.558	-53.785	-0.238	-0.110
-701.543	65.830	-0.150	-0.153
-700.529	800.000	-0.096	-0.356
-699.514	-88.890	-0.158	0.047
-698.499	666.043	-0.112	0.292
-697.485	800.000	-0.057	0.186
-696.470	6.359	-0.095	0.071
-695.456	-200.000	-0.044	0.372
-694.441	-200.000	0.005	0.234
-693.426	-4.785	-0.169	-0.118
-692.412	-37.389	-0.197	0.106
-691.397	-5.087	-0.408	-0.284
-690.383	-200.000	-0.019	-0.192
-689.368	724.667	0.119	-0.321
-688.354	137.585	0.107	-0.142
-687.339	113.462	-0.090	-0.110
-686.324	293.851	0.082	0.151
-685.310	143.473	-0.152	-0.204
-684.295	800.000	-0.105	0.387
-683.281	408.711	-0.109	0.233
-682.266	148.528	0.039	-0.053
-681.251	-200.000	-0.032	0.236
-680.237	70.934	-0.100	-0.105
-679.222	756.398	-0.078	0.214
-678.208	-200.000	0.006	0.207
-677.193	800.000	-0.007	-0.028
-676.178	172.217	0.092	0.134
-675.164	-200.000	0.038	-0.257
-674.149	20.228	0.222	-0.181
-673.135	-167.957	-0.372	0.015
-672.120	545.769	0.167	-0.402
-671.105	-200.000	0.009	-0.200
-670.091	-200.000	0.015	-0.391
-669.076	-32.849	0.235	-0.131
-668.062	-86.384	0.226	-0.070
-667.047	-20.650	-0.213	0.132
-666.032	-83.411	0.284	-0.092
-665.018	128.975	-0.130	0.167
-664.003	-26.128	0.188	0.112
-662.989	-92.883	-0.274	0.077
-661.974	-200.000	0.014	-0.173
-660.959	374.612	0.017	0.034
-659.945	-22.504	0.364	-0.222
-658.930	-200.000	0.024	-0.325
-657.916	19.420	0.260	0.210
-656.901	168.721	-0.121	-0.173
-655.886	-200.000	0.063	-0.310
-654.872	-64.735	-0.221	-0.090
-653.857	-200.000	0.060	0.283
-652.843	-48.296	-0.197	-0.096
-651.828	-200.000	-0.007	0.055
-650.814	-37.812	0.156	-0.084
-649.799	-200.000	0.005	0.070
-648.784	13.922	0.135	-0.106
-647.770	-200.000	-0.022	-0.230
-646.755	-200.000	-0.071	-0.370
-645.741	314.010	0.025	-0.047
-644.726	260.678	-0.012	-0.021
-643.711	-130.441	0.336	-0.046
-642.697	-200.000	-0.003	-0.021
-641.682	-70.692	-0.311	-0.119
-640.668	172.682	-0.136	0.197
-639.653	214.010	-0.157	0.250
-638.638	-60.617	-0.145	0.062
-637.624	238.478	0.149	0.249
-636.609	52.344	-0.104	0.100
-635.595	-200.000	0.021	-0.136
-634.580	-74.036	-0.186	0.068
-633.565	133.849	0.167	-0.218
-632.551	-35.707	0.273	-0.149
-631.536	236.748	0.030	-0.050
-630.522	232.884	-0.146	0.242
-629.507	-200.000	0.011	0.096
-628.492	583.228	-0.083	-0.206
-627.478	565.760	0.150	-0.366
-626.463	-156.763	0.213	-0.013
-625.449	-200.000	-0.029	-0.131
-624.434	316.367	0.077	-0.146
-623.419	-120.967	0.150	0.025
-622.405	-110.867	0.251	0.052
-621.390	-47.539	0.106	0.052
-620.376	-200.000	0.032	0.306
-619.361	-119.920	-0.021	-0.004
-618.346	-104.858	0.095	0.022
-617.332	-161.645	0.095	-0.005
-616.317	88.024	0.134	0.150
-615.303	800.000	0.095	-0.339
-614.288	415.645	0.176	-0.378
-613.273	46.943	0.279	0.261
-612.259	-131.365	-0.130	0.017
-611.244	-200.000	0.024	-0.199
-610.230	-149.629	-0.397	0.031
-609.215	-145.154	-0.130	0.012
-608.201	-157.708	-0.240	0.014
-607.186	746.637	0.057	-0.156
-606.171	-73.314	-0.342	0.126
-605.157	22.578	0.223	0.184
-604.142	613.899	0.107	-0.269
-603.128	28.173	-0.059	0.051
-602.113	-183.861	0.070	0.001
-601.098	-200.000	0.001	-0.073
-600.084	800.000	-0.009	0.030
-599.069	-0.231	-0.228	-0.163
-598.055	-52.645	-0.169	-0.078
-597.040	-200.000	-0.026	0.305
-596.025	201.782	-0.135	0.210
-595.011	-200.000	-0.020	-0.279
-593.996	-200.000	-0.079	-0.361
-592.982	-200.000	0.014	-0.131
-591.967	98.541	-0.232	-0.269
-590.952	30.816	-0.378	-0.326
-589.938	800.000	0.045	-0.138
-588.923	-85.903	-0.421	-0.131
-587.909	800.000	0.118	0.364
-586.894	-7.317	0.081	0.055
-585.879	-106.412	-0.130	-0.029
-584.865	29.807	-0.251	-0.215
-583.850	-78.541	0.092	0.032
-582.836	-120.181	-0.274	-0.047
-581.821	-13.674	0.230	0.149
-580.806	143.203	-0.196	0.262
-579.792	440.776	-0.029	0.064
-578.777	800.000	-0.045	-0.159
-577.763	251.455	0.206	-0.352
-576.748	-200.000	-0.018	-0.169
-575.733	800.000	0.165	0.532
-574.719	800.000	-0.046	-0.193
-573.704	-13.587	-0.139	0.091
-572.690	-200.000	-0.017	-0.130
-571.675	82.185	0.123	-0.134
-570.661	-200.000	0.019	0.138
-569.646	800.000	-0.113	0.390
-568.631	103.234	0.274	-0.323
-567.617	97.742	0.213	0.246
-566.602	-129.659	-0.354	-0.049
-565.588	2.770	0.159	0.116
-564.573	-200.000	-0.070	0.311
-563.558	39.664	-0.191	0.172
-562.544	104.643	-0.151	0.179
-561.529	523.128	-0.040	-0.094
-560.515	-200.000	0.006	0.228
-559.500	55.312	0.042	0.040
-558.485	1.140	-0.318	0.230
-557.471	-200.000	0.012	-0.364
-556.456	695.842	-0.073	0.192
-555.442	-63.524	-0.524	0.216
-554.427	-181.214	0.269	0.005
-553.412	422.228	-0.119	0.257
-552.398	27.147	-0.231	0.195
-551.383	62.205	0.083	0.083
-550.369	-105.844	-0.224	0.051
-549.354	80.303	-0.092	-0.100
-548.339	-89.159	0.285	0.084
-547.325	-200.000	0.018	-0.388
-546.310	-200.000	-0.032	-0.184
-545.296	800.000	0.028	-0.087
-544.281	403.595	-0.227	-0.479
-543.266	129.338	0.287	-0.368
-542.252	800.000	-0.053	-0.161
-541.237	-174.041	0.101	-0.003
-540.223	-87.311	-0.216	-0.066
-539.208	-200.000	0.008	-0.164
-538.193	444.597	0.031	-0.069
-537.179	-200.000	0.003	-0.072
-536.164	131.382	0.072	-0.093
-535.150	800.000	-0.023	-0.093
-534.135	175.695	-0.117	-0.170
-533.121	-200.000	-0.038	-0.193
-532.106	-14.610	-0.125	-0.081
-531.091	37.994	0.242	0.216
-530.077	800.000	-0.034	0.138
-529.062	88.922	-0.136	0.152
-528.048	-200.000	-0.033	0.166
-527.033	-200.000	-0.021	-0.193
-526.018	236.642	-0.065	-0.107
-525.004	-141.019	-0.152	0.016
-523.989	-70.495	-0.176	-0.067
-522.975	512.080	0.024	0.057
-521.960	143.144	0.124	-0.166
-520.945	-40.386	0.161	-0.084
-519.931	-52.160	-0.266	0.124
-518.916	-200.000	0.001	-0.183
-517.902	271.958	0.151	-0.266
-516.887	-132.837	-0.277	0.035
-515.872	-125.666	-0.387	-0.059
-514.858	-63.112	0.317	0.131
-513.843	-200.000	0.345	-0.001
-512.829	-172.150	-0.520	-0.017
-511.814	-200.000	-0.070	0.383
-510.799	-141.252	0.236	0.024
-509.785	-5.986	0.077	-0.053
-508.770	238.962	0.257	-0.429
-507.756	-27.931	0.088	0.051
-506.741	-37.826	-0.318	-0.170
-505.726	800.000	0.078	-0.294
-504.712	-165.990	0.233	-0.010
-503.697	-31.004	0.295	0.167
-502.683	182.961	0.071	-0.105
-501.668	-147.686	-0.093	-0.008
-500.653	-115.978	0.204	-0.038
-499.639	-200.000	-0.030	0.261
-498.624	38.932	-0.380	0.341
-497.610	-200.000	0.003	0.209
-496.595	113.319	0.161	-0.196
-495.581	-200.000	-0.040	-0.178
-494.566	783.009	0.129	0.353
-493.551	-200.000	-0.049	-0.298
-492.537	142.139	-0.146	-0.194
-491.522	69.245	-0.111	0.114
-490.508	-146.262	0.172	0.015
-489.493	-142.286	0.221	0.022
-488.478	-103.712	0.034	0.008
-487.464	33.902	-0.217	0.189
-486.449	304.342	0.044	0.082
-485.435	-149.954	0.323	0.025
-484.420	-200.000	-0.008	-0.085
-483.405	-38.233	-0.115	0.061
-482.391	291.010	0.052	0.095
-481.376	-32.875	0.272	0.152
-480.362	-91.371	0.037	0.011
-479.347	800.000	0.063	-0.228
-478.332	-200.000	-0.021	0.174
-477.318	33.453	0.040	0.035
-476.303	97.547	-0.150	0.173
-475.289	-46.520	0.216	-0.106
-474.274	-99.174	-0.150	0.038
-473.259	140.944	-0.122	-0.161
-472.245	-104.520	-0.032	-0.007
-471.230	5.966	0.066	0.049
-470.216	800.000	0.055	-0.191
-469.201	-200.000	-0.017	-0.166
-468.186	-39.438	-0.187	-0.098
-467.172	0.115	-0.229	-0.163
-466.157	-10.774	0.076	-0.050
-465.143	-200.000	0.045	-0.210
-464.128	-20.814	-0.096	-0.059
-463.113	800.000	-0.047	-0.158
-462.099	-200.000	-0.045	0.244
-461.084	-134.852	-0.162	-0.020
-460.070	151.035	-0.095	0.129
-459.055	-200.000	0.075	-0.331
-458.040	254.908	-0.206	0.354
-457.026	-46.000	0.083	0.041
-456.011	401.318	-0.071	0.149
-454.997	-115.510	0.141	-0.027
-453.982	15.415	0.106	0.083
-452.968	-200.000	0.030	0.210
-451.953	274.714	-0.202	-0.358
-450.938	-185.148	-0.390	-0.006
-449.924	-76.987	-0.236	0.083
-448.909	361.268	0.192	-0.385
-447.895	117.330	0.014	0.018
-446.880	-125.374	0.180	-0.027
-445.865	-200.000	0.042	0.205
-444.851	-53.873	-0.313	0.143
-443.836	-13.449	0.250	0.162
-442.822	-200.000	0.020	0.174
-441.807	309.750	-0.095	-0.178
-440.792	131.633	0.081	-0.104
-439.778	143.731	0.114	-0.152
-438.763	30.464	-0.038	0.033
-437.749	-2.769	0.167	0.117
-436.734	52.090	0.205	-0.196
-435.719	-200.000	0.010	-0.057
-434.705	-200.000	-0.011	0.214
-433.690	353.881	0.146	0.290
-432.676	800.000	0.068	0.236
-431.661	-152.108	0.141	-0.010
-430.646	278.877	-0.087	0.155
-429.632	-200.000	-0.023	-0.332
-428.617	350.788	-0.062	0.122
-427.603	527.701	0.061	0.145
-426.588	800.000	-0.083	-0.248
-425.573	-200.000	0.026	0.193
-424.559	-58.727	0.331	-0.143
-423.544	44.226	0.171	-0.157
-422.530	-200.000	0.013	0.169
-421.515	510.077	-0.022	0.051
-420.500	77.409	0.141	0.149
-419.486	25.859	-0.053	0.044
-418.471	295.680	-0.041	0.076
-417.457	-62.654	0.281	-0.116
-416.442	56.218	0.217	-0.211
-415.428	98.099	-0.044	0.050
-414.413	800.000	-0.024	-0.086
-413.398	433.282	0.037	0.081
-412.384	-100.384	0.195	-0.048
-411.369	-130.241	-0.250	-0.034
-410.355	-176.569	-0.249	0.006
-409.340	-76.006	0.391	0.138
-408.325	43.953	0.142	0.130
-407.311	800.000	-0.017	-0.060
-406.296	800.000	0.056	0.197
-405.282	-200.000	0.020	-0.331
-404.267	-79.362	0.400	-0.135
-403.252	-200.000	0.018	-0.094
-402.238	-113.619	-0.200	-0.039
-401.223	-200.000	0.077	0.471
-400.209	8.736	-0.188	0.142
-399.194	464.545	0.106	0.237
-398.179	335.522	-0.087	0.167
-397.165	153.828	0.083	0.114
-396.150	800.000	0.033	0.090
-395.136	515.327	-0.057	-0.133
-394.121	-178.627	-0.077	-0.002
-393.106	168.704	-0.069	-0.098
-392.092	-141.238	-0.055	-0.006
-391.077	48.185	-0.256	-0.239
-390.063	-200.000	0.004	0.112
-389.048	291.093	0.123	0.223
-388.033	-79.455	0.276	-0.093
-387.019	-30.203	-0.095	-0.054
-386.004	-200.000	0.004	0.052
-384.990	13.729	0.232	-0.180
-383.975	-41.785	0.405	0.207
-382.960	-85.891	-0.103	0.032
-381.946	-98.354	-0.196	0.050
-380.931	202.482	-0.069	0.106
-379.917	323.766	0.054	-0.103
-378.902	-152.361	0.225	-0.016
-377.888	-152.045	-0.170	-0.012
-376.873	96.511	-0.126	-0.144
-375.858	269.929	0.029	0.051
-374.844	294.115	0.058	-0.106
-373.829	-153.204	0.253	-0.018
-372.815	-200.000	-0.090	0.521
-371.800	59.183	-0.123	0.121
-370.785	-52.891	0.147	-0.067
-369.771	-130.856	0.252	-0.034
-368.756	68.015	0.126	0.128
-367.742	43.392	-0.197	-0.180
-366.727	60.958	0.135	-0.134
-365.712	-56.664	0.139	-0.061
-364.698	-200.000	0.027	0.268
-363.683	-157.816	-0.110	-0.007
-362.669	-22.859	0.320	-0.193
-361.654	242.375	-0.056	0.094
-360.639	-172.991	-0.251	0.008
-359.625	800.000	-0.015	0.058
-358.610	-32.831	0.100	-0.055
-357.596	26.591	0.177	-0.148
-356.581	-100.221	-0.164	0.041
-355.566	60.372	-0.101	-0.100
-354.552	127.828	-0.140	0.178
-353.537	-157.049	-0.154	-0.009
-352.523	429.700	-0.146	-0.314
-351.508	476.202	-0.057	0.128
-350.493	-200.000	0.067	-0.535
-349.479	183.481	-0.151	-0.223
-348.464	-167.190	-0.125	0.005
-347.450	-136.612	0.091	-0.011
-346.435	163.027	0.078	-0.109
-345.420	800.000	0.042	-0.166
-344.406	-148.338	-0.194	0.016
-343.391	-200.000	0.019	0.238
-342.377	800.000	-0.052	-0.222
-341.362	-200.000	-0.066	0.297
-340.348	-124.527	0.113	0.018
-339.333	-200.000	0.016	0.079
-338.318	-103.316	0.110	-0.026
-337.304	-37.581	-0.397	-0.210
-336.289	233.391	-0.020	0.032
-335.275	-200.000	0.002	-0.217
-334.260	-108.866	0.130	0.028
-333.245	114.810	0.190	0.230
-332.231	71.895	-0.125	0.130
-331.216	-150.242	0.475	-0.037
-330.202	-107.584	-0.207	-0.045
-329.187	-148.173	-0.235	-0.019
-328.172	-104.295	-0.295	0.068
-327.158	402.296	-0.030	0.062
-326.143	-9.338	0.046	-0.031
-325.129	-78.142	0.259	-0.089
-324.114	-54.974	-0.413	-0.185
-323.099	-82.373	0.174	0.056
-322.085	45.327	0.170	0.156
-321.070	-200.000	-0.007	0.163
-320.056	-200.000	0.018	0.210
-319.041	11.110	-0.133	0.101
-318.026	-200.000	-0.019	-0.091
-317.012	-47.007	0.313	-0.152
-315.997	-200.000	-0.040	-0.228
-314.983	-200.000	0.003	0.223
-313.968	0.613	-0.051	0.036
-312.953	800.000	0.013	0.038
-311.939	7.235	-0.180	-0.134
-310.924	-200.000	0.057	0.322
-309.910	54.201	-0.184	0.176
-308.895	114.023	0.299	0.361
-307.880	-58.508	0.136	-0.059
-306.866	-87.792	0.183	0.055
-305.851	163.246	-0.016	-0.022
-304.837	-90.053	-0.136	0.039
-303.822	-173.691	0.225	0.007
-302.807	-200.000	-0.038	0.168
-301.793	91.839	-0.116	-0.130
-300.778	800.000	-0.085	0.297
-299.764	-71.431	-0.079	-0.029
-298.749	584.493	-0.031	0.075
-297.735	196.444	0.189	0.286
-296.720	275.712	0.169	0.299
-295.705	243.053	-0.071	0.118
-294.691	-200.000	0.126	-0.592
-293.676	354.392	-0.085	-0.167
-292.662	-13.898	-0.102	-0.065
-291.647	-99.981	0.096	0.024
-290.632	-200.000	-0.012	-0.229
-289.618	-47.681	0.294	-0.142
-288.603	460.363	0.140	0.310
-287.589	682.479	-0.051	0.133
-286.574	-127.598	0.151	-0.022
-285.559	77.762	-0.172	0.182
-284.545	-90.816	-0.085	0.024
-283.530	-110.830	0.058	-0.012
-282.516	197.168	-0.160	0.243
-281.501	800.000	0.124	-0.390
-280.486	32.146	-0.205	-0.176
-279.472	-200.000	0.042	-0.313
-278.457	-55.156	0.108	0.048
-277.443	53.690	0.256	0.245
-276.428	-98.318	-0.069	0.018
-275.413	233.982	0.175	0.287
-274.399	1.291	0.116	0.083
-273.384	-21.612	0.334	0.202
-272.370	800.000	0.094	0.362
-271.355	-62.318	-0.301	-0.125
-270.340	-114.450	0.163	0.031
-269.326	151.621	0.104	0.141
-268.311	-37.870	0.174	0.092
-267.297	-10.274	-0.204	0.135
-266.282	-123.914	-0.280	0.044
-265.267	-84.802	0.379	0.118
-264.253	58.376	-0.031	-0.030
-263.238	11.820	0.142	0.108
-262.224	-51.219	-0.109	-0.051
-261.209	-74.880	-0.139	0.049
-260.195	3.430	-0.326	0.236
-259.180	-31.613	-0.218	0.122
-258.165	-200.000	-0.013	0.081
-257.151	-130.629	-0.104	-0.014
-256.136	371.707	-0.053	-0.106
-255.122	194.837	0.171	-0.258
-254.107	41.736	0.160	0.144
-253.092	53.317	-0.511	0.486
-252.078	-2.201	0.133	-0.093
-251.063	-171.506	-0.058	0.002
-250.049	774.754	-0.142	0.384
-249.034	30.161	-0.109	-0.092
-248.019	-92.034	0.106	-0.030
-247.005	0.226	0.158	0.112
-245.990	490.566	0.108	0.246
-244.976	-200.000	-0.012	0.233
-243.961	26.922	-0.151	0.126
-242.946	-101.819	0.119	-0.029
-241.932	264.786	-0.143	-0.247
-240.917	-200.000	0.039	-0.204
-239.903	-15.885	0.153	-0.097
-238.888	200.435	0.310	0.473
-237.873	604.599	0.010	-0.026
-236.859	402.630	0.039	-0.081
-235.844	-77.295	-0.110	0.038
-234.830	594.347	0.012	-0.029
-233.815	800.000	-0.072	-0.292
-232.800	34.122	0.109	-0.094
-231.786	254.930	-0.153	0.260
-230.771	53.550	0.222	-0.212
-229.757	-157.463	0.142	0.008
-228.742	-98.076	-0.050	-0.013
-227.727	-117.966	0.103	-0.018
-226.713	-80.943	0.260	-0.085
-225.698	-161.330	0.416	-0.021
-224.684	-13.890	0.135	0.087
-223.669	-166.337	0.142	-0.006
-222.655	-25.865	-0.153	-0.089
-221.640	-74.604	0.039	0.014
-220.625	64.545	0.153	-0.153
-219.611	-200.000	-0.014	0.220
-218.596	608.261	0.049	-0.120
-217.582	197.938	-0.065	-0.099
-216.567	-200.000	0.033	-0.171
-215.552	-126.647	-0.260	-0.038
-214.538	-112.055	0.008	0.002
-213.523	800.000	-0.024	0.092
-212.509	-116.698	-0.082	0.015
-211.494	-200.000	0.031	-0.209
-210.479	456.949	-0.130	-0.286
-209.465	-48.941	-0.145	0.069
-208.450	-13.597	-0.174	-0.112
-207.436	-28.240	-0.240	0.137
-206.421	75.379	-0.013	0.013
-205.406	-107.656	-0.275	0.059
-204.392	165.009	0.269	-0.376
-203.377	108.042	0.144	0.170
-202.363	-200.000	0.032	0.218
-201.348	-50.558	-0.177	-0.082
-200.333	-109.627	0.086	-0.018
-199.319	-99.202	-0.428	0.107
-198.304	-200.000	0.007	0.056
-197.290	83.459	0.108	0.116
-196.275	-54.306	-0.264	0.119
-195.260	283.061	0.048	-0.086
-194.246	310.815	-0.203	0.376
-193.231	676.456	-0.066	0.169
-192.217	800.000	-0.070	0.241
-191.202	-200.000	-0.077	-0.435
-190.187	111.696	-0.406	-0.486
-189.173	-14.799	0.229	-0.146
-188.158	-200.000	-0.002	0.017
-187.144	-167.794	0.190	-0.007
-186.129	-7.276	-0.243	0.163
-185.114	-200.000	-0.014	-0.092
-184.100	-26.260	-0.153	-0.089
-183.085	-46.429	0.305	0.148
-182.071	-97.631	-0.183	0.047
-181.056	31.751	-0.161	0.137
-180.042	-54.075	0.134	-0.060
-179.027	99.827	0.164	0.188
-178.012	-123.023	-0.091	-0.014
-176.998	70.305	0.115	-0.118
-175.983	227.895	0.037	-0.059
-174.969	800.000	-0.067	-0.224
-173.954	96.843	-0.094	-0.107
-172.939	-34.770	-0.226	-0.122
-171.925	-7.443	0.231	-0.154
-170.910	800.000	-0.066	-0.202
-169.896	-78.145	0.109	-0.037
-168.881	61.396	0.175	0.172
-167.866	268.480	0.180	-0.312
-166.852	-128.488	0.202	-0.028
-165.837	-200.000	-0.016	0.287
-164.823	-1.577	0.225	-0.157
-163.808	-188.599	0.085	-0.001
-162.793	-87.370	-0.250	-0.075
-161.779	62.986	0.194	0.192
-160.764	-140.726	-0.429	-0.044
-159.750	156.226	-0.154	-0.210
-158.735	111.375	-0.192	-0.229
-157.720	470.682	0.076	0.169
-156.706	-107.837	0.255	0.055
-155.691	165.614	0.087	0.122
-154.677	67.629	0.186	0.188
-153.662	290.942	-0.102	-0.183
-152.647	276.973	0.036	-0.064
-151.633	741.073	-0.078	0.206
-150.618	-20.583	0.123	-0.075
-149.604	88.118	0.192	0.211
-148.589	-36.325	0.103	0.055
-147.574	148.687	-0.167	0.223
-146.560	392.328	0.070	0.145
-145.545	-75.304	-0.293	0.103
-144.531	236.108	-0.090	0.146
-143.516	-200.000	0.014	-0.092
-142.502	-46.136	0.143	-0.069
-141.487	-7.947	-0.118	0.079
-140.472	379.207	-0.046	-0.093
-139.458	-147.104	0.137	-0.012
-138.443	-200.000	-0.005	0.439
-137.429	376.041	0.087	-0.175
-136.414	257.222	-0.216	-0.366
-135.399	-200.000	0.009	0.118
-134.385	151.013	0.069	-0.093
-133.370	-154.364	-0.165	0.011
-132.356	603.844	-0.039	-0.095
-131.341	-100.218	0.429	-0.105
-130.326	-81.294	0.148	0.048
-129.312	-200.000	-0.011	-0.084
-128.297	-200.000	0.018	-0.085
-127.283	7.410	-0.284	0.209
-126.268	-112.532	0.043	0.008
-125.253	-200.000	0.000	-0.366
-124.239	111.948	0.164	-0.195
-123.224	-73.092	-0.285	-0.103
-122.210	-200.000	0.037	0.256
