DTS Sentinel unit serial number:	SN413079Multiplexer serial number:	ORYXHardware model number:	OX4-SRSoftware version number:	ORYX F/W v4.00 Oryx Data Collector v3.7.2.0data status	okinstallation	princeton_trtdifferential loss correction	single-endedforward channel	channel 1reverse channel	N/Adate	2019/09/15time	04:46:35forward acquisition time	60.00reverse acquisition time	0.00gamma	496.2192k internal	0.2324k external	0.2324temperature offset calibration	0.9992default loss term (dB/km)	0.3790temperature slope calibration	1.0000multiplexer offset coefficient	1.0000multiplexer slope coefficient	1.0000fibre end	0.00T internal ref (°C)	30.77T ext. ref 1 (°C)	4.73T ext. ref 2 (°C)	25.30length (m)	temperature (°C)	Stokes	anti-Stokes-747.200	-200.000	0.072	0.475
-746.185	800.000	0.041	0.158
-745.171	-200.000	0.019	0.118
-744.156	429.835	-0.023	0.051
-743.142	-84.524	0.090	-0.029
-742.127	93.513	0.056	-0.064
-741.112	-46.795	-0.253	0.125
-740.098	210.545	-0.142	0.225
-739.083	94.465	-0.256	0.293
-738.069	-200.000	0.012	0.206
-737.054	318.061	0.061	0.117
-736.039	-114.733	-0.496	0.096
-735.025	-200.000	0.115	0.522
-734.010	756.888	0.103	0.282
-732.996	-48.277	-0.097	-0.047
-731.981	409.299	-0.182	0.389
-730.966	-82.675	-0.179	0.059
-729.952	48.072	-0.195	-0.184
-728.937	504.567	0.132	-0.309
-727.923	-81.270	0.084	-0.028
-726.908	-125.785	-0.360	-0.055
-725.894	63.510	-0.284	-0.288
-724.879	-103.017	-0.305	-0.073
-723.864	144.170	0.127	-0.171
-722.850	-200.000	-0.001	0.047
-721.835	-200.000	0.040	-0.192
-720.821	-100.330	0.077	-0.019
-719.806	-89.644	-0.331	0.098
-718.791	-12.261	-0.239	-0.158
-717.777	13.406	-0.271	-0.212
-716.762	-81.765	0.086	-0.029
-715.748	102.964	-0.137	-0.162
-714.733	686.717	0.031	-0.082
-713.718	17.239	0.122	-0.097
-712.704	39.297	-0.346	-0.312
-711.689	226.314	-0.223	0.365
-710.675	-143.243	0.436	-0.042
-709.660	754.734	0.059	-0.162
-708.645	134.686	-0.078	-0.102
-707.631	203.117	-0.121	-0.189
-706.616	90.690	0.321	-0.363
-705.602	711.294	0.038	-0.102
-704.587	285.476	-0.154	-0.280
-703.572	618.239	-0.103	-0.262
-702.558	-0.901	0.283	-0.202
-701.543	7.480	-0.205	0.155
-700.529	255.185	-0.238	0.411
-699.514	-170.232	0.199	0.007
-698.499	-62.158	-0.236	-0.099
-697.485	-56.750	-0.092	-0.041
-696.470	742.428	-0.098	-0.266
-695.456	115.490	-0.141	0.174
-694.441	-200.000	-0.043	-0.436
-693.426	97.298	-0.312	0.361
-692.412	-93.874	0.270	-0.075
-691.397	231.614	0.226	-0.374
-690.383	-200.000	0.036	0.466
-689.368	758.164	0.085	0.232
-688.354	21.590	-0.044	-0.036
-687.339	-200.000	-0.042	-0.222
-686.324	506.264	-0.102	0.239
-685.310	295.953	-0.196	0.362
-684.295	191.366	-0.050	0.076
-683.281	124.064	-0.108	0.137
-682.266	330.358	0.081	0.157
-681.251	-131.895	0.510	0.067
-680.237	-200.000	-0.017	0.105
-679.222	-184.942	-0.172	-0.003
-678.208	800.000	-0.100	-0.293
-677.193	-200.000	0.001	0.314
-676.178	-81.169	-0.162	-0.054
-675.164	-114.291	0.142	0.028
-674.149	779.836	-0.035	0.097
-673.135	-36.304	0.302	-0.164
-672.120	98.308	-0.213	-0.247
-671.105	553.196	-0.026	-0.062
-670.091	-22.429	-0.132	0.080
-669.076	-102.388	0.046	0.011
-668.062	-200.000	-0.074	-0.412
-667.047	665.572	-0.114	0.296
-666.032	-59.796	0.202	-0.087
-665.018	374.858	0.125	-0.256
-664.003	-130.086	-0.232	0.032
-662.989	20.243	-0.180	0.146
-661.974	673.421	0.059	-0.154
-660.959	369.814	0.057	0.116
-659.945	800.000	-0.042	-0.138
-658.930	-54.093	0.275	-0.126
-657.916	-90.770	-0.134	-0.039
-656.901	429.170	0.195	0.424
-655.886	-200.000	0.058	0.276
-654.872	479.585	0.114	0.259
-653.857	-31.606	0.181	-0.102
-652.843	138.344	-0.073	0.097
-651.828	-73.629	0.197	0.072
-650.814	212.279	-0.109	0.174
-649.799	-200.000	0.052	0.269
-648.784	-0.015	0.030	-0.022
-647.770	-9.385	0.104	0.070
-646.755	32.516	-0.095	0.082
-645.741	800.000	0.011	0.042
-644.726	-4.461	-0.200	-0.139
-643.711	-108.978	0.442	0.095
-642.697	327.886	-0.037	-0.071
-641.682	-25.272	0.160	0.095
-640.668	800.000	0.061	0.200
-639.653	65.384	0.082	-0.083
-638.638	-200.000	0.032	0.176
-637.624	-174.206	-0.180	-0.005
-636.609	567.564	0.068	0.166
-635.595	22.264	0.027	-0.022
-634.580	9.964	-0.042	-0.032
-633.565	800.000	-0.049	0.143
-632.551	-124.879	-0.412	0.064
-631.536	-200.000	0.011	0.235
-630.522	-60.651	0.247	-0.105
-629.507	86.336	0.152	0.168
-628.492	800.000	-0.029	0.127
-627.478	786.746	-0.050	0.138
-626.463	-114.969	-0.202	0.039
-625.449	-11.291	0.059	0.039
-624.434	-35.378	0.048	-0.026
-623.419	-36.822	-0.240	-0.129
-622.405	-120.065	0.283	-0.049
-621.390	49.778	0.127	0.120
-620.376	52.332	-0.087	0.083
-619.361	-200.000	-0.062	-0.287
-618.346	-7.078	0.136	0.093
-617.332	-200.000	-0.041	0.361
-616.317	-200.000	0.048	-0.358
-615.303	82.666	0.306	0.334
-614.288	-58.161	-0.145	-0.064
-613.273	342.626	0.145	-0.286
-612.259	128.657	-0.096	-0.123
-611.244	34.595	-0.187	0.164
-610.230	-152.085	0.146	0.011
-609.215	131.040	0.042	0.054
-608.201	68.801	-0.166	-0.171
-607.186	-70.704	-0.212	-0.081
-606.171	170.695	0.104	-0.149
-605.157	-45.269	-0.141	0.070
-604.142	362.349	0.053	-0.108
-603.128	800.000	0.090	-0.334
-602.113	201.331	0.159	0.246
-601.098	800.000	0.043	-0.162
-600.084	6.771	0.248	0.185
-599.069	-200.000	-0.012	0.196
-598.055	-111.829	0.068	0.014
-597.040	-126.252	0.289	0.043
-596.025	-33.245	-0.209	-0.116
-595.011	49.548	-0.144	0.136
-593.996	-200.000	0.015	0.353
-592.982	-121.643	0.117	0.019
-591.967	-122.527	-0.285	-0.046
-590.952	671.486	-0.044	-0.114
-589.938	238.252	-0.143	-0.238
-588.923	-34.382	-0.301	-0.166
-587.909	10.626	-0.121	-0.093
-586.894	23.733	-0.248	0.205
-585.879	194.578	-0.083	0.127
-584.865	-86.729	0.369	0.113
-583.850	26.996	0.151	-0.127
-582.836	46.780	0.067	-0.062
-581.821	-51.904	-0.162	0.076
-580.806	-47.322	0.071	-0.035
-579.792	-66.000	-0.342	0.137
-578.777	245.652	-0.197	0.332
-577.763	456.358	-0.198	-0.441
-576.748	-200.000	0.010	0.199
-575.733	-83.489	-0.078	0.025
-574.719	800.000	-0.028	0.107
-573.704	-200.000	-0.009	0.090
-572.690	800.000	-0.073	0.281
-571.675	-33.007	0.109	0.061
-570.661	361.979	0.156	0.313
-569.646	34.158	-0.057	-0.050
-568.631	-133.801	-0.034	-0.004
-567.617	-166.215	-0.237	0.010
-566.602	-200.000	-0.034	-0.196
-565.588	-54.292	0.140	0.064
-564.573	214.577	0.081	0.128
-563.558	-127.988	-0.119	0.017
-562.544	-126.885	0.122	0.018
-561.529	71.356	0.120	0.125
-560.515	-200.000	-0.391	-0.001
-559.500	-94.567	0.136	-0.037
-558.485	-56.245	-0.283	0.126
-557.471	-6.524	-0.251	0.171
-556.456	-200.000	-0.017	-0.487
-555.442	800.000	0.088	0.248
-554.427	-200.000	0.051	-0.341
-553.412	800.000	-0.057	0.208
-552.398	48.890	-0.061	0.057
-551.383	-49.147	-0.113	0.054
-550.369	-45.809	-0.201	0.099
-549.354	-124.887	0.162	0.025
-548.339	-3.090	-0.167	0.117
-547.325	-34.082	-0.202	-0.111
-546.310	701.872	0.016	0.042
-545.296	-140.512	-0.031	-0.003
-544.281	164.857	-0.191	0.270
-543.266	440.919	-0.043	0.093
-542.252	-18.032	0.089	0.056
-541.237	24.311	0.075	-0.062
-540.223	-55.666	0.360	-0.161
-539.208	-110.004	0.063	-0.013
-538.193	-200.000	-0.020	-0.132
-537.179	-28.684	-0.178	-0.103
-536.164	-89.874	-0.068	0.020
-535.150	-58.322	-0.345	-0.150
-534.135	-20.876	0.076	-0.047
-533.121	800.000	-0.040	-0.122
-532.106	800.000	-0.071	-0.208
-531.091	-3.732	0.183	-0.127
-530.077	-23.217	-0.264	0.159
-529.062	800.000	0.045	-0.153
-528.048	-78.276	-0.300	-0.103
-527.033	176.122	0.260	-0.378
-526.018	6.147	0.095	-0.070
-525.004	-200.000	0.031	-0.283
-523.989	-185.820	0.222	-0.003
-522.975	118.109	0.170	0.210
-521.960	134.473	-0.127	-0.165
-520.945	24.027	0.176	0.145
-519.931	-200.000	-0.012	-0.176
-518.916	-144.490	-0.246	-0.023
-517.902	400.759	-0.197	-0.414
-516.887	-16.533	0.379	-0.240
-515.872	176.998	-0.206	-0.300
-514.858	446.197	0.045	-0.099
-513.843	800.000	0.119	-0.478
-512.829	-200.000	-0.008	-0.069
-511.814	-142.846	-0.182	-0.018
-510.799	654.926	0.063	-0.162
-509.785	-200.000	0.008	-0.180
-508.770	-138.862	0.289	-0.031
-507.756	18.806	-0.257	0.206
-506.741	-97.509	-0.212	0.055
-505.726	-200.000	-0.020	-0.276
-504.712	555.997	0.029	0.069
-503.697	247.121	-0.203	0.342
-502.683	50.064	0.213	-0.201
-501.668	375.180	-0.088	0.178
-500.653	-200.000	-0.004	-0.279
-499.639	-200.000	0.020	-0.321
-498.624	800.000	-0.064	-0.235
-497.610	-200.000	0.013	-0.079
-496.595	7.599	-0.115	-0.086
-495.581	800.000	0.131	-0.361
-494.566	800.000	0.044	-0.132
-493.551	-130.716	0.150	-0.020
-492.537	-200.000	-0.015	0.255
-491.522	100.827	0.048	-0.056
-490.508	292.426	0.052	0.095
-489.493	36.318	-0.026	0.023
-488.478	-102.965	0.265	-0.063
-487.464	-182.854	-0.094	-0.002
-486.449	-173.594	-0.369	-0.011
-485.435	-28.401	0.228	-0.131
-484.420	54.627	-0.217	0.209
-483.405	-200.000	0.040	0.282
-482.391	-65.055	0.219	0.088
-481.376	-82.874	-0.227	-0.073
-480.362	340.984	0.118	0.230
-479.347	80.105	0.147	0.158
-478.332	800.000	0.103	-0.313
-477.318	-78.366	0.289	-0.099
-476.303	-70.318	-0.173	-0.065
-475.289	-200.000	-0.061	-0.377
-474.274	-180.177	-0.152	0.003
-473.259	-121.852	-0.270	0.045
-472.245	-111.706	-0.231	0.047
-471.230	115.876	-0.096	-0.118
-470.216	126.299	-0.168	-0.212
-469.201	14.849	-0.236	-0.184
-468.186	5.174	0.194	-0.143
-467.172	-194.784	-0.217	-0.002
-466.157	223.682	-0.072	0.116
-465.143	-35.701	-0.182	0.099
-464.128	800.000	-0.049	-0.137
-463.113	-34.783	0.177	0.096
-462.099	-85.492	0.148	0.046
-461.084	-200.000	-0.062	0.405
-460.070	-130.411	0.224	0.030
-459.055	800.000	-0.055	0.168
-458.040	-200.000	0.006	-0.066
-457.026	-25.010	0.232	-0.137
-456.011	278.185	-0.079	0.140
-454.997	164.591	0.048	-0.068
-453.982	-1.941	-0.258	0.181
-452.968	-17.865	0.198	-0.124
-451.953	282.181	0.111	0.199
-450.938	800.000	-0.081	-0.289
-449.924	-115.126	0.226	-0.043
-448.909	-200.000	-0.001	0.243
-447.895	132.636	0.071	-0.091
-446.880	-53.352	0.140	0.064
-445.865	133.425	0.138	0.178
-444.851	-200.000	-0.009	0.199
-443.836	-200.000	0.010	-0.135
-442.822	-60.193	0.168	-0.072
-441.807	647.282	-0.220	-0.562
-440.792	415.563	0.110	0.234
-439.778	0.079	0.375	-0.267
-438.763	14.192	0.431	-0.335
-437.749	98.460	-0.161	-0.185
-436.734	171.645	-0.100	-0.144
-435.719	122.772	-0.171	0.213
-434.705	-93.825	0.173	-0.047
-433.690	-16.790	-0.044	0.028
-432.676	-68.550	0.219	0.085
-431.661	-100.919	-0.362	0.089
-430.646	-164.156	0.111	-0.005
-429.632	800.000	0.118	0.414
-428.617	-200.000	-0.015	0.148
-427.603	800.000	0.068	-0.189
-426.588	-200.000	0.009	-0.313
-425.573	800.000	-0.030	0.097
-424.559	800.000	0.107	0.326
-423.544	180.530	-0.066	0.097
-422.530	257.649	-0.115	-0.198
-421.515	315.694	-0.115	0.216
-420.500	87.606	0.046	-0.051
-419.486	113.882	0.087	0.106
-418.471	800.000	-0.068	-0.272
-417.457	-3.546	-0.255	0.177
-416.442	-59.662	0.200	0.085
-415.428	-46.166	-0.174	-0.085
-414.413	-200.000	-0.016	-0.167
-413.398	-200.000	0.002	-0.045
-412.384	-142.537	0.473	-0.046
-411.369	-200.000	0.061	0.296
-410.355	329.614	0.086	-0.165
-409.340	-33.540	-0.111	-0.061
-408.325	148.959	0.122	-0.164
-407.311	152.792	0.053	-0.072
-406.296	601.928	0.074	0.184
-405.282	19.934	0.112	-0.090
-404.267	292.384	0.125	0.226
-403.252	282.165	-0.084	0.150
-402.238	-200.000	-0.023	0.136
-401.223	-146.280	0.319	0.028
-400.209	800.000	-0.038	0.151
-399.194	-5.704	0.230	0.157
-398.179	-103.717	0.498	-0.116
-397.165	-164.102	0.182	0.008
-396.150	-5.720	-0.372	0.254
-395.136	-101.173	-0.280	-0.068
-394.121	-200.000	-0.014	0.069
-393.106	-6.740	0.362	0.245
-392.092	132.578	-0.111	0.143
-391.077	-200.000	0.004	-0.240
-390.063	-169.393	0.083	-0.003
-389.048	22.429	-0.150	-0.122
-388.033	127.014	0.221	-0.279
-387.019	123.268	-0.127	0.158
-386.004	-96.906	-0.242	0.063
-384.990	800.000	-0.065	-0.238
-383.975	800.000	0.071	-0.228
-382.960	70.548	-0.068	-0.070
-381.946	698.358	-0.056	0.148
-380.931	593.270	-0.100	0.246
-379.917	414.524	-0.178	0.376
-378.902	-190.226	0.087	-0.001
-377.888	5.225	-0.259	0.190
-376.873	-200.000	-0.020	-0.128
-375.858	-200.000	-0.052	0.315
-374.844	14.294	-0.228	-0.177
-373.829	800.000	0.090	-0.306
-372.815	27.839	0.091	-0.076
-371.800	-31.881	0.199	-0.111
-370.785	-9.449	0.156	0.103
-369.771	80.253	-0.195	0.209
-368.756	34.227	-0.242	-0.210
-367.742	-120.122	-0.138	-0.024
-366.727	-39.347	0.373	0.195
-365.712	-83.991	-0.032	-0.010
-364.698	284.956	0.155	0.277
-363.683	234.821	0.104	0.170
-362.669	-181.019	-0.264	-0.005
-361.654	800.000	0.020	-0.089
-360.639	-101.785	0.247	-0.059
-359.625	22.340	0.076	-0.062
-358.610	30.081	-0.038	0.032
-357.596	-0.891	-0.002	-0.002
-356.581	-144.750	0.359	0.033
-355.566	740.059	0.102	-0.272
-354.552	2.147	0.473	0.340
-353.537	-191.913	-0.189	-0.002
-352.523	-26.926	-0.384	0.223
-351.508	800.000	0.037	0.154
-350.493	62.740	0.168	-0.167
-349.479	-126.309	0.017	-0.003
-348.464	299.781	0.082	0.150
-347.450	174.896	-0.083	-0.120
-346.435	69.234	-0.184	-0.188
-345.420	-114.290	0.285	0.055
-344.406	-200.000	-0.086	-0.429
-343.391	545.650	0.069	0.164
-342.377	-177.136	0.363	0.009
-341.362	-21.341	-0.206	-0.125
-340.348	-139.344	0.358	-0.038
-339.333	-41.140	0.172	-0.088
-338.318	-121.803	0.439	0.072
-337.304	-200.000	0.009	-0.187
-336.289	-44.942	0.103	-0.051
-335.275	-200.000	-0.000	-0.147
-334.260	-200.000	0.019	-0.160
-333.245	800.000	-0.022	-0.095
-332.231	244.179	0.099	0.165
-331.216	800.000	0.038	-0.108
-330.202	-63.300	0.242	0.099
-329.187	800.000	-0.069	-0.264
-328.172	800.000	-0.034	-0.103
-327.158	273.478	-0.066	0.116
-326.143	-173.168	-0.144	-0.004
-325.129	-22.755	-0.231	0.139
-324.114	-163.324	-0.377	0.018
-323.099	-44.406	-0.217	-0.108
-322.085	289.648	-0.193	0.348
-321.070	-96.294	0.127	0.034
-320.056	-200.000	-0.013	0.148
-319.041	-12.832	0.101	-0.065
-318.026	-200.000	-0.031	-0.141
-317.012	21.639	0.206	0.167
-315.997	-116.854	-0.356	-0.065
-314.983	310.354	0.276	0.513
-313.968	-69.728	0.254	0.096
-312.953	-69.190	0.036	-0.014
-311.939	44.007	0.141	-0.128
-310.924	-112.518	-0.386	-0.076
-309.910	-200.000	-0.040	-0.253
-308.895	800.000	-0.125	-0.368
-307.880	-200.000	0.005	0.310
-306.866	-75.343	0.159	0.056
-305.851	250.419	-0.190	-0.320
-304.837	800.000	-0.014	0.046
-303.822	214.432	0.137	0.216
-302.807	800.000	0.030	0.120
-301.793	-200.000	0.020	0.115
-300.778	-200.000	-0.002	-0.140
-299.764	-51.894	0.166	-0.077
-298.749	-141.035	0.383	0.039
-297.735	147.424	0.123	-0.165
-296.720	-28.665	-0.325	0.186
-295.705	-200.000	0.059	0.000
-294.691	5.077	-0.113	-0.083
-293.676	-24.410	-0.306	0.181
-292.662	-72.125	-0.101	0.037
-291.647	-200.000	-0.001	0.120
-290.632	-1.743	0.082	-0.057
-289.618	-103.316	0.075	-0.017
-288.603	-110.622	0.190	-0.039
-287.589	-200.000	0.019	0.126
-286.574	-92.159	-0.221	0.062
-285.559	-200.000	-0.055	0.351
-284.545	800.000	-0.045	-0.157
-283.530	55.058	0.351	-0.336
-282.516	40.269	-0.216	0.193
-281.501	319.074	0.087	-0.163
-280.486	-200.000	-0.017	-0.139
-279.472	123.576	-0.102	-0.127
-278.457	-68.318	-0.353	-0.136
-277.443	122.522	-0.134	-0.167
-276.428	-200.000	-0.034	0.308
-275.413	-77.079	0.138	-0.048
-274.399	800.000	-0.046	-0.195
-273.384	-199.792	-0.283	0.001
-272.370	-22.453	0.379	-0.227
-271.355	-20.124	-0.202	-0.124
-270.340	-31.158	0.078	-0.044
-269.326	628.748	0.163	0.407
-268.311	-200.000	0.057	0.253
-267.297	172.596	0.134	-0.191
-266.282	-200.000	0.034	0.254
-265.267	-85.975	-0.307	0.094
-264.253	-200.000	-0.011	0.092
-263.238	-159.030	-0.232	0.013
-262.224	-200.000	0.005	0.255
-261.209	102.337	0.019	0.022
-260.195	-78.335	-0.060	-0.020
-259.180	800.000	0.024	0.098
-258.165	-103.836	0.142	-0.033
-257.151	-80.058	0.147	0.049
-256.136	-200.000	-0.006	-0.158
-255.122	-200.000	0.029	0.131
-254.107	111.276	-0.045	-0.054
-253.092	-111.013	0.175	0.036
-252.078	79.495	0.032	-0.034
-251.063	166.211	-0.064	0.089
-250.049	245.029	0.146	0.242
-249.034	10.339	0.197	0.149
-248.019	-75.885	0.201	0.070
-247.005	223.091	-0.174	0.278
-245.990	-53.673	-0.553	0.250
-244.976	91.393	-0.029	-0.032
-243.961	-75.746	-0.233	0.082
-242.946	258.956	-0.024	-0.041
-241.932	-60.684	-0.159	-0.067
-240.917	-70.966	0.124	0.046
-239.903	-28.281	0.135	0.077
-238.888	-79.668	-0.101	0.034
-237.873	101.047	0.106	0.122
-236.859	-121.349	-0.152	-0.025
-235.844	-136.584	-0.220	-0.025
-234.830	3.347	-0.191	-0.137
-233.815	-144.128	-0.251	0.023
-232.800	-200.000	0.081	0.652
-231.786	126.792	-0.079	-0.099
-230.771	-200.000	-0.014	0.162
-229.757	-54.170	-0.122	0.055
-228.742	179.228	0.102	-0.148
-227.727	290.150	-0.051	-0.092
-226.713	-91.447	0.241	0.068
-225.698	-5.422	-0.062	0.042
-224.684	52.494	0.138	-0.130
-223.669	-131.412	0.209	-0.027
-222.655	-53.548	0.178	0.080
-221.640	800.000	0.096	0.281
-220.625	-110.950	-0.168	0.034
-219.611	231.346	-0.103	-0.166
-218.596	-200.000	0.028	0.197
-217.582	-61.828	-0.527	0.218
-216.567	-13.907	-0.192	-0.123
-215.552	-37.215	0.174	0.092
-214.538	3.597	-0.260	0.187
-213.523	-134.366	-0.395	-0.048
-212.509	-122.467	-0.023	-0.004
-211.494	-124.400	-0.166	-0.026
-210.479	-200.000	-0.067	-0.503
-209.465	800.000	0.041	-0.113
-208.450	-94.677	-0.134	0.036
-207.436	20.923	-0.157	0.126
-206.421	210.225	-0.059	-0.092
-205.406	142.906	0.227	-0.299
-204.392	800.000	-0.087	0.280
-203.377	87.912	-0.171	-0.188
-202.363	-200.000	-0.019	0.188
-201.348	-200.000	-0.037	0.180
-200.333	-22.490	-0.201	0.120
-199.319	-73.916	-0.257	-0.092
-198.304	391.521	0.263	-0.539
-197.290	-200.000	-0.001	-0.048
-196.275	138.030	-0.091	-0.118
-195.260	47.269	0.112	0.103
-194.246	800.000	0.078	0.243
-193.231	116.327	-0.238	-0.288
-192.217	149.728	-0.103	-0.138
-191.202	800.000	0.066	-0.233
-190.187	674.201	0.056	-0.143
-189.173	-66.817	0.195	-0.076
-188.158	62.556	-0.039	0.039
-187.144	-93.186	-0.122	-0.034
-186.129	260.331	0.086	-0.146
-185.114	-200.000	0.111	-0.506
-184.100	-200.000	0.050	-0.361
-183.085	-54.768	0.272	0.121
-182.071	231.349	-0.127	-0.206
-181.056	-130.583	-0.343	-0.046
-180.042	-118.495	0.303	0.053
-179.027	31.461	0.130	0.110
-178.012	-160.682	0.180	0.009
-176.998	-43.075	-0.082	-0.041
-175.983	197.681	0.226	0.340
-174.969	285.723	0.053	0.095
-173.954	-32.732	0.224	0.123
-172.939	51.431	0.277	0.260
-171.925	46.881	-0.058	0.054
-170.910	789.713	0.108	0.292
-169.896	120.323	-0.148	-0.181
-168.881	-38.288	0.229	0.120
-167.866	-13.291	-0.202	0.130
-166.852	79.807	0.127	-0.135
-165.837	-200.000	-0.016	0.302
-164.823	-111.525	0.424	-0.085
-163.808	71.225	0.350	-0.358
-162.793	367.512	0.009	-0.018
-161.779	-200.000	0.038	-0.381
-160.764	337.112	0.015	-0.029
-159.750	-110.709	-0.487	0.099
-158.735	800.000	0.082	-0.283
-157.720	11.612	0.203	0.153
-156.706	-16.364	-0.095	0.060
-155.691	139.012	-0.051	-0.066
-154.677	-189.541	0.108	-0.001
-153.662	-156.323	-0.230	0.014
-152.647	-101.363	0.327	0.079
-151.633	-200.000	-0.011	0.057
-150.618	111.436	-0.125	-0.149
-149.604	-92.334	0.269	-0.075
-148.589	-105.373	-0.478	-0.107
-147.574	148.263	-0.278	-0.369
-146.560	310.044	0.252	-0.465
-145.545	800.000	0.095	-0.300
-144.531	-200.000	0.005	-0.305
-143.516	-200.000	0.000	-0.170
-142.502	-53.207	0.194	0.088
-141.487	800.000	-0.120	0.383
-140.472	-123.656	-0.203	-0.032
-139.458	12.196	0.270	0.205
-138.443	171.361	-0.060	0.085
-137.429	-72.868	0.133	-0.048
-136.414	128.632	-0.140	0.175
-135.399	781.019	0.087	0.235
-134.385	756.961	0.075	0.201
-133.370	-200.000	0.007	-0.066
-132.356	-200.000	-0.053	-0.258
-131.341	-43.635	0.252	-0.125
-130.326	-200.000	0.027	0.235
-129.312	-198.825	0.231	-0.001
-128.297	-93.163	0.229	0.063
-127.283	425.074	-0.155	-0.329
-126.268	-123.569	-0.341	0.053
-125.253	-200.000	-0.028	-0.191
-124.239	-57.945	0.264	0.114
-123.224	-159.054	-0.356	-0.020
-122.210	800.000	0.128	0.417
