DTS Sentinel unit serial number:	SN413079Multiplexer serial number:	ORYXHardware model number:	OX4-SRSoftware version number:	ORYX F/W v4.00 Oryx Data Collector v3.7.2.0data status	okinstallation	princeton_trtdifferential loss correction	single-endedforward channel	channel 1reverse channel	N/Adate	2019/09/18time	07:26:35forward acquisition time	60.00reverse acquisition time	0.00gamma	496.2192k internal	0.2339k external	0.2339temperature offset calibration	0.9980default loss term (dB/km)	0.3790temperature slope calibration	1.0000multiplexer offset coefficient	1.0000multiplexer slope coefficient	1.0000fibre end	0.00T internal ref (°C)	23.19T ext. ref 1 (°C)	0.20T ext. ref 2 (°C)	17.50length (m)	temperature (°C)	Stokes	anti-Stokes-747.200	349.028	0.101	0.200
-746.185	-17.699	-0.140	-0.088
-745.171	-161.473	0.443	0.023
-744.156	82.870	-0.241	0.263
-743.142	117.821	0.044	-0.055
-742.127	-61.441	-0.302	-0.127
-741.112	3.577	-0.093	0.068
-740.098	-75.776	-0.064	0.023
-739.083	-89.029	-0.333	-0.099
-738.069	-86.997	-0.159	0.049
-737.054	760.592	-0.141	-0.382
-736.039	800.000	-0.104	0.292
-735.025	-200.000	-0.047	0.222
-734.010	507.385	0.087	-0.202
-732.996	-101.586	-0.459	-0.112
-731.981	-200.000	-0.020	-0.152
-730.966	454.687	-0.038	0.085
-729.952	-94.701	-0.115	-0.031
-728.937	435.669	-0.061	-0.133
-727.923	43.399	-0.156	0.143
-726.908	259.908	-0.119	-0.205
-725.894	-155.646	-0.095	0.006
-724.879	-43.941	0.154	-0.078
-723.864	-116.458	-0.126	-0.023
-722.850	4.263	0.201	-0.148
-721.835	55.062	-0.190	-0.184
-720.821	27.470	0.110	-0.093
-719.806	88.902	-0.057	-0.064
-718.791	-200.000	-0.016	0.092
-717.777	-35.676	0.126	0.068
-716.762	-47.564	0.088	-0.043
-715.748	800.000	-0.030	-0.087
-714.733	427.297	-0.188	-0.407
-713.718	-200.000	-0.035	-0.191
-712.704	800.000	0.034	0.118
-711.689	81.136	-0.114	0.123
-710.675	-200.000	0.048	0.223
-709.660	-21.065	0.301	-0.185
-708.645	-200.000	-0.037	-0.233
-707.631	93.794	0.102	0.116
-706.616	-200.000	0.016	-0.274
-705.602	178.764	-0.208	0.305
-704.587	215.313	0.122	0.193
-703.572	546.540	0.095	0.228
-702.558	-71.434	0.179	0.067
-701.543	-200.000	-0.005	0.063
-700.529	-113.983	0.214	-0.041
-699.514	-67.041	-0.191	0.076
-698.499	-178.447	-0.300	0.007
-697.485	166.755	-0.139	0.197
-696.470	-200.000	-0.023	-0.188
-695.456	-136.604	-0.164	-0.019
-694.441	800.000	0.057	0.231
-693.426	-7.281	-0.064	-0.043
-692.412	237.486	0.075	-0.124
-691.397	-200.000	-0.020	-0.219
-690.383	159.826	0.274	-0.382
-689.368	-79.110	-0.112	-0.038
-688.354	-200.000	-0.009	0.131
-687.339	-200.000	0.055	0.000
-686.324	33.174	-0.111	-0.096
-685.310	-0.533	0.273	-0.194
-684.295	-40.504	-0.100	-0.052
-683.281	-92.453	-0.283	-0.080
-682.266	-200.000	0.003	0.160
-681.251	46.871	-0.148	-0.138
-680.237	-200.000	0.022	-0.142
-679.222	3.492	0.138	0.101
-678.208	-88.182	-0.178	0.053
-677.193	55.420	0.134	0.130
-676.178	800.000	0.099	-0.276
-675.164	94.575	0.058	-0.066
-674.149	154.831	-0.194	-0.267
-673.135	34.716	-0.130	0.113
-672.120	-200.000	0.009	-0.081
-671.105	52.706	-0.160	-0.153
-670.091	-109.397	-0.151	-0.032
-669.076	-115.277	0.280	0.053
-668.062	-200.000	0.009	-0.207
-667.047	435.198	-0.151	0.327
-666.032	155.497	0.075	0.103
-665.018	-200.000	0.027	0.400
-664.003	474.274	-0.022	0.050
-662.989	-123.970	-0.491	0.077
-661.974	-24.522	-0.149	-0.089
-660.959	-143.144	-0.154	0.015
-659.945	-25.287	0.133	-0.079
-658.930	1.920	-0.384	-0.277
-657.916	-66.894	-0.059	-0.023
-656.901	8.797	0.240	0.181
-655.886	-15.092	-0.481	-0.308
-654.872	-52.474	0.208	0.096
-653.857	-92.308	-0.041	-0.012
-652.843	35.825	0.107	-0.094
-651.828	-46.045	0.069	-0.034
-650.814	-51.355	-0.166	-0.078
-649.799	-200.000	0.018	0.160
-648.784	221.757	-0.092	-0.148
-647.770	62.797	-0.238	0.238
-646.755	800.000	0.115	-0.354
-645.741	249.801	0.145	-0.246
-644.726	8.719	0.069	0.052
-643.711	-179.932	-0.376	-0.008
-642.697	-11.660	-0.066	0.043
-641.682	-52.967	-0.215	-0.099
-640.668	57.404	-0.138	-0.135
-639.653	24.064	0.237	-0.195
-638.638	-60.155	-0.080	0.034
-637.624	175.907	0.069	0.100
-636.609	800.000	-0.065	-0.233
-635.595	35.216	0.270	-0.237
-634.580	-200.000	-0.007	0.102
-633.565	-76.760	-0.173	0.060
-632.551	-31.562	-0.091	0.051
-631.536	233.239	-0.070	-0.115
-630.522	-166.505	0.321	0.013
-629.507	165.314	-0.247	0.348
-628.492	53.746	0.131	-0.125
-627.478	-80.878	0.250	-0.083
-626.463	-138.401	-0.112	-0.012
-625.449	800.000	-0.038	0.127
-624.434	-200.000	-0.011	0.079
-623.419	288.357	-0.066	0.120
-622.405	-200.000	0.042	-0.188
-621.390	134.761	-0.080	0.104
-620.376	-200.000	-0.023	-0.300
-619.361	-150.269	-0.283	0.022
-618.346	-62.603	0.203	-0.084
-617.332	200.412	-0.205	0.315
-616.317	800.000	-0.042	-0.129
-615.303	133.324	0.032	0.041
-614.288	800.000	0.068	-0.222
-613.273	-178.959	-0.369	0.008
-612.259	579.271	0.203	-0.495
-611.244	578.132	0.167	-0.407
-610.230	-135.171	-0.454	0.054
-609.215	42.632	0.144	0.131
-608.201	697.086	0.049	-0.128
-607.186	230.865	0.073	-0.120
-606.171	-200.000	-0.016	0.416
-605.157	800.000	-0.011	0.036
-604.142	-157.503	0.335	-0.020
-603.128	-101.138	0.398	-0.097
-602.113	81.229	-0.212	-0.228
-601.098	-200.000	0.095	0.530
-600.084	-105.300	-0.266	0.060
-599.069	-200.000	-0.064	0.534
-598.055	283.373	-0.110	-0.197
-597.040	50.550	0.131	-0.123
-596.025	225.923	-0.058	-0.094
-595.011	-55.424	0.262	0.117
-593.996	-90.673	0.252	-0.072
-592.982	-134.097	-0.171	-0.021
-591.967	-45.975	-0.137	0.067
-590.952	723.664	-0.143	-0.381
-589.938	-200.000	0.010	-0.052
-588.923	-103.105	0.254	0.060
-587.909	-200.000	0.014	-0.249
-586.894	800.000	-0.021	0.075
-585.879	54.488	0.090	0.086
-584.865	-106.909	-0.065	-0.014
-583.850	-200.000	0.017	0.484
-582.836	-200.000	-0.031	0.171
-581.821	54.888	-0.066	-0.064
-580.806	-60.524	-0.059	-0.025
-579.792	800.000	-0.084	0.251
-578.777	221.984	0.071	0.114
-577.763	4.493	-0.187	0.137
-576.748	-200.000	-0.006	0.059
-575.733	-167.885	0.087	-0.003
-574.719	397.331	0.152	-0.316
-573.704	800.000	0.032	-0.106
-572.690	82.258	0.109	-0.118
-571.675	159.094	-0.265	0.367
-570.661	47.342	-0.119	0.111
-569.646	87.979	-0.129	0.142
-568.631	119.708	0.181	-0.223
-567.617	21.250	0.390	-0.315
-566.602	101.013	-0.177	0.205
-565.588	-200.000	0.003	0.344
-564.573	51.668	0.062	0.058
-563.558	430.965	-0.034	-0.072
-562.544	40.206	0.146	-0.131
-561.529	800.000	0.022	0.084
-560.515	50.095	-0.178	-0.167
-559.500	39.683	-0.273	-0.244
-558.485	800.000	0.039	-0.145
-557.471	164.450	0.005	-0.007
-556.456	121.266	-0.125	0.155
-555.442	36.060	0.217	-0.190
-554.427	-0.197	-0.182	-0.129
-553.412	-200.000	-0.027	0.140
-552.398	-200.000	-0.053	-0.316
-551.383	-48.305	-0.171	0.082
-550.369	307.567	0.051	-0.095
-549.354	-81.630	-0.101	-0.033
-548.339	-80.303	-0.229	0.076
-547.325	634.739	0.139	-0.352
-546.310	768.095	-0.075	-0.202
-545.296	-63.926	-0.213	0.087
-544.281	-8.004	-0.070	-0.047
-543.266	-34.735	-0.127	-0.069
-542.252	344.609	-0.022	0.043
-541.237	-200.000	-0.002	-0.023
-540.223	586.721	-0.051	-0.125
-539.208	-149.470	-0.366	0.029
-538.193	166.105	0.084	0.119
-537.179	291.209	0.159	-0.288
-536.164	-17.888	-0.126	-0.079
-535.150	753.322	-0.120	-0.321
-534.135	-130.003	0.050	0.007
-533.121	-131.581	-0.287	0.038
-532.106	76.363	0.141	0.149
-531.091	104.708	-0.093	-0.108
-530.077	-200.000	-0.029	-0.190
-529.062	535.736	0.141	-0.333
-528.048	-200.000	-0.022	-0.297
-527.033	277.660	0.257	-0.455
-526.018	219.327	0.098	-0.155
-525.004	-84.535	-0.112	0.035
-523.989	292.152	-0.090	-0.164
-522.975	-200.000	0.020	-0.179
-521.960	770.894	-0.065	-0.175
-520.945	-159.126	-0.166	-0.009
-519.931	-200.000	0.048	-0.223
-518.916	-200.000	0.020	0.124
-517.902	324.668	-0.087	0.165
-516.887	-81.737	0.058	0.019
-515.872	-170.773	-0.109	0.004
-514.858	-200.000	-0.010	-0.157
-513.843	-200.000	-0.007	-0.033
-512.829	-23.916	0.075	-0.045
-511.814	37.488	0.263	-0.232
-510.799	-36.087	0.178	-0.096
-509.785	-70.208	-0.183	0.069
-508.770	-200.000	-0.014	0.265
-507.756	60.197	-0.238	-0.234
-506.741	41.088	-0.107	0.096
-505.726	-115.434	0.209	-0.039
-504.712	581.976	-0.123	0.301
-503.697	800.000	0.066	-0.223
-502.683	-97.411	-0.349	0.090
-501.668	-200.000	0.023	-0.112
-500.653	-26.133	0.110	0.064
-499.639	611.998	-0.052	0.130
-498.624	-45.432	-0.278	0.137
-497.610	-176.669	0.409	-0.010
-496.595	80.781	-0.346	-0.370
-495.581	-97.433	0.067	0.017
-494.566	-138.910	0.124	0.013
-493.551	-105.449	0.147	0.033
-492.537	269.151	0.169	0.295
-491.522	-200.000	-0.011	0.206
-490.508	-200.000	-0.057	-0.403
-489.493	800.000	0.014	-0.043
-488.478	-13.076	-0.152	0.098
-487.464	-71.000	0.268	-0.100
-486.449	-45.301	-0.258	-0.127
-485.435	-200.000	-0.012	-0.065
-484.420	-200.000	0.001	0.240
-483.405	-86.307	0.173	0.053
-482.391	800.000	-0.046	-0.141
-481.376	-64.160	-0.087	-0.035
-480.362	-130.636	-0.230	-0.031
-479.347	-85.737	-0.094	0.029
-478.332	-115.609	0.158	0.029
-477.318	-104.504	0.174	-0.040
-476.303	-20.353	-0.164	-0.100
-475.289	122.819	-0.045	-0.056
-474.274	800.000	-0.112	0.383
-473.259	85.540	0.213	-0.232
-472.245	-156.822	-0.224	0.014
-471.230	48.546	0.139	0.130
-470.216	66.813	0.039	-0.039
-469.201	-200.000	0.030	-0.224
-468.186	153.372	0.140	-0.190
-467.172	-120.990	-0.157	0.026
-466.157	-200.000	-0.028	0.151
-465.143	182.199	-0.157	-0.229
-464.128	-79.481	-0.097	-0.033
-463.113	-102.309	-0.118	0.028
-462.099	-200.000	0.034	0.236
-461.084	3.823	-0.046	-0.034
-460.070	-200.000	-0.293	-0.001
-459.055	-52.736	-0.057	-0.026
-458.040	-61.172	0.197	0.082
-457.026	138.378	0.276	0.360
-456.011	-65.685	0.162	-0.064
-454.997	172.697	0.198	-0.282
-453.982	396.617	-0.119	0.246
-452.968	-111.950	-0.100	0.020
-451.953	-115.079	0.348	0.065
-450.938	-63.742	0.272	0.111
-449.924	71.965	-0.015	-0.015
-448.909	-39.714	-0.081	0.042
-447.895	-146.237	0.473	-0.041
-446.880	-200.000	-0.031	-0.140
-445.865	96.342	-0.160	-0.181
-444.851	176.641	-0.047	-0.067
-443.836	-200.000	-0.040	-0.268
-442.822	-48.984	-0.255	-0.121
-441.807	-66.237	0.134	-0.053
-440.792	153.684	-0.041	-0.055
-439.778	31.444	0.150	0.128
-438.763	800.000	0.043	0.160
-437.749	-194.667	0.035	-0.000
-436.734	-20.086	0.146	-0.089
-435.719	315.217	0.043	-0.081
-434.705	135.611	0.197	0.254
-433.690	370.130	0.099	0.198
-432.676	-200.000	0.010	0.151
-431.661	-6.649	0.213	0.143
-430.646	-200.000	0.025	0.250
-429.632	-200.000	-0.015	0.110
-428.617	-63.167	0.227	-0.093
-427.603	117.550	0.037	0.045
-426.588	-107.571	-0.217	0.047
-425.573	54.037	0.107	-0.102
-424.559	-21.152	-0.115	0.070
-423.544	-200.000	0.022	0.120
-422.530	100.232	-0.221	0.254
-421.515	76.619	-0.161	0.169
-420.500	180.774	0.118	-0.172
-419.486	218.700	0.212	0.335
-418.471	-200.000	-0.109	-0.479
-417.457	-200.000	-0.006	-0.123
-416.442	334.683	-0.090	0.173
-415.428	-200.000	0.044	-0.247
-414.413	-112.894	0.084	0.016
-413.398	73.735	0.182	0.189
-412.384	272.830	-0.051	-0.089
-411.369	-173.270	-0.176	-0.005
-410.355	-26.156	-0.361	-0.210
-409.340	5.027	-0.234	-0.170
-408.325	-200.000	-0.016	-0.173
-407.311	800.000	-0.088	0.299
-406.296	-88.577	-0.180	0.053
-405.282	-123.444	0.285	0.045
-404.267	214.034	-0.015	-0.023
-403.252	800.000	0.056	0.193
-402.238	-89.082	-0.136	-0.040
-401.223	-179.425	-0.368	-0.008
-400.209	-40.876	0.143	-0.073
-399.194	594.482	-0.052	0.128
-398.179	3.232	0.107	-0.077
-397.165	-110.245	0.302	-0.062
-396.150	269.342	0.058	0.101
-395.136	-200.000	-0.074	0.462
-394.121	-5.766	0.036	0.025
-393.106	17.287	0.351	-0.275
-392.092	-200.000	0.011	-0.213
-391.077	-200.000	-0.067	0.304
-390.063	-146.961	0.171	-0.015
-389.048	97.331	0.260	-0.295
-388.033	-200.000	0.007	0.126
-387.019	-200.000	-0.074	0.426
-386.004	-12.296	0.140	-0.091
-384.990	800.000	-0.020	-0.063
-383.975	-112.763	-0.123	-0.024
-382.960	-141.154	0.118	0.012
-381.946	-200.000	-0.004	-0.055
-380.931	211.603	0.087	-0.135
-379.917	-120.985	-0.046	0.008
-378.902	800.000	0.077	0.267
-377.888	107.801	-0.152	-0.179
-376.873	59.253	-0.139	-0.135
-375.858	156.346	0.098	-0.134
-374.844	18.352	-0.053	-0.042
-373.829	-200.000	0.029	0.279
-372.815	-200.000	-0.011	0.130
-371.800	-20.685	0.215	0.131
-370.785	98.947	-0.074	0.085
-369.771	-147.834	-0.209	-0.017
-368.756	800.000	-0.028	0.089
-367.742	-120.906	0.139	-0.023
-366.727	-98.486	0.166	-0.042
-365.712	21.606	0.168	-0.135
-364.698	192.466	0.071	0.106
-363.683	-51.431	0.214	-0.099
-362.669	-68.677	0.165	-0.063
-361.654	-164.597	0.110	-0.005
-360.639	373.157	0.029	0.059
-359.625	-128.332	-0.389	0.055
-358.610	25.074	0.111	0.091
-357.596	-200.000	-0.001	-0.134
-356.581	-96.195	-0.208	-0.055
-355.566	-110.080	-0.437	-0.090
-354.552	-156.974	0.227	0.014
-353.537	26.804	-0.177	0.147
-352.523	41.537	0.289	0.258
-351.508	374.801	0.063	0.126
-350.493	-181.057	-0.487	-0.010
-349.479	383.889	-0.117	-0.238
-348.464	-200.000	0.056	0.299
-347.450	800.000	-0.014	-0.042
-346.435	-118.330	-0.390	-0.068
-345.420	800.000	0.047	0.159
-344.406	-120.896	0.486	0.081
-343.391	-60.804	0.178	-0.075
-342.377	71.919	0.136	-0.140
-341.362	49.467	-0.128	-0.119
-340.348	-100.932	0.216	-0.052
-339.333	-104.623	0.153	0.035
-338.318	-41.312	-0.254	0.129
-337.304	0.683	-0.131	-0.093
-336.289	800.000	-0.070	0.214
-335.275	214.220	-0.235	0.368
-334.260	800.000	0.041	0.143
-333.245	800.000	0.072	0.275
-332.231	-164.845	-0.184	-0.008
-331.216	202.205	-0.017	-0.026
-330.202	800.000	0.093	0.285
-329.187	-94.576	-0.299	-0.080
-328.172	-120.449	-0.200	-0.034
-327.158	98.751	0.205	0.233
-326.143	-200.000	-0.004	-0.115
-325.129	-9.389	0.087	0.057
-324.114	-77.257	-0.074	0.025
-323.099	-19.233	0.171	0.105
-322.085	-115.067	-0.151	-0.028
-321.070	-0.821	-0.272	-0.190
-320.056	-2.580	0.081	0.056
-319.041	-82.413	-0.223	-0.071
-318.026	320.681	0.103	0.192
-317.012	-169.777	-0.167	0.006
-315.997	-200.000	-0.041	0.475
-314.983	-32.475	0.212	0.117
-313.968	609.403	-0.048	0.119
-312.953	-200.000	0.033	0.268
-311.939	-75.131	0.333	0.118
-310.924	-32.097	0.374	0.206
-309.910	-200.000	0.011	0.162
-308.895	106.699	-0.143	0.167
-307.880	-114.974	0.189	0.035
-306.866	-187.536	-0.158	0.002
-305.851	397.693	-0.190	-0.391
-304.837	43.408	-0.157	0.142
-303.822	92.954	0.108	-0.120
-302.807	800.000	-0.052	0.150
-301.793	800.000	0.089	0.332
-300.778	100.512	-0.138	0.158
-299.764	-200.000	-0.001	-0.087
-298.749	-59.710	-0.209	0.088
-297.735	-26.183	-0.140	-0.081
-296.720	426.069	-0.106	0.225
-295.705	-43.809	-0.211	-0.105
-294.691	7.326	0.064	0.047
-293.676	130.258	-0.189	0.238
-292.662	45.990	0.317	-0.289
-291.647	159.477	-0.183	-0.252
-290.632	75.165	0.204	0.212
-289.618	25.931	-0.280	-0.230
-288.603	182.244	0.182	0.264
-287.589	254.609	0.116	-0.196
-286.574	800.000	0.029	0.097
-285.559	268.113	0.079	0.136
-284.545	39.383	-0.348	-0.307
-283.530	-41.852	0.165	0.083
-282.516	7.491	-0.153	0.112
-281.501	33.181	0.173	0.148
-280.486	-200.000	0.038	-0.307
-279.472	-200.000	-0.029	-0.181
-278.457	-102.713	-0.175	-0.041
-277.443	272.112	-0.066	-0.115
-276.428	-200.000	0.046	0.258
-275.413	-174.069	0.262	-0.008
-274.399	800.000	0.032	-0.093
-273.384	800.000	-0.012	0.035
-272.370	-200.000	0.069	-0.506
-271.355	128.342	-0.096	-0.120
-270.340	800.000	0.081	0.315
-269.326	800.000	0.045	0.149
-268.311	-68.409	0.196	-0.075
-267.297	167.137	-0.100	-0.140
-266.282	-127.253	-0.070	0.010
-265.267	8.191	0.212	0.157
-264.253	-80.005	-0.131	-0.043
-263.238	54.238	0.110	0.104
-262.224	329.082	-0.075	-0.142
-261.209	-83.417	-0.318	0.100
-260.195	800.000	0.011	0.044
-259.180	-200.000	0.025	0.184
-258.165	-74.442	0.196	0.069
-257.151	48.982	-0.232	-0.214
-256.136	241.396	-0.089	-0.146
-255.122	-34.042	0.124	-0.067
-254.107	140.641	0.089	0.115
-253.092	463.023	-0.050	0.111
-252.078	-33.192	-0.348	-0.190
-251.063	158.381	0.119	0.162
-250.049	-54.020	-0.152	-0.068
-249.034	56.626	-0.210	0.201
-248.019	114.709	0.111	0.133
-247.005	234.841	0.243	-0.394
-245.990	164.910	0.263	0.365
-244.976	-200.000	0.026	0.190
-243.961	-200.000	0.072	0.381
-242.946	-36.373	0.184	0.098
-241.932	-89.900	0.285	0.082
-240.917	-105.734	-0.117	0.026
-239.903	236.764	-0.113	-0.183
-238.888	800.000	0.027	0.088
-237.873	-0.296	-0.302	0.211
-236.859	800.000	0.047	-0.148
-235.844	-166.699	0.215	0.009
-234.830	-139.340	-0.178	0.019
-233.815	271.496	-0.045	0.078
-232.800	121.515	0.182	-0.223
-231.786	-200.000	0.033	-0.154
-230.771	-1.312	0.161	-0.112
-229.757	-105.767	0.355	-0.079
-228.742	-200.000	-0.044	-0.559
-227.727	-200.000	0.063	-0.282
-226.713	-79.228	-0.146	-0.049
-225.698	260.289	0.058	0.098
-224.684	121.130	-0.141	-0.173
-223.669	-79.560	0.249	0.083
-222.655	-200.000	-0.035	-0.247
-221.640	491.002	0.032	-0.071
-220.625	800.000	-0.034	0.104
-219.611	6.988	-0.289	-0.211
-218.596	-200.000	-0.002	-0.096
-217.582	-200.000	-0.034	-0.149
-216.567	110.463	-0.188	-0.222
-215.552	-25.985	0.077	-0.045
-214.538	74.320	0.070	0.072
-213.523	-200.000	-0.022	-0.186
-212.509	-114.316	0.089	-0.017
-211.494	-26.074	0.264	-0.153
-210.479	770.338	-0.059	0.156
-209.465	9.340	-0.254	0.188
-208.450	-41.895	0.278	-0.140
-207.436	-142.856	0.101	0.010
-206.421	-200.000	-0.050	0.223
-205.406	-89.604	-0.168	0.048
-204.392	-43.349	0.222	-0.110
-203.377	-87.972	0.273	0.081
-202.363	-95.679	-0.131	-0.034
-201.348	211.493	0.043	0.066
-200.333	519.891	-0.083	0.192
-199.319	800.000	0.064	0.225
-198.304	-200.000	0.008	-0.136
-197.290	-200.000	-0.005	0.413
-196.275	-200.000	-0.030	0.131
-195.260	30.571	0.310	-0.260
-194.246	631.329	0.098	-0.244
-193.231	-70.700	-0.284	-0.105
-192.217	-50.498	0.140	0.065
-191.202	438.466	0.092	0.196
-190.187	800.000	0.071	-0.228
-189.173	-90.336	0.074	0.021
-188.158	56.033	0.048	-0.046
-187.144	-200.000	-0.055	-0.378
-186.129	-200.000	0.028	-0.180
-185.114	78.085	-0.070	0.073
-184.100	-40.115	-0.277	0.141
-183.085	395.158	-0.101	-0.206
-182.071	349.155	-0.072	-0.139
-181.056	-200.000	-0.030	0.268
-180.042	182.373	0.090	0.130
-179.027	365.128	0.054	-0.107
-178.012	242.522	0.149	0.244
-176.998	-144.818	-0.195	0.018
-175.983	642.069	-0.011	-0.026
-174.969	73.349	-0.142	-0.146
-173.954	102.636	0.110	-0.126
-172.939	268.174	0.101	0.174
-171.925	-67.911	0.276	0.106
-170.910	-54.337	-0.280	-0.125
-169.896	800.000	-0.025	0.104
-168.881	321.639	0.023	0.043
-167.866	43.857	0.125	0.112
-166.852	-55.198	0.114	0.050
-165.837	-200.000	-0.008	-0.076
-164.823	104.851	-0.018	-0.021
-163.808	-95.253	0.283	0.075
-162.793	800.000	0.114	0.383
-161.779	-70.895	0.198	0.073
-160.764	-48.004	0.268	-0.127
-159.750	-125.503	-0.070	0.010
-158.735	-75.820	0.215	0.075
-157.720	-121.682	-0.394	0.064
-156.706	-200.000	-0.051	0.400
-155.691	43.720	-0.151	-0.136
-154.677	202.951	-0.105	0.158
-153.662	-18.730	0.342	0.209
-152.647	-200.000	-0.016	0.085
-151.633	667.586	-0.086	-0.219
-150.618	-200.000	0.024	-0.109
-149.604	-177.457	-0.215	-0.005
-148.589	-200.000	-0.003	-0.376
-147.574	-43.917	-0.154	-0.076
-146.560	-200.000	0.019	-0.124
-145.545	-76.192	0.411	-0.142
-144.531	-183.691	0.098	0.002
-143.516	-200.000	-0.003	-0.183
-142.502	800.000	0.050	0.153
-141.487	-200.000	-0.039	-0.231
-140.472	-160.753	0.226	-0.012
-139.458	21.955	0.427	-0.341
-138.443	-133.882	-0.200	0.024
-137.429	-138.435	-0.239	-0.026
-136.414	-32.750	-0.456	-0.249
-135.399	-200.000	0.015	-0.157
-134.385	362.954	0.102	-0.201
-133.370	-56.547	0.028	-0.012
-132.356	-114.111	-0.185	-0.035
-131.341	-44.832	0.212	0.104
-130.326	-101.968	-0.282	0.067
-129.312	105.552	0.291	0.337
-128.297	22.353	-0.062	-0.050
-127.283	-8.363	0.263	0.173
-126.268	800.000	0.088	-0.272
-125.253	-193.506	-0.320	0.003
-124.239	800.000	0.038	-0.155
-123.224	-200.000	-0.042	0.348
-122.210	179.821	0.075	0.108
