DTS Sentinel unit serial number:	SN413079Multiplexer serial number:	ORYXHardware model number:	OX4-SRSoftware version number:	ORYX F/W v4.00 Oryx Data Collector v3.7.2.0data status	okinstallation	princeton_trtdifferential loss correction	single-endedforward channel	channel 1reverse channel	N/Adate	2019/09/13time	11:18:35forward acquisition time	60.00reverse acquisition time	0.00gamma	496.2192k internal	0.2316k external	0.2316temperature offset calibration	1.0156default loss term (dB/km)	0.3790temperature slope calibration	1.0000multiplexer offset coefficient	1.0000multiplexer slope coefficient	1.0000fibre end	0.00T internal ref (°C)	32.37T ext. ref 1 (°C)	4.70T ext. ref 2 (°C)	29.58length (m)	temperature (°C)	Stokes	anti-Stokes-747.200	13.446	-0.087	-0.068
-746.185	-167.364	0.246	0.010
-745.171	800.000	0.058	0.198
-744.156	515.443	0.073	-0.174
-743.142	45.855	-0.249	-0.233
-742.127	6.163	-0.349	0.262
-741.112	-98.373	-0.283	-0.073
-740.098	-102.668	0.217	0.052
-739.083	55.902	0.101	-0.099
-738.069	-78.003	-0.031	-0.011
-737.054	-116.242	0.283	0.053
-736.039	-58.495	-0.156	0.068
-735.025	209.239	0.046	-0.073
-734.010	-99.157	0.120	0.031
-732.996	-49.951	-0.395	0.190
-731.981	675.032	0.044	-0.115
-730.966	525.639	0.044	0.106
-729.952	800.000	-0.060	-0.241
-728.937	800.000	0.049	-0.197
-727.923	297.857	-0.132	-0.246
-726.908	45.386	-0.087	0.081
-725.894	-103.209	-0.267	-0.064
-724.879	59.223	-0.075	0.075
-723.864	714.620	0.066	0.178
-722.850	738.299	0.057	-0.155
-721.835	-17.520	-0.240	-0.153
-720.821	800.000	-0.019	-0.071
-719.806	68.749	-0.319	-0.331
-718.791	718.922	0.071	-0.191
-717.777	-81.171	-0.249	0.083
-716.762	-200.000	0.010	0.189
-715.748	154.118	-0.149	0.206
-714.733	-93.053	0.442	0.125
-713.718	-165.776	-0.311	-0.014
-712.704	181.291	0.176	-0.262
-711.689	-133.309	-0.204	0.026
-710.675	-200.000	-0.048	-0.223
-709.660	18.812	-0.123	0.100
-708.645	99.049	-0.174	-0.203
-707.631	-200.000	-0.040	-0.214
-706.616	597.339	0.104	0.260
-705.602	34.334	-0.351	0.310
-704.587	-104.594	0.140	-0.033
-703.572	97.281	-0.269	-0.312
-702.558	-7.986	-0.105	-0.072
-701.543	-16.431	0.211	-0.135
-700.529	800.000	-0.027	-0.094
-699.514	159.983	-0.163	-0.229
-698.499	-125.621	-0.308	0.047
-697.485	-200.000	-0.020	-0.122
-696.470	-200.000	-0.004	-0.175
-695.456	-63.216	0.156	0.065
-694.441	325.918	0.099	-0.192
-693.426	505.953	0.072	-0.168
-692.412	-70.581	-0.085	0.033
-691.397	135.170	-0.211	-0.277
-690.383	128.251	-0.194	-0.250
-689.368	-15.753	-0.124	0.080
-688.354	800.000	0.067	0.226
-687.339	-44.581	0.199	0.101
-686.324	-132.819	-0.261	-0.034
-685.310	16.690	-0.308	0.246
-684.295	800.000	0.074	-0.231
-683.281	-0.786	0.208	0.149
-682.266	78.252	0.145	-0.157
-681.251	19.944	0.113	0.092
-680.237	800.000	0.114	0.364
-679.222	800.000	-0.077	-0.227
-678.208	67.147	0.198	-0.204
-677.193	-54.806	-0.314	-0.143
-676.178	-144.822	-0.387	-0.036
-675.164	800.000	-0.059	-0.246
-674.149	265.439	0.200	0.352
-673.135	-128.621	0.259	-0.037
-672.120	-169.129	-0.299	0.011
-671.105	168.736	-0.051	-0.074
-670.091	-22.597	-0.312	0.190
-669.076	-51.389	-0.161	0.076
-668.062	800.000	0.093	-0.290
-667.047	-200.000	-0.013	0.170
-666.032	-120.812	-0.213	0.036
-665.018	-105.503	0.207	-0.047
-664.003	64.093	-0.247	0.251
-662.989	62.225	-0.179	0.181
-661.974	-109.685	-0.245	-0.052
-660.959	103.434	0.017	0.020
-659.945	24.556	-0.092	-0.077
-658.930	26.799	-0.216	0.182
-657.916	-66.893	-0.048	0.019
-656.901	-57.517	0.084	0.037
-655.886	9.113	-0.115	-0.088
-654.872	-21.498	0.217	-0.134
-653.857	-51.027	-0.131	-0.062
-652.843	-112.219	-0.118	0.024
-651.828	510.998	-0.082	0.193
-650.814	-200.000	-0.021	-0.099
-649.799	102.074	-0.138	-0.163
-648.784	23.855	-0.223	-0.186
-647.770	800.000	0.112	-0.363
-646.755	-24.130	0.442	-0.266
-645.741	255.690	0.124	-0.215
-644.726	-137.614	0.232	0.026
-643.711	32.149	-0.045	0.040
-642.697	-200.000	0.019	-0.256
-641.682	-200.000	0.030	-0.451
-640.668	-71.190	0.151	-0.057
-639.653	-200.000	0.002	0.012
-638.638	-47.791	-0.136	-0.067
-637.624	-110.271	0.229	0.048
-636.609	-200.000	-0.058	-0.404
-635.595	364.998	-0.085	-0.173
-634.580	46.439	-0.253	-0.237
-633.565	-25.406	0.109	-0.065
-632.551	606.774	-0.149	-0.376
-631.536	9.281	-0.087	-0.067
-630.522	-66.956	0.232	0.092
-629.507	227.693	0.199	-0.326
-628.492	-88.693	0.354	0.106
-627.478	9.501	-0.059	0.045
-626.463	597.083	-0.091	-0.227
-625.449	-86.148	0.318	0.099
-624.434	584.887	0.111	0.276
-623.419	-89.322	0.104	-0.031
-622.405	-15.200	0.175	0.113
-621.390	-73.646	0.161	0.059
-620.376	-66.143	-0.317	-0.127
-619.361	480.443	0.126	0.288
-618.346	-25.724	0.126	-0.075
-617.332	-123.975	0.136	-0.022
-616.317	446.563	-0.069	-0.153
-615.303	-73.558	0.081	0.030
-614.288	589.244	0.090	0.225
-613.273	-56.242	0.197	-0.088
-612.259	-96.777	0.208	-0.055
-611.244	-46.972	-0.204	-0.101
-610.230	18.450	-0.094	-0.075
-609.215	-116.018	-0.174	-0.033
-608.201	-160.499	-0.472	0.025
-607.186	800.000	0.073	-0.225
-606.171	110.817	-0.252	0.305
-605.157	78.463	0.218	0.235
-604.142	-200.000	-0.054	0.317
-603.128	-154.676	-0.087	-0.006
-602.113	-82.648	0.111	-0.036
-601.098	128.987	-0.136	-0.175
-600.084	84.404	0.195	-0.214
-599.069	13.202	0.134	-0.105
-598.055	228.973	0.067	0.109
-597.040	800.000	0.071	0.218
-596.025	425.200	0.024	-0.053
-595.011	-81.410	-0.371	0.123
-593.996	-10.544	-0.142	-0.094
-592.982	-9.887	0.117	0.078
-591.967	-149.587	0.236	-0.019
-590.952	-55.093	-0.026	-0.012
-589.938	200.634	0.196	0.303
-588.923	-83.409	-0.265	-0.086
-587.909	-200.000	0.008	-0.275
-586.894	-34.005	0.089	0.049
-585.879	-106.805	0.260	-0.058
-584.865	564.293	-0.037	0.091
-583.850	-200.000	-0.006	0.026
-582.836	209.629	-0.135	-0.213
-581.821	459.740	0.114	-0.255
-580.806	800.000	0.088	0.254
-579.792	800.000	-0.003	0.007
-578.777	162.293	-0.131	0.184
-577.763	-200.000	0.001	0.052
-576.748	-92.522	-0.287	0.081
-575.733	441.245	-0.088	0.194
-574.719	-86.031	-0.230	0.072
-573.704	372.703	0.012	0.025
-572.690	-76.153	0.145	-0.051
-571.675	22.604	0.089	0.073
-570.661	-27.764	-0.059	0.035
-569.646	13.355	-0.074	-0.057
-568.631	15.842	-0.100	0.079
-567.617	800.000	-0.082	-0.243
-566.602	349.623	0.040	0.079
-565.588	-200.000	-0.017	-0.261
-564.573	549.267	-0.044	0.105
-563.558	69.683	0.107	0.111
-562.544	800.000	0.096	-0.274
-561.529	12.023	-0.234	0.181
-560.515	302.290	-0.082	-0.153
-559.500	48.380	-0.332	-0.313
-558.485	52.896	0.043	-0.042
-557.471	-98.072	0.296	0.077
-556.456	295.754	0.081	-0.150
-555.442	-99.242	-0.314	0.080
-554.427	-20.898	0.276	0.170
-553.412	-104.683	-0.043	0.010
-552.398	50.500	-0.192	0.183
-551.383	-27.759	0.066	0.038
-550.369	-123.237	0.063	0.010
-549.354	1.074	0.122	-0.088
-548.339	-178.090	-0.264	-0.006
-547.325	23.870	0.290	-0.240
-546.310	-200.000	0.011	-0.093
-545.296	63.339	0.021	0.021
-544.281	-86.696	-0.481	0.148
-543.266	-138.558	-0.139	0.015
-542.252	-16.007	-0.126	0.081
-541.237	800.000	-0.105	0.298
-540.223	-17.610	-0.117	0.074
-539.208	-200.000	0.026	0.257
-538.193	-200.000	0.014	0.174
-537.179	-81.007	-0.327	-0.109
-536.164	-200.000	0.039	0.190
-535.150	-175.794	-0.152	0.004
-534.135	6.122	0.105	-0.078
-533.121	800.000	-0.047	-0.175
-532.106	-200.000	0.024	-0.144
-531.091	3.339	0.136	-0.099
-530.077	-200.000	0.035	-0.154
-529.062	-111.149	-0.224	0.046
-528.048	800.000	0.032	-0.135
-527.033	300.087	-0.084	-0.155
-526.018	800.000	-0.057	0.237
-525.004	99.125	-0.127	0.147
-523.989	130.839	-0.112	-0.145
-522.975	-96.679	-0.161	0.043
-521.960	-5.098	0.133	-0.092
-520.945	-29.334	0.184	0.106
-519.931	-87.237	-0.060	-0.018
-518.916	-14.361	-0.171	-0.111
-517.902	117.893	0.129	0.159
-516.887	-148.129	0.314	0.026
-515.872	733.348	0.043	0.115
-514.858	365.582	0.137	0.277
-513.843	800.000	0.010	-0.042
-512.829	-76.478	-0.217	0.076
-511.814	-19.631	-0.091	0.057
-510.799	-76.304	-0.250	0.088
-509.785	217.331	-0.108	0.173
-508.770	10.572	-0.163	0.125
-507.756	-200.000	-0.016	0.263
-506.741	113.326	0.134	-0.164
-505.726	50.701	-0.110	-0.104
-504.712	-200.000	-0.037	-0.287
-503.697	275.344	0.135	-0.240
-502.683	-109.192	0.330	-0.070
-501.668	800.000	-0.028	0.110
-500.653	47.940	0.272	0.255
-499.639	167.365	-0.122	0.173
-498.624	-200.000	0.003	-0.029
-497.610	-131.778	-0.219	0.029
-496.595	-101.391	0.320	-0.078
-495.581	81.977	-0.116	-0.127
-494.566	-200.000	-0.015	-0.409
-493.551	-8.785	0.089	0.060
-492.537	41.290	0.051	0.046
-491.522	-88.630	-0.170	0.051
-490.508	0.818	0.218	-0.156
-489.493	-82.115	-0.122	-0.040
-488.478	-110.799	-0.118	-0.024
-487.464	-105.690	-0.346	-0.078
-486.449	-115.996	0.169	0.032
-485.435	-81.628	-0.282	-0.093
-484.420	214.143	-0.083	-0.132
-483.405	-92.734	0.175	-0.049
-482.391	-200.000	-0.015	0.073
-481.376	-40.784	-0.269	-0.140
-480.362	127.594	-0.080	-0.102
-479.347	738.945	0.165	-0.443
-478.332	-200.000	-0.012	-0.390
-477.318	90.757	-0.363	-0.408
-476.303	62.171	-0.091	-0.091
-475.289	1.057	0.054	-0.039
-474.274	-194.591	0.328	0.003
-473.259	453.619	-0.114	-0.253
-472.245	-35.302	-0.065	0.035
-471.230	37.120	0.166	0.147
-470.216	-110.362	-0.183	0.038
-469.201	-62.229	-0.063	-0.026
-468.186	482.116	0.194	-0.442
-467.172	29.312	-0.121	-0.103
-466.157	-200.000	-0.042	0.186
-465.143	-200.000	0.013	0.165
-464.128	163.964	-0.064	0.090
-463.113	135.528	0.217	-0.282
-462.099	130.093	-0.244	-0.312
-461.084	-200.000	0.004	-0.085
-460.070	-136.361	0.349	0.041
-459.055	69.934	-0.125	-0.129
-458.040	16.822	-0.153	0.122
-457.026	800.000	0.020	-0.067
-456.011	72.339	0.109	-0.114
-454.997	136.644	-0.046	-0.061
-453.982	-41.374	-0.068	-0.035
-452.968	-96.468	0.247	0.065
-451.953	150.851	-0.252	0.343
-450.938	-91.701	-0.203	-0.058
-449.924	-22.135	-0.162	-0.099
-448.909	61.278	0.316	0.314
-447.895	167.458	0.060	0.086
-446.880	199.141	-0.216	0.332
-445.865	46.095	-0.193	-0.179
-444.851	-200.000	0.045	-0.389
-443.836	-144.335	0.093	0.009
-442.822	511.747	0.025	0.059
-441.807	-200.000	0.001	0.207
-440.792	292.185	0.147	0.269
-439.778	-126.010	-0.164	-0.025
-438.763	-22.552	0.179	0.108
-437.749	322.072	0.052	-0.099
-436.734	42.920	-0.208	0.190
-435.719	-47.060	0.175	-0.086
-434.705	-130.958	-0.124	0.017
-433.690	-75.766	-0.048	-0.017
-432.676	66.247	-0.194	-0.197
-431.661	-49.300	-0.135	0.064
-430.646	-3.227	0.163	-0.114
-429.632	-200.000	0.004	0.176
-428.617	10.583	0.156	0.119
-427.603	-200.000	0.074	0.431
-426.588	800.000	-0.072	0.205
-425.573	221.088	-0.150	-0.241
-424.559	-200.000	0.010	-0.442
-423.544	147.255	0.088	-0.118
-422.530	-41.773	0.065	0.033
-421.515	-14.101	-0.252	-0.163
-420.500	-200.000	-0.006	0.479
-419.486	80.303	0.298	0.321
-418.471	800.000	0.060	0.234
-417.457	-122.252	-0.329	0.054
-416.442	-108.167	-0.461	-0.100
-415.428	-39.067	0.325	-0.171
-414.413	679.545	0.042	0.110
-413.398	295.773	0.141	-0.258
-412.384	160.777	0.069	-0.096
-411.369	516.026	0.170	-0.397
-410.355	-85.055	0.277	0.087
-409.340	-107.339	0.152	-0.033
-408.325	-56.423	0.198	-0.088
-407.311	-111.768	-0.141	0.028
-406.296	366.272	-0.122	0.246
-405.282	795.917	0.088	0.243
-404.267	224.601	0.263	0.425
-403.252	-89.736	0.234	0.068
-402.238	-3.809	-0.210	-0.146
-401.223	800.000	0.074	0.253
-400.209	-114.947	0.478	0.091
-399.194	55.452	-0.045	0.044
-398.179	800.000	0.056	-0.241
-397.165	89.246	0.202	0.225
-396.150	-200.000	-0.009	0.350
-395.136	-101.943	-0.143	-0.035
-394.121	-107.257	-0.177	0.039
-393.106	-119.437	0.196	0.034
-392.092	-200.000	0.034	0.193
-391.077	-167.048	-0.308	0.013
-390.063	156.169	-0.212	-0.292
-389.048	24.868	0.121	-0.100
-388.033	-200.000	0.035	0.256
-387.019	-200.000	0.071	0.510
-386.004	27.446	0.130	0.109
-384.990	56.575	-0.100	-0.097
-383.975	-200.000	-0.010	-0.174
-382.960	-27.787	-0.131	-0.076
-381.946	8.604	0.175	-0.131
-380.931	133.681	-0.394	0.509
-379.917	-200.000	-0.034	-0.236
-378.902	-29.121	-0.037	-0.021
-377.888	38.258	0.094	0.083
-376.873	-200.000	-0.046	0.341
-375.858	349.924	0.111	0.220
-374.844	-200.000	0.020	-0.165
-373.829	119.552	-0.163	-0.201
-372.815	-200.000	-0.044	0.304
-371.800	-101.315	0.077	0.019
-370.785	130.332	-0.038	-0.048
-369.771	-200.000	0.006	-0.110
-368.756	-92.382	-0.351	-0.098
-367.742	131.377	-0.125	0.161
-366.727	35.408	-0.140	-0.122
-365.712	191.139	0.179	-0.268
-364.698	-49.526	-0.228	-0.108
-363.683	-56.458	0.185	-0.082
-362.669	-200.000	0.081	-0.405
-361.654	236.592	0.245	-0.404
-360.639	186.949	0.131	0.195
-359.625	216.482	0.104	-0.166
-358.610	211.391	-0.167	0.263
-357.596	-200.000	-0.003	0.029
-356.581	204.284	0.095	0.147
-355.566	-48.168	-0.053	0.026
-354.552	-183.688	0.352	-0.006
-353.537	54.662	0.113	0.109
-352.523	800.000	-0.061	-0.221
-351.508	-34.370	-0.109	0.059
-350.493	-200.000	-0.073	0.327
-349.479	378.024	-0.108	0.221
-348.464	-28.962	0.119	0.068
-347.450	-200.000	0.046	0.289
-346.435	-99.351	-0.091	0.023
-345.420	-170.463	-0.078	-0.003
-344.406	546.606	-0.034	0.081
-343.391	-143.556	-0.268	-0.025
-342.377	-16.505	-0.157	0.099
-341.362	-101.335	-0.148	0.036
-340.348	800.000	-0.018	0.077
-339.333	-19.393	0.022	0.013
-338.318	-95.777	0.209	0.056
-337.304	-182.156	0.130	-0.002
-336.289	-55.233	-0.269	0.121
-335.275	800.000	0.119	-0.332
-334.260	-200.000	0.036	-0.233
-333.245	5.396	0.153	-0.112
-332.231	508.918	-0.035	-0.080
-331.216	415.833	-0.013	0.027
-330.202	-119.748	0.134	-0.023
-329.187	-112.325	-0.309	0.062
-328.172	303.335	-0.090	0.167
-327.158	-21.418	0.151	0.092
-326.143	73.890	-0.396	-0.414
-325.129	-200.000	0.001	-0.025
-324.114	-82.141	-0.071	0.023
-323.099	168.919	-0.112	-0.159
-322.085	-11.815	0.162	-0.106
-321.070	261.968	0.246	-0.425
-320.056	374.942	0.068	-0.138
-319.041	-200.000	0.037	0.463
-318.026	193.565	0.203	0.307
-317.012	1.678	0.223	-0.160
-315.997	80.915	-0.105	-0.113
-314.983	-200.000	-0.002	-0.085
-313.968	-2.710	0.239	0.167
-312.953	-200.000	0.009	0.066
-311.939	-200.000	-0.004	-0.186
-310.924	201.987	-0.111	0.170
-309.910	55.368	-0.094	-0.090
-308.895	657.921	-0.134	-0.342
-307.880	-200.000	0.001	-0.351
-306.866	431.255	0.033	-0.072
-305.851	800.000	-0.050	-0.175
-304.837	-200.000	-0.026	-0.196
-303.822	-200.000	-0.036	0.185
-302.807	163.447	0.160	0.225
-301.793	329.617	-0.118	0.226
-300.778	23.653	0.248	-0.203
-299.764	65.127	-0.226	0.227
-298.749	-121.365	0.376	0.062
-297.735	121.689	0.158	-0.196
-296.720	549.333	0.093	-0.223
-295.705	-162.150	-0.290	0.014
-294.691	39.536	0.206	-0.184
-293.676	-67.403	0.161	0.063
-292.662	413.412	0.066	0.139
-291.647	-130.812	-0.130	-0.017
-290.632	-71.466	0.310	-0.116
-289.618	-49.444	-0.068	0.032
-288.603	-200.000	0.016	0.156
-287.589	-200.000	-0.010	0.181
-286.574	17.441	-0.112	0.088
-285.559	-10.735	0.305	0.201
-284.545	-5.515	0.044	-0.030
-283.530	2.538	-0.206	-0.149
-282.516	800.000	-0.017	-0.058
-281.501	800.000	-0.100	-0.282
-280.486	-200.000	-0.005	-0.272
-279.472	-59.808	-0.119	0.051
-278.457	-111.904	-0.286	0.057
-277.443	800.000	0.032	0.113
-276.428	-97.179	-0.522	0.135
-275.413	-200.000	0.003	0.084
-274.399	-58.022	0.107	-0.046
-273.384	-200.000	0.056	0.319
-272.370	-111.254	-0.326	0.066
-271.355	-60.893	0.182	0.076
-270.340	-120.830	-0.183	-0.031
-269.326	-159.591	-0.058	-0.003
-268.311	-200.000	0.026	-0.223
-267.297	-200.000	0.032	-0.143
-266.282	57.029	-0.269	-0.260
-265.267	190.263	0.075	-0.112
-264.253	-99.234	-0.272	-0.068
-263.238	41.050	-0.293	-0.263
-262.224	-154.072	0.334	0.023
-261.209	16.006	0.247	0.194
-260.195	800.000	0.034	0.111
-259.180	-94.221	-0.087	0.024
-258.165	-34.910	0.089	0.048
-257.151	163.667	0.118	-0.165
-256.136	196.285	0.127	-0.192
-255.122	-200.000	-0.056	0.271
-254.107	-94.830	0.054	-0.014
-253.092	158.664	0.168	0.232
-252.078	410.551	-0.157	0.331
-251.063	52.976	0.111	-0.105
-250.049	-200.000	-0.002	-0.116
-249.034	-34.683	-0.368	0.200
-248.019	444.200	0.137	0.298
-247.005	-86.953	0.219	0.066
-245.990	-168.467	-0.217	0.008
-244.976	3.909	-0.141	0.102
-243.961	428.828	0.155	0.332
-242.946	-88.344	0.054	-0.016
-241.932	-200.000	-0.048	0.209
-240.917	-66.242	0.157	0.062
-239.903	-8.468	-0.092	-0.061
-238.888	-200.000	-0.027	-0.198
-237.873	-35.745	0.274	0.148
-236.859	73.048	0.044	-0.045
-235.844	-200.000	0.021	0.318
-234.830	-93.408	0.404	-0.111
-233.815	-78.165	-0.072	-0.025
-232.800	-148.411	0.364	-0.030
-231.786	-108.525	0.258	-0.055
-230.771	25.340	-0.065	0.053
-229.757	-46.287	0.214	0.104
-228.742	800.000	-0.090	0.308
-227.727	9.415	-0.144	-0.108
-226.713	800.000	0.031	0.119
-225.698	-52.122	0.130	-0.060
-224.684	-44.381	0.253	0.126
-223.669	228.824	0.200	-0.324
-222.655	-200.000	-0.017	0.127
-221.640	-144.114	-0.327	-0.030
-220.625	77.913	0.141	-0.150
-219.611	345.767	0.142	-0.277
-218.596	676.124	-0.035	-0.089
-217.582	641.255	0.022	-0.055
-216.567	256.854	-0.126	-0.215
-215.552	12.876	-0.108	0.083
-214.538	-74.688	0.081	-0.029
-213.523	-200.000	-0.027	0.136
-212.509	-40.325	-0.302	0.156
-211.494	-118.861	-0.246	-0.043
-210.479	-69.688	-0.408	-0.155
-209.465	345.117	0.116	-0.225
-208.450	91.174	-0.169	-0.188
-207.436	130.785	0.112	-0.142
-206.421	-71.481	-0.260	0.096
-205.406	-112.983	-0.355	-0.070
-204.392	253.424	0.079	-0.133
-203.377	2.168	0.207	-0.149
-202.363	-20.521	0.136	-0.083
-201.348	-65.971	-0.134	0.053
-200.333	-111.314	0.173	0.035
-199.319	303.905	-0.082	-0.151
-198.304	233.923	-0.283	-0.462
-197.290	800.000	-0.053	0.178
-196.275	-200.000	0.005	0.111
-195.260	31.991	-0.325	0.277
-194.246	73.890	0.038	0.039
-193.231	-200.000	0.047	0.292
-192.217	97.923	-0.069	-0.078
-191.202	680.786	-0.146	-0.376
-190.187	800.000	0.104	0.324
-189.173	800.000	0.105	0.340
-188.158	-68.270	0.141	-0.054
-187.144	57.785	-0.188	0.182
-186.129	-90.144	0.281	-0.081
-185.114	-200.000	-0.032	0.202
-184.100	-166.181	0.143	0.006
-183.085	-75.205	-0.087	0.031
-182.071	47.478	-0.074	-0.068
-181.056	-105.792	0.282	-0.063
-180.042	45.371	0.212	-0.194
-179.027	-200.000	0.014	0.240
-178.012	277.329	0.076	0.135
-176.998	144.215	0.037	0.049
-175.983	-200.000	0.047	0.247
-174.969	151.166	0.173	0.234
-173.954	-64.391	0.120	-0.048
-172.939	-179.077	0.323	-0.007
-171.925	800.000	-0.005	-0.020
-170.910	147.828	0.108	-0.144
-169.896	-13.352	-0.253	0.163
-168.881	800.000	0.073	0.208
-167.866	-156.742	-0.254	0.016
-166.852	-138.543	0.077	0.008
-165.837	-147.167	0.560	0.047
-164.823	800.000	0.068	-0.256
-163.808	-47.893	-0.206	0.099
-162.793	-111.622	-0.142	0.029
-161.779	-24.484	0.088	0.052
-160.764	71.015	-0.122	0.125
-159.750	-123.235	-0.195	0.031
-158.735	-200.000	-0.019	0.271
-157.720	765.086	0.075	0.201
-156.706	102.825	0.258	0.299
-155.691	-200.000	0.019	0.364
-154.677	-92.598	-0.359	-0.100
-153.662	-53.990	0.044	-0.020
-152.647	255.179	0.151	0.256
-151.633	-73.981	-0.210	0.075
-150.618	-200.000	0.007	-0.095
-149.604	-187.316	0.150	-0.002
-148.589	158.040	-0.180	-0.247
-147.574	244.399	-0.141	0.234
-146.560	-81.808	0.166	0.054
-145.545	25.229	-0.337	-0.277
-144.531	139.135	0.204	-0.265
-143.516	-20.933	-0.103	0.062
-142.502	-131.624	0.326	0.042
-141.487	332.877	-0.098	0.187
-140.472	-5.828	0.061	-0.041
-139.458	137.252	0.126	-0.163
-138.443	-163.670	0.257	0.012
-137.429	23.192	-0.154	-0.125
-136.414	443.180	-0.129	-0.279
-135.399	-78.663	0.143	0.048
-134.385	-167.200	0.139	0.006
-133.370	413.930	-0.055	0.115
-132.356	692.362	0.084	0.217
-131.341	-93.324	-0.197	0.054
-130.326	-184.952	-0.270	-0.004
-129.312	800.000	0.054	0.195
-128.297	66.219	-0.123	0.123
-127.283	-86.210	0.308	-0.094
-126.268	268.686	0.128	0.222
-125.253	-200.000	-0.002	-0.134
-124.239	-29.729	0.108	-0.061
-123.224	-200.000	0.005	-0.140
-122.210	-76.883	0.248	-0.086
-121.195	800.000	-0.085	-0.261
-120.180	-104.395	-0.184	-0.042
