DTS Sentinel unit serial number:	SN413079Multiplexer serial number:	ORYXHardware model number:	OX4-SRSoftware version number:	ORYX F/W v4.00 Oryx Data Collector v3.7.2.0data status	okinstallation	princeton_trtdifferential loss correction	single-endedforward channel	channel 1reverse channel	N/Adate	2019/09/10time	19:40:11forward acquisition time	60.00reverse acquisition time	0.00gamma	496.2192k internal	0.2322k external	0.2322temperature offset calibration	0.9931default loss term (dB/km)	0.3790temperature slope calibration	1.0000multiplexer offset coefficient	1.0000multiplexer slope coefficient	1.0000fibre end	0.00T internal ref (°C)	33.19T ext. ref 1 (°C)	-0.32T ext. ref 2 (°C)	25.95length (m)	temperature (°C)	Stokes	anti-Stokes-747.200	-177.854	0.360	0.009
-746.185	-44.350	-0.151	0.077
-745.171	-187.374	-0.184	0.003
-744.156	-111.824	0.154	-0.032
-743.142	-200.000	0.038	0.376
-742.127	800.000	0.073	-0.225
-741.112	-200.000	0.004	-0.093
-740.098	149.229	0.118	-0.161
-739.083	-144.664	0.196	0.018
-738.069	-200.000	0.038	0.202
-737.054	38.559	0.127	-0.115
-736.039	-178.793	-0.397	0.009
-735.025	-200.000	-0.018	0.304
-734.010	-59.280	0.201	-0.087
-732.996	-39.602	-0.231	-0.122
-731.981	800.000	0.033	-0.106
-730.966	-102.445	0.180	-0.044
-729.952	396.212	-0.114	0.240
-728.937	271.388	-0.070	0.125
-727.923	800.000	-0.069	0.203
-726.908	-54.253	0.134	-0.061
-725.894	166.716	0.078	0.112
-724.879	60.109	0.160	-0.160
-723.864	-108.235	-0.383	-0.084
-722.850	-184.233	-0.215	-0.004
-721.835	800.000	0.074	-0.241
-720.821	800.000	0.058	-0.254
-719.806	-2.606	-0.141	-0.100
-718.791	-90.994	-0.073	-0.021
-717.777	-54.927	-0.209	-0.095
-716.762	-51.699	0.274	-0.129
-715.748	475.716	0.143	-0.325
-714.733	795.689	-0.040	0.112
-713.718	800.000	0.106	0.445
-712.704	192.180	-0.171	0.260
-711.689	722.776	-0.021	-0.057
-710.675	-122.275	-0.253	-0.042
-709.660	-147.818	-0.263	-0.022
-708.645	-123.170	-0.219	-0.035
-707.631	13.915	0.204	-0.160
-706.616	29.472	0.026	-0.022
-705.602	107.076	-0.172	-0.207
-704.587	-118.334	0.137	-0.025
-703.572	800.000	-0.029	-0.093
-702.558	-200.000	-0.039	-0.201
-701.543	398.804	0.053	-0.111
-700.529	13.075	0.190	-0.148
-699.514	-200.000	0.012	-0.157
-698.499	177.658	0.171	0.251
-697.485	800.000	-0.076	-0.222
-696.470	-147.148	-0.164	0.014
-695.456	-200.000	-0.003	0.262
-694.441	716.018	0.050	0.133
-693.426	50.763	-0.109	0.104
-692.412	-109.698	0.410	0.087
-691.397	-200.000	0.069	0.323
-690.383	41.802	-0.143	0.131
-689.368	-110.409	-0.377	0.079
-688.354	-92.296	-0.164	-0.046
-687.339	776.872	0.085	0.235
-686.324	-200.000	-0.006	0.179
-685.310	-58.339	-0.067	-0.030
-684.295	-200.000	-0.076	-0.345
-683.281	-34.591	0.137	-0.075
-682.266	564.745	0.118	-0.288
-681.251	800.000	-0.063	0.213
-680.237	-2.932	-0.060	0.042
-679.222	-194.351	0.158	0.001
-678.208	-47.470	0.294	-0.144
-677.193	800.000	-0.059	0.202
-676.178	370.577	-0.143	0.292
-675.164	-110.145	0.303	-0.064
-674.149	9.721	-0.119	0.091
-673.135	-200.000	-0.023	0.286
-672.120	415.263	0.025	-0.054
-671.105	158.088	0.072	-0.101
-670.091	-33.251	-0.194	-0.108
-669.076	18.501	-0.231	0.186
-668.062	-121.531	0.139	-0.023
-667.047	-200.000	0.024	0.194
-666.032	800.000	0.038	-0.107
-665.018	503.469	0.044	-0.102
-664.003	-121.039	-0.113	-0.019
-662.989	-12.607	0.293	-0.193
-661.974	-200.000	-0.089	-0.409
-660.959	-200.000	-0.015	0.081
-659.945	-42.914	0.043	0.022
-658.930	-52.704	0.205	-0.095
-657.916	-67.261	0.133	-0.053
-656.901	24.497	-0.198	0.165
-655.886	-47.477	-0.127	0.062
-654.872	-79.397	-0.385	-0.131
-653.857	-120.256	0.397	0.068
-652.843	-131.454	0.032	-0.004
-651.828	-114.370	0.313	-0.061
-650.814	-142.184	0.065	0.006
-649.799	-114.649	0.430	-0.083
-648.784	-200.000	-0.004	0.114
-647.770	-92.107	0.207	0.059
-646.755	23.969	-0.290	0.241
-645.741	-36.555	-0.122	-0.066
-644.726	-43.110	-0.445	0.227
-643.711	154.827	-0.069	-0.096
-642.697	31.786	0.277	-0.240
-641.682	-90.705	-0.099	0.029
-640.668	-200.000	-0.010	0.154
-639.653	-124.768	-0.167	0.026
-638.638	-120.126	-0.099	0.017
-637.624	-8.735	-0.111	-0.075
-636.609	187.209	-0.039	0.058
-635.595	-200.000	0.002	-0.065
-634.580	-131.603	0.188	-0.025
-633.565	-39.090	-0.290	0.154
-632.551	277.289	-0.115	-0.206
-631.536	800.000	0.035	-0.139
-630.522	-172.317	-0.386	0.012
-629.507	-200.000	0.014	0.064
-628.492	-106.612	0.367	-0.082
-627.478	-34.229	-0.406	-0.224
-626.463	-3.854	-0.211	-0.147
-625.449	123.851	0.200	-0.253
-624.434	188.076	0.021	-0.032
-623.419	-175.197	-0.177	-0.005
-622.405	133.377	0.176	0.229
-621.390	-13.229	-0.171	0.112
-620.376	800.000	-0.078	-0.322
-619.361	-144.036	-0.200	-0.019
-618.346	-169.594	-0.424	-0.015
-617.332	28.411	-0.117	-0.100
-616.317	321.269	0.047	0.090
-615.303	-200.000	0.055	0.392
-614.288	-200.000	-0.000	0.029
-613.273	85.172	0.187	0.206
-612.259	507.375	0.064	-0.150
-611.244	3.975	0.165	-0.121
-610.230	792.375	-0.012	-0.034
-609.215	568.721	-0.069	-0.167
-608.201	129.068	-0.388	0.498
-607.186	-64.987	-0.054	-0.022
-606.171	153.824	-0.121	-0.167
-605.157	524.920	0.157	-0.370
-604.142	-110.729	0.095	0.020
-603.128	32.303	-0.080	-0.070
-602.113	-99.065	0.131	-0.033
-601.098	157.247	-0.111	0.155
-600.084	-200.000	-0.031	0.137
-599.069	-123.819	-0.157	0.025
-598.055	-200.000	0.050	-0.535
-597.040	-74.601	0.176	0.064
-596.025	-3.775	-0.158	-0.110
-595.011	225.505	0.137	0.223
-593.996	-52.064	-0.256	0.119
-592.982	-5.527	-0.127	-0.087
-591.967	800.000	0.059	0.240
-590.952	-200.000	0.014	-0.105
-589.938	554.478	-0.044	0.105
-588.923	121.127	-0.156	0.194
-587.909	-10.352	-0.239	-0.159
-586.894	-30.665	0.114	0.065
-585.879	71.034	-0.237	0.246
-584.865	-136.048	0.281	-0.033
-583.850	-200.000	0.029	-0.294
-582.836	40.858	-0.167	0.152
-581.821	-33.796	0.224	-0.124
-580.806	15.714	-0.118	-0.093
-579.792	701.460	0.093	0.245
-578.777	3.934	-0.059	-0.044
-577.763	-200.000	0.002	0.164
-576.748	-42.535	0.139	0.071
-575.733	182.886	-0.068	0.100
-574.719	-96.587	0.213	-0.056
-573.704	800.000	-0.033	0.114
-572.690	183.602	-0.057	-0.084
-571.675	137.295	0.241	-0.316
-570.661	-200.000	-0.038	0.237
-569.646	599.523	0.060	-0.149
-568.631	-129.294	0.308	-0.043
-567.617	157.498	-0.186	-0.258
-566.602	72.519	0.345	-0.361
-565.588	800.000	-0.029	-0.081
-564.573	-48.139	-0.087	0.042
-563.558	800.000	-0.063	-0.210
-562.544	-75.163	-0.045	0.016
-561.529	-200.000	-0.007	-0.256
-560.515	467.086	0.109	0.245
-559.500	1.367	0.040	-0.029
-558.485	196.314	0.065	0.100
-557.471	-35.090	0.299	0.163
-556.456	196.436	0.096	-0.146
-555.442	-2.516	-0.270	-0.190
-554.427	-200.000	0.015	-0.084
-553.412	10.826	0.286	-0.219
-552.398	-20.888	0.207	-0.127
-551.383	-125.252	-0.139	-0.021
-550.369	246.536	-0.177	0.299
-549.354	113.977	-0.050	-0.061
-548.339	-46.098	-0.050	0.025
-547.325	-117.943	0.186	0.033
-546.310	-200.000	-0.022	0.137
-545.296	146.646	0.114	-0.153
-544.281	-71.034	-0.263	0.099
-543.266	139.756	0.107	-0.141
-542.252	-26.871	-0.258	0.151
-541.237	242.986	0.106	-0.178
-540.223	512.643	0.062	-0.144
-539.208	-45.111	0.077	-0.038
-538.193	50.948	-0.177	-0.168
-537.179	108.947	-0.117	0.141
-536.164	-111.448	0.327	-0.067
-535.150	-1.195	0.439	-0.311
-534.135	-159.249	0.258	0.015
-533.121	-22.693	0.077	0.046
-532.106	305.282	0.098	0.183
-531.091	-200.000	-0.020	0.153
-530.077	-200.000	-0.013	0.130
-529.062	160.688	0.254	0.356
-528.048	-200.000	0.015	0.167
-527.033	158.742	0.221	0.307
-526.018	477.467	-0.050	-0.113
-525.004	28.872	-0.170	-0.145
-523.989	-105.601	-0.482	0.109
-522.975	4.842	0.268	0.197
-521.960	370.411	0.057	0.115
-520.945	-98.547	-0.250	0.064
-519.931	-177.355	-0.396	0.010
-518.916	-43.987	0.139	-0.070
-517.902	-200.000	-0.002	0.197
-516.887	147.809	-0.110	0.148
-515.872	-200.000	-0.002	-0.149
-514.858	168.394	0.160	-0.228
-513.843	-63.883	-0.236	-0.097
-512.829	151.205	0.273	0.372
-511.814	-90.130	-0.252	-0.073
-510.799	-37.835	0.340	-0.181
-509.785	-128.725	-0.238	-0.034
-508.770	361.847	0.124	-0.248
-507.756	379.288	0.138	-0.282
-506.741	800.000	0.017	0.056
-505.726	-64.107	-0.153	0.062
-504.712	153.953	0.228	-0.313
-503.697	-200.000	-0.045	-0.300
-502.683	-119.573	-0.235	0.041
-501.668	-51.404	0.162	-0.076
-500.653	800.000	-0.070	0.214
-499.639	-200.000	-0.031	0.139
-498.624	-72.935	0.242	0.089
-497.610	124.331	-0.216	-0.271
-496.595	551.818	0.147	-0.352
-495.581	-46.191	-0.124	-0.061
-494.566	-200.000	0.003	0.241
-493.551	229.495	-0.301	-0.491
-492.537	375.533	-0.067	0.138
-491.522	-193.730	0.120	0.001
-490.508	221.499	-0.095	-0.153
-489.493	123.929	0.091	-0.115
-488.478	327.343	-0.107	0.205
-487.464	-106.498	-0.124	0.028
-486.449	118.675	0.104	0.128
-485.435	-144.758	0.156	0.014
-484.420	78.061	0.092	0.098
-483.405	-46.443	0.087	0.043
-482.391	548.988	-0.138	0.330
-481.376	-84.183	0.222	0.070
-480.362	-71.638	0.082	0.031
-479.347	-200.000	-0.004	-0.481
-478.332	-13.556	-0.356	-0.231
-477.318	428.744	0.112	0.243
-476.303	-97.224	-0.266	-0.069
-475.289	110.632	0.198	0.239
-474.274	-200.000	0.027	0.254
-473.259	254.212	0.156	0.267
-472.245	165.594	-0.274	0.388
-471.230	-161.098	0.079	0.004
-470.216	145.707	0.091	0.122
-469.201	175.843	-0.251	0.365
-468.186	-91.495	-0.114	-0.032
-467.172	-72.613	0.221	0.081
-466.157	-134.996	-0.271	0.033
-465.143	128.402	-0.089	0.113
-464.128	800.000	0.067	0.267
-463.113	-48.445	0.173	-0.083
-462.099	-200.000	0.028	-0.173
-461.084	-37.901	-0.139	-0.074
-460.070	435.562	0.118	0.256
-459.055	800.000	-0.082	-0.321
-458.040	-200.000	0.018	0.118
-457.026	577.380	-0.088	0.214
-456.011	-51.207	-0.231	0.108
-454.997	-200.000	0.043	0.280
-453.982	551.241	-0.165	0.396
-452.968	-70.740	-0.316	-0.119
-451.953	-98.578	-0.137	0.035
-450.938	-86.275	0.503	0.155
-449.924	68.907	-0.170	-0.174
-448.909	-200.000	0.052	-0.268
-447.895	45.817	-0.263	-0.243
-446.880	-97.022	-0.433	0.113
-445.865	800.000	0.045	-0.173
-444.851	323.777	0.131	0.250
-443.836	-51.302	0.164	0.077
-442.822	800.000	0.004	0.016
-441.807	701.219	-0.100	-0.263
-440.792	800.000	0.157	0.469
-439.778	-120.252	-0.069	-0.012
-438.763	-93.540	0.167	0.046
-437.749	558.640	0.037	0.089
-436.734	29.959	-0.160	-0.136
-435.719	-57.210	0.221	0.097
-434.705	-48.111	0.232	0.112
-433.690	57.069	0.200	-0.195
-432.676	-55.366	-0.126	0.056
-431.661	-99.158	0.197	0.050
-430.646	521.998	-0.078	-0.184
-429.632	-70.361	0.232	0.088
-428.617	-200.000	-0.058	-0.415
-427.603	243.279	-0.035	0.059
-426.588	335.245	0.083	0.160
-425.573	276.398	-0.031	-0.054
-424.559	-93.204	-0.476	0.132
-423.544	-200.000	0.000	-0.006
-422.530	18.317	0.128	-0.102
-421.515	152.215	0.076	0.104
-420.500	116.548	0.172	0.211
-419.486	800.000	0.076	0.291
-418.471	170.019	-0.270	-0.385
-417.457	252.347	-0.104	0.177
-416.442	-65.224	0.093	0.037
-415.428	-92.432	-0.261	0.073
-414.413	-126.798	0.153	-0.023
-413.398	359.457	0.091	-0.182
-412.384	-200.000	-0.011	-0.110
-411.369	71.592	-0.172	-0.178
-410.355	111.915	0.151	0.182
-409.340	-49.997	-0.116	0.055
-408.325	53.173	0.050	-0.048
-407.311	-15.629	-0.145	0.092
-406.296	245.068	-0.134	-0.225
-405.282	744.506	-0.092	-0.247
-404.267	-32.934	0.106	0.059
-403.252	-80.151	0.204	-0.068
-402.238	328.059	0.137	0.262
-401.223	-81.128	-0.077	0.025
-400.209	-189.687	0.102	0.001
-399.194	-143.263	0.180	-0.017
-398.179	-200.000	-0.047	-0.235
-397.165	333.809	0.198	-0.381
-396.150	800.000	0.031	-0.085
-395.136	210.193	-0.095	0.148
-394.121	-200.000	-0.004	0.255
-393.106	-26.793	0.048	0.028
-392.092	800.000	0.021	0.075
-391.077	-102.404	0.486	-0.116
-390.063	-200.000	-0.015	0.119
-389.048	-110.183	0.252	-0.052
-388.033	184.249	-0.119	-0.176
-387.019	146.080	-0.078	-0.104
-386.004	227.394	-0.138	-0.223
-384.990	-200.000	0.038	-0.360
-383.975	-94.371	-0.365	0.099
-382.960	45.978	-0.274	0.253
-381.946	800.000	-0.069	-0.211
-380.931	-145.727	0.530	-0.047
-379.917	-58.444	-0.154	-0.067
-378.902	-56.536	0.183	-0.081
-377.888	549.864	-0.041	-0.098
-376.873	-116.161	-0.096	0.018
-375.858	800.000	-0.116	0.362
-374.844	-158.113	0.153	-0.009
-373.829	177.734	0.130	-0.188
-372.815	90.846	0.306	-0.342
-371.800	-200.000	-0.001	0.279
-370.785	358.699	0.060	-0.120
-369.771	-200.000	0.037	-0.258
-368.756	800.000	-0.042	0.118
-367.742	97.251	-0.089	0.102
-366.727	208.300	0.120	0.187
-365.712	800.000	0.042	0.129
-364.698	-38.808	0.052	-0.027
-363.683	289.516	0.182	-0.329
-362.669	-1.672	-0.240	-0.168
-361.654	-200.000	0.002	0.130
-360.639	-99.249	-0.255	-0.064
-359.625	800.000	0.090	-0.293
-358.610	-9.482	0.149	-0.099
-357.596	254.763	0.042	-0.072
-356.581	-28.826	0.177	0.101
-355.566	-9.743	-0.107	-0.071
-354.552	-91.268	0.056	0.016
-353.537	800.000	0.109	-0.393
-352.523	-21.504	-0.102	-0.062
-351.508	-9.928	0.090	0.060
-350.493	-200.000	0.009	0.094
-349.479	121.268	-0.039	0.049
-348.464	568.640	-0.067	-0.163
-347.450	185.600	-0.056	0.083
-346.435	306.496	-0.223	-0.414
-345.420	-67.548	0.120	-0.047
-344.406	468.611	-0.115	-0.258
-343.391	-200.000	0.027	0.178
-342.377	-154.751	0.037	0.002
-341.362	800.000	-0.034	0.122
-340.348	-135.490	-0.383	0.045
-339.333	-20.804	0.282	-0.172
-338.318	-200.000	0.072	0.338
-337.304	-102.708	-0.156	0.037
-336.289	-134.268	0.404	0.049
-335.275	145.881	0.084	0.111
-334.260	-112.186	0.297	0.059
-333.245	-200.000	-0.021	0.206
-332.231	55.461	0.091	-0.087
-331.216	67.045	-0.193	0.195
-330.202	457.028	-0.057	-0.126
-329.187	489.532	0.086	-0.196
-328.172	-200.000	0.044	-0.460
-327.158	-200.000	-0.012	0.234
-326.143	186.298	-0.097	-0.144
-325.129	800.000	0.139	0.548
-324.114	42.817	-0.157	0.143
-323.099	-135.982	-0.078	-0.009
-322.085	-19.292	-0.028	-0.017
-321.070	-200.000	0.083	0.424
-320.056	-200.000	0.038	0.322
-319.041	0.699	-0.117	0.083
-318.026	273.393	0.148	0.260
-317.012	-168.316	-0.151	0.006
-315.997	263.901	0.165	0.285
-314.983	195.046	0.067	-0.100
-313.968	-59.495	-0.195	0.083
-312.953	-48.989	-0.048	-0.023
-311.939	533.864	0.062	0.146
-310.924	-113.344	0.015	-0.003
-309.910	368.131	0.095	0.191
-308.895	-3.610	-0.391	0.270
-307.880	-116.198	-0.099	-0.018
-306.866	13.489	0.115	-0.088
-305.851	10.463	-0.059	0.045
-304.837	-200.000	-0.046	0.206
-303.822	51.012	-0.320	0.302
-302.807	-71.668	-0.171	-0.064
-301.793	-129.344	-0.071	-0.010
-300.778	-200.000	-0.020	-0.598
-299.764	-63.946	-0.022	-0.009
-298.749	-11.847	0.185	-0.120
-297.735	-200.000	-0.014	0.320
-296.720	75.691	0.154	0.161
-295.705	11.777	0.121	-0.092
-294.691	-111.008	0.230	0.047
-293.676	-62.622	0.202	0.083
-292.662	86.750	-0.036	0.039
-291.647	-113.459	-0.290	0.056
-290.632	523.011	-0.142	0.331
-289.618	800.000	0.060	-0.218
-288.603	-99.824	-0.188	0.047
-287.589	-33.223	-0.215	-0.118
-286.574	-111.697	0.229	0.046
-285.559	-102.867	-0.056	0.013
-284.545	413.638	-0.103	-0.218
-283.530	176.219	-0.114	-0.165
-282.516	-103.078	0.183	0.043
-281.501	-78.871	-0.441	-0.149
-280.486	-127.586	0.287	0.041
-279.472	320.830	-0.035	0.065
-278.457	-200.000	0.019	0.181
-277.443	-129.472	-0.314	0.043
-276.428	-200.000	0.049	-0.260
-275.413	800.000	-0.089	-0.334
-274.399	-200.000	-0.047	-0.400
-273.384	-65.043	-0.142	-0.057
-272.370	800.000	-0.105	0.414
-271.355	56.813	-0.124	-0.120
-270.340	-18.094	-0.077	0.048
-269.326	793.029	0.061	0.166
-268.311	800.000	-0.079	-0.238
-267.297	228.440	-0.110	0.177
-266.282	-200.000	-0.002	-0.156
-265.267	-200.000	-0.032	0.185
-264.253	-42.313	0.142	-0.072
-263.238	-69.258	0.155	-0.059
-262.224	-200.000	0.012	-0.193
-261.209	136.051	-0.140	-0.181
-260.195	-106.172	0.515	0.115
-259.180	-29.775	-0.054	-0.031
-258.165	-6.513	0.046	0.031
-257.151	7.837	0.180	-0.134
-256.136	-30.021	-0.066	0.037
-255.122	83.349	0.073	-0.078
-254.107	800.000	-0.072	0.229
-253.092	-200.000	-0.022	0.095
-252.078	23.383	0.108	-0.088
-251.063	-200.000	0.074	-0.333
-250.049	50.596	0.079	-0.074
-249.034	36.561	0.111	0.097
-248.019	-115.742	0.245	-0.045
-247.005	23.556	0.327	0.267
-245.990	259.849	0.084	-0.145
-244.976	28.515	0.334	0.280
-243.961	70.087	0.154	0.158
-242.946	-48.720	0.235	-0.112
-241.932	58.935	0.075	-0.073
-240.917	8.587	-0.242	-0.181
-239.903	21.131	-0.385	-0.309
-238.888	-200.000	-0.018	0.107
-237.873	358.668	-0.062	0.123
-236.859	-200.000	0.000	0.141
-235.844	800.000	-0.068	-0.266
-234.830	14.026	0.073	-0.056
-233.815	-200.000	-0.013	0.107
-232.800	-115.495	0.054	-0.010
-231.786	-169.346	0.570	0.021
-230.771	-200.000	-0.024	0.186
-229.757	-57.517	-0.055	-0.024
-228.742	66.452	-0.175	-0.176
-227.727	-33.241	0.450	0.247
-226.713	103.237	-0.033	-0.038
-225.698	-47.398	-0.152	-0.073
-224.684	60.171	-0.193	-0.189
-223.669	259.389	0.060	0.102
-222.655	-16.982	0.299	0.187
-221.640	800.000	-0.007	-0.021
-220.625	-161.638	-0.364	-0.018
-219.611	-165.449	-0.189	-0.008
-218.596	91.939	-0.048	0.054
-217.582	-48.969	0.049	-0.023
-216.567	-200.000	-0.010	0.154
-215.552	171.808	0.097	0.137
-214.538	37.480	-0.361	0.317
-213.523	84.774	-0.118	0.128
-212.509	800.000	0.085	-0.265
-211.494	-144.255	-0.065	-0.006
-210.479	-95.157	-0.079	0.021
-209.465	-96.044	0.181	0.048
-208.450	-200.000	-0.048	0.382
-207.436	86.224	0.161	0.176
-206.421	-200.000	0.004	-0.123
-205.406	-136.791	-0.202	-0.023
-204.392	434.858	0.066	0.142
-203.377	80.894	0.150	-0.160
-202.363	-146.074	-0.186	0.016
-201.348	248.312	0.181	-0.302
-200.333	-137.002	-0.378	0.043
-199.319	-71.410	-0.272	-0.101
-198.304	-39.141	0.415	-0.216
-197.290	-200.000	0.001	0.098
-196.275	645.710	0.132	-0.334
-195.260	800.000	-0.076	0.217
-194.246	798.874	0.129	-0.353
-193.231	474.683	0.111	-0.249
-192.217	-162.938	0.289	-0.014
-191.202	208.974	-0.167	-0.258
-190.187	-30.351	0.287	0.161
-189.173	-2.214	0.120	-0.083
-188.158	800.000	-0.162	-0.477
-187.144	-114.878	-0.244	-0.046
-186.129	-3.392	-0.205	-0.141
-185.114	288.689	-0.243	0.436
-184.100	584.131	0.116	-0.283
-183.085	-200.000	-0.001	-0.159
-182.071	75.118	0.161	0.167
-181.056	229.901	0.115	-0.185
-180.042	-45.026	0.055	0.027
-179.027	-200.000	-0.020	-0.166
-178.012	-92.695	-0.129	-0.036
-176.998	0.590	0.062	-0.044
-175.983	86.020	0.244	0.266
-174.969	-40.111	-0.005	0.002
-173.954	-200.000	0.035	-0.205
-172.939	-36.878	-0.044	0.023
-171.925	-88.274	-0.186	0.055
-170.910	-157.869	0.127	-0.007
-169.896	293.732	0.165	0.298
-168.881	-189.856	-0.144	0.002
-167.866	-136.284	-0.101	-0.012
-166.852	510.283	0.113	0.260
-165.837	-115.641	-0.145	0.027
-164.823	-200.000	0.016	-0.094
-163.808	186.075	0.212	0.312
-162.793	443.315	0.108	-0.233
-161.779	-72.450	-0.266	-0.097
-160.764	-117.765	0.196	0.035
-159.750	-200.000	0.037	0.318
-158.735	-42.600	-0.333	0.167
-157.720	62.005	0.235	0.232
-156.706	419.380	-0.072	0.153
-155.691	37.768	0.026	0.023
-154.677	-157.759	0.316	-0.019
-153.662	-73.657	-0.084	-0.030
-152.647	-181.450	-0.416	-0.008
-151.633	-200.000	0.025	-0.210
-150.618	-62.954	-0.137	0.056
-149.604	-27.907	-0.082	-0.047
-148.589	115.548	0.156	0.188
-147.574	598.456	-0.023	0.056
-146.560	-200.000	-0.016	0.100
-145.545	-62.842	0.143	-0.058
-144.531	321.986	-0.034	-0.063
-143.516	-123.959	0.213	-0.033
-142.502	-7.473	-0.184	0.123
-141.487	-140.307	-0.297	-0.031
-140.472	2.749	-0.264	0.189
-139.458	495.099	-0.077	0.175
-138.443	144.755	-0.085	-0.112
-137.429	98.180	-0.103	0.118
-136.414	172.713	0.182	-0.258
-135.399	-130.390	-0.075	-0.010
-134.385	-59.033	-0.114	0.049
-133.370	167.719	-0.122	-0.170
-132.356	800.000	-0.067	0.231
-131.341	44.063	-0.078	0.070
-130.326	-67.482	-0.350	0.136
-129.312	-50.920	-0.232	0.108
-128.297	344.223	0.096	-0.186
-127.283	-109.264	-0.292	-0.061
-126.268	49.904	0.307	0.285
-125.253	-146.180	0.066	0.006
-124.239	-200.000	0.293	-0.000
-123.224	-110.314	0.403	-0.083
-122.210	-171.145	-0.232	-0.008
