DTS Sentinel unit serial number:	SN413079Multiplexer serial number:	ORYXHardware model number:	OX4-SRSoftware version number:	ORYX F/W v4.00 Oryx Data Collector v3.7.2.0data status	okinstallation	princeton_trtdifferential loss correction	single-endedforward channel	channel 1reverse channel	N/Adate	2019/09/12time	20:26:35forward acquisition time	60.00reverse acquisition time	0.00gamma	496.2192k internal	0.2323k external	0.2323temperature offset calibration	1.0143default loss term (dB/km)	0.3790temperature slope calibration	1.0000multiplexer offset coefficient	1.0000multiplexer slope coefficient	1.0000fibre end	0.00T internal ref (°C)	31.31T ext. ref 1 (°C)	3.52T ext. ref 2 (°C)	25.87length (m)	temperature (°C)	Stokes	anti-Stokes-747.200	112.158	-0.055	0.067
-746.185	552.257	0.094	-0.229
-745.171	-200.000	0.005	0.033
-744.156	181.666	0.115	0.170
-743.142	-89.749	-0.043	0.013
-742.127	617.045	0.139	0.352
-741.112	-5.951	-0.367	0.254
-740.098	-163.823	-0.315	-0.015
-739.083	60.938	-0.154	-0.154
-738.069	800.000	-0.081	0.241
-737.054	-103.072	-0.217	0.052
-736.039	-192.182	-0.210	0.002
-735.025	-56.498	0.212	-0.095
-734.010	-80.170	-0.182	0.061
-732.996	-200.000	-0.011	-0.194
-731.981	-102.454	-0.250	-0.060
-730.966	-2.946	-0.288	0.203
-729.952	-65.464	0.120	-0.049
-728.937	146.887	-0.218	-0.295
-727.923	-96.813	0.337	0.089
-726.908	438.199	-0.037	-0.081
-725.894	-200.000	0.024	-0.162
-724.879	95.886	-0.052	-0.060
-723.864	-200.000	0.005	0.086
-722.850	-24.449	0.038	-0.023
-721.835	800.000	-0.016	0.045
-720.821	-200.000	0.030	0.183
-719.806	-200.000	-0.053	-0.272
-718.791	-184.673	0.453	-0.007
-717.777	514.331	-0.112	-0.264
-716.762	-19.166	0.232	-0.145
-715.748	-60.454	0.258	0.111
-714.733	-94.402	-0.106	-0.029
-713.718	-85.275	-0.180	-0.057
-712.704	255.163	-0.068	-0.118
-711.689	-200.000	-0.072	-0.326
-710.675	115.521	0.159	-0.196
-709.660	800.000	0.097	-0.271
-708.645	-151.279	0.058	0.004
-707.631	-200.000	-0.017	-0.273
-706.616	-200.000	-0.068	-0.343
-705.602	800.000	0.110	-0.379
-704.587	-102.002	0.194	-0.047
-703.572	-97.384	-0.250	0.066
-702.558	800.000	-0.065	0.186
-701.543	800.000	0.095	0.303
-700.529	-126.277	-0.072	0.011
-699.514	145.904	0.130	0.175
-698.499	-146.583	0.103	-0.009
-697.485	-105.286	-0.210	-0.048
-696.470	-14.160	0.206	-0.134
-695.456	358.315	-0.141	-0.283
-694.441	21.017	-0.109	0.089
-693.426	-34.589	0.090	-0.049
-692.412	-5.905	0.102	0.070
-691.397	-200.000	0.011	-0.068
-690.383	-73.187	-0.183	-0.068
-689.368	263.612	-0.102	-0.178
-688.354	-200.000	0.002	-0.177
-687.339	191.656	0.053	-0.081
-686.324	-164.985	-0.177	-0.008
-685.310	-200.000	-0.007	-0.217
-684.295	87.181	0.156	-0.173
-683.281	-102.431	-0.378	0.091
-682.266	152.184	0.299	0.411
-681.251	-181.482	0.274	-0.005
-680.237	-200.000	0.094	-0.439
-679.222	29.059	0.242	-0.206
-678.208	-200.000	0.038	0.358
-677.193	-17.901	-0.250	0.158
-676.178	237.136	0.128	0.214
-675.164	-86.877	0.293	0.090
-674.149	-200.000	0.012	0.075
-673.135	-102.924	0.245	0.059
-672.120	-27.564	-0.239	-0.140
-671.105	100.922	0.194	-0.227
-670.091	111.303	-0.165	0.201
-669.076	-77.369	-0.031	0.011
-668.062	-64.358	0.187	-0.077
-667.047	236.562	0.190	-0.317
-666.032	83.927	-0.024	0.026
-665.018	-200.000	-0.021	-0.207
-664.003	472.250	-0.061	-0.138
-662.989	-200.000	0.062	0.359
-661.974	174.009	0.201	-0.292
-660.959	59.300	-0.223	0.221
-659.945	455.444	-0.042	-0.094
-658.930	498.035	0.141	-0.327
-657.916	-91.357	-0.153	0.044
-656.901	142.715	0.089	0.119
-655.886	608.221	0.052	0.131
-654.872	62.695	0.154	0.155
-653.857	641.285	-0.039	0.099
-652.843	159.914	0.111	-0.156
-651.828	67.074	-0.151	0.155
-650.814	114.556	-0.304	-0.373
-649.799	800.000	0.102	-0.318
-648.784	-102.078	0.336	-0.081
-647.770	-200.000	0.007	0.298
-646.755	-95.111	0.320	-0.087
-645.741	-63.418	-0.506	-0.209
-644.726	-200.000	-0.003	0.064
-643.711	-200.000	0.000	0.052
-642.697	800.000	-0.062	-0.228
-641.682	35.254	0.296	0.261
-640.668	46.878	0.088	0.082
-639.653	-141.071	0.272	-0.028
-638.638	-63.486	0.450	0.186
-637.624	-17.243	-0.203	0.129
-636.609	326.920	0.072	-0.138
-635.595	121.065	-0.152	-0.191
-634.580	390.842	0.158	0.329
-633.565	342.118	-0.146	0.288
-632.551	-200.000	-0.002	-0.355
-631.536	-12.131	-0.291	-0.191
-630.522	-156.038	-0.087	-0.006
-629.507	-76.902	-0.096	0.034
-628.492	-98.876	0.538	-0.138
-627.478	-200.000	-0.030	-0.253
-626.463	800.000	0.015	0.058
-625.449	-24.295	-0.178	0.107
-624.434	800.000	-0.057	-0.188
-623.419	17.231	-0.109	-0.087
-622.405	-52.414	-0.200	-0.093
-621.390	-200.000	0.061	-0.332
-620.376	-134.288	0.051	0.006
-619.361	-69.666	-0.160	0.062
-618.346	64.237	-0.098	-0.100
-617.332	-84.722	-0.181	-0.057
-616.317	62.374	0.187	-0.188
-615.303	-66.960	-0.115	0.046
-614.288	-151.635	-0.153	0.011
-613.273	216.339	-0.055	0.088
-612.259	-200.000	-0.008	0.113
-611.244	800.000	0.071	0.198
-610.230	88.472	0.045	-0.050
-609.215	522.649	-0.055	0.129
-608.201	695.888	-0.062	-0.163
-607.186	-200.000	0.045	-0.297
-606.171	11.490	0.331	0.255
-605.157	-77.837	-0.197	-0.068
-604.142	13.227	-0.101	-0.079
-603.128	751.678	-0.119	-0.323
-602.113	-73.940	0.092	-0.033
-601.098	-79.625	-0.079	-0.027
-600.084	62.093	0.117	-0.117
-599.069	132.307	0.135	-0.175
-598.055	-200.000	0.025	0.252
-597.040	704.504	-0.041	-0.109
-596.025	-129.324	0.150	-0.021
-595.011	-83.008	-0.203	0.066
-593.996	-36.664	0.058	0.031
-592.982	-42.407	0.091	0.047
-591.967	-72.865	0.122	-0.045
-590.952	101.366	0.113	-0.132
-589.938	186.341	-0.098	-0.146
-588.923	-100.718	-0.252	0.062
-587.909	-79.875	0.141	0.048
-586.894	-50.687	0.147	0.069
-585.879	-19.075	0.153	-0.095
-584.865	229.792	-0.145	-0.238
-583.850	-11.155	0.395	0.261
-582.836	-50.765	0.094	-0.044
-581.821	800.000	-0.040	0.144
-580.806	8.739	0.134	-0.101
-579.792	-3.747	-0.336	-0.234
-578.777	22.108	-0.262	-0.214
-577.763	-127.619	-0.373	-0.054
-576.748	-123.725	-0.216	-0.034
-575.733	800.000	0.121	-0.381
-574.719	-159.539	0.180	-0.010
-573.704	-29.536	-0.332	-0.191
-572.690	-78.600	-0.370	0.127
-571.675	85.619	0.105	0.116
-570.661	99.755	-0.168	-0.195
-569.646	-55.388	-0.233	-0.105
-568.631	-124.553	-0.033	0.005
-567.617	-200.000	-0.056	0.336
-566.602	9.634	0.296	-0.225
-565.588	301.194	-0.139	-0.258
-564.573	33.767	0.070	-0.061
-563.558	-200.000	0.040	0.243
-562.544	784.827	0.063	0.174
-561.529	800.000	-0.116	0.325
-560.515	-200.000	-0.004	0.020
-559.500	52.599	-0.336	0.322
-558.485	-200.000	0.021	-0.128
-557.471	21.799	0.109	0.089
-556.456	9.300	0.102	-0.077
-555.442	61.286	-0.151	0.151
-554.427	29.296	0.087	0.074
-553.412	-133.419	0.177	-0.022
-552.398	241.099	-0.130	0.217
-551.383	-84.783	0.137	0.043
-550.369	800.000	0.012	-0.037
-549.354	347.478	-0.152	0.300
-548.339	-153.241	0.243	-0.017
-547.325	-128.465	-0.461	-0.066
-546.310	424.069	-0.175	-0.376
-545.296	88.133	0.087	0.097
-544.281	-11.338	-0.062	0.041
-543.266	-92.637	-0.310	0.087
-542.252	800.000	-0.039	-0.114
-541.237	-21.369	0.158	-0.097
-540.223	-27.030	0.250	-0.146
-539.208	47.673	-0.092	-0.086
-538.193	22.186	-0.175	0.143
-537.179	-153.655	0.202	0.014
-536.164	168.904	0.039	-0.056
-535.150	54.800	0.097	-0.094
-534.135	-135.072	0.050	-0.006
-533.121	800.000	-0.047	0.135
-532.106	-21.243	0.366	0.224
-531.091	196.053	-0.170	-0.259
-530.077	-165.338	-0.215	0.009
-529.062	7.971	0.265	0.199
-528.048	800.000	0.054	0.155
-527.033	-200.000	-0.039	0.218
-526.018	-75.576	-0.214	0.076
-525.004	-134.358	0.261	0.032
-523.989	465.084	0.030	0.067
-522.975	-112.267	0.455	0.091
-521.960	46.031	-0.091	0.085
-520.945	367.657	0.204	0.412
-519.931	-73.285	0.252	0.092
-518.916	77.644	0.212	-0.226
-517.902	-42.481	-0.243	0.124
-516.887	-149.962	0.177	-0.014
-515.872	4.365	0.060	0.044
-514.858	3.755	-0.055	0.040
-513.843	-127.513	-0.316	0.046
-512.829	267.160	-0.111	-0.194
-511.814	-0.248	0.303	0.216
-510.799	-158.427	0.265	0.015
-509.785	800.000	-0.020	-0.076
-508.770	-3.767	-0.138	0.096
-507.756	-200.000	0.017	-0.087
-506.741	-26.810	0.350	-0.205
-505.726	-100.540	-0.264	-0.065
-504.712	287.972	-0.065	-0.118
-503.697	-200.000	-0.010	0.251
-502.683	204.754	-0.047	-0.073
-501.668	800.000	0.026	0.076
-500.653	-25.642	-0.495	0.292
-499.639	88.240	0.269	0.298
-498.624	207.994	0.201	0.313
-497.610	-190.400	0.292	-0.003
-496.595	800.000	-0.144	-0.399
-495.581	-14.833	-0.137	-0.088
-494.566	17.543	0.028	0.022
-493.551	-94.519	0.030	0.008
-492.537	-136.000	-0.126	0.015
-491.522	800.000	0.080	0.317
-490.508	60.773	-0.057	-0.056
-489.493	-200.000	-0.053	-0.271
-488.478	282.857	-0.115	-0.206
-487.464	419.049	0.046	-0.098
-486.449	-93.619	0.113	0.031
-485.435	94.373	-0.164	0.187
-484.420	40.422	-0.119	-0.107
-483.405	-4.871	0.191	-0.132
-482.391	-12.660	0.258	-0.168
-481.376	800.000	-0.023	-0.093
-480.362	800.000	0.084	-0.304
-479.347	250.392	-0.190	0.322
-478.332	-200.000	0.044	-0.272
-477.318	-43.972	0.186	0.093
-476.303	147.196	-0.097	-0.130
-475.289	157.361	0.062	0.085
-474.274	56.472	-0.227	-0.220
-473.259	233.019	-0.042	-0.068
-472.245	-81.446	-0.378	0.124
-471.230	-195.301	0.148	-0.001
-470.216	188.375	-0.040	-0.060
-469.201	428.941	-0.132	0.285
-468.186	800.000	-0.111	0.362
-467.172	313.717	-0.214	-0.401
-466.157	-6.782	-0.272	0.185
-465.143	154.853	-0.131	0.180
-464.128	800.000	-0.135	0.432
-463.113	0.534	-0.231	0.165
-462.099	72.829	-0.363	-0.379
-461.084	277.040	0.110	-0.195
-460.070	224.847	0.121	0.196
-459.055	49.704	0.195	-0.184
-458.040	-167.022	0.132	-0.005
-457.026	-80.114	-0.186	0.062
-456.011	256.098	-0.156	-0.268
-454.997	-61.497	0.318	0.134
-453.982	800.000	-0.065	-0.210
-452.968	-200.000	-0.015	-0.141
-451.953	-200.000	-0.040	0.193
-450.938	-38.598	-0.125	-0.066
-449.924	-127.923	-0.218	0.031
-448.909	-23.623	0.202	0.121
-447.895	-87.495	0.247	0.075
-446.880	-92.175	-0.210	-0.059
-445.865	800.000	-0.044	0.137
-444.851	-44.249	0.327	-0.164
-443.836	800.000	0.028	-0.100
-442.822	-172.467	0.237	-0.007
-441.807	0.359	-0.122	-0.087
-440.792	40.185	-0.120	0.108
-439.778	-135.467	0.188	0.022
-438.763	-48.906	-0.368	-0.176
-437.749	-32.787	-0.208	0.116
-436.734	-7.673	-0.312	0.210
-435.719	324.292	-0.074	-0.140
-434.705	0.696	-0.309	-0.221
-433.690	91.007	-0.271	0.303
-432.676	-200.000	-0.001	-0.217
-431.661	-152.468	-0.373	0.027
-430.646	-200.000	-0.019	0.132
-429.632	489.466	0.030	0.068
-428.617	-86.015	-0.247	-0.076
-427.603	-78.353	0.083	0.028
-426.588	33.594	-0.164	0.142
-425.573	-200.000	-0.048	0.235
-424.559	96.861	0.016	-0.018
-423.544	800.000	0.070	-0.291
-422.530	7.245	-0.315	-0.235
-421.515	27.174	0.095	-0.079
-420.500	106.930	0.065	0.077
-419.486	228.510	-0.098	0.160
-418.471	-200.000	0.047	0.340
-417.457	316.403	0.180	0.338
-416.442	-200.000	-0.026	0.195
-415.428	-200.000	-0.061	-0.616
-414.413	-200.000	0.043	-0.293
-413.398	-110.790	0.112	0.023
-412.384	133.282	-0.116	-0.149
-411.369	48.045	-0.246	-0.229
-410.355	-67.649	0.077	0.030
-409.340	88.433	-0.078	0.086
-408.325	-165.024	-0.259	-0.012
-407.311	85.012	-0.110	-0.120
-406.296	-4.823	0.170	-0.117
-405.282	-10.214	0.063	0.041
-404.267	19.498	-0.334	-0.268
-403.252	53.765	-0.060	-0.057
-402.238	-110.097	0.274	-0.057
-401.223	-135.967	0.117	0.014
-400.209	18.898	-0.175	-0.139
-399.194	-73.506	0.127	0.046
-398.179	-200.000	-0.016	0.169
-397.165	160.673	0.186	0.258
-396.150	-123.587	-0.076	-0.012
-395.136	-200.000	0.023	0.295
-394.121	114.202	-0.115	-0.139
-393.106	-109.493	-0.241	0.051
-392.092	4.077	0.236	0.172
-391.077	-66.328	-0.122	-0.048
-390.063	-20.684	0.392	0.240
-389.048	-142.306	-0.120	-0.012
-388.033	73.088	0.150	-0.156
-387.019	-200.000	0.063	-0.338
-386.004	-200.000	0.060	0.293
-384.990	487.414	0.101	-0.229
-383.975	442.684	0.147	-0.322
-382.960	85.977	-0.212	-0.233
-381.946	800.000	-0.049	-0.162
-380.931	-56.233	0.201	0.089
-379.917	137.561	0.382	-0.498
-378.902	-59.735	-0.264	0.113
-377.888	9.935	0.084	-0.064
-376.873	171.222	0.116	-0.166
-375.858	117.320	-0.087	-0.107
-374.844	51.473	0.057	-0.054
-373.829	-200.000	0.015	-0.160
-372.815	-23.104	-0.269	0.162
-371.800	-143.842	0.331	0.031
-370.785	800.000	-0.017	-0.056
-369.771	-46.446	0.080	-0.039
-368.756	60.794	-0.067	0.066
-367.742	330.918	-0.135	-0.258
-366.727	162.903	0.024	-0.033
-365.712	-7.119	-0.223	-0.151
-364.698	75.305	0.171	-0.180
-363.683	-147.772	0.161	0.013
-362.669	-117.269	-0.195	-0.035
-361.654	58.359	-0.050	0.049
-360.639	-18.767	0.104	-0.064
-359.625	2.694	0.085	-0.061
-358.610	-200.000	-0.007	-0.040
-357.596	-70.770	-0.341	-0.128
-356.581	-120.455	0.154	0.026
-355.566	277.936	-0.163	-0.288
-354.552	420.210	0.134	-0.286
-353.537	91.252	-0.058	-0.065
-352.523	-120.485	-0.283	-0.048
-351.508	800.000	-0.021	0.094
-350.493	414.435	-0.136	0.288
-349.479	130.884	0.135	-0.172
-348.464	117.646	-0.178	0.218
-347.450	202.288	-0.061	0.093
-346.435	800.000	-0.030	-0.100
-345.420	83.308	0.099	-0.107
-344.406	248.274	-0.074	0.124
-343.391	-200.000	-0.040	-0.213
-342.377	439.695	0.135	0.294
-341.362	551.150	-0.141	0.336
-340.348	-100.699	0.149	0.036
-339.333	800.000	0.050	-0.161
-338.318	39.138	0.163	0.145
-337.304	-109.013	-0.328	-0.069
-336.289	-95.677	0.157	-0.042
-335.275	-68.150	0.321	0.124
-334.260	-52.162	0.134	-0.062
-333.245	-200.000	0.028	0.203
-332.231	10.061	0.393	-0.297
-331.216	-85.488	0.388	-0.120
-330.202	8.788	-0.123	0.092
-329.187	8.062	0.387	0.288
-328.172	204.738	-0.049	0.076
-327.158	-110.677	0.107	-0.022
-326.143	40.921	-0.117	-0.105
-325.129	-14.951	0.242	-0.154
-324.114	88.610	-0.176	-0.195
-323.099	-104.734	-0.404	-0.092
-322.085	693.274	0.065	0.170
-321.070	96.503	0.318	0.362
-320.056	77.498	0.185	-0.196
-319.041	205.240	0.074	-0.114
-318.026	124.283	0.116	0.145
-317.012	-200.000	-0.045	0.320
-315.997	-200.000	0.016	0.149
-314.983	97.867	0.058	-0.066
-313.968	800.000	0.126	-0.459
-312.953	127.683	-0.155	-0.196
-311.939	-158.137	-0.048	0.003
-310.924	-149.255	-0.466	0.037
-309.910	-154.927	0.205	-0.013
-308.895	-185.407	-0.083	0.001
-307.880	52.870	-0.110	-0.104
-306.866	800.000	-0.037	0.108
-305.851	-48.443	-0.151	-0.072
-304.837	276.233	0.081	0.143
-303.822	-26.549	0.122	0.071
-302.807	-7.108	-0.183	0.123
-301.793	231.634	0.132	-0.215
-300.778	-140.839	-0.339	0.035
-299.764	679.175	-0.134	-0.345
-298.749	-200.000	0.014	-0.375
-297.735	153.901	0.069	0.094
-296.720	-49.163	-0.124	-0.059
-295.705	622.478	-0.114	-0.285
-294.691	-96.121	-0.271	-0.071
-293.676	-69.707	-0.268	0.102
-292.662	-59.712	-0.088	0.037
-291.647	-200.000	0.004	-0.218
-290.632	800.000	0.034	0.123
-289.618	-10.590	-0.012	-0.008
-288.603	158.800	0.160	-0.221
-287.589	777.537	0.021	-0.058
-286.574	268.759	0.066	0.114
-285.559	12.495	-0.025	-0.020
-284.545	68.313	0.113	0.115
-283.530	800.000	0.046	0.127
-282.516	-82.241	0.185	0.060
-281.501	152.615	0.173	0.235
-280.486	-54.897	0.256	0.115
-279.472	-41.662	0.175	0.089
-278.457	-160.692	-0.117	0.006
-277.443	-183.576	0.258	0.004
-276.428	-200.000	0.095	0.539
-275.413	87.544	0.022	0.024
-274.399	-67.980	0.545	0.211
-273.384	67.209	-0.200	-0.202
-272.370	23.733	0.123	-0.100
-271.355	-113.055	0.238	0.047
-270.340	-200.000	-0.063	0.282
-269.326	-103.059	-0.110	0.026
-268.311	-200.000	0.002	-0.058
-267.297	-60.088	-0.206	0.087
-266.282	117.909	-0.261	-0.318
-265.267	800.000	-0.057	-0.191
-264.253	-134.736	0.405	-0.049
-263.238	-137.258	0.177	-0.020
-262.224	800.000	0.082	0.233
-261.209	-132.283	0.093	0.012
-260.195	338.505	0.125	0.242
-259.180	-200.000	0.009	0.188
-258.165	70.939	-0.202	0.207
-257.151	-200.000	0.017	0.183
-256.136	65.002	0.317	0.317
-255.122	-200.000	0.072	0.363
-254.107	242.308	-0.018	-0.029
-253.092	50.498	-0.148	0.139
-252.078	-200.000	0.021	-0.161
-251.063	106.504	-0.067	-0.079
-250.049	-200.000	0.093	0.442
-249.034	-37.192	-0.139	-0.074
-248.019	97.015	0.145	0.164
-247.005	800.000	-0.130	0.400
-245.990	106.933	0.246	0.289
-244.976	-79.013	-0.135	-0.045
-243.961	149.427	-0.104	0.139
-242.946	-3.908	-0.172	0.118
-241.932	142.471	0.269	0.353
-240.917	29.284	-0.165	0.139
-239.903	60.913	0.131	0.129
-238.888	-21.733	-0.083	-0.050
-237.873	-55.935	-0.132	0.058
-236.859	-14.832	-0.065	-0.041
-235.844	607.627	0.015	-0.038
-234.830	181.406	-0.231	-0.336
-233.815	800.000	-0.050	-0.169
-232.800	-200.000	0.028	0.359
-231.786	800.000	-0.094	0.286
-230.771	250.328	0.077	0.129
-229.757	-119.498	0.317	-0.054
-228.742	-200.000	0.012	0.133
-227.727	-62.101	0.166	-0.069
-226.713	-79.508	-0.164	0.055
-225.698	32.644	0.069	0.059
-224.684	-200.000	-0.022	0.174
-223.669	11.446	-0.084	-0.064
-222.655	-200.000	0.013	0.094
-221.640	-200.000	-0.020	0.138
-220.625	104.092	0.178	0.207
-219.611	-165.267	0.257	0.011
-218.596	31.749	-0.227	-0.193
-217.582	800.000	-0.031	-0.108
-216.567	-45.575	-0.241	0.118
-215.552	-200.000	-0.025	-0.156
-214.538	711.183	-0.046	-0.121
-213.523	-200.000	0.038	-0.279
-212.509	-20.103	0.275	-0.168
-211.494	-75.258	0.113	-0.040
-210.479	-14.090	0.074	-0.047
-209.465	-31.859	-0.102	-0.056
-208.450	488.613	-0.040	0.090
-207.436	800.000	0.047	-0.152
-206.421	-27.910	0.103	0.059
-205.406	229.925	-0.047	0.077
-204.392	-167.677	-0.069	-0.003
-203.377	614.150	0.132	0.327
-202.363	-200.000	-0.000	0.072
-201.348	-40.449	-0.255	0.131
-200.333	-92.184	-0.240	0.067
-199.319	40.805	-0.122	-0.109
-198.304	-200.000	-0.026	-0.238
-197.290	-141.249	-0.278	0.028
-196.275	273.546	-0.045	0.078
-195.260	-165.428	0.249	-0.011
-194.246	-200.000	0.068	-0.597
-193.231	-200.000	0.013	-0.069
-192.217	293.735	-0.009	-0.017
-191.202	-200.000	-0.010	0.201
-190.187	87.496	-0.233	0.255
-189.173	427.724	0.059	0.126
-188.158	-200.000	0.058	0.317
-187.144	94.908	-0.229	-0.258
-186.129	-75.795	0.183	-0.064
-185.114	-182.199	0.172	-0.003
-184.100	-200.000	0.035	-0.181
-183.085	-31.705	-0.370	0.205
-182.071	-200.000	-0.042	0.362
-181.056	23.289	-0.032	-0.026
-180.042	13.586	0.153	-0.118
-179.027	-107.361	0.252	-0.055
-178.012	-28.864	-0.169	-0.096
-176.998	-110.705	-0.355	-0.072
-175.983	-12.516	-0.240	-0.154
-174.969	-7.536	0.202	-0.135
-173.954	672.598	-0.088	0.226
-172.939	233.701	0.139	-0.226
-171.925	-64.387	0.176	0.071
-170.910	-121.227	0.015	0.002
-169.896	-77.064	0.155	-0.054
-168.881	-57.931	0.307	0.132
-167.866	-68.749	-0.197	0.075
-166.852	-56.762	-0.286	0.125
-165.837	-96.323	-0.106	-0.028
-164.823	-92.482	-0.045	0.013
-163.808	145.911	0.092	0.122
-162.793	-200.000	0.047	0.221
-161.779	-47.155	0.256	-0.123
-160.764	-26.644	0.266	0.154
-159.750	353.396	0.018	0.035
-158.735	-200.000	-0.056	-0.249
-157.720	-133.558	0.509	0.063
-156.706	27.449	0.178	-0.148
-155.691	-51.777	-0.220	-0.101
-154.677	800.000	-0.038	-0.158
-153.662	-39.622	0.318	-0.164
-152.647	-65.091	0.099	-0.040
-151.633	-76.900	0.380	0.131
-150.618	98.972	-0.118	-0.134
-149.604	8.632	0.249	0.185
-148.589	-51.207	-0.292	-0.135
-147.574	-70.352	0.335	-0.126
-146.560	-200.000	-0.011	0.128
-145.545	-55.304	0.222	-0.099
-144.531	419.406	0.029	0.062
-143.516	95.661	-0.139	-0.157
-142.502	-96.797	0.390	-0.101
-141.487	-182.754	0.455	0.008
-140.472	-88.290	-0.050	-0.015
-139.458	-200.000	0.057	-0.268
-138.443	-200.000	0.018	0.243
-137.429	232.324	-0.141	0.229
-136.414	-47.620	-0.194	-0.093
-135.399	-138.992	0.330	-0.035
-134.385	-87.447	-0.130	0.039
-133.370	291.698	-0.145	-0.259
-132.356	9.971	0.182	0.137
-131.341	-200.000	0.000	-0.211
-130.326	-170.579	-0.501	0.017
-129.312	532.711	-0.078	-0.182
-128.297	-75.898	0.235	0.082
-127.283	-127.789	-0.351	-0.050
-126.268	-123.197	-0.213	-0.034
-125.253	-118.395	-0.118	-0.021
-124.239	-74.494	0.161	-0.057
-123.224	-96.439	0.560	-0.146
-122.210	-47.271	0.194	-0.093
-121.195	-107.432	0.116	-0.025
