DTS Sentinel unit serial number:	SN413079Multiplexer serial number:	ORYXHardware model number:	OX4-SRSoftware version number:	ORYX F/W v4.00 Oryx Data Collector v3.7.2.0data status	okinstallation	princeton_trtdifferential loss correction	single-endedforward channel	channel 1reverse channel	N/Adate	2019/09/11time	01:28:12forward acquisition time	60.00reverse acquisition time	0.00gamma	496.2192k internal	0.2331k external	0.2331temperature offset calibration	0.9930default loss term (dB/km)	0.3790temperature slope calibration	1.0000multiplexer offset coefficient	1.0000multiplexer slope coefficient	1.0000fibre end	0.00T internal ref (°C)	29.12T ext. ref 1 (°C)	-0.29T ext. ref 2 (°C)	23.51length (m)	temperature (°C)	Stokes	anti-Stokes-747.200	-59.756	0.278	-0.120
-746.185	201.578	-0.072	0.112
-745.171	53.241	-0.198	0.190
-744.156	-154.918	-0.258	-0.017
-743.142	259.307	0.123	-0.213
-742.127	-124.735	-0.423	-0.066
-741.112	118.811	-0.218	0.271
-740.098	-200.000	-0.075	-0.000
-739.083	-124.045	0.275	0.043
-738.069	113.651	0.283	0.346
-737.054	-129.381	0.028	0.004
-736.039	-200.000	0.013	0.133
-735.025	-200.000	-0.018	0.190
-734.010	-105.397	-0.313	-0.072
-732.996	83.113	0.244	-0.267
-731.981	-159.910	-0.189	0.010
-730.966	-200.000	-0.030	-0.303
-729.952	104.581	-0.098	-0.117
-728.937	232.232	-0.162	0.268
-727.923	-55.359	-0.289	0.130
-726.908	-45.148	0.094	-0.047
-725.894	241.700	0.115	-0.194
-724.879	70.102	-0.148	-0.154
-723.864	-73.646	0.044	0.016
-722.850	339.671	0.050	-0.097
-721.835	800.000	0.056	-0.215
-720.821	60.828	0.056	0.056
-719.806	-133.230	0.120	-0.015
-718.791	-116.694	-0.163	-0.030
-717.777	-12.379	0.131	-0.086
-716.762	-57.863	-0.349	-0.153
-715.748	-118.779	0.414	0.073
-714.733	-154.782	0.371	-0.025
-713.718	800.000	0.081	0.264
-712.704	416.708	-0.066	0.141
-711.689	-24.003	-0.259	0.156
-710.675	133.739	-0.151	0.196
-709.660	-200.000	-0.012	-0.077
-708.645	-200.000	-0.005	-0.424
-707.631	159.920	0.062	-0.087
-706.616	-27.317	0.311	0.182
-705.602	181.857	-0.173	-0.256
-704.587	455.553	-0.131	0.291
-703.572	146.726	-0.210	0.283
-702.558	62.338	-0.147	-0.147
-701.543	-132.140	-0.256	0.033
-700.529	53.049	0.159	0.153
-699.514	-200.000	0.015	-0.215
-698.499	-77.941	-0.082	-0.028
-697.485	91.264	-0.085	-0.096
-696.470	-17.615	0.145	0.092
-695.456	-200.000	-0.022	0.151
-694.441	26.896	0.169	-0.142
-693.426	16.544	-0.036	0.028
-692.412	-79.089	0.109	-0.037
-691.397	200.912	-0.137	0.212
-690.383	-10.096	-0.047	-0.031
-689.368	-87.804	0.025	0.008
-688.354	543.544	0.089	-0.213
-687.339	139.504	0.156	0.206
-686.324	-45.942	-0.074	-0.036
-685.310	-33.310	-0.042	-0.023
-684.295	-200.000	0.024	-0.228
-683.281	530.989	0.103	0.245
-682.266	64.632	-0.108	-0.110
-681.251	421.618	-0.090	-0.193
-680.237	-42.437	-0.298	0.152
-679.222	207.632	0.093	-0.146
-678.208	-85.693	-0.119	0.037
-677.193	800.000	-0.086	0.293
-676.178	-2.637	-0.265	-0.186
-675.164	133.370	0.212	-0.276
-674.149	352.684	0.133	0.264
-673.135	-16.627	-0.413	-0.262
-672.120	44.240	0.163	0.151
-671.105	-130.779	0.175	-0.024
-670.091	-70.982	-0.240	0.091
-669.076	-170.517	0.055	-0.002
-668.062	800.000	0.079	-0.330
-667.047	800.000	-0.096	-0.325
-666.032	-200.000	-0.013	-0.234
-665.018	-19.053	0.188	0.117
-664.003	273.803	0.087	0.155
-662.989	5.187	-0.058	0.043
-661.974	58.903	0.077	0.076
-660.959	-30.393	0.280	-0.159
-659.945	-200.000	-0.028	-0.148
-658.930	101.856	0.145	-0.170
-657.916	800.000	-0.060	0.211
-656.901	-83.185	0.294	0.095
-655.886	-100.539	-0.384	-0.095
-654.872	203.115	-0.046	-0.072
-653.857	36.946	0.175	0.155
-652.843	-150.532	-0.381	0.029
-651.828	-103.830	-0.274	0.064
-650.814	800.000	0.084	-0.303
-649.799	-86.203	0.203	-0.063
-648.784	-181.437	-0.431	-0.008
-647.770	87.885	-0.195	-0.216
-646.755	142.041	0.126	-0.167
-645.741	-200.000	-0.041	-0.381
-644.726	4.620	0.216	0.159
-643.711	148.847	0.189	0.257
-642.697	-115.061	-0.261	0.050
-641.682	-39.400	0.199	-0.105
-640.668	-154.397	0.126	0.008
-639.653	-149.971	-0.102	0.008
-638.638	-149.487	0.237	0.019
-637.624	800.000	-0.055	-0.173
-636.609	632.345	-0.079	0.200
-635.595	276.375	0.084	0.149
-634.580	260.565	0.095	-0.165
-633.565	-132.240	-0.296	0.038
-632.551	263.819	-0.106	0.185
-631.536	-127.457	-0.251	-0.037
-630.522	-68.882	0.228	-0.088
-629.507	90.573	0.237	-0.266
-628.492	800.000	0.049	-0.168
-627.478	-48.959	-0.043	-0.021
-626.463	-53.029	-0.354	-0.163
-625.449	33.502	0.253	0.220
-624.434	466.862	0.021	0.046
-623.419	-200.000	0.013	-0.130
-622.405	-200.000	0.003	-0.356
-621.390	263.812	0.130	-0.226
-620.376	-35.536	-0.339	-0.184
-619.361	800.000	0.034	0.108
-618.346	75.605	0.105	-0.111
-617.332	800.000	0.034	0.140
-616.317	-200.000	-0.001	-0.288
-615.303	-111.133	-0.179	0.037
-614.288	-75.893	-0.216	-0.076
-613.273	-50.232	-0.172	0.081
-612.259	317.572	-0.067	0.128
-611.244	-34.159	0.234	-0.129
-610.230	262.416	-0.170	0.295
-609.215	-0.257	0.277	0.197
-608.201	-50.627	0.292	-0.138
-607.186	-200.000	-0.016	0.087
-606.171	29.109	0.036	-0.030
-605.157	-200.000	0.019	-0.273
-604.142	-161.986	-0.150	-0.008
-603.128	75.283	0.128	0.135
-602.113	392.416	-0.105	-0.218
-601.098	-200.000	-0.009	0.177
-600.084	-2.131	-0.115	-0.081
-599.069	-200.000	0.035	0.203
-598.055	-151.904	0.211	-0.015
-597.040	-75.009	0.117	-0.042
-596.025	19.895	-0.145	-0.117
-595.011	18.213	-0.025	-0.020
-593.996	-68.788	0.096	0.037
-592.982	71.059	0.080	0.083
-591.967	303.762	-0.171	-0.317
-590.952	-60.988	0.199	-0.084
-589.938	-44.899	-0.325	0.162
-588.923	-21.148	-0.142	0.087
-587.909	97.720	-0.098	0.113
-586.894	-53.120	0.068	-0.031
-585.879	-200.000	-0.009	0.241
-584.865	-200.000	-0.048	-0.224
-583.850	-11.837	0.174	0.114
-582.836	-142.617	0.212	0.021
-581.821	94.521	0.213	-0.242
-580.806	-38.920	0.190	0.100
-579.792	621.080	0.056	0.142
-578.777	-52.806	0.437	0.201
-577.763	-113.517	0.174	-0.034
-576.748	580.565	-0.050	-0.122
-575.733	-68.228	0.201	-0.078
-574.719	-200.000	0.010	-0.069
-573.704	32.567	-0.159	-0.138
-572.690	622.966	0.113	-0.284
-571.675	-95.721	0.439	-0.117
-570.661	664.607	0.192	-0.496
-569.646	163.660	0.226	-0.318
-568.631	264.532	-0.062	0.108
-567.617	396.098	-0.142	-0.297
-566.602	-200.000	0.233	-0.000
-565.588	-200.000	-0.026	-0.126
-564.573	700.535	0.070	0.183
-563.558	264.373	-0.058	0.100
-562.544	315.223	0.092	0.173
-561.529	-200.000	-0.011	-0.059
-560.515	68.001	-0.193	-0.198
-559.500	124.866	0.118	0.148
-558.485	57.067	-0.328	-0.319
-557.471	-118.253	-0.046	-0.008
-556.456	800.000	0.045	-0.125
-555.442	-89.070	0.241	0.071
-554.427	800.000	0.049	-0.137
-553.412	-23.344	0.127	-0.076
-552.398	-200.000	-0.021	0.109
-551.383	-200.000	-0.007	0.037
-550.369	24.794	0.106	-0.088
-549.354	-31.687	-0.072	0.040
-548.339	800.000	0.093	0.321
-547.325	-8.153	0.245	0.165
-546.310	195.164	0.109	-0.165
-545.296	75.584	-0.069	-0.073
-544.281	-200.000	0.003	0.190
-543.266	337.309	-0.183	-0.356
-542.252	-200.000	0.046	-0.220
-541.237	-72.821	-0.124	-0.046
-540.223	24.027	-0.191	-0.157
-539.208	-200.000	-0.037	0.179
-538.193	-200.000	-0.016	-0.071
-537.179	-97.088	-0.302	-0.079
-536.164	13.878	-0.081	0.063
-535.150	800.000	0.086	0.302
-534.135	-16.054	0.285	-0.181
-533.121	-105.077	-0.243	-0.055
-532.106	-200.000	-0.046	-0.203
-531.091	-38.903	0.119	0.063
-530.077	-100.090	0.270	0.067
-529.062	-200.000	0.016	0.432
-528.048	-23.257	-0.258	0.155
-527.033	-200.000	-0.048	0.216
-526.018	-200.000	-0.091	0.511
-525.004	394.762	-0.069	-0.143
-523.989	22.252	-0.255	-0.208
-522.975	-200.000	-0.023	-0.217
-521.960	800.000	-0.081	0.257
-520.945	433.490	-0.142	0.308
-519.931	65.342	0.270	-0.273
-518.916	-80.351	0.306	-0.102
-517.902	800.000	-0.066	0.263
-516.887	47.315	0.043	-0.040
-515.872	-29.360	0.015	0.009
-514.858	-84.461	-0.375	-0.118
-513.843	601.482	-0.124	-0.307
-512.829	44.714	0.196	-0.180
-511.814	-31.083	-0.104	0.059
-510.799	72.736	0.057	-0.059
-509.785	155.648	-0.048	0.066
-508.770	-122.108	0.607	0.099
-507.756	77.926	-0.149	-0.158
-506.741	-200.000	-0.015	0.140
-505.726	231.177	0.133	-0.217
-504.712	-200.000	-0.034	0.248
-503.697	-200.000	0.014	0.323
-502.683	-200.000	0.005	0.269
-501.668	-200.000	-0.026	-0.154
-500.653	67.546	-0.086	0.087
-499.639	800.000	-0.077	0.296
-498.624	-200.000	-0.010	0.203
-497.610	40.726	-0.187	0.168
-496.595	182.143	0.267	0.393
-495.581	528.052	0.019	-0.046
-494.566	26.071	0.252	-0.209
-493.551	-126.647	0.430	-0.063
-492.537	282.124	-0.099	0.177
-491.522	800.000	-0.011	-0.034
-490.508	800.000	0.151	0.445
-489.493	-110.009	-0.215	-0.045
-488.478	-200.000	0.012	0.398
-487.464	-14.212	0.219	-0.141
-486.449	-200.000	-0.059	0.368
-485.435	-164.021	-0.159	0.007
-484.420	-53.671	0.203	0.092
-483.405	-112.387	0.061	0.012
-482.391	-200.000	0.024	0.205
-481.376	-15.057	-0.251	0.160
-480.362	800.000	0.034	0.104
-479.347	-51.669	0.303	-0.141
-478.332	362.947	0.088	-0.177
-477.318	-8.162	-0.219	0.147
-476.303	69.335	0.232	-0.237
-475.289	597.923	-0.044	-0.109
-474.274	-200.000	0.087	0.449
-473.259	-119.295	0.159	-0.028
-472.245	-5.902	-0.234	0.159
-471.230	374.111	-0.120	-0.244
-470.216	25.698	-0.108	0.090
-469.201	-8.025	-0.176	0.118
-468.186	674.535	0.094	-0.244
-467.172	800.000	0.041	0.129
-466.157	800.000	0.062	-0.191
-465.143	-15.451	0.062	0.039
-464.128	218.944	0.216	-0.344
-463.113	122.871	0.180	0.224
-462.099	-192.856	-0.182	-0.002
-461.084	-200.000	-0.032	0.149
-460.070	24.681	-0.111	0.092
-459.055	-141.180	0.241	0.024
-458.040	-170.149	0.434	-0.015
-457.026	-52.494	-0.195	0.090
-456.011	593.219	0.045	-0.112
-454.997	-28.726	-0.101	-0.058
-453.982	-42.497	0.232	0.118
-452.968	67.097	0.111	-0.113
-451.953	45.355	-0.046	0.043
-450.938	800.000	-0.160	-0.470
-449.924	-62.237	0.010	0.004
-448.909	8.878	0.139	0.104
-447.895	-40.386	0.259	0.134
-446.880	39.281	-0.094	0.084
-445.865	306.781	0.202	0.374
-444.851	-20.955	-0.192	-0.117
-443.836	466.081	-0.019	0.042
-442.822	-200.000	0.032	-0.303
-441.807	800.000	-0.081	0.243
-440.792	800.000	-0.098	0.313
-439.778	-200.000	-0.042	0.275
-438.763	47.700	-0.160	0.149
-437.749	51.101	0.111	-0.104
-436.734	-24.762	-0.246	0.145
-435.719	127.145	-0.108	0.136
-434.705	-58.210	-0.373	-0.162
-433.690	-65.118	0.123	-0.049
-432.676	800.000	0.079	0.229
-431.661	423.179	-0.322	-0.687
-430.646	-26.269	-0.324	-0.189
-429.632	88.684	0.224	0.247
-428.617	14.714	-0.211	0.164
-427.603	-111.746	0.292	-0.059
-426.588	-96.376	-0.350	0.092
-425.573	-45.945	0.002	-0.001
-424.559	127.545	0.111	0.141
-423.544	-79.702	0.169	0.057
-422.530	129.803	-0.011	0.014
-421.515	210.854	-0.016	-0.025
-420.500	800.000	0.029	-0.111
-419.486	158.543	-0.105	-0.145
-418.471	258.310	0.064	0.110
-417.457	94.642	0.168	-0.190
-416.442	-120.055	-0.107	0.018
-415.428	-200.000	0.089	-0.467
-414.413	63.804	0.179	0.179
-413.398	-200.000	0.059	-0.344
-412.384	459.517	0.057	-0.126
-411.369	155.475	-0.200	0.273
-410.355	-130.023	-0.211	-0.029
-409.340	215.027	-0.071	-0.111
-408.325	-21.984	0.240	-0.145
-407.311	-200.000	0.036	0.298
-406.296	800.000	0.052	-0.213
-405.282	-83.283	-0.259	0.083
-404.267	-25.881	0.163	-0.095
-403.252	-26.406	-0.157	0.091
-402.238	-200.000	-0.011	0.154
-401.223	117.907	-0.115	-0.140
-400.209	5.953	0.201	-0.148
-399.194	-81.114	-0.422	-0.139
-398.179	247.918	0.125	0.210
-397.165	-18.305	0.194	-0.120
-396.150	-77.779	-0.236	0.081
-395.136	-200.000	-0.009	-0.052
-394.121	-2.564	-0.104	-0.072
-393.106	-19.061	-0.139	-0.086
-392.092	-126.006	0.366	0.055
-391.077	-119.788	0.237	0.041
-390.063	800.000	0.074	-0.253
-389.048	517.575	0.108	0.252
-388.033	-64.421	0.253	-0.102
-387.019	11.621	0.173	-0.132
-386.004	-200.000	0.004	0.265
-384.990	-54.081	0.059	0.027
-383.975	-143.045	0.299	-0.029
-382.960	-26.899	0.240	-0.139
-381.946	-61.536	0.210	-0.087
-380.931	-200.000	0.035	-0.417
-379.917	459.072	-0.141	-0.311
-378.902	12.400	-0.184	0.141
-377.888	800.000	0.093	-0.307
-376.873	-200.000	0.002	-0.356
-375.858	-47.283	0.070	-0.034
-374.844	800.000	-0.012	-0.032
-373.829	94.126	-0.187	-0.210
-372.815	290.442	0.086	-0.155
-371.800	-200.000	0.032	-0.281
-370.785	88.892	0.286	0.316
-369.771	-122.615	0.169	-0.027
-368.756	443.401	0.185	-0.403
-367.742	436.413	-0.038	0.083
-366.727	71.616	-0.134	0.139
-365.712	-135.051	0.277	0.033
-364.698	-25.354	0.170	-0.099
-363.683	-133.379	0.321	-0.040
-362.669	-154.816	-0.258	0.017
-361.654	-99.976	-0.361	-0.089
-360.639	-200.000	0.014	-0.116
-359.625	128.231	0.113	-0.142
-358.610	-200.000	-0.035	0.176
-357.596	247.299	0.142	0.238
-356.581	-8.992	-0.261	0.173
-355.566	62.219	0.151	0.149
-354.552	-127.692	-0.181	-0.026
-353.537	211.377	0.035	0.055
-352.523	-90.017	-0.098	0.028
-351.508	476.615	0.070	-0.158
-350.493	-27.757	0.282	0.162
-349.479	-159.486	0.085	0.005
-348.464	-24.679	0.300	0.177
-347.450	-59.233	0.251	0.107
-346.435	-91.330	-0.197	0.056
-345.420	-80.217	-0.238	-0.079
-344.406	-200.000	0.020	-0.291
-343.391	-200.000	0.040	-0.283
-342.377	54.393	-0.151	0.144
-341.362	-83.308	-0.143	0.045
-340.348	800.000	-0.048	-0.169
-339.333	-60.583	0.188	-0.079
-338.318	800.000	-0.050	-0.163
-337.304	-200.000	0.040	-0.572
-336.289	-94.246	-0.116	-0.031
-335.275	113.425	0.011	0.013
-334.260	236.102	-0.118	-0.193
-333.245	-119.944	-0.055	0.009
-332.231	108.745	-0.315	0.373
-331.216	259.133	-0.155	0.264
-330.202	3.270	0.121	0.087
-329.187	81.330	0.287	-0.307
-328.172	-126.213	0.322	0.048
-327.158	99.374	-0.137	-0.157
-326.143	-14.918	-0.185	0.117
-325.129	37.685	-0.304	0.267
-324.114	292.472	0.029	0.052
-323.099	-26.670	0.026	0.015
-322.085	17.569	-0.178	-0.140
-321.070	-98.452	0.190	0.048
-320.056	470.786	-0.047	-0.104
-319.041	-81.618	0.221	0.072
-318.026	126.875	0.081	0.102
-317.012	103.252	-0.107	0.124
-315.997	-57.106	-0.223	-0.097
-314.983	-124.530	0.227	-0.035
-313.968	-67.973	0.253	0.098
-312.953	-3.936	-0.159	0.109
-311.939	-121.002	-0.156	0.026
-310.924	-132.455	-0.110	-0.014
-309.910	-6.759	-0.270	-0.182
-308.895	181.138	-0.093	0.136
-307.880	-50.966	0.022	0.010
-306.866	-200.000	0.038	0.166
-305.851	800.000	0.067	0.249
-304.837	-65.533	-0.222	0.088
-303.822	-200.000	0.012	0.336
-302.807	-50.549	-0.175	0.081
-301.793	329.227	0.066	-0.126
-300.778	742.693	-0.027	0.072
-299.764	-155.310	-0.196	0.013
-298.749	-182.691	-0.129	0.002
-297.735	130.692	0.082	-0.104
-296.720	331.096	0.073	-0.139
-295.705	134.121	-0.191	0.244
-294.691	-200.000	0.011	-0.078
-293.676	-62.977	-0.205	-0.084
-292.662	361.442	0.160	-0.317
-291.647	-159.209	-0.056	0.003
-290.632	-200.000	0.041	0.288
-289.618	346.730	-0.071	-0.139
-288.603	19.914	0.492	0.392
-287.589	115.600	-0.116	-0.140
-286.574	30.637	0.106	-0.090
-285.559	-37.404	-0.334	0.177
-284.545	-92.875	0.100	-0.028
-283.530	245.309	0.129	0.215
-282.516	-200.000	0.020	0.134
-281.501	-200.000	-0.055	0.376
-280.486	800.000	-0.090	0.357
-279.472	-179.528	-0.171	0.004
-278.457	-200.000	0.027	0.151
-277.443	-136.054	-0.093	-0.011
-276.428	-67.692	0.034	0.013
-275.413	413.793	-0.137	-0.289
-274.399	342.937	-0.171	-0.331
-273.384	-200.000	-0.018	0.092
-272.370	-200.000	-0.045	0.216
-271.355	-88.953	-0.283	-0.083
-270.340	-88.738	-0.105	0.031
-269.326	75.300	0.260	0.271
-268.311	-63.810	-0.154	-0.062
-267.297	-72.856	0.169	-0.061
-266.282	-184.644	-0.174	0.003
-265.267	-84.803	-0.389	-0.121
-264.253	470.749	-0.048	0.108
-263.238	-11.476	0.224	0.146
-262.224	-200.000	0.006	-0.050
-261.209	800.000	0.009	0.038
-260.195	107.519	-0.077	0.090
-259.180	100.818	0.109	-0.125
-258.165	151.967	-0.150	-0.201
-257.151	800.000	-0.034	-0.129
-256.136	-200.000	-0.007	0.278
-255.122	-181.574	0.162	0.003
-254.107	493.817	-0.115	0.261
-253.092	-200.000	0.041	-0.196
-252.078	-123.721	-0.222	-0.035
-251.063	90.878	0.194	-0.215
-250.049	87.710	0.173	0.189
-249.034	-166.272	-0.317	0.013
-248.019	-33.969	-0.095	-0.052
-247.005	-145.010	0.218	-0.020
-245.990	160.938	-0.259	-0.357
-244.976	-200.000	-0.273	0.001
-243.961	-11.164	0.252	0.164
-242.946	-118.834	0.111	-0.019
-241.932	27.405	-0.186	-0.155
-240.917	-142.863	-0.279	-0.027
-239.903	-16.987	-0.296	0.185
-238.888	800.000	-0.027	0.093
-237.873	769.427	0.021	-0.056
-236.859	-104.330	0.147	-0.034
-235.844	-78.667	-0.317	-0.107
-234.830	36.572	0.097	-0.084
-233.815	40.641	0.336	0.299
-232.800	-8.305	-0.194	0.129
-231.786	-119.376	0.139	0.024
-230.771	-131.592	0.097	0.013
-229.757	127.906	-0.030	0.038
-228.742	-129.293	0.065	-0.009
-227.727	207.661	-0.153	0.235
-226.713	121.492	0.282	-0.347
-225.698	-190.835	-0.152	0.002
-224.684	-176.106	-0.240	-0.006
-223.669	-99.305	0.044	-0.011
-222.655	447.780	0.156	0.338
-221.640	-156.305	0.472	-0.029
-220.625	210.611	-0.044	-0.069
-219.611	-15.381	-0.238	-0.150
-218.596	226.445	-0.075	0.120
-217.582	458.714	-0.138	-0.302
-216.567	515.562	-0.144	0.331
-215.552	800.000	-0.092	0.284
-214.538	21.266	-0.223	-0.179
-213.523	-149.212	-0.141	0.011
-212.509	-61.180	-0.183	-0.076
-211.494	-29.958	-0.480	-0.269
-210.479	243.609	-0.084	-0.138
-209.465	800.000	-0.033	0.129
-208.450	337.053	-0.021	0.041
-207.436	800.000	0.015	0.043
-206.421	-200.000	-0.025	-0.127
-205.406	800.000	0.115	0.319
-204.392	-200.000	0.075	0.344
-203.377	30.502	0.069	0.058
-202.363	-200.000	-0.008	0.094
-201.348	121.143	-0.127	-0.156
-200.333	119.298	-0.058	0.071
-199.319	125.728	-0.087	0.108
-198.304	-136.804	-0.137	0.016
-197.290	-200.000	-0.048	-0.211
-196.275	-38.601	0.163	-0.085
-195.260	-3.080	-0.347	0.238
-194.246	87.512	-0.256	-0.279
-193.231	568.138	0.056	0.133
-192.217	-107.866	0.266	-0.057
-191.202	-200.000	0.019	0.092
-190.187	-200.000	0.065	0.376
-189.173	308.756	0.100	-0.184
-188.158	-82.604	-0.400	0.128
-187.144	-200.000	0.031	0.199
-186.129	-92.566	0.206	-0.057
-185.114	-200.000	0.007	-0.343
-184.100	-47.344	-0.017	0.008
-183.085	-200.000	0.019	-0.331
-182.071	-15.597	0.307	0.193
-181.056	-103.298	-0.213	0.050
-180.042	97.633	0.370	-0.419
-179.027	-142.597	0.129	0.012
-178.012	72.947	-0.055	-0.056
-176.998	-107.975	0.032	-0.007
-175.983	-72.449	0.135	0.049
-174.969	-200.000	0.020	0.208
-173.954	-200.000	0.032	-0.376
-172.939	-5.374	0.120	-0.081
-171.925	-200.000	-0.001	0.028
-170.910	148.454	-0.069	0.092
-169.896	-23.255	0.462	0.274
-168.881	-200.000	0.001	0.217
-167.866	84.391	-0.120	0.129
-166.852	156.683	-0.217	0.295
-165.837	-31.193	-0.341	-0.189
-164.823	-140.838	-0.355	-0.036
-163.808	153.160	0.190	-0.255
-162.793	-93.534	0.181	-0.049
-161.779	-46.125	-0.319	0.154
-160.764	22.599	-0.051	-0.041
-159.750	115.578	-0.172	-0.207
-158.735	-49.699	0.180	-0.084
-157.720	-115.443	0.279	0.052
-156.706	-182.510	0.225	-0.004
-155.691	620.954	-0.017	0.042
-154.677	-70.242	-0.151	-0.056
-153.662	-83.374	-0.120	-0.038
-152.647	-200.000	-0.067	0.389
-151.633	692.638	-0.089	-0.230
-150.618	88.691	-0.212	0.232
-149.604	-200.000	-0.038	0.264
-148.589	437.502	0.196	0.421
-147.574	271.080	-0.096	-0.165
-146.560	-110.993	0.129	0.026
-145.545	569.056	0.047	0.113
-144.531	125.518	-0.048	-0.059
-143.516	-162.607	0.172	0.008
-142.502	88.824	-0.134	0.147
-141.487	70.067	-0.198	-0.201
-140.472	105.240	0.200	-0.232
-139.458	-49.609	-0.189	0.088
-138.443	-200.000	0.043	-0.350
-137.429	238.289	0.081	-0.133
-136.414	800.000	-0.037	-0.113
-135.399	200.739	-0.182	-0.275
-134.385	-145.433	0.504	-0.045
-133.370	-120.083	-0.221	-0.037
-132.356	-31.346	0.377	0.209
-131.341	800.000	-0.027	-0.092
-130.326	-27.146	-0.343	-0.197
-129.312	-200.000	0.026	0.162
-128.297	-105.079	0.165	0.037
-127.283	15.291	-0.074	0.057
-126.268	68.074	0.071	-0.072
-125.253	108.031	-0.148	0.173
-124.239	145.260	0.122	0.161
-123.224	154.114	-0.072	0.098
-122.210	43.515	-0.144	-0.129
