DTS Sentinel unit serial number:	SN413079Multiplexer serial number:	ORYXHardware model number:	OX4-SRSoftware version number:	ORYX F/W v4.00 Oryx Data Collector v3.7.2.0data status	okinstallation	princeton_trtdifferential loss correction	single-endedforward channel	channel 1reverse channel	N/Adate	2019/09/14time	10:10:35forward acquisition time	60.00reverse acquisition time	0.00gamma	496.2192k internal	0.2312k external	0.2312temperature offset calibration	1.0067default loss term (dB/km)	0.3790temperature slope calibration	1.0000multiplexer offset coefficient	1.0000multiplexer slope coefficient	1.0000fibre end	0.00T internal ref (°C)	33.67T ext. ref 1 (°C)	4.06T ext. ref 2 (°C)	31.95length (m)	temperature (°C)	Stokes	anti-Stokes-747.200	677.043	-0.033	-0.088
-746.185	-200.000	-0.012	0.319
-745.171	-176.200	-0.161	-0.004
-744.156	-138.711	-0.251	0.028
-743.142	-87.962	0.243	0.074
-742.127	574.491	-0.067	0.165
-741.112	800.000	-0.107	-0.321
-740.098	79.067	0.133	0.144
-739.083	-200.000	-0.004	0.082
-738.069	176.261	0.057	0.083
-737.054	-3.060	0.061	0.043
-736.039	22.108	0.146	0.121
-735.025	-200.000	0.007	-0.140
-734.010	23.124	-0.074	0.061
-732.996	119.375	-0.246	-0.308
-731.981	-31.368	-0.224	0.128
-730.966	0.372	0.272	0.197
-729.952	72.619	-0.217	-0.229
-728.937	97.193	-0.262	-0.304
-727.923	-200.000	-0.073	-0.372
-726.908	407.864	0.017	-0.037
-725.894	-200.000	-0.016	0.198
-724.879	322.310	-0.111	0.215
-723.864	-109.335	-0.217	0.047
-722.850	-200.000	0.017	0.107
-721.835	225.454	0.063	-0.104
-720.821	120.885	-0.234	-0.295
-719.806	-126.122	-0.255	-0.039
-718.791	274.134	-0.046	-0.082
-717.777	65.439	0.115	-0.118
-716.762	-200.000	0.030	-0.192
-715.748	527.695	0.120	0.287
-714.733	800.000	-0.025	-0.093
-713.718	62.755	-0.170	-0.172
-712.704	-167.097	0.370	-0.015
-711.689	-155.815	-0.126	-0.008
-710.675	15.566	-0.085	0.068
-709.660	800.000	0.028	-0.106
-708.645	54.780	0.205	-0.200
-707.631	-109.621	0.167	-0.036
-706.616	-134.431	-0.273	-0.034
-705.602	-200.000	0.032	0.221
-704.587	-57.161	0.362	-0.161
-703.572	381.528	0.049	-0.101
-702.558	800.000	0.133	0.384
-701.543	-107.494	-0.159	0.035
-700.529	-69.529	-0.236	-0.092
-699.514	800.000	0.040	-0.129
-698.499	420.689	-0.034	0.074
-697.485	50.667	-0.052	-0.049
-696.470	-25.920	-0.305	-0.182
-695.456	733.221	-0.091	-0.246
-694.441	800.000	0.031	0.090
-693.426	-200.000	0.060	-0.286
-692.412	563.248	-0.039	0.094
-691.397	103.885	-0.105	0.125
-690.383	-200.000	-0.010	-0.128
-689.368	-56.313	0.040	-0.018
-688.354	-157.057	0.170	-0.011
-687.339	189.664	-0.097	-0.148
-686.324	-136.762	-0.285	-0.033
-685.310	725.353	0.088	-0.238
-684.295	-44.356	-0.085	-0.043
-683.281	30.924	0.200	0.174
-682.266	-80.229	0.156	0.053
-681.251	-65.351	0.241	-0.098
-680.237	-67.240	-0.352	0.140
-679.222	-105.276	0.286	-0.066
-678.208	-140.768	-0.182	-0.019
-677.193	-56.861	-0.148	0.066
-676.178	-143.388	0.454	-0.044
-675.164	-89.922	-0.124	-0.037
-674.149	9.683	-0.261	0.200
-673.135	222.692	-0.134	0.219
-672.120	73.100	-0.225	-0.238
-671.105	-5.513	-0.273	-0.189
-670.091	-74.468	0.091	-0.033
-669.076	-200.000	0.007	-0.097
-668.062	-104.263	-0.065	0.015
-667.047	588.677	0.191	-0.475
-666.032	749.051	-0.076	-0.208
-665.018	-56.293	0.422	-0.190
-664.003	225.455	-0.121	0.198
-662.989	800.000	0.034	0.144
-661.974	510.366	-0.080	-0.187
-660.959	-36.103	0.148	0.081
-659.945	-101.726	0.132	-0.032
-658.930	-51.274	0.147	0.070
-657.916	-155.370	-0.290	0.019
-656.901	-4.462	0.357	-0.250
-655.886	-68.396	-0.222	0.087
-654.872	202.069	0.151	-0.236
-653.857	-123.338	0.097	-0.016
-652.843	800.000	0.034	0.108
-651.828	316.678	-0.010	0.018
-650.814	-8.819	-0.093	0.063
-649.799	107.675	0.146	-0.176
-648.784	800.000	-0.073	0.304
-647.770	100.381	-0.161	-0.189
-646.755	114.430	0.027	0.033
-645.741	-200.000	0.014	0.155
-644.726	93.880	0.088	-0.100
-643.711	102.830	-0.121	0.143
-642.697	-84.273	-0.227	-0.073
-641.682	472.835	0.039	0.088
-640.668	-142.172	-0.159	0.016
-639.653	800.000	0.042	0.162
-638.638	-134.341	-0.162	0.020
-637.624	152.261	-0.095	0.131
-636.609	454.762	-0.088	-0.197
-635.595	-62.742	-0.471	-0.197
-634.580	-72.422	-0.235	0.088
-633.565	-116.234	-0.536	0.100
-632.551	800.000	-0.099	-0.304
-631.536	174.099	0.114	0.167
-630.522	-178.725	0.205	-0.005
-629.507	-200.000	0.001	0.264
-628.492	-87.808	0.169	0.052
-627.478	-151.990	-0.415	-0.031
-626.463	-200.000	0.045	-0.204
-625.449	502.959	0.164	-0.383
-624.434	-46.273	-0.123	-0.061
-623.419	96.487	-0.144	-0.167
-622.405	215.328	-0.175	-0.280
-621.390	800.000	-0.040	-0.132
-620.376	59.926	0.269	0.268
-619.361	-124.748	-0.051	-0.008
-618.346	-47.220	0.145	0.071
-617.332	-96.462	0.158	0.042
-616.317	-170.356	-0.210	0.007
-615.303	413.181	-0.157	0.337
-614.288	-49.635	-0.309	-0.148
-613.273	640.486	-0.015	-0.039
-612.259	-200.000	-0.038	0.281
-611.244	-12.618	-0.179	-0.118
-610.230	77.464	0.023	0.024
-609.215	49.970	0.291	-0.278
-608.201	575.714	-0.066	-0.163
-607.186	800.000	0.060	-0.193
-606.171	-200.000	-0.039	0.233
-605.157	-115.042	0.156	0.030
-604.142	-200.000	-0.059	-0.442
-603.128	-102.353	-0.187	-0.045
-602.113	361.562	0.014	-0.029
-601.098	288.198	0.121	0.220
-600.084	-200.000	0.022	-0.142
-599.069	-156.545	0.064	0.004
-598.055	79.276	-0.080	0.087
-597.040	131.597	-0.141	-0.183
-596.025	27.321	-0.066	-0.056
-595.011	-36.841	-0.298	0.161
-593.996	-200.000	-0.029	0.138
-592.982	314.946	-0.144	-0.274
-591.967	41.963	0.240	-0.219
-590.952	-44.858	0.135	-0.068
-589.938	800.000	-0.097	0.334
-588.923	536.304	0.140	0.334
-587.909	-57.846	-0.076	-0.034
-586.894	-176.272	-0.384	0.010
-585.879	68.274	-0.031	0.032
-584.865	269.518	0.216	0.383
-583.850	-113.581	0.036	-0.007
-582.836	393.257	0.031	-0.066
-581.821	-92.594	-0.232	0.066
-580.806	144.801	-0.174	0.235
-579.792	-200.000	-0.014	0.125
-578.777	42.289	0.077	-0.071
-577.763	-143.313	0.271	0.026
-576.748	-200.000	0.048	-0.249
-575.733	219.738	0.134	0.216
-574.719	-200.000	0.056	-0.284
-573.704	465.638	0.102	0.229
-572.690	-200.000	-0.038	-0.203
-571.675	-200.000	-0.055	-0.388
-570.661	274.830	0.082	0.146
-569.646	772.844	-0.046	0.127
-568.631	260.262	-0.153	0.266
-567.617	-14.723	-0.311	-0.201
-566.602	-77.197	-0.059	0.021
-565.588	-90.621	0.345	-0.101
-564.573	22.383	-0.155	-0.127
-563.558	-200.000	-0.033	-0.187
-562.544	-200.000	0.012	-0.229
-561.529	137.434	-0.116	-0.153
-560.515	-200.000	0.002	0.051
-559.500	36.718	0.176	0.157
-558.485	193.896	-0.088	-0.134
-557.471	303.472	0.164	0.307
-556.456	-127.961	-0.227	0.033
-555.442	-120.873	0.102	-0.017
-554.427	-79.474	-0.139	-0.047
-553.412	800.000	-0.061	0.266
-552.398	-140.628	0.101	-0.011
-551.383	-82.846	-0.060	0.020
-550.369	266.793	0.073	0.128
-549.354	-200.000	0.002	0.249
-548.339	202.294	0.156	0.242
-547.325	205.101	-0.074	0.115
-546.310	336.766	-0.081	-0.158
-545.296	-101.199	-0.204	-0.050
-544.281	115.810	0.070	-0.086
-543.266	122.329	0.124	0.156
-542.252	800.000	0.070	-0.228
-541.237	-84.990	0.272	-0.086
-540.223	-200.000	-0.055	0.265
-539.208	800.000	0.135	0.420
-538.193	140.404	-0.016	-0.021
-537.179	-200.000	-0.001	-0.154
-536.164	484.965	0.063	-0.146
-535.150	-56.073	-0.369	-0.166
-534.135	-98.905	-0.110	-0.028
-533.121	505.404	0.081	0.189
-532.106	-161.791	-0.211	-0.011
-531.091	-45.473	0.087	0.044
-530.077	-200.000	-0.008	0.080
-529.062	-16.684	-0.214	-0.136
-528.048	202.916	0.201	0.312
-527.033	84.981	0.185	-0.204
-526.018	0.098	0.191	0.137
-525.004	-129.291	-0.385	-0.054
-523.989	800.000	0.017	-0.072
-522.975	-64.259	-0.116	0.048
-521.960	190.118	0.110	-0.166
-520.945	-109.085	0.089	-0.019
-519.931	800.000	-0.021	0.080
-518.916	226.918	0.141	-0.230
-517.902	39.977	-0.123	-0.111
-516.887	-200.000	-0.015	-0.308
-515.872	-144.125	-0.085	0.008
-514.858	224.082	0.042	0.068
-513.843	454.780	0.122	-0.272
-512.829	210.297	0.079	0.125
-511.814	-200.000	0.053	-0.365
-510.799	-57.705	-0.341	0.150
-509.785	-40.857	0.230	0.119
-508.770	-200.000	0.022	-0.107
-507.756	-46.591	-0.043	0.021
-506.741	164.728	0.188	-0.267
-505.726	800.000	0.041	-0.142
-504.712	-29.833	0.188	-0.108
-503.697	-20.862	-0.181	-0.112
-502.683	126.228	-0.138	-0.175
-501.668	195.197	-0.028	-0.043
-500.653	-118.182	0.147	-0.026
-499.639	-170.426	0.177	-0.006
-498.624	-57.792	-0.127	0.056
-497.610	800.000	0.126	0.418
-496.595	-200.000	0.005	-0.084
-495.581	-77.010	0.281	-0.098
-494.566	142.583	-0.066	-0.087
-493.551	-200.000	0.023	-0.149
-492.537	418.310	0.048	-0.104
-491.522	-200.000	-0.010	0.127
-490.508	96.130	-0.063	-0.072
-489.493	-88.481	0.218	-0.065
-488.478	-116.693	-0.078	0.014
-487.464	-106.056	-0.178	0.040
-486.449	247.028	-0.138	-0.234
-485.435	-60.210	-0.282	0.121
-484.420	-192.473	0.346	-0.003
-483.405	-35.497	0.072	0.039
-482.391	-197.589	0.363	0.002
-481.376	-64.299	-0.063	0.026
-480.362	-64.823	0.264	-0.107
-479.347	-200.000	0.048	0.256
-478.332	-169.870	0.308	-0.011
-477.318	-139.479	-0.155	-0.017
-476.303	103.389	0.062	0.073
-475.289	-127.224	-0.178	0.026
-474.274	38.521	0.396	-0.354
-473.259	104.749	-0.178	-0.211
-472.245	-200.000	-0.010	-0.215
-471.230	-156.022	-0.106	0.007
-470.216	800.000	0.105	-0.410
-469.201	800.000	0.069	0.207
-468.186	379.420	-0.092	0.189
-467.172	-127.215	-0.039	-0.006
-466.157	-63.610	-0.058	0.024
-465.143	11.755	-0.063	-0.048
-464.128	800.000	0.016	0.065
-463.113	61.816	-0.305	-0.305
-462.099	395.676	-0.081	-0.170
-461.084	151.053	0.197	-0.269
-460.070	5.138	0.293	-0.216
-459.055	655.352	-0.175	-0.450
-458.040	398.537	-0.094	0.198
-457.026	800.000	-0.055	0.233
-456.011	66.696	-0.142	0.145
-454.997	17.342	-0.173	0.138
-453.982	374.341	0.122	-0.250
-452.968	169.554	0.087	0.124
-451.953	-200.000	0.010	0.119
-450.938	-184.228	-0.294	-0.005
-449.924	142.269	0.155	0.207
-448.909	-100.640	-0.382	0.095
-447.895	-113.010	0.299	-0.059
-446.880	-200.000	0.044	0.281
-445.865	-165.347	-0.374	-0.016
-444.851	75.272	-0.305	0.323
-443.836	-115.366	0.025	0.005
-442.822	-200.000	-0.039	0.322
-441.807	-200.000	0.031	-0.253
-440.792	491.722	-0.093	-0.214
-439.778	256.973	-0.101	-0.173
-438.763	800.000	-0.067	-0.254
-437.749	118.288	0.146	0.180
-436.734	301.586	-0.130	0.241
-435.719	-63.130	-0.162	0.067
-434.705	49.821	-0.329	-0.311
-433.690	655.509	-0.062	0.160
-432.676	800.000	-0.016	-0.053
-431.661	-200.000	0.102	-0.474
-430.646	-70.599	-0.352	0.133
-429.632	242.643	-0.192	-0.322
-428.617	-198.315	0.149	-0.001
-427.603	144.584	-0.043	-0.058
-426.588	-200.000	0.003	0.096
-425.573	67.504	-0.235	-0.240
-424.559	-200.000	-0.012	0.076
-423.544	713.154	0.101	-0.267
-422.530	-166.954	0.119	-0.005
-421.515	-31.776	-0.042	0.024
-420.500	-88.522	0.120	-0.036
-419.486	-200.000	0.024	0.328
-418.471	-51.295	0.249	0.117
-417.457	554.165	-0.078	0.188
-416.442	79.883	0.087	0.093
-415.428	-90.847	-0.115	0.033
-414.413	239.705	-0.156	0.261
-413.398	-200.000	0.024	0.418
-412.384	163.405	0.062	-0.088
-411.369	-200.000	-0.019	-0.093
-410.355	-200.000	0.021	-0.160
-409.340	61.521	-0.241	0.240
-408.325	-104.381	0.078	0.018
-407.311	71.803	-0.194	0.202
-406.296	63.354	-0.046	-0.047
-405.282	800.000	-0.096	-0.311
-404.267	-128.719	0.057	0.008
-403.252	499.065	0.132	-0.305
-402.238	800.000	-0.034	-0.138
-401.223	-200.000	-0.040	0.229
-400.209	800.000	0.067	0.213
-399.194	223.601	-0.175	0.282
-398.179	21.628	0.189	0.154
-397.165	9.194	-0.170	0.129
-396.150	794.355	0.065	-0.179
-395.136	-33.287	-0.183	0.101
-394.121	-200.000	-0.002	0.519
-393.106	-80.111	-0.079	-0.026
-392.092	-120.834	-0.382	0.064
-391.077	79.627	-0.194	0.208
-390.063	353.914	-0.164	0.326
-389.048	123.640	0.076	-0.096
-388.033	-33.584	0.198	0.109
-387.019	-170.113	-0.267	-0.009
-386.004	516.234	0.078	-0.183
-384.990	55.994	0.270	-0.262
-383.975	-83.060	-0.254	0.082
-382.960	314.721	-0.183	0.346
-381.946	363.984	-0.148	-0.298
-380.931	436.481	-0.064	0.139
-379.917	314.929	-0.039	0.073
-378.902	-200.000	0.013	-0.082
-377.888	57.556	0.134	0.131
-376.873	44.424	-0.249	-0.229
-375.858	-13.644	0.362	0.234
-374.844	223.625	-0.155	0.250
-373.829	51.038	-0.088	-0.084
-372.815	148.925	-0.176	0.238
-371.800	800.000	-0.061	-0.253
-370.785	21.805	-0.036	0.029
-369.771	-51.591	-0.303	0.141
-368.756	-43.476	0.517	-0.261
-367.742	-81.323	-0.180	-0.059
-366.727	-108.309	-0.042	0.009
-365.712	131.184	0.290	-0.372
-364.698	-86.271	0.572	-0.176
-363.683	39.445	0.070	0.063
-362.669	-100.438	-0.272	0.067
-361.654	-200.000	-0.008	-0.221
-360.639	-200.000	-0.002	0.254
-359.625	45.997	0.124	0.114
-358.610	-90.273	-0.242	-0.070
-357.596	-200.000	0.008	-0.438
-356.581	-90.599	-0.224	-0.065
-355.566	800.000	-0.072	0.269
-354.552	-180.879	0.082	0.002
-353.537	-200.000	0.044	0.211
-352.523	-200.000	0.046	-0.234
-351.508	-200.000	0.036	0.208
-350.493	28.098	-0.118	0.099
-349.479	-141.283	-0.197	-0.020
-348.464	187.784	0.074	0.111
-347.450	-94.706	0.175	-0.047
-346.435	367.851	-0.036	-0.072
-345.420	-162.753	-0.171	0.008
-344.406	-200.000	0.003	-0.139
-343.391	99.174	-0.209	0.242
-342.377	523.368	0.177	0.416
-341.362	281.280	-0.085	0.153
-340.348	-42.967	-0.336	0.170
-339.333	-47.354	-0.111	-0.054
-338.318	-78.280	0.205	-0.070
-337.304	243.115	0.129	0.215
-336.289	-108.152	0.532	0.115
-335.275	-200.000	-0.000	-0.497
-334.260	-127.333	0.087	0.013
-333.245	327.354	0.148	0.283
-332.231	98.765	0.189	0.217
-331.216	-37.597	0.247	-0.131
-330.202	800.000	-0.064	-0.183
-329.187	39.368	-0.161	-0.144
-328.172	-200.000	0.004	0.124
-327.158	-100.456	0.332	-0.082
-326.143	800.000	-0.139	-0.471
-325.129	261.206	-0.119	-0.206
-324.114	95.464	0.193	-0.220
-323.099	147.415	-0.012	0.016
-322.085	-160.186	0.182	0.010
-321.070	-91.769	0.132	-0.038
-320.056	-200.000	0.030	0.475
-319.041	24.463	-0.220	-0.182
-318.026	800.000	-0.096	-0.275
-317.012	800.000	-0.174	-0.488
-315.997	194.051	0.104	-0.157
-314.983	-200.000	-0.007	0.179
-313.968	787.982	-0.029	-0.081
-312.953	-200.000	-0.038	-0.266
-311.939	756.814	-0.062	-0.167
-310.924	-89.703	-0.168	0.049
-309.910	17.702	-0.119	0.094
-308.895	104.408	0.161	-0.189
-307.880	12.476	0.308	-0.237
-306.866	-124.264	-0.173	0.027
-305.851	117.400	0.172	-0.211
-304.837	-177.969	-0.107	0.003
-303.822	239.382	0.032	-0.053
-302.807	-27.759	0.234	-0.135
-301.793	-127.662	-0.279	0.040
-300.778	270.401	-0.081	0.142
-299.764	-200.000	-0.030	0.215
-298.749	-65.973	0.019	0.008
-297.735	394.349	0.143	0.296
-296.720	800.000	0.048	-0.177
-295.705	-200.000	0.009	0.071
-294.691	37.329	-0.182	0.160
-293.676	-67.371	-0.167	-0.065
-292.662	23.542	0.164	0.134
-291.647	66.980	-0.209	0.213
-290.632	14.757	0.183	0.143
-289.618	12.998	-0.291	-0.224
-288.603	-78.386	-0.316	-0.108
-287.589	27.050	0.157	0.131
-286.574	-28.742	-0.061	-0.035
-285.559	-56.710	-0.123	-0.054
-284.545	288.665	0.185	0.335
-283.530	162.673	-0.098	0.138
-282.516	131.525	-0.153	-0.196
-281.501	-200.000	-0.023	0.389
-280.486	-200.000	-0.047	-0.256
-279.472	232.112	0.106	0.174
-278.457	-111.906	0.417	0.084
-277.443	79.688	0.071	0.076
-276.428	146.818	0.290	-0.389
-275.413	800.000	0.033	0.139
-274.399	255.092	-0.203	0.346
-273.384	800.000	0.043	0.167
-272.370	-200.000	-0.029	0.315
-271.355	277.200	0.022	-0.039
-270.340	-98.502	0.137	0.035
-269.326	800.000	0.033	0.119
-268.311	55.732	0.191	-0.184
-267.297	-200.000	0.007	0.173
-266.282	-80.505	-0.080	-0.026
-265.267	-95.339	0.041	0.011
-264.253	-53.281	0.295	-0.135
-263.238	126.866	-0.165	0.208
-262.224	62.731	0.190	0.190
-261.209	-200.000	-0.009	0.169
-260.195	218.309	0.182	-0.289
-259.180	-121.014	-0.077	0.013
-258.165	47.828	0.210	0.195
-257.151	-113.894	-0.099	-0.019
-256.136	800.000	0.037	-0.112
-255.122	-160.579	-0.209	-0.011
-254.107	-1.369	0.308	-0.216
-253.092	800.000	-0.014	0.044
-252.078	29.054	0.172	0.145
-251.063	-32.555	-0.105	0.058
-250.049	310.721	0.090	-0.168
-249.034	-115.379	-0.188	0.035
-248.019	-79.810	0.128	0.043
-247.005	92.775	0.109	0.122
-245.990	-200.000	0.026	-0.395
-244.976	251.994	-0.133	-0.225
-243.961	119.275	-0.144	0.177
-242.946	-14.606	0.057	-0.036
-241.932	-178.419	-0.082	-0.002
-240.917	-130.601	0.219	0.029
-239.903	193.493	0.069	0.103
-238.888	127.958	0.183	-0.231
-237.873	-30.793	0.162	-0.091
-236.859	658.754	0.078	0.199
-235.844	187.135	-0.123	0.183
-234.830	198.601	-0.095	0.145
-233.815	-200.000	0.029	0.337
-232.800	800.000	-0.034	0.100
-231.786	-200.000	0.015	-0.176
-230.771	177.629	0.067	-0.097
-229.757	-113.364	-0.059	0.012
-228.742	93.530	-0.160	-0.180
-227.727	629.040	-0.032	0.079
-226.713	703.989	0.109	0.286
-225.698	-200.000	0.018	-0.151
-224.684	9.322	-0.054	0.041
-223.669	-145.263	0.063	0.006
-222.655	-200.000	0.044	0.205
-221.640	-200.000	-0.028	-0.195
-220.625	-200.000	0.008	-0.189
-219.611	85.166	0.191	-0.208
-218.596	242.535	-0.120	-0.200
-217.582	800.000	0.045	0.192
-216.567	-200.000	0.024	0.351
-215.552	388.572	-0.132	0.272
-214.538	174.897	0.250	0.360
-213.523	-85.418	0.240	-0.074
-212.509	-58.051	0.053	0.023
-211.494	68.093	0.222	0.225
-210.479	12.858	0.396	0.304
-209.465	-200.000	-0.012	-0.063
-208.450	430.533	-0.115	0.247
-207.436	70.145	0.141	0.145
-206.421	-200.000	0.012	-0.109
-205.406	1.943	0.246	-0.176
-204.392	-32.283	0.133	-0.074
-203.377	-31.765	0.161	0.090
-202.363	363.705	0.141	-0.281
-201.348	1.884	-0.085	0.061
-200.333	-200.000	0.010	-0.226
-199.319	-69.204	0.061	-0.023
-198.304	20.647	-0.129	0.104
-197.290	800.000	0.051	0.187
-196.275	59.008	0.154	-0.151
-195.260	-200.000	0.008	0.063
-194.246	101.476	-0.072	0.083
-193.231	51.706	0.146	0.138
-192.217	306.028	0.153	-0.283
-191.202	-200.000	0.002	-0.075
-190.187	-129.340	-0.177	-0.024
-189.173	800.000	0.046	0.193
-188.158	-9.021	0.030	0.020
-187.144	-66.003	0.184	0.073
-186.129	-137.201	0.042	-0.005
-185.114	49.455	-0.128	-0.120
-184.100	-49.048	-0.432	-0.205
-183.085	-76.446	0.189	-0.066
-182.071	194.247	0.089	-0.134
-181.056	-47.294	0.285	-0.138
-180.042	-16.451	0.206	0.130
-179.027	-200.000	0.004	0.231
-178.012	-21.063	0.193	0.117
-176.998	-200.000	0.027	-0.281
-175.983	83.228	-0.083	0.090
-174.969	-99.124	-0.087	-0.022
-173.954	-0.604	0.132	-0.093
-172.939	-200.000	0.040	-0.216
-171.925	198.517	0.179	-0.272
-170.910	-37.145	0.095	0.051
-169.896	800.000	0.066	-0.244
-168.881	-89.184	0.441	0.129
-167.866	800.000	0.022	-0.070
-166.852	800.000	0.051	0.160
-165.837	20.156	-0.026	-0.020
-164.823	8.895	-0.211	0.158
-163.808	-135.463	-0.438	-0.052
-162.793	-101.418	-0.072	-0.017
-161.779	-36.537	0.275	-0.147
-160.764	142.169	-0.145	0.191
-159.750	239.719	0.125	-0.207
-158.735	-99.376	0.412	-0.103
-157.720	444.423	0.125	0.272
-156.706	606.798	0.059	0.147
-155.691	-111.104	-0.146	-0.030
-154.677	800.000	-0.139	-0.398
-153.662	491.732	0.089	0.202
-152.647	-116.796	-0.112	-0.020
-151.633	-39.020	0.138	0.072
-150.618	212.247	0.215	0.336
-149.604	-15.327	0.111	0.070
-148.589	800.000	0.036	0.120
-147.574	-200.000	-0.053	-0.385
-146.560	-200.000	-0.029	-0.162
-145.545	403.930	0.032	0.066
-144.531	-84.559	0.130	-0.041
-143.516	695.734	-0.104	0.271
-142.502	377.332	0.146	-0.296
-141.487	800.000	0.041	-0.133
-140.472	800.000	-0.067	0.235
-139.458	-64.878	0.163	-0.065
-138.443	-200.000	-0.001	0.015
-137.429	219.810	0.105	0.167
-136.414	-200.000	0.010	-0.092
-135.399	-200.000	0.008	-0.134
-134.385	136.727	-0.122	-0.158
-133.370	484.602	0.015	-0.034
-132.356	-33.443	0.220	-0.120
-131.341	-99.521	-0.073	-0.018
-130.326	267.376	-0.305	-0.528
-129.312	-200.000	0.005	-0.075
-128.297	245.445	-0.113	0.189
-127.283	669.174	-0.059	-0.152
-126.268	-112.143	-0.434	0.086
-125.253	327.915	-0.012	0.023
-124.239	800.000	0.020	-0.060
-123.224	-200.000	0.067	0.659
-122.210	10.809	0.260	-0.197
