DTS Sentinel unit serial number:	SN413079Multiplexer serial number:	ORYXHardware model number:	OX4-SRSoftware version number:	ORYX F/W v4.00 Oryx Data Collector v3.7.2.0data status	okinstallation	princeton_trtdifferential loss correction	single-endedforward channel	channel 1reverse channel	N/Adate	2019/09/19time	14:42:35forward acquisition time	60.00reverse acquisition time	0.00gamma	496.2192k internal	0.2319k external	0.2319temperature offset calibration	1.0019default loss term (dB/km)	0.3790temperature slope calibration	1.0000multiplexer offset coefficient	1.0000multiplexer slope coefficient	1.0000fibre end	0.00T internal ref (°C)	32.56T ext. ref 1 (°C)	1.08T ext. ref 2 (°C)	29.61length (m)	temperature (°C)	Stokes	anti-Stokes-747.200	262.595	0.300	0.527
-746.185	-200.000	-0.025	0.306
-745.171	61.148	0.206	0.207
-744.156	-115.978	-0.366	-0.069
-743.142	-107.796	0.314	0.069
-742.127	-200.000	-0.032	0.153
-741.112	-113.988	0.427	0.084
-740.098	-70.421	-0.040	-0.015
-739.083	123.354	-0.188	0.238
-738.069	-200.000	-0.075	0.358
-737.054	240.280	-0.154	0.259
-736.039	226.060	-0.086	-0.141
-735.025	82.720	0.063	0.069
-734.010	448.409	0.107	-0.239
-732.996	-200.000	0.002	-0.103
-731.981	-151.065	-0.130	-0.010
-730.966	-25.294	-0.255	0.153
-729.952	-200.000	-0.008	-0.076
-728.937	-200.000	0.057	-0.412
-727.923	-101.985	-0.219	-0.054
-726.908	-113.756	0.274	-0.054
-725.894	233.240	-0.121	0.201
-724.879	-106.542	-0.615	-0.139
-723.864	187.950	0.078	-0.117
-722.850	8.095	0.238	-0.181
-721.835	-63.374	-0.468	-0.195
-720.821	-16.317	-0.165	0.106
-719.806	-120.372	-0.250	0.043
-718.791	-65.013	-0.210	0.086
-717.777	-90.529	0.226	-0.066
-716.762	-20.167	0.200	-0.125
-715.748	-113.639	-0.059	0.012
-714.733	-140.920	-0.074	-0.008
-713.718	-6.495	0.327	-0.225
-712.704	-200.000	-0.020	-0.104
-711.689	71.244	0.252	-0.264
-710.675	800.000	0.088	-0.351
-709.660	46.613	0.122	-0.115
-708.645	-54.015	-0.355	-0.163
-707.631	82.157	0.255	-0.279
-706.616	120.935	-0.102	-0.128
-705.602	-111.379	-0.224	-0.046
-704.587	-184.784	0.305	0.005
-703.572	35.992	0.138	-0.123
-702.558	791.943	0.212	0.588
-701.543	800.000	0.016	-0.056
-700.529	62.646	0.102	0.103
-699.514	-5.617	-0.141	-0.098
-698.499	-78.450	-0.141	-0.049
-697.485	1.210	-0.032	-0.023
-696.470	-200.000	-0.017	-0.271
-695.456	-151.145	0.094	0.007
-694.441	-89.202	0.271	0.081
-693.426	-122.267	0.270	-0.044
-692.412	-96.525	0.386	0.103
-691.397	436.322	0.072	-0.158
-690.383	-93.456	0.305	0.085
-689.368	-200.000	0.070	0.327
-688.354	-110.580	0.271	0.057
-687.339	52.538	-0.107	-0.104
-686.324	-200.000	-0.017	-0.512
-685.310	431.859	-0.101	0.221
-684.295	-28.299	-0.330	-0.192
-683.281	353.163	-0.110	-0.220
-682.266	-200.000	-0.017	0.315
-681.251	800.000	0.085	-0.332
-680.237	-200.000	0.037	-0.286
-679.222	-28.594	0.098	0.057
-678.208	-200.000	-0.044	-0.205
-677.193	172.525	0.121	0.176
-676.178	-6.733	0.186	-0.128
-675.164	53.375	-0.100	-0.097
-674.149	-105.031	-0.239	0.055
-673.135	-73.440	0.531	0.196
-672.120	800.000	-0.114	0.386
-671.105	-88.625	-0.312	-0.094
-670.091	65.066	0.058	-0.059
-669.076	188.379	0.054	0.081
-668.062	-35.825	-0.089	-0.048
-667.047	399.009	-0.036	0.076
-666.032	12.903	-0.209	-0.163
-665.018	-34.186	-0.196	-0.109
-664.003	52.064	-0.113	-0.109
-662.989	-58.020	0.243	-0.107
-661.974	-9.871	0.218	0.146
-660.959	-74.013	0.226	-0.082
-659.945	-200.000	0.019	0.247
-658.930	-20.349	0.081	0.050
-657.916	-95.187	-0.334	-0.091
-656.901	214.753	-0.073	-0.117
-655.886	49.077	-0.086	-0.082
-654.872	-200.000	0.003	0.041
-653.857	-9.069	0.218	0.147
-652.843	203.938	-0.101	0.158
-651.828	800.000	-0.104	-0.347
-650.814	45.728	0.074	-0.069
-649.799	-200.000	-0.068	0.385
-648.784	-57.490	-0.208	0.092
-647.770	-29.362	0.322	0.186
-646.755	-79.653	0.282	0.096
-645.741	148.998	-0.063	0.085
-644.726	-30.082	0.313	0.179
-643.711	-158.202	0.362	-0.021
-642.697	800.000	0.026	0.083
-641.682	-98.146	-0.271	-0.070
-640.668	-53.097	-0.112	0.052
-639.653	-200.000	-0.019	0.307
-638.638	231.900	0.095	-0.158
-637.624	-30.666	-0.364	0.208
-636.609	195.924	0.228	-0.349
-635.595	86.187	0.148	-0.165
-634.580	-200.000	-0.049	-0.250
-633.565	-82.755	-0.447	-0.146
-632.551	-103.746	-0.358	-0.085
-631.536	-173.079	0.125	0.004
-630.522	7.678	0.131	-0.099
-629.507	102.401	0.270	-0.317
-628.492	32.376	-0.151	0.132
-627.478	353.385	-0.175	-0.350
-626.463	-200.000	-0.005	0.127
-625.449	243.421	0.157	-0.265
-624.434	-96.309	0.114	0.030
-623.419	114.461	0.116	0.143
-622.405	-12.723	0.036	-0.024
-621.390	-118.558	-0.271	0.048
-620.376	122.015	0.208	0.261
-619.361	17.666	0.330	-0.265
-618.346	141.147	-0.098	-0.131
-617.332	134.230	0.252	-0.329
-616.317	-17.721	0.200	-0.127
-615.303	606.248	-0.114	-0.287
-614.288	309.059	-0.112	0.210
-613.273	-26.271	0.256	0.151
-612.259	-48.443	-0.052	0.025
-611.244	190.417	0.022	-0.034
-610.230	-182.526	0.256	-0.005
-609.215	-50.439	-0.195	0.093
-608.201	800.000	0.101	0.304
-607.186	82.711	-0.088	0.096
-606.171	-200.000	0.291	-0.001
-605.157	-200.000	0.039	0.487
-604.142	251.292	-0.182	-0.312
-603.128	-11.706	0.154	0.102
-602.113	-101.838	0.257	0.062
-601.098	-130.412	0.299	0.041
-600.084	84.593	0.116	0.128
-599.069	26.437	-0.145	-0.122
-598.055	-107.331	-0.015	-0.003
-597.040	221.954	0.199	0.323
-596.025	178.567	0.219	-0.322
-595.011	62.009	-0.122	-0.122
-593.996	651.141	0.068	-0.176
-592.982	-17.456	0.214	-0.135
-591.967	343.011	0.039	0.077
-590.952	-147.966	0.333	-0.028
-589.938	-13.804	-0.231	-0.150
-588.923	485.359	0.104	0.238
-587.909	-200.000	0.048	0.353
-586.894	163.447	-0.136	0.192
-585.879	800.000	0.102	-0.352
-584.865	24.304	-0.216	-0.180
-583.850	-128.842	-0.214	0.030
-582.836	155.660	-0.129	0.179
-581.821	-32.355	-0.316	0.177
-580.806	-137.381	0.138	-0.016
-579.792	-47.459	-0.235	0.115
-578.777	252.275	-0.070	-0.120
-577.763	224.074	0.131	0.212
-576.748	-56.348	-0.122	-0.054
-575.733	-85.226	0.164	0.051
-574.719	1.098	0.072	-0.052
-573.704	-51.353	0.137	-0.065
-572.690	182.206	0.082	0.121
-571.675	-200.000	0.016	-0.086
-570.661	800.000	-0.031	0.112
-569.646	150.896	-0.131	0.179
-568.631	207.251	0.141	0.221
-567.617	-54.260	-0.355	0.162
-566.602	-27.791	-0.052	0.030
-565.588	800.000	-0.111	-0.314
-564.573	-73.505	0.147	0.054
-563.558	407.903	0.087	0.185
-562.544	-110.311	0.145	-0.030
-561.529	179.592	-0.157	-0.230
-560.515	-80.419	0.350	0.117
-559.500	-115.591	-0.428	-0.081
-558.485	169.587	-0.200	0.287
-557.471	-131.498	-0.114	-0.015
-556.456	-200.000	0.053	-0.345
-555.442	461.673	0.059	-0.133
-554.427	96.096	0.356	-0.408
-553.412	-200.000	-0.020	-0.244
-552.398	595.244	-0.161	0.401
-551.383	800.000	0.047	0.202
-550.369	-92.449	-0.267	-0.075
-549.354	-200.000	-0.014	-0.130
-548.339	800.000	0.018	-0.057
-547.325	-11.524	0.393	-0.259
-546.310	-15.714	-0.150	-0.096
-545.296	36.203	-0.075	-0.066
-544.281	50.036	0.204	-0.194
-543.266	62.499	0.093	-0.093
-542.252	-200.000	-0.008	-0.229
-541.237	-200.000	-0.001	-0.031
-540.223	20.112	-0.103	0.083
-539.208	-158.089	-0.173	-0.010
-538.193	61.285	-0.152	-0.151
-537.179	-16.895	0.149	-0.094
-536.164	570.211	0.111	-0.270
-535.150	-24.793	-0.234	0.139
-534.135	800.000	0.025	0.095
-533.121	-35.694	0.217	-0.118
-532.106	-70.132	-0.037	0.014
-531.091	70.010	0.201	0.209
-530.077	800.000	0.025	-0.079
-529.062	196.176	0.060	0.092
-528.048	-25.483	0.147	0.087
-527.033	-37.833	-0.295	-0.158
-526.018	-152.604	-0.176	-0.013
-525.004	800.000	0.028	0.114
-523.989	-135.762	-0.316	0.038
-522.975	391.635	0.075	0.155
-521.960	148.279	-0.180	0.244
-520.945	-200.000	-0.061	0.380
-519.931	-161.769	-0.128	-0.007
-518.916	-117.325	0.029	0.005
-517.902	-69.256	-0.174	0.067
-516.887	123.665	-0.133	-0.168
-515.872	-200.000	0.031	0.150
-514.858	119.780	0.131	0.163
-513.843	7.312	-0.283	0.212
-512.829	800.000	-0.074	0.295
-511.814	249.035	0.090	-0.152
-510.799	282.711	-0.075	-0.134
-509.785	-2.016	0.254	-0.179
-508.770	676.080	0.080	-0.208
-507.756	-200.000	0.011	0.075
-506.741	-200.000	0.011	-0.123
-505.726	-138.139	-0.397	-0.044
-504.712	-17.674	-0.140	0.088
-503.697	-30.202	0.116	0.066
-502.683	-200.000	0.000	0.438
-501.668	-200.000	-0.067	0.415
-500.653	-200.000	0.027	0.275
-499.639	-31.562	0.176	0.099
-498.624	800.000	-0.043	0.185
-497.610	694.864	-0.160	0.421
-496.595	-158.088	0.058	0.003
-495.581	232.923	-0.072	0.118
-494.566	480.619	-0.068	-0.154
-493.551	-200.000	-0.005	-0.101
-492.537	-200.000	-0.013	-0.123
-491.522	-134.558	-0.074	0.009
-490.508	-200.000	-0.042	-0.441
-489.493	753.807	0.105	-0.285
-488.478	-21.093	0.442	0.271
-487.464	129.936	-0.105	0.135
-486.449	-62.647	0.009	0.004
-485.435	800.000	-0.073	-0.211
-484.420	800.000	0.001	-0.004
-483.405	-6.597	-0.317	-0.216
-482.391	39.871	0.220	0.198
-481.376	-123.353	-0.245	0.039
-480.362	-200.000	-0.017	0.269
-479.347	602.827	-0.081	0.202
-478.332	-52.051	-0.213	-0.099
-477.318	-60.331	-0.260	-0.111
-476.303	-200.000	0.003	0.368
-475.289	-11.613	-0.293	0.193
-474.274	-200.000	0.015	-0.337
-473.259	49.835	0.170	0.160
-472.245	-138.636	-0.179	0.020
-471.230	382.583	-0.130	-0.267
-470.216	-200.000	0.015	0.093
-469.201	-163.976	-0.242	-0.011
-468.186	-100.907	0.143	0.035
-467.172	-119.972	0.374	0.064
-466.157	-81.641	-0.255	-0.084
-465.143	109.364	0.181	-0.217
-464.128	-200.000	0.026	-0.310
-463.113	-130.085	-0.440	0.060
-462.099	-48.244	-0.339	0.164
-461.084	-98.477	0.393	0.101
-460.070	64.194	0.231	0.233
-459.055	-200.000	0.036	0.191
-458.040	128.642	0.402	0.513
-457.026	-43.884	-0.114	-0.058
-456.011	47.274	0.165	-0.154
-454.997	-118.741	-0.201	0.035
-453.982	278.116	-0.186	0.332
-452.968	47.794	-0.013	-0.012
-451.953	33.028	0.102	0.089
-450.938	-102.393	-0.317	-0.076
-449.924	-200.000	-0.011	0.162
-448.909	-200.000	-0.026	0.268
-447.895	62.622	0.090	-0.090
-446.880	-200.000	-0.032	-0.253
-445.865	800.000	-0.062	-0.183
-444.851	164.784	0.115	-0.162
-443.836	210.275	-0.135	0.213
-442.822	337.731	-0.078	0.152
-441.807	148.063	0.141	0.190
-440.792	-159.158	-0.116	-0.007
-439.778	220.840	-0.019	-0.031
-438.763	-65.959	0.409	0.163
-437.749	8.251	0.045	0.034
-436.734	-29.993	-0.071	0.041
-435.719	800.000	-0.073	0.205
-434.705	-93.476	0.125	0.035
-433.690	-163.009	-0.141	-0.007
-432.676	37.213	0.232	-0.205
-431.661	-55.881	0.278	-0.124
-430.646	769.177	-0.115	-0.312
-429.632	800.000	0.054	-0.156
-428.617	409.477	0.151	-0.320
-427.603	159.442	-0.210	0.292
-426.588	206.477	-0.230	0.357
-425.573	697.583	-0.119	0.311
-424.559	160.308	0.208	0.289
-423.544	56.977	-0.034	-0.034
-422.530	-200.000	-0.005	0.182
-421.515	-46.673	0.227	-0.111
-420.500	-67.705	-0.701	-0.274
-419.486	-200.000	0.020	-0.202
-418.471	-117.687	-0.174	0.031
-417.457	-8.569	0.251	-0.169
-416.442	118.553	0.047	-0.058
-415.428	800.000	0.035	0.135
-414.413	52.976	0.055	-0.053
-413.398	691.211	0.085	-0.222
-412.384	-122.522	0.040	-0.007
-411.369	119.720	-0.314	0.389
-410.355	-61.690	0.225	0.094
-409.340	193.894	-0.036	-0.054
-408.325	16.617	0.350	-0.277
-407.311	-5.188	-0.189	-0.130
-406.296	29.741	0.183	0.156
-405.282	-137.114	0.570	-0.065
-404.267	522.938	-0.090	-0.212
-403.252	-164.844	-0.275	0.012
-402.238	-189.292	-0.301	-0.004
-401.223	-100.984	0.472	-0.116
-400.209	331.155	-0.020	0.038
-399.194	-108.465	-0.115	0.025
-398.179	-42.457	0.222	0.113
-397.165	-73.461	-0.295	0.107
-396.150	33.220	-0.171	-0.148
-395.136	-200.000	-0.018	-0.186
-394.121	-200.000	0.032	-0.179
-393.106	-200.000	-0.022	0.220
-392.092	20.275	0.215	0.173
-391.077	-200.000	0.005	-0.125
-390.063	800.000	-0.090	-0.321
-389.048	-57.989	-0.414	-0.180
-388.033	-141.772	-0.095	0.010
-387.019	717.767	-0.066	-0.176
-386.004	800.000	0.079	0.217
-384.990	195.515	-0.172	-0.261
-383.975	-168.523	0.086	0.003
-382.960	-200.000	-0.011	0.169
-381.946	-200.000	0.027	0.432
-380.931	46.224	-0.307	0.284
-379.917	-44.790	-0.042	0.021
-378.902	-80.808	0.172	-0.057
-377.888	-52.208	0.181	-0.084
-376.873	44.086	-0.118	0.108
-375.858	432.085	0.057	0.123
-374.844	800.000	-0.069	0.204
-373.829	99.485	0.145	0.168
-372.815	-41.541	-0.312	-0.160
-371.800	-6.013	-0.142	-0.097
-370.785	127.257	0.122	-0.155
-369.771	-17.913	-0.257	-0.161
-368.756	177.179	0.088	-0.127
-367.742	-39.482	0.193	-0.101
-366.727	-14.053	-0.213	0.137
-365.712	-18.121	0.256	0.160
-364.698	61.824	-0.128	-0.127
-363.683	-18.249	0.183	0.114
-362.669	158.419	-0.053	0.073
-361.654	-200.000	-0.017	-0.107
-360.639	800.000	0.034	-0.147
-359.625	554.980	0.069	-0.165
-358.610	21.808	-0.185	0.150
-357.596	13.396	-0.141	0.109
-356.581	97.425	0.072	0.082
-355.566	-138.006	0.095	0.011
-354.552	436.620	0.108	0.235
-353.537	48.348	-0.087	0.081
-352.523	-200.000	-0.045	-0.278
-351.508	-200.000	-0.005	-0.299
-350.493	18.634	0.117	-0.093
-349.479	-109.124	-0.194	0.041
-348.464	168.501	-0.089	-0.127
-347.450	-13.039	-0.023	0.015
-346.435	-153.804	0.204	-0.014
-345.420	800.000	-0.113	0.320
-344.406	400.268	0.125	-0.261
-343.391	97.196	0.228	0.261
-342.377	-66.981	-0.216	-0.085
-341.362	150.032	-0.045	0.060
-340.348	153.202	-0.168	-0.229
-339.333	277.563	0.153	-0.271
-338.318	26.894	-0.160	-0.134
-337.304	-38.252	0.229	-0.121
-336.289	-108.054	-0.209	0.045
-335.275	-200.000	0.065	-0.355
-334.260	-100.516	-0.054	-0.013
-333.245	-107.889	0.350	-0.076
-332.231	100.173	0.146	0.168
-331.216	-84.198	-0.190	-0.060
-330.202	-167.304	-0.040	-0.002
-329.187	-56.971	-0.182	-0.080
-328.172	-60.189	0.202	0.086
-327.158	-157.364	-0.227	-0.014
-326.143	-18.392	-0.218	0.136
-325.129	-72.275	-0.184	-0.068
-324.114	29.735	0.100	-0.085
-323.099	-83.850	0.145	-0.046
-322.085	-38.176	-0.049	0.026
-321.070	-123.744	0.316	-0.050
-320.056	127.842	0.161	0.204
-319.041	-102.002	0.268	-0.064
-318.026	-106.876	-0.046	0.010
-317.012	98.252	0.099	-0.113
-315.997	-200.000	0.000	-0.085
-314.983	-136.711	0.360	-0.041
-313.968	259.531	0.246	0.423
-312.953	-11.945	0.257	0.168
-311.939	246.295	-0.120	-0.202
-310.924	-74.525	0.122	0.044
-309.910	506.162	-0.095	-0.219
-308.895	316.549	-0.130	0.244
-307.880	2.982	-0.234	-0.169
-306.866	-12.409	0.268	0.174
-305.851	800.000	0.054	-0.181
-304.837	-141.321	0.237	0.024
-303.822	-48.956	-0.350	-0.167
-302.807	-27.079	0.042	0.025
-301.793	-200.000	0.011	0.306
-300.778	47.618	-0.231	-0.214
-299.764	-200.000	-0.078	0.342
-298.749	-86.894	0.149	0.045
-297.735	800.000	0.097	-0.367
-296.720	-200.000	0.038	-0.290
-295.705	428.574	-0.114	0.244
-294.691	-95.496	-0.315	0.084
-293.676	800.000	0.056	0.181
-292.662	306.491	0.073	0.135
-291.647	-200.000	-0.044	-0.245
-290.632	674.126	-0.130	-0.337
-289.618	800.000	0.047	-0.142
-288.603	-200.000	-0.035	0.395
-287.589	-200.000	0.019	0.370
-286.574	552.106	-0.202	-0.482
-285.559	-71.307	0.288	0.107
-284.545	-40.040	-0.164	-0.085
-283.530	800.000	-0.124	0.359
-282.516	-200.000	-0.005	0.264
-281.501	143.983	0.160	0.212
-280.486	206.573	0.125	0.194
-279.472	223.484	-0.153	-0.245
-278.457	-30.748	0.744	-0.418
-277.443	5.506	-0.084	-0.062
-276.428	-19.258	0.062	0.038
-275.413	-200.000	0.006	-0.206
-274.399	-34.509	-0.241	-0.131
-273.384	-31.699	-0.425	-0.237
-272.370	800.000	-0.095	-0.413
-271.355	800.000	-0.050	-0.144
-270.340	-7.287	-0.177	0.119
-269.326	-99.872	0.316	0.078
-268.311	118.821	-0.194	-0.238
-267.297	-175.359	-0.240	0.007
-266.282	179.936	0.110	-0.161
-265.267	480.305	-0.074	-0.167
-264.253	-200.000	0.021	0.226
-263.238	-86.312	-0.169	0.051
-262.224	-200.000	-0.067	0.321
-261.209	-148.692	0.371	-0.030
-260.195	259.991	-0.090	0.155
-259.180	-158.850	-0.183	-0.010
-258.165	-200.000	-0.037	-0.505
-257.151	91.999	0.268	0.299
-256.136	-56.706	-0.056	-0.025
-255.122	-27.801	-0.073	0.042
-254.107	357.382	0.078	0.155
-253.092	-98.104	-0.196	-0.050
-252.078	41.828	0.167	-0.150
-251.063	279.474	0.161	0.285
-250.049	81.604	0.163	0.175
-249.034	-168.675	0.070	-0.003
-248.019	441.008	-0.042	-0.092
-247.005	-100.665	0.348	0.085
-245.990	-81.901	0.160	0.052
-244.976	-61.513	0.309	-0.129
-243.961	-125.779	-0.186	0.028
-242.946	800.000	-0.108	-0.301
-241.932	-200.000	-0.004	-0.145
-240.917	-120.780	-0.352	0.059
-239.903	-124.797	-0.034	-0.005
-238.888	-200.000	0.022	-0.245
-237.873	255.638	-0.019	0.033
-236.859	-200.000	-0.002	-0.125
-235.844	-182.473	-0.153	-0.003
-234.830	-77.465	0.016	-0.006
-233.815	-80.378	-0.499	0.165
-232.800	-113.108	0.264	-0.052
-231.786	565.853	0.123	-0.296
-230.771	800.000	0.022	0.093
-229.757	84.659	0.150	0.163
-228.742	58.082	-0.159	0.155
-227.727	62.085	-0.221	-0.219
-226.713	-200.000	0.013	-0.135
-225.698	-132.520	-0.143	0.018
-224.684	-200.000	-0.046	0.233
-223.669	800.000	0.094	0.373
-222.655	33.089	-0.119	0.102
-221.640	317.644	0.019	-0.035
-220.625	-200.000	0.010	0.176
-219.611	-32.617	-0.307	-0.170
-218.596	421.534	0.106	0.225
-217.582	-200.000	0.020	-0.209
-216.567	-145.000	-0.145	0.013
-215.552	-26.786	-0.263	0.152
-214.538	194.123	-0.143	-0.214
-213.523	115.498	-0.177	0.215
-212.509	782.348	0.071	-0.193
-211.494	-31.832	-0.160	0.089
-210.479	-63.084	-0.235	0.096
-209.465	188.238	0.041	-0.060
-208.450	498.605	0.038	0.086
-207.436	-200.000	0.020	0.110
-206.421	-132.708	0.278	-0.035
-205.406	-68.561	-0.388	-0.149
-204.392	800.000	0.054	-0.232
-203.377	-112.911	0.232	-0.046
-202.363	64.988	0.278	-0.278
-201.348	-200.000	-0.016	0.293
-200.333	-91.402	-0.106	-0.030
-199.319	800.000	0.110	-0.306
-198.304	-200.000	-0.035	-0.195
-197.290	57.990	-0.340	0.330
-196.275	178.225	0.094	-0.136
-195.260	62.656	-0.082	0.081
-194.246	406.014	0.041	0.087
-193.231	588.652	-0.008	0.020
-192.217	-86.217	0.518	-0.158
-191.202	59.149	0.153	0.149
-190.187	-200.000	0.091	-0.416
-189.173	-200.000	0.026	-0.235
-188.158	54.892	-0.090	0.086
-187.144	-74.077	-0.572	-0.205
-186.129	248.870	0.126	0.211
-185.114	-107.418	0.055	-0.012
-184.100	-101.251	0.166	-0.040
-183.085	-37.420	-0.166	0.088
-182.071	5.884	0.186	-0.137
-181.056	-92.897	0.269	0.074
-180.042	800.000	0.013	0.046
-179.027	17.524	0.283	-0.222
-178.012	-86.121	-0.323	0.099
-176.998	60.763	-0.121	0.119
-175.983	323.752	-0.135	-0.255
-174.969	-11.755	0.217	-0.141
-173.954	-68.962	-0.323	-0.123
-172.939	2.701	0.322	0.231
-171.925	-200.000	-0.025	-0.115
-170.910	800.000	-0.041	-0.134
-169.896	-109.293	0.183	-0.038
-168.881	390.855	0.076	0.157
-167.866	-200.000	-0.012	-0.201
-166.852	61.270	-0.091	0.089
-165.837	-48.980	0.093	0.044
-164.823	-177.463	0.203	0.005
-163.808	-0.796	-0.159	0.111
-162.793	80.235	0.249	0.265
-161.779	-31.237	0.220	-0.123
-160.764	182.709	0.086	-0.125
-159.750	-112.360	0.292	0.058
-158.735	-47.078	-0.163	0.079
-157.720	-141.084	-0.179	-0.018
-156.706	58.727	-0.170	-0.165
-155.691	68.789	-0.147	-0.150
-154.677	-102.292	0.384	-0.091
-153.662	100.318	0.244	0.280
-152.647	108.006	-0.054	0.063
-151.633	-106.321	0.051	0.011
-150.618	242.547	0.068	-0.112
-149.604	86.936	0.346	0.378
-148.589	-63.678	-0.113	-0.046
-147.574	-200.000	0.067	-0.319
-146.560	-109.248	0.250	0.052
-145.545	306.703	-0.230	0.424
-144.531	-83.740	-0.487	0.154
-143.516	-28.340	0.117	0.067
-142.502	-85.696	-0.090	0.028
-141.487	69.676	-0.164	0.167
-140.472	-141.476	-0.178	0.018
-139.458	365.782	0.034	0.068
-138.443	569.308	0.140	0.337
-137.429	-200.000	-0.052	-0.286
-136.414	754.776	-0.056	0.149
-135.399	800.000	-0.056	-0.175
-134.385	-200.000	-0.020	-0.274
-133.370	165.093	-0.104	-0.145
-132.356	-200.000	0.057	0.280
-131.341	800.000	0.046	-0.156
-130.326	-58.240	-0.091	-0.039
-129.312	-131.179	0.088	-0.012
-128.297	-103.480	0.025	-0.006
-127.283	-112.086	0.269	-0.054
-126.268	13.617	-0.129	-0.099
-125.253	-200.000	0.017	0.272
-124.239	23.136	0.198	0.160
-123.224	-41.085	0.139	-0.071
-122.210	100.687	0.169	0.194
