DTS Sentinel unit serial number:	SN413079Multiplexer serial number:	ORYXHardware model number:	OX4-SRSoftware version number:	ORYX F/W v4.00 Oryx Data Collector v3.7.2.0data status	okinstallation	princeton_trtdifferential loss correction	single-endedforward channel	channel 1reverse channel	N/Adate	2019/09/16time	13:54:35forward acquisition time	60.00reverse acquisition time	0.00gamma	496.2192k internal	0.2294k external	0.2294temperature offset calibration	0.9950default loss term (dB/km)	0.3790temperature slope calibration	1.0000multiplexer offset coefficient	1.0000multiplexer slope coefficient	1.0000fibre end	0.00T internal ref (°C)	42.37T ext. ref 1 (°C)	13.98T ext. ref 2 (°C)	38.55length (m)	temperature (°C)	Stokes	anti-Stokes-747.200	-170.962	0.067	-0.002
-746.185	31.641	-0.091	-0.080
-745.171	11.639	0.198	-0.155
-744.156	80.212	0.034	-0.038
-743.142	-200.000	0.024	0.111
-742.127	94.016	-0.282	0.327
-741.112	-200.000	0.008	-0.244
-740.098	-134.110	0.186	-0.024
-739.083	-20.664	0.227	0.143
-738.069	-144.421	-0.259	-0.025
-737.054	-100.970	-0.054	0.014
-736.039	-200.000	-0.037	0.199
-735.025	-200.000	0.016	-0.131
-734.010	800.000	-0.040	-0.155
-732.996	-10.818	-0.106	-0.071
-731.981	-144.980	-0.235	0.022
-730.966	-74.081	0.499	0.185
-729.952	-125.309	0.050	0.008
-728.937	-109.064	0.111	0.024
-727.923	160.117	-0.161	0.229
-726.908	-114.922	-0.196	-0.038
-725.894	586.470	0.018	0.045
-724.879	800.000	-0.010	-0.042
-723.864	-39.619	0.012	-0.006
-722.850	99.993	-0.033	0.040
-721.835	-30.742	0.159	-0.092
-720.821	-150.689	0.065	0.005
-719.806	-0.439	-0.212	-0.154
-718.791	-96.810	-0.335	-0.090
-717.777	21.118	0.138	0.114
-716.762	800.000	0.056	-0.192
-715.748	42.141	-0.137	0.127
-714.733	-53.008	-0.022	0.011
-713.718	-154.480	0.370	-0.025
-712.704	-91.232	0.323	-0.095
-711.689	-200.000	0.007	-0.211
-710.675	229.653	0.163	0.273
-709.660	8.134	0.168	0.129
-708.645	-200.000	0.007	0.064
-707.631	121.674	0.026	-0.033
-706.616	-112.545	0.189	0.038
-705.602	-132.543	0.354	-0.046
-704.587	-200.000	-0.001	-0.340
-703.572	-6.851	-0.183	0.127
-702.558	-75.373	0.055	-0.020
-701.543	52.689	-0.091	-0.089
-700.529	-68.035	0.147	-0.059
-699.514	-200.000	-0.027	-0.200
-698.499	-200.000	0.007	-0.289
-697.485	-31.365	0.145	0.083
-696.470	800.000	0.030	0.125
-695.456	18.592	-0.176	0.144
-694.441	74.698	-0.200	0.215
-693.426	120.919	0.197	0.250
-692.412	72.774	0.105	0.111
-691.397	-110.735	0.400	-0.084
-690.383	289.849	0.142	0.264
-689.368	59.081	0.157	-0.158
-688.354	-173.415	0.229	-0.007
-687.339	13.665	-0.395	-0.313
-686.324	645.298	0.068	0.178
-685.310	99.376	0.248	0.293
-684.295	-94.962	-0.142	-0.039
-683.281	278.012	0.029	0.053
-682.266	382.621	0.042	0.089
-681.251	234.474	0.253	0.426
-680.237	-93.100	-0.223	-0.063
-679.222	190.964	-0.152	0.234
-678.208	114.869	-0.154	-0.192
-677.193	479.840	-0.028	-0.064
-676.178	-40.564	0.163	-0.086
-675.164	-54.859	0.094	-0.043
-674.149	90.029	0.045	-0.051
-673.135	344.999	-0.091	-0.183
-672.120	532.669	0.175	0.421
-671.105	221.893	-0.144	0.235
-670.091	800.000	0.091	-0.300
-669.076	614.624	0.096	-0.245
-668.062	85.672	0.397	-0.445
-667.047	-148.558	0.288	0.024
-666.032	-62.240	0.133	-0.056
-665.018	-86.390	-0.030	-0.009
-664.003	470.558	0.132	0.303
-662.989	-200.000	-0.008	0.310
-661.974	-73.426	-0.178	0.066
-660.959	-170.994	0.336	0.012
-659.945	800.000	0.032	-0.116
-658.930	-200.000	0.013	-0.111
-657.916	-121.089	0.256	0.044
-656.901	-148.843	0.116	0.010
-655.886	-200.000	-0.031	-0.232
-654.872	-165.726	0.157	-0.007
-653.857	-165.654	-0.108	0.005
-652.843	-60.035	0.231	0.100
-651.828	800.000	0.027	-0.120
-650.814	46.022	0.174	-0.164
-649.799	37.642	0.105	0.095
-648.784	-57.377	0.250	0.112
-647.770	-142.476	-0.128	0.013
-646.755	-84.549	0.222	-0.071
-645.741	74.634	-0.232	0.248
-644.726	-96.844	-0.160	-0.043
-643.711	110.831	0.110	-0.135
-642.697	-22.479	-0.300	-0.185
-641.682	-87.462	-0.165	-0.051
-640.668	159.390	-0.115	-0.163
-639.653	110.795	-0.179	-0.219
-638.638	-200.000	0.002	-0.129
-637.624	498.048	-0.111	0.259
-636.609	781.180	0.098	-0.272
-635.595	31.446	-0.104	0.091
-634.580	560.553	0.124	-0.304
-633.565	159.713	-0.064	-0.090
-632.551	39.841	-0.074	0.068
-631.536	76.246	0.236	0.254
-630.522	-30.672	-0.498	-0.287
-629.507	54.403	-0.231	0.226
-628.492	-176.730	-0.094	0.002
-627.478	800.000	0.059	-0.181
-626.463	-140.994	0.239	-0.025
-625.449	-20.781	0.133	-0.083
-624.434	-145.449	0.087	0.008
-623.419	627.793	0.087	0.224
-622.405	246.306	-0.034	0.058
-621.390	-65.923	0.061	0.025
-620.376	-200.000	0.020	0.158
-619.361	59.182	-0.142	0.142
-618.346	-200.000	0.006	-0.219
-617.332	-59.789	0.271	0.118
-616.317	-200.000	0.010	0.215
-615.303	211.297	-0.122	-0.195
-614.288	-54.992	-0.085	-0.039
-613.273	110.886	0.095	0.116
-612.259	-158.687	0.037	-0.002
-611.244	-60.771	0.037	0.016
-610.230	-42.158	0.268	-0.140
-609.215	122.677	-0.123	-0.156
-608.201	800.000	0.051	0.160
-607.186	-106.184	-0.322	-0.074
-606.171	-200.000	-0.036	0.207
-605.157	-98.426	0.045	-0.012
-604.142	51.284	0.260	0.251
-603.128	288.175	0.038	-0.070
-602.113	800.000	0.093	-0.364
-601.098	-87.613	0.305	0.094
-600.084	-126.107	0.128	0.020
-599.069	-200.000	0.041	-0.399
-598.055	-39.414	-0.151	-0.080
-597.040	13.582	-0.387	0.305
-596.025	-4.644	-0.107	-0.075
-595.011	-200.000	-0.015	0.225
-593.996	-3.864	0.187	-0.132
-592.982	-70.678	0.095	0.037
-591.967	800.000	-0.121	0.416
-590.952	-200.000	0.013	0.196
-589.938	-94.374	0.234	-0.065
-588.923	800.000	0.073	-0.252
-587.909	-28.547	-0.112	0.066
-586.894	-69.989	0.214	-0.083
-585.879	-158.868	-0.099	0.006
-584.865	-200.000	-0.024	0.117
-583.850	-137.842	-0.213	-0.024
-582.836	-76.221	0.189	0.068
-581.821	-80.300	0.204	-0.069
-580.806	-65.327	0.541	-0.221
-579.792	54.064	0.225	0.219
-578.777	-200.000	-0.025	-0.193
-577.763	10.095	0.120	-0.092
-576.748	-7.417	0.251	0.173
-575.733	-123.484	-0.356	0.058
-574.719	126.201	-0.139	-0.178
-573.704	118.718	-0.107	-0.134
-572.690	-83.673	0.176	-0.057
-571.675	604.508	0.177	0.447
-570.661	800.000	-0.057	0.180
-569.646	18.109	0.136	-0.110
-568.631	-200.000	-0.007	0.108
-567.617	-69.896	0.119	0.046
-566.602	327.577	-0.100	0.194
-565.588	-200.000	-0.056	-0.291
-564.573	-200.000	0.067	0.601
-563.558	74.557	0.130	-0.138
-562.544	7.231	-0.127	0.096
-561.529	-200.000	0.022	0.214
-560.515	613.017	0.091	-0.231
-559.500	-44.889	0.236	-0.119
-558.485	-200.000	0.028	-0.268
-557.471	625.044	-0.110	-0.282
-556.456	-10.926	0.240	-0.161
-555.442	435.540	0.159	-0.351
-554.427	425.735	0.045	0.099
-553.412	-56.751	0.423	0.190
-552.398	-200.000	0.031	0.196
-551.383	-63.127	-0.162	0.068
-550.369	-37.763	0.180	-0.097
-549.354	-111.788	0.307	0.063
-548.339	114.041	0.167	0.206
-547.325	602.837	-0.047	-0.120
-546.310	-79.109	0.204	0.070
-545.296	-131.692	-0.320	-0.043
-544.281	-57.178	0.346	0.155
-543.266	99.648	0.192	0.225
-542.252	104.352	0.066	0.078
-541.237	-61.637	0.145	-0.062
-540.223	-170.320	-0.095	-0.003
-539.208	800.000	0.034	0.128
-538.193	162.654	0.240	0.342
-537.179	-200.000	-0.001	0.269
-536.164	287.517	-0.067	-0.122
-535.150	-25.034	-0.306	0.184
-534.135	-1.422	-0.146	-0.105
-533.121	-200.000	-0.060	0.273
-532.106	-200.000	0.020	0.191
-531.091	34.021	0.080	-0.071
-530.077	-103.127	-0.298	-0.072
-529.062	-56.492	-0.106	0.048
-528.048	301.756	-0.046	0.086
-527.033	-200.000	-0.015	-0.156
-526.018	-103.190	0.198	0.047
-525.004	-48.917	-0.192	-0.093
-523.989	-123.011	-0.344	0.056
-522.975	-200.000	0.000	0.048
-521.960	116.057	0.094	-0.116
-520.945	-200.000	-0.001	0.143
-519.931	54.916	-0.259	0.253
-518.916	-24.011	-0.142	0.086
-517.902	800.000	0.084	0.236
-516.887	64.423	-0.126	0.129
-515.872	-51.178	-0.113	-0.053
-514.858	0.320	0.345	0.250
-513.843	-110.346	-0.099	0.021
-512.829	-200.000	0.047	0.317
-511.814	-9.498	0.167	-0.113
-510.799	21.701	0.114	-0.094
-509.785	468.630	0.052	0.118
-508.770	-104.566	0.024	0.006
-507.756	70.439	0.016	0.016
-506.741	137.142	-0.204	0.271
-505.726	232.852	0.132	-0.220
-504.712	107.765	-0.153	-0.185
-503.697	-176.576	0.189	0.005
-502.683	273.546	-0.089	0.160
-501.668	-200.000	0.055	-0.459
-500.653	83.739	0.190	0.210
-499.639	-39.127	-0.041	0.022
-498.624	-200.000	0.010	0.297
-497.610	-26.076	-0.292	-0.174
-496.595	-123.759	0.441	-0.071
-495.581	65.965	0.107	-0.110
-494.566	800.000	-0.115	-0.416
-493.551	-38.657	-0.283	-0.151
-492.537	198.079	-0.213	-0.330
-491.522	232.501	0.094	0.157
-490.508	-40.497	0.297	-0.156
-489.493	-195.092	0.284	-0.002
-488.478	-93.735	0.241	-0.067
-487.464	-33.592	-0.152	0.085
-486.449	159.249	0.185	-0.260
-485.435	-93.233	0.203	0.057
-484.420	-200.000	-0.014	-0.195
-483.405	16.694	-0.185	-0.148
-482.391	94.846	0.096	0.111
-481.376	193.726	0.122	0.187
-480.362	-173.809	0.254	0.008
-479.347	170.851	-0.142	-0.206
-478.332	-157.454	0.118	-0.007
-477.318	-165.832	-0.229	0.010
-476.303	59.300	0.123	0.122
-475.289	-128.794	-0.175	0.025
-474.274	-107.466	0.173	0.038
-473.259	415.786	-0.224	0.484
-472.245	311.291	-0.043	-0.081
-471.230	-87.067	0.393	0.121
-470.216	41.844	-0.262	0.240
-469.201	12.219	0.089	-0.069
-468.186	-200.000	0.033	-0.170
-467.172	-192.663	-0.355	0.003
-466.157	-200.000	0.025	0.148
-465.143	-157.845	0.074	-0.004
-464.128	-1.086	-0.266	0.190
-463.113	-200.000	0.025	0.248
-462.099	800.000	0.058	0.187
-461.084	-97.017	-0.106	-0.028
-460.070	544.013	0.102	-0.247
-459.055	-181.796	-0.094	0.002
-458.040	-9.871	-0.098	0.066
-457.026	517.796	0.092	0.217
-456.011	425.077	-0.123	-0.267
-454.997	180.408	0.122	-0.180
-453.982	-200.000	0.005	-0.090
-452.968	-134.318	-0.240	0.030
-451.953	-200.000	-0.005	0.106
-450.938	-200.000	-0.027	0.158
-449.924	82.723	-0.158	-0.174
-448.909	-128.345	0.285	-0.041
-447.895	272.081	0.050	-0.089
-446.880	29.637	0.179	0.154
-445.865	-200.000	0.007	0.075
-444.851	50.146	0.267	-0.255
-443.836	561.092	0.057	-0.138
-442.822	356.451	-0.105	-0.211
-441.807	-200.000	-0.028	0.317
-440.792	-103.367	-0.149	0.035
-439.778	412.676	-0.071	-0.152
-438.763	-200.000	0.008	-0.063
-437.749	52.735	-0.186	-0.180
-436.734	116.517	-0.095	-0.118
-435.719	-23.891	-0.139	-0.084
-434.705	41.783	-0.145	0.133
-433.690	37.698	0.167	-0.149
-432.676	-27.672	-0.051	0.030
-431.661	-200.000	-0.012	-0.223
-430.646	-86.937	-0.230	-0.071
-429.632	78.962	-0.148	-0.160
-428.617	589.326	0.006	0.016
-427.603	-67.298	-0.231	-0.092
-426.588	-97.492	0.104	0.027
-425.573	82.735	0.115	-0.126
-424.559	-17.644	-0.150	0.095
-423.544	-200.000	0.042	0.229
-422.530	136.749	0.159	-0.210
-421.515	-24.946	-0.158	0.095
-420.500	32.384	0.259	0.226
-419.486	-36.653	-0.084	0.046
-418.471	800.000	0.077	0.315
-417.457	293.292	-0.071	0.131
-416.442	716.525	0.066	0.178
-415.428	-130.700	0.338	-0.046
-414.413	800.000	0.067	0.247
-413.398	-163.159	-0.185	-0.009
-412.384	-14.729	-0.095	0.062
-411.369	-75.056	-0.127	-0.046
-410.355	-200.000	-0.001	0.255
-409.340	179.626	0.070	-0.104
-408.325	-70.604	0.366	-0.140
-407.311	-55.038	0.053	0.024
-406.296	176.312	0.185	0.271
-405.282	405.403	-0.092	0.196
-404.267	800.000	0.032	-0.096
-403.252	-62.443	-0.288	0.121
-402.238	-200.000	0.040	-0.181
-401.223	276.876	0.091	0.164
-400.209	-133.874	0.044	0.006
-399.194	-200.000	0.009	-0.087
-398.179	-69.390	-0.070	-0.027
-397.165	-200.000	0.015	-0.084
-396.150	8.312	-0.289	0.219
-395.136	-79.819	0.264	0.090
-394.121	-81.894	-0.112	-0.037
-393.106	-73.604	-0.304	0.112
-392.092	-115.802	0.206	-0.039
-391.077	-54.270	0.233	-0.107
-390.063	-118.914	0.105	-0.019
-389.048	-91.108	0.162	0.047
-388.033	-105.597	-0.233	0.053
-387.019	800.000	0.056	0.230
-386.004	-91.740	-0.188	-0.054
-384.990	-200.000	0.017	0.087
-383.975	-101.980	-0.148	0.036
-382.960	-3.021	0.144	0.101
-381.946	111.039	0.067	0.082
-380.931	-200.000	0.017	0.295
-379.917	37.580	-0.029	-0.026
-378.902	800.000	-0.026	-0.104
-377.888	-39.291	-0.257	0.136
-376.873	54.265	-0.045	-0.044
-375.858	392.232	0.122	-0.256
-374.844	-200.000	-0.027	0.149
-373.829	181.115	-0.156	0.230
-372.815	249.425	-0.041	-0.069
-371.800	31.122	0.350	-0.303
-370.785	-100.069	0.227	-0.057
-369.771	85.225	0.253	-0.280
-368.756	695.070	0.110	0.290
-367.742	18.246	0.130	0.105
-366.727	-200.000	-0.041	0.441
-365.712	-108.078	0.157	-0.034
-364.698	608.166	0.045	-0.112
-363.683	368.622	0.184	-0.375
-362.669	-200.000	-0.005	0.256
-361.654	296.625	-0.078	-0.145
-360.639	-47.124	-0.167	-0.082
-359.625	13.661	-0.200	-0.156
-358.610	-200.000	-0.010	0.164
-357.596	41.295	0.161	0.147
-356.581	160.966	-0.098	-0.138
-355.566	-81.617	-0.145	-0.048
-354.552	61.069	-0.072	0.072
-353.537	-35.602	-0.248	-0.135
-352.523	-200.000	-0.030	-0.226
-351.508	128.775	0.045	-0.057
-350.493	800.000	-0.087	0.321
-349.479	14.344	0.134	0.105
-348.464	-146.290	-0.144	-0.013
-347.450	-200.000	0.033	-0.404
-346.435	-54.057	-0.236	-0.108
-345.420	-107.555	-0.097	0.021
-344.406	-125.831	0.323	-0.049
-343.391	800.000	0.062	0.250
-342.377	-29.656	-0.236	-0.135
-341.362	474.624	0.080	0.181
-340.348	-200.000	0.022	-0.482
-339.333	-75.169	0.469	0.169
-338.318	-108.557	-0.189	0.041
-337.304	800.000	0.013	-0.039
-336.289	-103.247	-0.077	-0.018
-335.275	-17.626	0.271	-0.172
-334.260	-131.825	0.172	0.023
-333.245	21.822	0.128	0.105
-332.231	800.000	-0.060	0.208
-331.216	260.574	0.044	-0.076
-330.202	-200.000	0.120	0.565
-329.187	612.482	-0.117	0.294
-328.172	-9.842	0.187	0.125
-327.158	-200.000	-0.006	-0.124
-326.143	-32.405	-0.227	-0.128
-325.129	-200.000	-0.010	-0.244
-324.114	-110.942	-0.143	0.030
-323.099	-93.840	0.183	-0.051
-322.085	800.000	0.124	-0.443
-321.070	487.583	0.129	-0.297
-320.056	-120.364	0.182	-0.031
-319.041	-181.994	0.255	-0.005
-318.026	-190.170	-0.233	-0.003
-317.012	140.534	0.122	-0.161
-315.997	-53.621	-0.100	-0.046
-314.983	-134.628	0.123	-0.015
-313.968	44.153	0.228	0.211
-312.953	263.264	0.188	0.329
-311.939	-140.303	-0.166	0.017
-310.924	-86.930	0.228	-0.070
-309.910	-137.763	-0.399	0.045
-308.895	-52.557	-0.238	0.111
-307.880	-200.000	0.022	-0.176
-306.866	-117.344	-0.142	-0.026
-305.851	-200.000	0.011	-0.264
-304.837	-200.000	0.081	-0.410
-303.822	-22.518	0.222	0.135
-302.807	-126.348	-0.101	-0.015
-301.793	207.599	0.180	0.282
-300.778	-200.000	0.024	-0.343
-299.764	-94.780	-0.165	0.045
-298.749	-200.000	-0.064	0.292
-297.735	141.047	0.199	-0.264
-296.720	-34.558	0.181	-0.099
-295.705	134.213	0.074	-0.097
-294.691	723.086	-0.166	0.444
-293.676	131.307	-0.067	-0.087
-292.662	64.812	0.139	0.141
-291.647	800.000	0.063	0.275
-290.632	47.297	-0.237	-0.222
-289.618	576.970	0.028	0.068
-288.603	-157.705	-0.192	0.011
-287.589	-143.590	0.373	0.036
-286.574	589.201	0.039	-0.096
-285.559	-48.425	-0.026	-0.012
-284.545	-200.000	-0.033	0.159
-283.530	800.000	-0.083	-0.338
-282.516	800.000	-0.032	-0.133
-281.501	-158.573	0.119	0.007
-280.486	-116.656	-0.064	0.012
-279.472	359.892	-0.037	-0.073
-278.457	-200.000	0.015	0.079
-277.443	-83.797	0.152	-0.049
-276.428	602.555	-0.076	-0.189
-275.413	-26.012	0.233	0.138
-274.399	-55.410	-0.099	0.045
-273.384	175.436	0.186	0.271
-272.370	-161.870	0.257	0.013
-271.355	-200.000	0.009	-0.041
-270.340	-37.321	-0.390	0.209
-269.326	58.036	-0.071	-0.069
-268.311	129.753	0.015	0.019
-267.297	-29.706	-0.276	0.158
-266.282	-89.617	-0.349	0.103
-265.267	-183.075	-0.312	-0.006
-264.253	398.412	0.089	-0.187
-263.238	171.014	-0.081	0.116
-262.224	-200.000	-0.016	0.127
-261.209	-200.000	-0.001	0.232
-260.195	726.668	0.051	-0.137
-259.180	-200.000	0.084	-0.419
-258.165	310.162	0.073	0.137
-257.151	-142.630	-0.221	0.022
-256.136	-98.874	-0.341	0.087
-255.122	170.357	0.021	-0.030
-254.107	800.000	-0.066	-0.195
-253.092	-3.223	-0.111	0.078
-252.078	78.240	-0.297	0.318
-251.063	72.333	0.221	-0.231
-250.049	-83.574	-0.141	0.045
-249.034	-111.624	-0.191	-0.039
-248.019	242.276	-0.118	-0.198
-247.005	800.000	0.010	0.040
-245.990	800.000	-0.059	-0.223
-244.976	44.874	0.125	0.115
-243.961	-200.000	-0.019	-0.125
-242.946	-200.000	-0.028	-0.245
-241.932	42.070	-0.201	-0.183
-240.917	-93.850	0.048	0.013
-239.903	800.000	-0.106	0.301
-238.888	156.298	0.102	0.141
-237.873	-68.770	-0.247	0.096
-236.859	15.938	-0.226	0.178
-235.844	-200.000	0.022	-0.363
-234.830	-200.000	-0.006	-0.156
-233.815	-89.997	0.233	-0.068
-232.800	160.052	-0.120	0.168
-231.786	473.913	0.112	-0.254
-230.771	-200.000	0.053	0.239
-229.757	772.304	0.027	-0.073
-228.742	-113.925	-0.186	0.036
-227.727	130.227	0.092	-0.119
-226.713	-48.611	-0.306	0.147
-225.698	110.577	-0.172	0.207
-224.684	2.639	0.053	-0.038
-223.669	234.223	-0.160	-0.264
-222.655	67.642	0.223	-0.228
-221.640	-3.335	-0.234	-0.163
-220.625	5.047	0.234	-0.172
-219.611	800.000	-0.076	-0.296
-218.596	126.500	0.318	-0.403
-217.582	-133.714	0.206	-0.026
-216.567	-132.683	-0.257	0.033
-215.552	-3.394	0.332	-0.231
-214.538	544.891	0.046	0.110
-213.523	-14.243	0.156	0.101
-212.509	-51.614	0.238	-0.111
-211.494	11.800	-0.146	-0.112
-210.479	63.754	0.180	0.181
-209.465	-132.784	-0.105	0.013
-208.450	-24.676	-0.128	-0.076
-207.436	209.235	-0.073	0.115
-206.421	-63.203	-0.385	-0.159
-205.406	-11.448	-0.156	-0.102
-204.392	-200.000	-0.000	0.014
-203.377	-200.000	-0.009	0.041
-202.363	289.769	0.078	-0.141
-201.348	-59.894	-0.223	0.095
-200.333	-138.302	0.100	-0.011
-199.319	294.934	0.173	-0.316
-198.304	-60.218	-0.189	0.081
-197.290	2.348	0.197	0.142
-196.275	361.373	-0.078	0.157
-195.260	81.625	-0.251	-0.272
-194.246	179.779	0.063	-0.093
-193.231	-110.604	0.088	0.018
-192.217	40.132	0.097	-0.087
-191.202	246.157	-0.108	-0.182
-190.187	-74.122	-0.286	-0.104
-189.173	56.230	0.056	-0.054
-188.158	-40.688	-0.101	0.053
-187.144	79.410	0.232	0.249
-186.129	800.000	-0.026	0.112
-185.114	96.274	-0.204	0.234
-184.100	-41.377	-0.085	0.044
-183.085	-15.260	-0.207	-0.133
-182.071	-200.000	-0.015	0.302
-181.056	231.983	-0.042	0.069
-180.042	-200.000	-0.107	-0.530
-179.027	-200.000	0.009	-0.039
-178.012	-65.935	-0.386	-0.154
-176.998	-70.333	-0.181	0.069
-175.983	-200.000	-0.001	-0.052
-174.969	648.648	-0.082	0.211
-173.954	-156.147	0.161	-0.010
-172.939	318.364	-0.100	-0.189
-171.925	-73.186	0.162	-0.059
-170.910	35.959	-0.031	-0.027
-169.896	-183.214	-0.207	-0.004
-168.881	800.000	0.023	-0.074
-167.866	-200.000	-0.006	-0.173
-166.852	691.237	0.146	0.381
-165.837	-33.478	0.091	-0.050
-164.823	39.830	-0.200	-0.180
-163.808	185.216	-0.174	-0.258
-162.793	65.162	-0.044	-0.044
-161.779	-200.000	-0.037	0.240
-160.764	127.079	-0.167	-0.212
-159.750	106.581	-0.197	0.233
-158.735	-200.000	-0.047	-0.240
-157.720	128.879	-0.114	0.145
-156.706	580.174	0.127	0.312
-155.691	-95.795	-0.224	0.060
-154.677	-200.000	0.028	-0.210
-153.662	-113.241	0.330	-0.065
-152.647	80.148	-0.077	0.082
-151.633	-87.548	0.093	-0.028
-150.618	800.000	0.045	-0.171
-149.604	629.747	-0.030	-0.076
-148.589	5.902	0.227	-0.168
-147.574	149.004	-0.128	0.173
-146.560	32.365	0.216	-0.187
-145.545	243.363	-0.134	-0.225
-144.531	-72.778	0.297	0.109
-143.516	-129.872	-0.235	0.032
-142.502	-70.797	0.116	-0.044
-141.487	135.649	-0.109	-0.142
-140.472	422.594	-0.108	0.231
-139.458	442.644	0.043	0.095
-138.443	-47.243	-0.062	-0.030
-137.429	129.524	-0.067	0.086
-136.414	11.543	0.089	0.068
-135.399	55.392	0.318	0.307
-134.385	-200.000	0.021	-0.249
-133.370	-200.000	0.034	-0.325
-132.356	-129.763	-0.424	-0.058
-131.341	-33.158	0.221	-0.122
-130.326	800.000	0.066	-0.271
-129.312	280.545	-0.251	0.448
-128.297	361.452	-0.051	-0.101
-127.283	-200.000	-0.075	-0.385
-126.268	-200.000	-0.032	-0.196
-125.253	800.000	-0.071	0.299
-124.239	-96.748	-0.165	0.043
-123.224	-84.811	-0.202	-0.063
-122.210	512.195	-0.203	-0.472
-121.195	613.246	-0.079	0.198
