DTS Sentinel unit serial number:	SN413079Multiplexer serial number:	ORYXHardware model number:	OX4-SRSoftware version number:	ORYX F/W v4.00 Oryx Data Collector v3.7.2.0data status	okinstallation	princeton_trtdifferential loss correction	single-endedforward channel	channel 1reverse channel	N/Adate	2019/09/16time	09:14:35forward acquisition time	60.00reverse acquisition time	0.00gamma	496.2192k internal	0.2324k external	0.2324temperature offset calibration	0.9973default loss term (dB/km)	0.3790temperature slope calibration	1.0000multiplexer offset coefficient	1.0000multiplexer slope coefficient	1.0000fibre end	0.00T internal ref (°C)	31.09T ext. ref 1 (°C)	12.14T ext. ref 2 (°C)	28.47length (m)	temperature (°C)	Stokes	anti-Stokes-747.200	-140.886	0.349	-0.036
-746.185	-59.500	0.339	0.147
-745.171	-200.000	-0.003	0.114
-744.156	-29.244	0.380	0.220
-743.142	8.877	0.156	-0.119
-742.127	-19.472	-0.145	0.090
-741.112	178.783	-0.055	0.081
-740.098	-55.787	0.134	-0.060
-739.083	51.130	-0.103	0.098
-738.069	55.428	-0.067	-0.066
-737.054	-200.000	0.008	0.042
-736.039	-164.028	-0.326	-0.015
-735.025	-165.368	0.345	-0.015
-734.010	800.000	-0.121	-0.439
-732.996	223.889	-0.097	0.158
-731.981	89.806	0.059	-0.066
-730.966	-200.000	0.014	-0.259
-729.952	84.002	0.137	0.150
-728.937	-200.000	-0.024	-0.136
-727.923	-66.998	-0.146	-0.058
-726.908	62.814	-0.267	-0.269
-725.894	686.656	-0.054	0.143
-724.879	-81.299	-0.291	-0.097
-723.864	-4.176	0.188	-0.131
-722.850	164.406	-0.129	-0.183
-721.835	-200.000	0.047	-0.277
-720.821	29.859	-0.152	-0.131
-719.806	713.699	-0.091	0.244
-718.791	-200.000	0.009	0.156
-717.777	-164.672	0.344	-0.016
-716.762	-25.751	-0.209	0.124
-715.748	22.099	0.080	0.066
-714.733	331.940	-0.098	0.191
-713.718	20.153	0.201	0.164
-712.704	63.125	-0.096	0.097
-711.689	800.000	0.061	0.225
-710.675	751.828	0.115	-0.312
-709.660	125.974	0.272	-0.347
-708.645	-89.379	0.269	0.080
-707.631	-73.487	-0.187	0.069
-706.616	-111.920	0.453	0.092
-705.602	-200.000	-0.039	-0.275
-704.587	-25.606	0.032	0.019
-703.572	-200.000	0.002	0.042
-702.558	279.241	0.061	-0.110
-701.543	443.606	-0.085	-0.188
-700.529	462.620	0.158	-0.355
-699.514	800.000	0.074	-0.212
-698.499	-150.365	-0.251	0.019
-697.485	98.115	0.100	-0.116
-696.470	133.476	-0.062	-0.081
-695.456	-56.121	0.350	-0.157
-694.441	119.066	-0.057	0.070
-693.426	-70.827	0.269	-0.102
-692.412	-15.830	0.159	0.102
-691.397	514.032	-0.015	0.036
-690.383	-200.000	0.005	-0.062
-689.368	800.000	0.153	-0.498
-688.354	-146.739	-0.153	0.013
-687.339	113.675	-0.138	-0.169
-686.324	93.402	0.033	-0.038
-685.310	4.765	-0.208	0.154
-684.295	158.312	0.085	0.118
-683.281	-133.656	-0.251	0.032
-682.266	-48.459	0.124	-0.060
-681.251	154.930	-0.059	0.082
-680.237	19.771	0.138	0.112
-679.222	369.487	-0.051	-0.104
-678.208	800.000	0.070	-0.202
-677.193	-13.242	-0.262	-0.171
-676.178	-200.000	0.017	-0.338
-675.164	-117.164	-0.175	-0.032
-674.149	800.000	0.138	-0.503
-673.135	740.889	0.004	0.011
-672.120	36.353	0.047	0.042
-671.105	-77.385	-0.060	0.021
-670.091	-200.000	-0.029	-0.202
-669.076	-96.361	0.198	-0.053
-668.062	-90.548	-0.096	-0.028
-667.047	97.508	0.056	-0.065
-666.032	800.000	-0.100	0.325
-665.018	-126.676	-0.156	0.023
-664.003	-68.299	0.214	0.084
-662.989	800.000	0.012	-0.046
-661.974	-200.000	-0.074	-0.395
-660.959	-77.036	0.121	-0.042
-659.945	36.796	0.252	0.225
-658.930	286.745	0.118	-0.215
-657.916	-200.000	-0.036	-0.194
-656.901	-200.000	0.096	-0.451
-655.886	-52.698	0.369	0.171
-654.872	-200.000	-0.009	0.069
-653.857	800.000	0.018	-0.064
-652.843	332.748	0.097	0.188
-651.828	-48.286	-0.265	-0.129
-650.814	187.357	-0.217	-0.325
-649.799	-161.346	-0.148	-0.008
-648.784	-54.330	0.170	-0.078
-647.770	-200.000	-0.022	0.144
-646.755	-200.000	-0.000	0.206
-645.741	-200.000	0.018	0.318
-644.726	7.976	0.108	0.081
-643.711	-7.062	0.257	0.175
-642.697	100.045	-0.168	-0.196
-641.682	-131.982	0.073	0.010
-640.668	136.288	-0.146	-0.192
-639.653	-56.619	-0.073	-0.032
-638.638	15.470	-0.304	-0.240
-637.624	142.534	-0.151	0.202
-636.609	129.650	0.092	0.118
-635.595	64.032	0.061	-0.062
-634.580	243.816	0.075	0.127
-633.565	-76.387	-0.257	0.091
-632.551	800.000	0.073	0.236
-631.536	-101.545	-0.095	0.023
-630.522	-187.805	-0.268	-0.004
-629.507	-75.408	-0.077	0.028
-628.492	800.000	0.061	-0.203
-627.478	364.671	-0.020	-0.040
-626.463	-163.032	-0.161	-0.008
-625.449	-200.000	0.015	-0.131
-624.434	-200.000	0.015	0.287
-623.419	-48.515	0.177	-0.085
-622.405	-110.910	-0.227	0.047
-621.390	800.000	0.033	0.134
-620.376	162.476	-0.224	0.315
-619.361	-200.000	0.002	0.370
-618.346	-119.694	-0.058	-0.010
-617.332	480.634	0.215	0.491
-616.317	61.288	-0.074	0.074
-615.303	-144.726	-0.368	-0.034
-614.288	-200.000	-0.011	-0.084
-613.273	-92.571	-0.328	-0.092
-612.259	-74.411	-0.173	0.063
-611.244	-120.539	-0.413	-0.070
-610.230	213.776	-0.239	-0.380
-609.215	66.017	0.235	-0.239
-608.201	22.586	-0.236	0.194
-607.186	155.621	0.120	0.166
-606.171	-86.710	-0.103	0.032
-605.157	562.123	0.103	0.251
-604.142	-124.078	-0.191	0.030
-603.128	-6.671	0.173	-0.118
-602.113	-144.894	-0.239	-0.022
-601.098	2.460	0.233	0.170
-600.084	-200.000	0.026	0.138
-599.069	-200.000	0.017	-0.095
-598.055	114.882	-0.188	-0.230
-597.040	53.795	-0.097	0.093
-596.025	-163.111	0.192	-0.009
-595.011	29.731	-0.086	-0.074
-593.996	275.409	0.099	-0.176
-592.982	-50.585	-0.285	-0.135
-591.967	800.000	0.046	-0.168
-590.952	403.688	-0.174	-0.366
-589.938	-86.403	0.065	0.020
-588.923	800.000	0.109	0.361
-587.909	-64.990	-0.241	0.098
-586.894	800.000	-0.051	0.206
-585.879	-200.000	0.023	0.134
-584.865	-41.787	-0.235	-0.121
-583.850	49.603	0.253	0.239
-582.836	-200.000	-0.018	0.127
-581.821	228.097	0.116	0.190
-580.806	7.405	0.034	0.026
-579.792	16.493	-0.198	-0.157
-578.777	105.231	0.201	-0.237
-577.763	-200.000	-0.077	-0.351
-576.748	140.607	-0.139	-0.184
-575.733	800.000	0.083	0.241
-574.719	442.208	0.079	-0.173
-573.704	800.000	0.041	0.161
-572.690	-38.766	-0.279	0.148
-571.675	-4.161	-0.238	-0.166
-570.661	-0.704	0.082	0.058
-569.646	31.615	0.114	-0.099
-568.631	-66.860	-0.178	0.071
-567.617	268.316	-0.016	-0.029
-566.602	29.612	0.174	0.148
-565.588	46.504	0.077	0.072
-564.573	14.437	-0.155	-0.121
-563.558	-133.494	0.090	0.011
-562.544	352.148	0.095	0.189
-561.529	36.559	-0.220	0.195
-560.515	91.321	-0.111	0.125
-559.500	-108.059	0.268	0.058
-558.485	-178.311	-0.228	-0.005
-557.471	-194.948	-0.256	0.002
-556.456	800.000	-0.131	0.375
-555.442	-101.216	-0.508	0.124
-554.427	-71.442	-0.195	0.073
-553.412	-3.605	-0.064	-0.045
-552.398	-81.443	0.206	-0.068
-551.383	-29.559	-0.231	0.132
-550.369	-39.642	0.489	-0.256
-549.354	528.273	0.137	-0.325
-548.339	-153.825	-0.089	-0.006
-547.325	-74.723	0.272	-0.098
-546.310	72.337	-0.365	0.381
-545.296	344.733	-0.236	0.464
-544.281	-141.871	0.139	0.014
-543.266	-22.524	0.296	-0.179
-542.252	-35.838	0.096	-0.052
-541.237	-166.495	-0.187	-0.008
-540.223	-199.271	-0.335	-0.002
-539.208	16.935	0.269	0.213
-538.193	226.350	-0.038	0.062
-537.179	96.990	-0.158	-0.181
-536.164	309.313	-0.168	0.314
-535.150	-200.000	0.005	-0.057
-534.135	593.491	0.126	-0.312
-533.121	800.000	0.035	0.143
-532.106	161.905	-0.093	-0.130
-531.091	-87.250	-0.206	0.063
-530.077	140.903	0.121	0.160
-529.062	573.357	0.042	-0.101
-528.048	226.294	-0.111	-0.180
-527.033	106.956	-0.105	-0.125
-526.018	-157.621	-0.238	-0.014
-525.004	213.526	0.150	0.237
-523.989	-200.000	-0.033	-0.393
-522.975	-130.905	-0.129	-0.017
-521.960	-105.920	0.128	-0.029
-520.945	96.569	-0.099	-0.114
-519.931	-91.435	-0.045	0.013
-518.916	800.000	0.017	0.068
-517.902	-0.445	-0.158	0.112
-516.887	176.865	0.092	0.135
-515.872	21.049	-0.123	0.100
-514.858	19.829	-0.033	0.026
-513.843	-18.651	-0.189	-0.118
-512.829	-200.000	-0.016	0.168
-511.814	-17.696	0.117	0.074
-510.799	703.187	-0.133	0.350
-509.785	238.679	-0.172	0.286
-508.770	-10.073	0.391	0.260
-507.756	800.000	-0.094	0.397
-506.741	-200.000	0.027	0.273
-505.726	77.667	0.131	0.140
-504.712	-53.263	-0.165	-0.076
-503.697	-58.274	-0.238	-0.103
-502.683	-137.415	0.391	0.044
-501.668	-200.000	-0.003	-0.467
-500.653	-42.553	0.100	-0.051
-499.639	319.767	0.104	-0.197
-498.624	800.000	-0.070	0.303
-497.610	359.646	-0.019	-0.038
-496.595	-115.164	0.051	0.010
-495.581	128.640	-0.150	-0.191
-494.566	-200.000	-0.010	-0.175
-493.551	-122.595	0.263	0.043
-492.537	-12.105	-0.310	-0.203
-491.522	213.378	0.195	0.308
-490.508	114.472	0.114	0.139
-489.493	-78.263	0.198	0.068
-488.478	4.305	-0.415	0.304
-487.464	-85.293	-0.203	-0.063
-486.449	202.134	0.130	0.200
-485.435	-20.110	-0.255	0.157
-484.420	-158.369	0.052	0.003
-483.405	-116.800	-0.439	0.080
-482.391	52.654	-0.049	0.047
-481.376	-68.768	0.362	-0.140
-480.362	141.870	-0.158	0.210
-479.347	-200.000	0.002	-0.173
-478.332	55.558	-0.171	-0.165
-477.318	-197.616	0.436	0.003
-476.303	-200.000	-0.002	-0.152
-475.289	752.799	0.071	-0.191
-474.274	-200.000	0.012	-0.096
-473.259	123.903	-0.299	-0.376
-472.245	-62.586	0.348	-0.144
-471.230	800.000	0.024	0.073
-470.216	-200.000	0.056	-0.454
-469.201	34.612	-0.043	0.037
-468.186	-85.317	-0.252	0.079
-467.172	800.000	0.076	0.278
-466.157	98.529	0.278	-0.320
-465.143	-39.797	-0.101	0.053
-464.128	-56.569	-0.194	-0.086
-463.113	489.037	-0.030	0.069
-462.099	-112.654	0.323	-0.064
-461.084	-94.655	-0.115	-0.031
-460.070	-79.918	-0.273	0.092
-459.055	800.000	-0.041	-0.142
-458.040	-75.846	0.032	0.011
-457.026	-104.433	0.028	-0.007
-456.011	91.824	-0.035	0.039
-454.997	-28.770	0.219	0.126
-453.982	-152.710	-0.189	0.013
-452.968	-111.308	-0.058	-0.012
-451.953	-76.889	0.115	0.040
-450.938	653.597	-0.037	0.094
-449.924	-200.000	0.036	-0.264
-448.909	-95.407	-0.176	-0.047
-447.895	-10.456	-0.103	-0.068
-446.880	800.000	0.059	-0.171
-445.865	800.000	0.043	-0.156
-444.851	-126.709	0.164	-0.024
-443.836	253.707	0.113	0.193
-442.822	78.250	0.003	0.004
-441.807	-200.000	-0.012	-0.100
-440.792	-200.000	0.002	-0.097
-439.778	-100.874	0.046	-0.011
-438.763	800.000	0.073	-0.275
-437.749	-96.686	-0.156	0.041
-436.734	-29.137	-0.090	0.052
-435.719	-200.000	0.064	-0.342
-434.705	201.776	0.143	-0.220
-433.690	800.000	-0.010	-0.042
-432.676	190.112	-0.088	0.132
-431.661	-185.225	0.300	0.005
-430.646	800.000	0.070	0.262
-429.632	-200.000	-0.027	-0.159
-428.617	290.832	-0.162	-0.294
-427.603	437.629	0.157	-0.341
-426.588	-181.338	-0.416	-0.008
-425.573	139.003	-0.115	-0.150
-424.559	320.414	0.172	-0.327
-423.544	800.000	0.074	-0.205
-422.530	-36.021	0.286	0.154
-421.515	-200.000	-0.021	0.172
-420.500	-90.174	-0.142	-0.041
-419.486	-125.983	0.271	-0.041
-418.471	-36.512	0.321	0.172
-417.457	-200.000	-0.039	0.203
-416.442	198.056	-0.040	-0.060
-415.428	-200.000	0.066	0.449
-414.413	-200.000	-0.003	0.480
-413.398	-135.660	0.392	-0.046
-412.384	214.076	0.087	0.137
-411.369	146.497	-0.233	0.312
-410.355	-132.551	0.452	0.058
-409.340	-200.000	-0.017	0.205
-408.325	-200.000	-0.242	0.000
-407.311	-80.781	0.222	0.073
-406.296	101.343	0.134	0.155
-405.282	77.422	0.253	-0.268
-404.267	385.237	-0.115	0.237
-403.252	-200.000	-0.076	0.375
-402.238	-146.482	-0.340	0.030
-401.223	-64.060	0.291	0.118
-400.209	-149.456	-0.233	-0.018
-399.194	-200.000	0.004	0.191
-398.179	-2.663	-0.090	0.063
-397.165	800.000	-0.080	-0.329
-396.150	-200.000	0.035	-0.296
-395.136	800.000	0.037	0.146
-394.121	-159.985	0.208	-0.011
-393.106	52.292	0.199	0.189
-392.092	-150.352	0.219	0.017
-391.077	22.799	-0.391	0.319
-390.063	-95.965	0.579	-0.153
-389.048	127.925	0.185	0.234
-388.033	-135.261	-0.087	-0.010
-387.019	355.385	0.173	-0.343
-386.004	331.835	-0.075	-0.144
-384.990	-74.383	-0.410	-0.147
-383.975	189.934	0.109	-0.163
-382.960	-200.000	0.016	0.089
-381.946	74.126	0.085	-0.088
-380.931	-111.931	0.100	-0.020
-379.917	295.254	0.097	0.177
-378.902	-142.994	0.278	0.027
-377.888	800.000	0.065	-0.265
-376.873	800.000	-0.060	-0.169
-375.858	27.710	-0.112	-0.094
-374.844	-200.000	-0.025	0.391
-373.829	-54.440	0.023	0.011
-372.815	-68.537	-0.122	-0.047
-371.800	-150.066	-0.194	-0.015
-370.785	-74.415	0.229	-0.082
-369.771	-85.164	-0.242	0.075
-368.756	-32.944	0.292	0.161
-367.742	354.183	-0.081	-0.159
-366.727	90.827	-0.270	0.301
-365.712	-200.000	-0.002	0.092
-364.698	-182.618	-0.227	-0.004
-363.683	70.124	-0.180	-0.185
-362.669	-126.011	0.189	-0.028
-361.654	800.000	0.123	0.389
-360.639	-200.000	-0.034	-0.356
-359.625	436.379	-0.068	-0.148
-358.610	-62.906	0.126	0.052
-357.596	-200.000	-0.008	0.074
-356.581	95.185	-0.084	0.095
-355.566	489.538	0.181	0.411
-354.552	-156.167	-0.184	-0.012
-353.537	-200.000	0.023	-0.150
-352.523	320.852	0.057	-0.108
-351.508	-200.000	-0.006	-0.147
-350.493	369.876	-0.126	-0.254
-349.479	23.380	-0.209	0.171
-348.464	439.446	-0.146	-0.318
-347.450	21.423	0.135	0.109
-346.435	-85.377	0.209	0.065
-345.420	-154.808	0.147	-0.010
-344.406	-41.172	-0.304	0.156
-343.391	604.233	0.163	-0.402
-342.377	323.073	0.021	-0.039
-341.362	-32.290	0.203	0.112
-340.348	17.275	-0.133	0.105
-339.333	-58.375	-0.066	0.029
-338.318	24.145	-0.378	0.310
-337.304	278.998	0.023	-0.040
-336.289	-51.636	0.074	-0.034
-335.275	-127.392	-0.041	-0.006
-334.260	185.880	0.091	0.134
-333.245	800.000	-0.033	-0.113
-332.231	545.205	0.110	-0.261
-331.216	-113.186	-0.318	-0.062
-330.202	159.422	-0.074	-0.103
-329.187	-41.761	-0.096	-0.049
-328.172	-15.252	-0.190	-0.121
-327.158	-200.000	0.004	0.147
-326.143	-200.000	0.015	0.113
-325.129	241.303	0.014	0.024
-324.114	-123.300	0.094	-0.015
-323.099	800.000	0.021	-0.090
-322.085	377.521	-0.108	-0.218
-321.070	-200.000	-0.000	0.087
-320.056	-117.627	0.187	0.033
-319.041	80.372	0.137	0.147
-318.026	70.191	-0.262	-0.269
-317.012	55.394	0.130	0.125
-315.997	82.040	-0.168	-0.180
-314.983	303.818	-0.212	-0.390
-313.968	-51.981	0.235	-0.108
-312.953	-200.000	-0.017	-0.082
-311.939	540.335	-0.122	0.289
-310.924	-26.102	-0.123	0.072
-309.910	-10.978	0.050	0.033
-308.895	-44.622	-0.239	-0.118
-307.880	-200.000	-0.018	-0.249
-306.866	-200.000	-0.020	-0.150
-305.851	-72.448	0.271	-0.099
-304.837	-123.355	-0.171	0.027
-303.822	800.000	0.093	-0.304
-302.807	96.973	0.039	-0.045
-301.793	80.713	0.134	-0.144
-300.778	-49.023	-0.144	-0.068
-299.764	243.677	-0.081	-0.135
-298.749	-200.000	-0.014	-0.229
-297.735	-3.979	-0.165	-0.113
-296.720	-53.257	0.306	-0.139
-295.705	-32.905	-0.400	-0.220
-294.691	-66.807	0.302	0.119
-293.676	-73.385	-0.430	-0.156
-292.662	216.347	0.054	-0.085
-291.647	-143.734	-0.015	-0.001
-290.632	96.758	0.097	0.110
-289.618	-88.045	0.104	0.031
-288.603	800.000	0.065	0.272
-287.589	-77.048	0.041	-0.014
-286.574	-200.000	-0.021	-0.120
-285.559	48.754	0.130	0.121
-284.545	134.930	0.093	-0.120
-283.530	156.965	-0.102	-0.139
-282.516	-10.139	0.168	-0.110
-281.501	316.061	0.165	0.309
-280.486	-200.000	-0.020	0.091
-279.472	-86.003	-0.098	0.030
-278.457	24.994	-0.055	-0.045
-277.443	-117.954	-0.122	0.022
-276.428	437.653	-0.052	0.112
-275.413	-146.065	0.162	-0.014
-274.399	56.617	-0.140	-0.135
-273.384	70.802	0.163	0.167
-272.370	236.596	-0.040	0.066
-271.355	70.022	0.089	0.091
-270.340	800.000	0.108	-0.408
-269.326	5.886	0.099	-0.073
-268.311	114.541	0.071	0.086
-267.297	-68.590	0.400	-0.153
-266.282	452.708	-0.101	-0.221
-265.267	-6.561	-0.105	0.071
-264.253	-200.000	0.012	-0.263
-263.238	14.907	-0.220	-0.170
-262.224	-165.052	0.152	-0.007
-261.209	120.607	0.242	-0.298
-260.195	800.000	-0.016	-0.057
-259.180	-200.000	0.011	0.077
-258.165	-18.996	-0.064	0.040
-257.151	-60.729	-0.243	-0.102
-256.136	530.205	0.122	0.284
-255.122	-146.802	0.226	0.019
-254.107	-84.016	0.177	0.056
-253.092	196.300	-0.112	-0.170
-252.078	-13.706	0.195	0.125
-251.063	-115.072	0.033	0.006
-250.049	101.229	-0.265	-0.306
-249.034	172.376	0.090	0.128
-248.019	800.000	0.081	0.256
-247.005	132.029	0.250	-0.319
-245.990	417.286	0.038	-0.080
-244.976	800.000	-0.122	0.346
-243.961	-33.277	-0.111	0.061
-242.946	50.251	-0.081	-0.076
-241.932	-157.751	0.288	0.017
-240.917	155.256	0.070	-0.095
-239.903	-37.842	0.125	-0.066
-238.888	-200.000	0.002	0.127
-237.873	-21.079	-0.194	0.118
-236.859	-88.178	0.217	-0.064
-235.844	107.637	0.311	0.366
-234.830	-90.684	0.260	-0.074
-233.815	-70.108	0.259	0.098
-232.800	0.331	0.100	0.071
-231.786	800.000	0.033	-0.119
-230.771	234.501	0.140	0.229
-229.757	-142.883	0.032	-0.003
-228.742	-19.589	0.264	0.162
-227.727	-54.433	-0.313	0.140
-226.713	-200.000	-0.012	0.185
-225.698	-142.109	0.233	0.023
-224.684	-89.219	0.194	0.057
-223.669	-200.000	-0.004	-0.084
-222.655	-27.872	-0.023	-0.013
-221.640	282.624	0.139	0.246
-220.625	744.420	0.110	-0.293
-219.611	-200.000	0.026	-0.175
-218.596	-151.677	-0.123	0.009
-217.582	-167.505	0.203	0.008
-216.567	96.203	-0.091	0.103
-215.552	-98.969	0.107	0.027
-214.538	669.080	-0.159	0.407
-213.523	-42.919	0.172	-0.086
-212.509	101.656	0.250	0.288
-211.494	-70.658	0.296	-0.110
-210.479	185.544	-0.059	0.087
-209.465	-171.499	-0.203	-0.007
-208.450	17.877	0.283	-0.223
-207.436	49.102	-0.076	0.071
-206.421	800.000	0.079	0.252
-205.406	77.614	0.291	-0.306
-204.392	140.567	-0.133	0.174
-203.377	-200.000	0.040	-0.397
-202.363	-124.338	0.476	0.073
-201.348	-200.000	-0.074	-0.334
-200.333	-185.953	-0.200	-0.003
-199.319	566.626	-0.046	-0.109
-198.304	800.000	-0.027	0.085
-197.290	733.562	0.120	-0.319
-196.275	-118.446	-0.268	-0.047
-195.260	577.777	-0.116	0.279
-194.246	-200.000	0.034	0.164
-193.231	-200.000	0.030	0.190
-192.217	-114.881	0.266	-0.050
-191.202	-165.168	-0.075	0.003
-190.187	-200.000	-0.046	-0.257
-189.173	-62.055	-0.090	-0.037
-188.158	-200.000	0.034	0.263
-187.144	-200.000	-0.031	0.153
-186.129	-102.884	0.136	-0.032
-185.114	-93.971	0.368	-0.100
-184.100	65.181	-0.214	-0.213
-183.085	389.422	-0.187	0.382
-182.071	-200.000	-0.053	-0.457
-181.056	142.198	-0.117	-0.153
-180.042	220.649	-0.144	-0.228
-179.027	800.000	-0.061	-0.201
-178.012	-9.961	0.238	0.156
-176.998	66.260	0.143	-0.143
-175.983	-200.000	0.013	-0.142
-174.969	-0.781	0.015	-0.011
-173.954	-200.000	0.049	0.212
-172.939	-200.000	-0.039	0.306
-171.925	29.589	-0.190	-0.159
-170.910	83.238	0.126	-0.136
-169.896	136.084	0.195	0.251
-168.881	800.000	-0.017	-0.065
-167.866	-130.764	-0.165	-0.022
-166.852	800.000	0.027	0.105
-165.837	800.000	-0.061	-0.210
-164.823	24.666	0.254	-0.208
-163.808	-54.557	0.215	0.096
-162.793	-200.000	0.057	0.256
-161.779	-15.063	0.127	0.080
-160.764	-200.000	0.006	-0.182
-159.750	-68.299	-0.045	0.017
-158.735	-69.993	-0.147	0.055
-157.720	800.000	-0.056	-0.190
-156.706	-49.682	-0.348	-0.163
-155.691	451.707	-0.081	-0.177
-154.677	91.045	0.136	0.150
-153.662	5.177	0.084	-0.061
-152.647	423.278	-0.132	0.279
-151.633	370.977	0.172	-0.344
-150.618	254.209	0.116	-0.196
-149.604	-200.000	-0.009	-0.220
-148.589	-161.069	-0.150	0.008
-147.574	143.238	-0.117	-0.154
-146.560	35.300	-0.131	0.113
-145.545	-200.000	0.039	-0.350
-144.531	-126.458	0.340	0.050
-143.516	-200.000	-0.016	-0.069
-142.502	-102.593	-0.147	0.035
-141.487	-200.000	0.040	0.500
-140.472	82.856	-0.063	-0.068
-139.458	-200.000	0.276	0.001
-138.443	-200.000	-0.022	-0.119
-137.429	-200.000	-0.082	-0.406
-136.414	-159.536	0.501	-0.027
-135.399	-200.000	0.024	0.146
-134.385	-200.000	0.012	0.438
-133.370	-14.022	-0.355	-0.226
-132.356	-200.000	0.018	0.106
-131.341	140.576	-0.039	-0.050
-130.326	560.538	0.081	0.194
-129.312	-116.336	-0.338	-0.062
-128.297	-194.678	-0.230	-0.002
-127.283	214.164	-0.149	0.233
-126.268	-75.754	0.255	-0.089
-125.253	-116.585	0.042	0.008
-124.239	800.000	0.027	0.077
-123.224	137.274	0.125	-0.160
-122.210	800.000	-0.043	0.143
