DTS Sentinel unit serial number:	SN413079Multiplexer serial number:	ORYXHardware model number:	OX4-SRSoftware version number:	ORYX F/W v4.00 Oryx Data Collector v3.7.2.0data status	okinstallation	princeton_trtdifferential loss correction	single-endedforward channel	channel 1reverse channel	N/Adate	2019/09/17time	10:14:35forward acquisition time	60.00reverse acquisition time	0.00gamma	496.2192k internal	0.2323k external	0.2323temperature offset calibration	0.9960default loss term (dB/km)	0.3790temperature slope calibration	1.0000multiplexer offset coefficient	1.0000multiplexer slope coefficient	1.0000fibre end	0.00T internal ref (°C)	29.81T ext. ref 1 (°C)	0.17T ext. ref 2 (°C)	25.30length (m)	temperature (°C)	Stokes	anti-Stokes-747.200	-67.758	0.190	-0.075
-746.185	-46.726	-0.339	0.168
-745.171	-18.104	-0.224	0.142
-744.156	-200.000	0.008	0.117
-743.142	-200.000	-0.014	0.435
-742.127	-26.276	-0.176	0.104
-741.112	800.000	-0.038	0.121
-740.098	82.015	-0.346	0.379
-739.083	800.000	-0.106	0.390
-738.069	-133.737	-0.093	-0.012
-737.054	3.285	-0.110	-0.081
-736.039	-115.656	-0.215	0.041
-735.025	4.134	-0.219	0.162
-734.010	800.000	-0.086	-0.269
-732.996	-161.737	-0.231	-0.012
-731.981	11.572	-0.326	-0.253
-730.966	-119.840	0.225	-0.039
-729.952	-91.156	0.199	-0.058
-728.937	100.970	0.123	-0.145
-727.923	-165.832	-0.231	-0.010
-726.908	-60.739	-0.177	0.076
-725.894	689.754	0.140	-0.371
-724.879	-200.000	0.003	-0.354
-723.864	-75.878	-0.209	-0.075
-722.850	741.231	-0.130	-0.352
-721.835	-200.000	0.012	-0.167
-720.821	-90.649	-0.055	-0.016
-719.806	800.000	-0.081	0.267
-718.791	-61.267	0.107	0.045
-717.777	-38.099	-0.187	0.100
-716.762	93.270	-0.116	0.133
-715.748	33.057	-0.323	-0.282
-714.733	-168.925	-0.302	0.011
-713.718	-37.645	-0.462	0.248
-712.704	135.720	-0.037	-0.048
-711.689	-19.429	0.244	-0.152
-710.675	-200.000	0.016	-0.316
-709.660	88.550	0.121	0.135
-708.645	-200.000	-0.041	-0.194
-707.631	62.965	0.188	-0.190
-706.616	-200.000	0.008	0.218
-705.602	23.844	0.120	0.100
-704.587	300.588	0.126	0.235
-703.572	-195.290	-0.245	0.002
-702.558	-92.795	0.123	0.035
-701.543	114.901	-0.112	-0.138
-700.529	67.527	0.464	-0.478
-699.514	629.926	0.079	0.202
-698.499	-34.013	0.031	-0.017
-697.485	-200.000	-0.076	0.426
-696.470	-85.823	0.106	0.033
-695.456	56.917	-0.203	0.200
-694.441	-200.000	-0.023	-0.112
-693.426	-9.344	0.223	0.150
-692.412	-100.687	-0.185	-0.046
-691.397	27.509	-0.054	-0.046
-690.383	-140.473	0.301	0.032
-689.368	-38.713	0.160	-0.085
-688.354	-200.000	-0.063	0.371
-687.339	51.985	0.147	-0.141
-686.324	-200.000	0.009	-0.222
-685.310	-70.227	-0.205	-0.078
-684.295	-132.050	-0.375	-0.049
-683.281	-109.356	-0.192	0.041
-682.266	800.000	0.081	0.263
-681.251	49.741	0.214	0.203
-680.237	350.736	0.072	0.143
-679.222	-96.390	0.058	0.015
-678.208	223.252	-0.078	-0.126
-677.193	113.352	0.078	0.095
-676.178	22.317	-0.227	-0.187
-675.164	353.794	0.029	-0.059
-674.149	-26.525	0.285	-0.168
-673.135	195.056	-0.192	-0.294
-672.120	-23.972	0.130	0.078
-671.105	-98.995	0.270	0.069
-670.091	800.000	0.050	-0.178
-669.076	-200.000	0.029	0.249
-668.062	69.369	0.148	0.153
-667.047	195.570	-0.355	0.543
-666.032	-1.227	-0.104	0.074
-665.018	-200.000	0.000	0.159
-664.003	83.069	0.049	0.053
-662.989	-200.000	0.033	0.345
-661.974	-200.000	-0.007	0.139
-660.959	800.000	0.037	0.142
-659.945	-9.111	-0.092	-0.062
-658.930	-200.000	0.025	0.127
-657.916	-46.023	-0.088	0.044
-656.901	-16.865	-0.192	0.122
-655.886	800.000	-0.101	-0.321
-654.872	68.327	0.253	-0.261
-653.857	98.669	-0.200	0.232
-652.843	-167.310	0.053	-0.002
-651.828	150.158	-0.281	-0.384
-650.814	-52.717	0.036	0.017
-649.799	1.465	-0.145	0.105
-648.784	-200.000	-0.046	0.325
-647.770	23.356	-0.161	0.133
-646.755	800.000	-0.021	-0.065
-645.741	-200.000	0.014	0.088
-644.726	-200.000	-0.060	0.349
-643.711	25.896	0.211	-0.177
-642.697	-200.000	0.071	-0.406
-641.682	-142.148	0.063	-0.006
-640.668	74.054	-0.378	-0.399
-639.653	-107.788	-0.264	0.058
-638.638	-193.263	-0.194	-0.002
-637.624	-106.315	0.212	-0.048
-636.609	-200.000	0.041	-0.229
-635.595	-54.918	0.155	0.070
-634.580	-102.769	-0.464	-0.111
-633.565	327.771	-0.132	0.255
-632.551	-133.111	0.163	-0.021
-631.536	-200.000	0.033	0.252
-630.522	-200.000	0.013	-0.290
-629.507	37.588	-0.278	0.248
-628.492	43.999	0.102	0.094
-627.478	-162.324	0.204	0.010
-626.463	-101.330	0.233	0.057
-625.449	800.000	-0.133	-0.450
-624.434	0.919	0.238	-0.172
-623.419	-32.679	-0.164	-0.091
-622.405	219.682	-0.105	-0.169
-621.390	13.429	-0.051	-0.040
-620.376	-163.236	-0.042	-0.002
-619.361	608.063	-0.070	0.175
-618.346	564.889	-0.016	0.039
-617.332	161.034	-0.153	-0.215
-616.317	-101.639	-0.334	-0.082
-615.303	-80.093	0.527	0.178
-614.288	206.071	0.128	0.200
-613.273	58.295	0.036	-0.036
-612.259	-168.192	0.150	0.006
-611.244	-60.544	-0.235	-0.100
-610.230	-200.000	0.009	-0.321
-609.215	560.943	-0.201	-0.489
-608.201	-87.322	0.245	-0.075
-607.186	-62.695	0.140	0.058
-606.171	-101.891	0.161	-0.039
-605.157	66.903	-0.075	0.077
-604.142	37.989	-0.156	-0.139
-603.128	-64.815	0.284	-0.116
-602.113	-200.000	0.037	-0.166
-601.098	308.506	0.030	-0.056
-600.084	88.455	-0.077	-0.086
-599.069	-200.000	-0.039	-0.242
-598.055	-99.470	0.212	0.054
-597.040	42.231	0.096	-0.087
-596.025	301.070	-0.032	0.059
-595.011	-20.816	-0.160	-0.098
-593.996	-200.000	0.020	0.274
-592.982	800.000	0.014	0.039
-591.967	35.688	0.156	0.138
-590.952	21.595	0.159	0.130
-589.938	-95.973	0.136	0.036
-588.923	68.634	0.145	0.149
-587.909	94.619	-0.094	0.108
-586.894	-189.816	-0.131	-0.001
-585.879	-200.000	0.064	-0.345
-584.865	-76.729	0.239	-0.084
-583.850	9.065	0.300	0.228
-582.836	-11.415	-0.231	0.152
-581.821	363.274	0.027	0.054
-580.806	386.899	-0.171	-0.354
-579.792	-200.000	-0.011	0.167
-578.777	-200.000	0.008	0.186
-577.763	-100.489	-0.255	-0.063
-576.748	-165.701	-0.100	-0.004
-575.733	-196.075	-0.284	0.002
-574.719	8.151	-0.220	0.166
-573.704	-64.634	-0.095	-0.039
-572.690	-162.842	-0.228	-0.011
-571.675	-161.118	0.302	0.016
-570.661	-58.247	0.248	-0.108
-569.646	-200.000	-0.001	0.176
-568.631	-50.850	-0.107	-0.051
-567.617	-34.129	0.082	-0.045
-566.602	800.000	0.093	0.316
-565.588	-129.311	-0.361	0.050
-564.573	414.543	-0.083	0.178
-563.558	675.542	0.142	0.371
-562.544	-122.966	0.383	0.062
-561.529	251.162	-0.054	0.093
-560.515	800.000	-0.021	-0.082
-559.500	-175.827	-0.175	-0.005
-558.485	310.875	-0.089	0.167
-557.471	-133.843	-0.179	0.022
-556.456	-136.141	0.306	0.036
-555.442	712.440	0.120	0.318
-554.427	313.372	-0.210	-0.396
-553.412	-200.000	0.014	-0.123
-552.398	43.523	0.117	-0.107
-551.383	168.496	0.240	0.343
-550.369	-99.424	-0.323	0.081
-549.354	-21.581	-0.046	0.028
-548.339	173.027	-0.312	-0.451
-547.325	-200.000	-0.013	0.069
-546.310	73.937	0.184	-0.193
-545.296	-200.000	-0.013	-0.172
-544.281	310.941	0.076	0.142
-543.266	626.001	-0.128	0.323
-542.252	800.000	-0.063	0.210
-541.237	791.456	0.093	0.256
-540.223	-164.331	0.359	0.016
-539.208	-109.095	0.145	-0.031
-538.193	-200.000	-0.006	0.030
-537.179	-44.152	0.152	0.076
-536.164	-63.637	-0.154	0.063
-535.150	106.004	0.306	-0.363
-534.135	800.000	-0.016	0.053
-533.121	99.520	0.088	0.102
-532.106	-200.000	-0.056	0.383
-531.091	309.600	-0.181	0.339
-530.077	-15.726	-0.276	0.176
-529.062	-106.727	0.287	-0.064
-528.048	101.637	0.069	0.081
-527.033	578.841	-0.139	0.341
-526.018	-51.630	-0.165	-0.077
-525.004	0.203	0.093	0.067
-523.989	-200.000	0.009	0.275
-522.975	-200.000	0.006	0.035
-521.960	-17.312	-0.333	0.210
-520.945	-200.000	0.071	0.424
-519.931	79.701	-0.144	0.155
-518.916	800.000	-0.084	-0.352
-517.902	-55.999	0.131	0.059
-516.887	152.630	-0.044	0.060
-515.872	69.329	-0.077	0.080
-514.858	80.664	0.234	-0.252
-513.843	-200.000	0.036	0.260
-512.829	553.863	-0.123	0.295
-511.814	-200.000	0.106	-0.495
-510.799	800.000	-0.011	0.042
-509.785	33.557	-0.085	-0.074
-508.770	800.000	-0.120	-0.484
-507.756	13.799	0.299	0.232
-506.741	57.547	-0.162	-0.159
-505.726	-30.839	0.287	0.163
-504.712	299.871	-0.129	0.237
-503.697	700.065	0.061	-0.160
-502.683	353.501	-0.189	-0.376
-501.668	792.303	0.039	-0.109
-500.653	800.000	-0.112	0.345
-499.639	-145.683	-0.308	-0.027
-498.624	92.751	0.164	0.186
-497.610	-73.587	0.411	0.150
-496.595	800.000	-0.107	0.340
-495.581	-114.053	-0.397	-0.077
-494.566	800.000	-0.031	-0.118
-493.551	90.060	-0.037	0.042
-492.537	800.000	0.079	0.256
-491.522	479.069	0.114	-0.259
-490.508	-31.949	-0.167	-0.094
-489.493	-138.406	0.035	-0.004
-488.478	-200.000	0.049	0.269
-487.464	172.786	-0.240	0.345
-486.449	48.037	0.090	-0.084
-485.435	-200.000	0.002	0.074
-484.420	-57.794	0.491	-0.215
-483.405	800.000	-0.038	-0.165
-482.391	-128.756	-0.138	0.020
-481.376	358.152	0.119	-0.238
-480.362	-52.722	0.262	-0.121
-479.347	-88.639	0.209	-0.062
-478.332	18.883	0.208	0.166
-477.318	800.000	0.110	0.321
-476.303	128.168	-0.008	-0.010
-475.289	186.331	0.064	-0.094
-474.274	27.530	0.090	-0.076
-473.259	-76.387	0.316	0.111
-472.245	75.848	-0.244	-0.258
-471.230	-16.074	-0.139	0.088
-470.216	800.000	-0.039	-0.160
-469.201	-200.000	-0.011	0.224
-468.186	1.384	-0.176	-0.126
-467.172	-62.000	0.085	-0.035
-466.157	-200.000	0.031	-0.296
-465.143	529.672	-0.050	-0.117
-464.128	-17.487	0.278	-0.175
-463.113	-51.475	-0.143	-0.067
-462.099	-164.198	-0.240	-0.011
-461.084	-156.221	-0.234	-0.015
-460.070	-117.486	0.237	0.043
-459.055	26.451	0.116	0.097
-458.040	-0.334	-0.180	0.128
-457.026	528.660	-0.182	-0.429
-456.011	61.696	-0.084	0.084
-454.997	-200.000	-0.022	0.103
-453.982	-200.000	0.019	0.338
-452.968	-200.000	-0.007	0.355
-451.953	-200.000	-0.059	-0.334
-450.938	49.386	0.161	-0.151
-449.924	132.702	-0.152	0.196
-448.909	800.000	-0.099	0.290
-447.895	177.871	0.112	-0.163
-446.880	2.525	-0.358	-0.259
-445.865	800.000	-0.039	-0.114
-444.851	285.311	0.123	-0.221
-443.836	383.940	-0.043	-0.088
-442.822	195.096	0.171	-0.259
-441.807	79.813	0.221	-0.237
-440.792	-72.297	-0.528	0.195
-439.778	-200.000	0.016	-0.086
-438.763	-108.164	0.177	0.038
-437.749	-154.007	-0.312	-0.021
-436.734	-27.942	0.169	-0.098
-435.719	-111.603	0.136	0.028
-434.705	-125.091	-0.249	0.038
-433.690	-69.132	-0.155	0.059
-432.676	-200.000	-0.001	-0.316
-431.661	660.596	0.021	-0.054
-430.646	-200.000	0.003	-0.295
-429.632	-200.000	0.015	-0.153
-428.617	-113.084	-0.267	-0.053
-427.603	-174.096	0.063	0.002
-426.588	-49.908	0.192	0.091
-425.573	-200.000	-0.027	0.178
-424.559	185.300	0.107	-0.159
-423.544	-17.800	-0.354	-0.221
-422.530	-63.736	0.093	0.038
-421.515	-102.279	-0.263	-0.063
-420.500	-200.000	0.030	0.329
-419.486	-135.953	-0.121	-0.014
-418.471	323.894	-0.179	-0.340
-417.457	645.913	-0.140	-0.356
-416.442	655.039	-0.024	0.061
-415.428	37.571	-0.175	-0.155
-414.413	800.000	0.042	0.146
-413.398	40.856	-0.071	0.064
-412.384	748.566	-0.017	0.046
-411.369	412.143	-0.219	-0.463
-410.355	396.995	-0.026	-0.054
-409.340	196.004	0.368	-0.558
-408.325	142.371	-0.209	-0.277
-407.311	67.799	-0.272	0.277
-406.296	13.481	0.411	0.318
-405.282	17.376	0.245	-0.194
-404.267	800.000	-0.023	-0.066
-403.252	-103.057	-0.267	-0.063
-402.238	83.798	-0.096	0.105
-401.223	21.119	0.137	0.111
-400.209	522.976	-0.099	0.232
-399.194	220.819	0.066	-0.106
-398.179	64.949	0.221	0.222
-397.165	189.689	0.088	-0.132
-396.150	414.661	-0.130	-0.275
-395.136	345.104	-0.082	-0.160
-394.121	-200.000	0.032	0.209
-393.106	-12.157	-0.197	0.128
-392.092	223.551	-0.307	-0.494
-391.077	236.083	-0.187	0.309
-390.063	491.039	0.112	0.254
-389.048	8.085	-0.158	0.118
-388.033	-74.580	0.099	-0.035
-387.019	800.000	0.016	0.054
-386.004	-200.000	0.053	0.232
-384.990	26.547	0.193	0.161
-383.975	-161.538	0.299	-0.015
-382.960	109.940	-0.148	0.177
-381.946	-200.000	-0.053	-0.252
-380.931	-123.135	0.393	-0.063
-379.917	-200.000	0.024	0.193
-378.902	170.861	-0.060	-0.086
-377.888	220.092	-0.093	0.148
-376.873	-200.000	0.028	0.432
-375.858	-44.252	0.216	-0.108
-374.844	-27.114	0.118	0.068
-373.829	63.076	0.141	0.140
-372.815	-33.550	-0.240	0.132
-371.800	755.545	0.153	-0.412
-370.785	99.979	0.040	0.046
-369.771	-200.000	-0.044	0.210
-368.756	-77.371	0.299	-0.103
-367.742	-124.801	0.087	0.013
-366.727	-200.000	-0.050	0.295
-365.712	165.629	0.051	0.072
-364.698	800.000	-0.043	-0.122
-363.683	-200.000	0.070	0.375
-362.669	46.446	-0.170	0.157
-361.654	740.393	0.103	0.275
-360.639	-54.162	-0.346	0.157
-359.625	-96.338	-0.267	0.070
-358.610	-43.733	0.337	0.169
-357.596	-56.414	-0.144	-0.064
-356.581	717.652	0.096	-0.253
-355.566	800.000	0.136	0.382
-354.552	-104.175	-0.424	0.098
-353.537	-78.372	0.194	-0.066
-352.523	43.628	-0.091	0.083
-351.508	-48.977	-0.222	0.106
-350.493	-173.742	0.268	-0.008
-349.479	420.728	0.104	0.223
-348.464	-143.307	0.472	0.045
-347.450	-61.603	-0.079	0.033
-346.435	-69.544	-0.285	-0.109
-345.420	-103.804	-0.161	0.038
-344.406	-57.368	0.148	0.065
-343.391	76.671	-0.113	0.119
-342.377	77.183	-0.193	0.204
-341.362	800.000	-0.165	-0.598
-340.348	800.000	0.077	-0.322
-339.333	-26.980	-0.135	-0.078
-338.318	800.000	0.087	-0.371
-337.304	3.457	0.114	0.082
-336.289	-4.442	0.082	0.056
-335.275	-67.378	0.255	0.100
-334.260	-200.000	0.003	0.092
-333.245	-96.152	0.168	0.044
-332.231	800.000	0.027	0.109
-331.216	29.896	0.018	0.015
-330.202	30.787	-0.203	-0.173
-329.187	-154.447	-0.214	0.014
-328.172	-17.004	-0.122	0.077
-327.158	800.000	0.078	-0.240
-326.143	185.798	-0.189	-0.279
-325.129	-55.030	0.130	0.058
-324.114	-23.560	0.191	0.114
-323.099	-73.376	0.075	0.027
-322.085	-84.028	-0.066	0.021
-321.070	-200.000	0.013	0.231
-320.056	-164.303	-0.122	0.006
-319.041	-65.433	-0.285	-0.114
-318.026	-90.608	0.381	-0.110
-317.012	-74.714	0.146	0.052
-315.997	602.629	0.033	0.080
-314.983	-26.869	-0.190	-0.110
-313.968	-48.399	-0.099	-0.047
-312.953	-53.790	-0.260	-0.118
-311.939	-200.000	0.062	-0.308
-310.924	-44.439	-0.036	0.018
-309.910	7.925	0.106	-0.079
-308.895	-200.000	-0.008	-0.445
-307.880	-141.216	-0.287	0.029
-306.866	-74.385	-0.256	0.092
-305.851	6.628	-0.448	-0.331
-304.837	96.296	0.172	-0.196
-303.822	351.070	0.088	-0.172
-302.807	295.121	-0.113	-0.205
-301.793	272.404	0.056	-0.097
-300.778	206.623	-0.194	-0.299
-299.764	36.753	-0.128	-0.112
-298.749	139.491	-0.092	-0.121
-297.735	326.566	-0.027	-0.051
-296.720	-62.958	0.191	-0.078
-295.705	21.961	-0.248	0.201
-294.691	-67.516	0.234	-0.091
-293.676	56.380	0.096	0.092
-292.662	-52.179	0.210	-0.097
-291.647	70.117	0.105	0.107
-290.632	-200.000	0.005	-0.215
-289.618	800.000	-0.118	-0.324
-288.603	4.353	-0.193	-0.140
-287.589	79.998	0.197	-0.210
-286.574	-200.000	-0.059	-0.286
-285.559	-41.110	0.182	-0.093
-284.545	800.000	0.043	0.165
-283.530	23.374	-0.250	0.203
-282.516	-200.000	0.034	0.152
-281.501	87.910	-0.180	-0.198
-280.486	-200.000	-0.077	-0.355
-279.472	-200.000	0.017	-0.104
-278.457	138.132	0.041	0.053
-277.443	-176.340	0.250	0.006
-276.428	-200.000	-0.034	0.202
-275.413	-200.000	-0.031	-0.193
-274.399	-151.462	0.220	-0.016
-273.384	-174.194	0.105	0.003
-272.370	-200.000	0.027	-0.271
-271.355	-115.278	-0.136	0.025
-270.340	184.057	-0.089	0.131
-269.326	144.268	-0.221	-0.292
-268.311	-20.989	0.287	-0.174
-267.297	-185.888	0.197	-0.003
-266.282	203.698	-0.169	-0.260
-265.267	-139.015	0.457	-0.049
-264.253	-150.075	-0.046	0.004
-263.238	131.383	-0.312	-0.398
-262.224	-20.392	0.104	-0.064
-261.209	642.282	-0.033	-0.084
-260.195	52.942	-0.167	-0.158
-259.180	-200.000	0.018	0.258
-258.165	124.039	0.117	-0.146
-257.151	361.758	0.024	0.048
-256.136	-92.260	0.138	-0.039
-255.122	51.959	-0.177	0.167
-254.107	-40.261	0.397	0.204
-253.092	-200.000	0.034	0.173
-252.078	682.090	0.078	0.201
-251.063	-200.000	0.022	0.134
-250.049	-141.479	-0.207	0.021
-249.034	589.608	0.180	0.440
-248.019	110.342	-0.136	0.161
-247.005	576.657	0.070	0.168
-245.990	800.000	-0.139	0.385
-244.976	186.740	0.018	0.026
-243.961	-109.826	0.137	-0.029
-242.946	25.677	-0.167	-0.138
-241.932	-83.880	-0.233	0.073
-240.917	-47.138	0.053	-0.026
-239.903	-115.056	0.333	-0.063
-238.888	-88.297	0.274	-0.081
-237.873	8.532	-0.306	0.228
-236.859	800.000	0.052	-0.171
-235.844	800.000	0.053	-0.173
-234.830	-135.542	0.080	-0.009
-233.815	800.000	0.031	0.126
-232.800	161.638	-0.192	-0.266
-231.786	66.646	-0.186	-0.187
-230.771	-200.000	-0.009	-0.112
-229.757	-175.708	0.178	0.005
-228.742	-200.000	-0.225	-0.000
-227.727	183.505	-0.223	0.327
-226.713	233.957	0.288	0.469
-225.698	16.205	0.201	0.157
-224.684	326.568	0.114	0.216
-223.669	-101.273	0.279	-0.067
-222.655	363.511	0.188	0.373
-221.640	-74.264	-0.185	-0.066
-220.625	44.290	-0.160	-0.146
-219.611	561.235	-0.090	-0.216
-218.596	-200.000	-0.005	-0.201
-217.582	-121.778	-0.289	-0.047
-216.567	-200.000	-0.015	0.084
-215.552	-200.000	-0.015	-0.160
-214.538	800.000	0.019	0.062
-213.523	-17.221	0.134	0.084
-212.509	374.884	0.038	0.076
-211.494	-39.471	0.190	0.098
-210.479	-107.989	-0.440	0.094
-209.465	-25.852	0.231	0.135
-208.450	-26.335	-0.334	0.194
-207.436	56.708	-0.277	0.266
-206.421	104.350	0.158	0.184
-205.406	-53.239	0.239	-0.108
-204.392	-119.355	0.086	0.015
-203.377	106.731	0.136	0.160
-202.363	-55.253	0.039	-0.017
-201.348	800.000	-0.029	-0.103
-200.333	54.556	-0.162	0.154
-199.319	-200.000	0.005	0.077
-198.304	-138.394	-0.423	-0.046
-197.290	69.582	0.229	0.233
-196.275	94.521	-0.061	-0.069
-195.260	30.315	-0.197	-0.166
-194.246	532.988	0.118	-0.276
-193.231	279.765	-0.146	0.258
-192.217	-120.617	0.052	0.009
-191.202	486.490	-0.007	-0.015
-190.187	-72.744	-0.123	0.045
-189.173	-149.000	-0.119	0.009
-188.158	602.964	0.064	0.157
-187.144	175.573	-0.153	-0.219
-186.129	-106.688	0.318	0.070
-185.114	-59.181	0.075	-0.032
-184.100	31.299	0.113	-0.096
-183.085	-165.961	0.253	0.011
-182.071	38.597	0.176	0.155
-181.056	-56.300	-0.196	0.086
-180.042	-169.344	0.194	0.007
-179.027	-7.907	0.137	-0.091
-178.012	-103.878	0.120	-0.028
-176.998	548.246	0.109	-0.258
-175.983	167.263	-0.130	0.182
-174.969	-99.195	0.302	-0.075
-173.954	-46.951	0.108	0.052
-172.939	638.542	-0.091	-0.228
-171.925	-116.965	0.277	0.050
-170.910	-200.000	-0.000	0.232
-169.896	-200.000	-0.003	0.178
-168.881	-168.891	0.108	0.004
-167.866	-88.717	-0.186	0.055
-166.852	800.000	0.093	-0.313
-165.837	686.103	0.061	-0.157
-164.823	-18.420	0.120	0.074
-163.808	64.565	-0.198	-0.197
-162.793	-67.046	0.482	-0.188
-161.779	-157.989	0.297	-0.017
-160.764	-6.196	-0.139	0.094
-159.750	-110.808	0.157	-0.032
-158.735	19.604	0.234	0.185
-157.720	-95.358	0.433	0.115
-156.706	-64.095	-0.166	-0.067
-155.691	39.043	0.325	0.287
-154.677	-51.970	-0.451	0.207
-153.662	800.000	-0.049	0.148
-152.647	-160.753	-0.096	0.005
-151.633	-118.573	-0.168	0.029
-150.618	-36.618	-0.224	0.119
-149.604	38.955	-0.116	0.102
-148.589	-200.000	0.022	-0.152
-147.574	-200.000	0.007	0.054
-146.560	136.298	-0.229	0.294
-145.545	-62.637	-0.069	0.028
-144.531	395.543	0.091	0.186
-143.516	156.965	-0.172	-0.235
-142.502	-200.000	0.026	0.494
-141.487	124.401	-0.166	0.206
-140.472	10.545	-0.330	-0.248
-139.458	-144.566	0.275	-0.025
-138.443	-68.950	-0.090	0.034
-137.429	-51.585	0.282	-0.130
-136.414	85.477	0.233	-0.252
-135.399	-200.000	-0.015	-0.118
-134.385	-85.556	0.136	0.042
-133.370	-148.300	0.131	0.011
-132.356	-78.698	0.189	0.064
-131.341	11.460	0.243	-0.184
-130.326	508.462	-0.079	0.181
-129.312	-79.531	0.299	0.100
-128.297	186.691	0.160	0.236
-127.283	-77.160	0.328	-0.113
-126.268	-64.033	-0.167	-0.067
-125.253	39.807	0.341	0.302
-124.239	58.823	0.175	0.170
-123.224	115.623	0.068	-0.082
-122.210	-53.995	0.161	0.072
-121.195	117.533	0.273	-0.331
-120.180	-34.606	-0.242	0.130
