DTS Sentinel unit serial number:	SN413079Multiplexer serial number:	ORYXHardware model number:	OX4-SRSoftware version number:	ORYX F/W v4.00 Oryx Data Collector v3.7.2.0data status	okinstallation	princeton_trtdifferential loss correction	single-endedforward channel	channel 1reverse channel	N/Adate	2019/09/18time	22:50:35forward acquisition time	60.00reverse acquisition time	0.00gamma	496.2192k internal	0.2340k external	0.2340temperature offset calibration	1.0016default loss term (dB/km)	0.3790temperature slope calibration	1.0000multiplexer offset coefficient	1.0000multiplexer slope coefficient	1.0000fibre end	0.00T internal ref (°C)	24.06T ext. ref 1 (°C)	0.79T ext. ref 2 (°C)	18.00length (m)	temperature (°C)	Stokes	anti-Stokes-747.200	-52.860	-0.186	-0.086
-746.185	-40.704	0.039	0.020
-745.171	-14.516	0.177	0.114
-744.156	-93.114	0.290	0.081
-743.142	-200.000	-0.039	-0.190
-742.127	800.000	0.031	0.115
-741.112	669.607	0.171	0.444
-740.098	186.339	0.223	0.333
-739.083	-105.295	0.316	0.072
-738.069	-200.000	-0.026	0.197
-737.054	-42.471	-0.050	-0.026
-736.039	-107.724	-0.053	-0.012
-735.025	183.174	0.124	0.183
-734.010	-142.914	-0.179	0.017
-732.996	-200.000	0.006	0.287
-731.981	-103.231	0.159	0.038
-730.966	754.091	0.057	-0.153
-729.952	-95.197	-0.239	-0.065
-728.937	105.526	-0.062	-0.073
-727.923	-200.000	0.018	-0.508
-726.908	-80.645	-0.286	-0.095
-725.894	-133.031	0.423	-0.054
-724.879	-117.521	0.129	-0.023
-723.864	-8.238	-0.051	-0.035
-722.850	800.000	-0.086	0.319
-721.835	519.530	0.058	0.135
-720.821	363.699	-0.092	0.186
-719.806	-200.000	0.010	-0.316
-718.791	162.351	-0.146	0.205
-717.777	77.583	0.081	0.086
-716.762	-26.692	-0.390	0.229
-715.748	-83.348	-0.072	-0.023
-714.733	614.312	-0.096	0.240
-713.718	-200.000	0.044	-0.231
-712.704	800.000	0.066	-0.218
-711.689	-153.576	0.248	0.017
-710.675	189.002	0.102	0.152
-709.660	-200.000	-0.004	-0.393
-708.645	398.172	-0.067	-0.141
-707.631	56.782	0.071	0.070
-706.616	-132.684	0.147	0.019
-705.602	72.612	-0.101	-0.106
-704.587	800.000	-0.061	-0.176
-703.572	-86.033	0.162	-0.050
-702.558	278.228	-0.129	-0.231
-701.543	99.870	-0.145	0.168
-700.529	-94.718	-0.305	-0.083
-699.514	-75.828	0.161	-0.057
-698.499	64.275	0.075	-0.075
-697.485	800.000	0.055	-0.193
-696.470	85.564	-0.168	0.185
-695.456	65.050	-0.279	-0.281
-694.441	-54.279	0.352	-0.160
-693.426	-1.474	-0.174	-0.123
-692.412	12.922	0.087	-0.067
-691.397	-77.623	-0.035	-0.012
-690.383	-48.362	-0.217	-0.105
-689.368	-18.075	0.182	-0.114
-688.354	-31.293	0.302	-0.170
-687.339	350.750	-0.023	-0.045
-686.324	262.310	0.046	-0.080
-685.310	-200.000	-0.050	-0.404
-684.295	-147.886	-0.090	-0.008
-683.281	-61.072	-0.399	0.169
-682.266	-200.000	-0.017	0.376
-681.251	-200.000	-0.023	-0.158
-680.237	-200.000	-0.044	-0.349
-679.222	231.388	0.131	0.214
-678.208	-200.000	-0.033	0.182
-677.193	-200.000	-0.009	0.052
-676.178	-200.000	0.019	0.189
-675.164	113.461	0.431	0.523
-674.149	568.283	0.068	0.165
-673.135	-200.000	0.035	0.286
-672.120	-20.900	-0.110	0.067
-671.105	-20.691	0.225	0.138
-670.091	206.197	-0.179	0.278
-669.076	91.652	0.131	-0.147
-668.062	-200.000	-0.073	-0.392
-667.047	-59.473	0.262	-0.112
-666.032	-38.550	0.086	-0.045
-665.018	800.000	-0.046	0.135
-664.003	47.586	0.138	-0.129
-662.989	-120.609	-0.279	-0.047
-661.974	200.449	-0.141	0.217
-660.959	365.320	-0.068	-0.136
-659.945	800.000	-0.057	0.205
-658.930	140.026	0.105	-0.139
-657.916	-28.910	-0.135	-0.077
-656.901	-200.000	-0.037	0.189
-655.886	-117.805	0.282	0.051
-654.872	50.457	-0.214	-0.202
-653.857	315.027	-0.041	0.078
-652.843	-23.026	-0.289	0.174
-651.828	92.682	0.037	0.041
-650.814	213.275	0.129	0.203
-649.799	-149.566	-0.297	-0.023
-648.784	562.630	0.144	-0.347
-647.770	800.000	0.062	-0.173
-646.755	-150.942	-0.304	-0.023
-645.741	-149.870	0.358	-0.028
-644.726	-200.000	-0.066	-0.294
-643.711	-75.736	-0.126	-0.044
-642.697	-103.186	-0.252	0.060
-641.682	-32.076	0.049	0.027
-640.668	86.294	0.248	0.273
-639.653	-67.042	-0.287	0.113
-638.638	-200.000	-0.045	-0.333
-637.624	-9.013	0.216	-0.144
-636.609	-164.321	0.235	0.011
-635.595	314.306	0.064	0.119
-634.580	-200.000	-0.001	0.045
-633.565	-200.000	0.029	-0.213
-632.551	800.000	-0.059	-0.211
-631.536	-200.000	0.004	0.260
-630.522	610.976	-0.116	0.290
-629.507	263.803	0.111	-0.193
-628.492	-97.351	-0.169	0.044
-627.478	-65.060	0.080	0.032
-626.463	-78.242	0.206	-0.071
-625.449	152.531	0.112	-0.152
-624.434	-5.075	-0.126	-0.086
-623.419	-9.898	-0.190	0.126
-622.405	-200.000	-0.050	-0.258
-621.390	-200.000	-0.044	-0.289
-620.376	-47.639	-0.167	0.081
-619.361	-110.250	-0.078	-0.016
-618.346	-141.831	0.178	-0.018
-617.332	-200.000	0.113	0.512
-616.317	-124.473	0.219	-0.034
-615.303	800.000	-0.080	-0.293
-614.288	-200.000	0.003	0.061
-613.273	24.715	-0.048	0.040
-612.259	57.569	-0.076	0.074
-611.244	-200.000	0.028	-0.148
-610.230	96.966	0.215	-0.245
-609.215	86.891	0.203	0.224
-608.201	-66.211	-0.323	-0.128
-607.186	-75.899	0.139	-0.049
-606.171	43.755	0.122	-0.112
-605.157	-93.861	0.084	0.023
-604.142	-21.855	0.301	0.182
-603.128	-79.791	-0.421	0.141
-602.113	29.121	-0.207	0.175
-601.098	762.757	-0.114	-0.308
-600.084	32.804	0.349	0.301
-599.069	-117.440	-0.246	-0.044
-598.055	-160.251	0.454	-0.024
-597.040	-37.445	-0.154	-0.082
-596.025	800.000	0.071	0.230
-595.011	-28.567	-0.372	0.213
-593.996	399.231	0.051	0.107
-592.982	-1.017	-0.272	-0.192
-591.967	-128.673	0.175	-0.025
-590.952	-200.000	-0.010	0.342
-589.938	12.468	-0.219	-0.168
-588.923	-43.113	0.311	0.157
-587.909	154.495	-0.082	0.112
-586.894	264.485	0.117	-0.203
-585.879	800.000	-0.028	0.099
-584.865	-113.304	-0.327	-0.064
-583.850	422.977	-0.161	0.344
-582.836	-53.376	-0.374	-0.171
-581.821	800.000	0.023	0.065
-580.806	-200.000	-0.016	0.209
-579.792	6.018	-0.109	0.080
-578.777	-200.000	-0.023	-0.125
-577.763	-106.508	0.129	-0.029
-576.748	84.844	-0.135	-0.147
-575.733	-37.280	-0.208	0.110
-574.719	600.229	0.075	-0.186
-573.704	-56.229	0.211	-0.093
-572.690	-200.000	0.011	0.392
-571.675	-200.000	-0.042	-0.212
-570.661	-158.182	-0.365	0.021
-569.646	-141.873	0.222	-0.022
-568.631	151.782	-0.348	0.472
-567.617	272.145	0.114	0.200
-566.602	352.961	-0.045	0.089
-565.588	-42.075	0.208	0.106
-564.573	-96.055	-0.192	-0.051
-563.558	-200.000	-0.015	-0.402
-562.544	800.000	-0.079	-0.341
-561.529	-31.077	0.158	0.089
-560.515	-102.651	0.100	0.024
-559.500	276.641	-0.083	-0.148
-558.485	121.451	0.076	0.095
-557.471	-200.000	0.043	0.322
-556.456	788.465	-0.100	0.272
-555.442	-33.882	0.081	-0.045
-554.427	-200.000	0.016	0.225
-553.412	208.478	0.089	0.139
-552.398	34.245	-0.095	-0.082
-551.383	-90.720	-0.183	-0.052
-550.369	-200.000	0.061	0.342
-549.354	800.000	0.072	0.246
-548.339	-117.301	0.095	-0.017
-547.325	-200.000	-0.029	-0.389
-546.310	-69.232	0.135	-0.052
-545.296	91.997	0.239	-0.268
-544.281	-200.000	-0.025	0.238
-543.266	-96.124	-0.155	0.041
-542.252	-200.000	0.073	-0.356
-541.237	-200.000	0.007	-0.165
-540.223	-200.000	-0.064	0.333
-539.208	-80.149	0.306	0.102
-538.193	137.004	-0.133	-0.172
-537.179	41.677	0.182	-0.164
-536.164	172.273	0.080	0.114
-535.150	195.866	0.254	0.384
-534.135	-36.366	-0.049	0.026
-533.121	-200.000	0.041	-0.262
-532.106	800.000	-0.058	0.188
-531.091	-4.110	0.226	-0.156
-530.077	-31.120	-0.317	0.178
-529.062	800.000	-0.016	0.045
-528.048	800.000	0.042	0.163
-527.033	-129.993	0.632	0.086
-526.018	-200.000	-0.057	-0.364
-525.004	800.000	0.056	0.165
-523.989	81.333	-0.119	0.128
-522.975	-120.458	0.192	-0.032
-521.960	800.000	-0.075	-0.274
-520.945	-138.891	-0.163	0.018
-519.931	293.229	0.100	0.182
-518.916	-200.000	0.055	-0.286
-517.902	-200.000	-0.001	0.045
-516.887	-136.543	-0.270	0.031
-515.872	-136.432	-0.187	0.022
-514.858	15.647	0.251	0.196
-513.843	82.515	0.236	-0.254
-512.829	800.000	-0.059	0.168
-511.814	445.202	0.101	0.220
-510.799	-200.000	0.013	0.196
-509.785	-112.978	-0.237	-0.047
-508.770	-200.000	-0.012	0.216
-507.756	-142.133	-0.055	0.005
-506.741	233.215	0.101	0.166
-505.726	800.000	0.072	-0.313
-504.712	-16.429	-0.089	-0.056
-503.697	-156.268	0.151	0.009
-502.683	-32.874	0.458	-0.253
-501.668	95.890	0.026	0.029
-500.653	47.560	0.098	0.091
-499.639	408.014	-0.177	-0.371
-498.624	800.000	-0.133	-0.368
-497.610	116.365	-0.112	-0.136
-496.595	67.579	-0.205	-0.208
-495.581	53.022	-0.155	-0.148
-494.566	200.157	-0.066	-0.101
-493.551	-116.524	0.046	0.009
-492.537	-200.000	-0.064	-0.382
-491.522	9.897	0.220	-0.166
-490.508	-6.398	-0.254	0.172
-489.493	-53.454	0.403	0.183
-488.478	-95.893	-0.265	0.070
-487.464	800.000	0.051	-0.207
-486.449	55.277	-0.033	-0.031
-485.435	-42.091	-0.227	0.115
-484.420	-50.638	-0.023	-0.011
-483.405	80.414	0.061	0.066
-482.391	-95.660	0.110	-0.029
-481.376	344.124	-0.045	-0.087
-480.362	118.618	0.150	0.183
-479.347	208.140	0.166	0.258
-478.332	-200.000	-0.043	0.212
-477.318	-36.285	0.116	-0.062
-476.303	-61.549	-0.115	-0.048
-475.289	-23.293	0.198	0.118
-474.274	262.284	-0.031	-0.053
-473.259	-101.933	0.398	-0.095
-472.245	-65.510	0.224	-0.089
-471.230	249.871	0.069	-0.116
-470.216	-200.000	-0.069	-0.405
-469.201	-200.000	0.046	-0.244
-468.186	-124.413	-0.213	0.033
-467.172	-82.785	0.194	0.062
-466.157	-114.062	0.076	-0.015
-465.143	-57.562	-0.041	-0.018
-464.128	43.438	0.128	-0.116
-463.113	187.487	0.113	-0.167
-462.099	-200.000	0.027	-0.154
-461.084	-121.485	0.043	0.007
-460.070	56.391	-0.094	0.091
-459.055	-157.002	-0.211	0.013
-458.040	187.156	-0.225	-0.333
-457.026	132.272	-0.112	-0.143
-456.011	236.567	-0.247	-0.405
-454.997	33.303	0.152	0.131
-453.982	185.682	0.120	-0.177
-452.968	13.195	-0.054	-0.042
-451.953	19.175	-0.230	-0.183
-450.938	-54.721	-0.238	-0.107
-449.924	-98.323	-0.127	-0.032
-448.909	800.000	0.064	0.195
-447.895	-200.000	-0.005	0.459
-446.880	-126.058	-0.251	0.037
-445.865	374.389	-0.074	-0.149
-444.851	-98.874	0.102	-0.026
-443.836	29.685	-0.078	0.066
-442.822	473.679	-0.131	0.293
-441.807	-163.885	0.126	0.006
-440.792	-200.000	-0.027	-0.528
-439.778	800.000	0.039	0.148
-438.763	121.598	-0.076	-0.093
-437.749	-200.000	-0.017	0.227
-436.734	-200.000	-0.027	-0.201
-435.719	-30.406	0.229	-0.128
-434.705	21.976	-0.131	-0.105
-433.690	-26.243	0.149	-0.087
-432.676	-41.881	0.142	0.072
-431.661	-34.371	-0.169	-0.092
-430.646	-171.891	0.339	-0.011
-429.632	-200.000	-0.041	-0.225
-428.617	-73.751	0.157	-0.057
-427.603	-172.074	-0.211	0.007
-426.588	-200.000	0.056	0.335
-425.573	3.213	-0.194	0.140
-424.559	256.255	-0.031	-0.052
-423.544	-92.987	-0.414	-0.114
-422.530	-200.000	-0.023	0.187
-421.515	259.520	-0.063	-0.108
-420.500	-89.426	-0.185	-0.054
-419.486	195.176	0.108	-0.163
-418.471	800.000	0.112	0.446
-417.457	-117.200	0.128	-0.023
-416.442	-138.405	0.142	0.015
-415.428	17.780	0.285	0.224
-414.413	-200.000	0.012	-0.375
-413.398	467.061	-0.032	0.070
-412.384	749.422	-0.066	0.177
-411.369	112.445	0.085	0.102
-410.355	-38.159	-0.371	0.195
-409.340	-200.000	-0.024	0.424
-408.325	37.356	-0.161	0.141
-407.311	326.654	0.160	0.303
-406.296	800.000	0.035	-0.115
-405.282	-88.228	-0.381	0.113
-404.267	-155.514	-0.201	0.013
-403.252	-200.000	-0.075	0.372
-402.238	-93.962	0.096	0.026
-401.223	-136.257	0.274	0.032
-400.209	296.917	-0.136	0.247
-399.194	-45.538	-0.136	0.066
-398.179	-200.000	0.053	-0.295
-397.165	178.232	0.091	0.132
-396.150	166.961	0.072	0.100
-395.136	194.002	0.092	0.138
-394.121	40.597	0.182	0.162
-393.106	-38.658	-0.225	-0.117
-392.092	52.990	-0.090	0.085
-391.077	-116.152	0.141	0.026
-390.063	160.436	0.256	-0.353
-389.048	13.889	0.178	-0.137
-388.033	48.807	-0.049	0.045
-387.019	9.900	-0.026	0.019
-386.004	328.489	-0.078	-0.148
-384.990	150.319	0.310	-0.416
-383.975	-144.069	-0.227	-0.021
-382.960	-38.766	-0.064	0.033
-381.946	-200.000	-0.044	0.246
-380.931	800.000	0.104	-0.355
-379.917	-48.386	0.249	0.119
-378.902	153.461	-0.148	-0.200
-377.888	-85.395	-0.286	0.088
-376.873	-200.000	-0.009	0.146
-375.858	-20.801	-0.077	0.046
-374.844	-20.819	0.073	-0.044
-373.829	800.000	0.013	-0.047
-372.815	16.229	-0.097	0.075
-371.800	346.596	-0.040	-0.078
-370.785	800.000	0.054	0.209
-369.771	-129.668	0.250	-0.034
-368.756	132.358	-0.116	0.148
-367.742	-39.234	0.184	0.095
-366.727	800.000	-0.070	0.209
-365.712	-47.741	0.100	-0.048
-364.698	153.444	0.064	-0.087
-363.683	-200.000	-0.002	0.216
-362.669	-33.722	0.148	0.081
-361.654	-82.125	0.026	-0.008
-360.639	189.003	-0.030	0.044
-359.625	51.300	-0.079	-0.074
-358.610	-38.414	-0.320	-0.167
-357.596	216.165	-0.109	0.171
-356.581	62.846	-0.084	-0.083
-355.566	470.073	-0.062	-0.138
-354.552	10.070	-0.276	-0.207
-353.537	26.073	0.180	-0.149
-352.523	800.000	0.027	-0.106
-351.508	-200.000	0.085	0.501
-350.493	-200.000	0.060	0.282
-349.479	-56.489	0.273	0.119
-348.464	5.323	-0.058	0.043
-347.450	413.868	-0.062	-0.130
-346.435	-61.520	-0.098	0.041
-345.420	177.522	-0.105	-0.150
-344.406	-200.000	0.038	0.281
-343.391	-132.750	-0.171	-0.022
-342.377	4.272	0.284	-0.206
-341.362	390.665	-0.209	-0.428
-340.348	800.000	-0.087	0.238
-339.333	-128.201	0.121	-0.017
-338.318	-39.036	0.203	0.105
-337.304	-65.371	0.432	0.172
-336.289	-200.000	-0.022	-0.124
-335.275	-139.806	0.234	0.025
-334.260	-113.895	0.073	0.014
-333.245	-132.063	-0.274	-0.035
-332.231	-88.555	-0.460	0.135
-331.216	800.000	-0.091	0.254
-330.202	-37.600	0.152	-0.080
-329.187	-72.264	-0.065	-0.024
-328.172	-200.000	0.023	0.112
-327.158	-200.000	0.037	-0.297
-326.143	118.821	-0.096	0.117
-325.129	-200.000	-0.004	0.158
-324.114	-200.000	-0.023	0.114
-323.099	-35.941	0.161	0.086
-322.085	-200.000	0.024	0.283
-321.070	-200.000	-0.030	0.160
-320.056	-200.000	0.026	-0.195
-319.041	92.080	-0.157	0.174
-318.026	-200.000	0.007	0.053
-317.012	-145.766	0.166	0.015
-315.997	-51.397	0.194	-0.089
-314.983	-34.717	0.155	-0.084
-313.968	-200.000	-0.030	-0.236
-312.953	58.022	0.050	0.048
-311.939	-200.000	-0.014	-0.284
-310.924	238.355	-0.195	-0.320
-309.910	-200.000	0.017	0.399
-308.895	-109.858	0.273	0.056
-307.880	-119.953	-0.126	-0.021
-306.866	-40.869	-0.078	-0.040
-305.851	-37.736	0.031	0.016
-304.837	-178.454	-0.183	0.004
-303.822	318.399	0.105	-0.195
-302.807	725.478	0.034	0.090
-301.793	-146.355	-0.221	0.019
-300.778	-3.467	-0.061	-0.042
-299.764	-60.401	-0.205	-0.086
-298.749	-71.935	0.137	0.050
-297.735	800.000	-0.032	0.086
-296.720	-93.949	-0.199	0.054
-295.705	-45.407	-0.187	-0.092
-294.691	-53.777	0.068	0.031
-293.676	-155.586	-0.041	0.003
-292.662	40.565	0.064	0.057
-291.647	800.000	-0.014	0.047
-290.632	-84.752	-0.202	-0.062
-289.618	315.405	0.123	0.229
-288.603	-27.904	-0.109	0.062
-287.589	-200.000	-0.068	-0.403
-286.574	79.640	-0.095	0.100
-285.559	359.102	0.017	0.034
-284.545	800.000	-0.049	-0.163
-283.530	112.511	-0.030	0.036
-282.516	-50.446	-0.171	-0.080
-281.501	709.974	-0.094	-0.246
-280.486	156.743	-0.216	-0.294
-279.472	-140.132	0.387	0.040
-278.457	-88.880	0.212	-0.062
-277.443	800.000	-0.069	-0.277
-276.428	11.545	-0.245	-0.185
-275.413	-131.787	-0.123	0.016
-274.399	800.000	0.052	-0.153
-273.384	389.624	0.182	0.370
-272.370	-194.335	0.237	-0.002
-271.355	132.834	0.075	-0.096
-270.340	-67.458	-0.172	-0.066
-269.326	-2.665	-0.193	-0.133
-268.311	382.699	-0.118	0.238
-267.297	-137.292	-0.075	-0.008
-266.282	-86.516	0.069	0.021
-265.267	-189.506	0.304	0.003
-264.253	31.455	-0.083	-0.070
-263.238	268.054	0.126	0.217
-262.224	-147.286	-0.103	0.009
-261.209	-105.532	-0.219	-0.049
-260.195	-164.897	0.325	0.014
-259.180	464.423	0.035	0.078
-258.165	161.497	0.099	-0.136
-257.151	-200.000	0.039	-0.293
-256.136	24.553	0.155	-0.126
-255.122	800.000	-0.070	0.247
-254.107	-64.764	0.178	-0.071
-253.092	-200.000	0.018	0.284
-252.078	232.394	0.223	0.360
-251.063	148.843	0.097	0.129
-250.049	-200.000	0.002	0.191
-249.034	9.162	-0.046	0.034
-248.019	426.939	-0.215	0.455
-247.005	76.323	-0.191	-0.199
-245.990	-81.826	0.166	0.053
-244.976	74.420	0.232	0.240
-243.961	-200.000	-0.021	0.138
-242.946	-168.272	-0.174	0.007
-241.932	714.268	-0.066	-0.173
-240.917	-52.895	0.274	-0.124
-239.903	-62.895	0.119	0.049
-238.888	-102.774	0.097	0.023
-237.873	322.062	-0.154	-0.288
-236.859	45.760	0.100	-0.091
-235.844	800.000	0.045	0.188
-234.830	592.420	-0.136	0.331
-233.815	-91.352	0.226	0.063
-232.800	-200.000	-0.034	0.158
-231.786	-4.995	-0.136	-0.092
-230.771	60.306	0.117	0.114
-229.757	-147.198	0.348	0.029
-228.742	-142.879	-0.209	0.020
-227.727	800.000	0.094	-0.272
-226.713	64.468	-0.118	0.117
-225.698	800.000	0.049	0.148
-224.684	264.614	-0.144	-0.247
-223.669	-95.348	-0.079	-0.021
-222.655	800.000	-0.055	-0.164
-221.640	-72.110	0.030	0.011
-220.625	-200.000	0.037	-0.330
-219.611	-25.377	-0.127	-0.074
-218.596	32.699	0.150	0.127
-217.582	800.000	-0.054	0.189
-216.567	-71.786	-0.203	0.074
-215.552	-200.000	-0.002	0.038
-214.538	25.996	-0.291	0.238
-213.523	-10.417	0.037	-0.024
-212.509	232.369	0.106	-0.172
-211.494	-198.781	-0.253	0.001
-210.479	95.146	-0.150	0.167
-209.465	-66.357	0.096	-0.038
-208.450	-14.799	0.473	-0.298
-207.436	265.061	-0.071	0.121
-206.421	-116.188	-0.131	-0.024
-205.406	24.104	0.178	0.144
-204.392	-200.000	-0.064	-0.411
-203.377	335.899	-0.051	0.096
-202.363	-175.174	-0.281	0.008
-201.348	97.965	0.176	0.199
-200.333	-54.145	0.316	0.141
-199.319	-122.303	-0.071	0.011
-198.304	-38.020	-0.359	-0.187
-197.290	-71.778	0.356	-0.130
-196.275	-32.995	-0.321	0.175
-195.260	131.177	0.124	0.156
-194.246	164.838	-0.035	-0.048
-193.231	-200.000	-0.028	0.181
-192.217	-40.797	0.199	0.101
-191.202	-63.845	0.214	-0.086
-190.187	800.000	0.043	0.158
-189.173	78.140	-0.135	0.141
-188.158	-67.414	0.133	0.051
-187.144	-200.000	0.023	-0.301
-186.129	800.000	0.122	-0.488
-185.114	-200.000	-0.034	-0.231
-184.100	800.000	-0.021	0.067
-183.085	-134.459	0.212	0.025
-182.071	127.404	-0.091	0.113
-181.056	34.270	0.289	-0.248
-180.042	-75.315	-0.064	-0.023
-179.027	755.671	-0.038	-0.100
-178.012	39.189	0.183	0.160
-176.998	54.577	0.111	-0.105
-175.983	-52.194	0.107	-0.049
-174.969	159.312	-0.113	-0.154
-173.954	-69.110	-0.308	0.116
-172.939	-200.000	-0.006	-0.148
-171.925	-81.810	-0.136	-0.044
-170.910	271.733	-0.075	-0.129
-169.896	220.578	-0.118	0.186
-168.881	210.142	-0.159	0.244
-167.866	800.000	0.111	-0.315
-166.852	-88.072	0.142	-0.042
-165.837	15.139	0.153	-0.117
-164.823	100.665	0.217	-0.247
-163.808	54.745	-0.185	0.175
-162.793	60.758	0.100	-0.097
-161.779	129.809	0.265	0.332
-160.764	800.000	0.036	-0.129
-159.750	0.056	-0.290	0.202
-158.735	447.458	-0.107	0.230
-157.720	84.549	-0.169	-0.181
-156.706	-60.222	-0.202	-0.084
-155.691	-153.681	-0.257	-0.017
-154.677	16.551	0.103	-0.080
-153.662	-200.000	0.079	0.000
-152.647	-93.849	0.214	0.058
-151.633	-96.351	-0.145	-0.037
-150.618	800.000	-0.024	-0.067
-149.604	65.179	0.091	0.090
-148.589	3.612	0.068	0.049
-147.574	800.000	0.087	0.254
-146.560	-2.911	0.051	0.035
-145.545	196.896	-0.121	0.180
-144.531	-70.773	0.235	0.087
-143.516	800.000	-0.080	0.327
-142.502	-165.072	0.155	0.007
-141.487	-70.907	-0.204	-0.075
-140.472	243.234	-0.225	0.369
-139.458	-44.403	-0.260	0.127
-138.443	240.999	-0.085	0.139
-137.429	-160.521	-0.168	0.009
-136.414	800.000	0.077	0.215
-135.399	-200.000	0.039	-0.228
-134.385	-69.597	0.305	-0.114
-133.370	85.420	-0.129	0.139
-132.356	58.496	0.314	0.302
-131.341	800.000	0.060	-0.238
-130.326	-200.000	0.025	0.118
-129.312	-200.000	0.099	0.444
-128.297	800.000	0.031	0.118
-127.283	-138.718	-0.288	-0.031
-126.268	223.048	-0.193	0.304
-125.253	159.815	0.316	0.431
-124.239	800.000	0.069	0.187
-123.224	60.841	0.096	0.093
-122.210	-9.899	0.175	0.114
-121.195	-163.630	-0.555	-0.026
