DTS Sentinel unit serial number:	SN413079Multiplexer serial number:	ORYXHardware model number:	OX4-SRSoftware version number:	ORYX F/W v4.00 Oryx Data Collector v3.7.2.0data status	okinstallation	princeton_trtdifferential loss correction	single-endedforward channel	channel 1reverse channel	N/Adate	2019/09/10time	18:28:11forward acquisition time	60.00reverse acquisition time	0.00gamma	496.2192k internal	0.2306k external	0.2306temperature offset calibration	0.9925default loss term (dB/km)	0.3790temperature slope calibration	1.0000multiplexer offset coefficient	1.0000multiplexer slope coefficient	1.0000fibre end	0.00T internal ref (°C)	35.97T ext. ref 1 (°C)	-0.39T ext. ref 2 (°C)	28.04length (m)	temperature (°C)	Stokes	anti-Stokes-747.200	800.000	0.093	0.307
-746.185	-63.286	0.076	-0.032
-745.171	-200.000	-0.004	-0.268
-744.156	-52.561	0.168	0.079
-743.142	-35.856	-0.159	-0.087
-742.127	-200.000	-0.013	0.083
-741.112	800.000	-0.074	-0.255
-740.098	-200.000	-0.013	0.209
-739.083	-200.000	-0.006	-0.190
-738.069	261.276	0.089	0.157
-737.054	120.311	-0.093	-0.117
-736.039	-108.846	-0.235	0.051
-735.025	405.604	0.100	0.214
-734.010	175.814	0.052	0.076
-732.996	-200.000	0.007	0.225
-731.981	-82.809	0.104	0.034
-730.966	-5.782	-0.249	0.173
-729.952	-65.426	-0.143	0.059
-728.937	800.000	-0.019	-0.061
-727.923	431.757	-0.073	-0.160
-726.908	32.203	-0.310	-0.272
-725.894	-61.460	-0.623	-0.266
-724.879	-200.000	-0.003	0.260
-723.864	103.286	-0.169	-0.201
-722.850	19.231	-0.228	-0.186
-721.835	-10.289	-0.160	-0.108
-720.821	154.885	0.237	-0.332
-719.806	800.000	-0.093	-0.329
-718.791	250.804	-0.181	-0.312
-717.777	-200.000	-0.042	-0.240
-716.762	-200.000	0.005	-0.166
-715.748	484.083	0.158	-0.365
-714.733	25.164	-0.184	0.155
-713.718	-26.668	-0.149	0.089
-712.704	18.498	-0.082	0.067
-711.689	-200.000	-0.012	-0.118
-710.675	42.231	-0.228	-0.211
-709.660	-0.686	-0.145	0.104
-708.645	-200.000	0.015	-0.073
-707.631	-136.242	-0.177	-0.021
-706.616	133.216	-0.149	-0.196
-705.602	1.745	0.026	0.019
-704.587	-200.000	0.100	-0.528
-703.572	458.215	0.099	-0.223
-702.558	199.336	-0.095	-0.148
-701.543	-72.613	0.061	-0.023
-700.529	-28.722	-0.182	-0.106
-699.514	438.348	0.230	-0.509
-698.499	-200.000	-0.034	0.214
-697.485	193.293	-0.046	-0.070
-696.470	97.577	-0.157	-0.184
-695.456	-200.000	0.041	0.267
-694.441	211.468	0.146	-0.234
-693.426	800.000	0.041	-0.147
-692.412	-200.000	0.024	-0.256
-691.397	-77.079	-0.106	0.038
-690.383	800.000	0.148	-0.529
-689.368	583.068	-0.060	0.150
-688.354	-64.900	-0.477	0.196
-687.339	-200.000	0.026	-0.410
-686.324	-127.762	-0.220	0.032
-685.310	-18.341	0.104	-0.066
-684.295	-200.000	-0.020	-0.144
-683.281	-200.000	0.007	-0.154
-682.266	75.203	0.210	-0.225
-681.251	-110.309	0.259	0.055
-680.237	-200.000	-0.025	0.119
-679.222	100.680	0.171	-0.201
-678.208	510.693	-0.114	-0.269
-677.193	-200.000	-0.002	0.115
-676.178	-114.326	-0.130	-0.025
-675.164	-94.751	-0.070	0.019
-674.149	10.844	0.130	-0.101
-673.135	314.152	-0.020	-0.039
-672.120	-129.173	0.112	0.016
-671.105	-27.105	0.055	0.033
-670.091	800.000	-0.075	0.299
-669.076	308.549	-0.168	0.318
-668.062	426.840	-0.055	-0.121
-667.047	-200.000	0.023	-0.485
-666.032	187.967	-0.066	0.101
-665.018	-21.738	0.264	-0.163
-664.003	-60.783	-0.448	0.192
-662.989	15.048	0.061	-0.048
-661.974	-113.251	-0.044	-0.009
-660.959	-38.638	-0.463	0.248
-659.945	41.834	0.096	0.088
-658.930	-97.072	-0.168	0.044
-657.916	-86.817	-0.151	0.047
-656.901	72.446	0.021	-0.022
-655.886	6.714	0.199	0.150
-654.872	365.285	-0.164	-0.335
-653.857	800.000	0.060	0.245
-652.843	-65.552	-0.135	-0.055
-651.828	-3.269	-0.261	0.184
-650.814	-200.000	0.004	0.186
-649.799	-200.000	-0.023	0.195
-648.784	55.166	-0.416	-0.407
-647.770	-200.000	-0.031	-0.333
-646.755	-148.762	0.116	-0.010
-645.741	-200.000	-0.004	-0.199
-644.726	-200.000	-0.002	-0.096
-643.711	482.224	0.239	-0.550
-642.697	-200.000	0.079	-0.380
-641.682	194.540	-0.205	0.315
-640.668	-196.529	0.104	0.001
-639.653	32.006	0.041	0.036
-638.638	-115.575	0.196	0.037
-637.624	-52.495	-0.219	0.102
-636.609	-200.000	0.018	-0.396
-635.595	-66.212	-0.255	-0.103
-634.580	-200.000	-0.031	0.142
-633.565	-200.000	0.023	0.196
-632.551	126.202	-0.202	0.259
-631.536	-142.615	-0.171	0.017
-630.522	-65.850	-0.271	0.110
-629.507	162.591	0.131	0.186
-628.492	800.000	0.048	0.211
-627.478	190.265	0.129	-0.196
-626.463	-111.266	0.302	-0.063
-625.449	63.113	0.073	0.074
-624.434	-170.666	0.052	-0.002
-623.419	13.285	0.060	-0.047
-622.405	284.401	0.108	0.197
-621.390	68.198	0.069	0.071
-620.376	-100.953	0.196	-0.049
-619.361	28.660	0.063	-0.054
-618.346	160.531	0.201	-0.284
-617.332	73.267	0.117	-0.123
-616.317	0.680	0.337	0.244
-615.303	373.741	-0.084	0.174
-614.288	-75.636	0.260	0.093
-613.273	800.000	0.018	0.064
-612.259	6.923	0.221	0.166
-611.244	-115.530	-0.098	-0.019
-610.230	-119.890	-0.343	0.060
-609.215	-200.000	-0.026	0.246
-608.201	-200.000	-0.045	0.338
-607.186	271.878	0.094	0.168
-606.171	63.419	-0.191	-0.194
-605.157	-99.769	-0.290	-0.074
-604.142	-148.997	-0.116	0.009
-603.128	-200.000	-0.073	0.496
-602.113	-7.916	-0.059	-0.040
-601.098	-87.591	0.234	-0.071
-600.084	-104.183	0.364	0.086
-599.069	362.895	-0.121	0.247
-598.055	800.000	0.093	0.347
-597.040	481.524	0.159	-0.366
-596.025	491.612	0.069	-0.161
-595.011	-80.944	0.295	-0.099
-593.996	-200.000	0.038	0.262
-592.982	-101.398	-0.289	0.071
-591.967	-119.315	0.187	-0.033
-590.952	-131.776	-0.370	0.049
-589.938	-99.015	0.121	0.031
-588.923	-45.418	-0.108	0.054
-587.909	-200.000	-0.028	-0.243
-586.894	-44.353	-0.024	0.012
-585.879	9.106	-0.142	0.108
-584.865	-200.000	0.004	0.081
-583.850	388.273	-0.119	0.250
-582.836	43.837	-0.205	-0.189
-581.821	553.847	0.055	-0.135
-580.806	800.000	0.101	-0.306
-579.792	800.000	0.125	-0.393
-578.777	-200.000	0.035	-0.296
-577.763	-115.843	-0.344	0.065
-576.748	-9.336	-0.333	-0.225
-575.733	-49.959	0.215	0.103
-574.719	800.000	0.107	0.424
-573.704	209.435	-0.147	-0.233
-572.690	-200.000	0.002	0.050
-571.675	-70.538	-0.170	-0.065
-570.661	721.901	0.090	0.242
-569.646	-23.965	0.036	0.022
-568.631	-126.937	0.229	-0.034
-567.617	-200.000	0.022	-0.127
-566.602	76.182	-0.078	0.084
-565.588	-182.782	-0.136	0.002
-564.573	257.465	0.025	0.043
-563.558	-200.000	-0.042	-0.244
-562.544	144.111	-0.255	-0.343
-561.529	298.044	0.162	0.301
-560.515	42.731	-0.182	-0.168
-559.500	-67.391	-0.043	-0.017
-558.485	260.056	-0.164	0.286
-557.471	-32.595	0.138	0.078
-556.456	0.793	-0.362	-0.261
-555.442	800.000	-0.009	0.034
-554.427	-200.000	-0.021	-0.195
-553.412	-72.526	0.359	0.134
-552.398	800.000	-0.043	-0.183
-551.383	-66.052	0.118	-0.047
-550.369	445.169	0.038	-0.083
-549.354	800.000	-0.047	-0.164
-548.339	16.336	0.096	0.076
-547.325	-110.399	-0.364	-0.076
-546.310	42.278	0.134	-0.123
-545.296	800.000	-0.076	-0.313
-544.281	-200.000	0.012	0.096
-543.266	-54.740	-0.171	0.078
-542.252	193.819	0.126	0.192
-541.237	-7.328	-0.256	-0.175
-540.223	75.466	0.228	-0.243
-539.208	-169.925	0.094	0.003
-538.193	-182.838	-0.305	0.006
-537.179	-12.858	0.298	0.196
-536.164	-200.000	0.013	0.121
-535.150	379.831	0.058	0.119
-534.135	-59.962	0.250	-0.108
-533.121	-147.203	0.216	-0.019
-532.106	230.897	-0.045	0.075
-531.091	-93.433	0.215	0.060
-530.077	335.307	-0.034	0.066
-529.062	-89.692	-0.330	-0.098
-528.048	800.000	0.021	-0.091
-527.033	182.654	-0.038	-0.056
-526.018	188.400	0.100	-0.151
-525.004	283.795	0.092	-0.167
-523.989	-45.808	0.132	-0.066
-522.975	78.190	0.170	0.183
-521.960	155.685	-0.059	0.082
-520.945	-200.000	-0.037	0.405
-519.931	-138.201	-0.311	0.035
-518.916	58.339	-0.190	0.188
-517.902	407.615	0.196	0.417
-516.887	284.005	0.107	0.194
-515.872	108.958	0.109	0.131
-514.858	452.461	-0.100	-0.223
-513.843	-138.620	0.205	0.023
-512.829	-200.000	0.095	0.459
-511.814	-200.000	0.018	0.141
-510.799	132.940	-0.116	0.150
-509.785	800.000	0.024	0.098
-508.770	-136.383	-0.355	0.042
-507.756	-93.273	0.269	-0.075
-506.741	-200.000	0.046	0.000
-505.726	251.920	-0.074	0.127
-504.712	-200.000	-0.023	0.231
-503.697	185.291	0.136	0.204
-502.683	24.704	0.156	-0.130
-501.668	375.057	0.097	-0.199
-500.653	800.000	-0.020	-0.077
-499.639	-49.300	-0.148	-0.071
-498.624	-21.858	0.254	0.156
-497.610	255.703	-0.082	0.142
-496.595	-200.000	0.031	0.146
-495.581	-114.267	0.216	0.042
-494.566	-200.000	0.024	-0.332
-493.551	107.426	0.109	-0.131
-492.537	277.118	0.150	-0.268
-491.522	69.948	0.163	0.169
-490.508	246.077	0.177	-0.300
-489.493	-68.584	0.212	-0.083
-488.478	-62.044	-0.290	-0.122
-487.464	-7.490	-0.225	-0.154
-486.449	343.096	0.096	0.189
-485.435	155.493	0.201	0.279
-484.420	-200.000	-0.066	-0.409
-483.405	715.763	0.126	0.338
-482.391	800.000	0.091	0.259
-481.376	800.000	-0.066	0.204
-480.362	-200.000	-0.026	-0.295
-479.347	453.992	-0.140	-0.313
-478.332	51.264	0.109	0.104
-477.318	-104.943	0.372	0.086
-476.303	22.851	-0.284	-0.234
-475.289	-94.264	-0.161	0.044
-474.274	-200.000	0.024	0.111
-473.259	-94.223	-0.256	-0.070
-472.245	585.038	0.070	0.172
-471.230	-200.000	-0.076	0.405
-470.216	709.280	0.094	-0.250
-469.201	-59.636	-0.363	-0.157
-468.186	-200.000	0.023	-0.158
-467.172	-200.000	-0.033	0.189
-466.157	-200.000	0.003	0.118
-465.143	-47.009	0.160	0.078
-464.128	-47.406	-0.335	-0.164
-463.113	-124.917	0.114	-0.018
-462.099	800.000	0.078	0.259
-461.084	26.303	-0.159	0.134
-460.070	-79.391	0.091	0.031
-459.055	-39.471	0.154	0.081
-458.040	-43.926	-0.119	-0.060
-457.026	-200.000	0.018	-0.186
-456.011	-200.000	0.005	0.059
-454.997	-200.000	-0.010	-0.162
-453.982	-88.466	-0.126	0.038
-452.968	176.880	-0.138	0.202
-451.953	-200.000	0.014	0.288
-450.938	-71.498	-0.144	-0.054
-449.924	432.170	0.186	-0.406
-448.909	33.215	-0.455	-0.397
-447.895	490.452	0.089	-0.205
-446.880	129.358	0.185	0.237
-445.865	233.509	0.247	0.410
-444.851	74.557	-0.172	0.182
-443.836	-50.692	-0.194	-0.092
-442.822	68.088	-0.166	0.171
-441.807	236.014	-0.218	-0.363
-440.792	492.005	-0.088	-0.202
-439.778	-160.884	0.146	-0.008
-438.763	195.594	-0.096	0.147
-437.749	800.000	0.074	0.260
-436.734	-109.622	-0.276	-0.058
-435.719	445.850	-0.103	-0.228
-434.705	-200.000	0.007	0.102
-433.690	800.000	-0.018	-0.067
-432.676	-200.000	0.042	-0.267
-431.661	-111.135	-0.357	0.073
-430.646	-200.000	-0.064	-0.295
-429.632	121.510	0.108	-0.135
-428.617	800.000	0.025	-0.088
-427.603	187.170	-0.089	-0.134
-426.588	-200.000	-0.004	0.036
-425.573	800.000	-0.018	0.064
-424.559	395.505	0.080	0.168
-423.544	-113.120	-0.341	0.068
-422.530	-114.619	-0.027	0.005
-421.515	800.000	0.044	-0.127
-420.500	309.805	0.079	-0.148
-419.486	-113.046	-0.334	-0.066
-418.471	-121.838	0.199	-0.033
-417.457	-29.471	0.119	0.068
-416.442	-200.000	-0.003	-0.051
-415.428	-17.602	0.369	-0.233
-414.413	308.047	0.067	0.126
-413.398	-136.920	0.378	0.044
-412.384	341.284	-0.087	0.171
-411.369	390.570	0.116	0.242
-410.355	-200.000	0.009	0.380
-409.340	-65.892	-0.230	-0.092
-408.325	84.806	0.073	-0.081
-407.311	780.330	-0.087	0.238
-406.296	-200.000	-0.008	0.039
-405.282	-200.000	-0.007	-0.083
-404.267	800.000	-0.049	-0.216
-403.252	-148.015	0.460	-0.038
-402.238	-189.310	0.309	-0.004
-401.223	-200.000	0.034	0.206
-400.209	-122.724	-0.242	0.039
-399.194	94.009	-0.209	-0.238
-398.179	-200.000	0.004	-0.289
-397.165	-127.237	-0.473	-0.069
-396.150	-53.642	-0.233	0.107
-395.136	-6.462	0.057	0.039
-394.121	800.000	0.090	-0.326
-393.106	130.990	-0.081	0.104
-392.092	800.000	0.025	-0.083
-391.077	5.052	-0.223	0.165
-390.063	-200.000	0.055	0.000
-389.048	-143.659	-0.347	0.033
-388.033	-171.444	0.175	0.006
-387.019	-34.885	0.165	0.091
-386.004	-200.000	-0.048	-0.336
-384.990	-62.653	-0.335	0.139
-383.975	-10.121	-0.205	0.136
-382.960	-87.051	-0.079	0.024
-381.946	684.894	-0.092	-0.242
-380.931	-200.000	0.016	-0.205
-379.917	228.295	-0.025	0.040
-378.902	-200.000	0.041	-0.312
-377.888	178.085	-0.183	0.268
-376.873	170.545	-0.087	0.125
-375.858	-145.484	0.412	0.037
-374.844	739.422	-0.019	0.051
-373.829	86.226	0.192	0.212
-372.815	58.863	0.129	0.127
-371.800	-32.150	-0.108	-0.061
-370.785	-108.566	0.148	-0.032
-369.771	800.000	-0.101	0.392
-368.756	172.242	0.078	0.112
-367.742	509.108	0.035	0.082
-366.727	112.522	0.179	0.217
-365.712	394.209	-0.110	-0.229
-364.698	800.000	-0.074	-0.261
-363.683	-105.185	0.220	-0.050
-362.669	-4.457	-0.080	-0.055
-361.654	-200.000	0.068	-0.415
-360.639	-200.000	-0.020	-0.201
-359.625	-200.000	0.030	0.204
-358.610	800.000	0.134	0.389
-357.596	14.823	-0.252	0.197
-356.581	-72.340	-0.238	0.088
-355.566	-141.334	0.157	-0.016
-354.552	640.778	-0.118	-0.301
-353.537	24.576	0.221	-0.184
-352.523	-200.000	-0.079	-0.412
-351.508	800.000	0.020	0.058
-350.493	347.255	-0.139	-0.274
-349.479	-75.471	0.332	-0.118
-348.464	369.835	0.071	-0.145
-347.450	4.992	0.114	-0.084
-346.435	388.151	-0.148	0.306
-345.420	65.298	-0.258	0.261
-344.406	-200.000	-0.045	0.221
-343.391	28.157	-0.321	0.272
-342.377	800.000	-0.150	0.541
-341.362	-39.226	0.196	-0.103
-340.348	-200.000	0.050	-0.298
-339.333	75.131	-0.187	-0.197
-338.318	800.000	-0.096	-0.306
-337.304	-200.000	-0.002	0.196
-336.289	21.515	-0.133	-0.109
-335.275	576.811	-0.040	-0.098
-334.260	-124.866	0.375	-0.058
-333.245	-76.119	-0.143	0.051
-332.231	45.990	-0.053	0.049
-331.216	30.008	0.126	0.107
-330.202	-126.494	-0.270	-0.040
-329.187	-54.701	0.063	-0.028
-328.172	800.000	0.073	0.242
-327.158	15.297	0.118	-0.093
-326.143	80.306	-0.133	-0.144
-325.129	-26.922	0.201	-0.118
-324.114	-40.443	0.203	0.105
-323.099	145.397	-0.262	0.351
-322.085	-200.000	0.095	0.438
-321.070	-200.000	-0.008	-0.051
-320.056	631.147	0.087	-0.220
-319.041	-4.022	0.203	0.140
-318.026	-200.000	-0.007	0.260
-317.012	-200.000	-0.324	-0.001
-315.997	-200.000	0.007	-0.125
-314.983	161.645	0.129	-0.181
-313.968	286.859	-0.073	-0.131
-312.953	-105.557	-0.091	-0.021
-311.939	-200.000	0.043	0.486
-310.924	-48.841	0.030	-0.014
-309.910	88.018	0.121	-0.134
-308.895	771.882	0.116	-0.315
-307.880	-14.510	-0.080	0.051
-306.866	-200.000	0.032	-0.230
-305.851	-66.112	-0.302	0.121
-304.837	-200.000	0.011	-0.112
-303.822	89.558	0.049	-0.055
-302.807	554.706	0.052	-0.124
-301.793	-50.073	-0.160	-0.076
-300.778	-42.947	-0.217	0.110
-299.764	-127.088	0.262	-0.038
-298.749	-200.000	0.049	0.254
-297.735	-108.044	0.284	-0.062
-296.720	-37.364	0.326	0.174
-295.705	-200.000	-0.016	-0.161
-294.691	359.687	-0.034	0.068
-293.676	72.144	-0.116	0.121
-292.662	112.243	-0.133	0.161
-291.647	519.403	-0.081	-0.191
-290.632	33.264	-0.117	0.101
-289.618	-200.000	-0.014	-0.200
-288.603	-153.411	-0.183	0.013
-287.589	139.636	-0.202	0.266
-286.574	-200.000	-0.006	0.105
-285.559	-14.749	-0.263	0.169
-284.545	-120.535	0.245	-0.042
-283.530	-24.348	-0.067	-0.040
-282.516	800.000	-0.035	0.111
-281.501	-189.822	0.160	-0.002
-280.486	-180.138	-0.256	0.005
-279.472	269.269	0.150	0.264
-278.457	-4.087	0.216	0.149
-277.443	3.102	-0.043	0.031
-276.428	800.000	0.106	-0.405
-275.413	61.038	0.165	0.164
-274.399	145.065	0.036	0.048
-273.384	-108.891	0.161	0.034
-272.370	63.541	-0.283	0.283
-271.355	3.347	0.154	0.112
-270.340	394.728	0.047	0.098
-269.326	294.937	-0.083	0.152
-268.311	361.855	-0.155	-0.310
-267.297	265.948	-0.121	-0.211
-266.282	116.995	-0.204	-0.250
-265.267	683.514	-0.054	-0.141
-264.253	291.902	0.073	-0.133
-263.238	502.467	-0.112	0.258
-262.224	82.101	-0.100	0.109
-261.209	-146.287	0.159	0.014
-260.195	-50.837	-0.173	-0.081
-259.180	800.000	0.062	-0.251
-258.165	147.822	0.242	-0.325
-257.151	60.552	0.039	-0.038
-256.136	-200.000	0.015	0.102
-255.122	800.000	0.145	-0.451
-254.107	-31.764	0.295	-0.165
-253.092	-73.896	0.127	-0.046
-252.078	-200.000	0.012	0.107
-251.063	-74.407	0.394	0.142
-250.049	-200.000	-0.000	0.485
-249.034	800.000	0.030	0.102
-248.019	531.558	-0.158	0.373
-247.005	339.847	-0.097	-0.189
-245.990	287.511	0.024	0.044
-244.976	-123.550	-0.210	0.033
-243.961	-200.000	0.067	-0.351
-242.946	-99.431	-0.247	0.062
-241.932	800.000	-0.047	0.174
-240.917	-124.979	0.049	-0.007
-239.903	800.000	0.074	-0.233
-238.888	298.839	0.131	-0.241
-237.873	388.933	0.041	-0.084
-236.859	382.101	0.117	-0.239
-235.844	800.000	-0.175	-0.487
-234.830	203.765	-0.022	-0.034
-233.815	9.176	0.100	0.075
-232.800	-200.000	0.024	0.177
-231.786	800.000	0.056	-0.222
-230.771	651.850	0.068	-0.173
-229.757	-153.350	-0.234	-0.016
-228.742	-159.835	0.213	0.012
-227.727	72.802	-0.184	0.191
-226.713	-200.000	0.036	-0.189
-225.698	-78.825	0.095	-0.032
-224.684	120.181	-0.087	-0.108
-223.669	221.270	-0.032	-0.051
-222.655	800.000	-0.006	-0.018
-221.640	331.816	0.004	-0.007
-220.625	164.432	-0.130	0.183
-219.611	-61.926	0.248	0.103
-218.596	-153.604	0.202	0.014
-217.582	-41.071	0.254	0.131
-216.567	32.882	-0.177	0.152
-215.552	-38.767	-0.117	-0.062
-214.538	-106.942	-0.116	-0.026
-213.523	102.990	0.065	-0.076
-212.509	-17.476	0.272	0.170
-211.494	358.227	0.159	0.317
-210.479	-83.202	-0.271	0.087
-209.465	118.093	-0.144	0.177
-208.450	-170.085	0.095	0.003
-207.436	307.323	0.116	0.216
-206.421	-200.000	-0.018	0.211
-205.406	800.000	0.048	-0.185
-204.392	-31.875	-0.093	0.052
-203.377	800.000	0.080	0.309
-202.363	800.000	-0.012	-0.040
-201.348	26.046	0.285	0.237
-200.333	773.112	0.112	0.305
-199.319	800.000	0.046	0.133
-198.304	-56.121	0.203	-0.090
-197.290	200.991	0.086	-0.132
-196.275	112.898	0.098	-0.118
-195.260	-24.613	0.258	-0.153
-194.246	568.739	0.026	0.064
-193.231	800.000	0.077	-0.241
-192.217	-121.114	-0.255	0.043
-191.202	-95.138	0.279	-0.075
-190.187	-200.000	-0.081	0.368
-189.173	-6.080	-0.037	-0.025
-188.158	-39.863	0.367	0.191
-187.144	800.000	0.055	0.217
-186.129	1.724	0.172	-0.123
-185.114	559.961	0.090	-0.216
-184.100	80.880	0.107	-0.115
-183.085	709.466	0.014	0.038
-182.071	4.240	-0.080	0.058
-181.056	-69.032	-0.194	0.074
-180.042	-107.443	0.321	0.070
-179.027	-200.000	0.022	0.117
-178.012	800.000	-0.034	-0.094
-176.998	37.286	0.331	-0.292
-175.983	-200.000	0.010	-0.128
-174.969	85.049	-0.098	-0.107
-173.954	-200.000	0.014	0.120
-172.939	-51.054	-0.326	0.152
-171.925	-72.025	0.171	0.063
-170.910	169.712	-0.052	-0.074
-169.896	10.894	-0.143	0.108
-168.881	544.879	-0.090	-0.215
-167.866	-200.000	-0.021	-0.207
-166.852	-17.783	-0.139	-0.087
-165.837	-200.000	0.000	-0.187
-164.823	-200.000	-0.031	-0.328
-163.808	-150.301	-0.245	0.019
-162.793	35.436	0.117	-0.103
-161.779	264.917	-0.034	-0.059
-160.764	-92.709	-0.239	0.067
-159.750	597.511	0.047	-0.115
-158.735	257.119	0.096	-0.164
-157.720	-148.649	-0.497	0.040
-156.706	-24.486	-0.254	-0.150
-155.691	-200.000	-0.016	0.195
-154.677	34.672	0.220	0.191
-153.662	138.762	-0.106	-0.138
-152.647	580.291	0.082	-0.199
-151.633	-52.864	-0.214	-0.098
-150.618	-200.000	-0.015	-0.081
-149.604	800.000	-0.068	0.187
-148.589	-68.617	-0.235	0.091
-147.574	-200.000	-0.019	0.391
-146.560	5.445	-0.162	-0.119
-145.545	-105.173	0.147	0.033
-144.531	-130.976	0.173	-0.023
-143.516	-65.374	-0.382	0.153
-142.502	-200.000	-0.017	0.227
-141.487	-87.049	0.522	0.158
-140.472	-200.000	-0.006	-0.192
-139.458	535.016	-0.027	0.064
-138.443	-200.000	0.016	0.090
-137.429	-93.604	0.136	0.037
-136.414	-46.509	0.083	-0.041
-135.399	-200.000	0.004	-0.110
-134.385	30.429	-0.210	0.178
-133.370	-53.500	-0.285	-0.130
-132.356	468.473	0.021	0.047
-131.341	92.885	0.096	-0.108
-130.326	-119.025	0.356	0.062
-129.312	-30.859	-0.034	0.019
-128.297	127.697	-0.281	0.355
-127.283	-200.000	-0.036	0.264
-126.268	-154.051	-0.296	-0.020
-125.253	-31.887	-0.211	-0.118
-124.239	-60.030	-0.312	0.132
-123.224	-72.499	0.246	0.090
-122.210	332.734	0.049	-0.094
-121.195	800.000	0.041	-0.159
