DTS Sentinel unit serial number:	SN413079Multiplexer serial number:	ORYXHardware model number:	OX4-SRSoftware version number:	ORYX F/W v4.00 Oryx Data Collector v3.7.2.0data status	okinstallation	princeton_trtdifferential loss correction	single-endedforward channel	channel 1reverse channel	N/Adate	2019/09/14time	14:34:35forward acquisition time	60.00reverse acquisition time	0.00gamma	496.2192k internal	0.2292k external	0.2292temperature offset calibration	1.0074default loss term (dB/km)	0.3790temperature slope calibration	1.0000multiplexer offset coefficient	1.0000multiplexer slope coefficient	1.0000fibre end	0.00T internal ref (°C)	39.19T ext. ref 1 (°C)	5.03T ext. ref 2 (°C)	35.44length (m)	temperature (°C)	Stokes	anti-Stokes-747.200	578.118	-0.045	-0.112
-746.185	-39.656	0.182	0.097
-745.171	47.886	0.242	-0.231
-744.156	-200.000	-0.005	0.052
-743.142	800.000	0.037	-0.134
-742.127	267.144	0.176	0.315
-741.112	-96.842	-0.112	-0.030
-740.098	-200.000	-0.004	0.277
-739.083	-121.304	0.373	-0.064
-738.069	-200.000	0.084	0.408
-737.054	-111.916	-0.240	0.050
-736.039	8.203	0.090	-0.070
-735.025	-200.000	-0.036	0.501
-734.010	325.380	0.096	-0.188
-732.996	287.907	0.200	-0.370
-731.981	-92.293	0.268	-0.077
-730.966	-22.343	-0.132	0.082
-729.952	-200.000	0.005	-0.308
-728.937	32.367	0.289	0.255
-727.923	-69.599	-0.359	-0.141
-726.908	309.870	0.051	0.098
-725.894	85.160	-0.201	0.226
-724.879	7.465	-0.139	-0.107
-723.864	109.404	-0.161	-0.197
-722.850	214.582	-0.235	-0.381
-721.835	-55.345	-0.450	0.206
-720.821	-68.150	0.053	0.021
-719.806	-92.502	-0.444	-0.127
-718.791	16.987	0.058	-0.047
-717.777	566.667	-0.087	0.216
-716.762	-200.000	0.001	-0.004
-715.748	-9.629	-0.415	-0.283
-714.733	-138.206	-0.345	0.039
-713.718	-72.968	-0.345	0.130
-712.704	667.147	-0.078	-0.206
-711.689	800.000	0.102	-0.401
-710.675	-86.618	0.115	-0.036
-709.660	-113.982	0.165	-0.033
-708.645	94.511	-0.228	0.265
-707.631	646.450	-0.149	0.388
-706.616	800.000	-0.045	-0.174
-705.602	-144.451	0.386	-0.037
-704.587	-128.195	-0.248	0.036
-703.572	-58.414	0.149	0.066
-702.558	-29.604	0.272	0.159
-701.543	485.727	0.137	0.319
-700.529	-81.199	0.154	0.052
-699.514	237.741	0.055	0.093
-698.499	111.808	0.157	-0.194
-697.485	-50.516	-0.142	-0.068
-696.470	71.727	0.063	-0.067
-695.456	3.618	0.212	-0.158
-694.441	332.855	-0.161	-0.318
-693.426	318.843	-0.206	-0.399
-692.412	228.224	0.098	-0.163
-691.397	800.000	-0.067	0.212
-690.383	-112.569	-0.371	0.076
-689.368	-200.000	0.008	-0.208
-688.354	-36.949	-0.115	-0.063
-687.339	783.198	-0.076	-0.214
-686.324	800.000	0.078	-0.223
-685.310	-127.830	-0.412	0.061
-684.295	278.867	-0.194	-0.353
-683.281	0.781	-0.169	0.124
-682.266	-79.710	-0.182	-0.063
-681.251	209.436	-0.239	-0.382
-680.237	16.115	-0.217	-0.174
-679.222	-127.063	-0.132	0.020
-678.208	177.219	0.182	0.270
-677.193	353.558	0.073	-0.147
-676.178	-124.270	0.404	-0.064
-675.164	-106.473	-0.350	0.080
-674.149	-200.000	0.054	0.328
-673.135	-36.085	0.165	-0.091
-672.120	800.000	-0.035	0.099
-671.105	-55.652	0.153	0.070
-670.091	-200.000	0.003	0.043
-669.076	50.685	0.075	0.072
-668.062	25.753	-0.249	0.211
-667.047	235.435	0.157	-0.265
-666.032	4.029	-0.026	-0.020
-665.018	-200.000	0.002	0.232
-664.003	-86.043	0.378	-0.119
-662.989	-196.506	0.152	-0.001
-661.974	46.400	0.178	-0.169
-660.959	23.297	-0.146	-0.122
-659.945	25.771	-0.130	-0.111
-658.930	499.028	0.081	0.191
-657.916	-200.000	0.034	-0.217
-656.901	28.373	0.345	-0.298
-655.886	33.954	0.083	-0.074
-654.872	18.197	0.168	0.136
-653.857	96.609	-0.270	-0.316
-652.843	-200.000	-0.031	-0.395
-651.828	180.233	-0.084	0.125
-650.814	191.148	0.101	-0.155
-649.799	532.239	-0.155	-0.373
-648.784	-98.325	-0.208	0.054
-647.770	-68.221	-0.163	0.065
-646.755	-20.605	0.048	0.030
-645.741	73.593	0.252	-0.269
-644.726	142.811	0.252	-0.342
-643.711	800.000	-0.022	0.063
-642.697	-112.802	-0.208	0.042
-641.682	-200.000	0.093	0.498
-640.668	145.791	0.077	0.106
-639.653	800.000	-0.052	-0.228
-638.638	-145.875	0.217	0.020
-637.624	51.312	0.292	-0.283
-636.609	-200.000	0.046	-0.235
-635.595	451.264	0.113	-0.253
-634.580	-200.000	-0.007	-0.233
-633.565	-200.000	0.008	0.161
-632.551	-18.264	0.073	-0.046
-631.536	-153.963	-0.160	0.011
-630.522	-134.952	-0.180	0.022
-629.507	800.000	0.056	-0.197
-628.492	-57.879	-0.106	0.047
-627.478	-98.477	-0.177	-0.046
-626.463	169.997	0.188	0.273
-625.449	426.755	-0.166	0.365
-624.434	456.128	-0.118	0.268
-623.419	690.977	0.122	0.324
-622.405	800.000	0.102	-0.430
-621.390	-137.895	-0.411	-0.047
-620.376	-80.402	-0.135	-0.046
-619.361	504.227	0.089	-0.210
-618.346	-54.954	0.048	0.022
-617.332	-168.431	-0.217	0.008
-616.317	198.278	0.075	0.116
-615.303	462.441	0.107	0.243
-614.288	-200.000	0.033	-0.367
-613.273	-200.000	-0.004	-0.078
-612.259	-23.967	0.134	0.082
-611.244	-200.000	-0.038	-0.254
-610.230	-182.374	-0.481	-0.009
-609.215	586.494	0.032	0.081
-608.201	-189.429	0.238	-0.003
-607.186	-80.693	0.117	-0.040
-606.171	-200.000	0.037	-0.179
-605.157	-92.328	-0.135	-0.039
-604.142	-200.000	-0.015	0.345
-603.128	42.745	-0.303	0.281
-602.113	-97.145	-0.166	-0.044
-601.098	234.160	0.049	0.082
-600.084	-143.951	0.129	-0.012
-599.069	800.000	0.025	-0.099
-598.055	-143.633	0.332	0.032
-597.040	485.939	-0.147	0.341
-596.025	-200.000	0.003	-0.427
-595.011	158.494	-0.222	-0.314
-593.996	90.886	-0.126	-0.144
-592.982	-200.000	-0.076	0.448
-591.967	-200.000	0.026	-0.181
-590.952	-100.914	0.187	0.047
-589.938	-200.000	0.054	0.353
-588.923	42.838	0.250	0.232
-587.909	-8.355	-0.114	0.078
-586.894	-200.000	0.010	0.252
-585.879	-200.000	0.040	-0.262
-584.865	-7.356	0.299	-0.206
-583.850	-35.133	0.186	-0.103
-582.836	-18.201	0.151	-0.096
-581.821	-78.299	0.094	0.033
-580.806	-133.531	-0.147	0.019
-579.792	292.465	0.116	0.216
-578.777	-28.833	0.041	-0.024
-577.763	408.079	0.033	0.072
-576.748	800.000	0.134	0.550
-575.733	39.457	-0.086	-0.079
-574.719	800.000	-0.102	-0.290
-573.704	76.315	-0.124	-0.134
-572.690	271.155	-0.087	-0.156
-571.675	166.032	-0.267	0.384
-570.661	-200.000	0.038	0.213
-569.646	-200.000	0.007	-0.162
-568.631	-200.000	0.020	0.203
-567.617	8.368	0.267	0.204
-566.602	633.103	-0.099	-0.254
-565.588	135.102	-0.094	-0.124
-564.573	179.515	-0.122	0.182
-563.558	-136.308	-0.138	0.016
-562.544	-66.949	-0.107	0.043
-561.529	-200.000	-0.034	0.401
-560.515	263.554	0.072	-0.128
-559.500	800.000	0.095	-0.390
-558.485	-114.929	0.200	0.039
-557.471	95.697	0.096	0.111
-556.456	-35.630	0.372	-0.205
-555.442	-56.024	-0.294	0.133
-554.427	-200.000	-0.014	0.342
-553.412	66.348	-0.052	0.053
-552.398	423.777	-0.053	0.116
-551.383	-73.195	-0.369	-0.137
-550.369	-200.000	0.017	-0.080
-549.354	-66.598	0.038	0.015
-548.339	800.000	-0.055	0.162
-547.325	-63.349	0.161	0.067
-546.310	-1.126	0.477	0.343
-545.296	-200.000	-0.013	0.514
-544.281	-200.000	-0.082	-0.385
-543.266	-187.411	0.240	-0.003
-542.252	302.095	-0.062	-0.116
-541.237	-154.437	-0.118	0.008
-540.223	-66.051	-0.066	-0.027
-539.208	800.000	0.051	-0.176
-538.193	-78.350	0.343	-0.119
-537.179	-200.000	-0.024	-0.363
-536.164	104.381	0.094	0.112
-535.150	-106.826	0.410	-0.092
-534.135	-94.543	-0.240	-0.066
-533.121	-119.275	-0.309	0.055
-532.106	-134.148	0.203	0.025
-531.091	504.646	-0.105	-0.246
-530.077	-10.794	-0.200	0.134
-529.062	-66.552	-0.114	0.046
-528.048	117.395	0.041	0.051
-527.033	212.091	0.131	0.209
-526.018	118.702	-0.111	-0.139
-525.004	296.057	-0.118	0.219
-523.989	750.821	-0.045	0.123
-522.975	800.000	-0.027	-0.093
-521.960	-200.000	0.006	-0.057
-520.945	800.000	-0.067	-0.211
-519.931	-88.322	0.156	-0.047
-518.916	44.672	0.108	-0.101
-517.902	-75.076	-0.325	-0.118
-516.887	-80.045	-0.338	-0.115
-515.872	-147.065	-0.296	0.026
-514.858	-176.255	-0.331	-0.009
-513.843	19.058	-0.093	0.076
-512.829	464.094	-0.027	-0.062
-511.814	800.000	-0.038	0.123
-510.799	-27.160	-0.184	-0.109
-509.785	115.988	-0.191	-0.237
-508.770	-32.300	-0.064	-0.036
-507.756	-87.231	-0.328	0.101
-506.741	-151.474	-0.207	0.016
-505.726	240.219	-0.045	0.075
-504.712	52.950	-0.137	-0.133
-503.697	69.918	-0.101	-0.106
-502.683	-98.364	0.076	-0.020
-501.668	800.000	-0.087	0.315
-500.653	-200.000	0.001	-0.075
-499.639	549.903	0.018	-0.044
-498.624	-200.000	-0.005	-0.047
-497.610	-200.000	0.024	0.220
-496.595	26.141	0.138	0.117
-495.581	-154.569	0.259	0.018
-494.566	0.258	-0.234	0.170
-493.551	800.000	0.007	-0.022
-492.537	-62.074	0.199	0.084
-491.522	64.761	-0.239	-0.245
-490.508	52.965	-0.164	-0.159
-489.493	39.723	-0.268	0.243
-488.478	12.689	-0.267	-0.209
-487.464	-154.665	-0.126	0.008
-486.449	-67.162	0.167	-0.067
-485.435	-154.803	0.024	0.002
-484.420	224.348	0.189	0.309
-483.405	653.127	-0.042	0.108
-482.391	122.785	0.065	-0.082
-481.376	27.199	-0.123	-0.105
-480.362	-171.313	-0.223	-0.008
-479.347	544.287	-0.157	-0.380
-478.332	115.512	-0.040	-0.050
-477.318	39.685	-0.183	-0.166
-476.303	164.306	-0.150	0.213
-475.289	453.552	-0.076	0.169
-474.274	225.803	0.210	0.344
-473.259	205.100	-0.058	0.091
-472.245	-72.463	0.106	-0.040
-471.230	-14.406	-0.274	0.179
-470.216	-18.673	0.348	-0.219
-469.201	800.000	-0.087	-0.273
-468.186	160.551	0.089	-0.126
-467.172	-56.274	-0.052	-0.023
-466.157	-200.000	-0.033	-0.173
-465.143	-118.794	-0.334	0.059
-464.128	-200.000	0.033	-0.192
-463.113	-200.000	-0.006	-0.222
-462.099	259.048	0.149	-0.260
-461.084	-56.610	-0.247	-0.111
-460.070	-200.000	-0.038	-0.344
-459.055	-55.672	0.106	0.048
-458.040	800.000	-0.145	-0.433
-457.026	302.874	0.045	0.084
-456.011	33.318	-0.145	0.127
-454.997	-51.460	-0.278	-0.131
-453.982	14.553	0.199	-0.157
-452.968	800.000	-0.117	-0.419
-451.953	800.000	0.032	0.118
-450.938	98.600	0.198	0.231
-449.924	-96.176	0.102	0.027
-448.909	-200.000	-0.005	0.122
-447.895	-35.667	-0.233	0.128
-446.880	800.000	-0.054	0.199
-445.865	10.455	0.236	-0.182
-444.851	-21.653	0.089	-0.055
-443.836	-3.126	0.020	-0.014
-442.822	46.284	-0.265	-0.249
-441.807	82.790	-0.182	-0.200
-440.792	-60.777	-0.039	-0.017
-439.778	-45.474	0.117	0.059
-438.763	-118.154	0.180	0.033
-437.749	-69.165	0.103	-0.040
-436.734	157.843	-0.180	0.252
-435.719	-149.318	-0.077	0.006
-434.705	-200.000	0.006	0.725
-433.690	-200.000	0.017	0.438
-432.676	12.164	0.165	0.128
-431.661	53.485	0.284	-0.275
-430.646	602.467	0.182	-0.457
-429.632	-37.500	-0.134	0.072
-428.617	562.725	-0.105	-0.256
-427.603	-140.573	0.259	0.027
-426.588	140.001	0.180	0.240
-425.573	14.785	-0.370	0.292
-424.559	-12.635	-0.276	-0.182
-423.544	285.101	-0.068	-0.123
-422.530	-111.213	0.034	0.007
-421.515	404.884	0.194	0.414
-420.500	-63.110	0.216	-0.090
-419.486	-122.797	0.118	0.019
-418.471	-83.615	-0.142	-0.046
-417.457	-26.483	0.297	-0.176
-416.442	-96.655	0.194	-0.052
-415.428	273.737	0.126	-0.225
-414.413	-200.000	0.023	-0.198
-413.398	221.402	0.071	0.115
-412.384	-87.873	-0.068	0.021
-411.369	-200.000	0.021	-0.148
-410.355	800.000	0.103	-0.289
-409.340	-200.000	-0.026	0.186
-408.325	-16.211	0.207	0.133
-407.311	-29.463	-0.176	-0.102
-406.296	-14.943	0.220	-0.142
-405.282	-200.000	0.016	-0.326
-404.267	800.000	0.105	0.359
-403.252	-200.000	-0.032	-0.145
-402.238	125.501	-0.123	0.157
-401.223	-200.000	0.015	-0.092
-400.209	-87.893	0.291	-0.088
-399.194	-200.000	-0.040	-0.381
-398.179	91.813	-0.109	-0.124
-397.165	-117.969	-0.115	-0.021
-396.150	217.992	0.087	0.139
-395.136	-92.579	0.438	0.124
-394.121	114.365	-0.200	-0.246
-393.106	9.898	-0.157	0.120
-392.092	87.482	-0.306	0.341
-391.077	800.000	-0.054	0.222
-390.063	118.965	-0.094	0.117
-389.048	308.889	-0.072	0.136
-388.033	393.213	0.147	0.309
-387.019	-134.274	0.177	0.022
-386.004	-200.000	0.052	0.250
-384.990	-200.000	0.012	0.272
-383.975	87.727	-0.169	-0.189
-382.960	-64.197	0.185	0.076
-381.946	401.256	0.099	0.210
-380.931	-200.000	-0.005	0.040
-379.917	73.176	-0.230	0.242
-378.902	562.029	-0.025	-0.061
-377.888	68.351	-0.026	0.027
-376.873	-200.000	0.005	0.318
-375.858	-146.780	0.203	-0.018
-374.844	234.603	-0.179	0.298
-373.829	-152.648	-0.124	0.009
-372.815	254.897	0.163	0.282
-371.800	-200.000	0.022	0.325
-370.785	14.164	-0.310	-0.243
-369.771	271.429	-0.061	0.109
-368.756	-200.000	-0.022	0.205
-367.742	-200.000	-0.014	-0.327
-366.727	96.357	-0.117	0.135
-365.712	-73.571	-0.055	0.020
-364.698	592.750	0.087	0.216
-363.683	-120.312	-0.103	0.018
-362.669	-108.146	-0.163	-0.036
-361.654	800.000	0.052	-0.148
-360.639	-104.330	0.362	0.085
-359.625	38.357	-0.149	-0.133
-358.610	-143.939	-0.260	0.025
-357.596	259.702	-0.138	-0.241
-356.581	14.764	0.156	0.123
-355.566	13.864	0.172	-0.135
-354.552	477.596	-0.160	0.364
-353.537	117.852	0.209	0.260
-352.523	-200.000	0.001	0.276
-351.508	-5.955	0.151	-0.104
-350.493	-110.285	-0.106	0.022
-349.479	-200.000	0.000	0.287
-348.464	800.000	0.048	-0.171
-347.450	-104.487	0.293	-0.068
-346.435	-81.315	0.048	-0.016
-345.420	-200.000	-0.062	-0.460
-344.406	310.665	0.121	-0.228
-343.391	501.562	0.044	0.103
-342.377	357.183	-0.056	-0.112
-341.362	-61.323	0.187	-0.079
-340.348	136.885	-0.254	-0.334
-339.333	800.000	-0.165	-0.462
-338.318	87.417	-0.199	-0.222
-337.304	312.728	0.089	-0.169
-336.289	-186.305	-0.184	-0.003
-335.275	1.630	-0.050	0.036
-334.260	-50.729	-0.097	-0.046
-333.245	-165.656	-0.214	0.009
-332.231	-101.249	0.115	0.028
-331.216	-38.511	0.071	0.038
-330.202	66.772	-0.072	0.074
-329.187	-200.000	-0.037	-0.163
-328.172	-65.720	-0.272	-0.110
-327.158	-134.494	0.202	-0.025
-326.143	-152.630	0.083	0.006
-325.129	-119.659	0.479	0.083
-324.114	56.158	0.297	-0.291
-323.099	800.000	-0.053	-0.178
-322.085	37.246	0.122	0.109
-321.070	-104.472	0.297	0.069
-320.056	-71.092	-0.093	-0.035
-319.041	-31.111	-0.304	0.173
-318.026	377.926	0.105	-0.215
-317.012	-70.835	0.245	0.093
-315.997	-166.206	0.262	-0.011
-314.983	-37.566	0.208	-0.111
-313.968	-200.000	-0.009	-0.259
-312.953	-200.000	-0.006	0.085
-311.939	-110.487	-0.306	-0.064
-310.924	-200.000	0.035	-0.284
-309.910	13.726	0.147	-0.115
-308.895	140.944	-0.179	0.238
-307.880	-200.000	0.025	0.127
-306.866	-200.000	0.086	-0.439
-305.851	249.414	0.078	0.134
-304.837	13.994	0.138	0.108
-303.822	-123.008	0.042	0.007
-302.807	-138.565	-0.196	0.022
-301.793	-200.000	0.019	-0.174
-300.778	398.385	-0.095	-0.200
-299.764	40.176	0.315	-0.285
-298.749	-41.022	0.113	0.059
-297.735	12.799	0.115	0.089
-296.720	-19.016	0.260	-0.163
-295.705	-128.456	0.364	0.052
-294.691	528.395	-0.070	-0.167
-293.676	600.302	0.074	0.184
-292.662	64.018	-0.292	0.295
-291.647	280.560	-0.255	0.458
-290.632	122.752	0.060	0.076
-289.618	-200.000	-0.019	-0.117
-288.603	-24.729	0.104	0.062
-287.589	-200.000	-0.044	0.294
-286.574	441.246	-0.099	0.218
-285.559	-200.000	-0.010	0.114
-284.545	800.000	0.089	-0.363
-283.530	-200.000	-0.026	0.142
-282.516	-34.241	0.238	-0.131
-281.501	71.600	0.124	0.130
-280.486	154.119	0.162	0.223
-279.472	35.857	-0.053	-0.047
-278.457	23.932	0.139	-0.115
-277.443	-104.901	-0.137	-0.032
-276.428	408.425	0.170	0.361
-275.413	263.257	-0.194	0.339
-274.399	-109.725	0.700	-0.148
-273.384	169.308	-0.158	-0.227
-272.370	-98.750	0.269	-0.069
-271.355	5.251	-0.158	-0.117
-270.340	-21.063	-0.288	-0.177
-269.326	-196.731	-0.334	0.002
-268.311	-0.331	-0.088	-0.063
-267.297	-188.229	-0.314	0.004
-266.282	11.991	0.065	0.050
-265.267	-37.022	0.171	-0.092
-264.253	-200.000	0.002	0.125
-263.238	-93.356	-0.165	0.046
-262.224	38.971	-0.119	-0.107
-261.209	-200.000	-0.000	0.239
-260.195	-115.442	0.199	0.038
-259.180	20.294	-0.104	0.084
-258.165	-62.895	0.268	-0.111
-257.151	800.000	0.034	-0.124
-256.136	-200.000	0.000	-0.242
-255.122	-93.260	-0.227	-0.063
-254.107	-121.922	-0.449	-0.074
-253.092	19.352	-0.239	0.192
-252.078	800.000	-0.158	-0.440
-251.063	-200.000	-0.030	-0.161
-250.049	-32.900	0.079	0.044
-249.034	800.000	0.058	0.247
-248.019	-200.000	0.028	0.189
-247.005	-200.000	-0.008	-0.181
-245.990	-103.711	-0.097	-0.023
-244.976	-63.058	-0.298	-0.124
-243.961	45.559	0.308	-0.286
-242.946	213.254	-0.068	-0.107
-241.932	2.831	-0.205	0.149
-240.917	288.899	-0.022	-0.040
-239.903	155.723	0.172	-0.238
-238.888	-0.033	0.142	-0.101
-237.873	-104.139	-0.125	0.029
-236.859	-82.028	0.178	0.058
-235.844	-58.263	0.256	0.112
-234.830	-73.972	-0.133	-0.048
-233.815	-70.867	0.385	-0.146
-232.800	-161.627	0.110	0.006
-231.786	234.209	0.045	-0.075
-230.771	58.916	-0.138	-0.136
-229.757	-134.402	-0.168	0.021
-228.742	800.000	-0.040	0.152
-227.727	-165.254	0.346	0.015
-226.713	147.664	-0.109	0.147
-225.698	65.304	-0.219	0.222
-224.684	157.245	0.095	0.132
-223.669	-200.000	0.007	-0.208
-222.655	22.114	0.111	-0.091
-221.640	107.411	0.231	0.275
-220.625	-158.304	0.367	-0.021
-219.611	-22.276	-0.389	0.237
-218.596	415.579	0.047	-0.101
-217.582	33.765	-0.186	-0.162
-216.567	125.767	0.058	0.073
-215.552	168.795	0.110	0.157
-214.538	-74.309	0.080	0.029
-213.523	203.320	0.064	-0.099
-212.509	-11.622	0.399	-0.263
-211.494	761.196	0.065	-0.176
-210.479	341.386	-0.096	0.187
-209.465	53.785	-0.242	0.233
-208.450	800.000	0.051	0.187
-207.436	-139.532	0.316	-0.034
-206.421	-200.000	-0.021	-0.100
-205.406	691.731	0.069	-0.181
-204.392	-147.186	0.149	0.013
-203.377	-179.307	-0.368	0.008
-202.363	-101.981	0.353	-0.085
-201.348	800.000	-0.074	-0.277
-200.333	-116.131	0.078	0.015
-199.319	-7.195	-0.130	-0.088
-198.304	65.484	-0.312	-0.317
-197.290	37.263	-0.212	-0.188
-196.275	-200.000	-0.024	-0.264
-195.260	79.165	0.150	-0.161
-194.246	758.577	0.124	0.336
-193.231	-112.061	0.105	0.021
-192.217	-152.281	-0.468	-0.034
-191.202	50.927	-0.303	0.288
-190.187	-200.000	0.015	0.304
-189.173	800.000	0.017	-0.051
-188.158	-200.000	0.008	-0.162
-187.144	79.488	-0.182	-0.196
-186.129	-120.985	-0.401	-0.067
-185.114	-200.000	0.014	0.170
-184.100	-37.605	0.380	-0.203
-183.085	75.428	-0.200	0.211
-182.071	343.477	0.168	0.329
-181.056	-154.032	-0.092	0.006
-180.042	-200.000	0.030	-0.160
-179.027	-150.875	-0.141	-0.011
-178.012	-151.373	0.295	-0.022
-176.998	424.335	0.068	0.146
-175.983	-200.000	0.025	0.146
-174.969	800.000	0.027	0.081
-173.954	36.517	-0.030	-0.027
-172.939	-200.000	0.031	-0.138
-171.925	-68.957	0.382	0.147
-170.910	-75.962	0.177	0.063
-169.896	-200.000	-0.056	0.540
-168.881	449.866	0.133	0.293
-167.866	-200.000	-0.020	0.217
-166.852	-13.934	0.179	0.115
-165.837	-46.824	0.421	0.206
-164.823	346.517	-0.131	0.257
-163.808	57.141	-0.287	0.280
-162.793	36.327	0.055	-0.049
-161.779	217.068	0.094	-0.150
-160.764	800.000	0.041	-0.122
-159.750	-15.685	0.189	-0.121
-158.735	56.586	0.100	0.097
-157.720	-108.448	0.355	-0.077
-156.706	-36.830	0.178	-0.096
-155.691	-93.817	-0.187	0.052
-154.677	-137.347	0.223	0.025
-153.662	-172.737	-0.271	-0.008
-152.647	134.866	-0.094	0.122
-151.633	-136.853	-0.211	0.024
-150.618	-200.000	0.020	0.267
-149.604	694.007	-0.145	-0.379
-148.589	-200.000	-0.024	0.145
-147.574	385.717	0.030	0.062
-146.560	143.609	0.249	0.332
-145.545	468.095	-0.030	0.066
-144.531	800.000	-0.109	0.371
-143.516	752.287	-0.053	0.142
-142.502	592.524	-0.105	0.260
-141.487	4.520	0.246	0.181
-140.472	281.261	-0.129	0.231
-139.458	-200.000	0.095	0.520
-138.443	-110.685	0.127	0.026
-137.429	-200.000	0.061	0.268
-136.414	-200.000	0.003	0.241
-135.399	484.394	0.026	-0.059
-134.385	276.907	-0.260	0.461
-133.370	151.207	-0.196	0.267
-132.356	56.183	0.090	-0.087
-131.341	-32.252	-0.102	0.057
-130.326	-151.083	0.305	-0.023
-129.312	16.062	-0.073	0.058
-128.297	800.000	0.079	0.293
-127.283	-123.513	0.199	-0.032
-126.268	-34.873	-0.066	-0.036
-125.253	-80.435	-0.205	0.068
-124.239	6.051	-0.143	0.106
-123.224	-200.000	-0.007	-0.302
-122.210	-139.112	0.366	0.040
-121.195	321.849	0.051	0.097
