DTS Sentinel unit serial number:	SN413079Multiplexer serial number:	ORYXHardware model number:	OX4-SRSoftware version number:	ORYX F/W v4.00 Oryx Data Collector v3.7.2.0data status	okinstallation	princeton_trtdifferential loss correction	single-endedforward channel	channel 1reverse channel	N/Adate	2019/09/15time	11:46:35forward acquisition time	60.00reverse acquisition time	0.00gamma	496.2192k internal	0.2308k external	0.2308temperature offset calibration	0.9988default loss term (dB/km)	0.3790temperature slope calibration	1.0000multiplexer offset coefficient	1.0000multiplexer slope coefficient	1.0000fibre end	0.00T internal ref (°C)	34.37T ext. ref 1 (°C)	5.05T ext. ref 2 (°C)	29.95length (m)	temperature (°C)	Stokes	anti-Stokes-747.200	800.000	0.045	-0.150
-746.185	181.999	0.173	0.259
-745.171	-200.000	0.031	0.236
-744.156	-40.622	-0.121	-0.064
-743.142	-200.000	0.016	0.330
-742.127	158.323	0.017	-0.024
-741.112	-123.106	-0.416	-0.068
-740.098	296.819	0.070	0.130
-739.083	8.430	-0.130	-0.099
-738.069	-119.994	-0.219	-0.038
-737.054	800.000	-0.045	-0.177
-736.039	-31.395	-0.490	-0.280
-735.025	-40.805	0.133	0.070
-734.010	-29.758	0.046	-0.027
-732.996	-132.009	0.086	-0.011
-731.981	167.771	0.077	-0.111
-730.966	-200.000	0.020	-0.127
-729.952	260.631	0.037	-0.064
-728.937	800.000	-0.110	0.377
-727.923	800.000	0.130	-0.415
-726.908	-200.000	-0.046	-0.296
-725.894	-115.498	-0.211	-0.040
-724.879	25.766	0.330	-0.279
-723.864	121.643	-0.119	-0.151
-722.850	115.633	-0.141	0.175
-721.835	274.336	0.075	-0.134
-720.821	95.268	-0.174	-0.201
-719.806	800.000	0.099	0.401
-718.791	-200.000	-0.022	-0.258
-717.777	398.033	-0.177	0.376
-716.762	-23.701	-0.120	-0.073
-715.748	800.000	0.101	0.286
-714.733	110.887	-0.192	-0.234
-713.718	800.000	0.081	-0.295
-712.704	-200.000	0.115	-0.526
-711.689	-200.000	-0.030	-0.289
-710.675	-60.475	0.150	0.065
-709.660	-79.348	-0.067	-0.023
-708.645	-91.005	-0.129	-0.037
-707.631	-91.651	0.198	-0.057
-706.616	-200.000	0.014	-0.361
-705.602	-118.621	0.353	-0.063
-704.587	-119.536	-0.192	0.034
-703.572	-1.534	-0.182	-0.130
-702.558	214.688	0.134	-0.216
-701.543	-40.945	0.386	-0.202
-700.529	117.499	-0.256	-0.319
-699.514	-144.359	0.160	0.015
-698.499	-200.000	-0.068	-0.396
-697.485	131.262	0.122	-0.160
-696.470	-200.000	-0.019	-0.107
-695.456	33.081	-0.151	-0.133
-694.441	226.051	0.120	-0.198
-693.426	-39.084	0.262	0.140
-692.412	800.000	0.022	0.062
-691.397	-59.681	-0.220	-0.095
-690.383	191.175	0.060	-0.091
-689.368	138.249	0.200	-0.266
-688.354	10.960	-0.166	0.128
-687.339	-87.996	-0.269	-0.082
-686.324	390.320	-0.180	0.378
-685.310	-200.000	-0.008	-0.152
-684.295	231.377	0.089	0.147
-683.281	-200.000	-0.002	0.067
-682.266	355.462	-0.128	0.259
-681.251	800.000	-0.053	0.153
-680.237	333.113	-0.098	-0.193
-679.222	-88.279	0.232	-0.070
-678.208	800.000	0.006	0.019
-677.193	-69.177	0.192	0.075
-676.178	-73.359	0.239	0.089
-675.164	-116.234	0.124	0.023
-674.149	-77.172	-0.255	-0.090
-673.135	1.755	-0.065	0.048
-672.120	24.166	-0.168	-0.141
-671.105	800.000	0.033	-0.095
-670.091	-22.841	-0.487	0.298
-669.076	-200.000	-0.011	-0.186
-668.062	-100.969	-0.167	-0.042
-667.047	-200.000	-0.289	0.000
-666.032	339.266	0.105	-0.208
-665.018	20.504	0.118	0.097
-664.003	82.053	-0.109	-0.119
-662.989	-10.293	-0.145	-0.097
-661.974	800.000	0.041	-0.136
-660.959	-200.000	-0.026	-0.194
-659.945	-200.000	-0.029	-0.239
-658.930	101.289	-0.147	0.174
-657.916	116.542	0.065	0.081
-656.901	70.272	0.093	-0.098
-655.886	551.290	0.062	0.151
-654.872	-200.000	-0.004	-0.089
-653.857	322.809	-0.082	-0.159
-652.843	401.935	0.130	0.277
-651.828	92.665	0.117	-0.133
-650.814	11.967	0.159	-0.124
-649.799	214.701	0.212	-0.341
-648.784	-43.688	-0.329	-0.168
-647.770	-200.000	0.008	0.157
-646.755	-200.000	-0.001	-0.207
-645.741	401.650	0.052	-0.110
-644.726	-200.000	0.001	-0.295
-643.711	800.000	-0.066	-0.213
-642.697	284.430	-0.114	0.208
-641.682	-87.521	-0.088	0.027
-640.668	12.167	-0.121	-0.094
-639.653	10.246	0.190	0.146
-638.638	-17.791	0.075	-0.048
-637.624	25.047	0.170	-0.143
-636.609	230.331	0.072	0.119
-635.595	800.000	-0.006	0.021
-634.580	538.507	0.027	0.066
-633.565	370.751	-0.112	0.230
-632.551	-27.871	-0.061	-0.036
-631.536	-36.628	0.192	-0.104
-630.522	-64.579	0.371	-0.152
-629.507	64.148	-0.088	-0.090
-628.492	-200.000	0.075	-0.381
-627.478	10.718	-0.268	0.207
-626.463	-200.000	0.014	-0.074
-625.449	-200.000	0.010	-0.302
-624.434	484.757	-0.009	-0.020
-623.419	210.821	-0.030	0.047
-622.405	-76.642	-0.067	0.024
-621.390	-163.763	-0.336	-0.016
-620.376	34.184	-0.140	0.123
-619.361	-144.773	-0.093	0.009
-618.346	800.000	0.032	-0.125
-617.332	-200.000	0.032	0.464
-616.317	-49.783	0.159	-0.077
-615.303	-49.096	0.239	-0.116
-614.288	-32.633	0.191	-0.108
-613.273	-200.000	-0.052	-0.429
-612.259	-45.629	-0.190	0.095
-611.244	-200.000	-0.015	0.276
-610.230	800.000	0.061	0.216
-609.215	800.000	0.052	-0.211
-608.201	680.877	-0.066	0.174
-607.186	272.775	-0.133	0.238
-606.171	-111.681	0.259	-0.053
-605.157	-74.400	0.101	-0.037
-604.142	800.000	0.078	0.255
-603.128	-134.683	-0.203	0.025
-602.113	800.000	-0.088	-0.304
-601.098	715.855	0.108	-0.290
-600.084	192.767	-0.075	-0.115
-599.069	-119.898	0.354	-0.062
-598.055	-107.273	0.072	-0.016
-597.040	800.000	-0.069	-0.292
-596.025	111.316	0.065	-0.080
-595.011	227.148	0.101	0.166
-593.996	-23.588	-0.166	0.101
-592.982	-51.510	0.198	-0.094
-591.967	-89.421	0.104	0.031
-590.952	-200.000	0.027	0.160
-589.938	142.432	0.120	0.161
-588.923	-112.588	-0.362	-0.073
-587.909	129.127	0.112	0.144
-586.894	-5.702	-0.353	-0.244
-585.879	-78.701	0.209	0.072
-584.865	225.704	-0.154	-0.251
-583.850	-200.000	0.003	-0.061
-582.836	382.594	-0.121	-0.251
-581.821	-200.000	-0.017	-0.266
-580.806	-122.172	-0.249	0.041
-579.792	-200.000	0.020	0.092
-578.777	114.161	-0.146	0.179
-577.763	-36.759	0.508	-0.275
-576.748	-8.298	0.240	-0.163
-575.733	129.208	0.136	0.175
-574.719	-9.203	0.195	-0.131
-573.704	800.000	0.047	0.185
-572.690	-56.616	0.359	-0.161
-571.675	-165.937	0.175	-0.008
-570.661	336.087	0.116	-0.227
-569.646	800.000	-0.109	0.434
-568.631	-109.045	-0.361	-0.078
-567.617	-136.454	-0.313	0.037
-566.602	-200.000	0.010	0.193
-565.588	-118.681	-0.192	-0.034
-564.573	-200.000	-0.096	-0.459
-563.558	15.876	-0.235	-0.187
-562.544	-164.378	-0.358	0.017
-561.529	-200.000	-0.025	0.147
-560.515	234.878	0.242	0.403
-559.500	519.925	0.057	0.135
-558.485	17.179	0.119	0.095
-557.471	-76.881	0.321	-0.113
-556.456	126.673	0.120	0.154
-555.442	308.981	-0.208	-0.391
-554.427	-159.238	-0.237	0.013
-553.412	-200.000	-0.001	-0.041
-552.398	100.857	-0.142	-0.167
-551.383	-2.027	0.187	0.132
-550.369	327.120	0.123	-0.238
-549.354	98.573	-0.243	0.283
-548.339	-75.037	0.250	0.090
-547.325	-89.264	0.066	-0.020
-546.310	18.628	0.196	-0.158
-545.296	-151.047	0.051	0.004
-544.281	-200.000	-0.026	0.132
-543.266	-200.000	-0.011	0.307
-542.252	-200.000	-0.025	-0.154
-541.237	450.109	0.091	-0.203
-540.223	-200.000	0.007	0.293
-539.208	-200.000	0.038	0.281
-538.193	0.726	-0.352	0.254
-537.179	-36.249	0.195	-0.106
-536.164	9.172	0.139	0.106
-535.150	-200.000	0.004	-0.362
-534.135	198.071	-0.111	-0.170
-533.121	175.113	-0.173	-0.252
-532.106	70.253	-0.162	-0.168
-531.091	800.000	0.024	-0.086
-530.077	800.000	-0.011	-0.034
-529.062	-110.861	-0.168	0.035
-528.048	120.637	-0.163	-0.204
-527.033	-200.000	0.060	0.274
-526.018	-180.869	-0.084	-0.002
-525.004	-133.277	-0.299	-0.038
-523.989	18.767	-0.283	0.228
-522.975	-88.508	0.250	-0.075
-521.960	800.000	0.052	-0.162
-520.945	-114.329	-0.262	0.051
-519.931	-37.231	-0.183	-0.098
-518.916	-52.236	-0.169	-0.079
-517.902	725.077	-0.118	0.317
-516.887	69.619	-0.165	-0.171
-515.872	800.000	0.085	0.313
-514.858	2.207	-0.197	0.143
-513.843	282.500	0.055	0.099
-512.829	-135.440	-0.353	-0.042
-511.814	411.595	0.159	0.340
-510.799	71.167	0.060	0.063
-509.785	7.139	-0.139	-0.104
-508.770	-71.947	0.073	-0.027
-507.756	96.496	0.092	0.106
-506.741	-151.086	-0.249	-0.019
-505.726	-200.000	0.016	-0.183
-504.712	-200.000	-0.050	-0.546
-503.697	-100.857	0.269	-0.067
-502.683	80.082	0.119	0.128
-501.668	328.590	-0.056	0.108
-500.653	-22.350	0.153	0.093
-499.639	-22.578	-0.257	0.157
-498.624	-84.616	0.071	0.023
-497.610	-28.045	0.307	-0.179
-496.595	310.483	0.059	0.111
-495.581	-169.330	-0.266	0.010
-494.566	-30.576	-0.348	-0.198
-493.551	-137.475	-0.041	0.005
-492.537	-84.327	-0.144	0.046
-491.522	761.312	-0.041	0.112
-490.508	9.923	0.272	-0.208
-489.493	45.557	0.199	-0.185
-488.478	625.504	0.012	0.031
-487.464	800.000	0.050	-0.146
-486.449	-200.000	-0.024	-0.307
-485.435	-59.185	0.273	-0.118
-484.420	342.609	-0.194	0.381
-483.405	-200.000	-0.084	0.400
-482.391	81.116	-0.139	0.151
-481.376	-10.834	0.027	-0.018
-480.362	42.191	-0.396	0.362
-479.347	-200.000	0.003	0.031
-478.332	-37.568	-0.120	0.065
-477.318	9.941	-0.133	-0.102
-476.303	-137.137	-0.230	0.026
-475.289	-107.291	-0.092	-0.020
-474.274	45.375	-0.076	0.071
-473.259	-200.000	-0.024	0.160
-472.245	-178.256	0.283	-0.007
-471.230	800.000	-0.103	-0.370
-470.216	45.954	-0.077	0.072
-469.201	623.857	0.135	0.342
-468.186	215.051	-0.087	0.139
-467.172	-37.297	-0.205	-0.110
-466.157	-80.924	0.163	0.054
-465.143	-79.054	0.084	0.029
-464.128	-99.878	-0.318	-0.080
-463.113	290.934	0.095	-0.173
-462.099	-197.111	0.323	-0.002
-461.084	64.206	0.192	-0.195
-460.070	266.757	-0.131	-0.230
-459.055	530.371	0.085	-0.202
-458.040	18.000	-0.398	0.319
-457.026	-200.000	0.071	0.373
-456.011	800.000	-0.099	-0.428
-454.997	800.000	0.075	0.300
-453.982	-200.000	0.026	0.409
-452.968	17.363	-0.005	0.004
-451.953	-118.114	-0.134	0.024
-450.938	-81.997	-0.248	-0.082
-449.924	-200.000	-0.002	-0.028
-448.909	45.752	-0.042	0.039
-447.895	-124.993	-0.055	-0.008
-446.880	-7.979	0.073	-0.049
-445.865	-131.695	-0.057	-0.008
-444.851	19.004	-0.188	0.152
-443.836	70.350	-0.148	-0.154
-442.822	564.424	-0.107	-0.260
-441.807	267.424	0.147	-0.259
-440.792	143.878	-0.050	0.067
-439.778	-136.078	0.170	-0.020
-438.763	411.086	0.058	-0.123
-437.749	128.538	-0.210	-0.269
-436.734	111.502	0.135	-0.164
-435.719	295.315	0.058	-0.107
-434.705	-182.414	-0.292	-0.005
-433.690	-200.000	-0.034	-0.165
-432.676	304.681	0.107	0.200
-431.661	27.746	-0.088	0.074
-430.646	-200.000	0.046	0.339
-429.632	-144.530	-0.377	0.035
-428.617	-153.180	-0.117	-0.008
-427.603	477.218	0.145	-0.329
-426.588	-200.000	-0.031	-0.215
-425.573	-161.021	0.211	0.011
-424.559	93.760	0.147	0.167
-423.544	-101.267	0.300	0.073
-422.530	800.000	0.066	0.213
-421.515	-200.000	-0.030	0.216
-420.500	139.532	-0.136	-0.179
-419.486	-200.000	0.007	0.093
-418.471	-200.000	-0.055	-0.246
-417.457	-200.000	0.032	-0.393
-416.442	23.343	-0.144	0.119
-415.428	67.780	-0.040	-0.041
-414.413	-200.000	-0.001	-0.095
-413.398	-200.000	-0.022	0.173
-412.384	800.000	0.052	-0.167
-411.369	204.172	0.166	0.257
-410.355	800.000	0.064	-0.263
-409.340	-86.505	0.303	0.093
-408.325	-200.000	-0.013	-0.068
-407.311	-45.117	0.242	0.121
-406.296	-52.961	-0.135	0.062
-405.282	-200.000	-0.015	-0.116
-404.267	-78.684	-0.193	-0.066
-403.252	-200.000	-0.245	-0.001
-402.238	395.019	0.096	0.201
-401.223	202.247	-0.058	0.089
-400.209	800.000	-0.111	-0.335
-399.194	74.279	-0.270	0.284
-398.179	-200.000	-0.013	0.075
-397.165	800.000	-0.102	-0.324
-396.150	295.996	-0.129	-0.237
-395.136	-128.751	-0.025	-0.004
-394.121	7.774	0.164	-0.123
-393.106	45.145	0.119	0.110
-392.092	-26.978	-0.219	-0.128
-391.077	273.458	-0.126	0.224
-390.063	11.393	-0.154	-0.118
-389.048	800.000	-0.030	-0.102
-388.033	-104.788	0.354	-0.082
-387.019	118.642	-0.100	0.124
-386.004	-200.000	-0.046	-0.240
-384.990	-200.000	0.029	-0.191
-383.975	-134.745	-0.341	-0.041
-382.960	-132.551	-0.378	0.049
-381.946	-8.136	0.241	0.162
-380.931	53.201	0.206	0.198
-379.917	-81.907	0.295	0.097
-378.902	-200.000	0.030	0.173
-377.888	-126.481	-0.266	0.040
-376.873	-192.250	0.203	-0.002
-375.858	-42.616	0.226	0.115
-374.844	-28.721	-0.068	-0.039
-373.829	580.246	0.101	-0.247
-372.815	800.000	0.090	0.260
-371.800	21.572	0.187	0.152
-370.785	-0.699	0.154	0.109
-369.771	68.480	-0.209	-0.215
-368.756	-110.340	0.076	-0.016
-367.742	-116.519	0.478	-0.088
-366.727	-200.000	-0.060	-0.294
-365.712	-200.000	-0.007	-0.348
-364.698	-85.873	0.236	-0.073
-363.683	701.998	-0.094	0.248
-362.669	46.158	-0.051	0.048
-361.654	-122.228	0.036	-0.006
-360.639	365.895	0.075	-0.152
-359.625	-14.335	-0.370	-0.239
-358.610	-200.000	-0.020	-0.094
-357.596	-15.928	-0.232	-0.148
-356.581	-200.000	0.064	-0.501
-355.566	-55.439	-0.164	-0.074
-354.552	196.726	-0.107	0.163
-353.537	-134.548	-0.066	0.008
-352.523	-84.131	0.088	0.028
-351.508	-15.268	-0.125	-0.080
-350.493	-200.000	0.078	0.347
-349.479	800.000	0.091	0.373
-348.464	-83.704	0.157	0.050
-347.450	89.689	-0.325	0.363
-346.435	-151.996	0.334	0.024
-345.420	149.223	-0.175	0.237
-344.406	-45.606	0.451	0.223
-343.391	1.167	-0.157	-0.112
-342.377	-10.561	0.235	0.156
-341.362	732.141	0.011	0.029
-340.348	-200.000	-0.011	-0.074
-339.333	218.257	0.148	-0.236
-338.318	-20.632	0.246	-0.151
-337.304	367.368	0.119	-0.241
-336.289	-200.000	0.005	0.063
-335.275	136.602	0.272	0.355
-334.260	-200.000	0.026	0.311
-333.245	276.544	0.083	0.147
-332.231	-23.569	0.136	-0.082
-331.216	169.301	-0.054	0.078
-330.202	-51.866	-0.133	-0.062
-329.187	222.464	0.176	0.284
-328.172	-143.077	-0.171	0.016
-327.158	-200.000	-0.000	-0.072
-326.143	-200.000	-0.000	-0.161
-325.129	42.096	-0.164	0.149
-324.114	-65.011	-0.314	-0.127
-323.099	-200.000	-0.008	-0.062
-322.085	77.181	-0.019	0.020
-321.070	-54.555	0.313	0.142
-320.056	82.254	0.120	0.130
-319.041	-154.535	0.081	0.005
-318.026	-200.000	-0.062	-0.373
-317.012	-200.000	-0.027	0.470
-315.997	-200.000	-0.028	0.151
-314.983	-52.171	0.225	-0.104
-313.968	-62.356	-0.369	-0.154
-312.953	-69.867	-0.098	-0.037
-311.939	-105.975	0.032	-0.007
-310.924	512.767	-0.121	-0.281
-309.910	-200.000	0.013	-0.370
-308.895	-162.921	-0.176	-0.009
-307.880	-200.000	-0.032	-0.191
-306.866	-110.727	-0.240	0.050
-305.851	-64.008	0.448	0.183
-304.837	154.488	0.174	0.239
-303.822	-93.489	-0.026	0.007
-302.807	204.177	-0.191	0.296
-301.793	-182.502	0.121	0.002
-300.778	-200.000	0.018	0.184
-299.764	-200.000	-0.009	0.167
-298.749	388.698	-0.011	-0.023
-297.735	-77.462	0.186	0.065
-296.720	209.922	0.238	0.374
-295.705	-173.296	0.503	0.015
-294.691	-70.912	0.095	-0.036
-293.676	-200.000	0.009	0.064
-292.662	76.702	-0.157	0.166
-291.647	800.000	-0.071	-0.222
-290.632	-31.377	-0.200	-0.112
-289.618	463.860	0.034	-0.076
-288.603	-200.000	0.022	0.214
-287.589	38.081	0.088	0.078
-286.574	119.525	0.222	-0.274
-285.559	-123.869	0.040	-0.006
-284.545	-42.329	-0.288	0.147
-283.530	112.262	-0.151	0.182
-282.516	74.285	0.190	0.200
-281.501	-120.427	-0.176	0.030
-280.486	106.697	-0.209	0.248
-279.472	-200.000	-0.004	-0.036
-278.457	-123.179	0.299	-0.048
-277.443	800.000	-0.040	0.152
-276.428	-26.843	0.424	-0.247
-275.413	19.647	0.155	-0.125
-274.399	-200.000	-0.019	0.169
-273.384	800.000	-0.043	-0.118
-272.370	800.000	-0.020	0.072
-271.355	-52.090	-0.035	0.016
-270.340	279.333	-0.101	0.179
-269.326	163.897	0.048	0.068
-268.311	-130.202	-0.469	0.064
-267.297	-200.000	-0.069	0.322
-266.282	-69.888	0.082	-0.031
-265.267	-63.078	-0.228	0.094
-264.253	800.000	0.017	-0.067
-263.238	-53.338	0.279	0.128
-262.224	-34.349	-0.305	-0.167
-261.209	-200.000	-0.008	-0.038
-260.195	11.139	-0.205	0.157
-259.180	-181.231	-0.217	0.004
-258.165	-9.892	-0.136	-0.090
-257.151	64.342	0.073	-0.073
-256.136	-200.000	0.045	-0.213
-255.122	0.966	-0.136	0.098
-254.107	-200.000	0.003	0.224
-253.092	25.736	0.166	-0.138
-252.078	110.973	-0.123	0.147
-251.063	-113.485	-0.301	0.059
-250.049	-25.559	0.153	-0.090
-249.034	-200.000	-0.015	0.307
-248.019	413.936	0.027	0.057
-247.005	-11.080	-0.195	-0.128
-245.990	-155.750	0.213	-0.014
-244.976	800.000	-0.078	0.225
-243.961	-200.000	-0.008	-0.100
-242.946	126.782	0.094	0.118
-241.932	125.319	0.034	0.043
-240.917	800.000	0.081	0.306
-239.903	-98.047	-0.508	0.130
-238.888	638.627	0.080	-0.204
-237.873	800.000	0.095	0.311
-236.859	-115.285	-0.146	0.027
-235.844	176.876	-0.043	-0.062
-234.830	375.916	0.065	-0.132
-233.815	-180.331	-0.082	0.002
-232.800	-200.000	-0.020	-0.264
-231.786	-140.259	0.412	0.043
-230.771	-200.000	-0.000	-0.126
-229.757	-51.946	0.053	0.025
-228.742	-200.000	0.036	0.198
-227.727	-14.226	0.117	-0.075
-226.713	-200.000	-0.030	-0.432
-225.698	800.000	0.076	-0.241
-224.684	-47.333	0.165	-0.080
-223.669	-152.877	0.452	0.032
-222.655	-89.453	-0.132	0.039
-221.640	-4.529	-0.266	0.183
-220.625	197.137	-0.117	-0.178
-219.611	162.941	0.044	-0.061
-218.596	-200.000	-0.017	0.099
-217.582	68.799	0.209	-0.214
-216.567	47.321	-0.119	0.110
-215.552	157.943	0.191	-0.264
-214.538	-126.793	0.097	0.014
-213.523	-132.348	0.237	0.031
-212.509	-37.980	-0.167	0.088
-211.494	252.577	0.023	0.038
-210.479	35.986	0.079	0.069
-209.465	141.378	0.055	-0.072
-208.450	-47.515	0.054	0.026
-207.436	153.212	-0.174	-0.236
-206.421	-68.347	-0.331	-0.128
-205.406	50.585	0.124	0.117
-204.392	-11.642	-0.081	-0.053
-203.377	337.049	-0.163	0.314
-202.363	-82.747	0.486	-0.156
-201.348	-27.516	0.129	-0.074
-200.333	-200.000	0.001	-0.021
-199.319	-82.251	-0.048	-0.016
-198.304	87.373	-0.110	0.122
-197.290	227.265	0.099	0.160
-196.275	16.852	-0.176	-0.139
-195.260	-23.884	0.209	0.124
-194.246	-27.530	0.135	0.078
-193.231	800.000	-0.094	0.332
-192.217	8.124	-0.390	-0.291
-191.202	45.538	0.227	-0.209
-190.187	-175.586	0.160	-0.004
-189.173	-105.952	-0.184	-0.041
-188.158	710.346	0.141	0.370
-187.144	83.963	-0.226	-0.246
-186.129	273.919	0.147	-0.258
-185.114	-61.419	0.376	-0.157
-184.100	20.398	-0.157	-0.126
-183.085	620.034	-0.096	0.240
-182.071	-102.561	0.221	-0.052
-181.056	11.179	-0.293	-0.223
-180.042	-200.000	0.031	-0.282
-179.027	-149.638	0.260	-0.020
-178.012	-200.000	0.002	0.153
-176.998	103.017	0.107	0.124
-175.983	-27.843	-0.149	-0.086
-174.969	112.942	-0.176	0.212
-173.954	38.450	-0.033	0.029
-172.939	-14.608	0.189	-0.121
-171.925	-60.992	0.533	0.224
-170.910	-72.349	0.164	-0.060
-169.896	373.655	0.076	0.153
-168.881	-200.000	0.003	0.149
-167.866	-101.142	0.209	0.051
-166.852	-111.607	0.326	-0.066
-165.837	-13.021	-0.134	0.087
-164.823	86.802	0.098	-0.108
-163.808	-133.961	-0.160	-0.020
-162.793	56.913	0.101	0.098
-161.779	18.064	0.221	0.175
-160.764	110.780	-0.166	-0.198
-159.750	104.451	-0.053	0.062
-158.735	-200.000	-0.017	0.199
-157.720	800.000	0.002	0.007
-156.706	-200.000	-0.035	-0.268
-155.691	-93.277	-0.129	0.036
-154.677	-57.705	0.226	0.098
-153.662	-117.666	0.131	0.023
-152.647	107.868	0.170	0.201
-151.633	-16.419	-0.234	0.147
-150.618	-55.419	-0.057	0.025
-149.604	-41.875	-0.123	-0.063
-148.589	113.441	0.042	0.051
-147.574	127.573	0.079	-0.099
-146.560	-48.951	0.202	0.096
-145.545	-146.217	-0.248	0.022
-144.531	38.768	0.424	0.376
-143.516	58.718	0.132	0.128
-142.502	-67.859	-0.355	0.138
-141.487	218.956	0.075	-0.118
-140.472	536.003	-0.015	0.035
-139.458	-200.000	0.034	0.192
-138.443	-200.000	-0.015	-0.212
-137.429	-200.000	-0.009	0.187
-136.414	222.149	0.038	0.060
-135.399	572.505	0.114	-0.276
-134.385	800.000	-0.080	0.320
-133.370	-180.396	0.316	0.007
-132.356	-121.847	-0.370	0.060
-131.341	-67.698	0.259	-0.101
-130.326	583.801	-0.008	-0.018
-129.312	-53.850	-0.309	0.140
-128.297	-22.221	-0.110	0.066
-127.283	242.197	0.039	-0.065
-126.268	203.821	-0.107	-0.165
-125.253	800.000	0.047	-0.197
-124.239	109.529	0.181	-0.215
-123.224	-200.000	0.058	-0.298
-122.210	408.329	0.087	0.183
