DTS Sentinel unit serial number:	SN413079Multiplexer serial number:	ORYXHardware model number:	OX4-SRSoftware version number:	ORYX F/W v4.00 Oryx Data Collector v3.7.2.0data status	okinstallation	princeton_trtdifferential loss correction	single-endedforward channel	channel 1reverse channel	N/Adate	2019/09/15time	05:30:35forward acquisition time	60.00reverse acquisition time	0.00gamma	496.2192k internal	0.2324k external	0.2324temperature offset calibration	0.9996default loss term (dB/km)	0.3790temperature slope calibration	1.0000multiplexer offset coefficient	1.0000multiplexer slope coefficient	1.0000fibre end	0.00T internal ref (°C)	30.56T ext. ref 1 (°C)	4.76T ext. ref 2 (°C)	25.72length (m)	temperature (°C)	Stokes	anti-Stokes-747.200	506.695	0.122	-0.286
-746.185	470.879	0.064	0.145
-745.171	-110.501	0.184	0.038
-744.156	60.069	-0.218	0.217
-743.142	-114.550	0.188	0.036
-742.127	800.000	0.076	0.252
-741.112	136.272	-0.081	0.106
-740.098	-58.083	-0.054	-0.024
-739.083	535.096	0.078	0.188
-738.069	800.000	0.151	0.607
-737.054	-62.982	0.169	0.071
-736.039	-192.599	-0.255	0.002
-735.025	-11.373	0.165	-0.110
-734.010	800.000	-0.109	0.421
-732.996	-15.794	-0.064	-0.041
-731.981	52.096	0.426	0.410
-730.966	-200.000	-0.142	0.000
-729.952	-200.000	-0.001	-0.025
-728.937	-123.023	0.245	0.040
-727.923	-115.179	-0.289	-0.055
-726.908	-181.466	-0.241	-0.005
-725.894	291.591	0.057	-0.105
-724.879	-200.000	0.066	-0.341
-723.864	-0.602	0.242	-0.173
-722.850	-200.000	0.032	-0.144
-721.835	-80.625	0.292	-0.098
-720.821	-200.000	0.004	0.065
-719.806	147.086	0.047	-0.064
-718.791	-200.000	0.020	0.184
-717.777	-7.039	0.366	0.250
-716.762	5.813	-0.155	-0.115
-715.748	-200.000	0.006	0.160
-714.733	123.839	-0.241	0.305
-713.718	538.211	-0.021	0.050
-712.704	-0.073	0.066	-0.047
-711.689	-164.265	0.276	0.013
-710.675	-140.934	-0.464	-0.048
-709.660	-122.134	0.302	0.050
-708.645	102.802	0.357	-0.421
-707.631	-88.244	-0.334	0.101
-706.616	43.475	-0.333	0.306
-705.602	-5.546	-0.246	0.170
-704.587	-114.026	-0.131	-0.026
-703.572	1.136	0.262	0.189
-702.558	-200.000	0.013	-0.170
-701.543	394.092	0.064	-0.134
-700.529	-112.662	-0.152	0.030
-699.514	-84.074	0.118	-0.038
-698.499	184.589	-0.100	0.149
-697.485	289.748	-0.100	-0.183
-696.470	-67.576	0.248	0.098
-695.456	-64.702	0.120	0.049
-694.441	-200.000	0.012	-0.134
-693.426	-122.545	0.255	-0.042
-692.412	242.384	0.156	-0.263
-691.397	-100.174	-0.173	0.043
-690.383	-128.122	0.217	0.031
-689.368	165.012	-0.089	0.126
-688.354	-140.009	-0.197	0.021
-687.339	56.913	-0.195	-0.192
-686.324	793.907	0.021	-0.058
-685.310	-2.073	0.169	0.120
-684.295	141.436	0.108	-0.144
-683.281	-123.907	-0.136	-0.022
-682.266	-60.407	0.192	-0.082
-681.251	-76.362	0.319	-0.113
-680.237	63.042	-0.126	-0.127
-679.222	36.949	0.130	-0.116
-678.208	16.284	-0.130	-0.103
-677.193	-96.431	-0.519	0.138
-676.178	5.201	-0.254	0.188
-675.164	-200.000	-0.038	0.203
-674.149	-200.000	0.036	-0.240
-673.135	152.930	0.135	0.186
-672.120	47.615	0.030	0.028
-671.105	779.488	-0.027	0.075
-670.091	188.418	0.238	0.358
-669.076	800.000	0.079	0.247
-668.062	27.053	-0.328	0.277
-667.047	700.579	-0.221	0.585
-666.032	-150.180	-0.221	0.017
-665.018	-109.815	-0.041	0.009
-664.003	11.379	0.043	-0.033
-662.989	-144.043	0.198	0.019
-661.974	136.028	-0.105	0.138
-660.959	151.447	-0.222	-0.304
-659.945	-1.987	-0.190	0.134
-658.930	304.354	0.027	-0.051
-657.916	-135.312	0.202	-0.024
-656.901	-46.591	-0.091	0.045
-655.886	-56.991	0.200	-0.089
-654.872	-200.000	-0.018	-0.109
-653.857	-200.000	-0.029	0.144
-652.843	145.305	0.097	0.130
-651.828	-95.654	0.196	-0.053
-650.814	25.303	-0.282	-0.236
-649.799	-200.000	0.015	0.259
-648.784	119.624	-0.299	0.372
-647.770	-60.850	-0.138	-0.059
-646.755	-120.002	-0.306	0.053
-645.741	56.211	-0.107	-0.105
-644.726	-85.859	-0.254	0.079
-643.711	701.960	0.067	-0.178
-642.697	128.485	0.097	-0.125
-641.682	87.252	0.218	-0.242
-640.668	448.267	0.127	-0.282
-639.653	-22.082	-0.157	0.096
-638.638	-32.033	-0.124	-0.070
-637.624	115.595	0.137	-0.168
-636.609	800.000	0.059	-0.183
-635.595	199.628	0.116	0.179
-634.580	192.451	-0.051	-0.077
-633.565	-200.000	0.056	0.339
-632.551	800.000	-0.038	0.117
-631.536	63.133	0.276	0.278
-630.522	579.470	0.034	0.084
-629.507	59.777	-0.037	0.037
-628.492	-82.161	0.170	0.056
-627.478	-99.341	0.315	-0.080
-626.463	28.679	-0.031	-0.027
-625.449	-42.042	0.088	-0.045
-624.434	-200.000	0.052	-0.597
-623.419	-63.275	-0.179	0.074
-622.405	227.399	-0.200	-0.327
-621.390	726.930	-0.108	-0.291
-620.376	263.918	0.064	-0.112
-619.361	-87.935	-0.358	0.108
-618.346	-29.887	-0.188	0.108
-617.332	56.057	-0.141	-0.138
-616.317	-111.889	0.214	0.043
-615.303	-200.000	0.014	0.182
-614.288	-83.010	-0.089	0.029
-613.273	-200.000	-0.028	-0.506
-612.259	-200.000	0.058	-0.281
-611.244	151.986	-0.245	0.335
-610.230	-74.702	-0.308	-0.111
-609.215	23.881	-0.377	-0.312
-608.201	11.792	0.133	-0.103
-607.186	-150.823	0.271	-0.021
-606.171	-22.207	-0.180	-0.110
-605.157	200.968	-0.092	-0.142
-604.142	-56.845	0.388	0.172
-603.128	160.484	-0.117	0.164
-602.113	553.311	-0.019	-0.045
-601.098	-184.030	-0.159	0.003
-600.084	-200.000	-0.026	0.172
-599.069	-200.000	-0.026	-0.136
-598.055	-126.020	-0.420	-0.063
-597.040	231.710	0.044	0.073
-596.025	520.038	-0.080	-0.189
-595.011	-140.185	0.294	0.031
-593.996	158.870	-0.177	-0.247
-592.982	-57.425	0.249	-0.110
-591.967	800.000	0.028	-0.094
-590.952	800.000	0.025	-0.082
-589.938	-73.769	0.354	0.129
-588.923	-200.000	0.010	0.380
-587.909	268.385	-0.097	-0.171
-586.894	198.294	0.064	0.098
-585.879	-200.000	-0.076	0.451
-584.865	554.735	0.075	-0.182
-583.850	800.000	-0.053	0.228
-582.836	6.109	0.046	-0.034
-581.821	-200.000	-0.032	-0.322
-580.806	800.000	-0.053	-0.160
-579.792	6.861	-0.148	0.111
-578.777	97.828	0.187	-0.215
-577.763	129.494	-0.157	-0.201
-576.748	6.330	0.123	0.091
-575.733	-181.854	0.077	-0.001
-574.719	-124.619	-0.311	0.048
-573.704	-200.000	0.009	-0.082
-572.690	47.618	0.370	0.346
-571.675	-94.736	0.251	-0.068
-570.661	542.832	0.048	-0.115
-569.646	340.435	0.073	0.143
-568.631	-200.000	-0.055	0.273
-567.617	4.431	-0.155	0.114
-566.602	329.686	0.027	0.053
-565.588	800.000	-0.040	0.116
-564.573	316.698	-0.130	-0.246
-563.558	21.396	0.268	-0.218
-562.544	-119.665	-0.232	-0.040
-561.529	28.351	0.412	0.349
-560.515	-70.079	0.287	-0.110
-559.500	-109.614	-0.184	0.039
-558.485	273.595	0.130	-0.231
-557.471	46.742	-0.250	-0.233
-556.456	-144.987	-0.125	-0.011
-555.442	-200.000	0.040	0.393
-554.427	470.441	-0.128	0.289
-553.412	98.780	0.180	0.208
-552.398	258.309	0.084	0.145
-551.383	120.176	-0.243	-0.302
-550.369	-28.877	0.114	0.066
-549.354	35.405	-0.178	0.157
-548.339	-45.390	0.052	0.026
-547.325	246.194	-0.096	-0.162
-546.310	156.341	-0.286	-0.396
-545.296	-33.832	0.261	-0.144
-544.281	-200.000	0.006	0.027
-543.266	-200.000	-0.018	0.137
-542.252	-200.000	-0.038	0.174
-541.237	45.602	0.182	-0.168
-540.223	-200.000	-0.002	-0.122
-539.208	268.767	-0.084	-0.147
-538.193	800.000	0.029	-0.085
-537.179	638.101	0.085	-0.216
-536.164	-8.279	-0.304	-0.205
-535.150	353.282	0.093	0.185
-534.135	800.000	0.033	-0.141
-533.121	19.350	0.274	-0.221
-532.106	-52.728	0.206	0.095
-531.091	-64.904	-0.043	-0.018
-530.077	-43.244	-0.102	-0.052
-529.062	333.091	-0.147	-0.285
-528.048	81.301	-0.224	0.242
-527.033	-1.257	-0.156	-0.110
-526.018	-162.661	0.323	-0.016
-525.004	-124.251	-0.482	-0.075
-523.989	800.000	-0.092	-0.312
-522.975	800.000	0.142	0.441
-521.960	-24.454	0.266	0.159
-520.945	800.000	-0.073	-0.248
-519.931	18.396	-0.244	0.195
-518.916	800.000	0.024	0.073
-517.902	-63.305	0.403	0.166
-516.887	-155.409	-0.353	0.023
-515.872	476.371	-0.041	0.093
-514.858	238.115	0.036	-0.061
-513.843	-200.000	-0.056	-0.408
-512.829	-143.854	-0.135	-0.013
-511.814	-179.936	-0.070	-0.001
-510.799	218.921	0.062	-0.098
-509.785	-200.000	0.054	0.354
-508.770	-70.284	-0.124	-0.047
-507.756	-31.841	0.249	-0.139
-506.741	-80.359	0.394	-0.132
-505.726	-181.629	-0.138	-0.003
-504.712	-140.206	-0.137	0.014
-503.697	-71.831	-0.200	-0.074
-502.683	800.000	-0.038	-0.131
-501.668	-15.607	-0.162	-0.103
-500.653	-200.000	0.041	0.267
-499.639	-123.062	-0.225	0.036
-498.624	-2.555	0.303	-0.212
-497.610	-200.000	0.022	0.101
-496.595	-108.063	-0.255	0.055
-495.581	-106.346	-0.136	-0.030
-494.566	-74.259	0.276	0.100
-493.551	136.413	0.140	0.182
-492.537	-200.000	0.016	-0.095
-491.522	225.234	-0.070	0.114
-490.508	40.193	0.104	0.093
-489.493	800.000	0.113	-0.331
-488.478	-200.000	-0.002	0.047
-487.464	-67.595	0.106	0.041
-486.449	-147.894	-0.166	-0.014
-485.435	57.154	0.088	-0.086
-484.420	800.000	-0.020	0.073
-483.405	-73.954	-0.268	0.097
-482.391	-150.194	-0.178	-0.014
-481.376	115.905	-0.061	0.075
-480.362	127.309	-0.182	0.231
-479.347	-30.781	-0.290	-0.164
-478.332	69.654	0.058	0.059
-477.318	-200.000	-0.014	0.191
-476.303	-100.970	0.143	0.035
-475.289	-64.707	0.325	-0.132
-474.274	-110.175	-0.313	-0.065
-473.259	325.255	-0.103	-0.198
-472.245	146.588	0.212	-0.284
-471.230	43.119	-0.303	0.276
-470.216	11.918	0.292	0.224
-469.201	800.000	-0.128	0.400
-468.186	41.677	0.037	0.033
-467.172	114.774	0.166	0.202
-466.157	97.574	0.027	-0.030
-465.143	-1.495	-0.099	-0.070
-464.128	168.033	0.260	0.370
-463.113	-25.543	0.145	0.086
-462.099	-90.635	-0.177	0.051
-461.084	-200.000	0.018	-0.278
-460.070	-2.712	0.051	-0.036
-459.055	800.000	0.060	0.201
-458.040	-141.629	0.081	-0.008
-457.026	-185.153	-0.191	-0.003
-456.011	-200.000	0.342	0.001
-454.997	-151.095	0.030	0.002
-453.982	114.104	0.173	0.211
-452.968	-200.000	0.050	0.221
-451.953	800.000	-0.023	-0.099
-450.938	372.469	-0.109	-0.221
-449.924	-200.000	-0.019	-0.282
-448.909	168.214	0.194	0.275
-447.895	66.472	0.149	-0.151
-446.880	-20.690	-0.049	-0.030
-445.865	-52.349	-0.384	0.177
-444.851	24.082	-0.150	-0.124
-443.836	-200.000	-0.007	0.308
-442.822	-200.000	-0.005	-0.164
-441.807	336.826	0.120	-0.233
-440.792	619.509	0.018	-0.046
-439.778	-200.000	0.050	0.233
-438.763	-133.669	0.258	0.032
-437.749	-200.000	0.023	-0.194
-436.734	-133.068	-0.179	0.023
-435.719	156.069	0.074	0.101
-434.705	-200.000	0.037	0.179
-433.690	-200.000	0.000	0.071
-432.676	26.565	0.326	0.272
-431.661	53.848	-0.016	-0.015
-430.646	800.000	-0.063	0.215
-429.632	-55.629	-0.027	-0.012
-428.617	579.047	0.048	-0.117
-427.603	90.079	-0.097	0.108
-426.588	-195.655	-0.186	-0.001
-425.573	11.400	-0.078	0.060
-424.559	-91.611	0.090	0.026
-423.544	292.979	0.039	0.070
-422.530	-68.965	0.154	0.059
-421.515	-50.773	-0.190	-0.089
-420.500	-8.032	0.431	0.290
-419.486	800.000	0.077	0.250
-418.471	-112.396	-0.165	-0.033
-417.457	-200.000	-0.032	0.206
-416.442	44.330	0.169	-0.155
-415.428	-200.000	-0.002	-0.117
-414.413	-200.000	-0.029	-0.142
-413.398	-200.000	-0.033	-0.255
-412.384	17.427	-0.173	-0.137
-411.369	-200.000	0.018	0.152
-410.355	216.998	0.051	-0.080
-409.340	800.000	0.127	0.539
-408.325	216.377	0.184	0.291
-407.311	-200.000	-0.262	0.001
-406.296	113.515	0.058	-0.070
-405.282	158.963	0.214	-0.297
-404.267	-190.611	0.181	-0.002
-403.252	256.976	0.052	0.088
-402.238	-200.000	-0.088	-0.403
-401.223	-200.000	0.001	-0.250
-400.209	-59.358	0.122	-0.052
-399.194	131.537	-0.091	-0.117
-398.179	-35.195	-0.181	-0.098
-397.165	-100.448	0.246	0.061
-396.150	-1.132	-0.244	-0.172
-395.136	112.866	0.230	0.277
-394.121	-115.595	0.302	-0.057
-393.106	-200.000	0.027	-0.381
-392.092	-84.963	-0.237	-0.074
-391.077	-139.564	-0.175	0.019
-390.063	-200.000	0.042	-0.332
-389.048	-200.000	-0.011	-0.101
-388.033	209.446	0.148	0.231
-387.019	-47.949	0.035	0.017
-386.004	-200.000	-0.024	0.183
-384.990	19.158	0.076	0.060
-383.975	247.874	0.045	0.075
-382.960	113.666	0.134	0.163
-381.946	54.657	-0.103	-0.099
-380.931	22.483	-0.285	-0.232
-379.917	-128.415	0.250	-0.035
-378.902	34.334	0.152	-0.132
-377.888	16.110	0.105	0.083
-376.873	305.163	0.030	0.055
-375.858	67.698	-0.124	0.126
-374.844	56.185	-0.134	-0.129
-373.829	-3.714	0.372	0.257
-372.815	268.554	-0.108	-0.189
-371.800	-94.281	0.170	0.046
-370.785	-50.176	0.274	0.129
-369.771	-145.827	-0.408	0.036
-368.756	-63.611	-0.072	-0.030
-367.742	-58.877	0.222	0.096
-366.727	-92.770	-0.056	0.016
-365.712	-200.000	-0.040	0.465
-364.698	-153.183	-0.362	0.025
-363.683	-49.366	0.065	0.031
-362.669	800.000	0.049	-0.196
-361.654	296.269	0.070	0.127
-360.639	-27.026	-0.251	0.146
-359.625	-78.756	-0.291	-0.099
-358.610	-197.664	0.072	-0.000
-357.596	800.000	-0.058	0.181
-356.581	-65.183	0.150	0.060
-355.566	-36.111	0.227	-0.122
-354.552	496.331	-0.034	0.077
-353.537	800.000	-0.047	-0.148
-352.523	-200.000	-0.033	-0.377
-351.508	-200.000	-0.056	0.349
-350.493	90.795	0.239	0.266
-349.479	800.000	-0.037	0.101
-348.464	800.000	0.046	0.191
-347.450	-200.000	-0.029	0.242
-346.435	-174.752	-0.090	0.003
-345.420	221.590	-0.088	-0.141
-344.406	502.368	-0.103	0.236
-343.391	-112.847	0.038	-0.007
-342.377	-200.000	-0.026	-0.160
-341.362	800.000	0.048	0.160
-340.348	-116.404	0.207	-0.038
-339.333	-200.000	-0.014	-0.146
-338.318	23.687	0.284	0.232
-337.304	357.558	-0.148	-0.294
-336.289	800.000	-0.129	-0.497
-335.275	-59.343	0.104	0.045
-334.260	402.934	0.063	0.131
-333.245	273.476	-0.101	0.177
-332.231	-200.000	0.020	-0.212
-331.216	309.631	0.128	-0.238
-330.202	-102.396	0.349	0.083
-329.187	-200.000	0.019	-0.372
-328.172	800.000	-0.116	0.384
-327.158	-52.916	-0.121	-0.055
-326.143	33.245	0.175	0.151
-325.129	0.281	-0.202	0.143
-324.114	800.000	-0.022	0.085
-323.099	800.000	-0.023	0.098
-322.085	-65.005	-0.125	0.050
-321.070	165.118	-0.206	-0.288
-320.056	232.530	-0.077	0.125
-319.041	661.951	0.086	0.221
-318.026	-121.769	0.214	-0.035
-317.012	-200.000	-0.026	0.190
-315.997	800.000	0.112	0.340
-314.983	61.312	-0.077	0.076
-313.968	35.864	-0.038	-0.033
-312.953	-124.459	-0.280	0.043
-311.939	800.000	0.026	0.112
-310.924	-200.000	-0.032	0.187
-309.910	-144.258	0.451	0.042
-308.895	611.818	-0.060	-0.150
-307.880	-200.000	-0.029	-0.207
-306.866	60.883	0.125	0.123
-305.851	-138.166	-0.208	-0.023
-304.837	-118.165	-0.180	-0.032
-303.822	-101.341	-0.358	-0.087
-302.807	-200.000	0.027	0.125
-301.793	37.896	-0.167	0.148
-300.778	17.485	-0.153	0.121
-299.764	21.162	-0.024	-0.019
-298.749	44.289	-0.123	0.112
-297.735	-200.000	0.020	-0.280
-296.720	800.000	-0.096	-0.347
-295.705	-73.901	-0.263	0.095
-294.691	-33.337	-0.200	0.110
-293.676	-55.525	0.112	-0.050
-292.662	273.647	0.058	-0.102
-291.647	161.867	-0.270	0.376
-290.632	-28.294	0.206	-0.118
-289.618	800.000	-0.052	-0.209
-288.603	246.226	-0.037	-0.062
-287.589	-200.000	0.021	0.137
-286.574	-157.185	0.081	0.005
-285.559	317.689	0.088	-0.164
-284.545	-7.751	0.398	-0.267
-283.530	-200.000	0.013	0.088
-282.516	-137.489	0.296	-0.033
-281.501	173.560	-0.115	-0.165
-280.486	-200.000	-0.053	-0.509
-279.472	208.915	0.214	-0.332
-278.457	800.000	0.037	0.124
-277.443	800.000	0.146	-0.434
-276.428	800.000	-0.040	0.162
-275.413	209.136	-0.135	-0.209
-274.399	-29.746	0.106	-0.060
-273.384	-32.654	-0.112	0.062
-272.370	-73.172	-0.221	-0.080
-271.355	-51.276	-0.258	-0.120
-270.340	-146.066	0.151	-0.013
-269.326	751.506	0.144	-0.385
-268.311	-147.857	-0.187	-0.015
-267.297	-200.000	-0.013	-0.324
-266.282	-170.580	-0.237	0.008
-265.267	72.189	-0.134	0.138
-264.253	-120.026	0.178	-0.030
-263.238	-200.000	-0.015	0.197
-262.224	800.000	-0.066	-0.202
-261.209	-200.000	0.042	0.459
-260.195	-54.187	-0.346	-0.156
-259.180	237.762	0.083	-0.136
-258.165	-200.000	-0.015	-0.322
-257.151	-143.284	-0.234	-0.022
-256.136	-200.000	-0.013	-0.119
-255.122	-93.218	-0.296	-0.081
-254.107	216.480	-0.103	0.162
-253.092	105.074	-0.105	0.122
-252.078	-106.055	-0.063	-0.014
-251.063	126.099	-0.157	0.197
-250.049	30.900	-0.024	-0.021
-249.034	358.092	-0.126	-0.249
-248.019	-97.806	-0.162	-0.042
-247.005	-21.801	0.500	-0.301
-245.990	-13.501	0.287	-0.184
-244.976	29.686	0.160	0.135
-243.961	-66.407	-0.359	-0.141
-242.946	5.312	0.022	-0.016
-241.932	138.074	0.142	0.184
-240.917	155.442	-0.094	0.128
-239.903	-6.469	0.122	0.082
-238.888	127.949	0.213	0.268
-237.873	340.056	-0.132	-0.255
-236.859	800.000	0.068	0.220
-235.844	-15.549	0.243	-0.154
-234.830	-135.777	0.122	0.014
-233.815	-200.000	-0.006	0.076
-232.800	508.213	0.164	-0.376
-231.786	-136.003	-0.298	0.035
-230.771	-48.658	0.074	0.035
-229.757	-169.002	0.365	0.013
-228.742	-200.000	0.040	0.375
-227.727	142.107	-0.332	0.436
-226.713	29.609	0.095	0.080
-225.698	189.696	0.028	-0.041
-224.684	800.000	0.072	0.297
-223.669	-112.242	0.290	0.058
-222.655	800.000	-0.055	0.172
-221.640	-200.000	0.032	0.140
-220.625	800.000	0.022	0.062
-219.611	127.868	0.124	0.156
-218.596	-159.715	0.147	-0.008
-217.582	-87.845	0.156	0.046
-216.567	601.018	-0.054	0.132
-215.552	143.612	0.251	0.330
-214.538	213.236	0.128	-0.200
-213.523	-43.626	-0.114	0.057
-212.509	-200.000	-0.001	-0.060
-211.494	1.713	0.061	0.044
-210.479	479.720	-0.132	0.296
-209.465	-101.279	-0.150	-0.036
-208.450	12.895	-0.254	-0.194
-207.436	184.336	0.166	0.243
-206.421	800.000	0.150	0.446
-205.406	98.835	0.176	-0.201
-204.392	-78.295	0.168	-0.057
-203.377	-200.000	-0.008	0.314
-202.363	-87.057	0.260	0.078
-201.348	472.470	-0.145	0.323
-200.333	127.928	0.181	0.227
-199.319	463.520	-0.131	-0.289
-198.304	-157.764	-0.134	0.008
-197.290	227.302	-0.100	0.160
-196.275	-103.713	-0.117	0.027
-195.260	-200.000	0.039	-0.360
-194.246	-147.773	-0.215	-0.018
-193.231	257.998	0.021	0.036
-192.217	-28.156	0.223	0.127
-191.202	380.690	-0.157	0.318
-190.187	800.000	-0.059	-0.162
-189.173	-200.000	-0.017	-0.153
-188.158	-173.910	0.259	-0.008
-187.144	-17.508	0.154	-0.095
-186.129	309.731	0.094	0.175
-185.114	-137.090	0.217	0.024
-184.100	-109.359	0.169	-0.035
-183.085	800.000	0.049	-0.163
-182.071	109.664	-0.198	-0.234
-181.056	322.024	0.203	0.381
-180.042	383.245	-0.053	-0.107
-179.027	-200.000	0.007	-0.199
-178.012	171.089	0.093	-0.131
-176.998	176.834	0.092	0.132
-175.983	-7.759	0.128	-0.085
-174.969	-129.642	-0.159	-0.022
-173.954	-112.414	-0.456	0.090
-172.939	516.043	0.083	0.191
-171.925	-200.000	-0.004	-0.063
-170.910	123.516	-0.044	-0.055
-169.896	-46.158	0.267	0.130
-168.881	800.000	-0.029	-0.119
-167.866	68.315	0.284	0.287
-166.852	300.195	0.108	-0.197
-165.837	-129.758	0.253	-0.034
-164.823	-93.432	0.134	-0.037
-163.808	-200.000	-0.011	0.394
-162.793	115.433	0.114	0.137
-161.779	-89.427	-0.312	0.091
-160.764	800.000	0.139	-0.391
-159.750	650.832	-0.163	-0.412
-158.735	-95.074	-0.348	-0.093
-157.720	-42.825	-0.263	0.132
-156.706	-200.000	-0.014	-0.136
-155.691	273.873	-0.205	-0.357
-154.677	74.385	-0.272	-0.282
-153.662	800.000	0.050	0.149
-152.647	125.418	-0.117	-0.146
-151.633	-200.000	-0.003	-0.049
-150.618	183.163	-0.183	-0.267
-149.604	87.400	-0.152	-0.166
-148.589	-35.045	0.175	-0.094
-147.574	-200.000	-0.005	-0.251
-146.560	517.844	0.063	0.145
-145.545	-113.941	0.200	-0.038
-144.531	27.427	-0.208	0.173
-143.516	800.000	-0.028	0.099
-142.502	-200.000	-0.000	-0.234
-141.487	-150.024	-0.073	-0.006
-140.472	-200.000	0.007	0.567
-139.458	-41.419	-0.074	-0.038
-138.443	-32.463	0.114	-0.062
-137.429	-200.000	-0.063	-0.400
-136.414	-200.000	-0.035	0.353
-135.399	216.491	0.122	-0.191
-134.385	151.891	0.270	0.362
-133.370	-77.013	0.118	0.041
-132.356	-47.757	0.384	-0.183
-131.341	800.000	-0.070	-0.194
-130.326	236.850	-0.043	0.070
-129.312	175.105	0.104	0.148
-128.297	-27.108	0.339	0.195
-127.283	800.000	-0.135	0.433
-126.268	-14.706	-0.176	0.112
-125.253	-107.961	0.252	0.054
-124.239	-85.615	0.027	-0.008
-123.224	-95.627	0.076	-0.020
-122.210	117.973	0.033	0.039
