DTS Sentinel unit serial number:	SN413079Multiplexer serial number:	ORYXHardware model number:	OX4-SRSoftware version number:	ORYX F/W v4.00 Oryx Data Collector v3.7.2.0data status	okinstallation	princeton_trtdifferential loss correction	single-endedforward channel	channel 1reverse channel	N/Adate	2019/09/11time	22:00:11forward acquisition time	60.00reverse acquisition time	0.00gamma	496.2192k internal	0.2312k external	0.2312temperature offset calibration	1.0056default loss term (dB/km)	0.3790temperature slope calibration	1.0000multiplexer offset coefficient	1.0000multiplexer slope coefficient	1.0000fibre end	0.00T internal ref (°C)	35.52T ext. ref 1 (°C)	1.73T ext. ref 2 (°C)	29.54length (m)	temperature (°C)	Stokes	anti-Stokes-747.200	-80.997	0.172	0.058
-746.185	-200.000	0.011	0.227
-745.171	-105.350	0.404	0.093
-744.156	-69.872	-0.196	0.076
-743.142	388.017	0.136	-0.285
-742.127	800.000	-0.031	0.114
-741.112	-148.631	-0.025	-0.002
-740.098	-149.248	-0.404	0.033
-739.083	9.543	-0.237	-0.182
-738.069	-200.000	-0.008	-0.220
-737.054	-88.546	-0.482	0.146
-736.039	-38.397	-0.463	0.249
-735.025	-163.801	-0.359	-0.017
-734.010	-77.504	-0.062	0.022
-732.996	16.350	-0.096	-0.077
-731.981	409.857	-0.102	-0.220
-730.966	-130.675	0.157	-0.021
-729.952	-184.469	-0.163	0.003
-728.937	598.226	0.066	-0.167
-727.923	51.633	0.171	0.164
-726.908	-94.495	-0.282	0.078
-725.894	-127.011	-0.137	-0.020
-724.879	-18.879	-0.255	0.161
-723.864	-163.470	-0.176	0.008
-722.850	426.638	-0.043	0.094
-721.835	196.671	-0.082	0.127
-720.821	-156.131	-0.383	-0.024
-719.806	-99.361	0.161	0.041
-718.791	-52.048	-0.250	-0.118
-717.777	-200.000	-0.002	-0.019
-716.762	800.000	0.040	-0.146
-715.748	-84.771	-0.199	-0.064
-714.733	-200.000	-0.002	-0.171
-713.718	-200.000	-0.013	-0.121
-712.704	601.570	0.144	-0.364
-711.689	104.216	-0.164	-0.195
-710.675	-200.000	-0.010	0.204
-709.660	-126.177	0.320	-0.049
-708.645	73.010	0.333	-0.353
-707.631	-40.540	0.192	0.101
-706.616	-32.147	-0.295	-0.167
-705.602	-132.642	0.050	-0.007
-704.587	20.102	-0.079	0.065
-703.572	155.529	0.052	0.073
-702.558	-200.000	-0.014	-0.176
-701.543	22.126	-0.119	0.099
-700.529	144.027	0.112	-0.151
-699.514	-200.000	0.049	-0.231
-698.499	-81.154	-0.231	-0.077
-697.485	-200.000	0.017	0.285
-696.470	-59.933	0.250	0.108
-695.456	-16.054	0.144	-0.093
-694.441	-133.404	-0.408	-0.052
-693.426	254.599	0.242	-0.419
-692.412	191.110	-0.203	0.310
-691.397	129.256	0.160	-0.207
-690.383	-200.000	0.010	0.084
-689.368	-93.827	-0.265	-0.074
-688.354	-200.000	0.016	0.146
-687.339	250.626	0.150	0.259
-686.324	800.000	-0.028	-0.105
-685.310	-76.563	-0.269	0.096
-684.295	-200.000	0.055	-0.255
-683.281	-200.000	0.006	0.146
-682.266	-156.897	-0.075	0.005
-681.251	-200.000	0.070	-0.346
-680.237	-85.699	0.151	0.047
-679.222	-85.959	-0.096	-0.030
-678.208	-153.761	0.144	0.010
-677.193	20.737	-0.253	-0.207
-676.178	-200.000	-0.035	-0.166
-675.164	-119.911	0.069	-0.012
-674.149	-200.000	-0.151	-0.000
-673.135	800.000	0.025	0.080
-672.120	3.280	-0.305	0.225
-671.105	-180.754	-0.440	0.009
-670.091	-200.000	0.020	-0.230
-669.076	-200.000	-0.017	-0.083
-668.062	-101.105	-0.191	-0.047
-667.047	65.089	-0.212	-0.216
-666.032	-156.485	-0.123	0.008
-665.018	-114.293	0.261	0.051
-664.003	-152.688	-0.156	-0.011
-662.989	-118.693	-0.227	0.040
-661.974	635.242	-0.159	-0.408
-660.959	-75.271	-0.498	-0.180
-659.945	-146.526	-0.051	0.004
-658.930	41.058	-0.149	0.137
-657.916	800.000	-0.122	0.381
-656.901	4.985	0.049	0.037
-655.886	800.000	-0.081	0.264
-654.872	-66.387	-0.298	0.120
-653.857	-80.360	0.121	-0.041
-652.843	-51.957	-0.132	-0.062
-651.828	19.790	0.108	-0.088
-650.814	-57.152	-0.223	-0.100
-649.799	-34.893	-0.238	0.132
-648.784	-200.000	-0.012	0.126
-647.770	800.000	0.098	-0.429
-646.755	218.175	-0.226	-0.365
-645.741	-115.403	0.088	0.017
-644.726	-200.000	0.036	0.165
-643.711	147.925	-0.314	-0.428
-642.697	627.755	-0.101	0.259
-641.682	800.000	0.121	0.368
-640.668	-200.000	-0.093	-0.000
-639.653	126.162	0.050	-0.064
-638.638	37.023	0.138	0.123
-637.624	-200.000	-0.046	0.303
-636.609	57.896	0.274	-0.271
-635.595	800.000	0.124	0.523
-634.580	-124.390	0.222	-0.035
-633.565	168.912	0.109	0.157
-632.551	-31.088	0.227	0.130
-631.536	-5.942	-0.114	0.079
-630.522	70.032	-0.076	-0.079
-629.507	-200.000	-0.012	-0.079
-628.492	409.981	-0.073	-0.155
-627.478	800.000	-0.070	-0.272
-626.463	27.348	0.306	-0.260
-625.449	275.388	0.083	-0.149
-624.434	-200.000	0.003	0.111
-623.419	-30.014	0.126	0.072
-622.405	800.000	-0.073	-0.309
-621.390	-137.387	-0.223	-0.026
-620.376	-200.000	0.040	0.272
-619.361	330.255	0.064	0.124
-618.346	30.096	-0.088	-0.076
-617.332	-33.603	0.307	0.171
-616.317	149.296	0.176	-0.241
-615.303	-200.000	0.020	-0.096
-614.288	-131.245	-0.634	-0.085
-613.273	254.522	-0.235	-0.406
-612.259	-87.016	0.201	-0.062
-611.244	-49.243	0.030	0.015
-610.230	-33.997	-0.066	0.037
-609.215	-64.293	0.195	0.080
-608.201	19.626	-0.132	-0.107
-607.186	-104.246	0.040	0.009
-606.171	800.000	0.072	0.242
-605.157	90.978	-0.059	-0.067
-604.142	-65.848	-0.043	-0.018
-603.128	800.000	0.059	0.235
-602.113	-92.116	-0.158	0.045
-601.098	535.403	-0.066	-0.159
-600.084	-90.421	0.088	-0.026
-599.069	56.733	-0.090	-0.089
-598.055	-32.356	0.280	-0.158
-597.040	-200.000	0.034	-0.251
-596.025	330.781	-0.093	0.181
-595.011	-200.000	0.031	-0.237
-593.996	800.000	-0.070	0.301
-592.982	24.536	-0.115	-0.096
-591.967	95.656	-0.140	-0.162
-590.952	-200.000	-0.007	-0.185
-589.938	-30.679	0.135	-0.077
-588.923	69.182	-0.125	-0.130
-587.909	-200.000	-0.006	0.092
-586.894	8.516	0.152	0.115
-585.879	-115.651	-0.112	0.021
-584.865	37.287	-0.130	0.117
-583.850	-158.606	-0.120	0.007
-582.836	104.912	0.204	0.242
-581.821	-200.000	-0.022	-0.277
-580.806	9.113	-0.064	0.049
-579.792	82.556	-0.206	-0.226
-578.777	307.970	-0.148	-0.278
-577.763	-27.586	0.198	-0.116
-576.748	218.582	-0.069	-0.111
-575.733	-52.364	0.212	0.099
-574.719	47.756	-0.235	0.222
-573.704	-3.533	0.230	0.161
-572.690	-200.000	-0.032	0.191
-571.675	220.312	0.099	-0.159
-570.661	405.353	-0.093	-0.198
-569.646	-7.398	0.456	-0.311
-568.631	542.433	0.073	0.176
-567.617	29.681	0.100	-0.086
-566.602	800.000	-0.030	0.093
-565.588	-109.180	-0.398	0.085
-564.573	-21.787	-0.185	-0.113
-563.558	-87.167	0.175	-0.054
-562.544	-16.281	-0.159	-0.102
-561.529	-72.356	-0.234	0.087
-560.515	-61.857	-0.302	-0.127
-559.500	-200.000	0.000	0.015
-558.485	53.392	0.224	0.216
-557.471	-99.379	0.343	0.087
-556.456	195.458	0.187	-0.286
-555.442	-129.588	0.177	0.025
-554.427	733.004	-0.090	0.242
-553.412	-118.605	-0.285	-0.051
-552.398	-200.000	0.029	-0.191
-551.383	665.017	-0.054	-0.141
-550.369	-200.000	0.036	0.235
-549.354	-94.168	-0.150	-0.041
-548.339	190.353	0.086	0.130
-547.325	-52.207	0.074	0.034
-546.310	-3.727	-0.132	0.092
-545.296	-200.000	0.013	0.283
-544.281	-200.000	0.009	0.362
-543.266	-14.218	0.415	0.270
-542.252	447.734	-0.136	-0.301
-541.237	-140.902	0.050	0.005
-540.223	-41.916	0.125	0.064
-539.208	-76.285	-0.138	-0.049
-538.193	58.409	0.104	-0.103
-537.179	800.000	0.092	0.257
-536.164	151.274	0.093	0.128
-535.150	571.052	-0.071	-0.174
-534.135	-107.411	0.409	-0.090
-533.121	800.000	-0.019	-0.064
-532.106	39.854	0.058	-0.052
-531.091	-42.906	0.055	0.028
-530.077	495.344	-0.079	-0.183
-529.062	-200.000	0.064	0.319
-528.048	-200.000	-0.002	0.241
-527.033	111.653	-0.360	-0.437
-526.018	221.554	-0.018	-0.029
-525.004	-134.537	0.386	0.047
-523.989	-200.000	0.054	0.277
-522.975	-85.719	0.132	-0.041
-521.960	-73.898	0.155	0.056
-520.945	800.000	0.072	0.250
-519.931	-200.000	-0.038	-0.196
-518.916	-143.953	-0.136	-0.013
-517.902	-10.285	0.103	-0.068
-516.887	174.775	-0.097	0.141
-515.872	-71.801	0.465	0.174
-514.858	-69.850	0.565	-0.217
-513.843	169.672	-0.112	0.162
-512.829	17.394	0.196	-0.157
-511.814	654.893	0.012	-0.031
-510.799	312.424	0.077	0.145
-509.785	7.798	-0.089	0.067
-508.770	-130.688	0.373	-0.051
-507.756	7.010	-0.281	-0.211
-506.741	77.488	-0.168	0.179
-505.726	-200.000	-0.058	0.517
-504.712	636.285	-0.028	-0.071
-503.697	-77.902	0.445	-0.154
-502.683	240.426	-0.161	0.269
-501.668	-70.340	0.248	-0.095
-500.653	-200.000	0.064	0.413
-499.639	-91.625	-0.210	0.060
-498.624	-200.000	0.004	-0.064
-497.610	-66.076	0.228	0.091
-496.595	56.651	-0.246	-0.241
-495.581	-12.759	0.053	0.035
-494.566	-200.000	-0.106	-0.550
-493.551	800.000	-0.067	0.192
-492.537	-200.000	-0.000	0.044
-491.522	5.394	-0.192	-0.142
-490.508	489.906	0.073	0.169
-489.493	800.000	0.037	-0.114
-488.478	-93.155	0.070	0.019
-487.464	-200.000	0.016	-0.250
-486.449	-200.000	-0.018	0.176
-485.435	-90.795	0.296	-0.086
-484.420	434.749	0.011	0.025
-483.405	26.317	0.098	0.083
-482.391	800.000	0.065	0.205
-481.376	-185.374	-0.560	0.009
-480.362	39.367	-0.065	-0.059
-479.347	800.000	0.055	0.152
-478.332	-83.507	0.131	-0.042
-477.318	-130.050	0.134	0.018
-476.303	-107.265	0.064	-0.014
-475.289	-200.000	0.057	-0.370
-474.274	800.000	-0.073	0.204
-473.259	138.720	-0.146	-0.193
-472.245	-59.804	0.189	-0.081
-471.230	-179.271	0.092	-0.002
-470.216	-101.215	0.169	0.041
-469.201	-200.000	-0.009	0.078
-468.186	-200.000	0.045	-0.200
-467.172	-200.000	-0.060	-0.308
-466.157	572.191	-0.072	-0.175
-465.143	58.024	0.032	-0.032
-464.128	-32.915	0.093	0.052
-463.113	83.075	-0.241	0.263
-462.099	354.450	-0.118	-0.235
-461.084	-65.513	0.168	-0.068
-460.070	-9.465	-0.325	-0.218
-459.055	63.778	-0.131	-0.132
-458.040	-200.000	-0.020	0.205
-457.026	589.097	0.028	0.070
-456.011	158.910	0.065	0.091
-454.997	346.576	-0.080	0.158
-453.982	-103.116	-0.288	0.068
-452.968	-200.000	0.011	0.080
-451.953	-23.384	0.188	0.113
-450.938	-132.308	-0.293	-0.038
-449.924	-20.056	-0.151	-0.093
-448.909	-96.359	-0.158	0.042
-447.895	108.734	-0.173	-0.208
-446.880	122.098	0.043	-0.053
-445.865	360.814	0.050	0.100
-444.851	-142.637	0.127	-0.012
-443.836	116.913	-0.161	0.198
-442.822	311.904	-0.136	-0.256
-441.807	-169.037	0.302	0.011
-440.792	-25.370	-0.220	0.130
-439.778	-109.142	0.239	-0.051
-438.763	236.687	0.077	-0.129
-437.749	109.128	-0.118	0.142
-436.734	-200.000	0.022	0.101
-435.719	-149.924	-0.285	0.022
-434.705	800.000	0.168	-0.524
-433.690	800.000	0.061	-0.181
-432.676	-200.000	0.036	0.240
-431.661	54.516	0.324	0.313
-430.646	67.414	-0.201	-0.206
-429.632	-159.158	-0.200	-0.011
-428.617	465.223	0.076	-0.170
-427.603	219.436	-0.009	0.015
-426.588	221.030	-0.071	0.115
-425.573	-200.000	0.011	0.151
-424.559	-69.252	0.122	-0.047
-423.544	-87.352	-0.076	-0.023
-422.530	-200.000	0.013	0.321
-421.515	12.182	0.380	0.293
-420.500	399.636	-0.141	0.297
-419.486	197.302	0.160	-0.245
-418.471	49.707	-0.084	-0.079
-417.457	-121.710	0.066	0.011
-416.442	523.841	0.047	-0.110
-415.428	30.719	-0.058	-0.049
-414.413	-75.947	-0.241	0.085
-413.398	-200.000	0.042	0.257
-412.384	699.994	0.098	-0.259
-411.369	299.885	-0.150	0.277
-410.355	-72.924	-0.195	0.072
-409.340	67.916	0.194	-0.198
-408.325	-135.139	-0.253	-0.030
-407.311	-15.007	-0.142	0.091
-406.296	-85.987	-0.105	0.032
-405.282	291.035	0.003	-0.005
-404.267	92.453	-0.122	0.138
-403.252	-40.236	-0.368	0.192
-402.238	-200.000	-0.040	-0.198
-401.223	800.000	-0.041	0.142
-400.209	800.000	-0.041	0.132
-399.194	99.254	0.087	0.101
-398.179	89.126	0.122	-0.136
-397.165	-76.977	-0.396	0.138
-396.150	-132.692	0.325	0.042
-395.136	529.125	-0.027	0.063
-394.121	35.062	0.038	0.033
-393.106	-97.331	0.142	0.037
-392.092	-200.000	-0.017	-0.180
-391.077	241.725	-0.090	-0.151
-390.063	-69.260	0.114	-0.044
-389.048	117.248	0.044	-0.054
-388.033	-64.039	0.261	0.107
-387.019	-71.272	-0.287	-0.108
-386.004	-200.000	-0.047	-0.226
-384.990	131.199	-0.043	-0.055
-383.975	415.365	0.068	0.146
-382.960	-191.062	0.416	0.004
-381.946	-110.874	-0.333	0.069
-380.931	-111.737	-0.497	-0.101
-379.917	-200.000	-0.016	-0.175
-378.902	-200.000	0.018	0.083
-377.888	243.240	-0.087	-0.147
-376.873	121.915	-0.128	0.160
-375.858	-134.836	-0.182	-0.022
-374.844	-182.941	0.399	0.007
-373.829	800.000	-0.092	0.296
-372.815	-103.219	0.458	-0.108
-371.800	325.002	-0.172	-0.329
-370.785	59.020	0.360	-0.354
-369.771	-176.079	-0.168	-0.004
-368.756	161.529	0.175	-0.245
-367.742	-148.069	0.292	-0.024
-366.727	4.193	-0.143	-0.104
-365.712	800.000	-0.132	-0.426
-364.698	401.414	-0.066	0.138
-363.683	-45.115	0.059	0.029
-362.669	19.717	0.077	-0.062
-361.654	361.765	-0.063	0.126
-360.639	-131.771	-0.323	-0.042
-359.625	-126.764	-0.098	-0.015
-358.610	800.000	-0.027	-0.105
-357.596	-165.898	0.212	0.009
-356.581	287.133	0.122	0.220
-355.566	-109.660	-0.252	0.053
-354.552	48.711	-0.045	0.042
-353.537	-111.709	0.096	0.019
-352.523	574.218	-0.123	0.299
-351.508	128.779	0.169	0.216
-350.493	23.864	-0.120	0.099
-349.479	15.003	-0.161	0.126
-348.464	800.000	-0.109	-0.309
-347.450	56.140	0.226	0.219
-346.435	800.000	0.044	0.127
-345.420	-4.765	-0.146	0.101
-344.406	800.000	-0.084	0.310
-343.391	501.263	-0.039	0.090
-342.377	66.570	0.148	-0.151
-341.362	127.687	-0.188	0.239
-340.348	-84.659	-0.099	-0.031
-339.333	392.449	-0.052	-0.108
-338.318	-153.433	0.090	0.006
-337.304	388.118	-0.064	-0.133
-336.289	730.456	0.111	-0.296
-335.275	-200.000	0.042	0.279
-334.260	190.834	0.076	-0.114
-333.245	15.131	0.341	-0.267
-332.231	-81.167	-0.325	0.107
-331.216	-106.865	0.193	-0.043
-330.202	-172.366	-0.056	0.002
-329.187	-67.758	-0.329	-0.129
-328.172	-200.000	-0.042	0.303
-327.158	340.172	0.148	0.289
-326.143	350.933	0.133	-0.262
-325.129	800.000	0.122	0.514
-324.114	-200.000	0.018	-0.156
-323.099	131.011	0.225	0.288
-322.085	271.496	-0.192	-0.338
-321.070	-200.000	-0.041	0.256
-320.056	368.029	-0.215	-0.433
-319.041	-6.351	0.262	-0.179
-318.026	459.085	0.143	-0.317
-317.012	492.933	0.109	-0.249
-315.997	-185.770	-0.317	-0.005
-314.983	-149.060	-0.331	-0.027
-313.968	58.019	-0.039	0.038
-312.953	-200.000	0.029	-0.320
-311.939	125.146	0.116	-0.146
-310.924	-200.000	-0.055	0.483
-309.910	-200.000	0.032	0.355
-308.895	13.786	-0.132	-0.102
-307.880	191.234	-0.048	0.073
-306.866	-69.048	-0.315	-0.121
-305.851	-60.146	-0.101	-0.043
-304.837	8.998	-0.175	0.132
-303.822	-200.000	-0.025	-0.255
-302.807	111.465	0.163	-0.196
-301.793	-120.763	-0.393	0.066
-300.778	-200.000	0.018	-0.303
-299.764	26.740	0.115	-0.096
-298.749	800.000	0.076	0.217
-297.735	800.000	0.045	-0.143
-296.720	238.079	0.040	-0.066
-295.705	54.725	0.121	-0.117
-294.691	-36.846	-0.036	0.019
-293.676	-149.491	-0.218	-0.017
-292.662	-200.000	0.010	0.233
-291.647	97.409	0.055	-0.063
-290.632	-31.902	0.111	-0.062
-289.618	800.000	-0.122	0.388
-288.603	153.477	0.116	0.158
-287.589	118.178	-0.257	-0.316
-286.574	-22.131	-0.209	0.127
-285.559	-14.722	0.194	0.125
-284.545	179.384	-0.089	0.130
-283.530	-83.985	0.333	-0.106
-282.516	-45.450	0.140	0.069
-281.501	72.682	-0.141	-0.146
-280.486	160.232	-0.097	0.135
-279.472	-169.967	-0.021	0.001
-278.457	477.648	-0.138	-0.311
-277.443	-95.079	0.059	0.016
-276.428	-89.171	0.101	-0.030
-275.413	-200.000	0.024	0.164
-274.399	-165.920	0.247	-0.011
-273.384	800.000	0.081	0.273
-272.370	-65.287	0.152	0.061
-271.355	19.618	0.031	-0.025
-270.340	477.590	0.091	-0.205
-269.326	800.000	0.116	0.374
-268.311	51.321	0.231	0.219
-267.297	-97.616	0.021	-0.005
-266.282	-145.993	-0.205	-0.018
-265.267	-200.000	0.044	-0.232
-264.253	-20.498	0.329	-0.201
-263.238	-200.000	-0.005	-0.075
-262.224	-23.185	0.294	0.176
-261.209	-90.193	-0.227	0.066
-260.195	800.000	-0.062	0.250
-259.180	-200.000	0.013	0.128
-258.165	-139.975	0.280	-0.029
-257.151	-200.000	0.014	-0.205
-256.136	-200.000	0.028	-0.326
-255.122	-200.000	-0.051	0.269
-254.107	800.000	-0.101	0.315
-253.092	33.973	0.107	0.093
-252.078	-125.131	-0.195	-0.030
-251.063	343.372	-0.198	0.386
-250.049	800.000	-0.163	-0.473
-249.034	-78.945	-0.124	-0.042
-248.019	-200.000	-0.006	0.285
-247.005	-100.551	0.126	-0.031
-245.990	-200.000	0.001	0.019
-244.976	254.466	-0.226	-0.386
-243.961	155.756	0.142	-0.194
-242.946	-5.905	0.137	-0.094
-241.932	-8.520	0.090	-0.060
-240.917	800.000	-0.134	-0.474
-239.903	568.354	0.091	-0.220
-238.888	96.017	0.270	0.307
-237.873	-44.383	0.302	0.151
-236.859	269.137	-0.209	-0.365
-235.844	-127.172	-0.245	0.036
-234.830	43.907	-0.169	0.154
-233.815	-8.597	0.092	-0.062
-232.800	-123.304	0.075	0.012
-231.786	369.665	0.061	-0.123
-230.771	-200.000	0.001	-0.181
-229.757	25.460	-0.233	-0.193
-228.742	1.353	-0.164	0.117
-227.727	-124.501	-0.119	-0.018
-226.713	-128.237	-0.436	-0.062
-225.698	-200.000	0.012	-0.652
-224.684	-200.000	0.190	-0.000
-223.669	-103.039	0.013	0.003
-222.655	-34.453	-0.302	-0.165
-221.640	800.000	-0.105	0.400
-220.625	27.362	-0.036	0.030
-219.611	24.434	-0.092	0.076
-218.596	-200.000	-0.016	-0.086
-217.582	-62.367	0.423	-0.175
-216.567	582.485	0.119	0.291
-215.552	800.000	0.073	0.238
-214.538	-85.305	-0.122	0.038
-213.523	84.408	-0.091	-0.099
-212.509	-128.781	-0.374	0.052
-211.494	195.417	0.120	0.181
-210.479	375.553	0.140	0.284
-209.465	-200.000	0.024	-0.259
-208.450	-83.468	-0.488	-0.155
-207.436	-200.000	0.174	0.000
-206.421	587.393	0.060	0.148
-205.406	-200.000	-0.020	0.122
-204.392	2.050	0.197	-0.141
-203.377	167.928	0.129	-0.183
-202.363	172.110	0.148	0.212
-201.348	-200.000	-0.050	0.315
-200.333	800.000	-0.117	0.365
-199.319	-200.000	-0.041	0.268
-198.304	800.000	0.053	-0.204
-197.290	-65.890	0.319	0.127
-196.275	71.649	0.111	-0.114
-195.260	219.451	-0.074	0.117
-194.246	-50.033	-0.306	-0.144
-193.231	129.936	-0.063	0.080
-192.217	-200.000	-0.017	0.328
-191.202	-150.034	-0.280	-0.022
-190.187	204.890	-0.164	-0.253
-189.173	196.411	0.102	-0.155
-188.158	-82.541	0.250	0.081
-187.144	-58.153	0.110	0.047
-186.129	-93.582	0.056	-0.015
-185.114	-41.032	-0.159	0.081
-184.100	-200.000	0.026	0.195
-183.085	81.174	-0.096	0.103
-182.071	-58.635	-0.118	-0.051
-181.056	-200.000	-0.030	-0.249
-180.042	-91.221	0.278	0.079
-179.027	-158.914	0.374	0.021
-178.012	-200.000	-0.002	-0.133
-176.998	-68.213	-0.095	0.037
-175.983	532.036	0.021	0.050
-174.969	92.069	-0.074	0.083
-173.954	-105.175	-0.367	-0.083
-172.939	97.176	-0.149	-0.170
-171.925	275.678	-0.074	0.130
-170.910	-143.565	-0.502	0.047
-169.896	800.000	-0.064	-0.239
-168.881	-147.060	0.243	-0.021
-167.866	-32.662	-0.087	0.048
-166.852	800.000	-0.074	-0.280
-165.837	-80.659	0.251	-0.083
-164.823	-200.000	-0.016	0.311
-163.808	6.834	-0.110	-0.082
-162.793	489.243	-0.060	-0.136
-161.779	-85.109	0.233	-0.072
-160.764	-83.559	-0.130	0.041
-159.750	-119.851	0.259	0.044
-158.735	480.299	0.167	-0.375
-157.720	21.041	0.382	0.307
-156.706	-200.000	-0.035	0.153
-155.691	-200.000	-0.030	0.186
-154.677	-200.000	0.017	0.287
-153.662	99.709	0.235	0.269
-152.647	312.564	0.078	-0.145
-151.633	-65.643	-0.056	-0.022
-150.618	303.468	-0.134	-0.246
-149.604	266.962	-0.154	0.267
-148.589	-52.799	0.321	-0.147
-147.574	-200.000	-0.023	0.127
-146.560	139.524	-0.099	-0.130
-145.545	-110.636	0.121	0.025
-144.531	-56.526	0.067	0.029
-143.516	-165.236	-0.146	-0.006
-142.502	-125.064	0.094	-0.014
-141.487	-58.484	0.119	-0.051
-140.472	325.451	-0.010	-0.019
-139.458	709.715	-0.075	0.197
-138.443	-115.519	-0.117	-0.022
-137.429	-22.001	0.291	-0.175
-136.414	800.000	-0.071	-0.205
-135.399	-200.000	0.039	-0.186
-134.385	-186.020	-0.225	0.003
-133.370	-177.750	-0.198	-0.005
-132.356	-49.925	-0.272	0.128
-131.341	-79.269	-0.212	-0.071
-130.326	67.873	0.086	0.087
-129.312	-200.000	-0.021	0.166
-128.297	582.534	-0.140	-0.341
-127.283	-81.859	0.260	-0.084
-126.268	800.000	-0.013	0.049
-125.253	-200.000	0.003	0.111
-124.239	-176.107	0.386	-0.010
-123.224	22.957	0.098	0.080
-122.210	-58.982	0.235	0.100
