DTS Sentinel unit serial number:	SN413079Multiplexer serial number:	ORYXHardware model number:	OX4-SRSoftware version number:	ORYX F/W v4.00 Oryx Data Collector v3.7.2.0data status	okinstallation	princeton_trtdifferential loss correction	single-endedforward channel	channel 1reverse channel	N/Adate	2019/09/15time	04:26:35forward acquisition time	60.00reverse acquisition time	0.00gamma	496.2192k internal	0.2324k external	0.2324temperature offset calibration	0.9988default loss term (dB/km)	0.3790temperature slope calibration	1.0000multiplexer offset coefficient	1.0000multiplexer slope coefficient	1.0000fibre end	0.00T internal ref (°C)	30.87T ext. ref 1 (°C)	4.64T ext. ref 2 (°C)	25.55length (m)	temperature (°C)	Stokes	anti-Stokes-747.200	-51.794	0.372	0.175
-746.185	110.566	-0.099	0.120
-745.171	-200.000	0.014	0.113
-744.156	213.914	-0.241	0.386
-743.142	8.067	0.196	-0.148
-742.127	501.483	-0.140	0.326
-741.112	-200.000	-0.072	-0.400
-740.098	49.423	-0.164	0.156
-739.083	18.718	0.127	0.102
-738.069	86.993	0.153	-0.171
-737.054	459.825	-0.148	-0.333
-736.039	117.261	-0.013	-0.016
-735.025	-179.797	0.276	-0.006
-734.010	800.000	-0.086	-0.311
-732.996	-200.000	-0.049	-0.243
-731.981	800.000	-0.006	0.025
-730.966	-142.013	-0.385	-0.039
-729.952	47.447	-0.152	-0.143
-728.937	-88.732	-0.311	-0.093
-727.923	135.361	-0.086	-0.113
-726.908	-200.000	-0.018	-0.349
-725.894	-45.926	-0.253	0.126
-724.879	296.938	0.077	-0.142
-723.864	-93.590	-0.158	0.044
-722.850	-200.000	-0.060	-0.270
-721.835	-126.396	0.195	0.029
-720.821	-33.749	-0.094	0.052
-719.806	-193.964	-0.086	0.001
-718.791	92.153	-0.195	-0.222
-717.777	217.517	-0.178	-0.286
-716.762	-200.000	0.018	-0.176
-715.748	105.037	0.237	-0.282
-714.733	277.963	0.108	0.194
-713.718	-74.305	0.101	0.037
-712.704	93.076	0.126	0.144
-711.689	192.166	0.183	-0.279
-710.675	106.583	0.097	-0.116
-709.660	-200.000	-0.051	0.231
-708.645	342.374	0.134	-0.265
-707.631	-155.102	-0.153	-0.010
-706.616	-24.164	0.288	-0.174
-705.602	106.276	0.126	-0.151
-704.587	-200.000	-0.017	-0.376
-703.572	-63.517	-0.191	0.079
-702.558	-170.768	-0.229	0.008
-701.543	395.760	0.158	-0.333
-700.529	-69.494	0.267	-0.103
-699.514	2.864	0.288	-0.210
-698.499	88.186	0.198	-0.221
-697.485	-113.628	0.290	0.057
-696.470	-30.376	-0.082	-0.047
-695.456	-200.000	-0.042	-0.286
-694.441	-107.459	-0.175	0.039
-693.426	-8.893	0.160	0.108
-692.412	3.948	0.232	0.171
-691.397	-123.094	-0.445	-0.072
-690.383	164.289	0.218	0.309
-689.368	717.260	0.086	0.229
-688.354	-97.233	-0.217	-0.057
-687.339	-58.007	-0.111	-0.049
-686.324	800.000	-0.146	-0.488
-685.310	-200.000	-0.097	-0.456
-684.295	769.967	0.080	-0.219
-683.281	-200.000	-0.008	0.040
-682.266	725.542	0.140	-0.375
-681.251	736.598	0.085	0.231
-680.237	584.971	0.044	0.109
-679.222	112.351	0.192	-0.233
-678.208	-151.938	-0.433	0.032
-677.193	67.693	0.099	0.102
-676.178	-84.534	0.231	0.073
-675.164	-47.061	-0.160	0.079
-674.149	-68.106	0.189	0.074
-673.135	68.189	-0.100	-0.103
-672.120	-200.000	-0.004	-0.147
-671.105	-106.745	-0.302	0.068
-670.091	800.000	0.047	0.169
-669.076	-5.000	0.232	0.161
-668.062	-9.330	0.183	-0.123
-667.047	-181.284	0.098	-0.002
-666.032	24.462	-0.114	0.095
-665.018	-200.000	-0.004	-0.295
-664.003	31.936	0.100	-0.086
-662.989	117.443	-0.162	-0.200
-661.974	-127.479	-0.302	-0.044
-660.959	64.709	-0.047	-0.048
-659.945	-69.253	0.204	-0.079
-658.930	-128.223	-0.365	0.052
-657.916	-200.000	0.011	-0.075
-656.901	-75.179	-0.104	0.038
-655.886	-200.000	0.029	-0.187
-654.872	-57.746	0.139	0.061
-653.857	142.421	-0.178	-0.238
-652.843	90.372	0.131	0.148
-651.828	-34.342	-0.157	-0.087
-650.814	800.000	-0.071	-0.299
-649.799	209.947	0.047	-0.074
-648.784	27.610	0.069	-0.058
-647.770	-114.472	-0.225	0.043
-646.755	-200.000	0.009	-0.377
-645.741	800.000	-0.068	0.225
-644.726	389.433	0.076	-0.159
-643.711	-200.000	-0.007	-0.339
-642.697	-114.549	0.446	0.086
-641.682	-55.369	0.234	-0.106
-640.668	-113.582	-0.314	-0.062
-639.653	-81.127	0.378	0.126
-638.638	-74.402	0.159	-0.058
-637.624	-107.739	-0.370	-0.081
-636.609	-139.209	-0.064	0.007
-635.595	-20.431	-0.177	0.109
-634.580	-61.140	0.234	-0.099
-633.565	-100.015	0.059	-0.015
-632.551	218.966	0.111	0.179
-631.536	707.560	-0.171	-0.454
-630.522	204.219	-0.099	0.154
-629.507	-136.006	0.298	-0.035
-628.492	-50.850	0.184	-0.087
-627.478	-87.604	0.221	0.067
-626.463	-63.502	0.015	-0.006
-625.449	67.845	-0.190	0.196
-624.434	496.379	-0.069	-0.160
-623.419	506.736	-0.004	-0.010
-622.405	-7.149	-0.043	0.029
-621.390	-200.000	0.047	0.275
-620.376	374.094	-0.094	-0.192
-619.361	106.148	0.098	-0.116
-618.346	281.515	-0.214	-0.385
-617.332	-129.650	0.373	-0.052
-616.317	-7.603	-0.093	-0.063
-615.303	208.734	-0.191	0.300
-614.288	460.535	0.095	-0.212
-613.273	-137.017	-0.127	-0.015
-612.259	-200.000	-0.000	-0.119
-611.244	-145.146	-0.168	-0.015
-610.230	169.341	0.148	0.212
-609.215	188.054	-0.156	-0.234
-608.201	150.375	-0.091	-0.123
-607.186	-75.510	0.197	-0.071
-606.171	621.056	0.090	0.229
-605.157	-100.761	-0.321	0.079
-604.142	-91.278	0.099	0.028
-603.128	-200.000	0.056	0.444
-602.113	71.635	-0.116	0.120
-601.098	456.465	0.040	0.089
-600.084	-200.000	0.014	-0.084
-599.069	341.211	-0.185	-0.362
-598.055	299.409	0.117	0.217
-597.040	-200.000	-0.041	-0.546
-596.025	587.931	-0.085	-0.210
-595.011	-137.294	-0.226	0.026
-593.996	65.144	0.116	0.118
-592.982	-121.532	0.040	-0.007
-591.967	61.202	0.083	0.083
-590.952	-200.000	0.014	-0.070
-589.938	800.000	0.071	0.241
-588.923	-200.000	0.005	0.218
-587.909	-200.000	-0.011	0.070
-586.894	800.000	-0.089	0.267
-585.879	800.000	0.068	-0.200
-584.865	164.023	0.170	-0.241
-583.850	800.000	-0.052	-0.192
-582.836	745.335	0.140	-0.378
-581.821	79.446	-0.183	-0.197
-580.806	800.000	-0.042	-0.153
-579.792	559.992	0.126	-0.304
-578.777	157.475	-0.052	-0.072
-577.763	205.591	-0.166	-0.258
-576.748	-200.000	0.027	0.215
-575.733	-84.886	-0.222	0.070
-574.719	54.711	-0.245	-0.237
-573.704	-200.000	0.029	0.308
-572.690	-37.059	-0.184	0.099
-571.675	-151.021	0.379	0.029
-570.661	800.000	0.054	0.149
-569.646	-34.604	-0.112	0.061
-568.631	325.416	-0.055	-0.105
-567.617	800.000	-0.050	-0.159
-566.602	-69.860	-0.403	-0.154
-565.588	714.354	-0.089	0.236
-564.573	42.075	-0.176	-0.160
-563.558	484.904	-0.031	-0.071
-562.544	-62.958	0.131	0.054
-561.529	800.000	-0.057	0.165
-560.515	800.000	0.023	-0.085
-559.500	-154.278	0.292	-0.020
-558.485	-163.168	0.230	0.011
-557.471	-200.000	-0.012	0.264
-556.456	132.288	-0.169	0.219
-555.442	19.363	-0.105	0.085
-554.427	118.916	0.211	0.261
-553.412	-73.390	-0.069	-0.025
-552.398	-200.000	-0.031	-0.144
-551.383	212.384	0.128	-0.202
-550.369	-73.090	0.154	-0.057
-549.354	-200.000	-0.021	0.340
-548.339	107.097	0.097	-0.116
-547.325	-26.278	-0.149	0.088
-546.310	800.000	-0.076	0.307
-545.296	98.297	0.019	-0.022
-544.281	-38.145	-0.085	0.045
-543.266	63.447	-0.239	-0.240
-542.252	800.000	-0.061	0.179
-541.237	-34.063	0.078	-0.043
-540.223	-20.045	-0.428	0.265
-539.208	-200.000	0.075	-0.346
-538.193	800.000	-0.096	0.359
-537.179	-104.777	0.242	0.056
-536.164	-67.286	-0.272	0.107
-535.150	-9.941	0.325	0.216
-534.135	25.718	0.107	-0.090
-533.121	195.123	-0.057	0.086
-532.106	280.671	-0.120	0.215
-531.091	-68.845	0.084	0.033
-530.077	21.663	0.246	-0.200
-529.062	239.798	-0.064	-0.107
-528.048	633.078	-0.051	-0.128
-527.033	375.178	-0.115	0.235
-526.018	-108.443	0.284	0.061
-525.004	-82.028	0.218	-0.071
-523.989	-200.000	-0.057	-0.254
-522.975	-200.000	-0.026	0.241
-521.960	676.591	0.032	0.084
-520.945	354.716	0.016	-0.032
-519.931	-116.279	-0.112	-0.021
-518.916	-40.388	0.169	-0.088
-517.902	214.217	-0.070	-0.110
-516.887	-185.853	-0.058	0.001
-515.872	-200.000	-0.033	-0.216
-514.858	-200.000	0.002	0.039
-513.843	-24.866	0.041	0.024
-512.829	-53.343	-0.473	-0.217
-511.814	-36.500	-0.267	-0.144
-510.799	50.108	-0.334	-0.315
-509.785	-87.699	-0.151	-0.045
-508.770	-200.000	-0.029	0.387
-507.756	32.125	-0.144	-0.124
-506.741	-200.000	0.037	-0.187
-505.726	-16.551	-0.248	-0.157
-504.712	-200.000	-0.029	0.307
-503.697	-109.919	0.238	0.050
-502.683	-105.692	-0.113	0.026
-501.668	35.273	0.032	-0.028
-500.653	17.147	0.064	0.051
-499.639	528.350	-0.115	-0.272
-498.624	26.963	-0.139	-0.117
-497.610	-108.200	0.204	0.044
-496.595	-200.000	-0.012	0.199
-495.581	800.000	0.055	0.159
-494.566	-200.000	0.032	0.226
-493.551	-69.270	-0.098	-0.038
-492.537	-30.181	0.089	0.051
-491.522	-103.629	-0.353	0.083
-490.508	-54.880	-0.199	0.090
-489.493	79.994	0.076	0.081
-488.478	800.000	-0.099	-0.284
-487.464	800.000	-0.021	-0.062
-486.449	-22.901	0.143	-0.086
-485.435	-142.457	0.140	-0.014
-484.420	-46.446	0.292	0.143
-483.405	-89.558	0.159	0.047
-482.391	-200.000	-0.026	-0.419
-481.376	-73.781	0.119	0.043
-480.362	79.119	0.043	0.046
-479.347	800.000	0.102	-0.292
-478.332	135.524	0.099	0.129
-477.318	-197.453	-0.153	-0.001
-476.303	136.245	0.180	0.235
-475.289	199.463	0.096	0.147
-474.274	-200.000	-0.042	-0.285
-473.259	-102.417	0.273	-0.065
-472.245	-200.000	-0.017	0.363
-471.230	125.795	-0.148	0.187
-470.216	-25.621	0.195	-0.115
-469.201	800.000	0.068	-0.224
-468.186	-200.000	-0.046	-0.236
-467.172	-41.594	0.124	-0.064
-466.157	-179.521	-0.246	-0.005
-465.143	573.052	0.128	-0.311
-464.128	343.808	0.154	-0.301
-463.113	90.930	0.248	-0.278
-462.099	800.000	-0.075	-0.263
-461.084	800.000	-0.133	0.508
-460.070	-49.808	0.324	-0.154
-459.055	-77.379	-0.225	0.078
-458.040	236.998	-0.192	-0.318
-457.026	629.834	0.072	0.182
-456.011	-1.630	-0.112	0.079
-454.997	-139.575	-0.228	0.024
-453.982	-200.000	0.047	-0.375
-452.968	-105.599	0.256	-0.058
-451.953	121.537	-0.292	-0.363
-450.938	28.622	0.062	0.052
-449.924	-14.941	-0.241	-0.154
-448.909	60.551	-0.061	0.061
-447.895	26.875	0.133	-0.111
-446.880	-52.316	-0.550	0.254
-445.865	-200.000	-0.079	0.443
-444.851	-200.000	-0.035	-0.179
-443.836	-200.000	-0.023	0.112
-442.822	134.590	0.083	-0.108
-441.807	135.809	0.081	0.105
-440.792	-63.411	-0.167	0.069
-439.778	-177.902	-0.248	0.006
-438.763	-147.356	0.355	-0.030
-437.749	-200.000	-0.018	0.142
-436.734	-29.721	-0.183	0.104
-435.719	186.067	0.112	0.166
-434.705	-192.737	-0.218	-0.002
-433.690	83.545	-0.141	-0.153
-432.676	85.312	-0.206	0.225
-431.661	108.769	-0.084	-0.100
-430.646	5.830	-0.144	-0.106
-429.632	-102.054	0.027	-0.007
-428.617	-200.000	0.001	-0.045
-427.603	-80.489	-0.177	-0.059
-426.588	800.000	-0.050	0.170
-425.573	176.077	-0.152	0.220
-424.559	211.695	-0.039	-0.061
-423.544	389.261	-0.141	0.292
-422.530	-34.716	0.140	-0.076
-421.515	239.583	0.060	-0.100
-420.500	-103.665	0.252	0.059
-419.486	-55.421	-0.240	0.107
-418.471	13.395	0.196	-0.151
-417.457	-20.695	0.270	-0.165
-416.442	792.773	-0.030	0.083
-415.428	139.588	0.146	-0.192
-414.413	362.899	0.032	0.065
-413.398	-86.285	-0.365	0.112
-412.384	-128.434	-0.236	0.033
-411.369	11.188	0.125	-0.095
-410.355	-105.553	0.021	0.005
-409.340	160.282	-0.087	-0.121
-408.325	-158.925	-0.321	-0.018
-407.311	-76.088	-0.152	-0.053
-406.296	163.184	0.151	-0.212
-405.282	-110.782	0.174	-0.036
-404.267	-65.739	0.178	-0.071
-403.252	-98.676	0.261	-0.066
-402.238	91.247	0.163	-0.182
-401.223	-200.000	-0.064	-0.291
-400.209	-200.000	0.034	-0.168
-399.194	-144.482	-0.332	-0.031
-398.179	30.963	-0.204	0.174
-397.165	-200.000	-0.241	0.001
-396.150	800.000	-0.034	0.130
-395.136	274.645	0.049	-0.087
-394.121	-146.659	0.073	-0.006
-393.106	271.809	-0.261	0.459
-392.092	-53.396	0.236	0.108
-391.077	292.827	0.076	0.138
-390.063	800.000	0.024	0.105
-389.048	263.668	0.120	0.208
-388.033	664.639	0.163	0.418
-387.019	-92.540	0.094	0.026
-386.004	800.000	-0.026	0.106
-384.990	10.947	-0.094	-0.071
-383.975	5.960	-0.257	-0.189
-382.960	800.000	0.094	0.313
-381.946	-200.000	0.029	0.156
-380.931	-56.539	0.102	0.045
-379.917	591.968	-0.050	0.123
-378.902	736.394	0.035	0.093
-377.888	800.000	-0.058	0.184
-376.873	180.102	0.086	-0.126
-375.858	800.000	-0.060	-0.186
-374.844	76.386	-0.114	0.120
-373.829	182.639	-0.200	0.293
-372.815	199.092	-0.078	0.119
-371.800	-122.889	0.225	-0.036
-370.785	-200.000	0.004	-0.117
-369.771	-151.021	-0.047	0.003
-368.756	86.600	-0.329	0.361
-367.742	-200.000	0.021	0.211
-366.727	-56.600	-0.152	-0.067
-365.712	-85.273	0.016	-0.005
-364.698	-97.773	-0.086	0.022
-363.683	-50.091	-0.199	0.094
-362.669	54.928	-0.080	0.077
-361.654	399.899	0.230	0.479
-360.639	-200.000	-0.006	0.118
-359.625	317.715	-0.147	0.276
-358.610	-200.000	0.020	-0.270
-357.596	9.899	-0.231	-0.174
-356.581	-90.325	0.191	-0.055
-355.566	0.632	0.092	0.065
-354.552	-47.782	-0.094	-0.045
-353.537	-133.762	0.287	-0.036
-352.523	-177.915	0.350	-0.008
-351.508	-65.696	0.344	-0.137
-350.493	-200.000	-0.014	0.200
-349.479	178.997	0.148	-0.216
-348.464	-46.408	0.009	-0.004
-347.450	-131.991	-0.148	-0.019
-346.435	-200.000	0.067	-0.294
-345.420	32.138	0.155	-0.133
-344.406	268.729	0.135	-0.234
-343.391	-125.525	-0.131	-0.020
-342.377	-14.878	0.193	-0.123
-341.362	105.060	0.149	0.174
-340.348	548.229	-0.118	0.282
-339.333	230.957	0.060	-0.097
-338.318	-196.931	-0.524	0.003
-337.304	166.569	-0.053	0.075
-336.289	800.000	0.092	0.290
-335.275	-44.125	-0.071	0.035
-334.260	-84.454	0.193	-0.061
-333.245	-107.889	0.399	0.086
-332.231	-153.357	-0.513	-0.035
-331.216	109.660	0.103	-0.123
-330.202	383.116	-0.125	-0.255
-329.187	800.000	-0.090	0.318
-328.172	-200.000	-0.015	0.348
-327.158	104.692	-0.269	0.314
-326.143	800.000	-0.036	-0.126
-325.129	86.321	-0.106	-0.116
-324.114	800.000	0.034	-0.128
-323.099	-53.951	0.079	0.036
-322.085	800.000	-0.118	0.471
-321.070	-16.097	-0.177	0.112
-320.056	457.514	-0.108	-0.237
-319.041	31.792	0.198	-0.170
-318.026	-113.134	0.164	0.032
-317.012	800.000	0.061	0.212
-315.997	800.000	0.064	-0.221
-314.983	5.708	0.043	0.032
-313.968	-71.067	-0.086	-0.032
-312.953	111.043	0.170	-0.203
-311.939	207.085	0.073	0.113
-310.924	800.000	-0.049	0.155
-309.910	-46.706	-0.264	0.128
-308.895	-200.000	-0.003	0.207
-307.880	800.000	-0.066	0.203
-306.866	-131.440	-0.107	0.014
-305.851	2.817	-0.230	0.166
-304.837	-94.977	-0.080	0.022
-303.822	68.854	-0.155	-0.158
-302.807	-200.000	0.066	-0.380
-301.793	-121.302	0.087	-0.014
-300.778	37.509	0.450	0.396
-299.764	-155.843	-0.201	0.013
-298.749	800.000	0.074	-0.216
-297.735	-126.195	-0.398	0.059
-296.720	402.989	0.091	-0.190
-295.705	-200.000	0.035	-0.236
-294.691	108.091	-0.135	-0.160
-293.676	-95.798	0.277	-0.073
-292.662	-143.387	-0.338	-0.032
-291.647	-200.000	-0.017	0.209
-290.632	800.000	-0.108	0.346
-289.618	172.069	0.172	-0.245
-288.603	-149.212	0.134	0.011
-287.589	157.703	-0.070	-0.096
-286.574	800.000	0.059	0.211
-285.559	176.434	-0.123	0.178
-284.545	-160.428	0.364	-0.019
-283.530	-200.000	0.060	-0.288
-282.516	-40.152	0.292	0.151
-281.501	54.651	0.067	0.064
-280.486	-200.000	-0.020	-0.105
-279.472	99.239	-0.077	-0.088
-278.457	5.778	0.173	-0.126
-277.443	800.000	0.095	0.306
-276.428	259.674	0.121	0.207
-275.413	-40.567	0.203	0.104
-274.399	-200.000	-0.009	-0.369
-273.384	17.315	-0.295	0.232
-272.370	168.871	0.277	-0.391
-271.355	-42.421	-0.256	-0.130
-270.340	-40.698	0.123	0.063
-269.326	397.711	0.044	0.092
-268.311	-84.813	-0.151	0.047
-267.297	-77.657	0.388	-0.133
-266.282	-36.189	0.112	0.060
-265.267	150.057	0.060	0.081
-264.253	-23.549	-0.267	-0.159
-263.238	-87.063	-0.104	0.031
-262.224	546.345	-0.018	-0.042
-261.209	-31.324	0.221	0.123
-260.195	-200.000	-0.028	0.235
-259.180	15.999	-0.165	0.129
-258.165	146.707	0.049	-0.066
-257.151	800.000	-0.071	-0.209
-256.136	800.000	0.070	0.230
-255.122	11.188	0.176	-0.133
-254.107	179.242	0.090	-0.131
-253.092	-38.233	-0.343	-0.180
-252.078	37.160	-0.071	0.062
-251.063	-100.596	-0.026	-0.006
-250.049	185.909	0.129	0.190
-249.034	-200.000	-0.049	0.249
-248.019	-56.575	0.162	0.071
-247.005	-139.985	0.222	-0.023
-245.990	-145.120	-0.102	0.009
-244.976	63.551	-0.075	-0.075
-243.961	-200.000	0.010	0.182
-242.946	26.449	0.256	-0.212
-241.932	-200.000	-0.014	0.199
-240.917	-39.043	0.107	0.056
-239.903	-200.000	0.040	-0.343
-238.888	471.813	0.116	-0.258
-237.873	-200.000	0.020	-0.174
-236.859	-110.749	0.075	0.015
-235.844	-200.000	0.028	0.143
-234.830	5.824	-0.068	0.050
-233.815	202.995	-0.053	0.082
-232.800	33.296	-0.123	0.106
-231.786	-72.040	-0.171	-0.063
-230.771	-13.490	0.288	0.185
-229.757	-200.000	0.004	-0.022
-228.742	-200.000	0.021	0.266
-227.727	-9.205	-0.128	-0.084
-226.713	-88.249	-0.292	-0.087
-225.698	-200.000	-0.036	-0.433
-224.684	250.550	0.217	0.365
-223.669	-25.385	0.034	0.020
-222.655	208.829	0.110	-0.171
-221.640	-38.940	-0.183	-0.095
-220.625	-30.714	0.082	0.046
-219.611	-200.000	0.279	-0.001
-218.596	800.000	-0.029	-0.091
-217.582	-33.580	0.152	-0.083
-216.567	-115.507	0.272	0.051
-215.552	63.834	0.214	0.212
-214.538	103.621	0.303	0.352
-213.523	-75.858	-0.213	-0.075
-212.509	19.932	-0.098	0.078
-211.494	-104.339	0.200	0.046
-210.479	-70.351	0.374	0.140
-209.465	800.000	-0.092	-0.330
-208.450	269.967	0.148	0.257
-207.436	-200.000	0.004	0.132
-206.421	-200.000	0.053	-0.237
-205.406	-200.000	0.017	-0.109
-204.392	58.762	-0.085	0.082
-203.377	-59.049	-0.406	-0.173
-202.363	-200.000	0.001	0.178
-201.348	42.771	0.243	-0.219
-200.333	-200.000	0.005	0.028
-199.319	207.289	-0.193	0.298
-198.304	-200.000	-0.040	0.345
-197.290	41.018	0.135	-0.121
-196.275	51.675	-0.161	0.151
-195.260	-55.636	0.267	-0.118
-194.246	74.726	-0.130	-0.135
-193.231	311.945	0.046	-0.084
-192.217	800.000	0.070	-0.252
-191.202	-75.426	-0.073	0.026
-190.187	179.171	0.125	-0.181
-189.173	-138.654	0.065	-0.007
-188.158	52.253	-0.251	-0.237
-187.144	257.938	0.061	0.104
-186.129	-200.000	0.062	0.419
-185.114	-78.724	-0.108	0.036
-184.100	208.554	-0.181	-0.280
-183.085	800.000	0.068	0.186
-182.071	-173.705	0.217	-0.006
-181.056	14.096	0.251	-0.193
-180.042	42.594	0.155	0.139
-179.027	-160.428	0.368	-0.020
-178.012	83.251	0.279	0.300
-176.998	428.069	0.145	0.310
-175.983	-22.107	0.140	-0.084
-174.969	-200.000	-0.028	0.219
-173.954	-101.326	-0.252	-0.061
-172.939	444.258	-0.220	-0.476
-171.925	-151.289	0.201	0.015
-170.910	-147.626	0.033	0.003
-169.896	-29.607	-0.126	0.071
-168.881	766.307	0.115	-0.307
-167.866	297.026	0.125	0.226
-166.852	37.642	-0.138	-0.121
-165.837	-8.135	0.162	-0.108
-164.823	-144.449	-0.349	-0.032
-163.808	18.067	0.153	-0.120
-162.793	167.158	0.073	0.103
-161.779	800.000	-0.045	-0.170
-160.764	-200.000	-0.021	-0.274
-159.750	-104.942	0.325	-0.074
-158.735	16.722	-0.328	0.256
-157.720	110.668	-0.022	0.026
-156.706	98.355	-0.206	-0.234
-155.691	800.000	-0.035	0.119
-154.677	69.520	-0.254	0.258
-153.662	800.000	-0.082	-0.276
-152.647	87.420	0.189	-0.207
-151.633	27.254	0.120	-0.099
-150.618	-103.403	0.238	0.055
-149.604	271.006	-0.168	0.291
-148.589	-147.875	-0.198	0.016
-147.574	-113.199	0.323	-0.063
-146.560	800.000	-0.064	0.224
-145.545	-21.672	0.199	0.120
-144.531	644.002	0.039	0.097
-143.516	-123.838	0.128	-0.020
-142.502	-17.907	0.107	-0.066
-141.487	-78.156	0.249	0.084
-140.472	-158.799	-0.267	0.015
-139.458	-50.892	0.045	-0.021
-138.443	-13.772	0.147	-0.094
-137.429	-75.339	-0.343	0.120
-136.414	-96.339	-0.262	-0.068
-135.399	88.619	-0.277	0.303
-134.385	22.968	-0.126	-0.102
-133.370	-200.000	-0.002	-0.202
-132.356	-96.213	0.047	0.012
-131.341	-172.198	0.299	0.009
-130.326	565.415	-0.078	-0.186
-129.312	-62.809	-0.311	0.127
-128.297	-72.874	0.037	0.014
-127.283	-200.000	-0.014	0.123
-126.268	-174.780	0.493	-0.014
-125.253	41.784	-0.013	-0.011
-124.239	52.862	-0.082	-0.077
-123.224	681.078	-0.055	-0.141
-122.210	17.580	0.184	-0.144
