DTS Sentinel unit serial number:	SN413079Multiplexer serial number:	ORYXHardware model number:	OX4-SRSoftware version number:	ORYX F/W v4.00 Oryx Data Collector v3.7.2.0data status	okinstallation	princeton_trtdifferential loss correction	single-endedforward channel	channel 1reverse channel	N/Adate	2019/09/17time	21:30:35forward acquisition time	60.00reverse acquisition time	0.00gamma	496.2192k internal	0.2339k external	0.2339temperature offset calibration	0.9976default loss term (dB/km)	0.3790temperature slope calibration	1.0000multiplexer offset coefficient	1.0000multiplexer slope coefficient	1.0000fibre end	0.00T internal ref (°C)	27.16T ext. ref 1 (°C)	0.18T ext. ref 2 (°C)	19.32length (m)	temperature (°C)	Stokes	anti-Stokes-747.200	-200.000	-0.031	0.207
-746.185	334.384	-0.137	0.267
-745.171	521.388	-0.138	-0.326
-744.156	56.706	-0.059	-0.057
-743.142	129.474	-0.159	0.204
-742.127	-4.872	-0.223	0.154
-741.112	93.742	0.126	0.143
-740.098	-200.000	0.068	0.440
-739.083	-200.000	0.004	-0.162
-738.069	104.651	-0.154	-0.182
-737.054	-36.797	0.055	-0.029
-736.039	121.554	-0.069	0.087
-735.025	-140.757	0.255	0.026
-734.010	-200.000	0.007	-0.140
-732.996	-15.284	-0.310	-0.199
-731.981	-200.000	-0.002	-0.050
-730.966	800.000	-0.040	0.157
-729.952	9.595	-0.074	-0.056
-728.937	-76.981	0.052	0.018
-727.923	120.412	-0.048	-0.059
-726.908	-56.805	0.175	-0.077
-725.894	138.525	-0.267	-0.351
-724.879	-98.856	-0.083	-0.021
-723.864	-72.450	-0.227	0.084
-722.850	-176.039	0.113	-0.003
-721.835	-50.969	0.148	0.070
-720.821	-128.322	-0.158	0.023
-719.806	-95.863	-0.354	-0.095
-718.791	-138.347	-0.319	-0.035
-717.777	800.000	0.070	-0.257
-716.762	21.802	-0.053	0.043
-715.748	25.182	-0.183	0.152
-714.733	103.524	0.204	0.239
-713.718	200.000	0.106	0.163
-712.704	-40.632	-0.236	0.123
-711.689	800.000	-0.035	-0.131
-710.675	183.514	0.042	-0.063
-709.660	-200.000	0.025	0.385
-708.645	-103.201	-0.242	0.057
-707.631	-101.496	-0.096	0.023
-706.616	800.000	-0.055	-0.204
-705.602	-20.013	-0.325	-0.201
-704.587	800.000	-0.044	-0.145
-703.572	-200.000	-0.046	0.328
-702.558	25.804	0.133	0.111
-701.543	-112.447	-0.318	0.064
-700.529	171.860	0.145	-0.209
-699.514	-111.394	-0.401	-0.082
-698.499	-200.000	-0.029	-0.152
-697.485	99.708	-0.111	-0.128
-696.470	279.692	-0.228	-0.407
-695.456	-68.288	0.204	-0.079
-694.441	-98.957	0.379	0.096
-693.426	-109.075	-0.355	-0.076
-692.412	134.618	0.212	0.276
-691.397	-77.305	0.008	-0.003
-690.383	-200.000	-0.033	-0.256
-689.368	-120.500	-0.263	-0.045
-688.354	-121.905	-0.205	-0.034
-687.339	-200.000	-0.001	-0.061
-686.324	74.075	0.169	-0.177
-685.310	315.976	-0.129	-0.243
-684.295	48.379	-0.187	-0.176
-683.281	96.506	0.192	-0.219
-682.266	-200.000	-0.036	-0.313
-681.251	391.127	0.088	0.183
-680.237	-121.530	0.105	-0.017
-679.222	77.393	-0.286	-0.304
-678.208	800.000	0.096	-0.340
-677.193	-27.572	0.074	0.043
-676.178	30.797	-0.218	-0.187
-675.164	-200.000	0.000	-0.226
-674.149	-30.272	0.067	-0.038
-673.135	106.493	-0.076	-0.091
-672.120	-200.000	0.022	-0.349
-671.105	273.207	-0.088	-0.156
-670.091	-6.309	0.233	-0.159
-669.076	-154.353	-0.157	0.011
-668.062	36.859	0.377	-0.333
-667.047	-67.176	-0.168	-0.066
-666.032	-114.143	0.126	-0.024
-665.018	-171.895	0.433	0.014
-664.003	7.096	0.060	0.045
-662.989	-64.818	-0.168	0.068
-661.974	33.391	0.234	-0.203
-660.959	800.000	0.051	0.173
-659.945	-200.000	0.014	-0.079
-658.930	511.822	-0.075	-0.174
-657.916	-5.069	0.122	0.084
-656.901	-158.236	0.056	-0.003
-655.886	44.624	-0.183	0.168
-654.872	156.940	-0.052	-0.072
-653.857	-16.104	-0.293	-0.186
-652.843	104.384	0.248	-0.292
-651.828	-84.649	0.205	-0.065
-650.814	72.737	0.208	-0.217
-649.799	-200.000	0.019	-0.296
-648.784	-65.262	0.230	-0.092
-647.770	-21.566	-0.035	0.021
-646.755	-25.356	-0.106	-0.063
-645.741	-0.614	-0.117	0.083
-644.726	800.000	0.050	-0.188
-643.711	-132.335	-0.128	0.016
-642.697	-72.270	-0.130	0.048
-641.682	-106.732	0.277	-0.062
-640.668	-104.136	0.138	-0.032
-639.653	-200.000	0.003	0.172
-638.638	54.177	-0.215	-0.207
-637.624	451.786	-0.071	-0.156
-636.609	-119.249	0.364	0.063
-635.595	95.688	-0.101	-0.115
-634.580	-34.860	-0.109	0.060
-633.565	169.881	-0.260	-0.371
-632.551	-141.059	-0.327	0.033
-631.536	-26.759	0.206	-0.121
-630.522	800.000	0.075	-0.261
-629.507	129.057	-0.096	0.122
-628.492	-200.000	0.037	0.224
-627.478	49.014	-0.359	-0.336
-626.463	-200.000	-0.009	-0.464
-625.449	-152.065	0.219	0.016
-624.434	773.152	-0.033	-0.090
-623.419	433.458	-0.140	0.303
-622.405	-161.459	-0.139	0.007
-621.390	800.000	-0.067	-0.277
-620.376	80.012	0.220	-0.237
-619.361	-82.131	-0.181	-0.059
-618.346	-90.161	-0.113	-0.033
-617.332	-52.296	0.060	0.028
-616.317	97.307	-0.079	-0.091
-615.303	33.863	0.284	-0.246
-614.288	800.000	-0.077	0.242
-613.273	-60.902	0.326	0.138
-612.259	-200.000	0.009	0.161
-611.244	-200.000	0.039	-0.204
-610.230	-100.318	0.259	-0.064
-609.215	800.000	-0.054	0.173
-608.201	419.748	0.221	-0.473
-607.186	89.842	0.113	-0.126
-606.171	35.980	0.068	0.059
-605.157	-200.000	0.022	-0.183
-604.142	-200.000	0.076	-0.399
-603.128	-130.682	-0.236	-0.032
-602.113	800.000	-0.109	-0.420
-601.098	0.147	0.421	-0.300
-600.084	-113.424	0.279	-0.055
-599.069	-177.668	0.376	-0.009
-598.055	135.641	0.097	0.126
-597.040	800.000	0.035	0.106
-596.025	737.182	-0.073	0.196
-595.011	338.970	0.096	-0.186
-593.996	800.000	-0.037	0.122
-592.982	135.839	-0.097	-0.126
-591.967	382.254	-0.031	0.064
-590.952	-113.847	-0.178	0.034
-589.938	-98.378	0.256	-0.065
-588.923	21.082	-0.139	-0.112
-587.909	314.967	-0.036	0.068
-586.894	-58.342	0.243	0.105
-585.879	-49.945	0.270	0.128
-584.865	19.908	-0.075	-0.060
-583.850	462.366	-0.023	-0.052
-582.836	12.130	-0.164	-0.126
-581.821	-187.108	-0.326	0.004
-580.806	731.671	0.038	0.102
-579.792	-70.237	0.298	0.113
-578.777	800.000	0.086	-0.309
-577.763	244.146	0.045	0.075
-576.748	-25.478	0.198	-0.116
-575.733	-156.048	-0.155	-0.010
-574.719	-60.560	0.142	0.060
-573.704	2.278	-0.187	-0.135
-572.690	85.527	0.105	-0.115
-571.675	-71.947	0.233	-0.086
-570.661	-200.000	-0.019	0.175
-569.646	-51.028	-0.099	0.046
-568.631	-200.000	0.027	0.173
-567.617	538.084	-0.084	0.198
-566.602	180.563	-0.126	-0.183
-565.588	-200.000	0.023	0.158
-564.573	800.000	-0.081	-0.284
-563.558	-6.671	-0.059	0.040
-562.544	-200.000	-0.065	0.450
-561.529	100.735	0.154	-0.179
-560.515	800.000	-0.083	-0.283
-559.500	-75.268	-0.183	-0.065
-558.485	53.453	0.276	-0.264
-557.471	484.283	0.056	-0.127
-556.456	113.787	0.143	-0.173
-555.442	-200.000	-0.041	0.400
-554.427	-26.190	0.184	-0.108
-553.412	106.934	0.205	0.242
-552.398	58.631	0.119	-0.116
-551.383	420.275	0.111	0.236
-550.369	-200.000	-0.016	-0.115
-549.354	-110.352	-0.059	0.012
-548.339	640.598	-0.069	0.175
-547.325	105.840	-0.075	0.088
-546.310	78.757	0.057	0.061
-545.296	-67.761	-0.224	-0.087
-544.281	-200.000	-0.012	-0.068
-543.266	-128.448	0.163	-0.023
-542.252	235.805	-0.029	-0.048
-541.237	-73.109	-0.144	-0.052
-540.223	800.000	-0.045	-0.183
-539.208	-200.000	0.015	0.084
-538.193	-130.269	-0.139	0.019
-537.179	-33.539	0.129	0.071
-536.164	10.706	0.113	0.086
-535.150	-41.927	0.231	-0.118
-534.135	-200.000	-0.020	-0.263
-533.121	-160.840	-0.062	-0.003
-532.106	40.139	0.076	-0.068
-531.091	-150.413	-0.340	-0.026
-530.077	64.433	0.194	0.195
-529.062	-104.803	0.239	0.055
-528.048	17.085	-0.340	0.268
-527.033	-111.927	-0.289	0.058
-526.018	-200.000	-0.068	0.383
-525.004	52.951	0.317	0.301
-523.989	-139.766	0.260	0.027
-522.975	60.550	-0.131	-0.129
-521.960	127.151	0.189	-0.238
-520.945	27.608	-0.154	-0.129
-519.931	-171.444	0.256	-0.008
-518.916	-91.616	0.061	-0.017
-517.902	800.000	0.065	-0.190
-516.887	-200.000	0.021	-0.428
-515.872	-139.984	-0.227	-0.024
-514.858	-200.000	0.007	0.050
-513.843	31.121	0.143	0.122
-512.829	30.613	-0.144	0.123
-511.814	209.537	0.097	0.151
-510.799	608.392	-0.059	-0.147
-509.785	341.868	0.119	0.231
-508.770	-200.000	-0.052	0.292
-507.756	-200.000	0.001	0.203
-506.741	-200.000	0.035	0.424
-505.726	800.000	0.076	0.257
-504.712	800.000	-0.041	0.169
-503.697	800.000	-0.098	0.296
-502.683	-111.137	0.388	-0.079
-501.668	184.498	-0.041	-0.060
-500.653	115.980	-0.040	-0.049
-499.639	-54.057	0.159	-0.072
-498.624	138.425	-0.049	0.064
-497.610	-200.000	0.019	0.155
-496.595	-72.230	0.459	-0.169
-495.581	-78.189	-0.260	-0.089
-494.566	14.944	-0.267	0.208
-493.551	442.722	0.133	-0.290
-492.537	254.794	0.214	0.363
-491.522	40.542	-0.354	0.317
-490.508	-200.000	0.047	0.352
-489.493	-142.319	-0.109	0.011
-488.478	-40.369	0.011	0.006
-487.464	628.685	-0.085	-0.212
-486.449	454.371	-0.051	-0.112
-485.435	800.000	-0.055	-0.190
-484.420	-115.840	-0.345	0.064
-483.405	29.154	-0.210	0.177
-482.391	-46.707	0.368	0.179
-481.376	77.891	-0.177	-0.187
-480.362	550.335	-0.078	0.185
-479.347	-200.000	0.002	-0.104
-478.332	-200.000	0.016	0.100
-477.318	-200.000	-0.007	-0.197
-476.303	-128.675	-0.195	-0.027
-475.289	125.909	-0.146	0.183
-474.274	-200.000	0.007	-0.074
-473.259	-200.000	0.007	0.104
-472.245	800.000	0.041	-0.114
-471.230	79.607	-0.295	0.314
-470.216	-108.118	-0.205	-0.044
-469.201	45.646	0.216	-0.198
-468.186	-114.143	-0.299	0.057
-467.172	-100.907	-0.283	-0.069
-466.157	428.938	-0.181	-0.387
-465.143	256.630	-0.134	0.228
-464.128	23.187	0.138	0.112
-463.113	-200.000	0.009	0.079
-462.099	521.954	-0.066	0.153
-461.084	33.025	-0.267	-0.230
-460.070	181.177	0.064	-0.093
-459.055	530.802	0.066	0.155
-458.040	23.974	-0.141	0.116
-457.026	-99.056	-0.044	0.011
-456.011	760.607	-0.148	0.399
-454.997	229.671	-0.096	0.155
-453.982	-197.074	-0.139	-0.001
-452.968	18.311	-0.190	-0.150
-451.953	394.624	0.064	0.133
-450.938	242.676	-0.075	0.125
-449.924	-18.417	0.252	0.156
-448.909	-74.672	-0.272	-0.097
-447.895	224.497	-0.148	-0.237
-446.880	452.999	-0.040	-0.087
-445.865	254.235	-0.172	0.292
-444.851	-200.000	-0.007	-0.241
-443.836	301.193	-0.136	-0.248
-442.822	192.735	-0.183	-0.274
-441.807	-119.488	-0.414	0.071
-440.792	-200.000	-0.011	-0.106
-439.778	-36.050	0.381	-0.204
-438.763	-200.000	0.015	-0.360
-437.749	-200.000	0.090	-0.400
-436.734	150.125	0.138	0.185
-435.719	-135.313	-0.041	0.005
-434.705	30.510	-0.160	-0.136
-433.690	127.346	-0.172	-0.216
-432.676	800.000	0.045	0.130
-431.661	22.830	-0.142	0.115
-430.646	800.000	-0.061	-0.185
-429.632	-200.000	-0.009	-0.206
-428.617	175.211	0.073	-0.105
-427.603	52.429	-0.200	-0.189
-426.588	9.273	-0.110	-0.082
-425.573	-0.177	0.058	0.041
-424.559	3.119	-0.190	0.137
-423.544	59.345	-0.069	0.068
-422.530	800.000	-0.105	0.374
-421.515	-200.000	0.003	-0.054
-420.500	36.090	0.082	0.071
-419.486	-134.440	-0.096	0.012
-418.471	800.000	0.079	-0.219
-417.457	402.219	0.135	0.281
-416.442	-85.070	0.016	-0.005
-415.428	-100.318	-0.141	0.035
-414.413	-132.317	-0.294	0.038
-413.398	-65.422	0.242	-0.096
-412.384	800.000	0.053	0.223
-411.369	-200.000	-0.013	0.198
-410.355	-200.000	0.052	0.362
-409.340	368.900	0.041	0.083
-408.325	508.867	-0.087	0.201
-407.311	800.000	-0.018	-0.068
-406.296	169.041	0.118	0.166
-405.282	-17.932	-0.357	-0.222
-404.267	-61.646	-0.319	-0.133
-403.252	30.372	0.113	-0.096
-402.238	65.843	-0.184	0.184
-401.223	348.061	-0.147	0.286
-400.209	-200.000	0.053	-0.293
-399.194	87.762	-0.203	-0.223
-398.179	800.000	0.044	-0.171
-397.165	97.215	0.191	0.217
-396.150	-200.000	0.039	0.172
-395.136	-65.024	0.334	-0.133
-394.121	-71.598	-0.006	0.002
-393.106	-200.000	0.022	-0.187
-392.092	-131.825	-0.085	-0.011
-391.077	363.167	0.131	0.261
-390.063	-200.000	0.084	0.391
-389.048	-58.446	0.212	0.091
-388.033	800.000	-0.146	0.502
-387.019	221.022	0.159	0.253
-386.004	800.000	0.025	0.085
-384.990	-30.717	-0.098	-0.055
-383.975	-95.603	0.316	0.084
-382.960	-200.000	0.030	-0.195
-381.946	95.206	-0.263	0.296
-380.931	-200.000	0.087	0.395
-379.917	169.368	0.025	-0.036
-378.902	-82.644	0.101	-0.032
-377.888	800.000	-0.032	0.137
-376.873	132.757	0.111	-0.141
-375.858	182.353	-0.091	-0.133
-374.844	-53.711	-0.218	0.098
-373.829	515.710	-0.110	-0.253
-372.815	-183.847	-0.160	0.003
-371.800	-200.000	-0.038	-0.294
-370.785	0.364	-0.114	-0.081
-369.771	46.796	0.289	-0.266
-368.756	82.243	-0.260	-0.278
-367.742	-90.046	0.166	-0.048
-366.727	-74.172	-0.064	-0.023
-365.712	-200.000	0.008	-0.093
-364.698	232.688	-0.114	-0.186
-363.683	-30.469	-0.267	-0.149
-362.669	800.000	0.100	0.275
-361.654	18.507	0.142	-0.112
-360.639	86.645	-0.044	0.048
-359.625	-200.000	-0.029	0.134
-358.610	-200.000	-0.081	0.396
-357.596	-141.218	-0.169	0.017
-356.581	-200.000	-0.008	-0.311
-355.566	-54.365	-0.249	0.112
-354.552	-145.338	0.162	-0.014
-353.537	233.132	-0.155	-0.251
-352.523	149.355	0.031	0.041
-351.508	-17.131	0.436	0.272
-350.493	-70.478	0.195	-0.073
-349.479	-200.000	-0.008	0.131
-348.464	21.788	-0.129	-0.104
-347.450	-200.000	-0.006	0.194
-346.435	552.802	-0.030	-0.070
-345.420	-200.000	-0.030	-0.203
-344.406	67.251	0.219	-0.220
-343.391	-161.593	0.443	0.022
-342.377	-85.964	-0.174	-0.053
-341.362	611.339	-0.105	0.260
-340.348	81.206	-0.066	0.071
-339.333	56.630	0.088	0.084
-338.318	-43.242	0.151	-0.075
-337.304	145.153	0.063	-0.083
-336.289	-200.000	-0.043	-0.329
-335.275	30.261	0.145	-0.123
-334.260	229.381	0.101	-0.163
-333.245	-200.000	0.043	0.284
-332.231	800.000	0.037	0.131
-331.216	701.892	0.124	0.323
-330.202	800.000	0.042	-0.116
-329.187	800.000	0.029	-0.103
-328.172	800.000	0.091	0.367
-327.158	193.531	0.170	-0.253
-326.143	-113.439	0.157	-0.030
-325.129	800.000	-0.131	0.364
-324.114	-82.931	-0.166	-0.053
-323.099	-109.705	0.079	0.016
-322.085	69.182	0.147	-0.149
-321.070	-38.282	0.331	0.173
-320.056	162.289	-0.124	-0.172
-319.041	106.235	0.314	0.367
-318.026	-44.343	-0.194	-0.096
-317.012	-53.257	-0.229	-0.104
-315.997	87.237	0.133	-0.145
-314.983	-77.678	0.170	-0.058
-313.968	-200.000	-0.027	-0.168
-312.953	-200.000	-0.015	0.288
-311.939	-83.197	-0.262	-0.083
-310.924	-125.919	-0.217	0.032
-309.910	45.304	0.067	-0.061
-308.895	535.026	0.059	0.138
-307.880	22.543	0.229	0.185
-306.866	-51.555	0.049	0.023
-305.851	-88.686	0.123	-0.036
-304.837	-156.723	-0.169	-0.010
-303.822	-200.000	0.051	-0.289
-302.807	23.467	0.251	0.204
-301.793	-145.392	-0.027	0.002
-300.778	-200.000	-0.039	-0.244
-299.764	-76.859	-0.320	-0.110
-298.749	-17.581	-0.262	-0.163
-297.735	188.827	0.114	0.168
-296.720	-77.644	-0.438	0.149
-295.705	147.817	-0.056	-0.074
-294.691	-83.898	-0.218	-0.069
-293.676	18.771	0.074	-0.059
-292.662	593.123	-0.081	-0.197
-291.647	97.004	0.268	0.303
-290.632	47.932	-0.314	0.289
-289.618	-200.000	-0.008	0.292
-288.603	-74.181	-0.155	-0.055
-287.589	800.000	-0.119	-0.387
-286.574	24.667	-0.085	0.069
-285.559	-200.000	-0.014	-0.124
-284.545	-188.639	0.145	0.002
-283.530	-141.003	0.218	0.022
-282.516	9.200	-0.280	-0.208
-281.501	-161.738	0.352	0.018
-280.486	-96.446	0.449	-0.117
-279.472	-41.641	-0.267	-0.135
-278.457	-141.517	-0.342	0.034
-277.443	-200.000	0.014	-0.145
-276.428	-99.509	-0.119	0.030
-275.413	201.514	0.093	0.141
-274.399	39.370	-0.199	0.175
-273.384	-43.194	-0.016	0.008
-272.370	-200.000	0.028	0.193
-271.355	-107.372	-0.225	0.049
-270.340	170.575	-0.108	0.152
-269.326	-103.923	0.147	-0.034
-268.311	196.505	-0.250	-0.375
-267.297	-8.366	0.166	0.110
-266.282	673.962	-0.058	0.148
-265.267	77.713	0.096	0.101
-264.253	-200.000	-0.016	0.282
-263.238	307.818	0.123	0.226
-262.224	-200.000	-0.035	-0.180
-261.209	64.147	-0.237	-0.235
-260.195	37.190	-0.016	-0.014
-259.180	274.740	-0.236	0.411
-258.165	486.964	-0.038	0.086
-257.151	-200.000	0.023	0.577
-256.136	34.704	-0.151	-0.130
-255.122	-200.000	0.139	0.000
-254.107	18.088	-0.183	0.144
-253.092	71.640	0.150	0.153
-252.078	42.311	-0.052	0.046
-251.063	-41.550	-0.098	0.049
-250.049	-130.166	0.162	-0.022
-249.034	-110.704	0.423	-0.086
-248.019	-200.000	-0.005	0.041
-247.005	800.000	-0.017	0.046
-245.990	-184.863	-0.049	-0.001
-244.976	-200.000	0.001	-0.046
-243.961	-47.641	0.232	-0.111
-242.946	-116.930	0.529	0.095
-241.932	107.518	-0.209	0.245
-240.917	81.457	-0.072	-0.077
-239.903	-37.219	0.343	0.180
-238.888	-98.813	0.108	0.027
-237.873	-10.812	0.230	-0.149
-236.859	31.512	-0.185	-0.156
-235.844	10.656	0.171	0.128
-234.830	291.566	-0.079	0.142
-233.815	-6.073	0.067	-0.045
-232.800	-59.920	-0.116	-0.049
-231.786	157.313	-0.061	0.083
-230.771	-200.000	0.002	-0.084
-229.757	176.587	0.125	-0.179
-228.742	-24.221	-0.266	0.156
-227.727	177.973	0.075	0.107
-226.713	-40.985	0.123	-0.063
-225.698	-200.000	0.047	0.235
-224.684	-100.347	-0.502	0.122
-223.669	699.579	0.033	0.086
-222.655	-144.824	-0.457	-0.041
-221.640	-200.000	0.015	-0.245
-220.625	-121.208	0.166	-0.027
-219.611	22.401	0.315	-0.253
-218.596	-200.000	0.019	-0.300
-217.582	-51.262	0.276	-0.127
-216.567	621.492	-0.047	-0.117
-215.552	-200.000	-0.032	-0.258
-214.538	-14.208	-0.313	0.198
-213.523	-151.412	0.207	0.015
-212.509	800.000	0.078	-0.217
-211.494	7.321	-0.223	-0.164
-210.479	199.996	0.188	0.284
-209.465	-77.994	0.196	0.066
-208.450	-91.915	-0.087	-0.024
-207.436	-126.009	0.111	-0.016
-206.421	-200.000	0.045	-0.224
-205.406	-170.994	-0.226	0.008
-204.392	-200.000	0.083	0.381
-203.377	276.039	-0.101	0.176
-202.363	291.140	-0.162	0.289
-201.348	-54.708	0.598	-0.265
-200.333	-200.000	0.043	-0.328
-199.319	-200.000	0.086	-0.426
-198.304	-139.927	0.160	0.017
-197.290	-61.248	-0.109	-0.045
-196.275	-200.000	-0.024	-0.334
-195.260	800.000	-0.058	0.193
-194.246	-8.341	0.291	0.192
-193.231	11.528	0.131	0.099
-192.217	-200.000	0.014	-0.080
-191.202	77.050	0.145	0.152
-190.187	96.864	-0.194	0.218
-189.173	120.057	0.141	0.172
-188.158	247.348	0.061	-0.101
-187.144	-1.054	-0.057	0.040
-186.129	49.472	-0.127	0.117
-185.114	-29.937	-0.118	-0.066
-184.100	-123.150	-0.111	0.018
-183.085	154.442	0.137	-0.185
-182.071	-175.837	0.294	-0.008
-181.056	-102.010	-0.243	0.058
-180.042	800.000	-0.068	-0.198
-179.027	563.918	0.084	-0.200
-178.012	198.210	-0.039	0.059
-176.998	-111.863	0.263	0.052
-175.983	143.635	-0.286	-0.374
-174.969	-143.902	0.357	-0.033
-173.954	-175.852	-0.142	-0.004
-172.939	130.790	0.083	-0.104
-171.925	158.882	0.122	-0.167
-170.910	-199.801	0.184	-0.001
-169.896	-154.816	-0.275	0.018
-168.881	800.000	-0.155	0.538
-167.866	-137.455	0.151	-0.017
-166.852	216.289	-0.107	0.167
-165.837	-80.249	-0.106	-0.035
-164.823	800.000	-0.125	-0.342
-163.808	-200.000	0.048	0.209
-162.793	-200.000	0.032	0.175
-161.779	138.462	0.255	0.328
-160.764	77.616	-0.183	0.191
-159.750	-200.000	-0.051	-0.246
-158.735	363.336	-0.093	0.182
-157.720	800.000	0.110	0.328
-156.706	-153.640	0.261	0.018
-155.691	217.899	0.213	-0.334
-154.677	-200.000	-0.067	-0.385
-153.662	191.903	0.092	-0.136
-152.647	-166.915	0.291	0.012
-151.633	218.552	-0.172	0.269
-150.618	-172.637	0.192	0.006
-149.604	39.754	0.179	0.157
-148.589	800.000	-0.052	-0.221
-147.574	13.137	0.103	-0.078
-146.560	289.842	-0.061	0.108
-145.545	-200.000	0.013	-0.203
-144.531	-66.598	0.178	0.069
-143.516	800.000	0.077	-0.294
-142.502	800.000	-0.113	0.381
-141.487	581.379	-0.098	0.235
-140.472	-200.000	0.045	-0.228
-139.458	-200.000	-0.003	0.194
-138.443	650.625	-0.058	0.145
-137.429	281.427	-0.129	0.226
-136.414	-45.218	-0.058	-0.028
-135.399	155.195	-0.123	0.166
-134.385	284.382	0.149	0.263
-133.370	546.243	0.109	0.255
-132.356	-177.877	0.246	0.006
-131.341	800.000	-0.074	-0.267
-130.326	-71.470	-0.389	-0.142
-129.312	125.888	-0.068	0.084
-128.297	34.625	0.198	0.169
-127.283	236.209	0.114	-0.185
-126.268	-150.730	0.145	0.011
-125.253	-45.139	-0.175	0.085
-124.239	-200.000	0.002	-0.209
-123.224	-200.000	-0.068	-0.334
-122.210	54.995	-0.163	-0.154
