DTS Sentinel unit serial number:	SN413079Multiplexer serial number:	ORYXHardware model number:	OX4-SRSoftware version number:	ORYX F/W v4.00 Oryx Data Collector v3.7.2.0data status	okinstallation	princeton_trtdifferential loss correction	single-endedforward channel	channel 1reverse channel	N/Adate	2019/09/13time	16:02:35forward acquisition time	60.00reverse acquisition time	0.00gamma	496.2192k internal	0.2306k external	0.2306temperature offset calibration	1.0157default loss term (dB/km)	0.3790temperature slope calibration	1.0000multiplexer offset coefficient	1.0000multiplexer slope coefficient	1.0000fibre end	0.00T internal ref (°C)	34.66T ext. ref 1 (°C)	4.82T ext. ref 2 (°C)	31.47length (m)	temperature (°C)	Stokes	anti-Stokes-747.200	115.189	-0.143	0.177
-746.185	167.287	-0.135	0.196
-745.171	-18.686	0.035	0.022
-744.156	-200.000	-0.017	0.093
-743.142	146.623	-0.084	0.115
-742.127	174.239	-0.240	0.352
-741.112	-138.318	0.265	-0.030
-740.098	-55.400	-0.275	0.125
-739.083	-200.000	-0.026	-0.177
-738.069	159.025	-0.174	0.246
-737.054	26.933	0.278	-0.237
-736.039	308.989	-0.069	0.132
-735.025	-200.000	-0.038	0.246
-734.010	800.000	0.033	-0.122
-732.996	-200.000	-0.032	-0.155
-731.981	-158.853	-0.313	0.018
-730.966	-35.841	0.478	0.263
-729.952	181.028	0.025	-0.037
-728.937	-200.000	-0.007	0.052
-727.923	-200.000	-0.039	-0.227
-726.908	-200.000	-0.006	-0.094
-725.894	7.043	-0.084	0.064
-724.879	-84.593	0.093	0.030
-723.864	800.000	-0.101	0.404
-722.850	-200.000	-0.058	0.258
-721.835	640.202	0.138	0.356
-720.821	-60.241	0.175	0.076
-719.806	-200.000	0.038	-0.228
-718.791	-200.000	-0.373	-0.001
-717.777	-75.256	-0.241	0.088
-716.762	800.000	-0.051	-0.190
-715.748	513.101	-0.162	-0.383
-714.733	-5.479	-0.116	-0.081
-713.718	4.903	-0.137	0.103
-712.704	409.079	0.101	0.217
-711.689	106.201	-0.260	0.312
-710.675	-169.802	0.155	0.006
-709.660	800.000	0.056	-0.217
-708.645	34.442	-0.290	-0.257
-707.631	-85.743	0.191	0.060
-706.616	-200.000	-0.015	-0.419
-705.602	-147.650	-0.141	0.012
-704.587	56.111	0.147	-0.145
-703.572	-91.597	-0.220	-0.064
-702.558	46.767	0.329	0.311
-701.543	143.810	0.084	0.114
-700.529	-122.889	0.277	-0.045
-699.514	424.593	0.117	-0.256
-698.499	-200.000	-0.022	-0.184
-697.485	-172.742	0.190	-0.006
-696.470	669.361	-0.103	0.272
-695.456	-87.758	0.483	-0.148
-694.441	97.234	0.147	-0.172
-693.426	131.824	-0.191	-0.249
-692.412	151.145	0.160	-0.220
-691.397	800.000	-0.037	0.126
-690.383	165.050	0.135	0.194
-689.368	17.424	0.040	-0.032
-688.354	-188.585	-0.486	0.006
-687.339	-162.480	-0.394	0.020
-686.324	-200.000	0.046	-0.421
-685.310	-25.208	0.110	0.066
-684.295	713.626	-0.134	-0.361
-683.281	203.904	0.096	-0.150
-682.266	-87.607	0.038	-0.012
-681.251	222.334	0.078	0.128
-680.237	673.656	-0.080	-0.211
-679.222	800.000	-0.032	-0.095
-678.208	-200.000	0.015	-0.098
-677.193	350.832	-0.074	-0.149
-676.178	-160.770	0.193	-0.010
-675.164	800.000	-0.070	-0.246
-674.149	-99.449	0.258	-0.066
-673.135	-71.809	-0.088	-0.033
-672.120	-64.463	0.096	-0.039
-671.105	362.854	0.035	-0.072
-670.091	-200.000	-0.015	0.285
-669.076	-105.396	-0.229	0.053
-668.062	-200.000	-0.003	-0.223
-667.047	31.535	0.087	0.076
-666.032	-13.885	-0.163	-0.107
-665.018	-34.983	0.135	-0.075
-664.003	80.850	0.157	-0.171
-662.989	265.178	0.075	-0.133
-661.974	94.891	0.255	-0.294
-660.959	190.115	-0.260	-0.396
-659.945	0.415	0.094	0.068
-658.930	800.000	0.004	0.016
-657.916	-200.000	-0.034	-0.252
-656.901	47.700	0.110	0.104
-655.886	800.000	0.042	0.144
-654.872	79.627	0.187	0.203
-653.857	375.415	0.082	0.169
-652.843	800.000	0.099	-0.364
-651.828	617.359	-0.099	-0.251
-650.814	419.868	-0.085	0.184
-649.799	-74.866	-0.344	0.125
-648.784	800.000	-0.076	-0.229
-647.770	230.706	0.042	0.070
-646.755	-100.992	0.248	-0.062
-645.741	380.865	-0.146	0.303
-644.726	-103.902	0.376	0.089
-643.711	800.000	0.042	0.123
-642.697	800.000	-0.034	-0.136
-641.682	-30.167	0.157	-0.090
-640.668	41.223	-0.155	0.142
-639.653	168.624	0.247	-0.356
-638.638	800.000	0.067	0.220
-637.624	-200.000	-0.040	-0.260
-636.609	-200.000	0.058	0.306
-635.595	-143.014	0.167	0.016
-634.580	-155.663	-0.099	0.006
-633.565	-94.192	0.252	0.070
-632.551	136.149	-0.158	0.209
-631.536	-69.581	-0.026	-0.010
-630.522	-140.376	-0.079	0.008
-629.507	-88.652	0.314	0.095
-628.492	-94.328	0.441	-0.122
-627.478	186.791	0.039	-0.058
-626.463	-27.121	-0.070	0.041
-625.449	476.678	0.146	0.335
-624.434	310.811	-0.008	0.016
-623.419	404.341	0.036	-0.077
-622.405	147.343	0.254	-0.347
-621.390	62.564	0.044	0.045
-620.376	589.621	-0.067	0.167
-619.361	203.470	0.133	-0.209
-618.346	371.540	-0.018	-0.036
-617.332	-78.035	-0.110	-0.038
-616.317	-66.257	0.182	0.073
-615.303	800.000	0.082	0.254
-614.288	-200.000	0.102	0.541
-613.273	-123.743	0.239	0.038
-612.259	800.000	-0.031	-0.100
-611.244	-65.414	-0.207	-0.084
-610.230	119.157	0.178	-0.222
-609.215	214.392	-0.104	-0.167
-608.201	-19.838	0.253	0.158
-607.186	91.991	-0.069	-0.078
-606.171	661.798	0.099	-0.258
-605.157	48.574	0.131	-0.124
-604.142	150.866	-0.032	-0.045
-603.128	-104.941	-0.425	-0.098
-602.113	71.376	0.078	-0.082
-601.098	-38.985	-0.263	0.140
-600.084	95.838	0.133	-0.154
-599.069	-125.226	0.131	-0.020
-598.055	204.219	-0.154	-0.241
-597.040	688.987	0.096	-0.254
-596.025	40.228	-0.223	-0.203
-595.011	242.421	-0.211	-0.357
-593.996	-22.931	0.240	0.146
-592.982	-58.106	0.269	0.119
-591.967	-32.506	-0.316	0.178
-590.952	-200.000	0.031	0.254
-589.938	4.201	0.175	0.129
-588.923	-105.491	-0.190	0.044
-587.909	-85.485	-0.118	0.037
-586.894	142.474	-0.255	-0.342
-585.879	-11.926	-0.144	-0.095
-584.865	-30.967	-0.258	-0.147
-583.850	43.393	0.114	-0.106
-582.836	65.095	-0.076	0.078
-581.821	368.538	-0.062	0.126
-580.806	126.580	0.086	-0.111
-579.792	686.690	0.062	-0.164
-578.777	659.843	-0.244	-0.635
-577.763	-0.699	-0.080	-0.057
-576.748	245.352	-0.176	-0.299
-575.733	84.113	-0.070	-0.077
-574.719	665.564	0.063	0.164
-573.704	-127.512	-0.170	-0.025
-572.690	-200.000	-0.071	0.495
-571.675	-200.000	0.034	0.209
-570.661	104.171	0.307	-0.365
-569.646	428.851	-0.110	-0.240
-568.631	-105.557	0.053	0.012
-567.617	-143.464	0.373	-0.036
-566.602	265.114	0.248	0.437
-565.588	800.000	-0.067	-0.280
-564.573	114.802	-0.191	-0.235
-563.558	224.752	0.159	0.259
-562.544	393.376	-0.065	0.137
-561.529	543.105	0.049	0.119
-560.515	102.489	-0.234	-0.277
-559.500	332.101	-0.156	-0.304
-558.485	800.000	-0.060	-0.199
-557.471	-200.000	0.030	-0.202
-556.456	63.420	0.052	0.052
-555.442	236.871	0.080	0.134
-554.427	-97.601	0.249	0.065
-553.412	800.000	-0.029	0.083
-552.398	2.743	-0.079	0.058
-551.383	443.559	-0.096	0.213
-550.369	-50.034	0.173	0.083
-549.354	123.819	-0.107	0.136
-548.339	-144.378	-0.220	0.021
-547.325	-124.772	0.186	-0.029
-546.310	-200.000	0.044	0.220
-545.296	416.803	0.020	-0.043
-544.281	286.382	-0.091	0.166
-543.266	175.797	-0.168	0.246
-542.252	-104.403	-0.422	-0.098
-541.237	-200.000	0.049	0.430
-540.223	800.000	0.091	-0.324
-539.208	364.521	0.077	-0.156
-538.193	64.205	-0.161	0.164
-537.179	-130.172	-0.311	0.043
-536.164	-127.427	0.242	-0.036
-535.150	-200.000	-0.019	-0.230
-534.135	-19.730	0.072	-0.045
-533.121	165.721	-0.163	-0.233
-532.106	719.649	0.062	-0.165
-531.091	-200.000	0.022	0.126
-530.077	57.957	-0.065	-0.064
-529.062	92.800	-0.214	0.244
-528.048	42.120	0.099	-0.090
-527.033	571.102	0.074	0.180
-526.018	800.000	-0.095	0.312
-525.004	86.125	-0.075	-0.084
-523.989	-56.580	-0.307	0.137
-522.975	544.309	0.137	-0.330
-521.960	14.556	0.042	0.033
-520.945	-167.742	-0.066	-0.003
-519.931	142.714	0.049	-0.066
-518.916	800.000	0.076	-0.288
-517.902	216.659	0.088	-0.141
-516.887	325.141	-0.073	0.141
-515.872	37.071	0.242	-0.216
-514.858	-155.048	-0.290	0.019
-513.843	-64.577	-0.138	0.056
-512.829	-200.000	0.019	-0.129
-511.814	201.835	0.094	-0.147
-510.799	49.102	0.137	0.130
-509.785	-162.325	-0.144	-0.007
-508.770	6.695	-0.053	-0.040
-507.756	21.699	-0.170	-0.139
-506.741	191.308	0.093	0.141
-505.726	-200.000	-0.030	-0.140
-504.712	140.861	-0.133	0.177
-503.697	-48.280	0.276	0.134
-502.683	195.719	0.146	0.224
-501.668	-200.000	-0.013	0.168
-500.653	26.525	-0.043	0.036
-499.639	-73.352	0.153	-0.056
-498.624	64.682	0.312	0.317
-497.610	-52.441	0.166	-0.078
-496.595	-136.570	0.270	0.032
-495.581	-38.000	0.135	-0.072
-494.566	354.793	0.153	-0.307
-493.551	800.000	-0.068	0.245
-492.537	31.219	0.312	0.270
-491.522	-62.413	0.252	-0.105
-490.508	-120.659	0.158	0.027
-489.493	-200.000	0.013	0.122
-488.478	-82.701	0.075	0.025
-487.464	-125.145	0.196	0.030
-486.449	230.408	-0.284	-0.468
-485.435	-200.000	0.025	0.307
-484.420	115.463	-0.326	0.401
-483.405	-200.000	0.005	0.151
-482.391	-34.746	-0.242	0.133
-481.376	71.908	-0.104	0.108
-480.362	-93.894	0.021	-0.006
-479.347	279.215	-0.060	-0.108
-478.332	83.118	-0.040	-0.044
-477.318	257.006	-0.127	0.220
-476.303	-158.836	0.242	-0.014
-475.289	-63.429	-0.302	0.125
-474.274	800.000	-0.076	-0.239
-473.259	46.496	0.225	0.210
-472.245	-200.000	0.059	-0.264
-471.230	-0.881	-0.155	-0.110
-470.216	-1.059	0.072	0.051
-469.201	-100.206	-0.371	-0.093
-468.186	338.192	-0.098	0.192
-467.172	173.997	-0.090	0.130
-466.157	680.280	-0.062	-0.163
-465.143	413.723	-0.052	0.112
-464.128	95.178	0.160	-0.183
-463.113	-91.158	-0.122	-0.035
-462.099	269.963	0.076	-0.134
-461.084	-142.819	-0.360	-0.035
-460.070	-200.000	0.005	0.274
-459.055	-200.000	0.019	-0.096
-458.040	-127.829	-0.240	-0.035
-457.026	51.249	-0.020	0.019
-456.011	800.000	0.004	0.016
-454.997	-200.000	0.094	-0.563
-453.982	-18.222	-0.264	-0.166
-452.968	-110.387	-0.145	-0.030
-451.953	-121.342	0.242	0.041
-450.938	14.071	0.333	-0.261
-449.924	656.356	-0.129	-0.334
-448.909	619.379	-0.172	-0.436
-447.895	36.001	-0.184	-0.163
-446.880	-200.000	0.008	0.060
-445.865	297.131	0.032	0.059
-444.851	108.078	-0.282	-0.338
-443.836	-90.777	0.429	0.124
-442.822	-132.883	0.171	-0.022
-441.807	180.561	-0.069	0.102
-440.792	-15.671	0.259	0.166
-439.778	-72.859	0.344	-0.127
-438.763	-200.000	0.004	0.151
-437.749	-141.157	0.244	-0.025
-436.734	-191.390	0.134	0.001
-435.719	-71.585	-0.218	-0.082
-434.705	-66.585	0.177	-0.071
-433.690	-75.695	0.255	0.091
-432.676	351.836	0.143	0.284
-431.661	-149.269	-0.319	-0.026
-430.646	-83.315	0.088	-0.028
-429.632	661.452	-0.049	0.127
-428.617	420.434	-0.186	-0.400
-427.603	-124.495	0.209	-0.033
-426.588	-8.850	0.031	0.021
-425.573	-200.000	0.024	-0.134
-424.559	-200.000	-0.018	0.199
-423.544	-57.762	-0.145	-0.064
-422.530	800.000	-0.072	0.240
-421.515	63.032	-0.148	0.149
-420.500	800.000	-0.050	-0.182
-419.486	-200.000	-0.226	0.000
-418.471	-74.912	0.142	-0.051
-417.457	167.564	0.121	0.172
-416.442	121.804	0.189	-0.237
-415.428	168.102	0.017	0.025
-414.413	561.885	-0.039	-0.095
-413.398	-200.000	0.039	0.178
-412.384	332.142	-0.073	0.141
-411.369	26.529	0.258	0.217
-410.355	-114.776	-0.158	0.030
-409.340	129.967	0.213	-0.273
-408.325	587.129	-0.080	-0.199
-407.311	-81.500	0.213	0.070
-406.296	-197.121	-0.341	-0.002
-405.282	-40.481	-0.131	-0.068
-404.267	-158.594	-0.302	-0.017
-403.252	-200.000	-0.012	-0.141
-402.238	-103.604	0.167	0.039
-401.223	17.801	-0.260	-0.208
-400.209	-32.006	0.464	-0.261
-399.194	-94.215	-0.074	0.020
-398.179	69.625	-0.024	-0.025
-397.165	140.106	0.093	-0.123
-396.150	21.006	-0.103	-0.084
-395.136	768.469	-0.094	0.256
-394.121	35.613	-0.153	0.134
-393.106	-134.365	0.015	-0.002
-392.092	86.032	-0.105	-0.116
-391.077	75.557	-0.130	0.137
-390.063	800.000	-0.071	0.287
-389.048	-163.862	0.220	-0.010
-388.033	193.698	-0.015	-0.023
-387.019	12.628	-0.295	0.229
-386.004	-2.256	0.087	0.061
-384.990	-22.065	-0.191	0.117
-383.975	-120.925	0.126	0.021
-382.960	73.394	-0.093	-0.097
-381.946	-95.434	-0.368	0.099
-380.931	-70.843	-0.114	-0.043
-379.917	-200.000	-0.060	0.303
-378.902	-57.698	-0.064	0.028
-377.888	-108.258	-0.172	0.037
-376.873	-8.911	0.087	-0.058
-375.858	-110.958	0.030	-0.006
-374.844	249.969	0.060	0.102
-373.829	800.000	-0.034	-0.105
-372.815	-115.033	-0.396	-0.075
-371.800	25.463	0.374	-0.312
-370.785	-22.330	0.238	0.145
-369.771	94.004	0.172	0.195
-368.756	373.104	0.077	-0.157
-367.742	10.386	0.235	-0.179
-366.727	31.943	-0.118	0.102
-365.712	-178.989	0.179	0.004
-364.698	42.306	0.178	0.162
-363.683	156.318	-0.129	0.179
-362.669	-124.146	0.060	0.009
-361.654	-106.549	-0.282	0.063
-360.639	-65.567	-0.097	-0.039
-359.625	-1.865	-0.103	-0.073
-358.610	-187.736	0.061	0.001
-357.596	170.214	-0.115	0.165
-356.581	-18.007	-0.060	-0.038
-355.566	-147.763	-0.052	0.004
-354.552	201.967	-0.086	-0.132
-353.537	-200.000	-0.051	0.267
-352.523	28.459	0.187	0.159
-351.508	800.000	0.025	0.096
-350.493	-90.934	0.102	0.029
-349.479	42.509	0.357	0.325
-348.464	-126.927	-0.087	-0.013
-347.450	-13.900	0.297	0.192
-346.435	-171.399	-0.006	0.000
-345.420	-48.040	-0.115	-0.056
-344.406	-19.341	-0.304	-0.189
-343.391	150.864	-0.008	-0.010
-342.377	71.542	0.111	0.116
-341.362	326.358	0.053	-0.102
-340.348	65.466	0.100	0.101
-339.333	15.393	0.233	0.183
-338.318	-122.589	0.075	-0.012
-337.304	-200.000	0.020	0.456
-336.289	-200.000	-0.029	0.437
-335.275	-200.000	0.001	-0.043
-334.260	86.460	0.109	0.120
-333.245	37.189	-0.141	0.125
-332.231	742.654	-0.101	-0.271
-331.216	301.490	0.145	-0.269
-330.202	-200.000	0.001	0.068
-329.187	-200.000	0.043	-0.365
-328.172	120.545	-0.207	-0.258
-327.158	-200.000	0.005	-0.349
-326.143	297.227	0.155	-0.285
-325.129	-2.705	0.096	-0.067
-324.114	-200.000	-0.058	0.367
-323.099	-200.000	0.041	-0.360
-322.085	-200.000	0.018	-0.164
-321.070	-200.000	-0.012	0.072
-320.056	-15.095	-0.147	0.094
-319.041	-200.000	-0.003	-0.048
-318.026	129.139	-0.103	-0.132
-317.012	83.495	0.168	-0.183
-315.997	-92.654	-0.154	0.043
-314.983	-157.834	-0.192	-0.011
-313.968	800.000	0.100	-0.437
-312.953	-200.000	-0.039	-0.213
-311.939	-65.572	0.002	0.001
-310.924	-72.815	-0.162	-0.060
-309.910	-18.715	-0.220	0.137
-308.895	18.671	0.263	0.211
-307.880	749.492	0.024	0.065
-306.866	70.687	0.064	-0.066
-305.851	-82.962	-0.539	0.174
-304.837	7.711	0.255	0.191
-303.822	-180.944	-0.076	0.002
-302.807	-58.643	0.067	0.029
-301.793	800.000	0.058	0.251
-300.778	185.056	-0.089	-0.132
-299.764	-74.117	0.033	-0.012
-298.749	85.160	0.227	0.249
-297.735	59.668	-0.224	-0.221
-296.720	62.322	0.035	0.035
-295.705	-50.698	-0.141	0.066
-294.691	70.088	-0.115	-0.119
-293.676	479.374	0.097	-0.221
-292.662	258.043	-0.005	-0.008
-291.647	-45.263	0.162	-0.080
-290.632	100.509	-0.153	-0.178
-289.618	-106.013	0.035	0.008
-288.603	145.705	0.084	0.113
-287.589	41.251	-0.071	0.064
-286.574	108.967	0.348	0.416
-285.559	75.172	-0.247	0.260
-284.545	53.146	0.105	0.100
-283.530	-64.782	-0.143	-0.058
-282.516	-40.956	0.178	0.092
-281.501	-91.266	0.196	-0.056
-280.486	-129.564	0.073	-0.010
-279.472	181.241	0.243	-0.356
-278.457	-200.000	-0.041	0.316
-277.443	-33.314	0.147	0.081
-276.428	-19.695	-0.274	-0.169
-275.413	395.426	-0.072	0.149
-274.399	489.278	0.015	0.034
-273.384	-2.181	-0.119	-0.083
-272.370	-58.847	-0.137	0.059
-271.355	-200.000	0.023	-0.111
-270.340	-83.790	0.136	0.043
-269.326	-200.000	-0.013	-0.098
-268.311	-102.029	-0.173	-0.042
-267.297	-173.711	0.053	-0.002
-266.282	-200.000	-0.031	-0.282
-265.267	-200.000	0.045	-0.383
-264.253	-77.065	-0.117	-0.041
-263.238	-84.282	-0.128	-0.041
-262.224	81.167	-0.202	0.217
-261.209	223.289	0.143	-0.231
-260.195	131.495	0.309	0.396
-259.180	-131.347	-0.175	-0.023
-258.165	800.000	-0.019	-0.058
-257.151	15.387	0.111	0.087
-256.136	122.640	-0.258	-0.322
-255.122	800.000	-0.177	-0.509
-254.107	105.115	0.109	0.128
-253.092	-200.000	-0.009	-0.128
-252.078	800.000	-0.110	0.348
-251.063	349.239	-0.151	0.297
-250.049	274.788	-0.096	0.169
-249.034	-16.541	-0.338	-0.214
-248.019	-200.000	-0.004	-0.186
-247.005	-121.814	-0.126	0.021
-245.990	-90.821	-0.443	0.127
-244.976	800.000	0.029	0.088
-243.961	800.000	-0.083	0.333
-242.946	118.066	0.241	0.297
-241.932	-55.480	0.287	0.128
-240.917	-107.358	-0.341	0.075
-239.903	-8.616	0.223	0.149
-238.888	-85.448	0.378	0.118
-237.873	15.256	0.120	0.094
-236.859	294.858	-0.202	-0.368
-235.844	-5.859	0.240	0.164
-234.830	-155.143	-0.304	-0.020
-233.815	-200.000	0.000	-0.547
-232.800	14.695	0.063	0.049
-231.786	87.549	-0.104	0.115
-230.771	248.297	0.044	-0.074
-229.757	-200.000	-0.047	-0.273
-228.742	-53.936	0.185	-0.084
-227.727	800.000	-0.036	-0.147
-226.713	280.152	0.140	0.250
-225.698	800.000	0.032	-0.107
-224.684	655.963	0.132	0.337
-223.669	91.038	-0.108	0.121
-222.655	800.000	-0.062	-0.195
-221.640	73.114	0.030	0.031
-220.625	-200.000	0.021	-0.094
-219.611	-43.253	0.029	0.015
-218.596	-200.000	0.010	0.061
-217.582	-117.269	0.413	0.075
-216.567	-200.000	-0.019	-0.128
-215.552	-200.000	0.029	-0.220
-214.538	-129.991	-0.130	0.018
-213.523	525.357	0.090	-0.211
-212.509	486.019	-0.091	-0.206
-211.494	-200.000	0.010	0.174
-210.479	-200.000	-0.012	-0.215
-209.465	639.801	-0.011	0.028
-208.450	-154.189	-0.338	-0.023
-207.436	800.000	0.001	-0.004
-206.421	11.521	-0.302	-0.231
-205.406	23.565	0.068	-0.056
-204.392	-118.372	-0.144	-0.025
-203.377	-45.992	0.068	-0.033
-202.363	-200.000	-0.043	0.232
-201.348	430.999	0.084	0.181
-200.333	-89.850	0.136	0.040
-199.319	-71.030	0.202	0.076
-198.304	-49.424	0.195	-0.093
-197.290	800.000	0.054	0.208
-196.275	1.543	-0.038	0.027
-195.260	-116.155	-0.233	0.043
-194.246	-31.039	0.362	-0.204
-193.231	304.974	0.065	-0.119
-192.217	-200.000	-0.025	0.256
-191.202	149.071	-0.286	0.385
-190.187	49.661	-0.115	0.107
-189.173	-138.978	-0.112	-0.012
-188.158	-107.179	-0.297	0.065
-187.144	-98.317	-0.146	0.037
-186.129	60.804	0.156	-0.154
-185.114	-126.692	0.312	0.046
-184.100	259.796	0.128	0.220
-183.085	-172.115	-0.417	0.013
-182.071	800.000	-0.050	-0.161
-181.056	-143.134	0.174	-0.017
-180.042	411.086	-0.064	0.136
-179.027	-24.861	-0.181	0.107
-178.012	119.281	0.187	-0.230
-176.998	-41.288	-0.314	0.161
-175.983	68.100	0.065	0.066
-174.969	800.000	-0.035	0.119
-173.954	800.000	-0.132	0.487
-172.939	-133.776	0.330	-0.041
-171.925	-200.000	0.001	-0.023
-170.910	120.709	-0.201	-0.249
-169.896	157.155	0.162	0.223
-168.881	-79.973	-0.031	0.010
-167.866	-148.481	0.190	0.015
-166.852	-3.170	-0.395	-0.274
-165.837	52.591	0.209	-0.199
-164.823	-29.395	0.279	-0.159
-163.808	800.000	-0.043	0.151
-162.793	-0.389	0.181	-0.128
-161.779	-141.833	0.509	0.051
-160.764	-43.439	-0.139	-0.070
-159.750	800.000	0.074	0.236
-158.735	-90.181	0.324	0.094
-157.720	-97.554	-0.064	0.017
-156.706	-72.461	-0.187	0.069
-155.691	-35.830	0.092	0.049
-154.677	439.325	-0.163	0.355
-153.662	-12.700	0.232	0.151
-152.647	-200.000	0.026	-0.121
-151.633	167.611	-0.087	-0.123
-150.618	-29.204	-0.210	-0.120
-149.604	16.898	0.215	0.169
-148.589	-0.788	-0.207	-0.146
-147.574	-200.000	-0.002	0.097
-146.560	800.000	-0.081	-0.319
-145.545	-64.647	-0.208	-0.084
-144.531	-110.841	0.362	-0.074
-143.516	53.153	0.158	-0.151
-142.502	-200.000	-0.014	-0.110
-141.487	-0.441	0.056	-0.039
-140.472	800.000	0.141	-0.424
-139.458	800.000	0.069	0.193
-138.443	-111.236	-0.149	-0.030
-137.429	19.812	0.124	0.099
-136.414	-121.732	-0.229	-0.038
-135.399	-200.000	0.014	0.335
-134.385	-94.100	0.509	-0.139
-133.370	142.173	0.166	-0.219
-132.356	83.740	-0.136	-0.147
-131.341	-156.995	-0.248	-0.015
-130.326	740.763	-0.050	0.134
-129.312	41.456	0.052	-0.047
-128.297	-47.285	0.272	0.131
-127.283	-82.840	-0.188	-0.060
-126.268	-53.582	0.249	0.113
-125.253	175.506	-0.216	-0.311
-124.239	118.397	0.091	-0.112
-123.224	177.401	0.083	0.120
-122.210	-200.000	-0.032	0.376
-121.195	800.000	-0.034	0.110
-120.180	45.582	0.158	0.145
