DTS Sentinel unit serial number:	SN413079Multiplexer serial number:	ORYXHardware model number:	OX4-SRSoftware version number:	ORYX F/W v4.00 Oryx Data Collector v3.7.2.0data status	okinstallation	princeton_trtdifferential loss correction	single-endedforward channel	channel 1reverse channel	N/Adate	2019/09/15time	13:06:35forward acquisition time	60.00reverse acquisition time	0.00gamma	496.2192k internal	0.2296k external	0.2296temperature offset calibration	0.9981default loss term (dB/km)	0.3790temperature slope calibration	1.0000multiplexer offset coefficient	1.0000multiplexer slope coefficient	1.0000fibre end	0.00T internal ref (°C)	36.73T ext. ref 1 (°C)	4.97T ext. ref 2 (°C)	34.93length (m)	temperature (°C)	Stokes	anti-Stokes-747.200	-200.000	0.052	-0.406
-746.185	-97.197	-0.174	-0.046
-745.171	-69.876	0.292	0.114
-744.156	-148.003	0.279	0.024
-743.142	-67.997	0.148	-0.059
-742.127	-200.000	0.010	0.231
-741.112	60.100	0.240	0.242
-740.098	-114.681	0.076	0.015
-739.083	54.249	-0.193	0.190
-738.069	81.258	-0.084	0.093
-737.054	800.000	0.033	0.110
-736.039	492.846	0.125	-0.292
-735.025	-68.284	0.040	-0.016
-734.010	-28.977	0.027	-0.016
-732.996	800.000	0.060	-0.221
-731.981	68.821	-0.250	0.262
-730.966	-200.000	0.022	0.139
-729.952	314.955	-0.106	0.203
-728.937	-155.958	-0.192	-0.012
-727.923	-200.000	0.048	0.241
-726.908	800.000	0.041	-0.125
-725.894	800.000	-0.020	0.089
-724.879	-62.843	-0.038	0.016
-723.864	216.959	-0.068	-0.110
-722.850	-187.650	-0.162	-0.002
-721.835	-39.620	-0.305	0.163
-720.821	351.883	0.082	-0.166
-719.806	475.622	-0.144	0.331
-718.791	-196.971	-0.195	-0.001
-717.777	109.782	0.162	-0.199
-716.762	701.629	-0.105	-0.283
-715.748	712.129	-0.054	-0.146
-714.733	-19.316	-0.460	-0.291
-713.718	70.248	-0.113	-0.120
-712.704	-59.222	0.066	0.029
-711.689	-200.000	-0.027	-0.214
-710.675	293.039	0.195	-0.363
-709.660	187.749	0.087	-0.132
-708.645	-19.663	0.285	-0.180
-707.631	212.554	-0.145	-0.234
-706.616	328.803	-0.136	-0.266
-705.602	-75.804	-0.422	-0.153
-704.587	-115.119	-0.107	0.021
-703.572	800.000	0.032	-0.135
-702.558	-200.000	0.007	-0.288
-701.543	152.915	0.200	0.278
-700.529	151.064	0.178	-0.247
-699.514	-0.109	-0.118	-0.086
-698.499	121.059	-0.053	-0.067
-697.485	27.716	-0.192	-0.165
-696.470	17.213	-0.178	-0.144
-695.456	-66.914	-0.252	-0.102
-694.441	-200.000	0.049	-0.264
-693.426	-200.000	-0.012	-0.127
-692.412	800.000	-0.082	-0.330
-691.397	-172.689	-0.245	-0.008
-690.383	242.404	-0.055	0.095
-689.368	-116.208	0.244	0.046
-688.354	-75.905	-0.246	-0.089
-687.339	358.633	0.086	-0.176
-686.324	-68.177	0.132	-0.053
-685.310	800.000	0.102	0.360
-684.295	60.554	0.153	0.155
-683.281	-200.000	-0.060	-0.285
-682.266	-200.000	0.029	-0.236
-681.251	-121.019	-0.289	-0.049
-680.237	732.794	0.143	0.391
-679.222	356.730	-0.114	-0.231
-678.208	-5.623	-0.388	0.271
-677.193	-28.897	-0.299	0.175
-676.178	-74.583	-0.345	-0.127
-675.164	82.261	0.205	-0.226
-674.149	-25.320	0.191	-0.115
-673.135	153.878	0.075	-0.105
-672.120	-200.000	-0.011	0.160
-671.105	663.017	0.131	0.345
-670.091	237.006	-0.169	-0.286
-669.076	136.686	-0.044	0.059
-668.062	-144.101	-0.500	0.048
-667.047	483.805	-0.078	0.181
-666.032	80.398	0.250	0.274
-665.018	800.000	0.047	-0.176
-664.003	473.099	0.135	-0.311
-662.989	-110.739	-0.306	0.064
-661.974	69.447	-0.151	0.158
-660.959	-200.000	0.046	-0.264
-659.945	191.601	0.165	0.253
-658.930	-80.838	0.238	-0.080
-657.916	-200.000	-0.010	0.252
-656.901	-53.315	-0.204	0.095
-655.886	-43.758	0.083	0.042
-654.872	-134.843	0.515	0.064
-653.857	-180.655	0.223	0.005
-652.843	-200.000	0.011	-0.136
-651.828	-200.000	-0.002	-0.266
-650.814	279.520	0.080	-0.146
-649.799	800.000	0.069	-0.256
-648.784	-25.299	-0.265	0.159
-647.770	-5.952	0.167	0.117
-646.755	-200.000	-0.010	-0.048
-645.741	136.499	-0.052	-0.069
-644.726	260.724	-0.196	-0.345
-643.711	-33.665	0.123	-0.069
-642.697	206.632	-0.181	0.287
-641.682	-140.568	-0.282	0.030
-640.668	483.011	0.103	0.239
-639.653	122.605	0.035	0.044
-638.638	-200.000	-0.042	-0.308
-637.624	355.567	-0.035	-0.072
-636.609	-145.775	0.300	-0.027
-635.595	155.601	0.071	-0.099
-634.580	-81.108	0.151	-0.051
-633.565	558.573	0.073	0.180
-632.551	800.000	0.012	-0.045
-631.536	-200.000	0.068	0.331
-630.522	447.313	-0.200	-0.449
-629.507	242.247	0.163	-0.277
-628.492	-169.747	-0.507	0.019
-627.478	187.694	0.116	0.177
-626.463	307.784	-0.166	-0.315
-625.449	-110.979	-0.154	-0.032
-624.434	-95.975	-0.429	0.116
-623.419	-140.491	-0.318	0.034
-622.405	-115.161	0.207	0.040
-621.390	-25.911	0.130	0.078
-620.376	800.000	0.089	-0.350
-619.361	105.644	-0.123	-0.148
-618.346	-135.570	0.374	0.045
-617.332	312.052	0.084	0.161
-616.317	-8.281	0.183	0.125
-615.303	253.979	0.166	0.289
-614.288	-45.132	0.064	0.032
-613.273	275.104	-0.147	0.266
-612.259	42.995	-0.033	0.030
-611.244	126.027	-0.276	-0.355
-610.230	-52.304	0.182	0.086
-609.215	30.671	-0.170	-0.148
-608.201	-15.141	0.150	-0.098
-607.186	800.000	-0.007	-0.027
-606.171	-87.388	0.170	0.052
-605.157	-14.990	-0.090	-0.059
-604.142	-51.831	0.119	0.056
-603.128	217.664	-0.205	0.332
-602.113	-17.634	0.139	-0.089
-601.098	-90.131	0.352	0.104
-600.084	589.058	-0.106	-0.266
-599.069	302.933	0.112	0.210
-598.055	-156.303	-0.263	-0.017
-597.040	-93.560	0.245	-0.069
-596.025	-84.833	0.222	0.071
-595.011	-120.453	-0.279	-0.048
-593.996	85.340	0.244	-0.272
-592.982	-200.000	-0.038	-0.525
-591.967	-200.000	0.018	-0.207
-590.952	-105.875	0.125	0.029
-589.938	-200.000	-0.028	0.385
-588.923	-37.787	0.158	-0.086
-587.909	226.738	0.082	-0.136
-586.894	157.011	0.032	0.044
-585.879	190.679	0.129	0.197
-584.865	-31.566	0.329	0.188
-583.850	-200.000	-0.016	0.242
-582.836	-22.711	0.240	-0.147
-581.821	-200.000	-0.004	-0.175
-580.806	-131.295	-0.139	-0.019
-579.792	124.549	0.171	0.218
-578.777	-35.890	0.203	0.112
-577.763	-200.000	0.048	-0.244
-576.748	617.352	0.154	-0.393
-575.733	-155.593	0.050	-0.003
-574.719	128.295	-0.031	0.040
-573.704	-42.401	-0.246	-0.128
-572.690	-145.941	0.141	0.013
-571.675	-177.524	-0.256	-0.006
-570.661	-169.621	-0.083	-0.003
-569.646	129.880	0.041	-0.054
-568.631	150.523	-0.187	-0.258
-567.617	-93.062	0.263	-0.074
-566.602	376.877	0.072	0.148
-565.588	29.065	0.020	0.017
-564.573	-160.295	0.278	0.015
-563.558	471.919	-0.070	0.161
-562.544	-71.256	-0.197	-0.075
-561.529	-200.000	0.029	0.170
-560.515	-200.000	0.030	0.212
-559.500	269.903	0.122	0.217
-558.485	-200.000	-0.025	-0.316
-557.471	-124.886	0.103	0.016
-556.456	553.313	-0.131	0.319
-555.442	292.775	-0.143	-0.264
-554.427	800.000	-0.056	-0.212
-553.412	-200.000	-0.024	-0.152
-552.398	260.550	-0.143	-0.251
-551.383	-39.692	0.102	0.054
-550.369	800.000	0.014	0.052
-549.354	223.063	0.145	0.237
-548.339	-84.288	0.110	-0.035
-547.325	-15.525	-0.088	0.057
-546.310	-51.625	0.173	-0.082
-545.296	203.196	0.300	0.470
-544.281	-200.000	0.000	-0.148
-543.266	-65.377	0.049	0.020
-542.252	-200.000	0.017	0.288
-541.237	-74.028	-0.158	0.058
-540.223	198.064	-0.079	0.123
-539.208	800.000	0.048	-0.208
-538.193	-48.778	0.058	0.028
-537.179	800.000	-0.070	0.301
-536.164	522.855	0.046	0.110
-535.150	83.143	-0.109	0.121
-534.135	137.164	-0.171	-0.226
-533.121	800.000	-0.089	0.324
-532.106	98.079	-0.074	0.087
-531.091	-32.973	-0.301	0.169
-530.077	151.988	-0.106	0.147
-529.062	-89.416	0.138	0.041
-528.048	-2.053	0.107	-0.076
-527.033	-200.000	0.024	0.389
-526.018	-6.018	-0.084	-0.058
-525.004	800.000	0.064	-0.276
-523.989	-200.000	-0.041	0.252
-522.975	-40.721	0.304	-0.159
-521.960	-200.000	-0.009	0.208
-520.945	-200.000	0.004	-0.146
-519.931	559.100	-0.052	0.128
-518.916	800.000	-0.066	0.231
-517.902	68.934	0.103	0.107
-516.887	184.966	0.045	0.067
-515.872	800.000	-0.082	-0.266
-514.858	351.605	-0.096	0.193
-513.843	6.844	-0.101	-0.076
-512.829	509.656	-0.146	-0.343
-511.814	70.550	0.118	-0.123
-510.799	522.386	0.134	0.320
-509.785	-65.978	0.075	-0.030
-508.770	-55.511	0.047	-0.021
-507.756	-4.982	-0.098	-0.068
-506.741	-200.000	-0.062	-0.415
-505.726	-118.736	0.230	-0.041
-504.712	-119.750	-0.178	-0.031
-503.697	365.611	0.069	-0.140
-502.683	-23.193	-0.177	-0.108
-501.668	-10.013	-0.369	-0.249
-500.653	-200.000	-0.032	0.275
-499.639	800.000	-0.063	-0.205
-498.624	-200.000	0.005	-0.204
-497.610	84.868	0.038	0.043
-496.595	800.000	0.089	-0.309
-495.581	-128.216	0.101	0.015
-494.566	-92.521	0.144	-0.041
-493.551	384.485	0.027	-0.056
-492.537	348.624	-0.109	-0.218
-491.522	203.686	0.126	-0.197
-490.508	402.130	0.188	0.400
-489.493	-54.709	-0.157	-0.072
-488.478	-181.336	-0.337	0.007
-487.464	-50.898	-0.119	-0.057
-486.449	12.076	-0.197	0.153
-485.435	-165.140	-0.352	0.016
-484.420	-180.010	0.447	-0.010
-483.405	-74.203	-0.123	0.045
-482.391	-200.000	-0.021	-0.204
-481.376	-46.056	-0.156	0.078
-480.362	375.482	-0.232	-0.479
-479.347	-95.537	-0.409	-0.111
-478.332	-200.000	0.001	-0.200
-477.318	16.170	-0.065	-0.052
-476.303	185.049	0.161	-0.242
-475.289	-200.000	0.013	0.124
-474.274	-142.791	-0.148	0.015
-473.259	215.317	0.121	0.195
-472.245	-200.000	-0.009	-0.105
-471.230	-69.005	-0.145	-0.057
-470.216	266.129	0.090	-0.158
-469.201	484.702	-0.064	0.147
-468.186	800.000	0.079	0.279
-467.172	-153.908	-0.296	-0.020
-466.157	274.284	-0.254	-0.454
-465.143	800.000	-0.090	0.355
-464.128	-50.259	-0.047	0.022
-463.113	-150.451	0.151	-0.012
-462.099	-60.992	0.329	0.141
-461.084	256.448	-0.014	0.025
-460.070	-132.526	0.555	-0.072
-459.055	-129.243	0.127	-0.018
-458.040	-200.000	0.012	0.509
-457.026	156.523	-0.113	0.157
-456.011	-82.370	-0.120	0.040
-454.997	500.796	0.096	-0.223
-453.982	-200.000	-0.028	-0.370
-452.968	-71.390	-0.397	-0.150
-451.953	-200.000	0.024	0.111
-450.938	-140.423	0.064	0.007
-449.924	-162.584	0.280	-0.014
-448.909	57.561	-0.152	-0.150
-447.895	-119.770	0.238	-0.041
-446.880	296.151	-0.043	-0.079
-445.865	-100.531	0.134	0.033
-444.851	800.000	-0.050	-0.213
-443.836	34.225	0.088	0.077
-442.822	-26.780	0.072	-0.042
-441.807	-200.000	-0.012	-0.073
-440.792	-67.791	0.372	-0.147
-439.778	-131.634	-0.061	0.008
-438.763	-200.000	0.039	-0.271
-437.749	189.773	0.068	0.103
-436.734	-1.164	0.260	0.185
-435.719	-70.813	0.114	0.043
-434.705	-11.569	0.184	-0.122
-433.690	47.868	-0.042	0.040
-432.676	36.009	-0.210	0.187
-431.661	48.686	-0.028	0.027
-430.646	-12.798	0.260	0.171
-429.632	-143.242	-0.379	0.037
-428.617	-45.241	0.183	-0.092
-427.603	227.029	-0.085	0.140
-426.588	-111.537	-0.232	0.048
-425.573	433.636	0.088	-0.193
-424.559	-200.000	-0.005	-0.257
-423.544	-91.974	-0.322	-0.092
-422.530	800.000	-0.057	0.191
-421.515	800.000	-0.067	0.199
-420.500	36.033	-0.184	0.164
-419.486	-200.000	0.002	0.099
-418.471	541.880	-0.015	-0.035
-417.457	736.167	0.061	-0.166
-416.442	-180.128	-0.256	-0.005
-415.428	529.899	0.040	0.095
-414.413	-200.000	-0.090	0.451
-413.398	-84.548	0.247	0.078
-412.384	800.000	-0.036	0.157
-411.369	800.000	0.080	0.331
-410.355	-200.000	-0.012	0.054
-409.340	-200.000	0.023	0.259
-408.325	800.000	0.036	-0.153
-407.311	212.052	0.163	0.259
-406.296	-78.762	-0.195	-0.067
-405.282	-21.225	0.129	0.079
-404.267	299.933	-0.169	0.314
-403.252	-25.611	-0.297	0.177
-402.238	0.295	0.091	-0.066
-401.223	632.457	0.125	-0.319
-400.209	-200.000	-0.024	-0.110
-399.194	491.617	0.026	0.061
-398.179	-200.000	-0.010	0.056
-397.165	-200.000	0.019	-0.134
-396.150	-161.780	-0.213	-0.011
-395.136	-103.127	-0.433	-0.103
-394.121	800.000	-0.014	0.058
-393.106	-113.797	0.091	0.018
-392.092	88.749	0.037	0.041
-391.077	3.659	-0.219	0.161
-390.063	-102.789	0.166	0.040
-389.048	-43.637	-0.002	-0.001
-388.033	486.548	0.039	-0.090
-387.019	-92.853	0.349	0.098
-386.004	16.870	-0.080	0.064
-384.990	106.969	0.175	-0.209
-383.975	131.600	-0.184	-0.239
-382.960	-7.180	-0.225	0.154
-381.946	-200.000	0.054	-0.291
-380.931	17.070	-0.050	-0.040
-379.917	-200.000	-0.001	0.129
-378.902	188.139	0.047	0.070
-377.888	-89.925	-0.176	0.052
-376.873	-200.000	0.009	-0.055
-375.858	-140.587	0.366	-0.038
-374.844	354.847	0.136	-0.272
-373.829	-151.519	0.172	0.013
-372.815	-49.851	-0.122	-0.058
-371.800	35.184	0.135	-0.119
-370.785	-52.397	0.329	-0.153
-369.771	51.018	-0.060	-0.057
-368.756	-200.000	0.067	-0.000
-367.742	-200.000	0.020	-0.179
-366.727	231.150	0.182	0.300
-365.712	800.000	0.077	-0.223
-364.698	288.395	0.158	-0.287
-363.683	800.000	0.060	-0.192
-362.669	-60.191	-0.202	-0.087
-361.654	461.931	0.118	0.266
-360.639	341.390	-0.170	0.334
-359.625	-51.318	0.097	-0.046
-358.610	800.000	-0.046	-0.163
-357.596	-101.533	0.073	-0.018
-356.581	-200.000	-0.011	-0.229
-355.566	-200.000	-0.006	0.060
-354.552	800.000	-0.050	0.178
-353.537	408.308	0.144	-0.307
-352.523	124.910	0.071	-0.090
-351.508	-135.418	-0.169	-0.020
-350.493	386.630	-0.095	-0.197
-349.479	-104.738	-0.074	0.017
-348.464	-192.685	0.035	0.000
-347.450	-87.823	-0.302	0.092
-346.435	-45.275	-0.151	0.075
-345.420	-81.803	-0.143	-0.047
-344.406	430.613	-0.025	-0.055
-343.391	394.131	0.027	-0.057
-342.377	-200.000	0.206	0.001
-341.362	-38.455	-0.175	0.093
-340.348	-200.000	-0.009	-0.115
-339.333	-35.337	0.197	0.108
-338.318	-93.173	0.042	-0.012
-337.304	-90.003	0.132	0.039
-336.289	-76.702	-0.155	-0.055
-335.275	-143.778	0.031	-0.003
-334.260	72.416	0.251	0.263
-333.245	19.385	-0.064	0.052
-332.231	203.572	-0.062	-0.096
-331.216	-43.947	-0.223	0.113
-330.202	-200.000	-0.030	0.217
-329.187	309.235	0.036	0.067
-328.172	-85.421	-0.128	0.040
-327.158	46.628	0.109	0.102
-326.143	375.547	-0.155	-0.318
-325.129	-98.206	0.178	-0.046
-324.114	-93.993	-0.201	-0.055
-323.099	184.113	-0.050	-0.075
-322.085	-124.887	-0.306	0.047
-321.070	-147.289	-0.169	0.014
-320.056	432.409	0.093	-0.203
-319.041	60.266	0.063	-0.062
-318.026	-200.000	0.020	-0.101
-317.012	-148.599	-0.378	-0.031
-315.997	66.608	-0.245	-0.251
-314.983	-97.616	0.048	-0.012
-313.968	-53.583	-0.168	-0.077
-312.953	101.327	-0.269	0.315
-311.939	-102.166	-0.025	0.006
-310.924	99.767	0.224	-0.261
-309.910	-140.892	-0.310	-0.032
-308.895	37.801	-0.090	-0.080
-307.880	-200.000	-0.019	0.260
-306.866	-32.371	0.233	0.130
-305.851	205.031	0.007	0.011
-304.837	-200.000	-0.016	0.123
-303.822	-77.748	0.138	0.048
-302.807	99.150	-0.235	0.273
-301.793	-39.550	0.325	0.171
-300.778	-129.159	0.066	-0.009
-299.764	-200.000	-0.028	-0.209
-298.749	58.471	-0.042	-0.042
-297.735	800.000	0.080	0.234
-296.720	-16.651	0.112	-0.071
-295.705	315.941	0.100	-0.189
-294.691	-47.952	0.156	-0.076
-293.676	-200.000	0.006	-0.227
-292.662	181.566	-0.157	-0.232
-291.647	16.274	-0.058	-0.046
-290.632	-121.250	0.293	0.049
-289.618	800.000	0.073	0.220
-288.603	44.127	-0.038	0.035
-287.589	-113.749	-0.292	-0.057
-286.574	-56.360	0.186	0.083
-285.559	-20.928	0.078	-0.048
-284.545	105.619	0.290	0.344
-283.530	-200.000	-0.014	0.263
-282.516	24.087	-0.061	0.051
-281.501	-29.995	-0.230	0.132
-280.486	25.274	0.152	-0.127
-279.472	-13.506	0.239	0.155
-278.457	800.000	0.079	-0.255
-277.443	27.749	-0.114	-0.096
-276.428	351.159	-0.052	-0.103
-275.413	800.000	-0.017	0.064
-274.399	3.949	-0.044	-0.032
-273.384	-161.182	0.106	0.006
-272.370	538.480	0.131	0.312
-271.355	82.218	0.111	0.121
-270.340	76.451	-0.016	-0.017
-269.326	-200.000	0.000	0.202
-268.311	-98.009	0.238	-0.062
-267.297	-31.899	0.183	0.103
-266.282	-125.106	0.100	0.015
-265.267	-54.421	0.169	0.077
-264.253	-184.052	-0.157	-0.003
-263.238	147.047	0.201	-0.272
-262.224	-200.000	-0.022	0.187
-261.209	-141.537	0.157	-0.016
-260.195	143.110	0.118	0.157
-259.180	-200.000	0.000	-0.309
-258.165	-200.000	-0.002	-0.094
-257.151	215.827	0.028	0.045
-256.136	308.895	-0.095	-0.177
-255.122	800.000	-0.076	-0.309
-254.107	-85.884	0.179	-0.056
-253.092	-200.000	0.033	0.216
-252.078	41.021	0.030	-0.028
-251.063	-13.268	-0.294	-0.191
-250.049	-200.000	0.009	0.331
-249.034	5.653	0.205	0.152
-248.019	183.326	-0.112	0.166
-247.005	-48.471	0.052	0.025
-245.990	-13.202	0.285	0.186
-244.976	-61.175	-0.094	-0.040
-243.961	-200.000	-0.043	-0.266
-242.946	800.000	-0.052	0.223
-241.932	-128.003	0.132	0.019
-240.917	170.927	-0.045	0.065
-239.903	-176.344	0.201	0.005
-238.888	342.748	-0.090	0.177
-237.873	219.314	0.048	-0.076
-236.859	-200.000	0.009	0.088
-235.844	72.272	0.195	0.203
-234.830	65.799	-0.086	0.088
-233.815	42.208	0.131	-0.119
-232.800	-200.000	0.027	0.122
-231.786	30.301	-0.098	-0.084
-230.771	-200.000	-0.038	0.221
-229.757	23.321	-0.150	0.123
-228.742	224.380	0.166	0.268
-227.727	358.598	0.105	-0.211
-226.713	800.000	-0.072	0.309
-225.698	-55.628	-0.071	0.032
-224.684	154.534	0.186	-0.256
-223.669	220.948	-0.012	-0.019
-222.655	-21.072	-0.079	-0.049
-221.640	-200.000	0.019	-0.093
-220.625	86.798	-0.135	0.150
-219.611	288.176	0.138	0.251
-218.596	-78.040	-0.174	0.060
-217.582	6.361	0.074	-0.055
-216.567	-39.904	-0.316	0.165
-215.552	153.754	0.113	-0.155
-214.538	-200.000	0.016	-0.160
-213.523	10.598	0.244	0.186
-212.509	149.308	0.160	-0.217
-211.494	56.967	0.232	-0.227
-210.479	263.889	0.223	-0.388
-209.465	460.819	-0.088	-0.196
-208.450	800.000	-0.073	-0.320
-207.436	-101.207	-0.334	-0.082
-206.421	-200.000	0.019	0.091
-205.406	18.360	-0.098	-0.078
-204.392	-74.962	-0.291	-0.104
-203.377	-111.571	-0.367	0.075
-202.363	-17.336	-0.159	-0.100
-201.348	-133.255	0.104	0.013
-200.333	-7.393	0.111	0.075
-199.319	-54.810	-0.166	0.075
-198.304	61.806	-0.182	-0.182
-197.290	-117.570	-0.344	0.062
-196.275	710.051	0.037	0.099
-195.260	368.085	-0.067	0.135
-194.246	-32.588	0.153	0.085
-193.231	-200.000	-0.008	-0.111
-192.217	-26.403	-0.280	-0.164
-191.202	-181.856	0.075	-0.001
-190.187	-200.000	0.010	-0.133
-189.173	-117.282	-0.228	0.041
-188.158	26.827	0.059	0.050
-187.144	-131.520	0.181	-0.024
-186.129	800.000	-0.005	0.018
-185.114	21.766	-0.189	0.154
-184.100	-200.000	0.039	0.203
-183.085	335.697	-0.100	-0.193
-182.071	-140.730	0.065	0.007
-181.056	-46.449	-0.156	-0.077
-180.042	-116.216	0.167	0.031
-179.027	-27.529	0.301	0.175
-178.012	-173.992	0.105	-0.003
-176.998	51.676	0.069	0.065
-175.983	-84.529	0.042	0.013
-174.969	-144.360	-0.276	-0.026
-173.954	-0.014	-0.283	-0.201
-172.939	599.270	0.034	-0.083
-171.925	800.000	-0.053	-0.227
-170.910	13.051	0.111	0.086
-169.896	-200.000	0.005	0.482
-168.881	-97.346	-0.141	-0.037
-167.866	-200.000	-0.012	0.061
-166.852	91.640	-0.158	-0.177
-165.837	-117.617	0.146	0.026
-164.823	-152.255	0.267	-0.019
-163.808	220.574	-0.088	-0.141
-162.793	-179.307	-0.126	-0.003
-161.779	29.707	-0.312	-0.265
-160.764	463.684	-0.101	0.225
-159.750	-200.000	0.046	0.326
-158.735	-154.204	0.136	-0.009
-157.720	648.338	0.047	0.120
-156.706	140.120	0.121	0.159
-155.691	-28.110	-0.115	0.066
-154.677	165.664	0.201	0.285
-153.662	-115.222	-0.241	-0.046
-152.647	75.863	0.238	0.251
-151.633	158.705	-0.059	-0.081
-150.618	-141.629	0.127	0.013
-149.604	-167.203	0.140	0.006
-148.589	76.577	-0.075	0.079
-147.574	-200.000	0.075	-0.411
-146.560	-132.727	-0.150	-0.019
-145.545	238.529	-0.103	0.171
-144.531	102.531	0.223	0.260
-143.516	487.787	-0.124	-0.283
-142.502	-200.000	0.011	0.150
-141.487	64.517	0.088	0.088
-140.472	392.980	-0.112	0.233
-139.458	-200.000	-0.011	0.508
-138.443	290.763	0.133	0.242
-137.429	-10.722	-0.277	-0.183
-136.414	-95.521	0.156	0.042
-135.399	-21.492	0.137	-0.084
-134.385	53.519	0.151	-0.144
-133.370	-6.175	0.195	0.133
-132.356	-104.093	0.281	-0.065
-131.341	-200.000	0.008	0.037
-130.326	-101.704	-0.164	0.040
-129.312	249.728	0.294	0.497
-128.297	12.345	0.117	0.090
-127.283	-200.000	0.023	0.364
-126.268	16.860	0.081	0.064
-125.253	-28.859	-0.104	0.060
-124.239	-32.133	-0.255	0.142
-123.224	438.604	-0.090	0.195
-122.210	-41.157	-0.099	-0.051
