DTS Sentinel unit serial number:	SN413079Multiplexer serial number:	ORYXHardware model number:	OX4-SRSoftware version number:	ORYX F/W v4.00 Oryx Data Collector v3.7.2.0data status	okinstallation	princeton_trtdifferential loss correction	single-endedforward channel	channel 1reverse channel	N/Adate	2019/09/19time	00:58:35forward acquisition time	60.00reverse acquisition time	0.00gamma	496.2192k internal	0.2344k external	0.2344temperature offset calibration	1.0020default loss term (dB/km)	0.3790temperature slope calibration	1.0000multiplexer offset coefficient	1.0000multiplexer slope coefficient	1.0000fibre end	0.00T internal ref (°C)	22.00T ext. ref 1 (°C)	0.73T ext. ref 2 (°C)	15.44length (m)	temperature (°C)	Stokes	anti-Stokes-747.200	-91.802	0.090	0.026
-746.185	220.265	-0.386	0.620
-745.171	-64.558	0.156	0.063
-744.156	40.660	-0.187	-0.169
-743.142	61.677	-0.021	0.021
-742.127	-200.000	-0.013	-0.091
-741.112	201.240	-0.136	0.209
-740.098	218.549	-0.144	0.230
-739.083	-32.772	0.155	0.086
-738.069	-74.948	-0.070	-0.025
-737.054	-22.593	0.147	0.089
-736.039	-42.991	-0.364	0.185
-735.025	-59.112	-0.109	0.047
-734.010	-104.227	-0.237	-0.055
-732.996	-200.000	0.003	0.122
-731.981	-200.000	0.033	-0.150
-730.966	149.840	0.345	0.467
-729.952	5.574	-0.146	0.108
-728.937	317.151	0.102	-0.193
-727.923	-200.000	-0.320	-0.000
-726.908	-63.589	0.105	-0.043
-725.894	800.000	-0.058	-0.221
-724.879	107.482	-0.297	-0.353
-723.864	-180.855	0.407	0.008
-722.850	-200.000	0.011	-0.217
-721.835	-200.000	0.047	-0.308
-720.821	63.116	-0.125	0.125
-719.806	308.498	-0.066	0.124
-718.791	-7.456	0.049	0.033
-717.777	549.153	0.093	-0.223
-716.762	-8.085	0.151	-0.102
-715.748	-200.000	-0.010	0.080
-714.733	-80.349	-0.191	-0.064
-713.718	-165.747	-0.284	0.012
-712.704	22.266	0.130	0.106
-711.689	-103.085	-0.310	-0.073
-710.675	-128.517	0.091	0.013
-709.660	182.817	0.147	0.217
-708.645	800.000	0.066	-0.265
-707.631	-200.000	-0.034	-0.172
-706.616	800.000	-0.020	-0.061
-705.602	414.596	0.040	-0.085
-704.587	165.979	-0.149	0.211
-703.572	-31.434	-0.289	0.162
-702.558	54.568	-0.149	-0.144
-701.543	178.806	0.142	-0.207
-700.529	67.229	-0.134	-0.136
-699.514	-200.000	0.029	0.223
-698.499	-36.385	-0.315	0.170
-697.485	355.891	0.142	-0.282
-696.470	130.458	-0.162	-0.207
-695.456	34.279	-0.104	-0.091
-694.441	143.424	-0.019	0.025
-693.426	-200.000	0.060	-0.476
-692.412	111.847	-0.090	-0.109
-691.397	-72.183	-0.239	-0.089
-690.383	-18.822	0.215	-0.134
-689.368	341.706	0.149	-0.290
-688.354	-8.776	-0.379	-0.254
-687.339	-56.182	0.075	0.033
-686.324	-58.714	0.241	0.104
-685.310	641.729	-0.077	-0.195
-684.295	-200.000	0.004	-0.050
-683.281	231.879	0.185	-0.304
-682.266	-20.299	0.238	0.146
-681.251	-200.000	0.064	-0.324
-680.237	35.513	-0.068	0.060
-679.222	-200.000	-0.036	0.231
-678.208	-98.727	0.257	-0.065
-677.193	-200.000	-0.047	0.305
-676.178	-200.000	-0.023	0.184
-675.164	21.749	-0.153	-0.125
-674.149	-106.395	-0.251	0.056
-673.135	179.216	0.186	-0.271
-672.120	-200.000	-0.003	-0.021
-671.105	8.111	-0.160	0.120
-670.091	236.634	0.044	-0.073
-669.076	75.384	0.305	-0.321
-668.062	57.626	-0.078	-0.076
-667.047	18.795	-0.057	-0.045
-666.032	266.248	0.135	0.235
-665.018	37.414	-0.127	0.113
-664.003	-163.676	-0.252	-0.012
-662.989	-200.000	0.043	-0.365
-661.974	-65.262	-0.191	0.077
-660.959	-107.705	0.088	-0.019
-659.945	-120.134	-0.234	-0.040
-658.930	90.066	-0.152	-0.170
-657.916	-149.018	0.309	-0.025
-656.901	-143.432	0.340	0.032
-655.886	-200.000	-0.009	0.109
-654.872	44.155	-0.058	-0.053
-653.857	-49.297	-0.029	0.014
-652.843	-72.304	-0.359	0.133
-651.828	-94.541	0.431	0.117
-650.814	-200.000	-0.018	-0.164
-649.799	-45.170	-0.410	-0.203
-648.784	29.341	0.046	-0.039
-647.770	-200.000	0.006	-0.173
-646.755	96.781	-0.134	0.154
-645.741	-200.000	-0.024	0.159
-644.726	152.898	0.064	-0.088
-643.711	15.971	-0.058	0.045
-642.697	-72.174	0.137	0.051
-641.682	-200.000	0.006	0.041
-640.668	-200.000	0.037	-0.165
-639.653	54.688	0.060	-0.057
-638.638	339.550	-0.072	-0.140
-637.624	155.062	-0.055	-0.075
-636.609	-22.751	0.111	0.067
-635.595	-134.203	0.242	0.030
-634.580	800.000	-0.022	0.095
-633.565	317.920	-0.114	0.214
-632.551	-200.000	-0.019	0.209
-631.536	-55.309	-0.175	0.078
-630.522	36.204	0.173	-0.152
-629.507	240.082	-0.086	0.142
-628.492	-121.712	-0.104	-0.017
-627.478	10.054	-0.334	-0.252
-626.463	50.770	-0.276	-0.260
-625.449	124.528	-0.141	0.177
-624.434	388.552	-0.211	-0.435
-623.419	361.530	0.096	-0.192
-622.405	-162.176	-0.150	-0.007
-621.390	134.103	0.187	0.241
-620.376	5.063	0.204	0.149
-619.361	-159.700	-0.119	0.007
-618.346	-3.424	0.207	-0.144
-617.332	-124.535	-0.438	-0.068
-616.317	-163.125	0.178	-0.009
-615.303	-200.000	-0.013	-0.249
-614.288	232.524	0.133	0.217
-613.273	800.000	0.116	-0.345
-612.259	-200.000	-0.011	-0.191
-611.244	218.943	0.246	0.391
-610.230	513.928	-0.024	0.056
-609.215	52.783	0.273	-0.259
-608.201	118.999	-0.100	0.123
-607.186	-46.604	-0.181	-0.088
-606.171	2.555	0.208	0.150
-605.157	219.156	-0.073	0.116
-604.142	6.194	-0.091	-0.067
-603.128	191.232	0.101	0.152
-602.113	-151.867	0.237	0.017
-601.098	-49.058	-0.154	-0.073
-600.084	131.426	-0.149	0.191
-599.069	-91.399	-0.109	0.031
-598.055	-57.828	-0.412	0.179
-597.040	-62.216	-0.215	-0.089
-596.025	-19.370	-0.052	-0.032
-595.011	-200.000	0.000	0.122
-593.996	800.000	0.069	0.260
-592.982	611.364	-0.050	0.125
-591.967	166.033	0.128	0.180
-590.952	-200.000	-0.008	0.249
-589.938	-116.306	-0.432	0.080
-588.923	-148.012	-0.187	0.015
-587.909	-72.016	-0.342	0.127
-586.894	-154.150	0.254	0.017
-585.879	70.227	-0.086	-0.089
-584.865	-69.920	0.090	-0.034
-583.850	-56.801	0.162	0.071
-582.836	800.000	0.072	-0.206
-581.821	600.391	0.102	-0.253
-580.806	-200.000	0.044	0.212
-579.792	2.854	-0.060	-0.044
-578.777	800.000	-0.055	-0.217
-577.763	-200.000	-0.049	0.264
-576.748	181.844	0.087	-0.128
-575.733	-87.474	0.092	0.028
-574.719	800.000	-0.097	0.293
-573.704	-4.651	0.142	-0.098
-572.690	-169.340	0.175	0.006
-571.675	-0.411	0.112	0.079
-570.661	-200.000	-0.020	0.114
-569.646	800.000	-0.120	-0.389
-568.631	-200.000	-0.036	-0.182
-567.617	35.302	0.177	-0.154
-566.602	-109.023	-0.144	0.030
-565.588	800.000	-0.110	0.329
-564.573	-200.000	0.003	0.554
-563.558	236.698	-0.236	0.388
-562.544	-121.141	0.220	0.037
-561.529	-200.000	0.018	0.095
-560.515	-200.000	0.036	-0.175
-559.500	37.283	-0.142	0.125
-558.485	181.166	0.155	0.227
-557.471	104.069	-0.049	0.058
-556.456	-200.000	-0.018	0.211
-555.442	-195.825	-0.095	0.001
-554.427	-200.000	-0.009	0.058
-553.412	509.836	0.037	-0.086
-552.398	121.361	-0.096	-0.118
-551.383	104.895	0.224	0.263
-550.369	87.695	0.175	-0.193
-549.354	-200.000	-0.021	-0.180
-548.339	37.247	0.158	-0.139
-547.325	-200.000	-0.045	-0.249
-546.310	-29.637	-0.110	-0.063
-545.296	-200.000	-0.023	-0.141
-544.281	694.187	0.136	0.354
-543.266	-131.743	-0.206	0.027
-542.252	-200.000	-0.010	0.096
-541.237	-53.476	0.169	-0.077
-540.223	-75.388	-0.262	0.093
-539.208	800.000	-0.064	0.263
-538.193	248.523	-0.082	-0.137
-537.179	182.078	0.245	0.358
-536.164	671.615	0.069	0.178
-535.150	-114.895	-0.252	-0.048
-534.135	-200.000	0.006	-0.309
-533.121	-200.000	0.001	-0.131
-532.106	-85.767	-0.302	-0.093
-531.091	344.530	0.169	-0.329
-530.077	-98.464	0.203	0.052
-529.062	14.815	-0.121	0.094
-528.048	-119.459	0.208	0.036
-527.033	-184.051	-0.426	0.007
-526.018	25.366	0.243	-0.200
-525.004	800.000	0.032	-0.111
-523.989	-22.923	-0.043	-0.026
-522.975	-25.574	-0.312	0.183
-521.960	361.132	-0.054	0.108
-520.945	-107.599	-0.104	-0.023
-519.931	-200.000	-0.004	-0.250
-518.916	800.000	0.063	-0.204
-517.902	-35.784	-0.178	-0.096
-516.887	-58.163	-0.255	-0.110
-515.872	-78.676	0.173	0.059
-514.858	800.000	0.045	-0.180
-513.843	102.006	-0.215	0.249
-512.829	-200.000	-0.013	0.089
-511.814	-83.870	0.113	-0.036
-510.799	800.000	0.134	-0.409
-509.785	800.000	-0.079	-0.233
-508.770	800.000	0.072	-0.269
-507.756	-133.005	0.120	0.015
-506.741	-18.519	0.049	0.030
-505.726	-200.000	-0.005	0.433
-504.712	-200.000	-0.023	0.155
-503.697	-200.000	-0.036	-0.213
-502.683	-139.940	-0.110	-0.012
-501.668	-200.000	-0.018	0.105
-500.653	14.494	0.160	0.123
-499.639	800.000	0.085	-0.247
-498.624	336.545	-0.248	0.478
-497.610	4.327	0.406	-0.295
-496.595	-76.892	0.322	-0.112
-495.581	702.204	0.147	-0.385
-494.566	-92.254	-0.447	-0.125
-493.551	69.239	-0.019	0.019
-492.537	-68.926	0.110	0.042
-491.522	-147.371	-0.085	0.007
-490.508	-27.515	-0.225	-0.130
-489.493	-200.000	-0.026	-0.336
-488.478	-94.419	-0.141	0.038
-487.464	-200.000	0.041	0.279
-486.449	800.000	-0.054	-0.206
-485.435	-200.000	0.056	0.263
-484.420	197.725	-0.062	-0.094
-483.405	-112.762	0.389	0.076
-482.391	83.917	-0.129	-0.140
-481.376	-200.000	0.045	0.368
-480.362	169.853	0.134	0.190
-479.347	800.000	-0.020	-0.064
-478.332	346.038	-0.163	0.317
-477.318	59.903	-0.140	0.137
-476.303	265.499	0.053	-0.092
-475.289	359.595	0.162	-0.321
-474.274	-19.873	0.046	0.028
-473.259	119.043	0.279	-0.342
-472.245	349.519	-0.036	-0.070
-471.230	-199.565	-0.267	0.001
-470.216	-75.791	0.165	0.058
-469.201	87.116	0.053	0.058
-468.186	-114.897	0.302	0.057
-467.172	-23.467	-0.226	-0.134
-466.157	24.807	-0.126	0.103
-465.143	16.891	0.324	0.254
-464.128	-82.806	-0.245	-0.078
-463.113	800.000	0.115	-0.349
-462.099	-46.516	0.230	0.112
-461.084	77.211	0.040	0.042
-460.070	120.354	-0.135	0.167
-459.055	-200.000	0.019	0.204
-458.040	800.000	0.156	0.538
-457.026	-200.000	-0.016	-0.111
-456.011	-127.822	-0.126	-0.018
-454.997	-77.237	-0.017	0.006
-453.982	-73.188	-0.180	0.065
-452.968	-113.682	0.147	-0.028
-451.953	22.614	-0.174	-0.141
-450.938	800.000	0.034	0.108
-449.924	800.000	0.080	-0.325
-448.909	53.041	-0.187	-0.178
-447.895	-200.000	-0.002	0.059
-446.880	15.207	-0.100	0.077
-445.865	-141.045	-0.156	0.016
-444.851	-72.742	-0.259	0.094
-443.836	-3.576	-0.010	-0.007
-442.822	-200.000	-0.035	-0.184
-441.807	305.116	0.094	-0.174
-440.792	-141.588	-0.259	0.026
-439.778	-200.000	-0.004	-0.189
-438.763	-158.621	-0.028	-0.002
-437.749	336.764	0.048	0.091
-436.734	-200.000	0.012	0.213
-435.719	-13.501	0.157	-0.100
-434.705	276.818	-0.286	0.502
-433.690	107.186	-0.030	0.035
-432.676	387.631	-0.078	-0.159
-431.661	97.959	0.149	-0.169
-430.646	25.883	0.072	-0.060
-429.632	-8.253	-0.107	0.071
-428.617	-200.000	-0.060	-0.363
-427.603	-59.162	0.243	0.103
-426.588	206.946	0.134	0.206
-425.573	-85.374	-0.091	0.028
-424.559	-60.683	-0.219	0.092
-423.544	5.028	0.181	0.132
-422.530	-173.481	-0.320	0.010
-421.515	-200.000	0.095	0.427
-420.500	-87.566	-0.300	-0.089
-419.486	201.886	0.100	-0.152
-418.471	18.340	0.201	0.158
-417.457	-25.492	-0.151	0.088
-416.442	-168.431	-0.114	0.004
-415.428	-122.114	0.092	0.015
-414.413	-100.676	0.151	0.037
-413.398	-131.130	0.157	-0.021
-412.384	800.000	0.081	0.235
-411.369	29.289	-0.083	0.070
-410.355	-200.000	0.031	-0.175
-409.340	-200.000	-0.053	0.287
-408.325	259.249	0.104	0.177
-407.311	104.992	0.085	0.099
-406.296	601.055	0.080	0.196
-405.282	-81.399	-0.275	-0.089
-404.267	-200.000	0.069	0.310
-403.252	21.732	0.212	0.171
-402.238	-200.000	-0.042	0.216
-401.223	687.985	-0.019	0.050
-400.209	-52.904	-0.058	0.026
-399.194	-43.614	0.368	-0.183
-398.179	-81.283	0.052	-0.017
-397.165	67.456	-0.168	0.169
-396.150	541.054	-0.088	-0.208
-395.136	454.028	0.075	0.165
-394.121	54.439	0.123	-0.117
-393.106	-24.245	0.286	-0.168
-392.092	31.730	0.331	-0.281
-391.077	-60.139	-0.279	0.117
-390.063	-106.382	-0.207	-0.046
-389.048	-109.264	-0.336	-0.070
-388.033	-77.367	0.181	0.062
-387.019	131.043	0.064	-0.082
-386.004	-103.980	0.254	0.058
-384.990	-200.000	0.023	-0.210
-383.975	-200.000	0.040	-0.178
-382.960	133.902	-0.151	0.193
-381.946	-200.000	0.091	0.451
-380.931	785.714	0.104	-0.281
-379.917	175.890	-0.135	-0.193
-378.902	-17.685	-0.128	-0.080
-377.888	-103.849	0.194	-0.045
-376.873	800.000	-0.098	0.283
-375.858	-103.695	0.140	-0.032
-374.844	475.068	0.118	0.263
-373.829	800.000	0.043	-0.136
-372.815	-200.000	-0.009	0.110
-371.800	120.316	0.074	0.091
-370.785	655.303	0.122	0.310
-369.771	223.434	0.121	0.193
-368.756	-119.338	0.089	0.015
-367.742	793.333	-0.084	-0.227
-366.727	-12.554	-0.192	0.124
-365.712	-105.103	0.131	0.030
-364.698	-156.008	0.260	0.016
-363.683	-136.951	-0.120	0.014
-362.669	200.663	0.160	0.243
-361.654	69.895	-0.114	-0.116
-360.639	68.538	-0.145	-0.147
-359.625	-110.636	-0.055	0.011
-358.610	672.657	-0.104	-0.266
-357.596	-70.717	0.105	0.039
-356.581	-178.953	0.196	-0.004
-355.566	-200.000	0.264	0.001
-354.552	58.923	0.116	0.112
-353.537	-26.711	-0.335	-0.193
-352.523	-200.000	0.039	-0.362
-351.508	-200.000	0.029	0.252
-350.493	41.489	-0.055	-0.049
-349.479	-20.326	0.282	0.171
-348.464	99.980	0.112	-0.128
-347.450	51.443	-0.151	-0.141
-346.435	-137.582	0.122	-0.014
-345.420	-52.605	0.128	-0.058
-344.406	-200.000	0.018	0.128
-343.391	146.430	0.245	0.325
-342.377	184.638	0.091	-0.132
-341.362	70.524	0.200	-0.204
-340.348	-144.014	-0.326	-0.030
-339.333	61.088	0.234	-0.229
-338.318	198.165	0.056	0.084
-337.304	331.405	-0.160	0.304
-336.289	-114.925	-0.209	0.039
-335.275	-200.000	0.070	-0.335
-334.260	152.269	0.188	-0.252
-333.245	-172.227	-0.168	-0.005
-332.231	-200.000	-0.036	0.168
-331.216	267.163	-0.054	-0.093
-330.202	-101.591	-0.291	0.070
-329.187	37.904	0.203	-0.178
-328.172	64.368	0.035	0.035
-327.158	-64.723	-0.255	0.102
-326.143	-69.162	-0.378	0.143
-325.129	100.576	0.203	0.232
-324.114	-200.000	0.024	-0.168
-323.099	97.114	-0.235	-0.266
-322.085	800.000	-0.047	-0.169
-321.070	-135.583	0.482	-0.056
-320.056	540.936	-0.088	-0.207
-319.041	-200.000	-0.000	-0.190
-318.026	-32.450	-0.051	-0.028
-317.012	-44.144	-0.200	-0.099
-315.997	93.684	0.062	-0.069
-314.983	800.000	0.047	-0.187
-313.968	443.692	-0.101	-0.217
-312.953	-16.876	-0.293	-0.182
-311.939	-18.722	0.239	-0.146
-310.924	143.620	-0.211	0.276
-309.910	-104.482	-0.260	-0.059
-308.895	623.446	0.014	0.035
-307.880	-84.899	0.383	0.118
-306.866	19.933	-0.376	0.298
-305.851	800.000	0.062	0.209
-304.837	800.000	-0.099	-0.296
-303.822	-200.000	-0.013	0.111
-302.807	206.138	0.048	-0.073
-301.793	-200.000	-0.015	-0.202
-300.778	800.000	-0.066	-0.265
-299.764	33.481	0.101	0.086
-298.749	202.197	-0.095	0.144
-297.735	800.000	0.069	0.293
-296.720	-54.269	0.063	-0.028
-295.705	50.308	0.038	0.035
-294.691	-200.000	0.043	0.268
-293.676	-65.296	-0.003	0.001
-292.662	50.880	0.091	0.085
-291.647	800.000	0.066	0.243
-290.632	239.733	-0.084	0.138
-289.618	-65.200	0.274	-0.109
-288.603	-129.783	-0.107	0.014
-287.589	90.969	0.110	0.121
-286.574	-33.740	0.238	0.129
-285.559	-47.121	-0.078	0.037
-284.545	148.316	-0.139	-0.184
-283.530	3.399	-0.156	0.112
-282.516	800.000	-0.076	0.302
-281.501	76.146	-0.062	-0.065
-280.486	99.346	-0.304	0.345
-279.472	-59.529	-0.192	-0.081
-278.457	-121.457	-0.248	-0.040
-277.443	-47.119	0.225	-0.108
-276.428	19.546	0.151	0.119
-275.413	-106.309	0.266	0.059
-274.399	255.773	0.113	-0.190
-273.384	5.662	-0.178	-0.129
-272.370	-200.000	0.002	-0.354
-271.355	-95.132	-0.186	0.049
-270.340	30.509	0.047	0.040
-269.326	-200.000	-0.043	-0.411
-268.311	-35.562	-0.143	-0.076
-267.297	-200.000	0.025	0.131
-266.282	-98.161	0.239	0.060
-265.267	-148.262	-0.210	0.017
-264.253	417.966	0.113	0.238
-263.238	107.467	0.052	0.061
-262.224	-200.000	-0.015	-0.413
-261.209	-139.946	-0.135	-0.014
-260.195	265.605	0.077	0.132
-259.180	800.000	0.055	-0.164
-258.165	-112.081	0.202	0.040
-257.151	-158.203	0.040	-0.002
-256.136	-185.846	0.306	0.004
-255.122	461.675	0.127	-0.278
-254.107	-200.000	0.013	-0.129
-253.092	-200.000	-0.035	0.168
-252.078	800.000	0.059	0.242
-251.063	-54.303	-0.037	0.017
-250.049	75.874	0.295	-0.306
-249.034	60.105	0.120	-0.117
-248.019	133.227	-0.381	0.484
-247.005	-30.943	0.130	-0.072
-245.990	800.000	0.044	0.122
-244.976	800.000	0.094	-0.388
-243.961	-200.000	0.052	-0.442
-242.946	-140.422	-0.156	-0.016
-241.932	19.474	-0.368	0.290
-240.917	-117.601	-0.164	0.029
-239.903	140.443	-0.105	-0.136
-238.888	249.038	-0.132	0.219
-237.873	489.731	0.014	-0.030
-236.859	56.103	0.078	-0.074
-235.844	-62.600	0.198	-0.081
-234.830	160.984	0.174	-0.238
-233.815	-163.853	0.256	0.012
-232.800	332.729	-0.049	-0.093
-231.786	-105.805	0.458	0.101
-230.771	40.085	0.154	-0.136
-229.757	-74.954	0.243	0.085
-228.742	410.729	-0.052	-0.109
-227.727	-51.337	0.043	0.020
-226.713	31.194	0.258	0.217
-225.698	-56.141	-0.312	0.136
-224.684	-113.491	0.440	0.085
-223.669	-11.891	0.091	-0.058
-222.655	38.552	-0.026	0.023
-221.640	-200.000	-0.011	0.257
-220.625	-200.000	0.005	-0.166
-219.611	-200.000	0.025	0.191
-218.596	15.665	0.267	0.206
-217.582	-1.249	-0.183	0.127
-216.567	428.574	0.242	-0.512
-215.552	24.713	-0.102	-0.083
-214.538	73.204	-0.123	-0.126
-213.523	22.376	-0.140	-0.112
-212.509	118.727	0.161	-0.195
-211.494	-133.449	-0.331	-0.041
-210.479	-39.568	-0.137	0.070
-209.465	-132.892	-0.296	0.037
-208.450	637.452	0.041	-0.102
-207.436	232.764	0.181	-0.292
-206.421	-200.000	-0.024	0.293
-205.406	-47.165	0.641	-0.306
-204.392	93.374	0.181	-0.201
-203.377	-120.332	-0.447	0.075
-202.363	2.393	0.191	0.135
-201.348	78.110	-0.213	-0.222
-200.333	-80.746	0.237	0.077
-199.319	-1.795	-0.046	0.032
-198.304	-89.379	-0.206	0.059
-197.290	72.263	0.141	-0.144
-196.275	-49.297	0.208	-0.097
-195.260	60.775	0.178	-0.173
-194.246	106.847	-0.219	0.254
-193.231	-44.377	-0.081	0.040
-192.217	127.385	-0.118	-0.146
-191.202	51.027	-0.081	-0.075
-190.187	-5.501	-0.193	-0.130
-189.173	-141.959	-0.490	-0.048
-188.158	36.822	0.303	-0.262
-187.144	267.373	0.050	0.086
-186.129	-91.937	-0.114	-0.032
-185.114	-4.131	-0.098	0.067
-184.100	-93.817	0.222	0.060
-183.085	800.000	-0.079	-0.240
-182.071	374.842	-0.134	-0.267
-181.056	800.000	0.082	-0.300
-180.042	-200.000	-0.034	0.218
-179.027	-33.033	-0.130	0.071
-178.012	-200.000	-0.010	0.085
-176.998	343.946	0.059	-0.112
-175.983	-200.000	-0.015	-0.115
-174.969	800.000	-0.040	0.159
-173.954	71.352	0.104	0.106
-172.939	-200.000	-0.003	0.090
-171.925	-200.000	0.046	0.287
-170.910	263.277	-0.101	0.172
-169.896	481.002	0.014	0.031
-168.881	-79.203	0.105	-0.035
-167.866	48.590	-0.147	-0.135
-166.852	462.288	0.135	-0.295
-165.837	193.283	0.199	0.294
-164.823	-109.488	-0.521	-0.108
-163.808	135.071	-0.213	0.271
-162.793	179.896	-0.152	0.218
-161.779	40.033	0.164	0.145
-160.764	-200.000	0.019	0.101
-159.750	18.210	-0.198	-0.154
-158.735	-200.000	0.097	0.586
-157.720	734.704	-0.062	-0.163
-156.706	51.284	0.207	-0.192
-155.691	373.076	-0.229	0.456
-154.677	800.000	-0.005	-0.016
-153.662	81.486	0.201	-0.213
-152.647	-3.801	0.256	-0.174
-151.633	800.000	0.108	-0.432
-150.618	-14.819	-0.145	-0.091
-149.604	-76.363	-0.214	0.074
-148.589	132.385	-0.111	0.140
-147.574	204.390	-0.144	0.218
-146.560	106.096	-0.337	0.390
-145.545	18.162	0.355	0.277
-144.531	-14.932	-0.147	-0.092
-143.516	19.112	-0.326	0.255
-142.502	-200.000	0.017	-0.214
-141.487	-86.819	-0.128	0.038
-140.472	164.640	0.027	0.037
-139.458	-200.000	0.022	0.107
-138.443	318.803	0.138	0.256
-137.429	-200.000	0.101	0.485
-136.414	-1.648	0.246	-0.169
-135.399	-80.181	0.368	-0.120
-134.385	-6.594	0.314	0.209
-133.370	33.963	0.080	0.068
-132.356	800.000	0.093	0.267
-131.341	-86.656	-0.290	0.087
-130.326	-62.882	-0.225	0.091
-129.312	-34.264	0.165	0.088
-128.297	106.587	0.135	-0.156
-127.283	236.515	0.045	0.074
-126.268	-74.844	0.101	0.036
-125.253	78.531	-0.145	-0.151
-124.239	267.510	0.077	0.132
-123.224	63.417	0.265	0.260
-122.210	-97.594	0.338	0.086
-121.195	-46.290	0.288	0.138
-120.180	-200.000	-0.008	0.274
