DTS Sentinel unit serial number:	SN413079Multiplexer serial number:	ORYXHardware model number:	OX4-SRSoftware version number:	ORYX F/W v4.00 Oryx Data Collector v3.7.2.0data status	okinstallation	princeton_trtdifferential loss correction	single-endedforward channel	channel 1reverse channel	N/Adate	2019/09/17time	21:38:35forward acquisition time	60.00reverse acquisition time	0.00gamma	496.2192k internal	0.2339k external	0.2339temperature offset calibration	0.9976default loss term (dB/km)	0.3790temperature slope calibration	1.0000multiplexer offset coefficient	1.0000multiplexer slope coefficient	1.0000fibre end	0.00T internal ref (°C)	26.81T ext. ref 1 (°C)	0.17T ext. ref 2 (°C)	19.11length (m)	temperature (°C)	Stokes	anti-Stokes-747.200	-12.080	0.281	0.185
-746.185	800.000	-0.055	0.232
-745.171	-78.469	-0.373	-0.128
-744.156	-200.000	-0.013	0.194
-743.142	238.411	0.219	0.364
-742.127	800.000	0.092	0.373
-741.112	-200.000	-0.018	0.258
-740.098	-27.219	-0.262	0.153
-739.083	800.000	0.054	-0.172
-738.069	-84.268	-0.367	0.116
-737.054	-38.223	-0.158	0.084
-736.039	-57.173	0.151	-0.067
-735.025	19.720	0.145	-0.117
-734.010	402.855	0.015	-0.032
-732.996	-200.000	-0.035	-0.159
-731.981	-200.000	0.027	-0.348
-730.966	404.112	-0.070	-0.148
-729.952	-82.201	-0.063	-0.021
-728.937	147.987	0.078	-0.105
-727.923	-200.000	-0.106	0.554
-726.908	800.000	-0.018	0.075
-725.894	764.994	-0.033	0.090
-724.879	-6.698	-0.074	-0.050
-723.864	-200.000	0.001	-0.250
-722.850	514.531	0.063	-0.148
-721.835	696.036	0.048	-0.126
-720.821	-124.625	-0.268	0.042
-719.806	-128.721	0.133	-0.019
-718.791	800.000	0.131	0.395
-717.777	-97.378	0.088	0.023
-716.762	-200.000	-0.001	0.036
-715.748	-2.494	0.194	0.136
-714.733	-24.721	0.177	-0.106
-713.718	-1.611	-0.122	-0.086
-712.704	-6.750	0.300	0.204
-711.689	-38.613	-0.117	-0.062
-710.675	-130.408	-0.175	0.024
-709.660	120.077	-0.096	-0.119
-708.645	-200.000	0.007	0.171
-707.631	-120.754	-0.168	-0.028
-706.616	-118.706	0.342	-0.060
-705.602	-16.141	-0.233	0.148
-704.587	0.786	0.197	0.141
-703.572	31.521	0.131	0.113
-702.558	800.000	-0.075	0.214
-701.543	-176.293	0.498	-0.013
-700.529	710.226	0.053	-0.141
-699.514	274.188	-0.124	0.219
-698.499	-145.927	-0.073	0.007
-697.485	296.091	-0.189	-0.347
-696.470	-39.615	-0.156	-0.082
-695.456	194.057	-0.043	-0.065
-694.441	-182.078	0.313	0.006
-693.426	41.188	0.189	-0.171
-692.412	342.358	0.211	-0.412
-691.397	-200.000	-0.007	0.033
-690.383	31.481	0.029	0.025
-689.368	123.352	-0.090	0.113
-688.354	50.949	-0.518	0.492
-687.339	-94.431	0.169	-0.046
-686.324	726.632	-0.116	-0.311
-685.310	-108.821	-0.330	-0.071
-684.295	312.480	-0.143	-0.268
-683.281	-179.197	-0.065	-0.001
-682.266	-114.038	-0.253	0.049
-681.251	119.322	0.262	-0.325
-680.237	41.718	0.291	-0.263
-679.222	-200.000	0.022	-0.097
-678.208	800.000	-0.068	0.294
-677.193	-131.978	-0.311	-0.040
-676.178	800.000	-0.100	-0.316
-675.164	-200.000	0.041	-0.189
-674.149	382.542	0.052	0.107
-673.135	-200.000	0.028	-0.233
-672.120	800.000	0.032	-0.100
-671.105	-200.000	-0.006	-0.123
-670.091	7.623	0.215	-0.161
-669.076	-168.490	0.278	-0.011
-668.062	59.233	-0.103	-0.101
-667.047	-200.000	-0.133	0.000
-666.032	800.000	0.058	-0.188
-665.018	35.130	0.298	-0.261
-664.003	-115.543	-0.272	0.051
-662.989	-166.793	0.192	0.008
-661.974	58.350	-0.217	-0.213
-660.959	144.480	0.019	0.025
-659.945	-98.739	0.142	-0.036
-658.930	126.226	-0.051	-0.064
-657.916	-35.827	0.235	-0.127
-656.901	229.681	0.093	0.153
-655.886	183.460	-0.050	-0.073
-654.872	-77.877	-0.103	0.036
-653.857	-167.025	0.316	0.013
-652.843	-93.470	-0.409	0.113
-651.828	-51.905	-0.167	0.078
-650.814	-158.267	-0.198	-0.012
-649.799	64.103	0.085	-0.086
-648.784	-106.374	-0.199	0.044
-647.770	12.306	-0.251	-0.193
-646.755	-172.326	0.217	-0.007
-645.741	-151.416	0.495	0.037
-644.726	58.955	-0.206	0.202
-643.711	-161.306	-0.035	-0.002
-642.697	-200.000	0.088	-0.388
-641.682	95.937	0.186	-0.213
-640.668	319.882	0.087	0.165
-639.653	-119.213	-0.183	-0.032
-638.638	-66.940	-0.198	-0.078
-637.624	140.831	-0.241	0.319
-636.609	301.518	0.048	0.089
-635.595	-112.612	-0.345	0.069
-634.580	97.665	-0.166	-0.190
-633.565	42.314	-0.276	0.251
-632.551	481.697	-0.077	-0.174
-631.536	-27.929	-0.101	-0.058
-630.522	-200.000	0.000	-0.102
-629.507	303.014	-0.090	-0.166
-628.492	17.105	0.237	0.188
-627.478	-200.000	-0.001	-0.172
-626.463	-182.368	-0.471	-0.009
-625.449	83.873	0.125	0.137
-624.434	-200.000	-0.000	0.132
-623.419	73.706	-0.258	0.270
-622.405	-200.000	0.001	-0.328
-621.390	-121.920	-0.245	-0.040
-620.376	86.142	0.136	0.150
-619.361	204.322	-0.087	0.135
-618.346	262.878	-0.218	-0.378
-617.332	10.810	-0.230	0.175
-616.317	146.192	-0.167	-0.224
-615.303	107.999	0.125	-0.148
-614.288	-149.806	-0.331	-0.026
-613.273	315.822	0.081	-0.153
-612.259	-200.000	-0.007	-0.046
-611.244	-53.945	-0.095	-0.043
-610.230	-87.772	-0.222	-0.067
-609.215	-130.793	-0.137	0.018
-608.201	-200.000	-0.017	-0.274
-607.186	-112.196	0.180	-0.036
-606.171	526.734	-0.041	0.097
-605.157	138.142	-0.186	-0.244
-604.142	-200.000	-0.016	0.087
-603.128	546.904	-0.106	-0.254
-602.113	-136.370	0.376	-0.044
-601.098	80.685	0.094	0.102
-600.084	-200.000	-0.061	-0.285
-599.069	229.555	-0.220	-0.359
-598.055	-200.000	0.007	-0.087
-597.040	-50.132	-0.259	0.122
-596.025	60.850	0.182	-0.180
-595.011	-7.088	0.051	0.034
-593.996	800.000	-0.079	0.218
-592.982	-200.000	-0.010	-0.042
-591.967	-73.283	-0.359	-0.131
-590.952	-15.240	0.334	0.213
-589.938	63.164	-0.121	-0.121
-588.923	-75.678	0.073	0.026
-587.909	83.001	0.321	-0.348
-586.894	-178.071	0.271	-0.006
-585.879	256.699	0.024	0.042
-584.865	302.450	-0.049	0.091
-583.850	-200.000	-0.010	-0.102
-582.836	70.606	-0.163	0.168
-581.821	800.000	-0.040	0.118
-580.806	-15.967	-0.079	-0.050
-579.792	88.165	-0.053	-0.059
-578.777	-79.730	-0.163	0.055
-577.763	178.864	0.240	-0.349
-576.748	-25.232	0.104	0.061
-575.733	800.000	0.116	0.355
-574.719	331.615	-0.128	-0.246
-573.704	-90.436	-0.354	-0.102
-572.690	289.733	0.093	0.168
-571.675	-45.511	0.067	-0.033
-570.661	420.483	-0.040	0.085
-569.646	-200.000	0.023	-0.240
-568.631	240.269	0.154	0.256
-567.617	-200.000	-0.081	0.424
-566.602	-200.000	0.029	0.341
-565.588	800.000	0.029	0.113
-564.573	260.227	-0.077	-0.133
-563.558	16.403	0.278	0.218
-562.544	-200.000	0.012	-0.174
-561.529	-67.903	0.195	-0.076
-560.515	-26.409	-0.164	-0.096
-559.500	800.000	0.050	-0.147
-558.485	106.316	0.026	-0.031
-557.471	-86.144	-0.181	0.056
-556.456	-47.775	0.271	-0.131
-555.442	-156.326	-0.220	0.014
-554.427	92.652	0.203	0.228
-553.412	-200.000	0.014	-0.085
-552.398	-168.208	-0.405	-0.016
-551.383	36.650	0.072	-0.063
-550.369	531.389	0.089	0.210
-549.354	-53.253	0.128	0.058
-548.339	-200.000	0.074	-0.387
-547.325	-172.568	0.197	-0.006
-546.310	11.130	-0.156	0.119
-545.296	-98.336	0.318	0.081
-544.281	-117.331	-0.066	0.012
-543.266	-78.805	0.090	-0.030
-542.252	-110.744	0.259	-0.053
-541.237	-99.333	-0.432	-0.108
-540.223	-117.968	0.281	0.050
-539.208	800.000	-0.067	-0.218
-538.193	73.714	-0.052	0.054
-537.179	-29.333	0.135	-0.077
-536.164	-200.000	0.015	0.186
-535.150	-84.852	-0.084	-0.026
-534.135	90.129	-0.148	0.165
-533.121	30.491	0.151	-0.129
-532.106	72.560	0.147	-0.153
-531.091	-172.363	0.123	0.004
-530.077	-59.359	-0.021	0.009
-529.062	-107.349	-0.269	0.059
-528.048	-49.619	-0.090	-0.043
-527.033	1.259	-0.347	-0.248
-526.018	800.000	-0.051	-0.221
-525.004	-200.000	0.024	0.175
-523.989	149.761	-0.056	0.075
-522.975	193.903	0.167	0.251
-521.960	98.182	-0.182	-0.208
-520.945	92.340	-0.067	0.075
-519.931	-30.786	-0.174	0.098
-518.916	-122.450	0.276	-0.045
-517.902	19.914	-0.357	-0.286
-516.887	67.855	0.163	0.166
-515.872	-63.319	0.362	-0.148
-514.858	53.099	-0.246	0.234
-513.843	-34.822	0.218	-0.119
-512.829	-23.804	-0.165	0.098
-511.814	-79.675	-0.488	0.163
-510.799	-68.202	-0.293	0.113
-509.785	43.230	0.154	-0.139
-508.770	-200.000	-0.002	-0.090
-507.756	-79.325	-0.243	0.082
-506.741	-200.000	0.038	-0.221
-505.726	-156.304	-0.055	-0.003
-504.712	81.038	-0.198	0.212
-503.697	-36.541	-0.223	0.119
-502.683	800.000	-0.086	0.236
-501.668	-200.000	-0.071	0.374
-500.653	334.037	0.101	-0.194
-499.639	-200.000	0.024	-0.254
-498.624	-64.107	0.273	-0.111
-497.610	-102.412	0.316	-0.075
-496.595	-67.948	-0.154	0.060
-495.581	-95.659	0.110	-0.029
-494.566	-176.584	0.150	-0.004
-493.551	-4.538	0.174	-0.120
-492.537	800.000	0.133	0.473
-491.522	46.077	-0.133	0.122
-490.508	-31.026	-0.150	0.084
-489.493	136.118	0.027	0.034
-488.478	-200.000	0.025	-0.462
-487.464	-24.907	-0.341	-0.201
-486.449	71.568	-0.031	0.032
-485.435	-51.291	0.056	-0.026
-484.420	-126.514	0.158	0.023
-483.405	-198.920	0.159	0.001
-482.391	-200.000	-0.037	0.291
-481.376	800.000	0.019	0.072
-480.362	105.401	-0.129	-0.151
-479.347	-188.368	-0.188	0.002
-478.332	-200.000	-0.006	0.278
-477.318	-21.908	-0.257	-0.155
-476.303	-53.655	0.191	-0.087
-475.289	-50.528	0.162	-0.076
-474.274	-200.000	0.041	-0.280
-473.259	652.130	0.065	-0.165
-472.245	82.264	0.132	0.142
-471.230	800.000	0.075	0.211
-470.216	-158.876	-0.080	0.004
-469.201	-41.410	-0.108	0.055
-468.186	116.031	-0.122	0.148
-467.172	-94.680	0.229	-0.062
-466.157	-73.918	-0.122	0.044
-465.143	-78.401	-0.196	-0.067
-464.128	-143.341	0.211	0.020
-463.113	-200.000	0.002	0.364
-462.099	-200.000	-0.007	0.129
-461.084	-200.000	0.013	0.058
-460.070	57.142	0.057	-0.055
-459.055	261.471	0.139	0.238
-458.040	71.612	0.272	-0.280
-457.026	296.826	0.188	-0.343
-456.011	12.407	0.186	-0.142
-454.997	-22.501	-0.152	-0.091
-453.982	-200.000	-0.004	-0.101
-452.968	800.000	-0.186	-0.540
-451.953	433.555	0.109	0.234
-450.938	137.386	0.165	0.214
-449.924	190.428	-0.186	0.276
-448.909	125.682	0.166	-0.208
-447.895	-160.536	0.200	0.011
-446.880	-31.466	-0.209	0.117
-445.865	390.601	0.116	-0.238
-444.851	-200.000	0.001	0.124
-443.836	320.450	0.043	0.082
-442.822	-146.788	0.121	0.010
-441.807	-200.000	0.007	0.189
-440.792	30.984	-0.056	0.048
-439.778	-75.373	-0.429	-0.151
-438.763	800.000	0.090	-0.278
-437.749	800.000	0.059	-0.249
-436.734	-92.625	0.349	0.097
-435.719	-80.607	0.190	-0.063
-434.705	-148.808	-0.104	-0.008
-433.690	-103.685	0.224	0.052
-432.676	-200.000	0.045	-0.258
-431.661	-200.000	0.021	0.099
-430.646	17.235	-0.079	0.062
-429.632	40.999	-0.105	0.094
-428.617	44.418	-0.276	-0.251
-427.603	-200.000	0.038	-0.192
-426.588	27.439	0.079	0.066
-425.573	-200.000	-0.010	-0.050
-424.559	-200.000	-0.008	0.215
-423.544	800.000	-0.035	0.138
-422.530	-169.649	0.360	-0.013
-421.515	800.000	-0.072	-0.296
-420.500	-102.434	-0.149	0.035
-419.486	35.977	0.088	0.077
-418.471	505.664	-0.082	0.188
-417.457	-60.228	-0.270	0.114
-416.442	404.667	0.036	-0.075
-415.428	-200.000	-0.009	0.066
-414.413	-13.154	0.061	0.039
-413.398	-9.881	0.096	-0.064
-412.384	-32.795	-0.278	0.153
-411.369	158.775	-0.102	0.141
-410.355	-93.486	0.284	-0.078
-409.340	204.991	0.030	0.046
-408.325	-65.836	0.075	0.030
-407.311	800.000	0.002	-0.007
-406.296	22.919	0.185	-0.150
-405.282	-92.164	-0.425	-0.119
-404.267	130.686	0.055	-0.069
-403.252	-144.392	0.267	0.025
-402.238	2.772	0.276	-0.198
-401.223	157.115	0.069	-0.095
-400.209	-111.925	-0.199	-0.040
-399.194	338.629	-0.022	0.043
-398.179	209.543	-0.054	-0.083
-397.165	-200.000	0.007	0.201
-396.150	-41.623	-0.087	0.044
-395.136	800.000	-0.086	-0.319
-394.121	332.513	0.156	-0.298
-393.106	-119.028	0.037	-0.006
-392.092	-138.446	-0.212	0.023
-391.077	66.660	0.095	0.095
-390.063	-183.046	0.348	-0.006
-389.048	-42.925	0.257	0.129
-388.033	94.620	0.167	-0.188
-387.019	-200.000	-0.007	-0.070
-386.004	800.000	0.031	-0.088
-384.990	36.805	-0.240	-0.210
-383.975	-55.169	-0.213	0.095
-382.960	-115.775	0.021	-0.004
-381.946	-110.698	-0.114	0.023
-380.931	274.954	-0.063	0.110
-379.917	-200.000	-0.019	0.251
-378.902	-104.066	-0.275	0.063
-377.888	38.658	0.344	-0.303
-376.873	229.574	0.125	-0.202
-375.858	-200.000	0.005	0.296
-374.844	31.284	-0.245	0.208
-373.829	548.952	-0.050	0.118
-372.815	-200.000	-0.002	-0.066
-371.800	-42.507	-0.089	-0.045
-370.785	-22.246	0.186	0.111
-369.771	310.452	-0.229	-0.423
-368.756	610.965	0.146	-0.360
-367.742	-200.000	0.004	-0.326
-366.727	-129.306	0.163	0.022
-365.712	-103.068	0.228	0.053
-364.698	-116.193	-0.072	-0.013
-363.683	368.471	0.029	0.058
-362.669	-29.005	0.170	0.097
-361.654	-154.625	0.120	-0.008
-360.639	469.013	-0.078	-0.174
-359.625	685.050	0.080	0.206
-358.610	572.188	-0.091	0.220
-357.596	-200.000	0.009	0.173
-356.581	-88.401	-0.173	0.051
-355.566	-119.266	0.258	0.044
-354.552	247.828	-0.282	-0.472
-353.537	800.000	0.082	-0.325
-352.523	75.518	0.153	0.159
-351.508	800.000	0.040	-0.171
-350.493	800.000	-0.013	-0.051
-349.479	-200.000	-0.007	0.237
-348.464	165.736	-0.226	0.316
-347.450	81.728	0.058	-0.062
-346.435	-108.836	-0.098	-0.021
-345.420	-115.423	-0.042	0.008
-344.406	-49.819	0.222	-0.104
-343.391	6.691	0.208	0.153
-342.377	-200.000	0.011	-0.112
-341.362	-200.000	0.008	0.462
-340.348	-200.000	-0.021	0.134
-339.333	-45.851	0.132	0.065
-338.318	35.276	0.249	-0.216
-337.304	207.162	0.007	-0.011
-336.289	-109.328	-0.207	0.043
-335.275	265.946	-0.132	-0.227
-334.260	-200.000	0.014	0.160
-333.245	-200.000	-0.004	0.137
-332.231	13.923	-0.246	0.189
-331.216	-21.675	0.183	-0.110
-330.202	-146.408	-0.392	-0.034
-329.187	94.877	0.234	-0.262
-328.172	35.087	0.003	0.003
-327.158	-200.000	-0.034	0.156
-326.143	202.223	-0.136	0.207
-325.129	800.000	0.044	0.137
-324.114	-200.000	-0.024	-0.134
-323.099	-148.886	0.222	-0.018
-322.085	-52.084	-0.424	0.194
-321.070	-200.000	-0.019	0.160
-320.056	-75.722	0.304	0.106
-319.041	-200.000	0.037	0.230
-318.026	-41.712	-0.126	0.064
-317.012	87.070	0.095	0.104
-315.997	-171.447	-0.482	-0.016
-314.983	-47.997	-0.261	0.125
-313.968	-196.362	-0.094	0.001
-312.953	-186.515	0.593	-0.008
-311.939	-122.746	0.126	0.020
-310.924	35.715	0.102	0.088
-309.910	191.955	0.146	-0.217
-308.895	517.052	-0.101	0.232
-307.880	800.000	-0.071	-0.209
-306.866	-142.075	0.029	0.003
-305.851	-132.550	-0.251	0.032
-304.837	117.821	0.216	-0.263
-303.822	800.000	-0.011	-0.036
-302.807	-25.083	-0.075	0.044
-301.793	-200.000	0.014	-0.204
-300.778	145.009	-0.121	-0.159
-299.764	-41.265	0.229	-0.117
-298.749	187.306	0.072	-0.105
-297.735	80.345	0.181	-0.193
-296.720	340.837	-0.116	0.223
-295.705	568.380	-0.020	0.047
-294.691	-55.141	0.179	-0.079
-293.676	-122.309	0.236	-0.038
-292.662	369.310	-0.143	-0.286
-291.647	209.461	0.205	-0.316
-290.632	-132.778	0.301	-0.038
-289.618	-121.470	0.061	-0.010
-288.603	3.671	-0.285	0.205
-287.589	-156.832	0.335	-0.020
-286.574	-60.318	0.439	0.184
-285.559	-99.309	0.210	0.052
-284.545	-104.652	-0.164	-0.037
-283.530	5.567	0.117	-0.085
-282.516	669.375	-0.065	0.167
-281.501	-159.987	0.103	0.006
-280.486	248.067	0.133	0.222
-279.472	559.378	-0.147	0.349
-278.457	800.000	-0.015	-0.064
-277.443	137.674	-0.235	0.303
-276.428	-200.000	0.021	-0.346
-275.413	800.000	-0.074	-0.229
-274.399	14.560	-0.085	-0.065
-273.384	-200.000	-0.003	0.138
-272.370	-102.338	0.327	0.077
-271.355	-200.000	0.030	0.274
-270.340	-121.317	-0.121	0.020
-269.326	46.657	0.066	0.060
-268.311	-200.000	0.023	0.302
-267.297	-200.000	0.000	0.401
-266.282	321.701	-0.143	0.269
-265.267	119.969	-0.275	0.336
-264.253	-114.420	0.139	-0.026
-263.238	-39.369	-0.377	-0.195
-262.224	-200.000	-0.006	0.336
-261.209	54.068	-0.220	0.208
-260.195	240.658	-0.135	-0.222
-259.180	-84.970	0.183	-0.056
-258.165	10.984	-0.137	-0.103
-257.151	-84.593	0.341	-0.106
-256.136	-200.000	0.026	-0.226
-255.122	-161.228	0.198	0.010
-254.107	38.980	-0.133	0.117
-253.092	-45.060	0.040	0.020
-252.078	36.271	-0.160	-0.139
-251.063	117.810	0.181	-0.220
-250.049	23.806	-0.207	-0.167
-249.034	-200.000	-0.018	-0.191
-248.019	-98.059	-0.174	0.044
-247.005	-200.000	-0.025	-0.144
-245.990	359.402	-0.087	-0.171
-244.976	31.679	-0.089	-0.075
-243.961	-101.796	0.082	-0.020
-242.946	-54.310	0.271	-0.121
-241.932	619.484	-0.059	0.145
-240.917	800.000	0.102	0.316
-239.903	58.381	-0.146	0.141
-238.888	800.000	0.041	-0.129
-237.873	140.242	0.006	-0.007
-236.859	389.248	-0.028	0.057
-235.844	296.504	-0.086	-0.155
-234.830	-74.946	0.323	-0.114
-233.815	-127.646	0.216	-0.031
-232.800	162.910	0.048	0.066
-231.786	-110.304	-0.295	0.060
-230.771	-165.325	0.272	0.012
-229.757	-200.000	0.010	0.089
-228.742	-8.941	0.326	0.215
-227.727	-51.621	-0.171	-0.078
-226.713	-115.378	0.177	-0.033
-225.698	447.927	-0.079	0.171
-224.684	-119.215	-0.203	0.035
-223.669	-91.700	0.331	-0.092
-222.655	-200.000	0.037	0.250
-221.640	-200.000	-0.033	0.400
-220.625	86.957	0.186	0.202
-219.611	-146.384	-0.610	0.052
-218.596	800.000	0.064	0.224
-217.582	25.535	-0.168	-0.137
-216.567	23.296	0.151	-0.122
-215.552	80.936	-0.206	-0.219
-214.538	170.733	0.193	-0.271
-213.523	87.090	-0.139	-0.151
-212.509	-142.628	0.265	0.025
-211.494	-39.239	0.034	-0.017
-210.479	-30.706	-0.457	0.254
-209.465	-191.410	0.237	0.002
-208.450	293.855	-0.072	0.129
-207.436	5.678	0.165	0.120
-206.421	6.809	-0.291	-0.213
-205.406	-115.127	-0.230	0.043
-204.392	-200.000	-0.015	0.201
-203.377	-131.742	0.495	0.064
-202.363	-11.053	0.077	-0.050
-201.348	468.433	-0.076	-0.168
-200.333	800.000	-0.089	-0.253
-199.319	-200.000	-0.118	0.531
-198.304	-109.156	0.352	0.074
-197.290	249.127	-0.041	0.069
-196.275	800.000	0.075	0.299
-195.260	109.765	0.173	0.204
-194.246	-53.018	-0.123	-0.055
-193.231	-52.959	0.236	0.106
-192.217	800.000	-0.085	0.276
-191.202	24.322	0.152	-0.123
-190.187	-123.761	-0.147	0.023
-189.173	-114.704	-0.325	-0.061
-188.158	-153.594	0.165	0.011
-187.144	-200.000	-0.012	-0.148
-186.129	-200.000	-0.016	-0.122
-185.114	118.997	0.129	0.157
-184.100	-35.712	0.243	-0.129
-183.085	376.533	-0.023	-0.046
-182.071	-200.000	-0.020	-0.100
-181.056	-200.000	-0.031	-0.518
-180.042	676.193	0.105	0.269
-179.027	-16.512	-0.360	0.224
-178.012	152.267	-0.176	0.235
-176.998	37.803	-0.106	-0.092
-175.983	800.000	0.117	-0.323
-174.969	-200.000	0.025	0.348
-173.954	258.798	-0.124	0.210
-172.939	-200.000	0.014	0.153
-171.925	-56.937	-0.208	0.090
-170.910	-200.000	-0.047	0.393
-169.896	800.000	-0.040	-0.165
-168.881	-163.385	-0.035	-0.002
-167.866	-2.196	0.014	0.010
-166.852	187.380	-0.094	-0.137
-165.837	-119.554	0.137	0.023
-164.823	-105.348	0.184	-0.041
-163.808	91.464	0.097	-0.107
-162.793	-200.000	-0.025	-0.272
-161.779	38.036	0.059	0.052
-160.764	22.500	0.156	-0.125
-159.750	179.532	-0.169	0.242
-158.735	-162.895	0.513	0.024
-157.720	161.465	-0.300	0.412
-156.706	106.715	0.182	-0.212
-155.691	115.944	-0.171	-0.205
-154.677	-146.856	-0.171	-0.014
-153.662	226.000	0.156	-0.247
-152.647	131.239	0.020	0.025
-151.633	-200.000	-0.009	0.092
-150.618	-125.418	0.144	0.022
-149.604	-200.000	0.007	-0.231
-148.589	785.968	0.231	-0.620
-147.574	163.543	-0.190	0.261
-146.560	-4.029	-0.313	-0.212
-145.545	-200.000	0.003	0.072
-144.531	-125.492	-0.186	0.028
-143.516	69.030	0.187	-0.189
-142.502	40.468	0.282	-0.249
-141.487	800.000	-0.043	-0.149
-140.472	-113.759	0.197	0.038
-139.458	800.000	0.050	-0.159
-138.443	-175.015	-0.245	-0.007
-137.429	-68.385	-0.125	-0.047
-136.414	-99.526	-0.222	0.055
-135.399	-200.000	-0.014	0.292
-134.385	-200.000	0.012	-0.280
-133.370	382.275	-0.269	-0.540
-132.356	51.360	-0.072	0.067
-131.341	144.622	-0.081	-0.107
-130.326	-165.835	-0.116	0.005
-129.312	-200.000	0.088	0.395
-128.297	32.886	-0.124	-0.105
-127.283	-56.938	-0.053	0.023
-126.268	-89.323	0.225	-0.065
-125.253	-130.580	0.187	-0.025
-124.239	139.614	0.194	-0.250
-123.224	179.084	0.200	0.286
-122.210	-144.766	-0.142	0.013
