DTS Sentinel unit serial number:	SN413079Multiplexer serial number:	ORYXHardware model number:	OX4-SRSoftware version number:	ORYX F/W v4.00 Oryx Data Collector v3.7.2.0data status	okinstallation	princeton_trtdifferential loss correction	single-endedforward channel	channel 1reverse channel	N/Adate	2019/09/17time	04:14:35forward acquisition time	60.00reverse acquisition time	0.00gamma	496.2192k internal	0.2323k external	0.2323temperature offset calibration	0.9961default loss term (dB/km)	0.3790temperature slope calibration	1.0000multiplexer offset coefficient	1.0000multiplexer slope coefficient	1.0000fibre end	0.00T internal ref (°C)	29.81T ext. ref 1 (°C)	0.14T ext. ref 2 (°C)	24.28length (m)	temperature (°C)	Stokes	anti-Stokes-747.200	66.705	-0.154	0.158
-746.185	200.859	0.214	0.333
-745.171	369.907	-0.062	0.127
-744.156	800.000	-0.056	0.159
-743.142	-96.269	0.133	-0.035
-742.127	-200.000	0.042	0.455
-741.112	237.930	-0.108	0.181
-740.098	240.505	0.106	0.178
-739.083	548.588	0.032	-0.076
-738.069	66.369	-0.148	0.152
-737.054	-9.921	-0.438	-0.294
-736.039	516.193	-0.093	-0.219
-735.025	-112.835	0.107	-0.021
-734.010	6.250	-0.247	0.185
-732.996	800.000	-0.040	-0.120
-731.981	391.356	-0.166	-0.348
-730.966	-47.888	-0.425	-0.208
-729.952	-200.000	-0.017	0.222
-728.937	-97.353	-0.256	-0.067
-727.923	9.436	-0.181	-0.138
-726.908	-73.266	-0.280	-0.104
-725.894	-13.048	-0.104	0.068
-724.879	800.000	-0.104	-0.335
-723.864	155.288	-0.079	0.110
-722.850	-167.797	0.197	-0.008
-721.835	96.937	0.234	-0.271
-720.821	-200.000	-0.031	-0.383
-719.806	-57.579	-0.096	0.043
-718.791	-138.268	-0.066	-0.007
-717.777	642.661	-0.084	-0.217
-716.762	-200.000	-0.018	-0.317
-715.748	-107.787	-0.048	-0.010
-714.733	-85.247	-0.346	-0.109
-713.718	122.351	0.226	0.285
-712.704	-4.442	-0.163	-0.113
-711.689	-31.307	0.208	0.118
-710.675	-156.973	-0.142	-0.009
-709.660	69.198	-0.271	0.281
-708.645	-49.997	-0.314	0.150
-707.631	-29.607	-0.166	-0.096
-706.616	-120.808	-0.040	-0.007
-705.602	37.041	0.191	0.170
-704.587	800.000	0.054	-0.222
-703.572	27.185	-0.238	-0.201
-702.558	146.468	-0.135	0.182
-701.543	-200.000	0.009	0.339
-700.529	800.000	-0.039	0.162
-699.514	317.634	-0.137	-0.261
-698.499	63.532	0.246	-0.249
-697.485	460.152	-0.214	-0.480
-696.470	800.000	-0.112	0.337
-695.456	-53.847	0.100	-0.046
-694.441	800.000	-0.048	0.167
-693.426	206.829	-0.049	-0.077
-692.412	-123.494	-0.424	-0.068
-691.397	-18.789	-0.225	-0.141
-690.383	0.890	-0.136	-0.098
-689.368	29.063	0.156	-0.134
-688.354	141.582	-0.094	-0.125
-687.339	60.590	0.058	-0.058
-686.324	724.856	-0.077	0.207
-685.310	800.000	-0.058	0.237
-684.295	312.920	-0.210	-0.398
-683.281	89.131	0.059	0.066
-682.266	-80.513	-0.118	-0.039
-681.251	-36.146	-0.115	-0.062
-680.237	-115.496	-0.140	0.026
-679.222	202.968	0.116	-0.181
-678.208	37.208	-0.251	0.224
-677.193	800.000	0.038	0.163
-676.178	-154.684	-0.367	0.025
-675.164	163.743	0.025	-0.035
-674.149	293.796	0.013	0.023
-673.135	162.676	-0.139	-0.196
-672.120	2.711	0.391	-0.286
-671.105	49.478	0.150	-0.142
-670.091	228.196	0.129	-0.211
-669.076	-200.000	0.010	0.191
-668.062	68.274	0.065	0.067
-667.047	431.886	0.059	-0.128
-666.032	-146.404	0.081	0.007
-665.018	-25.872	-0.085	-0.051
-664.003	331.446	0.069	-0.133
-662.989	-123.123	-0.410	0.066
-661.974	-153.392	-0.344	-0.024
-660.959	24.187	0.133	0.111
-659.945	499.198	-0.071	0.165
-658.930	414.929	0.043	0.092
-657.916	800.000	-0.014	-0.045
-656.901	473.754	-0.119	-0.270
-655.886	66.796	-0.351	0.359
-654.872	-179.960	0.335	-0.007
-653.857	203.238	-0.103	0.160
-652.843	800.000	-0.054	0.209
-651.828	-53.847	-0.179	0.082
-650.814	-75.085	-0.435	-0.157
-649.799	-45.964	-0.164	0.082
-648.784	800.000	-0.055	0.167
-647.770	120.813	0.154	-0.192
-646.755	-69.881	0.370	-0.142
-645.741	392.512	-0.193	0.404
-644.726	119.097	-0.204	0.254
-643.711	-200.000	-0.019	-0.192
-642.697	-25.911	-0.240	-0.142
-641.682	116.756	0.081	-0.100
-640.668	-163.187	-0.112	-0.005
-639.653	596.587	0.089	0.223
-638.638	148.172	0.066	-0.090
-637.624	-200.000	-0.048	-0.280
-636.609	338.647	-0.083	-0.163
-635.595	108.580	-0.314	-0.378
-634.580	-25.996	-0.110	0.065
-633.565	36.585	0.083	-0.074
-632.551	48.133	0.260	0.244
-631.536	-92.310	-0.162	-0.046
-630.522	800.000	-0.049	0.205
-629.507	-53.907	-0.082	0.038
-628.492	48.210	-0.126	0.118
-627.478	-78.718	-0.466	0.160
-626.463	-69.098	0.094	0.036
-625.449	86.789	0.199	0.221
-624.434	-18.690	0.295	0.185
-623.419	378.927	0.160	-0.328
-622.405	-8.975	-0.347	0.234
-621.390	-200.000	0.014	0.192
-620.376	-200.000	0.006	0.056
-619.361	261.659	-0.072	0.126
-618.346	-162.770	-0.180	0.009
-617.332	89.706	-0.119	0.134
-616.317	89.658	0.155	0.174
-615.303	-8.924	-0.255	-0.172
-614.288	-170.413	0.201	0.007
-613.273	-92.360	-0.161	-0.046
-612.259	800.000	-0.068	0.200
-611.244	-42.060	-0.340	0.175
-610.230	29.866	-0.196	-0.167
-609.215	28.378	-0.196	0.167
-608.201	295.295	-0.050	-0.092
-607.186	257.855	0.099	0.171
-606.171	2.329	0.235	0.171
-605.157	246.108	-0.184	0.311
-604.142	-200.000	-0.047	-0.304
-603.128	124.309	0.196	-0.247
-602.113	-180.356	0.300	-0.006
-601.098	95.960	-0.155	-0.178
-600.084	-200.000	-0.055	0.326
-599.069	800.000	0.147	0.409
-598.055	-200.000	-0.012	-0.165
-597.040	-14.027	0.356	-0.231
-596.025	70.500	0.172	-0.179
-595.011	-108.172	0.180	-0.039
-593.996	-9.378	0.052	-0.035
-592.982	800.000	-0.044	-0.190
-591.967	121.771	-0.243	-0.304
-590.952	168.112	-0.113	-0.162
-589.938	-8.505	0.183	-0.124
-588.923	585.456	0.153	-0.377
-587.909	-76.053	0.331	0.117
-586.894	128.635	-0.146	-0.186
-585.879	-114.037	0.221	-0.043
-584.865	239.997	-0.072	0.120
-583.850	-61.720	-0.170	-0.071
-582.836	800.000	-0.033	0.097
-581.821	-136.498	-0.312	0.036
-580.806	-200.000	0.022	0.170
-579.792	13.510	-0.220	-0.171
-578.777	800.000	0.111	-0.310
-577.763	627.098	0.052	-0.132
-576.748	-24.994	-0.224	-0.133
-575.733	-200.000	0.028	-0.307
-574.719	42.754	0.052	0.048
-573.704	59.805	0.194	-0.193
-572.690	-52.271	-0.243	-0.113
-571.675	-79.042	0.110	-0.037
-570.661	-111.067	-0.447	-0.092
-569.646	-200.000	-0.066	0.398
-568.631	-200.000	-0.076	0.561
-567.617	-200.000	-0.006	-0.119
-566.602	79.524	-0.247	-0.265
-565.588	-39.649	0.347	-0.182
-564.573	189.968	0.104	0.157
-563.558	375.995	0.088	-0.181
-562.544	-200.000	-0.003	-0.087
-561.529	800.000	0.117	0.359
-560.515	-91.664	-0.221	0.063
-559.500	29.753	0.048	0.041
-558.485	114.313	-0.116	0.142
-557.471	800.000	0.114	-0.330
-556.456	244.798	0.220	0.370
-555.442	65.285	-0.159	0.161
-554.427	-20.368	0.083	-0.051
-553.412	479.523	-0.169	-0.384
-552.398	-2.779	0.102	0.072
-551.383	743.009	-0.036	-0.096
-550.369	-200.000	-0.009	0.180
-549.354	-167.343	-0.101	-0.004
-548.339	345.592	0.057	0.112
-547.325	209.331	-0.181	-0.285
-546.310	-33.021	0.083	-0.046
-545.296	-103.102	0.124	0.029
-544.281	800.000	0.121	0.371
-543.266	800.000	-0.110	0.398
-542.252	473.579	0.060	-0.136
-541.237	-178.347	0.167	-0.004
-540.223	-127.208	-0.084	-0.012
-539.208	-15.613	-0.158	-0.101
-538.193	800.000	0.061	0.181
-537.179	169.269	0.166	0.238
-536.164	224.654	-0.161	0.261
-535.150	72.108	-0.270	0.282
-534.135	800.000	-0.062	-0.224
-533.121	465.303	-0.107	-0.239
-532.106	-200.000	-0.017	0.208
-531.091	-200.000	0.001	-0.187
-530.077	-69.512	-0.223	0.086
-529.062	-200.000	0.014	0.090
-528.048	242.260	0.081	-0.136
-527.033	187.299	-0.126	-0.189
-526.018	484.872	-0.017	0.039
-525.004	422.017	0.161	0.347
-523.989	-151.830	0.302	0.022
-522.975	-112.568	-0.299	-0.060
-521.960	-200.000	0.047	0.367
-520.945	379.045	-0.071	0.146
-519.931	407.152	-0.075	0.159
-518.916	317.119	0.101	0.192
-517.902	800.000	0.060	0.168
-516.887	-44.700	-0.165	0.082
-515.872	-109.477	0.175	-0.037
-514.858	15.709	-0.081	0.064
-513.843	-200.000	-0.048	-0.465
-512.829	616.059	0.064	-0.162
-511.814	-105.492	-0.252	0.057
-510.799	800.000	-0.056	0.222
-509.785	-200.000	0.029	0.143
-508.770	318.483	-0.151	0.286
-507.756	-200.000	-0.001	0.129
-506.741	-200.000	0.000	-0.203
-505.726	659.784	0.139	-0.358
-504.712	18.882	-0.240	-0.192
-503.697	173.023	-0.134	0.193
-502.683	-69.317	0.179	-0.069
-501.668	-200.000	-0.010	0.048
-500.653	-157.229	-0.247	0.015
-499.639	147.985	0.128	0.173
-498.624	-200.000	-0.036	0.177
-497.610	-19.955	0.053	-0.033
-496.595	456.977	-0.122	0.270
-495.581	-78.296	0.283	-0.097
-494.566	-112.077	-0.115	-0.023
-493.551	-200.000	0.060	0.289
-492.537	43.855	0.215	-0.197
-491.522	-182.275	-0.145	0.003
-490.508	-200.000	-0.019	0.467
-489.493	-153.535	0.363	0.025
-488.478	800.000	0.041	0.169
-487.464	-88.862	0.209	-0.062
-486.449	276.354	-0.133	0.237
-485.435	-200.000	-0.005	-0.103
-484.420	-33.924	0.252	-0.139
-483.405	-34.682	-0.152	0.083
-482.391	-64.428	-0.231	-0.094
-481.376	-200.000	0.009	-0.149
-480.362	-200.000	-0.023	0.207
-479.347	-200.000	0.058	0.427
-478.332	-33.332	0.093	-0.052
-477.318	118.290	-0.106	-0.130
-476.303	-98.675	0.103	-0.026
-475.289	800.000	0.023	-0.094
-474.274	233.968	-0.077	-0.127
-473.259	146.288	-0.227	-0.304
-472.245	800.000	-0.033	-0.102
-471.230	-67.643	0.232	0.091
-470.216	27.646	-0.256	-0.215
-469.201	68.066	-0.129	0.132
-468.186	800.000	0.104	0.321
-467.172	164.481	0.204	0.287
-466.157	-200.000	-0.023	-0.201
-465.143	-200.000	-0.009	-0.098
-464.128	-102.742	-0.115	0.027
-463.113	-200.000	-0.034	-0.465
-462.099	-22.383	-0.486	0.294
-461.084	-109.331	-0.112	-0.024
-460.070	225.856	0.141	0.229
-459.055	59.416	-0.260	-0.256
-458.040	800.000	-0.054	-0.184
-457.026	391.576	0.082	-0.170
-456.011	355.348	-0.070	0.138
-454.997	178.411	-0.153	0.223
-453.982	-95.108	0.239	0.064
-452.968	-83.023	-0.133	0.043
-451.953	606.146	0.090	-0.225
-450.938	-200.000	-0.016	-0.073
-449.924	-17.077	-0.202	0.128
-448.909	644.051	-0.058	0.149
-447.895	-113.563	-0.042	0.008
-446.880	288.956	0.062	-0.113
-445.865	256.746	0.232	0.398
-444.851	800.000	0.051	-0.182
-443.836	-46.539	0.183	0.090
-442.822	-109.497	-0.147	-0.031
-441.807	-3.863	-0.077	-0.053
-440.792	-70.053	-0.048	0.018
-439.778	142.801	-0.040	-0.053
-438.763	89.779	-0.098	0.110
-437.749	177.583	0.224	-0.326
-436.734	0.159	0.216	0.154
-435.719	-157.003	0.340	-0.021
-434.705	-200.000	-0.017	0.176
-433.690	61.955	0.176	-0.175
-432.676	-60.826	0.052	-0.022
-431.661	-190.523	0.198	-0.002
-430.646	-54.780	0.261	-0.117
-429.632	800.000	-0.019	-0.053
-428.617	800.000	-0.073	0.226
-427.603	-121.095	0.325	-0.054
-426.588	-138.929	-0.199	-0.022
-425.573	238.416	0.101	0.167
-424.559	32.331	-0.075	0.065
-423.544	261.421	-0.091	0.157
-422.530	-200.000	-0.034	-0.393
-421.515	60.072	-0.055	0.054
-420.500	-73.381	-0.157	0.057
-419.486	541.662	0.039	-0.092
-418.471	-200.000	-0.022	0.193
-417.457	654.372	-0.103	-0.262
-416.442	-200.000	0.027	0.216
-415.428	102.497	-0.163	-0.191
-414.413	-200.000	-0.106	-0.481
-413.398	7.159	-0.298	-0.222
-412.384	-75.719	0.293	0.104
-411.369	-200.000	0.044	0.240
-410.355	800.000	0.045	-0.150
-409.340	15.448	-0.127	-0.100
-408.325	393.428	-0.101	-0.210
-407.311	800.000	0.098	-0.301
-406.296	-200.000	-0.059	0.551
-405.282	101.588	0.124	-0.144
-404.267	798.036	-0.037	0.103
-403.252	-20.989	0.064	0.039
-402.238	519.781	0.010	-0.024
-401.223	-200.000	0.018	-0.104
-400.209	-200.000	-0.026	-0.222
-399.194	-138.525	-0.078	-0.009
-398.179	318.329	-0.138	0.259
-397.165	106.807	0.166	0.196
-396.150	-44.430	0.312	-0.156
-395.136	-105.421	-0.409	0.093
-394.121	-200.000	0.050	-0.232
-393.106	-160.129	0.076	0.004
-392.092	-200.000	-0.066	0.290
-391.077	98.815	0.186	0.214
-390.063	-17.360	0.162	0.102
-389.048	800.000	0.075	-0.303
-388.033	-104.011	0.047	0.011
-387.019	-116.746	-0.141	0.026
-386.004	-7.709	-0.098	0.066
-384.990	-75.548	-0.166	0.059
-383.975	310.824	-0.015	0.029
-382.960	-94.567	0.128	0.035
-381.946	348.096	0.028	-0.055
-380.931	-200.000	0.047	0.210
-379.917	-87.121	-0.355	-0.107
-378.902	435.761	-0.073	-0.158
-377.888	-200.000	-0.046	0.390
-376.873	339.189	0.164	0.318
-375.858	498.556	-0.068	-0.156
-374.844	127.448	0.054	-0.069
-373.829	422.056	0.113	-0.242
-372.815	337.352	-0.069	0.133
-371.800	153.982	0.056	-0.077
-370.785	-9.018	0.022	0.015
-369.771	563.466	-0.050	0.120
-368.756	800.000	-0.077	-0.226
-367.742	64.610	-0.232	-0.232
-366.727	-100.499	-0.093	-0.023
-365.712	52.514	-0.094	-0.090
-364.698	800.000	-0.101	-0.376
-363.683	15.393	0.313	-0.244
-362.669	-133.746	0.177	-0.022
-361.654	-39.300	-0.104	-0.054
-360.639	800.000	0.056	0.212
-359.625	-184.718	-0.027	-0.000
-358.610	-200.000	0.021	-0.105
-357.596	-67.941	0.328	0.127
-356.581	17.807	-0.177	0.140
-355.566	-200.000	-0.001	-0.105
-354.552	-92.475	-0.026	-0.007
-353.537	-65.361	0.136	-0.054
-352.523	-168.547	-0.132	0.005
-351.508	-68.908	-0.177	0.068
-350.493	80.918	0.158	0.170
-349.479	17.520	-0.213	0.168
-348.464	-23.666	-0.157	-0.093
-347.450	458.249	0.232	-0.513
-346.435	-110.982	0.226	-0.046
-345.420	-19.528	0.098	-0.060
-344.406	800.000	0.056	0.202
-343.391	-30.940	0.136	0.077
-342.377	133.635	-0.044	0.057
-341.362	-135.674	-0.126	0.015
-340.348	94.213	-0.047	-0.053
-339.333	-170.158	-0.106	0.004
-338.318	-78.415	0.296	0.101
-337.304	-131.904	-0.183	-0.024
-336.289	6.922	-0.185	0.137
-335.275	800.000	0.033	0.138
-334.260	209.912	-0.081	0.127
-333.245	-19.406	0.190	-0.117
-332.231	-90.722	-0.147	-0.042
-331.216	800.000	-0.150	-0.537
-330.202	38.403	-0.157	0.139
-329.187	-42.859	0.255	-0.128
-328.172	-200.000	0.042	-0.202
-327.158	-47.677	-0.088	0.042
-326.143	321.378	0.248	0.468
-325.129	800.000	0.111	-0.326
-324.114	7.804	0.276	0.205
-323.099	193.351	-0.142	0.214
-322.085	179.363	0.101	0.147
-321.070	800.000	0.010	-0.032
-320.056	-173.084	0.256	0.008
-319.041	-72.755	0.200	-0.073
-318.026	371.428	-0.024	-0.048
-317.012	183.174	0.220	0.322
-315.997	-192.404	-0.292	-0.003
-314.983	800.000	-0.037	-0.144
-313.968	771.606	-0.104	-0.281
-312.953	-133.663	-0.260	0.032
-311.939	-137.437	-0.104	0.012
-310.924	300.247	0.045	0.082
-309.910	-151.727	-0.215	0.016
-308.895	-29.139	-0.210	0.119
-307.880	-108.528	-0.039	-0.008
-306.866	169.701	-0.188	-0.267
-305.851	280.298	-0.091	-0.161
-304.837	-200.000	0.284	-0.000
-303.822	-84.350	-0.259	-0.081
-302.807	-24.556	0.232	-0.137
-301.793	-200.000	-0.032	0.140
-300.778	-200.000	-0.032	0.323
-299.764	729.341	-0.015	0.039
-298.749	-200.000	-0.078	-0.371
-297.735	81.400	-0.183	-0.196
-296.720	-155.512	-0.304	-0.019
-295.705	-88.958	0.346	0.102
-294.691	534.350	-0.034	-0.080
-293.676	48.456	0.060	-0.056
-292.662	-28.949	0.145	-0.083
-291.647	184.831	0.098	0.144
-290.632	5.303	0.177	-0.130
-289.618	195.027	0.019	-0.028
-288.603	161.717	-0.121	0.168
-287.589	-200.000	-0.029	-0.287
-286.574	800.000	-0.018	0.060
-285.559	-167.508	-0.212	0.008
-284.545	-36.562	0.191	-0.102
-283.530	101.756	0.154	-0.178
-282.516	-51.783	-0.246	0.114
-281.501	512.854	-0.130	0.301
-280.486	-200.000	0.037	-0.332
-279.472	-61.152	0.138	-0.058
-278.457	-104.908	-0.265	-0.060
-277.443	-13.224	-0.135	-0.087
-276.428	800.000	-0.040	-0.143
-275.413	800.000	-0.073	-0.209
-274.399	-132.264	0.094	0.012
-273.384	220.381	0.195	0.310
-272.370	-96.804	-0.254	-0.066
-271.355	131.409	0.318	-0.406
-270.340	126.938	-0.048	-0.061
-269.326	80.732	0.353	-0.377
-268.311	800.000	-0.083	-0.317
-267.297	-98.421	0.102	-0.026
-266.282	-103.118	-0.212	0.050
-265.267	-200.000	0.049	-0.415
-264.253	42.289	0.255	0.229
-263.238	246.854	-0.065	-0.108
-262.224	-100.527	0.084	-0.020
-261.209	90.343	-0.197	-0.219
-260.195	1.538	-0.210	-0.149
-259.180	-51.559	0.128	0.059
-258.165	-73.155	0.088	0.032
-257.151	800.000	0.085	-0.292
-256.136	725.069	-0.179	-0.474
-255.122	41.231	0.341	0.305
-254.107	-81.494	-0.101	-0.033
-253.092	-21.944	-0.167	-0.101
-252.078	396.385	0.162	-0.336
-251.063	90.962	-0.163	-0.181
-250.049	-108.840	0.557	0.118
-249.034	-27.049	-0.012	-0.007
-248.019	18.337	0.329	0.260
-247.005	625.324	0.022	-0.054
-245.990	-200.000	-0.000	-0.029
-244.976	-160.899	0.366	0.019
-243.961	-54.798	0.329	-0.147
-242.946	78.353	-0.144	0.152
-241.932	-148.617	0.232	-0.019
-240.917	-200.000	-0.038	-0.187
-239.903	-200.000	-0.010	-0.046
-238.888	35.071	-0.147	0.127
-237.873	-133.682	0.314	0.039
-236.859	-85.961	-0.179	-0.055
-235.844	-200.000	-0.000	0.190
-234.830	-200.000	-0.008	-0.118
-233.815	89.283	0.149	-0.164
-232.800	165.793	0.171	-0.240
-231.786	508.138	-0.112	-0.256
-230.771	-86.195	-0.269	0.082
-229.757	-65.014	-0.361	0.144
-228.742	179.880	-0.216	0.313
-227.727	418.947	0.158	0.334
-226.713	174.623	0.193	-0.276
-225.698	-85.682	0.418	0.129
-224.684	-19.488	0.231	-0.142
-223.669	-89.971	0.070	0.020
-222.655	-3.792	-0.341	0.234
-221.640	-50.350	-0.174	0.081
-220.625	646.418	0.126	-0.319
-219.611	45.825	0.156	0.143
-218.596	-83.832	-0.101	-0.032
-217.582	-106.027	0.272	-0.061
-216.567	-65.668	0.204	0.081
-215.552	225.137	-0.061	0.097
-214.538	800.000	-0.040	0.150
-213.523	-200.000	-0.054	0.458
-212.509	73.343	-0.216	0.223
-211.494	2.741	-0.119	-0.085
-210.479	297.462	-0.055	-0.101
-209.465	-186.332	-0.137	0.002
-208.450	-200.000	0.014	-0.118
-207.436	46.032	0.301	-0.276
-206.421	800.000	0.074	0.224
-205.406	-119.200	0.158	0.027
-204.392	127.598	-0.142	0.178
-203.377	-87.691	0.420	-0.125
-202.363	496.121	0.135	0.308
-201.348	84.058	0.195	0.210
-200.333	-90.118	-0.102	-0.029
-199.319	-61.818	-0.215	0.089
-198.304	-62.616	-0.123	0.050
-197.290	-119.172	-0.411	-0.071
-196.275	-68.907	0.151	-0.058
-195.260	-127.196	-0.166	-0.024
-194.246	8.459	-0.048	-0.036
-193.231	-158.834	0.369	0.021
-192.217	800.000	-0.105	-0.310
-191.202	800.000	-0.142	-0.442
-190.187	800.000	-0.044	0.149
-189.173	-68.515	-0.478	0.183
-188.158	-141.651	0.261	0.026
-187.144	-98.928	0.049	0.012
-186.129	-102.960	0.203	-0.048
-185.114	-11.456	-0.064	0.042
-184.100	0.463	0.218	0.154
-183.085	800.000	0.061	0.208
-182.071	-54.903	-0.161	0.072
-181.056	-126.141	-0.113	0.017
-180.042	-161.913	-0.219	0.011
-179.027	47.957	0.120	0.111
-178.012	-17.017	0.219	-0.136
-176.998	-76.397	0.206	-0.072
-175.983	800.000	-0.031	-0.103
-174.969	39.196	-0.223	-0.197
-173.954	-200.000	0.010	-0.081
-172.939	-35.589	0.211	0.113
-171.925	522.950	-0.043	-0.100
-170.910	-200.000	-0.018	0.216
-169.896	73.792	-0.113	0.117
-168.881	334.651	0.165	-0.315
-167.866	39.996	-0.050	0.045
-166.852	-101.239	0.084	0.020
-165.837	87.226	-0.032	0.035
-164.823	-200.000	0.044	0.295
-163.808	-106.557	0.181	0.040
-162.793	800.000	0.115	0.394
-161.779	481.075	0.061	-0.136
-160.764	-200.000	-0.057	-0.429
-159.750	-181.028	0.168	-0.003
-158.735	180.336	0.150	0.217
-157.720	70.367	0.116	0.118
-156.706	-98.209	-0.106	0.027
-155.691	6.773	-0.047	-0.034
-154.677	-200.000	0.026	0.182
-153.662	-200.000	0.016	0.404
-152.647	467.308	0.144	0.318
-151.633	-17.176	-0.226	-0.141
-150.618	141.887	0.266	0.348
-149.604	-200.000	0.007	-0.245
-148.589	596.431	-0.023	0.056
-147.574	75.551	0.254	-0.265
-146.560	-200.000	0.021	0.274
-145.545	-108.984	-0.220	-0.046
-144.531	-10.351	-0.252	0.165
-143.516	-86.234	0.168	-0.051
-142.502	800.000	0.024	0.104
-141.487	52.812	0.216	-0.203
-140.472	368.003	-0.171	0.341
-139.458	-200.000	-0.068	0.483
-138.443	-200.000	0.035	0.247
-137.429	-148.576	-0.265	0.021
-136.414	447.654	-0.067	-0.145
-135.399	-18.045	-0.063	0.039
-134.385	326.128	0.161	0.304
-133.370	-127.155	-0.108	0.016
-132.356	110.801	-0.269	-0.319
-131.341	478.305	0.104	-0.232
-130.326	367.509	0.063	0.125
-129.312	-200.000	-0.012	0.234
-128.297	-200.000	-0.108	0.599
-127.283	-200.000	0.039	-0.260
-126.268	567.498	-0.143	0.343
-125.253	-200.000	-0.027	-0.428
-124.239	154.748	0.195	-0.264
-123.224	-134.792	-0.330	0.039
-122.210	119.059	0.200	-0.244
