DTS Sentinel unit serial number:	SN413079Multiplexer serial number:	ORYXHardware model number:	OX4-SRSoftware version number:	ORYX F/W v4.00 Oryx Data Collector v3.7.2.0data status	okinstallation	princeton_trtdifferential loss correction	single-endedforward channel	channel 1reverse channel	N/Adate	2019/09/18time	23:34:35forward acquisition time	60.00reverse acquisition time	0.00gamma	496.2192k internal	0.2342k external	0.2342temperature offset calibration	1.0017default loss term (dB/km)	0.3790temperature slope calibration	1.0000multiplexer offset coefficient	1.0000multiplexer slope coefficient	1.0000fibre end	0.00T internal ref (°C)	23.62T ext. ref 1 (°C)	0.77T ext. ref 2 (°C)	16.53length (m)	temperature (°C)	Stokes	anti-Stokes-747.200	15.856	-0.114	-0.090
-746.185	35.265	0.124	0.109
-745.171	-85.851	-0.167	0.052
-744.156	-200.000	-0.032	0.240
-743.142	39.772	0.249	-0.224
-742.127	-54.687	-0.098	0.044
-741.112	-29.346	0.170	0.097
-740.098	135.700	-0.150	0.196
-739.083	356.876	-0.080	-0.159
-738.069	-65.416	-0.285	0.115
-737.054	-73.176	0.250	-0.092
-736.039	520.181	-0.075	0.175
-735.025	44.891	0.116	0.107
-734.010	-87.596	-0.239	-0.072
-732.996	-99.014	-0.210	0.053
-731.981	160.924	0.186	0.260
-730.966	240.000	-0.184	-0.307
-729.952	-20.847	-0.073	-0.045
-728.937	800.000	-0.105	-0.305
-727.923	-200.000	0.048	-0.396
-726.908	55.107	-0.195	-0.189
-725.894	-200.000	0.001	0.026
-724.879	197.241	-0.145	-0.221
-723.864	495.243	0.043	-0.099
-722.850	-200.000	0.001	0.014
-721.835	412.291	-0.140	-0.298
-720.821	-23.534	0.204	0.123
-719.806	122.037	0.204	0.255
-718.791	-200.000	0.003	-0.058
-717.777	-86.504	-0.171	-0.053
-716.762	800.000	0.024	-0.091
-715.748	-93.584	-0.153	0.042
-714.733	252.530	0.059	0.100
-713.718	53.884	0.070	0.067
-712.704	-144.982	-0.259	-0.024
-711.689	-106.828	0.242	-0.054
-710.675	-200.000	0.076	-0.452
-709.660	198.022	0.097	-0.149
-708.645	122.378	0.078	0.097
-707.631	472.964	-0.153	-0.344
-706.616	-200.000	0.014	0.136
-705.602	-26.207	-0.386	-0.227
-704.587	-60.267	-0.154	-0.066
-703.572	-200.000	-0.023	0.112
-702.558	-51.779	-0.242	-0.113
-701.543	126.618	-0.141	-0.178
-700.529	46.969	-0.160	0.148
-699.514	579.844	-0.103	-0.253
-698.499	-200.000	-0.002	-0.050
-697.485	800.000	0.063	0.210
-696.470	800.000	0.039	-0.151
-695.456	5.095	0.254	-0.187
-694.441	-200.000	-0.022	-0.191
-693.426	132.804	-0.079	0.102
-692.412	800.000	-0.052	-0.203
-691.397	800.000	0.067	-0.187
-690.383	-43.425	-0.078	-0.040
-689.368	800.000	-0.023	-0.080
-688.354	-36.757	0.193	0.103
-687.339	-140.296	0.135	-0.014
-686.324	-76.361	-0.168	-0.059
-685.310	-35.672	-0.381	-0.207
-684.295	268.924	0.219	-0.384
-683.281	-51.623	-0.186	-0.087
-682.266	-108.610	-0.362	0.078
-681.251	695.158	-0.152	-0.400
-680.237	-179.400	0.329	0.007
-679.222	-169.543	-0.265	0.010
-678.208	-200.000	-0.005	-0.252
-677.193	-200.000	-0.056	-0.273
-676.178	37.993	-0.132	0.117
-675.164	250.078	0.020	0.033
-674.149	800.000	-0.038	-0.143
-673.135	56.478	0.074	0.072
-672.120	-103.576	-0.131	-0.031
-671.105	117.393	-0.080	-0.098
-670.091	285.333	0.150	0.270
-669.076	62.454	-0.249	-0.249
-668.062	-91.760	-0.255	0.072
-667.047	117.281	-0.218	-0.268
-666.032	-26.414	0.098	0.057
-665.018	96.050	-0.232	-0.264
-664.003	211.630	0.077	0.121
-662.989	28.793	0.181	-0.153
-661.974	719.286	0.035	-0.092
-660.959	800.000	-0.049	-0.212
-659.945	-200.000	-0.009	-0.379
-658.930	271.379	-0.083	0.145
-657.916	620.965	-0.080	0.200
-656.901	-47.231	0.319	0.155
-655.886	800.000	-0.102	-0.287
-654.872	78.267	-0.127	-0.135
-653.857	-127.557	0.239	-0.035
-652.843	29.488	-0.111	0.094
-651.828	414.945	-0.043	0.092
-650.814	-11.596	-0.211	-0.138
-649.799	285.905	0.144	0.260
-648.784	-74.861	0.227	0.081
-647.770	-109.749	0.248	-0.052
-646.755	100.638	0.072	-0.083
-645.741	-53.015	0.314	-0.144
-644.726	-200.000	-0.032	-0.296
-643.711	-131.904	0.260	0.034
-642.697	-136.829	-0.202	0.023
-641.682	-141.137	-0.165	-0.017
-640.668	110.804	0.142	-0.171
-639.653	-200.000	-0.012	-0.201
-638.638	800.000	-0.052	0.157
-637.624	800.000	0.066	0.240
-636.609	800.000	0.102	-0.280
-635.595	-40.694	0.124	-0.064
-634.580	71.123	-0.166	-0.172
-633.565	177.979	0.188	0.274
-632.551	180.385	-0.156	-0.228
-631.536	51.382	-0.178	0.169
-630.522	-75.347	0.147	-0.052
-629.507	-28.701	0.156	0.090
-628.492	-113.300	-0.139	0.027
-627.478	512.620	-0.133	0.310
-626.463	-28.403	0.296	0.170
-625.449	-200.000	-0.235	0.001
-624.434	-74.322	-0.053	0.019
-623.419	800.000	0.074	-0.234
-622.405	-200.000	-0.022	0.123
-621.390	800.000	0.021	-0.064
-620.376	17.195	-0.119	0.094
-619.361	-79.140	-0.093	-0.032
-618.346	13.284	0.260	-0.201
-617.332	247.196	-0.103	0.173
-616.317	229.145	0.095	0.155
-615.303	367.677	0.109	0.219
-614.288	117.022	-0.357	-0.437
-613.273	54.513	-0.142	-0.137
-612.259	-159.625	0.239	0.013
-611.244	-71.330	-0.312	-0.117
-610.230	409.930	0.051	-0.107
-609.215	-149.408	0.061	0.005
-608.201	-69.698	0.115	0.044
-607.186	154.378	-0.097	-0.133
-606.171	800.000	-0.048	-0.160
-605.157	-96.621	-0.401	0.105
-604.142	-41.784	-0.177	0.091
-603.128	800.000	-0.063	-0.175
-602.113	57.608	-0.169	-0.165
-601.098	800.000	-0.046	0.172
-600.084	231.018	-0.086	0.140
-599.069	-119.201	0.355	0.062
-598.055	-200.000	0.025	-0.300
-597.040	-47.356	0.264	0.128
-596.025	-127.587	0.057	-0.008
-595.011	607.217	0.111	-0.275
-593.996	-32.291	-0.138	-0.077
-592.982	-72.233	0.345	-0.127
-591.967	-9.485	-0.146	0.097
-590.952	-200.000	-0.012	0.125
-589.938	492.325	0.140	-0.319
-588.923	308.897	-0.058	-0.108
-587.909	-98.596	0.040	-0.010
-586.894	172.101	-0.101	-0.145
-585.879	130.898	-0.196	0.251
-584.865	166.859	0.076	-0.107
-583.850	-131.866	0.090	0.012
-582.836	800.000	-0.028	0.115
-581.821	800.000	-0.054	-0.191
-580.806	106.952	-0.115	-0.136
-579.792	-72.443	-0.066	-0.024
-578.777	-124.536	0.293	-0.045
-577.763	-0.952	-0.164	0.116
-576.748	800.000	0.011	0.040
-575.733	-42.477	0.058	0.029
-574.719	-28.321	-0.269	0.154
-573.704	68.023	0.286	-0.291
-572.690	800.000	0.061	0.229
-571.675	-137.649	0.306	0.034
-570.661	-17.087	-0.173	-0.108
-569.646	-200.000	0.003	-0.050
-568.631	187.035	0.054	0.080
-567.617	638.316	0.115	-0.291
-566.602	800.000	0.061	-0.168
-565.588	-134.206	-0.214	0.026
-564.573	800.000	-0.010	-0.043
-563.558	525.341	-0.034	-0.080
-562.544	38.625	-0.136	0.121
-561.529	-20.912	0.183	0.112
-560.515	-97.852	0.282	0.072
-559.500	-34.726	0.140	0.076
-558.485	-150.935	-0.123	-0.009
-557.471	-11.716	0.096	0.063
-556.456	480.138	0.123	0.277
-555.442	800.000	0.058	-0.161
-554.427	-106.791	0.095	-0.021
-553.412	-60.533	0.145	-0.061
-552.398	-139.103	-0.330	-0.036
-551.383	-103.193	0.125	-0.029
-550.369	152.137	0.168	0.228
-549.354	-200.000	0.057	-0.446
-548.339	-32.015	-0.234	-0.130
-547.325	-20.176	-0.108	-0.066
-546.310	-123.097	0.426	-0.068
-545.296	132.945	-0.146	-0.188
-544.281	-200.000	0.013	0.125
-543.266	30.787	0.007	0.006
-542.252	-129.939	0.243	-0.033
-541.237	-200.000	0.024	0.214
-540.223	102.502	0.117	-0.137
-539.208	165.768	0.155	-0.218
-538.193	50.764	-0.331	0.311
-537.179	-92.888	-0.149	0.041
-536.164	-200.000	-0.019	-0.276
-535.150	506.299	0.138	0.319
-534.135	-200.000	0.024	0.183
-533.121	23.722	0.153	0.125
-532.106	-114.428	0.132	-0.025
-531.091	-70.389	-0.077	0.029
-530.077	-137.323	0.150	0.017
-529.062	-88.953	-0.220	0.065
-528.048	-95.431	0.261	-0.070
-527.033	-200.000	0.003	-0.160
-526.018	800.000	0.101	-0.336
-525.004	-15.385	-0.117	0.074
-523.989	-178.730	-0.247	0.006
-522.975	-32.957	-0.330	-0.182
-521.960	437.085	0.101	0.219
-520.945	800.000	0.044	-0.181
-519.931	86.367	0.070	-0.076
-518.916	-1.034	-0.196	0.138
-517.902	-123.037	0.459	-0.073
-516.887	131.186	-0.125	-0.159
-515.872	800.000	-0.046	-0.138
-514.858	195.435	0.082	0.124
-513.843	-116.226	-0.152	0.028
-512.829	564.095	0.077	-0.185
-511.814	-200.000	0.028	0.283
-510.799	-200.000	0.054	-0.265
-509.785	482.474	0.024	0.054
-508.770	-200.000	-0.044	0.263
-507.756	80.351	-0.119	0.127
-506.741	800.000	-0.049	0.143
-505.726	800.000	-0.025	-0.071
-504.712	-200.000	0.276	-0.001
-503.697	-101.654	-0.268	-0.064
-502.683	800.000	0.022	-0.093
-501.668	-71.637	-0.184	0.068
-500.653	66.619	0.206	0.208
-499.639	-153.678	-0.160	0.011
-498.624	15.742	0.134	0.105
-497.610	-17.551	-0.088	-0.055
-496.595	44.743	0.116	0.106
-495.581	-27.083	0.140	0.081
-494.566	800.000	0.009	0.026
-493.551	-96.169	-0.357	0.094
-492.537	-135.091	0.372	0.044
-491.522	6.741	0.116	-0.086
-490.508	-200.000	0.029	0.130
-489.493	233.293	0.138	0.226
-488.478	-95.696	-0.042	0.011
-487.464	291.505	-0.106	-0.192
-486.449	-128.577	0.035	0.005
-485.435	435.994	0.089	0.192
-484.420	655.568	-0.055	0.141
-483.405	0.774	0.180	0.128
-482.391	-74.300	-0.235	-0.084
-481.376	-95.368	-0.222	-0.059
-480.362	343.221	-0.057	0.110
-479.347	-129.079	0.202	0.028
-478.332	-124.295	0.355	-0.055
-477.318	103.379	0.125	0.145
-476.303	800.000	0.039	0.131
-475.289	-200.000	0.027	0.356
-474.274	-83.751	-0.175	-0.055
-473.259	-200.000	-0.003	0.083
-472.245	728.581	0.014	-0.037
-471.230	-30.391	-0.197	0.111
-470.216	-26.556	-0.109	0.064
-469.201	-48.811	-0.144	-0.069
-468.186	800.000	0.068	0.203
-467.172	155.122	-0.262	0.357
-466.157	-63.420	-0.224	-0.091
-465.143	-192.554	-0.432	0.004
-464.128	208.070	-0.027	0.042
-463.113	194.887	-0.103	-0.155
-462.099	102.746	0.028	0.032
-461.084	-88.584	-0.306	-0.090
-460.070	800.000	-0.068	0.201
-459.055	-135.594	0.022	0.003
-458.040	800.000	-0.037	0.134
-457.026	-113.459	-0.503	-0.098
-456.011	-139.299	-0.217	0.023
-454.997	355.017	-0.073	-0.144
-453.982	-44.550	0.097	0.048
-452.968	64.002	-0.293	-0.292
-451.953	55.874	0.247	-0.238
-450.938	171.016	-0.095	0.135
-449.924	113.118	-0.078	0.094
-448.909	132.882	-0.118	0.151
-447.895	139.129	-0.476	-0.620
-446.880	8.422	-0.122	-0.090
-445.865	800.000	0.047	0.140
-444.851	800.000	-0.107	-0.459
-443.836	-200.000	-0.032	-0.258
-442.822	176.932	0.145	0.209
-441.807	100.333	0.240	0.276
-440.792	144.670	0.080	-0.106
-439.778	-76.817	-0.127	-0.044
-438.763	38.823	0.154	0.136
-437.749	24.621	-0.256	-0.209
-436.734	-42.776	0.246	0.124
-435.719	182.195	0.184	-0.268
-434.705	800.000	-0.068	-0.211
-433.690	752.845	-0.090	0.241
-432.676	399.161	0.153	-0.318
-431.661	-200.000	0.002	-0.186
-430.646	269.492	-0.163	-0.283
-429.632	637.156	-0.131	-0.329
-428.617	-200.000	-0.012	-0.116
-427.603	-42.987	0.063	0.031
-426.588	-89.692	0.338	-0.098
-425.573	399.994	-0.126	0.261
-424.559	-31.545	-0.263	-0.146
-423.544	-200.000	-0.009	-0.104
-422.530	224.664	-0.057	0.091
-421.515	-56.193	-0.157	-0.069
-420.500	-200.000	0.054	-0.381
-419.486	390.277	-0.083	0.171
-418.471	47.290	-0.241	-0.222
-417.457	-102.442	-0.185	0.044
-416.442	310.078	0.062	-0.115
-415.428	-71.380	0.201	-0.074
-414.413	276.319	-0.121	-0.212
-413.398	800.000	0.053	-0.149
-412.384	-123.068	0.562	-0.089
-411.369	800.000	0.084	0.329
-410.355	-160.236	0.198	-0.011
-409.340	-10.695	-0.077	-0.050
-408.325	4.135	0.334	-0.241
-407.311	114.349	-0.293	0.353
-406.296	-200.000	0.022	0.261
-405.282	218.872	0.113	-0.179
-404.267	-4.365	-0.259	0.177
-403.252	501.913	-0.108	-0.246
-402.238	15.940	-0.149	-0.116
-401.223	57.016	0.109	-0.105
-400.209	202.679	0.148	-0.226
-399.194	-17.116	-0.111	-0.069
-398.179	57.728	0.503	0.486
-397.165	800.000	-0.010	-0.042
-396.150	-200.000	0.019	0.205
-395.136	-153.552	0.407	-0.028
-394.121	-13.509	-0.144	-0.092
-393.106	-15.302	0.081	-0.051
-392.092	800.000	-0.027	-0.080
-391.077	800.000	0.058	0.216
-390.063	-63.057	-0.246	-0.100
-389.048	-167.279	-0.023	-0.001
-388.033	-153.124	0.222	0.015
-387.019	800.000	-0.066	0.210
-386.004	-114.586	-0.315	0.060
-384.990	770.595	-0.088	0.238
-383.975	186.178	0.187	0.275
-382.960	-105.566	0.224	0.050
-381.946	-61.344	-0.319	-0.133
-380.931	800.000	-0.060	0.194
-379.917	-73.295	0.084	-0.030
-378.902	-200.000	0.007	0.075
-377.888	606.477	-0.090	0.222
-376.873	-47.289	0.153	0.073
-375.858	-200.000	0.050	0.421
-374.844	-200.000	0.036	0.454
-373.829	-62.762	0.233	-0.095
-372.815	-165.380	-0.131	-0.006
-371.800	-155.526	0.130	0.008
-370.785	-200.000	0.006	-0.359
-369.771	5.036	-0.197	-0.143
-368.756	-118.936	-0.133	0.023
-367.742	-88.757	-0.264	0.077
-366.727	-113.566	-0.346	-0.067
-365.712	-42.253	-0.199	-0.100
-364.698	-200.000	-0.149	-0.000
-363.683	-82.586	-0.417	0.133
-362.669	587.289	0.117	-0.285
-361.654	-200.000	0.010	0.172
-360.639	55.965	-0.083	-0.080
-359.625	800.000	-0.022	0.083
-358.610	-71.849	-0.175	0.064
-357.596	-151.531	-0.254	0.019
-356.581	-200.000	0.019	0.222
-355.566	15.876	-0.116	0.090
-354.552	-200.000	0.016	0.092
-353.537	-111.689	-0.205	-0.041
-352.523	-37.008	-0.252	-0.133
-351.508	789.890	-0.099	0.267
-350.493	312.514	-0.027	-0.050
-349.479	-200.000	-0.107	0.478
-348.464	8.918	0.054	-0.040
-347.450	24.800	-0.029	-0.024
-346.435	-200.000	0.020	-0.264
-345.420	17.905	0.083	0.065
-344.406	163.870	0.210	-0.292
-343.391	-0.976	0.068	-0.047
-342.377	800.000	0.105	0.300
-341.362	-99.301	0.421	0.105
-340.348	37.548	-0.147	0.129
-339.333	-109.553	-0.044	-0.009
-338.318	-200.000	0.014	0.101
-337.304	3.091	0.076	-0.054
-336.289	492.502	-0.104	-0.234
-335.275	-200.000	0.003	0.069
-334.260	47.184	-0.225	-0.207
-333.245	800.000	-0.055	0.184
-332.231	10.665	-0.115	-0.087
-331.216	50.922	0.052	0.049
-330.202	-139.314	0.275	-0.029
-329.187	-37.061	0.270	-0.143
-328.172	-175.623	0.135	-0.004
-327.158	107.989	0.092	-0.108
-326.143	-62.599	-0.398	0.163
-325.129	103.873	-0.065	0.075
-324.114	-25.056	-0.158	0.093
-323.099	312.004	-0.125	-0.231
-322.085	-19.182	0.281	-0.172
-321.070	-7.933	-0.020	0.013
-320.056	-148.945	-0.180	-0.014
-319.041	-125.681	-0.198	0.030
-318.026	-135.998	-0.095	-0.011
-317.012	683.273	0.112	-0.288
-315.997	-200.000	-0.019	0.256
-314.983	376.604	-0.009	0.018
-313.968	800.000	-0.120	-0.389
-312.953	-200.000	-0.010	-0.220
-311.939	-25.116	0.433	0.252
-310.924	-200.000	-0.008	0.265
-309.910	242.416	0.112	-0.185
-308.895	8.323	0.278	-0.206
-307.880	209.815	0.066	-0.101
-306.866	121.860	-0.190	0.233
-305.851	193.893	0.180	0.269
-304.837	-200.000	-0.012	-0.172
-303.822	-97.803	-0.125	-0.032
-302.807	-43.014	0.190	0.095
-301.793	-116.606	-0.316	0.057
-300.778	-200.000	-0.030	0.245
-299.764	80.854	-0.276	-0.293
-298.749	800.000	-0.030	-0.090
-297.735	-200.000	-0.048	-0.326
-296.720	-200.000	0.008	0.042
-295.705	221.506	0.218	-0.345
-294.691	800.000	0.084	-0.348
-293.676	0.274	-0.157	-0.110
-292.662	-200.000	-0.035	-0.289
-291.647	-70.182	0.123	0.046
-290.632	43.480	0.135	0.121
-289.618	177.886	0.100	0.143
-288.603	453.097	-0.106	-0.230
-287.589	323.672	0.060	-0.113
-286.574	159.129	0.147	-0.201
-285.559	92.788	-0.093	-0.103
-284.545	38.270	-0.216	0.189
-283.530	-200.000	-0.026	0.222
-282.516	68.629	-0.107	0.108
-281.501	138.580	-0.040	0.051
-280.486	96.992	0.238	0.268
-279.472	70.976	0.307	0.313
-278.457	170.944	-0.152	0.215
-277.443	-61.310	0.081	-0.034
-276.428	-34.530	0.166	-0.089
-275.413	-76.667	0.187	-0.064
-274.399	111.378	0.265	0.314
-273.384	-60.776	-0.185	0.077
-272.370	800.000	0.056	-0.184
-271.355	-200.000	-0.071	0.493
-270.340	106.469	-0.194	0.226
-269.326	800.000	-0.034	0.147
-268.311	-191.927	-0.059	0.001
-267.297	37.561	-0.065	0.057
-266.282	800.000	-0.087	0.269
-265.267	-200.000	-0.014	0.144
-264.253	281.913	-0.169	0.298
-263.238	-200.000	0.009	0.217
-262.224	-121.389	0.088	0.014
-261.209	-200.000	-0.046	-0.352
-260.195	-58.727	0.213	0.091
-259.180	800.000	-0.115	-0.380
-258.165	353.354	-0.100	0.196
-257.151	671.607	0.138	0.353
-256.136	342.270	-0.277	-0.533
-255.122	800.000	0.048	-0.147
-254.107	-200.000	-0.048	-0.274
-253.092	-164.655	-0.193	0.009
-252.078	-39.805	0.372	-0.191
-251.063	800.000	0.078	-0.264
-250.049	-68.298	0.163	-0.062
-249.034	-80.440	-0.086	0.028
-248.019	447.904	-0.051	0.110
-247.005	800.000	-0.051	0.166
-245.990	-131.297	0.231	0.030
-244.976	644.571	0.085	0.212
-243.961	-200.000	0.011	-0.184
-242.946	800.000	0.136	0.372
-241.932	86.899	0.209	-0.227
-240.917	59.308	0.147	0.142
-239.903	-200.000	-0.011	-0.145
-238.888	520.330	0.012	-0.028
-237.873	-102.399	-0.317	0.075
-236.859	-104.026	0.106	0.024
-235.844	-25.845	-0.111	-0.064
-234.830	367.389	-0.228	0.452
-233.815	-128.252	0.112	0.016
-232.800	118.586	0.122	0.147
-231.786	-128.461	0.051	-0.007
-230.771	-9.538	0.238	-0.156
-229.757	97.377	0.294	-0.332
-228.742	19.777	0.045	-0.036
-227.727	-200.000	-0.028	0.159
-226.713	486.937	0.236	0.529
-225.698	800.000	0.082	-0.295
-224.684	-200.000	0.055	-0.285
-223.669	-200.000	0.012	-0.112
-222.655	-200.000	-0.008	0.212
-221.640	800.000	-0.087	-0.292
-220.625	-200.000	0.302	0.001
-219.611	-200.000	0.036	-0.233
-218.596	-0.311	0.161	-0.112
-217.582	-142.746	0.270	0.026
-216.567	-139.589	0.087	-0.009
-215.552	132.370	-0.032	0.041
-214.538	-134.516	0.208	-0.025
-213.523	-60.459	0.153	0.064
-212.509	177.006	-0.176	0.251
-211.494	58.470	-0.256	0.247
-210.479	800.000	0.112	0.381
-209.465	100.313	-0.080	0.091
-208.450	41.432	-0.147	-0.130
-207.436	-43.848	0.112	-0.055
-206.421	-116.063	-0.176	-0.032
-205.406	-200.000	-0.059	0.000
-204.392	-22.945	-0.137	-0.081
-203.377	277.228	-0.016	-0.028
-202.363	-0.818	-0.154	-0.107
-201.348	800.000	0.018	-0.070
-200.333	496.062	0.020	0.046
-199.319	-119.477	0.039	-0.007
-198.304	800.000	-0.057	0.227
-197.290	528.950	0.043	0.099
-196.275	-76.012	-0.202	-0.070
-195.260	30.523	0.092	-0.077
-194.246	162.895	-0.056	-0.078
-193.231	-28.865	0.192	-0.108
-192.217	800.000	0.112	0.459
-191.202	-200.000	-0.054	-0.301
-190.187	-161.056	0.165	-0.008
-189.173	149.204	-0.139	0.184
-188.158	-64.476	-0.154	0.061
-187.144	-24.456	0.304	-0.177
-186.129	-52.671	0.047	0.021
-185.114	-200.000	-0.004	0.279
-184.100	95.989	-0.136	0.153
-183.085	-200.000	-0.016	-0.282
-182.071	800.000	-0.043	-0.165
-181.056	460.586	0.173	-0.377
-180.042	-96.774	0.061	-0.016
-179.027	-200.000	-0.004	0.074
-178.012	800.000	-0.056	0.199
-176.998	69.276	0.117	-0.118
-175.983	-200.000	-0.021	0.245
-174.969	-3.915	-0.046	0.032
-173.954	-69.431	0.259	-0.097
-172.939	-91.152	-0.149	-0.042
-171.925	505.861	0.108	-0.245
-170.910	-200.000	0.070	0.358
-169.896	249.938	-0.147	0.244
-168.881	201.228	-0.137	0.206
-167.866	-83.463	-0.246	0.077
-166.852	81.950	-0.144	-0.153
-165.837	-73.841	0.205	-0.073
-164.823	167.985	0.153	-0.214
-163.808	-15.320	-0.060	0.038
-162.793	173.102	-0.131	-0.185
-161.779	800.000	0.056	-0.175
-160.764	-18.793	-0.441	0.269
-159.750	-15.772	-0.125	-0.078
-158.735	35.509	-0.056	-0.048
-157.720	-200.000	-0.009	-0.069
-156.706	-200.000	-0.042	0.248
-155.691	-41.252	0.222	-0.112
-154.677	-197.379	0.175	-0.001
-153.662	-103.244	0.309	-0.071
-152.647	747.863	0.075	0.198
-151.633	27.626	-0.206	0.170
-150.618	407.763	0.066	0.137
-149.604	232.851	0.118	-0.190
-148.589	-131.886	-0.124	0.016
-147.574	-84.583	-0.159	-0.049
-146.560	-200.000	-0.022	0.187
-145.545	215.595	-0.073	0.114
-144.531	-200.000	0.038	-0.210
-143.516	39.863	0.096	0.084
-142.502	66.043	0.220	-0.219
-141.487	-5.468	-0.105	-0.071
-140.472	-167.089	-0.120	-0.005
-139.458	74.258	-0.227	-0.233
-138.443	677.421	-0.025	0.062
-137.429	-125.908	0.397	-0.059
-136.414	-65.583	-0.107	-0.042
-135.399	-31.810	-0.084	0.046
-134.385	492.100	0.139	-0.311
-133.370	17.623	-0.087	-0.068
-132.356	287.221	0.173	-0.306
-131.341	14.147	0.052	-0.039
-130.326	-88.679	-0.218	0.063
-129.312	-42.407	0.182	-0.091
-128.297	-131.349	0.088	0.011
-127.283	-25.585	0.165	0.095
-126.268	184.499	-0.050	0.073
-125.253	-200.000	-0.015	0.179
-124.239	-127.416	0.195	-0.028
-123.224	-111.823	-0.217	0.043
-122.210	-8.947	0.119	-0.078
