DTS Sentinel unit serial number:	SN413079Multiplexer serial number:	ORYXHardware model number:	OX4-SRSoftware version number:	ORYX F/W v4.00 Oryx Data Collector v3.7.2.0data status	okinstallation	princeton_trtdifferential loss correction	single-endedforward channel	channel 1reverse channel	N/Adate	2019/09/10time	21:40:11forward acquisition time	60.00reverse acquisition time	0.00gamma	496.2192k internal	0.2330k external	0.2330temperature offset calibration	0.9934default loss term (dB/km)	0.3790temperature slope calibration	1.0000multiplexer offset coefficient	1.0000multiplexer slope coefficient	1.0000fibre end	0.00T internal ref (°C)	31.00T ext. ref 1 (°C)	-0.30T ext. ref 2 (°C)	24.28length (m)	temperature (°C)	Stokes	anti-Stokes-747.200	70.678	-0.145	0.151
-746.185	-142.104	-0.336	0.034
-745.171	-106.888	0.265	-0.059
-744.156	0.012	-0.114	-0.082
-743.142	800.000	0.037	-0.159
-742.127	-197.779	-0.401	0.002
-741.112	46.638	0.170	0.159
-740.098	178.826	-0.087	0.128
-739.083	18.299	0.057	-0.046
-738.069	706.919	-0.112	0.297
-737.054	99.716	0.073	0.085
-736.039	-121.245	-0.394	-0.066
-735.025	-140.966	0.186	0.019
-734.010	-95.120	-0.151	-0.041
-732.996	146.113	-0.143	-0.193
-731.981	-0.504	0.148	-0.106
-730.966	32.536	-0.137	-0.119
-729.952	123.744	0.186	-0.235
-728.937	50.574	-0.118	-0.112
-727.923	-26.744	-0.080	-0.047
-726.908	800.000	0.026	0.080
-725.894	-31.054	0.256	-0.145
-724.879	191.010	-0.027	-0.040
-723.864	-31.998	0.293	-0.165
-722.850	-94.698	-0.121	-0.033
-721.835	49.247	0.230	-0.218
-720.821	20.087	0.233	0.189
-719.806	-80.383	-0.275	0.092
-718.791	800.000	0.042	-0.156
-717.777	-14.413	-0.286	0.185
-716.762	800.000	0.099	0.301
-715.748	-200.000	0.056	0.584
-714.733	6.518	-0.491	0.367
-713.718	104.284	0.243	-0.287
-712.704	-53.578	-0.422	0.194
-711.689	-89.056	-0.184	0.055
-710.675	-200.000	0.018	-0.256
-709.660	-36.498	-0.294	0.159
-708.645	-57.468	-0.324	0.143
-707.631	205.274	0.113	-0.177
-706.616	-57.265	-0.279	0.123
-705.602	-51.579	-0.260	0.122
-704.587	4.509	-0.220	-0.162
-703.572	-200.000	-0.031	0.307
-702.558	-88.585	0.370	-0.111
-701.543	231.969	-0.052	0.086
-700.529	-35.712	-0.115	0.063
-699.514	-121.317	-0.319	-0.054
-698.499	27.056	-0.210	0.177
-697.485	-123.618	-0.083	0.013
-696.470	-200.000	-0.037	-0.268
-695.456	765.156	0.134	-0.365
-694.441	-21.921	0.212	-0.130
-693.426	-3.392	-0.173	-0.121
-692.412	-10.086	-0.244	0.163
-691.397	-200.000	-0.050	-0.290
-690.383	-87.311	-0.103	-0.031
-689.368	-6.800	-0.171	0.117
-688.354	77.067	0.111	0.118
-687.339	-60.406	-0.296	0.126
-686.324	-30.099	0.045	-0.026
-685.310	81.268	-0.178	0.193
-684.295	-59.890	0.260	0.111
-683.281	-24.121	-0.199	-0.119
-682.266	-85.049	-0.257	0.081
-681.251	800.000	0.072	-0.298
-680.237	-200.000	0.010	0.118
-679.222	1.400	-0.175	0.126
-678.208	-200.000	-0.004	-0.259
-677.193	328.607	-0.031	0.060
-676.178	637.489	-0.182	-0.463
-675.164	199.070	0.207	-0.319
-674.149	239.812	0.126	-0.211
-673.135	-102.323	-0.311	0.075
-672.120	121.379	-0.280	-0.350
-671.105	-9.191	0.182	0.122
-670.091	-46.386	-0.149	-0.074
-669.076	800.000	-0.114	-0.326
-668.062	73.083	-0.150	-0.158
-667.047	800.000	0.076	-0.318
-666.032	21.845	-0.053	0.043
-665.018	-200.000	-0.041	0.000
-664.003	227.248	-0.057	0.093
-662.989	-62.521	0.355	0.148
-661.974	-3.072	-0.259	0.181
-660.959	-150.997	0.292	-0.022
-659.945	-55.815	-0.100	0.045
-658.930	238.573	0.064	-0.106
-657.916	108.106	-0.262	0.313
-656.901	800.000	0.125	0.396
-655.886	800.000	-0.034	0.119
-654.872	-200.000	-0.005	-0.099
-653.857	-200.000	0.018	-0.400
-652.843	106.675	-0.069	-0.082
-651.828	-36.064	0.303	-0.164
-650.814	-68.708	-0.173	-0.067
-649.799	240.407	0.071	0.119
-648.784	-29.508	0.324	-0.186
-647.770	-148.825	0.171	0.014
-646.755	-127.277	-0.294	0.043
-645.741	604.563	-0.081	-0.202
-644.726	-47.932	0.297	0.144
-643.711	21.184	-0.127	-0.104
-642.697	286.546	-0.200	-0.362
-641.682	727.389	-0.031	-0.084
-640.668	3.034	-0.342	0.249
-639.653	-81.219	0.169	0.056
-638.638	441.949	-0.110	0.241
-637.624	60.354	0.089	0.089
-636.609	91.367	-0.073	0.083
-635.595	800.000	0.096	0.279
-634.580	-30.235	-0.097	0.055
-633.565	86.893	0.231	-0.255
-632.551	366.816	0.045	0.092
-631.536	154.188	-0.210	-0.289
-630.522	-46.071	0.312	0.154
-629.507	-200.000	-0.017	0.093
-628.492	101.740	0.065	-0.076
-627.478	800.000	-0.058	-0.237
-626.463	165.389	-0.126	0.178
-625.449	407.773	-0.162	0.343
-624.434	355.742	-0.109	0.217
-623.419	-22.111	-0.093	0.057
-622.405	156.904	-0.086	0.119
-621.390	-87.701	-0.237	-0.072
-620.376	-16.293	-0.119	0.076
-619.361	-91.497	-0.317	0.091
-618.346	-40.996	0.164	0.085
-617.332	-150.289	-0.326	0.025
-616.317	-158.153	0.379	-0.022
-615.303	24.563	0.072	-0.060
-614.288	-33.586	0.270	0.149
-613.273	521.753	-0.112	0.264
-612.259	161.621	0.126	-0.177
-611.244	800.000	0.106	0.310
-610.230	800.000	-0.031	0.123
-609.215	-200.000	-0.001	0.087
-608.201	104.165	0.138	-0.163
-607.186	-121.367	-0.107	-0.018
-606.171	100.873	0.135	-0.158
-605.157	279.708	0.297	-0.530
-604.142	-200.000	-0.026	-0.169
-603.128	-97.209	0.249	-0.065
-602.113	3.068	-0.016	0.012
-601.098	-178.974	-0.246	-0.006
-600.084	-108.387	-0.034	0.007
-599.069	47.625	0.125	-0.117
-598.055	-200.000	-0.011	0.308
-597.040	-200.000	0.080	0.554
-596.025	800.000	-0.031	-0.129
-595.011	-70.866	-0.182	-0.069
-593.996	-115.588	0.137	-0.026
-592.982	244.697	0.073	-0.123
-591.967	-36.129	-0.082	-0.044
-590.952	-181.200	0.287	-0.006
-589.938	-138.605	-0.286	-0.031
-588.923	-200.000	0.013	0.137
-587.909	243.973	0.064	-0.108
-586.894	-74.952	-0.192	-0.069
-585.879	47.215	0.135	0.126
-584.865	10.555	0.081	0.062
-583.850	35.448	0.090	-0.079
-582.836	-7.381	0.173	0.117
-581.821	-200.000	0.004	0.155
-580.806	800.000	-0.052	0.215
-579.792	17.304	0.226	0.179
-578.777	36.030	0.028	0.025
-577.763	-103.274	-0.151	0.036
-576.748	800.000	-0.076	0.299
-575.733	-16.243	0.112	0.071
-574.719	23.683	-0.121	0.100
-573.704	305.090	-0.096	0.178
-572.690	279.052	0.113	0.201
-571.675	258.698	0.037	-0.064
-570.661	-200.000	-0.000	-0.158
-569.646	13.246	0.063	-0.049
-568.631	-31.465	-0.140	0.079
-567.617	192.078	0.054	-0.082
-566.602	598.462	-0.077	-0.191
-565.588	518.316	-0.080	-0.188
-564.573	435.104	0.181	-0.393
-563.558	48.443	-0.144	-0.134
-562.544	223.747	-0.150	0.242
-561.529	800.000	-0.053	-0.152
-560.515	257.130	-0.093	-0.160
-559.500	-97.409	-0.249	-0.065
-558.485	497.450	0.089	0.204
-557.471	-61.843	0.124	0.052
-556.456	211.766	0.103	0.162
-555.442	199.948	0.113	0.173
-554.427	-112.180	0.122	-0.025
-553.412	-95.953	-0.188	0.050
-552.398	197.407	0.077	0.118
-551.383	-125.086	0.195	-0.030
-550.369	89.052	-0.111	0.123
-549.354	72.902	0.204	-0.213
-548.339	209.416	-0.088	-0.138
-547.325	-54.441	0.160	-0.072
-546.310	40.546	-0.174	0.156
-545.296	316.263	0.162	-0.305
-544.281	-151.589	-0.373	0.028
-543.266	-98.038	0.203	0.052
-542.252	-84.111	0.136	0.043
-541.237	630.707	0.130	-0.329
-540.223	611.969	0.107	-0.267
-539.208	-133.281	-0.162	0.020
-538.193	-88.115	0.185	0.055
-537.179	136.420	0.147	0.192
-536.164	141.215	-0.132	-0.174
-535.150	-70.272	0.324	-0.123
-534.135	-34.313	0.362	-0.198
-533.121	-35.935	-0.242	-0.131
-532.106	-106.514	-0.270	-0.060
-531.091	800.000	0.103	-0.439
-530.077	-53.139	0.189	-0.087
-529.062	134.501	0.060	0.078
-528.048	-200.000	-0.057	0.363
-527.033	-57.132	0.195	0.086
-526.018	800.000	-0.056	0.227
-525.004	-200.000	-0.030	-0.161
-523.989	113.771	-0.174	-0.211
-522.975	-35.307	0.042	-0.023
-521.960	800.000	-0.100	-0.281
-520.945	-19.227	-0.278	-0.172
-519.931	-200.000	0.060	0.346
-518.916	466.239	-0.138	0.309
-517.902	134.924	0.200	-0.260
-516.887	-74.542	0.400	-0.144
-515.872	125.742	0.169	-0.213
-514.858	234.449	-0.162	-0.266
-513.843	-121.311	0.215	-0.036
-512.829	45.781	0.123	0.114
-511.814	-200.000	0.032	-0.158
-510.799	-200.000	-0.033	0.235
-509.785	-200.000	0.010	0.167
-508.770	-81.270	-0.331	0.109
-507.756	-29.396	0.070	0.040
-506.741	7.479	0.083	0.062
-505.726	-200.000	-0.020	-0.189
-504.712	-29.276	0.166	-0.095
-503.697	100.580	-0.055	0.064
-502.683	391.341	0.090	0.186
-501.668	-69.434	0.046	-0.018
-500.653	633.051	0.132	0.333
-499.639	-200.000	0.013	0.059
-498.624	-3.174	0.296	-0.206
-497.610	43.266	0.152	0.139
-496.595	170.729	0.198	0.282
-495.581	8.269	0.092	-0.069
-494.566	289.499	-0.125	0.226
-493.551	330.078	-0.068	-0.130
-492.537	141.873	0.234	-0.309
-491.522	-200.000	-0.060	-0.310
-490.508	-122.066	-0.247	0.040
-489.493	-46.037	-0.201	0.099
-488.478	-67.396	0.046	-0.018
-487.464	521.848	-0.035	-0.083
-486.449	-41.077	-0.120	-0.062
-485.435	-94.401	-0.270	0.073
-484.420	-4.910	0.136	-0.093
-483.405	-131.659	0.079	0.010
-482.391	695.262	0.048	-0.126
-481.376	-163.362	0.114	-0.005
-480.362	800.000	0.033	-0.144
-479.347	-200.000	-0.004	-0.081
-478.332	53.789	-0.189	-0.181
-477.318	4.169	-0.067	-0.049
-476.303	-91.151	-0.159	0.045
-475.289	-200.000	0.010	0.164
-474.274	-200.000	-0.048	0.528
-473.259	-9.962	-0.188	-0.124
-472.245	800.000	-0.049	-0.140
-471.230	34.155	0.128	-0.111
-470.216	-103.704	-0.101	-0.024
-469.201	659.496	-0.073	-0.187
-468.186	-108.063	-0.121	-0.026
-467.172	-82.481	0.118	-0.038
-466.157	800.000	-0.051	-0.152
-465.143	36.465	0.132	-0.116
-464.128	-53.137	0.186	0.085
-463.113	-96.157	-0.246	-0.065
-462.099	229.926	-0.159	-0.259
-461.084	800.000	-0.099	0.372
-460.070	5.871	-0.168	-0.124
-459.055	800.000	0.068	0.239
-458.040	58.543	-0.115	-0.113
-457.026	-17.677	-0.104	-0.065
-456.011	-184.325	0.204	0.003
-454.997	-174.738	0.124	0.003
-453.982	-79.326	0.388	0.131
-452.968	-200.000	0.045	-0.222
-451.953	55.008	-0.087	-0.084
-450.938	111.466	0.124	0.149
-449.924	-200.000	0.024	-0.130
-448.909	152.486	-0.061	-0.082
-447.895	384.907	0.133	-0.273
-446.880	-97.604	0.371	-0.096
-445.865	-200.000	-0.017	-0.117
-444.851	574.531	0.112	-0.272
-443.836	800.000	0.063	-0.186
-442.822	800.000	0.046	-0.145
-441.807	-200.000	-0.014	0.150
-440.792	143.041	0.138	0.183
-439.778	-159.050	0.094	-0.005
-438.763	-200.000	0.035	0.362
-437.749	800.000	-0.044	-0.159
-436.734	-19.942	-0.061	-0.038
-435.719	177.894	-0.346	-0.502
-434.705	-77.877	0.238	-0.082
-433.690	363.896	0.097	0.195
-432.676	256.364	-0.088	-0.150
-431.661	-4.009	-0.154	0.106
-430.646	-19.665	0.208	0.128
-429.632	195.100	-0.070	-0.105
-428.617	-200.000	0.015	-0.284
-427.603	474.046	-0.080	-0.180
-426.588	-136.884	0.127	0.014
-425.573	800.000	0.058	0.167
-424.559	-200.000	0.015	0.155
-423.544	800.000	-0.032	-0.126
-422.530	-200.000	-0.011	-0.258
-421.515	-148.554	0.083	-0.007
-420.500	42.779	-0.205	-0.186
-419.486	-50.717	-0.075	0.035
-418.471	-200.000	0.068	-0.000
-417.457	800.000	-0.061	-0.221
-416.442	316.596	0.120	-0.226
-415.428	-200.000	0.098	0.641
-414.413	-106.091	0.389	-0.087
-413.398	-19.826	0.177	0.109
-412.384	-199.485	0.390	0.002
-411.369	416.632	-0.188	-0.399
-410.355	90.607	-0.102	-0.114
-409.340	-37.644	0.038	0.020
-408.325	-145.623	-0.256	-0.023
-407.311	129.749	-0.031	-0.039
-406.296	-148.782	-0.457	0.037
-405.282	-131.644	-0.110	-0.014
-404.267	-8.993	-0.174	-0.115
-403.252	-45.726	-0.202	-0.099
-402.238	-200.000	-0.062	0.339
-401.223	800.000	-0.041	0.136
-400.209	-36.796	-0.242	0.129
-399.194	52.172	-0.139	0.132
-398.179	91.296	0.080	-0.089
-397.165	372.279	0.111	0.223
-396.150	263.298	0.082	0.141
-395.136	-23.874	-0.055	0.033
-394.121	105.517	-0.156	0.184
-393.106	225.700	0.043	0.069
-392.092	6.191	-0.155	0.114
-391.077	-50.596	0.152	-0.071
-390.063	732.963	-0.089	0.237
-389.048	-101.084	-0.156	0.038
-388.033	-52.815	-0.182	-0.083
-387.019	-122.110	0.346	0.056
-386.004	800.000	0.070	0.265
-384.990	800.000	-0.038	0.147
-383.975	523.256	-0.110	-0.257
-382.960	36.728	0.216	-0.190
-381.946	-200.000	0.038	-0.207
-380.931	48.272	0.320	0.297
-379.917	-147.286	0.203	-0.017
-378.902	326.689	-0.038	0.072
-377.888	-172.779	0.060	0.002
-376.873	302.466	0.123	-0.227
-375.858	599.226	-0.090	0.223
-374.844	-46.189	0.242	0.118
-373.829	-102.549	-0.338	-0.080
-372.815	222.348	0.070	0.112
-371.800	-67.893	0.219	0.085
-370.785	-200.000	-0.035	-0.186
-369.771	166.251	0.044	0.061
-368.756	-36.172	0.228	0.122
-367.742	-200.000	-0.005	0.196
-366.727	-113.748	-0.278	0.054
-365.712	7.957	-0.048	0.035
-364.698	17.020	0.097	-0.076
-363.683	-200.000	-0.015	-0.104
-362.669	38.015	-0.073	-0.064
-361.654	18.433	0.100	0.079
-360.639	21.529	-0.360	0.291
-359.625	-1.258	-0.304	-0.213
-358.610	-120.350	0.145	0.024
-357.596	12.144	-0.144	0.110
-356.581	-141.118	-0.051	0.005
-355.566	201.976	0.077	-0.118
-354.552	-123.182	-0.303	-0.048
-353.537	71.055	0.205	-0.211
-352.523	800.000	-0.017	0.049
-351.508	-161.607	0.092	0.005
-350.493	-124.988	0.350	0.053
-349.479	-200.000	-0.007	-0.103
-348.464	-82.607	0.210	-0.067
-347.450	-120.703	0.037	-0.006
-346.435	-22.554	-0.289	0.173
-345.420	-130.339	0.217	0.029
-344.406	-49.372	0.229	0.108
-343.391	-94.514	0.033	0.009
-342.377	486.542	-0.191	-0.432
-341.362	800.000	0.073	0.204
-340.348	160.596	-0.197	-0.272
-339.333	197.443	-0.116	-0.176
-338.318	800.000	0.118	-0.381
-337.304	-200.000	0.073	0.369
-336.289	-125.685	0.020	-0.003
-335.275	800.000	0.011	0.038
-334.260	-54.605	-0.250	0.112
-333.245	486.652	-0.095	-0.215
-332.231	800.000	-0.080	-0.235
-331.216	-90.160	-0.308	-0.089
-330.202	329.377	-0.033	0.062
-329.187	-112.698	-0.093	-0.018
-328.172	-54.652	0.112	-0.050
-327.158	24.022	0.101	-0.082
-326.143	-26.735	-0.105	-0.061
-325.129	68.168	0.171	-0.173
-324.114	210.866	0.192	0.299
-323.099	-37.802	0.018	-0.010
-322.085	-25.765	0.467	0.273
-321.070	-200.000	-0.008	0.179
-320.056	0.553	-0.168	-0.119
-319.041	216.191	-0.094	-0.149
-318.026	-56.292	-0.419	-0.185
-317.012	-177.300	-0.197	-0.005
-315.997	-200.000	-0.024	0.491
-314.983	-200.000	0.028	0.187
-313.968	-49.228	0.288	-0.136
-312.953	800.000	-0.074	0.215
-311.939	-90.513	0.246	-0.070
-310.924	120.735	0.059	0.073
-309.910	-16.568	0.091	0.057
-308.895	25.361	-0.200	-0.164
-307.880	77.435	-0.202	0.213
-306.866	124.187	0.143	-0.177
-305.851	-200.000	0.006	-0.206
-304.837	-83.161	0.018	0.006
-303.822	13.690	-0.098	-0.075
-302.807	-68.414	-0.280	0.107
-301.793	-89.973	-0.210	-0.061
-300.778	-136.990	0.192	-0.022
-299.764	-62.821	-0.253	0.103
-298.749	102.497	0.090	-0.104
-297.735	-162.853	-0.202	0.010
-296.720	-65.156	-0.085	-0.034
-295.705	34.883	0.238	-0.206
-294.691	-200.000	-0.004	0.307
-293.676	374.142	-0.132	-0.266
-292.662	-182.411	-0.061	0.001
-291.647	28.904	-0.125	-0.104
-290.632	-33.468	-0.118	-0.065
-289.618	-200.000	-0.033	0.162
-288.603	-37.321	-0.188	-0.100
-287.589	33.398	0.173	-0.148
-286.574	800.000	-0.098	-0.306
-285.559	193.072	-0.188	-0.281
-284.545	10.266	0.219	0.165
-283.530	-200.000	0.016	-0.213
-282.516	87.685	-0.117	0.128
-281.501	800.000	0.052	0.181
-280.486	-200.000	-0.047	0.304
-279.472	-78.526	0.095	0.032
-278.457	5.838	-0.197	-0.144
-277.443	-200.000	0.019	0.136
-276.428	-94.738	-0.080	0.021
-275.413	800.000	0.005	0.015
-274.399	74.462	-0.205	0.213
-273.384	293.098	0.125	0.226
-272.370	-154.641	0.144	0.009
-271.355	-143.684	0.364	0.034
-270.340	100.278	0.168	-0.193
-269.326	-89.635	-0.225	0.065
-268.311	12.315	0.379	0.289
-267.297	-58.932	0.146	-0.062
-266.282	-22.066	0.257	0.154
-265.267	-200.000	-0.002	-0.025
-264.253	-200.000	-0.052	0.293
-263.238	31.586	-0.250	0.212
-262.224	-99.882	-0.133	-0.033
-261.209	-37.921	-0.168	0.088
-260.195	134.293	0.111	-0.142
-259.180	-200.000	0.047	0.242
-258.165	-54.362	0.211	-0.094
-257.151	-200.000	0.045	0.213
-256.136	-178.150	0.246	0.006
-255.122	-100.428	-0.238	0.058
-254.107	92.077	0.092	-0.102
-253.092	-200.000	-0.027	0.443
-252.078	-33.362	0.248	0.136
-251.063	157.283	-0.079	0.108
-250.049	800.000	-0.092	0.284
-249.034	-88.635	0.150	0.044
-248.019	434.689	0.047	0.100
-247.005	-49.733	-0.129	-0.061
-245.990	-167.163	0.247	0.010
-244.976	800.000	-0.077	0.308
-243.961	800.000	-0.074	0.215
-242.946	179.206	-0.086	-0.124
-241.932	-68.591	0.102	-0.039
-240.917	178.654	0.062	-0.089
-239.903	-181.134	0.215	-0.004
-238.888	38.524	0.220	0.193
-237.873	633.650	0.013	-0.033
-236.859	-31.974	-0.313	0.173
-235.844	103.474	-0.182	0.211
-234.830	20.424	-0.273	-0.218
-233.815	166.310	-0.187	-0.262
-232.800	-119.446	0.124	-0.021
-231.786	-200.000	-0.043	0.224
-230.771	-26.945	0.133	-0.077
-229.757	800.000	0.028	0.083
-228.742	-66.990	0.056	-0.022
-227.727	1.132	0.040	0.028
-226.713	-79.857	-0.148	-0.049
-225.698	752.205	-0.039	0.104
-224.684	-168.347	-0.112	-0.004
-223.669	52.259	-0.088	0.083
-222.655	259.260	-0.207	0.353
-221.640	-100.088	0.148	0.036
-220.625	-108.615	0.068	-0.014
-219.611	-10.209	-0.235	0.154
-218.596	800.000	0.111	-0.374
-217.582	-200.000	-0.004	0.195
-216.567	8.038	-0.165	0.122
-215.552	454.850	-0.091	-0.200
-214.538	-56.016	-0.110	-0.048
-213.523	-200.000	0.007	0.094
-212.509	138.115	0.080	-0.103
-211.494	108.696	-0.021	0.024
-210.479	195.012	-0.110	0.164
-209.465	29.002	-0.182	-0.152
-208.450	-56.155	-0.095	-0.042
-207.436	78.669	0.127	-0.133
-206.421	327.444	-0.125	-0.236
-205.406	47.960	0.097	0.090
-204.392	-24.884	-0.226	0.132
-203.377	429.799	0.109	-0.232
-202.363	-82.875	-0.111	0.035
-201.348	695.976	0.067	0.174
-200.333	-89.907	-0.163	0.047
-199.319	266.330	-0.029	0.050
-198.304	-27.874	0.079	-0.045
-197.290	-200.000	0.028	-0.173
-196.275	-121.800	-0.281	-0.046
-195.260	357.668	-0.065	0.128
-194.246	800.000	0.136	-0.431
-193.231	-200.000	-0.007	-0.163
-192.217	-95.414	0.423	0.112
-191.202	800.000	0.095	-0.382
-190.187	800.000	-0.036	-0.104
-189.173	800.000	0.015	0.048
-188.158	800.000	-0.113	0.322
-187.144	-37.619	-0.099	0.052
-186.129	-87.216	0.180	-0.054
-185.114	116.223	0.260	-0.313
-184.100	-97.181	0.169	0.044
-183.085	-136.509	0.430	0.049
-182.071	800.000	0.011	-0.032
-181.056	-85.516	-0.247	0.076
-180.042	-99.143	0.209	-0.052
-179.027	676.038	-0.077	-0.197
-178.012	-161.866	-0.195	-0.010
-176.998	-98.240	-0.092	-0.023
-175.983	-200.000	0.011	-0.227
-174.969	-200.000	-0.030	0.238
-173.954	-76.592	-0.249	0.086
-172.939	-61.053	-0.511	0.213
-171.925	-200.000	0.009	0.058
-170.910	364.996	-0.116	-0.229
-169.896	490.816	0.095	-0.213
-168.881	-123.801	-0.372	0.058
-167.866	-87.586	0.341	0.102
-166.852	282.375	0.167	-0.294
-165.837	-45.679	-0.209	-0.102
-164.823	135.108	0.127	-0.163
-163.808	284.391	-0.137	-0.242
-162.793	-4.520	-0.166	0.113
-161.779	-200.000	-0.040	0.264
-160.764	-200.000	0.058	-0.282
-159.750	287.493	-0.220	0.391
-158.735	-129.122	0.263	-0.036
-157.720	106.045	0.091	0.106
-156.706	57.825	0.011	0.010
-155.691	-112.959	-0.087	-0.017
-154.677	800.000	-0.105	-0.328
-153.662	-161.258	-0.376	-0.019
-152.647	545.789	-0.054	0.126
-151.633	-76.797	0.260	0.089
-150.618	-33.471	-0.215	-0.117
-149.604	-70.429	-0.146	0.054
-148.589	-166.041	0.274	-0.012
-147.574	-200.000	-0.012	-0.141
-146.560	44.697	0.186	0.168
-145.545	166.327	-0.229	0.318
-144.531	144.175	-0.140	0.184
-143.516	49.106	0.096	0.089
-142.502	-5.035	0.255	0.173
-141.487	41.589	0.068	-0.061
-140.472	-72.361	0.185	0.067
-139.458	-200.000	0.012	-0.057
-138.443	-30.501	0.362	-0.202
-137.429	-124.452	0.317	-0.048
-136.414	-148.431	0.034	0.003
-135.399	-46.122	0.304	0.147
-134.385	92.232	-0.156	0.173
-133.370	735.422	-0.085	0.224
-132.356	157.770	-0.063	0.085
-131.341	154.028	-0.104	-0.141
-130.326	-94.402	-0.182	0.049
-129.312	-8.520	-0.140	0.093
-128.297	379.355	-0.048	0.096
-127.283	-158.066	-0.156	-0.009
-126.268	-200.000	0.007	-0.300
-125.253	-100.549	0.308	-0.075
-124.239	-164.812	-0.072	-0.003
-123.224	-6.463	0.285	0.191
-122.210	-186.901	0.255	-0.003
-121.195	-9.697	0.222	0.145
-120.180	5.893	0.116	-0.084
