DTS Sentinel unit serial number:	SN413079Multiplexer serial number:	ORYXHardware model number:	OX4-SRSoftware version number:	ORYX F/W v4.00 Oryx Data Collector v3.7.2.0data status	okinstallation	princeton_trtdifferential loss correction	single-endedforward channel	channel 1reverse channel	N/Adate	2019/09/16time	10:26:35forward acquisition time	60.00reverse acquisition time	0.00gamma	496.2192k internal	0.2307k external	0.2307temperature offset calibration	0.9969default loss term (dB/km)	0.3790temperature slope calibration	1.0000multiplexer offset coefficient	1.0000multiplexer slope coefficient	1.0000fibre end	0.00T internal ref (°C)	35.05T ext. ref 1 (°C)	12.55T ext. ref 2 (°C)	33.44length (m)	temperature (°C)	Stokes	anti-Stokes-747.200	-121.109	-0.170	0.029
-746.185	800.000	0.064	0.260
-745.171	-16.393	-0.063	-0.040
-744.156	-200.000	-0.075	0.533
-743.142	84.134	-0.037	0.041
-742.127	800.000	-0.039	0.127
-741.112	-35.354	-0.086	-0.048
-740.098	-136.478	-0.120	0.014
-739.083	800.000	0.136	0.394
-738.069	-76.880	-0.119	0.042
-737.054	800.000	0.042	0.165
-736.039	-72.197	0.142	0.054
-735.025	800.000	0.015	-0.061
-734.010	17.394	-0.025	0.020
-732.996	129.424	-0.091	-0.118
-731.981	-101.369	-0.105	-0.026
-730.966	122.475	-0.031	-0.039
-729.952	-200.000	0.022	-0.383
-728.937	-122.142	0.225	-0.037
-727.923	20.706	-0.151	0.124
-726.908	41.991	-0.047	-0.044
-725.894	-113.192	-0.299	-0.060
-724.879	-200.000	0.014	-0.084
-723.864	-117.546	0.252	-0.046
-722.850	-200.000	-0.029	0.230
-721.835	800.000	-0.089	0.270
-720.821	-119.598	0.381	-0.067
-719.806	-160.249	0.158	0.009
-718.791	-192.554	0.280	0.003
-717.777	624.864	0.091	-0.233
-716.762	-1.038	0.211	0.151
-715.748	-74.874	0.155	-0.057
-714.733	800.000	0.081	0.281
-713.718	-200.000	0.010	0.056
-712.704	253.220	-0.209	0.363
-711.689	800.000	-0.104	0.311
-710.675	-200.000	0.000	-0.151
-709.660	-200.000	0.044	-0.216
-708.645	447.889	0.095	-0.212
-707.631	-77.619	0.263	0.093
-706.616	-200.000	0.003	-0.038
-705.602	800.000	-0.067	0.215
-704.587	76.929	-0.078	0.084
-703.572	176.651	-0.174	-0.256
-702.558	800.000	-0.029	-0.099
-701.543	706.663	0.056	-0.150
-700.529	267.688	-0.157	-0.279
-699.514	800.000	0.083	-0.245
-698.499	90.137	-0.077	0.087
-697.485	0.483	0.281	-0.204
-696.470	-77.016	0.124	0.044
-695.456	-129.169	-0.351	0.050
-694.441	23.929	-0.079	-0.066
-693.426	70.078	0.156	0.163
-692.412	681.531	-0.042	-0.111
-691.397	-72.735	0.446	0.167
-690.383	474.870	-0.068	-0.156
-689.368	490.603	0.076	0.176
-688.354	133.477	0.143	0.188
-687.339	121.068	-0.059	0.074
-686.324	-200.000	-0.013	-0.112
-685.310	-124.574	-0.276	0.044
-684.295	202.982	0.129	-0.202
-683.281	-19.450	-0.303	-0.191
-682.266	419.127	-0.060	0.130
-681.251	75.379	-0.305	0.326
-680.237	-81.271	0.081	0.027
-679.222	149.529	0.116	0.160
-678.208	-66.458	-0.515	0.207
-677.193	75.223	-0.151	-0.162
-676.178	654.909	-0.080	-0.208
-675.164	-200.000	-0.038	0.338
-674.149	-131.153	-0.106	-0.014
-673.135	-132.760	-0.199	-0.026
-672.120	136.841	0.072	-0.096
-671.105	-89.222	0.188	-0.056
-670.091	-61.966	-0.330	0.140
-669.076	-131.095	0.172	0.023
-668.062	20.144	0.297	-0.243
-667.047	-145.726	-0.375	0.034
-666.032	-141.460	-0.178	0.018
-665.018	-82.020	-0.175	0.058
-664.003	46.722	-0.070	-0.066
-662.989	-54.662	-0.283	0.130
-661.974	70.386	0.109	-0.114
-660.959	-200.000	-0.008	-0.401
-659.945	-110.860	-0.177	0.037
-658.930	-200.000	0.044	0.341
-657.916	-102.456	0.264	-0.064
-656.901	114.625	-0.107	0.132
-655.886	179.945	0.090	-0.134
-654.872	-97.856	-0.153	0.040
-653.857	297.730	-0.185	-0.345
-652.843	111.603	-0.033	-0.041
-651.828	-117.335	0.075	-0.014
-650.814	-55.239	0.053	-0.024
-649.799	-200.000	0.266	-0.001
-648.784	68.353	-0.276	-0.286
-647.770	-86.836	-0.088	-0.027
-646.755	-97.468	-0.171	0.045
-645.741	617.703	-0.187	0.477
-644.726	-200.000	0.013	0.183
-643.711	392.170	0.026	0.055
-642.697	-151.780	0.181	-0.013
-641.682	192.089	-0.072	0.110
-640.668	800.000	-0.025	-0.087
-639.653	-52.199	0.350	-0.164
-638.638	-136.285	0.071	-0.008
-637.624	-200.000	-0.015	-0.185
-636.609	-133.283	-0.089	0.011
-635.595	-8.967	0.340	-0.231
-634.580	14.518	-0.148	0.117
-633.565	-154.274	-0.347	0.024
-632.551	29.807	0.355	0.306
-631.536	-200.000	0.001	-0.350
-630.522	800.000	0.118	0.377
-629.507	160.411	0.088	0.124
-628.492	78.285	0.062	0.067
-627.478	112.793	0.085	-0.105
-626.463	-120.788	0.118	0.020
-625.449	184.128	0.190	-0.285
-624.434	-200.000	0.007	0.174
-623.419	-39.449	0.212	-0.112
-622.405	434.547	-0.089	-0.195
-621.390	-128.559	-0.145	-0.021
-620.376	-102.637	0.016	-0.004
-619.361	-200.000	-0.022	0.206
-618.346	-153.034	0.082	0.006
-617.332	-14.243	-0.170	0.111
-616.317	56.015	0.255	0.250
-615.303	800.000	-0.037	-0.148
-614.288	237.839	-0.028	0.047
-613.273	-200.000	-0.047	-0.219
-612.259	-76.134	0.209	-0.075
-611.244	-58.034	-0.215	-0.095
-610.230	-145.490	0.222	-0.020
-609.215	-200.000	-0.035	-0.176
-608.201	-200.000	0.016	0.139
-607.186	155.096	0.235	-0.327
-606.171	800.000	-0.055	0.234
-605.157	171.120	0.133	-0.193
-604.142	460.672	-0.156	0.351
-603.128	12.289	-0.147	-0.114
-602.113	-131.411	-0.412	0.055
-601.098	342.002	0.042	0.084
-600.084	-86.367	-0.340	0.106
-599.069	-200.000	-0.024	-0.108
-598.055	-42.462	-0.091	0.047
-597.040	383.051	0.052	-0.108
-596.025	-200.000	0.040	-0.289
-595.011	-200.000	0.013	0.072
-593.996	82.966	-0.103	-0.113
-592.982	-68.922	-0.248	0.097
-591.967	348.368	-0.107	-0.213
-590.952	-102.843	0.127	0.031
-589.938	155.076	0.102	0.142
-588.923	117.315	-0.084	0.105
-587.909	105.860	-0.081	0.097
-586.894	769.794	0.082	0.226
-585.879	-59.206	-0.302	0.132
-584.865	176.151	-0.074	0.108
-583.850	-200.000	0.006	0.168
-582.836	85.160	-0.088	-0.097
-581.821	-200.000	-0.015	0.267
-580.806	51.792	-0.151	0.145
-579.792	-11.429	-0.090	0.060
-578.777	-183.586	-0.169	0.003
-577.763	-21.180	0.349	-0.216
-576.748	800.000	-0.079	0.228
-575.733	-10.334	0.122	0.082
-574.719	-1.078	-0.196	-0.140
-573.704	-18.626	-0.303	-0.191
-572.690	12.776	-0.207	-0.162
-571.675	3.118	-0.054	0.040
-570.661	83.800	-0.153	-0.168
-569.646	-60.099	0.214	0.092
-568.631	-68.582	0.212	-0.083
-567.617	-64.003	-0.405	-0.167
-566.602	-200.000	-0.022	-0.226
-565.588	-112.332	0.211	-0.043
-564.573	111.408	0.112	0.137
-563.558	-200.000	-0.022	0.112
-562.544	-155.005	-0.063	-0.004
-561.529	373.443	-0.103	-0.212
-560.515	-200.000	0.068	0.383
-559.500	-200.000	0.038	0.388
-558.485	232.092	-0.055	-0.091
-557.471	75.110	-0.132	-0.141
-556.456	287.100	0.120	-0.219
-555.442	-21.508	0.266	0.164
-554.427	440.064	0.057	-0.126
-553.412	-99.736	0.115	0.029
-552.398	-200.000	-0.056	0.428
-551.383	-200.000	-0.091	0.407
-550.369	-156.841	-0.144	-0.009
-549.354	800.000	0.066	0.255
-548.339	-156.228	-0.437	0.028
-547.325	20.164	-0.206	-0.168
-546.310	800.000	-0.034	0.110
-545.296	107.003	-0.078	-0.093
-544.281	-106.108	0.399	0.091
-543.266	313.264	0.116	0.219
-542.252	-65.811	-0.088	0.036
-541.237	-48.412	0.127	-0.062
-540.223	64.342	0.127	0.129
-539.208	-200.000	-0.061	0.325
-538.193	-61.039	0.214	0.091
-537.179	-200.000	0.025	-0.143
-536.164	33.676	0.124	0.108
-535.150	-200.000	0.030	0.184
-534.135	3.985	0.134	0.099
-533.121	32.948	0.111	-0.097
-532.106	800.000	0.031	0.107
-531.091	232.542	-0.073	0.122
-530.077	786.489	-0.008	-0.022
-529.062	-39.150	-0.306	0.162
-528.048	-200.000	-0.035	-0.205
-527.033	-172.183	0.185	0.006
-526.018	447.577	-0.046	-0.101
-525.004	-170.928	-0.295	0.010
-523.989	66.825	0.169	-0.174
-522.975	-82.320	0.152	-0.050
-521.960	-83.517	-0.168	-0.054
-520.945	-70.745	0.094	-0.036
-519.931	-200.000	-0.039	0.245
-518.916	-29.916	0.269	-0.154
-517.902	9.742	-0.322	-0.246
-516.887	342.532	0.055	-0.108
-515.872	-114.035	0.208	0.041
-514.858	-42.409	0.306	0.157
-513.843	451.013	0.180	0.401
-512.829	208.567	-0.114	-0.180
-511.814	-200.000	0.000	0.054
-510.799	-18.002	0.142	-0.089
-509.785	-200.000	-0.015	0.239
-508.770	34.284	-0.223	-0.196
-507.756	-159.355	0.055	0.003
-506.741	-167.571	-0.304	0.012
-505.726	-114.159	0.079	0.015
-504.712	448.558	0.101	0.224
-503.697	-200.000	-0.007	-0.092
-502.683	134.471	-0.114	-0.149
-501.668	-112.078	-0.132	0.027
-500.653	-100.802	-0.170	0.042
-499.639	-200.000	-0.046	-0.230
-498.624	-122.632	-0.108	0.018
-497.610	800.000	0.096	0.312
-496.595	-132.579	0.302	0.039
-495.581	-120.259	0.167	-0.029
-494.566	1.656	-0.142	-0.103
-493.551	-200.000	0.005	0.046
-492.537	737.595	0.120	0.324
-491.522	41.189	0.167	0.152
-490.508	593.384	-0.064	-0.160
-489.493	175.553	0.050	-0.073
-488.478	26.961	0.173	-0.146
-487.464	681.270	-0.173	0.454
-486.449	135.903	0.066	0.087
-485.435	-40.660	-0.147	-0.077
-484.420	-12.542	-0.208	-0.137
-483.405	128.165	0.125	-0.160
-482.391	-24.808	-0.094	0.056
-481.376	-200.000	0.004	-0.409
-480.362	800.000	0.052	-0.145
-479.347	-75.103	-0.404	0.145
-478.332	800.000	0.026	0.101
-477.318	-111.437	0.225	0.046
-476.303	137.179	0.123	-0.162
-475.289	97.739	0.107	0.123
-474.274	-78.581	-0.088	-0.030
-473.259	800.000	0.067	-0.209
-472.245	-200.000	0.011	-0.375
-471.230	-200.000	-0.015	0.140
-470.216	800.000	0.077	-0.298
-469.201	-115.716	0.202	-0.038
-468.186	-68.911	-0.174	-0.068
-467.172	98.297	0.133	-0.154
-466.157	-73.977	0.076	0.028
-465.143	-140.434	-0.176	-0.018
-464.128	-200.000	0.074	-0.372
-463.113	-5.584	0.172	-0.118
-462.099	18.111	0.040	-0.032
-461.084	-200.000	-0.092	-0.415
-460.070	-66.306	-0.165	-0.066
-459.055	800.000	0.078	0.271
-458.040	49.411	0.166	0.157
-457.026	-87.863	-0.167	-0.050
-456.011	800.000	-0.089	-0.271
-454.997	-84.770	-0.245	0.077
-453.982	800.000	-0.093	0.276
-452.968	202.841	0.086	0.133
-451.953	-189.864	-0.187	0.002
-450.938	-12.628	0.208	0.136
-449.924	230.958	-0.162	-0.266
-448.909	-81.775	0.225	-0.074
-447.895	63.377	-0.085	0.086
-446.880	640.221	0.033	0.085
-445.865	-10.364	0.207	0.138
-444.851	-173.023	0.415	0.013
-443.836	398.987	-0.251	0.528
-442.822	223.849	0.066	0.107
-441.807	800.000	-0.055	0.171
-440.792	67.116	-0.251	-0.258
-439.778	800.000	0.028	0.117
-438.763	-137.075	-0.273	0.031
-437.749	-114.311	0.138	0.027
-436.734	109.690	-0.075	0.091
-435.719	-200.000	0.018	-0.146
-434.705	219.556	-0.209	0.336
-433.690	-200.000	0.060	-0.366
-432.676	-90.283	-0.292	-0.085
-431.661	-107.497	0.252	-0.055
-430.646	-200.000	0.023	0.126
-429.632	-200.000	-0.034	-0.254
-428.617	85.810	0.246	-0.271
-427.603	28.663	-0.127	0.108
-426.588	-62.132	-0.067	0.028
-425.573	-200.000	0.064	0.281
-424.559	-70.004	-0.149	0.057
-423.544	-41.323	0.212	-0.110
-422.530	-144.033	-0.080	0.008
-421.515	-11.373	-0.135	-0.089
-420.500	-200.000	-0.008	0.210
-419.486	-108.391	-0.009	0.002
-418.471	163.791	0.167	-0.237
-417.457	110.593	-0.160	-0.194
-416.442	29.461	-0.220	-0.187
-415.428	-26.314	-0.405	-0.238
-414.413	180.285	0.024	-0.035
-413.398	244.559	0.040	0.067
-412.384	-55.986	0.146	-0.065
-411.369	-200.000	-0.006	0.242
-410.355	358.540	0.137	0.276
-409.340	-107.030	-0.294	-0.065
-408.325	-148.345	0.171	0.014
-407.311	249.762	0.224	-0.381
-406.296	-46.126	-0.188	-0.093
-405.282	-200.000	0.007	0.126
-404.267	-148.699	-0.159	-0.013
-403.252	-49.073	0.098	-0.047
-402.238	237.097	0.060	0.100
-401.223	-200.000	-0.004	0.075
-400.209	-41.105	0.289	-0.150
-399.194	3.515	-0.098	-0.072
-398.179	-149.457	0.169	0.013
-397.165	-122.167	0.269	-0.044
-396.150	-41.626	-0.104	0.054
-395.136	76.918	0.114	0.121
-394.121	409.557	-0.046	-0.097
-393.106	232.226	-0.077	-0.126
-392.092	-128.442	0.132	0.019
-391.077	-86.200	-0.276	-0.085
-390.063	25.693	-0.239	0.199
-389.048	266.589	-0.074	0.130
-388.033	-108.112	-0.418	-0.091
-387.019	800.000	-0.079	-0.259
-386.004	-49.567	-0.322	-0.154
-384.990	233.811	-0.229	-0.378
-383.975	-200.000	0.010	0.245
-382.960	164.385	0.182	0.257
-381.946	-96.353	0.064	-0.017
-380.931	-200.000	0.009	-0.281
-379.917	-41.782	-0.050	0.026
-378.902	-179.868	0.292	0.006
-377.888	-147.276	-0.378	-0.032
-376.873	-149.455	0.326	-0.026
-375.858	64.820	0.090	-0.091
-374.844	-109.981	0.445	-0.093
-373.829	-89.508	0.121	-0.036
-372.815	-130.583	-0.173	0.023
-371.800	-150.097	0.140	-0.011
-370.785	64.946	-0.107	0.109
-369.771	-120.232	-0.183	0.031
-368.756	-200.000	-0.007	-0.198
-367.742	-40.000	-0.257	-0.134
-366.727	133.167	0.089	-0.115
-365.712	76.879	-0.098	-0.105
-364.698	-200.000	0.020	-0.197
-363.683	-59.054	0.028	-0.012
-362.669	-200.000	-0.009	0.147
-361.654	774.716	0.046	-0.127
-360.639	748.414	-0.023	-0.062
-359.625	-120.372	-0.129	-0.022
-358.610	-25.013	-0.176	-0.105
-357.596	81.777	0.106	-0.115
-356.581	40.661	0.064	-0.058
-355.566	-4.808	-0.224	-0.155
-354.552	-80.997	0.258	0.086
-353.537	127.448	0.265	-0.337
-352.523	-22.180	0.052	-0.031
-351.508	7.379	-0.185	0.139
-350.493	-200.000	-0.012	0.261
-349.479	25.378	0.034	-0.028
-348.464	21.286	0.238	0.193
-347.450	-200.000	0.003	0.208
-346.435	154.151	-0.037	-0.051
-345.420	800.000	0.064	0.207
-344.406	800.000	-0.155	0.469
-343.391	135.332	0.095	-0.124
-342.377	-35.302	-0.093	0.051
-341.362	-55.980	0.066	0.029
-340.348	-33.561	0.242	0.134
-339.333	99.166	-0.209	0.242
-338.318	309.690	0.225	0.422
-337.304	-9.784	0.129	-0.086
-336.289	633.408	-0.079	-0.199
-335.275	64.161	0.118	0.119
-334.260	-200.000	-0.048	-0.374
-333.245	77.405	0.209	-0.223
-332.231	692.295	0.032	-0.085
-331.216	-127.689	0.077	0.011
-330.202	-36.942	0.185	-0.099
-329.187	315.913	0.124	0.234
-328.172	-20.220	-0.096	0.059
-327.158	-200.000	-0.039	-0.196
-326.143	-65.740	0.299	0.120
-325.129	-5.938	-0.228	-0.156
-324.114	-151.103	0.110	-0.008
-323.099	800.000	-0.026	-0.104
-322.085	800.000	0.031	0.106
-321.070	-94.345	0.300	-0.082
-320.056	800.000	0.074	0.275
-319.041	-45.518	-0.107	-0.053
-318.026	191.765	0.085	-0.128
-317.012	-200.000	-0.011	0.118
-315.997	800.000	0.083	0.335
-314.983	532.828	0.100	0.237
-313.968	-200.000	0.005	-0.094
-312.953	800.000	0.072	-0.226
-311.939	-80.347	-0.092	0.031
-310.924	141.654	0.122	-0.161
-309.910	78.228	0.038	-0.041
-308.895	-144.597	0.264	-0.024
-307.880	-80.532	0.123	0.041
-306.866	-200.000	0.059	0.355
-305.851	3.707	-0.187	0.136
-304.837	-200.000	-0.024	-0.218
-303.822	-45.135	-0.082	-0.041
-302.807	-74.311	0.033	-0.012
-301.793	-45.582	-0.171	0.085
-300.778	342.877	0.118	0.232
-299.764	-200.000	0.014	0.310
-298.749	-126.250	-0.186	-0.028
-297.735	-136.547	-0.107	0.012
-296.720	224.513	-0.089	0.144
-295.705	-200.000	0.019	-0.354
-294.691	728.587	0.108	0.288
-293.676	-32.302	-0.236	0.132
-292.662	428.837	-0.066	-0.142
-291.647	-200.000	-0.013	-0.153
-290.632	-50.083	-0.571	-0.270
-289.618	-2.642	0.255	-0.178
-288.603	800.000	-0.019	0.069
-287.589	-200.000	0.046	-0.350
-286.574	-170.689	0.336	-0.012
-285.559	800.000	-0.079	-0.309
-284.545	47.560	-0.096	0.089
-283.530	-200.000	-0.008	-0.386
-282.516	-37.217	0.155	-0.083
-281.501	-9.624	0.199	0.132
-280.486	-12.790	-0.270	-0.175
-279.472	-31.993	0.196	-0.110
-278.457	172.053	0.247	-0.354
-277.443	-200.000	0.039	-0.276
-276.428	-80.387	0.224	-0.075
-275.413	53.993	-0.283	0.271
-274.399	115.221	0.221	0.269
-273.384	800.000	0.040	-0.142
-272.370	-84.235	-0.121	0.038
-271.355	664.829	-0.108	0.278
-270.340	105.843	0.143	0.169
-269.326	41.430	-0.129	0.117
-268.311	-200.000	0.041	0.255
-267.297	-76.983	0.188	0.065
-266.282	-168.235	-0.228	-0.009
-265.267	800.000	-0.017	0.074
-264.253	347.298	-0.077	0.152
-263.238	-79.028	-0.324	-0.110
-262.224	-200.000	-0.038	-0.180
-261.209	205.113	0.111	0.172
-260.195	-54.699	-0.364	0.164
-259.180	625.903	0.078	-0.196
-258.165	521.573	0.155	-0.363
-257.151	652.439	0.008	0.019
-256.136	800.000	0.142	0.401
-255.122	107.819	-0.085	0.101
-254.107	235.154	0.012	0.020
-253.092	76.440	0.088	0.093
-252.078	117.852	-0.195	0.240
-251.063	754.468	0.081	0.218
-250.049	800.000	-0.056	0.218
-249.034	800.000	-0.085	-0.238
-248.019	-43.630	0.180	-0.091
-247.005	800.000	0.045	0.154
-245.990	79.046	-0.193	-0.206
-244.976	-160.727	-0.106	-0.006
-243.961	-200.000	-0.031	-0.188
-242.946	-200.000	-0.003	-0.296
-241.932	800.000	-0.134	-0.455
-240.917	-200.000	0.038	-0.204
-239.903	280.730	0.264	0.470
-238.888	-154.139	-0.199	0.013
-237.873	-62.418	0.356	0.148
-236.859	38.433	0.046	-0.041
-235.844	114.066	0.085	-0.103
-234.830	-122.059	0.317	-0.052
-233.815	-200.000	0.055	-0.317
-232.800	107.912	0.185	0.220
-231.786	69.309	-0.025	-0.025
-230.771	17.502	-0.215	-0.170
-229.757	151.895	0.143	0.195
-228.742	61.299	0.166	-0.165
-227.727	-158.363	-0.335	0.019
-226.713	274.460	-0.131	-0.231
-225.698	226.780	-0.035	0.057
-224.684	58.219	0.198	0.193
-223.669	-114.279	-0.196	-0.038
-222.655	-55.248	0.115	-0.052
-221.640	382.894	-0.055	-0.113
-220.625	-55.038	-0.136	0.061
-219.611	-78.819	0.244	0.083
-218.596	-76.903	-0.104	0.036
-217.582	101.472	-0.065	0.076
-216.567	-116.785	-0.150	-0.027
-215.552	249.060	0.160	0.271
-214.538	800.000	0.073	0.277
-213.523	-200.000	-0.018	-0.253
-212.509	-132.182	-0.234	-0.030
-211.494	-82.669	-0.354	0.114
-210.479	-200.000	0.002	0.013
-209.465	-200.000	-0.027	0.253
-208.450	-200.000	0.034	0.154
-207.436	-160.904	0.319	0.017
-206.421	17.083	-0.188	-0.149
-205.406	-63.526	-0.228	0.093
-204.392	-200.000	0.003	0.179
-203.377	-200.000	0.012	-0.063
-202.363	5.620	-0.237	0.174
-201.348	800.000	-0.076	0.220
-200.333	366.546	-0.060	-0.121
-199.319	-125.448	-0.047	-0.007
-198.304	-120.451	0.184	0.031
-197.290	-117.322	-0.183	-0.033
-196.275	-83.766	-0.174	-0.055
-195.260	26.738	0.125	-0.104
-194.246	-33.309	-0.281	-0.155
-193.231	-27.434	-0.091	-0.053
-192.217	-165.407	0.434	0.019
-191.202	-156.847	0.099	0.006
-190.187	-75.039	-0.059	-0.021
-189.173	215.406	-0.123	0.194
-188.158	800.000	0.087	0.289
-187.144	-200.000	0.038	0.168
-186.129	1.649	-0.077	0.055
-185.114	27.312	0.203	-0.169
-184.100	775.282	-0.017	0.046
-183.085	212.799	0.074	-0.117
-182.071	-178.674	-0.236	0.005
-181.056	-110.003	-0.432	0.090
-180.042	41.160	-0.113	-0.102
-179.027	-81.949	-0.132	0.043
-178.012	-150.546	0.172	0.013
-176.998	-200.000	0.016	-0.152
-175.983	-195.106	0.308	-0.002
-174.969	-164.973	-0.300	0.013
-173.954	800.000	0.030	-0.122
-172.939	3.748	0.040	0.029
-171.925	31.831	0.065	0.056
-170.910	-193.522	0.211	-0.002
-169.896	-182.273	-0.222	-0.004
-168.881	-116.992	0.207	0.038
-167.866	800.000	-0.187	-0.526
-166.852	800.000	-0.084	-0.237
-165.837	28.721	-0.078	0.066
-164.823	101.272	0.227	0.263
-163.808	1.084	0.106	-0.076
-162.793	64.533	-0.092	-0.092
-161.779	211.798	0.124	0.194
-160.764	-89.825	0.353	0.103
-159.750	186.229	0.132	-0.195
-158.735	191.823	0.183	-0.274
-157.720	605.684	-0.062	-0.153
-156.706	56.559	0.120	-0.116
-155.691	243.955	-0.064	-0.107
-154.677	-8.637	-0.186	-0.124
-153.662	42.180	0.203	0.183
-152.647	232.885	0.119	0.195
-151.633	80.752	0.026	-0.027
-150.618	-200.000	0.044	0.278
-149.604	-200.000	-0.012	0.168
-148.589	37.826	-0.053	-0.047
-147.574	73.619	0.219	0.227
-146.560	470.570	-0.080	0.179
-145.545	-200.000	-0.035	-0.330
-144.531	147.511	0.054	0.073
-143.516	-71.252	-0.154	0.057
-142.502	436.200	-0.130	-0.281
-141.487	11.335	-0.205	-0.156
-140.472	-11.385	0.137	0.089
-139.458	-200.000	0.037	0.231
-138.443	-103.276	-0.210	-0.049
-137.429	-200.000	-0.036	0.216
-136.414	95.318	0.145	0.164
-135.399	-62.330	-0.023	0.010
-134.385	299.191	0.122	-0.223
-133.370	248.165	-0.215	-0.361
-132.356	-200.000	-0.095	-0.429
-131.341	143.270	-0.143	0.188
-130.326	-61.127	0.264	0.111
-129.312	-132.360	-0.231	-0.030
-128.297	224.106	-0.137	-0.219
-127.283	-122.458	0.298	-0.048
-126.268	-200.000	-0.031	0.188
-125.253	12.019	-0.260	0.198
-124.239	-128.397	0.399	0.056
-123.224	121.329	0.109	0.134
-122.210	148.198	0.164	0.219
