DTS Sentinel unit serial number:	SN413079Multiplexer serial number:	ORYXHardware model number:	OX4-SRSoftware version number:	ORYX F/W v4.00 Oryx Data Collector v3.7.2.0data status	okinstallation	princeton_trtdifferential loss correction	single-endedforward channel	channel 1reverse channel	N/Adate	2019/09/13time	23:26:35forward acquisition time	60.00reverse acquisition time	0.00gamma	496.2192k internal	0.2336k external	0.2336temperature offset calibration	1.0084default loss term (dB/km)	0.3790temperature slope calibration	1.0000multiplexer offset coefficient	1.0000multiplexer slope coefficient	1.0000fibre end	0.00T internal ref (°C)	26.89T ext. ref 1 (°C)	3.18T ext. ref 2 (°C)	20.89length (m)	temperature (°C)	Stokes	anti-Stokes-747.200	800.000	-0.179	0.534
-746.185	-12.923	-0.066	0.043
-745.171	88.627	0.136	0.152
-744.156	-200.000	-0.010	0.252
-743.142	123.798	0.244	-0.307
-742.127	800.000	-0.053	0.231
-741.112	-78.651	0.316	-0.108
-740.098	64.280	0.011	0.011
-739.083	-200.000	-0.019	-0.141
-738.069	142.957	-0.093	0.124
-737.054	-72.274	-0.139	0.052
-736.039	3.187	-0.289	0.211
-735.025	467.932	-0.068	0.153
-734.010	386.825	0.029	-0.060
-732.996	-104.227	-0.310	0.072
-731.981	-103.513	0.172	-0.041
-730.966	-85.267	-0.192	-0.060
-729.952	-153.263	-0.195	0.014
-728.937	-18.284	-0.074	-0.046
-727.923	800.000	0.048	-0.165
-726.908	-19.503	-0.237	-0.148
-725.894	115.244	0.096	-0.117
-724.879	-85.358	-0.026	-0.008
-723.864	105.763	0.094	0.112
-722.850	-200.000	0.019	-0.532
-721.835	-141.930	0.136	-0.014
-720.821	28.443	-0.044	0.037
-719.806	-7.696	0.260	-0.177
-718.791	13.960	-0.213	-0.166
-717.777	177.633	0.301	-0.441
-716.762	-38.227	0.048	-0.026
-715.748	158.394	0.078	0.108
-714.733	417.656	0.105	-0.225
-713.718	-109.981	-0.189	0.040
-712.704	-126.582	0.063	0.009
-711.689	19.901	0.072	-0.059
-710.675	-15.641	-0.178	-0.114
-709.660	61.202	-0.073	-0.073
-708.645	800.000	0.053	0.150
-707.631	-150.983	-0.263	-0.020
-706.616	34.860	0.163	-0.143
-705.602	295.119	0.130	-0.239
-704.587	108.208	0.114	0.137
-703.572	-200.000	-0.016	0.185
-702.558	249.013	-0.111	0.188
-701.543	-143.253	0.119	0.011
-700.529	30.383	-0.048	-0.041
-699.514	162.313	-0.096	-0.135
-698.499	-55.360	-0.136	-0.061
-697.485	668.612	-0.093	-0.241
-696.470	21.425	-0.221	0.180
-695.456	72.352	-0.164	-0.171
-694.441	-44.044	-0.464	-0.234
-693.426	367.513	-0.065	0.131
-692.412	-200.000	0.007	-0.145
-691.397	-9.400	-0.297	-0.199
-690.383	-128.923	-0.197	-0.028
-689.368	-200.000	-0.017	-0.169
-688.354	59.988	-0.267	-0.264
-687.339	-10.385	0.282	-0.187
-686.324	208.478	0.092	-0.144
-685.310	-110.678	-0.171	-0.035
-684.295	448.238	-0.066	0.147
-683.281	68.960	0.186	0.191
-682.266	-69.565	-0.219	0.084
-681.251	-111.763	0.494	0.100
-680.237	10.627	-0.075	-0.057
-679.222	-0.738	0.163	0.115
-678.208	-58.605	0.263	-0.114
-677.193	616.743	-0.041	-0.102
-676.178	39.221	-0.103	0.092
-675.164	-37.608	0.057	0.030
-674.149	30.280	0.046	-0.039
-673.135	46.599	0.079	0.073
-672.120	791.458	-0.121	0.332
-671.105	7.093	-0.304	0.227
-670.091	800.000	-0.069	0.229
-669.076	623.286	0.021	-0.053
-668.062	63.725	-0.110	-0.110
-667.047	-43.564	0.119	-0.060
-666.032	-15.988	0.180	-0.115
-665.018	800.000	0.082	-0.315
-664.003	-186.343	-0.154	0.002
-662.989	60.875	0.133	0.132
-661.974	209.259	-0.084	-0.131
-660.959	63.816	0.045	0.045
-659.945	-200.000	-0.011	0.243
-658.930	99.197	0.216	0.249
-657.916	-200.000	0.022	-0.261
-656.901	-155.866	-0.284	0.018
-655.886	800.000	-0.022	-0.083
-654.872	-200.000	0.018	-0.130
-653.857	800.000	0.035	-0.135
-652.843	-165.549	0.133	0.006
-651.828	142.926	-0.137	0.182
-650.814	582.870	0.094	-0.230
-649.799	800.000	-0.021	0.066
-648.784	336.956	0.121	0.235
-647.770	411.213	0.210	-0.446
-646.755	189.514	-0.198	0.297
-645.741	-200.000	-0.021	0.229
-644.726	0.572	0.095	-0.068
-643.711	82.155	0.136	0.148
-642.697	-102.258	-0.277	0.067
-641.682	76.149	-0.198	-0.209
-640.668	800.000	-0.064	-0.192
-639.653	360.006	-0.143	-0.285
-638.638	-57.689	-0.269	-0.118
-637.624	-200.000	0.070	-0.388
-636.609	-200.000	0.043	-0.202
-635.595	90.565	-0.304	0.340
-634.580	74.710	0.232	0.244
-633.565	-200.000	-0.015	-0.083
-632.551	464.534	0.054	0.122
-631.536	-200.000	0.035	0.212
-630.522	-143.847	-0.021	0.002
-629.507	369.537	-0.059	-0.119
-628.492	-10.236	-0.099	0.066
-627.478	-55.793	-0.166	-0.074
-626.463	15.907	0.153	0.120
-625.449	685.244	0.070	-0.182
-624.434	-116.918	0.045	0.008
-623.419	71.240	0.260	0.270
-622.405	-124.669	0.368	-0.057
-621.390	-200.000	-0.005	-0.307
-620.376	117.910	0.200	-0.246
-619.361	78.233	0.219	-0.234
-618.346	800.000	-0.082	-0.259
-617.332	223.440	-0.109	-0.175
-616.317	-110.389	-0.065	0.014
-615.303	-149.788	-0.163	0.013
-614.288	282.354	0.054	0.097
-613.273	77.466	0.271	0.288
-612.259	623.735	-0.068	-0.171
-611.244	233.576	0.103	-0.170
-610.230	82.025	0.156	-0.168
-609.215	-95.531	-0.075	0.020
-608.201	39.124	0.201	-0.180
-607.186	708.753	0.020	-0.053
-606.171	-200.000	0.007	0.108
-605.157	-83.707	0.155	0.049
-604.142	-200.000	0.026	-0.305
-603.128	-6.530	-0.177	0.120
-602.113	-200.000	0.043	-0.225
-601.098	-133.255	0.150	0.019
-600.084	-113.046	-0.090	0.018
-599.069	800.000	-0.024	0.092
-598.055	800.000	0.032	0.117
-597.040	402.619	0.029	-0.061
-596.025	-106.385	-0.252	0.056
-595.011	-66.526	-0.027	-0.011
-593.996	800.000	-0.019	-0.078
-592.982	13.263	0.273	-0.211
-591.967	800.000	-0.040	0.124
-590.952	-99.028	-0.485	-0.123
-589.938	165.284	-0.032	0.046
-588.923	800.000	0.041	0.164
-587.909	-47.645	-0.198	0.096
-586.894	-82.633	0.101	-0.033
-585.879	-32.606	0.142	0.079
-584.865	-67.599	-0.420	-0.164
-583.850	75.441	-0.179	-0.188
-582.836	-101.880	-0.143	0.035
-581.821	-24.031	0.181	0.108
-580.806	-113.505	0.150	-0.029
-579.792	-72.285	-0.332	0.123
-578.777	-5.196	0.224	-0.153
-577.763	-60.186	-0.165	-0.070
-576.748	15.915	-0.160	0.126
-575.733	73.626	0.095	0.099
-574.719	-44.225	-0.269	-0.135
-573.704	-60.891	-0.409	-0.172
-572.690	800.000	-0.064	-0.228
-571.675	-53.909	-0.072	-0.033
-570.661	-71.303	0.077	-0.029
-569.646	-200.000	-0.009	-0.233
-568.631	64.688	0.137	-0.138
-567.617	-73.540	0.186	-0.068
-566.602	-152.237	-0.301	-0.022
-565.588	-73.566	0.188	-0.068
-564.573	253.887	0.058	0.099
-563.558	-19.846	0.051	-0.031
-562.544	-32.069	0.187	-0.104
-561.529	749.631	-0.069	0.187
-560.515	-113.358	-0.286	-0.056
-559.500	61.129	-0.285	-0.282
-558.485	800.000	-0.070	0.279
-557.471	800.000	-0.009	0.035
-556.456	-19.995	0.179	0.110
-555.442	-200.000	-0.025	0.395
-554.427	-196.200	0.559	0.004
-553.412	-92.289	-0.176	0.049
-552.398	-2.285	-0.336	-0.235
-551.383	800.000	0.074	-0.236
-550.369	433.835	0.098	0.211
-549.354	755.860	-0.082	0.222
-548.339	-200.000	-0.047	0.216
-547.325	23.868	-0.170	-0.140
-546.310	-200.000	-0.053	-0.268
-545.296	-200.000	-0.040	-0.322
-544.281	-200.000	0.046	0.284
-543.266	-200.000	-0.006	0.040
-542.252	-187.205	0.471	-0.006
-541.237	-107.797	0.246	-0.053
-540.223	-200.000	-0.008	-0.192
-539.208	66.892	0.098	-0.099
-538.193	10.561	-0.436	-0.331
-537.179	-200.000	0.046	0.372
-536.164	90.231	-0.211	0.235
-535.150	-200.000	-0.044	-0.221
-534.135	3.948	0.152	-0.110
-533.121	800.000	-0.101	-0.404
-532.106	51.755	-0.101	0.096
-531.091	432.640	0.084	-0.180
-530.077	-95.970	0.104	-0.028
-529.062	-108.696	-0.208	0.044
-528.048	-87.066	0.203	-0.061
-527.033	800.000	-0.025	-0.074
-526.018	242.304	0.078	-0.130
-525.004	376.925	0.151	-0.307
-523.989	-24.792	0.193	-0.114
-522.975	-120.578	0.638	0.108
-521.960	-170.779	-0.429	0.015
-520.945	-64.825	-0.171	-0.069
-519.931	280.768	0.125	0.223
-518.916	118.005	-0.073	-0.090
-517.902	-62.714	-0.252	0.104
-516.887	-200.000	0.000	-0.107
-515.872	-200.000	-0.003	0.151
-514.858	13.439	0.152	0.117
-513.843	-161.410	-0.329	0.017
-512.829	200.764	-0.077	-0.117
-511.814	280.210	-0.062	0.110
-510.799	-200.000	-0.006	0.377
-509.785	16.749	0.163	-0.128
-508.770	216.450	-0.024	0.038
-507.756	-16.737	-0.095	-0.060
-506.741	632.082	-0.045	-0.113
-505.726	800.000	-0.020	-0.076
-504.712	33.940	-0.161	-0.139
-503.697	176.599	-0.204	0.295
-502.683	-200.000	0.034	-0.168
-501.668	-38.828	0.090	-0.047
-500.653	800.000	-0.047	0.195
-499.639	183.040	0.143	-0.210
-498.624	-124.543	-0.240	0.037
-497.610	-16.833	0.235	0.148
-496.595	-200.000	0.023	-0.116
-495.581	800.000	0.070	0.256
-494.566	107.962	-0.107	-0.127
-493.551	-200.000	0.029	0.305
-492.537	-28.523	-0.232	-0.133
-491.522	-141.816	0.248	0.025
-490.508	339.204	-0.049	0.094
-489.493	-36.990	-0.136	-0.072
-488.478	1.447	0.203	0.145
-487.464	-200.000	0.432	0.000
-486.449	-56.408	-0.070	-0.031
-485.435	-85.645	-0.192	-0.059
-484.420	800.000	-0.053	0.207
-483.405	-85.456	0.221	0.068
-482.391	-122.690	0.021	-0.003
-481.376	-200.000	0.071	-0.429
-480.362	-66.380	0.044	-0.017
-479.347	-11.738	-0.234	-0.153
-478.332	-16.632	-0.098	0.062
-477.318	-47.634	-0.188	0.091
-476.303	800.000	-0.042	0.175
-475.289	-200.000	-0.004	0.027
-474.274	-139.733	0.243	-0.026
-473.259	-200.000	-0.107	0.000
-472.245	-200.000	0.010	0.136
-471.230	59.276	-0.165	0.161
-470.216	800.000	0.115	0.362
-469.201	-200.000	-0.008	0.373
-468.186	482.497	-0.142	-0.320
-467.172	-122.132	0.132	-0.022
-466.157	81.035	-0.060	0.065
-465.143	397.048	-0.073	0.153
-464.128	-132.415	-0.232	-0.030
-463.113	800.000	0.087	0.296
-462.099	60.673	-0.189	-0.186
-461.084	45.019	0.243	-0.223
-460.070	196.202	-0.050	0.075
-459.055	800.000	-0.042	0.146
-458.040	114.555	-0.071	0.086
-457.026	128.624	0.187	0.237
-456.011	8.795	-0.155	-0.116
-454.997	-126.013	0.121	0.018
-453.982	98.999	-0.056	-0.064
-452.968	55.040	0.147	0.141
-451.953	215.256	-0.281	0.442
-450.938	-76.625	-0.203	-0.071
-449.924	120.982	0.119	0.146
-448.909	106.270	0.263	0.309
-447.895	800.000	0.070	0.293
-446.880	-16.462	-0.184	0.116
-445.865	627.101	0.127	-0.319
-444.851	739.788	-0.074	-0.197
-443.836	575.395	0.023	0.055
-442.822	188.930	0.144	-0.214
-441.807	-91.846	0.079	0.022
-440.792	800.000	0.008	0.021
-439.778	-44.231	-0.372	0.185
-438.763	-159.860	-0.134	0.007
-437.749	800.000	0.053	0.173
-436.734	-200.000	0.018	-0.340
-435.719	630.284	-0.061	0.153
-434.705	-200.000	-0.017	0.322
-433.690	245.983	-0.117	0.195
-432.676	-59.977	0.188	0.080
-431.661	-200.000	0.003	-0.075
-430.646	-5.399	-0.134	-0.091
-429.632	800.000	-0.051	0.174
-428.617	-179.049	0.087	-0.002
-427.603	-91.008	0.169	0.048
-426.588	800.000	0.065	-0.216
-425.573	-200.000	-0.034	-0.225
-424.559	-3.151	-0.242	-0.168
-423.544	274.390	-0.148	-0.260
-422.530	-42.351	0.068	-0.034
-421.515	-57.031	-0.287	0.125
-420.500	-97.444	0.064	-0.016
-419.486	-200.000	0.013	-0.133
-418.471	-55.668	0.208	0.092
-417.457	227.147	0.119	-0.192
-416.442	-15.893	-0.174	0.110
-415.428	-165.383	0.154	0.007
-414.413	-104.353	-0.232	-0.053
-413.398	-8.973	0.135	0.090
-412.384	174.066	-0.047	0.068
-411.369	-135.858	0.260	-0.030
-410.355	800.000	0.076	0.314
-409.340	-200.000	0.006	-0.144
-408.325	142.893	-0.187	0.247
-407.311	-138.650	0.270	-0.029
-406.296	148.373	0.037	-0.050
-405.282	118.203	0.057	0.070
-404.267	-179.359	-0.306	0.007
-403.252	800.000	0.108	0.441
-402.238	-31.979	-0.189	0.105
-401.223	405.241	-0.042	-0.088
-400.209	-95.066	0.189	-0.051
-399.194	756.622	0.097	-0.260
-398.179	232.079	-0.080	-0.129
-397.165	-200.000	-0.017	0.465
-396.150	800.000	0.094	0.344
-395.136	-169.831	-0.325	-0.012
-394.121	-14.520	0.127	-0.081
-393.106	-200.000	-0.024	-0.320
-392.092	522.638	0.070	0.162
-391.077	175.497	-0.102	-0.146
-390.063	307.631	0.059	-0.109
-389.048	-47.493	0.197	-0.095
-388.033	291.830	-0.036	0.064
-387.019	325.158	0.149	-0.282
-386.004	68.098	-0.025	-0.025
-384.990	-62.816	-0.301	-0.124
-383.975	86.208	-0.100	0.109
-382.960	800.000	0.040	-0.146
-381.946	-5.824	0.133	-0.090
-380.931	-101.097	-0.340	-0.082
-379.917	800.000	0.008	-0.031
-378.902	52.066	-0.175	-0.165
-377.888	89.879	0.197	-0.218
-376.873	-81.468	0.245	0.080
-375.858	489.078	0.082	0.185
-374.844	526.772	0.136	0.317
-373.829	370.561	0.030	-0.061
-372.815	229.934	0.100	0.162
-371.800	-200.000	-0.059	-0.275
-370.785	-200.000	0.007	0.086
-369.771	-46.829	-0.354	0.172
-368.756	0.133	-0.287	0.202
-367.742	-42.115	0.186	0.094
-366.727	-82.957	0.208	-0.067
-365.712	-160.849	0.131	-0.007
-364.698	-60.944	0.252	-0.106
-363.683	800.000	-0.064	0.249
-362.669	88.355	0.127	-0.140
-361.654	-42.202	-0.290	-0.147
-360.639	7.196	0.251	-0.186
-359.625	17.856	0.199	-0.157
-358.610	23.481	-0.138	-0.112
-357.596	-84.196	0.268	0.084
-356.581	40.021	-0.137	-0.122
-355.566	558.071	-0.113	-0.270
-354.552	122.891	0.071	-0.089
-353.537	370.622	-0.133	0.268
-352.523	-20.256	0.141	0.086
-351.508	63.450	-0.147	-0.146
-350.493	-200.000	-0.066	-0.405
-349.479	-61.677	0.208	-0.086
-348.464	800.000	0.069	0.201
-347.450	-62.147	-0.319	-0.132
-346.435	-200.000	-0.011	-0.356
-345.420	-89.729	0.186	0.054
-344.406	-60.636	0.296	-0.124
-343.391	-155.771	-0.096	-0.006
-342.377	498.574	-0.189	-0.431
-341.362	586.912	0.017	0.042
-340.348	192.594	0.102	-0.152
-339.333	118.694	-0.145	0.177
-338.318	56.861	-0.224	-0.216
-337.304	-84.270	0.133	-0.042
-336.289	-147.807	-0.268	0.022
-335.275	-72.015	0.210	0.077
-334.260	-103.055	-0.238	-0.056
-333.245	350.260	0.127	-0.249
-332.231	-135.809	-0.090	0.011
-331.216	-153.464	0.247	0.017
-330.202	800.000	0.069	-0.290
-329.187	-200.000	-0.035	-0.366
-328.172	417.620	-0.074	-0.157
-327.158	-200.000	-0.055	0.259
-326.143	-200.000	-0.010	0.100
-325.129	188.163	-0.219	0.324
-324.114	71.220	0.395	0.405
-323.099	14.896	-0.315	0.244
-322.085	-109.116	-0.247	0.052
-321.070	100.912	0.099	0.113
-320.056	58.308	0.081	0.079
-319.041	-88.768	-0.186	-0.055
-318.026	-172.786	0.452	-0.014
-317.012	36.980	-0.087	-0.076
-315.997	-125.988	0.158	0.023
-314.983	211.005	0.052	-0.081
-313.968	-43.423	0.192	-0.096
-312.953	70.505	-0.282	-0.288
-311.939	-126.421	0.169	0.025
-310.924	800.000	0.108	-0.316
-309.910	223.077	0.136	0.217
-308.895	800.000	-0.024	-0.067
-307.880	-86.358	-0.068	-0.021
-306.866	-48.906	-0.249	0.118
-305.851	47.921	0.249	0.230
-304.837	139.931	-0.117	0.152
-303.822	-131.685	-0.010	-0.001
-302.807	-55.970	-0.302	0.133
-301.793	-175.001	0.167	-0.005
-300.778	217.286	0.167	0.263
-299.764	29.180	-0.065	-0.054
-298.749	322.270	0.146	0.275
-297.735	64.712	0.075	0.075
-296.720	330.264	-0.090	-0.171
-295.705	-161.568	0.193	-0.010
-294.691	-152.877	-0.191	-0.013
-293.676	-44.097	0.265	0.131
-292.662	-11.346	-0.121	0.078
-291.647	-3.012	-0.141	0.097
-290.632	-127.034	-0.056	-0.008
-289.618	-200.000	-0.011	0.443
-288.603	-102.448	0.147	-0.035
-287.589	800.000	-0.072	-0.221
-286.574	55.639	0.185	0.177
-285.559	800.000	-0.028	-0.077
-284.545	-200.000	0.034	-0.225
-283.530	-200.000	0.025	0.292
-282.516	-46.640	-0.271	0.131
-281.501	800.000	0.097	-0.283
-280.486	-200.000	0.037	0.239
-279.472	-81.582	0.110	-0.036
-278.457	12.324	0.079	0.060
-277.443	-9.966	0.402	0.264
-276.428	164.443	0.179	0.249
-275.413	159.280	-0.171	-0.234
-274.399	-140.609	0.131	0.013
-273.384	-75.258	-0.200	0.071
-272.370	-80.484	0.301	0.099
-271.355	159.814	0.233	0.320
-270.340	-200.000	0.016	-0.213
-269.326	-14.519	-0.118	0.075
-268.311	-45.638	-0.101	0.049
-267.297	800.000	0.139	-0.598
-266.282	-200.000	-0.003	0.073
-265.267	-48.781	-0.280	0.132
-264.253	-143.016	0.257	-0.025
-263.238	-73.607	-0.331	-0.119
-262.224	800.000	-0.116	-0.331
-261.209	-58.761	-0.214	-0.091
-260.195	120.328	0.167	-0.204
-259.180	-200.000	-0.029	0.407
-258.165	-200.000	-0.039	-0.218
-257.151	-49.407	-0.265	-0.124
-256.136	-58.382	-0.106	-0.046
-255.122	-55.874	0.323	0.142
-254.107	82.334	0.311	-0.333
-253.092	-8.631	0.150	-0.099
-252.078	-50.018	-0.137	-0.064
-251.063	225.126	-0.062	-0.098
-250.049	617.120	-0.252	-0.623
-249.034	-130.572	-0.124	0.017
-248.019	37.225	0.106	-0.093
-247.005	-200.000	-0.008	0.181
-245.990	63.168	0.323	0.318
-244.976	587.372	0.017	0.041
-243.961	800.000	-0.018	0.065
-242.946	-200.000	-0.039	-0.427
-241.932	-200.000	0.029	0.188
-240.917	236.944	0.066	0.107
-239.903	800.000	0.056	-0.175
-238.888	290.223	-0.108	-0.194
-237.873	-60.805	-0.224	-0.093
-236.859	-76.837	0.378	0.130
-235.844	-88.707	-0.225	0.066
-234.830	-40.152	0.428	0.220
-233.815	-44.707	0.229	-0.113
-232.800	156.863	0.160	-0.217
-231.786	-200.000	0.075	-0.456
-230.771	-147.880	-0.078	0.006
-229.757	-200.000	0.029	-0.253
-228.742	-46.326	0.021	-0.010
-227.727	-158.081	0.054	0.003
-226.713	-21.245	0.129	0.078
-225.698	179.213	-0.145	-0.208
-224.684	-200.000	-0.025	-0.243
-223.669	800.000	0.043	0.122
-222.655	-200.000	0.032	-0.209
-221.640	800.000	0.039	0.123
-220.625	68.692	-0.155	-0.157
-219.611	-36.286	-0.141	-0.075
-218.596	97.570	-0.338	0.383
-217.582	-200.000	0.033	0.300
-216.567	-138.375	-0.119	-0.013
-215.552	-144.808	0.209	-0.019
-214.538	180.582	0.106	-0.153
-213.523	-200.000	-0.012	0.268
-212.509	331.008	-0.184	0.350
-211.494	112.980	0.272	0.325
-210.479	800.000	-0.113	0.438
-209.465	-200.000	0.007	-0.051
-208.450	156.089	-0.192	0.261
-207.436	71.800	-0.147	-0.150
-206.421	-200.000	-0.032	0.421
-205.406	-200.000	-0.030	-0.157
-204.392	95.931	0.156	0.176
-203.377	-100.238	-0.018	0.004
-202.363	-16.196	0.282	-0.176
-201.348	-11.698	-0.155	-0.100
-200.333	94.270	0.120	-0.134
-199.319	121.399	0.104	-0.128
-198.304	-96.497	0.070	0.018
-197.290	77.500	0.179	0.187
-196.275	38.947	-0.272	0.239
-195.260	17.943	-0.104	0.081
-194.246	316.554	-0.187	0.347
-193.231	91.189	0.152	-0.168
-192.217	-138.990	-0.149	-0.016
-191.202	-107.280	0.236	0.051
-190.187	129.380	-0.167	0.209
-189.173	-200.000	-0.018	-0.191
-188.158	-116.158	-0.048	0.009
-187.144	-164.743	0.070	0.003
-186.129	443.731	0.142	0.307
-185.114	-37.485	-0.322	0.169
-184.100	242.646	-0.183	0.301
-183.085	-200.000	0.002	0.023
-182.071	-68.103	0.109	0.042
-181.056	169.552	0.182	0.256
-180.042	47.418	0.125	0.115
-179.027	679.020	-0.101	-0.258
-178.012	58.037	0.264	-0.254
-176.998	800.000	0.056	-0.228
-175.983	-60.108	0.261	-0.109
-174.969	-60.288	-0.237	0.099
-173.954	345.689	0.067	0.129
-172.939	271.320	-0.199	0.345
-171.925	-141.411	-0.148	-0.015
-170.910	64.310	0.112	0.111
-169.896	800.000	-0.056	0.225
-168.881	94.058	-0.365	0.407
-167.866	-71.599	0.233	0.086
-166.852	159.017	-0.137	-0.187
-165.837	-173.271	-0.273	-0.008
-164.823	-45.848	0.055	-0.027
-163.808	142.126	0.140	-0.182
-162.793	146.217	0.117	0.154
-161.779	-86.310	-0.124	-0.037
-160.764	89.161	0.136	-0.149
-159.750	-116.392	-0.182	-0.033
-158.735	-200.000	0.044	0.517
-157.720	20.114	0.173	-0.137
-156.706	-16.537	-0.179	0.111
-155.691	144.632	-0.082	0.108
-154.677	-64.571	0.364	-0.145
-153.662	278.735	-0.156	-0.273
-152.647	-200.000	-0.004	-0.210
-151.633	-49.210	0.213	0.100
-150.618	-141.229	0.153	0.015
-149.604	33.322	-0.126	0.107
-148.589	-67.161	0.125	0.048
-147.574	-90.130	-0.112	-0.032
-146.560	-77.846	0.260	0.088
-145.545	147.521	-0.101	-0.134
-144.531	176.297	0.113	0.161
-143.516	-200.000	-0.043	0.205
-142.502	8.956	0.237	-0.175
-141.487	-129.595	0.281	0.038
-140.472	-86.580	-0.120	-0.036
-139.458	-122.383	0.098	-0.016
-138.443	-200.000	-0.029	-0.182
-137.429	795.101	0.060	-0.162
-136.414	-200.000	-0.000	0.157
-135.399	63.101	0.282	-0.277
-134.385	-83.327	0.205	0.065
-133.370	107.859	0.085	0.100
-132.356	172.157	0.065	-0.092
-131.341	-58.729	0.150	-0.064
-130.326	-22.564	0.253	0.150
-129.312	-159.290	0.237	-0.013
-128.297	-102.095	0.468	0.111
-127.283	-3.790	0.231	0.157
-126.268	-200.000	-0.033	0.150
-125.253	113.481	0.065	0.077
-124.239	-167.301	0.120	0.005
-123.224	0.542	-0.149	0.105
-122.210	-200.000	-0.019	0.189
-121.195	337.618	-0.176	-0.336
