DTS Sentinel unit serial number:	SN413079Multiplexer serial number:	ORYXHardware model number:	OX4-SRSoftware version number:	ORYX F/W v4.00 Oryx Data Collector v3.7.2.0data status	okinstallation	princeton_trtdifferential loss correction	single-endedforward channel	channel 1reverse channel	N/Adate	2019/09/16time	15:30:35forward acquisition time	60.00reverse acquisition time	0.00gamma	496.2192k internal	0.2292k external	0.2292temperature offset calibration	0.9950default loss term (dB/km)	0.3790temperature slope calibration	1.0000multiplexer offset coefficient	1.0000multiplexer slope coefficient	1.0000fibre end	0.00T internal ref (°C)	41.12T ext. ref 1 (°C)	14.67T ext. ref 2 (°C)	37.08length (m)	temperature (°C)	Stokes	anti-Stokes-747.200	98.282	0.124	-0.146
-746.185	261.136	-0.200	0.355
-745.171	-26.023	0.045	-0.027
-744.156	-200.000	-0.028	0.298
-743.142	-55.949	-0.142	-0.065
-742.127	800.000	-0.137	0.584
-741.112	-111.941	-0.314	-0.065
-740.098	164.984	0.167	0.242
-739.083	-3.039	0.234	0.167
-738.069	800.000	-0.016	0.059
-737.054	-200.000	0.016	-0.097
-736.039	-200.000	-0.017	0.126
-735.025	72.996	0.192	0.205
-734.010	382.394	0.170	0.357
-732.996	-74.878	0.075	0.027
-731.981	800.000	0.112	0.359
-730.966	670.177	-0.023	0.060
-729.952	-63.411	-0.283	0.119
-728.937	127.058	0.131	0.169
-727.923	-80.442	0.212	0.072
-726.908	1.951	0.246	0.182
-725.894	-200.000	0.024	-0.261
-724.879	-200.000	0.008	-0.154
-723.864	-117.101	-0.614	-0.115
-722.850	202.398	0.064	-0.101
-721.835	-145.455	0.201	-0.018
-720.821	-114.482	-0.176	-0.034
-719.806	-200.000	-0.033	0.154
-718.791	10.303	-0.243	0.189
-717.777	-200.000	0.018	-0.127
-716.762	51.121	-0.162	0.157
-715.748	-71.371	-0.073	0.028
-714.733	-17.323	-0.160	-0.103
-713.718	384.251	-0.140	0.294
-712.704	-149.633	0.268	0.022
-711.689	193.645	-0.016	-0.025
-710.675	-123.687	0.395	-0.064
-709.660	800.000	-0.067	0.210
-708.645	303.455	0.106	-0.200
-707.631	-200.000	-0.475	-0.002
-706.616	79.262	-0.195	-0.214
-705.602	-41.540	-0.097	0.051
-704.587	-200.000	-0.014	-0.157
-703.572	223.560	0.096	0.158
-702.558	-27.473	-0.102	0.061
-701.543	-200.000	-0.021	-0.176
-700.529	-52.637	0.434	0.205
-699.514	75.108	0.069	0.074
-698.499	477.978	0.137	-0.316
-697.485	-150.677	-0.525	-0.041
-696.470	-37.026	0.198	0.108
-695.456	9.651	-0.259	0.201
-694.441	-149.631	-0.287	0.023
-693.426	-125.798	-0.458	0.071
-692.412	-200.000	0.097	-0.444
-691.397	118.218	-0.118	-0.149
-690.383	-132.883	-0.287	-0.037
-689.368	-130.733	0.309	-0.042
-688.354	-81.716	0.190	-0.064
-687.339	87.206	-0.116	-0.131
-686.324	-200.000	-0.018	-0.120
-685.310	256.193	0.224	0.393
-684.295	800.000	0.108	-0.438
-683.281	175.064	0.113	-0.167
-682.266	347.739	0.149	0.301
-681.251	-134.683	-0.550	-0.068
-680.237	125.439	0.057	-0.073
-679.222	-106.698	0.298	-0.068
-678.208	656.558	-0.111	-0.291
-677.193	297.729	0.061	-0.115
-676.178	145.766	0.017	0.023
-675.164	-200.000	-0.029	-0.266
-674.149	153.463	0.053	-0.074
-673.135	-71.861	0.175	-0.067
-672.120	185.343	0.094	-0.143
-671.105	216.568	0.119	-0.193
-670.091	-200.000	-0.040	-0.310
-669.076	-200.000	0.067	-0.362
-668.062	134.617	-0.144	0.190
-667.047	-75.388	0.093	-0.034
-666.032	-75.203	0.191	-0.070
-665.018	800.000	0.073	-0.319
-664.003	-200.000	0.024	-0.135
-662.989	123.143	-0.143	-0.183
-661.974	-86.265	0.465	-0.146
-660.959	94.268	-0.077	-0.089
-659.945	-200.000	0.005	0.341
-658.930	-121.963	0.078	-0.013
-657.916	-128.579	-0.369	-0.053
-656.901	7.483	0.118	0.090
-655.886	-102.217	0.056	-0.014
-654.872	667.558	0.061	-0.161
-653.857	-18.521	-0.186	0.119
-652.843	-25.591	-0.279	-0.168
-651.828	40.568	0.267	-0.246
-650.814	95.951	-0.132	-0.154
-649.799	5.723	-0.131	-0.098
-648.784	800.000	-0.078	-0.280
-647.770	-200.000	-0.019	-0.148
-646.755	176.130	0.196	-0.290
-645.741	-17.437	-0.227	-0.146
-644.726	117.862	0.233	0.293
-643.711	0.919	-0.232	-0.170
-642.697	102.379	-0.144	-0.172
-641.682	-200.000	-0.041	0.203
-640.668	-27.136	-0.292	-0.174
-639.653	-200.000	0.044	-0.229
-638.638	-78.575	-0.196	-0.068
-637.624	-110.382	0.240	0.051
-636.609	173.489	0.071	0.104
-635.595	111.189	-0.135	-0.166
-634.580	-46.566	-0.211	-0.105
-633.565	-108.931	-0.392	-0.085
-632.551	-80.582	-0.176	-0.060
-631.536	34.643	-0.205	-0.183
-630.522	-80.035	0.046	-0.016
-629.507	-158.023	0.274	0.016
-628.492	-200.000	-0.008	0.233
-627.478	26.592	-0.187	-0.159
-626.463	-158.587	0.173	-0.010
-625.449	43.694	-0.184	0.172
-624.434	-121.360	0.226	-0.038
-623.419	-200.000	0.011	0.134
-622.405	-90.613	-0.137	-0.040
-621.390	-186.262	-0.289	0.004
-620.376	-200.000	-0.017	0.244
-619.361	0.560	-0.242	-0.176
-618.346	-71.967	-0.213	-0.081
-617.332	288.179	-0.097	-0.179
-616.317	343.292	0.171	-0.342
-615.303	81.564	-0.066	0.073
-614.288	192.250	-0.031	0.047
-613.273	-49.376	0.157	0.076
-612.259	0.328	-0.321	0.233
-611.244	74.217	0.062	-0.066
-610.230	-200.000	-0.038	-0.343
-609.215	226.170	0.081	-0.134
-608.201	800.000	-0.117	-0.376
-607.186	-200.000	-0.012	-0.103
-606.171	-200.000	-0.035	0.325
-605.157	-31.314	-0.139	-0.080
-604.142	-9.972	-0.426	0.288
-603.128	-110.925	-0.060	0.013
-602.113	-200.000	-0.022	-0.227
-601.098	517.399	-0.038	-0.090
-600.084	126.884	-0.142	-0.184
-599.069	8.900	-0.178	-0.137
-598.055	-112.341	0.077	0.016
-597.040	-110.257	0.367	-0.078
-596.025	425.740	-0.098	0.214
-595.011	31.023	-0.190	-0.166
-593.996	-42.170	0.219	0.114
-592.982	223.290	0.061	-0.101
-591.967	-200.000	0.101	0.479
-590.952	347.595	0.170	0.340
-589.938	-130.399	-0.154	-0.021
-588.923	345.943	-0.110	-0.220
-587.909	59.203	-0.059	0.059
-586.894	-136.156	0.175	0.021
-585.879	-88.091	-0.159	-0.048
-584.865	-137.592	0.202	-0.023
-583.850	220.940	0.171	-0.279
-582.836	-180.596	0.119	0.002
-581.821	27.352	0.273	-0.233
-580.806	-155.420	0.209	0.014
-579.792	6.746	-0.139	-0.105
-578.777	518.645	-0.035	0.083
-577.763	-60.276	-0.289	-0.125
-576.748	800.000	-0.012	0.043
-575.733	-27.858	-0.260	0.153
-574.719	-51.502	-0.116	0.055
-573.704	-54.025	-0.310	0.144
-572.690	800.000	0.028	0.108
-571.675	-118.206	0.129	0.023
-570.661	-200.000	-0.035	-0.191
-569.646	800.000	0.118	-0.386
-568.631	-21.779	0.193	0.120
-567.617	226.244	0.114	-0.188
-566.602	11.257	0.185	-0.144
-565.588	-131.806	-0.115	0.015
-564.573	154.353	0.054	0.075
-563.558	-14.912	-0.165	-0.108
-562.544	-200.000	-0.023	-0.174
-561.529	168.572	-0.221	0.320
-560.515	-200.000	-0.374	0.001
-559.500	109.765	-0.290	-0.354
-558.485	94.719	-0.045	0.052
-557.471	781.651	-0.052	-0.144
-556.456	-200.000	-0.020	-0.391
-555.442	-152.631	0.213	-0.015
-554.427	64.580	-0.232	0.238
-553.412	-125.203	0.166	0.026
-552.398	-55.976	-0.150	-0.068
-551.383	-64.735	0.237	-0.098
-550.369	-117.249	0.179	-0.033
-549.354	-66.408	-0.220	0.089
-548.339	-143.230	-0.003	0.000
-547.325	-59.995	-0.321	-0.139
-546.310	800.000	0.115	0.328
-545.296	54.841	-0.251	0.246
-544.281	11.583	-0.086	0.067
-543.266	-200.000	0.003	0.258
-542.252	133.438	0.175	-0.230
-541.237	327.163	0.027	-0.052
-540.223	-31.132	0.177	0.101
-539.208	-121.079	-0.244	-0.041
-538.193	-110.529	-0.216	-0.045
-537.179	139.899	-0.251	-0.336
-536.164	17.740	-0.146	0.118
-535.150	800.000	0.018	0.076
-534.135	-81.795	0.038	-0.013
-533.121	-25.470	0.100	-0.060
-532.106	34.211	0.212	-0.188
-531.091	-180.698	-0.295	-0.006
-530.077	-7.487	0.155	0.106
-529.062	800.000	0.061	-0.192
-528.048	-4.297	0.252	0.177
-527.033	-90.890	0.226	-0.066
-526.018	-91.828	-0.194	0.056
-525.004	-87.410	0.193	0.059
-523.989	-200.000	0.014	-0.122
-522.975	800.000	0.018	-0.054
-521.960	33.302	0.111	0.098
-520.945	-169.883	-0.097	0.004
-519.931	303.365	0.128	-0.240
-518.916	586.761	-0.104	-0.260
-517.902	484.685	-0.070	0.161
-516.887	-26.358	-0.246	0.146
-515.872	-181.702	0.070	-0.001
-514.858	220.397	-0.023	-0.037
-513.843	154.777	-0.024	0.034
-512.829	53.829	0.163	0.159
-511.814	129.449	-0.230	-0.298
-510.799	40.362	-0.354	-0.323
-509.785	344.738	-0.112	-0.222
-508.770	23.403	-0.316	0.263
-507.756	-87.771	-0.499	-0.152
-506.741	208.039	-0.117	-0.186
-505.726	-149.758	0.130	0.010
-504.712	-4.047	0.366	0.257
-503.697	-167.594	0.428	-0.017
-502.683	-200.000	0.024	0.289
-501.668	-58.635	0.135	-0.059
-500.653	161.289	-0.050	0.071
-499.639	257.267	0.088	0.154
-498.624	-63.480	-0.157	-0.066
-497.610	99.016	0.193	0.226
-496.595	81.757	0.112	-0.123
-495.581	150.085	-0.135	-0.186
-494.566	-200.000	-0.006	0.206
-493.551	113.897	0.029	0.036
-492.537	71.848	-0.139	0.147
-491.522	-200.000	0.016	-0.220
-490.508	6.874	0.079	0.059
-489.493	165.216	0.200	0.287
-488.478	90.868	-0.146	-0.166
-487.464	-200.000	-0.006	0.315
-486.449	192.709	0.110	0.168
-485.435	-200.000	0.005	-0.115
-484.420	-200.000	0.011	0.372
-483.405	34.206	-0.057	-0.050
-482.391	-200.000	-0.039	-0.195
-481.376	66.948	-0.296	-0.306
-480.362	-200.000	0.025	0.338
-479.347	-26.853	0.253	-0.150
-478.332	104.206	0.134	0.160
-477.318	482.077	0.101	0.232
-476.303	347.847	0.115	0.230
-475.289	58.224	-0.193	-0.191
-474.274	-84.216	-0.319	-0.102
-473.259	97.856	-0.129	0.150
-472.245	62.018	-0.226	0.228
-471.230	-94.679	0.215	-0.059
-470.216	-30.279	0.226	0.130
-469.201	-200.000	0.046	0.280
-468.186	102.768	0.253	-0.300
-467.172	800.000	-0.016	-0.049
-466.157	464.452	0.037	0.084
-465.143	-171.895	-0.222	-0.007
-464.128	-88.072	0.182	0.055
-463.113	-15.771	-0.229	-0.148
-462.099	800.000	0.126	-0.359
-461.084	-117.765	-0.216	0.039
-460.070	-200.000	-0.022	0.135
-459.055	6.209	-0.199	0.150
-458.040	23.590	0.145	-0.121
-457.026	-200.000	0.014	-0.381
-456.011	-14.229	-0.370	-0.242
-454.997	-127.640	0.103	-0.015
-453.982	91.003	0.050	-0.057
-452.968	800.000	-0.106	0.417
-451.953	135.779	0.313	0.413
-450.938	-90.263	-0.203	-0.060
-449.924	324.456	-0.043	0.083
-448.909	624.909	0.085	0.216
-447.895	-59.294	0.218	0.095
-446.880	-58.704	-0.150	-0.066
-445.865	-157.919	-0.188	0.011
-444.851	79.453	-0.070	0.076
-443.836	-104.041	0.140	0.033
-442.822	-200.000	-0.002	-0.131
-441.807	90.657	0.122	-0.138
-440.792	-178.161	0.060	0.001
-439.778	-200.000	0.003	-0.064
-438.763	800.000	0.063	-0.239
-437.749	190.402	0.161	-0.244
-436.734	3.718	0.180	0.133
-435.719	800.000	0.056	0.212
-434.705	137.365	-0.107	0.141
-433.690	24.211	0.329	0.275
-432.676	-200.000	0.007	0.457
-431.661	55.877	0.127	-0.124
-430.646	249.524	-0.175	-0.300
-429.632	99.653	-0.078	-0.091
-428.617	81.952	0.077	0.084
-427.603	-33.569	-0.185	-0.103
-426.588	-170.638	0.184	-0.006
-425.573	136.577	0.162	-0.214
-424.559	2.885	-0.108	0.079
-423.544	-58.270	0.250	-0.110
-422.530	-7.113	0.245	-0.168
-421.515	-2.310	0.115	0.082
-420.500	-14.031	0.232	0.152
-419.486	-17.761	0.109	-0.069
-418.471	-27.464	-0.309	0.182
-417.457	-163.594	-0.064	0.003
-416.442	293.214	-0.125	0.230
-415.428	-18.726	0.349	-0.220
-414.413	-48.525	0.068	-0.033
-413.398	-33.298	-0.128	0.072
-412.384	-200.000	0.034	0.231
-411.369	-33.004	-0.238	-0.133
-410.355	-129.686	0.175	-0.024
-409.340	106.125	-0.098	0.117
-408.325	800.000	0.175	-0.490
-407.311	-200.000	0.058	-0.271
-406.296	431.073	-0.103	0.226
-405.282	-115.684	0.141	0.027
-404.267	-200.000	-0.062	-0.488
-403.252	-200.000	-0.064	-0.319
-402.238	360.896	-0.121	-0.245
-401.223	-200.000	-0.027	0.204
-400.209	-200.000	-0.010	-0.089
-399.194	-93.717	0.253	0.070
-398.179	-192.986	-0.126	0.001
-397.165	319.752	0.075	-0.144
-396.150	-200.000	-0.001	-0.140
-395.136	-124.001	0.153	0.024
-394.121	-97.550	-0.288	-0.076
-393.106	-200.000	-0.006	-0.052
-392.092	-186.424	0.064	-0.001
-391.077	-118.142	0.099	0.018
-390.063	-200.000	-0.030	-0.235
-389.048	638.941	0.026	-0.066
-388.033	800.000	0.096	-0.314
-387.019	800.000	0.069	-0.252
-386.004	-140.437	0.249	-0.026
-384.990	60.059	0.126	0.126
-383.975	330.817	-0.093	0.180
-382.960	29.972	-0.207	-0.178
-381.946	-116.435	0.260	-0.048
-380.931	-160.498	-0.381	0.021
-379.917	800.000	-0.060	0.222
-378.902	-114.243	-0.232	0.045
-377.888	800.000	0.032	-0.124
-376.873	173.232	-0.202	0.294
-375.858	-29.902	-0.164	-0.094
-374.844	204.557	0.206	-0.322
-373.829	-63.361	-0.218	0.091
-372.815	-115.006	-0.078	-0.015
-371.800	-114.934	0.252	0.048
-370.785	-81.657	-0.279	-0.092
-369.771	36.223	-0.346	0.307
-368.756	72.547	0.208	0.219
-367.742	483.080	-0.117	0.268
-366.727	117.650	0.183	0.227
-365.712	-131.590	-0.418	0.055
-364.698	-91.302	-0.082	0.024
-363.683	686.896	-0.058	0.154
-362.669	100.355	0.227	0.265
-361.654	531.388	0.039	0.094
-360.639	-200.000	-0.013	0.080
-359.625	-200.000	0.030	-0.213
-358.610	-98.774	-0.312	0.080
-357.596	154.828	0.194	0.269
-356.581	800.000	-0.117	0.447
-355.566	206.756	0.053	0.083
-354.552	149.404	0.025	-0.035
-353.537	-200.000	0.006	-0.219
-352.523	-30.073	-0.079	0.045
-351.508	238.205	-0.143	0.239
-350.493	-52.812	-0.183	-0.085
-349.479	547.375	0.203	-0.490
-348.464	800.000	0.037	0.155
-347.450	699.988	-0.108	0.285
-346.435	800.000	-0.016	0.048
-345.420	-7.290	-0.091	0.062
-344.406	432.346	-0.156	0.341
-343.391	41.506	0.167	0.152
-342.377	-13.832	-0.078	0.051
-341.362	-98.410	-0.048	-0.013
-340.348	-93.038	0.106	0.030
-339.333	-200.000	-0.033	0.172
-338.318	-164.035	0.150	-0.007
-337.304	112.325	0.190	0.231
-336.289	661.121	0.032	-0.083
-335.275	109.732	0.317	-0.383
-334.260	800.000	-0.108	-0.336
-333.245	-33.173	-0.110	-0.061
-332.231	-39.517	-0.087	0.046
-331.216	-11.145	-0.213	0.141
-330.202	-200.000	0.042	0.421
-329.187	-200.000	0.013	0.189
-328.172	800.000	-0.052	0.192
-327.158	-161.708	-0.298	-0.015
-326.143	-8.816	-0.179	-0.121
-325.129	3.699	-0.017	0.013
-324.114	-17.293	0.325	-0.206
-323.099	-0.458	-0.165	-0.118
-322.085	-27.731	0.312	-0.182
-321.070	45.345	0.142	-0.132
-320.056	89.225	-0.188	0.210
-319.041	-61.567	0.216	-0.091
-318.026	36.696	0.014	-0.013
-317.012	-42.784	0.230	-0.118
-315.997	284.168	-0.111	-0.201
-314.983	292.704	0.055	0.101
-313.968	-200.000	-0.325	0.001
-312.953	-124.034	0.210	-0.033
-311.939	48.168	0.102	0.096
-310.924	-46.598	0.044	0.021
-309.910	-139.726	0.112	0.012
-308.895	108.337	-0.178	-0.214
-307.880	-8.420	0.115	-0.078
-306.866	-200.000	0.049	-0.264
-305.851	-84.657	0.405	-0.128
-304.837	-73.695	0.202	-0.074
-303.822	143.829	-0.171	0.230
-302.807	-82.136	0.420	0.138
-301.793	-102.890	0.111	-0.027
-300.778	-200.000	-0.007	0.263
-299.764	196.928	-0.055	-0.085
-298.749	-156.341	0.176	0.011
-297.735	524.569	-0.238	-0.562
-296.720	-200.000	-0.056	0.246
-295.705	183.216	0.234	0.347
-294.691	247.995	0.047	-0.080
-293.676	-200.000	-0.029	-0.413
-292.662	392.252	0.025	0.052
-291.647	-31.758	0.331	0.187
-290.632	646.101	0.085	0.217
-289.618	-53.698	0.172	-0.079
-288.603	96.124	-0.148	-0.170
-287.589	800.000	-0.057	0.170
-286.574	-200.000	0.015	0.139
-285.559	43.920	-0.123	0.113
-284.545	24.991	-0.177	0.148
-283.530	489.694	0.085	0.195
-282.516	-111.454	0.290	-0.059
-281.501	-200.000	-0.005	0.060
-280.486	424.340	0.085	0.184
-279.472	-126.275	-0.127	-0.019
-278.457	-113.761	-0.375	-0.073
-277.443	-15.463	0.346	0.222
-276.428	800.000	-0.102	0.369
-275.413	-200.000	0.011	-0.208
-274.399	-87.059	0.087	0.027
-273.384	128.252	0.085	0.109
-272.370	86.003	-0.072	-0.080
-271.355	89.533	-0.176	-0.197
-270.340	110.788	-0.149	0.180
-269.326	-200.000	-0.006	-0.045
-268.311	443.244	0.093	0.204
-267.297	91.911	0.085	0.096
-266.282	207.460	-0.262	-0.411
-265.267	-73.250	0.165	-0.061
-264.253	26.212	0.215	0.181
-263.238	-182.123	-0.328	0.006
-262.224	154.790	0.183	-0.252
-261.209	-200.000	-0.083	0.416
-260.195	255.678	-0.092	0.159
-259.180	-200.000	-0.009	0.073
-258.165	800.000	-0.127	-0.380
-257.151	-96.023	-0.242	0.065
-256.136	17.859	-0.209	-0.167
-255.122	5.494	0.270	-0.200
-254.107	-112.887	0.246	0.049
-253.092	800.000	0.042	-0.173
-252.078	-200.000	-0.031	-0.139
-251.063	142.085	-0.163	-0.218
-250.049	14.052	0.202	0.158
-249.034	800.000	-0.036	0.103
-248.019	217.295	0.176	-0.282
-247.005	-170.052	0.184	-0.007
-245.990	-86.674	0.155	-0.048
-244.976	-29.469	0.285	-0.163
-243.961	800.000	0.113	0.364
-242.946	-11.970	0.222	0.146
-241.932	800.000	-0.104	-0.306
-240.917	-200.000	0.002	-0.302
-239.903	-1.994	-0.253	0.178
-238.888	191.652	0.167	0.253
-237.873	52.128	0.220	0.210
-236.859	-123.938	-0.301	-0.048
-235.844	-149.890	0.046	-0.004
-234.830	-200.000	-0.021	0.267
-233.815	20.987	0.101	0.082
-232.800	-111.022	-0.176	0.036
-231.786	-17.363	0.211	-0.133
-230.771	11.372	-0.209	-0.161
-229.757	-80.995	-0.069	0.023
-228.742	35.138	0.291	-0.256
-227.727	-53.477	0.112	-0.052
-226.713	-25.133	-0.184	-0.110
-225.698	-154.566	-0.245	-0.016
-224.684	103.264	0.136	-0.160
-223.669	800.000	-0.089	0.289
-222.655	124.836	0.119	-0.150
-221.640	-129.215	0.277	-0.039
-220.625	331.222	0.172	-0.333
-219.611	166.332	-0.210	-0.298
-218.596	-44.479	-0.109	-0.055
-217.582	58.499	0.052	0.051
-216.567	500.611	0.170	0.393
-215.552	203.410	-0.110	0.171
-214.538	800.000	-0.039	0.134
-213.523	-200.000	0.179	-0.000
-212.509	13.858	0.234	0.182
-211.494	-200.000	0.044	-0.203
-210.479	-131.781	0.091	0.012
-209.465	351.319	0.075	0.148
-208.450	-130.665	0.136	0.018
-207.436	-114.181	-0.136	0.026
-206.421	164.821	-0.133	-0.189
-205.406	-36.055	0.081	0.044
-204.392	129.354	-0.171	0.218
-203.377	-200.000	-0.007	0.107
-202.363	695.390	0.139	-0.365
-201.348	800.000	0.044	0.136
-200.333	263.192	-0.114	-0.198
-199.319	-76.193	0.252	-0.089
-198.304	-14.053	0.061	0.039
-197.290	289.297	0.137	0.249
-196.275	40.072	0.298	0.269
-195.260	-200.000	-0.053	0.300
-194.246	-88.210	-0.302	-0.091
-193.231	-200.000	-0.022	-0.162
-192.217	7.073	0.256	-0.191
-191.202	800.000	-0.171	0.568
-190.187	9.661	-0.181	0.137
-189.173	800.000	0.057	-0.211
-188.158	-101.761	-0.045	-0.011
-187.144	-200.000	-0.035	-0.182
-186.129	800.000	-0.093	0.304
-185.114	-56.384	0.389	0.173
-184.100	-200.000	0.007	0.267
-183.085	-128.302	-0.210	0.030
-182.071	388.789	0.042	-0.086
-181.056	-144.903	0.236	-0.022
-180.042	-200.000	-0.000	-0.252
-179.027	-32.045	-0.097	0.054
-178.012	-157.562	-0.199	-0.012
-176.998	519.999	0.096	-0.225
-175.983	800.000	0.076	-0.265
-174.969	-32.390	0.210	-0.117
-173.954	-75.488	-0.201	0.072
-172.939	-86.687	0.185	-0.057
-171.925	639.477	0.056	0.143
-170.910	237.447	0.129	-0.214
-169.896	218.599	-0.057	-0.090
-168.881	24.767	-0.268	0.223
-167.866	190.412	-0.025	0.038
-166.852	29.275	-0.032	-0.027
-165.837	72.372	0.216	-0.225
-164.823	-80.101	0.115	0.038
-163.808	346.926	0.088	0.173
-162.793	246.550	0.173	0.292
-161.779	0.159	0.182	0.130
-160.764	162.856	-0.141	0.197
-159.750	-84.333	0.164	0.052
-158.735	800.000	-0.083	-0.294
-157.720	372.341	0.046	0.094
-156.706	-200.000	0.001	0.115
-155.691	-88.314	0.637	0.191
-154.677	-181.601	-0.342	0.007
-153.662	-15.904	-0.311	0.198
-152.647	74.523	-0.193	0.203
-151.633	-43.752	0.325	0.164
-150.618	53.268	0.210	-0.201
-149.604	82.444	-0.166	0.180
-148.589	-95.831	0.140	-0.037
-147.574	64.183	0.032	-0.032
-146.560	-72.827	0.229	-0.084
-145.545	-127.481	-0.279	-0.041
-144.531	-54.842	0.158	-0.071
-143.516	207.318	0.220	0.343
-142.502	132.394	-0.139	0.179
-141.487	-11.577	-0.176	0.116
-140.472	45.042	0.210	0.193
-139.458	-200.000	-0.006	-0.145
-138.443	25.402	0.348	-0.289
-137.429	-200.000	-0.003	-0.031
-136.414	-94.803	0.155	-0.042
-135.399	159.306	0.081	0.112
-134.385	59.814	-0.088	0.087
-133.370	-140.706	0.400	-0.041
-132.356	-53.968	-0.224	0.102
-131.341	132.006	0.126	0.163
-130.326	482.743	0.054	0.123
-129.312	148.556	0.137	0.185
-128.297	652.746	-0.177	-0.454
-127.283	-200.000	0.085	0.401
-126.268	194.173	0.210	0.318
-125.253	292.333	0.092	0.167
-124.239	-56.701	-0.145	0.064
-123.224	446.334	0.035	-0.077
-122.210	-26.251	-0.092	0.054
-121.195	43.087	0.272	0.248
