DTS Sentinel unit serial number:	SN413079Multiplexer serial number:	ORYXHardware model number:	OX4-SRSoftware version number:	ORYX F/W v4.00 Oryx Data Collector v3.7.2.0data status	okinstallation	princeton_trtdifferential loss correction	single-endedforward channel	channel 1reverse channel	N/Adate	2019/09/11time	14:28:11forward acquisition time	60.00reverse acquisition time	0.00gamma	496.2192k internal	0.2293k external	0.2293temperature offset calibration	0.9983default loss term (dB/km)	0.3790temperature slope calibration	1.0000multiplexer offset coefficient	1.0000multiplexer slope coefficient	1.0000fibre end	0.00T internal ref (°C)	42.16T ext. ref 1 (°C)	0.90T ext. ref 2 (°C)	37.72length (m)	temperature (°C)	Stokes	anti-Stokes-747.200	800.000	0.018	0.056
-746.185	-200.000	-0.047	0.372
-745.171	74.684	-0.051	0.055
-744.156	117.928	0.225	0.283
-743.142	20.274	0.028	-0.023
-742.127	157.500	0.124	0.175
-741.112	-149.089	0.328	0.027
-740.098	139.073	0.167	0.224
-739.083	44.799	0.052	0.049
-738.069	800.000	0.116	-0.410
-737.054	-57.058	-0.061	-0.027
-736.039	-94.466	-0.173	0.048
-735.025	800.000	-0.053	-0.159
-734.010	-200.000	-0.004	0.213
-732.996	-16.367	-0.108	0.070
-731.981	335.327	0.131	-0.259
-730.966	800.000	0.079	0.340
-729.952	800.000	0.093	0.292
-728.937	-28.653	-0.065	-0.038
-727.923	-191.343	-0.167	0.002
-726.908	-9.074	-0.122	-0.083
-725.894	-200.000	-0.042	-0.246
-724.879	-200.000	0.044	0.207
-723.864	-142.367	0.093	-0.009
-722.850	-25.359	0.167	0.101
-721.835	-79.494	-0.441	0.152
-720.821	-116.427	0.257	-0.049
-719.806	-200.000	-0.002	-0.117
-718.791	21.794	-0.150	-0.125
-717.777	-200.000	-0.021	-0.189
-716.762	286.819	-0.081	-0.149
-715.748	-77.185	0.102	0.036
-714.733	107.924	0.250	-0.304
-713.718	-200.000	-0.001	-0.120
-712.704	-131.744	-0.336	0.045
-711.689	-71.502	0.144	0.055
-710.675	309.590	0.087	0.167
-709.660	525.947	0.178	-0.429
-708.645	440.066	-0.018	-0.040
-707.631	800.000	-0.079	0.225
-706.616	-100.166	-0.599	-0.152
-705.602	-200.000	0.010	-0.134
-704.587	0.841	0.161	-0.118
-703.572	-23.222	-0.055	0.034
-702.558	-141.975	-0.119	-0.012
-701.543	-105.151	0.235	-0.055
-700.529	53.429	0.069	0.067
-699.514	-28.908	-0.248	0.146
-698.499	26.999	-0.159	-0.136
-697.485	65.966	0.365	0.378
-696.470	182.937	-0.086	0.129
-695.456	-75.265	-0.211	0.077
-694.441	-200.000	-0.011	0.061
-693.426	-78.216	-0.262	-0.092
-692.412	-200.000	0.012	-0.127
-691.397	-138.222	0.178	0.020
-690.383	261.829	-0.016	-0.029
-689.368	-31.085	0.209	-0.121
-688.354	-116.971	-0.288	-0.054
-687.339	-169.813	0.459	0.017
-686.324	-54.411	0.250	0.116
-685.310	225.398	-0.110	0.183
-684.295	-164.977	-0.311	0.014
-683.281	800.000	-0.093	0.411
-682.266	149.629	-0.137	-0.189
-681.251	-29.791	-0.229	-0.133
-680.237	-200.000	-0.003	-0.277
-679.222	331.196	-0.118	0.233
-678.208	-145.477	0.219	0.020
-677.193	37.648	-0.326	-0.295
-676.178	800.000	0.022	-0.064
-675.164	-200.000	-0.007	-0.136
-674.149	-89.641	0.060	0.018
-673.135	58.128	-0.041	0.041
-672.120	68.189	-0.068	0.071
-671.105	317.405	0.059	0.114
-670.091	-106.153	-0.129	-0.030
-669.076	800.000	-0.106	0.342
-668.062	-125.105	0.078	0.012
-667.047	-103.011	-0.216	0.052
-666.032	193.448	0.242	-0.373
-665.018	-91.143	-0.358	-0.105
-664.003	-200.000	-0.002	-0.048
-662.989	352.687	-0.032	-0.065
-661.974	306.658	-0.082	0.155
-660.959	-200.000	-0.058	0.426
-659.945	-10.575	-0.544	-0.367
-658.930	-200.000	-0.011	-0.086
-657.916	-108.470	0.157	-0.035
-656.901	-200.000	0.039	-0.194
-655.886	-119.804	-0.098	-0.017
-654.872	-104.796	-0.119	0.028
-653.857	-109.458	-0.115	0.025
-652.843	238.746	0.118	0.199
-651.828	180.947	-0.219	0.328
-650.814	-126.553	-0.331	-0.050
-649.799	19.861	-0.123	-0.101
-648.784	-61.581	0.252	0.108
-647.770	-17.068	-0.205	-0.132
-646.755	71.178	0.112	-0.118
-645.741	769.199	-0.115	-0.319
-644.726	-200.000	-0.064	0.388
-643.711	800.000	0.108	-0.326
-642.697	275.820	-0.109	0.198
-641.682	-20.081	0.211	-0.132
-640.668	-31.226	-0.044	0.025
-639.653	-200.000	0.011	0.061
-638.638	-200.000	0.049	-0.234
-637.624	-125.946	0.478	0.073
-636.609	-3.820	0.319	0.226
-635.595	-134.872	0.034	0.004
-634.580	24.821	-0.310	0.262
-633.565	-111.519	-0.285	-0.059
-632.551	-200.000	0.000	-0.146
-631.536	-87.127	-0.485	0.150
-630.522	58.558	0.161	-0.161
-629.507	-120.470	-0.073	-0.013
-628.492	-200.000	-0.010	-0.063
-627.478	-200.000	-0.032	0.434
-626.463	-94.791	0.208	-0.057
-625.449	34.446	0.089	0.079
-624.434	-97.635	0.227	0.060
-623.419	16.156	-0.125	0.100
-622.405	-156.434	-0.076	-0.005
-621.390	-200.000	-0.028	-0.126
-620.376	126.207	-0.205	-0.264
-619.361	73.269	0.019	-0.021
-618.346	50.893	0.180	0.173
-617.332	30.111	-0.183	-0.159
-616.317	-24.115	0.394	-0.239
-615.303	119.370	-0.120	0.151
-614.288	-71.944	0.333	0.126
-613.273	-200.000	-0.004	-0.047
-612.259	800.000	-0.095	-0.378
-611.244	800.000	-0.073	0.237
-610.230	-200.000	0.067	-0.362
-609.215	143.658	0.186	-0.252
-608.201	147.872	0.227	-0.311
-607.186	23.721	0.151	-0.127
-606.171	760.434	0.210	-0.579
-605.157	238.062	-0.206	-0.348
-604.142	-55.687	-0.201	0.092
-603.128	248.312	-0.020	0.035
-602.113	-192.961	-0.427	-0.004
-601.098	2.479	0.272	-0.200
-600.084	-104.578	0.181	-0.043
-599.069	-81.069	-0.287	-0.097
-598.055	306.854	-0.151	-0.287
-597.040	800.000	0.039	-0.126
-596.025	-105.512	0.398	-0.092
-595.011	-25.387	-0.101	-0.061
-593.996	-89.978	0.257	0.076
-592.982	-185.766	0.161	-0.002
-591.967	87.387	-0.207	0.233
-590.952	-91.109	0.239	0.070
-589.938	-49.243	0.024	-0.012
-588.923	-200.000	0.019	0.165
-587.909	-100.152	0.157	-0.040
-586.894	-75.526	-0.109	0.039
-585.879	24.428	0.116	0.098
-584.865	-46.680	0.118	0.059
-583.850	369.887	-0.103	0.211
-582.836	321.664	-0.074	-0.143
-581.821	114.427	-0.345	-0.428
-580.806	-47.869	-0.126	0.062
-579.792	-147.773	0.130	0.011
-578.777	800.000	0.041	0.159
-577.763	-132.517	-0.296	0.039
-576.748	99.001	0.137	0.161
-575.733	-37.167	0.270	0.147
-574.719	105.127	-0.148	0.178
-573.704	-85.071	-0.009	-0.003
-572.690	-64.983	-0.124	0.051
-571.675	54.867	0.125	-0.123
-570.661	-145.864	-0.098	-0.009
-569.646	164.096	0.140	-0.200
-568.631	-105.706	0.172	-0.040
-567.617	17.987	-0.173	0.140
-566.602	-3.732	0.084	0.059
-565.588	-60.240	0.067	0.029
-564.573	123.166	-0.056	0.072
-563.558	-11.699	0.201	0.134
-562.544	317.769	0.196	0.377
-561.529	235.096	0.085	0.142
-560.515	-1.189	0.108	0.077
-559.500	437.483	0.051	-0.113
-558.485	-200.000	0.038	0.369
-557.471	64.491	0.132	-0.135
-556.456	331.806	-0.043	0.084
-555.442	-200.000	-0.007	-0.134
-554.427	-200.000	-0.029	-0.209
-553.412	-78.720	0.106	0.037
-552.398	-79.092	-0.277	-0.096
-551.383	-108.460	0.082	-0.018
-550.369	-56.352	-0.272	0.123
-549.354	-85.079	-0.187	0.059
-548.339	800.000	0.030	0.109
-547.325	97.364	0.092	0.107
-546.310	-200.000	-0.011	-0.122
-545.296	-4.277	-0.025	0.018
-544.281	177.203	-0.262	-0.387
-543.266	-114.640	0.061	-0.012
-542.252	-200.000	-0.014	0.083
-541.237	-200.000	0.029	0.461
-540.223	-200.000	0.002	0.046
-539.208	-107.511	-0.260	-0.058
-538.193	-49.913	0.304	-0.146
-537.179	-148.382	-0.309	0.026
-536.164	-200.000	0.148	-0.000
-535.150	-158.257	0.236	-0.014
-534.135	-84.176	0.162	-0.052
-533.121	-74.386	-0.383	0.140
-532.106	139.073	-0.071	0.094
-531.091	269.054	0.075	0.134
-530.077	-200.000	0.013	0.370
-529.062	-200.000	0.049	0.233
-528.048	-200.000	-0.004	0.036
-527.033	133.462	-0.153	0.201
-526.018	-200.000	-0.067	-0.379
-525.004	-86.023	-0.192	0.060
-523.989	-75.219	0.221	-0.080
-522.975	-187.404	0.203	0.003
-521.960	-172.995	0.201	-0.006
-520.945	-148.589	0.298	-0.025
-519.931	150.875	-0.180	-0.248
-518.916	45.964	0.060	-0.057
-517.902	-200.000	-0.034	-0.405
-516.887	-51.943	-0.207	0.098
-515.872	181.865	0.098	-0.146
-514.858	-131.844	0.064	-0.009
-513.843	364.750	0.168	0.342
-512.829	-38.354	0.190	-0.102
-511.814	800.000	-0.039	-0.145
-510.799	-128.312	0.172	-0.025
-509.785	179.747	0.080	0.119
-508.770	-81.056	0.061	-0.020
-507.756	251.712	-0.053	0.091
-506.741	111.418	0.166	0.203
-505.726	193.472	-0.145	-0.222
-504.712	35.887	-0.194	-0.173
-503.697	800.000	0.069	-0.284
-502.683	767.461	0.039	-0.107
-501.668	21.425	0.286	-0.236
-500.653	-115.908	-0.416	-0.079
-499.639	-13.735	0.442	-0.290
-498.624	-73.381	-0.196	-0.073
-497.610	-200.000	-0.016	0.192
-496.595	102.040	-0.174	-0.206
-495.581	-110.623	-0.214	0.045
-494.566	347.404	0.102	0.203
-493.551	-96.723	-0.116	-0.031
-492.537	-92.308	-0.233	0.066
-491.522	-82.988	-0.448	0.146
-490.508	-113.485	0.018	0.004
-489.493	77.866	-0.218	-0.236
-488.478	614.277	-0.054	0.138
-487.464	-7.067	-0.041	-0.028
-486.449	271.065	0.124	-0.220
-485.435	-44.722	0.120	0.060
-484.420	248.508	-0.127	-0.218
-483.405	-29.287	-0.207	-0.120
-482.391	-24.189	0.312	-0.189
-481.376	-72.643	-0.325	-0.121
-480.362	432.574	-0.253	-0.555
-479.347	96.056	-0.169	0.196
-478.332	26.392	-0.115	-0.097
-477.318	-118.556	0.032	0.006
-476.303	1.946	-0.110	0.081
-475.289	-200.000	-0.045	0.283
-474.274	-114.468	0.117	-0.023
-473.259	-107.198	0.207	-0.046
-472.245	800.000	0.105	-0.332
-471.230	-121.579	0.193	-0.032
-470.216	-200.000	0.029	-0.285
-469.201	-149.550	-0.891	-0.071
-468.186	-200.000	-0.043	0.226
-467.172	-105.790	0.338	0.077
-466.157	7.564	-0.145	-0.110
-465.143	0.354	-0.097	0.070
-464.128	172.594	-0.063	0.092
-463.113	178.461	-0.041	0.060
-462.099	-200.000	0.045	-0.367
-461.084	-9.844	0.184	0.124
-460.070	800.000	-0.074	0.233
-459.055	-111.722	-0.210	-0.043
-458.040	136.844	0.124	-0.164
-457.026	123.482	0.274	0.347
-456.011	34.560	0.030	0.027
-454.997	163.958	0.038	0.055
-453.982	-100.071	0.160	-0.040
-452.968	285.231	0.103	-0.187
-451.953	-200.000	0.000	-0.219
-450.938	124.163	0.094	-0.120
-449.924	-200.000	-0.013	-0.061
-448.909	42.477	0.019	0.018
-447.895	47.080	-0.353	0.332
-446.880	-30.070	0.124	0.071
-445.865	-200.000	0.006	-0.224
-444.851	800.000	-0.032	0.137
-443.836	-200.000	0.074	0.440
-442.822	800.000	-0.133	0.438
-441.807	-15.597	0.186	0.120
-440.792	-93.759	0.089	-0.025
-439.778	62.740	-0.183	0.185
-438.763	800.000	0.068	-0.225
-437.749	24.959	-0.101	-0.085
-436.734	-37.065	0.086	0.047
-435.719	-75.861	0.257	-0.092
-434.705	-114.989	0.193	-0.037
-433.690	-19.953	0.119	0.074
-432.676	-121.392	-0.216	0.036
-431.661	-57.872	0.197	-0.087
-430.646	-78.243	0.123	-0.043
-429.632	214.892	-0.060	0.097
-428.617	220.776	-0.159	-0.258
-427.603	-73.190	-0.070	0.026
-426.588	-30.551	-0.441	0.253
-425.573	-5.878	-0.096	-0.066
-424.559	800.000	0.087	0.248
-423.544	-59.983	-0.457	-0.197
-422.530	-35.106	0.088	0.048
-421.515	327.486	-0.107	0.208
-420.500	-85.161	0.050	-0.016
-419.486	13.526	0.148	-0.116
-418.471	-107.352	0.293	0.065
-417.457	349.091	0.098	0.195
-416.442	460.634	-0.024	0.055
-415.428	108.129	-0.194	0.234
-414.413	-42.718	0.145	0.075
-413.398	-47.483	-0.189	-0.093
-412.384	3.014	-0.273	0.200
-411.369	108.285	0.217	0.261
-410.355	712.404	0.029	-0.077
-409.340	-200.000	-0.024	-0.315
-408.325	250.883	-0.134	-0.230
-407.311	22.564	0.273	0.226
-406.296	-87.518	-0.450	0.138
-405.282	191.427	0.056	0.085
-404.267	-183.972	-0.197	-0.003
-403.252	-200.000	-0.028	-0.193
-402.238	273.236	-0.076	-0.136
-401.223	800.000	-0.048	-0.154
-400.209	-35.313	0.153	0.084
-399.194	-184.338	-0.364	0.006
-398.179	8.724	-0.364	0.277
-397.165	292.245	0.100	0.185
-396.150	4.690	0.143	0.106
-395.136	45.470	0.215	-0.201
-394.121	397.246	-0.051	0.107
-393.106	74.505	0.058	-0.062
-392.092	-102.419	-0.199	-0.048
-391.077	52.134	-0.107	-0.103
-390.063	189.341	0.085	-0.128
-389.048	57.856	-0.167	0.165
-388.033	32.025	0.120	0.105
-387.019	117.605	-0.141	0.175
-386.004	20.603	0.326	-0.266
-384.990	-21.837	0.120	-0.074
-383.975	136.947	-0.256	-0.337
-382.960	192.170	0.081	-0.123
-381.946	551.898	-0.050	-0.121
-380.931	137.631	-0.272	-0.360
-379.917	-28.801	0.364	0.211
-378.902	11.410	0.335	-0.259
-377.888	-200.000	-0.063	0.289
-376.873	-66.652	0.137	0.055
-375.858	391.798	0.116	0.243
-374.844	644.753	-0.072	-0.186
-373.829	-200.000	-0.034	0.167
-372.815	-200.000	-0.019	0.168
-371.800	13.923	-0.067	0.052
-370.785	17.059	0.102	-0.082
-369.771	5.927	0.129	0.096
-368.756	-55.422	-0.073	-0.033
-367.742	-200.000	0.047	-0.231
-366.727	-200.000	0.007	0.094
-365.712	70.909	0.129	-0.135
-364.698	217.093	-0.064	-0.103
-363.683	-200.000	0.015	-0.303
-362.669	-200.000	0.065	-0.459
-361.654	147.420	0.126	-0.172
-360.639	-30.718	-0.200	-0.114
-359.625	486.996	-0.212	0.487
-358.610	-1.925	-0.221	-0.157
-357.596	800.000	-0.039	-0.158
-356.581	121.735	-0.091	0.115
-355.566	-200.000	0.071	0.373
-354.552	176.788	-0.125	0.184
-353.537	800.000	0.058	-0.166
-352.523	-13.385	0.101	-0.066
-351.508	257.699	-0.095	0.164
-350.493	-200.000	0.001	0.354
-349.479	-200.000	-0.031	-0.230
-348.464	149.958	0.217	0.296
-347.450	-200.000	0.027	0.161
-346.435	-36.242	-0.168	0.091
-345.420	-200.000	0.009	-0.181
-344.406	-127.719	0.216	0.031
-343.391	-83.064	0.347	0.112
-342.377	-118.024	0.113	0.020
-341.362	-36.789	-0.315	0.170
-340.348	66.483	0.150	-0.153
-339.333	-134.876	-0.128	0.016
-338.318	107.298	0.184	0.221
-337.304	-40.642	-0.244	-0.127
-336.289	-200.000	0.009	-0.103
-335.275	23.171	0.338	0.280
-334.260	126.994	0.153	0.195
-333.245	-200.000	-0.026	0.260
-332.231	-190.745	0.102	-0.001
-331.216	252.093	0.199	0.342
-330.202	208.674	0.088	0.139
-329.187	-200.000	0.005	-0.096
-328.172	250.693	0.057	0.097
-327.158	57.565	0.224	-0.221
-326.143	174.324	-0.200	-0.291
-325.129	-112.394	-0.165	0.033
-324.114	-41.285	-0.172	0.089
-323.099	-114.926	-0.186	0.036
-322.085	110.937	-0.059	-0.072
-321.070	110.001	-0.115	0.139
-320.056	-89.611	0.199	0.059
-319.041	-146.277	-0.233	0.021
-318.026	226.600	-0.185	0.303
-317.012	333.026	-0.157	-0.306
-315.997	800.000	0.043	-0.150
-314.983	249.150	-0.089	-0.152
-313.968	800.000	-0.069	0.214
-312.953	-165.729	-0.251	0.011
-311.939	229.902	0.051	-0.084
-310.924	110.547	-0.240	0.291
-309.910	800.000	-0.081	0.285
-308.895	-200.000	0.008	0.196
-307.880	-6.653	-0.157	-0.108
-306.866	-12.054	-0.125	0.082
-305.851	527.637	0.160	0.379
-304.837	-164.316	0.179	0.008
-303.822	800.000	0.050	0.168
-302.807	325.588	-0.107	-0.205
-301.793	44.615	-0.276	-0.255
-300.778	401.896	0.070	0.149
-299.764	800.000	0.060	-0.206
-298.749	317.515	-0.090	-0.172
-297.735	66.419	0.179	0.183
-296.720	105.766	-0.105	0.124
-295.705	-11.259	0.170	0.112
-294.691	175.464	0.037	0.053
-293.676	44.578	-0.192	0.177
-292.662	800.000	0.072	-0.252
-291.647	-21.805	0.098	0.060
-290.632	-200.000	0.006	-0.055
-289.618	-200.000	0.015	0.214
-288.603	-112.125	0.277	-0.056
-287.589	-200.000	-0.001	-0.012
-286.574	94.317	-0.269	0.307
-285.559	-54.124	0.358	-0.164
-284.545	235.977	0.102	0.169
-283.530	-148.084	0.125	-0.010
-282.516	800.000	-0.060	-0.209
-281.501	-6.075	0.168	-0.115
-280.486	-83.212	0.150	0.048
-279.472	800.000	0.027	0.093
-278.457	-200.000	0.002	-0.224
-277.443	-200.000	-0.002	-0.082
-276.428	-145.103	0.048	-0.004
-275.413	194.413	-0.144	0.220
-274.399	-200.000	-0.021	-0.238
-273.384	-14.421	-0.256	0.166
-272.370	273.752	0.118	-0.209
-271.355	-132.823	0.105	0.013
-270.340	-99.461	0.145	0.037
-269.326	-200.000	0.005	-0.089
-268.311	-83.492	-0.065	0.021
-267.297	800.000	-0.129	-0.465
-266.282	539.951	-0.099	-0.237
-265.267	402.877	-0.217	0.459
-264.253	-24.084	-0.110	0.066
-263.238	57.117	-0.058	0.057
-262.224	800.000	-0.041	-0.133
-261.209	439.501	-0.104	0.228
-260.195	336.784	-0.145	0.283
-259.180	800.000	0.014	0.052
-258.165	-200.000	-0.010	0.119
-257.151	145.800	0.099	-0.133
-256.136	-200.000	-0.018	-0.089
-255.122	800.000	-0.071	-0.276
-254.107	-13.919	0.371	-0.241
-253.092	-109.228	0.200	-0.043
-252.078	-200.000	-0.069	-0.374
-251.063	-200.000	-0.000	0.352
-250.049	-192.859	-0.106	-0.001
-249.034	-200.000	0.009	-0.219
-248.019	-110.784	-0.079	-0.016
-247.005	-200.000	0.013	0.207
-245.990	14.309	0.272	0.213
-244.976	212.266	0.172	-0.272
-243.961	6.915	0.197	-0.147
-242.946	591.317	0.024	-0.060
-241.932	-39.016	0.058	-0.031
-240.917	56.403	-0.181	0.176
-239.903	50.481	-0.280	0.265
-238.888	-78.640	-0.100	-0.034
-237.873	-200.000	0.019	0.145
-236.859	176.491	0.097	-0.142
-235.844	515.450	0.120	-0.281
-234.830	100.432	-0.090	0.105
-233.815	142.803	0.291	-0.388
-232.800	-171.375	-0.180	0.006
-231.786	217.915	-0.147	-0.235
-230.771	190.250	-0.139	-0.210
-229.757	106.339	0.122	-0.146
-228.742	-145.019	0.165	0.015
-227.727	9.354	-0.206	0.157
-226.713	-76.726	-0.204	0.072
-225.698	-70.565	0.201	-0.076
-224.684	153.253	-0.083	0.114
-223.669	92.105	0.146	-0.165
-222.655	-200.000	0.007	0.048
-221.640	250.838	-0.097	0.165
-220.625	415.882	0.067	-0.142
-219.611	-200.000	-0.050	0.330
-218.596	-116.943	-0.306	0.056
-217.582	293.436	0.165	0.302
-216.567	-71.975	-0.029	-0.011
-215.552	-200.000	-0.009	-0.057
-214.538	800.000	-0.067	0.219
-213.523	-106.418	-0.169	-0.038
-212.509	-22.559	0.151	0.092
-211.494	-200.000	-0.037	-0.264
-210.479	-162.259	-0.316	-0.016
-209.465	40.632	0.177	0.160
-208.450	-200.000	-0.055	0.261
-207.436	-81.803	-0.211	0.069
-206.421	800.000	-0.090	-0.292
-205.406	-21.665	-0.272	0.166
-204.392	-107.942	-0.117	-0.025
-203.377	-3.742	0.243	0.169
-202.363	82.453	0.062	0.067
-201.348	-158.333	0.118	-0.007
-200.333	-165.656	0.272	0.012
-199.319	-158.124	0.403	-0.024
-198.304	-200.000	-0.025	0.219
-197.290	367.757	0.118	-0.238
-196.275	800.000	-0.058	-0.178
-195.260	164.674	-0.202	0.285
-194.246	18.536	0.068	-0.054
-193.231	-0.030	-0.193	-0.138
-192.217	-28.422	0.268	0.155
-191.202	9.893	0.358	0.272
-190.187	-62.753	-0.263	-0.109
-189.173	-56.812	0.159	0.070
-188.158	131.321	0.178	-0.229
-187.144	209.979	0.035	-0.055
-186.129	-187.934	0.358	-0.005
-185.114	-86.161	0.293	-0.090
-184.100	162.214	-0.135	-0.190
-183.085	-91.921	-0.323	-0.092
-182.071	-200.000	-0.061	0.419
-181.056	-139.150	0.128	0.014
-180.042	444.042	-0.066	0.145
-179.027	-91.367	0.085	0.024
-178.012	41.796	0.205	-0.186
-176.998	800.000	-0.074	-0.249
-175.983	501.880	0.048	0.110
-174.969	-15.774	0.105	0.067
-173.954	145.788	0.105	0.140
-172.939	-135.094	-0.189	-0.023
-171.925	103.954	-0.110	-0.129
-170.910	-104.068	0.111	0.026
-169.896	-200.000	-0.025	0.169
-168.881	-137.058	0.548	0.063
-167.866	200.136	-0.062	-0.095
-166.852	-1.788	0.101	-0.071
-165.837	-200.000	0.021	-0.127
-164.823	434.287	-0.038	-0.083
-163.808	5.696	-0.129	0.095
-162.793	-112.939	0.228	-0.045
-161.779	-76.576	-0.340	-0.120
-160.764	-8.792	0.167	-0.112
-159.750	92.196	-0.158	-0.178
-158.735	-200.000	-0.011	0.106
-157.720	135.784	0.107	-0.139
-156.706	69.443	0.108	0.112
-155.691	61.604	-0.335	0.333
-154.677	598.655	-0.144	-0.358
-153.662	800.000	-0.036	0.115
-152.647	145.670	-0.149	0.199
-151.633	800.000	-0.097	0.286
-150.618	558.807	0.070	-0.168
-149.604	-108.217	0.200	0.043
-148.589	800.000	0.015	0.066
-147.574	150.376	0.045	-0.062
-146.560	-120.802	-0.214	-0.036
-145.545	-145.659	-0.157	-0.014
-144.531	48.128	-0.217	0.203
-143.516	103.683	0.156	0.183
-142.502	261.748	0.176	0.304
-141.487	800.000	-0.138	0.425
-140.472	-16.015	0.177	-0.112
-139.458	-200.000	-0.001	-0.198
-138.443	-16.430	0.341	-0.216
-137.429	23.886	-0.126	-0.104
-136.414	-200.000	0.176	-0.001
-135.399	12.288	0.126	-0.097
-134.385	-17.249	0.183	-0.115
-133.370	61.354	-0.030	-0.030
-132.356	-82.571	-0.303	0.098
-131.341	-72.971	-0.453	-0.166
-130.326	-86.492	-0.118	0.036
-129.312	-14.016	-0.133	0.086
-128.297	-51.606	0.227	-0.106
-127.283	-117.379	-0.211	-0.038
-126.268	76.665	0.114	-0.120
-125.253	800.000	-0.101	0.378
-124.239	105.563	-0.100	0.118
-123.224	525.778	0.093	0.219
-122.210	490.020	-0.061	0.139
-121.195	511.906	0.032	0.073
