DTS Sentinel unit serial number:	SN413079Multiplexer serial number:	ORYXHardware model number:	OX4-SRSoftware version number:	ORYX F/W v4.00 Oryx Data Collector v3.7.2.0data status	okinstallation	princeton_trtdifferential loss correction	single-endedforward channel	channel 1reverse channel	N/Adate	2019/09/15time	16:42:35forward acquisition time	60.00reverse acquisition time	0.00gamma	496.2192k internal	0.2293k external	0.2293temperature offset calibration	0.9931default loss term (dB/km)	0.3790temperature slope calibration	1.0000multiplexer offset coefficient	1.0000multiplexer slope coefficient	1.0000fibre end	0.00T internal ref (°C)	44.19T ext. ref 1 (°C)	5.69T ext. ref 2 (°C)	40.41length (m)	temperature (°C)	Stokes	anti-Stokes-747.200	-14.829	0.446	0.293
-746.185	117.578	-0.061	-0.077
-745.171	-57.571	-0.274	0.123
-744.156	-178.238	-0.424	-0.010
-743.142	-78.938	-0.177	0.062
-742.127	-175.714	-0.198	-0.005
-741.112	221.656	-0.159	-0.261
-740.098	106.427	-0.212	0.257
-739.083	800.000	0.064	-0.190
-738.069	41.805	0.084	-0.078
-737.054	75.115	-0.042	-0.045
-736.039	-200.000	-0.012	-0.064
-735.025	96.599	-0.148	0.173
-734.010	-90.050	0.326	0.097
-732.996	207.324	0.028	-0.045
-731.981	-8.187	0.117	0.081
-730.966	-55.083	-0.231	-0.106
-729.952	-118.361	-0.340	0.062
-728.937	-89.864	-0.509	-0.152
-727.923	386.619	-0.148	-0.313
-726.908	116.878	-0.118	0.148
-725.894	61.822	-0.244	-0.248
-724.879	24.820	0.159	-0.135
-723.864	-200.000	-0.045	0.220
-722.850	250.432	-0.045	-0.077
-721.835	13.878	-0.162	0.129
-720.821	76.617	-0.223	-0.241
-719.806	-62.520	0.196	0.083
-718.791	800.000	-0.034	-0.098
-717.777	-39.623	0.184	0.099
-716.762	4.396	0.138	0.103
-715.748	106.741	0.154	-0.187
-714.733	624.819	0.024	-0.061
-713.718	-200.000	-0.044	-0.379
-712.704	800.000	0.092	-0.273
-711.689	-152.026	0.198	0.015
-710.675	142.655	-0.127	-0.172
-709.660	-14.983	-0.199	0.130
-708.645	-164.648	-0.310	-0.014
-707.631	257.913	-0.136	0.239
-706.616	-14.746	0.034	-0.022
-705.602	507.895	0.120	0.285
-704.587	800.000	0.130	-0.405
-703.572	707.774	0.034	0.092
-702.558	280.492	-0.010	0.018
-701.543	-20.275	-0.169	0.106
-700.529	800.000	-0.071	0.256
-699.514	-133.374	-0.310	-0.040
-698.499	-200.000	-0.037	0.322
-697.485	497.724	0.084	0.197
-696.470	43.387	-0.088	-0.082
-695.456	-108.907	0.096	-0.021
-694.441	-122.918	-0.262	0.043
-693.426	124.662	-0.239	-0.308
-692.412	-7.383	-0.090	0.062
-691.397	86.435	-0.167	-0.188
-690.383	7.709	-0.266	-0.204
-689.368	-200.000	0.047	-0.369
-688.354	-35.359	-0.234	0.130
-687.339	800.000	-0.102	-0.452
-686.324	-200.000	0.032	0.181
-685.310	167.184	-0.120	-0.173
-684.295	181.322	0.040	-0.060
-683.281	232.344	-0.094	-0.157
-682.266	-200.000	0.051	-0.241
-681.251	178.630	-0.173	-0.258
-680.237	-2.626	-0.177	-0.127
-679.222	-25.707	-0.173	0.104
-678.208	51.513	0.113	-0.109
-677.193	-200.000	0.017	0.115
-676.178	162.994	0.100	0.144
-675.164	-200.000	-0.058	-0.278
-674.149	91.478	0.206	-0.236
-673.135	44.562	0.101	0.095
-672.120	268.607	-0.122	-0.219
-671.105	-105.997	-0.261	0.060
-670.091	-193.153	-0.093	-0.001
-669.076	-88.907	-0.224	-0.068
-668.062	-200.000	-0.010	-0.210
-667.047	66.363	-0.224	0.232
-666.032	-6.243	0.134	-0.094
-665.018	16.177	0.191	-0.154
-664.003	-200.000	-0.013	-0.287
-662.989	-132.096	0.269	0.036
-661.974	-135.651	0.331	0.040
-660.959	32.514	-0.123	0.108
-659.945	-98.192	-0.206	-0.054
-658.930	800.000	-0.072	-0.217
-657.916	33.078	0.098	-0.087
-656.901	434.150	-0.062	-0.137
-655.886	197.460	-0.181	0.282
-654.872	-126.873	0.147	-0.022
-653.857	-99.818	0.301	0.077
-652.843	-200.000	-0.057	-0.257
-651.828	56.530	-0.210	-0.208
-650.814	-109.364	-0.263	0.057
-649.799	74.410	0.022	0.024
-648.784	-200.000	0.018	0.137
-647.770	134.311	-0.175	-0.231
-646.755	180.773	0.060	0.091
-645.741	800.000	-0.046	-0.188
-644.726	-4.641	-0.110	0.077
-643.711	-200.000	0.019	-0.268
-642.697	-200.000	0.020	0.099
-641.682	-94.042	-0.173	-0.048
-640.668	-74.338	0.378	0.139
-639.653	98.401	-0.185	-0.217
-638.638	-52.853	0.156	-0.073
-637.624	15.243	-0.208	0.166
-636.609	-2.475	-0.278	-0.199
-635.595	-200.000	0.063	0.385
-634.580	-117.730	0.304	-0.056
-633.565	-182.122	-0.292	-0.006
-632.551	-63.063	0.263	-0.111
-631.536	5.319	-0.297	-0.223
-630.522	-91.596	-0.210	-0.061
-629.507	198.138	-0.241	0.375
-628.492	236.796	-0.073	-0.123
-627.478	255.170	0.132	0.230
-626.463	-200.000	-0.001	-0.377
-625.449	800.000	0.033	-0.112
-624.434	76.199	0.159	0.171
-623.419	15.544	-0.065	0.052
-622.405	-200.000	-0.034	-0.301
-621.390	800.000	0.083	-0.339
-620.376	177.530	0.143	0.212
-619.361	-200.000	-0.004	-0.030
-618.346	-149.064	0.267	0.022
-617.332	19.194	-0.242	-0.197
-616.317	-136.537	-0.218	0.026
-615.303	-200.000	-0.003	0.147
-614.288	-15.773	-0.084	-0.055
-613.273	-107.556	0.290	0.065
-612.259	13.831	0.106	0.084
-611.244	-200.000	0.029	-0.350
-610.230	157.545	0.156	0.220
-609.215	-151.004	0.138	0.011
-608.201	194.464	0.031	-0.048
-607.186	-176.547	0.451	-0.012
-606.171	-88.538	-0.284	0.086
-605.157	56.338	-0.199	-0.197
-604.142	-178.619	0.407	0.010
-603.128	442.693	0.066	0.147
-602.113	60.204	-0.151	-0.152
-601.098	-200.000	-0.013	0.085
-600.084	180.523	0.194	0.289
-599.069	616.151	0.031	-0.079
-598.055	-187.567	-0.080	0.001
-597.040	215.124	-0.045	0.072
-596.025	-200.000	0.041	-0.228
-595.011	14.000	-0.224	-0.178
-593.996	494.329	-0.125	-0.291
-592.982	-200.000	0.124	-0.000
-591.967	-105.019	0.419	-0.098
-590.952	45.547	-0.169	0.159
-589.938	800.000	-0.109	0.375
-588.923	12.185	-0.190	-0.149
-587.909	-134.108	-0.242	0.030
-586.894	65.090	-0.091	0.094
-585.879	165.409	-0.129	0.186
-584.865	103.373	-0.239	-0.285
-583.850	33.813	-0.216	0.191
-582.836	-200.000	-0.005	-0.058
-581.821	-105.044	-0.080	0.019
-580.806	-50.926	-0.183	-0.087
-579.792	241.617	0.137	-0.233
-578.777	800.000	0.083	0.234
-577.763	-200.000	0.004	0.219
-576.748	-30.806	0.260	-0.149
-575.733	-123.379	-0.117	0.019
-574.719	206.871	-0.108	-0.172
-573.704	-200.000	-0.083	-0.386
-572.690	195.322	-0.108	0.167
-571.675	619.516	0.008	-0.021
-570.661	-46.327	-0.175	-0.087
-569.646	280.904	0.134	0.244
-568.631	-200.000	0.013	-0.263
-567.617	-200.000	-0.037	-0.270
-566.602	-200.000	-0.022	-0.133
-565.588	350.415	0.186	-0.374
-564.573	-178.627	0.205	0.005
-563.558	-77.802	-0.128	-0.045
-562.544	-94.125	-0.083	0.023
-561.529	-200.000	-0.014	-0.279
-560.515	-71.687	0.139	0.053
-559.500	200.586	-0.256	-0.399
-558.485	30.255	-0.054	0.047
-557.471	223.387	0.096	0.157
-556.456	-17.053	-0.067	0.043
-555.442	-155.651	0.253	0.017
-554.427	800.000	0.060	-0.206
-553.412	394.688	0.150	-0.318
-552.398	-176.071	-0.286	-0.008
-551.383	112.411	-0.073	0.090
-550.369	800.000	-0.117	-0.341
-549.354	443.058	-0.085	0.190
-548.339	69.536	-0.087	0.091
-547.325	-51.201	-0.149	0.071
-546.310	-113.277	-0.439	-0.088
-545.296	119.129	0.136	0.170
-544.281	-22.055	-0.072	-0.044
-543.266	-200.000	-0.002	-0.087
-542.252	800.000	0.042	-0.147
-541.237	-200.000	-0.008	-0.194
-540.223	7.861	0.316	-0.241
-539.208	-200.000	0.027	0.269
-538.193	-157.633	-0.167	0.010
-537.179	517.335	-0.057	-0.136
-536.164	-53.121	0.333	-0.155
-535.150	-200.000	0.081	0.401
-534.135	-74.133	0.167	0.061
-533.121	800.000	0.060	-0.248
-532.106	-179.396	-0.261	0.006
-531.091	-200.000	-0.022	-0.328
-530.077	-82.732	-0.180	0.059
-529.062	800.000	0.094	-0.322
-528.048	556.499	0.076	0.187
-527.033	140.525	-0.297	0.398
-526.018	-146.480	-0.098	-0.009
-525.004	11.142	-0.090	-0.070
-523.989	-200.000	-0.016	0.096
-522.975	657.717	-0.088	-0.230
-521.960	218.324	0.027	-0.044
-520.945	325.618	-0.089	-0.174
-519.931	-107.618	0.116	0.026
-518.916	-103.072	0.467	0.112
-517.902	116.780	0.222	-0.277
-516.887	800.000	0.097	-0.301
-515.872	-38.266	0.105	-0.056
-514.858	122.120	-0.100	0.126
-513.843	2.984	0.293	0.216
-512.829	312.119	0.065	-0.124
-511.814	-200.000	-0.004	0.075
-510.799	-75.058	0.158	-0.057
-509.785	681.810	0.147	-0.388
-508.770	-35.282	-0.200	0.110
-507.756	37.797	-0.109	0.098
-506.741	694.615	-0.102	0.272
-505.726	128.263	0.212	0.273
-504.712	-144.124	-0.187	-0.018
-503.697	-45.355	-0.236	0.119
-502.683	78.170	-0.258	0.279
-501.668	-19.655	-0.161	0.101
-500.653	800.000	0.047	0.185
-499.639	-200.000	0.032	0.325
-498.624	-134.355	0.221	0.027
-497.610	651.680	0.054	-0.140
-496.595	800.000	0.036	0.145
-495.581	7.359	0.213	0.161
-494.566	127.575	-0.134	0.172
-493.551	252.138	-0.160	0.276
-492.537	204.212	-0.194	0.304
-491.522	412.303	0.159	0.342
-490.508	-200.000	-0.092	-0.452
-489.493	-171.136	-0.345	-0.012
-488.478	-113.885	0.285	-0.056
-487.464	641.724	0.051	0.133
-486.449	253.575	0.141	-0.243
-485.435	33.950	0.157	0.139
-484.420	23.523	0.137	-0.114
-483.405	202.217	0.103	0.161
-482.391	-105.870	0.105	-0.024
-481.376	-155.127	-0.201	-0.013
-480.362	-30.353	-0.148	-0.085
-479.347	-54.429	0.198	-0.091
-478.332	-200.000	-0.009	-0.343
-477.318	-14.778	0.296	-0.193
-476.303	-51.179	0.143	-0.068
-475.289	467.179	0.188	-0.426
-474.274	-200.000	-0.032	-0.401
-473.259	-10.074	-0.230	-0.155
-472.245	298.571	0.155	0.289
-471.230	30.882	-0.155	-0.134
-470.216	-200.000	0.008	-0.101
-469.201	137.397	0.323	-0.428
-468.186	800.000	0.027	-0.078
-467.172	-83.283	-0.109	0.036
-466.157	377.761	0.160	0.332
-465.143	42.289	0.126	-0.116
-464.128	-67.523	-0.091	0.036
-463.113	206.843	0.056	0.088
-462.099	126.259	-0.034	-0.043
-461.084	-200.000	-0.369	0.002
-460.070	-152.935	-0.153	-0.011
-459.055	120.392	0.162	0.203
-458.040	28.330	0.059	0.050
-457.026	88.830	-0.270	0.304
-456.011	-200.000	0.043	-0.479
-454.997	-200.000	-0.012	0.099
-453.982	128.315	-0.070	0.090
-452.968	-177.500	0.328	-0.008
-451.953	-40.668	0.072	-0.038
-450.938	120.249	0.045	-0.057
-449.924	-1.611	-0.209	-0.149
-448.909	-200.000	-0.028	-0.251
-447.895	464.876	-0.040	0.090
-446.880	-200.000	-0.057	-0.254
-445.865	257.961	-0.046	-0.081
-444.851	98.353	0.074	-0.086
-443.836	800.000	0.055	0.163
-442.822	-91.426	-0.257	0.074
-441.807	-134.208	0.177	-0.022
-440.792	-169.648	-0.127	0.005
-439.778	36.143	-0.118	0.105
-438.763	123.930	-0.257	-0.326
-437.749	-126.998	0.083	0.012
-436.734	-38.009	0.145	0.078
-435.719	-50.429	0.246	-0.117
-434.705	3.402	0.265	0.195
-433.690	-200.000	-0.023	-0.175
-432.676	-200.000	0.033	-0.220
-431.661	-66.796	0.301	0.120
-430.646	-38.194	0.090	-0.048
-429.632	773.858	-0.029	-0.079
-428.617	-45.729	0.049	-0.025
-427.603	-200.000	0.085	-0.386
-426.588	-10.654	-0.270	0.181
-425.573	-92.818	-0.079	-0.022
-424.559	-68.838	0.268	0.104
-423.544	-200.000	-0.000	-0.083
-422.530	608.377	-0.132	0.333
-421.515	-97.188	0.086	-0.023
-420.500	-91.599	0.147	-0.042
-419.486	-200.000	-0.092	0.414
-418.471	-66.147	0.071	0.029
-417.457	-32.604	0.169	-0.095
-416.442	-140.698	-0.351	0.037
-415.428	9.711	-0.098	-0.075
-414.413	160.388	-0.169	0.239
-413.398	309.465	-0.020	0.038
-412.384	107.059	0.166	-0.199
-411.369	14.606	0.248	0.195
-410.355	-152.170	0.277	-0.020
-409.340	-73.475	-0.318	0.117
-408.325	-56.628	-0.117	-0.052
-407.311	-123.571	0.086	0.014
-406.296	-193.063	-0.324	-0.003
-405.282	53.961	0.350	0.340
-404.267	-200.000	0.037	-0.166
-403.252	800.000	0.073	-0.273
-402.238	60.902	0.103	-0.103
-401.223	243.796	-0.116	0.197
-400.209	-162.085	-0.277	-0.014
-399.194	800.000	0.072	-0.205
-398.179	-75.479	0.244	0.088
-397.165	800.000	-0.062	-0.210
-396.150	8.273	0.033	0.025
-395.136	-87.592	-0.125	0.038
-394.121	-157.265	-0.093	0.006
-393.106	274.194	-0.099	-0.177
-392.092	218.524	0.069	-0.112
-391.077	107.577	-0.073	-0.087
-390.063	78.811	-0.151	-0.163
-389.048	-1.106	0.268	-0.191
-388.033	-200.000	-0.004	0.052
-387.019	-77.855	-0.216	-0.075
-386.004	-200.000	0.023	0.251
-384.990	-140.559	-0.264	-0.028
-383.975	-200.000	-0.043	0.316
-382.960	800.000	-0.061	-0.202
-381.946	-81.822	-0.110	-0.036
-380.931	-12.889	0.126	-0.083
-379.917	77.278	0.132	0.142
-378.902	-36.445	0.255	-0.139
-377.888	-200.000	0.038	0.366
-376.873	800.000	-0.066	0.208
-375.858	4.030	0.143	0.105
-374.844	148.650	-0.162	0.221
-373.829	-63.432	-0.302	-0.125
-372.815	-200.000	0.012	0.116
-371.800	29.860	-0.187	0.160
-370.785	8.470	-0.163	-0.123
-369.771	-147.739	-0.377	-0.032
-368.756	800.000	0.099	-0.279
-367.742	325.215	-0.085	-0.163
-366.727	-151.168	0.240	0.018
-365.712	-200.000	-0.018	0.183
-364.698	115.581	0.077	0.095
-363.683	-92.988	0.153	0.043
-362.669	-101.498	-0.284	0.070
-361.654	249.518	0.099	0.169
-360.639	18.728	0.038	0.031
-359.625	-8.540	0.364	0.246
-358.610	319.099	-0.243	0.464
-357.596	216.876	0.232	0.372
-356.581	262.639	0.231	0.404
-355.566	800.000	-0.009	0.029
-354.552	-200.000	0.009	-0.468
-353.537	-37.727	0.262	0.141
-352.523	251.169	0.130	-0.223
-351.508	208.967	-0.184	-0.290
-350.493	-117.812	-0.045	-0.008
-349.479	334.394	0.224	-0.437
-348.464	-135.523	0.255	0.031
-347.450	-200.000	-0.003	0.342
-346.435	114.878	-0.023	0.029
-345.420	21.514	0.118	0.097
-344.406	800.000	-0.126	-0.394
-343.391	152.708	0.180	-0.247
-342.377	16.049	0.266	-0.211
-341.362	-200.000	-0.020	-0.319
-340.348	552.922	-0.083	-0.201
-339.333	-0.423	0.053	-0.038
-338.318	15.594	0.063	-0.050
-337.304	-67.493	0.326	-0.129
-336.289	19.916	0.281	0.228
-335.275	-52.040	0.172	0.081
-334.260	39.295	0.147	-0.133
-333.245	-182.257	0.184	0.003
-332.231	-50.279	0.158	0.075
-331.216	40.794	-0.179	0.163
-330.202	6.844	-0.103	0.077
-329.187	446.826	-0.051	-0.113
-328.172	219.790	0.020	0.031
-327.158	0.875	-0.098	0.071
-326.143	-130.280	-0.085	-0.012
-325.129	-65.826	-0.307	-0.124
-324.114	1.867	-0.114	-0.083
-323.099	-13.829	0.252	0.164
-322.085	-200.000	-0.082	0.578
-321.070	-138.680	-0.285	-0.031
-320.056	-75.857	-0.338	0.120
-319.041	-91.815	0.261	0.075
-318.026	-200.000	-0.041	-0.261
-317.012	405.125	0.123	-0.260
-315.997	75.857	-0.115	-0.122
-314.983	-55.294	0.061	-0.027
-313.968	653.515	-0.115	0.296
-312.953	201.404	0.083	-0.129
-311.939	-153.265	-0.337	-0.024
-310.924	-11.053	-0.066	0.044
-309.910	800.000	-0.083	0.325
-308.895	-19.405	0.124	0.077
-307.880	141.210	0.193	0.257
-306.866	275.771	0.093	-0.167
-305.851	-59.286	0.110	0.048
-304.837	-185.532	-0.433	-0.007
-303.822	576.755	0.093	0.229
-302.807	-178.730	-0.189	0.004
-301.793	56.532	-0.195	-0.190
-300.778	800.000	0.060	0.231
-299.764	-10.324	-0.042	0.028
-298.749	-153.533	0.233	0.016
-297.735	-70.721	-0.362	-0.138
-296.720	-84.424	0.161	0.051
-295.705	226.048	-0.125	0.204
-294.691	-200.000	0.002	-0.055
-293.676	-109.267	-0.125	0.027
-292.662	170.193	0.095	-0.137
-291.647	1.046	0.223	-0.161
-290.632	-63.914	0.364	-0.150
-289.618	-60.851	-0.133	-0.057
-288.603	-124.421	0.125	-0.020
-287.589	-20.741	-0.152	0.094
-286.574	-200.000	-0.029	-0.197
-285.559	-200.000	-0.041	0.283
-284.545	19.372	0.076	-0.062
-283.530	134.863	-0.166	0.217
-282.516	17.506	0.161	0.129
-281.501	98.004	0.127	-0.147
-280.486	121.268	0.130	0.163
-279.472	100.096	-0.203	0.237
-278.457	-89.908	-0.297	0.087
-277.443	-79.531	-0.155	-0.052
-276.428	-58.503	-0.249	-0.109
-275.413	-169.779	0.186	0.007
-274.399	117.097	0.217	-0.268
-273.384	-45.102	0.203	0.101
-272.370	406.789	-0.182	-0.385
-271.355	-66.743	-0.204	0.081
-270.340	-26.800	0.225	0.132
-269.326	396.417	0.056	0.118
-268.311	-200.000	0.006	-0.213
-267.297	357.472	-0.072	0.145
-266.282	-2.451	-0.087	-0.061
-265.267	0.237	-0.121	0.087
-264.253	-161.246	-0.362	0.019
-263.238	-106.937	-0.244	-0.054
-262.224	-55.946	-0.053	-0.024
-261.209	258.144	0.072	0.124
-260.195	-200.000	-0.027	0.138
-259.180	179.210	0.037	0.054
-258.165	208.998	0.143	-0.225
-257.151	-86.506	0.256	-0.079
-256.136	-51.112	0.135	-0.063
-255.122	20.726	0.162	-0.131
-254.107	389.901	-0.050	0.105
-253.092	-200.000	-0.012	0.230
-252.078	-200.000	0.046	0.299
-251.063	-149.795	0.264	0.021
-250.049	-99.411	-0.196	0.049
-249.034	-64.750	0.241	0.098
-248.019	-112.615	0.224	0.045
-247.005	-200.000	-0.007	-0.174
-245.990	441.458	-0.063	0.137
-244.976	-127.710	-0.086	0.013
-243.961	-200.000	0.008	-0.303
-242.946	-38.793	0.119	-0.063
-241.932	-63.517	0.167	0.069
-240.917	-2.901	-0.220	0.154
-239.903	206.494	0.247	0.385
-238.888	-129.780	-0.229	-0.032
-237.873	197.686	-0.065	0.100
-236.859	-200.000	0.009	-0.215
-235.844	-200.000	-0.058	0.309
-234.830	14.277	-0.309	0.242
-233.815	75.587	-0.223	0.236
-232.800	90.371	0.190	0.213
-231.786	97.355	-0.153	-0.176
-230.771	-127.544	0.349	0.051
-229.757	-158.710	-0.340	-0.020
-228.742	-13.051	0.131	0.085
-227.727	738.122	0.033	0.088
-226.713	480.251	0.087	0.197
-225.698	-78.686	0.279	0.095
-224.684	417.861	-0.089	0.191
-223.669	-5.179	0.086	0.059
-222.655	-132.062	-0.274	0.036
-221.640	-134.044	0.272	-0.034
-220.625	150.927	0.186	-0.254
-219.611	-103.655	0.087	-0.020
-218.596	-1.731	-0.344	-0.243
-217.582	-200.000	0.057	-0.294
-216.567	-72.914	0.285	-0.105
-215.552	-94.098	0.161	0.044
-214.538	-200.000	-0.028	0.203
-213.523	-113.956	0.112	0.022
-212.509	800.000	-0.009	0.030
-211.494	230.227	0.138	-0.227
-210.479	147.812	0.055	-0.074
-209.465	-107.246	0.222	-0.049
-208.450	-172.879	-0.449	0.014
-207.436	-103.374	-0.115	0.027
-206.421	-200.000	-0.022	0.148
-205.406	-200.000	0.070	-0.463
-204.392	85.376	-0.214	-0.236
-203.377	800.000	0.098	0.384
-202.363	48.294	-0.048	0.045
-201.348	-200.000	0.045	0.256
-200.333	330.433	0.157	0.303
-199.319	-70.898	0.221	0.084
-198.304	-200.000	0.021	-0.257
-197.290	-200.000	-0.009	0.193
-196.275	53.769	-0.107	-0.103
-195.260	-140.308	0.208	-0.022
-194.246	-200.000	-0.033	-0.369
-193.231	342.783	0.073	-0.144
-192.217	590.828	-0.076	0.187
-191.202	-200.000	-0.015	-0.226
-190.187	-200.000	0.048	-0.215
-189.173	157.471	0.070	0.097
-188.158	-86.143	-0.258	0.080
-187.144	91.856	-0.105	-0.118
-186.129	-125.503	-0.345	-0.052
-185.114	302.306	0.094	0.174
-184.100	174.781	-0.076	0.110
-183.085	122.519	-0.106	0.133
-182.071	82.857	0.240	-0.262
-181.056	-6.456	-0.149	0.102
-180.042	-29.438	0.283	-0.162
-179.027	800.000	-0.086	0.330
-178.012	800.000	-0.134	0.454
-176.998	131.011	0.110	0.141
-175.983	265.907	0.050	0.088
-174.969	289.910	0.133	0.242
-173.954	800.000	-0.065	0.236
-172.939	-200.000	0.001	0.127
-171.925	65.717	0.140	-0.142
-170.910	46.191	-0.087	0.081
-169.896	-14.479	0.172	0.111
-168.881	-58.005	0.117	-0.051
-167.866	-100.669	-0.223	0.055
-166.852	-50.640	-0.327	0.154
-165.837	-200.000	0.001	-0.013
-164.823	-130.679	-0.138	-0.019
-163.808	23.663	0.129	-0.107
-162.793	-41.986	-0.266	-0.136
-161.779	285.629	0.103	0.186
-160.764	304.360	0.062	-0.116
-159.750	-55.302	-0.247	-0.111
-158.735	98.027	0.101	0.116
-157.720	-77.817	0.079	-0.027
-156.706	-127.272	-0.540	0.079
-155.691	-200.000	-0.021	0.350
-154.677	227.075	-0.082	-0.132
-153.662	-70.280	0.131	0.050
-152.647	-141.694	-0.232	0.023
-151.633	800.000	-0.024	0.093
-150.618	-51.659	0.103	0.048
-149.604	-200.000	-0.045	-0.209
-148.589	800.000	-0.022	0.070
-147.574	102.157	-0.061	-0.071
-146.560	-200.000	-0.017	-0.117
-145.545	15.664	0.264	-0.208
-144.531	-27.390	-0.193	0.112
-143.516	362.314	0.152	0.305
-142.502	-200.000	-0.006	-0.089
-141.487	97.749	0.101	-0.116
-140.472	142.739	-0.107	0.142
-139.458	-200.000	-0.022	-0.171
-138.443	-70.097	-0.234	0.089
-137.429	-4.696	-0.273	0.188
-136.414	-200.000	0.055	0.300
-135.399	508.656	0.125	0.291
-134.385	78.552	-0.248	-0.264
-133.370	-200.000	0.024	-0.564
-132.356	100.919	-0.311	0.361
-131.341	78.240	-0.185	0.198
-130.326	-200.000	0.000	0.308
-129.312	-40.393	-0.078	-0.040
-128.297	14.109	0.107	-0.084
-127.283	-51.361	0.210	0.098
-126.268	-102.880	0.177	0.042
-125.253	140.244	-0.076	-0.100
-124.239	-74.615	0.365	-0.131
-123.224	-133.231	0.173	0.022
-122.210	-200.000	0.007	0.248
-121.195	554.372	-0.052	0.124
