DTS Sentinel unit serial number:	SN413079Multiplexer serial number:	ORYXHardware model number:	OX4-SRSoftware version number:	ORYX F/W v4.00 Oryx Data Collector v3.7.2.0data status	okinstallation	princeton_trtdifferential loss correction	single-endedforward channel	channel 1reverse channel	N/Adate	2019/09/18time	15:30:35forward acquisition time	60.00reverse acquisition time	0.00gamma	496.2192k internal	0.2298k external	0.2298temperature offset calibration	0.9999default loss term (dB/km)	0.3790temperature slope calibration	1.0000multiplexer offset coefficient	1.0000multiplexer slope coefficient	1.0000fibre end	0.00T internal ref (°C)	36.22T ext. ref 1 (°C)	0.78T ext. ref 2 (°C)	33.42length (m)	temperature (°C)	Stokes	anti-Stokes-747.200	-200.000	0.017	0.319
-746.185	-200.000	0.038	0.337
-745.171	199.639	-0.137	0.215
-744.156	57.302	-0.187	0.186
-743.142	47.547	-0.076	0.072
-742.127	-60.257	-0.206	-0.090
-741.112	800.000	-0.011	-0.035
-740.098	-92.061	0.229	0.066
-739.083	-27.560	-0.106	-0.063
-738.069	-200.000	0.088	0.418
-737.054	-68.442	0.345	0.137
-736.039	144.451	-0.057	-0.077
-735.025	20.621	0.247	-0.204
-734.010	103.391	0.156	-0.187
-732.996	-200.000	0.043	-0.248
-731.981	166.681	-0.035	0.051
-730.966	-95.178	-0.383	-0.105
-729.952	800.000	-0.111	-0.336
-728.937	-200.000	0.041	-0.213
-727.923	-200.000	0.005	-0.040
-726.908	50.485	-0.179	0.173
-725.894	-200.000	-0.014	0.282
-724.879	800.000	0.012	-0.039
-723.864	611.637	0.055	-0.141
-722.850	-108.445	0.180	-0.039
-721.835	84.053	0.202	-0.225
-720.821	-34.441	-0.136	-0.076
-719.806	-200.000	-0.063	0.291
-718.791	-200.000	-0.030	-0.235
-717.777	284.108	0.113	-0.207
-716.762	-91.760	0.238	-0.069
-715.748	-41.928	-0.315	-0.165
-714.733	-110.519	0.207	-0.044
-713.718	84.123	-0.178	-0.198
-712.704	198.041	0.242	0.378
-711.689	163.283	-0.037	-0.052
-710.675	-200.000	-0.009	-0.098
-709.660	-200.000	0.002	0.173
-708.645	-2.393	-0.374	-0.268
-707.631	400.075	0.130	-0.278
-706.616	-5.262	0.212	-0.148
-705.602	800.000	0.032	-0.124
-704.587	370.703	-0.228	0.471
-703.572	167.005	-0.266	0.384
-702.558	23.409	0.132	0.111
-701.543	123.917	0.105	0.135
-700.529	-200.000	0.011	-0.112
-699.514	-48.408	-0.072	-0.035
-698.499	3.449	0.166	0.124
-697.485	-200.000	0.027	-0.328
-696.470	-200.000	-0.041	-0.368
-695.456	-82.831	-0.157	-0.052
-694.441	365.740	0.223	0.458
-693.426	-162.504	0.211	-0.011
-692.412	108.620	-0.185	0.226
-691.397	-120.639	-0.268	0.046
-690.383	161.743	-0.225	0.321
-689.368	-200.000	0.165	-0.001
-688.354	157.637	0.188	0.265
-687.339	-165.796	0.093	-0.004
-686.324	-84.778	0.426	-0.136
-685.310	145.687	-0.033	0.045
-684.295	-200.000	-0.007	0.059
-683.281	96.242	-0.196	0.229
-682.266	337.100	0.141	-0.279
-681.251	-115.924	-0.262	-0.050
-680.237	800.000	-0.010	-0.039
-679.222	-200.000	0.053	0.310
-678.208	-30.719	-0.333	0.192
-677.193	39.870	-0.429	-0.392
-676.178	187.858	0.085	-0.130
-675.164	800.000	0.129	-0.401
-674.149	115.156	-0.127	-0.158
-673.135	800.000	-0.048	-0.137
-672.120	800.000	0.050	0.188
-671.105	-65.148	0.223	-0.091
-670.091	-65.481	-0.241	-0.099
-669.076	109.229	-0.203	0.248
-668.062	234.332	-0.155	0.261
-667.047	-153.356	0.345	0.024
-666.032	48.694	-0.290	0.277
-665.018	200.654	0.095	0.148
-664.003	126.661	0.117	0.151
-662.989	-200.000	0.009	-0.062
-661.974	-200.000	-0.013	-0.340
-660.959	541.689	0.041	-0.099
-659.945	-136.457	0.159	0.019
-658.930	-6.677	0.044	-0.031
-657.916	-200.000	-0.010	-0.259
-656.901	800.000	0.075	-0.210
-655.886	-200.000	0.017	0.198
-654.872	-59.749	-0.056	0.024
-653.857	-106.668	-0.078	-0.018
-652.843	112.662	0.189	-0.232
-651.828	800.000	-0.064	0.265
-650.814	-200.000	-0.002	-0.023
-649.799	52.837	0.175	0.170
-648.784	35.580	0.092	0.083
-647.770	-33.046	0.130	-0.073
-646.755	800.000	0.048	-0.178
-645.741	-18.168	0.303	-0.193
-644.726	-200.000	0.002	0.192
-643.711	-200.000	-0.074	-0.422
-642.697	-31.732	-0.043	-0.025
-641.682	174.429	0.088	-0.130
-640.668	155.537	0.080	-0.112
-639.653	775.728	-0.040	0.111
-638.638	800.000	0.012	-0.034
-637.624	-21.590	-0.121	-0.075
-636.609	696.620	-0.025	0.067
-635.595	-55.726	0.140	-0.064
-634.580	163.656	-0.117	-0.167
-633.565	-71.402	-0.260	0.099
-632.551	-97.957	0.222	0.058
-631.536	-137.196	-0.328	0.038
-630.522	-126.669	-0.282	0.042
-629.507	114.423	-0.045	-0.055
-628.492	-200.000	-0.023	0.147
-627.478	800.000	-0.188	0.539
-626.463	99.764	-0.285	0.336
-625.449	-200.000	-0.031	-0.361
-624.434	-200.000	0.008	-0.266
-623.419	-200.000	-0.008	-0.247
-622.405	-113.870	-0.212	-0.042
-621.390	-132.241	-0.220	-0.029
-620.376	800.000	-0.097	-0.346
-619.361	-200.000	-0.008	-0.041
-618.346	800.000	0.103	0.323
-617.332	23.378	0.106	-0.088
-616.317	238.187	0.060	0.101
-615.303	30.095	0.324	-0.281
-614.288	0.291	-0.201	0.146
-613.273	-145.650	0.366	0.033
-612.259	311.397	-0.200	-0.381
-611.244	-123.151	-0.155	0.025
-610.230	100.485	0.142	0.167
-609.215	231.114	-0.105	0.175
-608.201	98.198	-0.087	-0.102
-607.186	-181.355	-0.183	-0.004
-606.171	512.279	0.048	0.114
-605.157	-72.117	0.225	-0.085
-604.142	55.227	-0.045	0.045
-603.128	-45.383	0.132	-0.066
-602.113	800.000	-0.122	-0.367
-601.098	-79.928	-0.171	-0.058
-600.084	-200.000	0.006	-0.034
-599.069	-177.109	-0.214	0.005
-598.055	22.347	0.182	-0.151
-597.040	-114.583	0.026	0.005
-596.025	-41.051	-0.233	-0.122
-595.011	92.955	-0.227	-0.260
-593.996	800.000	0.025	-0.072
-592.982	-52.408	0.180	-0.085
-591.967	-200.000	0.006	0.172
-590.952	771.689	0.134	-0.371
-589.938	-200.000	-0.015	-0.111
-588.923	-37.085	-0.228	0.124
-587.909	642.515	0.141	-0.363
-586.894	-200.000	-0.008	-0.161
-585.879	586.108	0.078	-0.195
-584.865	-0.416	0.234	-0.169
-583.850	132.520	0.204	-0.267
-582.836	800.000	-0.043	-0.128
-581.821	145.393	-0.142	-0.193
-580.806	-71.049	0.157	-0.060
-579.792	236.002	-0.075	-0.126
-578.777	-59.492	-0.217	-0.094
-577.763	108.335	0.182	0.220
-576.748	-180.452	0.258	-0.005
-575.733	47.679	0.153	0.145
-574.719	40.442	0.230	0.210
-573.704	102.511	-0.092	-0.110
-572.690	-200.000	0.001	0.190
-571.675	586.486	-0.095	0.237
-570.661	712.849	-0.098	-0.263
-569.646	-200.000	0.037	-0.299
-568.631	-200.000	0.007	-0.116
-567.617	-41.096	-0.356	-0.186
-566.602	-64.172	0.511	-0.211
-565.588	12.939	0.180	-0.141
-564.573	-17.607	0.069	-0.044
-563.558	131.617	0.201	-0.262
-562.544	-158.175	-0.280	-0.017
-561.529	408.944	-0.093	0.200
-560.515	-199.067	0.284	0.002
-559.500	-47.559	-0.306	0.150
-558.485	454.790	0.074	0.166
-557.471	-7.580	0.231	-0.158
-556.456	52.322	-0.211	-0.204
-555.442	195.889	0.061	0.095
-554.427	-200.000	0.009	-0.099
-553.412	800.000	0.033	0.094
-552.398	800.000	-0.045	-0.182
-551.383	-39.335	-0.078	-0.041
-550.369	132.496	0.195	-0.255
-549.354	-102.666	-0.216	-0.052
-548.339	-5.050	-0.182	-0.127
-547.325	-58.784	0.359	-0.157
-546.310	58.323	0.164	0.162
-545.296	429.275	-0.116	-0.255
-544.281	-119.483	-0.130	-0.023
-543.266	-154.816	-0.150	-0.010
-542.252	-200.000	-0.005	-0.248
-541.237	-200.000	-0.010	-0.416
-540.223	-154.686	-0.348	0.023
-539.208	-43.216	-0.295	-0.151
-538.193	-200.000	0.028	-0.259
-537.179	91.316	-0.099	0.113
-536.164	-200.000	-0.045	-0.388
-535.150	92.308	0.178	-0.203
-534.135	-109.019	0.227	0.049
-533.121	-13.713	0.126	0.083
-532.106	-105.887	-0.190	-0.043
-531.091	-103.429	-0.285	-0.068
-530.077	563.365	-0.043	0.105
-529.062	38.386	0.329	0.297
-528.048	-9.550	0.248	-0.167
-527.033	-5.392	-0.354	-0.246
-526.018	-200.000	-0.035	0.266
-525.004	151.078	0.172	0.237
-523.989	-47.084	-0.359	0.177
-522.975	800.000	0.038	-0.111
-521.960	-70.682	-0.129	0.049
-520.945	800.000	-0.071	-0.215
-519.931	-33.296	-0.361	-0.202
-518.916	98.759	0.121	0.141
-517.902	258.439	-0.188	0.328
-516.887	213.001	-0.127	0.203
-515.872	-101.145	0.337	-0.083
-514.858	-137.153	0.167	0.019
-513.843	-200.000	0.041	-0.224
-512.829	365.244	0.079	-0.161
-511.814	342.570	-0.114	0.226
-510.799	6.449	-0.148	-0.111
-509.785	-115.060	0.049	-0.009
-508.770	-32.132	-0.299	0.169
-507.756	-20.276	0.101	-0.063
-506.741	-200.000	0.028	-0.131
-505.726	-25.403	-0.076	-0.045
-504.712	481.996	-0.151	0.348
-503.697	-152.945	0.059	-0.004
-502.683	800.000	-0.080	0.256
-501.668	60.453	-0.213	0.213
-500.653	-52.470	0.059	-0.028
-499.639	-164.719	0.354	-0.016
-498.624	30.773	-0.282	-0.244
-497.610	800.000	0.095	-0.338
-496.595	-97.895	-0.221	0.058
-495.581	-29.977	0.053	0.031
-494.566	-200.000	0.017	-0.398
-493.551	11.232	-0.203	0.157
-492.537	-74.929	0.254	0.092
-491.522	63.673	0.195	-0.198
-490.508	-190.800	0.119	-0.001
-489.493	-42.465	-0.122	-0.063
-488.478	-200.000	0.013	-0.086
-487.464	151.257	0.125	-0.172
-486.449	652.008	-0.079	0.205
-485.435	-11.139	-0.169	-0.113
-484.420	-200.000	-0.006	0.487
-483.405	-96.507	0.060	-0.016
-482.391	331.670	0.126	0.246
-481.376	-132.852	0.468	-0.060
-480.362	800.000	0.036	0.149
-479.347	17.214	0.116	0.093
-478.332	423.695	0.028	-0.062
-477.318	-19.823	0.026	0.016
-476.303	16.638	-0.194	0.155
-475.289	556.566	-0.056	-0.136
-474.274	137.053	0.179	-0.236
-473.259	274.474	-0.137	-0.245
-472.245	347.487	-0.065	0.130
-471.230	-200.000	-0.014	0.191
-470.216	57.846	-0.121	0.119
-469.201	538.611	0.042	-0.100
-468.186	137.400	-0.021	0.027
-467.172	800.000	-0.082	-0.238
-466.157	-18.647	-0.300	0.189
-465.143	-200.000	-0.005	0.237
-464.128	-52.451	0.113	0.053
-463.113	163.939	-0.235	-0.335
-462.099	800.000	-0.029	-0.104
-461.084	800.000	0.033	-0.139
-460.070	-10.193	0.242	-0.162
-459.055	-95.925	-0.313	0.084
-458.040	288.534	-0.082	-0.149
-457.026	456.158	-0.049	0.109
-456.011	9.356	0.173	0.132
-454.997	115.965	-0.267	0.330
-453.982	25.313	0.117	-0.098
-452.968	423.409	-0.061	0.132
-451.953	-197.667	-0.351	-0.002
-450.938	60.110	0.140	-0.140
-449.924	153.941	-0.123	0.170
-448.909	66.847	0.080	-0.082
-447.895	-84.663	0.240	-0.076
-446.880	800.000	-0.023	-0.098
-445.865	-157.010	-0.573	-0.035
-444.851	800.000	0.153	-0.444
-443.836	800.000	0.046	-0.184
-442.822	130.578	0.053	0.069
-441.807	-52.821	0.142	0.066
-440.792	-97.234	-0.244	0.064
-439.778	-200.000	-0.038	-0.410
-438.763	-200.000	0.002	-0.090
-437.749	-200.000	-0.228	0.001
-436.734	800.000	0.102	0.430
-435.719	23.669	0.165	-0.137
-434.705	-200.000	0.079	-0.378
-433.690	357.849	0.114	0.229
-432.676	111.919	0.073	-0.089
-431.661	-79.025	0.296	-0.102
-430.646	266.608	-0.056	-0.099
-429.632	442.940	0.138	-0.304
-428.617	21.301	0.156	-0.128
-427.603	-39.450	0.232	0.123
-426.588	-59.483	-0.142	0.062
-425.573	800.000	-0.094	-0.299
-424.559	-91.011	0.146	0.042
-423.544	35.369	0.260	-0.230
-422.530	-64.691	0.201	-0.082
-421.515	-102.930	-0.479	0.115
-420.500	-200.000	0.040	0.178
-419.486	-108.769	0.149	0.032
-418.471	800.000	0.037	0.105
-417.457	49.168	-0.201	-0.190
-416.442	-200.000	0.018	0.240
-415.428	-82.871	0.268	-0.087
-414.413	800.000	0.089	0.277
-413.398	341.825	-0.097	-0.191
-412.384	-38.055	0.138	0.074
-411.369	142.849	0.128	-0.171
-410.355	44.080	0.088	-0.082
-409.340	544.466	0.142	-0.341
-408.325	-138.560	0.182	-0.020
-407.311	-75.544	0.210	-0.075
-406.296	206.989	-0.215	0.337
-405.282	150.692	-0.019	0.027
-404.267	-41.482	-0.053	-0.028
-403.252	-101.213	-0.162	0.040
-402.238	132.272	-0.033	-0.042
-401.223	294.212	-0.031	-0.057
-400.209	-200.000	0.026	-0.214
-399.194	90.264	0.124	0.140
-398.179	60.530	0.076	-0.076
-397.165	-141.715	-0.318	-0.032
-396.150	333.539	0.029	0.057
-395.136	-175.047	0.204	-0.006
-394.121	800.000	-0.085	0.245
-393.106	138.370	-0.094	-0.124
-392.092	273.522	-0.063	0.112
-391.077	22.768	-0.154	0.127
-390.063	259.984	-0.073	0.126
-389.048	201.307	-0.074	-0.115
-388.033	-141.431	-0.072	-0.007
-387.019	-200.000	-0.050	-0.468
-386.004	-200.000	0.035	-0.194
-384.990	800.000	-0.139	0.403
-383.975	-200.000	0.006	-0.127
-382.960	-129.624	0.180	0.025
-381.946	480.381	0.129	-0.295
-380.931	85.944	0.080	-0.089
-379.917	-200.000	-0.026	0.373
-378.902	-200.000	-0.011	0.061
-377.888	-95.842	-0.216	-0.058
-376.873	800.000	0.037	-0.159
-375.858	240.683	-0.034	0.058
-374.844	-79.130	0.337	0.115
-373.829	-200.000	0.031	0.197
-372.815	104.611	0.218	0.258
-371.800	-70.357	-0.198	0.075
-370.785	200.012	-0.021	0.033
-369.771	-53.013	-0.209	0.097
-368.756	124.093	-0.046	-0.058
-367.742	800.000	-0.072	-0.230
-366.727	-97.050	0.111	0.029
-365.712	800.000	-0.089	-0.259
-364.698	295.104	-0.108	-0.199
-363.683	-200.000	-0.021	-0.183
-362.669	257.192	-0.090	0.156
-361.654	21.367	-0.047	0.038
-360.639	-66.114	0.126	-0.050
-359.625	-56.619	0.284	0.127
-358.610	514.443	0.020	-0.048
-357.596	3.274	0.259	-0.190
-356.581	-6.929	-0.324	0.221
-355.566	-159.203	-0.314	-0.018
-354.552	706.506	0.064	0.170
-353.537	1.598	0.195	-0.141
-352.523	-177.656	0.088	0.002
-351.508	-119.005	0.104	0.018
-350.493	-200.000	-0.006	-0.202
-349.479	-45.396	0.098	0.049
-348.464	-52.297	0.078	0.036
-347.450	357.169	0.207	0.414
-346.435	800.000	0.090	0.288
-345.420	175.107	0.175	0.255
-344.406	800.000	0.012	0.036
-343.391	-185.233	-0.262	0.004
-342.377	-147.369	-0.233	0.020
-341.362	-148.919	0.296	0.024
-340.348	119.137	-0.178	0.222
-339.333	800.000	0.043	0.140
-338.318	133.614	0.040	0.053
-337.304	-200.000	0.098	0.489
-336.289	190.029	-0.028	-0.043
-335.275	257.344	0.059	0.101
-334.260	7.624	0.064	0.048
-333.245	-200.000	-0.050	0.276
-332.231	128.097	-0.117	0.149
-331.216	-200.000	0.017	0.282
-330.202	382.740	-0.083	-0.172
-329.187	800.000	-0.041	0.166
-328.172	657.218	0.105	-0.270
-327.158	800.000	0.091	-0.265
-326.143	51.295	-0.138	-0.132
-325.129	-71.901	0.244	-0.091
-324.114	-169.280	-0.106	0.004
-323.099	16.166	-0.221	-0.175
-322.085	32.918	-0.134	-0.116
-321.070	-57.779	-0.099	0.044
-320.056	-95.137	-0.141	-0.038
-319.041	800.000	-0.082	0.289
-318.026	80.530	0.076	0.082
-317.012	96.942	-0.303	-0.349
-315.997	203.035	0.076	-0.118
-314.983	165.060	-0.076	-0.108
-313.968	-52.887	0.014	0.006
-312.953	-145.321	-0.148	-0.013
-311.939	80.966	0.175	0.189
-310.924	331.098	0.121	-0.233
-309.910	-15.166	-0.248	-0.159
-308.895	-29.175	-0.117	0.068
-307.880	-130.207	0.061	0.008
-306.866	73.200	-0.243	-0.255
-305.851	-200.000	0.007	0.123
-304.837	-45.396	0.246	0.122
-303.822	118.672	-0.117	0.144
-302.807	800.000	-0.110	0.410
-301.793	432.356	0.125	-0.272
-300.778	-200.000	-0.065	0.305
-299.764	35.348	-0.258	0.227
-298.749	417.262	-0.041	0.088
-297.735	182.152	0.072	-0.107
-296.720	221.879	-0.107	-0.173
-295.705	65.369	0.363	-0.368
-294.691	-62.354	-0.186	0.078
-293.676	72.616	0.063	0.066
-292.662	-200.000	0.012	0.109
-291.647	-68.045	-0.043	0.017
-290.632	-85.164	-0.167	-0.052
-289.618	-156.849	-0.264	-0.016
-288.603	-84.844	-0.153	-0.048
-287.589	800.000	0.059	-0.182
-286.574	-200.000	0.046	-0.223
-285.559	0.673	-0.124	-0.089
-284.545	-14.414	-0.208	-0.134
-283.530	588.893	0.173	-0.426
-282.516	182.477	-0.055	0.081
-281.501	-145.919	-0.192	-0.017
-280.486	-87.287	0.091	-0.028
-279.472	-95.539	0.206	0.055
-278.457	-52.684	0.194	-0.090
-277.443	20.777	-0.222	0.180
-276.428	-65.057	-0.445	0.180
-275.413	131.239	0.149	0.191
-274.399	-89.206	0.262	0.077
-273.384	19.411	0.087	0.070
-272.370	750.003	-0.183	0.494
-271.355	800.000	0.154	0.538
-270.340	-46.883	0.190	0.093
-269.326	-200.000	-0.019	0.189
-268.311	-78.516	0.158	-0.054
-267.297	519.704	-0.020	0.046
-266.282	773.493	-0.073	0.198
-265.267	-74.404	-0.204	0.074
-264.253	269.355	-0.133	0.234
-263.238	-99.641	0.228	-0.057
-262.224	5.563	-0.041	0.031
-261.209	3.000	-0.165	-0.120
-260.195	-58.772	0.022	0.010
-259.180	-200.000	0.013	-0.109
-258.165	-110.373	-0.218	-0.045
-257.151	124.698	0.235	0.296
-256.136	149.372	0.105	-0.143
-255.122	591.893	-0.025	-0.061
-254.107	-200.000	0.001	0.128
-253.092	435.666	-0.135	0.294
-252.078	598.028	0.110	-0.273
-251.063	-122.791	-0.114	0.018
-250.049	345.992	0.105	0.206
-249.034	-41.478	0.245	0.126
-248.019	519.862	-0.079	-0.185
-247.005	-20.274	0.245	0.151
-245.990	7.474	-0.123	0.092
-244.976	-43.789	0.189	-0.095
-243.961	413.388	0.218	0.463
-242.946	344.268	0.159	0.313
-241.932	562.536	0.057	-0.137
-240.917	119.217	-0.103	-0.127
-239.903	-0.279	-0.057	-0.041
-238.888	-49.590	0.103	-0.049
-237.873	-60.956	0.481	0.204
-236.859	47.668	0.063	-0.059
-235.844	-200.000	0.025	0.185
-234.830	-200.000	-0.003	-0.248
-233.815	391.167	0.067	0.138
-232.800	197.691	0.143	0.219
-231.786	49.632	-0.197	0.186
-230.771	-200.000	-0.034	0.156
-229.757	4.884	0.194	-0.142
-228.742	-143.490	0.426	0.041
-227.727	-79.282	-0.064	0.022
-226.713	-200.000	0.028	-0.332
-225.698	45.215	-0.043	-0.040
-224.684	-200.000	-0.001	-0.067
-223.669	-109.963	0.177	0.037
-222.655	474.782	0.097	0.219
-221.640	50.569	-0.070	-0.067
-220.625	-200.000	0.024	0.302
-219.611	38.958	0.107	-0.095
-218.596	123.759	-0.202	0.254
-217.582	96.222	0.284	0.324
-216.567	-181.923	0.169	-0.003
-215.552	641.380	0.021	0.054
-214.538	29.459	0.172	-0.146
-213.523	-90.942	-0.043	-0.012
-212.509	14.542	-0.028	-0.022
-211.494	134.801	-0.090	-0.117
-210.479	-40.723	-0.065	0.034
-209.465	767.332	0.090	-0.244
-208.450	-185.646	0.282	-0.004
-207.436	-155.907	0.413	-0.026
-206.421	-110.394	-0.541	-0.112
-205.406	-92.229	0.112	0.032
-204.392	548.006	-0.083	0.198
-203.377	-123.179	-0.108	-0.017
-202.363	624.557	-0.092	-0.232
-201.348	762.076	0.067	-0.182
-200.333	-120.660	0.171	0.029
-199.319	67.720	0.250	0.256
-198.304	191.407	0.153	0.230
-197.290	341.517	-0.074	0.145
-196.275	127.314	-0.094	0.119
-195.260	800.000	-0.056	-0.222
-194.246	-200.000	-0.021	0.494
-193.231	30.966	-0.109	0.093
-192.217	197.712	0.116	0.177
-191.202	117.392	-0.197	-0.243
-190.187	30.928	0.177	0.151
-189.173	43.443	-0.199	0.182
-188.158	20.189	-0.269	0.217
-187.144	695.327	-0.040	-0.106
-186.129	800.000	-0.050	0.162
-185.114	-200.000	-0.040	-0.185
-184.100	377.793	0.003	-0.005
-183.085	800.000	-0.069	-0.278
-182.071	-156.538	-0.231	0.014
-181.056	800.000	0.101	0.350
-180.042	-36.583	0.249	-0.134
-179.027	-200.000	-0.019	0.144
-178.012	-200.000	0.000	0.187
-176.998	74.185	0.057	-0.060
-175.983	29.661	-0.189	0.161
-174.969	106.550	-0.055	0.065
-173.954	-40.486	-0.248	-0.128
-172.939	74.782	-0.110	0.115
-171.925	-140.050	-0.346	0.036
-170.910	-119.589	0.235	0.041
-169.896	800.000	-0.041	0.147
-168.881	800.000	0.064	0.209
-167.866	-177.482	0.361	0.009
-166.852	149.789	-0.044	0.060
-165.837	-59.108	0.292	0.125
-164.823	-32.929	0.132	-0.073
-163.808	-200.000	-0.008	0.169
-162.793	-67.487	-0.602	0.236
-161.779	800.000	-0.060	-0.169
-160.764	431.551	-0.146	0.316
-159.750	-200.000	-0.001	-0.022
-158.735	670.613	0.031	0.081
-157.720	-89.914	0.050	-0.015
-156.706	-118.419	0.190	0.034
-155.691	-41.081	0.296	-0.153
-154.677	-45.174	0.139	0.069
-153.662	-200.000	0.082	0.427
-152.647	40.606	-0.244	0.220
-151.633	-128.427	0.129	0.018
-150.618	-1.159	0.221	-0.156
-149.604	208.834	-0.078	-0.122
-148.589	-182.846	-0.178	0.003
-147.574	349.270	-0.192	-0.378
-146.560	800.000	0.032	-0.093
-145.545	-16.950	0.171	-0.108
-144.531	-200.000	0.020	-0.326
-143.516	-200.000	-0.008	0.160
-142.502	-29.146	-0.188	-0.107
-141.487	-200.000	0.004	-0.053
-140.472	-14.554	-0.329	0.211
-139.458	75.502	-0.084	-0.088
-138.443	254.380	-0.038	0.064
-137.429	312.029	-0.108	-0.203
-136.414	287.963	0.101	-0.182
-135.399	271.273	-0.191	0.334
-134.385	-200.000	0.006	0.290
-133.370	-200.000	0.034	-0.186
-132.356	-38.178	0.382	-0.202
-131.341	-200.000	0.012	0.191
-130.326	-6.820	0.034	0.023
-129.312	-57.363	0.155	-0.068
-128.297	-200.000	0.030	0.458
-127.283	800.000	-0.052	0.204
-126.268	320.852	-0.171	0.324
-125.253	104.358	0.092	0.107
-124.239	-136.602	0.068	0.008
-123.224	-130.598	-0.292	-0.039
-122.210	140.771	-0.159	0.209
-121.195	-160.551	0.125	-0.007
