DTS Sentinel unit serial number:	SN413079Multiplexer serial number:	ORYXHardware model number:	OX4-SRSoftware version number:	ORYX F/W v4.00 Oryx Data Collector v3.7.2.0data status	okinstallation	princeton_trtdifferential loss correction	single-endedforward channel	channel 1reverse channel	N/Adate	2019/09/19time	07:06:35forward acquisition time	60.00reverse acquisition time	0.00gamma	496.2192k internal	0.2342k external	0.2342temperature offset calibration	1.0020default loss term (dB/km)	0.3790temperature slope calibration	1.0000multiplexer offset coefficient	1.0000multiplexer slope coefficient	1.0000fibre end	0.00T internal ref (°C)	19.00T ext. ref 1 (°C)	0.57T ext. ref 2 (°C)	13.18length (m)	temperature (°C)	Stokes	anti-Stokes-747.200	62.246	-0.242	0.242
-746.185	443.643	-0.130	0.287
-745.171	-44.341	-0.095	-0.048
-744.156	118.736	0.230	0.284
-743.142	800.000	-0.105	-0.309
-742.127	13.273	0.023	0.018
-741.112	-200.000	0.086	0.463
-740.098	-65.294	-0.205	-0.082
-739.083	130.188	-0.174	0.223
-738.069	-47.990	0.198	0.096
-737.054	156.027	-0.156	-0.215
-736.039	-98.445	-0.286	0.073
-735.025	-77.216	0.244	0.085
-734.010	19.337	-0.235	-0.189
-732.996	-150.041	-0.394	-0.031
-731.981	-187.738	0.301	-0.004
-730.966	-63.072	-0.226	-0.093
-729.952	-104.317	0.197	-0.046
-728.937	-200.000	-0.105	0.001
-727.923	42.766	-0.259	0.236
-726.908	483.397	-0.041	0.092
-725.894	227.766	-0.094	-0.154
-724.879	-143.456	-0.254	-0.024
-723.864	123.448	-0.221	-0.278
-722.850	196.583	-0.139	-0.212
-721.835	143.461	0.209	-0.279
-720.821	-200.000	0.281	0.000
-719.806	156.401	0.231	-0.318
-718.791	-49.046	0.105	-0.050
-717.777	59.196	0.161	0.159
-716.762	98.095	-0.251	-0.289
-715.748	-111.110	0.150	-0.031
-714.733	-14.475	-0.214	-0.138
-713.718	105.501	-0.166	-0.196
-712.704	285.937	-0.163	-0.295
-711.689	7.676	0.073	-0.054
-710.675	375.078	-0.068	-0.139
-709.660	-76.147	0.094	0.033
-708.645	-94.917	-0.187	-0.051
-707.631	-26.146	-0.240	-0.141
-706.616	70.498	0.219	0.227
-705.602	-104.117	0.334	0.078
-704.587	80.154	0.144	0.155
-703.572	-200.000	-0.012	0.170
-702.558	132.461	-0.150	-0.194
-701.543	-100.171	-0.169	-0.042
-700.529	259.062	0.028	-0.049
-699.514	-108.638	-0.422	0.091
-698.499	800.000	-0.048	0.140
-697.485	-156.879	-0.206	0.013
-696.470	0.501	0.187	0.134
-695.456	800.000	-0.102	0.367
-694.441	72.677	-0.250	-0.261
-693.426	-103.327	0.196	0.046
-692.412	800.000	0.083	0.233
-691.397	80.401	0.294	0.316
-690.383	-42.586	0.122	0.062
-689.368	176.265	0.216	-0.313
-688.354	-14.609	0.189	0.122
-687.339	800.000	-0.058	0.197
-686.324	-188.337	0.278	-0.004
-685.310	-149.294	-0.191	-0.015
-684.295	-200.000	0.004	-0.272
-683.281	105.928	-0.197	0.233
-682.266	247.680	0.195	-0.329
-681.251	55.456	-0.210	-0.203
-680.237	-75.688	0.213	-0.075
-679.222	111.007	-0.104	-0.125
-678.208	252.573	0.112	-0.191
-677.193	78.001	0.134	-0.143
-676.178	-105.916	0.132	-0.030
-675.164	800.000	-0.021	-0.073
-674.149	-200.000	0.006	-0.073
-673.135	-24.893	0.200	0.118
-672.120	-48.052	0.207	0.100
-671.105	81.305	0.043	0.046
-670.091	81.876	-0.178	-0.192
-669.076	800.000	-0.080	0.257
-668.062	-200.000	0.005	-0.254
-667.047	-200.000	0.120	0.550
-666.032	-56.037	0.241	-0.107
-665.018	-56.105	0.097	0.043
-664.003	-141.449	-0.211	-0.021
-662.989	-19.216	0.224	0.139
-661.974	47.428	-0.206	0.192
-660.959	77.577	-0.081	-0.086
-659.945	-103.891	0.224	0.052
-658.930	-130.909	0.259	0.035
-657.916	-191.183	0.323	0.003
-656.901	-87.420	-0.186	-0.056
-655.886	-62.917	-0.216	-0.089
-654.872	-200.000	-0.011	-0.066
-653.857	-28.739	-0.187	-0.108
-652.843	-200.000	-0.049	-0.249
-651.828	-200.000	-0.252	-0.000
-650.814	137.893	0.216	-0.282
-649.799	-200.000	0.003	0.093
-648.784	-97.725	-0.178	0.046
-647.770	4.498	-0.106	0.078
-646.755	154.913	-0.336	0.461
-645.741	131.867	0.137	0.176
-644.726	-67.041	0.088	-0.035
-643.711	-37.974	-0.102	-0.054
-642.697	-96.427	0.435	-0.115
-641.682	-166.115	0.208	0.009
-640.668	305.861	0.217	0.403
-639.653	-200.000	0.057	-0.287
-638.638	-138.975	-0.231	0.025
-637.624	493.760	0.131	-0.299
-636.609	-200.000	-0.053	-0.364
-635.595	70.661	-0.360	-0.372
-634.580	-158.506	0.395	0.023
-633.565	151.102	-0.144	-0.195
-632.551	539.322	-0.162	-0.384
-631.536	800.000	-0.069	-0.280
-630.522	-145.157	0.214	-0.019
-629.507	176.282	0.168	0.244
-628.492	-115.730	0.177	0.033
-627.478	32.168	0.070	-0.060
-626.463	197.664	-0.178	-0.271
-625.449	241.703	-0.019	-0.031
-624.434	-164.262	-0.095	0.004
-623.419	-200.000	-0.002	0.053
-622.405	800.000	-0.124	0.378
-621.390	800.000	0.031	-0.103
-620.376	76.514	-0.208	-0.220
-619.361	-20.627	-0.106	-0.065
-618.346	113.814	0.061	-0.074
-617.332	112.448	-0.287	-0.346
-616.317	-97.758	-0.124	-0.032
-615.303	125.241	-0.160	0.202
-614.288	-21.104	0.159	0.097
-613.273	217.953	0.153	-0.243
-612.259	430.703	0.203	0.438
-611.244	-182.612	0.248	0.005
-610.230	287.879	0.132	0.237
-609.215	800.000	-0.022	-0.063
-608.201	-8.480	-0.039	-0.026
-607.186	360.835	0.045	-0.090
-606.171	235.707	0.135	0.223
-605.157	-86.856	-0.105	0.032
-604.142	-9.043	-0.169	-0.113
-603.128	-47.209	-0.210	0.102
-602.113	-76.928	0.052	0.018
-601.098	-66.505	-0.110	0.044
-600.084	800.000	-0.110	0.438
-599.069	-73.754	0.362	-0.131
-598.055	-28.907	0.270	-0.155
-597.040	1.502	-0.212	-0.152
-596.025	591.606	0.051	0.124
-595.011	5.104	0.159	0.117
-593.996	465.257	-0.175	0.390
-592.982	105.298	0.164	-0.192
-591.967	-200.000	0.025	0.175
-590.952	59.728	0.217	0.213
-589.938	138.566	-0.053	0.070
-588.923	-79.864	-0.204	-0.068
-587.909	553.117	-0.112	0.267
-586.894	-200.000	0.044	-0.293
-585.879	-84.044	0.077	-0.024
-584.865	154.105	0.059	-0.080
-583.850	81.790	-0.142	-0.153
-582.836	800.000	0.071	0.270
-581.821	745.442	0.075	-0.200
-580.806	-200.000	0.000	0.093
-579.792	115.485	-0.090	-0.110
-578.777	132.513	0.061	-0.078
-577.763	568.288	-0.097	-0.234
-576.748	182.715	-0.221	0.325
-575.733	201.885	-0.076	0.116
-574.719	-200.000	-0.059	-0.347
-573.704	-136.208	-0.264	-0.031
-572.690	56.876	-0.133	0.129
-571.675	-154.930	0.103	-0.007
-570.661	307.442	0.115	0.213
-569.646	-51.464	0.158	0.073
-568.631	422.072	-0.036	0.076
-567.617	-86.786	0.145	0.044
-566.602	136.596	0.110	0.142
-565.588	-80.530	-0.223	0.074
-564.573	-200.000	0.027	-0.390
-563.558	-153.292	-0.286	-0.020
-562.544	-86.779	-0.287	0.087
-561.529	134.434	-0.088	0.113
-560.515	-94.861	0.438	0.118
-559.500	-3.525	-0.155	-0.107
-558.485	-111.198	-0.095	-0.019
-557.471	62.388	-0.166	0.164
-556.456	-200.000	-0.007	-0.141
-555.442	-117.438	-0.128	0.023
-554.427	-200.000	0.004	0.151
-553.412	-31.353	0.240	-0.134
-552.398	-11.121	-0.222	0.146
-551.383	374.983	-0.242	0.490
-550.369	-119.915	0.202	0.034
-549.354	-57.787	0.134	-0.058
-548.339	-88.068	-0.144	-0.043
-547.325	234.640	0.183	-0.300
-546.310	32.533	0.231	-0.198
-545.296	-94.021	-0.183	-0.050
-544.281	29.394	-0.197	0.167
-543.266	-45.069	-0.377	0.186
-542.252	-36.427	-0.204	0.109
-541.237	-76.934	-0.149	-0.052
-540.223	106.324	-0.266	0.313
-539.208	-165.573	-0.222	-0.010
-538.193	-177.160	-0.046	-0.001
-537.179	-50.635	0.146	0.068
-536.164	-200.000	-0.008	-0.222
-535.150	-19.349	0.147	0.091
-534.135	25.502	0.280	-0.231
-533.121	1.347	-0.231	-0.165
-532.106	-7.731	-0.169	0.114
-531.091	-173.854	0.360	0.011
-530.077	33.422	0.155	0.134
-529.062	-36.997	0.137	-0.073
-528.048	10.153	0.174	-0.131
-527.033	-10.297	-0.294	0.193
-526.018	70.342	0.043	-0.044
-525.004	-177.423	0.264	0.006
-523.989	59.343	0.202	0.197
-522.975	48.799	-0.118	-0.110
-521.960	101.422	-0.248	-0.287
-520.945	-41.839	-0.202	-0.103
-519.931	-84.358	0.125	0.039
-518.916	-200.000	-0.027	0.132
-517.902	-151.233	0.306	0.023
-516.887	800.000	-0.067	-0.265
-515.872	-97.175	0.305	0.079
-514.858	712.208	0.029	-0.076
-513.843	-30.285	-0.038	-0.021
-512.829	-16.339	-0.182	-0.115
-511.814	-60.730	0.147	-0.062
-510.799	-158.623	0.145	-0.008
-509.785	-200.000	0.020	-0.098
-508.770	-81.250	-0.123	0.040
-507.756	36.734	0.185	-0.162
-506.741	237.940	-0.258	-0.424
-505.726	9.590	0.119	0.089
-504.712	50.862	0.309	-0.291
-503.697	-200.000	0.049	-0.366
-502.683	800.000	0.086	-0.314
-501.668	47.902	0.141	0.131
-500.653	-49.961	0.322	0.152
-499.639	38.625	-0.172	0.153
-498.624	800.000	0.058	0.205
-497.610	246.446	-0.125	-0.209
-496.595	237.337	0.038	0.062
-495.581	-43.231	0.045	-0.023
-494.566	800.000	0.038	0.163
-493.551	622.822	0.022	-0.054
-492.537	-46.403	0.290	-0.141
-491.522	-70.678	0.111	0.042
-490.508	66.570	0.018	-0.018
-489.493	2.037	0.096	-0.069
-488.478	-94.211	0.227	0.061
-487.464	66.039	0.281	0.283
-486.449	208.436	0.087	-0.135
-485.435	-3.894	-0.233	0.160
-484.420	-3.368	-0.093	0.064
-483.405	10.574	-0.285	-0.215
-482.391	636.517	-0.042	0.107
-481.376	230.144	-0.026	0.042
-480.362	446.779	0.177	-0.385
-479.347	-194.014	0.043	0.000
-478.332	131.563	-0.091	-0.116
-477.318	800.000	-0.029	0.097
-476.303	181.912	0.109	-0.159
-475.289	-119.113	-0.271	0.047
-474.274	799.250	0.174	-0.475
-473.259	-101.892	-0.420	0.101
-472.245	-49.289	0.283	-0.134
-471.230	800.000	-0.039	0.164
-470.216	-149.420	-0.182	0.014
-469.201	-125.752	-0.318	-0.048
-468.186	-15.867	-0.084	0.053
-467.172	-98.714	0.129	-0.033
-466.157	-119.409	-0.157	-0.027
-465.143	-200.000	-0.001	0.038
-464.128	1.566	-0.154	0.110
-463.113	-176.947	-0.253	-0.006
-462.099	-200.000	-0.033	0.211
-461.084	176.303	-0.025	-0.036
-460.070	20.216	0.274	-0.219
-459.055	254.079	-0.059	-0.100
-458.040	-69.092	0.091	-0.035
-457.026	758.135	0.081	0.217
-456.011	-200.000	-0.005	-0.146
-454.997	-129.834	-0.531	0.072
-453.982	54.418	-0.167	0.160
-452.968	-200.000	-0.273	-0.000
-451.953	-125.332	0.148	-0.022
-450.938	-200.000	-0.003	-0.118
-449.924	-112.398	-0.039	0.008
-448.909	800.000	0.033	-0.134
-447.895	-82.623	0.120	0.039
-446.880	-5.238	0.171	0.117
-445.865	-31.220	0.286	0.160
-444.851	161.357	-0.099	-0.137
-443.836	7.425	0.082	0.061
-442.822	-129.878	0.349	-0.047
-441.807	-200.000	0.041	0.299
-440.792	-6.665	-0.275	0.185
-439.778	-106.029	-0.314	-0.070
-438.763	-29.424	0.097	0.055
-437.749	322.761	0.042	-0.080
-436.734	-23.089	-0.104	-0.062
-435.719	-174.474	-0.441	0.013
-434.705	3.248	0.476	0.343
-433.690	-80.856	0.224	0.074
-432.676	17.735	-0.216	0.170
-431.661	13.450	0.046	-0.035
-430.646	-10.365	-0.213	0.140
-429.632	-200.000	0.065	-0.299
-428.617	800.000	-0.039	-0.169
-427.603	164.421	0.135	0.189
-426.588	-200.000	-0.009	-0.161
-425.573	-200.000	-0.003	-0.108
-424.559	-200.000	0.027	0.176
-423.544	131.308	-0.080	0.102
-422.530	8.923	0.063	-0.047
-421.515	14.644	-0.181	-0.140
-420.500	-200.000	0.007	-0.123
-419.486	513.485	0.039	-0.090
-418.471	175.481	0.316	-0.453
-417.457	133.604	-0.241	0.308
-416.442	-42.562	0.086	-0.043
-415.428	-115.824	0.201	-0.037
-414.413	675.972	-0.080	0.205
-413.398	-188.220	0.193	0.002
-412.384	-71.474	-0.522	0.193
-411.369	-25.389	0.279	-0.163
-410.355	-101.623	-0.076	0.018
-409.340	800.000	-0.081	-0.246
-408.325	-200.000	0.006	-0.393
-407.311	484.539	0.127	-0.286
-406.296	-200.000	-0.013	0.075
-405.282	116.900	-0.108	-0.131
-404.267	203.945	-0.098	-0.150
-403.252	430.906	0.179	0.383
-402.238	482.492	-0.046	0.104
-401.223	1.971	-0.114	-0.081
-400.209	203.278	-0.215	-0.328
-399.194	-182.577	0.348	0.006
-398.179	4.672	-0.280	-0.203
-397.165	-200.000	-0.041	0.199
-396.150	-69.370	0.168	-0.064
-395.136	-17.727	0.030	0.019
-394.121	5.125	0.067	-0.049
-393.106	-119.990	-0.315	0.053
-392.092	346.359	0.067	0.129
-391.077	40.470	-0.163	0.145
-390.063	192.729	0.075	0.111
-389.048	800.000	0.023	0.091
-388.033	-82.378	-0.162	-0.052
-387.019	238.903	0.195	0.321
-386.004	-123.328	0.042	-0.007
-384.990	-200.000	0.058	-0.332
-383.975	346.288	0.145	0.282
-382.960	-107.258	0.217	-0.047
-381.946	-138.863	-0.193	-0.021
-380.931	41.767	-0.174	0.156
-379.917	800.000	0.106	0.288
-378.902	-105.600	0.132	0.030
-377.888	116.958	0.131	0.159
-376.873	-98.135	0.085	-0.021
-375.858	121.943	0.019	0.024
-374.844	454.149	0.131	-0.286
-373.829	77.054	-0.176	-0.184
-372.815	-38.405	0.191	-0.100
-371.800	560.099	0.149	-0.354
-370.785	-200.000	0.019	-0.120
-369.771	26.616	0.141	-0.117
-368.756	167.535	0.154	0.216
-367.742	-134.163	0.153	0.019
-366.727	800.000	0.023	0.087
-365.712	800.000	0.105	0.353
-364.698	482.745	0.072	-0.162
-363.683	3.891	-0.098	-0.071
-362.669	56.416	-0.153	0.147
-361.654	-200.000	-0.011	0.363
-360.639	23.357	0.296	0.240
-359.625	4.039	0.239	0.172
-358.610	-7.544	-0.085	-0.056
-357.596	115.548	-0.096	-0.115
-356.581	321.088	-0.221	0.414
-355.566	800.000	0.026	0.092
-354.552	330.204	0.043	0.081
-353.537	50.075	0.085	0.079
-352.523	-187.114	-0.095	-0.001
-351.508	800.000	0.048	-0.170
-350.493	800.000	0.160	-0.556
-349.479	493.605	0.102	0.230
-348.464	181.514	-0.285	-0.413
-347.450	-74.338	0.336	-0.120
-346.435	-200.000	-0.008	0.446
-345.420	-200.000	0.013	-0.060
-344.406	-111.505	0.054	0.011
-343.391	-200.000	0.028	0.155
-342.377	51.306	-0.029	-0.028
-341.362	733.198	-0.040	0.106
-340.348	428.649	-0.027	-0.058
-339.333	-179.891	0.284	0.006
-338.318	-29.678	0.331	-0.186
-337.304	-200.000	-0.044	-0.245
-336.289	-104.643	0.124	0.028
-335.275	-200.000	0.056	0.458
-334.260	181.364	-0.206	0.299
-333.245	455.023	0.044	-0.096
-332.231	196.438	0.096	-0.144
-331.216	-21.949	-0.375	0.225
-330.202	-48.252	-0.323	-0.153
-329.187	633.022	0.135	0.337
-328.172	-200.000	0.052	0.329
-327.158	136.907	-0.234	0.301
-326.143	-200.000	0.049	-0.263
-325.129	3.671	-0.211	-0.152
-324.114	-118.561	0.272	-0.047
-323.099	800.000	-0.040	-0.134
-322.085	800.000	-0.014	0.049
-321.070	-200.000	0.009	0.175
-320.056	37.675	-0.183	0.160
-319.041	-117.238	0.044	-0.008
-318.026	85.536	-0.075	-0.081
-317.012	-106.046	0.154	0.034
-315.997	-122.722	-0.293	0.047
-314.983	-200.000	-0.019	0.118
-313.968	-200.000	0.000	-0.374
-312.953	72.688	0.142	0.145
-311.939	800.000	-0.054	0.192
-310.924	251.949	0.125	0.209
-309.910	-1.797	-0.102	-0.071
-308.895	-40.245	-0.294	-0.151
-307.880	-54.645	0.085	-0.038
-306.866	-78.323	-0.154	0.052
-305.851	-147.506	-0.067	0.006
-304.837	-82.788	-0.305	0.097
-303.822	-197.173	0.181	-0.001
-302.807	369.104	-0.030	0.060
-301.793	-88.226	-0.258	0.076
-300.778	-31.988	0.136	-0.075
-299.764	381.466	-0.163	-0.329
-298.749	44.822	0.289	-0.261
-297.735	-66.424	-0.507	-0.198
-296.720	-200.000	0.037	-0.473
-295.705	292.512	0.056	0.101
-294.691	-200.000	-0.058	-0.336
-293.676	-200.000	-0.031	0.334
-292.662	286.842	-0.160	0.284
-291.647	250.325	0.162	0.270
-290.632	51.114	-0.130	-0.121
-289.618	-84.556	0.402	-0.125
-288.603	-200.000	-0.005	-0.024
-287.589	-157.539	-0.305	0.018
-286.574	-51.709	-0.105	-0.048
-285.559	4.069	-0.220	-0.158
-284.545	81.969	0.281	-0.300
-283.530	50.493	0.126	0.117
-282.516	1.649	0.190	0.135
-281.501	27.504	-0.315	-0.261
-280.486	-78.186	0.123	-0.041
-279.472	800.000	0.025	-0.085
-278.457	-200.000	-0.034	-0.209
-277.443	-200.000	-0.027	0.218
-276.428	125.840	0.268	0.333
-275.413	161.144	-0.204	0.281
-274.399	-149.071	-0.234	-0.018
-273.384	301.117	-0.077	0.139
-272.370	97.434	-0.092	0.104
-271.355	-200.000	-0.021	-0.142
-270.340	-91.496	0.164	0.046
-269.326	-119.387	-0.303	0.052
-268.311	177.063	0.294	0.420
-267.297	-200.000	-0.008	-0.377
-266.282	52.905	-0.215	-0.202
-265.267	-36.854	-0.176	-0.093
-264.253	159.720	-0.136	0.186
-263.238	120.607	-0.069	0.084
-262.224	-79.383	0.333	0.111
-261.209	61.044	-0.146	0.142
-260.195	58.667	0.229	0.221
-259.180	744.328	-0.048	-0.126
-258.165	263.952	-0.131	-0.224
-257.151	111.553	-0.048	-0.057
-256.136	-74.180	0.156	-0.055
-255.122	-163.645	0.196	0.009
-254.107	-92.672	0.246	0.068
-253.092	105.214	-0.088	0.102
-252.078	524.452	0.182	-0.421
-251.063	800.000	0.050	-0.188
-250.049	265.132	-0.180	0.309
-249.034	800.000	0.047	0.201
-248.019	800.000	0.066	0.282
-247.005	733.802	0.043	0.112
-245.990	-53.942	-0.185	-0.083
-244.976	588.020	0.126	-0.305
-243.961	-200.000	-0.008	0.111
-242.946	-200.000	-0.094	-0.579
-241.932	800.000	0.126	0.353
-240.917	-137.478	0.117	-0.013
-239.903	-200.000	-0.002	0.076
-238.888	-6.800	0.078	0.052
-237.873	-134.845	0.108	-0.013
-236.859	-200.000	0.010	0.127
-235.844	85.018	0.117	0.126
-234.830	-200.000	-0.006	0.038
-233.815	800.000	0.042	-0.166
-232.800	29.382	0.266	-0.222
-231.786	-134.900	0.149	-0.018
-230.771	-61.470	0.395	0.163
-229.757	-1.807	-0.283	0.195
-228.742	-103.279	-0.154	0.036
-227.727	-125.996	-0.137	0.020
-226.713	23.420	0.126	-0.102
-225.698	129.626	-0.012	-0.015
-224.684	-27.815	-0.205	0.117
-223.669	-19.763	0.146	0.088
-222.655	-132.217	-0.297	0.038
-221.640	-155.067	0.117	-0.008
-220.625	55.787	0.061	-0.058
-219.611	-133.023	-0.361	0.045
-218.596	343.610	-0.104	-0.200
-217.582	145.732	-0.185	-0.244
-216.567	-52.234	0.191	-0.087
-215.552	-75.621	0.288	-0.100
-214.538	-200.000	-0.014	0.168
-213.523	54.091	-0.031	0.029
-212.509	57.332	-0.116	0.111
-211.494	77.568	0.214	-0.223
-210.479	-200.000	-0.011	0.206
-209.465	78.643	-0.215	-0.226
-208.450	118.143	-0.035	0.042
-207.436	-3.952	-0.478	-0.325
-206.421	-200.000	0.008	0.133
-205.406	-200.000	0.007	-0.238
-204.392	-200.000	-0.041	-0.223
-203.377	-111.591	-0.076	0.015
-202.363	-200.000	-0.001	-0.098
-201.348	57.513	-0.143	-0.137
-200.333	800.000	-0.110	0.340
-199.319	800.000	0.100	-0.338
-198.304	-96.292	0.209	0.054
-197.290	-158.343	-0.127	-0.007
-196.275	241.996	0.055	0.090
-195.260	119.406	-0.132	0.161
-194.246	-200.000	-0.003	-0.050
-193.231	90.178	-0.185	-0.203
-192.217	324.141	-0.143	-0.268
-191.202	800.000	-0.082	0.340
-190.187	-118.462	0.291	0.051
-189.173	-55.871	-0.256	0.112
-188.158	-14.225	0.070	0.044
-187.144	46.715	-0.179	0.163
-186.129	194.397	0.246	-0.365
-185.114	-136.565	0.113	0.013
-184.100	213.227	0.058	-0.090
-183.085	-95.160	-0.293	-0.077
-182.071	526.170	-0.072	0.166
-181.056	174.085	0.033	0.046
-180.042	-200.000	-0.011	0.174
-179.027	12.763	0.304	-0.230
-178.012	122.850	-0.337	-0.413
-176.998	-96.509	0.317	-0.082
-175.983	-200.000	-0.002	0.370
-174.969	-200.000	0.005	0.070
-173.954	74.229	0.061	0.062
-172.939	-165.192	-0.126	-0.005
-171.925	15.620	0.235	0.181
-170.910	-103.092	0.358	0.083
-169.896	218.529	-0.041	-0.064
-168.881	-114.824	0.186	-0.035
-167.866	-169.526	-0.140	-0.005
-166.852	25.770	-0.228	0.186
-165.837	-93.618	0.168	0.045
-164.823	-200.000	-0.016	-0.069
-163.808	800.000	0.063	-0.203
-162.793	38.977	-0.049	-0.043
-161.779	-200.000	0.038	0.408
-160.764	-200.000	-0.035	0.248
-159.750	800.000	-0.033	-0.119
-158.735	-150.795	0.371	-0.028
-157.720	238.458	0.061	0.099
-156.706	612.548	-0.070	0.173
-155.691	-16.699	-0.357	-0.221
-154.677	184.461	0.058	0.084
-153.662	-200.000	0.053	0.340
-152.647	122.287	0.212	-0.259
-151.633	-150.144	0.337	0.026
-150.618	122.359	-0.074	-0.091
-149.604	53.384	0.060	-0.056
-148.589	-97.728	0.206	0.052
-147.574	66.848	-0.182	-0.181
-146.560	16.375	-0.072	0.056
-145.545	68.600	0.374	-0.375
-144.531	-181.031	-0.260	0.005
-143.516	-200.000	0.047	0.284
-142.502	-178.779	0.157	-0.004
-141.487	-104.034	-0.218	-0.050
-140.472	56.605	-0.196	0.186
-139.458	-81.993	0.060	0.019
-138.443	473.466	0.018	0.041
-137.429	49.769	-0.194	0.178
-136.414	-24.868	-0.292	0.170
-135.399	-200.000	0.066	0.330
-134.385	-51.940	-0.549	0.250
-133.370	-200.000	0.012	-0.188
-132.356	-89.041	-0.219	-0.063
-131.341	800.000	0.051	-0.180
-130.326	800.000	-0.106	-0.308
-129.312	258.469	0.229	0.385
-128.297	124.784	0.183	0.226
-127.283	-90.598	-0.163	0.046
-126.268	-200.000	0.010	0.133
-125.253	87.570	-0.079	0.086
-124.239	-200.000	-0.020	0.265
-123.224	517.162	0.067	0.154
-122.210	-142.165	0.079	0.008
-121.195	-42.170	-0.433	0.217
-120.180	713.704	0.154	0.400
