DTS Sentinel unit serial number:	SN413079Multiplexer serial number:	ORYXHardware model number:	OX4-SRSoftware version number:	ORYX F/W v4.00 Oryx Data Collector v3.7.2.0data status	okinstallation	princeton_trtdifferential loss correction	single-endedforward channel	channel 1reverse channel	N/Adate	2019/09/12time	19:31:34forward acquisition time	15.00reverse acquisition time	0.00gamma	496.2192k internal	0.2322k external	0.2322temperature offset calibration	1.0126default loss term (dB/km)	0.3790temperature slope calibration	1.0000multiplexer offset coefficient	1.0000multiplexer slope coefficient	1.0000fibre end	0.00T internal ref (°C)	32.25T ext. ref 1 (°C)	3.34T ext. ref 2 (°C)	26.74length (m)	temperature (°C)	Stokes	anti-Stokes-747.200	-90.434	-0.410	-0.120
-746.185	800.000	0.070	-0.225
-745.171	-73.807	0.175	-0.064
-744.156	-200.000	0.142	0.717
-743.142	-200.000	-0.598	0.002
-742.127	47.204	0.466	-0.438
-741.112	-200.000	-0.007	-0.467
-740.098	-200.000	0.154	-0.764
-739.083	25.462	-0.718	0.603
-738.069	800.000	0.224	0.644
-737.054	111.753	0.469	0.571
-736.039	-71.225	-0.227	-0.086
-735.025	6.641	0.768	0.577
-734.010	104.860	-0.434	-0.517
-732.996	-32.577	0.656	0.369
-731.981	800.000	0.147	0.613
-730.966	-200.000	-0.004	-0.231
-729.952	29.091	0.258	-0.221
-728.937	5.458	0.349	0.260
-727.923	-134.540	0.661	0.081
-726.908	497.551	-0.440	1.023
-725.894	368.700	-0.175	-0.357
-724.879	800.000	0.147	-0.514
-723.864	-96.955	-0.810	-0.214
-722.850	528.972	0.146	-0.347
-721.835	-117.521	-0.157	0.029
-720.821	-200.000	-0.017	-0.643
-719.806	-8.019	-0.564	0.384
-718.791	34.167	-0.386	0.339
-717.777	90.128	-0.446	0.503
-716.762	-200.000	0.062	-0.322
-715.748	-39.753	-0.440	-0.232
-714.733	-52.557	0.770	0.359
-713.718	-102.014	0.244	-0.059
-712.704	-91.328	-0.691	0.199
-711.689	-80.076	0.650	-0.220
-710.675	-200.000	0.079	0.577
-709.660	-77.323	0.123	0.043
-708.645	800.000	0.224	0.894
-707.631	55.931	0.266	0.261
-706.616	-200.000	-0.032	-0.556
-705.602	800.000	-0.180	0.537
-704.587	800.000	-0.068	-0.289
-703.572	-83.218	0.348	-0.113
-702.558	6.294	-0.492	0.368
-701.543	-118.621	0.595	-0.106
-700.529	-200.000	0.020	-0.089
-699.514	-200.000	-0.175	-0.917
-698.499	62.979	-0.033	-0.033
-697.485	-42.468	0.437	-0.224
-696.470	1.714	0.461	0.335
-695.456	22.311	-0.378	0.311
-694.441	-147.308	-0.296	-0.025
-693.426	376.524	0.085	0.175
-692.412	42.940	-0.232	-0.214
-691.397	-43.253	-0.622	0.317
-690.383	54.559	-0.863	-0.839
-689.368	14.983	0.435	-0.343
-688.354	-169.930	-0.234	0.008
-687.339	-95.574	0.243	0.066
-686.324	22.058	-0.384	0.316
-685.310	110.118	-0.019	-0.023
-684.295	800.000	-0.301	-1.073
-683.281	-62.234	0.302	-0.127
-682.266	-151.731	-0.412	-0.031
-681.251	-200.000	0.020	0.443
-680.237	428.689	-0.381	0.830
-679.222	307.750	-0.341	0.641
-678.208	-52.024	0.285	-0.133
-677.193	-42.936	0.168	0.086
-676.178	-54.741	0.910	-0.414
-675.164	-22.141	-0.412	-0.252
-674.149	51.540	-0.731	-0.700
-673.135	123.343	0.273	0.345
-672.120	56.393	0.324	0.317
-671.105	-44.858	-0.373	0.187
-670.091	-98.443	-0.655	0.169
-669.076	-200.000	-0.002	-0.640
-668.062	-200.000	0.137	-0.706
-667.047	-87.182	0.261	-0.080
-666.032	-121.384	-1.262	0.212
-665.018	-156.605	1.263	0.079
-664.003	-47.745	-0.785	-0.383
-662.989	-145.207	-0.506	-0.046
-661.974	800.000	-0.193	-0.537
-660.959	800.000	-0.118	0.403
-659.945	116.845	-0.161	-0.199
-658.930	-133.805	0.296	-0.037
-657.916	-200.000	0.143	-0.898
-656.901	-200.000	-0.006	-0.519
-655.886	-200.000	0.077	-0.365
-654.872	306.591	-0.046	0.087
-653.857	188.782	-0.388	-0.584
-652.843	800.000	0.152	0.503
-651.828	14.789	0.446	-0.351
-650.814	-47.727	0.185	-0.090
-649.799	-161.735	0.696	-0.036
-648.784	-200.000	0.103	0.588
-647.770	330.451	-0.142	-0.275
-646.755	91.498	-0.464	-0.525
-645.741	318.142	0.382	0.728
-644.726	335.863	0.472	0.921
-643.711	-200.000	-0.017	0.114
-642.697	74.535	0.319	-0.338
-641.682	-200.000	0.046	-0.547
-640.668	594.868	-0.195	-0.487
-639.653	-200.000	0.028	-0.460
-638.638	202.984	-0.377	-0.585
-637.624	580.080	-0.363	0.895
-636.609	80.084	-0.452	-0.489
-635.595	611.286	0.191	0.481
-634.580	-99.137	-0.684	-0.174
-633.565	-124.416	0.166	0.026
-632.551	32.014	0.335	-0.291
-631.536	-91.050	-0.049	0.014
-630.522	19.645	-0.439	0.356
-629.507	-200.000	-0.085	-0.658
-628.492	-200.000	-0.119	-0.554
-627.478	-110.183	-0.449	-0.094
-626.463	208.079	0.101	-0.158
-625.449	-200.000	-0.014	-0.736
-624.434	-200.000	0.120	-0.539
-623.419	-108.972	-0.224	0.048
-622.405	63.233	-0.217	-0.219
-621.390	-128.105	0.345	-0.050
-620.376	-156.398	0.326	0.020
-619.361	180.246	-0.124	-0.183
-618.346	34.147	0.399	0.349
-617.332	-116.433	0.199	0.037
-616.317	-25.779	-0.609	0.361
-615.303	-59.532	-0.931	-0.402
-614.288	590.434	0.059	0.147
-613.273	-46.605	0.511	0.252
-612.259	-67.817	0.473	0.186
-611.244	-114.306	0.342	-0.066
-610.230	-200.000	-0.010	0.123
-609.215	141.487	-0.290	-0.385
-608.201	83.831	-0.557	0.611
-607.186	-137.544	-0.754	0.086
-606.171	-86.277	-0.595	-0.184
-605.157	800.000	0.132	0.402
-604.142	-200.000	0.093	0.468
-603.128	-200.000	0.131	0.816
-602.113	200.681	0.364	-0.563
-601.098	14.794	-0.746	-0.586
-600.084	230.466	-0.566	-0.931
-599.069	-22.909	-0.521	-0.315
-598.055	162.192	0.476	-0.670
-597.040	106.891	-0.435	0.519
-596.025	-141.324	0.508	0.052
-595.011	-68.341	0.285	-0.111
-593.996	46.544	0.947	-0.883
-592.982	-66.380	0.368	-0.147
-591.967	29.246	0.348	0.297
-590.952	-16.472	0.363	0.231
-589.938	-2.791	-0.399	-0.280
-588.923	-132.936	-0.881	-0.113
-587.909	-103.375	0.060	0.014
-586.894	-200.000	0.050	0.387
-585.879	133.184	-0.249	-0.323
-584.865	95.829	-0.198	-0.227
-583.850	200.521	-0.290	0.448
-582.836	-98.730	-0.432	0.110
-581.821	-95.805	0.275	-0.074
-580.806	-91.282	0.887	0.255
-579.792	-102.231	-0.721	0.174
-578.777	-42.220	0.928	0.476
-577.763	19.935	0.597	0.483
-576.748	-77.863	-0.443	0.154
-575.733	138.008	0.376	0.494
-574.719	-134.454	-0.424	-0.052
-573.704	-164.499	-0.671	-0.031
-572.690	-125.765	-0.204	-0.031
-571.675	386.840	0.283	-0.586
-570.661	246.335	0.143	0.241
-569.646	172.846	0.596	-0.861
-568.631	-78.951	0.323	-0.110
-567.617	-161.516	0.192	0.010
-566.602	-89.371	-0.392	-0.116
-565.588	800.000	-0.097	0.405
-564.573	158.738	0.500	-0.697
-563.558	-200.000	0.039	-0.185
-562.544	-93.962	-0.041	-0.011
-561.529	-81.273	-1.050	0.348
-560.515	-200.000	0.048	0.439
-559.500	454.502	0.133	0.295
-558.485	-134.795	0.212	-0.026
-557.471	-94.843	-0.082	-0.022
-556.456	495.284	0.339	0.782
-555.442	63.290	-0.277	0.279
-554.427	42.641	0.557	-0.509
-553.412	-167.769	-0.405	-0.016
-552.398	-151.607	0.554	0.041
-551.383	-11.033	-0.188	-0.125
-550.369	-200.000	0.173	0.884
-549.354	-105.080	-0.602	0.138
-548.339	76.096	0.382	0.406
-547.325	206.221	0.174	0.271
-546.310	-200.000	0.164	-0.925
-545.296	-200.000	-0.054	-0.402
-544.281	-99.888	0.472	0.118
-543.266	-36.399	-0.444	-0.240
-542.252	614.029	0.079	-0.198
-541.237	122.011	-0.131	0.164
-540.223	-82.929	-0.376	0.122
-539.208	72.175	0.343	-0.358
-538.193	-200.000	0.062	-0.372
-537.179	-200.000	0.028	0.471
-536.164	-200.000	-0.112	0.736
-535.150	-36.076	-0.385	-0.209
-534.135	800.000	-0.049	-0.200
-533.121	317.281	-0.314	0.595
-532.106	10.636	-0.087	0.066
-531.091	24.700	0.148	-0.123
-530.077	393.006	-0.394	-0.821
-529.062	85.820	-0.261	0.287
-528.048	-67.567	0.314	-0.123
-527.033	-26.091	-0.815	0.480
-526.018	70.093	0.198	-0.204
-525.004	-117.693	-0.250	-0.045
-523.989	-11.326	-0.730	0.482
-522.975	-160.378	0.136	0.007
-521.960	-200.000	0.022	-0.249
-520.945	-167.133	0.905	-0.037
-519.931	800.000	-0.264	-1.015
-518.916	-55.385	0.261	0.117
-517.902	-103.035	-0.138	0.033
-516.887	-37.939	0.620	0.330
-515.872	-69.527	-0.882	-0.338
-514.858	-95.433	0.848	-0.228
-513.843	11.916	-0.229	-0.176
-512.829	-200.000	-0.112	0.721
-511.814	-200.000	-0.004	0.376
-510.799	-77.352	-0.881	-0.307
-509.785	-136.262	0.800	-0.093
-508.770	104.297	-0.362	-0.427
-507.756	-200.000	0.007	-0.498
-506.741	741.861	-0.251	0.675
-505.726	380.059	0.139	-0.285
-504.712	-11.967	-0.404	-0.265
-503.697	800.000	0.176	-0.706
-502.683	45.140	-0.163	0.151
-501.668	-200.000	0.071	0.866
-500.653	-16.276	-0.612	-0.389
-499.639	-22.120	-0.591	-0.359
-498.624	-2.737	-0.610	0.427
-497.610	-200.000	-0.188	-1.222
-496.595	-200.000	-0.104	-0.722
-495.581	-118.801	-0.540	-0.095
-494.566	360.518	-0.459	0.919
-493.551	-179.666	0.307	0.007
-492.537	-24.484	-0.426	-0.254
-491.522	-71.857	0.371	0.138
-490.508	800.000	-0.078	0.244
-489.493	166.431	-0.338	-0.478
-488.478	-200.000	0.079	0.501
-487.464	-200.000	-0.047	-0.672
-486.449	65.223	-0.697	-0.705
-485.435	-65.401	-0.484	0.195
-484.420	-84.341	-0.178	-0.056
-483.405	40.466	-0.210	-0.189
-482.391	318.104	0.294	-0.556
-481.376	-131.190	-0.474	0.063
-480.362	-24.205	0.593	-0.354
-479.347	80.413	-0.139	-0.150
-478.332	270.802	-0.191	-0.335
-477.318	25.076	-0.258	0.214
-476.303	-78.535	0.526	0.180
-475.289	270.324	0.223	0.393
-474.274	61.765	-0.366	0.364
-473.259	-115.304	-0.684	0.129
-472.245	-35.845	0.144	0.078
-471.230	11.751	0.553	-0.424
-470.216	176.890	0.083	-0.121
-469.201	-57.672	-1.009	-0.442
-468.186	800.000	0.252	0.864
-467.172	229.724	0.243	-0.397
-466.157	-30.776	-0.350	0.198
-465.143	72.607	0.064	0.067
-464.128	-73.559	0.841	-0.306
-463.113	-19.134	-0.903	0.560
-462.099	-200.000	-0.087	0.802
-461.084	764.195	-0.277	0.751
-460.070	23.759	-0.431	-0.355
-459.055	-60.537	0.436	-0.185
-458.040	-22.789	0.532	0.321
-457.026	282.943	-0.518	0.929
-456.011	-74.604	0.308	-0.111
-454.997	-137.318	0.087	-0.010
-453.982	-200.000	0.025	0.527
-452.968	11.809	0.146	0.112
-451.953	587.655	0.233	-0.573
-450.938	63.823	0.259	0.260
-449.924	100.361	0.294	-0.341
-448.909	-152.270	0.753	-0.054
-447.895	172.098	-0.609	-0.874
-446.880	-69.297	-0.332	0.127
-445.865	-66.148	0.632	0.252
-444.851	-200.000	-0.030	0.678
-443.836	-200.000	-0.047	-0.589
-442.822	-96.628	-0.706	-0.186
-441.807	-3.891	0.168	-0.116
-440.792	16.369	0.464	0.366
-439.778	-49.233	-0.359	-0.171
-438.763	27.203	-0.415	-0.348
-437.749	-145.820	0.644	0.057
-436.734	-57.896	0.366	0.160
-435.719	-57.192	-0.499	-0.219
-434.705	64.009	0.292	-0.293
-433.690	9.531	0.257	0.194
-432.676	-200.000	0.039	-0.386
-431.661	183.132	0.117	-0.172
-430.646	236.642	0.173	-0.285
-429.632	-90.632	0.185	0.053
-428.617	800.000	0.182	0.531
-427.603	-193.982	0.608	-0.005
-426.588	-89.522	-1.353	0.397
-425.573	-22.612	0.234	0.141
-424.559	-139.901	-1.089	0.115
-423.544	-167.009	0.367	0.015
-422.530	-103.149	0.554	-0.131
-421.515	424.348	0.214	-0.459
-420.500	-152.925	-0.748	0.053
-419.486	38.238	-0.640	-0.568
-418.471	131.932	0.215	0.276
-417.457	219.522	-0.369	0.588
-416.442	800.000	0.322	-1.105
-415.428	-133.886	-0.214	-0.027
-414.413	637.470	-0.153	0.388
-413.398	800.000	-0.137	0.460
-412.384	-87.316	-0.776	0.235
-411.369	-200.000	-0.107	-0.587
-410.355	-200.000	0.059	-0.554
-409.340	-103.854	-0.960	0.224
-408.325	-94.447	0.626	0.170
-407.311	122.228	0.034	-0.042
-406.296	34.417	0.128	0.111
-405.282	-146.150	-0.302	-0.027
-404.267	254.227	0.251	-0.428
-403.252	4.371	0.375	-0.274
-402.238	-57.629	-0.507	-0.222
-401.223	-22.524	-0.451	0.272
-400.209	-119.651	-1.170	0.202
-399.194	-58.466	-0.074	0.032
-398.179	800.000	-0.168	0.600
-397.165	-200.000	-0.114	0.539
-396.150	109.261	0.583	0.695
-395.136	154.084	0.157	0.214
-394.121	231.356	0.469	-0.765
-393.106	242.714	-0.332	-0.553
-392.092	145.813	0.329	0.440
-391.077	800.000	0.203	0.742
-390.063	-200.000	-0.071	1.118
-389.048	800.000	-0.056	0.213
-388.033	800.000	-0.178	-0.605
-387.019	574.938	-0.221	0.538
-386.004	-200.000	-0.083	-0.508
-384.990	-80.572	0.388	0.129
-383.975	6.486	-0.697	0.516
-382.960	-200.000	-0.012	0.270
-381.946	-200.000	0.168	-0.879
-380.931	800.000	-0.241	-1.023
-379.917	166.893	0.177	0.250
-378.902	-168.736	0.629	-0.024
-377.888	-200.000	0.033	-0.483
-376.873	231.959	0.192	0.313
-375.858	67.685	0.593	0.604
-374.844	-200.000	-0.016	0.146
-373.829	375.756	-0.412	-0.836
-372.815	-126.163	0.115	-0.017
-371.800	7.578	0.289	-0.215
-370.785	126.061	0.220	-0.277
-369.771	152.593	0.335	0.455
-368.756	677.024	-0.184	-0.475
-367.742	27.344	0.316	-0.265
-366.727	-136.226	0.456	0.053
-365.712	-17.068	-0.399	-0.250
-364.698	-200.000	0.003	0.073
-363.683	107.791	-0.310	0.367
-362.669	800.000	-0.153	-0.555
-361.654	132.914	0.281	0.361
-360.639	800.000	0.081	-0.237
-359.625	214.141	-0.364	0.574
-358.610	498.392	-0.306	-0.700
-357.596	107.809	0.303	-0.359
-356.581	16.429	-0.035	0.028
-355.566	-136.579	0.792	0.091
-354.552	189.974	0.411	0.613
-353.537	304.613	-0.083	0.153
-352.523	54.847	-0.745	0.716
-351.508	-112.310	0.416	0.083
-350.493	107.218	-0.445	-0.526
-349.479	-26.676	-0.204	-0.119
-348.464	-33.171	0.697	-0.384
-347.450	51.427	0.269	-0.255
-346.435	18.289	0.134	0.107
-345.420	22.986	-0.225	-0.184
-344.406	-68.775	-0.067	-0.026
-343.391	-107.157	-0.588	-0.129
-342.377	313.334	-0.058	0.108
-341.362	138.045	-0.338	0.441
-340.348	481.658	-0.078	0.176
-339.333	-96.412	-0.617	-0.162
-338.318	-100.061	-0.352	0.087
-337.304	36.515	0.541	-0.475
-336.289	-132.848	-0.429	-0.054
-335.275	-200.000	0.041	0.258
-334.260	-52.748	0.788	0.361
-333.245	-55.249	-0.605	0.270
-332.231	430.729	0.170	0.365
-331.216	800.000	0.097	0.372
-330.202	-50.724	0.274	0.128
-329.187	-11.181	0.315	0.206
-328.172	287.178	-0.745	-1.338
-327.158	-200.000	-0.190	0.837
-326.143	-200.000	0.075	0.335
-325.129	-153.321	-0.134	-0.009
-324.114	-200.000	0.022	0.237
-323.099	-200.000	-0.074	-0.540
-322.085	800.000	-0.154	-0.593
-321.070	-145.007	0.508	0.046
-320.056	800.000	-0.062	-0.209
-319.041	123.765	-0.430	0.537
-318.026	-60.511	-0.260	-0.110
-317.012	-92.768	0.396	-0.110
-315.997	-95.397	-0.449	0.120
-314.983	186.228	0.189	-0.280
-313.968	99.870	-0.579	-0.666
-312.953	193.467	-0.398	0.598
-311.939	800.000	0.242	0.877
-310.924	170.164	0.334	0.474
-309.910	-155.125	-0.482	-0.031
-308.895	319.821	-0.182	0.343
-307.880	157.787	0.267	0.368
-306.866	187.895	0.213	0.316
-305.851	-200.000	0.121	0.830
-304.837	-200.000	-0.054	0.457
-303.822	-158.549	0.457	0.026
-302.807	-151.396	0.663	-0.049
-301.793	201.071	-0.575	-0.878
-300.778	-67.674	0.147	-0.057
-299.764	800.000	0.222	0.705
-298.749	21.857	0.627	0.507
-297.735	178.268	0.236	0.342
-296.720	-151.317	0.704	0.052
-295.705	-200.000	0.003	-1.426
-294.691	-200.000	-0.147	-1.220
-293.676	119.559	0.560	-0.689
-292.662	800.000	-0.234	0.752
-291.647	-200.000	0.119	0.650
-290.632	164.775	-0.682	-0.954
-289.618	-200.000	0.036	0.665
-288.603	-50.928	0.281	-0.131
-287.589	-121.661	0.924	0.152
-286.574	203.309	-0.085	0.131
-285.559	21.274	-0.150	0.121
-284.545	-6.854	0.237	0.160
-283.530	89.196	-0.260	-0.288
-282.516	800.000	-0.136	-0.540
-281.501	-41.225	0.497	0.254
-280.486	800.000	0.201	-0.597
-279.472	458.910	-0.064	-0.141
-278.457	-199.227	-1.302	0.007
-277.443	-35.967	0.738	-0.396
-276.428	-146.412	0.853	-0.074
-275.413	263.433	-0.216	-0.373
-274.399	196.684	-0.322	-0.486
-273.384	-20.760	-0.773	0.470
-272.370	248.139	0.306	0.513
-271.355	296.447	0.268	0.488
-270.340	79.812	-0.391	-0.416
-269.326	-174.735	0.689	0.019
-268.311	-200.000	-0.025	-0.940
-267.297	22.751	0.278	0.225
-266.282	215.169	-0.076	-0.119
-265.267	-34.116	-0.454	0.247
-264.253	-31.076	0.262	0.146
-263.238	-19.656	-0.829	-0.508
-262.224	-154.966	0.901	-0.059
-261.209	800.000	0.102	0.414
-260.195	800.000	-0.018	-0.069
-259.180	800.000	0.105	0.365
-258.165	-134.077	0.409	0.050
-257.151	318.108	-0.548	1.029
-256.136	-48.584	0.145	-0.069
-255.122	-27.991	-0.508	0.292
-254.107	-144.996	-1.072	0.097
-253.092	-200.000	0.273	-1.292
-252.078	107.233	-0.087	-0.102
-251.063	-22.740	-0.487	0.292
-250.049	-200.000	0.009	-0.622
-249.034	-158.503	0.901	0.052
-248.019	71.799	-0.604	-0.622
-247.005	495.691	0.421	-0.959
-245.990	26.231	-0.405	-0.335
-244.976	604.558	-0.249	-0.613
-243.961	44.291	0.221	-0.201
-242.946	156.424	0.288	-0.394
-241.932	-1.243	0.289	0.202
-240.917	-200.000	-0.006	-0.598
-239.903	4.985	0.328	0.239
-238.888	216.715	-0.100	-0.158
-237.873	98.179	-0.024	-0.027
-236.859	-26.013	0.125	0.073
-235.844	800.000	-0.016	-0.050
-234.830	0.897	0.245	0.174
-233.815	-113.691	-1.008	0.195
-232.800	800.000	0.200	0.756
-231.786	-103.409	0.064	0.015
-230.771	581.987	0.067	0.164
-229.757	122.048	0.335	0.414
-228.742	800.000	-0.062	-0.234
-227.727	282.461	-0.455	-0.808
-226.713	-178.672	-0.440	-0.010
-225.698	-200.000	0.564	-0.002
-224.684	800.000	0.157	0.515
-223.669	36.841	0.656	-0.574
-222.655	-102.836	0.346	0.081
-221.640	800.000	0.404	1.169
-220.625	-101.422	0.116	0.028
-219.611	-39.996	0.992	-0.512
-218.596	-117.624	-1.380	-0.246
-217.582	-66.102	-0.293	-0.116
-216.567	-135.041	0.494	-0.059
-215.552	80.120	-0.319	0.339
-214.538	-200.000	0.046	0.596
-213.523	117.219	-0.193	-0.235
-212.509	-200.000	-0.012	-0.535
-211.494	458.096	0.219	0.481
-210.479	19.747	-0.414	0.330
-209.465	244.367	0.456	0.758
-208.450	-55.088	0.531	-0.236
-207.436	-23.077	-0.585	0.349
-206.421	-30.715	-0.671	0.376
-205.406	-86.915	0.337	0.102
-204.392	211.252	-0.289	0.450
-203.377	131.511	0.703	-0.894
-202.363	4.697	0.076	0.055
-201.348	800.000	-0.091	-0.299
-200.333	29.263	0.472	-0.396
-199.319	2.369	0.201	0.144
-198.304	150.465	-0.446	0.599
-197.290	-53.038	0.112	-0.051
-196.275	-49.541	0.620	-0.292
-195.260	-170.596	-0.266	0.009
-194.246	89.432	-0.454	0.501
-193.231	220.685	0.476	0.755
-192.217	800.000	0.173	-0.540
-191.202	73.375	0.228	0.236
-190.187	176.891	0.190	0.273
-189.173	-200.000	0.028	0.570
-188.158	613.547	0.087	0.216
-187.144	-97.171	-0.991	0.256
-186.129	593.577	0.189	-0.461
-185.114	-31.250	-0.434	0.242
-184.100	-18.835	0.409	-0.252
-183.085	-87.010	-0.605	0.182
-182.071	156.676	0.166	-0.227
-181.056	-128.060	0.311	-0.044
-180.042	162.624	-0.190	-0.263
-179.027	-200.000	-0.047	-0.307
-178.012	-4.231	0.575	0.393
-176.998	113.154	0.196	0.234
-175.983	-73.814	0.404	0.145
-174.969	-10.040	0.539	0.354
-173.954	20.133	0.518	0.413
-172.939	15.439	0.083	0.065
-171.925	-13.677	-0.764	0.488
-170.910	164.346	0.309	0.430
-169.896	-200.000	-0.033	0.255
-168.881	212.396	0.392	0.610
-167.866	-74.133	0.451	0.161
-166.852	800.000	-0.156	-0.592
-165.837	44.801	0.437	0.397
-164.823	7.980	0.221	-0.163
-163.808	246.332	-0.443	0.737
-162.793	-45.278	0.587	0.288
-161.779	100.144	0.154	-0.176
-160.764	-134.362	0.338	0.041
-159.750	241.004	0.171	-0.281
-158.735	-164.707	0.603	0.027
-157.720	-56.746	0.672	-0.293
-156.706	-30.769	-0.506	0.283
-155.691	-25.435	1.066	-0.622
-154.677	-132.590	0.441	-0.056
-153.662	76.704	0.245	0.257
-152.647	87.349	0.481	-0.525
-151.633	32.948	0.232	0.198
-150.618	-200.000	0.084	0.540
-149.604	43.462	0.087	0.079
-148.589	-30.726	-0.622	0.348
-147.574	82.199	0.239	0.255
-146.560	88.321	-0.216	0.237
-145.545	-200.000	0.052	0.404
-144.531	800.000	0.342	-1.137
-143.516	-103.149	-0.410	0.096
-142.502	28.034	0.450	-0.374
-141.487	800.000	0.179	-0.534
-140.472	-95.352	0.799	-0.212
-139.458	800.000	0.093	-0.322
-138.443	21.310	-0.259	0.207
-137.429	-13.760	0.761	-0.486
-136.414	-173.612	0.744	-0.022
-135.399	78.694	0.109	0.115
-134.385	30.368	0.208	0.176
-133.370	800.000	0.079	0.339
-132.356	-82.750	0.195	-0.062
-131.341	-82.592	0.806	0.258
-130.326	217.326	0.357	0.560
-129.312	-15.514	0.468	-0.294
-128.297	47.849	-0.638	0.587
-127.283	-200.000	0.003	0.115
-126.268	-176.668	-0.631	-0.016
-125.253	86.321	-0.214	-0.233
-124.239	800.000	0.127	0.533
-123.224	-39.175	-0.111	-0.057
-122.210	80.782	0.407	-0.433
-121.195	-200.000	-0.032	0.322
-120.180	166.901	0.122	0.170
