DTS Sentinel unit serial number:	SN413079Multiplexer serial number:	ORYXHardware model number:	OX4-SRSoftware version number:	ORYX F/W v4.00 Oryx Data Collector v3.7.2.0data status	okinstallation	princeton_trtdifferential loss correction	single-endedforward channel	channel 1reverse channel	N/Adate	2019/09/19time	06:06:35forward acquisition time	60.00reverse acquisition time	0.00gamma	496.2192k internal	0.2343k external	0.2343temperature offset calibration	1.0019default loss term (dB/km)	0.3790temperature slope calibration	1.0000multiplexer offset coefficient	1.0000multiplexer slope coefficient	1.0000fibre end	0.00T internal ref (°C)	19.12T ext. ref 1 (°C)	0.58T ext. ref 2 (°C)	12.72length (m)	temperature (°C)	Stokes	anti-Stokes-747.200	-13.443	-0.261	-0.170
-746.185	17.781	0.216	0.172
-745.171	800.000	0.061	0.200
-744.156	-118.095	-0.394	0.071
-743.142	-126.663	-0.265	-0.039
-742.127	800.000	-0.129	0.450
-741.112	800.000	0.074	-0.222
-740.098	534.830	0.062	-0.147
-739.083	745.380	0.049	-0.131
-738.069	549.555	-0.138	0.331
-737.054	-22.009	-0.232	0.141
-736.039	-18.430	-0.169	-0.105
-735.025	781.111	0.235	0.644
-734.010	265.728	-0.076	-0.134
-732.996	-200.000	-0.006	-0.381
-731.981	-57.881	0.090	0.039
-730.966	-128.151	-0.100	0.014
-729.952	231.122	0.052	0.085
-728.937	-70.699	-0.236	0.089
-727.923	195.045	-0.122	-0.185
-726.908	201.618	0.174	-0.268
-725.894	-40.925	-0.167	-0.086
-724.879	-163.584	-0.035	-0.002
-723.864	176.130	-0.035	-0.050
-722.850	-200.000	0.049	0.248
-721.835	800.000	-0.074	0.219
-720.821	173.713	0.067	-0.097
-719.806	-29.816	-0.191	0.109
-718.791	82.089	0.069	0.075
-717.777	-200.000	0.056	-0.261
-716.762	258.126	0.043	0.073
-715.748	307.642	-0.084	-0.157
-714.733	-200.000	-0.018	-0.176
-713.718	-200.000	0.035	-0.206
-712.704	-100.127	0.333	-0.083
-711.689	-101.931	0.425	-0.103
-710.675	-200.000	0.026	-0.280
-709.660	68.942	0.228	-0.234
-708.645	-131.314	-0.223	0.030
-707.631	800.000	-0.126	-0.427
-706.616	-132.594	-0.007	0.001
-705.602	-110.634	-0.098	0.020
-704.587	130.659	-0.171	0.219
-703.572	-200.000	-0.053	0.283
-702.558	20.993	0.037	0.030
-701.543	128.257	-0.090	0.114
-700.529	-113.158	0.327	0.064
-699.514	157.930	0.212	0.294
-698.499	-180.109	0.100	-0.002
-697.485	-10.582	-0.110	-0.073
-696.470	-6.178	0.216	-0.148
-695.456	791.325	0.092	-0.253
-694.441	800.000	0.027	-0.090
-693.426	-155.716	-0.510	-0.033
-692.412	-200.000	0.230	-0.001
-691.397	291.358	-0.247	0.450
-690.383	534.863	-0.166	-0.394
-689.368	624.458	-0.006	-0.016
-688.354	-42.619	-0.314	-0.160
-687.339	98.014	-0.230	-0.265
-686.324	-137.623	0.272	-0.031
-685.310	-90.642	0.391	-0.113
-684.295	21.859	0.171	-0.140
-683.281	800.000	-0.048	-0.168
-682.266	172.981	-0.293	-0.422
-681.251	296.362	-0.069	-0.127
-680.237	-130.932	-0.334	0.045
-679.222	19.579	-0.076	0.061
-678.208	800.000	-0.056	-0.220
-677.193	-152.832	-0.135	0.010
-676.178	-53.283	0.101	0.046
-675.164	-139.097	0.214	-0.023
-674.149	-66.642	-0.246	0.097
-673.135	79.891	-0.125	-0.134
-672.120	-165.411	0.461	0.020
-671.105	157.386	-0.341	0.471
-670.091	-156.927	-0.418	-0.026
-669.076	267.737	-0.075	0.131
-668.062	-110.101	-0.303	-0.063
-667.047	-75.065	0.212	-0.076
-666.032	633.103	0.067	0.170
-665.018	-200.000	0.022	-0.113
-664.003	-200.000	-0.005	0.124
-662.989	122.727	-0.245	0.306
-661.974	-91.689	0.068	0.019
-660.959	-125.115	-0.136	0.021
-659.945	-200.000	0.005	-0.183
-658.930	77.336	0.089	-0.095
-657.916	-200.000	-0.012	-0.147
-656.901	-179.129	0.378	-0.008
-655.886	342.347	-0.062	0.122
-654.872	217.941	0.175	0.279
-653.857	199.031	-0.149	0.228
-652.843	-200.000	0.022	0.267
-651.828	800.000	-0.066	-0.243
-650.814	-80.563	-0.418	0.139
-649.799	23.930	-0.158	-0.130
-648.784	-52.031	-0.180	-0.083
-647.770	-200.000	-0.011	-0.318
-646.755	-55.814	-0.100	0.044
-645.741	26.777	-0.231	-0.193
-644.726	165.925	-0.274	-0.387
-643.711	-64.104	0.074	-0.030
-642.697	-103.625	-0.283	0.066
-641.682	588.479	0.217	0.534
-640.668	800.000	0.071	-0.196
-639.653	-57.254	-0.123	0.054
-638.638	448.631	0.067	0.148
-637.624	-84.983	0.147	0.046
-636.609	296.771	-0.091	0.166
-635.595	154.634	-0.046	0.064
-634.580	800.000	-0.138	-0.538
-633.565	8.967	-0.175	-0.131
-632.551	318.926	-0.103	-0.195
-631.536	65.651	-0.052	0.053
-630.522	-198.539	0.127	-0.001
-629.507	-200.000	-0.010	-0.491
-628.492	-106.321	0.111	-0.025
-627.478	800.000	-0.070	0.238
-626.463	-36.210	-0.099	-0.053
-625.449	800.000	0.114	0.340
-624.434	116.570	-0.121	-0.148
-623.419	-16.399	0.201	0.127
-622.405	38.207	0.251	-0.223
-621.390	-72.761	0.146	0.054
-620.376	-124.086	-0.141	0.022
-619.361	142.752	0.100	-0.132
-618.346	-148.476	-0.073	0.006
-617.332	5.186	-0.124	0.091
-616.317	-200.000	-0.004	0.191
-615.303	-97.336	0.487	-0.126
-614.288	95.952	-0.174	0.198
-613.273	-126.325	-0.251	-0.037
-612.259	800.000	-0.152	0.440
-611.244	97.255	0.337	-0.385
-610.230	-200.000	-0.030	0.205
-609.215	-33.195	-0.042	0.023
-608.201	-70.774	0.079	0.030
-607.186	-200.000	-0.018	0.202
-606.171	-159.851	-0.437	0.024
-605.157	-9.811	0.450	-0.298
-604.142	264.599	0.117	-0.202
-603.128	-200.000	-0.010	-0.090
-602.113	-31.075	0.221	0.124
-601.098	-34.179	-0.144	-0.079
-600.084	252.535	0.138	0.234
-599.069	204.993	-0.157	-0.243
-598.055	768.129	0.046	-0.124
-597.040	435.209	0.133	-0.287
-596.025	312.022	-0.042	0.079
-595.011	800.000	-0.053	-0.204
-593.996	-37.553	-0.056	-0.030
-592.982	200.127	-0.313	-0.478
-591.967	-87.357	-0.056	0.017
-590.952	396.622	-0.082	-0.170
-589.938	-200.000	-0.028	0.203
-588.923	-76.777	-0.203	0.071
-587.909	-11.007	-0.279	-0.183
-586.894	-134.975	-0.158	-0.019
-585.879	184.471	-0.011	-0.017
-584.865	800.000	0.047	0.160
-583.850	64.315	-0.315	-0.316
-582.836	-168.963	-0.230	0.009
-581.821	223.076	-0.052	0.083
-580.806	-200.000	0.003	0.116
-579.792	26.851	-0.125	-0.105
-578.777	-200.000	-0.043	0.257
-577.763	-200.000	0.028	-0.162
-576.748	-61.308	0.191	-0.080
-575.733	800.000	-0.039	-0.166
-574.719	800.000	0.036	0.118
-573.704	-200.000	0.010	0.117
-572.690	45.897	-0.081	0.074
-571.675	33.374	-0.358	0.309
-570.661	-115.977	0.167	-0.031
-569.646	195.617	0.125	-0.188
-568.631	-200.000	-0.038	0.203
-567.617	-200.000	-0.008	-0.117
-566.602	-20.176	-0.236	0.144
-565.588	-154.167	-0.258	-0.017
-564.573	398.808	-0.105	0.219
-563.558	800.000	0.084	0.334
-562.544	106.329	0.015	0.018
-561.529	-30.262	0.302	0.170
-560.515	-109.553	0.303	0.064
-559.500	800.000	0.021	0.083
-558.485	-120.893	0.290	-0.049
-557.471	800.000	-0.148	-0.577
-556.456	25.415	-0.243	-0.201
-555.442	-166.916	0.192	-0.008
-554.427	446.466	-0.100	-0.219
-553.412	357.141	0.114	-0.225
-552.398	-159.230	-0.375	-0.021
-551.383	341.774	0.221	0.429
-550.369	800.000	0.032	-0.097
-549.354	114.329	0.108	-0.131
-548.339	-115.658	0.304	-0.057
-547.325	-138.903	0.141	-0.015
-546.310	-200.000	-0.059	-0.368
-545.296	99.157	-0.126	-0.144
-544.281	137.109	-0.305	0.396
-543.266	-200.000	0.028	0.271
-542.252	532.388	-0.080	0.189
-541.237	-200.000	-0.012	0.119
-540.223	126.779	0.114	0.143
-539.208	116.811	0.083	-0.102
-538.193	12.582	-0.243	0.186
-537.179	-200.000	0.036	-0.359
-536.164	800.000	0.082	-0.239
-535.150	-37.566	0.057	-0.030
-534.135	2.937	-0.174	-0.125
-533.121	94.546	-0.086	0.098
-532.106	-200.000	-0.022	0.098
-531.091	-200.000	0.021	0.352
-530.077	173.483	-0.055	0.079
-529.062	57.265	-0.111	0.107
-528.048	84.253	-0.067	0.073
-527.033	301.471	-0.210	-0.385
-526.018	-4.661	0.199	0.136
-525.004	196.284	0.065	-0.099
-523.989	-77.065	-0.141	0.049
-522.975	644.812	0.017	-0.043
-521.960	190.447	-0.064	0.096
-520.945	-88.014	0.272	0.081
-519.931	525.155	0.012	0.028
-518.916	-24.968	-0.180	0.106
-517.902	85.754	0.025	0.027
-516.887	800.000	0.033	-0.116
-515.872	3.383	0.131	0.095
-514.858	-67.858	-0.235	0.091
-513.843	17.637	-0.207	-0.163
-512.829	-1.501	-0.106	0.074
-511.814	167.727	-0.159	0.225
-510.799	-138.143	0.095	0.010
-509.785	122.945	-0.143	-0.178
-508.770	-158.197	0.218	0.013
-507.756	-117.007	-0.261	-0.047
-506.741	162.555	0.091	0.127
-505.726	38.214	0.161	0.142
-504.712	-150.666	-0.073	0.006
-503.697	-142.522	-0.296	-0.029
-502.683	144.198	0.349	-0.461
-501.668	-48.450	-0.348	-0.166
-500.653	523.528	-0.156	-0.365
-499.639	234.702	0.040	0.066
-498.624	-200.000	-0.060	0.286
-497.610	-62.648	-0.369	0.152
-496.595	-163.330	0.204	0.010
-495.581	-173.731	-0.255	0.008
-494.566	-200.000	-0.031	-0.215
-493.551	800.000	0.111	-0.309
-492.537	85.599	0.151	-0.164
-491.522	-9.774	0.231	-0.153
-490.508	-40.593	0.183	0.094
-489.493	-200.000	0.030	-0.140
-488.478	-40.283	-0.170	0.087
-487.464	-121.859	-0.104	0.017
-486.449	125.598	0.138	0.173
-485.435	2.557	0.087	-0.062
-484.420	800.000	-0.129	0.420
-483.405	-200.000	0.005	0.157
-482.391	-105.772	-0.192	0.043
-481.376	800.000	-0.065	0.272
-480.362	0.413	0.218	0.154
-479.347	131.273	0.098	-0.125
-478.332	695.743	0.124	-0.323
-477.318	307.958	-0.038	-0.070
-476.303	-22.995	0.310	0.185
-475.289	-109.631	0.116	0.024
-474.274	96.930	-0.232	0.264
-473.259	551.593	0.085	-0.201
-472.245	-200.000	-0.032	-0.167
-471.230	800.000	-0.122	0.350
-470.216	105.740	0.080	-0.094
-469.201	200.343	-0.116	0.177
-468.186	-74.224	0.140	0.050
-467.172	31.001	-0.093	-0.079
-466.157	100.485	0.199	0.229
-465.143	-43.060	-0.167	-0.084
-464.128	800.000	0.077	0.211
-463.113	98.190	0.093	0.106
-462.099	-13.751	0.418	0.268
-461.084	-138.495	0.187	-0.020
-460.070	-200.000	-0.016	-0.111
-459.055	-200.000	-0.087	-0.456
-458.040	-87.214	0.156	0.047
-457.026	-39.742	-0.348	-0.180
-456.011	-108.625	0.342	0.073
-454.997	-200.000	0.013	0.179
-453.982	-200.000	-0.012	-0.139
-452.968	466.657	-0.114	0.254
-451.953	-189.804	-0.160	0.002
-450.938	20.616	-0.288	0.230
-449.924	280.892	-0.061	-0.108
-448.909	235.558	-0.108	-0.176
-447.895	-105.513	0.202	0.045
-446.880	-172.987	0.402	0.012
-445.865	-59.386	-0.055	0.023
-444.851	-200.000	-0.038	0.252
-443.836	-200.000	0.030	-0.231
-442.822	-4.271	0.125	0.085
-441.807	-60.353	0.069	0.029
-440.792	800.000	0.124	-0.387
-439.778	13.344	0.176	0.135
-438.763	-37.771	-0.199	0.105
-437.749	-125.057	0.283	-0.043
-436.734	-200.000	-0.010	0.057
-435.719	226.209	0.095	-0.152
-434.705	-120.948	-0.209	0.035
-433.690	214.370	-0.128	-0.201
-432.676	-74.205	0.548	0.196
-431.661	-200.000	0.049	0.321
-430.646	-102.799	-0.097	0.023
-429.632	-91.722	-0.130	0.037
-428.617	-74.451	0.124	0.044
-427.603	13.297	0.184	0.141
-426.588	-43.114	0.297	0.149
-425.573	353.526	0.107	0.209
-424.559	-42.151	0.139	-0.070
-423.544	-75.769	0.124	0.044
-422.530	-56.971	0.355	0.155
-421.515	151.475	0.098	-0.131
-420.500	480.317	-0.131	-0.294
-419.486	-200.000	0.074	0.391
-418.471	115.737	0.290	0.351
-417.457	-200.000	-0.002	0.037
-416.442	-200.000	0.024	-0.272
-415.428	655.188	-0.061	0.154
-414.413	-183.585	-0.534	-0.009
-413.398	-183.942	-0.064	0.001
-412.384	-200.000	0.018	0.172
-411.369	-80.079	-0.228	-0.076
-410.355	-141.797	0.215	0.021
-409.340	-51.448	-0.124	-0.057
-408.325	-200.000	-0.056	0.267
-407.311	722.087	0.117	0.308
-406.296	-104.250	-0.328	0.075
-405.282	800.000	0.089	-0.257
-404.267	-200.000	0.014	-0.210
-403.252	-37.087	0.047	0.025
-402.238	-200.000	-0.007	0.101
-401.223	-48.405	-0.236	-0.112
-400.209	-107.889	0.329	-0.071
-399.194	-98.368	-0.178	-0.045
-398.179	3.650	0.432	0.312
-397.165	-132.782	-0.231	0.029
-396.150	800.000	0.129	0.486
-395.136	-153.493	-0.204	-0.014
-394.121	107.575	0.254	-0.299
-393.106	-200.000	-0.364	0.001
-392.092	377.623	0.058	0.118
-391.077	17.586	0.114	0.089
-390.063	-60.259	0.088	-0.037
-389.048	-46.118	-0.169	0.082
-388.033	-70.268	0.316	0.118
-387.019	-200.000	0.004	-0.207
-386.004	509.321	0.080	0.184
-384.990	520.269	0.068	-0.156
-383.975	-12.099	-0.099	-0.064
-382.960	-200.000	-0.017	-0.127
-381.946	287.605	0.112	-0.201
-380.931	48.719	0.238	-0.221
-379.917	121.837	0.286	-0.352
-378.902	-200.000	0.028	0.401
-377.888	4.044	-0.317	-0.229
-376.873	-54.400	0.166	-0.074
-375.858	515.448	-0.079	-0.182
-374.844	-161.890	0.095	-0.005
-373.829	-200.000	-0.009	-0.045
-372.815	-45.449	-0.013	0.006
-371.800	-104.728	-0.047	-0.011
-370.785	323.635	-0.207	-0.390
-369.771	-15.004	0.278	-0.176
-368.756	-150.671	0.369	-0.028
-367.742	211.781	0.179	0.279
-366.727	163.417	0.075	0.104
-365.712	198.154	-0.167	-0.251
-364.698	-133.258	-0.139	-0.017
-363.683	-39.930	0.232	-0.119
-362.669	-8.428	0.090	0.060
-361.654	704.710	0.063	0.164
-360.639	427.425	-0.035	-0.075
-359.625	687.603	0.064	0.166
-358.610	-200.000	-0.004	-0.181
-357.596	-200.000	0.008	-0.057
-356.581	-200.000	-0.024	0.117
-355.566	-68.609	0.340	-0.130
-354.552	24.717	-0.084	0.069
-353.537	-113.554	-0.265	-0.051
-352.523	94.040	-0.212	-0.237
-351.508	-71.613	0.209	0.077
-350.493	773.116	0.066	0.179
-349.479	-7.208	0.005	-0.003
-348.464	-63.749	-0.080	-0.032
-347.450	13.952	-0.132	0.102
-346.435	-135.984	0.216	-0.025
-345.420	188.064	0.049	-0.072
-344.406	-7.277	-0.097	0.065
-343.391	-68.682	-0.282	-0.107
-342.377	146.966	0.195	-0.258
-341.362	-85.091	-0.342	-0.106
-340.348	-19.978	-0.245	0.149
-339.333	-101.909	0.067	0.016
-338.318	-101.395	-0.072	-0.017
-337.304	-32.137	0.176	0.097
-336.289	-151.372	-0.376	0.028
-335.275	-73.828	0.022	-0.008
-334.260	800.000	-0.135	-0.409
-333.245	-40.402	-0.155	0.079
-332.231	-36.338	-0.393	0.209
-331.216	-200.000	0.010	-0.243
-330.202	584.749	0.120	-0.290
-329.187	-200.000	-0.016	-0.138
-328.172	-106.302	0.423	-0.093
-327.158	238.620	-0.195	0.319
-326.143	-1.582	0.114	-0.079
-325.129	-116.491	0.359	-0.065
-324.114	64.147	0.136	-0.135
-323.099	137.885	0.172	-0.222
-322.085	800.000	-0.082	0.263
-321.070	-136.050	-0.200	-0.023
-320.056	800.000	-0.015	0.042
-319.041	-0.180	-0.216	0.151
-318.026	510.665	-0.135	0.310
-317.012	-200.000	0.023	0.274
-315.997	3.129	-0.210	-0.151
-314.983	-200.000	-0.015	0.253
-313.968	800.000	-0.113	-0.310
-312.953	462.971	0.133	0.291
-311.939	1.128	0.216	0.153
-310.924	95.237	0.194	-0.218
-309.910	201.603	0.022	0.033
-308.895	15.905	-0.355	0.275
-307.880	-53.595	0.308	-0.139
-306.866	-57.251	-0.494	-0.214
-305.851	-200.000	-0.028	0.205
-304.837	108.474	0.144	-0.169
-303.822	-186.139	-0.094	0.001
-302.807	134.772	-0.258	0.330
-301.793	-66.474	0.307	-0.120
-300.778	-143.566	0.089	-0.008
-299.764	-36.258	-0.145	-0.077
-298.749	142.624	0.035	-0.045
-297.735	213.054	-0.110	0.170
-296.720	34.958	-0.291	0.251
-295.705	63.276	0.204	0.201
-294.691	-107.095	0.261	-0.057
-293.676	-200.000	-0.001	0.660
-292.662	-200.000	0.068	0.387
-291.647	-134.381	-0.208	-0.025
-290.632	310.099	-0.059	0.108
-289.618	125.081	-0.083	-0.103
-288.603	-147.327	0.173	-0.014
-287.589	323.259	-0.078	0.146
-286.574	-156.969	-0.183	-0.011
-285.559	-46.261	-0.183	0.088
-284.545	-87.442	0.209	-0.062
-283.530	263.999	-0.066	0.114
-282.516	-200.000	0.022	-0.123
-281.501	-200.000	-0.003	0.205
-280.486	-70.781	0.230	-0.086
-279.472	-177.444	0.106	0.003
-278.457	478.576	-0.171	-0.381
-277.443	-130.426	-0.125	0.017
-276.428	72.310	-0.090	-0.092
-275.413	63.138	-0.292	-0.288
-274.399	73.122	-0.218	-0.224
-273.384	-200.000	-0.063	0.277
-272.370	-6.926	-0.110	-0.073
-271.355	56.608	0.205	-0.196
-270.340	178.445	-0.189	-0.272
-269.326	800.000	0.056	-0.227
-268.311	325.964	0.042	-0.078
-267.297	-200.000	0.011	0.191
-266.282	-200.000	-0.003	0.110
-265.267	-33.494	-0.133	-0.072
-264.253	800.000	0.067	0.201
-263.238	711.473	0.096	-0.251
-262.224	-134.308	0.176	0.021
-261.209	603.413	-0.080	0.196
-260.195	-53.548	0.272	-0.122
-259.180	-109.240	-0.191	-0.040
-258.165	341.199	0.038	0.073
-257.151	-101.489	0.171	0.041
-256.136	-200.000	0.049	0.335
-255.122	-200.000	-0.058	0.348
-254.107	-200.000	-0.025	-0.116
-253.092	205.273	-0.144	-0.220
-252.078	-158.303	-0.115	-0.007
-251.063	-77.307	-0.086	-0.029
-250.049	-185.084	0.369	-0.006
-249.034	-105.776	-0.116	-0.026
-248.019	150.806	0.104	0.138
-247.005	-200.000	-0.000	-0.264
-245.990	-47.233	-0.173	-0.083
-244.976	-76.034	0.279	-0.097
-243.961	-26.656	-0.064	-0.037
-242.946	-113.284	0.120	0.023
-241.932	-121.280	-0.186	0.031
-240.917	-109.443	-0.305	0.063
-239.903	43.831	0.313	0.282
-238.888	140.777	-0.207	-0.268
-237.873	-30.589	0.141	-0.078
-236.859	-161.530	-0.386	0.019
-235.844	-121.669	-0.087	0.014
-234.830	800.000	-0.052	0.163
-233.815	118.654	-0.105	-0.127
-232.800	-57.113	0.068	0.029
-231.786	-134.486	-0.244	-0.029
-230.771	-200.000	-0.028	-0.169
-229.757	-168.189	-0.063	-0.002
-228.742	506.068	0.096	0.219
-227.727	-36.885	0.319	-0.168
-226.713	-200.000	0.042	0.255
-225.698	179.214	-0.150	0.216
-224.684	-200.000	-0.000	0.092
-223.669	-168.032	-0.171	-0.007
-222.655	800.000	0.061	-0.189
-221.640	85.223	0.029	0.032
-220.625	288.474	0.042	0.074
-219.611	265.006	0.159	-0.272
-218.596	-26.713	0.125	-0.072
-217.582	44.395	-0.091	0.082
-216.567	232.287	0.134	-0.216
-215.552	-70.412	0.189	-0.070
-214.538	-78.603	0.378	0.127
-213.523	-200.000	-0.012	0.178
-212.509	-8.491	-0.176	-0.116
-211.494	-69.474	0.592	0.222
-210.479	329.772	0.180	-0.339
-209.465	124.324	0.219	-0.270
-208.450	70.347	-0.055	0.056
-207.436	-200.000	-0.009	0.054
-206.421	75.557	-0.061	-0.064
-205.406	36.846	0.161	0.140
-204.392	198.400	0.169	0.254
-203.377	-200.000	-0.028	0.213
-202.363	489.155	0.038	-0.086
-201.348	240.069	-0.037	-0.061
-200.333	130.189	0.152	-0.191
-199.319	-156.584	-0.215	-0.013
-198.304	-200.000	0.014	-0.161
-197.290	100.837	-0.044	0.050
-196.275	-45.445	-0.241	0.117
-195.260	-27.099	-0.057	0.033
-194.246	-61.494	-0.018	0.008
-193.231	-140.139	-0.273	-0.028
-192.217	-33.292	0.175	0.095
-191.202	800.000	-0.072	-0.287
-190.187	-145.993	-0.077	-0.007
-189.173	-20.604	-0.110	-0.066
-188.158	-142.910	-0.056	0.005
-187.144	800.000	0.070	-0.242
-186.129	800.000	0.062	0.176
-185.114	-200.000	-0.011	0.163
-184.100	466.417	0.071	0.157
-183.085	-162.736	-0.098	0.005
-182.071	524.257	-0.091	-0.209
-181.056	800.000	0.045	-0.143
-180.042	-200.000	0.012	0.163
-179.027	-99.089	-0.154	0.038
-178.012	463.801	0.120	0.262
-176.998	-73.456	0.295	0.105
-175.983	-46.739	0.078	0.037
-174.969	289.076	-0.243	-0.432
-173.954	-17.542	-0.256	-0.158
-172.939	-175.903	0.536	-0.014
-171.925	-34.699	0.142	-0.076
-170.910	249.106	0.085	0.141
-169.896	-67.443	-0.261	0.101
-168.881	158.662	-0.138	0.187
-167.866	-132.643	0.373	0.047
-166.852	-148.349	-0.085	0.007
-165.837	-96.586	0.527	0.136
-164.823	130.572	0.119	0.149
-163.808	800.000	0.033	-0.131
-162.793	109.040	0.125	-0.146
-161.779	-65.477	0.105	0.041
-160.764	-3.221	-0.142	0.097
-159.750	352.877	-0.163	-0.317
-158.735	181.433	0.063	0.091
-157.720	112.074	-0.192	-0.227
-156.706	-123.565	-0.177	0.028
-155.691	-8.327	0.294	0.194
-154.677	800.000	0.058	-0.225
-153.662	340.177	-0.078	-0.149
-152.647	-50.833	-0.098	0.045
-151.633	252.402	-0.106	0.176
-150.618	293.140	0.091	0.162
-149.604	51.159	0.165	0.153
-148.589	-20.094	-0.170	-0.103
-147.574	800.000	-0.116	-0.383
-146.560	-62.989	0.289	0.117
-145.545	-35.789	-0.103	-0.055
-144.531	501.954	0.087	-0.196
-143.516	-61.102	-0.057	-0.024
-142.502	-122.381	-0.489	0.078
-141.487	-96.630	0.089	-0.023
-140.472	-88.421	-0.285	-0.083
-139.458	-58.833	-0.153	0.065
-138.443	514.815	0.105	0.240
-137.429	70.747	-0.072	0.073
-136.414	20.546	-0.070	-0.056
-135.399	53.294	-0.095	-0.089
-134.385	-101.239	-0.133	-0.032
-133.370	172.131	-0.197	0.277
-132.356	742.287	0.127	0.334
-131.341	85.701	-0.185	0.198
-130.326	163.308	-0.131	0.180
-129.312	-8.319	0.212	-0.139
-128.297	97.727	-0.178	-0.200
-127.283	-55.154	0.136	-0.060
-126.268	62.686	-0.378	0.369
-125.253	-106.771	0.060	-0.013
-124.239	-200.000	-0.003	-0.213
-123.224	162.312	0.030	0.041
