DTS Sentinel unit serial number:	SN413079Multiplexer serial number:	ORYXHardware model number:	OX4-SRSoftware version number:	ORYX F/W v4.00 Oryx Data Collector v3.7.2.0data status	okinstallation	princeton_trtdifferential loss correction	single-endedforward channel	channel 1reverse channel	N/Adate	2019/09/16time	23:34:35forward acquisition time	60.00reverse acquisition time	0.00gamma	496.2192k internal	0.2325k external	0.2325temperature offset calibration	0.9961default loss term (dB/km)	0.3790temperature slope calibration	1.0000multiplexer offset coefficient	1.0000multiplexer slope coefficient	1.0000fibre end	0.00T internal ref (°C)	29.81T ext. ref 1 (°C)	0.09T ext. ref 2 (°C)	23.57length (m)	temperature (°C)	Stokes	anti-Stokes-747.200	-149.396	-0.146	-0.012
-746.185	-96.985	0.286	0.076
-745.171	481.419	0.009	0.021
-744.156	89.351	0.113	0.127
-743.142	-31.280	0.144	-0.082
-742.127	-158.651	-0.331	-0.019
-741.112	-109.871	-0.201	0.042
-740.098	-12.112	-0.304	-0.201
-739.083	284.920	0.028	0.052
-738.069	-46.297	0.395	0.196
-737.054	-133.678	-0.113	0.014
-736.039	67.402	-0.177	-0.182
-735.025	-51.764	0.334	-0.157
-734.010	63.316	-0.106	-0.108
-732.996	800.000	0.027	-0.109
-731.981	-138.767	0.179	0.020
-730.966	2.160	-0.133	0.097
-729.952	29.953	-0.135	-0.116
-728.937	114.669	0.110	0.135
-727.923	367.163	-0.258	-0.524
-726.908	-95.945	-0.219	0.059
-725.894	406.141	0.053	0.114
-724.879	59.311	0.249	0.248
-723.864	-153.682	-0.137	-0.010
-722.850	176.652	-0.138	-0.202
-721.835	800.000	-0.045	0.136
-720.821	-33.826	-0.188	0.105
-719.806	110.407	-0.072	0.087
-718.791	318.446	-0.127	-0.243
-717.777	800.000	0.022	0.087
-716.762	256.610	-0.178	-0.307
-715.748	38.903	0.110	-0.099
-714.733	-200.000	0.012	0.095
-713.718	535.222	0.071	-0.171
-712.704	433.449	0.151	-0.330
-711.689	-200.000	-0.066	-0.470
-710.675	46.045	-0.342	-0.319
-709.660	-79.368	0.168	0.057
-708.645	150.037	-0.035	0.047
-707.631	-31.884	0.105	0.059
-706.616	-68.945	-0.154	0.060
-705.602	213.828	0.143	-0.228
-704.587	587.161	-0.023	-0.056
-703.572	800.000	0.062	-0.192
-702.558	510.189	-0.078	-0.183
-701.543	94.207	0.055	-0.063
-700.529	-158.818	-0.028	-0.002
-699.514	-78.687	-0.074	0.025
-698.499	8.197	-0.320	0.242
-697.485	4.227	-0.307	0.226
-696.470	-79.510	0.161	0.055
-695.456	-110.952	0.176	0.036
-694.441	-200.000	0.013	0.072
-693.426	341.728	-0.193	0.381
-692.412	-49.201	-0.212	-0.102
-691.397	110.806	0.065	-0.079
-690.383	-12.799	-0.375	-0.246
-689.368	91.113	0.220	-0.249
-688.354	-1.489	0.149	0.106
-687.339	167.414	-0.100	-0.143
-686.324	-55.995	-0.121	-0.054
-685.310	-134.875	-0.132	-0.016
-684.295	-147.690	0.213	-0.018
-683.281	-13.216	0.194	0.127
-682.266	-185.080	-0.376	-0.006
-681.251	-3.103	0.119	0.084
-680.237	265.074	-0.133	-0.234
-679.222	-53.067	-0.015	-0.007
-678.208	709.046	-0.072	-0.193
-677.193	-161.226	0.084	0.004
-676.178	89.546	-0.088	0.099
-675.164	663.541	-0.185	-0.481
-674.149	79.058	-0.039	0.042
-673.135	142.825	0.301	0.403
-672.120	800.000	-0.024	0.091
-671.105	-200.000	0.005	0.085
-670.091	-144.570	-0.324	0.030
-669.076	84.456	0.064	-0.071
-668.062	-8.865	0.189	0.127
-667.047	407.858	0.123	0.261
-666.032	800.000	0.177	0.554
-665.018	-26.800	-0.189	-0.111
-664.003	-37.011	0.102	0.055
-662.989	-39.361	-0.071	-0.037
-661.974	62.257	-0.139	-0.140
-660.959	-200.000	0.023	-0.187
-659.945	-109.832	-0.205	0.043
-658.930	379.590	-0.098	-0.202
-657.916	800.000	-0.045	-0.161
-656.901	-200.000	0.029	0.277
-655.886	-200.000	-0.013	0.114
-654.872	-20.103	-0.163	0.101
-653.857	121.932	0.244	-0.306
-652.843	-200.000	0.057	-0.253
-651.828	-200.000	0.017	0.097
-650.814	-59.690	-0.212	-0.091
-649.799	373.831	-0.043	-0.087
-648.784	746.684	0.032	-0.086
-647.770	-200.000	-0.007	-0.162
-646.755	-81.932	-0.134	-0.044
-645.741	-200.000	-0.043	0.322
-644.726	71.314	0.097	0.101
-643.711	-184.413	-0.199	-0.003
-642.697	-148.486	0.218	0.018
-641.682	-159.402	-0.225	-0.013
-640.668	-133.344	-0.386	0.049
-639.653	-200.000	0.019	0.085
-638.638	73.660	-0.135	-0.142
-637.624	800.000	-0.092	-0.308
-636.609	-9.433	-0.238	-0.160
-635.595	-200.000	0.034	0.332
-634.580	-138.832	-0.117	-0.013
-633.565	189.079	-0.188	0.283
-632.551	43.514	-0.153	-0.140
-631.536	50.976	0.136	-0.129
-630.522	-200.000	-0.008	-0.191
-629.507	119.243	-0.025	0.032
-628.492	-98.436	-0.428	-0.110
-627.478	142.987	0.097	-0.130
-626.463	-200.000	0.013	-0.116
-625.449	-200.000	0.035	-0.334
-624.434	-37.340	-0.125	-0.067
-623.419	-61.341	0.304	-0.129
-622.405	123.649	0.204	-0.257
-621.390	46.001	0.085	-0.079
-620.376	204.170	-0.137	0.213
-619.361	-200.000	0.041	0.184
-618.346	27.274	-0.155	-0.131
-617.332	-46.369	-0.416	-0.205
-616.317	-83.642	0.290	0.093
-615.303	154.278	0.129	0.178
-614.288	118.875	0.110	-0.137
-613.273	-56.093	-0.217	-0.097
-612.259	-114.848	0.209	-0.040
-611.244	63.885	-0.209	0.211
-610.230	-200.000	-0.021	0.372
-609.215	-59.059	-0.168	-0.073
-608.201	-64.865	-0.134	0.054
-607.186	-126.880	0.100	0.015
-606.171	90.471	0.271	-0.305
-605.157	-153.239	0.057	0.004
-604.142	476.956	-0.158	-0.358
-603.128	122.094	0.077	-0.097
-602.113	-98.865	-0.255	0.065
-601.098	-143.268	0.253	-0.024
-600.084	260.078	-0.048	0.084
-599.069	16.622	-0.292	-0.231
-598.055	42.421	-0.167	0.152
-597.040	11.340	-0.119	0.092
-596.025	109.342	-0.109	-0.130
-595.011	-142.143	0.197	-0.020
-593.996	101.757	-0.046	0.054
-592.982	800.000	-0.080	0.245
-591.967	68.343	0.179	-0.184
-590.952	149.930	-0.149	0.202
-589.938	651.286	-0.060	0.153
-588.923	-119.798	-0.206	-0.036
-587.909	97.635	0.090	0.104
-586.894	-200.000	0.069	-0.357
-585.879	-47.584	-0.276	-0.134
-584.865	-82.813	-0.412	0.133
-583.850	-13.334	-0.067	-0.043
-582.836	800.000	-0.108	-0.363
-581.821	133.632	0.101	-0.131
-580.806	-143.047	-0.077	0.007
-579.792	-92.273	0.243	-0.069
-578.777	-200.000	0.008	0.147
-577.763	-20.817	-0.319	0.196
-576.748	701.832	0.097	0.256
-575.733	69.729	-0.253	0.262
-574.719	-43.497	-0.066	-0.034
-573.704	-142.752	-0.344	0.034
-572.690	-12.444	0.121	-0.079
-571.675	201.273	0.033	-0.051
-570.661	800.000	-0.170	0.512
-569.646	-125.599	0.219	-0.033
-568.631	-144.104	-0.182	0.017
-567.617	-120.034	-0.304	-0.052
-566.602	-109.173	-0.412	0.088
-565.588	-147.765	0.402	-0.034
-564.573	-200.000	0.007	-0.054
-563.558	61.506	0.242	-0.241
-562.544	-130.495	0.301	0.041
-561.529	204.736	-0.057	0.089
-560.515	-65.229	-0.110	0.045
-559.500	-200.000	0.024	0.118
-558.485	48.959	0.086	-0.081
-557.471	-17.064	-0.078	-0.049
-556.456	-0.448	-0.193	-0.137
-555.442	800.000	-0.055	-0.164
-554.427	26.862	-0.144	-0.121
-553.412	800.000	0.017	0.072
-552.398	-50.260	0.136	0.065
-551.383	-73.650	-0.213	-0.078
-550.369	-141.231	0.066	0.007
-549.354	226.468	0.058	-0.094
-548.339	221.023	0.167	0.268
-547.325	-123.735	-0.189	0.030
-546.310	-92.040	-0.143	-0.041
-545.296	-123.907	-0.265	-0.042
-544.281	-54.241	0.175	-0.079
-543.266	-66.377	0.244	-0.097
-542.252	-200.000	-0.002	0.278
-541.237	311.545	0.029	0.054
-540.223	-83.932	0.095	0.030
-539.208	216.946	-0.073	-0.116
-538.193	118.523	0.089	0.109
-537.179	-70.701	-0.254	-0.096
-536.164	-200.000	0.018	0.429
-535.150	40.351	0.092	-0.083
-534.135	122.744	0.161	-0.202
-533.121	-85.040	0.144	0.045
-532.106	109.061	-0.048	-0.057
-531.091	37.293	0.117	0.103
-530.077	40.628	-0.038	0.035
-529.062	-89.103	-0.467	-0.138
-528.048	-128.709	-0.079	0.011
-527.033	-23.567	0.166	-0.100
-526.018	-86.643	0.154	0.047
-525.004	-105.943	-0.105	0.024
-523.989	74.610	-0.303	0.319
-522.975	149.115	-0.173	-0.234
-521.960	411.511	-0.140	0.297
-520.945	-76.581	-0.206	0.072
-519.931	-200.000	-0.034	-0.407
-518.916	-200.000	-0.015	0.189
-517.902	-82.490	-0.214	-0.069
-516.887	-200.000	-0.000	0.043
-515.872	-80.813	0.094	0.031
-514.858	-200.000	-0.011	0.183
-513.843	-45.175	0.384	-0.191
-512.829	-77.099	0.072	0.025
-511.814	800.000	-0.068	0.261
-510.799	-124.624	-0.183	-0.028
-509.785	3.482	0.192	0.140
-508.770	-86.587	-0.163	-0.050
-507.756	121.451	0.307	-0.383
-506.741	-200.000	0.007	-0.033
-505.726	-200.000	-0.006	-0.027
-504.712	575.171	0.085	0.208
-503.697	-27.389	-0.113	-0.066
-502.683	800.000	-0.050	0.155
-501.668	-36.214	-0.133	-0.072
-500.653	399.678	-0.079	0.165
-499.639	295.940	0.165	0.303
-498.624	389.391	0.088	0.183
-497.610	70.767	-0.076	0.078
-496.595	-200.000	-0.051	-0.258
-495.581	209.039	-0.161	-0.251
-494.566	-126.146	-0.027	0.004
-493.551	132.446	-0.025	-0.032
-492.537	-112.074	-0.261	0.053
-491.522	-27.442	0.220	-0.128
-490.508	-200.000	0.017	0.115
-489.493	-119.497	-0.405	0.070
-488.478	-200.000	0.029	0.349
-487.464	-34.751	-0.469	0.256
-486.449	361.352	-0.125	-0.251
-485.435	-200.000	-0.035	-0.316
-484.420	2.372	0.141	-0.102
-483.405	529.674	0.076	-0.178
-482.391	11.143	0.049	0.038
-481.376	143.802	0.049	0.065
-480.362	72.954	0.218	-0.227
-479.347	-107.590	-0.168	-0.037
-478.332	-200.000	-0.046	0.303
-477.318	163.029	0.111	-0.156
-476.303	76.047	-0.154	0.163
-475.289	36.546	0.154	0.136
-474.274	274.533	-0.024	0.043
-473.259	-46.354	-0.225	-0.110
-472.245	12.848	-0.037	-0.029
-471.230	-93.151	0.295	0.082
-470.216	-14.790	0.322	-0.206
-469.201	157.495	0.020	-0.028
-468.186	800.000	0.026	-0.094
-467.172	800.000	-0.042	-0.127
-466.157	182.634	0.126	0.186
-465.143	247.977	-0.075	-0.127
-464.128	71.388	0.110	-0.113
-463.113	-200.000	-0.030	-0.147
-462.099	-39.997	-0.197	-0.102
-461.084	35.385	0.197	0.173
-460.070	72.775	0.302	0.315
-459.055	-24.175	0.196	0.117
-458.040	-13.649	0.128	0.083
-457.026	-7.224	0.161	0.109
-456.011	157.036	0.176	0.243
-454.997	36.023	0.124	0.109
-453.982	-122.050	-0.372	0.061
-452.968	-200.000	0.011	-0.156
-451.953	-186.324	0.075	-0.001
-450.938	78.759	0.087	-0.093
-449.924	-105.803	0.251	0.057
-448.909	118.087	-0.272	0.335
-447.895	-139.033	0.099	-0.011
-446.880	-52.094	0.308	0.143
-445.865	-177.891	0.079	0.002
-444.851	-18.463	0.084	-0.052
-443.836	-45.472	0.146	0.072
-442.822	40.841	0.122	0.110
-441.807	-129.728	0.169	-0.023
-440.792	-200.000	-0.039	-0.226
-439.778	82.797	-0.115	-0.125
-438.763	3.617	-0.088	0.064
-437.749	-138.724	0.283	0.031
-436.734	151.979	-0.136	-0.185
-435.719	34.080	0.140	-0.121
-434.705	-39.489	0.041	-0.021
-433.690	-45.056	-0.196	-0.097
-432.676	282.144	0.076	0.136
-431.661	-48.040	0.382	0.184
-430.646	-123.654	-0.183	0.029
-429.632	649.971	-0.044	-0.113
-428.617	57.553	0.088	0.086
-427.603	-53.739	-0.201	0.091
-426.588	-145.244	0.273	0.025
-425.573	130.875	-0.189	0.242
-424.559	-200.000	0.036	-0.304
-423.544	-118.042	0.349	0.062
-422.530	-32.408	0.123	-0.068
-421.515	-200.000	0.096	-0.468
-420.500	389.231	-0.107	0.221
-419.486	242.804	0.132	0.220
-418.471	-12.841	-0.092	-0.059
-417.457	800.000	0.043	0.165
-416.442	711.038	-0.066	-0.175
-415.428	-37.471	-0.121	0.064
-414.413	270.082	-0.151	0.264
-413.398	63.219	0.179	0.178
-412.384	51.383	-0.188	-0.178
-411.369	85.955	-0.097	0.106
-410.355	323.939	-0.078	-0.148
-409.340	-200.000	-0.007	0.121
-408.325	-122.049	0.097	0.016
-407.311	-91.490	0.210	-0.060
-406.296	133.040	0.077	0.098
-405.282	-136.161	0.207	0.024
-404.267	69.047	0.073	-0.074
-403.252	-145.879	-0.211	0.019
-402.238	-120.702	0.176	0.030
-401.223	-98.711	0.162	0.041
-400.209	183.857	-0.186	0.274
-399.194	19.057	-0.142	0.114
-398.179	-55.063	0.262	0.117
-397.165	-90.676	0.051	-0.015
-396.150	800.000	0.052	0.178
-395.136	-163.670	-0.172	-0.008
-394.121	-102.915	0.062	-0.015
-393.106	-123.266	0.319	-0.051
-392.092	800.000	0.055	-0.168
-391.077	-15.538	0.373	0.237
-390.063	800.000	-0.072	-0.224
-389.048	-4.046	0.151	-0.104
-388.033	-200.000	-0.040	-0.186
-387.019	-200.000	-0.001	0.170
-386.004	-85.508	0.395	-0.122
-384.990	-15.763	0.196	-0.124
-383.975	257.262	-0.021	0.037
-382.960	-200.000	-0.008	0.205
-381.946	-200.000	0.001	-0.035
-380.931	706.816	0.033	0.087
-379.917	-112.094	-0.208	0.042
-378.902	110.628	-0.128	0.153
-377.888	86.697	0.159	-0.174
-376.873	208.115	0.200	-0.311
-375.858	70.144	-0.246	0.253
-374.844	15.728	-0.222	0.174
-373.829	-119.656	-0.319	-0.055
-372.815	-134.587	-0.252	-0.031
-371.800	-69.166	0.291	-0.111
-370.785	-57.836	0.344	-0.150
-369.771	231.904	-0.155	-0.253
-368.756	303.650	-0.141	0.259
-367.742	-137.437	-0.096	-0.011
-366.727	-58.676	-0.227	-0.098
-365.712	-3.185	0.253	-0.176
-364.698	267.235	0.101	0.175
-363.683	-200.000	-0.062	-0.276
-362.669	-200.000	0.037	-0.175
-361.654	-104.523	-0.219	0.050
-360.639	-22.739	-0.223	-0.134
-359.625	6.330	-0.044	-0.032
-358.610	39.618	0.193	-0.172
-357.596	41.129	-0.076	0.068
-356.581	-200.000	-0.021	0.434
-355.566	-86.052	0.191	-0.059
-354.552	-71.170	0.253	-0.094
-353.537	-0.981	0.350	0.246
-352.523	-130.495	-0.095	-0.013
-351.508	-180.015	-0.344	-0.007
-350.493	-200.000	0.027	-0.238
-349.479	100.273	0.146	-0.168
-348.464	800.000	-0.058	-0.192
-347.450	-58.180	-0.284	0.123
-346.435	800.000	-0.040	-0.150
-345.420	30.039	0.036	0.031
-344.406	-84.388	-0.224	0.070
-343.391	6.853	0.181	-0.134
-342.377	800.000	-0.067	-0.283
-341.362	-168.351	0.082	0.003
-340.348	-98.395	0.077	0.020
-339.333	-63.544	-0.049	-0.020
-338.318	-33.984	-0.130	0.071
-337.304	-142.223	0.238	-0.023
-336.289	76.144	-0.019	0.020
-335.275	41.480	-0.209	-0.188
-334.260	800.000	0.035	-0.120
-333.245	384.881	-0.036	0.073
-332.231	-47.936	-0.113	-0.054
-331.216	7.870	0.025	-0.018
-330.202	-200.000	-0.020	0.529
-329.187	800.000	0.042	0.126
-328.172	-88.023	-0.230	0.069
-327.158	-34.972	-0.157	0.085
-326.143	-54.086	-0.232	-0.105
-325.129	1.341	0.106	0.076
-324.114	738.702	0.080	0.213
-323.099	-200.000	0.015	0.173
-322.085	800.000	0.058	-0.191
-321.070	-121.220	0.327	-0.054
-320.056	-200.000	-0.005	0.029
-319.041	-103.719	-0.141	-0.033
-318.026	-59.244	0.334	-0.143
-317.012	800.000	-0.067	0.279
-315.997	800.000	-0.006	-0.023
-314.983	93.089	0.413	-0.463
-313.968	-200.000	0.019	-0.131
-312.953	-28.324	0.275	-0.157
-311.939	61.183	0.138	-0.136
-310.924	102.681	0.171	-0.199
-309.910	-200.000	0.017	-0.231
-308.895	-34.232	0.034	0.019
-307.880	800.000	-0.087	0.315
-306.866	49.782	-0.085	0.080
-305.851	65.228	-0.240	0.241
-304.837	-154.814	0.102	0.007
-303.822	716.437	0.136	0.359
-302.807	-90.501	-0.214	-0.061
-301.793	88.304	0.164	-0.180
-300.778	-200.000	-0.061	0.306
-299.764	800.000	-0.090	0.388
-298.749	-18.194	0.258	-0.160
-297.735	-47.033	-0.343	-0.166
-296.720	-200.000	-0.017	-0.137
-295.705	-69.304	0.330	-0.126
-294.691	800.000	0.095	0.300
-293.676	-6.089	0.089	0.060
-292.662	-103.532	0.250	-0.058
-291.647	-200.000	-0.070	-0.321
-290.632	-200.000	0.011	0.130
-289.618	0.550	0.306	0.217
-288.603	-76.299	0.107	-0.037
-287.589	450.478	-0.076	-0.166
-286.574	155.683	0.112	-0.153
-285.559	24.655	-0.065	0.053
-284.545	-12.966	0.243	0.156
-283.530	-103.310	-0.147	-0.034
-282.516	138.082	0.154	0.200
-281.501	75.301	-0.322	-0.336
-280.486	-200.000	0.010	0.340
-279.472	180.833	-0.075	-0.109
-278.457	800.000	0.041	-0.172
-277.443	77.317	-0.282	-0.298
-276.428	-200.000	-0.068	-0.430
-275.413	77.385	0.184	0.194
-274.399	-178.214	-0.293	-0.007
-273.384	226.531	0.123	-0.198
-272.370	270.780	0.120	-0.209
-271.355	-200.000	0.035	-0.154
-270.340	93.811	-0.096	0.108
-269.326	-11.630	-0.156	0.102
-268.311	-158.553	-0.185	0.011
-267.297	77.837	0.063	-0.066
-266.282	800.000	0.055	0.216
-265.267	36.211	-0.056	0.049
-264.253	-21.351	-0.190	0.115
-263.238	59.525	0.107	0.104
-262.224	-14.144	-0.296	-0.189
-261.209	800.000	0.101	0.382
-260.195	96.891	-0.079	-0.089
-259.180	-129.911	0.152	-0.021
-258.165	181.503	-0.113	0.164
-257.151	-34.801	-0.062	-0.034
-256.136	-191.300	0.221	0.002
-255.122	630.828	-0.008	0.020
-254.107	800.000	0.098	-0.331
-253.092	-200.000	-0.006	-0.328
-252.078	75.192	-0.182	-0.190
-251.063	-84.796	-0.258	-0.080
-250.049	-200.000	-0.029	0.247
-249.034	20.448	0.220	0.176
-248.019	-200.000	0.030	-0.340
-247.005	800.000	0.073	-0.237
-245.990	-24.615	0.159	-0.094
-244.976	32.541	-0.135	-0.116
-243.961	19.149	-0.204	-0.162
-242.946	800.000	0.033	0.094
-241.932	-38.701	0.122	0.064
-240.917	-115.590	0.201	-0.037
-239.903	-26.855	-0.086	-0.050
-238.888	800.000	0.079	-0.282
-237.873	279.127	-0.092	-0.162
-236.859	-200.000	0.003	-0.141
-235.844	-8.920	-0.286	-0.189
-234.830	-200.000	-0.020	0.204
-233.815	-176.564	0.105	-0.003
-232.800	-66.978	-0.370	0.144
-231.786	515.290	-0.194	0.449
-230.771	-149.656	0.446	-0.035
-229.757	800.000	-0.102	-0.293
-228.742	-89.577	0.132	0.038
-227.727	-5.646	-0.314	0.213
-226.713	-200.000	0.015	-0.226
-225.698	-200.000	0.018	-0.122
-224.684	-200.000	-0.013	-0.297
-223.669	-200.000	0.015	0.237
-222.655	-38.355	0.323	-0.169
-221.640	394.597	0.066	-0.136
-220.625	615.141	-0.048	0.119
-219.611	-19.639	0.171	0.105
-218.596	-115.636	0.085	0.016
-217.582	-27.045	-0.271	-0.156
-216.567	481.024	-0.029	-0.066
-215.552	101.519	0.189	0.218
-214.538	-200.000	-0.004	0.397
-213.523	-133.596	0.391	-0.048
-212.509	-93.187	-0.107	0.030
-211.494	-90.742	0.126	-0.036
-210.479	-200.000	-0.014	-0.187
-209.465	149.603	0.079	-0.105
-208.450	-200.000	0.003	0.148
-207.436	-1.015	0.087	-0.061
-206.421	-200.000	0.017	-0.283
-205.406	658.488	-0.021	0.054
-204.392	-162.193	-0.035	0.002
-203.377	-200.000	-0.069	0.357
-202.363	33.881	0.195	0.168
-201.348	800.000	-0.050	-0.162
-200.333	462.566	0.156	0.344
-199.319	675.989	-0.089	0.228
-198.304	297.920	0.102	-0.186
-197.290	61.916	0.100	-0.098
-196.275	800.000	0.059	0.225
-195.260	65.125	0.122	-0.122
-194.246	-64.644	0.265	-0.106
-193.231	674.014	-0.043	-0.109
-192.217	-17.598	-0.377	-0.234
-191.202	800.000	0.033	0.127
-190.187	-85.640	-0.241	-0.074
-189.173	800.000	0.148	0.636
-188.158	53.264	0.276	-0.261
-187.144	800.000	0.041	-0.165
-186.129	-10.441	0.087	-0.057
-185.114	113.870	-0.076	-0.091
-184.100	348.418	0.029	-0.056
-183.085	299.846	0.108	0.196
-182.071	-175.907	-0.089	0.002
-181.056	-55.751	0.050	-0.022
-180.042	53.269	-0.193	0.182
-179.027	-139.803	0.105	-0.011
-178.012	-139.974	0.295	-0.031
-176.998	11.906	-0.371	0.281
-175.983	123.422	0.009	0.012
-174.969	331.171	0.064	-0.122
-173.954	52.639	0.192	0.181
-172.939	-76.669	0.150	-0.052
-171.925	-200.000	-0.025	0.135
-170.910	-38.286	-0.290	0.152
-169.896	697.602	0.055	0.142
-168.881	-4.039	0.233	0.159
-167.866	-163.079	-0.381	-0.018
-166.852	103.150	0.101	0.117
-165.837	-78.079	0.363	-0.123
-164.823	33.085	-0.042	0.036
-163.808	278.727	0.184	0.324
-162.793	-40.418	0.330	0.169
-161.779	-200.000	0.134	0.000
-160.764	62.526	-0.117	-0.115
-159.750	-140.090	-0.277	0.029
-158.735	367.369	-0.067	-0.133
-157.720	-34.121	-0.269	0.146
-156.706	-89.777	-0.195	-0.056
-155.691	-200.000	0.029	0.166
-154.677	579.399	0.115	0.277
-153.662	330.738	-0.004	0.007
-152.647	800.000	-0.132	-0.367
-151.633	58.275	-0.184	0.178
-150.618	312.240	-0.203	0.375
-149.604	272.187	-0.114	-0.198
-148.589	-200.000	0.019	-0.151
-147.574	94.146	-0.288	-0.322
-146.560	532.828	0.039	0.090
-145.545	-48.123	-0.142	-0.067
-144.531	800.000	0.049	-0.143
-143.516	261.826	0.194	0.331
-142.502	-81.899	-0.179	0.058
-141.487	65.935	0.144	-0.143
-140.472	-8.691	-0.338	0.224
-139.458	-57.460	-0.158	-0.068
-138.443	-8.202	-0.122	0.081
-137.429	-92.102	0.159	0.044
-136.414	13.985	0.198	0.152
-135.399	-47.233	0.116	-0.056
-134.385	-6.295	0.110	-0.074
-133.370	-200.000	-0.035	0.327
-132.356	-46.708	-0.221	0.107
-131.341	451.362	-0.098	-0.213
-130.326	-124.632	-0.175	0.027
-129.312	-200.000	0.011	-0.103
-128.297	-148.452	0.245	-0.020
-127.283	22.150	0.272	-0.219
-126.268	-200.000	-0.023	0.149
-125.253	800.000	-0.055	-0.237
-124.239	-94.870	0.069	-0.018
-123.224	800.000	0.064	0.248
-122.210	23.045	-0.188	0.152
-121.195	800.000	0.056	0.230
