DTS Sentinel unit serial number:	SN413079Multiplexer serial number:	ORYXHardware model number:	OX4-SRSoftware version number:	ORYX F/W v4.00 Oryx Data Collector v3.7.2.0data status	okinstallation	princeton_trtdifferential loss correction	single-endedforward channel	channel 1reverse channel	N/Adate	2019/09/12time	18:49:34forward acquisition time	15.00reverse acquisition time	0.00gamma	496.2192k internal	0.2320k external	0.2320temperature offset calibration	1.0100default loss term (dB/km)	0.3790temperature slope calibration	1.0000multiplexer offset coefficient	1.0000multiplexer slope coefficient	1.0000fibre end	0.00T internal ref (°C)	32.94T ext. ref 1 (°C)	2.99T ext. ref 2 (°C)	27.39length (m)	temperature (°C)	Stokes	anti-Stokes-747.200	405.259	0.336	0.717
-746.185	-200.000	-0.024	0.479
-745.171	-98.538	-0.186	0.048
-744.156	42.588	-0.788	0.726
-743.142	-200.000	0.074	-0.715
-742.127	-58.797	-1.009	-0.442
-741.112	31.847	0.674	-0.587
-740.098	-81.357	0.441	0.147
-739.083	173.601	-0.159	-0.233
-738.069	-28.265	-0.594	0.347
-737.054	-184.697	0.651	0.011
-736.039	7.368	0.391	-0.295
-735.025	-145.445	0.996	-0.091
-734.010	800.000	-0.238	-0.725
-732.996	-115.037	-0.388	0.074
-731.981	347.494	0.170	-0.338
-730.966	214.033	0.056	-0.089
-729.952	284.818	0.491	-0.894
-728.937	-66.788	0.769	-0.308
-727.923	611.188	0.168	0.424
-726.908	-22.686	0.618	0.378
-725.894	800.000	-0.036	-0.156
-724.879	-75.173	-0.616	-0.223
-723.864	-200.000	-0.026	-0.744
-722.850	52.061	-0.444	-0.428
-721.835	-200.000	-0.075	-0.538
-720.821	144.631	-0.293	-0.396
-719.806	66.568	0.634	-0.651
-718.791	90.234	-0.494	0.559
-717.777	78.737	-0.330	-0.357
-716.762	93.340	-0.281	0.322
-715.748	-31.974	0.385	0.218
-714.733	-200.000	-0.066	-1.014
-713.718	-18.273	0.395	0.250
-712.704	-121.893	-0.705	0.117
-711.689	49.493	-0.128	0.121
-710.675	800.000	0.139	-0.460
-709.660	800.000	0.202	0.721
-708.645	-200.000	0.001	0.034
-707.631	336.680	0.227	-0.445
-706.616	45.166	0.762	0.709
-705.602	45.097	0.304	0.283
-704.587	376.886	-0.381	0.785
-703.572	-130.574	-0.708	-0.097
-702.558	311.958	-0.366	0.693
-701.543	251.663	-0.124	-0.213
-700.529	-91.481	0.537	-0.155
-699.514	-200.000	0.050	0.523
-698.499	79.496	0.507	0.549
-697.485	145.039	0.203	0.275
-696.470	-200.000	-0.038	-0.382
-695.456	3.365	-0.448	-0.329
-694.441	-93.633	0.249	-0.069
-693.426	636.411	0.159	-0.408
-692.412	-200.000	0.065	0.364
-691.397	0.707	-0.116	0.084
-690.383	-55.525	-0.133	-0.060
-689.368	-183.633	0.119	0.002
-688.354	63.018	0.434	0.438
-687.339	-164.788	-0.804	0.036
-686.324	800.000	-0.119	0.376
-685.310	119.088	0.381	0.476
-684.295	52.002	0.549	-0.528
-683.281	-110.259	-0.814	-0.171
-682.266	36.701	-0.430	-0.384
-681.251	35.838	0.172	-0.152
-680.237	-86.807	0.567	-0.175
-679.222	93.674	0.339	0.388
-678.208	-200.000	0.070	-0.720
-677.193	47.319	-0.596	0.560
-676.178	381.842	-0.163	0.337
-675.164	33.158	-0.155	0.135
-674.149	306.742	-0.100	-0.188
-673.135	800.000	-0.300	-0.932
-672.120	291.042	0.174	0.319
-671.105	177.878	-0.524	0.770
-670.091	-77.847	0.774	-0.270
-669.076	294.991	-0.502	-0.926
-668.062	-96.340	-0.510	-0.136
-667.047	-127.287	0.130	-0.019
-666.032	800.000	-0.332	0.929
-665.018	800.000	0.104	-0.397
-664.003	-124.408	0.191	-0.030
-662.989	800.000	0.158	-0.603
-661.974	-166.957	0.271	-0.011
-660.959	-103.369	-0.628	0.149
-659.945	-126.537	-0.758	0.113
-658.930	-126.132	1.041	0.157
-657.916	-31.503	0.225	-0.128
-656.901	-22.507	-0.135	0.082
-655.886	442.718	0.193	-0.426
-654.872	40.019	0.720	0.652
-653.857	210.350	-0.267	-0.422
-652.843	-52.565	-0.625	-0.291
-651.828	-188.926	0.544	0.007
-650.814	800.000	-0.347	1.229
-649.799	112.905	0.178	-0.218
-648.784	-103.212	-0.332	-0.079
-647.770	4.543	-0.154	-0.114
-646.755	-64.821	-0.694	0.283
-645.741	76.679	-0.192	-0.205
-644.726	800.000	0.210	-0.599
-643.711	14.380	-0.217	-0.171
-642.697	9.598	0.416	0.318
-641.682	-72.971	-0.195	-0.072
-640.668	372.521	-0.568	-1.163
-639.653	-74.505	0.502	0.182
-638.638	265.710	0.300	-0.527
-637.624	606.795	-0.234	0.587
-636.609	-200.000	0.229	1.099
-635.595	-103.147	-0.150	0.036
-634.580	-32.664	-0.893	-0.500
-633.565	21.590	-0.442	-0.362
-632.551	-149.624	-0.197	0.016
-631.536	-200.000	-0.051	-0.355
-630.522	43.419	0.626	-0.576
-629.507	28.103	0.166	0.141
-628.492	-57.196	0.475	-0.210
-627.478	800.000	0.109	-0.395
-626.463	-6.315	-0.460	0.316
-625.449	262.877	0.284	0.497
-624.434	-22.531	-0.844	0.514
-623.419	6.340	0.459	-0.343
-622.405	246.298	-0.413	-0.701
-621.390	298.309	-0.742	-1.374
-620.376	-7.958	-0.423	0.287
-619.361	-130.079	0.814	0.112
-618.346	-58.966	-0.647	0.281
-617.332	191.042	-0.032	0.049
-616.317	96.815	0.467	-0.538
-615.303	306.785	-0.087	-0.163
-614.288	25.305	-0.252	-0.210
-613.273	450.304	-0.388	0.863
-612.259	649.176	0.451	1.162
-611.244	319.825	0.203	-0.388
-610.230	631.236	-0.096	-0.244
-609.215	-200.000	0.006	0.027
-608.201	544.418	0.143	-0.343
-607.186	-71.152	-0.311	0.118
-606.171	-53.434	-0.564	0.260
-605.157	-108.648	-0.548	0.118
-604.142	-123.233	-0.658	-0.106
-603.128	-116.000	-0.362	0.068
-602.113	133.515	0.521	-0.678
-601.098	800.000	0.199	-0.559
-600.084	310.248	0.403	-0.758
-599.069	105.271	-0.208	0.246
-598.055	516.632	-0.146	-0.343
-597.040	-200.000	-0.045	0.320
-596.025	-27.090	0.386	0.226
-595.011	-1.266	-0.672	0.477
-593.996	308.820	0.243	0.457
-592.982	-200.000	0.164	0.817
-591.967	-19.082	0.240	0.150
-590.952	12.180	-0.430	-0.333
-589.938	-200.000	0.136	-0.823
-588.923	-62.256	-0.435	0.182
-587.909	-200.000	0.038	-0.394
-586.894	-200.000	-0.000	-0.330
-585.879	421.022	-0.233	-0.502
-584.865	-64.138	0.596	0.245
-583.850	25.770	-0.305	-0.256
-582.836	81.360	-0.428	0.465
-581.821	56.268	-0.255	-0.249
-580.806	-65.590	-0.245	-0.099
-579.792	-15.038	-0.774	-0.498
-578.777	-119.789	0.126	0.022
-577.763	-144.174	0.757	-0.071
-576.748	21.186	-0.352	0.287
-575.733	-34.009	0.367	0.203
-574.719	800.000	0.104	-0.296
-573.704	-35.452	0.514	-0.281
-572.690	-6.775	0.820	0.560
-571.675	214.592	-0.132	0.210
-570.661	-200.000	-0.110	0.612
-569.646	40.946	-0.679	0.616
-568.631	-149.109	-0.324	-0.026
-567.617	-65.886	-0.428	-0.172
-566.602	487.834	-0.145	0.333
-565.588	800.000	0.180	-0.736
-564.573	29.583	-0.878	0.750
-563.558	94.248	-0.103	-0.117
-562.544	-65.104	0.727	0.294
-561.529	-130.060	-0.382	0.052
-560.515	800.000	0.012	-0.053
-559.500	-161.968	-0.299	0.015
-558.485	-79.149	-0.420	-0.143
-557.471	14.358	-0.292	0.228
-556.456	43.119	0.085	-0.078
-555.442	800.000	0.185	-0.744
-554.427	-79.386	0.262	0.089
-553.412	800.000	-0.310	-1.009
-552.398	-200.000	-0.033	-1.049
-551.383	173.499	-0.189	0.274
-550.369	26.054	-0.486	-0.407
-549.354	22.058	-0.127	-0.104
-548.339	104.566	0.417	0.493
-547.325	-127.030	-0.867	-0.128
-546.310	65.739	-0.742	-0.754
-545.296	694.799	0.152	0.400
-544.281	-200.000	-0.023	-0.282
-543.266	-200.000	-0.063	0.432
-542.252	354.462	-0.186	-0.372
-541.237	407.470	-0.211	-0.447
-540.223	-68.515	0.581	-0.226
-539.208	143.921	-0.209	0.280
-538.193	263.495	-0.584	1.019
-537.179	101.391	0.062	-0.072
-536.164	-60.517	-0.315	-0.134
-535.150	-9.874	-0.090	-0.060
-534.135	-96.873	0.681	0.179
-533.121	-143.514	-0.931	-0.089
-532.106	90.795	0.677	-0.761
-531.091	800.000	-0.121	0.383
-530.077	64.304	0.354	-0.358
-529.062	-34.567	0.107	-0.059
-528.048	-200.000	-0.018	0.290
-527.033	-200.000	0.198	1.261
-526.018	-97.399	-0.681	-0.178
-525.004	800.000	0.061	0.212
-523.989	100.593	0.747	-0.870
-522.975	-45.608	0.531	0.264
-521.960	-61.522	-0.467	0.197
-520.945	800.000	0.217	0.695
-519.931	81.600	-0.253	-0.274
-518.916	285.189	0.329	0.595
-517.902	-200.000	0.017	0.202
-516.887	188.890	-0.180	-0.270
-515.872	-106.205	0.217	-0.049
-514.858	163.315	-0.482	-0.679
-513.843	800.000	-0.112	-0.326
-512.829	-200.000	-0.036	0.435
-511.814	205.405	0.326	0.507
-510.799	694.331	0.184	0.483
-509.785	-129.726	0.305	0.042
-508.770	-200.000	0.020	-0.119
-507.756	314.490	-0.129	0.243
-506.741	-124.985	0.582	-0.090
-505.726	29.042	0.139	-0.119
-504.712	20.378	-0.294	-0.238
-503.697	-71.024	-0.348	-0.131
-502.683	162.525	0.115	-0.162
-501.668	-15.280	0.099	0.064
-500.653	105.017	0.143	0.169
-499.639	-59.309	-0.708	0.305
-498.624	7.314	-0.704	0.527
-497.610	559.623	-0.129	0.311
-496.595	63.324	-0.523	0.525
-495.581	0.032	-0.938	0.669
-494.566	-47.931	0.111	-0.054
-493.551	9.136	-0.070	-0.053
-492.537	-53.512	-0.179	-0.082
-491.522	39.486	0.365	-0.328
-490.508	800.000	-0.211	0.637
-489.493	239.913	0.459	0.766
-488.478	-200.000	0.039	0.275
-487.464	-67.078	0.796	-0.314
-486.449	-29.949	0.366	-0.208
-485.435	43.654	0.284	0.260
-484.420	-200.000	0.016	0.367
-483.405	-200.000	0.143	0.742
-482.391	18.178	0.369	0.295
-481.376	-200.000	0.058	-0.428
-480.362	305.853	0.325	-0.605
-479.347	-160.505	0.632	-0.034
-478.332	-63.487	0.528	0.217
-477.318	-89.011	0.658	0.195
-476.303	800.000	-0.125	0.414
-475.289	800.000	0.196	-0.582
-474.274	-92.024	-0.422	0.119
-473.259	88.291	-0.695	0.772
-472.245	-170.045	-0.823	0.029
-471.230	-118.841	-0.219	0.038
-470.216	800.000	-0.123	0.356
-469.201	800.000	0.161	-0.512
-468.186	414.736	0.350	0.746
-467.172	-200.000	-0.091	0.549
-466.157	40.537	0.410	-0.369
-465.143	-200.000	-0.198	-1.094
-464.128	-78.204	1.040	-0.358
-463.113	-65.103	0.908	-0.366
-462.099	-148.679	-0.439	0.036
-461.084	-118.169	-0.538	0.096
-460.070	584.220	0.235	-0.577
-459.055	-158.128	0.388	-0.023
-458.040	-200.000	-0.070	-0.348
-457.026	-81.599	-0.102	0.034
-456.011	137.595	-0.049	-0.065
-454.997	342.095	-0.152	0.297
-453.982	-118.755	0.526	0.093
-452.968	-88.943	-0.445	0.132
-451.953	380.072	-0.272	0.558
-450.938	36.350	-0.359	0.317
-449.924	-200.000	-0.127	-0.893
-448.909	240.591	0.187	-0.311
-447.895	-200.000	0.022	0.212
-446.880	-200.000	0.068	0.688
-445.865	-200.000	-0.077	0.400
-444.851	35.612	-0.429	0.376
-443.836	-115.772	0.899	0.168
-442.822	-200.000	0.042	0.364
-441.807	-200.000	-0.007	0.320
-440.792	-153.310	0.344	-0.024
-439.778	771.429	0.111	-0.301
-438.763	225.975	-0.266	0.432
-437.749	-93.893	0.531	-0.146
-436.734	29.851	0.544	0.463
-435.719	-131.586	0.631	0.083
-434.705	-200.000	0.021	0.412
-433.690	-149.363	0.431	0.034
-432.676	165.028	0.644	-0.909
-431.661	-22.532	-0.384	0.232
-430.646	-200.000	-0.060	-0.302
-429.632	-69.530	-0.902	0.345
-428.617	-181.795	0.685	-0.013
-427.603	126.229	0.500	0.632
-426.588	-200.000	-0.029	0.362
-425.573	101.524	-0.601	-0.700
-424.559	-114.399	0.348	0.067
-423.544	186.102	-0.028	-0.041
-422.530	65.411	-0.219	-0.221
-421.515	6.488	0.315	-0.234
-420.500	-159.684	-0.937	0.052
-419.486	-115.596	-0.755	0.142
-418.471	64.565	0.545	-0.549
-417.457	-174.261	0.563	0.016
-416.442	-12.781	0.328	-0.214
-415.428	800.000	-0.181	-0.649
-414.413	183.665	-0.095	0.140
-413.398	-188.466	-0.833	-0.010
-412.384	-200.000	0.020	-0.538
-411.369	19.274	0.392	0.314
-410.355	198.049	0.556	0.849
-409.340	-47.709	0.434	-0.210
-408.325	-200.000	0.180	0.950
-407.311	56.768	0.135	-0.131
-406.296	-105.964	0.731	0.164
-405.282	268.856	0.356	0.623
-404.267	-200.000	0.158	0.746
-403.252	-200.000	-0.052	-0.254
-402.238	619.625	-0.189	0.475
-401.223	-3.804	-0.650	0.450
-400.209	395.636	-0.029	0.061
-399.194	800.000	0.268	0.891
-398.179	509.522	-0.292	0.677
-397.165	-59.752	-0.324	-0.138
-396.150	175.287	-0.222	0.320
-395.136	-68.465	0.094	0.036
-394.121	610.928	-0.129	0.322
-393.106	25.766	-0.135	-0.112
-392.092	-62.497	-0.088	-0.036
-391.077	134.573	-0.444	-0.574
-390.063	-133.040	-0.570	-0.072
-389.048	300.248	0.311	-0.572
-388.033	105.569	0.157	-0.185
-387.019	-51.530	-0.587	0.273
-386.004	-106.396	0.182	0.041
-384.990	40.020	-0.626	-0.561
-383.975	-122.863	-0.584	-0.094
-382.960	-200.000	0.055	-0.531
-381.946	-160.167	-0.498	-0.027
-380.931	800.000	-0.163	0.598
-379.917	43.133	0.534	-0.485
-378.902	448.822	0.271	0.595
-377.888	800.000	0.117	-0.379
-376.873	-76.767	-0.408	0.142
-375.858	-100.705	0.615	0.151
-374.844	138.121	-0.224	-0.293
-373.829	298.873	0.556	-1.019
-372.815	59.948	-0.285	0.280
-371.800	-200.000	-0.071	0.389
-370.785	-179.507	0.044	-0.001
-369.771	478.612	-0.220	-0.497
-368.756	800.000	0.222	-0.615
-367.742	375.922	0.374	-0.760
-366.727	-102.074	0.585	0.140
-365.712	22.021	-0.811	0.659
-364.698	123.292	0.281	0.351
-363.683	107.897	-0.244	0.290
-362.669	-200.000	0.009	-0.468
-361.654	0.209	-0.791	-0.562
-360.639	-87.075	0.724	0.219
-359.625	-200.000	0.022	-0.759
-358.610	-24.228	-0.027	0.016
-357.596	-24.746	0.798	-0.473
-356.581	-87.703	0.321	-0.096
-355.566	183.380	-0.264	-0.389
-354.552	800.000	-0.162	-0.500
-353.537	-74.179	-1.520	0.548
-352.523	-48.967	-0.304	-0.145
-351.508	800.000	0.192	-0.555
-350.493	-164.073	-0.675	-0.031
-349.479	-172.198	0.610	-0.020
-348.464	186.021	0.545	-0.807
-347.450	84.578	0.280	0.305
-346.435	297.509	0.120	-0.220
-345.420	-43.088	0.330	0.166
-344.406	264.421	-0.373	-0.646
-343.391	291.549	0.147	0.267
-342.377	251.093	0.562	0.952
-341.362	-163.712	-0.855	0.040
-340.348	-66.051	-0.639	-0.254
-339.333	-18.353	-0.266	-0.166
-338.318	-141.273	1.098	-0.111
-337.304	122.319	0.112	-0.139
-336.289	44.807	0.680	-0.622
-335.275	-67.238	0.292	0.115
-334.260	-43.179	0.661	-0.333
-333.245	-41.693	0.401	-0.205
-332.231	-200.000	-0.007	0.533
-331.216	49.985	0.243	-0.229
-330.202	13.365	0.561	-0.432
-329.187	-200.000	-0.073	-0.343
-328.172	-200.000	0.067	0.767
-327.158	-200.000	0.006	0.630
-326.143	151.773	-0.313	-0.424
-325.129	-200.000	-0.139	0.672
-324.114	484.427	0.259	0.586
-323.099	-9.600	-0.410	0.272
-322.085	-149.868	-0.865	-0.067
-321.070	-200.000	0.096	-0.515
-320.056	102.689	-0.543	0.632
-319.041	328.357	-0.220	0.421
-318.026	-71.509	0.455	-0.169
-317.012	-126.373	0.353	0.052
-315.997	-101.389	-0.455	0.110
-314.983	-200.000	0.110	-0.913
-313.968	-178.721	-0.738	-0.017
-312.953	-200.000	-0.064	0.319
-311.939	-89.510	0.490	-0.143
-310.924	-40.613	0.536	-0.276
-309.910	-142.265	-0.408	-0.040
-308.895	-200.000	-0.092	0.543
-307.880	121.222	0.233	-0.289
-306.866	39.919	-0.679	-0.607
-305.851	265.451	-0.132	0.229
-304.837	-200.000	0.023	0.541
-303.822	32.877	-0.183	-0.157
-302.807	800.000	-0.230	0.736
-301.793	267.205	-0.622	1.081
-300.778	8.414	0.138	-0.103
-299.764	-55.889	-0.641	0.284
-298.749	-137.693	0.525	0.059
-297.735	2.634	-0.391	0.282
-296.720	181.719	-0.250	0.365
-295.705	417.578	-0.294	0.625
-294.691	-13.101	-0.718	-0.464
-293.676	-79.471	1.122	0.377
-292.662	233.367	-0.264	0.431
-291.647	-200.000	-0.052	0.485
-290.632	449.312	0.344	0.753
-289.618	-79.282	0.444	0.149
-288.603	42.306	-0.534	-0.482
-287.589	11.139	0.609	-0.463
-286.574	653.623	0.104	-0.266
-285.559	63.294	-0.268	-0.267
-284.545	185.448	-0.626	-0.923
-283.530	-156.031	0.989	-0.062
-282.516	800.000	0.168	-0.582
-281.501	-89.848	0.447	0.130
-280.486	54.255	-0.088	-0.084
-279.472	-109.546	-0.377	0.079
-278.457	800.000	0.163	0.479
-277.443	-200.000	-0.046	-0.308
-276.428	94.926	-0.313	-0.353
-275.413	800.000	0.225	0.827
-274.399	-200.000	0.025	-0.433
-273.384	-200.000	0.023	-0.460
-272.370	222.165	0.677	-1.081
-271.355	800.000	0.171	-0.645
-270.340	800.000	0.340	-1.088
-269.326	73.093	-0.322	-0.334
-268.311	800.000	0.167	0.661
-267.297	163.808	-0.474	0.662
-266.282	-79.208	0.699	0.235
-265.267	85.457	-0.675	-0.736
-264.253	-63.096	0.460	0.189
-263.238	-200.000	-0.064	0.433
-262.224	307.665	-0.443	0.819
-261.209	-37.597	-0.632	-0.335
-260.195	436.839	-0.122	-0.263
-259.180	80.379	0.259	0.277
-258.165	171.090	0.419	-0.596
-257.151	-146.626	-0.724	0.062
-256.136	294.172	0.326	-0.592
-255.122	-55.036	0.239	-0.107
-254.107	-122.823	-0.722	-0.116
-253.092	-97.551	0.052	0.013
-252.078	121.200	-0.360	-0.444
-251.063	-72.132	1.154	0.425
-250.049	40.774	0.332	0.297
-249.034	493.284	0.177	0.403
-248.019	512.680	0.050	-0.116
-247.005	-18.141	-0.639	0.397
-245.990	24.939	-0.341	-0.281
-244.976	240.727	0.308	-0.510
-243.961	70.950	0.321	0.330
-242.946	5.617	0.372	0.273
-241.932	800.000	0.180	0.547
-240.917	58.108	0.483	-0.469
-239.903	61.194	-0.562	-0.554
-238.888	580.439	0.079	-0.191
-237.873	-116.123	-0.614	0.113
-236.859	80.279	0.352	-0.375
-235.844	68.352	-0.090	0.091
-234.830	-200.000	0.005	0.119
-233.815	-200.000	-0.104	-0.518
-232.800	800.000	0.426	1.175
-231.786	365.002	-0.348	-0.695
-230.771	800.000	-0.169	0.532
-229.757	-136.018	0.724	0.084
-228.742	38.945	-0.685	0.607
-227.727	5.279	0.702	-0.513
-226.713	311.794	0.201	-0.374
-225.698	-200.000	-0.045	-0.887
-224.684	155.027	-0.340	-0.463
-223.669	-200.000	0.129	1.305
-222.655	-200.000	-0.090	0.615
-221.640	-39.893	-0.179	-0.093
-220.625	77.819	0.315	0.332
-219.611	-200.000	-0.028	0.180
-218.596	-200.000	0.058	-0.912
-217.582	-4.264	-0.434	0.298
-216.567	-97.855	-0.545	-0.140
-215.552	8.915	0.448	-0.335
-214.538	800.000	0.212	-0.657
-213.523	153.757	-0.385	0.522
-212.509	-102.186	-0.473	-0.113
-211.494	-70.229	0.374	0.141
-210.479	-35.613	0.330	-0.178
-209.465	312.307	-0.178	-0.330
-208.450	-46.494	0.368	0.179
-207.436	-200.000	0.043	-0.740
-206.421	99.245	0.821	-0.940
-205.406	89.275	0.220	-0.243
-204.392	-200.000	-0.041	0.434
-203.377	-200.000	-0.051	-0.563
-202.363	29.219	-0.580	-0.487
-201.348	-200.000	-0.021	-0.522
-200.333	-96.111	0.882	-0.232
-199.319	800.000	0.291	0.967
-198.304	107.282	-0.307	0.361
-197.290	264.607	0.338	0.583
-196.275	-79.869	0.568	0.189
-195.260	-93.215	-0.469	0.129
-194.246	-121.915	-0.362	-0.059
-193.231	-6.593	-0.514	0.346
-192.217	-94.061	0.505	0.137
-191.202	36.756	-0.072	-0.063
-190.187	585.362	0.289	0.704
-189.173	-69.121	0.180	0.068
-188.158	-97.247	0.147	0.038
-187.144	115.163	-0.048	0.058
-186.129	82.486	-0.637	-0.684
-185.114	-128.913	-0.801	-0.111
-184.100	-0.521	-0.860	0.604
-183.085	-75.939	0.169	0.059
-182.071	-47.831	-0.538	-0.258
-181.056	-140.061	0.216	-0.023
-180.042	85.487	0.078	-0.085
-179.027	-46.446	0.623	0.303
-178.012	-200.000	0.037	0.274
-176.998	-142.139	0.371	-0.036
-175.983	-6.032	0.238	-0.161
-174.969	88.790	0.342	-0.376
-173.954	-67.323	0.679	0.264
-172.939	332.894	0.269	0.515
-171.925	-85.504	0.544	-0.167
-170.910	-91.336	-0.386	0.109
-169.896	232.192	-0.221	0.359
-168.881	598.748	-0.181	-0.443
-167.866	-200.000	-0.026	-0.304
-166.852	-200.000	0.064	0.839
-165.837	800.000	0.128	-0.480
-164.823	-190.403	0.353	-0.004
-163.808	-34.760	0.262	0.141
-162.793	-88.009	-0.026	0.008
-161.779	-112.395	0.753	-0.149
-160.764	-118.387	0.300	-0.053
-159.750	800.000	0.114	-0.312
-158.735	-30.878	-0.473	0.264
-157.720	800.000	0.133	0.489
-156.706	-99.432	-0.528	0.131
-155.691	177.883	-0.143	0.206
-154.677	-111.967	0.574	0.114
-153.662	-95.733	0.571	-0.151
-152.647	-7.288	0.642	-0.430
-151.633	-200.000	0.266	-0.001
-150.618	-56.826	0.509	0.222
-149.604	65.980	0.257	-0.258
-148.589	-189.425	0.817	0.009
-147.574	54.524	-0.499	-0.475
-146.560	238.443	0.277	-0.455
-145.545	-113.265	-0.408	0.079
-144.531	-200.000	0.077	-0.677
-143.516	800.000	0.143	0.424
-142.502	800.000	0.237	0.886
-141.487	-114.564	0.190	0.036
-140.472	-194.548	-0.556	-0.004
-139.458	321.200	0.210	-0.394
-138.443	-130.905	0.279	0.037
-137.429	313.997	0.162	0.302
-136.414	157.498	-0.431	-0.590
-135.399	421.863	-0.164	0.349
-134.385	-200.000	0.021	-0.424
-133.370	117.930	-0.433	-0.527
-132.356	12.470	0.515	-0.392
-131.341	-80.764	0.543	-0.178
-130.326	-114.675	-0.940	-0.178
-129.312	-200.000	0.072	-0.318
-128.297	800.000	0.141	0.528
-127.283	158.937	0.405	-0.555
-126.268	-35.133	0.242	-0.130
-125.253	-161.076	-0.555	-0.029
-124.239	289.594	0.109	0.196
-123.224	-7.322	0.227	-0.151
-122.210	-200.000	-0.025	-0.139
-121.195	-4.891	0.169	0.115
-120.180	263.572	-0.068	-0.116
