DTS Sentinel unit serial number:	SN413079Multiplexer serial number:	ORYXHardware model number:	OX4-SRSoftware version number:	ORYX F/W v4.00 Oryx Data Collector v3.7.2.0data status	okinstallation	princeton_trtdifferential loss correction	single-endedforward channel	channel 1reverse channel	N/Adate	2019/09/14time	23:18:35forward acquisition time	60.00reverse acquisition time	0.00gamma	496.2192k internal	0.2320k external	0.2320temperature offset calibration	0.9996default loss term (dB/km)	0.3790temperature slope calibration	1.0000multiplexer offset coefficient	1.0000multiplexer slope coefficient	1.0000fibre end	0.00T internal ref (°C)	32.37T ext. ref 1 (°C)	4.66T ext. ref 2 (°C)	27.37length (m)	temperature (°C)	Stokes	anti-Stokes-747.200	101.527	0.154	0.181
-746.185	65.181	-0.211	0.216
-745.171	211.498	0.185	0.295
-744.156	-133.694	-0.566	0.071
-743.142	151.910	0.066	-0.091
-742.127	93.408	0.155	0.178
-741.112	31.184	-0.118	-0.102
-740.098	-200.000	-0.028	0.146
-739.083	800.000	0.068	0.236
-738.069	164.218	-0.092	0.131
-737.054	-200.000	0.102	0.483
-736.039	239.861	-0.229	-0.386
-735.025	534.527	0.097	0.233
-734.010	-108.130	-0.531	-0.116
-732.996	163.792	0.164	-0.233
-731.981	800.000	0.035	-0.102
-730.966	418.655	0.124	-0.267
-729.952	-100.123	-0.352	-0.089
-728.937	124.387	-0.210	-0.267
-727.923	-69.163	-0.118	0.046
-726.908	32.792	0.214	-0.187
-725.894	800.000	-0.096	0.333
-724.879	23.688	-0.070	-0.058
-723.864	-152.062	-0.194	-0.014
-722.850	-200.000	-0.129	-0.626
-721.835	-200.000	0.040	-0.274
-720.821	317.372	-0.091	-0.174
-719.806	800.000	-0.086	-0.245
-718.791	800.000	-0.220	-0.671
-717.777	622.064	0.097	0.247
-716.762	480.500	0.172	-0.395
-715.748	-192.259	-0.340	-0.003
-714.733	502.115	-0.156	-0.364
-713.718	624.567	0.052	0.132
-712.704	-200.000	0.041	-0.237
-711.689	-124.799	-0.094	-0.015
-710.675	800.000	-0.087	-0.313
-709.660	-200.000	-0.071	-0.342
-708.645	135.212	-0.163	-0.214
-707.631	-146.329	0.200	0.018
-706.616	44.713	-0.046	-0.043
-705.602	-126.810	0.171	-0.026
-704.587	67.692	-0.168	-0.173
-703.572	460.314	0.073	-0.164
-702.558	-101.983	0.152	0.037
-701.543	-83.890	0.158	0.051
-700.529	-200.000	0.004	0.295
-699.514	-200.000	0.011	0.249
-698.499	-97.560	-0.365	0.096
-697.485	519.855	0.046	-0.110
-696.470	800.000	-0.005	0.018
-695.456	-72.106	-0.148	-0.055
-694.441	64.823	-0.054	0.055
-693.426	-36.508	-0.334	-0.182
-692.412	464.722	0.092	-0.208
-691.397	54.038	0.135	0.131
-690.383	-200.000	0.074	-0.340
-689.368	297.552	-0.033	-0.061
-688.354	-186.029	-0.156	-0.002
-687.339	553.326	-0.070	0.171
-686.324	231.038	0.116	0.191
-685.310	141.950	-0.240	0.320
-684.295	99.799	0.141	-0.165
-683.281	-13.302	-0.283	-0.185
-682.266	609.142	-0.052	-0.131
-681.251	180.532	-0.117	-0.173
-680.237	658.898	-0.086	-0.222
-679.222	-14.993	0.143	-0.093
-678.208	8.049	0.199	0.151
-677.193	-47.827	-0.216	0.106
-676.178	-154.158	-0.149	0.010
-675.164	-39.600	-0.349	-0.184
-674.149	448.649	0.135	0.299
-673.135	800.000	0.109	0.315
-672.120	94.457	0.260	-0.298
-671.105	-200.000	-0.046	-0.264
-670.091	-91.907	-0.111	-0.032
-669.076	11.787	-0.255	0.198
-668.062	-200.000	0.018	0.182
-667.047	410.476	0.037	0.079
-666.032	120.943	0.193	-0.242
-665.018	423.468	0.030	0.066
-664.003	-147.111	0.213	-0.018
-662.989	-43.196	-0.240	0.122
-661.974	-200.000	0.017	-0.157
-660.959	-9.756	0.171	0.115
-659.945	335.005	0.259	0.506
-658.930	-22.135	-0.196	-0.120
-657.916	-160.658	-0.259	0.014
-656.901	127.082	0.108	0.139
-655.886	800.000	0.041	-0.160
-654.872	-145.267	-0.422	0.038
-653.857	201.727	-0.085	0.133
-652.843	51.461	0.118	-0.113
-651.828	39.270	-0.320	0.289
-650.814	800.000	0.042	-0.149
-649.799	-122.499	0.192	-0.031
-648.784	550.331	-0.166	-0.400
-647.770	-169.190	0.213	-0.008
-646.755	39.473	-0.371	0.335
-645.741	405.853	-0.013	0.028
-644.726	-120.477	-0.405	0.069
-643.711	-200.000	0.010	-0.149
-642.697	-200.000	0.017	0.189
-641.682	54.580	0.184	-0.179
-640.668	-76.139	0.365	0.130
-639.653	33.972	-0.095	0.083
-638.638	-23.551	-0.104	-0.063
-637.624	-200.000	0.029	-0.137
-636.609	-123.588	-0.193	0.031
-635.595	66.540	0.105	0.107
-634.580	171.358	-0.192	0.278
-633.565	57.594	-0.160	-0.157
-632.551	800.000	0.042	0.120
-631.536	-81.312	-0.313	-0.104
-630.522	-200.000	-0.005	-0.134
-629.507	-107.815	-0.246	0.054
-628.492	-200.000	-0.035	-0.390
-627.478	683.801	-0.061	-0.161
-626.463	-98.714	-0.182	0.047
-625.449	199.573	0.127	0.196
-624.434	-67.291	-0.081	0.032
-623.419	-200.000	-0.022	-0.110
-622.405	-77.953	-0.169	0.059
-621.390	-200.000	0.011	0.339
-620.376	-159.096	0.128	-0.007
-619.361	-139.753	-0.223	0.024
-618.346	2.990	0.242	-0.177
-617.332	-25.547	0.118	0.070
-616.317	-200.000	0.038	0.345
-615.303	114.222	0.103	-0.126
-614.288	-39.903	-0.090	-0.048
-613.273	353.891	-0.149	0.298
-612.259	-15.473	-0.236	-0.151
-611.244	-90.443	-0.355	0.104
-610.230	-26.858	-0.283	-0.166
-609.215	54.429	0.327	-0.317
-608.201	-188.188	0.208	-0.003
-607.186	-72.028	0.286	-0.107
-606.171	-200.000	-0.008	0.081
-605.157	157.015	-0.159	0.221
-604.142	-200.000	-0.007	-0.092
-603.128	-17.580	-0.264	-0.167
-602.113	-200.000	-0.011	-0.234
-601.098	-110.052	-0.255	0.054
-600.084	51.070	0.006	-0.006
-599.069	111.552	0.073	0.089
-598.055	30.127	0.131	-0.112
-597.040	-125.275	0.157	0.024
-596.025	553.750	-0.155	0.375
-595.011	800.000	0.067	0.226
-593.996	-116.619	0.317	0.059
-592.982	-69.121	0.098	-0.038
-591.967	286.590	0.036	-0.065
-590.952	-200.000	-0.035	-0.344
-589.938	-200.000	-0.027	-0.343
-588.923	-200.000	-0.046	-0.294
-587.909	-159.737	-0.228	0.013
-586.894	800.000	0.051	-0.152
-585.879	-29.282	-0.207	-0.119
-584.865	-0.669	-0.086	0.061
-583.850	800.000	0.022	0.070
-582.836	46.680	-0.129	-0.120
-581.821	-200.000	-0.026	-0.342
-580.806	208.028	-0.101	0.158
-579.792	2.111	0.124	0.090
-578.777	800.000	0.108	-0.356
-577.763	-80.047	-0.170	-0.057
-576.748	-116.376	0.141	-0.026
-575.733	218.210	-0.101	0.162
-574.719	-92.085	-0.090	-0.026
-573.704	800.000	-0.090	-0.362
-572.690	-200.000	-0.328	0.001
-571.675	216.011	-0.012	0.019
-570.661	-200.000	0.007	-0.537
-569.646	269.350	0.079	-0.139
-568.631	-114.957	0.373	0.071
-567.617	-91.809	0.128	-0.036
-566.602	-200.000	0.018	0.105
-565.588	53.170	-0.094	0.090
-564.573	800.000	-0.049	0.187
-563.558	257.998	0.038	-0.065
-562.544	394.466	0.112	-0.234
-561.529	-56.709	-0.039	0.017
-560.515	800.000	-0.054	0.202
-559.500	162.717	-0.104	0.147
-558.485	-131.238	-0.075	0.010
-557.471	-200.000	-0.093	-0.507
-556.456	-122.411	0.281	0.046
-555.442	-114.374	-0.098	-0.019
-554.427	235.614	0.154	0.256
-553.412	51.522	0.035	-0.034
-552.398	-200.000	-0.003	-0.043
-551.383	-200.000	-0.063	0.370
-550.369	210.789	0.123	0.194
-549.354	-64.729	0.236	-0.096
-548.339	-40.731	0.168	0.088
-547.325	-65.458	0.176	0.071
-546.310	-113.290	-0.236	-0.047
-545.296	-200.000	0.049	0.249
-544.281	520.078	0.039	-0.091
-543.266	-200.000	0.012	-0.379
-542.252	-200.000	0.014	-0.104
-541.237	-88.829	-0.261	-0.078
-540.223	345.499	-0.185	0.364
-539.208	800.000	0.062	-0.202
-538.193	800.000	-0.043	0.158
-537.179	-153.302	-0.178	-0.012
-536.164	800.000	0.052	0.166
-535.150	-88.669	-0.132	0.039
-534.135	-200.000	-0.039	-0.286
-533.121	546.138	0.040	-0.096
-532.106	-200.000	-0.017	0.258
-531.091	800.000	0.129	-0.359
-530.077	-200.000	0.009	-0.116
-529.062	-132.966	-0.097	0.012
-528.048	-200.000	-0.010	-0.140
-527.033	-200.000	0.008	0.125
-526.018	10.450	0.327	0.250
-525.004	-38.706	0.318	-0.168
-523.989	225.412	0.148	0.241
-522.975	756.763	0.035	0.094
-521.960	-200.000	0.010	-0.163
-520.945	-200.000	0.002	0.050
-519.931	33.423	-0.243	-0.212
-518.916	490.270	-0.098	0.225
-517.902	-100.452	-0.314	0.078
-516.887	800.000	0.020	0.060
-515.872	4.779	0.078	-0.057
-514.858	28.486	-0.158	-0.134
-513.843	-22.652	-0.206	-0.125
-512.829	-146.404	-0.112	0.010
-511.814	287.014	-0.234	0.423
-510.799	-154.446	-0.349	-0.023
-509.785	-47.912	0.264	-0.128
-508.770	144.967	0.235	-0.315
-507.756	-109.867	-0.381	0.080
-506.741	-200.000	0.011	-0.116
-505.726	-104.362	-0.036	-0.008
-504.712	-200.000	0.001	0.148
-503.697	-114.622	-0.229	0.044
-502.683	-200.000	0.014	-0.116
-501.668	188.288	0.112	0.167
-500.653	-200.000	0.038	0.299
-499.639	-162.538	-0.317	0.016
-498.624	-85.907	0.328	-0.102
-497.610	800.000	-0.079	-0.327
-496.595	608.193	-0.066	-0.166
-495.581	-97.306	0.188	0.049
-494.566	-200.000	-0.040	-0.182
-493.551	412.130	-0.069	0.147
-492.537	800.000	0.063	0.267
-491.522	-200.000	0.037	-0.345
-490.508	13.040	-0.179	0.139
-489.493	800.000	0.082	-0.233
-488.478	-131.931	-0.352	-0.046
-487.464	13.366	-0.084	0.066
-486.449	-200.000	0.013	-0.177
-485.435	-200.000	0.016	0.160
-484.420	-99.894	-0.141	-0.035
-483.405	800.000	-0.121	-0.342
-482.391	-145.487	0.234	0.021
-481.376	231.897	-0.115	-0.188
-480.362	87.350	0.073	0.081
-479.347	-200.000	-0.032	-0.256
-478.332	-99.228	-0.167	0.042
-477.318	-200.000	-0.006	0.308
-476.303	249.609	0.106	0.180
-475.289	76.763	0.185	-0.196
-474.274	-129.855	-0.124	0.017
-473.259	-200.000	-0.016	-0.210
-472.245	620.877	0.059	0.148
-471.230	216.031	-0.072	-0.115
-470.216	-2.689	-0.148	-0.104
-469.201	-200.000	-0.021	0.312
-468.186	-99.487	-0.060	-0.015
-467.172	800.000	-0.058	-0.165
-466.157	85.415	-0.130	0.142
-465.143	-200.000	-0.008	-0.096
-464.128	800.000	-0.085	0.271
-463.113	120.800	0.280	-0.348
-462.099	-93.983	-0.319	0.088
-461.084	-200.000	0.010	-0.117
-460.070	-112.775	-0.175	-0.035
-459.055	-94.057	-0.421	0.116
-458.040	-200.000	0.010	0.085
-457.026	10.943	0.361	0.276
-456.011	506.464	0.089	0.206
-454.997	16.411	0.131	0.103
-453.982	-67.450	0.393	0.154
-452.968	-40.417	-0.367	-0.191
-451.953	-67.573	0.219	-0.086
-450.938	-198.461	0.270	0.002
-449.924	-128.541	-0.329	-0.047
-448.909	-92.020	-0.151	0.043
-447.895	-48.220	-0.144	0.069
-446.880	-200.000	0.025	0.255
-445.865	195.016	-0.024	-0.036
-444.851	47.726	0.346	0.322
-443.836	-200.000	0.052	0.467
-442.822	-88.256	-0.257	0.077
-441.807	-200.000	-0.006	0.068
-440.792	800.000	-0.032	0.110
-439.778	-193.181	0.202	0.002
-438.763	-65.609	-0.169	-0.068
-437.749	-48.533	-0.100	0.048
-436.734	-200.000	0.009	0.224
-435.719	800.000	-0.052	0.162
-434.705	68.238	-0.177	0.181
-433.690	474.312	0.106	-0.240
-432.676	728.708	-0.027	0.072
-431.661	789.220	0.120	-0.329
-430.646	-124.480	-0.068	-0.011
-429.632	150.462	-0.152	0.206
-428.617	69.976	0.246	0.254
-427.603	-139.452	0.058	0.006
-426.588	263.592	-0.040	-0.069
-425.573	173.049	0.274	0.394
-424.559	56.189	-0.055	0.054
-423.544	-188.887	-0.233	0.003
-422.530	71.241	-0.148	0.153
-421.515	36.807	0.183	0.162
-420.500	-139.941	-0.206	0.022
-419.486	238.615	-0.180	-0.299
-418.471	186.123	0.056	-0.083
-417.457	-33.019	-0.124	0.068
-416.442	57.165	-0.333	0.324
-415.428	26.932	-0.111	-0.093
-414.413	78.938	0.020	-0.021
-413.398	-200.000	0.003	0.274
-412.384	600.760	0.071	-0.177
-411.369	-126.334	-0.181	0.027
-410.355	114.469	0.153	-0.187
-409.340	-121.666	0.092	-0.015
-408.325	28.949	-0.224	-0.190
-407.311	176.673	-0.115	-0.167
-406.296	-41.744	0.306	-0.157
-405.282	48.565	-0.016	0.015
-404.267	24.329	0.387	-0.319
-403.252	-56.874	0.181	-0.080
-402.238	252.131	0.160	0.272
-401.223	157.015	0.102	0.141
-400.209	800.000	0.047	-0.134
-399.194	-69.237	-0.110	0.042
-398.179	53.640	-0.193	-0.185
-397.165	303.678	0.050	-0.093
-396.150	-157.033	0.352	0.021
-395.136	-200.000	0.016	0.126
-394.121	297.599	0.115	-0.210
-393.106	524.191	-0.049	0.115
-392.092	-103.885	-0.138	-0.032
-391.077	-168.407	0.338	0.013
-390.063	-49.829	0.333	0.158
-389.048	800.000	-0.048	-0.159
-388.033	493.319	-0.084	0.192
-387.019	81.735	-0.224	-0.242
-386.004	-73.655	0.398	-0.144
-384.990	-37.855	-0.071	-0.037
-383.975	-89.570	0.187	-0.055
-382.960	-32.191	-0.240	0.134
-381.946	-73.067	0.318	0.116
-380.931	113.950	-0.094	0.114
-379.917	-23.401	-0.214	-0.128
-378.902	662.309	-0.035	-0.091
-377.888	-200.000	0.007	-0.429
-376.873	-200.000	0.000	-0.176
-375.858	-88.345	0.194	0.058
-374.844	530.452	0.046	0.108
-373.829	-200.000	0.115	0.533
-372.815	392.377	0.056	-0.116
-371.800	-153.895	-0.156	-0.011
-370.785	-200.000	-0.016	0.141
-369.771	-156.793	-0.040	-0.002
-368.756	-50.664	-0.046	0.022
-367.742	-200.000	-0.034	-0.393
-366.727	-200.000	0.013	-0.201
-365.712	-29.739	0.111	0.063
-364.698	-151.197	0.088	0.007
-363.683	-200.000	-0.022	0.134
-362.669	-63.363	0.226	0.093
-361.654	-200.000	0.011	0.181
-360.639	-130.803	0.379	0.051
-359.625	800.000	-0.140	-0.434
-358.610	-200.000	0.045	-0.262
-357.596	800.000	0.052	-0.186
-356.581	128.319	0.165	0.209
-355.566	115.953	0.108	0.132
-354.552	1.734	-0.366	-0.263
-353.537	-200.000	0.073	0.349
-352.523	-106.119	0.271	0.061
-351.508	-200.000	-0.011	-0.318
-350.493	91.432	0.090	0.101
-349.479	-67.960	0.189	0.073
-348.464	79.925	0.061	-0.066
-347.450	-200.000	-0.025	-0.166
-346.435	772.851	0.101	-0.274
-345.420	-14.958	-0.081	0.051
-344.406	244.134	-0.026	0.043
-343.391	58.784	-0.194	0.189
-342.377	-200.000	-0.025	-0.135
-341.362	-107.370	0.386	-0.084
-340.348	-200.000	-0.040	0.267
-339.333	-200.000	-0.017	0.114
-338.318	-200.000	-0.002	0.224
-337.304	-64.953	0.169	0.068
-336.289	5.129	0.156	0.114
-335.275	-105.361	-0.365	0.083
-334.260	421.576	0.099	-0.212
-333.245	-59.396	0.102	-0.044
-332.231	800.000	0.026	-0.094
-331.216	-127.553	-0.117	0.017
-330.202	4.023	0.289	-0.210
-329.187	203.089	-0.008	0.012
-328.172	71.749	0.165	-0.170
-327.158	-152.330	0.239	-0.017
-326.143	-99.743	-0.668	0.166
-325.129	192.398	-0.074	-0.111
-324.114	-23.606	-0.060	-0.036
-323.099	256.557	0.060	-0.103
-322.085	-129.883	-0.337	0.046
-321.070	-72.465	-0.152	0.056
-320.056	-142.486	0.056	0.005
-319.041	-149.505	0.095	-0.008
-318.026	-154.317	0.293	-0.020
-317.012	356.288	-0.172	0.340
-315.997	-148.516	-0.152	0.012
-314.983	-1.513	-0.070	-0.049
-313.968	-200.000	0.057	-0.255
-312.953	700.750	-0.104	0.272
-311.939	-128.454	-0.229	0.032
-310.924	105.376	-0.018	-0.021
-309.910	542.852	0.052	0.124
-308.895	-58.835	-0.217	0.093
-307.880	-200.000	0.026	0.221
-306.866	-200.000	-0.044	0.252
-305.851	117.960	-0.174	0.213
-304.837	-10.989	-0.175	0.115
-303.822	-66.474	-0.154	0.061
-302.807	-200.000	0.029	0.173
-301.793	220.060	0.028	0.045
-300.778	-200.000	-0.051	-0.569
-299.764	-111.532	0.201	0.041
-298.749	320.207	0.147	0.277
-297.735	80.969	-0.137	-0.147
-296.720	153.180	0.041	-0.056
-295.705	-70.543	0.130	0.049
-294.691	800.000	-0.114	0.486
-293.676	-159.195	0.074	-0.004
-292.662	-70.803	0.149	0.056
-291.647	144.013	0.120	-0.159
-290.632	233.412	-0.114	-0.187
-289.618	-200.000	0.073	-0.497
-288.603	-200.000	-0.080	-0.349
-287.589	12.665	0.450	-0.345
-286.574	-67.769	0.416	-0.162
-285.559	-159.000	0.329	-0.019
-284.545	-200.000	0.019	0.214
-283.530	-200.000	0.015	0.261
-282.516	174.328	0.093	-0.133
-281.501	343.910	-0.051	0.100
-280.486	239.375	0.097	-0.161
-279.472	105.714	-0.071	0.084
-278.457	243.656	-0.066	-0.109
-277.443	-157.724	-0.299	0.018
-276.428	-114.142	0.225	0.043
-275.413	205.233	0.231	-0.357
-274.399	-200.000	0.065	0.300
-273.384	7.671	0.115	-0.086
-272.370	800.000	0.069	-0.251
-271.355	-152.026	0.255	-0.018
-270.340	-90.716	0.096	0.027
-269.326	133.996	0.109	-0.140
-268.311	294.413	-0.114	-0.207
-267.297	360.128	0.077	-0.153
-266.282	-6.699	0.303	0.205
-265.267	-135.847	0.138	-0.016
-264.253	-200.000	-0.017	0.205
-263.238	242.782	0.149	0.248
-262.224	41.696	0.099	-0.089
-261.209	261.207	-0.031	-0.054
-260.195	100.119	0.065	0.075
-259.180	86.849	0.289	0.316
-258.165	163.271	-0.130	0.182
-257.151	-200.000	-0.012	0.416
-256.136	800.000	0.016	0.061
-255.122	12.103	-0.492	0.376
-254.107	800.000	0.021	-0.082
-253.092	-75.328	-0.200	0.071
-252.078	27.769	-0.153	0.128
-251.063	138.996	-0.232	-0.303
-250.049	458.379	0.144	0.318
-249.034	497.589	0.094	0.215
-248.019	154.112	-0.233	-0.317
-247.005	4.977	0.391	-0.286
-245.990	800.000	-0.072	-0.236
-244.976	37.126	-0.107	0.094
-243.961	13.814	-0.065	-0.050
-242.946	202.579	0.243	-0.372
-241.932	-200.000	-0.004	0.114
-240.917	-51.480	-0.273	-0.127
-239.903	-110.091	-0.341	0.071
-238.888	62.894	0.270	0.268
-237.873	163.609	0.047	0.066
-236.859	14.920	0.291	0.226
-235.844	493.663	-0.151	-0.343
-234.830	-156.531	0.103	-0.006
-233.815	-200.000	-0.048	0.348
-232.800	208.818	-0.075	-0.116
-231.786	-200.000	0.028	0.250
-230.771	-200.000	0.003	-0.016
-229.757	-83.823	-0.359	0.113
-228.742	-99.197	0.322	-0.081
-227.727	-57.629	-0.244	-0.106
-226.713	800.000	0.082	-0.254
-225.698	471.511	-0.007	0.015
-224.684	243.559	-0.115	-0.191
-223.669	-200.000	0.024	-0.219
-222.655	162.237	0.124	-0.172
-221.640	-77.518	-0.145	-0.050
-220.625	103.191	-0.132	0.154
-219.611	-200.000	-0.001	0.049
-218.596	-72.158	-0.143	-0.052
-217.582	-93.626	-0.259	0.071
-216.567	14.928	0.335	-0.260
-215.552	177.643	0.114	-0.164
-214.538	487.862	0.104	0.235
-213.523	-122.998	-0.098	-0.016
-212.509	-5.977	-0.382	-0.259
-211.494	-111.739	0.216	0.043
-210.479	14.387	-0.144	0.111
-209.465	228.278	-0.010	-0.016
-208.450	-135.432	-0.225	-0.027
-207.436	17.443	0.089	0.070
-206.421	66.132	-0.113	0.114
-205.406	217.730	-0.070	-0.111
-204.392	-200.000	0.044	0.299
-203.377	-15.430	-0.236	0.149
-202.363	-15.946	0.217	0.137
-201.348	800.000	0.070	-0.217
-200.333	-200.000	-0.028	-0.127
-199.319	-200.000	-0.014	-0.096
-198.304	61.338	-0.224	-0.221
-197.290	69.373	-0.267	0.272
-196.275	-50.824	-0.241	0.112
-195.260	-22.927	0.151	-0.090
-194.246	-47.130	0.215	0.104
-193.231	-200.000	0.003	0.051
-192.217	-200.000	0.024	0.158
-191.202	-41.365	0.127	-0.065
-190.187	85.959	-0.277	0.301
-189.173	-133.665	-0.240	-0.030
-188.158	-73.900	0.407	-0.146
-187.144	-84.511	-0.295	-0.092
-186.129	166.053	0.150	-0.210
-185.114	77.358	0.138	0.146
-184.100	800.000	0.045	0.193
-183.085	18.642	-0.232	-0.184
-182.071	301.424	-0.040	0.073
-181.056	267.096	-0.168	-0.290
-180.042	-29.241	0.368	0.209
-179.027	-42.330	0.145	-0.073
-178.012	29.827	0.070	-0.059
-176.998	492.624	0.068	0.154
-175.983	50.353	-0.210	-0.196
-174.969	-36.315	0.271	0.144
-173.954	-37.496	0.346	0.183
-172.939	133.509	0.208	-0.266
-171.925	234.485	-0.085	0.139
-170.910	3.639	0.276	0.199
-169.896	-200.000	-0.000	-0.008
-168.881	-132.118	0.316	0.041
-167.866	-12.195	0.295	-0.191
-166.852	3.981	0.169	-0.122
-165.837	-14.751	-0.201	0.128
-164.823	134.844	-0.099	-0.128
-163.808	99.038	-0.101	-0.116
-162.793	9.210	-0.124	-0.093
-161.779	185.664	0.132	0.195
-160.764	204.833	0.190	0.291
-159.750	-19.316	0.169	-0.103
-158.735	200.080	0.144	0.218
-157.720	183.232	0.152	0.222
-156.706	21.694	-0.198	0.159
-155.691	-154.061	0.055	-0.004
-154.677	-200.000	0.038	-0.305
-153.662	-24.933	-0.310	-0.182
-152.647	53.032	0.222	0.210
-151.633	-200.000	0.000	0.389
-150.618	-200.000	0.049	0.215
-149.604	-45.007	-0.230	-0.113
-148.589	49.449	-0.102	-0.094
-147.574	-64.024	-0.089	-0.036
-146.560	-81.406	-0.185	0.060
-145.545	-133.103	0.228	0.029
-144.531	34.057	0.325	0.280
-143.516	-55.650	0.190	-0.084
-142.502	137.492	0.055	-0.071
-141.487	142.351	0.073	-0.096
-140.472	468.048	0.113	-0.250
-139.458	427.346	-0.079	0.168
-138.443	175.110	0.079	0.112
-137.429	162.433	-0.104	-0.144
-136.414	-56.533	0.194	0.085
-135.399	-147.461	0.137	-0.011
-134.385	687.884	0.136	0.352
-133.370	70.786	0.080	-0.082
-132.356	6.161	-0.202	-0.148
-131.341	-63.703	-0.184	-0.075
-130.326	-200.000	-0.005	0.068
-129.312	-44.013	-0.097	0.048
-128.297	-163.410	0.229	0.011
-127.283	800.000	-0.173	-0.534
-126.268	-200.000	0.014	0.117
-125.253	-200.000	0.001	0.130
-124.239	354.201	0.044	0.086
-123.224	66.037	0.112	0.112
-122.210	77.767	-0.141	-0.148
