DTS Sentinel unit serial number:	SN413079Multiplexer serial number:	ORYXHardware model number:	OX4-SRSoftware version number:	ORYX F/W v4.00 Oryx Data Collector v3.7.2.0data status	okinstallation	princeton_trtdifferential loss correction	single-endedforward channel	channel 1reverse channel	N/Adate	2019/09/11time	21:20:11forward acquisition time	60.00reverse acquisition time	0.00gamma	496.2192k internal	0.2309k external	0.2309temperature offset calibration	1.0050default loss term (dB/km)	0.3790temperature slope calibration	1.0000multiplexer offset coefficient	1.0000multiplexer slope coefficient	1.0000fibre end	0.00T internal ref (°C)	36.23T ext. ref 1 (°C)	1.59T ext. ref 2 (°C)	30.09length (m)	temperature (°C)	Stokes	anti-Stokes-747.200	-83.293	0.157	-0.051
-746.185	800.000	-0.142	0.401
-745.171	800.000	0.057	0.218
-744.156	-118.185	-0.512	0.093
-743.142	-133.057	0.294	0.038
-742.127	-200.000	0.021	0.231
-741.112	200.732	0.143	-0.223
-740.098	614.675	-0.020	0.051
-739.083	-42.436	-0.280	0.145
-738.069	148.675	-0.162	0.223
-737.054	-133.891	0.172	0.022
-736.039	292.936	-0.078	0.145
-735.025	117.316	0.150	0.187
-734.010	208.548	-0.094	-0.150
-732.996	113.493	-0.156	0.192
-731.981	-200.000	-0.039	0.403
-730.966	-107.496	0.210	0.047
-729.952	-166.498	-0.176	-0.007
-728.937	-200.000	-0.005	-0.174
-727.923	-61.051	-0.226	0.097
-726.908	-200.000	-0.010	-0.283
-725.894	132.128	-0.054	-0.071
-724.879	-32.199	-0.244	-0.139
-723.864	58.588	-0.080	-0.079
-722.850	-200.000	-0.009	0.232
-721.835	-200.000	-0.033	-0.291
-720.821	-129.054	-0.186	0.026
-719.806	-10.378	-0.316	-0.213
-718.791	-26.809	0.151	0.089
-717.777	-200.000	-0.008	0.203
-716.762	615.537	-0.048	0.123
-715.748	378.464	0.028	0.059
-714.733	-183.245	-0.343	0.006
-713.718	-171.534	0.224	0.008
-712.704	-141.976	0.289	0.029
-711.689	61.535	-0.176	-0.177
-710.675	243.901	0.281	0.478
-709.660	-200.000	0.004	-0.226
-708.645	189.563	-0.105	-0.160
-707.631	800.000	-0.034	-0.116
-706.616	180.392	0.151	-0.225
-705.602	121.162	-0.103	0.131
-704.587	576.891	0.120	-0.298
-703.572	-200.000	-0.036	-0.166
-702.558	-81.252	0.112	-0.038
-701.543	459.501	0.208	-0.469
-700.529	130.245	-0.238	0.309
-699.514	103.165	-0.153	0.181
-698.499	800.000	-0.033	0.106
-697.485	25.982	-0.088	0.074
-696.470	-169.010	0.211	-0.008
-695.456	73.741	-0.019	0.020
-694.441	322.954	-0.055	0.107
-693.426	-23.787	0.139	0.085
-692.412	-31.672	0.039	0.022
-691.397	-200.000	-0.051	-0.411
-690.383	-86.053	-0.371	-0.116
-689.368	123.663	-0.012	-0.015
-688.354	-70.498	-0.199	0.077
-687.339	252.171	-0.170	0.293
-686.324	-73.320	0.126	-0.047
-685.310	52.831	-0.023	-0.022
-684.295	-52.142	0.264	-0.124
-683.281	800.000	-0.048	-0.178
-682.266	-200.000	-0.009	-0.236
-681.251	-50.703	-0.359	0.171
-680.237	266.619	-0.159	0.281
-679.222	303.063	-0.102	-0.192
-678.208	1.789	-0.069	0.051
-677.193	800.000	0.095	-0.420
-676.178	-128.962	-0.420	0.060
-675.164	-46.767	-0.261	0.129
-674.149	800.000	0.063	0.222
-673.135	-77.678	-0.168	0.059
-672.120	-200.000	-0.011	-0.114
-671.105	64.924	-0.284	0.290
-670.091	342.409	-0.046	-0.091
-669.076	136.390	0.160	-0.212
-668.062	-29.346	0.227	-0.132
-667.047	433.095	-0.055	-0.121
-666.032	-124.802	-0.189	-0.030
-665.018	-100.755	0.230	0.057
-664.003	-60.062	-0.296	0.128
-662.989	-200.000	0.005	0.218
-661.974	-200.000	0.056	0.301
-660.959	194.287	-0.133	-0.204
-659.945	202.675	0.047	0.074
-658.930	-200.000	-0.002	-0.247
-657.916	-187.794	0.300	-0.004
-656.901	-45.960	-0.228	-0.114
-655.886	97.208	-0.123	0.143
-654.872	125.284	0.141	0.181
-653.857	-75.769	0.316	-0.113
-652.843	800.000	-0.027	-0.086
-651.828	1.432	-0.276	-0.201
-650.814	363.961	-0.043	-0.088
-649.799	-28.708	0.196	-0.114
-648.784	197.039	-0.236	-0.365
-647.770	-200.000	0.011	0.242
-646.755	279.763	-0.168	0.304
-645.741	505.996	0.127	0.298
-644.726	-200.000	-0.059	-0.436
-643.711	19.909	0.131	-0.107
-642.697	516.908	-0.034	0.080
-641.682	25.973	0.295	-0.249
-640.668	454.751	0.068	-0.154
-639.653	299.785	0.152	-0.283
-638.638	77.162	-0.121	-0.130
-637.624	498.851	-0.025	0.059
-636.609	800.000	0.064	-0.236
-635.595	-57.971	-0.151	-0.067
-634.580	800.000	0.086	0.251
-633.565	-87.584	0.234	0.071
-632.551	166.654	0.053	0.076
-631.536	-200.000	0.036	0.219
-630.522	98.431	-0.171	0.199
-629.507	-155.665	-0.295	-0.019
-628.492	85.396	0.186	0.207
-627.478	-200.000	-0.025	-0.347
-626.463	-34.408	-0.169	0.094
-625.449	44.466	0.149	-0.138
-624.434	-33.537	0.132	0.074
-623.419	-43.852	-0.235	0.120
-622.405	717.521	-0.127	0.342
-621.390	-200.000	-0.054	0.465
-620.376	-70.927	-0.117	0.045
-619.361	-200.000	0.014	0.109
-618.346	83.392	-0.237	-0.261
-617.332	800.000	0.147	-0.477
-616.317	-47.600	-0.066	0.033
-615.303	800.000	-0.099	-0.386
-614.288	-135.019	0.063	0.008
-613.273	-4.450	-0.197	0.137
-612.259	-35.162	0.453	0.250
-611.244	246.781	0.185	0.316
-610.230	-18.170	-0.146	0.092
-609.215	-187.891	-0.082	0.001
-608.201	-51.391	-0.253	-0.120
-607.186	192.772	0.206	0.314
-606.171	800.000	-0.033	-0.124
-605.157	-9.962	0.155	0.104
-604.142	244.794	0.009	0.015
-603.128	-101.523	0.009	0.002
-602.113	-86.527	0.139	0.043
-601.098	-57.108	0.186	-0.083
-600.084	-106.453	-0.032	-0.007
-599.069	-1.084	0.283	0.202
-598.055	15.793	-0.153	-0.121
-597.040	97.468	0.263	-0.305
-596.025	224.684	-0.118	0.193
-595.011	312.515	0.126	0.240
-593.996	170.487	-0.215	-0.311
-592.982	800.000	0.130	-0.458
-591.967	141.053	-0.063	-0.084
-590.952	-200.000	0.097	-0.493
-589.938	176.362	0.054	0.079
-588.923	-151.114	-0.203	-0.015
-587.909	-197.439	-0.074	-0.000
-586.894	169.607	-0.160	-0.231
-585.879	-200.000	0.012	-0.070
-584.865	352.055	0.087	0.174
-583.850	-200.000	0.023	0.274
-582.836	-200.000	-0.003	0.223
-581.821	96.377	-0.234	0.270
-580.806	-200.000	0.010	-0.254
-579.792	-50.437	0.206	-0.098
-578.777	800.000	-0.022	0.067
-577.763	-200.000	-0.010	0.182
-576.748	-123.802	-0.213	0.034
-575.733	-200.000	-0.042	-0.287
-574.719	-185.001	-0.124	0.002
-573.704	120.833	-0.103	-0.130
-572.690	-97.870	-0.287	0.075
-571.675	108.428	0.253	-0.305
-570.661	193.244	-0.123	0.188
-569.646	-25.713	0.190	-0.113
-568.631	-169.598	-0.268	0.010
-567.617	237.164	0.106	-0.177
-566.602	800.000	0.058	0.217
-565.588	220.058	-0.151	0.244
-564.573	-41.779	0.275	-0.142
-563.558	800.000	-0.022	-0.085
-562.544	3.543	-0.250	-0.184
-561.529	130.455	-0.199	-0.257
-560.515	-80.218	-0.256	-0.086
-559.500	-200.000	-0.034	-0.335
-558.485	-55.303	0.029	0.013
-557.471	46.987	0.089	0.084
-556.456	147.953	0.233	-0.317
-555.442	124.696	0.086	0.110
-554.427	-34.395	-0.107	0.059
-553.412	87.057	-0.098	-0.109
-552.398	-95.426	0.116	-0.031
-551.383	320.634	-0.074	0.142
-550.369	55.746	0.394	-0.385
-549.354	-26.193	-0.242	-0.143
-548.339	-200.000	0.019	0.127
-547.325	219.124	-0.095	0.153
-546.310	-200.000	0.009	-0.078
-545.296	800.000	0.101	-0.309
-544.281	-177.951	-0.258	-0.006
-543.266	432.925	-0.175	-0.384
-542.252	-79.687	0.233	-0.079
-541.237	-104.944	0.047	0.011
-540.223	-179.397	-0.282	0.006
-539.208	-77.571	0.419	-0.146
-538.193	-200.000	0.002	-0.099
-537.179	182.878	0.270	-0.402
-536.164	159.107	-0.166	0.232
-535.150	206.791	0.151	0.237
-534.135	-155.245	-0.081	-0.005
-533.121	8.586	-0.081	-0.062
-532.106	-200.000	-0.037	-0.210
-531.091	-10.304	-0.189	0.127
-530.077	-44.095	-0.079	0.040
-529.062	-74.418	0.132	0.048
-528.048	-33.950	-0.108	-0.060
-527.033	129.135	0.129	0.166
-526.018	-38.648	-0.263	0.140
-525.004	-43.645	0.098	0.050
-523.989	250.432	0.060	-0.103
-522.975	250.315	0.037	-0.063
-521.960	-200.000	-0.002	-0.150
-520.945	-147.834	-0.125	0.011
-519.931	232.449	0.019	0.032
-518.916	-95.585	-0.289	0.078
-517.902	-39.406	-0.307	0.162
-516.887	664.466	-0.050	0.129
-515.872	-15.783	-0.121	-0.077
-514.858	-200.000	0.025	0.228
-513.843	800.000	-0.047	-0.137
-512.829	-135.510	-0.202	0.024
-511.814	-58.079	0.186	0.082
-510.799	8.748	0.309	-0.234
-509.785	-183.461	-0.313	-0.005
-508.770	-15.136	0.386	0.249
-507.756	-70.923	0.262	-0.099
-506.741	355.757	-0.130	-0.260
-505.726	694.505	0.039	-0.103
-504.712	46.933	0.165	0.155
-503.697	-32.859	-0.563	0.315
-502.683	-200.000	-0.042	0.214
-501.668	-154.210	0.459	0.031
-500.653	155.549	-0.081	-0.112
-499.639	-200.000	0.124	0.547
-498.624	-173.095	0.542	0.017
-497.610	800.000	-0.029	0.092
-496.595	-72.338	-0.239	-0.089
-495.581	-101.678	-0.176	-0.043
-494.566	-77.122	-0.161	-0.056
-493.551	159.285	-0.154	-0.216
-492.537	473.657	0.135	-0.307
-491.522	-139.355	-0.247	-0.027
-490.508	468.477	-0.074	0.168
-489.493	-200.000	-0.023	0.209
-488.478	530.027	-0.023	-0.056
-487.464	-157.125	0.032	0.002
-486.449	800.000	-0.062	0.187
-485.435	-100.952	-0.015	0.004
-484.420	208.875	0.213	-0.335
-483.405	167.226	-0.021	0.029
-482.391	34.899	0.101	0.089
-481.376	800.000	-0.040	-0.138
-480.362	70.236	-0.138	0.143
-479.347	-177.751	0.246	0.006
-478.332	-131.351	-0.096	0.013
-477.318	-7.504	0.172	0.117
-476.303	-63.975	-0.120	-0.049
-475.289	-200.000	0.019	0.168
-474.274	209.812	0.117	-0.184
-473.259	-64.882	-0.334	-0.136
-472.245	289.096	-0.161	-0.294
-471.230	800.000	-0.022	-0.085
-470.216	-200.000	-0.008	-0.245
-469.201	-63.912	0.129	0.053
-468.186	800.000	0.015	-0.052
-467.172	31.138	-0.116	-0.100
-466.157	-15.684	-0.256	0.164
-465.143	164.907	-0.136	-0.193
-464.128	-104.736	-0.198	0.046
-463.113	-92.459	0.340	0.096
-462.099	800.000	0.061	-0.231
-461.084	-137.921	0.176	0.020
-460.070	38.752	0.285	0.255
-459.055	-200.000	0.022	0.105
-458.040	-70.037	-0.302	0.116
-457.026	-18.299	0.246	0.154
-456.011	310.774	-0.221	-0.416
-454.997	449.806	0.120	-0.267
-453.982	-167.495	-0.288	0.012
-452.968	349.055	-0.055	-0.109
-451.953	-156.005	-0.234	-0.015
-450.938	-67.558	0.072	0.028
-449.924	-94.074	0.234	-0.064
-448.909	-200.000	0.047	-0.217
-447.895	191.775	-0.118	-0.179
-446.880	-34.324	-0.060	0.033
-445.865	-200.000	-0.052	-0.320
-444.851	204.886	0.252	-0.392
-443.836	69.354	-0.121	-0.125
-442.822	97.678	0.162	0.187
-441.807	-106.222	0.193	-0.044
-440.792	-200.000	0.009	-0.103
-439.778	-109.333	0.121	0.026
-438.763	73.975	-0.220	0.232
-437.749	-200.000	-0.044	-0.232
-436.734	-99.133	0.377	-0.096
-435.719	-186.555	0.178	-0.003
-434.705	-20.129	-0.244	0.151
-433.690	254.286	-0.262	-0.450
-432.676	377.496	0.030	0.062
-431.661	-121.342	-0.149	0.025
-430.646	800.000	-0.082	0.288
-429.632	99.766	0.034	0.039
-428.617	11.515	0.040	0.031
-427.603	800.000	0.011	0.032
-426.588	-21.986	-0.224	-0.137
-425.573	61.614	-0.112	0.111
-424.559	-59.761	-0.235	0.101
-423.544	800.000	0.037	0.148
-422.530	-105.875	-0.155	-0.035
-421.515	-200.000	-0.084	0.387
-420.500	-200.000	-0.055	0.352
-419.486	-200.000	-0.080	0.454
-418.471	601.632	-0.052	0.129
-417.457	272.278	-0.131	-0.231
-416.442	179.609	0.089	0.131
-415.428	167.067	-0.221	-0.314
-414.413	66.009	-0.246	0.251
-413.398	212.851	0.196	0.310
-412.384	-19.126	-0.190	-0.118
-411.369	8.820	0.342	-0.259
-410.355	-17.658	0.043	-0.027
-409.340	771.847	0.143	0.392
-408.325	67.761	0.228	0.233
-407.311	-84.726	0.225	0.071
-406.296	619.311	-0.116	0.293
-405.282	-35.289	0.122	0.066
-404.267	-183.150	0.258	-0.005
-403.252	-200.000	-0.019	0.206
-402.238	-200.000	-0.040	-0.319
-401.223	800.000	0.129	-0.375
-400.209	616.150	-0.073	0.184
-399.194	-18.327	0.109	-0.068
-398.179	800.000	-0.139	-0.447
-397.165	-107.013	0.331	-0.073
-396.150	197.758	-0.217	-0.333
-395.136	275.182	-0.084	0.149
-394.121	-8.618	0.258	-0.173
-393.106	-45.311	0.199	-0.099
-392.092	-200.000	-0.086	-0.427
-391.077	-105.445	-0.064	-0.015
-390.063	-35.939	-0.389	0.211
-389.048	-200.000	0.005	0.228
-388.033	188.971	-0.068	-0.102
-387.019	20.132	0.082	0.067
-386.004	-200.000	0.028	-0.170
-384.990	-95.928	0.173	0.046
-383.975	-148.954	-0.250	-0.020
-382.960	285.824	-0.048	-0.087
-381.946	-99.108	-0.182	0.046
-380.931	98.365	-0.187	0.215
-379.917	-12.648	0.224	-0.146
-378.902	-14.399	0.163	0.105
-377.888	-200.000	-0.005	0.154
-376.873	-101.542	-0.317	-0.077
-375.858	-200.000	0.025	0.244
-374.844	-163.498	0.253	0.012
-373.829	-63.694	-0.185	0.076
-372.815	-200.000	0.050	-0.413
-371.800	-10.380	-0.227	0.150
-370.785	-200.000	0.008	0.250
-369.771	-28.420	0.123	-0.071
-368.756	288.856	-0.050	0.091
-367.742	155.573	0.180	-0.249
-366.727	123.430	-0.058	-0.073
-365.712	-200.000	-0.011	-0.149
-364.698	-85.357	0.272	0.085
-363.683	-200.000	0.003	0.479
-362.669	18.153	-0.177	-0.142
-361.654	133.841	-0.149	-0.194
-360.639	-52.458	0.089	0.041
-359.625	-200.000	0.055	0.400
-358.610	-200.000	0.029	-0.355
-357.596	-161.430	0.331	0.017
-356.581	115.460	-0.105	0.128
-355.566	701.387	0.024	-0.062
-354.552	-183.179	0.234	0.004
-353.537	-59.244	-0.037	0.016
-352.523	-200.000	-0.032	0.154
-351.508	-67.329	-0.398	0.156
-350.493	-200.000	-0.028	0.180
-349.479	247.307	-0.155	-0.262
-348.464	-146.880	-0.431	0.037
-347.450	-115.292	0.128	-0.024
-346.435	56.846	-0.109	-0.106
-345.420	225.791	0.171	-0.277
-344.406	-151.554	0.207	-0.015
-343.391	-90.745	0.145	-0.042
-342.377	-0.669	-0.254	-0.180
-341.362	-200.000	-0.014	-0.064
-340.348	-200.000	0.001	0.089
-339.333	364.717	-0.080	0.162
-338.318	-122.209	-0.197	-0.032
-337.304	-61.992	0.271	0.113
-336.289	-200.000	-0.019	-0.136
-335.275	-145.000	-0.061	0.006
-334.260	-123.627	-0.138	0.022
-333.245	-154.287	0.157	0.011
-332.231	98.999	0.174	0.201
-331.216	28.215	0.281	0.237
-330.202	-168.124	-0.043	-0.002
-329.187	594.010	-0.074	0.182
-328.172	-130.338	0.216	-0.029
-327.158	158.174	-0.138	0.191
-326.143	-200.000	-0.035	-0.194
-325.129	800.000	0.036	0.120
-324.114	72.360	0.117	0.122
-323.099	521.114	-0.109	0.255
-322.085	351.070	-0.017	-0.034
-321.070	-109.685	-0.314	-0.066
-320.056	-115.545	-0.256	-0.048
-319.041	-80.172	0.361	0.121
-318.026	360.172	-0.136	0.272
-317.012	271.086	-0.073	0.128
-315.997	-200.000	-0.010	0.072
-314.983	-100.758	-0.125	-0.031
-313.968	21.786	0.215	0.175
-312.953	-130.150	-0.158	0.022
-311.939	-200.000	0.030	0.158
-310.924	236.486	0.082	-0.136
-309.910	-148.281	0.319	0.026
-308.895	-200.000	0.031	-0.189
-307.880	-46.493	-0.160	0.079
-306.866	187.470	-0.082	-0.123
-305.851	28.764	0.026	-0.022
-304.837	-110.465	0.264	0.055
-303.822	99.849	-0.051	0.059
-302.807	-26.884	-0.260	0.152
-301.793	-184.334	-0.116	0.002
-300.778	-145.000	0.204	0.019
-299.764	-200.000	-0.039	0.179
-298.749	456.558	0.149	0.331
-297.735	-200.000	-0.002	-0.217
-296.720	-200.000	-0.002	-0.055
-295.705	-172.911	-0.154	-0.005
-294.691	33.062	0.141	0.122
-293.676	150.880	-0.138	-0.187
-292.662	-200.000	-0.055	-0.329
-291.647	-129.420	0.314	0.043
-290.632	5.060	0.152	-0.112
-289.618	-142.441	0.121	0.012
-288.603	-39.303	0.154	0.081
-287.589	519.954	0.037	-0.087
-286.574	800.000	-0.060	-0.202
-285.559	-77.392	0.098	-0.034
-284.545	545.926	-0.125	-0.298
-283.530	-73.903	0.226	0.082
-282.516	11.606	-0.270	0.207
-281.501	179.077	0.290	0.424
-280.486	89.092	-0.015	0.017
-279.472	137.045	-0.088	-0.115
-278.457	800.000	-0.064	-0.179
-277.443	-135.902	-0.342	0.040
-276.428	-73.359	-0.393	0.144
-275.413	75.718	0.167	0.176
-274.399	-200.000	0.022	0.185
-273.384	-40.268	-0.116	0.060
-272.370	151.679	0.153	0.208
-271.355	-103.436	-0.108	-0.025
-270.340	800.000	-0.025	0.099
-269.326	76.471	0.171	0.181
-268.311	225.549	0.180	0.290
-267.297	-40.754	-0.353	0.182
-266.282	-123.070	0.071	0.011
-265.267	396.451	0.009	-0.018
-264.253	-200.000	-0.050	-0.261
-263.238	387.761	-0.130	-0.268
-262.224	115.728	0.195	0.238
-261.209	800.000	-0.030	0.131
-260.195	-103.850	-0.289	0.067
-259.180	41.438	0.124	-0.112
-258.165	-164.631	0.138	-0.006
-257.151	-200.000	-0.031	0.189
-256.136	-135.126	-0.236	0.028
-255.122	-200.000	0.008	0.098
-254.107	-118.743	0.055	-0.010
-253.092	100.646	-0.077	-0.090
-252.078	225.928	0.132	0.214
-251.063	-36.887	0.036	0.019
-250.049	-127.686	0.197	0.028
-249.034	222.861	-0.158	-0.254
-248.019	71.933	0.141	-0.146
-247.005	-149.362	-0.397	0.031
-245.990	-88.888	-0.185	0.055
-244.976	-189.955	0.346	-0.004
-243.961	26.398	0.165	0.138
-242.946	800.000	0.011	-0.040
-241.932	-200.000	-0.043	-0.299
-240.917	108.089	-0.122	0.145
-239.903	-42.067	-0.101	0.051
-238.888	86.949	-0.215	-0.237
-237.873	-144.963	0.256	-0.023
-236.859	150.505	-0.225	-0.304
-235.844	-28.104	-0.087	0.050
-234.830	-115.149	0.144	-0.027
-233.815	117.649	0.085	-0.105
-232.800	100.949	0.156	0.181
-231.786	-53.419	0.212	-0.097
-230.771	-163.575	0.296	0.014
-229.757	-9.312	0.189	0.126
-228.742	-139.200	-0.184	-0.020
-227.727	15.710	-0.097	-0.076
-226.713	81.169	0.132	-0.142
-225.698	800.000	-0.088	-0.268
-224.684	-140.311	-0.234	-0.024
-223.669	105.404	-0.179	-0.210
-222.655	-156.055	-0.089	0.006
-221.640	-71.378	0.171	0.064
-220.625	61.816	0.181	0.179
-219.611	162.472	-0.124	-0.173
-218.596	83.002	0.107	0.116
-217.582	-200.000	0.055	0.449
-216.567	85.017	0.163	-0.178
-215.552	11.874	-0.244	-0.187
-214.538	-200.000	-0.067	-0.345
-213.523	314.395	0.110	0.207
-212.509	4.435	0.094	0.068
-211.494	-200.000	0.000	0.134
-210.479	-74.157	-0.267	0.096
-209.465	17.452	-0.343	-0.271
-208.450	-29.317	-0.228	0.130
-207.436	147.548	-0.135	-0.181
-206.421	800.000	-0.115	-0.325
-205.406	340.282	0.113	0.219
-204.392	-138.698	0.232	-0.025
-203.377	800.000	-0.039	-0.135
-202.363	-200.000	0.047	0.297
-201.348	66.575	0.063	-0.063
-200.333	-200.000	0.010	0.286
-199.319	-200.000	0.060	-0.269
-198.304	119.359	0.197	-0.243
-197.290	-122.150	0.018	0.003
-196.275	255.407	-0.266	0.454
-195.260	-39.439	0.120	-0.063
-194.246	-11.077	0.227	-0.149
-193.231	-76.065	0.540	0.190
-192.217	-149.992	-0.041	-0.003
-191.202	-194.916	-0.217	0.002
-190.187	-118.332	0.482	-0.085
-189.173	-200.000	-0.011	0.086
-188.158	236.900	0.028	-0.046
-187.144	-200.000	-0.012	-0.061
-186.129	-100.074	0.203	-0.050
-185.114	2.120	0.022	0.016
-184.100	518.662	-0.123	0.287
-183.085	-102.291	0.248	-0.059
-182.071	800.000	0.122	0.405
-181.056	197.254	-0.139	0.211
-180.042	558.061	0.070	0.168
-179.027	800.000	-0.103	-0.292
-178.012	-200.000	-0.024	0.197
-176.998	-37.097	0.147	-0.078
-175.983	-115.618	-0.247	0.046
-174.969	-74.781	0.102	-0.036
-173.954	-92.353	0.287	0.080
-172.939	-200.000	0.013	-0.089
-171.925	-157.853	0.123	0.007
-170.910	168.622	-0.044	0.062
-169.896	14.847	-0.132	-0.103
-168.881	-200.000	-0.016	-0.141
-167.866	189.671	-0.058	0.086
-166.852	-87.160	0.175	-0.053
-165.837	82.133	-0.082	-0.088
-164.823	-33.371	-0.448	-0.246
-163.808	-106.850	0.341	0.075
-162.793	3.585	0.198	-0.143
-161.779	230.855	-0.143	-0.233
-160.764	800.000	-0.139	0.455
-159.750	318.600	0.049	0.093
-158.735	-200.000	0.015	0.085
-157.720	-200.000	0.050	0.247
-156.706	-118.897	0.391	-0.068
-155.691	-200.000	0.032	-0.384
-154.677	179.051	-0.075	-0.110
-153.662	-16.337	0.184	0.116
-152.647	-200.000	0.018	0.288
-151.633	193.271	0.189	0.284
-150.618	-124.645	0.325	-0.050
-149.604	-126.080	0.325	-0.048
-148.589	43.619	-0.089	0.081
-147.574	-200.000	0.026	-0.397
-146.560	39.399	-0.298	-0.264
-145.545	-0.018	0.196	-0.138
-144.531	560.351	0.170	-0.408
-143.516	-21.530	0.285	0.172
-142.502	-21.281	-0.172	0.104
-141.487	-105.581	-0.105	0.024
-140.472	-141.891	0.235	0.023
-139.458	6.103	0.143	0.105
-138.443	-200.000	0.035	-0.279
-137.429	-143.865	0.325	0.030
-136.414	24.174	0.091	-0.075
-135.399	-185.276	-0.205	-0.003
-134.385	-54.501	-0.278	-0.125
-133.370	800.000	0.023	-0.081
-132.356	-200.000	0.276	0.000
-131.341	-75.359	-0.313	0.111
-130.326	84.905	0.009	0.010
-129.312	32.994	-0.121	-0.104
-128.297	800.000	0.076	0.298
-127.283	-62.099	0.281	-0.116
-126.268	-21.515	-0.231	0.140
-125.253	676.242	0.159	0.409
-124.239	-66.537	-0.222	0.087
-123.224	-107.477	0.307	-0.067
-122.210	-101.316	0.238	0.058
