DTS Sentinel unit serial number:	SN413079Multiplexer serial number:	ORYXHardware model number:	OX4-SRSoftware version number:	ORYX F/W v4.00 Oryx Data Collector v3.7.2.0data status	okinstallation	princeton_trtdifferential loss correction	single-endedforward channel	channel 1reverse channel	N/Adate	2019/09/15time	09:38:35forward acquisition time	60.00reverse acquisition time	0.00gamma	496.2192k internal	0.2310k external	0.2310temperature offset calibration	0.9982default loss term (dB/km)	0.3790temperature slope calibration	1.0000multiplexer offset coefficient	1.0000multiplexer slope coefficient	1.0000fibre end	0.00T internal ref (°C)	33.89T ext. ref 1 (°C)	4.91T ext. ref 2 (°C)	29.66length (m)	temperature (°C)	Stokes	anti-Stokes-747.200	18.385	-0.292	-0.237
-746.185	-105.708	-0.339	-0.078
-745.171	345.680	0.052	-0.104
-744.156	260.098	0.065	-0.114
-743.142	-171.773	0.154	-0.005
-742.127	147.046	-0.218	0.298
-741.112	21.465	0.041	0.034
-740.098	27.859	-0.067	0.057
-739.083	800.000	-0.079	-0.279
-738.069	562.067	0.053	-0.129
-737.054	-106.945	0.210	-0.047
-736.039	47.298	0.040	-0.038
-735.025	-100.124	0.102	-0.026
-734.010	-141.140	0.284	-0.029
-732.996	-200.000	-0.015	-0.232
-731.981	189.100	0.129	-0.196
-730.966	193.732	0.271	0.416
-729.952	-49.171	0.076	-0.037
-728.937	474.029	-0.168	-0.385
-727.923	448.785	0.086	-0.192
-726.908	-62.536	0.096	-0.040
-725.894	-200.000	-0.008	-0.059
-724.879	422.510	-0.140	-0.304
-723.864	210.834	-0.099	-0.158
-722.850	-77.335	-0.125	0.044
-721.835	-30.731	-0.291	0.167
-720.821	-200.000	0.008	-0.047
-719.806	800.000	-0.057	0.185
-718.791	-167.801	-0.380	0.015
-717.777	800.000	-0.092	0.262
-716.762	490.314	-0.028	-0.064
-715.748	-200.000	0.006	0.089
-714.733	-200.000	0.008	0.177
-713.718	-26.371	0.193	-0.115
-712.704	-89.839	-0.304	-0.090
-711.689	800.000	0.067	-0.272
-710.675	208.360	-0.203	-0.322
-709.660	-14.415	-0.051	0.033
-708.645	-200.000	-0.017	-0.133
-707.631	238.653	-0.028	0.048
-706.616	263.167	-0.171	0.301
-705.602	65.432	0.018	0.018
-704.587	216.615	0.225	0.362
-703.572	-20.662	0.037	0.023
-702.558	283.394	0.127	0.231
-701.543	31.686	0.239	-0.209
-700.529	-49.487	0.113	0.054
-699.514	-116.516	0.260	0.049
-698.499	800.000	-0.109	-0.382
-697.485	-139.284	-0.085	-0.009
-696.470	207.742	-0.206	-0.326
-695.456	163.072	0.147	-0.209
-694.441	-48.751	-0.052	-0.025
-693.426	175.316	0.044	-0.065
-692.412	-120.299	-0.288	-0.050
-691.397	-173.322	0.378	0.012
-690.383	-60.774	0.223	-0.096
-689.368	-132.842	0.097	-0.013
-688.354	800.000	0.092	0.299
-687.339	-80.396	0.404	0.137
-686.324	7.862	0.088	0.067
-685.310	-200.000	-0.002	0.115
-684.295	531.550	-0.206	0.493
-683.281	215.605	0.133	0.215
-682.266	800.000	-0.010	0.031
-681.251	-17.474	0.071	-0.045
-680.237	-120.677	0.289	-0.049
-679.222	409.123	-0.087	-0.187
-678.208	-22.965	0.085	0.052
-677.193	-200.000	0.013	-0.102
-676.178	-92.875	-0.252	-0.071
-675.164	199.946	-0.106	-0.164
-674.149	-200.000	-0.010	0.161
-673.135	-200.000	-0.027	0.174
-672.120	531.913	0.108	-0.258
-671.105	800.000	0.043	0.175
-670.091	268.309	0.104	-0.184
-669.076	800.000	0.082	-0.321
-668.062	-54.507	-0.144	-0.066
-667.047	547.273	0.057	0.139
-666.032	-41.868	-0.208	-0.108
-665.018	158.819	0.111	0.156
-664.003	-200.000	0.004	0.346
-662.989	-200.000	-0.043	-0.280
-661.974	-160.450	-0.359	0.020
-660.959	-2.499	-0.211	0.149
-659.945	800.000	0.057	0.167
-658.930	-122.374	0.196	-0.032
-657.916	-86.096	-0.493	0.154
-656.901	-72.583	0.042	-0.016
-655.886	138.612	-0.196	0.261
-654.872	-200.000	-0.068	-0.310
-653.857	-71.946	-0.228	0.086
-652.843	50.180	-0.348	-0.333
-651.828	227.958	-0.213	-0.351
-650.814	-200.000	0.011	-0.079
-649.799	-85.132	0.166	0.053
-648.784	-151.666	-0.258	-0.019
-647.770	-200.000	0.096	-0.452
-646.755	800.000	0.042	0.137
-645.741	-6.137	-0.086	0.059
-644.726	242.632	-0.162	0.274
-643.711	-119.909	0.203	-0.035
-642.697	354.202	0.123	-0.248
-641.682	-134.954	0.052	0.006
-640.668	72.629	-0.094	-0.099
-639.653	-64.077	-0.229	-0.095
-638.638	-152.620	-0.277	-0.020
-637.624	-200.000	0.011	0.083
-636.609	-77.126	0.252	-0.089
-635.595	800.000	-0.062	-0.245
-634.580	193.283	0.260	-0.397
-633.565	-38.206	-0.054	0.029
-632.551	159.124	0.234	-0.330
-631.536	0.542	-0.272	-0.197
-630.522	304.381	-0.100	0.187
-629.507	258.070	0.250	-0.435
-628.492	286.192	0.037	0.068
-627.478	-200.000	-0.019	0.309
-626.463	96.089	-0.277	0.320
-625.449	51.258	-0.190	-0.183
-624.434	129.681	-0.128	-0.165
-623.419	-17.764	0.263	0.167
-622.405	800.000	0.072	0.227
-621.390	-200.000	-0.005	-0.356
-620.376	-200.000	0.027	-0.225
-619.361	-125.966	0.329	-0.050
-618.346	-89.718	-0.214	0.063
-617.332	800.000	-0.022	0.088
-616.317	800.000	-0.143	0.415
-615.303	-200.000	-0.006	0.029
-614.288	-167.969	0.227	-0.009
-613.273	466.407	0.114	-0.257
-612.259	40.582	-0.310	-0.282
-611.244	26.084	0.112	0.094
-610.230	121.295	0.065	0.082
-609.215	-126.468	0.440	0.066
-608.201	-25.104	-0.030	-0.018
-607.186	-75.059	-0.135	-0.049
-606.171	-200.000	0.029	-0.144
-605.157	-86.179	-0.158	0.049
-604.142	37.724	-0.059	0.053
-603.128	241.083	-0.155	0.261
-602.113	33.480	-0.250	-0.220
-601.098	-200.000	-0.025	-0.260
-600.084	800.000	0.094	-0.324
-599.069	800.000	0.066	0.266
-598.055	86.390	0.021	-0.024
-597.040	-81.883	-0.244	0.080
-596.025	26.388	-0.041	0.035
-595.011	86.926	-0.058	0.065
-593.996	-85.303	0.191	0.060
-592.982	48.276	0.156	0.147
-591.967	28.291	-0.213	0.182
-590.952	800.000	0.046	-0.173
-589.938	-113.768	-0.121	-0.024
-588.923	-79.448	-0.428	-0.146
-587.909	800.000	0.032	0.129
-586.894	5.118	0.132	-0.098
-585.879	224.330	0.057	0.093
-584.865	262.384	0.066	0.116
-583.850	112.544	-0.063	-0.077
-582.836	359.726	-0.090	0.182
-581.821	800.000	-0.091	0.322
-580.806	453.558	0.122	0.273
-579.792	-200.000	-0.065	0.298
-578.777	109.959	-0.103	0.125
-577.763	-99.206	-0.265	0.068
-576.748	-200.000	-0.022	-0.150
-575.733	193.099	-0.094	0.143
-574.719	110.921	0.279	-0.339
-573.704	82.225	0.223	0.244
-572.690	229.960	0.172	0.284
-571.675	-30.362	0.266	-0.152
-570.661	552.188	0.049	-0.120
-569.646	32.375	-0.166	-0.144
-568.631	-30.686	-0.192	0.110
-567.617	-72.320	-0.415	-0.155
-566.602	144.421	0.050	0.067
-565.588	114.664	-0.112	0.138
-564.573	-200.000	0.005	-0.183
-563.558	540.892	0.071	-0.169
-562.544	-103.592	-0.198	0.047
-561.529	417.627	0.091	0.197
-560.515	277.864	-0.113	-0.204
-559.500	-200.000	0.004	-0.020
-558.485	68.107	-0.111	0.114
-557.471	190.631	0.063	0.095
-556.456	186.069	0.159	0.238
-555.442	800.000	-0.059	0.254
-554.427	126.067	0.165	-0.210
-553.412	-200.000	-0.017	-0.103
-552.398	-56.018	0.092	0.041
-551.383	800.000	-0.058	0.191
-550.369	-200.000	0.005	0.412
-549.354	-66.805	0.194	0.078
-548.339	-200.000	0.002	0.423
-547.325	282.429	-0.005	-0.010
-546.310	0.153	-0.168	-0.121
-545.296	-23.823	-0.368	-0.222
-544.281	-200.000	-0.013	0.193
-543.266	82.352	-0.139	0.152
-542.252	464.036	0.185	-0.417
-541.237	5.722	-0.114	0.085
-540.223	-200.000	0.015	-0.187
-539.208	-66.551	0.049	0.020
-538.193	660.887	0.123	-0.319
-537.179	-200.000	0.048	-0.275
-536.164	-200.000	-0.021	-0.095
-535.150	-146.828	0.279	-0.024
-534.135	-4.942	-0.191	0.133
-533.121	314.607	-0.147	0.279
-532.106	49.732	0.257	0.244
-531.091	-21.028	-0.075	-0.046
-530.077	-151.025	-0.116	-0.009
-529.062	368.027	0.037	0.076
-528.048	-49.196	-0.228	-0.110
-527.033	609.391	-0.109	-0.273
-526.018	73.167	0.230	0.242
-525.004	-129.863	-0.031	-0.004
-523.989	-168.978	0.262	-0.010
-522.975	800.000	-0.101	0.377
-521.960	-93.911	0.187	-0.052
-520.945	-17.735	-0.168	0.106
-519.931	9.480	0.111	0.085
-518.916	31.575	-0.094	0.082
-517.902	-68.413	-0.263	0.103
-516.887	258.616	0.064	0.111
-515.872	39.205	0.067	-0.060
-514.858	-200.000	0.070	0.000
-513.843	-113.284	0.184	0.036
-512.829	800.000	-0.047	0.171
-511.814	58.055	-0.072	-0.071
-510.799	-53.069	-0.024	0.011
-509.785	-76.098	0.166	-0.059
-508.770	0.847	-0.046	0.033
-507.756	-200.000	0.089	-0.435
-506.741	-200.000	0.045	-0.259
-505.726	800.000	-0.009	-0.038
-504.712	129.644	-0.206	-0.265
-503.697	-187.000	-0.166	-0.002
-502.683	-89.231	-0.241	-0.072
-501.668	-131.145	0.135	0.018
-500.653	704.044	-0.050	-0.132
-499.639	-33.863	-0.032	-0.018
-498.624	337.490	0.190	-0.372
-497.610	-114.048	-0.195	-0.038
-496.595	236.323	-0.035	-0.059
-495.581	-37.589	0.116	-0.062
-494.566	-34.398	-0.263	0.145
-493.551	-167.305	0.090	0.004
-492.537	-2.011	0.088	0.063
-491.522	40.388	0.182	0.164
-490.508	-200.000	0.011	0.273
-489.493	136.212	0.125	0.164
-488.478	-1.234	-0.101	0.071
-487.464	-200.000	0.041	-0.225
-486.449	26.790	-0.247	0.208
-485.435	-55.925	-0.297	0.133
-484.420	168.744	-0.079	0.113
-483.405	-200.000	0.003	-0.114
-482.391	-11.320	-0.023	0.015
-481.376	110.022	0.027	-0.032
-480.362	-64.436	0.296	-0.121
-479.347	-36.836	0.186	-0.100
-478.332	260.136	0.094	-0.163
-477.318	39.401	-0.189	0.170
-476.303	-115.627	0.601	-0.113
-475.289	-49.823	0.175	-0.083
-474.274	114.818	-0.052	-0.064
-473.259	116.627	-0.111	0.137
-472.245	-200.000	0.007	0.076
-471.230	-83.264	0.112	0.036
-470.216	126.042	-0.401	-0.509
-469.201	-200.000	0.022	0.107
-468.186	703.963	0.156	0.413
-467.172	-70.203	0.081	0.031
-466.157	800.000	-0.052	-0.184
-465.143	-200.000	0.042	-0.256
-464.128	-26.739	-0.124	0.073
-463.113	-5.975	-0.181	0.124
-462.099	116.514	0.203	-0.250
-461.084	-200.000	-0.018	-0.086
-460.070	-126.401	-0.032	-0.005
-459.055	-79.507	-0.305	0.103
-458.040	-48.328	0.100	0.048
-457.026	453.561	0.056	0.124
-456.011	-111.512	-0.272	-0.056
-454.997	-115.941	0.277	0.052
-453.982	800.000	0.093	0.315
-452.968	-200.000	0.014	-0.300
-451.953	467.139	0.125	-0.281
-450.938	-82.873	-0.190	0.061
-449.924	-200.000	0.050	0.244
-448.909	298.589	-0.155	-0.287
-447.895	800.000	-0.082	-0.282
-446.880	-26.910	-0.223	-0.131
-445.865	75.124	-0.124	0.132
-444.851	800.000	-0.073	0.302
-443.836	109.312	0.110	-0.132
-442.822	-6.562	-0.100	-0.069
-441.807	-119.229	0.134	-0.023
-440.792	741.031	-0.044	0.120
-439.778	-145.960	0.206	-0.018
-438.763	800.000	-0.084	0.282
-437.749	800.000	0.049	0.159
-436.734	34.242	0.239	0.209
-435.719	800.000	0.115	0.351
-434.705	3.036	0.463	0.338
-433.690	-131.430	0.258	-0.034
-432.676	-200.000	0.074	0.354
-431.661	150.096	-0.111	0.151
-430.646	800.000	0.019	-0.061
-429.632	-11.063	-0.110	-0.073
-428.617	88.321	-0.059	-0.065
-427.603	-200.000	-0.018	-0.137
-426.588	-155.359	0.282	0.018
-425.573	-141.689	-0.379	0.038
-424.559	692.241	0.078	0.206
-423.544	8.349	-0.217	-0.163
-422.530	-158.124	0.140	0.008
-421.515	-200.000	0.105	-0.463
-420.500	-20.424	0.089	-0.055
-419.486	41.533	-0.161	-0.146
-418.471	-28.531	-0.270	0.156
-417.457	-200.000	-0.010	-0.211
-416.442	79.357	0.134	0.144
-415.428	-54.556	0.116	-0.053
-414.413	-32.752	0.124	-0.069
-413.398	214.843	0.117	-0.186
-412.384	-200.000	-0.022	0.146
-411.369	800.000	-0.072	0.263
-410.355	261.343	0.118	-0.205
-409.340	-88.553	-0.148	0.044
-408.325	-80.059	-0.224	0.075
-407.311	-67.593	0.098	-0.039
-406.296	19.678	-0.249	-0.201
-405.282	-149.555	-0.063	-0.005
-404.267	246.209	-0.141	-0.239
-403.252	-148.529	0.331	-0.027
-402.238	488.775	-0.044	-0.100
-401.223	-71.226	-0.124	0.047
-400.209	-148.061	-0.187	-0.016
-399.194	163.188	-0.156	0.220
-398.179	-51.473	0.254	-0.119
-397.165	-200.000	-0.037	-0.209
-396.150	-81.151	-0.134	-0.044
-395.136	-40.024	-0.425	-0.222
-394.121	29.683	-0.163	-0.139
-393.106	-38.541	-0.151	0.080
-392.092	-167.601	-0.344	0.014
-391.077	-138.220	-0.106	0.012
-390.063	158.652	0.158	0.220
-389.048	-106.474	0.290	0.065
-388.033	-161.298	0.156	-0.008
-387.019	55.525	-0.103	-0.100
-386.004	-88.928	0.210	-0.062
-384.990	-200.000	-0.003	-0.161
-383.975	800.000	0.076	-0.282
-382.960	800.000	0.116	0.505
-381.946	800.000	0.114	-0.390
-380.931	-200.000	0.001	0.174
-379.917	714.525	0.082	-0.219
-378.902	-20.462	-0.399	-0.245
-377.888	94.961	0.070	-0.080
-376.873	-55.362	-0.281	0.126
-375.858	-200.000	0.002	0.332
-374.844	413.063	-0.086	-0.182
-373.829	800.000	0.032	0.128
-372.815	-79.903	0.473	-0.159
-371.800	349.810	-0.062	-0.123
-370.785	-200.000	0.028	0.238
-369.771	-78.340	0.285	0.098
-368.756	159.165	0.055	0.077
-367.742	-90.566	-0.155	-0.045
-366.727	-73.575	0.311	-0.114
-365.712	-45.558	-0.124	0.062
-364.698	-140.850	-0.325	0.033
-363.683	-200.000	-0.001	0.024
-362.669	-49.283	0.037	-0.018
-361.654	-172.651	0.163	0.005
-360.639	-194.071	0.475	0.004
-359.625	-166.260	-0.205	0.009
-358.610	-167.599	-0.010	-0.000
-357.596	20.724	-0.085	-0.069
-356.581	-0.239	0.143	0.102
-355.566	126.539	-0.023	0.030
-354.552	-200.000	0.034	-0.183
-353.537	453.803	-0.198	0.439
-352.523	-200.000	0.026	0.249
-351.508	-89.480	0.343	0.101
-350.493	800.000	0.068	0.272
-349.479	145.726	0.075	0.101
-348.464	-77.751	-0.170	0.059
-347.450	216.766	-0.070	0.112
-346.435	-154.775	-0.077	0.005
-345.420	-20.622	-0.214	-0.131
-344.406	431.208	-0.160	-0.347
-343.391	800.000	0.038	0.166
-342.377	-200.000	-0.049	0.232
-341.362	-200.000	0.047	0.253
-340.348	-179.427	0.253	0.006
-339.333	367.365	-0.044	-0.089
-338.318	13.202	-0.169	0.131
-337.304	-200.000	0.007	-0.078
-336.289	-178.718	0.049	-0.001
-335.275	-154.492	0.068	-0.005
-334.260	-8.883	0.156	0.104
-333.245	800.000	0.033	0.111
-332.231	344.791	-0.155	0.303
-331.216	-45.611	-0.404	0.200
-330.202	-21.609	-0.139	0.085
-329.187	63.457	0.178	0.178
-328.172	36.297	0.214	-0.188
-327.158	-49.432	-0.058	0.028
-326.143	256.906	0.086	-0.148
-325.129	-83.532	-0.152	0.049
-324.114	800.000	-0.098	0.329
-323.099	-80.485	0.267	-0.089
-322.085	-32.080	0.302	-0.168
-321.070	-42.150	0.154	0.079
-320.056	-29.480	-0.141	0.080
-319.041	125.103	0.250	0.315
-318.026	25.066	-0.155	0.128
-317.012	-200.000	-0.065	-0.327
-315.997	-200.000	-0.066	-0.299
-314.983	-31.610	-0.041	-0.023
-313.968	51.998	0.236	-0.225
-312.953	-200.000	0.015	-0.128
-311.939	162.684	0.195	-0.274
-310.924	-34.001	-0.367	-0.202
-309.910	202.381	0.100	-0.154
-308.895	130.775	-0.022	0.028
-307.880	-98.607	0.054	-0.014
-306.866	112.938	0.245	-0.296
-305.851	3.741	0.186	-0.136
-304.837	-200.000	-0.039	0.262
-303.822	-73.374	-0.038	-0.014
-302.807	-104.550	-0.264	0.061
-301.793	-176.236	0.367	-0.010
-300.778	-200.000	-0.006	0.278
-299.764	-91.480	0.412	-0.117
-298.749	69.562	0.096	-0.098
-297.735	81.163	-0.044	-0.047
-296.720	319.726	-0.054	-0.102
-295.705	-82.287	0.346	-0.112
-294.691	171.402	-0.026	0.037
-293.676	-200.000	0.030	0.255
-292.662	-81.037	0.426	0.141
-291.647	-161.406	0.059	-0.003
-290.632	-100.964	-0.137	0.033
-289.618	800.000	0.034	0.109
-288.603	640.641	0.108	-0.273
-287.589	-105.664	-0.352	0.080
-286.574	-178.789	-0.193	-0.004
-285.559	-23.500	0.395	-0.237
-284.545	-198.715	-0.094	-0.001
-283.530	3.955	0.294	0.214
-282.516	41.035	0.088	0.079
-281.501	-43.314	-0.200	0.101
-280.486	-111.093	-0.212	-0.043
-279.472	-200.000	0.006	-0.240
-278.457	133.827	0.194	-0.251
-277.443	-69.664	-0.329	0.125
-276.428	-132.636	-0.219	-0.028
-275.413	800.000	0.061	-0.230
-274.399	-93.684	-0.238	0.066
-273.384	10.526	0.304	0.231
-272.370	-200.000	-0.033	0.300
-271.355	-28.140	-0.174	0.100
-270.340	-200.000	0.002	0.420
-269.326	132.858	-0.212	-0.272
-268.311	1.297	0.153	0.110
-267.297	-200.000	0.015	0.144
-266.282	152.100	-0.401	-0.546
-265.267	-94.470	0.096	0.026
-264.253	89.168	-0.201	0.223
-263.238	800.000	-0.086	-0.247
-262.224	-122.098	-0.119	-0.020
-261.209	-200.000	0.112	0.000
-260.195	-200.000	-0.059	0.271
-259.180	221.536	0.133	0.212
-258.165	-39.039	-0.225	-0.118
-257.151	-121.828	0.107	0.018
-256.136	-106.708	-0.102	0.023
-255.122	-8.701	-0.154	0.103
-254.107	-200.000	-0.063	-0.324
-253.092	226.353	0.048	-0.078
-252.078	73.630	-0.180	0.188
-251.063	800.000	0.090	0.289
-250.049	29.846	0.253	0.215
-249.034	800.000	-0.084	0.264
-248.019	-105.020	0.274	-0.062
-247.005	-200.000	0.004	0.129
-245.990	-29.717	0.036	-0.021
-244.976	314.009	0.155	-0.290
-243.961	110.797	-0.114	-0.136
-242.946	-62.579	-0.121	0.050
-241.932	35.026	0.014	-0.012
-240.917	-200.000	0.008	0.270
-239.903	800.000	0.039	-0.161
-238.888	-200.000	0.010	-0.270
-237.873	-200.000	-0.029	-0.242
-236.859	800.000	-0.008	0.027
-235.844	-120.490	0.141	-0.024
-234.830	-142.295	-0.126	-0.012
-233.815	503.967	0.139	-0.319
-232.800	203.878	0.083	0.127
-231.786	19.469	0.285	-0.228
-230.771	4.258	0.127	-0.093
-229.757	-69.810	-0.195	-0.074
-228.742	-200.000	0.002	-0.370
-227.727	800.000	0.053	0.219
-226.713	-12.167	-0.132	-0.086
-225.698	172.485	-0.302	-0.432
-224.684	800.000	-0.054	-0.163
-223.669	361.762	0.189	0.377
-222.655	23.691	0.264	0.217
-221.640	-200.000	-0.022	0.395
-220.625	645.243	-0.021	-0.055
-219.611	-187.540	0.073	-0.001
-218.596	-39.710	0.039	0.020
-217.582	-58.712	-0.140	0.060
-216.567	84.807	-0.148	0.161
-215.552	200.271	0.054	-0.083
-214.538	-70.610	-0.232	0.087
-213.523	-133.321	-0.456	-0.057
-212.509	-200.000	0.001	-0.068
-211.494	-81.876	0.158	-0.052
-210.479	150.973	0.188	0.254
-209.465	800.000	-0.029	0.121
-208.450	-200.000	0.003	0.064
-207.436	28.119	-0.142	0.119
-206.421	96.497	-0.054	-0.061
-205.406	646.181	-0.079	-0.201
-204.392	153.613	0.113	-0.154
-203.377	-102.635	-0.294	-0.070
-202.363	-174.830	-0.019	-0.001
-201.348	237.813	0.081	0.134
-200.333	-101.152	-0.213	-0.052
-199.319	13.658	-0.326	-0.251
-198.304	35.431	-0.230	-0.201
-197.290	800.000	-0.085	-0.239
-196.275	55.505	0.050	-0.048
-195.260	-156.665	0.423	-0.026
-194.246	124.317	-0.184	-0.230
-193.231	-9.328	-0.193	0.128
-192.217	-114.682	0.287	-0.055
-191.202	-76.016	0.167	-0.059
-190.187	34.160	-0.140	-0.121
-189.173	-5.723	-0.067	0.046
-188.158	-125.340	0.264	0.040
-187.144	197.067	-0.121	0.183
-186.129	64.566	-0.244	-0.245
-185.114	51.313	0.118	0.111
-184.100	-86.079	0.287	0.088
-183.085	-172.636	0.273	0.009
-182.071	800.000	-0.084	0.281
-181.056	800.000	0.160	-0.485
-180.042	-200.000	0.023	0.256
-179.027	-85.299	-0.352	0.109
-178.012	-23.117	0.146	-0.087
-176.998	86.465	0.064	-0.070
-175.983	800.000	0.031	-0.104
-174.969	800.000	-0.082	-0.332
-173.954	96.449	-0.124	-0.141
-172.939	800.000	0.100	0.349
-171.925	-200.000	0.025	0.184
-170.910	6.672	0.064	-0.047
-169.896	-109.152	0.328	0.069
-168.881	-78.435	0.158	-0.054
-167.866	451.387	0.086	0.188
-166.852	412.089	-0.122	0.257
-165.837	90.241	-0.025	-0.028
-164.823	26.268	-0.055	0.045
-163.808	-5.652	-0.174	0.118
-162.793	-107.724	-0.152	-0.033
-161.779	-200.000	0.057	-0.457
-160.764	-1.263	0.247	0.173
-159.750	-125.549	-0.172	0.026
-158.735	59.964	-0.076	-0.075
-157.720	75.649	0.035	-0.036
-156.706	86.460	0.057	-0.062
-155.691	336.952	0.124	-0.239
-154.677	-200.000	0.012	-0.204
-153.662	25.735	0.308	0.255
-152.647	302.028	-0.093	0.171
-151.633	-25.165	0.217	0.127
-150.618	-200.000	-0.014	-0.112
-149.604	130.118	0.097	-0.124
-148.589	-78.498	-0.179	-0.061
-147.574	-28.883	0.246	0.140
-146.560	-57.464	-0.301	-0.131
-145.545	18.642	-0.196	-0.156
-144.531	-200.000	0.024	-0.175
-143.516	-114.659	0.171	-0.032
-142.502	-200.000	-0.246	0.000
-141.487	143.785	-0.108	0.142
-140.472	-149.429	0.246	-0.019
-139.458	97.061	-0.203	-0.231
-138.443	-200.000	0.011	0.097
-137.429	-93.823	-0.229	-0.063
-136.414	-119.614	0.441	0.076
-135.399	-75.786	0.053	-0.018
-134.385	278.347	-0.163	-0.287
-133.370	-82.848	0.230	-0.074
-132.356	-128.804	0.163	-0.023
-131.341	-111.657	0.309	0.062
-130.326	206.640	0.104	0.161
-129.312	-150.289	0.170	-0.013
-128.297	-50.626	0.166	0.078
-127.283	699.874	-0.047	-0.122
-126.268	168.829	0.118	-0.166
-125.253	284.833	0.200	-0.357
-124.239	800.000	-0.092	0.360
-123.224	-124.340	0.203	0.031
-122.210	-8.260	0.148	0.098
-121.195	800.000	-0.076	0.233
