DTS Sentinel unit serial number:	SN413079Multiplexer serial number:	ORYXHardware model number:	OX4-SRSoftware version number:	ORYX F/W v4.00 Oryx Data Collector v3.7.2.0data status	okinstallation	princeton_trtdifferential loss correction	single-endedforward channel	channel 1reverse channel	N/Adate	2019/09/16time	19:58:35forward acquisition time	60.00reverse acquisition time	0.00gamma	496.2192k internal	0.2320k external	0.2320temperature offset calibration	0.9953default loss term (dB/km)	0.3790temperature slope calibration	1.0000multiplexer offset coefficient	1.0000multiplexer slope coefficient	1.0000fibre end	0.00T internal ref (°C)	33.45T ext. ref 1 (°C)	0.06T ext. ref 2 (°C)	26.68length (m)	temperature (°C)	Stokes	anti-Stokes-747.200	-41.517	0.317	-0.165
-746.185	575.713	0.105	0.260
-745.171	46.380	0.172	0.162
-744.156	-66.773	-0.380	0.152
-743.142	-108.557	0.419	-0.091
-742.127	338.748	0.050	0.099
-741.112	-42.323	0.277	0.143
-740.098	456.843	0.087	0.195
-739.083	541.185	0.020	-0.048
-738.069	42.187	0.370	0.339
-737.054	-200.000	0.011	-0.296
-736.039	91.241	-0.208	-0.236
-735.025	-141.535	0.206	0.021
-734.010	-169.325	-0.182	-0.007
-732.996	-83.245	0.120	0.039
-731.981	81.992	-0.139	-0.152
-730.966	485.089	-0.065	-0.150
-729.952	800.000	-0.029	0.120
-728.937	-200.000	-0.006	-0.143
-727.923	-200.000	0.020	-0.115
-726.908	-29.050	0.137	0.079
-725.894	-64.609	-0.236	-0.097
-724.879	154.339	0.076	-0.105
-723.864	-200.000	-0.018	-0.131
-722.850	-200.000	-0.044	-0.215
-721.835	70.431	0.299	-0.312
-720.821	-200.000	-0.061	-0.295
-719.806	483.941	0.198	-0.456
-718.791	27.685	0.196	-0.166
-717.777	-39.372	-0.181	-0.096
-716.762	80.680	-0.167	-0.182
-715.748	741.213	0.073	-0.198
-714.733	25.034	-0.144	-0.121
-713.718	-101.709	0.052	-0.013
-712.704	331.031	-0.055	-0.107
-711.689	-141.133	-0.109	0.011
-710.675	287.847	0.023	0.042
-709.660	153.582	-0.066	0.092
-708.645	-125.811	0.159	0.024
-707.631	40.522	-0.152	0.138
-706.616	-6.358	0.089	-0.061
-705.602	86.108	0.190	-0.212
-704.587	736.283	-0.134	-0.363
-703.572	-123.427	-0.477	0.077
-702.558	-8.980	0.141	0.095
-701.543	237.529	0.141	-0.235
-700.529	234.699	0.257	-0.428
-699.514	310.845	0.055	-0.104
-698.499	-167.576	-0.314	-0.013
-697.485	800.000	0.052	0.223
-696.470	800.000	0.094	0.277
-695.456	214.338	-0.157	-0.251
-694.441	-200.000	-0.044	-0.308
-693.426	124.105	-0.210	-0.266
-692.412	800.000	-0.061	0.198
-691.397	117.892	-0.130	-0.161
-690.383	-40.198	-0.155	-0.081
-689.368	87.061	-0.109	0.121
-688.354	-20.902	-0.017	0.011
-687.339	-110.292	0.320	0.067
-686.324	27.401	0.116	0.098
-685.310	-200.000	0.037	-0.173
-684.295	-27.090	0.132	0.078
-683.281	-55.309	0.256	-0.116
-682.266	470.141	0.026	-0.058
-681.251	-44.747	-0.304	0.153
-680.237	-200.000	0.016	-0.211
-679.222	208.941	-0.135	0.214
-678.208	-24.691	0.126	-0.076
-677.193	-8.229	0.232	0.157
-676.178	73.416	-0.247	0.261
-675.164	170.661	0.082	-0.118
-674.149	-109.967	0.108	0.023
-673.135	61.755	-0.337	0.338
-672.120	341.826	-0.170	-0.335
-671.105	-200.000	0.039	0.203
-670.091	-67.257	-0.136	-0.054
-669.076	-121.496	0.033	0.006
-668.062	800.000	0.088	-0.314
-667.047	389.852	0.098	0.206
-666.032	11.454	-0.289	0.223
-665.018	127.774	-0.099	0.126
-664.003	687.872	0.127	-0.334
-662.989	-200.000	0.005	0.060
-661.974	-53.658	-0.163	0.075
-660.959	212.490	0.197	-0.313
-659.945	-200.000	0.046	0.312
-658.930	-147.258	0.212	-0.018
-657.916	-200.000	0.025	-0.135
-656.901	58.137	-0.034	-0.033
-655.886	800.000	0.049	-0.146
-654.872	800.000	0.025	-0.097
-653.857	220.696	0.175	-0.283
-652.843	189.360	0.103	-0.156
-651.828	-10.141	0.032	0.021
-650.814	-61.976	-0.080	-0.034
-649.799	120.967	0.214	0.268
-648.784	-79.942	-0.012	-0.004
-647.770	10.763	0.094	-0.073
-646.755	-68.591	0.120	0.047
-645.741	800.000	-0.077	0.280
-644.726	-52.269	-0.079	0.037
-643.711	-6.519	-0.127	0.087
-642.697	-24.464	-0.080	0.048
-641.682	90.002	-0.146	0.164
-640.668	-159.729	-0.242	-0.013
-639.653	-13.052	-0.322	-0.211
-638.638	3.920	-0.196	0.144
-637.624	419.551	0.084	0.181
-636.609	-153.878	0.074	0.005
-635.595	-71.069	-0.172	-0.065
-634.580	-200.000	0.048	0.224
-633.565	417.751	0.087	0.188
-632.551	-200.000	-0.017	-0.278
-631.536	-157.818	-0.097	-0.006
-630.522	-91.719	-0.229	0.065
-629.507	-110.326	0.144	0.030
-628.492	757.593	0.073	-0.200
-627.478	-74.805	-0.263	-0.095
-626.463	57.495	0.062	0.061
-625.449	60.246	-0.140	-0.139
-624.434	-200.000	-0.038	-0.210
-623.419	-200.000	-0.051	-0.260
-622.405	-200.000	-0.056	-0.258
-621.390	-101.487	-0.092	-0.023
-620.376	-19.833	0.102	-0.063
-619.361	188.899	0.169	-0.255
-618.346	-72.881	0.174	0.064
-617.332	800.000	-0.087	0.282
-616.317	-200.000	-0.002	-0.189
-615.303	-94.584	0.382	-0.104
-614.288	-200.000	-0.008	-0.075
-613.273	-126.962	0.164	0.024
-612.259	-144.410	-0.288	-0.027
-611.244	-181.619	-0.196	0.004
-610.230	-159.953	-0.096	-0.005
-609.215	134.222	0.259	0.337
-608.201	44.751	-0.226	0.209
-607.186	800.000	-0.031	-0.123
-606.171	-179.428	-0.319	-0.007
-605.157	-200.000	-0.011	-0.066
-604.142	-40.288	-0.246	0.129
-603.128	-158.995	-0.072	0.004
-602.113	243.801	0.112	-0.189
-601.098	506.191	-0.024	0.056
-600.084	800.000	-0.077	0.298
-599.069	-139.229	-0.179	0.019
-598.055	-81.921	-0.163	-0.053
-597.040	-200.000	0.015	-0.131
-596.025	512.313	-0.107	0.252
-595.011	-23.109	-0.013	0.008
-593.996	-128.681	-0.272	-0.039
-592.982	49.492	0.136	0.129
-591.967	-0.488	0.284	0.203
-590.952	176.616	-0.101	0.147
-589.938	699.030	0.118	-0.313
-588.923	-134.325	0.188	0.023
-587.909	800.000	-0.052	-0.145
-586.894	-173.414	-0.206	-0.006
-585.879	-121.361	0.332	-0.056
-584.865	-200.000	0.001	-0.277
-583.850	-15.879	-0.193	-0.124
-582.836	-141.262	-0.188	0.019
-581.821	412.351	-0.092	0.197
-580.806	800.000	0.043	-0.185
-579.792	57.534	-0.233	0.229
-578.777	10.976	-0.040	-0.031
-577.763	-86.546	0.170	-0.052
-576.748	800.000	0.019	0.060
-575.733	318.808	0.179	0.340
-574.719	-200.000	-0.070	0.357
-573.704	-200.000	-0.042	-0.362
-572.690	-200.000	-0.038	0.203
-571.675	134.661	-0.216	0.282
-570.661	-200.000	0.005	0.167
-569.646	-62.697	0.188	0.078
-568.631	28.708	0.113	-0.096
-567.617	429.327	-0.156	-0.339
-566.602	90.325	-0.132	-0.148
-565.588	397.746	0.065	0.136
-564.573	77.145	0.251	0.268
-563.558	105.364	-0.261	0.310
-562.544	76.035	0.119	-0.126
-561.529	800.000	-0.119	-0.353
-560.515	78.471	0.069	-0.074
-559.500	-52.375	0.295	0.137
-558.485	110.949	0.165	-0.199
-557.471	-24.637	0.147	0.088
-556.456	-148.755	0.226	0.018
-555.442	-57.352	0.045	0.020
-554.427	110.626	-0.265	0.320
-553.412	18.839	0.161	0.129
-552.398	-87.581	-0.229	-0.069
-551.383	-168.532	0.076	-0.003
-550.369	-32.944	-0.340	-0.189
-549.354	246.237	-0.034	0.058
-548.339	113.315	0.341	-0.415
-547.325	77.436	0.073	-0.078
-546.310	-200.000	0.005	0.103
-545.296	562.970	-0.164	-0.399
-544.281	-160.987	-0.298	0.016
-543.266	39.252	0.186	-0.167
-542.252	-173.659	-0.350	0.011
-541.237	483.710	0.041	0.094
-540.223	-200.000	0.029	-0.351
-539.208	416.363	0.122	0.262
-538.193	97.592	-0.119	-0.138
-537.179	20.756	0.259	0.210
-536.164	-27.244	0.120	0.070
-535.150	-200.000	-0.080	0.461
-534.135	104.401	-0.153	-0.181
-533.121	184.576	-0.133	-0.198
-532.106	-122.734	-0.246	-0.040
-531.091	-104.546	0.244	0.057
-530.077	-5.317	0.244	-0.168
-529.062	85.304	0.109	0.120
-528.048	-200.000	-0.039	0.172
-527.033	175.865	-0.185	-0.270
-526.018	-95.273	-0.145	0.039
-525.004	225.203	-0.136	-0.220
-523.989	75.660	0.037	-0.039
-522.975	-80.861	-0.208	0.069
-521.960	-90.068	-0.283	-0.083
-520.945	225.921	-0.135	0.219
-519.931	-200.000	0.054	0.240
-518.916	-119.295	-0.130	0.023
-517.902	-200.000	0.032	-0.210
-516.887	-200.000	0.072	-0.364
-515.872	-200.000	-0.037	0.173
-514.858	125.430	0.243	0.307
-513.843	-43.347	0.247	0.125
-512.829	359.954	-0.142	-0.284
-511.814	-0.671	-0.134	0.095
-510.799	671.742	-0.032	0.083
-509.785	61.025	-0.098	0.097
-508.770	-179.370	-0.392	0.009
-507.756	373.411	0.112	-0.229
-506.741	453.536	0.143	-0.317
-505.726	800.000	0.047	0.179
-504.712	-109.594	0.326	-0.069
-503.697	800.000	0.029	0.089
-502.683	-72.392	0.058	0.022
-501.668	58.627	0.131	0.129
-500.653	-200.000	0.036	0.253
-499.639	800.000	-0.011	-0.039
-498.624	-90.924	0.348	-0.100
-497.610	-200.000	-0.011	0.275
-496.595	233.437	-0.120	-0.197
-495.581	-64.904	0.171	0.069
-494.566	-126.989	-0.532	-0.078
-493.551	53.997	-0.240	0.231
-492.537	59.774	-0.249	-0.246
-491.522	399.965	0.061	0.129
-490.508	-102.204	-0.053	-0.013
-489.493	800.000	-0.135	0.561
-488.478	-161.625	-0.175	-0.009
-487.464	-83.755	0.489	-0.156
-486.449	800.000	0.106	0.432
-485.435	136.484	-0.145	-0.190
-484.420	-124.848	0.180	0.028
-483.405	800.000	0.099	-0.371
-482.391	-152.611	-0.219	0.016
-481.376	800.000	-0.059	-0.195
-480.362	-200.000	0.007	-0.129
-479.347	-162.040	-0.292	-0.015
-478.332	-200.000	-0.002	0.057
-477.318	-200.000	0.004	-0.226
-476.303	-62.106	0.294	-0.123
-475.289	-200.000	0.004	0.193
-474.274	-160.736	0.055	-0.003
-473.259	227.112	0.050	-0.082
-472.245	800.000	0.046	-0.137
-471.230	-98.845	0.354	-0.090
-470.216	-72.918	-0.334	-0.123
-469.201	-58.454	-0.186	-0.081
-468.186	-190.088	0.100	-0.001
-467.172	800.000	0.054	0.192
-466.157	-27.180	-0.136	-0.079
-465.143	800.000	-0.063	0.208
-464.128	-40.727	0.182	0.094
-463.113	248.286	-0.150	-0.253
-462.099	762.651	-0.102	-0.277
-461.084	-181.581	-0.162	-0.003
-460.070	-4.981	-0.245	-0.169
-459.055	-200.000	0.004	0.032
-458.040	-20.569	0.098	-0.060
-457.026	-113.078	0.296	-0.058
-456.011	800.000	0.045	-0.126
-454.997	-60.892	0.277	0.117
-453.982	106.411	-0.263	0.312
-452.968	-150.894	-0.275	-0.021
-451.953	147.346	0.022	-0.030
-450.938	-200.000	-0.010	-0.233
-449.924	-113.845	-0.072	-0.014
-448.909	-114.359	0.272	-0.052
-447.895	-200.000	0.028	0.199
-446.880	225.819	-0.196	0.318
-445.865	61.760	0.180	-0.179
-444.851	160.660	-0.150	0.209
-443.836	-82.374	-0.263	0.085
-442.822	-200.000	0.002	0.089
-441.807	-100.338	0.204	0.050
-440.792	324.050	-0.148	-0.283
-439.778	-170.436	-0.181	-0.006
-438.763	-88.226	0.324	0.097
-437.749	-200.000	-0.022	0.202
-436.734	800.000	-0.083	0.250
-435.719	5.742	0.204	-0.150
-434.705	800.000	-0.097	-0.368
-433.690	2.499	0.079	0.057
-432.676	800.000	-0.064	0.190
-431.661	81.007	0.421	-0.454
-430.646	61.659	-0.258	-0.256
-429.632	-200.000	0.016	-0.192
-428.617	-200.000	-0.051	0.333
-427.603	476.673	-0.135	-0.304
-426.588	800.000	-0.045	0.175
-425.573	-89.980	-0.344	-0.100
-424.559	18.514	0.061	0.048
-423.544	39.410	0.156	0.139
-422.530	-77.907	-0.275	0.095
-421.515	446.272	-0.094	0.207
-420.500	800.000	-0.181	0.629
-419.486	411.263	-0.109	-0.230
-418.471	-200.000	-0.039	0.240
-417.457	130.080	-0.097	0.124
-416.442	338.891	0.087	-0.169
-415.428	50.119	0.026	0.024
-414.413	-200.000	-0.025	-0.112
-413.398	-71.050	-0.315	0.118
-412.384	241.001	0.047	0.078
-411.369	172.792	0.181	0.260
-410.355	-158.369	-0.396	0.023
-409.340	383.006	0.131	-0.270
-408.325	-200.000	0.038	-0.296
-407.311	193.387	0.156	0.235
-406.296	74.164	0.082	0.086
-405.282	800.000	-0.073	-0.252
-404.267	-137.821	0.581	0.065
-403.252	217.809	-0.069	-0.110
-402.238	-148.353	0.047	-0.004
-401.223	78.209	0.069	0.073
-400.209	294.713	0.061	-0.112
-399.194	171.846	0.128	0.184
-398.179	-128.066	0.237	-0.034
-397.165	-51.090	0.178	-0.083
-396.150	-31.924	-0.284	0.158
-395.136	-140.764	-0.699	0.072
-394.121	80.880	0.242	-0.260
-393.106	-66.060	0.197	0.079
-392.092	-200.000	0.062	-0.460
-391.077	46.776	0.262	-0.243
-390.063	400.917	-0.044	0.093
-389.048	-42.020	0.252	-0.129
-388.033	-121.665	0.162	-0.027
-387.019	292.142	0.123	-0.223
-386.004	-200.000	-0.027	-0.136
-384.990	-200.000	-0.024	0.249
-383.975	-82.486	0.111	-0.036
-382.960	196.911	0.334	0.507
-381.946	85.506	-0.137	-0.150
-380.931	-172.976	0.195	-0.006
-379.917	-129.396	0.019	-0.003
-378.902	-129.271	-0.238	-0.033
-377.888	-200.000	-0.002	0.086
-376.873	-83.554	-0.186	-0.059
-375.858	800.000	-0.007	-0.026
-374.844	317.817	-0.097	0.182
-373.829	-75.755	-0.211	-0.075
-372.815	161.889	-0.138	0.193
-371.800	-140.057	0.098	-0.010
-370.785	-200.000	0.010	-0.246
-369.771	-54.197	0.125	0.057
-368.756	20.748	0.171	0.138
-367.742	82.910	0.366	-0.397
-366.727	-200.000	0.041	-0.267
-365.712	800.000	-0.096	0.362
-364.698	800.000	0.158	-0.530
-363.683	707.884	0.024	-0.064
-362.669	-156.872	-0.431	-0.026
-361.654	-46.773	0.389	0.190
-360.639	-58.994	0.142	-0.061
-359.625	-83.611	-0.257	-0.082
-358.610	-10.915	-0.162	-0.107
-357.596	-168.698	0.205	-0.008
-356.581	-72.735	-0.075	0.028
-355.566	-74.566	-0.214	-0.077
-354.552	64.941	0.161	0.162
-353.537	800.000	0.053	0.203
-352.523	144.375	-0.175	0.232
-351.508	359.923	-0.130	-0.259
-350.493	1.270	-0.141	0.101
-349.479	-143.113	-0.238	-0.023
-348.464	208.979	-0.116	-0.181
-347.450	800.000	-0.032	0.118
-346.435	1.903	-0.277	0.199
-345.420	-109.160	0.306	0.065
-344.406	-200.000	0.013	-0.312
-343.391	166.260	0.221	-0.312
-342.377	-200.000	-0.224	0.000
-341.362	-109.623	0.132	-0.028
-340.348	259.959	-0.059	0.102
-339.333	78.553	0.088	-0.094
-338.318	-131.016	-0.052	-0.007
-337.304	-45.471	-0.312	0.154
-336.289	31.112	0.226	-0.193
-335.275	573.756	-0.031	-0.074
-334.260	-115.629	0.266	-0.050
-333.245	54.905	0.129	-0.124
-332.231	203.823	0.126	0.194
-331.216	-91.006	-0.248	-0.071
-330.202	-5.533	0.218	-0.149
-329.187	377.925	-0.038	0.077
-328.172	-12.410	0.398	-0.259
-327.158	175.661	0.108	-0.157
-326.143	800.000	-0.069	0.282
-325.129	-169.659	-0.238	0.009
-324.114	695.063	0.091	0.238
-323.099	158.338	0.193	0.267
-322.085	246.673	-0.157	-0.263
-321.070	-55.657	0.135	0.060
-320.056	-123.512	0.231	0.037
-319.041	-3.521	-0.173	0.119
-318.026	382.937	0.173	-0.354
-317.012	-99.728	-0.234	0.058
-315.997	61.236	0.411	-0.406
-314.983	-178.956	-0.085	0.002
-313.968	800.000	-0.186	0.541
-312.953	283.530	0.141	-0.251
-311.939	-77.946	-0.210	-0.072
-310.924	-67.561	0.182	0.071
-309.910	-49.652	0.144	0.068
-308.895	-61.655	0.277	0.116
-307.880	-200.000	-0.011	-0.074
-306.866	701.734	0.036	0.093
-305.851	-200.000	-0.055	0.463
-304.837	60.227	-0.306	-0.301
-303.822	800.000	-0.030	0.115
-302.807	227.199	0.107	0.173
-301.793	-71.142	-0.066	-0.025
-300.778	800.000	-0.030	0.113
-299.764	397.125	0.140	0.292
-298.749	488.054	-0.076	-0.173
-297.735	-200.000	-0.005	-0.168
-296.720	-120.703	0.052	-0.009
-295.705	378.157	-0.035	-0.072
-294.691	339.079	-0.064	-0.124
-293.676	204.136	-0.207	-0.319
-292.662	-50.180	-0.288	0.135
-291.647	142.173	0.151	0.199
-290.632	-110.042	0.068	0.014
-289.618	-152.724	-0.415	0.029
-288.603	800.000	-0.042	0.137
-287.589	-4.435	0.104	-0.071
-286.574	-129.984	0.088	0.012
-285.559	-116.248	-0.100	-0.018
-284.545	367.535	0.078	0.157
-283.530	-143.337	-0.294	-0.028
-282.516	-62.077	-0.118	-0.049
-281.501	800.000	-0.086	0.250
-280.486	681.203	0.046	0.118
-279.472	-16.821	0.238	0.150
-278.457	363.844	0.102	-0.203
-277.443	411.743	-0.068	-0.144
-276.428	104.053	-0.105	0.122
-275.413	800.000	0.091	-0.258
-274.399	39.927	-0.276	0.246
-273.384	144.205	0.144	0.190
-272.370	37.127	-0.241	-0.212
-271.355	-103.453	0.241	0.056
-270.340	800.000	-0.008	-0.029
-269.326	-200.000	-0.010	-0.171
-268.311	-89.756	0.468	0.136
-267.297	145.103	0.066	0.088
-266.282	-115.207	0.067	0.013
-265.267	-110.654	-0.360	-0.074
-264.253	787.579	0.088	0.240
-263.238	90.010	0.179	-0.198
-262.224	-113.846	0.233	-0.045
-261.209	-200.000	0.041	0.297
-260.195	-200.000	-0.006	0.099
-259.180	254.165	0.173	-0.293
-258.165	-89.355	-0.304	-0.089
-257.151	800.000	-0.094	0.364
-256.136	-146.198	-0.388	-0.034
-255.122	137.596	-0.073	0.095
-254.107	-200.000	0.002	-0.437
-253.092	595.046	0.018	-0.045
-252.078	267.481	0.135	0.235
-251.063	-21.640	0.168	0.101
-250.049	-200.000	-0.001	0.080
-249.034	-150.020	-0.178	-0.014
-248.019	-80.667	-0.131	0.043
-247.005	-162.996	0.070	-0.003
-245.990	68.391	0.034	-0.035
-244.976	148.431	0.020	0.027
-243.961	-200.000	0.049	-0.277
-242.946	279.671	-0.103	0.182
-241.932	-200.000	-0.027	-0.192
-240.917	-11.754	0.073	-0.047
-239.903	-70.731	-0.130	0.049
-238.888	341.846	-0.083	-0.160
-237.873	167.037	0.105	0.147
-236.859	-200.000	-0.005	0.309
-235.844	-200.000	0.036	-0.169
-234.830	-200.000	-0.299	-0.001
-233.815	87.952	-0.064	-0.070
-232.800	301.321	-0.022	0.041
-231.786	-56.365	0.213	0.094
-230.771	15.117	-0.160	-0.124
-229.757	512.677	0.133	0.308
-228.742	-7.385	-0.155	-0.104
-227.727	55.870	0.256	0.246
-226.713	22.547	0.255	0.207
-225.698	-95.382	-0.243	0.065
-224.684	-189.797	0.244	-0.003
-223.669	-150.499	-0.152	0.012
-222.655	79.714	0.042	0.044
-221.640	-200.000	0.049	0.253
-220.625	71.711	-0.036	-0.037
-219.611	-200.000	-0.036	-0.266
-218.596	382.009	-0.126	0.255
-217.582	795.893	-0.092	-0.251
-216.567	-41.746	0.166	-0.084
-215.552	-29.461	0.300	0.170
-214.538	-14.927	0.132	-0.084
-213.523	-6.608	-0.081	-0.054
-212.509	-116.470	0.254	-0.047
-211.494	224.160	-0.028	-0.045
-210.479	800.000	0.112	-0.308
-209.465	-200.000	0.019	-0.131
-208.450	111.554	-0.042	-0.050
-207.436	-200.000	0.008	0.037
-206.421	-94.855	-0.104	0.028
-205.406	-3.926	0.105	-0.072
-204.392	-110.793	-0.031	-0.006
-203.377	800.000	0.034	0.126
-202.363	-105.679	0.295	-0.066
-201.348	-87.733	0.235	0.070
-200.333	-60.568	-0.046	0.019
-199.319	-134.549	0.389	-0.047
-198.304	433.239	0.017	0.037
-197.290	-131.904	0.268	-0.035
-196.275	800.000	-0.087	0.243
-195.260	280.725	-0.055	-0.098
-194.246	103.913	0.174	0.202
-193.231	-147.323	-0.398	-0.033
-192.217	-11.897	0.271	0.176
-191.202	-58.454	-0.066	-0.028
-190.187	-22.274	0.218	-0.131
-189.173	141.225	0.027	-0.035
-188.158	-200.000	0.046	0.000
-187.144	800.000	0.053	-0.160
-186.129	-93.981	-0.483	-0.131
-185.114	13.062	-0.113	-0.086
-184.100	574.120	-0.098	0.237
-183.085	-72.843	0.164	-0.060
-182.071	-95.112	0.134	0.036
-181.056	-200.000	0.001	-0.017
-180.042	394.371	0.102	0.209
-179.027	-120.625	-0.051	-0.008
-178.012	121.178	0.156	0.192
-176.998	416.775	-0.094	0.197
-175.983	65.295	-0.230	0.230
-174.969	800.000	0.060	-0.235
-173.954	-8.524	0.131	-0.087
-172.939	-73.485	0.106	-0.038
-171.925	-116.500	0.337	0.061
-170.910	800.000	-0.121	-0.365
-169.896	-148.823	0.494	-0.040
-168.881	113.078	0.175	0.210
-167.866	399.842	-0.125	0.258
-166.852	739.759	-0.011	0.029
-165.837	-200.000	-0.013	-0.063
-164.823	-200.000	-0.006	0.075
-163.808	-33.414	-0.013	0.007
-162.793	156.201	0.181	-0.247
-161.779	-87.267	-0.120	-0.036
-160.764	-110.665	-0.170	-0.035
-159.750	-162.238	0.100	0.005
-158.735	771.644	-0.076	0.205
-157.720	-200.000	-0.020	-0.171
-156.706	64.545	0.120	-0.120
-155.691	-144.541	-0.170	-0.016
-154.677	-90.489	0.273	-0.078
-153.662	85.077	0.299	-0.324
-152.647	-200.000	-0.021	-0.140
-151.633	-63.479	-0.150	0.061
-150.618	-200.000	-0.034	0.153
-149.604	-11.538	0.142	-0.092
-148.589	285.813	-0.120	0.214
-147.574	-200.000	0.035	-0.184
-146.560	715.900	-0.118	0.310
-145.545	102.938	-0.348	-0.403
-144.531	-109.312	-0.341	0.071
-143.516	8.688	-0.121	0.090
-142.502	-42.322	0.213	-0.108
-141.487	-130.996	0.418	-0.055
-140.472	240.726	0.158	0.260
-139.458	53.525	-0.042	0.040
-138.443	-83.050	0.390	-0.124
-137.429	-8.719	0.262	0.174
-136.414	337.501	0.086	-0.165
-135.399	23.367	-0.145	-0.117
-134.385	-200.000	0.025	-0.341
-133.370	-33.808	-0.046	0.025
-132.356	-200.000	0.020	0.147
-131.341	-139.898	-0.566	-0.059
-130.326	441.944	-0.063	0.137
-129.312	-5.771	-0.088	-0.060
-128.297	-200.000	0.033	-0.255
-127.283	-146.783	0.316	-0.027
-126.268	126.864	0.156	0.196
-125.253	-51.123	-0.044	-0.021
-124.239	315.021	0.211	-0.393
-123.224	-77.566	0.291	0.099
-122.210	0.852	-0.391	-0.276
