DTS Sentinel unit serial number:	SN413079Multiplexer serial number:	ORYXHardware model number:	OX4-SRSoftware version number:	ORYX F/W v4.00 Oryx Data Collector v3.7.2.0data status	okinstallation	princeton_trtdifferential loss correction	single-endedforward channel	channel 1reverse channel	N/Adate	2019/09/17time	17:30:35forward acquisition time	60.00reverse acquisition time	0.00gamma	496.2192k internal	0.2292k external	0.2292temperature offset calibration	0.9957default loss term (dB/km)	0.3790temperature slope calibration	1.0000multiplexer offset coefficient	1.0000multiplexer slope coefficient	1.0000fibre end	0.00T internal ref (°C)	43.19T ext. ref 1 (°C)	0.34T ext. ref 2 (°C)	39.10length (m)	temperature (°C)	Stokes	anti-Stokes-747.200	800.000	0.025	0.094
-746.185	135.803	-0.180	0.240
-745.171	27.399	-0.040	0.035
-744.156	-132.217	-0.281	-0.037
-743.142	467.186	-0.098	-0.224
-742.127	800.000	0.126	0.524
-741.112	286.578	-0.052	0.095
-740.098	276.623	0.109	0.198
-739.083	-200.000	-0.006	0.264
-738.069	96.899	-0.119	0.139
-737.054	-6.631	0.141	-0.098
-736.039	800.000	0.042	0.153
-735.025	-99.605	0.205	-0.053
-734.010	226.082	0.010	-0.016
-732.996	178.620	0.262	-0.391
-731.981	800.000	0.070	-0.217
-730.966	12.936	-0.215	0.170
-729.952	-5.622	-0.379	0.266
-728.937	287.332	-0.101	0.187
-727.923	-149.077	-0.096	0.008
-726.908	-63.479	-0.108	-0.046
-725.894	8.385	-0.048	0.037
-724.879	-89.304	-0.442	-0.133
-723.864	115.858	0.202	-0.252
-722.850	800.000	-0.012	-0.044
-721.835	-41.363	0.333	-0.176
-720.821	-57.554	0.247	-0.111
-719.806	66.987	-0.118	-0.123
-718.791	-200.000	-0.107	0.000
-717.777	-24.881	-0.078	0.047
-716.762	110.387	0.108	-0.132
-715.748	-51.161	0.498	-0.239
-714.733	-21.275	0.211	0.132
-713.718	-131.627	0.139	-0.019
-712.704	37.319	0.062	-0.056
-711.689	696.482	0.182	0.488
-710.675	-200.000	-0.011	-0.096
-709.660	-162.852	-0.155	-0.008
-708.645	800.000	-0.103	0.313
-707.631	800.000	-0.013	0.041
-706.616	-200.000	0.034	-0.167
-705.602	-200.000	-0.021	-0.194
-704.587	43.853	0.154	-0.144
-703.572	-121.946	-0.318	-0.053
-702.558	-107.311	0.124	-0.028
-701.543	-3.925	-0.216	-0.153
-700.529	-71.621	-0.301	-0.115
-699.514	397.734	-0.078	-0.166
-698.499	-200.000	0.003	0.118
-697.485	-200.000	-0.006	-0.183
-696.470	372.593	0.148	0.308
-695.456	-115.830	-0.080	-0.015
-694.441	46.334	-0.155	-0.146
-693.426	-63.067	0.030	0.012
-692.412	382.207	0.124	0.261
-691.397	22.477	-0.229	-0.191
-690.383	-62.100	-0.217	0.093
-689.368	533.236	-0.147	-0.356
-688.354	800.000	0.048	-0.157
-687.339	-7.248	0.254	-0.176
-686.324	-132.256	0.177	-0.023
-685.310	-87.350	0.310	0.096
-684.295	-200.000	0.050	-0.330
-683.281	80.200	-0.127	-0.139
-682.266	-83.287	0.104	-0.034
-681.251	-8.270	0.052	-0.036
-680.237	-123.989	-0.483	0.078
-679.222	424.952	0.105	0.232
-678.208	-200.000	0.037	0.398
-677.193	-2.039	0.115	0.082
-676.178	-41.809	0.182	0.095
-675.164	800.000	0.078	0.234
-674.149	162.573	-0.116	0.165
-673.135	160.530	0.114	-0.162
-672.120	511.638	0.076	-0.180
-671.105	-56.958	-0.284	0.128
-670.091	-93.168	-0.278	0.079
-669.076	36.445	0.057	0.051
-668.062	-152.391	-0.254	-0.019
-667.047	-26.908	-0.169	-0.101
-666.032	-46.133	0.078	-0.039
-665.018	-200.000	-0.000	-0.061
-664.003	-21.223	0.062	0.039
-662.989	-99.969	-0.039	0.010
-661.974	800.000	-0.087	0.257
-660.959	425.809	-0.031	-0.069
-659.945	172.180	-0.106	-0.155
-658.930	800.000	0.043	-0.156
-657.916	47.377	0.252	0.240
-656.901	-200.000	0.023	0.186
-655.886	502.315	-0.133	-0.315
-654.872	-200.000	0.001	0.063
-653.857	-200.000	-0.019	-0.162
-652.843	-200.000	-0.041	-0.269
-651.828	-175.585	0.226	0.006
-650.814	2.926	-0.215	-0.159
-649.799	142.893	0.082	0.111
-648.784	-200.000	0.028	-0.261
-647.770	-72.288	0.271	-0.102
-646.755	800.000	0.046	-0.202
-645.741	-23.696	0.259	-0.159
-644.726	-118.300	-0.127	0.023
-643.711	-200.000	0.005	0.199
-642.697	-88.668	-0.109	0.033
-641.682	250.276	0.212	-0.367
-640.668	800.000	-0.029	0.108
-639.653	-3.447	0.211	0.149
-638.638	214.742	-0.087	0.140
-637.624	38.698	0.142	-0.129
-636.609	-200.000	-0.001	0.129
-635.595	710.610	-0.031	-0.084
-634.580	-102.533	0.146	-0.036
-633.565	81.616	0.081	0.089
-632.551	800.000	-0.096	0.386
-631.536	252.703	-0.170	0.295
-630.522	-23.571	0.145	-0.089
-629.507	-27.683	0.306	0.181
-628.492	-64.570	-0.327	-0.135
-627.478	-182.934	-0.310	0.006
-626.463	-36.727	0.356	0.195
-625.449	-34.382	-0.243	0.136
-624.434	140.048	-0.130	-0.174
-623.419	-200.000	0.002	-0.122
-622.405	138.019	0.050	-0.067
-621.390	-33.814	-0.348	-0.195
-620.376	-69.248	-0.059	-0.023
-619.361	-200.000	-0.059	0.270
-618.346	-87.838	0.117	0.036
-617.332	332.650	-0.113	0.221
-616.317	800.000	-0.069	0.296
-615.303	-10.158	-0.290	0.196
-614.288	693.391	-0.159	0.425
-613.273	-200.000	-0.071	0.397
-612.259	800.000	-0.068	0.237
-611.244	34.587	-0.059	0.052
-610.230	103.446	-0.219	0.261
-609.215	158.854	0.130	0.184
-608.201	-15.470	0.083	0.054
-607.186	-84.166	0.236	0.076
-606.171	35.390	-0.084	-0.075
-605.157	-200.000	0.004	-0.461
-604.142	226.431	0.216	0.357
-603.128	-200.000	-0.005	-0.203
-602.113	800.000	-0.041	-0.135
-601.098	279.421	0.077	0.140
-600.084	-128.534	0.384	0.055
-599.069	800.000	-0.055	0.238
-598.055	800.000	-0.045	0.149
-597.040	590.497	-0.033	0.083
-596.025	620.911	0.089	-0.227
-595.011	151.458	0.235	-0.326
-593.996	-200.000	0.024	0.381
-592.982	194.214	0.131	0.202
-591.967	33.354	0.142	0.125
-590.952	330.731	-0.118	0.232
-589.938	-92.816	0.126	0.036
-588.923	535.421	0.046	0.112
-587.909	800.000	-0.031	-0.108
-586.894	2.151	0.036	0.027
-585.879	-48.586	0.186	0.091
-584.865	800.000	-0.028	0.119
-583.850	-181.178	0.183	-0.004
-582.836	-200.000	0.015	0.215
-581.821	-61.224	-0.085	-0.037
-580.806	-200.000	0.001	0.195
-579.792	54.829	-0.094	-0.092
-578.777	310.987	-0.070	0.134
-577.763	-27.178	0.287	-0.170
-576.748	394.325	-0.090	0.192
-575.733	-200.000	-0.002	-0.266
-574.719	224.090	-0.176	-0.289
-573.704	-200.000	0.017	-0.105
-572.690	-75.077	0.184	-0.067
-571.675	-156.125	0.088	-0.006
-570.661	87.450	0.198	0.223
-569.646	800.000	0.090	0.395
-568.631	26.178	0.186	0.158
-567.617	221.189	-0.156	0.254
-566.602	211.107	0.049	-0.078
-565.588	800.000	-0.017	-0.064
-564.573	-200.000	0.013	0.155
-563.558	-108.721	0.097	-0.021
-562.544	223.426	0.151	0.248
-561.529	800.000	0.067	-0.293
-560.515	83.257	0.022	-0.024
-559.500	-34.149	0.127	0.071
-558.485	121.817	0.259	0.328
-557.471	332.222	0.142	0.279
-556.456	-91.020	0.267	-0.078
-555.442	-200.000	-0.046	0.263
-554.427	800.000	-0.035	0.112
-553.412	90.723	0.138	-0.157
-552.398	55.572	0.138	0.135
-551.383	800.000	0.013	-0.050
-550.369	148.785	-0.135	0.185
-549.354	800.000	-0.015	-0.057
-548.339	-154.755	0.280	-0.019
-547.325	-200.000	-0.002	0.351
-546.310	-64.726	0.129	-0.053
-545.296	-165.335	0.332	-0.015
-544.281	20.724	-0.353	-0.290
-543.266	-85.374	-0.245	0.078
-542.252	-16.200	0.109	-0.071
-541.237	-148.036	0.079	-0.007
-540.223	-91.103	-0.071	-0.021
-539.208	-74.247	-0.325	-0.119
-538.193	-200.000	-0.008	-0.050
-537.179	-200.000	0.079	0.363
-536.164	-200.000	-0.035	-0.214
-535.150	-78.551	-0.345	0.120
-534.135	1.223	0.241	0.175
-533.121	-163.136	0.116	0.006
-532.106	249.242	-0.113	0.194
-531.091	-200.000	0.011	-0.101
-530.077	-118.612	-0.229	0.041
-529.062	-63.564	-0.094	-0.039
-528.048	-50.959	-0.198	-0.094
-527.033	-200.000	0.014	-0.162
-526.018	800.000	0.011	-0.044
-525.004	-4.854	-0.131	0.092
-523.989	133.142	-0.171	-0.225
-522.975	463.510	-0.070	-0.158
-521.960	-174.400	-0.209	0.006
-520.945	109.148	-0.124	0.150
-519.931	163.871	0.084	-0.121
-518.916	-157.965	0.142	0.008
-517.902	-28.904	-0.115	0.067
-516.887	121.726	-0.201	0.255
-515.872	12.428	-0.219	0.172
-514.858	-200.000	-0.074	-0.363
-513.843	152.679	0.130	0.180
-512.829	-19.662	0.071	-0.045
-511.814	328.977	-0.029	-0.057
-510.799	-175.406	-0.236	0.007
-509.785	-13.685	-0.201	-0.132
-508.770	-200.000	0.028	0.316
-507.756	200.300	0.041	0.064
-506.741	81.145	-0.192	-0.211
-505.726	36.693	-0.192	-0.172
-504.712	-116.094	-0.261	0.049
-503.697	-150.386	-0.106	-0.008
-502.683	-45.058	0.211	0.107
-501.668	11.998	0.157	0.122
-500.653	2.952	-0.274	-0.201
-499.639	66.515	0.116	0.120
-498.624	157.294	-0.227	-0.319
-497.610	167.079	0.192	-0.276
-496.595	-200.000	0.018	-0.152
-495.581	242.699	0.113	-0.192
-494.566	800.000	0.085	-0.375
-493.551	-200.000	0.023	-0.257
-492.537	-200.000	-0.011	-0.176
-491.522	800.000	-0.028	-0.088
-490.508	36.884	-0.067	-0.060
-489.493	101.584	-0.417	-0.492
-488.478	-56.126	-0.108	-0.049
-487.464	800.000	-0.157	0.491
-486.449	-40.376	0.256	-0.135
-485.435	-200.000	-0.040	0.369
-484.420	-44.210	-0.101	-0.051
-483.405	-4.310	0.286	0.200
-482.391	-25.143	0.202	-0.121
-481.376	-200.000	-0.016	0.236
-480.362	462.800	0.093	-0.210
-479.347	-200.000	0.016	-0.482
-478.332	-77.852	0.142	-0.050
-477.318	24.536	-0.235	-0.197
-476.303	800.000	0.024	0.103
-475.289	-175.803	0.267	-0.007
-474.274	433.033	0.029	0.065
-473.259	228.840	0.104	-0.171
-472.245	-49.841	-0.111	0.053
-471.230	17.180	-0.054	0.044
-470.216	-200.000	-0.005	-0.292
-469.201	-200.000	0.004	0.210
-468.186	-158.914	-0.404	-0.023
-467.172	800.000	0.077	0.275
-466.157	108.266	-0.112	0.136
-465.143	223.903	0.051	0.084
-464.128	-13.436	0.064	-0.042
-463.113	223.808	-0.091	-0.148
-462.099	238.514	0.083	-0.140
-461.084	-21.739	0.203	0.125
-460.070	65.868	-0.171	-0.175
-459.055	172.769	-0.016	-0.023
-458.040	-150.733	0.304	-0.023
-457.026	172.236	0.081	-0.118
-456.011	-96.718	-0.195	0.052
-454.997	-200.000	-0.003	0.059
-453.982	173.570	-0.312	-0.456
-452.968	-28.340	0.131	-0.077
-451.953	800.000	0.112	-0.431
-450.938	-124.663	0.221	-0.035
-449.924	-143.713	0.125	-0.012
-448.909	43.315	-0.147	-0.136
-447.895	-79.536	0.349	-0.119
-446.880	-107.504	0.287	-0.064
-445.865	638.995	-0.048	-0.122
-444.851	92.295	-0.204	-0.233
-443.836	26.237	0.179	-0.151
-442.822	229.574	0.143	-0.237
-441.807	-200.000	0.011	-0.146
-440.792	11.082	-0.221	0.171
-439.778	-26.724	0.274	0.162
-438.763	-50.477	0.104	0.050
-437.749	-200.000	0.037	0.243
-436.734	-200.000	0.016	0.182
-435.719	-122.560	-0.155	-0.026
-434.705	-200.000	-0.012	-0.103
-433.690	-97.347	0.078	-0.020
-432.676	-143.320	-0.207	-0.020
-431.661	210.601	-0.114	-0.181
-430.646	494.498	0.045	-0.104
-429.632	-116.611	-0.139	0.026
-428.617	800.000	0.062	-0.247
-427.603	195.164	-0.117	-0.180
-426.588	800.000	-0.065	-0.277
-425.573	-56.213	0.116	-0.052
-424.559	31.464	-0.028	-0.025
-423.544	-117.322	0.211	0.039
-422.530	101.589	-0.157	0.185
-421.515	800.000	0.108	-0.319
-420.500	-200.000	0.030	-0.172
-419.486	-200.000	0.024	-0.187
-418.471	-57.742	-0.036	0.016
-417.457	-83.152	-0.203	-0.066
-416.442	-41.208	0.201	-0.105
-415.428	-3.211	0.098	0.069
-414.413	52.810	-0.267	0.257
-413.398	-181.994	-0.218	0.004
-412.384	26.327	-0.122	-0.103
-411.369	800.000	0.030	0.112
-410.355	-200.000	0.002	0.109
-409.340	497.802	-0.035	-0.082
-408.325	-34.229	-0.177	-0.098
-407.311	-103.665	0.212	-0.050
-406.296	236.683	-0.284	-0.475
-405.282	-68.437	-0.303	0.119
-404.267	-200.000	0.037	-0.589
-403.252	149.828	0.239	0.327
-402.238	134.035	0.108	-0.142
-401.223	-27.200	-0.042	-0.025
-400.209	281.241	0.047	-0.084
-399.194	-76.513	-0.358	-0.127
-398.179	-2.223	-0.109	0.077
-397.165	-154.286	0.085	-0.006
-396.150	110.943	-0.156	-0.189
-395.136	-200.000	-0.016	0.250
-394.121	228.502	0.076	-0.125
-393.106	21.958	-0.194	-0.160
-392.092	-54.871	0.113	0.052
-391.077	-89.761	0.138	0.041
-390.063	800.000	0.133	0.502
-389.048	800.000	-0.036	-0.154
-388.033	-128.949	0.267	-0.038
-387.019	138.500	0.090	0.120
-386.004	-200.000	0.010	0.087
-384.990	-200.000	0.005	0.129
-383.975	116.772	0.059	-0.073
-382.960	-17.093	-0.035	0.022
-381.946	114.299	-0.153	0.188
-380.931	-200.000	0.041	-0.279
-379.917	481.585	-0.052	-0.118
-378.902	643.147	0.099	-0.254
-377.888	234.610	-0.001	-0.001
-376.873	-97.783	0.270	-0.071
-375.858	61.550	0.237	0.238
-374.844	67.809	0.177	-0.182
-373.829	-192.033	-0.094	0.001
-372.815	-18.717	0.358	-0.225
-371.800	-2.167	-0.097	0.069
-370.785	-5.105	-0.132	-0.092
-369.771	-200.000	0.003	0.103
-368.756	-67.288	-0.108	-0.043
-367.742	800.000	-0.054	-0.190
-366.727	-126.069	0.161	-0.024
-365.712	800.000	0.044	-0.134
-364.698	-125.261	0.302	-0.047
-363.683	471.760	0.108	-0.244
-362.669	460.677	-0.112	-0.252
-361.654	-78.147	-0.255	-0.088
-360.639	-56.797	-0.197	0.088
-359.625	-41.616	-0.116	0.060
-358.610	123.418	0.048	0.061
-357.596	-200.000	-0.017	0.135
-356.581	-95.137	0.103	-0.028
-355.566	800.000	0.022	-0.070
-354.552	-15.326	-0.237	-0.153
-353.537	-87.045	-0.101	0.031
-352.523	155.191	-0.179	0.248
-351.508	-115.669	0.250	-0.047
-350.493	59.370	0.222	0.220
-349.479	-172.524	0.084	0.003
-348.464	-36.030	-0.193	-0.105
-347.450	-65.204	-0.118	-0.048
-346.435	208.104	-0.059	0.093
-345.420	18.897	0.138	0.111
-344.406	310.543	0.151	0.285
-343.391	-2.124	-0.194	-0.137
-342.377	29.166	-0.049	-0.042
-341.362	-100.766	-0.193	0.048
-340.348	800.000	0.101	0.376
-339.333	45.199	-0.137	0.128
-338.318	-185.055	0.386	0.006
-337.304	332.901	0.095	-0.186
-336.289	-188.243	0.083	0.001
-335.275	-169.606	0.106	0.004
-334.260	125.605	0.039	-0.049
-333.245	743.484	-0.063	-0.171
-332.231	-200.000	-0.044	-0.277
-331.216	-56.049	-0.148	0.066
-330.202	213.440	-0.165	-0.263
-329.187	52.296	0.184	0.177
-328.172	-2.331	0.264	-0.186
-327.158	567.325	-0.121	-0.297
-326.143	-4.415	0.090	0.062
-325.129	-200.000	-0.029	-0.228
-324.114	229.997	0.089	0.146
-323.099	73.946	-0.063	-0.067
-322.085	-130.450	-0.170	0.023
-321.070	-77.187	0.141	0.049
-320.056	525.219	0.043	0.102
-319.041	-86.829	-0.239	0.074
-318.026	800.000	-0.047	-0.175
-317.012	275.456	-0.074	0.132
-315.997	800.000	0.040	0.174
-314.983	-154.846	0.491	0.033
-313.968	-200.000	0.026	-0.160
-312.953	-200.000	0.045	-0.254
-311.939	590.106	0.084	-0.207
-310.924	-73.714	0.082	-0.030
-309.910	112.533	-0.169	0.205
-308.895	800.000	-0.028	0.109
-307.880	-0.209	-0.171	-0.122
-306.866	-90.068	-0.284	-0.083
-305.851	128.401	-0.065	0.083
-304.837	410.305	0.112	-0.240
-303.822	-81.308	0.237	0.079
-302.807	185.741	0.134	0.201
-301.793	-200.000	0.001	0.153
-300.778	67.476	-0.055	-0.056
-299.764	-94.721	0.136	-0.037
-298.749	-40.500	0.142	-0.074
-297.735	160.478	-0.079	-0.111
-296.720	-167.204	0.354	0.014
-295.705	-92.620	-0.383	-0.108
-294.691	632.599	0.008	0.019
-293.676	-153.494	0.090	0.006
-292.662	-200.000	-0.006	0.076
-291.647	-200.000	0.005	-0.124
-290.632	-49.079	0.200	0.096
-289.618	-54.886	0.276	0.125
-288.603	-200.000	-0.038	0.270
-287.589	-200.000	0.009	0.322
-286.574	-200.000	0.011	0.218
-285.559	-200.000	0.034	0.151
-284.545	-24.273	-0.112	-0.067
-283.530	800.000	0.128	0.388
-282.516	255.781	0.173	-0.299
-281.501	182.029	-0.087	0.128
-280.486	18.817	0.137	-0.110
-279.472	-6.450	-0.231	-0.158
-278.457	-35.951	0.082	0.045
-277.443	306.270	-0.130	-0.243
-276.428	-116.121	0.386	0.072
-275.413	136.058	0.235	-0.307
-274.399	229.728	-0.075	-0.123
-273.384	-41.899	0.223	-0.115
-272.370	-173.392	0.113	0.003
-271.355	249.500	0.133	-0.226
-270.340	-138.213	-0.205	-0.023
-269.326	105.500	0.092	-0.109
-268.311	404.193	0.046	0.097
-267.297	800.000	-0.077	0.240
-266.282	-200.000	-0.034	-0.200
-265.267	49.915	-0.262	-0.248
-264.253	-107.716	-0.229	-0.050
-263.238	-158.473	-0.370	-0.022
-262.224	800.000	-0.020	0.075
-261.209	220.745	0.060	-0.096
-260.195	178.503	-0.211	-0.310
-259.180	354.591	0.110	0.220
-258.165	-193.712	-0.398	-0.003
-257.151	14.889	-0.291	-0.229
-256.136	143.943	0.210	-0.281
-255.122	-60.145	-0.115	-0.049
-254.107	-18.884	-0.258	-0.161
-253.092	-200.000	0.021	0.151
-252.078	800.000	0.029	0.089
-251.063	-53.489	0.063	0.029
-250.049	-112.796	0.072	-0.014
-249.034	-63.342	0.053	0.022
-248.019	-109.796	0.089	0.019
-247.005	758.233	0.079	0.214
-245.990	-38.138	0.101	0.054
-244.976	229.774	0.097	0.159
-243.961	-200.000	-0.026	-0.193
-242.946	-100.715	0.451	0.112
-241.932	-163.093	0.129	0.006
-240.917	186.245	0.296	0.441
-239.903	-156.850	0.163	-0.010
-238.888	105.400	0.084	0.099
-237.873	-10.287	-0.251	0.167
-236.859	-40.882	-0.064	0.033
-235.844	59.653	-0.192	-0.190
-234.830	-200.000	-0.015	0.599
-233.815	-121.099	-0.086	-0.014
-232.800	-17.554	-0.257	-0.162
-231.786	9.415	0.089	0.068
-230.771	-200.000	-0.016	-0.145
-229.757	-163.099	-0.227	0.011
-228.742	150.223	-0.235	-0.320
-227.727	170.770	0.040	-0.057
-226.713	-70.643	-0.297	-0.113
-225.698	800.000	-0.045	-0.162
-224.684	800.000	-0.053	-0.211
-223.669	506.686	0.087	0.202
-222.655	53.248	0.165	-0.159
-221.640	3.753	-0.186	-0.136
-220.625	35.653	-0.183	0.161
-219.611	472.993	-0.074	0.167
-218.596	4.813	0.319	-0.235
-217.582	182.951	-0.096	0.142
-216.567	158.902	0.146	0.203
-215.552	16.785	0.414	0.328
-214.538	800.000	-0.028	0.085
-213.523	-36.305	0.316	-0.171
-212.509	-200.000	-0.001	0.200
-211.494	277.632	0.130	0.232
-210.479	166.495	-0.139	0.198
-209.465	2.741	0.067	0.049
-208.450	-52.409	-0.284	0.132
-207.436	-10.972	-0.125	0.082
-206.421	-200.000	-0.027	-0.334
-205.406	358.377	-0.185	-0.370
-204.392	413.462	-0.047	-0.100
-203.377	242.772	-0.063	0.105
-202.363	-200.000	0.007	0.185
-201.348	-19.691	0.356	-0.221
-200.333	237.147	-0.227	0.378
-199.319	-12.549	0.139	0.091
-198.304	-132.004	-0.123	-0.016
-197.290	396.441	0.127	0.266
-196.275	800.000	0.062	0.239
-195.260	-97.757	-0.111	0.029
-194.246	184.661	0.025	0.037
-193.231	80.587	-0.234	-0.252
-192.217	-109.865	-0.192	-0.040
-191.202	48.625	0.263	0.247
-190.187	-200.000	0.002	0.316
-189.173	151.936	-0.168	-0.229
-188.158	-200.000	-0.012	-0.165
-187.144	57.766	0.321	0.314
-186.129	800.000	0.107	0.450
-185.114	83.907	-0.112	0.122
-184.100	9.817	-0.190	-0.144
-183.085	185.630	-0.112	0.166
-182.071	-37.517	-0.199	0.106
-181.056	-106.335	-0.244	-0.055
-180.042	4.893	0.188	0.138
-179.027	-69.664	-0.296	0.113
-178.012	202.395	0.016	-0.024
-176.998	-39.112	-0.404	-0.213
-175.983	-92.152	-0.235	0.067
-174.969	227.226	0.063	0.102
-173.954	-200.000	0.073	-0.353
-172.939	-200.000	0.046	0.319
-171.925	52.592	0.076	-0.073
-170.910	32.032	-0.104	-0.090
-169.896	800.000	-0.118	0.350
-168.881	-200.000	-0.014	-0.117
-167.866	642.935	-0.047	0.120
-166.852	751.702	-0.164	0.443
-165.837	52.327	-0.113	0.108
-164.823	800.000	0.081	-0.352
-163.808	90.476	-0.130	0.146
-162.793	147.405	0.107	-0.144
-161.779	800.000	0.021	-0.086
-160.764	55.190	0.155	-0.150
-159.750	184.708	0.101	0.150
-158.735	-154.595	-0.479	0.032
-157.720	800.000	-0.125	-0.481
-156.706	800.000	-0.028	0.108
-155.691	-22.063	0.321	-0.195
-154.677	800.000	0.055	-0.219
-153.662	800.000	-0.035	-0.138
-152.647	682.555	-0.105	0.273
-151.633	-200.000	0.017	0.290
-150.618	-54.299	0.084	-0.038
-149.604	211.550	0.189	-0.297
-148.589	-163.292	-0.233	0.011
-147.574	0.010	-0.108	-0.077
-146.560	439.369	-0.094	-0.205
-145.545	-200.000	-0.054	-0.239
-144.531	-200.000	0.012	-0.448
-143.516	656.265	0.108	-0.277
-142.502	81.991	0.064	0.070
-141.487	21.622	-0.100	-0.082
-140.472	-138.205	-0.089	0.010
-139.458	-200.000	-0.002	-0.206
-138.443	-166.699	0.158	0.007
-137.429	-121.832	0.285	-0.047
-136.414	176.824	0.072	0.105
-135.399	78.753	0.100	0.107
-134.385	-50.455	-0.144	0.068
-133.370	-128.480	0.240	0.034
-132.356	-131.966	-0.049	-0.006
-131.341	39.477	0.138	0.124
-130.326	320.747	-0.075	-0.142
-129.312	-200.000	-0.008	0.126
-128.297	-200.000	0.039	0.283
-127.283	-84.823	-0.265	0.083
-126.268	407.131	0.024	0.051
-125.253	-39.432	0.311	0.163
-124.239	-200.000	-0.017	-0.097
-123.224	-93.080	-0.156	-0.043
-122.210	-200.000	-0.002	-0.236
-121.195	-105.096	-0.374	0.086
