DTS Sentinel unit serial number:	SN413079Multiplexer serial number:	ORYXHardware model number:	OX4-SRSoftware version number:	ORYX F/W v4.00 Oryx Data Collector v3.7.2.0data status	okinstallation	princeton_trtdifferential loss correction	single-endedforward channel	channel 1reverse channel	N/Adate	2019/09/17time	04:06:35forward acquisition time	60.00reverse acquisition time	0.00gamma	496.2192k internal	0.2324k external	0.2324temperature offset calibration	0.9961default loss term (dB/km)	0.3790temperature slope calibration	1.0000multiplexer offset coefficient	1.0000multiplexer slope coefficient	1.0000fibre end	0.00T internal ref (°C)	29.87T ext. ref 1 (°C)	0.12T ext. ref 2 (°C)	24.33length (m)	temperature (°C)	Stokes	anti-Stokes-747.200	-4.618	0.119	0.083
-746.185	-72.761	-0.327	0.122
-745.171	800.000	-0.071	-0.228
-744.156	-63.527	0.186	0.077
-743.142	-13.255	-0.188	0.123
-742.127	-200.000	-0.015	0.283
-741.112	-5.971	-0.204	-0.141
-740.098	-32.224	-0.150	0.084
-739.083	118.132	-0.124	0.154
-738.069	4.841	0.068	-0.050
-737.054	740.050	0.028	0.077
-736.039	33.138	0.137	-0.120
-735.025	-25.866	0.153	0.091
-734.010	357.859	-0.190	0.382
-732.996	-33.076	-0.134	-0.075
-731.981	-45.258	0.178	0.089
-730.966	60.165	-0.201	0.201
-729.952	237.502	-0.126	0.210
-728.937	-200.000	-0.017	0.218
-727.923	335.756	0.129	0.253
-726.908	-200.000	-0.020	-0.214
-725.894	-6.278	0.218	-0.150
-724.879	142.503	0.074	-0.099
-723.864	800.000	-0.029	0.122
-722.850	114.122	-0.129	-0.158
-721.835	-120.863	0.106	-0.018
-720.821	1.218	0.132	0.095
-719.806	220.662	-0.208	-0.336
-718.791	64.039	-0.245	0.249
-717.777	433.226	-0.039	0.086
-716.762	141.283	-0.168	0.224
-715.748	-76.121	0.378	-0.135
-714.733	91.460	0.122	0.138
-713.718	138.687	0.215	0.285
-712.704	145.359	0.098	0.132
-711.689	42.911	-0.204	-0.187
-710.675	-72.009	0.337	0.126
-709.660	89.857	0.073	0.082
-708.645	-200.000	-0.006	-0.063
-707.631	203.326	-0.018	0.028
-706.616	643.681	0.034	-0.089
-705.602	-74.234	0.112	-0.041
-704.587	800.000	-0.051	-0.184
-703.572	38.302	0.234	-0.210
-702.558	-170.831	0.117	-0.004
-701.543	199.680	0.197	0.305
-700.529	645.143	0.061	0.157
-699.514	-84.885	-0.402	-0.127
-698.499	2.529	-0.130	-0.095
-697.485	32.774	0.282	0.246
-696.470	32.072	0.064	0.056
-695.456	108.784	-0.076	-0.092
-694.441	-22.466	0.126	-0.077
-693.426	63.781	0.154	-0.156
-692.412	-65.869	-0.213	0.086
-691.397	180.720	-0.092	-0.136
-690.383	-200.000	0.028	-0.264
-689.368	12.488	-0.215	0.167
-688.354	-200.000	-0.004	-0.312
-687.339	-200.000	-0.009	0.406
-686.324	-104.912	-0.556	-0.129
-685.310	58.867	-0.088	-0.087
-684.295	527.145	-0.129	-0.307
-683.281	800.000	-0.028	0.101
-682.266	800.000	-0.109	0.385
-681.251	260.072	0.168	0.292
-680.237	63.941	-0.254	-0.257
-679.222	-165.801	0.055	0.002
-678.208	800.000	0.036	0.137
-677.193	369.696	0.207	-0.423
-676.178	-21.266	-0.015	0.009
-675.164	258.271	-0.111	0.192
-674.149	800.000	-0.075	-0.269
-673.135	-69.935	0.192	0.074
-672.120	52.309	-0.073	-0.070
-671.105	209.243	0.213	-0.337
-670.091	164.717	0.154	0.219
-669.076	148.318	-0.043	0.059
-668.062	-43.805	-0.182	0.092
-667.047	800.000	-0.098	0.312
-666.032	-66.596	0.260	-0.104
-665.018	800.000	0.044	-0.142
-664.003	231.001	-0.283	-0.466
-662.989	-4.557	0.060	0.042
-661.974	-200.000	-0.026	-0.167
-660.959	-118.757	-0.257	0.046
-659.945	800.000	-0.046	0.134
-658.930	219.907	0.075	-0.122
-657.916	800.000	-0.081	-0.289
-656.901	-157.139	-0.194	-0.012
-655.886	-163.207	0.162	0.008
-654.872	50.243	-0.224	-0.213
-653.857	-136.001	-0.163	0.019
-652.843	-83.527	0.366	0.118
-651.828	-196.176	-0.249	0.002
-650.814	202.086	-0.047	-0.073
-649.799	199.825	0.105	-0.161
-648.784	237.212	0.147	0.245
-647.770	11.006	0.082	-0.063
-646.755	-200.000	-0.012	0.183
-645.741	-200.000	0.002	0.050
-644.726	-200.000	0.020	-0.138
-643.711	693.691	-0.211	-0.557
-642.697	-25.775	0.121	-0.072
-641.682	162.685	-0.119	-0.168
-640.668	-51.527	0.281	0.132
-639.653	800.000	0.054	0.150
-638.638	15.512	0.132	0.104
-637.624	-103.171	-0.206	0.049
-636.609	-200.000	0.007	-0.158
-635.595	763.761	0.057	-0.157
-634.580	14.236	-0.276	0.216
-633.565	800.000	0.082	0.284
-632.551	-16.833	0.163	-0.103
-631.536	513.097	-0.076	0.179
-630.522	445.352	0.206	0.455
-629.507	-80.334	-0.427	-0.143
-628.492	-200.000	-0.028	-0.177
-627.478	-200.000	-0.044	0.306
-626.463	9.391	-0.176	-0.134
-625.449	-12.171	-0.086	-0.057
-624.434	-200.000	0.046	-0.318
-623.419	-24.765	-0.220	0.131
-622.405	95.233	0.147	-0.169
-621.390	-200.000	0.011	-0.115
-620.376	-46.627	0.080	-0.039
-619.361	126.333	-0.121	-0.154
-618.346	59.241	0.281	0.278
-617.332	584.843	0.064	-0.158
-616.317	-157.498	0.103	-0.006
-615.303	-103.355	-0.272	0.065
-614.288	209.527	0.058	-0.092
-613.273	-200.000	-0.062	-0.292
-612.259	-44.791	-0.079	0.040
-611.244	-200.000	-0.004	-0.092
-610.230	3.466	0.087	-0.064
-609.215	-63.136	0.109	-0.045
-608.201	-160.150	-0.073	0.004
-607.186	-114.531	-0.248	0.048
-606.171	800.000	-0.040	0.120
-605.157	-200.000	0.049	0.291
-604.142	136.875	0.137	0.180
-603.128	-71.474	-0.306	0.115
-602.113	-200.000	0.016	-0.092
-601.098	-150.234	0.147	0.011
-600.084	18.852	-0.239	0.192
-599.069	69.555	-0.105	0.108
-598.055	10.596	-0.209	0.160
-597.040	-42.335	0.150	-0.077
-596.025	-200.000	0.018	0.117
-595.011	-37.596	0.113	-0.060
-593.996	-19.851	0.198	0.123
-592.982	302.132	0.091	0.168
-591.967	-58.315	-0.068	-0.030
-590.952	116.042	0.043	-0.053
-589.938	114.525	-0.077	-0.095
-588.923	-5.789	-0.131	0.090
-587.909	-200.000	0.008	0.105
-586.894	135.357	-0.100	-0.130
-585.879	-82.150	-0.129	0.042
-584.865	336.683	0.124	0.241
-583.850	-142.359	0.321	-0.032
-582.836	-24.298	0.286	0.171
-581.821	-200.000	-0.029	0.273
-580.806	762.695	-0.072	-0.195
-579.792	800.000	-0.063	0.198
-578.777	-85.641	-0.246	0.077
-577.763	-53.509	-0.161	-0.074
-576.748	-133.445	0.089	-0.011
-575.733	45.908	0.161	0.149
-574.719	-2.487	0.167	-0.117
-573.704	-67.657	-0.372	0.146
-572.690	-200.000	0.013	-0.193
-571.675	328.902	-0.105	-0.203
-570.661	-88.183	-0.139	0.042
-569.646	-79.709	-0.195	0.066
-568.631	61.031	0.096	-0.096
-567.617	-75.116	0.225	0.081
-566.602	298.306	-0.016	0.029
-565.588	800.000	-0.086	0.258
-564.573	-200.000	-0.044	0.214
-563.558	800.000	-0.035	0.120
-562.544	-200.000	-0.039	-0.215
-561.529	82.061	-0.096	-0.105
-560.515	515.604	-0.091	-0.213
-559.500	-86.947	0.208	0.064
-558.485	-163.999	-0.187	0.009
-557.471	-80.515	-0.200	-0.067
-556.456	-0.933	0.038	-0.027
-555.442	-137.663	-0.132	0.015
-554.427	-200.000	-0.010	0.140
-553.412	172.657	0.103	-0.148
-552.398	-200.000	-0.018	-0.251
-551.383	39.626	-0.338	-0.303
-550.369	-142.424	-0.163	-0.016
-549.354	-53.872	0.179	0.082
-548.339	61.341	-0.252	0.251
-547.325	-50.434	-0.046	0.022
-546.310	-109.011	-0.405	0.086
-545.296	33.748	-0.136	0.119
-544.281	-77.677	-0.294	0.102
-543.266	442.771	0.182	0.399
-542.252	-172.732	-0.302	0.009
-541.237	255.541	0.026	-0.044
-540.223	-118.149	0.195	-0.035
-539.208	228.192	-0.057	0.094
-538.193	252.916	0.105	-0.180
-537.179	89.705	-0.068	-0.076
-536.164	72.977	-0.104	-0.109
-535.150	-200.000	-0.050	-0.241
-534.135	-100.035	0.158	0.039
-533.121	-103.633	-0.387	0.091
-532.106	324.760	0.048	0.091
-531.091	-200.000	0.055	-0.531
-530.077	-94.768	-0.170	0.046
-529.062	10.710	0.149	0.114
-528.048	-141.107	-0.651	-0.067
-527.033	-141.176	0.174	-0.018
-526.018	-122.872	0.037	0.006
-525.004	-51.351	-0.343	-0.161
-523.989	800.000	-0.032	0.112
-522.975	95.670	-0.165	0.188
-521.960	-79.289	0.229	0.078
-520.945	-42.683	-0.193	0.098
-519.931	-36.629	-0.299	0.161
-518.916	267.806	-0.160	0.280
-517.902	113.090	-0.168	-0.204
-516.887	75.630	-0.021	-0.023
-515.872	-35.237	-0.088	0.048
-514.858	-128.247	-0.186	-0.027
-513.843	31.372	-0.091	0.078
-512.829	800.000	-0.116	-0.488
-511.814	21.287	-0.139	0.113
-510.799	-200.000	-0.042	0.274
-509.785	9.736	0.125	-0.095
-508.770	-23.325	0.089	0.054
-507.756	31.249	-0.145	-0.125
-506.741	-71.638	-0.284	-0.106
-505.726	46.434	0.165	0.154
-504.712	25.547	-0.126	0.104
-503.697	-106.748	-0.178	0.040
-502.683	-53.901	0.230	0.105
-501.668	348.483	0.140	0.276
-500.653	463.501	-0.095	-0.213
-499.639	17.075	-0.107	0.085
-498.624	-102.254	-0.022	-0.005
-497.610	-78.895	-0.228	0.078
-496.595	237.991	-0.210	-0.348
-495.581	-42.379	0.263	-0.134
-494.566	257.992	-0.213	0.366
-493.551	-27.220	-0.434	0.253
-492.537	-131.786	0.355	0.046
-491.522	34.031	0.164	0.143
-490.508	-11.461	0.127	-0.084
-489.493	-200.000	-0.004	0.048
-488.478	-47.348	-0.120	-0.058
-487.464	-87.671	-0.334	0.101
-486.449	-65.825	-0.215	-0.086
-485.435	-87.234	-0.059	0.018
-484.420	-128.417	-0.094	-0.013
-483.405	438.699	-0.078	0.170
-482.391	-2.466	0.305	-0.214
-481.376	-110.885	-0.223	0.046
-480.362	-156.939	0.187	0.011
-479.347	-163.687	-0.065	0.003
-478.332	-124.892	-0.096	0.015
-477.318	-186.449	0.101	0.001
-476.303	-14.133	-0.350	-0.226
-475.289	-200.000	0.024	-0.183
-474.274	-200.000	0.007	-0.080
-473.259	-200.000	0.026	-0.185
-472.245	-56.139	-0.048	-0.021
-471.230	-200.000	0.003	0.173
-470.216	-142.604	0.127	-0.012
-469.201	-33.268	0.237	0.131
-468.186	800.000	-0.036	-0.146
-467.172	-43.351	0.033	-0.017
-466.157	-141.739	-0.138	-0.014
-465.143	-111.105	-0.113	0.023
-464.128	-25.307	-0.127	0.075
-463.113	267.467	-0.102	-0.179
-462.099	-57.624	0.275	-0.120
-461.084	200.568	0.156	-0.240
-460.070	-200.000	-0.007	-0.200
-459.055	-5.614	0.262	-0.179
-458.040	-112.419	-0.202	-0.040
-457.026	142.724	0.187	-0.248
-456.011	43.424	0.097	-0.088
-454.997	-86.863	-0.081	-0.025
-453.982	-88.198	-0.314	0.094
-452.968	591.788	-0.058	-0.144
-451.953	-60.434	-0.158	-0.067
-450.938	-36.216	-0.405	0.218
-449.924	-4.416	-0.189	0.130
-448.909	-200.000	0.040	0.261
-447.895	-30.431	0.044	0.025
-446.880	702.991	0.080	0.211
-445.865	-120.219	0.138	-0.023
-444.851	-140.009	-0.087	0.009
-443.836	-54.375	-0.181	-0.082
-442.822	-43.740	0.253	-0.127
-441.807	3.338	-0.184	-0.134
-440.792	45.045	0.263	-0.241
-439.778	800.000	-0.068	-0.216
-438.763	119.606	-0.202	-0.249
-437.749	383.828	-0.171	0.352
-436.734	-200.000	0.026	0.230
-435.719	-200.000	-0.020	0.229
-434.705	800.000	-0.117	-0.453
-433.690	156.526	0.072	-0.099
-432.676	800.000	0.072	-0.222
-431.661	-7.785	-0.180	0.121
-430.646	-50.603	-0.258	0.121
-429.632	-200.000	0.010	-0.381
-428.617	215.291	-0.080	0.126
-427.603	-83.393	-0.130	0.042
-426.588	90.528	-0.225	-0.251
-425.573	-200.000	-0.012	0.123
-424.559	361.064	-0.123	0.247
-423.544	123.445	-0.122	0.152
-422.530	326.069	-0.052	-0.100
-421.515	-6.125	0.196	-0.134
-420.500	131.755	0.242	-0.310
-419.486	51.046	-0.111	-0.105
-418.471	800.000	0.078	-0.330
-417.457	318.376	-0.101	-0.191
-416.442	-5.244	0.129	0.089
-415.428	-54.120	0.367	-0.166
-414.413	389.734	0.027	0.056
-413.398	-116.263	-0.175	0.032
-412.384	646.678	0.066	-0.168
-411.369	-200.000	0.008	0.088
-410.355	27.011	0.105	-0.088
-409.340	-200.000	0.045	0.200
-408.325	46.149	-0.290	-0.267
-407.311	-58.076	0.194	0.084
-406.296	247.173	-0.125	0.211
-405.282	800.000	0.048	0.169
-404.267	-55.009	-0.222	0.100
-403.252	800.000	0.087	-0.317
-402.238	132.003	-0.194	0.249
-401.223	-70.539	0.118	-0.044
-400.209	239.639	0.101	-0.167
-399.194	-200.000	-0.004	0.018
-398.179	-200.000	0.059	-0.421
-397.165	-113.717	-0.157	-0.030
-396.150	-84.448	0.293	-0.092
-395.136	800.000	-0.089	-0.287
-394.121	800.000	0.114	-0.326
-393.106	-200.000	0.068	0.300
-392.092	288.660	-0.198	-0.357
-391.077	-200.000	0.020	-0.192
-390.063	514.970	-0.149	-0.347
-389.048	800.000	-0.074	0.216
-388.033	-77.034	0.198	-0.069
-387.019	298.810	0.164	-0.300
-386.004	800.000	0.111	0.397
-384.990	-31.177	-0.273	-0.153
-383.975	-31.159	0.180	-0.101
-382.960	-164.597	0.286	0.013
-381.946	342.315	-0.175	0.341
-380.931	-200.000	0.024	0.435
-379.917	-1.869	0.224	0.157
-378.902	171.196	0.262	-0.374
-377.888	99.157	0.071	-0.082
-376.873	16.613	-0.113	-0.089
-375.858	-82.161	0.068	0.022
-374.844	800.000	-0.038	-0.158
-373.829	-28.134	-0.130	0.075
-372.815	43.514	0.163	0.149
-371.800	-74.397	0.327	-0.118
-370.785	-97.371	-0.319	-0.083
-369.771	-94.665	0.192	0.052
-368.756	29.769	-0.056	0.048
-367.742	451.350	-0.027	0.060
-366.727	500.724	0.026	-0.061
-365.712	-200.000	0.051	0.310
-364.698	229.696	0.182	-0.295
-363.683	156.533	0.266	0.366
-362.669	-123.550	0.294	0.046
-361.654	-200.000	-0.024	0.313
-360.639	-115.702	-0.159	-0.030
-359.625	255.953	0.129	0.220
-358.610	187.792	-0.101	-0.150
-357.596	23.630	0.096	0.079
-356.581	-200.000	-0.012	0.270
-355.566	177.950	-0.147	-0.214
-354.552	-110.508	0.082	-0.017
-353.537	800.000	0.194	-0.554
-352.523	480.344	-0.157	0.353
-351.508	-136.957	0.302	0.034
-350.493	431.017	-0.089	-0.193
-349.479	143.722	0.104	0.138
-348.464	-163.584	0.354	-0.017
-347.450	800.000	-0.009	-0.029
-346.435	-7.538	-0.122	-0.082
-345.420	-200.000	-0.007	-0.123
-344.406	-64.859	0.177	-0.071
-343.391	-124.486	0.111	0.017
-342.377	162.556	0.176	0.245
-341.362	800.000	0.096	0.297
-340.348	-146.611	0.048	0.004
-339.333	-43.499	-0.361	-0.181
-338.318	-116.258	0.294	0.054
-337.304	-100.853	-0.191	0.047
-336.289	800.000	-0.079	-0.250
-335.275	-66.789	-0.083	-0.033
-334.260	-87.985	0.448	-0.134
-333.245	-52.574	0.264	-0.121
-332.231	-148.633	-0.202	0.016
-331.216	-78.854	0.179	0.061
-330.202	47.815	0.300	0.278
-329.187	-119.929	0.166	0.028
-328.172	-151.006	-0.220	0.016
-327.158	169.956	-0.096	-0.136
-326.143	-193.479	0.087	-0.001
-325.129	174.539	-0.215	0.309
-324.114	-2.005	0.292	0.204
-323.099	-123.620	-0.283	0.045
-322.085	287.993	0.153	-0.275
-321.070	36.790	0.146	0.128
-320.056	-74.686	-0.101	-0.036
-319.041	143.176	0.110	0.145
-318.026	-44.569	0.126	0.063
-317.012	20.197	0.165	0.132
-315.997	566.230	-0.058	-0.139
-314.983	-200.000	-0.037	-0.210
-313.968	-200.000	-0.028	-0.268
-312.953	261.744	0.165	0.284
-311.939	276.779	0.131	0.230
-310.924	337.195	0.113	0.218
-309.910	74.674	-0.258	0.269
-308.895	628.885	-0.016	-0.041
-307.880	-192.906	-0.049	0.000
-306.866	-54.398	-0.124	0.056
-305.851	80.462	-0.125	-0.134
-304.837	800.000	0.043	-0.146
-303.822	239.601	-0.069	0.114
-302.807	702.563	0.054	0.140
-301.793	-18.003	-0.134	-0.083
-300.778	-61.240	-0.484	-0.202
-299.764	-108.869	0.171	0.036
-298.749	-200.000	-0.046	0.370
-297.735	-72.368	-0.276	-0.101
-296.720	27.431	0.264	0.221
-295.705	244.788	-0.189	-0.315
-294.691	-114.450	0.175	-0.033
-293.676	112.481	0.061	0.074
-292.662	800.000	-0.037	-0.127
-291.647	800.000	0.047	-0.181
-290.632	-137.595	0.159	0.018
-289.618	210.646	0.180	-0.281
-288.603	-78.194	0.270	-0.092
-287.589	-29.220	0.057	-0.033
-286.574	-39.166	0.253	-0.132
-285.559	-200.000	-0.003	-0.397
-284.545	800.000	0.094	0.335
-283.530	-159.892	0.101	0.005
-282.516	-9.078	-0.211	0.140
-281.501	-40.151	0.206	0.107
-280.486	-66.549	0.397	-0.156
-279.472	-123.704	0.156	-0.024
-278.457	-31.930	-0.188	-0.104
-277.443	-144.618	0.282	0.026
-276.428	21.623	0.048	-0.039
-275.413	-49.007	-0.175	-0.083
-274.399	47.448	-0.200	-0.185
-273.384	-97.633	0.336	0.086
-272.370	-41.331	0.272	-0.139
-271.355	-200.000	-0.005	0.411
-270.340	800.000	0.035	-0.106
-269.326	800.000	-0.049	-0.168
-268.311	-200.000	0.013	0.228
-267.297	53.942	-0.118	-0.112
-266.282	-200.000	0.237	0.001
-265.267	236.881	0.226	-0.371
-264.253	-109.604	-0.343	0.072
-263.238	6.934	0.366	0.270
-262.224	46.416	-0.036	-0.033
-261.209	-115.964	0.162	0.030
-260.195	50.728	0.199	-0.186
-259.180	85.071	0.055	0.059
-258.165	411.513	0.066	-0.139
-257.151	125.626	0.240	0.300
-256.136	-60.446	0.240	0.101
-255.122	-132.948	-0.210	-0.026
-254.107	-65.104	0.097	-0.039
-253.092	577.119	-0.114	-0.276
-252.078	-155.960	0.071	-0.004
-251.063	42.857	-0.053	0.048
-250.049	-200.000	-0.010	0.270
-249.034	-158.688	-0.217	-0.012
-248.019	23.027	0.262	0.213
-247.005	-48.068	0.264	0.126
-245.990	285.503	0.096	0.171
-244.976	102.794	0.202	0.234
-243.961	0.633	-0.156	0.110
-242.946	-17.985	-0.273	0.169
-241.932	800.000	-0.220	0.634
-240.917	68.462	-0.201	0.204
-239.903	54.717	-0.122	0.116
-238.888	87.345	0.054	0.059
-237.873	800.000	0.050	0.208
-236.859	59.402	0.043	0.042
-235.844	284.446	0.043	-0.076
-234.830	36.293	0.242	0.211
-233.815	-12.131	0.361	-0.234
-232.800	-200.000	-0.015	-0.242
-231.786	800.000	0.133	0.433
-230.771	240.916	0.049	0.080
-229.757	78.623	-0.079	0.084
-228.742	4.381	-0.120	0.087
-227.727	800.000	-0.051	-0.185
-226.713	-76.746	0.209	0.072
-225.698	42.396	0.111	-0.100
-224.684	-200.000	0.032	0.227
-223.669	86.130	0.172	0.187
-222.655	-114.949	-0.371	0.070
-221.640	179.887	-0.231	-0.334
-220.625	-22.516	0.437	0.261
-219.611	-189.513	0.081	-0.001
-218.596	27.691	0.220	-0.183
-217.582	-1.793	-0.221	0.154
-216.567	-54.224	-0.096	-0.043
-215.552	40.312	-0.213	0.189
-214.538	-58.380	0.276	-0.119
-213.523	100.553	-0.147	-0.169
-212.509	800.000	-0.033	-0.107
-211.494	-37.730	0.346	-0.182
-210.479	-0.522	-0.199	-0.139
-209.465	800.000	0.087	0.309
-208.450	-116.241	0.373	0.068
-207.436	-84.776	0.075	0.023
-206.421	-24.118	0.058	-0.034
-205.406	69.903	0.124	0.126
-204.392	-57.311	-0.217	-0.094
-203.377	-16.762	-0.098	-0.061
-202.363	-31.644	0.117	0.065
-201.348	42.598	-0.285	-0.256
-200.333	800.000	-0.099	-0.317
-199.319	116.565	0.121	0.147
-198.304	800.000	-0.024	0.101
-197.290	-24.989	-0.133	0.078
-196.275	-200.000	0.004	0.074
-195.260	-36.664	0.196	-0.104
-194.246	275.157	0.108	0.190
-193.231	-21.590	0.102	0.062
-192.217	-71.398	0.134	0.050
-191.202	-62.591	-0.099	-0.041
-190.187	91.401	0.217	0.241
-189.173	305.113	0.127	0.233
-188.158	168.203	-0.142	-0.200
-187.144	-89.889	0.181	-0.052
-186.129	-200.000	0.016	0.172
-185.114	-200.000	-0.110	-0.610
-184.100	-55.799	0.179	-0.079
-183.085	-74.464	0.236	0.084
-182.071	-179.111	-0.127	0.003
-181.056	-15.822	0.109	-0.069
-180.042	-154.287	-0.294	0.020
-179.027	-197.366	0.174	-0.001
-178.012	-5.872	-0.124	0.084
-176.998	-49.427	0.122	-0.057
-175.983	-96.179	-0.243	0.064
-174.969	381.828	-0.131	-0.265
-173.954	268.651	0.028	0.049
-172.939	-200.000	-0.037	-0.227
-171.925	-11.699	0.242	0.157
-170.910	-171.474	0.209	-0.007
-169.896	562.452	-0.016	0.039
-168.881	327.105	0.087	0.164
-167.866	96.608	0.083	-0.094
-166.852	163.163	-0.159	-0.221
-165.837	439.019	-0.161	-0.346
-164.823	800.000	0.172	-0.470
-163.808	-104.457	0.192	0.044
-162.793	-124.983	0.266	0.040
-161.779	169.625	0.032	0.045
-160.764	546.769	-0.152	-0.360
-159.750	638.765	-0.062	-0.157
-158.735	-200.000	0.009	0.109
-157.720	-200.000	-0.002	0.119
-156.706	362.338	-0.058	0.114
-155.691	-115.665	-0.390	-0.072
-154.677	-90.402	0.184	0.053
-153.662	-85.649	-0.160	0.049
-152.647	-200.000	0.053	0.312
-151.633	-102.239	-0.235	0.056
-150.618	95.958	-0.113	0.128
-149.604	-81.853	-0.396	0.128
-148.589	105.625	-0.293	-0.341
-147.574	-107.789	0.103	-0.022
-146.560	303.756	-0.032	-0.059
-145.545	-200.000	-0.017	-0.197
-144.531	-118.882	-0.194	0.034
-143.516	-69.384	-0.338	-0.128
-142.502	-51.299	0.401	-0.185
-141.487	-73.123	0.133	-0.048
-140.472	-98.871	-0.142	-0.036
-139.458	69.259	-0.023	-0.023
-138.443	257.780	0.181	-0.307
-137.429	-132.364	-0.300	0.038
-136.414	-200.000	0.031	-0.295
-135.399	800.000	-0.019	-0.068
-134.385	-115.801	0.387	-0.071
-133.370	-51.273	0.091	0.042
-132.356	-51.118	0.137	0.063
-131.341	800.000	-0.052	0.220
-130.326	149.939	0.089	0.119
-129.312	207.202	0.007	0.011
-128.297	-152.409	-0.238	0.017
-127.283	136.275	0.116	0.149
-126.268	87.465	0.263	-0.287
-125.253	-125.067	0.307	-0.046
-124.239	800.000	-0.035	0.140
-123.224	-200.000	-0.088	-0.437
-122.210	231.948	0.100	-0.162
-121.195	-126.250	0.148	-0.022
-120.180	-200.000	-0.046	0.269
