DTS Sentinel unit serial number:	SN413079Multiplexer serial number:	ORYXHardware model number:	OX4-SRSoftware version number:	ORYX F/W v4.00 Oryx Data Collector v3.7.2.0data status	okinstallation	princeton_trtdifferential loss correction	single-endedforward channel	channel 1reverse channel	N/Adate	2019/09/14time	16:38:35forward acquisition time	60.00reverse acquisition time	0.00gamma	496.2192k internal	0.2295k external	0.2295temperature offset calibration	1.0060default loss term (dB/km)	0.3790temperature slope calibration	1.0000multiplexer offset coefficient	1.0000multiplexer slope coefficient	1.0000fibre end	0.00T internal ref (°C)	38.00T ext. ref 1 (°C)	5.03T ext. ref 2 (°C)	33.69length (m)	temperature (°C)	Stokes	anti-Stokes-747.200	14.797	0.017	0.014
-746.185	544.728	0.097	0.236
-745.171	-200.000	-0.018	-0.321
-744.156	-157.164	-0.288	0.018
-743.142	718.169	0.085	-0.231
-742.127	-53.490	0.343	0.160
-741.112	40.262	-0.074	0.068
-740.098	-124.613	-0.197	-0.031
-739.083	-62.521	-0.188	0.080
-738.069	686.109	-0.046	-0.124
-737.054	144.827	0.123	-0.168
-736.039	-192.504	-0.318	-0.003
-735.025	308.562	-0.054	0.103
-734.010	33.056	0.114	-0.101
-732.996	71.154	-0.099	-0.105
-731.981	-91.208	0.324	0.095
-730.966	-24.518	-0.288	-0.176
-729.952	712.106	0.077	-0.208
-728.937	-141.632	-0.208	-0.021
-727.923	33.448	0.182	0.161
-726.908	80.271	0.032	-0.035
-725.894	-46.619	-0.068	0.034
-724.879	651.635	-0.156	-0.407
-723.864	791.116	-0.116	-0.326
-722.850	-114.054	0.098	0.019
-721.835	54.755	-0.104	-0.102
-720.821	800.000	0.066	0.205
-719.806	-29.147	0.261	-0.153
-718.791	-64.775	0.284	0.117
-717.777	-200.000	0.030	-0.252
-716.762	110.348	0.268	-0.328
-715.748	-200.000	-0.017	-0.123
-714.733	-68.238	-0.271	-0.107
-713.718	-200.000	-0.017	-0.156
-712.704	268.605	0.061	-0.110
-711.689	-123.284	0.056	0.009
-710.675	800.000	0.129	-0.425
-709.660	800.000	-0.059	0.180
-708.645	751.284	0.054	0.148
-707.631	21.695	-0.307	-0.255
-706.616	108.442	0.136	-0.166
-705.602	-200.000	0.062	-0.306
-704.587	-110.002	0.054	0.012
-703.572	-200.000	0.022	0.125
-702.558	-109.948	-0.117	0.025
-701.543	-110.334	0.137	-0.029
-700.529	667.550	-0.051	-0.135
-699.514	-95.537	0.170	0.046
-698.499	-30.531	0.262	0.151
-697.485	97.406	-0.051	-0.060
-696.470	111.666	-0.048	-0.059
-695.456	766.719	-0.024	0.066
-694.441	800.000	0.009	-0.032
-693.426	0.461	-0.009	-0.006
-692.412	69.792	-0.117	0.123
-691.397	-86.850	-0.340	-0.106
-690.383	25.609	-0.372	0.316
-689.368	20.913	-0.147	0.121
-688.354	-200.000	-0.009	0.426
-687.339	-43.237	-0.083	-0.043
-686.324	-118.583	0.260	0.047
-685.310	238.082	-0.133	0.225
-684.295	-82.703	-0.071	-0.024
-683.281	-81.653	-0.252	-0.084
-682.266	759.159	-0.021	0.057
-681.251	-52.512	-0.061	0.029
-680.237	-76.382	0.176	-0.063
-679.222	-200.000	-0.003	0.044
-678.208	-200.000	-0.033	0.273
-677.193	145.079	-0.082	-0.112
-676.178	-200.000	-0.007	0.063
-675.164	25.982	-0.243	0.207
-674.149	-200.000	-0.006	0.247
-673.135	-75.783	0.451	-0.163
-672.120	800.000	-0.032	0.115
-671.105	18.252	0.057	-0.046
-670.091	382.470	-0.086	-0.180
-669.076	80.982	-0.037	0.041
-668.062	636.440	-0.088	-0.227
-667.047	251.525	-0.224	-0.389
-666.032	-181.141	0.293	0.006
-665.018	-200.000	0.013	-0.165
-664.003	-3.340	-0.249	-0.177
-662.989	-200.000	-0.039	-0.229
-661.974	191.269	0.135	-0.207
-660.959	-79.484	-0.128	-0.044
-659.945	-137.747	0.170	0.019
-658.930	-124.850	-0.124	-0.020
-657.916	-92.386	-0.258	0.074
-656.901	-92.028	-0.191	-0.055
-655.886	-200.000	-0.006	0.143
-654.872	-55.841	-0.228	0.104
-653.857	-155.290	-0.197	-0.013
-652.843	10.368	0.136	-0.105
-651.828	-74.246	0.167	-0.061
-650.814	139.352	-0.279	0.374
-649.799	-200.000	0.015	0.184
-648.784	-90.128	-0.215	0.064
-647.770	66.589	-0.389	0.403
-646.755	-57.227	-0.322	-0.145
-645.741	29.427	0.234	-0.203
-644.726	492.160	0.071	-0.166
-643.711	70.576	-0.219	-0.230
-642.697	324.784	-0.127	0.248
-641.682	-102.753	-0.143	-0.035
-640.668	12.482	0.125	-0.098
-639.653	800.000	-0.107	-0.303
-638.638	2.929	-0.143	-0.106
-637.624	31.863	0.156	-0.137
-636.609	90.108	-0.265	0.301
-635.595	-47.817	0.447	-0.220
-634.580	22.809	-0.191	0.159
-633.565	-200.000	0.016	0.249
-632.551	7.251	0.254	0.193
-631.536	-57.905	0.160	-0.071
-630.522	339.515	0.003	0.006
-629.507	-87.421	0.015	0.004
-628.492	244.638	-0.027	0.047
-627.478	-7.925	-0.248	-0.170
-626.463	800.000	0.035	-0.114
-625.449	-32.245	-0.063	-0.036
-624.434	160.506	-0.053	-0.075
-623.419	-140.840	0.242	0.025
-622.405	-200.000	-0.024	-0.275
-621.390	800.000	-0.027	-0.103
-620.376	-200.000	0.000	-0.087
-619.361	7.602	-0.088	-0.067
-618.346	245.660	-0.121	0.208
-617.332	800.000	0.068	-0.271
-616.317	800.000	-0.062	0.275
-615.303	132.203	-0.066	0.087
-614.288	-88.823	-0.235	-0.071
-613.273	-200.000	0.058	-0.323
-612.259	-164.856	0.330	-0.015
-611.244	-137.134	-0.096	-0.011
-610.230	-56.570	0.138	0.062
-609.215	10.436	0.076	-0.059
-608.201	-200.000	-0.013	-0.358
-607.186	-200.000	0.006	-0.184
-606.171	-107.827	0.284	0.063
-605.157	-144.182	-0.242	0.023
-604.142	-41.742	-0.301	0.157
-603.128	109.162	0.111	0.135
-602.113	215.419	-0.091	-0.146
-601.098	-200.000	-0.017	-0.240
-600.084	-176.039	0.262	-0.007
-599.069	-3.572	0.088	-0.062
-598.055	-163.610	0.140	-0.007
-597.040	248.120	-0.080	0.138
-596.025	623.738	0.058	-0.147
-595.011	-25.362	0.140	0.084
-593.996	192.966	0.146	-0.224
-592.982	-83.561	-0.071	0.023
-591.967	173.932	0.132	-0.194
-590.952	800.000	-0.110	-0.385
-589.938	-88.627	-0.127	-0.039
-588.923	-28.293	-0.518	-0.304
-587.909	-200.000	0.015	0.110
-586.894	-111.858	0.117	0.024
-585.879	-200.000	-0.017	0.221
-584.865	-150.533	-0.096	0.007
-583.850	-200.000	-0.016	0.120
-582.836	-200.000	-0.030	0.457
-581.821	456.236	0.112	0.252
-580.806	119.798	-0.103	0.130
-579.792	-56.474	-0.181	0.082
-578.777	-200.000	0.031	-0.259
-577.763	8.766	-0.110	-0.084
-576.748	91.353	-0.178	-0.203
-575.733	124.641	0.097	0.124
-574.719	-82.764	-0.087	-0.029
-573.704	-156.116	-0.223	-0.014
-572.690	-200.000	0.040	0.290
-571.675	-41.772	-0.311	-0.162
-570.661	348.729	0.075	0.150
-569.646	-104.276	0.191	0.045
-568.631	64.560	0.135	0.138
-567.617	42.930	0.208	-0.192
-566.602	-126.909	-0.236	-0.035
-565.588	-116.780	-0.212	-0.040
-564.573	28.628	0.219	-0.188
-563.558	52.145	0.165	-0.160
-562.544	800.000	0.138	-0.390
-561.529	800.000	-0.057	0.193
-560.515	-45.964	0.117	-0.058
-559.500	233.157	0.164	-0.274
-558.485	-200.000	0.011	0.147
-557.471	-77.216	0.178	-0.063
-556.456	399.226	-0.128	0.272
-555.442	-40.750	-0.223	-0.117
-554.427	-115.135	0.375	0.072
-553.412	374.135	0.026	0.054
-552.398	645.566	0.117	0.303
-551.383	451.354	-0.126	0.283
-550.369	-71.768	0.101	0.038
-549.354	-200.000	-0.002	-0.219
-548.339	240.266	0.020	0.034
-547.325	251.417	-0.067	-0.116
-546.310	-200.000	-0.036	-0.266
-545.296	-200.000	-0.020	-0.143
-544.281	-18.912	-0.112	-0.071
-543.266	800.000	0.045	0.130
-542.252	32.871	0.185	-0.163
-541.237	-200.000	0.065	0.334
-540.223	51.228	-0.139	0.134
-539.208	-113.981	-0.339	-0.067
-538.193	-200.000	-0.043	-0.273
-537.179	16.257	-0.276	-0.220
-536.164	-110.419	0.090	0.019
-535.150	-17.795	-0.197	0.125
-534.135	-50.634	0.182	0.087
-533.121	392.915	0.106	0.223
-532.106	464.442	-0.059	-0.133
-531.091	800.000	0.029	-0.113
-530.077	168.315	0.145	-0.210
-529.062	-174.394	-0.125	0.004
-528.048	-102.781	0.052	0.013
-527.033	-148.922	-0.092	0.008
-526.018	-200.000	0.006	-0.360
-525.004	571.004	-0.199	0.490
-523.989	-200.000	-0.053	-0.263
-522.975	-78.251	-0.155	0.054
-521.960	35.924	0.155	-0.138
-520.945	-39.254	-0.239	0.127
-519.931	203.493	-0.071	-0.111
-518.916	136.394	-0.162	0.214
-517.902	272.488	-0.101	0.181
-516.887	262.640	0.078	0.138
-515.872	102.520	-0.222	-0.263
-514.858	-200.000	-0.052	-0.414
-513.843	277.295	-0.089	-0.161
-512.829	7.246	-0.121	0.092
-511.814	-190.430	-0.069	0.001
-510.799	1.273	0.278	-0.202
-509.785	-43.431	-0.266	-0.136
-508.770	104.285	-0.049	0.058
-507.756	-39.822	0.246	0.130
-506.741	3.302	0.046	-0.034
-505.726	-39.525	0.215	0.114
-504.712	-87.053	-0.142	-0.044
-503.697	-101.009	0.077	0.019
-502.683	-142.864	-0.164	0.016
-501.668	-79.205	-0.230	-0.079
-500.653	-22.784	0.095	0.058
-499.639	-160.338	-0.074	0.004
-498.624	339.839	0.221	-0.436
-497.610	-61.371	0.378	-0.161
-496.595	174.161	-0.160	-0.235
-495.581	-200.000	-0.011	-0.249
-494.566	12.024	0.248	0.193
-493.551	-99.956	-0.043	-0.011
-492.537	224.769	-0.040	0.066
-491.522	-200.000	0.018	0.100
-490.508	-89.504	-0.133	-0.040
-489.493	-200.000	-0.033	0.210
-488.478	-131.772	-0.247	0.033
-487.464	800.000	0.081	-0.256
-486.449	-181.186	0.298	-0.006
-485.435	750.399	-0.123	0.337
-484.420	90.673	-0.194	0.220
-483.405	108.557	-0.144	0.174
-482.391	-13.518	0.167	-0.110
-481.376	56.685	0.117	-0.115
-480.362	-79.213	0.325	-0.111
-479.347	6.703	0.244	0.183
-478.332	139.982	-0.117	-0.155
-477.318	14.012	-0.141	0.111
-476.303	800.000	-0.121	0.391
-475.289	562.325	0.092	0.226
-474.274	402.173	-0.169	-0.359
-473.259	-156.129	-0.089	0.006
-472.245	136.439	-0.029	-0.038
-471.230	800.000	0.050	0.182
-470.216	800.000	0.042	0.148
-469.201	-5.674	-0.113	0.079
-468.186	224.298	-0.215	0.352
-467.172	18.603	0.147	0.119
-466.157	-56.032	0.114	-0.051
-465.143	-125.415	-0.190	0.029
-464.128	350.189	0.065	-0.129
-463.113	-118.627	-0.170	-0.030
-462.099	60.128	-0.344	0.344
-461.084	25.628	-0.057	0.048
-460.070	319.982	-0.192	-0.368
-459.055	-56.863	-0.059	0.026
-458.040	630.454	0.089	-0.228
-457.026	800.000	0.058	-0.231
-456.011	800.000	-0.135	-0.404
-454.997	-75.179	-0.116	0.042
-453.982	-62.152	-0.070	-0.029
-452.968	800.000	-0.132	-0.384
-451.953	-114.149	-0.364	-0.071
-450.938	-40.055	-0.172	-0.091
-449.924	-82.154	0.140	0.046
-448.909	-200.000	0.009	-0.377
-447.895	200.166	-0.112	0.174
-446.880	-200.000	-0.004	-0.022
-445.865	115.641	0.082	-0.101
-444.851	800.000	0.137	0.402
-443.836	104.223	0.252	0.299
-442.822	-200.000	-0.019	0.121
-441.807	-90.296	-0.058	0.017
-440.792	-73.234	0.154	-0.057
-439.778	800.000	0.037	0.156
-438.763	42.957	-0.068	0.063
-437.749	460.350	0.050	-0.113
-436.734	223.937	-0.253	-0.413
-435.719	46.816	-0.259	-0.243
-434.705	-200.000	0.024	0.108
-433.690	404.015	0.082	0.174
-432.676	800.000	-0.043	0.170
-431.661	28.005	-0.041	-0.035
-430.646	78.458	-0.077	0.083
-429.632	-41.462	-0.386	-0.200
-428.617	-141.918	0.027	0.003
-427.603	-27.937	0.255	-0.149
-426.588	242.662	-0.161	0.272
-425.573	-15.974	-0.179	0.115
-424.559	516.737	0.104	-0.245
-423.544	90.456	0.091	-0.103
-422.530	-121.711	0.222	0.037
-421.515	-55.832	0.078	-0.035
-420.500	-200.000	0.042	0.194
-419.486	-6.196	0.195	-0.134
-418.471	-200.000	-0.054	0.299
-417.457	-142.375	-0.277	0.028
-416.442	-122.686	0.293	0.048
-415.428	-200.000	0.033	-0.167
-414.413	536.846	0.128	0.307
-413.398	19.613	-0.137	-0.111
-412.384	-27.574	0.204	-0.120
-411.369	259.857	0.191	-0.334
-410.355	-45.128	0.109	0.055
-409.340	-118.049	-0.208	-0.037
-408.325	800.000	0.028	-0.106
-407.311	60.318	0.182	-0.181
-406.296	-200.000	-0.032	0.219
-405.282	172.016	0.178	-0.258
-404.267	-200.000	-0.075	0.371
-403.252	75.746	0.088	-0.093
-402.238	168.698	-0.078	0.113
-401.223	-33.249	-0.254	-0.142
-400.209	-200.000	0.027	0.150
-399.194	-200.000	-0.037	0.181
-398.179	-200.000	-0.088	0.469
-397.165	-172.672	0.138	-0.004
-396.150	-200.000	0.008	-0.234
-395.136	670.515	0.055	0.144
-394.121	122.633	0.264	-0.334
-393.106	-26.033	-0.365	-0.217
-392.092	-200.000	0.025	0.312
-391.077	237.337	0.206	-0.345
-390.063	188.883	-0.165	-0.250
-389.048	60.831	0.088	-0.088
-388.033	519.546	-0.206	0.487
-387.019	130.432	0.145	-0.187
-386.004	-114.061	0.193	0.038
-384.990	79.044	-0.110	0.119
-383.975	243.336	0.121	0.204
-382.960	336.202	0.113	0.222
-381.946	-200.000	0.031	0.204
-380.931	379.917	-0.103	0.212
-379.917	-16.839	0.094	-0.060
-378.902	800.000	-0.117	0.393
-377.888	800.000	-0.073	0.214
-376.873	-35.110	-0.100	-0.055
-375.858	106.096	0.197	0.235
-374.844	56.737	0.346	-0.339
-373.829	-200.000	0.032	0.212
-372.815	-200.000	-0.028	0.169
-371.800	592.282	0.081	-0.202
-370.785	-116.290	-0.569	0.106
-369.771	9.072	0.111	-0.084
-368.756	-87.968	-0.141	-0.043
-367.742	-200.000	0.077	-0.399
-366.727	350.585	0.063	0.126
-365.712	314.355	0.046	0.088
-364.698	242.557	-0.050	-0.084
-363.683	-44.591	0.199	-0.100
-362.669	187.200	-0.169	-0.254
-361.654	800.000	-0.089	-0.299
-360.639	-33.694	0.151	-0.084
-359.625	52.048	0.182	0.174
-358.610	385.525	0.134	0.278
-357.596	-64.178	-0.267	0.109
-356.581	251.071	-0.022	0.038
-355.566	-200.000	0.003	-0.182
-354.552	-200.000	-0.001	0.132
-353.537	-86.263	-0.347	0.108
-352.523	-112.487	0.277	0.056
-351.508	800.000	0.085	-0.283
-350.493	201.559	-0.106	0.164
-349.479	277.935	0.015	0.027
-348.464	67.238	-0.140	0.144
-347.450	51.225	-0.210	0.200
-346.435	210.835	0.200	-0.316
-345.420	-57.421	0.140	-0.062
-344.406	795.892	0.060	0.166
-343.391	32.835	-0.044	-0.039
-342.377	-131.068	-0.321	0.043
-341.362	147.748	0.090	-0.122
-340.348	800.000	0.051	-0.145
-339.333	800.000	0.040	-0.149
-338.318	-200.000	-0.005	0.164
-337.304	-42.016	0.360	0.186
-336.289	8.487	-0.241	0.183
-335.275	12.428	-0.247	0.192
-334.260	10.152	-0.102	-0.078
-333.245	-200.000	-0.037	0.279
-332.231	-200.000	0.050	0.311
-331.216	800.000	0.110	0.388
-330.202	-200.000	-0.026	-0.201
-329.187	-84.646	-0.186	-0.059
-328.172	-134.572	-0.434	-0.053
-327.158	-200.000	0.027	0.260
-326.143	-200.000	-0.001	0.009
-325.129	-109.616	-0.179	-0.038
-324.114	215.457	0.201	0.321
-323.099	419.171	-0.009	-0.020
-322.085	-200.000	-0.002	0.318
-321.070	297.252	-0.114	0.211
-320.056	433.872	0.133	0.290
-319.041	211.567	0.113	-0.178
-318.026	-34.666	0.204	-0.112
-317.012	-91.761	0.321	-0.092
-315.997	-35.526	0.178	0.097
-314.983	222.301	0.059	0.096
-313.968	68.558	0.282	-0.291
-312.953	537.024	0.022	-0.052
-311.939	-105.891	0.242	-0.055
-310.924	800.000	-0.071	-0.272
-309.910	-3.978	0.141	-0.098
-308.895	15.710	-0.305	0.241
-307.880	800.000	-0.063	0.271
-306.866	-20.343	-0.073	-0.045
-305.851	220.306	0.058	-0.093
-304.837	-3.878	0.150	0.105
-303.822	26.407	0.099	0.083
-302.807	-200.000	-0.000	0.204
-301.793	12.286	-0.070	-0.054
-300.778	-154.705	-0.340	-0.023
-299.764	800.000	-0.041	0.124
-298.749	459.617	-0.127	-0.284
-297.735	153.409	-0.102	-0.141
-296.720	-133.783	-0.265	-0.033
-295.705	568.880	0.047	0.115
-294.691	64.266	0.071	0.071
-293.676	800.000	-0.040	-0.116
-292.662	-200.000	-0.049	0.237
-291.647	-129.739	0.050	-0.007
-290.632	-187.367	0.188	0.003
-289.618	144.148	0.040	-0.053
-288.603	-6.036	0.363	-0.249
-287.589	-25.914	-0.112	-0.066
-286.574	288.067	-0.141	0.256
-285.559	635.513	0.020	0.050
-284.545	238.996	0.094	0.157
-283.530	-84.994	0.356	-0.112
-282.516	-15.802	-0.263	0.168
-281.501	-13.508	0.118	0.077
-280.486	-175.746	-0.137	-0.004
-279.472	-116.858	0.268	-0.049
-278.457	-124.196	-0.182	0.029
-277.443	350.284	-0.054	-0.107
-276.428	-122.267	0.341	0.056
-275.413	261.155	-0.045	-0.078
-274.399	-200.000	-0.021	-0.214
-273.384	-200.000	-0.111	0.500
-272.370	-131.936	-0.136	0.018
-271.355	-56.321	-0.186	0.083
-270.340	-9.147	-0.130	-0.087
-269.326	1.687	0.117	-0.085
-268.311	-99.412	0.384	-0.097
-267.297	-200.000	0.063	-0.315
-266.282	-200.000	0.005	0.211
-265.267	475.783	0.288	0.654
-264.253	-200.000	-0.029	0.274
-263.238	119.791	-0.018	0.023
-262.224	117.226	0.242	-0.299
-261.209	-1.341	-0.037	0.026
-260.195	800.000	0.029	-0.092
-259.180	424.293	0.122	-0.263
-258.165	-122.506	0.249	0.041
-257.151	584.930	0.098	0.241
-256.136	-37.864	0.066	0.035
-255.122	-90.057	0.255	-0.075
-254.107	-200.000	-0.056	0.338
-253.092	-46.848	0.228	0.112
-252.078	-82.291	0.193	-0.063
-251.063	333.350	0.049	0.096
-250.049	3.495	0.153	-0.112
-249.034	800.000	-0.073	0.300
-248.019	-200.000	0.005	0.159
-247.005	-168.231	0.067	-0.003
-245.990	288.152	-0.134	-0.243
-244.976	-38.645	0.243	-0.129
-243.961	-13.556	-0.196	-0.127
-242.946	-44.543	0.165	0.083
-241.932	800.000	0.064	0.272
-240.917	800.000	0.080	-0.228
-239.903	800.000	0.047	0.207
-238.888	-23.140	-0.157	-0.095
-237.873	145.352	0.120	0.161
-236.859	-112.059	0.178	0.036
-235.844	800.000	-0.050	-0.218
-234.830	217.323	-0.143	-0.228
-233.815	-132.813	0.396	-0.051
-232.800	45.326	0.206	-0.191
-231.786	-34.025	0.177	-0.098
-230.771	204.963	0.085	-0.133
-229.757	38.692	-0.145	-0.130
-228.742	800.000	-0.011	0.045
-227.727	63.440	-0.250	-0.252
-226.713	-113.744	0.096	-0.019
-225.698	-41.040	-0.114	0.059
-224.684	-56.715	0.342	0.152
-223.669	140.168	0.071	-0.094
-222.655	-200.000	0.007	-0.288
-221.640	-110.532	0.530	0.110
-220.625	104.130	0.132	0.155
-219.611	-200.000	0.030	0.176
-218.596	-102.828	-0.126	-0.030
-217.582	-200.000	-0.031	0.272
-216.567	-200.000	-0.051	0.281
-215.552	63.983	0.237	-0.238
-214.538	21.785	-0.285	-0.232
-213.523	-113.729	-0.104	-0.020
-212.509	-200.000	-0.023	-0.122
-211.494	380.635	0.070	-0.144
-210.479	-200.000	0.001	0.248
-209.465	-44.356	0.103	-0.052
-208.450	-200.000	-0.018	0.155
-207.436	376.551	-0.066	0.136
-206.421	398.635	0.128	-0.268
-205.406	-177.729	0.214	-0.005
-204.392	-81.334	-0.396	-0.131
-203.377	-73.436	-0.205	-0.075
-202.363	800.000	-0.055	-0.242
-201.348	775.887	-0.130	0.355
-200.333	89.317	0.152	-0.169
-199.319	556.495	-0.056	-0.134
-198.304	-200.000	0.001	0.077
-197.290	-113.382	-0.401	-0.079
-196.275	-96.545	-0.204	-0.054
-195.260	-91.536	-0.190	0.054
-194.246	-200.000	0.033	0.146
-193.231	-93.379	0.180	0.050
-192.217	-37.330	0.153	-0.082
-191.202	-200.000	-0.058	-0.344
-190.187	291.737	-0.041	-0.075
-189.173	204.372	-0.124	0.192
-188.158	-108.150	-0.104	-0.023
-187.144	35.217	-0.203	0.178
-186.129	191.545	0.087	0.132
-185.114	64.460	0.022	-0.022
-184.100	-45.578	-0.174	0.086
-183.085	-200.000	0.002	0.082
-182.071	800.000	0.090	0.324
-181.056	-84.172	-0.404	0.128
-180.042	800.000	0.110	0.305
-179.027	12.585	-0.032	0.025
-178.012	284.447	-0.090	-0.162
-176.998	-96.377	0.191	0.051
-175.983	278.058	0.059	0.105
-174.969	-151.485	-0.206	0.015
-173.954	-48.136	0.161	0.078
-172.939	778.991	0.052	0.143
-171.925	-80.968	-0.245	-0.081
-170.910	69.572	0.116	-0.119
-169.896	-200.000	0.017	0.360
-168.881	117.422	0.211	-0.260
-167.866	-5.086	0.246	-0.169
-166.852	74.427	-0.272	-0.286
-165.837	-42.987	0.415	0.211
-164.823	-82.278	-0.078	-0.026
-163.808	-88.104	-0.099	-0.030
-162.793	519.854	-0.037	-0.088
-161.779	-44.388	0.145	0.073
-160.764	-200.000	-0.051	-0.470
-159.750	-29.531	0.171	0.098
-158.735	-39.025	-0.171	-0.090
-157.720	-200.000	0.032	-0.529
-156.706	-151.147	-0.196	0.015
-155.691	73.037	0.125	0.131
-154.677	800.000	0.079	0.287
-153.662	-55.734	-0.129	-0.058
-152.647	-200.000	-0.007	-0.425
-151.633	-93.606	0.287	0.079
-150.618	387.732	-0.141	-0.291
-149.604	-200.000	0.228	0.000
-148.589	-200.000	-0.042	-0.278
-147.574	196.293	-0.035	0.053
-146.560	-34.987	-0.386	0.210
-145.545	800.000	0.024	-0.099
-144.531	75.183	-0.219	0.230
-143.516	175.650	-0.148	0.215
-142.502	50.648	0.385	0.364
-141.487	800.000	0.037	-0.111
-140.472	-0.823	-0.093	0.066
-139.458	-101.887	-0.035	0.008
-138.443	-45.480	-0.212	0.105
-137.429	-28.248	0.126	0.072
-136.414	-65.315	0.082	-0.033
-135.399	-114.563	-0.182	-0.035
-134.385	38.195	-0.178	0.158
-133.370	44.797	0.076	0.070
-132.356	-200.000	0.002	0.078
-131.341	341.746	-0.075	0.146
-130.326	78.554	0.050	0.053
-129.312	800.000	0.048	0.136
-128.297	146.853	0.069	-0.093
-127.283	324.796	-0.106	0.202
-126.268	8.341	0.080	0.060
-125.253	-100.978	0.088	0.022
-124.239	-90.825	-0.145	-0.042
-123.224	-200.000	0.044	0.589
-122.210	-19.295	0.014	-0.009
-121.195	-200.000	0.012	0.085
