DTS Sentinel unit serial number:	SN413079Multiplexer serial number:	ORYXHardware model number:	OX4-SRSoftware version number:	ORYX F/W v4.00 Oryx Data Collector v3.7.2.0data status	okinstallation	princeton_trtdifferential loss correction	single-endedforward channel	channel 1reverse channel	N/Adate	2019/09/17time	05:38:35forward acquisition time	60.00reverse acquisition time	0.00gamma	496.2192k internal	0.2324k external	0.2324temperature offset calibration	0.9966default loss term (dB/km)	0.3790temperature slope calibration	1.0000multiplexer offset coefficient	1.0000multiplexer slope coefficient	1.0000fibre end	0.00T internal ref (°C)	29.12T ext. ref 1 (°C)	0.14T ext. ref 2 (°C)	22.93length (m)	temperature (°C)	Stokes	anti-Stokes-747.200	184.483	-0.110	0.165
-746.185	-200.000	-0.042	0.376
-745.171	350.813	-0.147	0.294
-744.156	289.126	0.126	0.231
-743.142	-125.375	0.220	0.034
-742.127	613.310	0.173	0.438
-741.112	75.882	-0.063	-0.067
-740.098	24.662	-0.216	0.180
-739.083	-33.557	-0.120	-0.067
-738.069	24.090	-0.115	-0.096
-737.054	-200.000	-0.015	-0.126
-736.039	-87.982	-0.172	0.052
-735.025	-200.000	-0.024	0.322
-734.010	-110.851	0.287	0.060
-732.996	800.000	0.058	-0.168
-731.981	-90.268	0.087	-0.025
-730.966	-168.691	-0.352	0.013
-729.952	143.997	-0.100	0.135
-728.937	0.887	-0.405	-0.293
-727.923	160.704	-0.098	0.138
-726.908	-50.314	-0.299	0.143
-725.894	-191.835	0.060	-0.001
-724.879	-200.000	0.016	-0.268
-723.864	-11.696	-0.313	0.208
-722.850	-115.944	-0.164	-0.031
-721.835	383.189	-0.172	-0.357
-720.821	800.000	0.022	0.095
-719.806	-82.249	0.073	-0.024
-718.791	-64.170	-0.331	0.136
-717.777	613.082	0.113	-0.285
-716.762	273.931	-0.037	0.065
-715.748	-96.638	0.360	-0.096
-714.733	800.000	0.050	0.162
-713.718	159.568	0.051	-0.072
-712.704	169.995	-0.026	-0.037
-711.689	53.886	-0.150	0.145
-710.675	66.367	0.096	0.098
-709.660	746.589	-0.164	-0.444
-708.645	-191.669	-0.530	0.005
-707.631	-73.073	0.210	-0.078
-706.616	-121.463	0.075	-0.013
-705.602	-31.755	-0.189	-0.107
-704.587	-50.085	-0.271	-0.129
-703.572	19.230	0.363	0.294
-702.558	263.855	-0.088	0.155
-701.543	-200.000	-0.006	0.060
-700.529	800.000	0.057	-0.194
-699.514	589.263	-0.037	-0.092
-698.499	25.845	-0.302	0.254
-697.485	27.626	-0.214	0.181
-696.470	10.839	-0.141	0.108
-695.456	-10.223	0.081	0.054
-694.441	161.682	-0.129	0.182
-693.426	180.948	0.089	0.132
-692.412	-85.738	-0.086	-0.027
-691.397	-200.000	0.029	0.212
-690.383	-75.732	0.134	-0.048
-689.368	-24.540	0.182	-0.109
-688.354	11.308	-0.373	-0.288
-687.339	78.599	0.058	-0.062
-686.324	-200.000	0.027	0.322
-685.310	-173.402	0.438	0.013
-684.295	-52.155	-0.442	-0.207
-683.281	383.433	-0.067	-0.139
-682.266	-133.018	-0.048	0.006
-681.251	800.000	-0.047	-0.138
-680.237	37.493	-0.202	0.180
-679.222	317.052	0.067	-0.127
-678.208	-163.858	0.255	0.012
-677.193	-95.287	-0.330	0.089
-676.178	523.573	0.091	0.216
-675.164	-200.000	0.007	-0.034
-674.149	-135.251	-0.136	0.016
-673.135	329.064	-0.046	0.090
-672.120	-2.391	0.057	0.040
-671.105	0.244	0.119	-0.085
-670.091	-154.804	-0.109	0.007
-669.076	-200.000	0.016	-0.277
-668.062	637.280	0.054	0.137
-667.047	-19.065	-0.139	0.087
-666.032	800.000	-0.083	-0.329
-665.018	-66.310	0.195	-0.078
-664.003	-49.306	0.354	0.170
-662.989	-62.061	0.279	0.117
-661.974	-64.608	-0.247	0.101
-660.959	-74.903	-0.158	-0.057
-659.945	-200.000	0.017	0.141
-658.930	589.989	0.114	-0.282
-657.916	-77.382	0.359	-0.125
-656.901	-8.968	-0.258	0.174
-655.886	-51.875	0.159	0.075
-654.872	-200.000	-0.021	0.295
-653.857	-155.980	-0.136	-0.009
-652.843	-200.000	0.000	0.085
-651.828	5.763	-0.321	-0.239
-650.814	-38.777	0.107	-0.057
-649.799	41.595	-0.149	-0.136
-648.784	194.565	-0.154	0.234
-647.770	155.086	-0.117	-0.162
-646.755	-200.000	0.001	-0.020
-645.741	76.259	0.173	0.185
-644.726	507.029	-0.073	-0.171
-643.711	-43.997	-0.122	-0.062
-642.697	-165.502	-0.095	-0.004
-641.682	-107.957	-0.184	-0.040
-640.668	-101.758	-0.061	-0.015
-639.653	-200.000	-0.004	0.193
-638.638	48.084	-0.337	0.317
-637.624	353.984	-0.132	0.263
-636.609	358.222	0.264	0.530
-635.595	4.142	-0.092	-0.068
-634.580	84.529	0.136	0.150
-633.565	45.823	0.438	0.407
-632.551	269.327	-0.132	-0.234
-631.536	-68.482	-0.324	-0.126
-630.522	-200.000	0.044	-0.200
-629.507	800.000	0.009	-0.034
-628.492	-109.034	-0.220	0.047
-627.478	-115.754	0.184	-0.035
-626.463	-38.119	-0.075	-0.040
-625.449	108.920	0.177	-0.212
-624.434	-118.393	0.102	-0.018
-623.419	703.153	-0.041	0.108
-622.405	-52.699	-0.152	-0.070
-621.390	-200.000	-0.051	-0.231
-620.376	137.964	0.212	0.278
-619.361	154.033	-0.105	0.144
-618.346	394.585	0.220	-0.461
-617.332	655.142	-0.134	-0.346
-616.317	92.206	-0.062	0.071
-615.303	-145.802	-0.234	0.021
-614.288	-111.535	0.196	-0.040
-613.273	140.762	0.207	-0.274
-612.259	-81.989	-0.246	-0.081
-611.244	-200.000	0.014	0.096
-610.230	-8.648	0.090	0.061
-609.215	-200.000	-0.060	-0.298
-608.201	499.199	0.106	0.244
-607.186	14.959	0.056	-0.044
-606.171	-125.147	-0.106	0.016
-605.157	800.000	0.022	-0.064
-604.142	338.705	0.074	0.146
-603.128	-200.000	0.030	-0.337
-602.113	-104.827	-0.113	0.026
-601.098	-106.814	-0.306	0.068
-600.084	-200.000	-0.058	-0.374
-599.069	-3.385	-0.080	-0.056
-598.055	-42.872	-0.200	0.102
-597.040	-149.953	0.245	-0.019
-596.025	6.347	-0.162	0.120
-595.011	-200.000	-0.013	0.128
-593.996	-7.557	0.100	-0.068
-592.982	-75.831	0.156	0.055
-591.967	-104.161	-0.261	0.061
-590.952	205.374	-0.151	-0.235
-589.938	-107.809	-0.331	0.072
-588.923	36.304	0.144	0.128
-587.909	42.004	0.173	0.157
-586.894	-39.838	-0.171	0.090
-585.879	156.551	-0.250	-0.346
-584.865	19.538	0.212	-0.171
-583.850	-200.000	-0.049	-0.363
-582.836	139.854	-0.050	0.066
-581.821	-98.704	-0.095	-0.024
-580.806	156.377	0.028	0.039
-579.792	26.569	-0.193	-0.162
-578.777	-200.000	0.007	-0.127
-577.763	800.000	-0.017	0.074
-576.748	178.031	-0.054	-0.079
-575.733	-51.360	0.130	0.061
-574.719	-24.254	0.191	-0.115
-573.704	-124.434	-0.387	-0.060
-572.690	-39.972	0.221	-0.115
-571.675	-200.000	-0.022	0.249
-570.661	-200.000	-0.030	-0.153
-569.646	-31.544	0.168	0.095
-568.631	81.722	-0.185	0.200
-567.617	7.366	-0.172	-0.129
-566.602	-27.174	-0.179	-0.104
-565.588	-27.109	0.128	-0.075
-564.573	800.000	0.035	0.118
-563.558	-42.436	-0.122	-0.063
-562.544	661.301	-0.075	0.193
-561.529	-34.951	0.323	-0.177
-560.515	212.400	0.134	-0.211
-559.500	342.011	-0.057	-0.111
-558.485	-9.149	-0.112	-0.075
-557.471	800.000	-0.027	0.077
-556.456	-200.000	0.022	0.379
-555.442	107.083	0.140	0.167
-554.427	-200.000	-0.029	-0.278
-553.412	47.321	-0.099	-0.093
-552.398	107.639	-0.064	-0.077
-551.383	-99.199	-0.210	0.053
-550.369	-200.000	0.005	0.070
-549.354	420.556	-0.072	-0.154
-548.339	383.837	0.129	-0.267
-547.325	-160.672	-0.457	-0.024
-546.310	-38.318	0.060	-0.032
-545.296	-110.806	0.288	0.059
-544.281	49.866	0.268	0.253
-543.266	271.357	0.156	-0.275
-542.252	328.371	0.182	0.350
-541.237	773.532	0.049	-0.133
-540.223	190.615	0.048	0.072
-539.208	800.000	-0.065	-0.215
-538.193	-30.797	-0.099	-0.056
-537.179	800.000	-0.044	0.156
-536.164	461.448	0.104	-0.233
-535.150	442.474	0.056	0.124
-534.135	-81.210	-0.145	0.048
-533.121	-70.781	0.333	-0.126
-532.106	30.796	-0.140	0.120
-531.091	-46.133	0.328	-0.162
-530.077	22.113	0.180	-0.147
-529.062	-21.938	-0.050	0.030
-528.048	-200.000	0.006	0.178
-527.033	225.316	0.110	0.179
-526.018	-132.926	-0.122	-0.015
-525.004	-200.000	-0.034	-0.212
-523.989	-114.203	0.165	-0.032
-522.975	-46.065	0.208	0.102
-521.960	71.185	-0.072	-0.075
-520.945	-46.044	-0.148	0.073
-519.931	-29.247	-0.119	0.068
-518.916	782.709	-0.072	0.197
-517.902	85.684	-0.155	-0.171
-516.887	344.593	-0.082	0.161
-515.872	-10.905	0.076	0.050
-514.858	-200.000	0.032	-0.252
-513.843	205.586	0.101	-0.157
-512.829	21.036	-0.273	0.221
-511.814	-200.000	-0.050	-0.248
-510.799	261.484	-0.071	-0.122
-509.785	238.853	-0.009	-0.016
-508.770	170.919	0.163	-0.234
-507.756	147.802	0.257	0.347
-506.741	800.000	-0.022	-0.071
-505.726	-67.614	0.243	-0.095
-504.712	517.276	0.080	-0.187
-503.697	800.000	0.067	-0.274
-502.683	155.396	-0.141	-0.194
-501.668	-12.739	0.293	0.191
-500.653	7.191	0.097	0.072
-499.639	-61.571	-0.111	0.046
-498.624	341.688	0.145	0.284
-497.610	158.679	-0.173	-0.241
-496.595	526.063	0.120	-0.284
-495.581	-121.306	-0.176	-0.029
-494.566	110.472	-0.066	-0.079
-493.551	800.000	0.031	0.119
-492.537	-61.132	-0.267	-0.113
-491.522	-133.364	0.078	0.010
-490.508	191.049	0.082	0.124
-489.493	800.000	0.060	0.205
-488.478	383.568	0.058	-0.120
-487.464	111.203	-0.251	-0.303
-486.449	800.000	0.073	-0.234
-485.435	-170.498	0.263	0.009
-484.420	695.457	-0.096	-0.253
-483.405	175.028	-0.216	0.312
-482.391	162.354	0.123	0.172
-481.376	-79.740	0.141	0.047
-480.362	-89.359	-0.187	-0.055
-479.347	-82.753	0.005	0.002
-478.332	244.006	0.046	0.077
-477.318	-200.000	0.006	0.074
-476.303	204.064	0.094	0.146
-475.289	112.113	0.060	-0.072
-474.274	-200.000	-0.035	-0.168
-473.259	71.812	-0.158	0.164
-472.245	-30.624	-0.216	-0.122
-471.230	182.560	-0.105	0.155
-470.216	-200.000	-0.072	-0.335
-469.201	-190.995	-0.404	-0.004
-468.186	50.118	-0.157	-0.148
-467.172	-65.813	-0.155	-0.062
-466.157	537.251	0.089	-0.211
-465.143	-200.000	-0.007	-0.094
-464.128	-144.396	-0.183	-0.017
-463.113	-85.761	0.190	0.059
-462.099	800.000	-0.067	-0.220
-461.084	-200.000	-0.038	-0.258
-460.070	800.000	-0.128	0.428
-459.055	800.000	-0.041	0.155
-458.040	36.250	-0.198	-0.174
-457.026	-200.000	-0.004	0.147
-456.011	-200.000	0.041	-0.518
-454.997	16.682	-0.197	0.156
-453.982	-200.000	-0.062	0.290
-452.968	50.763	0.284	0.269
-451.953	-181.638	-0.177	0.003
-450.938	-104.278	-0.130	-0.030
-449.924	-59.801	0.150	0.064
-448.909	732.791	0.011	0.028
-447.895	355.816	0.072	-0.142
-446.880	159.414	-0.103	0.143
-445.865	-200.000	0.025	-0.132
-444.851	-24.276	0.177	-0.106
-443.836	-92.522	-0.314	-0.088
-442.822	-127.647	0.221	0.032
-441.807	-24.370	-0.246	-0.147
-440.792	-200.000	-0.008	-0.224
-439.778	-109.728	0.078	-0.016
-438.763	-200.000	0.022	-0.227
-437.749	33.794	-0.042	-0.037
-436.734	14.562	0.248	-0.193
-435.719	800.000	0.051	-0.153
-434.705	293.409	0.143	-0.261
-433.690	46.003	0.403	0.372
-432.676	-200.000	0.015	-0.066
-431.661	-200.000	0.036	-0.356
-430.646	575.166	-0.063	-0.154
-429.632	117.805	-0.109	0.134
-428.617	800.000	-0.058	-0.214
-427.603	-200.000	0.073	-0.619
-426.588	-38.636	-0.168	-0.088
-425.573	-84.909	0.180	0.056
-424.559	293.582	0.102	0.186
-423.544	-200.000	-0.011	0.148
-422.530	394.528	0.054	-0.113
-421.515	380.278	-0.053	-0.109
-420.500	-174.895	0.211	0.006
-419.486	-46.575	-0.031	0.015
-418.471	-200.000	0.009	0.144
-417.457	603.127	-0.185	0.458
-416.442	800.000	0.055	0.192
-415.428	-63.791	-0.440	0.180
-414.413	-200.000	-0.026	0.466
-413.398	-200.000	0.018	0.117
-412.384	-200.000	-0.010	0.046
-411.369	405.604	0.058	0.121
-410.355	-200.000	0.016	0.112
-409.340	-37.753	0.100	0.053
-408.325	-41.150	-0.123	0.063
-407.311	1.174	0.317	-0.227
-406.296	-102.267	-0.106	-0.025
-405.282	-41.033	-0.134	0.069
-404.267	224.591	0.242	-0.390
-403.252	-44.822	0.340	-0.169
-402.238	-121.044	-0.211	-0.035
-401.223	-200.000	-0.010	0.291
-400.209	-147.883	-0.232	0.019
-399.194	-88.053	0.015	0.004
-398.179	-200.000	0.010	0.285
-397.165	-188.674	-0.375	0.005
-396.150	258.241	-0.130	0.223
-395.136	297.808	0.087	0.159
-394.121	-106.137	-0.163	0.036
-393.106	-63.908	-0.350	0.143
-392.092	800.000	-0.078	0.278
-391.077	-200.000	-0.002	-0.088
-390.063	161.393	-0.143	-0.199
-389.048	-48.993	0.186	0.089
-388.033	800.000	-0.084	0.282
-387.019	61.086	0.168	-0.166
-386.004	-138.351	0.122	-0.013
-384.990	71.660	-0.345	0.357
-383.975	18.091	0.064	0.051
-382.960	195.422	-0.169	0.256
-381.946	800.000	-0.042	-0.176
-380.931	37.208	-0.092	-0.081
-379.917	206.886	-0.056	0.087
-378.902	157.189	0.138	-0.190
-377.888	-3.474	0.136	-0.094
-376.873	14.155	-0.194	-0.150
-375.858	-126.611	-0.310	0.046
-374.844	392.960	0.124	-0.258
-373.829	-134.085	0.185	-0.023
-372.815	45.972	0.461	-0.424
-371.800	320.777	-0.261	0.494
-370.785	66.462	-0.072	0.072
-369.771	320.437	0.135	0.254
-368.756	-200.000	-0.020	0.327
-367.742	-143.400	0.132	0.013
-366.727	60.061	0.394	-0.387
-365.712	19.637	-0.111	-0.089
-364.698	800.000	-0.032	0.094
-363.683	158.792	-0.199	0.275
-362.669	-69.400	0.216	0.083
-361.654	449.533	0.167	-0.367
-360.639	-0.974	0.095	-0.067
-359.625	478.729	0.140	-0.316
-358.610	191.039	-0.035	-0.052
-357.596	-200.000	-0.020	0.152
-356.581	800.000	0.118	-0.330
-355.566	-39.215	0.259	-0.135
-354.552	376.710	-0.103	-0.209
-353.537	-200.000	0.022	0.223
-352.523	-200.000	0.064	0.346
-351.508	800.000	0.160	0.510
-350.493	800.000	-0.011	0.043
-349.479	29.616	-0.233	-0.197
-348.464	69.927	0.110	0.113
-347.450	-31.350	-0.178	-0.100
-346.435	-64.954	0.135	-0.054
-345.420	38.557	0.182	-0.162
-344.406	-95.224	-0.108	-0.029
-343.391	58.470	0.115	0.112
-342.377	32.720	0.397	0.341
-341.362	23.898	0.215	-0.176
-340.348	-200.000	-0.016	-0.154
-339.333	332.851	-0.053	-0.101
-338.318	-107.321	-0.230	0.050
-337.304	-200.000	0.018	0.190
-336.289	-200.000	-0.026	0.133
-335.275	800.000	-0.043	0.124
-334.260	102.476	-0.155	0.180
-333.245	84.710	-0.116	0.127
-332.231	27.900	0.060	-0.050
-331.216	-24.883	-0.269	-0.158
-330.202	23.644	0.138	-0.113
-329.187	58.334	-0.078	-0.075
-328.172	4.130	-0.117	-0.085
-327.158	-200.000	0.025	0.172
-326.143	-132.390	-0.307	-0.039
-325.129	800.000	-0.068	0.190
-324.114	383.337	-0.109	0.223
-323.099	800.000	-0.116	-0.387
-322.085	-18.146	0.082	-0.051
-321.070	-125.207	-0.103	-0.016
-320.056	-200.000	0.067	-0.581
-319.041	28.073	-0.071	-0.059
-318.026	83.765	-0.158	0.171
-317.012	-51.482	-0.155	0.072
-315.997	146.662	0.081	-0.108
-314.983	-200.000	-0.024	0.165
-313.968	-200.000	0.055	0.411
-312.953	-200.000	0.015	0.199
-311.939	-102.465	0.436	0.104
-310.924	-81.754	-0.490	0.159
-309.910	-200.000	-0.005	-0.137
-308.895	800.000	0.137	-0.492
-307.880	-200.000	0.051	-0.247
-306.866	190.580	-0.229	-0.342
-305.851	-44.801	0.410	0.203
-304.837	-14.244	-0.076	0.049
-303.822	252.529	0.159	0.268
-302.807	75.112	0.061	0.063
-301.793	-36.028	-0.079	-0.042
-300.778	800.000	-0.107	0.427
-299.764	-81.554	-0.216	-0.071
-298.749	-200.000	0.015	0.178
-297.735	800.000	-0.069	0.199
-296.720	-98.500	0.110	0.028
-295.705	293.574	0.065	0.117
-294.691	-200.000	0.013	0.232
-293.676	421.086	-0.101	0.214
-292.662	-113.371	0.042	0.008
-291.647	-142.541	0.247	0.024
-290.632	-200.000	0.004	0.033
-289.618	800.000	0.101	-0.370
-288.603	800.000	0.041	0.115
-287.589	-124.554	0.252	-0.039
-286.574	-103.665	0.161	-0.037
-285.559	-153.358	-0.349	-0.024
-284.545	52.206	-0.099	-0.094
-283.530	-143.560	0.131	0.012
-282.516	-115.963	0.060	-0.011
-281.501	-155.204	-0.062	-0.004
-280.486	173.820	-0.083	-0.119
-279.472	3.643	-0.179	-0.130
-278.457	347.701	-0.065	-0.126
-277.443	14.324	0.119	-0.092
-276.428	53.731	-0.149	-0.142
-275.413	-200.000	0.010	0.101
-274.399	-151.129	0.291	0.022
-273.384	-111.163	0.171	-0.035
-272.370	123.839	0.210	-0.261
-271.355	121.375	-0.135	-0.167
-270.340	-200.000	-0.015	-0.335
-269.326	196.038	-0.204	-0.308
-268.311	-1.509	-0.206	0.144
-267.297	240.125	-0.061	-0.100
-266.282	-200.000	-0.059	-0.259
-265.267	-200.000	-0.021	-0.140
-264.253	335.723	0.105	0.201
-263.238	-30.047	-0.103	-0.058
-262.224	18.962	-0.064	-0.051
-261.209	20.398	0.104	0.084
-260.195	-104.788	-0.176	-0.040
-259.180	23.070	0.266	0.216
-258.165	-132.994	0.273	0.034
-257.151	573.600	0.056	0.134
-256.136	-133.914	0.264	0.032
-255.122	149.350	0.086	-0.116
-254.107	63.812	-0.077	-0.077
-253.092	-27.600	0.356	0.205
-252.078	-200.000	0.034	0.182
-251.063	-27.236	0.272	-0.157
-250.049	292.758	0.184	0.332
-249.034	377.820	0.076	0.154
-248.019	-88.650	0.231	0.068
-247.005	-200.000	0.029	0.288
-245.990	-72.516	0.075	-0.027
-244.976	116.876	-0.076	-0.093
-243.961	-200.000	0.048	-0.225
-242.946	-68.148	0.276	-0.106
-241.932	-84.568	-0.217	0.068
-240.917	-125.190	-0.183	0.028
-239.903	-9.604	0.051	-0.034
-238.888	-29.670	-0.100	-0.056
-237.873	-149.442	0.271	-0.021
-236.859	337.901	-0.135	0.260
-235.844	800.000	-0.036	0.102
-234.830	189.749	0.075	0.111
-233.815	-84.378	0.390	0.122
-232.800	800.000	-0.140	0.507
-231.786	104.725	-0.185	0.216
-230.771	-200.000	-0.001	-0.050
-229.757	128.512	0.042	0.053
-228.742	-127.064	-0.153	-0.022
-227.727	-130.049	-0.229	-0.031
-226.713	-142.066	0.559	-0.055
-225.698	33.892	-0.240	-0.207
-224.684	74.490	-0.042	0.044
-223.669	-200.000	-0.027	-0.382
-222.655	-200.000	-0.017	-0.146
-221.640	-135.086	0.159	-0.019
-220.625	49.002	-0.137	-0.127
-219.611	-144.203	-0.098	0.009
-218.596	386.306	-0.152	0.311
-217.582	268.174	-0.103	0.178
-216.567	-76.448	0.269	0.093
-215.552	-200.000	0.026	0.190
-214.538	800.000	0.120	0.437
-213.523	365.412	0.049	-0.097
-212.509	90.029	0.141	0.156
-211.494	512.615	-0.087	0.200
-210.479	-133.080	0.479	0.060
-209.465	-84.354	0.214	0.067
-208.450	-13.410	-0.030	0.019
-207.436	-12.759	-0.155	-0.100
-206.421	124.062	0.048	0.059
-205.406	800.000	-0.004	0.013
-204.392	142.577	-0.090	0.118
-203.377	643.768	0.091	0.231
-202.363	357.532	-0.095	-0.188
-201.348	-99.289	0.342	0.085
-200.333	800.000	0.033	0.121
-199.319	172.417	0.165	0.235
-198.304	692.941	-0.057	-0.146
-197.290	800.000	-0.047	-0.177
-196.275	-200.000	0.066	0.445
-195.260	-80.523	0.307	0.101
-194.246	-195.889	-0.169	0.001
-193.231	-156.135	-0.056	0.004
-192.217	-41.931	0.274	0.139
-191.202	800.000	-0.108	0.316
-190.187	386.059	-0.060	0.123
-189.173	339.397	-0.138	-0.265
-188.158	-187.767	-0.310	-0.004
-187.144	-39.253	0.210	-0.109
-186.129	287.316	0.141	0.251
-185.114	-57.998	0.256	-0.110
-184.100	-200.000	-0.032	0.242
-183.085	-107.191	0.462	-0.101
-182.071	-131.489	-0.166	0.022
-181.056	51.735	0.079	0.074
-180.042	-107.693	-0.311	-0.067
-179.027	2.041	-0.107	-0.077
-178.012	14.336	0.162	-0.125
-176.998	-200.000	0.062	-0.304
-175.983	800.000	-0.035	-0.123
-174.969	184.601	0.273	-0.400
-173.954	-200.000	-0.026	0.120
-172.939	800.000	-0.009	0.035
-171.925	-83.884	0.032	0.010
-170.910	-47.836	-0.096	-0.046
-169.896	-200.000	0.063	-0.386
-168.881	-69.229	-0.159	-0.060
-167.866	-69.575	-0.322	0.122
-166.852	89.119	-0.122	-0.134
-165.837	-48.192	0.183	-0.087
-164.823	63.728	0.230	-0.228
-163.808	-200.000	-0.011	0.131
-162.793	-200.000	0.032	0.268
-161.779	1.529	-0.133	0.095
-160.764	86.405	-0.143	-0.156
-159.750	800.000	0.068	0.291
-158.735	54.097	-0.279	0.265
-157.720	-5.743	0.203	-0.137
-156.706	163.455	-0.138	-0.192
-155.691	-87.545	-0.077	0.023
-154.677	-30.542	-0.191	0.107
-153.662	-66.161	-0.096	0.038
-152.647	10.542	-0.298	0.224
-151.633	-39.029	0.265	0.138
-150.618	-53.357	0.072	0.033
-149.604	88.853	0.123	-0.135
-148.589	-156.283	0.193	-0.012
-147.574	294.089	0.119	0.215
-146.560	108.996	0.360	0.425
-145.545	-200.000	0.016	0.205
-144.531	-35.027	0.295	0.158
-143.516	-17.670	0.239	-0.148
-142.502	800.000	0.107	-0.457
-141.487	-70.203	0.274	-0.103
-140.472	196.051	0.132	0.198
-139.458	-85.478	-0.215	-0.066
-138.443	-200.000	-0.014	-0.073
-137.429	39.259	0.211	0.186
-136.414	-200.000	-0.041	0.220
-135.399	-62.425	0.575	-0.236
-134.385	115.835	0.249	-0.300
-133.370	185.796	0.185	-0.271
-132.356	800.000	-0.059	0.211
-131.341	-200.000	0.022	-0.151
-130.326	607.709	0.049	0.122
-129.312	-37.401	0.101	-0.053
-128.297	-143.104	0.254	0.024
-127.283	-61.942	0.286	0.118
-126.268	-10.202	0.291	-0.190
-125.253	387.805	-0.113	0.231
-124.239	-105.739	0.203	-0.045
-123.224	-156.564	0.371	0.023
-122.210	-200.000	0.014	-0.211
-121.195	6.741	-0.265	0.194
