DTS Sentinel unit serial number:	SN413079Multiplexer serial number:	ORYXHardware model number:	OX4-SRSoftware version number:	ORYX F/W v4.00 Oryx Data Collector v3.7.2.0data status	okinstallation	princeton_trtdifferential loss correction	single-endedforward channel	channel 1reverse channel	N/Adate	2019/09/12time	16:56:11forward acquisition time	60.00reverse acquisition time	0.00gamma	496.2192k internal	0.2310k external	0.2310temperature offset calibration	1.0097default loss term (dB/km)	0.3790temperature slope calibration	1.0000multiplexer offset coefficient	1.0000multiplexer slope coefficient	1.0000fibre end	0.00T internal ref (°C)	35.94T ext. ref 1 (°C)	2.81T ext. ref 2 (°C)	29.24length (m)	temperature (°C)	Stokes	anti-Stokes-747.200	-50.585	-0.204	0.098
-746.185	-102.425	-0.363	-0.088
-745.171	-69.860	0.214	0.083
-744.156	412.414	-0.083	0.180
-743.142	194.809	-0.071	0.110
-742.127	620.258	0.110	0.280
-741.112	430.366	0.061	-0.134
-740.098	433.780	-0.089	0.197
-739.083	196.138	0.046	-0.071
-738.069	800.000	-0.080	0.249
-737.054	32.102	0.125	0.109
-736.039	800.000	-0.057	0.247
-735.025	-200.000	0.140	0.688
-734.010	41.015	-0.347	-0.318
-732.996	-69.853	-0.152	-0.059
-731.981	599.938	0.123	-0.309
-730.966	26.201	0.290	-0.246
-729.952	800.000	-0.050	-0.190
-728.937	5.308	-0.133	-0.100
-727.923	-33.661	-0.196	0.110
-726.908	212.134	-0.090	-0.144
-725.894	-131.585	-0.027	-0.004
-724.879	207.173	-0.102	0.161
-723.864	385.890	-0.045	-0.093
-722.850	216.112	0.088	-0.142
-721.835	168.417	-0.142	-0.205
-720.821	42.179	-0.121	0.112
-719.806	-87.653	0.094	0.029
-718.791	80.848	-0.066	-0.072
-717.777	-119.819	-0.282	-0.049
-716.762	199.822	-0.039	0.061
-715.748	724.328	0.082	0.222
-714.733	-151.894	-0.365	-0.027
-713.718	-79.109	-0.192	0.066
-712.704	230.470	-0.082	-0.136
-711.689	-133.401	-0.207	0.026
-710.675	-175.692	-0.040	-0.001
-709.660	-79.577	0.096	0.033
-708.645	-150.309	-0.218	0.017
-707.631	225.237	-0.152	0.250
-706.616	471.952	0.088	-0.200
-705.602	-200.000	0.016	-0.078
-704.587	800.000	-0.058	0.236
-703.572	-39.769	-0.195	0.103
-702.558	-18.863	-0.038	0.024
-701.543	800.000	0.056	0.215
-700.529	-200.000	0.013	-0.062
-699.514	-119.980	0.095	0.017
-698.499	249.944	-0.102	0.176
-697.485	-74.663	-0.204	-0.074
-696.470	800.000	0.022	-0.079
-695.456	-200.000	0.034	0.186
-694.441	-91.370	-0.204	0.059
-693.426	800.000	-0.089	0.265
-692.412	30.270	-0.234	-0.203
-691.397	800.000	0.070	-0.306
-690.383	800.000	-0.120	-0.381
-689.368	607.310	-0.114	0.287
-688.354	86.666	0.204	-0.228
-687.339	29.736	0.097	-0.084
-686.324	0.229	0.097	-0.070
-685.310	27.556	0.070	-0.060
-684.295	-110.643	-0.228	-0.048
-683.281	-65.815	-0.187	-0.076
-682.266	148.030	0.175	-0.239
-681.251	145.106	-0.188	-0.255
-680.237	74.378	0.122	-0.130
-679.222	199.103	0.074	-0.114
-678.208	138.297	-0.178	0.237
-677.193	-22.850	0.167	0.102
-676.178	-200.000	0.022	-0.460
-675.164	326.876	0.084	-0.163
-674.149	-200.000	0.007	-0.141
-673.135	503.315	0.089	-0.209
-672.120	-23.918	0.136	-0.082
-671.105	800.000	0.053	0.179
-670.091	-130.369	-0.394	0.054
-669.076	800.000	-0.079	-0.235
-668.062	-14.211	-0.126	0.082
-667.047	-65.996	0.251	-0.101
-666.032	-73.791	0.059	-0.022
-665.018	-59.481	0.360	0.157
-664.003	-60.333	-0.126	0.054
-662.989	21.364	-0.054	0.044
-661.974	6.685	0.085	0.064
-660.959	-162.513	-0.150	-0.007
-659.945	-122.131	0.364	-0.060
-658.930	800.000	-0.058	0.225
-657.916	-200.000	-0.009	-0.089
-656.901	516.318	0.133	0.313
-655.886	28.283	-0.224	0.192
-654.872	-0.841	-0.263	-0.188
-653.857	211.174	0.120	-0.191
-652.843	-200.000	-0.043	0.346
-651.828	485.858	-0.054	0.125
-650.814	-159.848	-0.550	0.031
-649.799	-42.662	-0.374	-0.193
-648.784	396.001	-0.076	-0.161
-647.770	-200.000	0.014	0.147
-646.755	-179.643	-0.214	0.005
-645.741	425.171	0.068	0.148
-644.726	-100.892	-0.247	0.061
-643.711	-200.000	0.078	-0.359
-642.697	-143.945	0.369	0.035
-641.682	-200.000	0.051	-0.236
-640.668	-13.295	-0.511	0.335
-639.653	-26.389	-0.235	0.139
-638.638	-97.940	-0.180	0.047
-637.624	521.969	-0.068	-0.162
-636.609	800.000	-0.067	-0.286
-635.595	1.237	0.314	-0.228
-634.580	308.762	-0.184	0.348
-633.565	728.731	0.090	-0.242
-632.551	460.218	-0.105	-0.237
-631.536	-50.121	-0.203	-0.097
-630.522	-181.462	0.206	-0.004
-629.507	259.178	-0.071	-0.124
-628.492	-94.650	0.097	-0.027
-627.478	185.599	0.025	0.037
-626.463	520.479	0.168	-0.397
-625.449	92.799	-0.150	0.171
-624.434	800.000	0.066	0.282
-623.419	-200.000	-0.038	-0.210
-622.405	-200.000	0.016	0.082
-621.390	50.230	-0.186	0.178
-620.376	291.186	0.129	-0.236
-619.361	608.735	0.060	0.151
-618.346	-44.341	0.064	-0.033
-617.332	-200.000	0.019	0.228
-616.317	-98.674	-0.165	0.043
-615.303	752.190	-0.023	0.064
-614.288	-80.145	-0.186	0.063
-613.273	-22.252	0.364	-0.223
-612.259	-200.000	0.034	-0.152
-611.244	-120.169	-0.054	-0.009
-610.230	-60.829	0.064	0.027
-609.215	130.691	-0.139	-0.180
-608.201	-120.672	-0.349	0.060
-607.186	-107.052	-0.366	-0.082
-606.171	84.318	0.147	0.162
-605.157	225.666	0.163	-0.266
-604.142	46.505	0.101	0.095
-603.128	225.640	-0.206	0.337
-602.113	-119.368	0.178	0.031
-601.098	281.171	-0.285	0.516
-600.084	-200.000	-0.020	-0.166
-599.069	122.648	0.096	-0.121
-598.055	150.843	-0.127	0.174
-597.040	-200.000	0.013	0.102
-596.025	-71.897	0.061	0.023
-595.011	-109.959	0.226	0.048
-593.996	-158.142	0.217	0.013
-592.982	-200.000	0.004	0.290
-591.967	21.063	-0.235	0.193
-590.952	800.000	-0.023	0.093
-589.938	168.358	-0.079	-0.114
-588.923	42.824	0.336	-0.309
-587.909	-185.482	-0.421	0.006
-586.894	381.804	-0.024	-0.050
-585.879	418.792	0.113	-0.244
-584.865	3.959	-0.186	0.137
-583.850	24.506	-0.111	-0.092
-582.836	-192.931	0.299	-0.003
-581.821	7.845	-0.065	-0.049
-580.806	-91.427	0.183	0.053
-579.792	800.000	-0.086	-0.303
-578.777	800.000	-0.078	0.281
-577.763	-163.225	-0.109	0.005
-576.748	29.455	-0.333	0.285
-575.733	-41.187	-0.247	-0.129
-574.719	-200.000	0.004	0.235
-573.704	188.477	-0.160	0.242
-572.690	800.000	-0.133	-0.432
-571.675	560.675	0.078	0.190
-570.661	-200.000	-0.050	0.298
-569.646	24.837	-0.102	-0.086
-568.631	142.765	-0.167	-0.223
-567.617	-200.000	0.047	0.249
-566.602	-5.972	0.235	-0.162
-565.588	-56.623	-0.232	0.103
-564.573	402.515	0.042	-0.089
-563.558	102.628	0.053	0.063
-562.544	20.530	0.251	-0.205
-561.529	-178.815	-0.114	0.003
-560.515	-200.000	-0.036	0.186
-559.500	193.155	0.211	-0.322
-558.485	-16.195	-0.263	-0.168
-557.471	115.013	0.061	-0.075
-556.456	354.678	0.071	-0.142
-555.442	44.951	-0.153	-0.142
-554.427	-73.622	0.023	0.008
-553.412	171.344	-0.113	-0.164
-552.398	6.600	0.241	0.181
-551.383	494.244	0.145	0.334
-550.369	295.248	-0.205	-0.379
-549.354	-152.644	0.607	0.044
-548.339	32.192	0.403	-0.351
-547.325	-69.094	0.141	-0.055
-546.310	-200.000	0.020	0.228
-545.296	-71.210	-0.371	-0.140
-544.281	162.860	-0.074	-0.105
-543.266	67.526	-0.119	0.122
-542.252	148.350	-0.310	-0.422
-541.237	111.822	-0.117	0.143
-540.223	-200.000	-0.007	-0.036
-539.208	-136.203	-0.185	-0.022
-538.193	-83.415	-0.310	-0.100
-537.179	-71.213	0.208	0.079
-536.164	-96.244	0.129	0.035
-535.150	-200.000	-0.009	0.042
-534.135	218.963	0.109	-0.176
-533.121	35.958	0.256	-0.227
-532.106	-136.556	0.165	0.019
-531.091	-200.000	-0.047	-0.339
-530.077	645.480	-0.061	-0.156
-529.062	313.377	0.144	-0.273
-528.048	-145.543	0.196	-0.018
-527.033	-128.721	-0.292	-0.041
-526.018	-132.339	-0.400	-0.052
-525.004	99.358	-0.192	-0.224
-523.989	601.573	0.052	0.130
-522.975	146.923	-0.094	0.127
-521.960	27.135	0.161	0.136
-520.945	311.367	-0.188	0.354
-519.931	-200.000	-0.042	-0.277
-518.916	800.000	-0.042	-0.182
-517.902	288.965	0.146	0.266
-516.887	274.922	0.181	0.323
-515.872	303.207	-0.057	0.106
-514.858	-39.022	-0.157	0.083
-513.843	462.042	0.116	-0.261
-512.829	-123.292	-0.375	0.060
-511.814	800.000	0.025	-0.102
-510.799	-70.364	0.345	-0.132
-509.785	-102.625	0.226	-0.054
-508.770	722.943	-0.083	-0.223
-507.756	-107.063	-0.252	-0.056
-506.741	-93.908	0.118	0.033
-505.726	170.767	0.153	-0.221
-504.712	-200.000	-0.010	0.055
-503.697	-65.470	-0.192	0.078
-502.683	199.228	-0.127	0.197
-501.668	82.456	-0.168	0.183
-500.653	88.490	-0.157	0.175
-499.639	-75.764	0.143	-0.051
-498.624	-27.093	-0.053	-0.031
-497.610	227.355	-0.175	0.286
-496.595	3.792	0.397	0.291
-495.581	-146.017	-0.409	0.036
-494.566	-23.409	-0.295	-0.178
-493.551	800.000	-0.049	0.162
-492.537	216.641	-0.063	-0.100
-491.522	-38.441	0.364	-0.194
-490.508	-200.000	0.013	-0.120
-489.493	-174.525	-0.224	-0.006
-488.478	-200.000	-0.016	-0.206
-487.464	800.000	0.030	0.103
-486.449	111.896	-0.054	0.066
-485.435	-100.006	-0.130	-0.033
-484.420	800.000	-0.087	-0.336
-483.405	41.602	-0.278	0.253
-482.391	42.487	0.083	-0.076
-481.376	-0.314	0.155	-0.111
-480.362	-29.770	-0.430	0.247
-479.347	-161.736	0.211	0.011
-478.332	246.464	0.051	0.087
-477.318	-72.149	-0.253	-0.094
-476.303	-200.000	-0.008	-0.130
-475.289	800.000	0.105	-0.327
-474.274	-9.500	0.187	0.125
-473.259	-20.060	0.162	0.100
-472.245	-80.292	0.351	0.118
-471.230	706.959	-0.085	0.224
-470.216	-112.139	0.025	0.005
-469.201	722.852	0.075	-0.199
-468.186	-78.468	0.348	0.120
-467.172	-126.267	0.214	-0.032
-466.157	800.000	0.025	0.101
-465.143	269.724	0.165	0.291
-464.128	-47.668	0.144	-0.070
-463.113	16.625	-0.018	0.014
-462.099	-81.628	0.145	-0.048
-461.084	413.076	-0.154	0.329
-460.070	190.620	0.123	-0.186
-459.055	-53.994	0.127	0.058
-458.040	7.061	-0.097	-0.073
-457.026	-141.401	0.043	-0.004
-456.011	-200.000	-0.023	-0.108
-454.997	47.360	-0.109	-0.102
-453.982	-84.610	-0.434	0.137
-452.968	-161.644	0.128	-0.007
-451.953	-154.904	-0.079	-0.005
-450.938	-92.619	0.419	0.118
-449.924	243.584	0.094	-0.158
-448.909	670.697	-0.067	0.173
-447.895	-61.459	0.163	0.069
-446.880	43.816	-0.186	-0.171
-445.865	-43.322	-0.041	-0.021
-444.851	31.412	0.184	0.159
-443.836	137.970	0.082	0.107
-442.822	-178.871	0.056	0.001
-441.807	-137.368	0.100	-0.011
-440.792	-200.000	-0.060	0.276
-439.778	-33.449	0.265	-0.147
-438.763	138.005	0.093	0.122
-437.749	240.615	0.063	0.106
-436.734	587.778	-0.105	-0.260
-435.719	75.251	0.200	0.212
-434.705	-139.224	0.194	-0.021
-433.690	261.282	-0.050	0.087
-432.676	-77.966	0.141	-0.049
-431.661	-54.177	0.017	0.008
-430.646	-54.916	-0.301	-0.136
-429.632	93.053	0.142	0.162
-428.617	-21.275	0.314	0.192
-427.603	36.396	-0.107	-0.095
-426.588	-200.000	0.008	-0.059
-425.573	-25.971	0.289	0.171
-424.559	-1.273	0.091	0.064
-423.544	-18.229	0.462	-0.290
-422.530	-200.000	-0.009	0.206
-421.515	84.713	-0.077	0.085
-420.500	125.713	0.039	-0.050
-419.486	104.695	-0.249	-0.295
-418.471	171.742	0.068	-0.098
-417.457	-200.000	-0.000	-0.024
-416.442	-200.000	-0.029	0.165
-415.428	183.378	0.352	-0.522
-414.413	57.127	-0.120	0.118
-413.398	134.847	0.144	-0.188
-412.384	-200.000	-0.445	-0.001
-411.369	-148.751	0.198	0.016
-410.355	-53.083	0.253	0.116
-409.340	-200.000	-0.021	0.097
-408.325	800.000	-0.107	0.302
-407.311	800.000	0.057	-0.205
-406.296	207.030	-0.036	-0.057
-405.282	-1.936	-0.125	-0.088
-404.267	-200.000	0.267	0.001
-403.252	-60.328	0.172	0.073
-402.238	21.805	0.130	0.106
-401.223	24.393	-0.193	0.160
-400.209	689.073	0.095	-0.248
-399.194	-78.258	-0.274	-0.094
-398.179	-179.067	-0.148	-0.003
-397.165	206.252	-0.100	0.156
-396.150	-67.111	0.100	0.039
-395.136	-95.109	-0.365	0.099
-394.121	-200.000	0.012	0.059
-393.106	-200.000	-0.026	-0.149
-392.092	-160.259	-0.135	-0.007
-391.077	169.484	-0.097	-0.139
-390.063	31.500	0.238	-0.205
-389.048	295.783	0.069	-0.126
-388.033	800.000	-0.063	-0.184
-387.019	3.630	-0.162	-0.118
-386.004	-91.845	0.276	-0.078
-384.990	-29.237	-0.227	0.130
-383.975	-44.514	0.043	-0.021
-382.960	-74.833	-0.149	0.054
-381.946	-200.000	0.008	-0.112
-380.931	800.000	0.014	-0.055
-379.917	45.036	0.225	-0.208
-378.902	287.813	0.068	-0.123
-377.888	18.109	0.170	0.136
-376.873	-38.336	0.201	-0.107
-375.858	-200.000	-0.003	0.187
-374.844	278.490	-0.085	0.151
-373.829	-102.208	0.126	-0.030
-372.815	800.000	-0.100	0.337
-371.800	-142.715	-0.295	-0.029
-370.785	226.283	-0.057	0.093
-369.771	142.121	-0.115	-0.153
-368.756	151.728	-0.092	0.126
-367.742	-104.174	0.055	-0.013
-366.727	-173.532	0.170	-0.005
-365.712	538.682	-0.038	0.090
-364.698	36.599	0.224	0.198
-363.683	-200.000	0.015	-0.208
-362.669	333.045	0.078	0.152
-361.654	93.102	0.022	0.025
-360.639	-102.668	-0.127	-0.030
-359.625	775.142	0.096	0.262
-358.610	156.654	-0.100	-0.138
-357.596	-70.113	0.107	0.041
-356.581	-67.365	-0.386	0.152
-355.566	192.883	0.044	0.066
-354.552	800.000	0.041	0.143
-353.537	-154.742	-0.160	-0.011
-352.523	171.961	0.018	0.025
-351.508	69.065	-0.132	-0.135
-350.493	-194.394	-0.229	-0.002
-349.479	-200.000	-0.009	-0.259
-348.464	-89.737	0.394	-0.115
-347.450	-200.000	0.001	-0.057
-346.435	-130.105	0.468	0.064
-345.420	-3.890	-0.281	-0.195
-344.406	-16.004	-0.268	-0.170
-343.391	157.305	-0.005	0.007
-342.377	-19.395	0.285	-0.177
-341.362	66.304	0.043	0.043
-340.348	-136.266	-0.201	0.023
-339.333	-62.637	-0.154	0.064
-338.318	-31.910	0.224	0.126
-337.304	800.000	-0.163	0.489
-336.289	-200.000	-0.005	0.155
-335.275	-200.000	0.009	0.047
-334.260	-98.091	-0.144	-0.037
-333.245	-34.808	-0.169	0.092
-332.231	-130.954	0.038	-0.005
-331.216	-134.471	-0.261	0.032
-330.202	238.476	0.043	-0.071
-329.187	-94.745	0.111	0.030
-328.172	-141.610	-0.389	0.039
-327.158	-16.997	-0.104	0.066
-326.143	-92.324	-0.271	-0.076
-325.129	366.785	0.084	-0.169
-324.114	-10.700	0.340	-0.224
-323.099	95.333	-0.279	-0.317
-322.085	800.000	-0.015	0.047
-321.070	337.887	-0.127	0.246
-320.056	-76.684	0.196	0.069
-319.041	-46.988	-0.227	0.111
-318.026	179.450	0.254	-0.371
-317.012	-154.477	0.267	-0.018
-315.997	-110.970	-0.054	0.011
-314.983	-39.767	0.244	0.127
-313.968	-58.982	0.158	0.068
-312.953	-200.000	0.013	-0.166
-311.939	-66.446	0.077	0.031
-310.924	-50.045	-0.235	-0.111
-309.910	-81.012	0.101	0.033
-308.895	-200.000	0.002	-0.036
-307.880	-157.610	0.397	0.024
-306.866	-142.774	-0.201	0.020
-305.851	-102.080	-0.195	-0.047
-304.837	288.620	-0.240	-0.434
-303.822	-119.104	0.026	0.005
-302.807	46.764	-0.158	-0.146
-301.793	-84.723	0.305	0.096
-300.778	434.023	-0.030	0.066
-299.764	800.000	0.128	-0.375
-298.749	215.332	0.021	0.033
-297.735	-171.750	0.044	0.001
-296.720	-200.000	0.023	0.103
-295.705	242.669	0.159	0.265
-294.691	300.865	-0.085	0.157
-293.676	-108.026	0.062	-0.013
-292.662	-200.000	0.001	0.158
-291.647	-75.641	-0.222	-0.079
-290.632	-200.000	-0.038	0.323
-289.618	800.000	0.020	-0.062
-288.603	178.790	-0.082	-0.119
-287.589	-96.795	-0.174	-0.046
-286.574	-170.959	0.483	0.016
-285.559	-118.198	-0.161	-0.029
-284.545	800.000	-0.035	0.099
-283.530	319.501	0.080	-0.152
-282.516	398.529	0.080	0.167
-281.501	-200.000	0.014	-0.169
-280.486	141.067	0.142	-0.187
-279.472	167.949	-0.083	0.118
-278.457	51.790	0.153	-0.146
-277.443	-17.822	-0.172	0.107
-276.428	-45.283	-0.208	-0.103
-275.413	-200.000	-0.065	-0.368
-274.399	110.792	-0.177	-0.212
-273.384	-39.619	0.325	-0.170
-272.370	-200.000	-0.034	-0.406
-271.355	-200.000	-0.010	0.233
-270.340	135.178	-0.172	0.223
-269.326	-200.000	0.017	-0.224
-268.311	-29.197	-0.269	0.154
-267.297	182.517	-0.106	-0.155
-266.282	-71.105	-0.112	-0.042
-265.267	19.032	0.120	-0.096
-264.253	800.000	-0.054	0.176
-263.238	-7.947	-0.489	-0.329
-262.224	263.811	0.230	0.399
-261.209	94.415	0.300	-0.339
-260.195	366.085	0.064	-0.129
-259.180	-200.000	0.042	0.265
-258.165	-185.483	0.153	0.002
-257.151	-40.781	0.165	-0.085
-256.136	-138.536	-0.164	0.018
-255.122	-149.823	0.075	-0.006
-254.107	418.814	0.071	0.150
-253.092	39.460	0.266	0.238
-252.078	800.000	-0.089	0.350
-251.063	0.162	-0.246	0.175
-250.049	-40.749	0.322	0.166
-249.034	-200.000	0.001	0.015
-248.019	-5.782	0.313	-0.213
-247.005	224.255	-0.128	-0.206
-245.990	-200.000	-0.001	0.015
-244.976	800.000	-0.035	-0.143
-243.961	800.000	0.007	0.020
-242.946	-39.119	0.192	0.100
-241.932	-31.298	-0.454	0.254
-240.917	81.415	-0.097	-0.104
-239.903	85.318	-0.067	0.073
-238.888	590.672	0.073	-0.180
-237.873	38.523	0.270	0.240
-236.859	128.890	0.079	-0.100
-235.844	-105.238	-0.086	0.020
-234.830	-200.000	-0.024	0.207
-233.815	31.874	0.382	-0.327
-232.800	-200.000	0.005	0.132
-231.786	159.293	0.050	0.070
-230.771	200.902	0.071	-0.108
-229.757	365.187	0.075	0.149
-228.742	9.727	-0.055	-0.042
-227.727	98.651	0.179	-0.205
-226.713	311.150	0.127	0.236
-225.698	-26.528	-0.330	0.192
-224.684	-2.328	0.094	-0.066
-223.669	224.873	0.076	-0.122
-222.655	-200.000	0.071	-0.318
-221.640	800.000	-0.081	0.250
-220.625	-26.323	-0.080	0.047
-219.611	-200.000	-0.039	-0.208
-218.596	244.821	-0.055	-0.092
-217.582	-200.000	0.026	-0.114
-216.567	800.000	0.069	0.236
-215.552	82.886	0.057	0.062
-214.538	-200.000	0.050	0.362
-213.523	79.795	0.055	-0.058
-212.509	155.439	0.112	0.154
-211.494	-157.686	-0.317	-0.019
-210.479	57.326	-0.061	0.059
-209.465	-11.448	0.213	-0.139
-208.450	-157.795	-0.082	0.005
-207.436	127.458	-0.190	0.240
-206.421	-200.000	-0.025	0.473
-205.406	162.272	-0.170	-0.237
-204.392	-200.000	-0.057	0.254
-203.377	-200.000	0.098	-0.448
-202.363	69.059	0.191	-0.195
-201.348	46.499	0.099	0.091
-200.333	-31.711	-0.315	-0.176
-199.319	800.000	0.086	-0.249
-198.304	-35.744	0.330	-0.178
-197.290	-200.000	0.030	0.179
-196.275	131.260	-0.073	0.093
-195.260	10.456	-0.167	0.126
-194.246	265.109	-0.080	0.139
-193.231	32.500	-0.202	0.173
-192.217	277.841	0.117	0.206
-191.202	800.000	0.010	0.042
-190.187	123.621	0.183	0.228
-189.173	92.923	0.085	-0.095
-188.158	-118.803	0.201	0.035
-187.144	32.108	-0.216	-0.185
-186.129	-122.640	-0.204	-0.033
-185.114	-200.000	0.017	-0.211
-184.100	-200.000	-0.016	-0.191
-183.085	177.482	0.063	0.091
-182.071	470.546	0.025	0.057
-181.056	225.875	0.316	0.508
-180.042	800.000	-0.092	0.262
-179.027	800.000	-0.127	0.406
-178.012	-12.427	-0.217	0.141
-176.998	178.545	0.170	-0.247
-175.983	-200.000	-0.010	-0.243
-174.969	-200.000	0.031	0.296
-173.954	-200.000	-0.026	0.525
-172.939	118.162	0.141	-0.173
-171.925	27.617	-0.307	-0.257
-170.910	-138.472	0.355	-0.039
-169.896	-36.410	0.212	-0.113
-168.881	800.000	0.095	-0.331
-167.866	45.880	-0.267	0.245
-166.852	789.986	0.080	-0.219
-165.837	-152.547	0.281	-0.020
-164.823	-10.691	-0.027	-0.018
-163.808	11.895	0.149	0.114
-162.793	-200.000	-0.046	-0.223
-161.779	-118.645	-0.323	-0.057
-160.764	271.838	0.051	-0.088
-159.750	-80.685	0.193	0.064
-158.735	299.240	-0.034	0.063
-157.720	800.000	0.029	0.117
-156.706	448.696	0.038	-0.083
-155.691	386.082	0.052	0.106
-154.677	130.550	0.138	0.175
-153.662	122.239	-0.338	0.419
-152.647	150.266	-0.178	0.239
-151.633	-95.128	0.317	0.085
-150.618	41.209	-0.078	0.070
-149.604	-135.371	-0.448	-0.053
-148.589	-167.602	-0.209	0.008
-147.574	-102.800	0.448	-0.106
-146.560	800.000	0.067	-0.241
-145.545	568.401	-0.211	0.509
-144.531	-48.582	-0.206	-0.098
-143.516	-134.549	0.198	-0.024
-142.502	-200.000	0.042	-0.313
-141.487	-158.943	0.107	0.006
-140.472	-87.830	0.190	-0.057
-139.458	202.513	0.090	-0.138
-138.443	-113.948	0.366	0.070
-137.429	179.306	0.067	-0.098
-136.414	800.000	0.004	-0.013
-135.399	-12.441	0.327	-0.212
-134.385	-57.191	-0.387	0.169
-133.370	329.494	-0.108	-0.206
-132.356	-143.278	0.310	0.030
-131.341	-20.669	0.179	0.109
-130.326	96.761	0.097	-0.111
-129.312	800.000	0.091	-0.314
-128.297	-154.068	-0.495	-0.033
-127.283	128.904	0.166	-0.210
-126.268	-62.078	-0.059	-0.024
-125.253	800.000	-0.073	-0.252
-124.239	-93.690	0.081	0.022
-123.224	174.866	0.058	-0.084
-122.210	-127.803	-0.332	-0.047
-121.195	800.000	-0.100	-0.281
