DTS Sentinel unit serial number:	SN413079Multiplexer serial number:	ORYXHardware model number:	OX4-SRSoftware version number:	ORYX F/W v4.00 Oryx Data Collector v3.7.2.0data status	okinstallation	princeton_trtdifferential loss correction	single-endedforward channel	channel 1reverse channel	N/Adate	2019/09/14time	04:46:35forward acquisition time	60.00reverse acquisition time	0.00gamma	496.2192k internal	0.2334k external	0.2334temperature offset calibration	1.0081default loss term (dB/km)	0.3790temperature slope calibration	1.0000multiplexer offset coefficient	1.0000multiplexer slope coefficient	1.0000fibre end	0.00T internal ref (°C)	26.81T ext. ref 1 (°C)	3.36T ext. ref 2 (°C)	21.96length (m)	temperature (°C)	Stokes	anti-Stokes-747.200	-154.004	0.169	-0.012
-746.185	89.877	0.252	0.282
-745.171	-15.191	-0.191	0.123
-744.156	238.609	-0.069	-0.115
-743.142	-200.000	-0.038	0.195
-742.127	81.596	-0.155	0.169
-741.112	800.000	0.054	-0.229
-740.098	619.387	0.054	-0.137
-739.083	-200.000	0.023	-0.175
-738.069	-120.886	-0.114	-0.019
-737.054	-64.815	-0.177	0.072
-736.039	-34.892	-0.219	-0.120
-735.025	800.000	-0.040	0.172
-734.010	58.908	0.061	0.060
-732.996	419.018	-0.097	0.209
-731.981	172.134	-0.165	-0.238
-730.966	-200.000	-0.061	-0.368
-729.952	-66.078	-0.382	0.153
-728.937	306.690	-0.037	-0.069
-727.923	11.907	0.244	-0.188
-726.908	-93.068	-0.189	0.053
-725.894	110.454	-0.211	-0.255
-724.879	197.856	0.164	0.252
-723.864	8.758	-0.235	-0.178
-722.850	-155.046	-0.435	0.029
-721.835	13.665	0.112	-0.087
-720.821	800.000	-0.062	-0.234
-719.806	800.000	0.056	0.210
-718.791	-18.283	-0.112	0.070
-717.777	8.077	-0.149	-0.112
-716.762	-13.550	-0.064	0.041
-715.748	-88.245	-0.153	0.046
-714.733	-118.823	0.191	-0.034
-713.718	-0.273	0.246	-0.176
-712.704	45.327	0.089	0.082
-711.689	-200.000	-0.009	-0.095
-710.675	-59.705	0.044	-0.019
-709.660	-33.558	-0.137	-0.076
-708.645	285.953	-0.092	-0.166
-707.631	63.959	-0.214	0.216
-706.616	-152.824	0.409	0.029
-705.602	-131.528	-0.097	-0.013
-704.587	70.699	-0.207	-0.215
-703.572	800.000	0.203	-0.570
-702.558	800.000	-0.101	-0.328
-701.543	800.000	0.035	-0.122
-700.529	-41.337	-0.132	0.068
-699.514	-91.578	-0.165	-0.047
-698.499	-200.000	0.006	-0.090
-697.485	-175.340	0.147	0.004
-696.470	150.155	-0.097	-0.132
-695.456	-200.000	-0.005	0.132
-694.441	490.031	-0.076	0.174
-693.426	800.000	0.071	-0.226
-692.412	123.465	-0.131	-0.164
-691.397	450.582	-0.148	-0.328
-690.383	3.000	0.239	-0.174
-689.368	-40.746	0.077	-0.040
-688.354	283.938	-0.112	-0.202
-687.339	-65.411	-0.078	0.031
-686.324	-78.991	0.156	-0.053
-685.310	-13.239	0.154	-0.100
-684.295	-174.249	-0.138	0.004
-683.281	-200.000	0.017	-0.337
-682.266	27.391	0.217	0.183
-681.251	800.000	0.016	-0.061
-680.237	-45.624	-0.177	-0.088
-679.222	-200.000	-0.008	-0.125
-678.208	-28.265	-0.306	-0.177
-677.193	39.622	0.026	-0.023
-676.178	-200.000	0.019	0.239
-675.164	-0.206	-0.295	-0.210
-674.149	41.905	-0.018	0.016
-673.135	122.321	0.109	-0.137
-672.120	6.837	0.056	-0.042
-671.105	460.970	-0.083	-0.186
-670.091	-200.000	-0.010	0.062
-669.076	727.628	-0.070	-0.188
-668.062	800.000	0.069	0.225
-667.047	43.488	0.176	-0.161
-666.032	-200.000	-0.002	-0.161
-665.018	12.247	-0.168	0.130
-664.003	455.475	-0.098	0.217
-662.989	-88.837	-0.531	0.158
-661.974	104.064	-0.037	-0.043
-660.959	312.351	-0.065	-0.122
-659.945	-143.325	0.326	-0.031
-658.930	83.146	0.102	0.111
-657.916	10.017	-0.180	0.137
-656.901	217.538	0.211	0.337
-655.886	7.643	0.218	-0.163
-654.872	776.282	-0.059	-0.162
-653.857	-200.000	0.012	-0.163
-652.843	-121.236	0.285	-0.048
-651.828	330.437	0.061	-0.117
-650.814	-190.592	-0.521	-0.006
-649.799	120.314	0.290	0.361
-648.784	286.830	-0.096	-0.174
-647.770	-200.000	0.016	-0.166
-646.755	-140.854	0.184	-0.019
-645.741	-200.000	-0.013	-0.062
-644.726	338.400	-0.043	-0.085
-643.711	-132.695	-0.399	0.051
-642.697	698.517	0.055	-0.145
-641.682	800.000	-0.069	-0.268
-640.668	-64.029	-0.345	0.141
-639.653	-117.561	0.209	-0.038
-638.638	446.647	-0.111	-0.243
-637.624	800.000	-0.064	-0.217
-636.609	-127.514	-0.360	0.052
-635.595	14.080	-0.118	-0.092
-634.580	800.000	-0.066	-0.278
-633.565	-200.000	-0.021	-0.174
-632.551	800.000	-0.079	0.220
-631.536	-200.000	0.033	0.150
-630.522	-15.246	0.242	-0.155
-629.507	800.000	0.135	-0.436
-628.492	-35.980	0.107	0.058
-627.478	800.000	0.040	0.145
-626.463	48.482	-0.039	0.037
-625.449	-200.000	-0.019	0.171
-624.434	-200.000	0.004	-0.115
-623.419	12.563	0.186	0.144
-622.405	261.352	0.135	-0.234
-621.390	101.821	-0.170	0.198
-620.376	251.815	0.151	0.258
-619.361	93.666	-0.321	0.364
-618.346	800.000	0.033	0.132
-617.332	-63.340	0.302	0.124
-616.317	136.659	-0.145	0.189
-615.303	-200.000	0.026	-0.179
-614.288	134.009	0.232	-0.300
-613.273	-103.615	0.168	-0.039
-612.259	-141.123	0.096	0.010
-611.244	-26.563	0.190	-0.112
-610.230	-59.987	-0.045	0.019
-609.215	-133.265	0.334	0.042
-608.201	214.876	-0.087	-0.137
-607.186	-59.314	0.052	0.022
-606.171	130.266	0.173	-0.222
-605.157	296.309	-0.044	0.081
-604.142	-47.097	0.319	-0.155
-603.128	48.686	-0.189	0.177
-602.113	412.351	-0.097	-0.207
-601.098	-29.340	-0.070	0.040
-600.084	-28.022	0.147	0.085
-599.069	-17.085	-0.460	0.290
-598.055	6.213	0.250	-0.185
-597.040	800.000	0.115	0.420
-596.025	5.736	-0.262	-0.193
-595.011	800.000	-0.061	-0.253
-593.996	48.103	-0.007	-0.006
-592.982	-77.583	0.172	-0.059
-591.967	-55.330	-0.177	-0.079
-590.952	-200.000	-0.000	-0.314
-589.938	-40.778	-0.313	0.162
-588.923	-101.769	-0.142	0.034
-587.909	-200.000	0.031	0.193
-586.894	-13.810	-0.072	-0.047
-585.879	-200.000	-0.007	-0.157
-584.865	-51.289	0.126	0.059
-583.850	215.375	-0.165	-0.261
-582.836	-97.898	0.343	0.089
-581.821	49.867	-0.275	0.259
-580.806	8.588	-0.332	-0.250
-579.792	-44.836	0.244	-0.121
-578.777	24.072	0.224	-0.185
-577.763	800.000	-0.045	-0.169
-576.748	495.569	0.075	-0.172
-575.733	602.906	-0.097	-0.241
-574.719	31.219	0.130	-0.111
-573.704	-200.000	-0.006	-0.271
-572.690	32.121	-0.258	-0.222
-571.675	-77.109	-0.137	0.048
-570.661	591.214	0.011	-0.027
-569.646	-167.287	0.255	0.010
-568.631	-71.991	-0.099	-0.037
-567.617	89.947	0.219	0.244
-566.602	-145.385	-0.140	-0.013
-565.588	-200.000	-0.013	0.384
-564.573	-156.078	0.106	0.007
-563.558	55.573	0.173	0.167
-562.544	9.419	-0.207	-0.156
-561.529	-113.905	-0.061	0.012
-560.515	-76.641	-0.210	-0.073
-559.500	89.351	-0.096	0.106
-558.485	-151.939	0.193	-0.014
-557.471	-105.007	-0.302	0.069
-556.456	499.408	-0.118	-0.271
-555.442	38.306	0.237	0.211
-554.427	-200.000	-0.032	-0.186
-553.412	-43.229	0.006	-0.003
-552.398	-108.141	0.053	-0.011
-551.383	-60.381	-0.189	-0.080
-550.369	-88.303	-0.031	-0.009
-549.354	208.080	-0.145	-0.227
-548.339	-200.000	-0.020	0.247
-547.325	-120.648	0.290	0.049
-546.310	269.123	0.129	-0.226
-545.296	800.000	-0.022	0.089
-544.281	-108.464	-0.230	0.049
-543.266	-80.503	0.177	-0.059
-542.252	800.000	0.113	-0.314
-541.237	106.357	0.140	0.165
-540.223	-67.202	0.099	-0.039
-539.208	-12.492	-0.219	0.143
-538.193	187.436	0.135	-0.200
-537.179	-31.300	0.118	-0.066
-536.164	279.301	0.155	0.276
-535.150	-58.014	0.100	0.044
-534.135	362.917	-0.003	-0.007
-533.121	-157.250	-0.108	-0.006
-532.106	-200.000	0.001	0.026
-531.091	-30.596	0.174	-0.098
-530.077	99.213	-0.157	-0.181
-529.062	800.000	-0.013	0.040
-528.048	-55.948	-0.329	-0.146
-527.033	48.615	0.210	0.196
-526.018	-200.000	-0.027	0.151
-525.004	149.333	-0.119	0.161
-523.989	-114.373	0.335	-0.064
-522.975	-78.246	-0.124	-0.042
-521.960	800.000	0.110	0.304
-520.945	95.645	-0.167	0.190
-519.931	309.857	-0.148	0.276
-518.916	186.252	-0.165	-0.245
-517.902	800.000	-0.016	-0.045
-516.887	-161.403	-0.210	-0.011
-515.872	-200.000	0.074	-0.349
-514.858	211.761	-0.149	-0.233
-513.843	263.667	0.216	-0.373
-512.829	217.485	0.085	-0.135
-511.814	-58.143	-0.193	-0.084
-510.799	-200.000	0.006	-0.035
-509.785	800.000	-0.039	0.122
-508.770	-48.134	-0.150	-0.072
-507.756	-14.739	-0.264	-0.169
-506.741	-26.022	0.243	0.142
-505.726	-30.861	0.039	-0.022
-504.712	-32.160	0.151	-0.084
-503.697	800.000	-0.040	0.139
-502.683	-44.918	-0.120	-0.060
-501.668	800.000	0.049	-0.145
-500.653	526.964	-0.086	0.201
-499.639	800.000	0.055	-0.164
-498.624	-200.000	-0.000	-0.076
-497.610	44.754	0.104	0.095
-496.595	94.845	-0.093	0.106
-495.581	-200.000	-0.021	0.106
-494.566	-111.600	0.234	0.047
-493.551	800.000	0.036	0.104
-492.537	-200.000	-0.010	0.259
-491.522	-119.673	-0.134	-0.023
-490.508	800.000	-0.090	-0.348
-489.493	159.654	0.131	0.181
-488.478	3.499	-0.031	-0.022
-487.464	-200.000	0.027	-0.272
-486.449	218.840	0.085	-0.135
-485.435	257.732	0.024	0.041
-484.420	-200.000	-0.058	0.288
-483.405	104.026	-0.158	-0.185
-482.391	-46.984	0.025	0.012
-481.376	181.415	-0.005	0.008
-480.362	800.000	0.053	-0.158
-479.347	113.061	0.069	-0.083
-478.332	44.283	0.044	0.040
-477.318	-200.000	0.007	0.135
-476.303	243.970	-0.254	-0.424
-475.289	-36.625	0.104	-0.056
-474.274	-96.595	0.327	-0.086
-473.259	-200.000	-0.024	0.145
-472.245	65.428	0.117	0.118
-471.230	-200.000	0.047	-0.479
-470.216	-170.842	-0.252	-0.009
-469.201	-51.979	0.181	-0.084
-468.186	800.000	0.038	-0.155
-467.172	-200.000	-0.036	-0.000
-466.157	-200.000	-0.042	-0.211
-465.143	-72.645	0.159	0.058
-464.128	454.116	-0.028	0.061
-463.113	125.506	0.203	0.255
-462.099	-200.000	-0.058	-0.289
-461.084	800.000	-0.028	0.077
-460.070	386.523	0.201	0.413
-459.055	430.239	0.159	0.342
-458.040	-23.701	-0.176	-0.105
-457.026	33.623	0.108	-0.094
-456.011	82.343	-0.213	0.229
-454.997	-77.149	-0.430	-0.149
-453.982	111.908	-0.095	0.114
-452.968	-120.608	-0.349	-0.059
-451.953	-88.139	0.200	-0.060
-450.938	0.870	0.320	0.228
-449.924	-11.689	0.362	0.236
-448.909	-109.116	-0.304	-0.064
-447.895	50.957	0.136	-0.128
-446.880	-144.579	-0.194	-0.018
-445.865	-200.000	-0.015	-0.134
-444.851	644.896	0.030	-0.077
-443.836	800.000	-0.094	-0.265
-442.822	603.213	-0.066	-0.164
-441.807	-29.904	-0.261	0.147
-440.792	-128.299	-0.339	0.048
-439.778	-200.000	0.085	-0.000
-438.763	-90.538	0.368	-0.106
-437.749	73.627	0.238	0.248
-436.734	25.683	-0.261	0.216
-435.719	-109.677	0.061	-0.013
-434.705	-44.625	-0.016	0.008
-433.690	800.000	0.081	-0.304
-432.676	-182.831	0.390	-0.007
-431.661	-79.836	0.246	0.082
-430.646	702.464	-0.114	-0.298
-429.632	25.186	-0.028	0.023
-428.617	-86.334	-0.159	0.049
-427.603	-200.000	-0.017	-0.371
-426.588	215.403	0.168	0.265
-425.573	251.800	-0.256	-0.432
-424.559	-200.000	-0.001	0.063
-423.544	187.124	0.145	0.214
-422.530	60.362	0.186	-0.183
-421.515	-1.454	0.144	0.101
-420.500	-200.000	-0.016	0.169
-419.486	-9.937	0.027	0.018
-418.471	-151.067	0.153	0.011
-417.457	-77.880	0.293	0.100
-416.442	-81.929	0.186	0.060
-415.428	-61.013	-0.274	0.115
-414.413	-163.462	0.151	0.007
-413.398	41.591	0.174	0.157
-412.384	235.779	-0.147	0.241
-411.369	102.409	-0.189	0.219
-410.355	-200.000	0.002	-0.087
-409.340	-133.827	0.402	-0.050
-408.325	-59.754	-0.077	-0.033
-407.311	-117.064	-0.093	0.017
-406.296	532.307	-0.133	-0.313
-405.282	298.801	0.057	-0.103
-404.267	-200.000	-0.008	0.238
-403.252	30.102	0.086	-0.073
-402.238	-105.208	0.207	-0.047
-401.223	-49.689	-0.172	0.081
-400.209	-69.729	-0.230	-0.087
-399.194	800.000	0.045	0.152
-398.179	-200.000	-0.050	-0.373
-397.165	-122.966	0.304	0.049
-396.150	-74.228	0.184	0.066
-395.136	-9.907	-0.283	0.186
-394.121	708.663	-0.204	0.535
-393.106	-200.000	-0.023	-0.104
-392.092	-52.872	0.086	0.039
-391.077	-8.605	-0.410	0.273
-390.063	-200.000	-0.021	-0.119
-389.048	-200.000	-0.004	0.026
-388.033	372.159	-0.101	-0.204
-387.019	244.640	-0.152	0.254
-386.004	113.468	0.166	0.199
-384.990	-113.480	-0.193	-0.037
-383.975	168.223	0.039	-0.054
-382.960	108.935	-0.106	-0.125
-381.946	168.413	-0.159	-0.225
-380.931	109.708	0.177	-0.211
-379.917	132.673	0.266	0.340
-378.902	489.196	-0.046	0.105
-377.888	109.092	-0.178	-0.211
-376.873	-66.047	0.347	0.137
-375.858	-154.097	0.216	-0.015
-374.844	-126.618	0.244	-0.036
-373.829	-63.227	0.134	-0.055
-372.815	-30.779	-0.134	-0.075
-371.800	-82.171	-0.120	-0.039
-370.785	-115.258	-0.343	-0.064
-369.771	294.828	0.150	0.272
-368.756	57.309	0.125	0.121
-367.742	-116.146	-0.139	0.026
-366.727	-166.497	0.193	-0.008
-365.712	-200.000	0.063	0.343
-364.698	128.601	-0.114	-0.144
-363.683	800.000	-0.076	-0.321
-362.669	3.179	-0.106	-0.076
-361.654	-95.266	-0.257	0.069
-360.639	-200.000	-0.035	0.320
-359.625	-126.209	-0.230	0.034
-358.610	-167.864	-0.119	0.005
-357.596	187.989	-0.003	0.004
-356.581	16.941	-0.293	-0.229
-355.566	-27.339	-0.194	-0.112
-354.552	198.520	-0.064	0.098
-353.537	800.000	-0.088	0.368
-352.523	-73.342	-0.244	-0.088
-351.508	-4.300	0.122	0.084
-350.493	81.781	0.130	-0.139
-349.479	101.884	0.156	-0.180
-348.464	271.104	-0.227	-0.396
-347.450	138.037	-0.065	0.085
-346.435	134.396	0.074	-0.095
-345.420	23.353	-0.212	-0.173
-344.406	-41.973	0.003	0.002
-343.391	-200.000	0.112	-0.489
-342.377	143.464	0.137	-0.180
-341.362	27.606	-0.100	0.083
-340.348	-200.000	-0.036	-0.314
-339.333	398.096	0.021	0.044
-338.318	302.542	-0.060	0.110
-337.304	-200.000	-0.001	-0.020
-336.289	800.000	0.041	-0.125
-335.275	-98.199	-0.384	0.098
-334.260	-174.456	0.153	0.004
-333.245	-76.088	-0.249	-0.087
-332.231	800.000	0.064	0.217
-331.216	198.164	0.054	0.082
-330.202	230.074	-0.127	-0.205
-329.187	-115.352	0.247	-0.046
-328.172	-46.680	0.151	-0.073
-327.158	413.491	0.116	-0.244
-326.143	-200.000	0.023	-0.108
-325.129	89.913	-0.084	-0.092
-324.114	-94.972	-0.149	0.040
-323.099	-46.429	-0.256	0.124
-322.085	-200.000	-0.022	0.120
-321.070	89.439	-0.086	0.094
-320.056	87.263	-0.163	0.178
-319.041	-55.154	0.239	0.106
-318.026	-127.790	0.143	-0.020
-317.012	754.197	-0.147	0.393
-315.997	228.533	0.016	0.026
-314.983	13.618	0.266	0.204
-313.968	-16.626	0.189	0.118
-312.953	-8.377	-0.208	-0.138
-311.939	133.028	0.173	0.221
-310.924	-85.418	-0.080	-0.025
-309.910	-43.439	-0.140	-0.070
-308.895	-200.000	0.010	-0.095
-307.880	343.259	0.124	-0.240
-306.866	-80.133	0.316	-0.105
-305.851	800.000	-0.028	0.111
-304.837	-200.000	0.023	-0.226
-303.822	115.362	-0.151	-0.182
-302.807	-14.022	-0.098	0.062
-301.793	-58.882	-0.151	0.065
-300.778	-140.057	0.146	0.015
-299.764	78.783	0.276	-0.292
-298.749	-200.000	-0.003	-0.168
-297.735	800.000	-0.021	-0.061
-296.720	-132.366	-0.248	-0.032
-295.705	800.000	-0.020	-0.057
-294.691	412.903	-0.049	0.104
-293.676	-168.498	0.318	-0.012
-292.662	-91.111	-0.131	-0.037
-291.647	-155.815	-0.183	-0.012
-290.632	117.071	-0.117	-0.142
-289.618	-39.893	-0.275	0.142
-288.603	-37.704	-0.288	0.151
-287.589	-200.000	0.025	0.126
-286.574	142.771	0.090	-0.118
-285.559	-14.275	-0.375	-0.239
-284.545	92.263	-0.057	0.063
-283.530	-12.573	0.083	0.053
-282.516	-142.598	0.065	0.006
-281.501	500.891	0.018	-0.041
-280.486	-126.210	0.348	-0.051
-279.472	295.973	0.046	-0.084
-278.457	268.180	-0.069	0.119
-277.443	-200.000	-0.036	0.238
-276.428	122.032	0.178	0.219
-275.413	-2.043	-0.063	0.044
-274.399	-200.000	-0.005	-0.031
-273.384	10.790	0.099	-0.075
-272.370	115.760	0.075	0.090
-271.355	12.990	-0.096	-0.073
-270.340	-105.035	0.060	0.014
-269.326	-200.000	-0.004	-0.350
-268.311	-200.000	-0.021	-0.226
-267.297	-135.390	0.287	-0.034
-266.282	55.965	0.236	0.226
-265.267	-87.270	-0.172	-0.051
-264.253	-200.000	0.014	0.201
-263.238	161.171	0.132	0.183
-262.224	800.000	0.041	0.120
-261.209	29.785	0.153	0.129
-260.195	-97.501	0.280	-0.072
-259.180	-200.000	-0.101	0.440
-258.165	-200.000	-0.380	-0.002
-257.151	-93.851	-0.213	-0.058
-256.136	-154.893	0.203	0.013
-255.122	-67.480	-0.289	-0.112
-254.107	-102.198	-0.212	0.050
-253.092	106.243	0.023	-0.027
-252.078	-78.577	0.166	0.056
-251.063	800.000	0.146	0.463
-250.049	-200.000	-0.055	-0.282
-249.034	12.046	0.234	0.177
-248.019	355.032	0.182	0.356
-247.005	-39.159	0.357	-0.185
-245.990	-200.000	-0.041	-0.192
-244.976	-91.578	0.065	0.018
-243.961	-83.401	0.151	0.048
-242.946	-200.000	0.028	0.290
-241.932	800.000	0.104	0.437
-240.917	250.404	0.072	-0.120
-239.903	-200.000	0.013	0.225
-238.888	118.501	-0.179	-0.218
-237.873	800.000	-0.053	-0.226
-236.859	-200.000	0.010	-0.213
-235.844	-74.512	-0.195	-0.069
-234.830	-86.695	-0.145	0.044
-233.815	785.233	0.074	-0.201
-232.800	-89.181	-0.239	0.070
-231.786	-200.000	-0.000	0.219
-230.771	-8.540	0.099	0.065
-229.757	-44.135	-0.243	-0.120
-228.742	-200.000	-0.008	0.465
-227.727	121.185	-0.191	0.234
-226.713	-141.226	0.255	0.026
-225.698	-99.050	-0.308	-0.077
-224.684	-32.894	0.164	-0.090
-223.669	-200.000	0.022	0.242
-222.655	78.740	0.086	0.091
-221.640	592.471	0.087	0.212
-220.625	533.701	0.062	0.145
-219.611	-85.757	0.121	0.037
-218.596	-200.000	0.012	-0.218
-217.582	-48.434	-0.084	-0.040
-216.567	-55.275	0.070	-0.031
-215.552	61.299	0.069	0.068
-214.538	-171.511	-0.290	-0.009
-213.523	-68.799	-0.196	-0.075
-212.509	157.496	-0.121	0.165
-211.494	-90.006	0.267	-0.077
-210.479	35.058	0.181	-0.156
-209.465	-138.814	0.223	0.024
-208.450	-200.000	-0.024	0.200
-207.436	-78.150	-0.154	0.052
-206.421	354.697	0.132	-0.259
-205.406	800.000	0.039	0.117
-204.392	168.424	-0.151	0.211
-203.377	800.000	0.036	0.102
-202.363	-134.573	0.152	-0.018
-201.348	-200.000	0.014	-0.139
-200.333	-200.000	0.037	0.243
-199.319	-7.091	0.460	-0.308
-198.304	49.282	0.074	-0.069
-197.290	336.519	0.111	-0.213
-196.275	800.000	-0.032	0.106
-195.260	-113.473	0.083	-0.016
-194.246	-200.000	0.099	-0.552
-193.231	-19.229	-0.148	0.091
-192.217	38.136	0.336	0.294
-191.202	285.363	0.156	0.277
-190.187	-52.697	-0.194	0.088
-189.173	-64.243	0.124	0.050
-188.158	109.097	0.134	0.157
-187.144	135.115	0.078	-0.100
-186.129	616.767	0.030	0.075
-185.114	61.054	-0.150	-0.147
-184.100	208.579	-0.105	0.161
-183.085	464.859	0.031	0.069
-182.071	-66.010	0.159	-0.062
-181.056	-200.000	0.048	0.211
-180.042	800.000	-0.060	0.238
-179.027	120.962	-0.330	0.404
-178.012	83.565	0.114	0.122
-176.998	-200.000	-0.016	0.134
-175.983	-200.000	-0.046	0.268
-174.969	249.461	-0.060	-0.100
-173.954	94.081	-0.158	0.176
-172.939	800.000	0.091	0.262
-171.925	-142.545	0.070	0.007
-170.910	-134.630	-0.172	0.021
-169.896	-200.000	-0.041	0.298
-168.881	-200.000	-0.013	-0.181
-167.866	-95.614	-0.615	0.162
-166.852	-200.000	-0.040	0.229
-165.837	-200.000	-0.017	0.241
-164.823	471.102	0.127	-0.280
-163.808	-200.000	0.006	-0.226
-162.793	-97.801	-0.319	0.081
-161.779	-169.720	0.206	0.007
-160.764	244.283	-0.115	0.190
-159.750	335.087	-0.096	-0.182
-158.735	-73.545	0.093	0.033
-157.720	-200.000	0.005	0.112
-156.706	-65.948	0.182	0.071
-155.691	-200.000	-0.034	-0.164
-154.677	-200.000	0.024	-0.383
-153.662	24.642	0.262	0.213
-152.647	-116.069	0.177	0.032
-151.633	209.573	-0.238	-0.367
-150.618	-200.000	-0.025	0.360
-149.604	14.018	0.178	0.136
-148.589	-200.000	-0.009	-0.109
-147.574	-145.589	0.439	0.039
-146.560	800.000	-0.120	0.395
-145.545	-117.751	0.435	-0.077
-144.531	111.909	0.105	-0.124
-143.516	-53.774	0.192	-0.086
-142.502	-59.820	0.116	0.049
-141.487	48.245	-0.356	-0.327
-140.472	-81.204	0.542	-0.176
-139.458	-26.006	0.362	-0.209
-138.443	38.035	-0.319	0.279
-137.429	429.832	0.159	-0.338
-136.414	78.442	0.061	0.064
-135.399	64.316	-0.278	0.275
-134.385	-4.284	-0.019	-0.013
-133.370	583.111	0.069	-0.166
-132.356	-106.710	-0.155	0.034
-131.341	-188.188	0.223	-0.003
-130.326	638.171	-0.049	0.123
-129.312	-94.146	-0.077	0.021
-128.297	-39.435	-0.164	-0.084
-127.283	269.517	0.098	-0.169
-126.268	-200.000	0.007	0.189
-125.253	-164.997	-0.047	-0.002
-124.239	-119.806	0.339	-0.057
-123.224	-200.000	-0.051	-0.302
-122.210	374.031	0.150	-0.299
