DTS Sentinel unit serial number:	SN413079Multiplexer serial number:	ORYXHardware model number:	OX4-SRSoftware version number:	ORYX F/W v4.00 Oryx Data Collector v3.7.2.0data status	okinstallation	princeton_trtdifferential loss correction	single-endedforward channel	channel 1reverse channel	N/Adate	2019/09/14time	07:34:35forward acquisition time	60.00reverse acquisition time	0.00gamma	496.2192k internal	0.2336k external	0.2336temperature offset calibration	1.0076default loss term (dB/km)	0.3790temperature slope calibration	1.0000multiplexer offset coefficient	1.0000multiplexer slope coefficient	1.0000fibre end	0.00T internal ref (°C)	26.25T ext. ref 1 (°C)	3.47T ext. ref 2 (°C)	21.35length (m)	temperature (°C)	Stokes	anti-Stokes-747.200	-19.334	-0.237	0.148
-746.185	-72.754	-0.484	0.179
-745.171	33.183	0.190	0.166
-744.156	800.000	-0.073	0.261
-743.142	433.802	-0.122	0.265
-742.127	-200.000	-0.005	0.446
-741.112	-156.429	-0.090	0.006
-740.098	-200.000	-0.008	0.207
-739.083	-200.000	-0.305	-0.001
-738.069	-100.225	-0.469	-0.117
-737.054	237.823	-0.095	0.159
-736.039	-200.000	0.010	0.052
-735.025	800.000	0.079	-0.260
-734.010	75.625	-0.286	-0.303
-732.996	800.000	0.079	-0.318
-731.981	800.000	0.066	-0.262
-730.966	-46.354	-0.365	0.180
-729.952	281.576	-0.038	-0.068
-728.937	800.000	0.064	0.188
-727.923	-29.549	-0.279	0.160
-726.908	-115.681	-0.419	0.079
-725.894	-200.000	0.023	-0.126
-724.879	274.412	0.083	-0.147
-723.864	-20.055	0.309	0.191
-722.850	-200.000	-0.012	-0.175
-721.835	-34.585	0.138	-0.076
-720.821	243.092	-0.072	0.120
-719.806	-8.165	-0.252	-0.170
-718.791	-96.451	0.110	-0.029
-717.777	-139.734	-0.126	0.013
-716.762	-36.740	-0.277	-0.149
-715.748	355.862	-0.019	0.037
-714.733	-146.076	0.221	-0.020
-713.718	-200.000	-0.011	-0.265
-712.704	-87.716	-0.268	-0.081
-711.689	446.559	0.063	0.140
-710.675	-200.000	-0.001	0.227
-709.660	-75.696	0.196	-0.070
-708.645	-200.000	-0.016	0.113
-707.631	-3.462	0.153	-0.107
-706.616	-167.691	0.205	0.008
-705.602	585.072	0.093	0.230
-704.587	252.989	-0.094	0.161
-703.572	-200.000	0.015	-0.097
-702.558	88.183	-0.159	-0.177
-701.543	-200.000	-0.038	-0.353
-700.529	800.000	0.041	0.138
-699.514	-112.333	-0.090	-0.018
-698.499	-47.795	-0.096	0.047
-697.485	66.227	-0.149	-0.152
-696.470	800.000	0.056	0.186
-695.456	-200.000	0.408	-0.001
-694.441	198.904	-0.130	-0.200
-693.426	103.550	-0.078	0.092
-692.412	-200.000	0.050	-0.259
-691.397	260.794	-0.086	-0.149
-690.383	-156.232	-0.200	-0.013
-689.368	-200.000	-0.014	-0.083
-688.354	278.770	-0.211	-0.377
-687.339	249.914	0.152	-0.259
-686.324	-13.743	-0.110	0.071
-685.310	-50.959	-0.160	-0.075
-684.295	-48.617	-0.089	-0.043
-683.281	724.578	-0.034	-0.090
-682.266	127.784	0.055	0.070
-681.251	92.984	-0.097	0.110
-680.237	-200.000	0.021	-0.258
-679.222	-47.013	-0.218	0.107
-678.208	79.601	-0.198	-0.212
-677.193	-185.275	-0.093	0.001
-676.178	-21.781	-0.318	-0.194
-675.164	311.616	0.170	-0.319
-674.149	-22.679	-0.054	0.033
-673.135	-24.256	-0.391	0.233
-672.120	-61.707	-0.135	-0.057
-671.105	35.420	0.025	0.022
-670.091	-104.402	-0.399	-0.092
-669.076	275.085	0.141	-0.250
-668.062	88.503	0.167	-0.186
-667.047	234.914	-0.178	0.294
-666.032	-42.723	0.422	0.215
-665.018	478.168	-0.134	-0.304
-664.003	-98.995	-0.049	-0.012
-662.989	-200.000	-0.027	0.302
-661.974	800.000	-0.072	0.226
-660.959	800.000	0.043	0.174
-659.945	800.000	-0.046	-0.197
-658.930	94.292	0.152	-0.173
-657.916	-17.877	0.081	-0.051
-656.901	-47.831	-0.194	-0.094
-655.886	209.326	-0.102	0.159
-654.872	666.753	0.058	-0.150
-653.857	-200.000	-0.007	0.115
-652.843	7.915	0.060	0.045
-651.828	-200.000	0.016	0.121
-650.814	-54.137	-0.117	0.053
-649.799	-12.757	0.184	0.120
-648.784	800.000	-0.050	-0.171
-647.770	391.560	0.074	0.153
-646.755	-53.276	0.203	-0.093
-645.741	249.452	-0.069	0.117
-644.726	441.290	-0.086	-0.188
-643.711	800.000	-0.046	-0.163
-642.697	55.311	0.186	0.180
-641.682	-53.414	0.100	-0.046
-640.668	2.854	0.068	-0.049
-639.653	-200.000	-0.016	-0.160
-638.638	-200.000	0.013	0.258
-637.624	220.356	0.103	-0.165
-636.609	-163.297	-0.023	-0.001
-635.595	77.264	-0.177	0.189
-634.580	800.000	-0.096	-0.367
-633.565	-37.313	0.239	-0.128
-632.551	29.940	0.107	-0.092
-631.536	-200.000	0.026	-0.115
-630.522	-74.749	-0.271	0.097
-629.507	55.000	0.123	-0.118
-628.492	-200.000	-0.017	-0.252
-627.478	122.089	-0.239	-0.299
-626.463	-10.961	0.058	0.039
-625.449	-200.000	-0.046	-0.296
-624.434	-200.000	0.014	-0.102
-623.419	4.743	-0.072	0.053
-622.405	-2.583	-0.243	0.170
-621.390	37.218	0.071	0.063
-620.376	-19.423	0.105	-0.065
-619.361	-200.000	0.027	-0.218
-618.346	-60.125	-0.110	-0.047
-617.332	-73.498	0.215	0.078
-616.317	800.000	-0.079	-0.342
-615.303	255.245	-0.095	0.162
-614.288	797.888	-0.145	0.399
-613.273	331.754	0.102	-0.197
-612.259	-200.000	0.058	-0.417
-611.244	207.175	-0.147	0.229
-610.230	339.240	-0.165	0.320
-609.215	80.406	-0.137	-0.147
-608.201	-200.000	-0.008	-0.375
-607.186	585.676	-0.068	-0.167
-606.171	-132.602	-0.186	0.024
-605.157	-83.409	-0.078	-0.025
-604.142	-200.000	-0.014	0.341
-603.128	-134.602	-0.406	0.049
-602.113	-1.897	0.053	0.037
-601.098	147.734	0.215	0.289
-600.084	107.900	0.105	0.125
-599.069	224.890	0.146	-0.236
-598.055	-69.196	0.196	0.075
-597.040	-80.358	-0.274	-0.091
-596.025	-68.517	-0.144	0.056
-595.011	-60.325	0.219	0.093
-593.996	-17.512	0.316	0.198
-592.982	800.000	0.032	0.128
-591.967	238.649	0.164	0.272
-590.952	-125.452	-0.315	-0.048
-589.938	15.487	0.229	-0.179
-588.923	136.843	-0.236	0.308
-587.909	-200.000	0.028	-0.306
-586.894	800.000	-0.042	0.124
-585.879	183.360	-0.146	-0.215
-584.865	239.572	0.032	0.053
-583.850	61.355	0.307	0.304
-582.836	-91.630	0.018	-0.005
-581.821	-200.000	-0.033	-0.426
-580.806	-111.312	-0.114	-0.023
-579.792	-145.316	-0.098	-0.009
-578.777	-86.201	-0.052	-0.016
-577.763	-108.328	-0.277	-0.060
-576.748	-200.000	0.008	-0.111
-575.733	-64.992	-0.257	-0.103
-574.719	800.000	-0.133	0.518
-573.704	-140.974	-0.227	-0.023
-572.690	122.218	-0.231	-0.288
-571.675	-85.924	-0.366	-0.113
-570.661	0.962	0.144	-0.103
-569.646	-89.135	-0.198	0.058
-568.631	343.909	-0.062	-0.120
-567.617	185.930	-0.124	0.184
-566.602	587.504	0.110	-0.270
-565.588	62.024	-0.223	0.222
-564.573	800.000	-0.031	0.091
-563.558	-200.000	-0.040	-0.181
-562.544	-200.000	-0.059	-0.374
-561.529	-29.222	-0.237	-0.136
-560.515	-100.569	-0.367	0.090
-559.500	-33.744	0.249	0.137
-558.485	-85.990	0.177	0.055
-557.471	173.939	-0.121	-0.175
-556.456	13.427	-0.047	-0.037
-555.442	17.941	0.046	-0.037
-554.427	-45.485	0.120	0.059
-553.412	800.000	-0.025	0.070
-552.398	5.576	0.318	0.234
-551.383	-180.453	0.168	-0.003
-550.369	-166.204	0.370	-0.016
-549.354	-46.218	0.262	0.128
-548.339	118.639	0.060	0.074
-547.325	341.185	-0.088	-0.172
-546.310	-200.000	-0.046	-0.440
-545.296	684.908	-0.067	-0.174
-544.281	-30.877	0.220	0.124
-543.266	-100.340	0.092	-0.023
-542.252	-65.985	0.194	0.077
-541.237	751.175	-0.114	0.308
-540.223	-22.526	-0.213	0.129
-539.208	-87.835	0.211	0.063
-538.193	426.908	0.091	-0.195
-537.179	-77.979	-0.215	0.074
-536.164	-200.000	-0.020	0.338
-535.150	-171.591	-0.129	0.004
-534.135	-123.667	0.287	0.045
-533.121	-46.996	0.316	0.154
-532.106	-104.396	-0.206	0.047
-531.091	-54.868	0.190	0.086
-530.077	-200.000	0.025	0.292
-529.062	-21.994	0.337	-0.204
-528.048	352.787	0.053	-0.105
-527.033	18.444	0.048	-0.038
-526.018	690.449	-0.036	-0.093
-525.004	-120.728	-0.234	-0.039
-523.989	224.641	-0.047	0.076
-522.975	392.417	-0.037	-0.076
-521.960	-200.000	0.000	0.135
-520.945	800.000	-0.051	0.156
-519.931	-98.863	-0.150	0.038
-518.916	21.524	-0.078	0.063
-517.902	-74.431	0.102	0.037
-516.887	-200.000	0.010	0.118
-515.872	549.067	0.123	-0.293
-514.858	-200.000	0.022	0.191
-513.843	-200.000	0.045	0.277
-512.829	-85.895	0.332	0.102
-511.814	487.313	-0.013	0.030
-510.799	-37.458	-0.304	-0.161
-509.785	-200.000	-0.048	-0.246
-508.770	-104.354	-0.095	-0.022
-507.756	-48.715	-0.340	-0.163
-506.741	65.149	0.222	0.223
-505.726	285.727	-0.042	0.076
-504.712	-23.136	0.088	0.053
-503.697	-10.772	0.168	0.111
-502.683	-18.804	0.194	-0.120
-501.668	144.718	0.133	-0.177
-500.653	605.821	-0.035	0.087
-499.639	-154.352	0.317	0.021
-498.624	-67.382	0.326	-0.127
-497.610	541.129	-0.087	0.207
-496.595	-45.041	0.190	0.094
-495.581	800.000	0.053	0.177
-494.566	-200.000	-0.006	0.264
-493.551	-200.000	-0.007	-0.090
-492.537	153.831	0.086	-0.117
-491.522	-164.838	0.143	-0.006
-490.508	-200.000	0.029	0.441
-489.493	387.245	-0.123	-0.253
-488.478	-117.711	0.173	-0.031
-487.464	-129.435	-0.096	-0.013
-486.449	92.327	-0.125	0.140
-485.435	-14.438	0.263	-0.168
-484.420	-200.000	-0.014	-0.064
-483.405	-200.000	-0.030	-0.248
-482.391	800.000	0.176	0.558
-481.376	-200.000	-0.038	-0.256
-480.362	-62.847	0.219	-0.090
-479.347	125.743	0.104	-0.131
-478.332	250.689	-0.037	0.062
-477.318	230.138	-0.053	-0.086
-476.303	-200.000	0.037	0.327
-475.289	379.052	0.080	0.163
-474.274	52.798	0.080	-0.076
-473.259	7.078	0.071	0.053
-472.245	-52.514	0.353	-0.162
-471.230	102.427	-0.209	0.243
-470.216	59.085	0.164	0.160
-469.201	-91.824	-0.416	-0.117
-468.186	-73.154	0.255	0.093
-467.172	2.178	0.077	-0.055
-466.157	171.088	0.070	0.099
-465.143	-8.930	0.215	0.143
-464.128	16.846	-0.157	0.123
-463.113	800.000	-0.027	-0.112
-462.099	29.730	-0.163	-0.138
-461.084	415.013	0.050	-0.105
-460.070	57.378	-0.175	0.170
-459.055	-83.188	-0.392	0.125
-458.040	-122.554	0.016	0.003
-457.026	157.343	0.117	0.161
-456.011	-150.411	0.135	0.010
-454.997	-200.000	-0.181	0.000
-453.982	-25.645	0.029	-0.017
-452.968	-82.187	-0.157	-0.051
-451.953	142.664	-0.096	-0.126
-450.938	391.068	0.094	0.195
-449.924	-33.892	0.204	-0.111
-448.909	20.800	-0.073	0.059
-447.895	-115.203	-0.240	-0.045
-446.880	-55.788	0.048	0.021
-445.865	-39.487	-0.207	-0.108
-444.851	259.797	-0.122	-0.209
-443.836	102.257	0.167	0.193
-442.822	-200.000	0.042	0.685
-441.807	-61.588	0.236	0.098
-440.792	-1.246	0.166	-0.116
-439.778	-200.000	0.018	-0.123
-438.763	-19.524	0.277	0.170
-437.749	-73.862	-0.376	0.136
-436.734	-93.348	-0.195	0.054
-435.719	299.453	0.071	-0.130
-434.705	605.953	-0.187	0.463
-433.690	-133.717	-0.139	0.017
-432.676	-42.983	-0.076	0.038
-431.661	189.526	-0.094	0.139
-430.646	-27.870	0.091	-0.052
-429.632	-125.128	0.360	0.055
-428.617	-200.000	0.008	0.155
-427.603	230.888	-0.139	-0.225
-426.588	81.655	0.187	0.201
-425.573	-179.964	-0.213	-0.005
-424.559	-118.242	0.290	0.051
-423.544	-97.534	-0.186	-0.048
-422.530	12.595	-0.145	0.111
-421.515	-200.000	0.041	0.194
-420.500	330.068	-0.252	0.482
-419.486	-154.049	-0.270	0.018
-418.471	-64.206	-0.101	-0.041
-417.457	212.530	-0.117	-0.182
-416.442	-53.998	0.331	-0.150
-415.428	800.000	0.038	0.130
-414.413	-92.360	-0.134	0.037
-413.398	-121.511	0.204	-0.034
-412.384	800.000	-0.041	0.129
-411.369	-157.468	0.355	-0.021
-410.355	706.288	-0.071	0.186
-409.340	800.000	-0.027	0.106
-408.325	-99.190	-0.076	0.019
-407.311	-107.675	-0.340	0.074
-406.296	86.858	0.253	-0.277
-405.282	-89.744	0.155	0.045
-404.267	-50.754	-0.309	0.144
-403.252	9.278	0.138	-0.104
-402.238	-23.408	-0.136	0.081
-401.223	-200.000	0.022	0.262
-400.209	-102.275	-0.410	-0.098
-399.194	427.682	0.109	0.233
-398.179	222.333	-0.065	-0.104
-397.165	800.000	0.053	-0.180
-396.150	-200.000	0.006	-0.163
-395.136	-167.214	-0.047	0.002
-394.121	-112.250	-0.105	-0.021
-393.106	-200.000	-0.015	0.406
-392.092	-43.891	0.333	0.166
-391.077	30.901	0.246	0.208
-390.063	-5.557	0.256	0.174
-389.048	-169.737	0.189	0.007
-388.033	-94.817	0.014	0.004
-387.019	-104.754	0.073	0.017
-386.004	32.982	0.132	-0.113
-384.990	115.897	-0.103	-0.125
-383.975	-200.000	0.009	-0.387
-382.960	-104.498	0.215	-0.049
-381.946	145.549	-0.144	-0.191
-380.931	485.700	-0.039	0.087
-379.917	-149.605	0.346	-0.027
-378.902	-2.202	-0.276	0.192
-377.888	-9.298	0.193	0.127
-376.873	34.938	-0.180	-0.156
-375.858	-200.000	0.031	-0.191
-374.844	128.444	0.153	-0.192
-373.829	-200.000	0.200	-0.000
-372.815	-52.199	-0.259	0.119
-371.800	91.034	0.227	-0.252
-370.785	-55.172	-0.132	-0.059
-369.771	152.285	-0.236	0.319
-368.756	-104.762	-0.259	0.059
-367.742	482.754	-0.166	-0.373
-366.727	-40.979	0.284	0.145
-365.712	-45.212	0.187	-0.092
-364.698	-140.662	-0.043	-0.004
-363.683	-25.401	-0.346	0.203
-362.669	-135.786	-0.235	-0.027
-361.654	376.906	-0.120	-0.243
-360.639	342.303	0.030	0.059
-359.625	800.000	0.023	-0.076
-358.610	-200.000	0.003	-0.154
-357.596	255.042	-0.154	-0.261
-356.581	714.235	0.071	0.187
-355.566	-86.871	0.684	0.207
-354.552	-200.000	-0.015	0.144
-353.537	800.000	0.040	-0.163
-352.523	-66.116	0.249	0.098
-351.508	800.000	-0.044	0.147
-350.493	640.413	-0.180	0.453
-349.479	-200.000	-0.023	0.194
-348.464	583.222	0.072	-0.174
-347.450	-26.109	0.029	0.017
-346.435	13.544	-0.047	-0.036
-345.420	-29.304	-0.212	-0.120
-344.406	-130.305	-0.309	-0.041
-343.391	-32.851	-0.181	0.100
-342.377	-69.692	-0.039	-0.015
-341.362	-45.824	0.181	0.089
-340.348	258.702	-0.035	0.060
-339.333	-66.463	-0.108	-0.042
-338.318	-200.000	-0.046	0.354
-337.304	61.688	-0.114	0.112
-336.289	-12.367	0.166	-0.107
-335.275	-200.000	0.016	0.150
-334.260	-94.044	0.105	0.029
-333.245	-53.456	0.036	-0.016
-332.231	124.583	0.151	-0.187
-331.216	-200.000	0.031	-0.177
-330.202	800.000	-0.142	0.460
-329.187	-14.447	0.082	-0.052
-328.172	158.969	0.199	-0.273
-327.158	42.650	0.231	0.208
-326.143	-188.896	-0.355	0.004
-325.129	-104.343	-0.292	-0.067
-324.114	436.507	-0.105	0.225
-323.099	-71.717	-0.259	-0.095
-322.085	-51.802	0.175	-0.081
-321.070	-153.011	-0.277	-0.019
-320.056	21.983	-0.249	-0.201
-319.041	161.314	0.205	-0.284
-318.026	85.985	0.130	0.142
-317.012	-132.914	-0.118	0.015
-315.997	-124.888	0.234	0.036
-314.983	5.187	0.148	-0.108
-313.968	92.519	0.180	-0.200
-312.953	-200.000	0.005	0.084
-311.939	-200.000	0.005	-0.273
-310.924	223.317	-0.205	-0.327
-309.910	60.911	0.152	-0.149
-308.895	4.797	0.086	-0.062
-307.880	-200.000	0.010	0.071
-306.866	14.417	0.027	-0.021
-305.851	-119.836	-0.116	0.020
-304.837	-36.465	0.203	0.108
-303.822	-145.378	-0.430	0.038
-302.807	136.196	-0.087	0.112
-301.793	-93.408	-0.128	-0.035
-300.778	-200.000	-0.026	0.292
-299.764	800.000	0.005	-0.015
-298.749	-200.000	-0.013	-0.193
-297.735	-200.000	0.026	-0.452
-296.720	-107.649	-0.272	0.059
-295.705	-72.311	0.238	0.087
-294.691	800.000	-0.037	0.133
-293.676	-148.864	-0.112	-0.009
-292.662	-200.000	-0.017	0.163
-291.647	-77.753	-0.253	-0.086
-290.632	197.243	0.120	-0.180
-289.618	-150.558	0.339	-0.026
-288.603	25.902	-0.283	0.232
-287.589	133.071	0.122	-0.156
-286.574	-8.103	-0.291	0.194
-285.559	64.482	-0.290	0.288
-284.545	-200.000	0.026	0.171
-283.530	-117.275	0.232	-0.042
-282.516	-155.377	-0.178	0.011
-281.501	129.961	0.101	-0.128
-280.486	-200.000	0.011	-0.254
-279.472	615.147	-0.142	-0.351
-278.457	281.303	0.118	-0.209
-277.443	741.264	-0.089	-0.236
-276.428	410.959	0.127	0.266
-275.413	-138.035	0.167	0.018
-274.399	-80.518	-0.168	-0.055
-273.384	800.000	0.107	-0.297
-272.370	-200.000	-0.021	-0.213
-271.355	428.956	0.096	-0.205
-270.340	-200.000	0.033	-0.272
-269.326	-200.000	0.021	-0.360
-268.311	11.383	0.183	-0.138
-267.297	297.730	-0.162	-0.293
-266.282	-50.087	0.031	0.015
-265.267	-102.340	-0.262	-0.062
-264.253	-167.642	0.171	-0.007
-263.238	239.639	0.230	0.377
-262.224	-90.781	-0.160	-0.045
-261.209	6.655	0.147	-0.108
-260.195	652.256	-0.174	-0.439
-259.180	38.430	0.141	-0.124
-258.165	-200.000	-0.001	0.054
-257.151	-200.000	-0.042	-0.223
-256.136	-200.000	0.048	-0.248
-255.122	-109.995	-0.224	0.046
-254.107	-16.286	0.207	0.129
-253.092	-52.290	0.069	-0.032
-252.078	81.682	0.055	0.058
-251.063	143.593	0.153	-0.200
-250.049	-68.110	-0.077	-0.029
-249.034	800.000	-0.017	-0.062
-248.019	-34.777	-0.211	0.113
-247.005	-64.523	-0.214	-0.086
-245.990	395.030	-0.085	-0.174
-244.976	-16.915	-0.319	-0.198
-243.961	96.391	0.263	0.296
-242.946	-9.601	0.140	-0.092
-241.932	145.194	0.084	0.111
-240.917	229.556	0.045	0.072
-239.903	-200.000	-0.006	0.075
-238.888	-19.521	-0.291	0.178
-237.873	-200.000	0.020	0.088
-236.859	-58.813	0.226	-0.096
-235.844	283.742	0.092	-0.163
-234.830	24.004	-0.059	-0.048
-233.815	285.057	-0.081	0.143
-232.800	-50.584	0.212	0.098
-231.786	128.931	-0.026	-0.033
-230.771	698.995	-0.065	0.169
-229.757	800.000	0.111	-0.312
-228.742	55.367	-0.161	0.153
-227.727	800.000	0.015	0.055
-226.713	-200.000	-0.124	-0.536
-225.698	93.273	0.031	0.034
-224.684	-7.851	0.239	0.159
-223.669	705.861	-0.039	-0.100
-222.655	-30.076	0.073	0.041
-221.640	29.197	-0.235	0.197
-220.625	-200.000	-0.031	-0.156
-219.611	80.171	-0.407	0.430
-218.596	-200.000	-0.048	0.219
-217.582	-200.000	-0.033	-0.388
-216.567	-200.000	-0.019	-0.383
-215.552	-200.000	0.006	0.208
-214.538	-200.000	-0.026	-0.144
-213.523	-105.394	-0.176	-0.039
-212.509	800.000	0.070	0.258
-211.494	8.099	0.289	0.213
-210.479	-75.493	0.286	0.100
-209.465	-115.151	-0.198	-0.037
-208.450	341.801	-0.060	0.116
-207.436	-153.717	0.197	0.013
-206.421	-146.993	-0.240	-0.020
-205.406	620.160	-0.066	0.163
-204.392	753.391	0.043	-0.114
-203.377	-179.104	0.053	0.001
-202.363	28.381	-0.095	-0.079
-201.348	-51.750	0.249	-0.114
-200.333	-178.690	-0.064	0.001
-199.319	800.000	-0.048	0.160
-198.304	-200.000	-0.004	0.183
-197.290	-74.164	0.194	0.069
-196.275	217.921	0.165	-0.258
-195.260	-120.642	-0.203	-0.034
-194.246	800.000	-0.018	0.053
-193.231	-52.047	0.179	-0.082
-192.217	-127.413	-0.164	0.023
-191.202	-200.000	-0.006	0.253
-190.187	223.425	-0.206	0.326
-189.173	-17.871	-0.264	0.163
-188.158	-24.769	-0.155	0.091
-187.144	-200.000	0.034	0.172
-186.129	169.354	-0.138	-0.193
-185.114	101.080	-0.142	0.162
-184.100	-118.469	0.230	-0.040
-183.085	234.015	0.133	-0.215
-182.071	-140.121	-0.041	0.004
-181.056	-200.000	0.044	0.343
-180.042	-54.881	-0.125	0.056
-179.027	124.467	-0.230	-0.285
-178.012	-200.000	0.249	0.001
-176.998	-200.000	0.008	-0.112
-175.983	-24.764	0.272	-0.159
-174.969	-200.000	-0.021	-0.350
-173.954	-143.796	-0.191	-0.018
-172.939	-47.871	0.220	0.105
-171.925	-200.000	0.055	-0.299
-170.910	-200.000	0.009	-0.043
-169.896	-200.000	0.051	-0.340
-168.881	-123.189	0.354	-0.056
-167.866	157.761	-0.148	0.202
-166.852	-166.068	0.267	-0.011
-165.837	-200.000	-0.009	-0.104
-164.823	-200.000	0.061	-0.354
-163.808	-115.908	-0.153	0.028
-162.793	75.846	0.077	-0.080
-161.779	-37.583	0.195	-0.102
-160.764	221.722	0.218	0.344
-159.750	88.048	-0.179	0.195
-158.735	-200.000	0.004	-0.306
-157.720	-137.371	0.293	0.033
-156.706	43.754	-0.125	0.112
-155.691	58.660	-0.237	0.228
-154.677	-125.559	-0.164	0.024
-153.662	176.591	0.161	0.230
-152.647	-60.932	0.351	-0.145
-151.633	-161.368	-0.262	0.013
-150.618	312.753	0.140	-0.258
-149.604	-75.357	-0.329	0.115
-148.589	8.445	0.274	0.203
-147.574	1.677	-0.231	-0.163
-146.560	-103.403	0.139	0.032
-145.545	-104.234	0.090	-0.021
-144.531	17.114	0.235	0.183
-143.516	800.000	-0.110	0.305
-142.502	230.250	0.094	-0.151
-141.487	6.667	0.152	-0.111
-140.472	-118.655	-0.402	-0.070
-139.458	-75.760	0.087	-0.030
-138.443	800.000	-0.063	-0.223
-137.429	-36.323	-0.254	-0.134
-136.414	16.440	-0.150	-0.116
-135.399	3.386	0.267	-0.191
-134.385	73.621	-0.086	-0.089
-133.370	543.550	-0.087	-0.204
-132.356	-200.000	-0.066	0.349
-131.341	76.227	-0.038	-0.040
-130.326	-113.404	-0.126	-0.024
-129.312	-101.415	0.202	0.048
-128.297	-144.330	-0.584	-0.053
-127.283	58.063	0.152	0.145
-126.268	-200.000	-0.026	0.143
-125.253	106.428	-0.251	-0.292
-124.239	7.814	0.124	0.091
-123.224	9.208	-0.160	-0.119
-122.210	800.000	-0.098	-0.317
