DTS Sentinel unit serial number:	SN413079Multiplexer serial number:	ORYXHardware model number:	OX4-SRSoftware version number:	ORYX F/W v4.00 Oryx Data Collector v3.7.2.0data status	okinstallation	princeton_trtdifferential loss correction	single-endedforward channel	channel 1reverse channel	N/Adate	2019/09/12time	05:12:11forward acquisition time	60.00reverse acquisition time	0.00gamma	496.2192k internal	0.2322k external	0.2322temperature offset calibration	1.0047default loss term (dB/km)	0.3790temperature slope calibration	1.0000multiplexer offset coefficient	1.0000multiplexer slope coefficient	1.0000fibre end	0.00T internal ref (°C)	31.81T ext. ref 1 (°C)	1.63T ext. ref 2 (°C)	27.25length (m)	temperature (°C)	Stokes	anti-Stokes-747.200	-192.425	-0.154	0.001
-746.185	15.425	0.258	0.204
-745.171	-200.000	-0.034	0.223
-744.156	-59.398	-0.140	0.061
-743.142	800.000	0.017	-0.066
-742.127	25.498	0.069	0.058
-741.112	-193.893	0.213	-0.002
-740.098	-89.411	0.381	0.113
-739.083	-116.708	0.150	-0.028
-738.069	7.398	-0.105	0.079
-737.054	60.175	-0.071	0.071
-736.039	443.097	-0.090	-0.199
-735.025	-200.000	0.074	0.506
-734.010	-37.312	-0.278	-0.150
-732.996	-67.549	-0.339	-0.134
-731.981	10.847	0.048	-0.037
-730.966	144.917	0.118	-0.159
-729.952	-142.892	-0.237	0.023
-728.937	-112.223	-0.251	-0.051
-727.923	-200.000	0.026	-0.123
-726.908	-200.000	-0.027	-0.682
-725.894	665.700	0.058	-0.152
-724.879	-121.206	0.532	0.090
-723.864	-200.000	0.064	-0.368
-722.850	-42.887	0.280	-0.143
-721.835	-200.000	0.027	0.161
-720.821	599.737	0.044	0.111
-719.806	-76.268	-0.176	-0.062
-718.791	327.776	-0.100	-0.194
-717.777	800.000	-0.028	0.091
-716.762	800.000	-0.086	0.276
-715.748	-41.550	-0.195	0.101
-714.733	-57.732	0.413	-0.183
-713.718	-200.000	0.039	-0.344
-712.704	14.235	-0.179	0.141
-711.689	329.543	-0.021	0.041
-710.675	42.640	-0.378	-0.347
-709.660	-62.564	-0.135	-0.057
-708.645	-50.269	-0.153	-0.073
-707.631	-177.517	0.206	0.005
-706.616	-119.697	-0.123	0.022
-705.602	-200.000	-0.005	0.382
-704.587	374.521	-0.139	0.285
-703.572	-200.000	0.024	0.317
-702.558	800.000	0.066	0.256
-701.543	439.997	0.080	-0.175
-700.529	129.102	-0.103	-0.133
-699.514	-41.694	0.291	0.151
-698.499	-47.451	0.252	0.124
-697.485	-142.113	-0.146	-0.015
-696.470	-0.027	-0.349	0.251
-695.456	-127.815	0.132	0.019
-694.441	-200.000	0.014	0.141
-693.426	-200.000	0.005	0.120
-692.412	324.133	-0.083	0.160
-691.397	16.280	0.086	-0.068
-690.383	-86.548	-0.339	-0.105
-689.368	-91.677	-0.061	0.017
-688.354	-200.000	-0.007	-0.164
-687.339	106.637	0.237	-0.283
-686.324	-104.108	-0.173	-0.041
-685.310	60.808	-0.172	0.172
-684.295	16.227	-0.215	-0.171
-683.281	-73.036	0.338	-0.125
-682.266	518.573	-0.015	-0.036
-681.251	-117.965	-0.328	-0.059
-680.237	-200.000	0.075	-0.399
-679.222	-200.000	0.007	0.056
-678.208	-200.000	0.061	0.315
-677.193	800.000	-0.080	-0.300
-676.178	-174.384	0.168	0.005
-675.164	800.000	0.117	-0.345
-674.149	-11.784	0.162	-0.107
-673.135	-200.000	-0.075	0.409
-672.120	65.165	-0.208	-0.212
-671.105	-63.537	0.375	0.155
-670.091	414.080	0.127	0.273
-669.076	182.005	-0.150	0.222
-668.062	-94.964	-0.111	-0.030
-667.047	-144.017	-0.158	-0.015
-666.032	513.757	0.093	-0.218
-665.018	800.000	0.088	-0.334
-664.003	749.396	-0.043	-0.116
-662.989	147.898	0.169	-0.230
-661.974	355.444	-0.238	-0.476
-660.959	-74.376	0.324	0.118
-659.945	-199.796	0.179	-0.001
-658.930	-166.806	-0.081	-0.003
-657.916	102.240	0.151	0.178
-656.901	167.640	-0.141	0.202
-655.886	-200.000	0.030	-0.174
-654.872	0.440	-0.048	-0.034
-653.857	427.773	0.031	0.067
-652.843	-84.463	0.478	-0.152
-651.828	-87.909	0.190	-0.057
-650.814	154.417	0.181	0.250
-649.799	282.659	0.050	0.090
-648.784	-24.442	0.170	0.102
-647.770	118.199	-0.112	0.139
-646.755	-64.326	0.117	-0.048
-645.741	172.346	0.052	-0.075
-644.726	-182.227	-0.195	-0.004
-643.711	-129.028	0.498	-0.070
-642.697	75.369	-0.048	-0.051
-641.682	-48.194	0.126	-0.061
-640.668	-200.000	0.094	-0.476
-639.653	-43.657	0.306	0.155
-638.638	-80.150	-0.085	-0.029
-637.624	90.885	-0.104	0.117
-636.609	46.794	-0.068	-0.064
-635.595	-100.307	-0.133	0.033
-634.580	0.773	-0.107	-0.077
-633.565	46.021	-0.057	0.053
-632.551	126.390	0.066	-0.084
-631.536	-9.895	-0.187	0.125
-630.522	-78.187	0.110	0.038
-629.507	800.000	0.043	0.161
-628.492	-200.000	-0.008	0.279
-627.478	439.307	0.069	-0.151
-626.463	-200.000	0.041	-0.207
-625.449	-83.829	-0.188	0.060
-624.434	-200.000	0.040	0.328
-623.419	800.000	0.028	-0.091
-622.405	413.430	0.122	-0.262
-621.390	800.000	-0.114	0.439
-620.376	366.047	0.071	0.143
-619.361	-200.000	0.031	0.268
-618.346	-22.687	-0.119	0.072
-617.332	33.045	0.328	-0.286
-616.317	23.501	-0.296	-0.245
-615.303	-98.252	0.252	0.065
-614.288	4.954	0.148	0.110
-613.273	-186.140	0.143	-0.002
-612.259	-106.591	0.093	-0.021
-611.244	-59.155	0.195	0.084
-610.230	-200.000	-0.001	0.038
-609.215	-145.443	0.337	-0.030
-608.201	-9.036	0.178	-0.120
-607.186	800.000	-0.066	-0.197
-606.171	-30.678	0.155	0.088
-605.157	-200.000	0.004	-0.184
-604.142	60.415	-0.112	-0.111
-603.128	-179.491	-0.255	0.006
-602.113	-91.309	0.278	-0.080
-601.098	-18.605	0.190	0.119
-600.084	77.202	-0.289	0.309
-599.069	-200.000	0.019	0.265
-598.055	788.674	0.021	0.058
-597.040	-46.997	-0.111	-0.055
-596.025	-23.669	-0.276	0.166
-595.011	168.698	0.087	-0.125
-593.996	88.855	0.071	-0.080
-592.982	-166.457	-0.399	0.017
-591.967	218.758	0.153	0.245
-590.952	7.366	-0.225	0.169
-589.938	-69.863	0.256	0.098
-588.923	800.000	0.093	0.349
-587.909	121.713	0.100	-0.125
-586.894	-142.813	-0.462	0.045
-585.879	50.951	0.242	0.231
-584.865	293.947	0.205	-0.375
-583.850	-148.881	-0.172	0.014
-582.836	-157.812	-0.109	0.007
-581.821	-14.719	-0.323	-0.208
-580.806	321.222	0.035	0.066
-579.792	-33.422	-0.254	-0.141
-578.777	800.000	-0.053	0.203
-577.763	294.578	-0.088	-0.162
-576.748	129.089	0.086	0.111
-575.733	115.701	-0.177	-0.217
-574.719	-12.690	0.115	-0.075
-573.704	692.013	-0.012	-0.032
-572.690	211.802	0.079	0.125
-571.675	800.000	0.016	0.047
-570.661	33.910	-0.190	-0.166
-569.646	-200.000	-0.069	0.459
-568.631	-133.150	0.282	0.036
-567.617	-200.000	0.005	0.241
-566.602	800.000	-0.092	-0.276
-565.588	-12.300	-0.057	-0.038
-564.573	72.619	0.304	0.318
-563.558	63.822	0.350	0.352
-562.544	-120.603	0.229	-0.039
-561.529	169.607	0.240	0.343
-560.515	-65.520	0.346	0.139
-559.500	-176.709	-0.225	-0.006
-558.485	198.129	-0.096	0.147
-557.471	-98.941	-0.138	-0.035
-556.456	-103.528	-0.052	-0.012
-555.442	-49.448	0.484	0.232
-554.427	-200.000	0.008	-0.075
-553.412	161.223	0.186	-0.261
-552.398	-200.000	0.023	0.159
-551.383	-200.000	0.019	0.206
-550.369	18.171	-0.302	0.241
-549.354	-115.366	0.238	-0.045
-548.339	59.113	0.164	0.162
-547.325	-200.000	0.017	-0.305
-546.310	501.964	0.123	-0.284
-545.296	150.349	0.057	0.078
-544.281	220.451	-0.184	0.296
-543.266	-200.000	0.007	0.210
-542.252	-25.953	-0.194	0.114
-541.237	-14.916	-0.171	-0.110
-540.223	30.890	-0.086	0.074
-539.208	227.020	0.062	-0.101
-538.193	-200.000	-0.007	-0.238
-537.179	-15.443	-0.043	0.027
-536.164	257.807	-0.128	0.221
-535.150	-74.370	-0.387	-0.140
-534.135	-200.000	0.041	0.262
-533.121	-200.000	-0.005	0.069
-532.106	-164.243	0.100	-0.005
-531.091	-150.555	0.251	-0.019
-530.077	-200.000	0.014	-0.090
-529.062	199.095	-0.159	-0.244
-528.048	-200.000	0.024	-0.416
-527.033	203.356	0.064	-0.100
-526.018	-70.442	0.329	-0.125
-525.004	128.523	-0.269	-0.344
-523.989	226.066	-0.089	0.144
-522.975	182.853	-0.088	-0.131
-521.960	-45.578	-0.192	0.095
-520.945	60.757	-0.189	-0.188
-519.931	-101.732	0.199	0.048
-518.916	-123.781	-0.238	0.038
-517.902	189.190	-0.140	0.209
-516.887	-92.057	0.141	-0.040
-515.872	228.208	-0.052	-0.085
-514.858	66.900	-0.245	0.250
-513.843	130.090	-0.161	-0.207
-512.829	-129.353	-0.290	-0.040
-511.814	146.538	-0.106	-0.142
-510.799	33.755	-0.259	-0.225
-509.785	-200.000	-0.046	0.284
-508.770	-69.219	-0.298	0.115
-507.756	114.920	-0.118	-0.144
-506.741	-13.846	0.218	-0.141
-505.726	-43.838	-0.141	0.071
-504.712	-200.000	-0.010	-0.292
-503.697	800.000	0.071	-0.289
-502.683	-200.000	-0.002	-0.070
-501.668	29.803	0.081	0.069
-500.653	-200.000	-0.080	-0.604
-499.639	56.933	-0.199	-0.194
-498.624	1.534	-0.183	0.132
-497.610	299.360	-0.094	0.173
-496.595	-54.606	0.116	-0.052
-495.581	-101.342	-0.490	0.119
-494.566	57.752	0.232	-0.227
-493.551	-200.000	0.013	0.141
-492.537	57.186	-0.121	0.118
-491.522	-8.231	-0.077	0.052
-490.508	800.000	-0.047	-0.201
-489.493	-35.569	-0.075	0.041
-488.478	49.881	-0.257	-0.242
-487.464	-45.716	-0.070	-0.035
-486.449	-69.917	-0.209	-0.080
-485.435	-16.466	0.136	-0.086
-484.420	-139.568	-0.217	-0.023
-483.405	-4.379	0.048	-0.033
-482.391	-200.000	0.035	-0.212
-481.376	112.566	-0.133	0.161
-480.362	594.827	-0.075	-0.185
-479.347	-41.495	0.011	0.006
-478.332	32.212	0.103	-0.089
-477.318	243.280	0.031	0.052
-476.303	-142.030	-0.261	0.026
-475.289	-200.000	-0.015	-0.426
-474.274	-162.859	0.237	-0.012
-473.259	800.000	-0.035	-0.113
-472.245	-200.000	-0.055	-0.352
-471.230	-87.695	-0.048	0.015
-470.216	-63.795	0.054	0.022
-469.201	459.197	-0.068	-0.152
-468.186	-85.989	-0.290	-0.090
-467.172	-90.015	-0.286	0.083
-466.157	61.800	0.255	0.253
-465.143	-200.000	0.070	-0.321
-464.128	-200.000	-0.033	0.421
-463.113	-188.121	-0.335	0.004
-462.099	-200.000	-0.017	-0.100
-461.084	-124.951	-0.173	0.027
-460.070	20.956	0.355	0.287
-459.055	-101.934	-0.261	0.063
-458.040	-79.945	0.122	0.041
-457.026	-62.065	-0.364	0.152
-456.011	800.000	-0.018	-0.075
-454.997	800.000	-0.061	-0.238
-453.982	-7.005	0.103	0.070
-452.968	-58.262	-0.339	-0.148
-451.953	-105.038	-0.141	-0.032
-450.938	409.143	-0.065	-0.137
-449.924	-73.058	0.091	-0.033
-448.909	800.000	-0.095	-0.294
-447.895	248.731	-0.041	-0.070
-446.880	-106.974	-0.378	0.083
-445.865	708.794	-0.055	-0.147
-444.851	-98.122	0.236	0.061
-443.836	800.000	0.081	-0.304
-442.822	595.094	0.129	-0.319
-441.807	117.893	0.137	-0.168
-440.792	-56.539	0.246	-0.109
-439.778	-182.245	0.385	0.007
-438.763	-93.257	-0.239	0.066
-437.749	-200.000	0.050	0.251
-436.734	27.190	-0.234	0.196
-435.719	-200.000	0.084	-0.409
-434.705	-200.000	0.005	0.244
-433.690	-178.474	0.335	0.008
-432.676	-170.046	0.193	-0.007
-431.661	479.592	0.201	0.455
-430.646	201.346	0.130	0.199
-429.632	-116.868	-0.512	-0.094
-428.617	-48.438	0.218	-0.105
-427.603	161.509	0.162	0.226
-426.588	-200.000	-0.048	0.298
-425.573	265.084	0.143	-0.249
-424.559	800.000	-0.062	-0.251
-423.544	350.516	-0.136	-0.269
-422.530	800.000	0.048	-0.155
-421.515	707.704	0.041	-0.107
-420.500	-113.629	-0.168	0.033
-419.486	-47.821	0.353	0.171
-418.471	348.199	-0.103	0.202
-417.457	-130.533	0.146	-0.020
-416.442	-200.000	0.056	-0.359
-415.428	-7.479	0.114	0.077
-414.413	-55.595	0.192	-0.086
-413.398	117.940	0.136	-0.167
-412.384	-33.278	-0.399	0.220
-411.369	-194.862	-0.130	-0.001
-410.355	203.246	0.060	-0.092
-409.340	391.075	0.011	-0.023
-408.325	589.662	-0.069	-0.171
-407.311	-62.980	0.190	-0.078
-406.296	-95.417	0.292	-0.078
-405.282	-127.866	-0.459	0.066
-404.267	-200.000	-0.066	-0.445
-403.252	-117.468	0.038	-0.007
-402.238	-200.000	0.005	0.189
-401.223	-37.914	-0.246	0.130
-400.209	-44.986	-0.284	-0.141
-399.194	134.574	0.111	-0.143
-398.179	-99.492	0.192	0.048
-397.165	-20.402	0.311	0.191
-396.150	29.699	0.163	-0.138
-395.136	472.289	-0.040	-0.090
-394.121	-200.000	-0.028	0.440
-393.106	-200.000	-0.027	0.181
-392.092	-200.000	0.037	-0.346
-391.077	800.000	0.137	0.378
-390.063	-67.054	-0.116	-0.046
-389.048	-17.642	-0.088	0.055
-388.033	-200.000	-0.006	0.380
-387.019	-117.423	0.105	-0.019
-386.004	48.262	0.122	0.114
-384.990	-155.044	-0.081	-0.005
-383.975	119.035	-0.058	-0.072
-382.960	-160.381	-0.235	-0.013
-381.946	800.000	-0.110	-0.334
-380.931	-36.553	0.365	0.195
-379.917	23.423	0.237	0.194
-378.902	79.974	0.240	0.257
-377.888	125.988	0.122	-0.154
-376.873	-124.021	-0.254	-0.040
-375.858	-21.864	0.252	-0.153
-374.844	38.317	-0.219	0.194
-373.829	68.340	-0.354	0.361
-372.815	362.914	-0.226	0.452
-371.800	-16.295	-0.275	-0.174
-370.785	-117.095	-0.105	0.019
-369.771	32.004	0.247	0.212
-368.756	31.581	-0.155	-0.133
-367.742	-71.398	-0.149	-0.056
-366.727	-200.000	0.011	-0.228
-365.712	-200.000	-0.002	0.240
-364.698	-200.000	-0.048	-0.286
-363.683	800.000	-0.092	-0.305
-362.669	-59.325	0.232	0.099
-361.654	-133.799	0.467	-0.058
-360.639	480.242	-0.121	0.272
-359.625	-42.864	-0.333	-0.168
-358.610	-51.796	-0.319	0.148
-357.596	28.320	0.236	-0.199
-356.581	109.771	-0.084	-0.100
-355.566	-200.000	-0.013	0.252
-354.552	315.140	0.330	0.619
-353.537	68.553	0.249	0.254
-352.523	-80.205	0.256	0.085
-351.508	285.011	0.150	0.269
-350.493	-142.866	-0.340	0.033
-349.479	-59.026	-0.341	0.146
-348.464	-200.000	0.023	-0.227
-347.450	11.983	-0.193	-0.148
-346.435	-20.083	-0.186	-0.114
-345.420	6.351	0.189	0.140
-344.406	115.621	-0.240	0.292
-343.391	289.337	0.224	-0.404
-342.377	35.658	-0.119	-0.104
-341.362	206.221	0.031	0.048
-340.348	-145.280	0.542	0.049
-339.333	9.607	0.203	-0.153
-338.318	248.435	0.225	-0.378
-337.304	-200.000	-0.006	0.114
-336.289	5.991	0.095	-0.070
-335.275	-85.482	-0.154	-0.048
-334.260	124.002	-0.063	0.079
-333.245	-200.000	-0.078	-0.398
-332.231	-169.305	-0.038	0.001
-331.216	-23.831	0.077	0.046
-330.202	-200.000	-0.032	0.232
-329.187	124.217	-0.195	0.243
-328.172	-72.262	0.192	0.071
-327.158	-97.468	-0.300	-0.078
-326.143	94.785	0.238	-0.269
-325.129	348.794	0.072	-0.141
-324.114	532.889	-0.052	-0.123
-323.099	-19.701	0.140	-0.086
-322.085	221.237	-0.027	-0.043
-321.070	10.997	-0.138	0.105
-320.056	100.299	0.157	0.181
-319.041	-185.907	0.411	0.006
-318.026	-157.408	-0.198	-0.012
-317.012	104.175	0.175	0.204
-315.997	-74.703	-0.345	0.123
-314.983	-100.749	0.092	-0.023
-313.968	171.914	-0.003	0.004
-312.953	-200.000	0.432	0.000
-311.939	3.941	-0.110	-0.080
-310.924	-30.377	-0.440	0.248
-309.910	-185.442	0.325	0.005
-308.895	47.667	0.012	0.011
-307.880	-8.900	0.198	0.132
-306.866	800.000	-0.067	0.218
-305.851	102.092	0.245	0.284
-304.837	-200.000	0.007	-0.326
-303.822	-200.000	-0.125	-0.000
-302.807	-70.003	-0.359	-0.136
-301.793	38.166	-0.259	0.229
-300.778	233.452	-0.132	0.215
-299.764	-120.656	0.264	0.044
-298.749	76.531	0.197	-0.207
-297.735	-76.648	-0.191	-0.067
-296.720	38.460	-0.231	-0.205
-295.705	60.438	0.043	0.042
-294.691	82.687	0.061	0.066
-293.676	-24.908	0.103	0.061
-292.662	109.844	0.165	-0.196
-291.647	105.326	-0.178	-0.208
-290.632	-200.000	-0.024	-0.110
-289.618	292.686	0.081	0.147
-288.603	-41.013	0.134	0.069
-287.589	13.253	0.093	-0.071
-286.574	481.320	0.109	-0.246
-285.559	20.613	0.456	-0.366
-284.545	102.801	0.058	-0.068
-283.530	514.419	-0.080	0.185
-282.516	-200.000	0.008	-0.148
-281.501	207.880	-0.208	-0.322
-280.486	-35.381	0.132	-0.071
-279.472	-200.000	-0.098	-0.000
-278.457	272.052	-0.050	-0.087
-277.443	-78.289	0.154	0.052
-276.428	800.000	0.103	0.379
-275.413	51.258	0.156	-0.147
-274.399	-79.299	0.143	-0.048
-273.384	303.197	-0.036	0.066
-272.370	-88.409	-0.026	0.008
-271.355	-200.000	0.027	0.229
-270.340	-76.861	0.395	-0.137
-269.326	53.211	0.133	0.127
-268.311	26.554	-0.112	0.093
-267.297	-58.615	0.239	0.103
-266.282	68.234	-0.140	-0.142
-265.267	-160.492	-0.122	-0.006
-264.253	-157.576	0.292	0.017
-263.238	251.824	0.111	-0.187
-262.224	-105.059	-0.299	0.068
-261.209	540.863	0.066	0.156
-260.195	257.063	-0.115	0.196
-259.180	75.648	-0.228	0.239
-258.165	-83.851	0.099	0.031
-257.151	800.000	0.065	0.227
-256.136	-123.506	-0.054	-0.008
-255.122	188.901	-0.256	0.380
-254.107	360.521	-0.027	-0.053
-253.092	220.416	-0.224	-0.355
-252.078	-156.798	-0.226	0.014
-251.063	160.719	0.049	0.068
-250.049	174.512	0.260	0.372
-249.034	88.743	-0.116	0.127
-248.019	315.753	0.094	-0.176
-247.005	201.459	-0.077	-0.118
-245.990	-200.000	-0.009	0.089
-244.976	-200.000	-0.064	0.346
-243.961	-200.000	0.495	0.001
-242.946	-157.479	-0.127	-0.008
-241.932	-150.842	-0.054	-0.004
-240.917	-52.158	0.176	0.081
-239.903	383.102	-0.131	-0.266
-238.888	0.789	0.366	0.260
-237.873	-118.453	-0.227	0.040
-236.859	-24.324	-0.183	0.108
-235.844	-112.083	0.118	-0.023
-234.830	-80.033	-0.237	0.079
-233.815	-71.982	-0.279	-0.103
-232.800	139.033	0.116	-0.151
-231.786	-200.000	-0.018	-0.224
-230.771	-200.000	0.011	-0.091
-229.757	-110.166	-0.049	0.010
-228.742	-200.000	0.048	-0.277
-227.727	0.015	-0.200	-0.141
-226.713	-200.000	0.017	-0.128
-225.698	-200.000	-0.041	-0.263
-224.684	59.314	0.146	-0.142
-223.669	-200.000	-0.030	-0.145
-222.655	-46.018	-0.274	0.134
-221.640	23.668	0.139	0.113
-220.625	-41.623	-0.118	0.060
-219.611	115.662	0.199	-0.241
-218.596	-200.000	-0.019	-0.109
-217.582	-77.043	0.119	-0.041
-216.567	344.824	-0.149	0.289
-215.552	800.000	0.072	0.274
-214.538	27.495	-0.112	-0.093
-213.523	800.000	0.148	-0.429
-212.509	307.950	-0.070	-0.130
-211.494	800.000	-0.100	-0.281
-210.479	-95.774	-0.159	0.042
-209.465	280.712	0.161	0.284
-208.450	-200.000	-0.014	0.259
-207.436	588.450	0.140	0.342
-206.421	471.951	-0.026	-0.058
-205.406	800.000	-0.032	-0.106
-204.392	43.410	0.084	-0.076
-203.377	-7.117	0.115	0.077
-202.363	213.786	0.158	-0.247
-201.348	431.501	-0.086	0.184
-200.333	122.456	0.305	0.378
-199.319	-110.216	-0.144	0.030
-198.304	-10.335	-0.059	0.039
-197.290	145.316	0.133	0.176
-196.275	800.000	-0.067	-0.201
-195.260	-74.623	0.070	0.025
-194.246	54.998	-0.208	-0.199
-193.231	-9.423	0.101	0.067
-192.217	-56.324	0.117	-0.051
-191.202	107.102	-0.155	0.182
-190.187	297.392	-0.097	0.176
-189.173	270.396	0.014	-0.024
-188.158	-200.000	-0.027	0.270
-187.144	-200.000	0.066	0.370
-186.129	22.088	-0.150	-0.121
-185.114	-144.202	-0.048	-0.004
-184.100	-200.000	0.005	0.037
-183.085	-200.000	-0.028	-0.267
-182.071	800.000	-0.026	0.084
-181.056	-200.000	-0.085	-0.552
-180.042	-32.045	0.055	0.030
-179.027	111.527	0.072	-0.086
-178.012	11.034	0.259	-0.195
-176.998	12.346	0.308	0.235
-175.983	-200.000	0.004	0.390
-174.969	-200.000	-0.029	0.178
-173.954	285.047	0.135	-0.239
-172.939	511.449	-0.123	0.282
-171.925	-200.000	-0.033	0.331
-170.910	-200.000	-0.029	-0.141
-169.896	229.132	0.078	0.125
-168.881	-135.743	0.316	-0.037
-167.866	428.567	0.139	-0.296
-166.852	-51.587	0.063	-0.029
-165.837	-154.422	0.215	-0.014
-164.823	-37.782	0.076	0.040
-163.808	-200.000	-0.043	-0.295
-162.793	-200.000	-0.085	0.386
-161.779	-200.000	-0.022	-0.110
-160.764	800.000	0.084	-0.258
-159.750	-14.218	-0.217	0.138
-158.735	131.618	-0.208	0.264
-157.720	153.141	-0.087	0.117
-156.706	-107.869	-0.283	-0.061
-155.691	-200.000	0.091	-0.408
-154.677	205.301	0.058	0.089
-153.662	178.373	-0.144	-0.208
-152.647	-39.583	0.316	-0.163
-151.633	-77.358	-0.053	-0.018
-150.618	-200.000	-0.105	0.493
-149.604	233.814	0.114	-0.186
-148.589	-85.771	0.233	-0.071
-147.574	-154.402	0.171	0.011
-146.560	310.255	-0.063	-0.116
-145.545	-40.413	-0.207	0.106
-144.531	330.381	0.049	-0.093
-143.516	121.360	0.163	0.200
-142.502	32.053	-0.174	0.148
-141.487	-200.000	0.030	0.343
-140.472	-76.190	-0.188	-0.065
-139.458	-115.758	0.282	0.052
-138.443	-200.000	-0.012	-0.182
-137.429	-0.663	0.089	0.062
-136.414	-64.580	0.252	-0.101
-135.399	88.537	0.147	-0.161
-134.385	-200.000	-0.216	0.000
-133.370	216.969	0.117	0.184
-132.356	107.670	0.184	0.216
-131.341	31.263	0.217	0.184
-130.326	-105.765	-0.272	0.061
-129.312	45.367	-0.338	0.307
-128.297	800.000	0.154	-0.471
-127.283	-132.409	0.185	-0.024
-126.268	99.551	-0.114	-0.130
-125.253	-137.100	0.159	-0.018
-124.239	-200.000	-0.018	-0.184
-123.224	-126.408	0.315	0.046
-122.210	32.084	0.080	-0.068
