DTS Sentinel unit serial number:	SN413079Multiplexer serial number:	ORYXHardware model number:	OX4-SRSoftware version number:	ORYX F/W v4.00 Oryx Data Collector v3.7.2.0data status	okinstallation	princeton_trtdifferential loss correction	single-endedforward channel	channel 1reverse channel	N/Adate	2019/09/12time	14:40:11forward acquisition time	60.00reverse acquisition time	0.00gamma	496.2192k internal	0.2294k external	0.2294temperature offset calibration	1.0055default loss term (dB/km)	0.3790temperature slope calibration	1.0000multiplexer offset coefficient	1.0000multiplexer slope coefficient	1.0000fibre end	0.00T internal ref (°C)	40.12T ext. ref 1 (°C)	2.28T ext. ref 2 (°C)	36.88length (m)	temperature (°C)	Stokes	anti-Stokes-747.200	714.090	0.065	0.177
-746.185	644.687	-0.047	0.123
-745.171	-97.125	-0.010	0.003
-744.156	-200.000	-0.004	0.171
-743.142	-0.746	0.221	0.160
-742.127	-42.886	-0.162	0.084
-741.112	-177.983	-0.082	-0.002
-740.098	240.592	-0.332	0.567
-739.083	42.622	0.088	-0.081
-738.069	-119.548	0.370	-0.066
-737.054	573.791	0.064	0.159
-736.039	63.342	0.217	0.223
-735.025	-56.490	0.225	0.102
-734.010	49.994	-0.191	0.184
-732.996	-50.220	-0.201	-0.097
-731.981	-125.848	0.268	-0.041
-730.966	170.478	-0.149	-0.218
-729.952	-16.595	-0.129	-0.083
-728.937	800.000	0.108	-0.405
-727.923	800.000	0.064	-0.213
-726.908	299.742	0.073	-0.137
-725.894	202.552	0.089	-0.140
-724.879	96.479	0.125	-0.147
-723.864	44.543	0.189	-0.178
-722.850	76.806	0.203	0.220
-721.835	-188.938	-0.226	0.003
-720.821	20.129	-0.032	-0.026
-719.806	-200.000	0.056	0.324
-718.791	229.473	-0.075	0.126
-717.777	542.809	0.023	-0.055
-716.762	-140.892	-0.204	-0.021
-715.748	232.232	-0.129	0.216
-714.733	-17.021	0.121	-0.078
-713.718	539.372	-0.052	0.127
-712.704	-70.613	-0.329	-0.127
-711.689	108.077	0.212	-0.259
-710.675	335.366	0.089	-0.177
-709.660	213.813	0.054	-0.088
-708.645	26.062	0.105	-0.090
-707.631	-75.924	-0.312	-0.113
-706.616	530.820	-0.066	0.159
-705.602	-70.678	-0.182	0.070
-704.587	-21.891	0.076	0.047
-703.572	-1.166	0.257	-0.186
-702.558	184.893	0.054	-0.081
-701.543	-51.448	0.339	0.162
-700.529	-131.650	0.095	0.013
-699.514	460.885	-0.092	0.210
-698.499	-200.000	-0.021	0.212
-697.485	-11.684	-0.188	0.126
-696.470	-87.430	-0.349	0.108
-695.456	10.445	0.204	0.158
-694.441	800.000	-0.022	-0.076
-693.426	-45.039	-0.068	0.034
-692.412	603.795	0.083	0.211
-691.397	800.000	0.064	-0.222
-690.383	-98.158	-0.115	0.030
-689.368	-109.791	0.135	-0.029
-688.354	-11.972	0.213	0.142
-687.339	800.000	-0.038	-0.125
-686.324	196.635	-0.151	0.234
-685.310	213.173	-0.095	0.153
-684.295	800.000	-0.078	0.332
-683.281	-60.878	0.281	-0.121
-682.266	-163.941	-0.179	-0.009
-681.251	448.423	-0.098	0.220
-680.237	-5.076	0.251	-0.176
-679.222	-200.000	-0.027	0.183
-678.208	3.757	0.135	-0.101
-677.193	-100.080	-0.186	0.047
-676.178	649.344	0.094	-0.247
-675.164	-42.810	-0.263	0.136
-674.149	-200.000	0.005	-0.098
-673.135	-159.429	-0.394	0.022
-672.120	-151.734	-0.133	-0.010
-671.105	26.314	-0.065	-0.056
-670.091	-200.000	0.031	0.272
-669.076	-22.465	0.309	-0.191
-668.062	-200.000	-0.024	0.131
-667.047	800.000	0.120	-0.358
-666.032	-27.552	0.142	0.084
-665.018	330.756	-0.085	-0.167
-664.003	-100.568	-0.311	-0.078
-662.989	363.811	0.105	0.216
-661.974	800.000	0.084	-0.360
-660.959	-200.000	-0.048	-0.699
-659.945	781.941	-0.031	0.087
-658.930	-68.977	-0.299	-0.117
-657.916	152.704	0.275	0.384
-656.901	-16.106	-0.177	-0.115
-655.886	-200.000	-0.056	0.303
-654.872	800.000	0.035	0.104
-653.857	116.796	-0.297	-0.372
-652.843	330.612	0.065	-0.129
-651.828	-200.000	-0.028	-0.171
-650.814	800.000	0.068	-0.272
-649.799	-200.000	0.008	-0.149
-648.784	-200.000	0.001	0.131
-647.770	149.183	-0.152	0.210
-646.755	-151.036	-0.439	0.034
-645.741	107.641	0.109	0.132
-644.726	182.143	-0.105	-0.158
-643.711	-59.968	-0.140	0.061
-642.697	-200.000	-0.033	-0.359
-641.682	368.070	0.084	0.174
-640.668	-44.865	0.207	-0.105
-639.653	-146.744	0.210	0.019
-638.638	-24.256	0.180	0.110
-637.624	-88.716	0.153	0.046
-636.609	-168.106	0.134	0.005
-635.595	-42.555	-0.212	-0.110
-634.580	136.350	-0.097	0.130
-633.565	-30.022	0.062	0.036
-632.551	-123.737	0.050	0.008
-631.536	0.787	0.057	0.041
-630.522	800.000	-0.019	-0.078
-629.507	-101.632	0.392	0.097
-628.492	604.664	-0.020	0.049
-627.478	233.823	-0.029	-0.048
-626.463	-138.979	0.121	-0.013
-625.449	165.712	-0.016	-0.023
-624.434	-94.882	-0.083	-0.023
-623.419	196.372	-0.104	-0.160
-622.405	-200.000	-0.040	0.344
-621.390	-82.988	-0.218	-0.072
-620.376	-200.000	0.002	-0.185
-619.361	150.685	-0.117	-0.162
-618.346	647.052	-0.012	0.031
-617.332	40.742	-0.086	-0.079
-616.317	-122.453	-0.187	0.031
-615.303	-112.577	0.050	-0.010
-614.288	507.195	0.139	0.328
-613.273	386.856	-0.133	-0.279
-612.259	285.326	0.046	0.085
-611.244	180.873	-0.020	0.030
-610.230	58.708	0.148	-0.148
-609.215	-42.416	0.075	0.039
-608.201	272.807	-0.079	0.143
-607.186	2.191	-0.061	-0.045
-606.171	386.393	-0.035	-0.073
-605.157	63.891	0.232	-0.238
-604.142	-200.000	0.004	0.052
-603.128	669.726	-0.030	-0.078
-602.113	217.835	0.082	0.132
-601.098	586.024	-0.170	-0.426
-600.084	-139.966	-0.160	0.017
-599.069	30.852	-0.112	0.098
-598.055	388.398	-0.042	-0.089
-597.040	109.538	0.253	-0.308
-596.025	-82.974	-0.015	-0.005
-595.011	286.240	-0.047	-0.087
-593.996	-148.076	-0.153	0.013
-592.982	60.666	0.161	-0.163
-591.967	-200.000	-0.010	-0.065
-590.952	287.025	-0.038	0.071
-589.938	-200.000	0.000	-0.155
-588.923	800.000	-0.078	-0.318
-587.909	49.726	-0.118	0.113
-586.894	-200.000	0.034	-0.263
-585.879	-200.000	-0.016	-0.226
-584.865	295.347	-0.152	-0.282
-583.850	159.451	-0.066	0.094
-582.836	-88.016	-0.125	-0.038
-581.821	-200.000	0.017	-0.093
-580.806	-29.086	0.046	-0.027
-579.792	-75.641	-0.360	-0.130
-578.777	-81.509	-0.050	0.017
-577.763	106.701	0.197	0.238
-576.748	-111.265	-0.380	0.079
-575.733	-50.066	0.097	-0.047
-574.719	105.848	0.007	0.008
-573.704	-128.915	-0.380	0.054
-572.690	762.124	0.076	-0.208
-571.675	107.139	0.153	-0.185
-570.661	-114.800	0.254	-0.049
-569.646	427.807	0.106	0.233
-568.631	2.815	0.178	-0.132
-567.617	172.169	0.065	0.095
-566.602	-64.635	0.104	0.043
-565.588	118.452	0.212	0.265
-564.573	-132.317	0.142	-0.019
-563.558	-200.000	-0.071	0.368
-562.544	-75.198	-0.128	0.046
-561.529	800.000	-0.125	0.381
-560.515	-26.030	0.278	-0.166
-559.500	640.747	0.053	-0.137
-558.485	8.020	0.265	0.202
-557.471	-200.000	0.024	-0.139
-556.456	-120.691	0.060	-0.010
-555.442	-73.311	-0.284	-0.106
-554.427	-147.873	0.083	0.007
-553.412	108.598	-0.229	-0.278
-552.398	-200.000	-0.020	0.112
-551.383	47.877	0.205	-0.194
-550.369	59.159	0.451	0.451
-549.354	17.006	0.256	0.206
-548.339	74.996	-0.130	0.139
-547.325	702.896	0.107	-0.287
-546.310	517.128	0.160	-0.379
-545.296	217.653	0.078	0.126
-544.281	-200.000	-0.006	-0.050
-543.266	-80.006	0.188	0.064
-542.252	-200.000	0.012	-0.104
-541.237	166.882	0.187	0.269
-540.223	-27.109	-0.206	-0.122
-539.208	612.449	-0.077	-0.195
-538.193	35.285	-0.025	-0.022
-537.179	-132.996	-0.245	-0.032
-536.164	343.387	-0.054	-0.107
-535.150	-200.000	0.016	0.231
-534.135	-109.209	-0.137	0.030
-533.121	30.153	0.343	0.297
-532.106	-16.552	-0.190	0.122
-531.091	-110.763	0.229	-0.048
-530.077	-46.313	0.179	-0.089
-529.062	32.339	0.057	0.050
-528.048	119.316	-0.073	0.092
-527.033	800.000	-0.070	0.198
-526.018	-67.434	0.052	0.021
-525.004	-155.043	-0.530	-0.035
-523.989	-1.020	0.075	-0.054
-522.975	605.229	-0.106	0.266
-521.960	575.487	0.052	-0.128
-520.945	-200.000	-0.005	-0.046
-519.931	-156.478	-0.070	0.004
-518.916	-151.065	-0.131	-0.010
-517.902	-47.580	0.080	-0.040
-516.887	572.654	-0.101	-0.249
-515.872	38.103	-0.081	-0.073
-514.858	-200.000	-0.012	0.192
-513.843	267.526	0.161	0.285
-512.829	-102.979	-0.095	-0.023
-511.814	-200.000	0.006	0.066
-510.799	329.347	0.095	0.185
-509.785	800.000	-0.100	-0.326
-508.770	-135.331	-0.401	-0.049
-507.756	130.106	-0.233	0.302
-506.741	-151.642	0.158	0.012
-505.726	-200.000	-0.034	0.275
-504.712	-169.469	0.426	-0.016
-503.697	23.642	-0.114	-0.095
-502.683	-66.932	-0.437	0.175
-501.668	381.054	0.128	-0.266
-500.653	-153.963	0.120	0.008
-499.639	-17.094	0.271	-0.173
-498.624	-52.189	0.131	-0.062
-497.610	131.990	-0.176	-0.229
-496.595	-51.127	0.101	-0.048
-495.581	-156.968	0.258	0.016
-494.566	-200.000	0.029	-0.429
-493.551	-99.816	-0.039	-0.010
-492.537	-80.247	-0.282	-0.096
-491.522	257.279	-0.174	-0.302
-490.508	800.000	-0.033	-0.132
-489.493	144.127	-0.060	-0.081
-488.478	109.879	-0.136	0.165
-487.464	800.000	0.079	0.284
-486.449	-200.000	0.025	0.280
-485.435	106.047	0.059	0.071
-484.420	-200.000	-0.031	-0.225
-483.405	-51.918	0.646	-0.304
-482.391	-200.000	-0.002	0.287
-481.376	97.281	0.090	0.105
-480.362	184.610	-0.151	-0.227
-479.347	130.501	-0.159	0.207
-478.332	150.420	-0.194	-0.267
-477.318	313.251	0.108	-0.206
-476.303	-200.000	-0.009	0.234
-475.289	-167.314	0.323	0.013
-474.274	686.257	0.152	-0.402
-473.259	-107.711	-0.128	0.028
-472.245	-200.000	-0.003	-0.170
-471.230	-126.765	-0.105	-0.016
-470.216	124.842	0.026	-0.033
-469.201	-200.000	0.006	0.139
-468.186	-155.076	-0.137	-0.009
-467.172	491.905	-0.181	-0.419
-466.157	-17.171	-0.053	-0.034
-465.143	527.741	-0.041	-0.099
-464.128	-200.000	0.014	0.258
-463.113	-96.214	-0.366	0.098
-462.099	-155.292	-0.348	-0.023
-461.084	387.071	-0.037	-0.078
-460.070	800.000	-0.068	-0.217
-459.055	800.000	-0.108	0.368
-458.040	-200.000	0.093	-0.440
-457.026	225.839	-0.218	-0.358
-456.011	80.235	-0.215	0.234
-454.997	52.264	0.115	0.111
-453.982	800.000	-0.119	-0.507
-452.968	-200.000	0.019	0.251
-451.953	-82.437	0.421	0.138
-450.938	-200.000	-0.032	-0.177
-449.924	-200.000	0.034	-0.164
-448.909	-200.000	0.005	-0.089
-447.895	109.063	0.077	0.094
-446.880	-113.855	-0.243	-0.048
-445.865	-200.000	0.028	0.317
-444.851	-38.336	-0.124	-0.066
-443.836	72.348	0.182	-0.192
-442.822	-73.929	-0.071	0.026
-441.807	-197.030	-0.245	0.002
-440.792	-69.419	-0.246	-0.095
-439.778	-114.569	0.262	0.051
-438.763	800.000	-0.020	0.084
-437.749	-200.000	-0.009	0.065
-436.734	-200.000	-0.131	-0.001
-435.719	800.000	-0.009	0.038
-434.705	-65.882	-0.141	0.057
-433.690	-3.298	0.159	0.112
-432.676	-10.035	0.188	0.126
-431.661	-23.215	0.084	0.051
-430.646	302.464	-0.133	0.249
-429.632	207.235	-0.184	-0.290
-428.617	-33.079	0.188	-0.105
-427.603	713.564	0.140	0.376
-426.588	52.351	0.129	0.124
-425.573	-124.916	-0.203	-0.032
-424.559	-111.640	-0.497	0.102
-423.544	179.527	0.133	-0.196
-422.530	128.310	-0.124	-0.160
-421.515	-200.000	-0.054	0.287
-420.500	-67.887	0.146	0.058
-419.486	800.000	0.048	-0.191
-418.471	69.986	0.238	-0.248
-417.457	423.629	-0.175	-0.381
-416.442	-65.570	-0.298	0.121
-415.428	26.422	-0.121	0.102
-414.413	762.477	0.054	-0.149
-413.398	50.939	0.217	0.208
-412.384	-200.000	0.035	0.159
-411.369	-137.996	0.096	0.011
-410.355	138.833	0.138	-0.183
-409.340	-200.000	0.019	-0.149
-408.325	181.237	-0.063	0.093
-407.311	100.380	0.184	0.215
-406.296	-108.997	0.228	-0.049
-405.282	-107.225	0.194	0.043
-404.267	417.493	-0.159	0.343
-403.252	-200.000	-0.010	0.300
-402.238	311.144	-0.059	0.112
-401.223	365.324	0.079	0.160
-400.209	93.694	-0.062	0.071
-399.194	-200.000	-0.009	-0.375
-398.179	80.830	-0.089	0.097
-397.165	168.443	0.079	-0.114
-396.150	-88.467	-0.022	0.006
-395.136	-200.000	0.044	-0.297
-394.121	92.069	-0.314	-0.356
-393.106	-68.924	-0.242	-0.094
-392.092	-50.384	-0.587	0.280
-391.077	-89.562	0.233	0.069
-390.063	664.823	0.027	0.070
-389.048	-45.253	-0.101	0.051
-388.033	-32.574	0.234	0.132
-387.019	-200.000	-0.023	-0.232
-386.004	800.000	-0.129	-0.495
-384.990	800.000	-0.035	0.136
-383.975	19.033	-0.090	-0.073
-382.960	-200.000	-0.070	-0.314
-381.946	15.584	0.176	0.139
-380.931	46.335	-0.176	-0.164
-379.917	800.000	0.130	-0.473
-378.902	-139.637	0.519	-0.056
-377.888	-102.782	0.274	-0.066
-376.873	66.573	0.282	0.289
-375.858	-94.439	0.185	-0.051
-374.844	-51.031	-0.220	0.104
-373.829	64.240	-0.177	0.180
-372.815	54.018	0.292	-0.283
-371.800	-18.530	0.169	-0.106
-370.785	-94.754	-0.042	-0.011
-369.771	165.354	0.179	-0.255
-368.756	27.995	-0.126	0.107
-367.742	-59.753	0.316	-0.136
-366.727	41.381	-0.147	0.134
-365.712	800.000	0.058	0.212
-364.698	508.285	-0.077	0.181
-363.683	112.128	-0.163	0.199
-362.669	144.742	0.133	-0.179
-361.654	109.613	0.092	0.111
-360.639	-200.000	-0.009	0.065
-359.625	-135.832	-0.278	0.033
-358.610	46.634	0.137	-0.128
-357.596	-200.000	0.017	0.118
-356.581	-92.713	-0.090	-0.025
-355.566	-106.344	-0.061	-0.014
-354.552	659.702	-0.024	0.063
-353.537	-200.000	0.025	0.217
-352.523	-92.364	-0.367	0.104
-351.508	-90.314	0.101	0.030
-350.493	-62.196	-0.428	0.180
-349.479	271.671	0.229	-0.406
-348.464	13.450	0.162	0.126
-347.450	616.084	0.142	0.358
-346.435	-0.539	-0.098	-0.070
-345.420	-125.376	0.181	-0.028
-344.406	-37.582	0.159	0.085
-343.391	84.432	0.166	0.183
-342.377	-200.000	0.005	-0.109
-341.362	-200.000	-0.043	0.464
-340.348	-144.127	0.346	0.033
-339.333	-200.000	-0.005	-0.207
-338.318	261.460	0.058	0.101
-337.304	-23.261	0.278	-0.168
-336.289	-82.908	-0.287	0.093
-335.275	93.123	-0.076	-0.086
-334.260	-135.846	-0.012	0.001
-333.245	80.235	0.373	0.404
-332.231	-139.987	-0.162	0.017
-331.216	-200.000	0.011	-0.144
-330.202	-116.024	-0.194	-0.036
-329.187	364.803	0.077	0.157
-328.172	-54.867	0.273	0.124
-327.158	-53.278	-0.477	-0.220
-326.143	-109.738	-0.265	-0.056
-325.129	-200.000	-0.001	0.104
-324.114	-123.239	0.102	-0.016
-323.099	700.263	0.083	-0.221
-322.085	285.489	0.015	-0.026
-321.070	-79.822	-0.070	-0.024
-320.056	800.000	0.062	0.208
-319.041	-4.112	-0.025	0.017
-318.026	-45.609	0.079	-0.039
-317.012	-139.208	-0.227	-0.025
-315.997	8.951	-0.212	0.161
-314.983	-39.566	0.145	0.076
-313.968	56.672	-0.183	-0.179
-312.953	-200.000	-0.058	-0.309
-311.939	-200.000	0.090	0.408
-310.924	88.474	0.117	-0.131
-309.910	800.000	-0.066	-0.258
-308.895	800.000	-0.049	-0.147
-307.880	36.176	-0.209	-0.186
-306.866	-200.000	-0.026	-0.176
-305.851	800.000	0.112	-0.341
-304.837	208.411	0.145	0.228
-303.822	112.047	0.208	0.253
-302.807	-75.703	0.065	0.023
-301.793	-53.368	-0.285	-0.131
-300.778	-35.380	0.288	0.157
-299.764	-106.886	0.087	0.019
-298.749	609.478	-0.143	0.360
-297.735	-37.444	0.187	-0.100
-296.720	800.000	0.057	0.217
-295.705	-28.007	0.114	0.067
-294.691	-55.528	0.191	0.086
-293.676	56.430	0.178	-0.174
-292.662	140.916	-0.057	0.076
-291.647	554.199	0.093	-0.225
-290.632	284.274	0.143	0.259
-289.618	800.000	0.070	-0.261
-288.603	243.218	0.118	0.198
-287.589	800.000	0.084	-0.289
-286.574	-150.451	0.353	-0.027
-285.559	-96.854	-0.369	0.097
-284.545	29.721	0.227	0.194
-283.530	-200.000	0.006	-0.090
-282.516	-200.000	-0.036	0.273
-281.501	-200.000	-0.010	0.317
-280.486	-144.093	-0.260	0.024
-279.472	125.491	-0.089	0.112
-278.457	103.600	-0.129	0.152
-277.443	153.975	-0.073	0.100
-276.428	-200.000	-0.018	-0.141
-275.413	167.336	-0.147	-0.209
-274.399	103.703	0.039	0.046
-273.384	-10.230	0.289	0.193
-272.370	-98.995	-0.393	0.100
-271.355	-99.598	-0.152	0.038
-270.340	-200.000	-0.003	0.244
-269.326	83.928	-0.266	-0.291
-268.311	-200.000	0.009	0.092
-267.297	-86.993	-0.246	0.075
-266.282	156.393	0.201	-0.278
-265.267	-10.034	-0.382	-0.255
-264.253	12.313	0.263	0.203
-263.238	-124.682	0.258	-0.040
-262.224	480.150	0.081	-0.184
-261.209	-200.000	0.035	0.158
-260.195	-83.962	0.236	0.075
-259.180	-200.000	-0.036	0.217
-258.165	119.754	-0.140	-0.174
-257.151	-27.781	0.122	0.071
-256.136	-62.370	-0.136	0.057
-255.122	-200.000	0.029	0.347
-254.107	-200.000	-0.004	-0.063
-253.092	5.552	0.042	0.031
-252.078	181.451	-0.235	0.346
-251.063	-81.702	0.420	0.138
-250.049	800.000	0.028	0.101
-249.034	-1.316	-0.257	-0.182
-248.019	29.213	-0.236	-0.201
-247.005	103.915	0.005	-0.005
-245.990	97.262	0.273	0.315
-244.976	783.132	-0.091	-0.250
-243.961	-23.632	-0.376	0.226
-242.946	105.707	-0.073	-0.087
-241.932	22.354	0.241	-0.198
-240.917	800.000	-0.039	0.149
-239.903	-69.444	0.104	-0.040
-238.888	-200.000	0.020	-0.175
-237.873	-200.000	-0.003	0.092
-236.859	270.140	-0.062	0.110
-235.844	135.483	0.242	-0.316
-234.830	-200.000	-0.006	0.124
-233.815	-115.174	0.190	-0.036
-232.800	8.528	0.080	-0.060
-231.786	359.987	0.083	0.166
-230.771	135.600	-0.066	-0.086
-229.757	-131.747	-0.243	-0.032
-228.742	800.000	0.042	-0.183
-227.727	-200.000	0.007	-0.122
-226.713	800.000	0.069	0.198
-225.698	-200.000	0.007	0.111
-224.684	-18.357	0.168	-0.105
-223.669	47.172	0.132	0.123
-222.655	-200.000	-0.014	0.096
-221.640	-7.926	-0.283	0.191
-220.625	202.319	0.313	-0.484
-219.611	55.247	0.241	0.234
-218.596	-22.444	-0.153	0.093
-217.582	13.008	0.129	-0.100
-216.567	-72.326	-0.203	0.075
-215.552	70.303	0.205	0.212
-214.538	113.555	0.171	-0.208
-213.523	-84.711	-0.377	-0.119
-212.509	113.677	-0.067	0.081
-211.494	120.642	0.182	-0.227
-210.479	-33.889	0.146	-0.081
-209.465	-200.000	-0.008	-0.122
-208.450	777.500	-0.069	0.190
-207.436	16.788	-0.007	-0.005
-206.421	-198.118	0.247	0.001
-205.406	-178.775	0.180	0.004
-204.392	61.826	-0.304	-0.303
-203.377	-68.887	0.080	0.031
-202.363	-120.977	0.152	0.026
-201.348	-67.493	-0.032	0.013
-200.333	-4.969	0.280	0.193
-199.319	-160.918	0.176	-0.009
-198.304	147.361	-0.114	-0.153
-197.290	99.387	-0.120	0.139
-196.275	-200.000	0.009	0.149
-195.260	-100.116	-0.223	-0.055
-194.246	-152.665	0.402	-0.029
-193.231	-96.495	-0.336	-0.089
-192.217	-64.280	-0.346	0.141
-191.202	-134.984	-0.336	0.041
-190.187	-149.237	0.434	0.035
-189.173	116.687	0.269	-0.330
-188.158	-91.170	0.210	0.060
-187.144	-8.832	-0.121	-0.081
-186.129	-200.000	0.017	-0.326
-185.114	262.929	-0.197	0.341
-184.100	-200.000	-0.002	-0.040
-183.085	66.363	-0.203	0.206
-182.071	-50.544	0.269	0.127
-181.056	-112.632	0.226	0.045
-180.042	800.000	-0.063	0.243
-179.027	800.000	-0.131	-0.469
-178.012	-167.018	-0.535	-0.022
-176.998	-200.000	-0.015	0.379
-175.983	-200.000	-0.007	0.147
-174.969	48.137	-0.196	0.184
-173.954	-154.189	0.251	-0.017
-172.939	111.803	0.138	-0.167
-171.925	163.032	-0.109	0.153
-170.910	42.959	-0.228	0.208
-169.896	-62.835	0.163	-0.067
-168.881	-59.379	-0.406	-0.175
-167.866	-200.000	-0.042	0.218
-166.852	-133.890	-0.230	-0.029
-165.837	-200.000	0.013	-0.147
-164.823	800.000	0.078	-0.230
-163.808	-65.854	0.237	0.095
-162.793	-200.000	-0.059	0.450
-161.779	708.915	-0.163	-0.430
-160.764	-31.635	-0.377	0.212
-159.750	44.261	0.171	0.157
-158.735	667.986	-0.155	0.400
-157.720	800.000	0.075	0.231
-156.706	78.911	0.200	-0.214
-155.691	92.830	0.092	0.104
-154.677	800.000	0.003	0.012
-153.662	323.526	-0.104	0.199
-152.647	-200.000	0.008	-0.206
-151.633	419.690	0.125	-0.268
-150.618	-28.477	0.326	-0.188
-149.604	-200.000	-0.029	-0.137
-148.589	-200.000	0.015	0.120
-147.574	-125.904	0.252	0.038
-146.560	-39.541	-0.181	-0.095
-145.545	-164.181	-0.328	0.015
-144.531	-69.327	-0.185	-0.071
-143.516	-134.712	0.296	-0.036
-142.502	-38.244	-0.174	-0.092
-141.487	20.300	0.233	-0.188
-140.472	618.574	0.096	0.241
-139.458	303.583	-0.044	-0.082
-138.443	183.955	0.124	-0.183
-137.429	-200.000	0.015	-0.167
-136.414	-22.657	0.104	0.063
-135.399	-157.833	-0.163	0.010
-134.385	-127.690	0.253	0.036
-133.370	655.998	-0.052	-0.135
-132.356	800.000	0.044	-0.134
-131.341	-44.829	0.292	0.145
-130.326	-105.052	0.486	0.111
-129.312	761.012	-0.097	0.262
-128.297	-99.593	0.260	-0.065
-127.283	-85.993	-0.162	-0.050
-126.268	-20.013	0.177	-0.109
-125.253	-200.000	-0.003	-0.080
-124.239	-141.795	0.161	-0.016
-123.224	-200.000	0.009	-0.362
-122.210	214.716	-0.084	-0.132
