DTS Sentinel unit serial number:	SN413079Multiplexer serial number:	ORYXHardware model number:	OX4-SRSoftware version number:	ORYX F/W v4.00 Oryx Data Collector v3.7.2.0data status	okinstallation	princeton_trtdifferential loss correction	single-endedforward channel	channel 1reverse channel	N/Adate	2019/09/14time	10:22:35forward acquisition time	60.00reverse acquisition time	0.00gamma	496.2192k internal	0.2307k external	0.2307temperature offset calibration	1.0072default loss term (dB/km)	0.3790temperature slope calibration	1.0000multiplexer offset coefficient	1.0000multiplexer slope coefficient	1.0000fibre end	0.00T internal ref (°C)	34.36T ext. ref 1 (°C)	4.15T ext. ref 2 (°C)	32.87length (m)	temperature (°C)	Stokes	anti-Stokes-747.200	-73.255	0.435	0.162
-746.185	-200.000	0.039	0.280
-745.171	-53.960	-0.097	0.045
-744.156	15.491	-0.064	-0.051
-743.142	63.134	-0.299	-0.305
-742.127	-200.000	0.009	-0.043
-741.112	-74.646	-0.182	0.066
-740.098	167.209	0.184	0.265
-739.083	288.759	-0.080	0.147
-738.069	-53.836	0.110	0.051
-737.054	-118.769	-0.199	0.036
-736.039	50.171	-0.109	-0.105
-735.025	-1.547	0.057	0.041
-734.010	-91.977	-0.386	-0.111
-732.996	-200.000	-0.005	-0.227
-731.981	-133.121	-0.119	0.015
-730.966	800.000	-0.085	-0.297
-729.952	-138.356	0.102	0.011
-728.937	32.410	-0.146	-0.128
-727.923	800.000	-0.065	0.221
-726.908	-11.734	0.189	-0.126
-725.894	-107.652	-0.295	-0.066
-724.879	800.000	0.057	0.239
-723.864	88.929	-0.075	0.085
-722.850	800.000	-0.030	-0.089
-721.835	31.255	-0.086	-0.075
-720.821	-200.000	0.005	-0.099
-719.806	16.664	0.123	0.099
-718.791	-200.000	0.023	0.166
-717.777	-109.589	-0.273	0.059
-716.762	-30.198	0.252	-0.146
-715.748	-162.542	-0.328	-0.016
-714.733	-147.809	0.369	-0.031
-713.718	-200.000	0.036	-0.271
-712.704	800.000	0.014	0.042
-711.689	-32.979	-0.483	-0.272
-710.675	-200.000	0.018	0.165
-709.660	800.000	0.085	-0.250
-708.645	46.465	-0.249	-0.235
-707.631	340.591	0.168	0.333
-706.616	63.693	-0.171	0.175
-705.602	-102.289	0.156	0.038
-704.587	-8.744	-0.227	-0.155
-703.572	800.000	0.042	-0.132
-702.558	-70.791	-0.553	-0.212
-701.543	-113.514	-0.203	-0.040
-700.529	770.539	-0.090	-0.249
-699.514	-56.346	-0.133	-0.060
-698.499	-121.739	0.177	0.030
-697.485	-67.350	-0.172	-0.069
-696.470	267.512	-0.090	-0.160
-695.456	-200.000	0.064	-0.405
-694.441	235.098	0.060	-0.101
-693.426	-200.000	0.018	-0.213
-692.412	611.628	-0.103	0.260
-691.397	-39.296	-0.272	0.145
-690.383	-200.000	-0.013	0.252
-689.368	180.387	-0.254	-0.378
-688.354	158.306	-0.065	-0.091
-687.339	-91.452	-0.366	0.106
-686.324	-99.228	0.105	0.027
-685.310	800.000	-0.093	-0.310
-684.295	-131.090	-0.041	0.006
-683.281	252.649	-0.066	0.115
-682.266	-44.465	0.032	-0.016
-681.251	-200.000	0.032	0.168
-680.237	31.411	-0.245	0.214
-679.222	-200.000	0.036	0.241
-678.208	-135.277	-0.370	-0.045
-677.193	-1.474	-0.234	0.167
-676.178	2.944	-0.301	-0.222
-675.164	-151.077	0.204	-0.016
-674.149	-5.559	0.328	0.228
-673.135	-12.433	-0.130	-0.086
-672.120	88.468	0.229	0.258
-671.105	-37.164	-0.232	0.126
-670.091	614.908	0.054	0.138
-669.076	800.000	-0.050	-0.155
-668.062	-147.910	-0.132	-0.011
-667.047	432.276	0.040	-0.087
-666.032	115.567	-0.037	-0.046
-665.018	-2.190	-0.177	-0.126
-664.003	286.907	0.048	-0.087
-662.989	-92.934	-0.371	-0.105
-661.974	-7.553	-0.130	-0.089
-660.959	18.937	0.090	-0.073
-659.945	120.369	0.085	-0.107
-658.930	344.025	0.059	-0.118
-657.916	177.606	0.065	0.096
-656.901	14.328	0.380	0.301
-655.886	800.000	0.103	-0.361
-654.872	-90.649	-0.480	-0.140
-653.857	83.171	0.100	-0.110
-652.843	-200.000	-0.098	-0.501
-651.828	332.713	-0.073	-0.142
-650.814	-53.671	-0.040	-0.018
-649.799	800.000	0.040	-0.131
-648.784	-41.720	0.125	0.065
-647.770	6.367	-0.279	-0.210
-646.755	49.959	0.088	-0.084
-645.741	265.880	-0.254	-0.448
-644.726	-200.000	-0.068	-0.375
-643.711	-30.786	-0.293	-0.168
-642.697	126.279	0.240	-0.307
-641.682	-119.376	0.221	-0.039
-640.668	28.763	0.048	-0.041
-639.653	-57.864	0.138	-0.061
-638.638	-13.709	-0.148	0.097
-637.624	-9.493	-0.141	0.095
-636.609	-34.552	-0.355	-0.197
-635.595	-18.139	0.045	0.028
-634.580	400.331	-0.045	0.095
-633.565	-166.581	0.246	-0.010
-632.551	-69.357	-0.113	0.044
-631.536	-38.517	-0.245	0.131
-630.522	688.770	-0.145	-0.384
-629.507	-69.983	-0.111	0.043
-628.492	573.093	-0.086	0.213
-627.478	-73.633	-0.227	-0.084
-626.463	88.322	-0.136	-0.153
-625.449	-200.000	0.067	0.385
-624.434	-200.000	-0.007	0.081
-623.419	-120.275	0.075	0.013
-622.405	800.000	0.088	-0.261
-621.390	82.343	0.027	0.029
-620.376	260.057	0.053	0.093
-619.361	493.523	0.071	-0.165
-618.346	-76.682	-0.060	-0.021
-617.332	-200.000	-0.034	-0.190
-616.317	-67.025	0.389	-0.155
-615.303	-96.988	0.126	-0.033
-614.288	-200.000	-0.017	-0.132
-613.273	433.642	0.138	0.302
-612.259	-152.055	-0.066	-0.005
-611.244	22.455	0.136	-0.113
-610.230	11.532	-0.248	-0.192
-609.215	-31.598	-0.294	-0.167
-608.201	-200.000	0.000	-0.172
-607.186	384.399	0.167	0.349
-606.171	800.000	0.014	-0.062
-605.157	-120.375	-0.117	-0.020
-604.142	800.000	0.064	0.217
-603.128	-2.159	0.029	0.021
-602.113	46.021	0.119	-0.111
-601.098	-200.000	0.015	0.174
-600.084	800.000	-0.074	0.267
-599.069	-200.000	0.009	-0.042
-598.055	281.860	0.189	-0.342
-597.040	35.804	0.028	-0.024
-596.025	22.095	-0.122	0.101
-595.011	181.955	-0.021	0.031
-593.996	-200.000	-0.033	-0.178
-592.982	64.130	0.197	0.200
-591.967	227.379	0.086	-0.141
-590.952	462.868	-0.103	-0.232
-589.938	-132.860	-0.245	-0.032
-588.923	-56.082	0.326	-0.147
-587.909	-115.852	0.240	0.045
-586.894	800.000	-0.051	-0.188
-585.879	800.000	-0.050	0.195
-584.865	20.392	0.325	0.265
-583.850	-200.000	0.015	0.290
-582.836	800.000	-0.046	0.151
-581.821	-200.000	-0.007	0.153
-580.806	-189.161	0.147	-0.002
-579.792	-25.573	-0.114	0.068
-578.777	-168.292	0.298	0.012
-577.763	-35.960	-0.109	-0.060
-576.748	-200.000	0.011	-0.223
-575.733	28.917	0.326	-0.279
-574.719	316.154	-0.204	0.388
-573.704	-103.567	-0.356	0.085
-572.690	54.509	-0.074	0.072
-571.675	-37.342	0.042	-0.023
-570.661	-117.854	-0.177	0.032
-569.646	-53.093	0.066	0.031
-568.631	139.581	0.219	-0.291
-567.617	25.577	-0.163	-0.137
-566.602	-200.000	0.032	0.419
-565.588	125.291	-0.051	0.065
-564.573	64.689	-0.221	-0.226
-563.558	168.164	0.235	-0.338
-562.544	13.583	-0.068	-0.054
-561.529	-200.000	0.035	-0.278
-560.515	256.109	0.100	0.173
-559.500	171.481	0.019	0.027
-558.485	-88.230	0.178	-0.054
-557.471	48.436	-0.262	-0.247
-556.456	52.676	0.053	-0.051
-555.442	413.256	0.032	-0.069
-554.427	52.159	-0.323	-0.310
-553.412	160.634	0.146	0.206
-552.398	800.000	-0.087	-0.338
-551.383	-148.433	0.394	-0.033
-550.369	69.969	0.218	-0.227
-549.354	-152.013	0.283	0.021
-548.339	-200.000	-0.183	-0.000
-547.325	21.731	-0.016	0.013
-546.310	467.212	0.182	-0.412
-545.296	215.660	0.035	-0.057
-544.281	27.502	0.101	-0.085
-543.266	-180.432	0.279	0.006
-542.252	-109.496	-0.295	-0.063
-541.237	158.093	0.062	-0.086
-540.223	-200.000	-0.005	-0.261
-539.208	-200.000	-0.005	-0.450
-538.193	247.240	0.131	-0.222
-537.179	800.000	-0.091	0.295
-536.164	-97.910	-0.143	0.037
-535.150	-90.356	-0.245	-0.072
-534.135	-15.156	-0.255	-0.164
-533.121	800.000	0.066	-0.246
-532.106	313.974	-0.099	-0.187
-531.091	24.306	0.186	0.155
-530.077	134.183	0.121	-0.158
-529.062	-200.000	0.026	0.119
-528.048	71.962	-0.223	-0.234
-527.033	-138.991	-0.202	-0.022
-526.018	-26.547	-0.094	0.056
-525.004	159.760	0.268	-0.377
-523.989	800.000	0.110	-0.314
-522.975	-200.000	0.053	0.345
-521.960	800.000	-0.022	-0.086
-520.945	800.000	0.076	-0.243
-519.931	800.000	-0.076	-0.322
-518.916	-149.513	-0.254	-0.020
-517.902	-200.000	0.049	0.382
-516.887	64.335	0.075	0.076
-515.872	800.000	-0.050	-0.219
-514.858	232.277	-0.097	0.160
-513.843	-43.726	0.234	-0.119
-512.829	-200.000	-0.011	0.069
-511.814	612.870	-0.020	0.050
-510.799	348.009	0.054	-0.107
-509.785	-104.987	-0.105	0.024
-508.770	800.000	0.058	-0.227
-507.756	-65.106	-0.155	-0.063
-506.741	-61.471	0.099	-0.042
-505.726	135.315	0.112	-0.147
-504.712	164.405	0.260	0.370
-503.697	609.024	-0.060	0.150
-502.683	-20.391	-0.207	-0.128
-501.668	-46.771	0.301	-0.148
-500.653	-42.087	-0.270	0.139
-499.639	553.373	-0.062	-0.151
-498.624	45.894	-0.064	-0.060
-497.610	354.114	-0.063	0.127
-496.595	37.105	-0.125	-0.111
-495.581	247.022	0.100	0.170
-494.566	800.000	-0.125	-0.348
-493.551	94.211	0.293	-0.334
-492.537	800.000	-0.048	0.155
-491.522	444.560	0.055	0.122
-490.508	-106.008	0.474	-0.107
-489.493	-144.575	0.088	0.008
-488.478	-200.000	0.065	0.327
-487.464	166.342	-0.055	-0.078
-486.449	159.074	0.075	-0.106
-485.435	612.174	-0.107	0.269
-484.420	-25.677	-0.330	-0.196
-483.405	-127.674	0.312	-0.045
-482.391	-200.000	-0.024	-0.173
-481.376	27.468	0.214	0.181
-480.362	-27.289	0.198	0.116
-479.347	-200.000	-0.009	-0.040
-478.332	800.000	0.030	0.093
-477.318	800.000	-0.132	0.432
-476.303	559.762	-0.038	-0.094
-475.289	-47.910	-0.243	-0.118
-474.274	-200.000	-0.050	0.237
-473.259	-200.000	0.048	-0.224
-472.245	58.598	-0.106	0.104
-471.230	-200.000	-0.026	0.177
-470.216	342.761	0.088	-0.173
-469.201	-107.658	0.128	-0.028
-468.186	-36.397	-0.093	0.051
-467.172	-8.184	-0.161	-0.109
-466.157	75.795	0.072	-0.077
-465.143	-153.650	-0.090	0.006
-464.128	-200.000	-0.033	0.221
-463.113	235.795	0.053	-0.088
-462.099	-162.505	-0.214	-0.011
-461.084	-182.331	-0.343	0.006
-460.070	-113.767	0.349	-0.068
-459.055	-81.030	-0.130	0.043
-458.040	-195.180	-0.184	0.001
-457.026	316.349	0.126	-0.239
-456.011	-138.986	-0.149	-0.016
-454.997	-56.476	0.347	0.155
-453.982	-200.000	-0.028	-0.168
-452.968	800.000	-0.032	-0.107
-451.953	-166.804	0.381	0.016
-450.938	-194.171	0.305	-0.003
-449.924	-200.000	0.018	-0.154
-448.909	-22.725	0.070	0.043
-447.895	64.169	0.165	-0.167
-446.880	119.513	0.042	0.052
-445.865	221.419	-0.143	0.231
-444.851	11.491	0.225	0.173
-443.836	800.000	-0.065	0.231
-442.822	-200.000	-0.009	-0.074
-441.807	-8.742	-0.141	0.095
-440.792	-200.000	0.084	0.452
-439.778	-17.878	-0.205	-0.129
-438.763	-80.640	-0.231	0.077
-437.749	-200.000	0.021	0.261
-436.734	513.220	0.181	0.424
-435.719	-36.689	-0.255	0.138
-434.705	103.549	-0.115	0.136
-433.690	524.816	-0.200	-0.473
-432.676	-200.000	0.005	0.233
-431.661	-200.000	-0.029	0.175
-430.646	110.034	-0.241	-0.291
-429.632	-200.000	0.023	-0.465
-428.617	-166.115	0.038	-0.002
-427.603	-79.956	-0.138	0.047
-426.588	800.000	-0.036	-0.143
-425.573	-200.000	-0.010	-0.186
-424.559	-35.848	0.037	0.020
-423.544	800.000	0.064	-0.187
-422.530	-35.710	-0.130	-0.071
-421.515	0.228	0.086	-0.062
-420.500	-77.943	-0.299	0.103
-419.486	210.241	-0.116	0.183
-418.471	177.477	-0.033	-0.048
-417.457	320.780	0.063	-0.120
-416.442	146.241	-0.215	0.290
-415.428	50.411	0.179	0.170
-414.413	85.598	0.119	-0.131
-413.398	426.384	-0.087	-0.187
-412.384	224.454	-0.251	0.408
-411.369	-20.010	-0.076	0.047
-410.355	302.900	-0.218	-0.405
-409.340	-150.667	0.245	0.019
-408.325	800.000	-0.072	-0.214
-407.311	-65.758	-0.179	-0.072
-406.296	429.039	-0.076	0.164
-405.282	6.149	-0.418	0.311
-404.267	-56.585	0.210	-0.093
-403.252	-44.070	0.151	0.076
-402.238	162.935	-0.101	0.143
-401.223	-29.370	-0.030	-0.017
-400.209	-30.366	0.069	-0.039
-399.194	-53.213	-0.130	0.060
-398.179	-140.274	0.201	0.021
-397.165	-200.000	0.048	0.261
-396.150	-26.037	-0.148	0.087
-395.136	-115.222	-0.102	-0.019
-394.121	293.831	0.060	-0.110
-393.106	-139.487	0.240	0.026
-392.092	-200.000	-0.014	-0.090
-391.077	-8.009	0.408	0.276
-390.063	-70.579	-0.295	0.112
-389.048	-200.000	-0.012	0.290
-388.033	-170.226	-0.255	-0.009
-387.019	-200.000	-0.013	0.336
-386.004	105.824	0.292	0.346
-384.990	-124.765	0.032	-0.005
-383.975	280.669	-0.103	-0.184
-382.960	800.000	-0.053	-0.191
-381.946	226.426	0.151	-0.246
-380.931	-99.731	0.426	0.107
-379.917	-200.000	0.033	-0.323
-378.902	-121.244	-0.382	-0.064
-377.888	-32.413	-0.458	-0.256
-376.873	293.392	-0.140	0.256
-375.858	-200.000	-0.006	-0.073
-374.844	185.389	0.185	0.275
-373.829	-31.208	0.183	-0.103
-372.815	-81.130	-0.154	-0.051
-371.800	800.000	-0.050	0.177
-370.785	575.606	-0.032	0.078
-369.771	-126.018	0.220	0.033
-368.756	800.000	0.026	-0.101
-367.742	-81.431	-0.162	0.053
-366.727	-74.985	0.128	0.046
-365.712	-96.980	0.042	-0.011
-364.698	55.558	-0.107	-0.103
-363.683	-200.000	-0.085	-0.390
-362.669	90.874	-0.056	-0.063
-361.654	-200.000	0.001	-0.063
-360.639	-200.000	-0.024	0.170
-359.625	30.845	0.016	0.014
-358.610	-74.508	0.262	-0.095
-357.596	-71.754	-0.146	-0.054
-356.581	800.000	0.036	0.140
-355.566	800.000	-0.039	-0.129
-354.552	143.871	-0.226	-0.302
-353.537	140.099	0.192	0.253
-352.523	20.423	-0.186	0.150
-351.508	-101.339	-0.130	0.032
-350.493	533.903	-0.113	0.267
-349.479	123.327	-0.238	-0.299
-348.464	-170.600	0.421	0.015
-347.450	-41.912	0.525	-0.270
-346.435	-101.871	0.146	0.035
-345.420	-60.231	0.209	-0.089
-344.406	223.450	0.111	-0.179
-343.391	-133.594	-0.301	0.038
-342.377	-14.556	0.329	-0.212
-341.362	111.669	0.184	0.222
-340.348	800.000	-0.076	-0.296
-339.333	509.591	-0.112	0.261
-338.318	50.721	-0.154	-0.146
-337.304	27.762	0.088	-0.074
-336.289	-151.994	-0.333	-0.024
-335.275	-146.293	-0.197	0.017
-334.260	-200.000	0.014	-0.261
-333.245	-118.095	-0.252	-0.045
-332.231	-200.000	0.023	-0.262
-331.216	-74.051	-0.197	-0.071
-330.202	382.320	-0.070	-0.144
-329.187	-128.910	-0.119	-0.017
-328.172	-107.163	-0.347	-0.077
-327.158	104.674	0.229	0.270
-326.143	-111.697	0.194	0.039
-325.129	-33.732	0.193	-0.107
-324.114	800.000	0.031	-0.121
-323.099	800.000	-0.052	0.153
-322.085	163.440	0.216	0.304
-321.070	-200.000	-0.066	0.339
-320.056	407.916	0.071	-0.150
-319.041	145.997	0.118	-0.158
-318.026	518.523	-0.066	0.155
-317.012	-33.946	-0.282	-0.155
-315.997	-33.305	0.262	-0.145
-314.983	-200.000	0.052	0.381
-313.968	479.499	0.145	0.329
-312.953	72.474	-0.107	0.112
-311.939	-10.537	-0.165	-0.109
-310.924	-130.279	-0.233	0.032
-309.910	-135.236	-0.402	-0.048
-308.895	-102.909	0.293	-0.069
-307.880	-200.000	0.067	-0.300
-306.866	167.467	0.236	-0.335
-305.851	413.766	0.096	-0.204
-304.837	-200.000	0.046	0.302
-303.822	-90.947	0.092	-0.026
-302.807	-34.436	0.029	0.016
-301.793	-200.000	-0.006	0.120
-300.778	-118.345	-0.247	0.044
-299.764	-120.616	0.023	0.004
-298.749	800.000	0.117	0.359
-297.735	104.036	0.200	-0.234
-296.720	-99.120	-0.117	-0.030
-295.705	232.941	0.162	0.266
-294.691	-129.868	-0.056	-0.008
-293.676	71.223	0.212	0.219
-292.662	-191.420	0.237	0.002
-291.647	1.033	0.227	-0.163
-290.632	-45.811	-0.030	-0.015
-289.618	742.923	-0.031	-0.083
-288.603	72.907	0.198	0.206
-287.589	34.871	-0.130	0.114
-286.574	-200.000	0.004	0.080
-285.559	-200.000	0.004	0.184
-284.545	105.201	0.167	0.196
-283.530	-102.072	-0.121	0.029
-282.516	215.808	-0.087	-0.138
-281.501	19.683	0.256	0.206
-280.486	145.280	-0.086	0.115
-279.472	-89.299	0.346	0.102
-278.457	668.401	0.173	0.447
-277.443	-135.865	-0.184	-0.022
-276.428	-62.460	-0.175	-0.073
-275.413	188.242	-0.101	0.150
-274.399	-62.867	0.196	-0.081
-273.384	88.165	-0.138	0.153
-272.370	-168.569	-0.027	-0.001
-271.355	-42.597	-0.037	-0.019
-270.340	-146.001	-0.106	-0.009
-269.326	-121.146	-0.251	-0.042
-268.311	169.195	-0.103	0.147
-267.297	30.693	0.171	-0.146
-266.282	-200.000	-0.038	-0.275
-265.267	132.766	0.059	-0.076
-264.253	-33.151	-0.016	0.009
-263.238	800.000	0.082	-0.278
-262.224	303.316	-0.018	0.034
-261.209	563.955	-0.049	-0.119
-260.195	767.051	-0.097	-0.263
-259.180	-200.000	0.040	0.199
-258.165	800.000	-0.090	0.294
-257.151	-0.487	-0.134	0.095
-256.136	495.254	-0.071	0.162
-255.122	-181.887	0.169	-0.003
-254.107	370.496	-0.075	-0.152
-253.092	69.184	0.217	0.223
-252.078	70.508	-0.111	-0.114
-251.063	800.000	-0.030	-0.096
-250.049	43.200	0.028	-0.025
-249.034	-77.923	-0.384	-0.132
-248.019	800.000	0.032	0.117
-247.005	-200.000	-0.051	0.258
-245.990	800.000	-0.040	0.124
-244.976	592.162	-0.067	0.164
-243.961	-66.896	-0.042	-0.016
-242.946	85.987	-0.150	0.165
-241.932	800.000	0.058	0.239
-240.917	-25.458	-0.141	-0.083
-239.903	-200.000	0.005	0.167
-238.888	-136.156	0.401	0.047
-237.873	-200.000	-0.009	0.127
-236.859	8.796	0.101	0.076
-235.844	149.439	0.185	0.249
-234.830	-200.000	-0.059	0.289
-233.815	-90.748	-0.109	-0.031
-232.800	-91.962	0.258	0.073
-231.786	188.705	0.040	-0.060
-230.771	22.141	-0.231	0.188
-229.757	-200.000	-0.062	-0.356
-228.742	193.699	0.077	-0.117
-227.727	-13.095	-0.268	0.174
-226.713	-34.256	-0.066	0.036
-225.698	517.749	0.044	-0.102
-224.684	230.223	-0.035	0.057
-223.669	-200.000	0.001	-0.050
-222.655	-109.481	-0.370	-0.078
-221.640	-70.809	-0.140	-0.053
-220.625	16.230	-0.030	0.024
-219.611	-200.000	0.007	-0.156
-218.596	-6.096	0.227	0.155
-217.582	-198.445	0.159	0.001
-216.567	-122.562	-0.185	0.030
-215.552	-142.417	0.149	0.015
-214.538	-68.041	-0.122	-0.047
-213.523	103.223	-0.157	0.184
-212.509	-200.000	0.015	-0.109
-211.494	800.000	0.070	0.215
-210.479	-123.618	-0.173	0.027
-209.465	800.000	-0.027	-0.114
-208.450	-200.000	0.047	0.311
-207.436	-22.209	-0.108	0.065
-206.421	-6.891	-0.094	0.064
-205.406	109.855	0.078	0.094
-204.392	151.017	0.277	0.375
-203.377	557.300	-0.133	0.318
-202.363	-65.267	-0.232	0.093
-201.348	-33.735	0.324	-0.178
-200.333	-200.000	-0.034	-0.290
-199.319	-144.179	-0.112	0.010
-198.304	-33.145	-0.258	0.142
-197.290	-22.921	0.229	0.138
-196.275	-50.343	0.259	-0.122
-195.260	56.945	0.175	-0.170
-194.246	-200.000	-0.014	-0.138
-193.231	207.153	-0.049	-0.077
-192.217	-200.000	0.005	0.395
-191.202	800.000	-0.052	0.203
-190.187	-81.643	0.127	-0.041
-189.173	387.508	0.052	-0.106
-188.158	92.685	0.025	0.028
-187.144	377.279	-0.160	0.325
-186.129	-43.237	0.259	-0.130
-185.114	-165.606	0.202	-0.009
-184.100	-109.562	-0.282	0.059
-183.085	-95.949	0.211	0.056
-182.071	-61.471	0.099	-0.042
-181.056	800.000	0.084	-0.261
-180.042	-0.545	-0.159	0.112
-179.027	-130.427	0.151	-0.020
-178.012	-200.000	0.035	0.517
-176.998	677.148	-0.131	0.339
-175.983	-22.057	0.071	0.043
-174.969	68.857	0.060	0.062
-173.954	800.000	-0.080	0.260
-172.939	-10.615	0.131	0.086
-171.925	-130.557	-0.016	0.002
-170.910	-122.526	-0.097	0.016
-169.896	76.446	0.105	-0.110
-168.881	-200.000	0.001	-0.085
-167.866	60.416	0.253	-0.249
-166.852	800.000	0.037	0.130
-165.837	102.288	-0.087	-0.101
-164.823	-200.000	-0.004	-0.374
-163.808	-131.218	-0.230	0.030
-162.793	50.110	0.158	-0.148
-161.779	-163.574	-0.106	-0.005
-160.764	570.545	-0.154	0.372
-159.750	55.263	-0.193	0.186
-158.735	81.037	0.318	0.341
-157.720	-56.932	0.098	-0.043
-156.706	-200.000	0.062	0.287
-155.691	-200.000	0.019	0.160
-154.677	-200.000	-0.003	-0.175
-153.662	88.026	-0.030	-0.033
-152.647	172.776	0.186	-0.266
-151.633	-200.000	-0.006	0.111
-150.618	-66.278	-0.416	0.165
-149.604	-41.715	-0.331	0.169
-148.589	-107.209	-0.235	-0.052
-147.574	505.142	0.050	0.114
-146.560	-200.000	0.031	0.256
-145.545	-44.160	0.052	0.026
-144.531	-34.286	-0.104	-0.057
-143.516	-142.718	0.304	0.029
-142.502	-85.412	0.186	0.057
-141.487	14.670	0.210	-0.163
-140.472	-200.000	0.073	-0.343
-139.458	800.000	-0.180	-0.527
-138.443	293.581	-0.071	0.129
-137.429	115.483	-0.133	-0.162
-136.414	-73.544	-0.126	-0.046
-135.399	-172.415	-0.337	-0.011
-134.385	98.275	-0.080	0.092
-133.370	69.370	-0.194	0.198
-132.356	13.882	-0.145	-0.112
-131.341	117.669	-0.128	-0.157
-130.326	-104.406	0.257	0.059
-129.312	-200.000	-0.026	-0.130
-128.297	71.613	-0.169	-0.174
-127.283	-132.983	0.293	-0.037
-126.268	417.945	-0.047	0.099
-125.253	-200.000	-0.020	-0.127
-124.239	229.518	0.052	0.084
-123.224	542.214	0.048	-0.114
