DTS Sentinel unit serial number:	SN413079Multiplexer serial number:	ORYXHardware model number:	OX4-SRSoftware version number:	ORYX F/W v4.00 Oryx Data Collector v3.7.2.0data status	okinstallation	princeton_trtdifferential loss correction	single-endedforward channel	channel 1reverse channel	N/Adate	2019/09/11time	01:00:12forward acquisition time	60.00reverse acquisition time	0.00gamma	496.2192k internal	0.2331k external	0.2331temperature offset calibration	0.9932default loss term (dB/km)	0.3790temperature slope calibration	1.0000multiplexer offset coefficient	1.0000multiplexer slope coefficient	1.0000fibre end	0.00T internal ref (°C)	29.16T ext. ref 1 (°C)	-0.31T ext. ref 2 (°C)	22.91length (m)	temperature (°C)	Stokes	anti-Stokes-747.200	116.086	-0.097	-0.119
-746.185	800.000	-0.016	0.063
-745.171	-130.037	0.203	-0.028
-744.156	282.550	0.127	-0.229
-743.142	48.350	-0.198	0.186
-742.127	-22.995	0.171	0.104
-741.112	-96.772	-0.134	-0.035
-740.098	351.897	-0.046	-0.092
-739.083	-34.531	0.237	-0.131
-738.069	-49.635	-0.140	0.067
-737.054	-93.291	0.427	-0.119
-736.039	78.069	0.029	-0.032
-735.025	-200.000	0.009	0.095
-734.010	-200.000	0.005	-0.392
-732.996	-107.676	-0.246	0.054
-731.981	-93.612	0.208	-0.058
-730.966	283.866	-0.108	0.195
-729.952	545.108	0.113	0.272
-728.937	407.993	0.134	-0.285
-727.923	87.429	-0.236	0.263
-726.908	-30.113	0.097	-0.056
-725.894	800.000	-0.032	-0.126
-724.879	99.950	-0.138	-0.161
-723.864	-200.000	-0.025	0.185
-722.850	643.503	-0.144	-0.370
-721.835	97.827	-0.129	0.149
-720.821	-163.359	-0.270	0.013
-719.806	-200.000	-0.045	-0.206
-718.791	176.916	0.136	-0.198
-717.777	56.923	0.129	0.126
-716.762	415.444	0.085	0.182
-715.748	118.021	-0.075	0.093
-714.733	69.028	-0.192	-0.198
-713.718	9.565	-0.248	-0.189
-712.704	800.000	-0.067	0.201
-711.689	3.361	-0.101	-0.074
-710.675	-200.000	0.045	-0.329
-709.660	49.972	-0.107	-0.101
-708.645	-68.334	0.168	-0.066
-707.631	-56.804	0.094	-0.042
-706.616	551.849	0.086	-0.207
-705.602	195.281	-0.123	-0.187
-704.587	36.296	-0.063	-0.056
-703.572	52.282	-0.051	-0.049
-702.558	681.974	0.104	-0.271
-701.543	-75.598	0.181	0.065
-700.529	101.387	-0.266	-0.311
-699.514	-54.795	0.240	-0.109
-698.499	176.159	0.116	-0.169
-697.485	412.004	-0.034	0.073
-696.470	-83.029	0.342	-0.111
-695.456	-73.001	0.185	-0.068
-694.441	107.292	0.178	-0.212
-693.426	-17.895	-0.258	-0.163
-692.412	-62.869	-0.517	-0.215
-691.397	85.712	-0.144	-0.159
-690.383	-200.000	-0.049	-0.313
-689.368	374.479	-0.184	0.376
-688.354	160.637	0.047	0.065
-687.339	-58.856	0.316	-0.137
-686.324	600.113	-0.123	-0.305
-685.310	183.462	-0.279	-0.414
-684.295	197.328	-0.158	0.242
-683.281	-6.018	-0.105	-0.072
-682.266	232.742	0.238	-0.392
-681.251	148.796	0.142	0.193
-680.237	6.861	0.039	-0.029
-679.222	-91.225	0.339	-0.097
-678.208	194.525	-0.127	-0.194
-677.193	800.000	-0.066	-0.209
-676.178	295.080	-0.029	0.052
-675.164	-200.000	-0.022	-0.258
-674.149	418.837	-0.130	-0.279
-673.135	-24.561	-0.291	-0.174
-672.120	-57.041	-0.336	-0.149
-671.105	-29.807	-0.162	-0.093
-670.091	-52.609	0.198	0.092
-669.076	79.851	0.134	-0.145
-668.062	-73.874	0.315	-0.115
-667.047	31.014	-0.097	0.084
-666.032	-200.000	-0.018	0.212
-665.018	-68.613	0.241	-0.094
-664.003	756.673	0.063	-0.170
-662.989	-200.000	0.015	0.156
-661.974	-142.491	0.059	-0.006
-660.959	75.609	0.151	-0.160
-659.945	-27.793	0.280	0.163
-658.930	110.011	0.060	-0.072
-657.916	-146.460	-0.161	0.014
-656.901	800.000	0.025	0.071
-655.886	88.335	0.128	-0.143
-654.872	-182.315	0.266	0.005
-653.857	800.000	0.019	-0.077
-652.843	-200.000	0.077	-0.398
-651.828	4.152	-0.105	-0.077
-650.814	-49.121	0.388	-0.186
-649.799	139.997	0.139	0.184
-648.784	-200.000	-0.074	-0.381
-647.770	-11.682	-0.140	0.092
-646.755	-200.000	-0.008	-0.254
-645.741	95.902	-0.263	-0.301
-644.726	203.627	-0.118	-0.183
-643.711	-114.315	0.066	-0.013
-642.697	88.086	-0.078	0.086
-641.682	79.751	0.154	-0.166
-640.668	542.103	0.015	-0.036
-639.653	102.623	-0.147	-0.172
-638.638	339.231	0.106	-0.207
-637.624	800.000	0.085	-0.262
-636.609	-200.000	0.000	0.156
-635.595	378.063	0.116	-0.238
-634.580	33.972	0.078	-0.068
-633.565	220.976	-0.137	0.221
-632.551	-196.266	-0.288	0.002
-631.536	-23.054	-0.235	0.142
-630.522	-200.000	-0.008	-0.431
-629.507	349.764	0.160	-0.316
-628.492	83.258	0.262	0.286
-627.478	125.220	-0.140	-0.177
-626.463	20.616	0.080	-0.065
-625.449	-113.533	-0.161	0.031
-624.434	-90.565	0.380	0.110
-623.419	-54.636	-0.239	-0.108
-622.405	800.000	-0.027	-0.096
-621.390	-103.855	-0.137	0.032
-620.376	-173.594	-0.468	-0.014
-619.361	388.285	0.077	-0.160
-618.346	-200.000	0.003	-0.068
-617.332	108.293	-0.207	0.247
-616.317	100.357	0.060	-0.070
-615.303	-18.834	-0.149	0.093
-614.288	-120.798	0.235	0.040
-613.273	-110.733	0.146	-0.030
-612.259	20.193	-0.195	0.158
-611.244	-186.521	0.155	-0.002
-610.230	6.930	0.035	-0.026
-609.215	-62.770	0.089	0.037
-608.201	576.600	0.086	0.211
-607.186	57.211	-0.123	-0.120
-606.171	164.591	-0.079	0.111
-605.157	178.658	0.237	-0.346
-604.142	-100.857	0.178	0.044
-603.128	-19.621	-0.055	0.034
-602.113	-62.601	-0.138	0.057
-601.098	-200.000	-0.009	0.416
-600.084	-31.232	-0.229	0.129
-599.069	85.634	-0.132	-0.145
-598.055	100.536	-0.108	-0.125
-597.040	511.095	-0.065	-0.151
-596.025	655.136	0.124	0.317
-595.011	-150.350	0.069	-0.005
-593.996	-95.346	0.032	-0.009
-592.982	-27.238	-0.291	0.169
-591.967	-123.077	0.256	0.041
-590.952	136.059	-0.156	0.203
-589.938	-200.000	-0.085	-0.375
-588.923	-58.213	-0.116	-0.050
-587.909	-200.000	0.000	0.287
-586.894	-200.000	0.024	0.333
-585.879	800.000	-0.103	0.289
-584.865	-123.100	-0.275	0.044
-583.850	-54.686	-0.184	0.083
-582.836	1.647	0.099	0.071
-581.821	410.593	-0.148	-0.313
-580.806	73.489	0.191	-0.200
-579.792	73.311	-0.301	0.315
-578.777	585.685	-0.041	0.102
-577.763	54.298	0.109	-0.105
-576.748	-51.854	-0.257	-0.120
-575.733	-46.977	0.145	-0.071
-574.719	-129.358	0.032	0.004
-573.704	36.668	0.201	-0.177
-572.690	-112.351	-0.073	0.015
-571.675	-28.401	0.205	-0.118
-570.661	48.249	0.199	-0.186
-569.646	-3.920	-0.264	0.183
-568.631	-88.913	-0.340	0.101
-567.617	-132.183	-0.339	-0.044
-566.602	-200.000	-0.064	-0.445
-565.588	-120.967	0.217	-0.036
-564.573	-200.000	0.039	-0.354
-563.558	-200.000	-0.066	-0.345
-562.544	-28.260	-0.255	0.147
-561.529	800.000	-0.076	0.301
-560.515	-56.757	-0.106	0.047
-559.500	800.000	0.015	-0.063
-558.485	473.888	0.142	0.320
-557.471	146.524	-0.132	0.177
-556.456	-141.132	0.169	-0.017
-555.442	38.820	-0.140	0.124
-554.427	-200.000	-0.000	-0.092
-553.412	800.000	-0.027	-0.097
-552.398	97.990	-0.109	0.125
-551.383	-111.453	-0.159	-0.032
-550.369	-200.000	-0.039	0.287
-549.354	800.000	0.043	-0.128
-548.339	-12.995	0.418	-0.271
-547.325	490.360	0.091	-0.208
-546.310	-200.000	-0.056	-0.258
-545.296	-200.000	0.006	0.207
-544.281	800.000	-0.112	0.323
-543.266	240.792	-0.161	-0.268
-542.252	-149.213	-0.130	0.010
-541.237	800.000	-0.110	-0.344
-540.223	800.000	0.073	-0.215
-539.208	-83.988	0.360	0.114
-538.193	-83.273	0.300	0.096
-537.179	-200.000	-0.008	0.296
-536.164	225.654	-0.081	-0.131
-535.150	-75.710	-0.275	0.097
-534.135	-132.040	-0.184	0.024
-533.121	-200.000	0.015	0.125
-532.106	-96.491	-0.228	0.060
-531.091	800.000	-0.035	-0.131
-530.077	-39.860	-0.277	0.144
-529.062	-120.391	-0.163	-0.028
-528.048	-16.724	0.206	-0.130
-527.033	800.000	-0.037	-0.119
-526.018	-90.813	0.311	0.089
-525.004	-25.262	0.411	0.243
-523.989	-200.000	-0.002	-0.154
-522.975	82.050	0.085	0.092
-521.960	31.344	-0.233	-0.199
-520.945	800.000	0.020	-0.081
-519.931	-200.000	0.025	0.130
-518.916	-126.065	-0.167	-0.025
-517.902	395.784	-0.146	-0.305
-516.887	174.930	-0.036	-0.053
-515.872	-12.342	-0.149	0.097
-514.858	-9.647	-0.251	-0.167
-513.843	-119.007	0.107	0.019
-512.829	278.073	-0.148	0.263
-511.814	800.000	-0.032	-0.105
-510.799	97.157	-0.103	0.117
-509.785	209.540	0.250	0.391
-508.770	-78.689	-0.050	0.017
-507.756	279.875	-0.094	-0.167
-506.741	-90.524	0.239	0.069
-505.726	59.118	0.093	-0.091
-504.712	-16.788	0.263	0.166
-503.697	648.265	-0.159	-0.405
-502.683	676.892	-0.130	0.338
-501.668	-99.612	0.232	0.058
-500.653	215.379	-0.105	-0.166
-499.639	-200.000	-0.226	0.001
-498.624	-200.000	-0.022	0.124
-497.610	-37.467	-0.326	0.173
-496.595	800.000	-0.024	-0.073
-495.581	-188.457	0.058	-0.001
-494.566	-111.541	-0.184	-0.037
-493.551	284.883	0.042	0.076
-492.537	-94.179	0.369	0.101
-491.522	-91.353	0.247	0.070
-490.508	-125.239	0.366	-0.056
-489.493	60.285	-0.221	-0.218
-488.478	-94.906	0.299	-0.081
-487.464	229.879	-0.088	0.143
-486.449	-200.000	0.030	-0.158
-485.435	52.937	0.160	0.152
-484.420	-23.872	0.130	0.078
-483.405	59.438	0.102	0.100
-482.391	522.870	-0.080	-0.188
-481.376	800.000	0.028	-0.083
-480.362	-83.508	0.187	0.060
-479.347	-166.562	0.082	-0.003
-478.332	-200.000	0.060	0.474
-477.318	-28.069	-0.125	0.072
-476.303	32.075	-0.113	0.097
-475.289	80.199	0.099	0.106
-474.274	-106.771	-0.416	0.092
-473.259	249.354	-0.207	-0.349
-472.245	-146.164	-0.204	0.018
-471.230	-78.744	0.204	0.069
-470.216	211.682	0.221	0.347
-469.201	-200.000	-0.029	0.141
-468.186	-200.000	0.075	0.425
-467.172	101.064	-0.264	-0.306
-466.157	90.859	-0.012	-0.014
-465.143	3.013	0.113	-0.082
-464.128	28.764	-0.139	0.117
-463.113	-200.000	-0.014	0.153
-462.099	187.397	0.231	0.343
-461.084	322.897	-0.251	-0.476
-460.070	134.056	0.093	-0.119
-459.055	635.047	-0.196	0.496
-458.040	-37.362	-0.193	0.103
-457.026	-174.627	0.137	0.004
-456.011	120.227	0.064	0.079
-454.997	192.874	0.061	-0.091
-453.982	-161.192	0.211	-0.011
-452.968	4.640	0.139	0.101
-451.953	168.297	-0.253	-0.358
-450.938	-60.386	-0.281	-0.119
-449.924	-24.450	-0.300	0.178
-448.909	-70.567	0.084	-0.032
-447.895	-104.469	0.278	-0.064
-446.880	-140.124	0.135	-0.014
-445.865	-200.000	0.035	0.382
-444.851	109.138	-0.111	0.132
-443.836	-200.000	0.215	-0.001
-442.822	10.363	-0.108	0.082
-441.807	43.537	-0.029	0.026
-440.792	-154.057	0.321	0.022
-439.778	800.000	0.020	0.078
-438.763	76.211	-0.151	-0.159
-437.749	113.329	0.196	0.236
-436.734	107.085	-0.226	-0.268
-435.719	-125.005	0.188	-0.029
-434.705	148.583	-0.048	-0.065
-433.690	-200.000	-0.039	0.309
-432.676	-60.095	-0.183	-0.077
-431.661	-31.633	0.196	0.109
-430.646	225.767	0.051	-0.081
-429.632	-32.615	0.055	0.030
-428.617	15.178	-0.051	0.039
-427.603	-49.754	0.175	-0.082
-426.588	-57.359	0.077	-0.034
-425.573	-200.000	-0.018	0.131
-424.559	-70.307	-0.072	-0.027
-423.544	270.940	0.112	-0.195
-422.530	-171.398	-0.183	-0.006
-421.515	24.102	0.303	0.248
-420.500	-200.000	0.054	0.242
-419.486	800.000	0.072	-0.220
-418.471	365.354	-0.036	-0.072
-417.457	-52.285	0.181	-0.084
-416.442	-136.441	-0.185	-0.021
-415.428	-181.294	0.056	0.001
-414.413	137.918	-0.090	0.118
-413.398	-84.871	-0.033	-0.010
-412.384	202.909	-0.183	-0.281
-411.369	-200.000	-0.000	0.087
-410.355	800.000	0.065	-0.200
-409.340	-116.928	0.045	-0.008
-408.325	-200.000	-0.012	-0.061
-407.311	-200.000	0.048	0.276
-406.296	695.755	-0.168	0.438
-405.282	317.854	-0.127	-0.238
-404.267	-200.000	0.013	0.135
-403.252	-200.000	-0.022	-0.137
-402.238	-133.345	0.154	-0.019
-401.223	-1.453	-0.099	0.069
-400.209	126.841	-0.159	-0.200
-399.194	-102.483	0.053	-0.013
-398.179	-200.000	-0.071	0.417
-397.165	314.113	0.040	-0.075
-396.150	26.085	0.147	0.122
-395.136	-4.416	0.161	0.111
-394.121	-72.498	0.422	-0.155
-393.106	-89.835	-0.247	0.072
-392.092	-26.533	0.206	0.120
-391.077	5.491	-0.282	-0.207
-390.063	182.409	0.131	0.192
-389.048	800.000	0.124	0.457
-388.033	-45.479	0.239	0.117
-387.019	-200.000	-0.000	-0.048
-386.004	-200.000	-0.046	0.225
-384.990	-69.692	-0.275	0.104
-383.975	20.559	0.210	-0.169
-382.960	181.906	-0.099	0.144
-381.946	-200.000	0.020	0.299
-380.931	-109.086	0.372	0.078
-379.917	26.238	-0.030	0.025
-378.902	433.646	-0.110	-0.236
-377.888	40.251	0.113	-0.101
-376.873	238.846	0.072	-0.119
-375.858	114.692	0.095	-0.115
-374.844	-63.480	0.061	0.025
-373.829	-39.219	-0.299	-0.156
-372.815	283.642	0.144	-0.256
-371.800	-20.561	0.246	0.150
-370.785	800.000	0.023	-0.069
-369.771	735.756	-0.057	0.150
-368.756	-200.000	0.040	-0.342
-367.742	-200.000	-0.039	-0.196
-366.727	121.223	-0.108	-0.133
-365.712	-200.000	-0.023	-0.168
-364.698	513.251	-0.044	-0.101
-363.683	800.000	-0.052	-0.205
-362.669	-82.583	0.223	0.072
-361.654	800.000	0.080	-0.292
-360.639	290.436	0.106	-0.191
-359.625	-85.796	-0.262	0.081
-358.610	-94.854	0.069	0.018
-357.596	-96.669	0.269	-0.070
-356.581	286.569	0.023	-0.041
-355.566	86.887	0.158	0.173
-354.552	-107.243	-0.128	-0.028
-353.537	-87.548	0.218	0.065
-352.523	800.000	0.073	0.287
-351.508	-200.000	-0.086	0.503
-350.493	-95.536	-0.224	-0.059
-349.479	-51.662	-0.044	-0.020
-348.464	-200.000	-0.022	0.339
-347.450	-200.000	0.011	-0.298
-346.435	-200.000	-0.019	-0.110
-345.420	50.422	0.037	-0.035
-344.406	190.580	-0.143	-0.213
-343.391	-103.354	-0.101	0.024
-342.377	-200.000	0.015	-0.120
-341.362	-200.000	0.010	-0.140
-340.348	147.023	-0.213	0.284
-339.333	800.000	-0.100	-0.416
-338.318	-21.617	-0.062	0.037
-337.304	370.256	0.167	0.335
-336.289	321.732	-0.043	-0.080
-335.275	-150.899	0.567	0.042
-334.260	-200.000	0.001	0.037
-333.245	541.221	0.083	0.196
-332.231	-82.435	0.169	0.054
-331.216	-200.000	0.043	0.437
-330.202	14.284	0.066	-0.051
-329.187	117.921	0.163	0.199
-328.172	64.058	0.127	-0.127
-327.158	-200.000	-0.011	0.151
-326.143	-4.925	0.116	0.079
-325.129	-180.967	0.306	0.006
-324.114	-200.000	-0.028	0.241
-323.099	-60.088	-0.226	-0.096
-322.085	-4.925	0.080	-0.054
-321.070	-142.073	-0.293	0.029
-320.056	76.685	-0.169	-0.177
-319.041	-124.397	0.127	-0.020
-318.026	409.122	-0.085	-0.179
-317.012	461.926	0.118	0.261
-315.997	800.000	-0.081	0.242
-314.983	13.847	0.180	-0.139
-313.968	-200.000	0.001	0.190
-312.953	181.533	-0.166	-0.242
-311.939	109.882	-0.116	-0.137
-310.924	-200.000	0.034	-0.194
-309.910	800.000	-0.034	0.129
-308.895	-68.816	0.180	-0.069
-307.880	373.154	0.067	0.134
-306.866	-200.000	-0.001	0.251
-305.851	31.035	0.224	-0.190
-304.837	-45.626	-0.187	-0.091
-303.822	27.559	0.219	-0.182
-302.807	-200.000	-0.034	0.168
-301.793	-156.404	0.412	-0.025
-300.778	22.981	-0.446	0.362
-299.764	-102.453	0.159	-0.038
-298.749	-95.363	0.152	-0.040
-297.735	-119.474	-0.078	0.013
-296.720	420.631	-0.059	0.126
-295.705	-200.000	-0.003	0.152
-294.691	-69.776	0.377	0.142
-293.676	800.000	0.130	-0.371
-292.662	-65.446	0.121	-0.048
-291.647	-117.354	-0.253	0.045
-290.632	-70.281	0.230	0.086
-289.618	9.830	0.040	-0.030
-288.603	-200.000	-0.051	-0.260
-287.589	-200.000	-0.064	-0.376
-286.574	27.508	0.051	0.042
-285.559	374.919	-0.049	0.100
-284.545	-88.339	0.199	0.059
-283.530	-200.000	-0.071	0.461
-282.516	-200.000	-0.023	0.132
-281.501	118.949	0.020	-0.024
-280.486	-56.778	-0.253	0.111
-279.472	800.000	0.099	0.331
-278.457	800.000	0.131	0.490
-277.443	-77.310	-0.145	-0.050
-276.428	800.000	-0.060	-0.239
-275.413	-51.347	0.129	-0.060
-274.399	716.899	-0.043	-0.113
-273.384	666.707	-0.033	-0.085
-272.370	-36.899	-0.139	0.074
-271.355	-11.213	-0.264	0.172
-270.340	391.936	-0.095	0.195
-269.326	-57.751	0.150	0.065
-268.311	800.000	-0.079	0.216
-267.297	67.085	-0.169	0.170
-266.282	105.814	0.155	0.181
-265.267	28.689	0.116	-0.097
-264.253	800.000	-0.015	0.049
-263.238	29.417	0.305	-0.256
-262.224	111.171	-0.130	-0.155
-261.209	800.000	-0.095	-0.271
-260.195	-189.408	-0.448	-0.005
-259.180	8.686	-0.091	0.067
-258.165	-128.839	0.156	0.022
-257.151	160.911	0.094	0.129
-256.136	190.471	0.071	0.105
-255.122	800.000	-0.034	-0.093
-254.107	1.386	-0.109	0.077
-253.092	-200.000	0.016	0.194
-252.078	-60.871	0.286	0.120
-251.063	-92.257	0.103	0.029
-250.049	-1.150	-0.097	0.068
-249.034	-149.589	-0.243	-0.019
-248.019	80.564	-0.229	0.244
-247.005	-45.045	0.011	0.005
-245.990	32.231	-0.049	0.042
-244.976	-200.000	0.013	-0.219
-243.961	-200.000	-0.029	-0.376
-242.946	-6.049	0.163	0.110
-241.932	-180.485	0.415	0.008
-240.917	-179.776	-0.135	0.003
-239.903	33.308	-0.172	-0.147
-238.888	40.447	-0.284	0.252
-237.873	743.204	0.048	0.128
-236.859	-26.854	-0.189	-0.109
-235.844	116.485	0.053	0.065
-234.830	176.546	-0.211	0.302
-233.815	-200.000	0.011	-0.144
-232.800	-14.331	-0.226	-0.144
-231.786	-88.066	0.276	-0.082
-230.771	-146.977	0.029	-0.002
-229.757	-50.693	0.362	0.168
-228.742	147.585	-0.087	0.116
-227.727	212.508	-0.157	0.244
-226.713	50.513	0.231	0.215
-225.698	-57.684	-0.316	-0.136
-224.684	-57.423	-0.266	-0.115
-223.669	-121.146	0.291	-0.048
-222.655	64.591	0.239	-0.238
-221.640	543.524	-0.113	-0.266
-220.625	579.925	0.111	-0.267
-219.611	1.897	-0.218	0.155
-218.596	-52.314	-0.265	-0.121
-217.582	221.097	-0.078	0.124
-216.567	-50.539	-0.132	-0.062
-215.552	-200.000	0.052	-0.232
-214.538	282.858	-0.034	0.060
-213.523	800.000	-0.117	-0.409
-212.509	-75.503	-0.321	-0.113
-211.494	736.830	0.079	0.209
-210.479	44.424	-0.282	-0.255
-209.465	376.016	0.091	-0.183
-208.450	-200.000	-0.016	-0.110
-207.436	96.421	0.138	-0.155
-206.421	9.856	-0.083	0.062
-205.406	-96.423	-0.022	0.006
-204.392	-132.393	0.218	-0.028
-203.377	234.336	-0.054	-0.088
-202.363	130.240	0.377	-0.475
-201.348	46.755	0.314	0.288
-200.333	207.365	-0.100	-0.153
-199.319	4.947	0.143	-0.104
-198.304	-200.000	-0.020	-0.304
-197.290	-200.000	-0.029	0.296
-196.275	-167.075	0.323	0.013
-195.260	-84.500	0.259	-0.080
-194.246	-78.954	0.204	-0.069
-193.231	140.962	0.125	-0.163
-192.217	154.484	0.248	0.336
-191.202	-4.238	0.324	-0.221
-190.187	-200.000	-0.005	-0.144
-189.173	159.849	-0.111	0.153
-188.158	798.105	-0.088	-0.239
-187.144	125.743	-0.142	-0.176
-186.129	-126.141	-0.309	-0.046
-185.114	47.730	0.052	0.048
-184.100	-156.791	-0.287	0.017
-183.085	120.016	-0.080	-0.098
-182.071	-3.453	-0.290	-0.199
-181.056	290.366	0.146	-0.261
-180.042	-200.000	0.000	-0.119
-179.027	-64.770	0.346	-0.138
-178.012	-200.000	0.004	-0.274
-176.998	-134.179	-0.291	0.035
-175.983	6.712	0.301	0.220
-174.969	197.480	-0.073	0.109
-173.954	15.859	-0.138	0.107
-172.939	789.744	0.165	0.447
-171.925	-99.397	0.373	-0.093
-170.910	691.025	0.093	-0.239
-169.896	217.386	0.055	0.087
-168.881	156.340	0.084	0.114
-167.866	153.935	0.055	-0.074
-166.852	800.000	0.078	-0.317
-165.837	535.630	-0.140	-0.326
-164.823	52.182	-0.189	-0.178
-163.808	-82.483	-0.248	-0.079
-162.793	-70.363	0.194	0.072
-161.779	-200.000	-0.022	-0.341
-160.764	22.531	-0.161	-0.130
-159.750	-91.054	-0.072	0.020
-158.735	382.796	-0.096	0.194
-157.720	522.489	-0.063	0.145
-156.706	800.000	-0.024	0.095
-155.691	20.245	0.102	0.081
-154.677	-200.000	-0.008	-0.084
-153.662	151.624	0.042	-0.056
-152.647	800.000	-0.004	0.014
-151.633	-200.000	-0.050	0.311
-150.618	-118.651	-0.224	0.039
-149.604	83.819	0.099	-0.106
-148.589	-18.538	-0.153	-0.094
-147.574	5.519	-0.097	0.071
-146.560	-78.164	0.237	0.080
-145.545	23.107	-0.085	0.069
-144.531	171.140	0.351	0.495
-143.516	5.147	0.189	0.137
-142.502	-8.816	0.149	0.098
-141.487	-110.097	0.089	-0.018
-140.472	-200.000	0.063	0.287
-139.458	-200.000	-0.017	-0.093
-138.443	-57.973	0.452	-0.194
-137.429	200.823	-0.160	-0.242
-136.414	-55.814	0.033	-0.014
-135.399	746.737	-0.199	0.527
-134.385	-200.000	0.011	0.131
-133.370	-105.565	0.138	0.031
-132.356	800.000	0.079	0.300
-131.341	-200.000	-0.058	0.269
-130.326	800.000	0.077	0.210
-129.312	800.000	0.054	0.207
-128.297	-126.849	-0.096	-0.014
-127.283	62.830	0.101	0.099
-126.268	-77.158	-0.251	0.086
-125.253	800.000	-0.085	0.279
-124.239	670.840	0.102	0.259
-123.224	-78.728	0.208	0.070
-122.210	206.235	-0.116	0.177
-121.195	800.000	0.042	0.134
