DTS Sentinel unit serial number:	SN413079Multiplexer serial number:	ORYXHardware model number:	OX4-SRSoftware version number:	ORYX F/W v4.00 Oryx Data Collector v3.7.2.0data status	okinstallation	princeton_trtdifferential loss correction	single-endedforward channel	channel 1reverse channel	N/Adate	2019/09/13time	16:54:35forward acquisition time	60.00reverse acquisition time	0.00gamma	496.2192k internal	0.2305k external	0.2305temperature offset calibration	1.0145default loss term (dB/km)	0.3790temperature slope calibration	1.0000multiplexer offset coefficient	1.0000multiplexer slope coefficient	1.0000fibre end	0.00T internal ref (°C)	34.87T ext. ref 1 (°C)	4.82T ext. ref 2 (°C)	30.45length (m)	temperature (°C)	Stokes	anti-Stokes-747.200	-198.444	0.202	-0.001
-746.185	-200.000	-0.004	0.197
-745.171	1.464	0.031	-0.023
-744.156	243.827	0.053	0.090
-743.142	-93.536	0.246	0.069
-742.127	-140.363	-0.407	0.043
-741.112	272.512	0.043	0.077
-740.098	22.498	0.189	-0.157
-739.083	-97.661	0.181	0.048
-738.069	-200.000	0.061	0.444
-737.054	341.608	0.253	-0.503
-736.039	79.655	0.123	-0.134
-735.025	-200.000	-0.053	0.342
-734.010	-122.407	-0.238	0.039
-732.996	342.017	0.089	-0.177
-731.981	-86.780	-0.005	0.002
-730.966	-99.944	0.233	-0.059
-729.952	-181.889	-0.180	-0.003
-728.937	-41.771	-0.118	0.062
-727.923	27.942	0.153	0.131
-726.908	-43.000	0.341	-0.176
-725.894	-200.000	0.024	-0.141
-724.879	-126.058	0.418	-0.064
-723.864	800.000	-0.025	-0.093
-722.850	-75.562	0.310	0.112
-721.835	-95.635	0.271	-0.074
-720.821	-110.916	-0.055	0.012
-719.806	-200.000	0.011	-0.253
-718.791	-200.000	0.010	-0.489
-717.777	225.577	-0.032	-0.052
-716.762	503.763	0.103	-0.243
-715.748	-108.041	-0.193	-0.043
-714.733	-78.211	-0.229	0.080
-713.718	73.062	0.105	-0.112
-712.704	44.606	0.110	-0.103
-711.689	224.410	-0.045	0.074
-710.675	-17.526	-0.248	-0.159
-709.660	67.755	0.265	0.275
-708.645	-97.775	0.029	-0.008
-707.631	-39.544	-0.137	-0.073
-706.616	202.543	-0.083	0.130
-705.602	143.068	-0.138	0.187
-704.587	-120.472	0.191	-0.033
-703.572	143.885	-0.142	0.192
-702.558	-200.000	0.035	0.179
-701.543	-200.000	0.028	-0.321
-700.529	211.935	0.185	-0.297
-699.514	-6.928	0.331	0.229
-698.499	148.678	0.098	0.134
-697.485	-200.000	-0.013	-0.128
-696.470	-60.828	0.271	0.116
-695.456	-92.215	-0.101	-0.029
-694.441	-200.000	0.022	0.287
-693.426	-75.279	0.199	-0.072
-692.412	68.083	0.141	0.146
-691.397	188.910	0.109	0.166
-690.383	-33.658	0.158	-0.088
-689.368	800.000	0.046	0.163
-688.354	160.029	-0.153	-0.217
-687.339	73.270	-0.117	0.124
-686.324	-89.907	-0.150	0.044
-685.310	-27.293	-0.233	0.138
-684.295	102.561	0.140	-0.167
-683.281	16.091	0.137	-0.110
-682.266	170.104	0.028	-0.041
-681.251	444.650	0.105	0.235
-680.237	-19.528	-0.203	-0.128
-679.222	349.815	-0.115	0.230
-678.208	-200.000	0.013	0.216
-677.193	800.000	-0.053	0.154
-676.178	-124.132	0.226	-0.036
-675.164	-129.941	-0.112	-0.016
-674.149	279.477	-0.102	0.185
-673.135	-142.713	-0.296	0.029
-672.120	-64.155	0.054	-0.022
-671.105	57.964	-0.048	-0.048
-670.091	-200.000	0.012	-0.149
-669.076	456.128	0.049	0.110
-668.062	-95.651	0.179	0.049
-667.047	-82.306	-0.172	-0.057
-666.032	-41.721	-0.263	0.137
-665.018	255.613	0.124	0.216
-664.003	-42.133	-0.096	-0.050
-662.989	83.080	-0.047	-0.052
-661.974	800.000	0.093	-0.371
-660.959	800.000	0.128	-0.376
-659.945	-200.000	0.002	0.023
-658.930	262.616	-0.067	0.117
-657.916	-200.000	0.044	-0.290
-656.901	57.468	0.140	-0.139
-655.886	-141.522	-0.235	-0.024
-654.872	478.368	-0.049	0.113
-653.857	130.384	0.156	-0.203
-652.843	94.390	-0.164	-0.189
-651.828	800.000	-0.068	0.287
-650.814	204.781	-0.013	0.021
-649.799	-134.122	0.420	0.053
-648.784	399.865	-0.174	-0.371
-647.770	-0.720	0.126	-0.091
-646.755	23.503	0.279	-0.232
-645.741	189.308	-0.128	-0.194
-644.726	-200.000	-0.039	0.261
-643.711	259.141	-0.103	0.180
-642.697	-100.679	-0.254	0.063
-641.682	-24.979	0.124	0.075
-640.668	-95.519	-0.085	0.023
-639.653	-200.000	-0.022	-0.156
-638.638	-20.327	0.323	0.202
-637.624	-200.000	0.006	-0.054
-636.609	800.000	0.076	-0.279
-635.595	-200.000	-0.004	0.105
-634.580	-38.021	0.179	0.096
-633.565	173.848	-0.213	-0.312
-632.551	64.527	-0.334	-0.341
-631.536	800.000	-0.117	0.371
-630.522	112.788	-0.082	-0.100
-629.507	24.902	0.114	-0.096
-628.492	377.300	-0.130	-0.269
-627.478	8.231	0.158	-0.120
-626.463	-128.918	-0.210	-0.030
-625.449	176.358	-0.055	0.080
-624.434	46.823	0.184	-0.173
-623.419	-153.779	0.271	-0.019
-622.405	-200.000	0.056	0.253
-621.390	673.707	0.063	0.165
-620.376	800.000	0.038	-0.125
-619.361	-200.000	0.020	-0.351
-618.346	-91.261	0.328	-0.095
-617.332	800.000	-0.038	0.158
-616.317	106.258	-0.226	0.271
-615.303	-167.479	-0.175	-0.007
-614.288	-57.263	-0.365	-0.163
-613.273	106.357	-0.252	-0.302
-612.259	-22.226	0.190	0.117
-611.244	739.865	0.183	-0.498
-610.230	115.005	-0.141	-0.174
-609.215	-96.117	-0.295	-0.079
-608.201	-105.750	-0.166	0.038
-607.186	139.906	-0.194	0.259
-606.171	116.629	-0.131	0.162
-605.157	-128.214	-0.345	0.050
-604.142	-200.000	0.165	0.000
-603.128	43.626	-0.255	-0.236
-602.113	132.828	-0.207	-0.271
-601.098	46.651	0.041	0.038
-600.084	800.000	0.116	-0.357
-599.069	206.971	-0.164	-0.259
-598.055	569.097	0.011	0.026
-597.040	52.142	0.052	0.050
-596.025	20.671	0.284	0.232
-595.011	-52.684	0.105	-0.049
-593.996	-68.244	0.248	0.098
-592.982	-118.561	0.154	0.027
-591.967	198.640	0.058	0.090
-590.952	-200.000	-0.035	0.389
-589.938	119.643	-0.206	-0.258
-588.923	-81.919	-0.303	0.100
-587.909	800.000	0.065	0.235
-586.894	168.889	0.292	0.422
-585.879	-64.292	-0.329	0.135
-584.865	244.510	0.177	0.301
-583.850	-103.860	0.335	0.079
-582.836	-143.179	-0.114	-0.011
-581.821	18.999	0.157	-0.128
-580.806	114.880	-0.103	-0.127
-579.792	193.045	-0.285	-0.435
-578.777	34.933	-0.208	-0.184
-577.763	1.402	0.384	-0.279
-576.748	47.264	-0.138	-0.130
-575.733	-200.000	0.052	0.299
-574.719	285.401	0.085	0.155
-573.704	800.000	-0.068	0.233
-572.690	-62.759	-0.041	-0.017
-571.675	-200.000	-0.059	-0.285
-570.661	-200.000	-0.025	-0.191
-569.646	-0.031	0.314	0.226
-568.631	-96.606	0.318	0.085
-567.617	-147.195	-0.337	-0.029
-566.602	90.792	-0.118	0.134
-565.588	164.271	0.144	-0.204
-564.573	-28.482	-0.300	-0.175
-563.558	-40.978	0.165	-0.086
-562.544	1.012	-0.297	-0.215
-561.529	-200.000	0.032	-0.242
-560.515	-30.303	-0.119	-0.068
-559.500	-200.000	-0.013	-0.208
-558.485	-173.566	0.273	-0.008
-557.471	0.252	-0.258	-0.186
-556.456	58.165	0.172	-0.170
-555.442	347.978	0.150	-0.299
-554.427	56.694	-0.190	-0.187
-553.412	800.000	0.063	-0.207
-552.398	125.718	0.093	0.119
-551.383	117.130	-0.142	0.176
-550.369	800.000	0.052	-0.191
-549.354	51.265	-0.169	0.162
-548.339	488.820	0.121	0.280
-547.325	800.000	-0.066	0.233
-546.310	-200.000	0.004	0.035
-545.296	65.514	-0.066	-0.068
-544.281	509.374	-0.079	-0.185
-543.266	-105.829	0.145	0.033
-542.252	-200.000	-0.016	0.200
-541.237	20.563	-0.199	-0.163
-540.223	-48.250	-0.190	0.092
-539.208	800.000	-0.058	-0.172
-538.193	800.000	0.110	0.358
-537.179	-48.615	0.102	-0.049
-536.164	85.605	0.221	-0.245
-535.150	-88.202	-0.188	-0.057
-534.135	-32.464	-0.365	-0.205
-533.121	-62.880	-0.152	0.063
-532.106	80.226	-0.122	-0.132
-531.091	261.013	-0.153	-0.268
-530.077	-200.000	-0.073	-0.383
-529.062	800.000	-0.029	-0.112
-528.048	800.000	0.031	-0.088
-527.033	-200.000	0.017	-0.098
-526.018	327.566	0.076	0.148
-525.004	-200.000	-0.023	-0.121
-523.989	47.307	-0.218	-0.205
-522.975	-143.088	0.097	-0.009
-521.960	800.000	0.023	-0.073
-520.945	-200.000	-0.038	0.177
-519.931	55.369	-0.094	0.092
-518.916	395.293	-0.088	-0.184
-517.902	-200.000	-0.038	-0.256
-516.887	-109.257	-0.301	-0.064
-515.872	-14.530	-0.232	-0.150
-514.858	-171.191	0.207	-0.007
-513.843	-200.000	-0.014	-0.084
-512.829	-200.000	-0.008	-0.070
-511.814	-61.163	-0.192	-0.082
-510.799	21.212	-0.145	0.119
-509.785	67.914	0.107	0.110
-508.770	-68.366	0.211	0.082
-507.756	-200.000	-0.011	-0.101
-506.741	-128.872	0.097	0.014
-505.726	42.209	-0.165	-0.151
-504.712	-200.000	0.011	-0.174
-503.697	66.580	0.138	0.142
-502.683	-200.000	0.007	-0.238
-501.668	-200.000	0.001	0.084
-500.653	800.000	-0.128	0.531
-499.639	-72.494	0.067	0.025
-498.624	-200.000	-0.053	-0.234
-497.610	-200.000	0.007	-0.107
-496.595	534.789	0.066	-0.157
-495.581	800.000	-0.121	-0.380
-494.566	-84.731	0.116	0.037
-493.551	-200.000	0.072	-0.322
-492.537	800.000	-0.059	0.231
-491.522	-140.825	0.145	0.015
-490.508	335.081	-0.153	-0.298
-489.493	-200.000	0.029	0.164
-488.478	-115.686	-0.186	0.035
-487.464	139.074	0.055	-0.073
-486.449	540.644	-0.101	-0.242
-485.435	287.436	0.107	0.194
-484.420	151.436	0.089	0.122
-483.405	231.383	-0.087	-0.144
-482.391	285.947	0.143	0.259
-481.376	-24.824	-0.135	0.081
-480.362	0.729	-0.121	0.087
-479.347	-35.429	-0.262	0.143
-478.332	615.247	-0.149	0.375
-477.318	2.882	-0.043	0.031
-476.303	16.816	-0.130	-0.103
-475.289	-85.891	0.046	-0.014
-474.274	-105.764	-0.483	-0.110
-473.259	-85.171	0.170	0.054
-472.245	198.513	0.038	0.059
-471.230	75.546	0.013	0.014
-470.216	181.064	0.094	0.140
-469.201	-123.481	-0.295	-0.047
-468.186	67.681	0.198	-0.204
-467.172	551.730	-0.105	0.254
-466.157	800.000	-0.067	0.231
-465.143	-0.506	-0.307	-0.219
-464.128	-102.199	-0.176	0.043
-463.113	-65.656	0.274	-0.110
-462.099	41.561	0.118	-0.108
-461.084	-200.000	0.026	-0.148
-460.070	-32.061	-0.171	-0.096
-459.055	138.825	-0.262	0.346
-458.040	-57.849	0.249	-0.109
-457.026	-137.656	0.194	-0.022
-456.011	126.031	0.095	0.121
-454.997	106.425	0.096	-0.114
-453.982	-29.248	0.232	-0.134
-452.968	-107.648	0.178	0.039
-451.953	-200.000	-0.024	-0.280
-450.938	-109.786	-0.303	0.064
-449.924	7.969	-0.109	-0.083
-448.909	93.089	0.127	-0.144
-447.895	-200.000	0.027	-0.248
-446.880	65.488	0.207	-0.211
-445.865	175.968	-0.074	-0.108
-444.851	-65.269	0.132	-0.053
-443.836	-71.878	0.130	-0.049
-442.822	-38.233	0.234	-0.125
-441.807	379.269	-0.093	-0.191
-440.792	730.749	0.113	0.303
-439.778	569.299	0.075	0.183
-438.763	800.000	-0.028	0.122
-437.749	-48.725	-0.163	0.079
-436.734	800.000	0.100	-0.336
-435.719	-200.000	-0.067	-0.320
-434.705	-200.000	0.019	-0.173
-433.690	-149.706	0.172	0.014
-432.676	61.130	0.235	-0.235
-431.661	-200.000	-0.019	-0.121
-430.646	-117.136	0.226	0.041
-429.632	173.057	0.104	-0.150
-428.617	-200.000	-0.005	0.024
-427.603	-41.617	0.344	0.178
-426.588	800.000	-0.023	0.079
-425.573	456.694	0.111	0.247
-424.559	104.062	-0.226	-0.267
-423.544	-200.000	0.061	-0.341
-422.530	-82.879	-0.070	-0.023
-421.515	16.546	-0.181	0.144
-420.500	-200.000	-0.011	-0.065
-419.486	-22.764	0.107	0.065
-418.471	95.024	0.079	0.090
-417.457	-200.000	-0.023	-0.120
-416.442	-200.000	-0.038	0.172
-415.428	-200.000	0.037	-0.488
-414.413	-106.001	0.245	-0.055
-413.398	56.289	0.234	-0.228
-412.384	800.000	-0.072	-0.252
-411.369	190.034	0.067	0.101
-410.355	38.152	-0.089	0.079
-409.340	-1.094	0.351	-0.249
-408.325	97.704	0.116	-0.134
-407.311	324.397	-0.067	0.128
-406.296	-200.000	0.028	0.256
-405.282	-92.531	-0.070	0.020
-404.267	-200.000	0.020	0.181
-403.252	-88.106	0.097	0.029
-402.238	89.687	0.036	-0.040
-401.223	-200.000	0.011	0.135
-400.209	748.183	-0.030	0.082
-399.194	260.999	0.051	-0.089
-398.179	-167.059	0.192	-0.008
-397.165	-129.859	-0.226	0.031
-396.150	800.000	-0.016	0.059
-395.136	178.065	0.102	-0.150
-394.121	44.769	0.184	-0.170
-393.106	33.956	0.032	0.028
-392.092	17.394	-0.082	-0.065
-391.077	448.110	-0.081	0.180
-390.063	-103.790	-0.147	0.034
-389.048	-200.000	0.002	0.080
-388.033	-91.458	-0.158	-0.045
-387.019	169.130	0.102	0.147
-386.004	162.754	0.108	0.153
-384.990	495.260	0.014	-0.031
-383.975	-200.000	0.008	0.226
-382.960	550.220	-0.106	-0.256
-381.946	145.163	-0.132	-0.177
-380.931	-62.240	0.147	0.062
-379.917	-31.220	0.163	-0.092
-378.902	-2.009	-0.341	-0.240
-377.888	-113.360	-0.396	0.078
-376.873	105.356	-0.254	0.301
-375.858	-20.986	0.326	-0.200
-374.844	-45.123	0.191	-0.095
-373.829	23.925	0.147	0.122
-372.815	317.483	-0.072	0.136
-371.800	-200.000	-0.072	0.404
-370.785	800.000	-0.083	0.238
-369.771	-15.858	-0.131	-0.084
-368.756	287.048	-0.140	-0.254
-367.742	84.406	0.312	-0.342
-366.727	800.000	0.070	0.216
-365.712	66.181	-0.246	0.251
-364.698	-200.000	-0.058	0.262
-363.683	-37.678	0.210	-0.112
-362.669	107.855	-0.166	0.198
-361.654	-18.010	-0.067	-0.042
-360.639	666.901	0.045	-0.117
-359.625	-7.461	-0.125	-0.085
-358.610	207.335	0.076	0.118
-357.596	1.574	-0.093	-0.067
-356.581	-99.798	-0.051	0.013
-355.566	94.880	0.142	0.162
-354.552	-183.181	0.189	0.003
-353.537	800.000	0.042	0.127
-352.523	80.224	0.131	0.141
-351.508	-112.347	0.184	0.037
-350.493	74.582	-0.134	0.142
-349.479	-200.000	0.001	-0.084
-348.464	-113.035	0.145	0.029
-347.450	13.752	0.298	-0.232
-346.435	-161.747	-0.092	-0.005
-345.420	-120.591	-0.408	0.069
-344.406	16.193	-0.176	0.139
-343.391	-104.813	0.092	-0.021
-342.377	800.000	-0.126	0.421
-341.362	-129.077	0.188	0.026
-340.348	800.000	0.088	-0.243
-339.333	466.480	-0.058	-0.130
-338.318	123.238	-0.166	0.208
-337.304	-200.000	-0.021	-0.155
-336.289	65.861	0.088	0.090
-335.275	56.130	-0.109	0.106
-334.260	-95.971	0.347	-0.093
-333.245	-116.788	0.204	-0.037
-332.231	430.452	0.060	-0.130
-331.216	46.660	0.196	-0.182
-330.202	-60.092	-0.405	0.173
-329.187	-46.847	-0.224	0.110
-328.172	93.858	-0.179	0.203
-327.158	-200.000	0.018	0.304
-326.143	-113.155	0.240	-0.047
-325.129	-62.820	-0.073	-0.030
-324.114	-107.020	0.218	-0.048
-323.099	-102.376	0.181	-0.043
-322.085	70.963	-0.228	0.236
-321.070	102.206	0.040	0.047
-320.056	168.314	0.131	0.187
-319.041	42.081	-0.204	-0.185
-318.026	-108.736	-0.224	0.048
-317.012	485.705	0.079	0.181
-315.997	-54.865	0.132	0.060
-314.983	-107.887	0.279	-0.061
-313.968	55.760	0.073	0.071
-312.953	-18.955	-0.121	-0.075
-311.939	-198.964	-0.341	-0.002
-310.924	-48.751	0.344	0.165
-309.910	150.549	-0.238	0.324
-308.895	-125.043	0.356	-0.055
-307.880	184.044	0.039	0.057
-306.866	-200.000	-0.004	-0.285
-305.851	60.884	0.341	-0.338
-304.837	800.000	0.080	-0.261
-303.822	-20.399	0.160	-0.098
-302.807	-200.000	0.008	-0.147
-301.793	-118.943	0.078	-0.014
-300.778	52.029	0.297	0.283
-299.764	100.938	-0.081	0.094
-298.749	53.240	-0.051	0.048
-297.735	2.822	-0.307	0.223
-296.720	31.095	0.169	0.145
-295.705	179.636	0.067	0.098
-294.691	-136.114	-0.167	-0.020
-293.676	94.033	-0.072	-0.081
-292.662	-26.507	0.169	0.099
-291.647	676.485	-0.071	0.185
-290.632	26.532	-0.183	-0.153
-289.618	-187.483	0.183	0.002
-288.603	-200.000	0.048	-0.296
-287.589	-59.559	0.341	-0.146
-286.574	49.552	0.085	-0.080
-285.559	16.937	-0.247	0.195
-284.545	378.636	-0.115	-0.235
-283.530	391.104	0.043	-0.090
-282.516	-52.748	0.063	0.029
-281.501	-194.733	0.143	-0.001
-280.486	-200.000	0.044	0.264
-279.472	158.787	-0.090	0.125
-278.457	19.799	0.211	0.170
-277.443	26.961	0.151	0.127
-276.428	-188.131	-0.187	0.002
-275.413	-184.999	-0.175	-0.003
-274.399	85.486	0.162	0.178
-273.384	-200.000	-0.018	-0.105
-272.370	-200.000	-0.006	-0.083
-271.355	-124.922	0.177	-0.027
-270.340	800.000	0.056	0.236
-269.326	-200.000	-0.090	-0.394
-268.311	2.568	0.209	-0.151
-267.297	-200.000	-0.073	-0.344
-266.282	-105.155	0.160	-0.036
-265.267	800.000	-0.117	-0.383
-264.253	-200.000	0.044	0.333
-263.238	-200.000	-0.009	0.063
-262.224	99.848	-0.292	0.338
-261.209	-200.000	0.055	0.375
-260.195	79.945	-0.168	0.180
-259.180	22.426	0.202	-0.165
-258.165	-59.671	-0.345	-0.148
-257.151	-103.235	-0.240	-0.057
-256.136	-8.948	0.168	0.113
-255.122	241.053	0.104	0.173
-254.107	-194.069	-0.092	0.001
-253.092	-0.796	0.321	0.227
-252.078	159.018	0.118	0.163
-251.063	74.467	-0.325	0.341
-250.049	-174.386	0.104	0.003
-249.034	-45.145	-0.208	0.103
-248.019	-200.000	0.015	0.138
-247.005	-200.000	0.008	0.255
-245.990	-200.000	0.004	-0.131
-244.976	-122.866	-0.211	-0.034
-243.961	273.010	0.071	-0.126
-242.946	-200.000	0.027	-0.204
-241.932	-68.773	-0.264	-0.102
-240.917	-26.746	0.243	0.142
-239.903	-59.653	-0.245	-0.105
-238.888	800.000	-0.032	-0.125
-237.873	-200.000	0.130	0.624
-236.859	-81.450	0.189	-0.062
-235.844	112.779	0.027	0.033
-234.830	-107.851	0.224	0.049
-233.815	7.048	-0.505	0.375
-232.800	-127.022	0.216	0.032
-231.786	-150.531	0.369	0.028
-230.771	149.530	-0.184	0.249
-229.757	123.219	-0.373	0.466
-228.742	-128.513	-0.220	-0.031
-227.727	-106.503	-0.161	-0.036
-226.713	-20.236	-0.326	0.200
-225.698	399.175	-0.183	-0.381
-224.684	164.212	-0.028	0.040
-223.669	-11.854	0.218	-0.143
-222.655	-53.868	0.172	-0.078
-221.640	-200.000	-0.038	-0.226
-220.625	-37.547	0.182	0.097
-219.611	453.775	-0.043	0.094
-218.596	-54.172	-0.268	-0.121
-217.582	-200.000	0.020	-0.231
-216.567	96.637	-0.079	0.091
-215.552	-200.000	-0.017	-0.324
-214.538	115.516	0.158	0.192
-213.523	800.000	-0.065	0.182
-212.509	-200.000	0.033	0.299
-211.494	260.503	0.208	-0.358
-210.479	800.000	0.066	-0.246
-209.465	-87.709	0.144	0.043
-208.450	-40.153	0.232	0.121
-207.436	71.382	-0.163	-0.168
-206.421	798.523	-0.095	0.261
-205.406	800.000	0.046	0.172
-204.392	-4.766	-0.085	-0.058
-203.377	-200.000	-0.013	0.066
-202.363	195.579	0.061	0.093
-201.348	265.657	-0.120	-0.209
-200.333	-81.209	0.114	0.037
-199.319	115.964	-0.042	0.051
-198.304	91.417	0.030	-0.034
-197.290	41.795	-0.209	-0.188
-196.275	145.945	-0.041	-0.055
-195.260	137.923	-0.076	0.099
-194.246	14.718	0.019	0.015
-193.231	-8.230	-0.258	-0.173
-192.217	576.965	-0.106	0.259
-191.202	-200.000	-0.004	-0.113
-190.187	-79.353	0.251	-0.085
-189.173	226.817	0.324	0.524
-188.158	-200.000	-0.084	0.427
-187.144	-36.841	-0.107	-0.057
-186.129	800.000	0.038	-0.122
-185.114	800.000	0.136	0.445
-184.100	-157.176	-0.370	-0.022
-183.085	-200.000	-0.013	0.277
-182.071	-182.528	0.239	0.004
-181.056	-39.150	-0.210	0.110
-180.042	-200.000	-0.035	0.180
-179.027	402.187	-0.115	0.241
-178.012	-200.000	-0.006	0.186
-176.998	-103.780	0.113	0.026
-175.983	-155.850	0.170	-0.011
-174.969	417.262	-0.096	0.205
-173.954	-53.287	-0.192	-0.087
-172.939	74.438	0.214	-0.224
-171.925	86.476	0.232	0.255
-170.910	-200.000	-0.040	0.394
-169.896	601.792	-0.047	0.117
-168.881	124.694	-0.173	0.216
-167.866	215.847	-0.073	-0.116
-166.852	-200.000	0.063	0.314
-165.837	-96.693	0.262	-0.068
-164.823	32.694	0.112	0.097
-163.808	-200.000	-0.017	-0.141
-162.793	-129.135	0.202	0.028
-161.779	95.979	0.067	0.076
-160.764	-30.806	-0.094	-0.053
-159.750	-58.355	0.182	-0.079
-158.735	-121.941	0.285	0.047
-157.720	-90.525	-0.199	-0.057
-156.706	112.636	0.123	0.148
-155.691	123.492	0.242	0.301
-154.677	164.941	-0.070	0.098
-153.662	-200.000	0.045	-0.280
-152.647	-200.000	0.016	0.178
-151.633	-62.392	0.059	-0.024
-150.618	-86.611	0.216	-0.066
-149.604	88.234	-0.063	-0.069
-148.589	-109.026	0.197	-0.042
-147.574	7.156	0.238	-0.177
-146.560	200.310	0.112	-0.170
-145.545	-103.256	0.242	0.057
-144.531	-96.308	0.315	0.083
-143.516	-180.399	0.399	-0.008
-142.502	-8.804	-0.325	0.217
-141.487	196.012	-0.192	0.291
-140.472	62.614	0.174	-0.173
-139.458	19.859	-0.203	0.163
-138.443	-200.000	-0.009	0.066
-137.429	18.666	-0.370	-0.294
-136.414	5.415	0.117	0.086
-135.399	154.882	-0.123	0.168
-134.385	-146.174	-0.234	-0.020
-133.370	67.887	0.195	0.198
-132.356	-104.556	-0.360	-0.083
-131.341	800.000	-0.090	0.382
-130.326	800.000	-0.090	0.383
-129.312	-116.396	0.201	-0.037
-128.297	277.491	0.112	-0.198
-127.283	800.000	-0.088	-0.245
-126.268	-34.519	0.344	-0.187
-125.253	-148.718	0.251	0.020
-124.239	295.425	0.151	-0.274
-123.224	375.620	-0.042	0.085
-122.210	800.000	-0.125	-0.359
-121.195	17.052	-0.357	-0.281
-120.180	-17.577	-0.151	-0.094
