DTS Sentinel unit serial number:	SN413079Multiplexer serial number:	ORYXHardware model number:	OX4-SRSoftware version number:	ORYX F/W v4.00 Oryx Data Collector v3.7.2.0data status	okinstallation	princeton_trtdifferential loss correction	single-endedforward channel	channel 1reverse channel	N/Adate	2019/09/12time	08:36:11forward acquisition time	60.00reverse acquisition time	0.00gamma	496.2192k internal	0.2312k external	0.2312temperature offset calibration	1.0042default loss term (dB/km)	0.3790temperature slope calibration	1.0000multiplexer offset coefficient	1.0000multiplexer slope coefficient	1.0000fibre end	0.00T internal ref (°C)	33.75T ext. ref 1 (°C)	1.71T ext. ref 2 (°C)	30.07length (m)	temperature (°C)	Stokes	anti-Stokes-747.200	213.342	-0.080	0.128
-746.185	-91.299	0.357	0.104
-745.171	145.535	-0.140	0.190
-744.156	18.990	0.131	0.107
-743.142	-91.899	0.030	0.009
-742.127	-200.000	-0.080	0.386
-741.112	-200.000	-0.010	0.127
-740.098	19.749	-0.184	0.150
-739.083	486.050	-0.049	-0.114
-738.069	12.184	-0.322	0.252
-737.054	404.705	-0.088	-0.188
-736.039	-200.000	0.014	-0.068
-735.025	-110.058	-0.293	-0.062
-734.010	-146.225	-0.318	0.028
-732.996	-200.000	0.005	-0.245
-731.981	31.538	0.146	-0.128
-730.966	170.025	0.073	-0.106
-729.952	-27.648	-0.314	-0.185
-728.937	-200.000	-0.015	-0.085
-727.923	-37.343	-0.175	-0.095
-726.908	571.114	0.032	0.079
-725.894	95.505	-0.260	-0.301
-724.879	-163.581	-0.269	0.013
-723.864	66.580	-0.376	-0.388
-722.850	-200.000	0.011	0.068
-721.835	247.856	-0.205	0.352
-720.821	273.891	-0.176	-0.316
-719.806	364.565	-0.035	-0.072
-718.791	4.351	-0.270	0.200
-717.777	-200.000	-0.159	-0.001
-716.762	-200.000	-0.033	0.376
-715.748	217.380	-0.107	-0.172
-714.733	611.284	0.057	0.145
-713.718	66.315	-0.221	-0.227
-712.704	-97.128	-0.075	-0.020
-711.689	40.235	0.049	-0.045
-710.675	-102.323	-0.285	0.069
-709.660	191.438	-0.149	-0.228
-708.645	90.117	0.058	0.066
-707.631	-89.725	0.347	0.103
-706.616	-200.000	0.021	0.334
-705.602	339.370	-0.027	-0.052
-704.587	800.000	-0.105	-0.394
-703.572	-200.000	0.010	-0.076
-702.558	137.317	-0.096	0.127
-701.543	-2.449	-0.118	0.084
-700.529	26.798	0.119	0.101
-699.514	800.000	0.043	0.137
-698.499	-114.457	0.462	0.090
-697.485	122.870	0.070	0.089
-696.470	561.000	0.129	0.315
-695.456	-59.199	-0.026	0.011
-694.441	-105.923	-0.281	0.064
-693.426	377.051	0.234	-0.484
-692.412	-49.098	-0.245	-0.119
-691.397	-200.000	-0.009	0.126
-690.383	106.394	-0.038	-0.046
-689.368	-39.433	-0.336	0.178
-688.354	216.281	-0.110	-0.177
-687.339	-80.489	0.385	-0.130
-686.324	502.785	-0.165	0.387
-685.310	-121.279	0.021	-0.003
-684.295	-73.423	0.152	-0.056
-683.281	26.487	-0.081	0.069
-682.266	-16.927	-0.040	-0.026
-681.251	132.577	-0.202	0.263
-680.237	-161.816	-0.196	0.010
-679.222	-200.000	-0.009	-0.153
-678.208	302.446	-0.126	-0.237
-677.193	-35.462	-0.188	-0.104
-676.178	-200.000	0.033	0.281
-675.164	5.968	0.434	-0.325
-674.149	800.000	-0.036	-0.104
-673.135	426.101	0.123	-0.267
-672.120	85.422	-0.184	-0.205
-671.105	291.812	0.057	-0.105
-670.091	-118.714	-0.282	-0.050
-669.076	800.000	-0.054	0.207
-668.062	686.962	-0.016	0.041
-667.047	46.450	-0.114	-0.107
-666.032	-44.402	-0.273	-0.138
-665.018	-24.080	-0.070	-0.042
-664.003	-152.079	-0.087	-0.006
-662.989	-153.119	-0.254	0.018
-661.974	24.324	-0.421	-0.352
-660.959	-200.000	-0.002	-0.029
-659.945	800.000	0.117	0.353
-658.930	800.000	0.004	0.015
-657.916	-200.000	-0.021	-0.291
-656.901	-115.381	-0.199	0.038
-655.886	-75.264	0.301	-0.109
-654.872	-76.140	-0.510	0.182
-653.857	106.460	-0.210	-0.252
-652.843	96.017	-0.148	-0.171
-651.828	390.149	-0.052	0.108
-650.814	61.587	0.167	-0.168
-649.799	-200.000	0.046	-0.232
-648.784	-76.224	-0.156	-0.055
-647.770	-107.187	-0.300	-0.067
-646.755	684.780	-0.057	0.150
-645.741	191.236	-0.012	0.019
-644.726	-165.121	-0.416	-0.019
-643.711	-200.000	-0.014	0.213
-642.697	-84.746	-0.466	-0.148
-641.682	800.000	-0.044	-0.149
-640.668	254.488	-0.062	0.108
-639.653	126.801	0.111	-0.142
-638.638	6.580	0.195	-0.147
-637.624	-200.000	-0.014	0.091
-636.609	271.412	-0.158	0.281
-635.595	91.238	-0.152	-0.173
-634.580	86.710	0.077	0.086
-633.565	396.377	-0.010	0.022
-632.551	-200.000	-0.026	0.461
-631.536	-200.000	0.003	-0.026
-630.522	800.000	0.039	0.119
-629.507	-200.000	0.001	0.059
-628.492	-126.935	-0.280	0.042
-627.478	-200.000	-0.014	0.195
-626.463	-63.113	0.144	-0.060
-625.449	-41.211	0.124	-0.065
-624.434	-110.489	0.202	0.042
-623.419	-200.000	-0.006	0.264
-622.405	4.444	0.147	-0.109
-621.390	-200.000	-0.006	-0.365
-620.376	-200.000	-0.019	0.101
-619.361	-20.928	0.091	0.056
-618.346	205.796	0.049	0.077
-617.332	116.615	-0.045	0.056
-616.317	98.101	-0.274	0.319
-615.303	434.312	-0.050	-0.109
-614.288	6.697	-0.105	-0.079
-613.273	61.429	-0.221	0.222
-612.259	-47.285	-0.181	0.089
-611.244	-3.764	0.124	-0.087
-610.230	800.000	0.045	-0.168
-609.215	-123.847	-0.150	0.024
-608.201	53.891	0.069	0.067
-607.186	608.127	0.173	0.437
-606.171	-22.347	0.508	-0.311
-605.157	484.708	-0.076	-0.175
-604.142	-200.000	-0.015	0.157
-603.128	-200.000	-0.010	0.110
-602.113	-200.000	0.033	-0.337
-601.098	-200.000	0.067	-0.302
-600.084	-13.282	-0.108	0.071
-599.069	-138.064	-0.218	-0.025
-598.055	-80.082	0.077	-0.026
-597.040	353.649	0.061	-0.122
-596.025	37.368	0.332	-0.297
-595.011	-95.036	0.153	-0.042
-593.996	800.000	-0.054	-0.151
-592.982	-53.798	-0.172	0.079
-591.967	-123.698	0.194	0.031
-590.952	163.279	-0.086	0.122
-589.938	223.453	0.085	-0.138
-588.923	-76.142	-0.116	-0.041
-587.909	-200.000	0.008	-0.164
-586.894	-200.000	0.031	0.148
-585.879	-163.858	0.128	0.006
-584.865	-200.000	-0.064	0.293
-583.850	-74.397	0.097	0.035
-582.836	417.758	0.084	0.181
-581.821	-85.769	-0.194	0.061
-580.806	-200.000	-0.004	-0.140
-579.792	800.000	-0.107	0.413
-578.777	-85.763	0.197	0.062
-577.763	695.297	-0.059	0.155
-576.748	-114.033	-0.328	0.064
-575.733	-200.000	-0.031	0.156
-574.719	-200.000	0.016	-0.385
-573.704	255.658	0.045	-0.077
-572.690	-190.975	0.071	-0.001
-571.675	-200.000	0.026	0.223
-570.661	-200.000	-0.162	-0.001
-569.646	-33.717	0.144	-0.080
-568.631	-147.937	-0.112	-0.009
-567.617	800.000	-0.054	0.170
-566.602	800.000	0.027	-0.089
-565.588	800.000	-0.103	0.389
-564.573	800.000	-0.106	-0.452
-563.558	-50.909	0.161	-0.076
-562.544	-18.293	-0.207	0.131
-561.529	-11.547	0.110	0.073
-560.515	13.118	0.291	0.227
-559.500	95.646	-0.219	0.251
-558.485	-108.352	0.307	-0.067
-557.471	-14.759	0.097	-0.063
-556.456	124.796	0.211	0.268
-555.442	65.505	-0.174	0.178
-554.427	225.683	-0.196	-0.321
-553.412	800.000	0.148	0.435
-552.398	800.000	0.045	-0.139
-551.383	-65.117	0.274	-0.111
-550.369	-48.324	-0.297	-0.144
-549.354	-94.350	0.062	0.017
-548.339	-105.267	0.122	-0.028
-547.325	111.664	-0.338	0.410
-546.310	-134.907	-0.079	0.010
-545.296	-200.000	-0.020	-0.142
-544.281	-104.879	-0.202	0.047
-543.266	-35.339	0.346	-0.189
-542.252	-200.000	-0.062	-0.373
-541.237	664.111	-0.077	0.201
-540.223	-94.732	-0.070	0.019
-539.208	147.070	-0.285	-0.386
-538.193	46.493	0.038	-0.035
-537.179	800.000	-0.059	-0.167
-536.164	-102.841	0.090	-0.022
-535.150	-137.490	0.259	-0.029
-534.135	780.562	-0.008	-0.022
-533.121	-79.259	-0.049	-0.017
-532.106	32.489	-0.167	0.145
-531.091	-86.604	-0.209	-0.065
-530.077	295.606	0.150	-0.276
-529.062	450.207	0.075	0.167
-528.048	370.800	0.244	0.498
-527.033	-200.000	-0.002	0.157
-526.018	455.332	0.058	-0.130
-525.004	-129.274	-0.242	0.034
-523.989	303.426	0.068	-0.126
-522.975	180.634	-0.092	-0.136
-521.960	37.743	-0.103	0.092
-520.945	32.148	0.229	-0.199
-519.931	-16.881	-0.052	0.033
-518.916	-3.220	-0.159	0.112
-517.902	-30.568	-0.248	0.142
-516.887	211.199	0.093	-0.148
-515.872	-200.000	-0.007	-0.184
-514.858	-110.437	0.099	0.021
-513.843	-48.907	0.083	0.040
-512.829	-200.000	-0.012	-0.212
-511.814	-92.739	0.255	0.072
-510.799	800.000	-0.021	-0.090
-509.785	34.918	0.085	-0.075
-508.770	57.682	0.089	-0.088
-507.756	-200.000	-0.026	-0.222
-506.741	120.277	-0.163	-0.204
-505.726	35.412	0.342	-0.301
-504.712	-143.600	0.097	0.009
-503.697	56.590	0.094	0.092
-502.683	-182.114	-0.146	0.003
-501.668	9.511	-0.218	-0.166
-500.653	800.000	-0.078	-0.234
-499.639	565.255	-0.167	-0.406
-498.624	-200.000	-0.001	-0.102
-497.610	208.051	0.156	0.244
-496.595	137.852	0.098	-0.129
-495.581	63.692	0.193	0.194
-494.566	14.482	0.065	0.051
-493.551	-45.084	-0.114	0.057
-492.537	37.946	-0.157	0.140
-491.522	412.728	0.062	-0.132
-490.508	800.000	-0.010	-0.035
-489.493	-60.173	0.036	-0.015
-488.478	70.659	-0.094	-0.097
-487.464	207.486	0.143	-0.224
-486.449	242.019	-0.103	-0.174
-485.435	-57.785	-0.433	0.190
-484.420	-83.148	0.468	-0.151
-483.405	-56.836	-0.265	0.118
-482.391	-76.302	-0.229	-0.081
-481.376	410.659	-0.069	-0.148
-480.362	-53.650	0.104	-0.048
-479.347	-30.379	0.257	0.146
-478.332	-200.000	0.009	-0.124
-477.318	-200.000	-0.008	0.192
-476.303	-86.089	-0.193	0.060
-475.289	-49.806	0.142	-0.068
-474.274	-135.365	-0.566	0.068
-473.259	800.000	-0.069	-0.216
-472.245	-200.000	-0.008	0.307
-471.230	-4.945	-0.164	-0.114
-470.216	-113.314	-0.506	-0.100
-469.201	66.755	-0.129	-0.132
-468.186	14.127	0.239	0.187
-467.172	208.930	-0.107	-0.168
-466.157	-171.933	0.261	-0.009
-465.143	48.763	-0.043	-0.041
-464.128	-200.000	0.014	0.073
-463.113	-37.246	-0.176	-0.094
-462.099	-200.000	-0.099	-0.000
-461.084	-17.311	0.345	0.218
-460.070	583.663	-0.042	-0.105
-459.055	17.205	-0.132	-0.105
-458.040	-120.939	0.244	0.041
-457.026	130.373	0.030	0.038
-456.011	482.693	-0.081	-0.185
-454.997	-138.305	0.277	-0.031
-453.982	271.545	-0.068	-0.119
-452.968	800.000	0.035	-0.139
-451.953	250.053	-0.140	-0.238
-450.938	-56.309	-0.198	0.088
-449.924	-28.714	-0.146	-0.084
-448.909	-111.820	0.227	0.046
-447.895	403.095	0.081	-0.172
-446.880	259.366	-0.070	0.122
-445.865	-200.000	-0.071	-0.430
-444.851	209.954	0.038	-0.060
-443.836	216.004	-0.053	-0.084
-442.822	-21.240	-0.318	0.195
-441.807	-200.000	0.000	-0.230
-440.792	-70.608	-0.222	0.084
-439.778	55.409	0.131	-0.127
-438.763	-86.019	-0.712	-0.221
-437.749	-200.000	0.013	0.217
-436.734	51.426	0.209	-0.199
-435.719	-200.000	-0.041	0.191
-434.705	-105.540	-0.394	0.090
-433.690	-59.520	-0.149	-0.064
-432.676	-130.265	0.177	-0.024
-431.661	77.064	-0.183	-0.195
-430.646	-200.000	0.006	-0.109
-429.632	-159.873	-0.098	-0.005
-428.617	793.357	-0.022	-0.062
-427.603	32.381	0.299	-0.258
-426.588	1.394	-0.162	0.117
-425.573	-175.398	0.112	0.003
-424.559	-70.539	0.174	0.066
-423.544	43.506	-0.062	0.057
-422.530	-39.222	-0.165	0.087
-421.515	96.739	0.190	0.218
-420.500	-200.000	-0.350	-0.001
-419.486	800.000	0.055	-0.181
-418.471	188.805	-0.059	-0.088
-417.457	230.542	-0.030	0.049
-416.442	-118.948	-0.069	-0.012
-415.428	-73.617	-0.228	0.083
-414.413	157.582	0.100	0.138
-413.398	-101.269	0.139	-0.034
-412.384	-76.295	0.112	-0.040
-411.369	198.574	0.113	-0.173
-410.355	26.152	-0.184	-0.154
-409.340	800.000	-0.031	0.096
-408.325	-77.965	-0.116	-0.040
-407.311	-200.000	-0.023	-0.124
-406.296	542.449	0.172	0.412
-405.282	605.021	-0.050	0.124
-404.267	-83.250	-0.226	0.073
-403.252	-200.000	-0.028	-0.262
-402.238	-131.074	0.258	0.034
-401.223	-102.542	-0.123	0.029
-400.209	221.554	0.248	-0.398
-399.194	-200.000	0.006	0.303
-398.179	-78.939	-0.126	-0.043
-397.165	-76.264	0.329	-0.116
-396.150	550.979	0.048	-0.116
-395.136	102.861	0.212	0.249
-394.121	-200.000	-0.023	-0.149
-393.106	-106.682	0.215	-0.048
-392.092	487.399	0.009	-0.021
-391.077	44.418	-0.258	-0.237
-390.063	-95.041	0.406	-0.110
-389.048	800.000	-0.123	0.382
-388.033	800.000	-0.091	0.320
-387.019	-44.345	0.190	-0.095
-386.004	546.458	-0.149	-0.356
-384.990	228.330	-0.154	-0.251
-383.975	800.000	-0.054	-0.189
-382.960	42.723	0.057	-0.052
-381.946	-0.118	-0.267	0.190
-380.931	-99.045	0.252	-0.064
-379.917	-200.000	0.036	0.162
-378.902	-200.000	-0.015	0.088
-377.888	705.433	-0.061	0.162
-376.873	-143.143	-0.140	0.013
-375.858	-2.785	0.390	0.273
-374.844	-200.000	-0.055	-0.400
-373.829	120.434	-0.151	0.188
-372.815	161.607	0.161	-0.226
-371.800	321.086	0.021	-0.039
-370.785	43.920	-0.055	-0.050
-369.771	48.917	0.232	-0.218
-368.756	-127.531	-0.230	-0.033
-367.742	189.113	-0.048	0.072
-366.727	-200.000	-0.037	0.187
-365.712	661.178	0.087	0.225
-364.698	-57.287	-0.208	0.091
-363.683	-81.663	0.116	0.038
-362.669	204.407	-0.065	-0.100
-361.654	176.400	0.144	0.209
-360.639	-136.283	-0.319	-0.037
-359.625	639.067	0.153	-0.390
-358.610	118.704	-0.064	-0.079
-357.596	150.415	0.123	0.167
-356.581	-74.514	-0.149	-0.054
-355.566	-113.909	0.206	-0.040
-354.552	-200.000	-0.011	-0.145
-353.537	800.000	0.020	0.071
-352.523	-32.337	-0.085	-0.048
-351.508	-45.297	0.397	0.197
-350.493	12.823	0.099	-0.076
-349.479	-36.810	-0.306	0.164
-348.464	-191.502	-0.216	0.002
-347.450	-119.954	-0.266	-0.046
-346.435	-200.000	0.004	0.065
-345.420	-200.000	-0.033	-0.308
-344.406	597.488	0.042	0.103
-343.391	93.919	-0.087	-0.099
-342.377	-200.000	-0.008	0.127
-341.362	173.748	0.175	-0.252
-340.348	278.256	0.082	0.146
-339.333	159.071	0.137	-0.190
-338.318	-200.000	-0.057	-0.332
-337.304	800.000	0.076	0.221
-336.289	290.743	0.092	-0.167
-335.275	105.917	-0.265	-0.313
-334.260	-18.392	0.059	-0.037
-333.245	-200.000	0.036	-0.163
-332.231	52.046	0.199	-0.189
-331.216	61.344	-0.200	-0.199
-330.202	-46.462	0.267	0.131
-329.187	-200.000	0.019	0.233
-328.172	66.683	0.207	0.210
-327.158	-200.000	-0.003	0.188
-326.143	70.473	0.281	-0.290
-325.129	-32.265	0.109	-0.061
-324.114	224.175	0.156	-0.251
-323.099	-120.818	0.161	0.027
-322.085	162.831	-0.213	-0.298
-321.070	168.060	-0.176	-0.249
-320.056	32.365	0.187	-0.161
-319.041	450.265	-0.090	0.198
-318.026	109.765	0.130	0.155
-317.012	800.000	0.034	0.116
-315.997	194.229	0.259	-0.392
-314.983	800.000	0.073	-0.319
-313.968	-115.255	-0.093	-0.018
-312.953	-22.334	0.245	0.148
-311.939	468.636	-0.037	-0.083
-310.924	768.338	0.037	0.100
-309.910	-117.993	0.179	0.032
-308.895	421.790	0.115	0.247
-307.880	-200.000	0.001	0.016
-306.866	-137.606	-0.176	0.020
-305.851	151.376	0.186	-0.252
-304.837	-78.319	0.082	0.028
-303.822	-200.000	-0.008	0.166
-302.807	58.072	0.109	-0.106
-301.793	123.963	-0.224	0.281
-300.778	-161.657	0.082	-0.004
-299.764	234.753	-0.042	0.070
-298.749	-200.000	-0.030	0.335
-297.735	493.354	-0.057	0.131
-296.720	800.000	-0.041	0.178
-295.705	-105.459	0.228	-0.052
-294.691	-58.666	-0.305	0.132
-293.676	205.995	0.095	0.148
-292.662	-24.193	0.280	-0.167
-291.647	-61.350	0.224	-0.094
-290.632	-200.000	-0.062	0.410
-289.618	740.082	0.073	-0.195
-288.603	23.682	-0.128	-0.105
-287.589	-100.312	0.113	-0.028
-286.574	463.142	0.082	-0.183
-285.559	-1.421	-0.182	0.128
-284.545	800.000	-0.030	0.101
-283.530	45.371	-0.203	0.187
-282.516	-78.278	-0.060	0.020
-281.501	437.538	-0.198	0.430
-280.486	800.000	0.061	0.195
-279.472	-7.978	-0.108	0.072
-278.457	74.527	-0.137	-0.143
-277.443	-200.000	-0.010	0.049
-276.428	206.547	0.117	0.181
-275.413	800.000	-0.057	-0.228
-274.399	-104.205	-0.253	0.059
-273.384	35.145	-0.090	-0.079
-272.370	344.528	-0.099	-0.194
-271.355	-129.503	-0.084	-0.012
-270.340	-20.288	0.166	-0.102
-269.326	-99.173	0.293	-0.074
-268.311	-182.778	0.215	-0.004
-267.297	-157.803	0.291	0.017
-266.282	237.090	-0.176	-0.291
-265.267	-31.942	0.205	0.114
-264.253	-46.966	0.352	0.171
-263.238	127.923	-0.187	0.237
-262.224	14.637	0.140	-0.109
-261.209	-200.000	0.001	-0.156
-260.195	208.867	0.285	0.444
-259.180	-200.000	0.050	-0.219
-258.165	-200.000	0.026	0.123
-257.151	-200.000	-0.014	-0.138
-256.136	-115.873	-0.214	-0.040
-255.122	-191.619	-0.261	-0.003
-254.107	-62.084	-0.152	0.063
-253.092	145.979	-0.098	-0.130
-252.078	222.245	0.042	0.067
-251.063	147.529	0.195	0.262
-250.049	18.089	-0.167	-0.133
-249.034	587.761	-0.055	-0.135
-248.019	-200.000	-0.010	0.516
-247.005	-200.000	0.031	0.186
-245.990	132.759	-0.192	0.247
-244.976	-51.540	-0.047	-0.022
-243.961	-200.000	-0.037	-0.197
-242.946	-10.458	0.291	-0.192
-241.932	-200.000	-0.018	0.173
-240.917	-200.000	0.081	0.390
-239.903	59.712	-0.090	-0.089
-238.888	-200.000	-0.008	0.150
-237.873	134.907	0.175	0.226
-236.859	-95.683	0.046	0.012
-235.844	-6.929	0.077	-0.052
-234.830	-71.869	0.086	-0.032
-233.815	241.316	0.217	-0.361
-232.800	-145.684	0.183	-0.016
-231.786	-29.310	-0.211	0.120
-230.771	-78.653	-0.222	0.076
-229.757	-161.220	0.069	0.004
-228.742	6.689	-0.132	0.098
-227.727	-200.000	0.015	-0.232
-226.713	79.174	-0.277	0.295
-225.698	-26.491	0.108	-0.063
-224.684	280.019	0.125	-0.222
-223.669	285.215	0.145	0.259
-222.655	51.612	-0.089	0.084
-221.640	255.047	0.133	-0.226
-220.625	-200.000	-0.001	-0.082
-219.611	56.629	-0.320	0.310
-218.596	799.980	0.110	0.302
-217.582	-200.000	-0.025	0.216
-216.567	-200.000	-0.001	0.334
-215.552	800.000	-0.121	0.344
-214.538	-200.000	0.050	0.380
-213.523	268.469	0.122	0.213
-212.509	-188.653	-0.189	0.002
-211.494	-200.000	0.015	-0.264
-210.479	-107.792	0.192	-0.042
-209.465	154.494	0.143	-0.196
-208.450	-200.000	-0.017	-0.213
-207.436	-48.890	-0.189	0.090
-206.421	478.587	-0.054	0.121
-205.406	-104.267	-0.056	0.013
-204.392	-200.000	-0.017	-0.214
-203.377	603.117	0.035	0.086
-202.363	-200.000	-0.016	0.280
-201.348	-49.373	0.365	0.173
-200.333	48.228	0.034	-0.032
-199.319	-169.925	0.113	0.004
-198.304	2.204	0.203	0.146
-197.290	109.827	-0.050	-0.059
-196.275	40.390	0.129	0.115
-195.260	-159.957	-0.276	0.015
-194.246	-134.877	-0.388	-0.047
-193.231	-15.854	0.289	0.183
-192.217	800.000	-0.094	0.334
-191.202	176.454	0.076	-0.110
-190.187	179.370	-0.104	0.151
-189.173	716.457	0.025	-0.066
-188.158	800.000	0.015	0.064
-187.144	800.000	0.114	0.374
-186.129	-97.996	-0.093	0.024
-185.114	-107.313	0.156	0.034
-184.100	-200.000	-0.009	0.298
-183.085	-154.247	-0.217	0.015
-182.071	-200.000	-0.017	-0.166
-181.056	-152.113	0.153	-0.011
-180.042	-200.000	0.005	0.184
-179.027	-75.107	-0.141	0.050
-178.012	-124.427	0.301	0.047
-176.998	86.299	0.167	-0.183
-175.983	-100.631	-0.155	-0.038
-174.969	-200.000	-0.045	0.290
-173.954	-200.000	-0.011	0.116
-172.939	170.864	0.122	-0.173
-171.925	-107.851	-0.284	-0.061
-170.910	72.056	0.014	0.014
-169.896	42.280	0.160	-0.145
-168.881	800.000	0.047	0.173
-167.866	30.419	0.209	0.177
-166.852	-18.714	0.045	-0.028
-165.837	-60.742	0.072	-0.030
-164.823	108.432	0.098	-0.116
-163.808	19.346	-0.348	-0.277
-162.793	-93.794	0.120	-0.033
-161.779	800.000	0.035	-0.115
-160.764	109.770	0.104	-0.123
-159.750	21.932	0.119	0.096
-158.735	800.000	0.109	-0.398
-157.720	-174.214	0.384	-0.011
-156.706	143.384	-0.165	-0.217
-155.691	-123.206	0.057	-0.009
-154.677	-8.138	-0.385	-0.257
-153.662	-200.000	-0.002	-0.027
-152.647	-69.357	0.287	0.109
-151.633	-200.000	-0.030	0.232
-150.618	800.000	-0.053	-0.152
-149.604	690.205	-0.026	0.068
-148.589	-86.790	0.335	-0.101
-147.574	-77.745	-0.389	0.133
-146.560	263.497	0.116	-0.199
-145.545	131.336	0.124	-0.158
-144.531	-145.908	0.383	0.034
-143.516	54.752	0.133	-0.127
-142.502	724.377	-0.029	0.077
-141.487	-96.062	-0.137	0.036
-140.472	800.000	0.064	-0.202
-139.458	-77.090	0.061	0.021
-138.443	300.432	0.050	-0.091
-137.429	9.338	0.223	0.167
-136.414	-84.007	0.456	-0.144
-135.399	330.494	-0.168	0.320
-134.385	97.845	0.049	0.056
-133.370	71.632	0.192	0.198
-132.356	-200.000	0.016	0.260
-131.341	800.000	0.143	0.425
-130.326	510.686	0.058	0.134
-129.312	-119.038	-0.102	-0.018
-128.297	-92.070	-0.134	-0.038
-127.283	-119.088	-0.356	0.062
-126.268	-46.978	0.170	0.082
-125.253	-153.583	0.146	-0.010
-124.239	74.635	0.227	-0.237
-123.224	-136.007	-0.340	0.040
-122.210	209.391	-0.112	0.175
