DTS Sentinel unit serial number:	SN413079Multiplexer serial number:	ORYXHardware model number:	OX4-SRSoftware version number:	ORYX F/W v4.00 Oryx Data Collector v3.7.2.0data status	okinstallation	princeton_trtdifferential loss correction	single-endedforward channel	channel 1reverse channel	N/Adate	2019/09/14time	07:42:35forward acquisition time	60.00reverse acquisition time	0.00gamma	496.2192k internal	0.2335k external	0.2335temperature offset calibration	1.0078default loss term (dB/km)	0.3790temperature slope calibration	1.0000multiplexer offset coefficient	1.0000multiplexer slope coefficient	1.0000fibre end	0.00T internal ref (°C)	26.31T ext. ref 1 (°C)	3.47T ext. ref 2 (°C)	22.19length (m)	temperature (°C)	Stokes	anti-Stokes-747.200	-86.693	0.162	-0.050
-746.185	800.000	-0.122	-0.405
-745.171	-83.556	-0.184	0.059
-744.156	-79.095	0.236	0.081
-743.142	232.888	-0.140	-0.230
-742.127	-200.000	0.003	0.062
-741.112	123.091	-0.125	-0.157
-740.098	-200.000	0.066	0.380
-739.083	800.000	-0.046	-0.164
-738.069	32.759	-0.195	0.169
-737.054	800.000	0.059	0.184
-736.039	489.711	-0.054	-0.123
-735.025	152.540	-0.026	-0.036
-734.010	-200.000	0.027	-0.141
-732.996	-133.159	-0.241	-0.031
-731.981	34.948	-0.088	0.077
-730.966	-120.707	-0.196	-0.033
-729.952	341.489	-0.138	0.271
-728.937	-17.335	-0.094	-0.060
-727.923	800.000	-0.080	-0.279
-726.908	92.564	0.184	-0.208
-725.894	-28.646	-0.244	-0.141
-724.879	329.667	-0.118	0.227
-723.864	-50.135	-0.056	-0.027
-722.850	-128.238	0.194	0.028
-721.835	50.698	-0.213	-0.203
-720.821	-39.811	0.421	-0.221
-719.806	-126.673	-0.375	-0.056
-718.791	-137.471	-0.082	0.009
-717.777	-35.327	-0.164	-0.090
-716.762	-46.279	0.280	-0.138
-715.748	800.000	0.041	0.120
-714.733	-23.946	0.176	-0.106
-713.718	-64.785	0.113	-0.046
-712.704	598.591	-0.166	-0.413
-711.689	-125.077	-0.337	-0.052
-710.675	-124.660	0.335	0.052
-709.660	-154.408	-0.249	0.017
-708.645	-154.565	0.076	-0.005
-707.631	-200.000	-0.017	-0.237
-706.616	87.135	0.135	-0.150
-705.602	-124.731	0.144	-0.022
-704.587	-200.000	-0.034	-0.296
-703.572	800.000	0.054	-0.184
-702.558	-64.221	0.299	0.122
-701.543	-52.664	-0.155	0.072
-700.529	215.398	0.202	-0.322
-699.514	800.000	0.050	-0.190
-698.499	86.169	-0.072	-0.080
-697.485	800.000	0.080	0.261
-696.470	548.923	-0.068	0.164
-695.456	65.010	-0.122	0.124
-694.441	-58.454	0.138	-0.060
-693.426	-200.000	-0.003	-0.155
-692.412	-132.608	0.232	0.030
-691.397	109.634	0.079	0.094
-690.383	-119.753	-0.157	0.027
-689.368	-12.066	0.210	-0.138
-688.354	346.424	0.002	-0.004
-687.339	-20.821	-0.311	0.191
-686.324	62.330	0.096	0.097
-685.310	-200.000	0.038	-0.342
-684.295	-47.497	0.503	-0.245
-683.281	800.000	0.131	-0.369
-682.266	-200.000	0.019	-0.216
-681.251	-58.536	0.195	0.085
-680.237	-115.455	-0.035	-0.007
-679.222	-160.545	0.136	0.007
-678.208	181.181	-0.099	-0.147
-677.193	-11.076	-0.271	-0.179
-676.178	13.824	0.177	-0.138
-675.164	322.933	-0.049	0.094
-674.149	-200.000	0.040	-0.239
-673.135	447.944	0.062	0.137
-672.120	-179.577	-0.464	-0.010
-671.105	15.633	0.219	-0.172
-670.091	59.207	0.082	0.081
-669.076	-111.547	-0.166	-0.034
-668.062	352.048	0.047	0.094
-667.047	186.319	-0.188	0.281
-666.032	-59.835	-0.131	0.056
-665.018	800.000	0.102	0.324
-664.003	-91.614	-0.169	-0.048
-662.989	-113.125	-0.275	0.054
-661.974	106.352	-0.129	-0.153
-660.959	467.686	0.011	0.025
-659.945	356.128	-0.025	-0.050
-658.930	-85.547	0.218	0.068
-657.916	118.608	-0.124	0.153
-656.901	96.942	-0.192	-0.221
-655.886	7.024	0.190	-0.142
-654.872	-92.397	0.220	0.062
-653.857	76.817	0.041	0.044
-652.843	22.325	0.192	0.157
-651.828	-200.000	0.027	-0.359
-650.814	-200.000	-0.004	-0.224
-649.799	44.273	-0.210	-0.193
-648.784	-67.831	-0.245	0.096
-647.770	-200.000	0.043	-0.258
-646.755	50.652	0.237	-0.225
-645.741	-200.000	0.020	-0.236
-644.726	101.553	0.123	-0.143
-643.711	330.350	-0.188	-0.363
-642.697	800.000	-0.050	-0.165
-641.682	800.000	-0.109	-0.338
-640.668	-69.794	-0.271	0.104
-639.653	-68.624	-0.200	-0.077
-638.638	800.000	-0.018	-0.055
-637.624	-110.677	0.138	0.028
-636.609	249.621	-0.082	0.139
-635.595	-3.012	-0.064	0.045
-634.580	-200.000	0.006	-0.138
-633.565	-27.459	-0.466	-0.271
-632.551	176.812	0.121	0.177
-631.536	800.000	0.123	0.466
-630.522	386.687	0.152	0.314
-629.507	120.822	0.051	0.063
-628.492	-182.045	-0.133	-0.003
-627.478	-131.208	0.189	-0.025
-626.463	800.000	-0.044	0.136
-625.449	160.140	0.043	-0.060
-624.434	564.186	0.097	0.235
-623.419	146.185	0.140	-0.188
-622.405	-108.348	0.102	0.022
-621.390	-60.889	0.486	-0.206
-620.376	800.000	-0.043	0.180
-619.361	-1.712	0.077	-0.054
-618.346	41.000	0.330	-0.298
-617.332	-43.727	0.496	-0.250
-616.317	-112.629	0.154	0.031
-615.303	80.211	-0.260	0.280
-614.288	212.358	0.153	0.241
-613.273	-200.000	-0.001	0.301
-612.259	-17.495	-0.231	-0.145
-611.244	-200.000	0.015	-0.237
-610.230	-200.000	0.015	0.107
-609.215	800.000	-0.041	0.173
-608.201	2.385	0.231	0.167
-607.186	374.538	0.017	0.035
-606.171	96.920	0.037	-0.043
-605.157	-200.000	0.031	0.217
-604.142	-200.000	0.066	0.487
-603.128	-66.276	0.204	-0.081
-602.113	-31.956	0.153	-0.086
-601.098	-118.857	-0.252	0.044
-600.084	-14.921	-0.236	0.151
-599.069	34.217	0.041	-0.036
-598.055	-35.011	-0.016	0.009
-597.040	243.679	-0.106	0.178
-596.025	119.888	0.186	-0.231
-595.011	267.671	-0.113	-0.198
-593.996	295.929	-0.208	0.381
-592.982	-63.048	0.036	0.015
-591.967	-130.426	0.314	-0.042
-590.952	168.811	-0.152	-0.216
-589.938	-153.103	-0.174	-0.012
-588.923	411.942	0.240	-0.509
-587.909	524.641	0.119	-0.280
-586.894	118.407	0.240	-0.296
-585.879	-93.077	-0.593	-0.165
-584.865	243.454	-0.154	-0.257
-583.850	-90.639	-0.371	0.107
-582.836	-200.000	0.031	0.160
-581.821	-69.155	0.168	-0.065
-580.806	210.933	0.143	0.225
-579.792	-148.570	-0.208	-0.017
-578.777	-200.000	0.024	0.414
-577.763	-108.054	0.162	0.035
-576.748	-69.450	-0.450	0.172
-575.733	-200.000	-0.016	0.105
-574.719	-52.124	-0.317	0.147
-573.704	505.619	-0.037	0.086
-572.690	424.962	-0.039	-0.084
-571.675	-43.927	-0.188	0.094
-570.661	-30.530	0.019	0.011
-569.646	30.393	0.181	-0.154
-568.631	79.757	0.160	-0.171
-567.617	-200.000	0.017	-0.231
-566.602	127.874	0.051	0.065
-565.588	697.040	-0.014	0.036
-564.573	-78.354	-0.220	-0.075
-563.558	800.000	-0.084	-0.337
-562.544	127.427	0.104	-0.131
-561.529	-85.095	-0.206	-0.064
-560.515	21.914	-0.120	-0.098
-559.500	366.704	-0.143	-0.288
-558.485	-158.840	-0.071	-0.004
-557.471	800.000	0.039	-0.111
-556.456	-132.209	0.348	0.045
-555.442	-95.019	-0.263	-0.071
-554.427	-87.110	0.224	0.068
-553.412	-200.000	-0.154	0.000
-552.398	699.905	-0.052	0.136
-551.383	-200.000	0.040	0.362
-550.369	423.097	0.147	-0.315
-549.354	110.189	-0.174	0.209
-548.339	414.842	-0.139	0.295
-547.325	-11.348	-0.153	0.100
-546.310	24.940	0.095	-0.079
-545.296	-3.785	-0.192	-0.133
-544.281	-7.530	0.119	0.080
-543.266	689.089	-0.030	0.078
-542.252	-73.674	0.078	-0.028
-541.237	125.741	-0.057	0.072
-540.223	800.000	0.098	-0.322
-539.208	-200.000	-0.076	-0.393
-538.193	0.264	0.385	-0.274
-537.179	-200.000	-0.006	0.424
-536.164	800.000	0.014	0.056
-535.150	188.854	0.159	-0.236
-534.135	800.000	-0.059	0.177
-533.121	-200.000	-0.004	-0.029
-532.106	123.096	-0.175	0.218
-531.091	-200.000	0.018	-0.330
-530.077	-24.907	-0.211	0.125
-529.062	20.289	0.169	0.136
-528.048	-34.836	-0.195	0.106
-527.033	38.454	-0.234	-0.208
-526.018	800.000	-0.056	0.236
-525.004	174.935	0.270	0.389
-523.989	-200.000	0.012	0.195
-522.975	141.169	-0.228	-0.300
-521.960	19.366	0.275	0.220
-520.945	-107.417	-0.271	-0.059
-519.931	10.987	0.156	0.118
-518.916	-103.700	0.145	0.034
-517.902	800.000	0.008	0.035
-516.887	145.447	-0.137	0.183
-515.872	39.150	0.173	0.154
-514.858	-119.536	0.281	-0.048
-513.843	-50.022	0.240	0.113
-512.829	-51.902	0.194	-0.090
-511.814	325.058	-0.168	-0.320
-510.799	1.119	-0.310	-0.222
-509.785	48.458	-0.136	0.127
-508.770	352.568	-0.034	0.067
-507.756	131.861	0.213	0.273
-506.741	49.103	0.177	-0.166
-505.726	201.162	-0.128	-0.195
-504.712	39.076	0.110	0.098
-503.697	149.149	0.231	-0.312
-502.683	-130.210	0.548	-0.074
-501.668	194.309	-0.114	-0.171
-500.653	224.234	0.064	-0.103
-499.639	-200.000	0.052	-0.287
-498.624	-32.454	0.333	0.185
-497.610	292.768	0.080	-0.145
-496.595	-22.628	-0.053	0.032
-495.581	-27.173	-0.032	-0.018
-494.566	-134.136	0.242	-0.030
-493.551	474.243	-0.212	-0.476
-492.537	-200.000	0.082	-0.398
-491.522	-57.662	0.180	0.079
-490.508	-200.000	-0.031	-0.144
-489.493	-107.353	0.130	0.028
-488.478	800.000	-0.035	-0.100
-487.464	222.643	0.067	-0.107
-486.449	800.000	-0.031	0.119
-485.435	389.092	-0.158	0.325
-484.420	-139.068	-0.318	0.034
-483.405	62.719	-0.262	0.260
-482.391	-123.784	-0.274	0.043
-481.376	-200.000	-0.006	0.036
-480.362	283.949	0.130	-0.232
-479.347	4.037	-0.128	-0.093
-478.332	-66.675	0.201	0.079
-477.318	-79.081	-0.374	0.126
-476.303	-3.699	0.123	0.085
-475.289	-200.000	0.053	0.278
-474.274	-156.264	-0.293	-0.018
-473.259	-129.903	-0.077	-0.010
-472.245	-200.000	0.003	-0.130
-471.230	-200.000	0.045	-0.201
-470.216	-3.927	0.104	-0.072
-469.201	-63.148	-0.210	-0.086
-468.186	-200.000	-0.040	-0.233
-467.172	-17.275	0.141	-0.089
-466.157	290.739	-0.175	0.315
-465.143	-200.000	0.046	0.210
-464.128	-200.000	0.030	-0.219
-463.113	-132.383	0.199	0.026
-462.099	-71.977	-0.289	-0.107
-461.084	11.830	-0.260	0.199
-460.070	52.325	0.080	0.076
-459.055	800.000	0.020	-0.061
-458.040	-71.530	0.321	0.119
-457.026	-9.627	-0.245	-0.162
-456.011	348.756	0.150	0.294
-454.997	-200.000	0.066	-0.298
-453.982	106.908	-0.110	0.129
-452.968	54.141	-0.095	-0.090
-451.953	233.365	-0.142	0.233
-450.938	194.562	-0.153	-0.231
-449.924	-77.267	0.435	0.150
-448.909	32.091	-0.068	0.058
-447.895	127.804	-0.070	-0.088
-446.880	66.714	-0.029	0.030
-445.865	-200.000	-0.005	0.066
-444.851	95.151	0.212	-0.240
-443.836	-200.000	-0.002	-0.303
-442.822	-118.911	-0.260	-0.045
-441.807	-21.804	0.133	0.081
-440.792	12.597	0.164	-0.126
-439.778	-200.000	0.009	0.169
-438.763	58.791	-0.153	-0.149
-437.749	-69.204	-0.091	0.035
-436.734	-121.643	0.255	0.042
-435.719	-58.300	0.132	-0.057
-434.705	-200.000	0.048	0.398
-433.690	5.092	-0.175	0.128
-432.676	800.000	-0.024	-0.096
-431.661	-100.672	-0.249	-0.061
-430.646	-4.921	-0.189	0.129
-429.632	2.875	-0.076	0.055
-428.617	429.564	0.134	0.287
-427.603	179.972	-0.050	-0.073
-426.588	166.584	0.162	0.227
-425.573	345.399	-0.158	-0.307
-424.559	-175.054	0.045	-0.001
-423.544	122.747	0.011	0.014
-422.530	-200.000	-0.040	0.424
-421.515	100.730	0.052	0.060
-420.500	295.339	-0.115	-0.209
-419.486	-153.789	0.284	-0.019
-418.471	-4.373	0.152	-0.104
-417.457	6.816	0.048	0.035
-416.442	391.129	-0.116	-0.239
-415.428	-114.415	0.202	0.038
-414.413	146.721	-0.123	0.164
-413.398	55.018	0.184	0.177
-412.384	-200.000	0.014	0.357
-411.369	74.018	0.153	0.159
-410.355	44.652	-0.260	0.237
-409.340	-200.000	0.074	-0.332
-408.325	-200.000	0.027	-0.353
-407.311	-200.000	0.013	-0.069
-406.296	-200.000	0.304	0.001
-405.282	800.000	-0.057	0.186
-404.267	770.809	-0.005	-0.014
-403.252	115.258	-0.293	0.355
-402.238	61.937	-0.223	-0.221
-401.223	-65.371	0.377	-0.150
-400.209	50.617	-0.359	0.336
-399.194	21.748	0.401	0.324
-398.179	-200.000	-0.011	-0.327
-397.165	-127.229	-0.095	0.014
-396.150	666.439	-0.134	-0.343
-395.136	-124.159	-0.231	-0.036
-394.121	-93.736	-0.204	-0.056
-393.106	309.852	0.051	-0.094
-392.092	-49.931	0.133	-0.063
-391.077	-200.000	-0.017	-0.139
-390.063	-101.532	-0.263	-0.063
-389.048	-64.773	0.244	-0.098
-388.033	-200.000	0.039	-0.229
-387.019	800.000	0.031	0.123
-386.004	410.305	0.196	-0.411
-384.990	756.417	-0.025	-0.068
-383.975	-108.783	0.552	0.117
-382.960	175.210	-0.052	0.075
-381.946	669.632	-0.063	0.162
-380.931	800.000	0.059	-0.224
-379.917	-16.605	-0.370	0.232
-378.902	-97.206	0.331	-0.086
-377.888	39.025	0.144	-0.127
-376.873	260.354	-0.241	0.413
-375.858	800.000	0.001	0.004
-374.844	52.642	0.147	-0.139
-373.829	557.305	0.089	0.212
-372.815	-82.133	0.350	-0.113
-371.800	-200.000	-0.012	0.480
-370.785	-16.168	0.192	-0.121
-369.771	17.091	-0.147	-0.115
-368.756	-18.311	-0.266	-0.165
-367.742	67.635	-0.168	-0.170
-366.727	668.388	0.165	-0.422
-365.712	-114.676	-0.146	0.028
-364.698	-46.634	0.161	-0.078
-363.683	392.619	0.040	-0.082
-362.669	561.839	0.016	0.038
-361.654	675.333	-0.036	-0.094
-360.639	79.887	0.072	0.077
-359.625	-19.056	-0.314	0.193
-358.610	-19.159	-0.179	-0.110
-357.596	334.315	-0.079	-0.152
-356.581	308.275	-0.155	-0.287
-355.566	-23.532	0.243	-0.144
-354.552	-174.502	-0.299	0.008
-353.537	-200.000	0.042	-0.275
-352.523	-194.810	-0.211	-0.002
-351.508	-77.746	0.208	-0.071
-350.493	76.355	-0.032	0.034
-349.479	-78.213	-0.099	-0.034
-348.464	248.017	-0.246	0.412
-347.450	-31.086	-0.169	-0.094
-346.435	-158.449	-0.280	0.016
-345.420	-135.150	0.252	0.030
-344.406	163.865	0.121	-0.169
-343.391	748.781	-0.028	0.075
-342.377	-48.866	0.127	0.060
-341.362	800.000	-0.062	0.256
-340.348	170.764	-0.026	-0.037
-339.333	-100.300	-0.186	0.046
-338.318	800.000	0.027	0.101
-337.304	530.770	0.079	-0.184
-336.289	360.588	-0.178	-0.353
-335.275	-142.978	0.287	-0.028
-334.260	-67.366	0.174	-0.067
-333.245	-23.953	0.132	0.078
-332.231	-97.908	-0.051	-0.013
-331.216	65.948	-0.160	-0.160
-330.202	-200.000	0.003	0.191
-329.187	16.693	-0.075	0.058
-328.172	-140.727	0.079	0.008
-327.158	19.532	0.184	0.146
-326.143	-104.031	-0.171	-0.039
-325.129	-160.522	0.393	0.021
-324.114	46.682	0.141	-0.130
-323.099	135.188	0.031	-0.040
-322.085	20.783	0.203	-0.162
-321.070	800.000	0.041	-0.164
-320.056	-96.300	-0.245	-0.064
-319.041	275.519	-0.133	0.234
-318.026	12.380	0.204	-0.155
-317.012	-121.830	0.159	-0.026
-315.997	-8.510	0.264	0.175
-314.983	113.745	-0.230	-0.276
-313.968	730.461	0.054	-0.143
-312.953	800.000	0.029	-0.109
-311.939	53.520	0.148	-0.141
-310.924	104.175	-0.132	0.154
-309.910	800.000	0.190	-0.539
-308.895	-67.382	0.393	-0.153
-307.880	800.000	0.018	0.058
-306.866	-29.872	0.091	-0.051
-305.851	237.061	0.065	-0.106
-304.837	199.234	-0.087	-0.132
-303.822	-168.434	-0.314	-0.012
-302.807	340.555	-0.098	-0.189
-301.793	22.372	-0.256	0.206
-300.778	-15.024	0.386	-0.244
-299.764	-82.600	-0.572	0.183
-298.749	82.716	0.184	-0.197
-297.735	800.000	-0.073	-0.279
-296.720	-70.196	0.443	0.166
-295.705	-82.583	-0.039	0.012
-294.691	365.145	0.185	-0.368
-293.676	73.078	0.219	-0.226
-292.662	-2.926	-0.091	0.063
-291.647	-75.079	-0.241	-0.085
-290.632	115.616	-0.227	0.274
-289.618	800.000	0.032	0.114
-288.603	-30.357	-0.091	0.051
-287.589	-125.859	0.451	-0.067
-286.574	800.000	-0.040	0.125
-285.559	800.000	-0.163	-0.521
-284.545	-135.026	-0.243	-0.029
-283.530	202.303	0.089	0.136
-282.516	800.000	0.084	0.337
-281.501	12.386	-0.144	-0.109
-280.486	-115.522	-0.312	-0.058
-279.472	-188.518	0.374	-0.005
-278.457	188.192	0.085	0.126
-277.443	-8.449	0.190	-0.126
-276.428	128.745	0.266	0.334
-275.413	552.208	0.013	-0.030
-274.399	-200.000	0.028	-0.200
-273.384	0.419	0.163	0.115
-272.370	260.843	-0.128	0.218
-271.355	386.566	-0.154	0.313
-270.340	-153.514	0.237	0.016
-269.326	439.402	-0.126	-0.271
-268.311	90.986	-0.020	0.022
-267.297	800.000	-0.065	0.187
-266.282	270.453	-0.051	0.088
-265.267	-200.000	-0.009	0.150
-264.253	153.974	0.050	0.068
-263.238	-108.210	0.388	0.083
-262.224	-31.196	-0.149	0.083
-261.209	177.668	-0.147	0.212
-260.195	-133.918	-0.126	0.015
-259.180	-200.000	-0.083	-0.448
-258.165	-84.240	-0.251	-0.078
-257.151	-158.255	-0.287	0.016
-256.136	540.497	0.013	-0.031
-255.122	514.971	0.092	-0.213
-254.107	404.982	0.039	0.080
-253.092	283.613	-0.132	0.233
-252.078	-119.705	0.317	-0.054
-251.063	-200.000	-0.038	-0.178
-250.049	-48.939	-0.102	0.048
-249.034	800.000	-0.025	-0.101
-248.019	800.000	0.042	0.162
-247.005	-200.000	-0.023	0.129
-245.990	-109.350	-0.284	-0.059
-244.976	-72.427	-0.405	0.148
-243.961	-129.851	-0.077	-0.010
-242.946	298.949	-0.071	0.128
-241.932	-181.408	-0.056	-0.001
-240.917	-60.863	-0.098	0.041
-239.903	-96.104	-0.084	-0.022
-238.888	800.000	-0.062	-0.184
-237.873	-200.000	-0.035	-0.167
-236.859	206.095	0.087	-0.133
-235.844	-200.000	0.177	-0.001
-234.830	405.435	0.047	0.098
-233.815	-46.123	0.176	-0.085
-232.800	190.922	-0.112	0.165
-231.786	-97.255	-0.192	-0.049
-230.771	-200.000	-0.025	0.236
-229.757	2.497	0.244	-0.174
-228.742	-41.024	0.098	-0.050
-227.727	110.485	-0.155	-0.184
-226.713	-129.084	0.082	0.011
-225.698	800.000	0.099	0.280
-224.684	-113.524	0.174	0.033
-223.669	-51.984	-0.173	0.079
-222.655	-93.009	0.215	-0.059
-221.640	197.135	-0.078	0.117
-220.625	-145.747	0.378	0.033
-219.611	-84.892	-0.177	-0.055
-218.596	474.821	0.144	0.320
-217.582	-106.625	-0.285	0.062
-216.567	-200.000	-0.036	-0.160
-215.552	800.000	-0.107	0.438
-214.538	800.000	-0.013	-0.043
-213.523	287.380	0.082	0.146
-212.509	-200.000	0.015	0.417
-211.494	-200.000	-0.025	-0.350
-210.479	77.341	-0.238	-0.249
-209.465	-95.673	0.309	0.081
-208.450	83.402	0.136	0.146
-207.436	-200.000	-0.014	-0.082
-206.421	307.937	-0.046	0.084
-205.406	-200.000	0.037	0.168
-204.392	233.752	0.060	-0.097
-203.377	-82.467	-0.088	-0.028
-202.363	-200.000	-0.114	0.536
-201.348	243.485	-0.023	0.038
-200.333	-61.935	0.122	-0.050
-199.319	17.410	-0.021	-0.016
-198.304	800.000	-0.095	0.346
-197.290	-200.000	-0.015	0.135
-196.275	800.000	0.043	0.127
-195.260	-200.000	-0.010	-0.273
-194.246	178.415	0.078	-0.111
-193.231	277.781	0.108	0.189
-192.217	-102.987	-0.090	-0.021
-191.202	-200.000	-0.041	0.280
-190.187	-41.363	-0.159	0.080
-189.173	-14.716	-0.173	0.109
-188.158	733.049	0.018	-0.048
-187.144	-88.531	-0.210	-0.061
-186.129	-92.994	-0.133	-0.036
-185.114	-200.000	-0.010	0.305
-184.100	-200.000	0.016	0.355
-183.085	-34.529	-0.151	0.081
-182.071	-125.541	-0.194	-0.029
-181.056	418.887	-0.084	0.176
-180.042	266.187	-0.079	0.135
-179.027	-130.462	0.185	-0.025
-178.012	-3.104	0.055	-0.038
-176.998	251.935	0.079	0.132
-175.983	-28.645	-0.172	-0.097
-174.969	-84.235	0.281	0.088
-173.954	800.000	-0.065	0.199
-172.939	-200.000	0.011	0.359
-171.925	654.934	-0.141	-0.355
-170.910	-50.599	-0.255	0.118
-169.896	-83.351	-0.047	0.015
-168.881	19.775	-0.020	-0.016
-167.866	719.687	0.050	0.132
-166.852	-72.008	0.093	-0.034
-165.837	58.526	-0.154	0.149
-164.823	81.133	0.060	0.064
-163.808	800.000	0.078	0.225
-162.793	131.203	-0.040	-0.050
-161.779	-200.000	-0.013	-0.144
-160.764	-166.720	0.295	0.012
-159.750	-18.958	-0.079	0.048
-158.735	-110.864	-0.053	0.011
-157.720	2.657	-0.012	-0.008
-156.706	-36.348	0.212	-0.112
-155.691	343.146	0.080	0.154
-154.677	800.000	0.041	0.116
-153.662	75.280	0.032	-0.033
-152.647	17.354	0.128	0.099
-151.633	62.911	0.196	0.193
-150.618	-200.000	0.064	-0.290
-149.604	-163.018	-0.178	-0.008
-148.589	124.352	0.113	-0.139
-147.574	-200.000	0.012	-0.216
-146.560	800.000	0.062	-0.220
-145.545	471.635	-0.077	0.170
-144.531	45.048	0.229	-0.207
-143.516	800.000	0.160	0.449
-142.502	-125.076	0.157	-0.024
-141.487	-7.056	-0.150	0.100
-140.472	564.282	0.089	-0.212
-139.458	80.241	-0.199	-0.210
-138.443	-159.777	0.405	-0.022
-137.429	-124.227	-0.111	-0.017
-136.414	80.144	-0.075	-0.079
-135.399	61.590	0.225	0.220
-134.385	43.474	-0.031	-0.028
-133.370	-200.000	-0.015	0.217
-132.356	-43.189	0.132	0.066
-131.341	91.654	0.216	-0.239
-130.326	-80.872	-0.209	0.068
-129.312	-79.010	-0.454	0.151
-128.297	-68.376	0.144	-0.055
-127.283	-50.188	-0.156	0.072
-126.268	800.000	0.070	0.232
-125.253	-200.000	0.093	0.493
-124.239	-136.282	0.254	0.029
-123.224	98.342	-0.240	-0.271
-122.210	-155.473	-0.227	0.014
-121.195	168.742	0.244	-0.341
