DTS Sentinel unit serial number:	SN413079Multiplexer serial number:	ORYXHardware model number:	OX4-SRSoftware version number:	ORYX F/W v4.00 Oryx Data Collector v3.7.2.0data status	okinstallation	princeton_trtdifferential loss correction	single-endedforward channel	channel 1reverse channel	N/Adate	2019/09/11time	18:52:11forward acquisition time	60.00reverse acquisition time	0.00gamma	496.2192k internal	0.2291k external	0.2291temperature offset calibration	1.0013default loss term (dB/km)	0.3790temperature slope calibration	1.0000multiplexer offset coefficient	1.0000multiplexer slope coefficient	1.0000fibre end	0.00T internal ref (°C)	42.80T ext. ref 1 (°C)	1.26T ext. ref 2 (°C)	35.09length (m)	temperature (°C)	Stokes	anti-Stokes-747.200	-200.000	-0.008	0.052
-746.185	800.000	0.097	0.392
-745.171	-162.653	-0.172	-0.009
-744.156	-106.732	-0.235	0.054
-743.142	-107.373	0.335	0.075
-742.127	-81.846	-0.283	0.095
-741.112	-134.027	-0.278	0.035
-740.098	-60.379	-0.203	0.088
-739.083	-61.103	-0.143	0.062
-738.069	642.455	-0.139	0.363
-737.054	-93.933	0.140	-0.039
-736.039	-119.018	0.107	-0.019
-735.025	-200.000	0.005	0.102
-734.010	-87.223	-0.150	0.047
-732.996	34.081	0.067	-0.060
-731.981	-7.840	-0.123	-0.085
-730.966	161.813	-0.127	0.181
-729.952	800.000	-0.024	-0.090
-728.937	-63.658	0.160	-0.067
-727.923	-41.641	-0.037	0.019
-726.908	-82.317	-0.340	0.113
-725.894	177.670	0.260	-0.388
-724.879	287.823	0.212	-0.392
-723.864	0.087	-0.207	0.151
-722.850	669.482	-0.074	0.195
-721.835	139.219	0.118	-0.159
-720.821	51.330	-0.252	-0.245
-719.806	800.000	0.124	0.395
-718.791	-200.000	0.017	-0.091
-717.777	-104.001	-0.405	0.096
-716.762	-200.000	0.008	-0.189
-715.748	800.000	0.012	-0.053
-714.733	-200.000	0.020	0.222
-713.718	229.963	0.182	0.304
-712.704	-65.278	0.149	0.061
-711.689	-138.305	-0.506	0.057
-710.675	800.000	-0.118	0.369
-709.660	-129.900	-0.316	0.044
-708.645	-144.317	-0.129	0.012
-707.631	59.544	-0.050	-0.050
-706.616	-99.959	0.127	-0.032
-705.602	-143.545	0.078	0.008
-704.587	-84.022	0.031	-0.010
-703.572	154.003	0.189	-0.266
-702.558	-200.000	-0.053	-0.376
-701.543	-91.080	0.168	-0.049
-700.529	754.553	-0.052	-0.143
-699.514	-200.000	-0.009	-0.242
-698.499	56.660	-0.130	-0.129
-697.485	-9.826	-0.131	0.089
-696.470	-89.612	0.214	-0.064
-695.456	1.304	-0.100	-0.073
-694.441	-106.133	-0.347	-0.080
-693.426	-37.440	0.169	-0.092
-692.412	59.839	-0.174	-0.175
-691.397	800.000	-0.067	-0.213
-690.383	-56.849	-0.051	0.023
-689.368	800.000	0.048	0.156
-688.354	-150.457	-0.198	0.016
-687.339	65.327	-0.243	-0.251
-686.324	135.707	0.149	-0.198
-685.310	-40.421	0.264	0.140
-684.295	637.681	-0.054	0.141
-683.281	-200.000	0.001	0.254
-682.266	56.028	-0.146	-0.145
-681.251	-200.000	-0.038	0.244
-680.237	-146.190	0.119	0.011
-679.222	464.409	-0.028	-0.064
-678.208	215.387	-0.138	0.223
-677.193	68.204	-0.035	-0.037
-676.178	-34.909	-0.298	-0.166
-675.164	-200.000	-0.262	0.001
-674.149	800.000	0.100	0.320
-673.135	-200.000	-0.009	0.106
-672.120	-48.250	0.249	0.123
-671.105	-200.000	-0.410	0.001
-670.091	-12.903	0.254	0.169
-669.076	46.486	-0.364	-0.345
-668.062	-200.000	0.011	-0.269
-667.047	-127.069	0.337	-0.050
-666.032	48.745	-0.144	0.138
-665.018	-89.115	-0.058	0.017
-664.003	51.691	0.043	0.042
-662.989	-200.000	-0.044	0.239
-661.974	800.000	0.081	-0.242
-660.959	183.820	-0.156	-0.235
-659.945	134.629	0.042	0.056
-658.930	-200.000	-0.002	0.096
-657.916	-178.939	-0.240	-0.006
-656.901	-200.000	0.028	-0.159
-655.886	-37.872	-0.200	0.108
-654.872	85.308	-0.215	-0.241
-653.857	46.034	0.214	-0.202
-652.843	-100.861	0.129	0.032
-651.828	-71.721	-0.080	0.030
-650.814	-6.590	0.268	-0.187
-649.799	216.765	-0.104	-0.168
-648.784	-41.028	0.044	-0.023
-647.770	41.917	0.054	-0.050
-646.755	48.597	0.289	-0.276
-645.741	-121.066	0.478	-0.082
-644.726	-200.000	-0.008	-0.272
-643.711	427.135	0.040	0.087
-642.697	-163.128	0.180	-0.009
-641.682	121.840	-0.167	0.213
-640.668	-200.000	0.043	-0.228
-639.653	-59.154	0.095	0.042
-638.638	800.000	0.064	0.214
-637.624	-40.852	0.019	0.010
-636.609	-35.153	-0.291	0.161
-635.595	-91.145	0.213	0.062
-634.580	678.454	-0.076	-0.202
-633.565	10.870	-0.327	0.254
-632.551	-200.000	-0.061	-0.476
-631.536	283.845	-0.060	-0.110
-630.522	-114.124	0.236	0.047
-629.507	12.015	0.135	-0.106
-628.492	-10.276	-0.221	-0.149
-627.478	-200.000	-0.025	0.266
-626.463	-84.183	-0.078	0.025
-625.449	-45.899	0.156	-0.078
-624.434	354.827	-0.084	-0.169
-623.419	-200.000	0.026	0.180
-622.405	117.200	-0.217	0.272
-621.390	38.548	-0.249	0.227
-620.376	-200.000	-0.033	-0.202
-619.361	233.434	0.105	-0.176
-618.346	-91.720	0.203	-0.059
-617.332	367.218	-0.226	-0.464
-616.317	380.862	-0.103	0.215
-615.303	-93.919	0.096	-0.027
-614.288	800.000	-0.026	0.082
-613.273	-41.010	0.026	0.014
-612.259	-173.578	-0.100	-0.003
-611.244	-17.392	-0.196	0.126
-610.230	-0.635	0.116	-0.084
-609.215	-32.721	-0.237	0.134
-608.201	366.356	0.124	0.254
-607.186	640.409	0.051	0.132
-606.171	-127.908	-0.185	-0.027
-605.157	-161.730	0.195	-0.010
-604.142	477.070	0.170	-0.391
-603.128	-124.365	-0.101	0.016
-602.113	800.000	-0.040	-0.135
-601.098	-67.479	0.434	-0.173
-600.084	70.947	-0.170	-0.179
-599.069	800.000	-0.069	-0.228
-598.055	-73.417	-0.405	-0.151
-597.040	93.385	-0.258	-0.298
-596.025	-200.000	-0.044	-0.250
-595.011	-15.256	0.240	-0.156
-593.996	-200.000	-0.050	-0.235
-592.982	-200.000	0.005	0.147
-591.967	-139.453	0.244	0.027
-590.952	-111.670	-0.146	-0.030
-589.938	-200.000	0.026	0.158
-588.923	-200.000	-0.013	-0.233
-587.909	-181.373	0.124	-0.002
-586.894	-167.282	-0.191	0.008
-585.879	800.000	-0.049	-0.153
-584.865	34.672	-0.087	-0.077
-583.850	29.984	0.242	0.210
-582.836	431.518	-0.077	0.170
-581.821	-115.268	-0.237	-0.046
-580.806	-65.788	-0.436	-0.178
-579.792	96.544	-0.028	0.033
-578.777	71.658	0.163	0.172
-577.763	87.699	0.234	-0.263
-576.748	47.575	-0.193	-0.183
-575.733	-49.109	-0.219	-0.107
-574.719	156.611	0.107	0.150
-573.704	-200.000	0.059	-0.402
-572.690	-139.103	-0.316	0.035
-571.675	372.047	-0.081	0.167
-570.661	106.226	-0.028	-0.034
-569.646	-103.282	0.211	-0.051
-568.631	800.000	-0.052	0.216
-567.617	-200.000	-0.026	0.418
-566.602	800.000	-0.060	-0.190
-565.588	-110.541	-0.166	-0.035
-564.573	-200.000	-0.016	-0.187
-563.558	-154.398	0.330	-0.023
-562.544	800.000	-0.061	-0.246
-561.529	113.827	-0.246	0.304
-560.515	800.000	-0.102	-0.302
-559.500	45.048	0.149	-0.139
-558.485	-200.000	-0.015	-0.139
-557.471	-200.000	-0.022	-0.182
-556.456	278.538	-0.188	-0.341
-555.442	-200.000	0.034	0.187
-554.427	-200.000	0.013	0.113
-553.412	175.120	-0.131	0.192
-552.398	202.290	0.033	-0.051
-551.383	-102.384	0.357	-0.087
-550.369	-200.000	0.026	-0.191
-549.354	106.154	0.214	-0.257
-548.339	760.568	0.195	0.536
-547.325	-200.000	0.027	-0.134
-546.310	194.131	0.118	-0.182
-545.296	227.681	0.060	0.099
-544.281	-41.944	-0.097	-0.050
-543.266	800.000	-0.031	-0.130
-542.252	-16.311	0.200	0.129
-541.237	-90.337	-0.201	-0.059
-540.223	800.000	-0.048	-0.142
-539.208	134.237	0.144	0.189
-538.193	-5.427	0.225	0.157
-537.179	102.162	0.039	0.047
-536.164	800.000	-0.087	-0.275
-535.150	-58.940	0.206	0.090
-534.135	96.220	-0.055	-0.064
-533.121	-17.548	-0.194	-0.124
-532.106	800.000	0.037	0.105
-531.091	336.636	-0.167	0.329
-530.077	30.743	0.107	-0.093
-529.062	800.000	0.060	0.220
-528.048	-71.407	-0.220	-0.084
-527.033	-200.000	0.027	-0.692
-526.018	-143.678	0.142	-0.014
-525.004	50.779	-0.045	0.043
-523.989	-104.701	-0.172	0.040
-522.975	-168.523	0.098	-0.004
-521.960	62.273	-0.224	0.227
-520.945	-200.000	0.062	0.340
-519.931	269.809	0.025	0.045
-518.916	-68.557	-0.135	0.053
-517.902	51.125	0.510	-0.491
-516.887	800.000	0.067	-0.193
-515.872	-200.000	-0.011	0.103
-514.858	-51.731	0.094	0.045
-513.843	51.712	0.077	-0.074
-512.829	337.187	0.120	-0.236
-511.814	-26.010	-0.140	-0.084
-510.799	445.146	-0.059	-0.130
-509.785	-200.000	-0.017	-0.127
-508.770	-178.991	0.353	0.008
-507.756	6.550	-0.187	-0.141
-506.741	-200.000	-0.033	0.157
-505.726	280.662	-0.019	-0.034
-504.712	-29.344	0.239	-0.139
-503.697	638.804	0.056	0.146
-502.683	47.985	0.282	0.267
-501.668	-200.000	-0.061	0.346
-500.653	-71.211	0.127	0.048
-499.639	252.382	-0.198	-0.342
-498.624	253.652	-0.027	0.048
-497.610	19.664	0.033	0.027
-496.595	38.492	-0.086	-0.077
-495.581	46.519	-0.117	-0.110
-494.566	304.193	0.128	-0.241
-493.551	-26.386	-0.148	-0.088
-492.537	3.870	-0.223	-0.165
-491.522	-200.000	0.026	-0.164
-490.508	181.431	-0.071	-0.106
-489.493	800.000	0.059	-0.255
-488.478	79.767	-0.190	-0.207
-487.464	-88.359	-0.129	-0.039
-486.449	74.038	-0.312	-0.332
-485.435	-177.523	-0.536	-0.013
-484.420	327.461	-0.052	0.100
-483.405	-77.977	-0.109	0.038
-482.391	800.000	-0.079	0.333
-481.376	-1.582	0.320	-0.229
-480.362	-149.625	-0.263	-0.021
-479.347	30.120	0.107	-0.093
-478.332	-200.000	0.008	-0.204
-477.318	-200.000	0.010	-0.093
-476.303	233.948	0.033	0.055
-475.289	343.276	0.076	0.151
-474.274	-98.192	-0.196	-0.051
-473.259	-13.124	0.076	-0.050
-472.245	800.000	0.041	0.180
-471.230	-164.730	-0.084	0.004
-470.216	114.465	-0.267	0.329
-469.201	56.408	-0.074	-0.072
-468.186	-99.452	0.145	-0.037
-467.172	48.429	-0.281	0.266
-466.157	282.175	-0.093	0.169
-465.143	-76.248	0.189	-0.068
-464.128	533.573	-0.044	-0.106
-463.113	-43.482	-0.334	0.171
-462.099	-82.680	-0.244	-0.080
-461.084	260.942	-0.054	-0.094
-460.070	-7.687	0.052	-0.036
-459.055	22.981	-0.176	0.146
-458.040	54.714	-0.048	0.047
-457.026	800.000	0.134	0.463
-456.011	97.329	-0.053	0.062
-454.997	-200.000	0.262	0.000
-453.982	-200.000	0.071	-0.494
-452.968	252.337	-0.023	-0.040
-451.953	-200.000	0.029	-0.321
-450.938	-200.000	0.004	0.372
-449.924	-109.259	0.049	0.011
-448.909	52.502	-0.107	0.103
-447.895	-175.508	0.268	-0.007
-446.880	178.831	0.224	0.332
-445.865	800.000	0.076	0.222
-444.851	-4.077	0.107	0.075
-443.836	-97.084	0.064	-0.017
-442.822	525.343	0.136	-0.324
-441.807	-52.270	-0.072	0.034
-440.792	-87.254	-0.269	0.083
-439.778	121.388	0.137	0.173
-438.763	-38.133	0.235	0.126
-437.749	-140.637	0.192	0.020
-436.734	-23.460	-0.129	-0.078
-435.719	-106.160	-0.351	0.080
-434.705	148.304	-0.212	-0.290
-433.690	261.690	-0.112	-0.196
-432.676	-137.728	-0.178	0.020
-431.661	-97.687	0.391	0.103
-430.646	-132.244	-0.375	-0.049
-429.632	-83.878	0.115	-0.037
-428.617	-159.952	0.095	-0.005
-427.603	-108.206	-0.163	0.036
-426.588	-54.027	0.140	0.064
-425.573	-32.016	0.516	0.292
-424.559	100.569	0.052	-0.061
-423.544	-75.885	-0.434	-0.155
-422.530	-141.945	0.288	-0.029
-421.515	-200.000	0.012	-0.076
-420.500	-126.894	0.315	-0.047
-419.486	656.164	0.046	-0.119
-418.471	36.391	-0.291	0.259
-417.457	-131.752	-0.095	-0.013
-416.442	-76.976	0.160	-0.057
-415.428	-98.780	-0.226	0.058
-414.413	-53.270	0.316	-0.147
-413.398	-6.500	0.037	-0.026
-412.384	-55.015	0.121	-0.055
-411.369	-200.000	-0.029	-0.264
-410.355	-124.300	-0.244	-0.039
-409.340	-129.403	-0.212	0.030
-408.325	800.000	-0.053	-0.226
-407.311	111.069	0.097	0.118
-406.296	-172.353	-0.294	0.009
-405.282	800.000	0.065	0.222
-404.267	-59.995	-0.114	-0.049
-403.252	-200.000	0.012	-0.076
-402.238	234.507	0.115	-0.192
-401.223	800.000	0.082	0.354
-400.209	-69.813	-0.061	-0.023
-399.194	188.128	0.141	0.212
-398.179	-76.462	-0.052	-0.019
-397.165	136.636	-0.148	0.195
-396.150	204.361	0.120	0.187
-395.136	75.470	-0.158	0.169
-394.121	-200.000	-0.009	0.126
-393.106	-61.911	-0.298	-0.126
-392.092	-95.183	-0.177	0.048
-391.077	359.117	-0.194	0.391
-390.063	-200.000	0.047	0.207
-389.048	-30.241	-0.098	0.057
-388.033	425.789	-0.128	0.278
-387.019	-150.351	-0.208	-0.016
-386.004	-200.000	-0.006	-0.038
-384.990	-46.022	0.125	-0.062
-383.975	-103.154	-0.352	-0.084
-382.960	101.789	-0.150	0.177
-381.946	-81.118	-0.124	0.041
-380.931	1.399	-0.063	-0.046
-379.917	-53.639	0.259	0.119
-378.902	636.165	-0.082	0.209
-377.888	-82.225	-0.085	0.028
-376.873	800.000	0.036	-0.128
-375.858	-68.680	0.088	-0.034
-374.844	336.219	0.053	-0.103
-373.829	-200.000	0.012	-0.394
-372.815	119.210	0.143	-0.178
-371.800	800.000	-0.090	0.286
-370.785	-175.047	-0.088	-0.002
-369.771	60.913	0.071	0.071
-368.756	800.000	-0.044	-0.163
-367.742	689.011	0.037	0.099
-366.727	-4.386	0.079	-0.055
-365.712	-112.469	0.221	-0.045
-364.698	17.601	0.110	0.088
-363.683	244.026	0.128	0.216
-362.669	-200.000	-0.022	-0.098
-361.654	-52.846	0.263	0.122
-360.639	-38.142	0.240	-0.128
-359.625	-200.000	0.020	0.171
-358.610	-135.707	0.094	-0.011
-357.596	800.000	-0.078	0.323
-356.581	165.164	0.105	0.150
-355.566	-29.017	0.220	-0.127
-354.552	-129.312	-0.235	-0.033
-353.537	-112.012	0.301	0.061
-352.523	75.295	0.288	0.306
-351.508	459.689	-0.092	0.206
-350.493	-66.420	-0.038	0.015
-349.479	-200.000	0.119	0.534
-348.464	-28.223	0.028	0.017
-347.450	-114.960	-0.172	0.033
-346.435	271.152	0.147	-0.261
-345.420	45.931	0.123	0.114
-344.406	86.430	0.087	0.097
-343.391	41.836	0.072	-0.066
-342.377	-200.000	0.034	-0.265
-341.362	-170.778	-0.097	0.003
-340.348	-200.000	0.029	0.131
-339.333	-51.296	-0.058	-0.028
-338.318	62.514	-0.102	-0.102
-337.304	-98.524	0.225	-0.058
-336.289	284.548	-0.184	-0.333
-335.275	-23.808	0.058	-0.035
-334.260	34.675	0.131	0.115
-333.245	33.535	0.288	-0.252
-332.231	4.651	-0.370	0.274
-331.216	-122.653	0.113	-0.018
-330.202	498.773	0.052	-0.122
-329.187	-200.000	0.006	-0.272
-328.172	-200.000	-0.007	0.072
-327.158	219.402	0.213	0.343
-326.143	-47.747	-0.131	-0.064
-325.129	4.629	0.302	-0.223
-324.114	57.789	-0.107	0.106
-323.099	10.324	-0.161	-0.123
-322.085	-41.029	-0.239	0.125
-321.070	161.076	0.100	-0.140
-320.056	-140.425	-0.352	0.037
-319.041	-200.000	-0.036	-0.165
-318.026	-200.000	0.046	0.209
-317.012	-200.000	0.003	0.057
-315.997	212.293	0.073	-0.116
-314.983	-9.598	-0.077	-0.051
-313.968	22.971	0.097	0.080
-312.953	-3.975	0.162	-0.113
-311.939	-44.805	0.401	0.202
-310.924	-11.777	-0.038	0.025
-309.910	99.978	0.041	-0.048
-308.895	71.140	0.175	0.183
-307.880	130.212	0.185	-0.238
-306.866	64.800	0.160	-0.163
-305.851	392.795	-0.152	-0.319
-304.837	800.000	-0.054	-0.187
-303.822	-139.673	0.287	-0.031
-302.807	-200.000	-0.009	-0.148
-301.793	129.872	-0.094	0.121
-300.778	29.849	0.094	-0.080
-299.764	800.000	-0.036	0.148
-298.749	800.000	-0.094	0.268
-297.735	-91.077	-0.367	-0.106
-296.720	40.457	-0.100	0.090
-295.705	-200.000	0.007	-0.217
-294.691	-119.218	0.160	0.028
-293.676	124.405	-0.105	-0.132
-292.662	-200.000	0.046	0.230
-291.647	800.000	-0.019	-0.079
-290.632	800.000	0.073	-0.238
-289.618	800.000	-0.022	0.076
-288.603	-200.000	-0.004	-0.341
-287.589	136.552	-0.155	-0.204
-286.574	282.650	-0.107	0.192
-285.559	-97.047	0.334	0.088
-284.545	-105.085	0.272	-0.063
-283.530	-148.484	-0.144	-0.012
-282.516	-200.000	-0.029	0.147
-281.501	343.594	-0.125	0.246
-280.486	34.223	0.043	0.038
-279.472	70.869	-0.071	-0.074
-278.457	-200.000	0.014	0.337
-277.443	-200.000	0.010	-0.098
-276.428	-200.000	0.019	-0.114
-275.413	8.903	0.322	0.244
-274.399	-181.110	-0.172	-0.003
-273.384	-164.012	0.209	-0.010
-272.370	119.205	-0.149	-0.185
-271.355	6.783	0.122	-0.091
-270.340	192.807	0.178	-0.270
-269.326	-200.000	0.020	0.154
-268.311	120.622	0.255	-0.319
-267.297	800.000	0.056	0.176
-266.282	-50.405	0.051	-0.024
-265.267	187.961	-0.163	-0.245
-264.253	409.387	0.084	-0.180
-263.238	20.567	0.135	-0.110
-262.224	287.713	0.114	-0.207
-261.209	515.513	0.060	0.140
-260.195	-200.000	0.001	0.226
-259.180	-200.000	-0.046	0.313
-258.165	539.039	0.025	-0.060
-257.151	0.907	-0.130	0.094
-256.136	133.915	0.062	0.081
-255.122	-200.000	-0.004	0.051
-254.107	411.597	0.088	0.187
-253.092	-116.917	0.113	-0.021
-252.078	111.834	-0.022	0.027
-251.063	-200.000	-0.004	-0.166
-250.049	-200.000	0.010	0.122
-249.034	-141.937	0.070	0.007
-248.019	-7.991	-0.152	0.103
-247.005	800.000	-0.047	0.158
-245.990	-200.000	0.035	0.275
-244.976	-200.000	0.051	-0.280
-243.961	800.000	-0.105	0.343
-242.946	-36.136	-0.061	0.033
-241.932	-114.955	0.025	0.005
-240.917	-54.320	-0.280	-0.128
-239.903	-40.972	-0.316	-0.164
-238.888	800.000	-0.065	0.260
-237.873	489.275	-0.131	0.300
-236.859	-163.655	-0.268	0.013
-235.844	-144.714	-0.174	-0.016
-234.830	35.977	-0.051	-0.045
-233.815	-200.000	-0.021	-0.140
-232.800	-114.788	0.116	-0.022
-231.786	575.053	0.008	-0.019
-230.771	800.000	-0.093	0.301
-229.757	800.000	-0.085	0.361
-228.742	-200.000	0.042	0.363
-227.727	680.776	0.087	0.228
-226.713	88.070	-0.132	0.147
-225.698	68.837	-0.198	-0.204
-224.684	46.720	0.053	-0.050
-223.669	26.198	0.143	0.120
-222.655	124.598	-0.014	0.018
-221.640	-49.571	-0.271	0.130
-220.625	23.254	0.186	0.154
-219.611	-200.000	-0.046	0.302
-218.596	-77.363	-0.062	-0.022
-217.582	-200.000	0.050	0.450
-216.567	-200.000	-0.009	0.277
-215.552	193.954	0.077	0.117
-214.538	-80.084	-0.303	0.102
-213.523	-82.396	0.237	-0.077
-212.509	597.164	-0.069	-0.171
-211.494	-43.719	0.284	-0.143
-210.479	-53.616	0.402	0.184
-209.465	-153.451	0.321	-0.022
-208.450	-59.201	0.163	0.071
-207.436	-54.952	-0.098	0.044
-206.421	23.790	-0.198	-0.163
-205.406	-200.000	0.000	-0.332
-204.392	-7.731	0.249	-0.169
-203.377	800.000	0.074	-0.210
-202.363	-55.243	-0.150	-0.067
-201.348	-90.901	-0.375	0.108
-200.333	-110.987	-0.144	0.030
-199.319	392.314	0.123	0.256
-198.304	85.704	0.320	0.352
-197.290	-140.747	-0.153	0.016
-196.275	312.432	0.109	0.206
-195.260	-166.077	-0.177	0.008
-194.246	363.077	0.103	0.208
-193.231	-14.612	-0.313	-0.201
-192.217	-200.000	-0.012	0.118
-191.202	162.791	0.107	-0.151
-190.187	664.331	-0.028	-0.073
-189.173	435.015	-0.114	-0.248
-188.158	50.715	0.114	-0.108
-187.144	56.287	-0.132	-0.128
-186.129	429.642	-0.087	-0.189
-185.114	-200.000	-0.070	-0.441
-184.100	-200.000	0.017	-0.104
-183.085	123.954	-0.146	0.183
-182.071	250.194	0.020	-0.033
-181.056	-200.000	0.008	0.051
-180.042	800.000	0.039	0.119
-179.027	-118.987	-0.438	0.077
-178.012	-58.533	0.031	0.014
-176.998	42.848	0.120	0.109
-175.983	213.204	0.140	0.221
-174.969	120.610	-0.015	0.019
-173.954	-38.849	-0.176	0.093
-172.939	-94.213	0.197	-0.054
-171.925	139.585	0.178	0.235
-170.910	502.467	0.052	-0.120
-169.896	38.212	-0.100	-0.089
-168.881	-84.832	0.207	0.065
-167.866	299.508	-0.071	-0.130
-166.852	281.093	-0.025	0.045
-165.837	-101.641	0.288	-0.070
-164.823	800.000	-0.029	0.121
-163.808	-119.459	-0.221	-0.038
-162.793	-131.380	-0.207	0.027
-161.779	-161.430	-0.148	0.008
-160.764	352.908	-0.049	0.098
-159.750	-61.253	0.194	0.082
-158.735	27.490	0.150	-0.126
-157.720	171.225	-0.123	0.177
-156.706	-29.650	-0.153	0.087
-155.691	-112.037	0.224	0.045
-154.677	-77.206	0.473	0.165
-153.662	367.756	0.098	0.198
-152.647	-84.721	0.213	0.067
-151.633	-200.000	0.054	-0.317
-150.618	-56.220	-0.064	-0.028
-149.604	29.413	-0.080	-0.068
-148.589	-58.553	-0.145	-0.063
-147.574	167.736	0.173	0.246
-146.560	-16.836	-0.422	-0.267
-145.545	69.374	-0.095	-0.098
-144.531	-28.240	0.225	0.130
-143.516	-200.000	0.076	-0.342
-142.502	-40.297	-0.344	-0.179
-141.487	84.080	-0.223	-0.243
-140.472	50.377	0.189	0.178
-139.458	130.991	-0.096	0.123
-138.443	-200.000	-0.013	-0.103
-137.429	-80.876	0.285	0.094
-136.414	-11.191	0.349	-0.230
-135.399	98.677	0.073	0.084
-134.385	169.388	0.124	-0.177
-133.370	750.974	0.037	0.101
-132.356	37.689	0.228	0.202
-131.341	98.963	-0.072	0.083
-130.326	80.578	-0.038	0.041
-129.312	91.938	-0.166	-0.187
-128.297	-101.106	-0.177	-0.043
-127.283	-159.134	-0.185	0.010
-126.268	-122.630	0.352	-0.057
-125.253	358.573	0.125	0.250
-124.239	-200.000	0.020	-0.275
-123.224	786.157	0.042	0.115
-122.210	-176.885	0.269	0.007
-121.195	118.768	-0.096	0.118
