DTS Sentinel unit serial number:	SN413079Multiplexer serial number:	ORYXHardware model number:	OX4-SRSoftware version number:	ORYX F/W v4.00 Oryx Data Collector v3.7.2.0data status	okinstallation	princeton_trtdifferential loss correction	single-endedforward channel	channel 1reverse channel	N/Adate	2019/09/17time	08:58:35forward acquisition time	60.00reverse acquisition time	0.00gamma	496.2192k internal	0.2327k external	0.2327temperature offset calibration	0.9961default loss term (dB/km)	0.3790temperature slope calibration	1.0000multiplexer offset coefficient	1.0000multiplexer slope coefficient	1.0000fibre end	0.00T internal ref (°C)	28.00T ext. ref 1 (°C)	0.13T ext. ref 2 (°C)	24.07length (m)	temperature (°C)	Stokes	anti-Stokes-747.200	-200.000	0.048	-0.223
-746.185	800.000	0.045	0.193
-745.171	182.323	-0.122	-0.181
-744.156	-200.000	0.024	0.222
-743.142	-87.865	-0.279	0.085
-742.127	17.879	0.185	0.149
-741.112	387.246	-0.029	0.060
-740.098	-64.307	0.121	-0.050
-739.083	-200.000	-0.026	-0.136
-738.069	-23.921	-0.166	0.100
-737.054	-81.566	-0.387	-0.128
-736.039	617.578	0.088	-0.223
-735.025	-78.017	0.410	-0.142
-734.010	-200.000	-0.008	-0.136
-732.996	-166.113	-0.352	0.015
-731.981	-133.483	0.145	0.018
-730.966	-65.214	-0.259	-0.105
-729.952	-193.701	0.081	-0.001
-728.937	800.000	0.072	-0.212
-727.923	-105.037	-0.066	0.015
-726.908	-200.000	-0.050	0.223
-725.894	-200.000	-0.036	0.271
-724.879	-108.481	0.100	0.022
-723.864	-48.473	0.212	-0.103
-722.850	149.459	-0.161	0.220
-721.835	-200.000	-0.015	-0.156
-720.821	800.000	-0.137	-0.479
-719.806	-7.641	-0.240	-0.164
-718.791	-128.606	-0.303	0.043
-717.777	147.816	-0.257	0.349
-716.762	-200.000	0.018	-0.250
-715.748	-200.000	0.020	-0.319
-714.733	800.000	0.083	-0.317
-713.718	-2.470	-0.212	-0.150
-712.704	381.148	-0.025	0.051
-711.689	464.977	0.091	-0.205
-710.675	-200.000	0.009	-0.095
-709.660	-14.315	-0.183	-0.119
-708.645	40.808	0.144	0.131
-707.631	-170.685	-0.232	0.008
-706.616	-200.000	-0.004	-0.172
-705.602	-106.803	0.079	0.018
-704.587	-26.144	-0.246	0.145
-703.572	64.822	-0.118	0.119
-702.558	47.567	-0.139	0.130
-701.543	-96.278	-0.133	-0.035
-700.529	-44.600	0.119	-0.060
-699.514	-10.261	-0.108	0.072
-698.499	36.273	0.193	0.172
-697.485	17.170	0.126	0.100
-696.470	3.029	0.188	-0.138
-695.456	-14.096	0.133	0.087
-694.441	-96.004	-0.171	-0.046
-693.426	-4.642	0.213	-0.148
-692.412	-102.329	-0.407	-0.098
-691.397	94.485	0.055	-0.063
-690.383	-150.867	-0.231	-0.018
-689.368	-122.121	0.075	0.012
-688.354	200.973	0.158	-0.245
-687.339	-146.771	-0.380	0.033
-686.324	42.145	0.264	-0.241
-685.310	-133.713	0.282	-0.035
-684.295	57.545	-0.115	0.113
-683.281	-37.944	-0.120	-0.064
-682.266	-152.543	-0.052	0.004
-681.251	800.000	0.079	-0.249
-680.237	19.421	-0.481	-0.389
-679.222	-14.516	-0.147	-0.095
-678.208	-89.892	0.086	0.025
-677.193	-200.000	0.016	0.194
-676.178	731.321	-0.048	-0.128
-675.164	206.749	-0.194	-0.304
-674.149	-200.000	-0.026	0.181
-673.135	800.000	0.144	0.469
-672.120	44.701	-0.120	-0.111
-671.105	-113.716	-0.242	-0.047
-670.091	-200.000	-0.032	0.152
-669.076	-114.309	-0.045	-0.009
-668.062	-200.000	-0.070	-0.458
-667.047	-65.310	-0.063	-0.026
-666.032	800.000	-0.045	-0.143
-665.018	223.871	0.070	-0.113
-664.003	-200.000	-0.044	-0.418
-662.989	-200.000	-0.009	0.139
-661.974	331.698	-0.162	-0.313
-660.959	22.092	0.071	-0.058
-659.945	-98.882	-0.054	-0.014
-658.930	-149.433	-0.353	0.028
-657.916	-122.862	-0.222	-0.036
-656.901	-196.496	0.139	0.001
-655.886	96.776	-0.056	0.064
-654.872	120.636	-0.028	0.035
-653.857	-200.000	0.001	-0.138
-652.843	66.779	-0.276	-0.282
-651.828	-38.535	0.113	0.060
-650.814	724.796	0.161	-0.430
-649.799	710.206	-0.112	-0.299
-648.784	-134.457	-0.208	0.026
-647.770	553.919	0.031	-0.074
-646.755	-127.289	0.257	-0.038
-645.741	-34.863	-0.425	-0.233
-644.726	-171.818	-0.214	0.007
-643.711	-88.679	-0.277	-0.083
-642.697	-45.766	-0.380	0.189
-641.682	35.465	-0.060	-0.053
-640.668	-37.768	0.231	-0.123
-639.653	58.681	0.020	-0.019
-638.638	800.000	-0.094	-0.325
-637.624	144.407	-0.196	0.262
-636.609	-125.934	0.232	0.035
-635.595	148.994	0.063	-0.085
-634.580	-46.355	0.107	0.053
-633.565	800.000	-0.095	0.353
-632.551	-114.687	0.471	0.091
-631.536	-136.858	-0.387	0.045
-630.522	-15.283	0.037	0.024
-629.507	492.808	0.080	-0.184
-628.492	237.933	0.128	0.213
-627.478	108.015	-0.119	0.142
-626.463	100.118	-0.199	-0.231
-625.449	-77.512	0.213	-0.074
-624.434	800.000	0.139	-0.504
-623.419	21.142	0.392	-0.319
-622.405	-200.000	0.002	0.043
-621.390	-84.405	0.417	-0.132
-620.376	-9.353	-0.109	0.073
-619.361	-115.152	0.176	-0.034
-618.346	151.910	-0.135	0.184
-617.332	592.453	-0.041	0.102
-616.317	800.000	-0.080	-0.326
-615.303	-97.852	-0.362	-0.094
-614.288	-94.041	0.084	0.023
-613.273	-86.476	0.305	0.094
-612.259	-0.941	0.076	-0.054
-611.244	58.216	0.033	-0.033
-610.230	755.359	0.021	-0.057
-609.215	-58.859	0.167	-0.073
-608.201	257.680	-0.121	-0.208
-607.186	-126.545	-0.153	-0.023
-606.171	-44.138	-0.102	-0.051
-605.157	-93.301	-0.466	0.130
-604.142	-200.000	-0.019	-0.100
-603.128	-39.001	0.204	0.108
-602.113	64.777	-0.147	0.149
-601.098	401.767	0.098	-0.206
-600.084	-136.201	-0.144	0.017
-599.069	-200.000	-0.050	0.275
-598.055	-118.045	-0.336	-0.060
-597.040	-200.000	0.006	-0.165
-596.025	136.808	-0.158	0.207
-595.011	214.144	0.069	0.110
-593.996	57.227	-0.185	0.181
-592.982	-64.064	-0.115	0.047
-591.967	150.537	0.134	0.182
-590.952	-95.603	-0.421	-0.113
-589.938	275.166	0.130	0.232
-588.923	-200.000	0.111	0.001
-587.909	-200.000	-0.012	-0.232
-586.894	96.498	0.222	-0.254
-585.879	-50.021	-0.200	-0.095
-584.865	-200.000	0.007	-0.151
-583.850	269.081	-0.076	0.133
-582.836	800.000	-0.077	0.268
-581.821	-200.000	0.014	0.330
-580.806	-64.731	-0.290	-0.118
-579.792	800.000	-0.120	-0.388
-578.777	-75.240	-0.125	0.045
-577.763	-177.672	-0.377	-0.009
-576.748	-102.869	-0.260	-0.062
-575.733	-13.823	-0.095	0.061
-574.719	-88.226	0.304	-0.091
-573.704	50.573	-0.120	0.114
-572.690	392.408	-0.075	0.155
-571.675	48.856	0.115	-0.108
-570.661	-128.960	-0.228	-0.032
-569.646	556.822	0.065	0.157
-568.631	-106.584	0.189	0.042
-567.617	-60.605	-0.287	-0.122
-566.602	40.371	-0.047	-0.042
-565.588	-103.439	0.275	-0.065
-564.573	-182.069	-0.152	0.003
-563.558	0.534	0.373	0.267
-562.544	73.724	0.178	0.187
-561.529	800.000	-0.020	-0.069
-560.515	-200.000	-0.021	-0.141
-559.500	-7.639	-0.238	-0.161
-558.485	-112.091	0.162	0.033
-557.471	84.046	0.161	0.176
-556.456	-200.000	0.013	-0.234
-555.442	800.000	0.043	0.151
-554.427	-200.000	-0.035	-0.208
-553.412	219.374	0.096	-0.153
-552.398	-123.567	0.240	-0.038
-551.383	446.531	-0.159	0.351
-550.369	358.723	-0.116	-0.232
-549.354	-58.740	-0.065	0.028
-548.339	364.768	0.080	0.161
-547.325	800.000	-0.073	0.218
-546.310	-99.964	0.142	-0.035
-545.296	170.663	-0.083	-0.119
-544.281	688.697	0.070	-0.183
-543.266	159.180	-0.308	0.429
-542.252	-154.613	0.084	-0.006
-541.237	14.876	-0.254	-0.199
-540.223	144.243	0.301	0.401
-539.208	-111.608	-0.212	0.043
-538.193	800.000	0.020	0.084
-537.179	-200.000	-0.017	0.233
-536.164	-153.791	0.152	0.010
-535.150	23.517	-0.320	0.264
-534.135	14.295	0.262	0.204
-533.121	121.091	0.122	-0.152
-532.106	-140.549	-0.141	-0.015
-531.091	-3.238	0.235	-0.163
-530.077	140.899	-0.154	-0.204
-529.062	359.657	-0.039	0.078
-528.048	127.533	-0.090	0.114
-527.033	-200.000	0.037	-0.260
-526.018	568.504	0.104	-0.252
-525.004	-46.236	0.235	-0.116
-523.989	-110.351	0.105	-0.022
-522.975	590.948	-0.044	0.108
-521.960	-132.312	0.342	-0.044
-520.945	797.013	-0.138	-0.379
-519.931	32.507	-0.271	-0.234
-518.916	112.363	0.278	-0.336
-517.902	-6.526	0.143	0.098
-516.887	-6.945	-0.305	-0.207
-515.872	98.966	-0.148	0.171
-514.858	129.430	-0.202	0.258
-513.843	-200.000	0.065	-0.332
-512.829	123.126	0.046	-0.058
-511.814	-153.183	-0.335	-0.023
-510.799	36.613	0.225	-0.199
-509.785	800.000	-0.064	0.179
-508.770	309.636	0.104	-0.194
-507.756	-47.527	0.259	-0.126
-506.741	235.094	-0.068	-0.112
-505.726	-12.077	-0.367	-0.240
-504.712	-111.016	0.238	-0.049
-503.697	-123.632	0.225	0.036
-502.683	800.000	-0.082	-0.317
-501.668	460.148	-0.103	-0.229
-500.653	-81.385	0.156	-0.051
-499.639	7.679	0.387	-0.289
-498.624	11.292	0.127	-0.097
-497.610	142.020	0.111	0.147
-496.595	51.581	0.207	-0.196
-495.581	-200.000	-0.019	0.408
-494.566	81.873	0.130	0.140
-493.551	800.000	-0.095	0.317
-492.537	800.000	0.019	0.053
-491.522	800.000	0.051	0.165
-490.508	141.563	0.058	0.077
-489.493	-76.280	-0.339	-0.119
-488.478	-128.957	-0.062	-0.009
-487.464	-200.000	0.053	-0.327
-486.449	-100.204	-0.168	0.042
-485.435	10.772	0.181	0.138
-484.420	95.360	0.290	-0.329
-483.405	-19.313	0.229	0.142
-482.391	41.153	0.111	-0.101
-481.376	-28.917	0.057	0.033
-480.362	-22.667	0.012	-0.007
-479.347	-117.812	0.128	0.023
-478.332	-95.374	0.218	0.059
-477.318	-114.887	-0.143	-0.027
-476.303	7.357	0.288	0.215
-475.289	-200.000	0.001	0.256
-474.274	23.502	-0.085	-0.070
-473.259	800.000	-0.146	0.568
-472.245	74.372	0.121	-0.127
-471.230	36.666	0.151	0.133
-470.216	43.510	-0.284	0.259
-469.201	144.781	-0.242	-0.323
-468.186	-47.204	0.294	-0.143
-467.172	-138.459	-0.087	-0.010
-466.157	-75.647	0.503	0.178
-465.143	89.233	0.064	-0.072
-464.128	319.933	-0.032	0.060
-463.113	800.000	-0.067	-0.287
-462.099	800.000	-0.067	0.201
-461.084	-118.479	0.116	0.021
-460.070	436.692	-0.065	0.141
-459.055	5.180	0.302	0.222
-458.040	-161.089	-0.323	0.017
-457.026	-29.054	0.146	-0.084
-456.011	-35.638	-0.195	0.106
-454.997	-200.000	0.004	0.095
-453.982	-72.305	-0.235	-0.087
-452.968	74.393	-0.261	0.274
-451.953	38.195	-0.166	-0.147
-450.938	197.366	-0.073	0.111
-449.924	27.862	0.110	0.092
-448.909	800.000	-0.169	0.527
-447.895	-200.000	0.028	-0.292
-446.880	-3.144	0.184	0.128
-445.865	-144.145	0.125	0.012
-444.851	72.004	-0.141	-0.146
-443.836	-200.000	0.045	0.299
-442.822	-92.166	0.077	-0.022
-441.807	-82.237	0.137	0.044
-440.792	800.000	-0.050	-0.166
-439.778	-200.000	-0.408	0.000
-438.763	64.241	-0.139	0.140
-437.749	29.056	0.219	-0.185
-436.734	204.461	-0.080	0.124
-435.719	13.138	0.139	-0.107
-434.705	-76.049	-0.406	0.143
-433.690	295.496	-0.095	-0.173
-432.676	-21.076	-0.213	-0.130
-431.661	358.685	-0.070	-0.139
-430.646	-146.207	-0.317	-0.028
-429.632	800.000	0.040	0.112
-428.617	-119.360	0.181	0.031
-427.603	329.598	0.117	0.223
-426.588	-200.000	-0.053	0.281
-425.573	-200.000	-0.006	0.399
-424.559	138.456	-0.120	0.157
-423.544	-200.000	0.003	-0.057
-422.530	288.002	0.166	-0.299
-421.515	44.450	0.349	0.319
-420.500	549.539	0.024	0.058
-419.486	-50.033	0.180	-0.085
-418.471	800.000	-0.077	-0.324
-417.457	-200.000	-0.047	-0.313
-416.442	800.000	-0.061	-0.183
-415.428	-200.000	0.016	-0.106
-414.413	-122.366	-0.213	0.035
-413.398	-26.589	0.257	0.150
-412.384	-104.579	0.196	-0.045
-411.369	800.000	0.058	0.213
-410.355	106.046	0.155	0.183
-409.340	-200.000	0.050	0.265
-408.325	-111.003	0.512	0.105
-407.311	7.922	0.136	-0.101
-406.296	-129.921	-0.228	-0.031
-405.282	-200.000	0.002	-0.209
-404.267	110.786	0.037	0.044
-403.252	-95.884	-0.073	-0.019
-402.238	-200.000	-0.038	-0.166
-401.223	-52.176	0.091	-0.042
-400.209	-138.073	0.175	-0.019
-399.194	201.503	0.073	0.112
-398.179	139.534	-0.209	0.274
-397.165	-142.130	-0.345	-0.034
-396.150	-200.000	-0.000	0.333
-395.136	49.446	-0.221	0.207
-394.121	-129.148	0.189	-0.026
-393.106	-19.100	-0.210	-0.130
-392.092	13.928	-0.175	-0.136
-391.077	800.000	-0.045	0.148
-390.063	-96.491	0.236	-0.062
-389.048	-95.251	0.282	0.076
-388.033	800.000	-0.019	0.082
-387.019	-51.394	0.177	0.082
-386.004	-73.836	0.237	0.085
-384.990	-200.000	0.001	-0.209
-383.975	156.376	-0.135	0.186
-382.960	-86.106	-0.055	0.017
-381.946	-200.000	0.026	0.164
-380.931	800.000	0.077	0.266
-379.917	-200.000	-0.027	-0.162
-378.902	172.882	0.083	-0.119
-377.888	-137.028	0.210	-0.024
-376.873	800.000	-0.039	-0.145
-375.858	-156.818	0.329	-0.020
-374.844	-126.139	-0.261	0.039
-373.829	-200.000	-0.007	0.148
-372.815	-50.282	0.042	-0.020
-371.800	-200.000	0.010	-0.077
-370.785	-70.157	-0.228	-0.086
-369.771	-78.606	0.207	0.070
-368.756	-72.508	-0.197	-0.072
-367.742	-117.831	0.235	-0.042
-366.727	-124.848	0.203	0.031
-365.712	-200.000	-0.005	0.138
-364.698	10.229	-0.116	-0.088
-363.683	-130.871	-0.091	0.012
-362.669	701.855	-0.118	-0.308
-361.654	158.607	0.121	0.166
-360.639	-66.320	0.364	-0.144
-359.625	800.000	0.032	0.119
-358.610	-2.249	0.127	0.088
-357.596	-45.732	0.371	-0.182
-356.581	800.000	-0.008	-0.024
-355.566	453.969	-0.108	-0.237
-354.552	-59.644	0.027	0.011
-353.537	-200.000	0.006	-0.104
-352.523	172.110	-0.144	0.205
-351.508	-106.189	0.086	-0.019
-350.493	-117.959	0.219	-0.039
-349.479	-132.852	-0.467	0.059
-348.464	-128.649	0.476	0.067
-347.450	19.145	-0.242	0.193
-346.435	28.233	-0.086	-0.072
-345.420	-41.355	-0.093	0.047
-344.406	-6.270	0.297	-0.202
-343.391	172.758	-0.013	-0.019
-342.377	169.998	0.204	-0.290
-341.362	102.051	-0.238	0.276
-340.348	800.000	-0.035	-0.132
-339.333	21.303	-0.327	0.263
-338.318	-200.000	-0.036	0.234
-337.304	11.635	0.073	-0.055
-336.289	394.654	-0.081	-0.168
-335.275	-200.000	0.015	-0.087
-334.260	322.684	0.077	-0.146
-333.245	412.408	0.041	0.086
-332.231	-200.000	-0.010	-0.127
-331.216	800.000	0.156	0.444
-330.202	-188.111	-0.358	-0.005
-329.187	-200.000	0.013	-0.069
-328.172	237.939	0.040	0.066
-327.158	358.753	0.144	0.285
-326.143	-200.000	-0.000	0.345
-325.129	-176.881	0.446	0.011
-324.114	-80.899	-0.370	-0.122
-323.099	182.067	0.109	-0.159
-322.085	37.834	-0.123	0.108
-321.070	800.000	0.032	0.110
-320.056	-34.564	-0.448	0.243
-319.041	77.115	0.091	0.096
-318.026	137.538	0.118	-0.153
-317.012	-200.000	-0.002	-0.268
-315.997	452.482	0.127	0.279
-314.983	203.673	-0.179	0.274
-313.968	-120.312	0.218	-0.037
-312.953	-54.861	0.294	0.132
-311.939	-200.000	-0.031	-0.329
-310.924	566.053	-0.032	-0.076
-309.910	490.975	-0.050	-0.113
-308.895	540.743	0.141	0.334
-307.880	46.621	0.154	0.142
-306.866	-180.120	-0.456	0.010
-305.851	16.117	-0.216	-0.169
-304.837	0.242	0.279	0.198
-303.822	130.437	0.207	0.263
-302.807	800.000	-0.081	-0.231
-301.793	-125.293	0.251	-0.038
-300.778	325.668	-0.025	-0.047
-299.764	-200.000	0.011	0.072
-298.749	-70.364	0.159	-0.060
-297.735	-105.149	0.151	-0.034
-296.720	-139.261	-0.353	-0.038
-295.705	372.032	-0.104	-0.210
-294.691	42.528	-0.199	0.179
-293.676	800.000	0.009	-0.028
-292.662	800.000	0.066	0.205
-291.647	0.566	-0.226	0.160
-290.632	11.724	-0.246	-0.187
-289.618	-120.256	-0.189	-0.032
-288.603	-67.667	0.091	0.035
-287.589	-200.000	0.039	-0.310
-286.574	-64.669	0.233	-0.093
-285.559	62.848	0.093	-0.092
-284.545	-4.543	0.102	-0.070
-283.530	-200.000	-0.055	-0.348
-282.516	-82.592	-0.335	-0.108
-281.501	-76.366	-0.105	-0.037
-280.486	-81.633	0.173	-0.056
-279.472	64.606	-0.119	0.119
-278.457	599.527	-0.121	-0.298
-277.443	97.836	0.121	-0.138
-276.428	379.712	0.124	-0.251
-275.413	66.515	-0.107	0.108
-274.399	800.000	-0.057	-0.185
-273.384	281.594	-0.142	0.252
-272.370	138.719	0.089	0.115
-271.355	-56.748	-0.323	-0.141
-270.340	-48.614	-0.099	-0.047
-269.326	44.901	0.145	0.132
-268.311	422.235	-0.060	-0.128
-267.297	-73.722	0.009	-0.003
-266.282	-155.917	-0.049	-0.003
-265.267	-152.509	-0.118	0.008
-264.253	111.661	-0.073	-0.087
-263.238	-34.161	-0.337	0.183
-262.224	51.194	-0.071	0.067
-261.209	-152.676	-0.214	-0.015
-260.195	-25.668	0.331	-0.193
-259.180	-57.987	0.258	0.111
-258.165	27.550	0.131	-0.109
-257.151	12.885	0.140	-0.107
-256.136	-129.537	-0.220	0.030
-255.122	-152.669	-0.317	-0.022
-254.107	-200.000	0.010	0.245
-253.092	-130.324	0.126	-0.017
-252.078	-200.000	0.029	0.184
-251.063	-133.439	-0.171	0.021
-250.049	135.830	-0.220	-0.283
-249.034	-200.000	-0.082	0.391
-248.019	70.420	0.187	0.191
-247.005	110.900	0.134	0.160
-245.990	-113.824	0.162	0.031
-244.976	-200.000	-0.001	0.107
-243.961	-200.000	-0.020	-0.268
-242.946	-109.176	-0.422	-0.089
-241.932	-200.000	-0.021	-0.122
-240.917	129.759	0.215	0.272
-239.903	88.085	-0.224	-0.246
-238.888	731.624	-0.096	0.255
-237.873	-161.805	0.232	-0.012
-236.859	-80.423	0.250	0.083
-235.844	204.348	-0.148	0.227
-234.830	110.087	-0.167	0.198
-233.815	-150.071	0.345	-0.027
-232.800	-200.000	0.053	-0.398
-231.786	186.499	0.133	0.195
-230.771	800.000	0.059	-0.203
-229.757	41.792	0.041	-0.037
-228.742	212.700	0.061	-0.095
-227.727	-200.000	-0.048	-0.284
-226.713	483.070	0.062	-0.138
-225.698	-62.881	-0.087	-0.036
-224.684	800.000	0.082	-0.267
-223.669	348.945	-0.214	-0.417
-222.655	354.215	-0.120	0.235
-221.640	129.587	0.158	0.200
-220.625	2.544	-0.134	-0.096
-219.611	-200.000	-0.010	0.080
-218.596	353.689	0.092	-0.180
-217.582	-48.926	-0.086	0.041
-216.567	274.164	0.167	-0.292
-215.552	540.142	-0.143	0.335
-214.538	-200.000	0.024	-0.410
-213.523	252.502	-0.061	-0.103
-212.509	-187.538	0.038	0.000
-211.494	-42.989	0.133	-0.067
-210.479	136.801	0.144	0.186
-209.465	2.247	0.137	-0.098
-208.450	576.312	0.092	0.222
-207.436	417.231	-0.118	-0.250
-206.421	67.116	0.172	-0.173
-205.406	601.369	0.141	-0.346
-204.392	-123.266	0.125	-0.020
-203.377	-149.136	-0.127	-0.010
-202.363	48.834	-0.180	0.167
-201.348	-112.691	0.027	-0.005
-200.333	738.025	0.105	0.279
-199.319	800.000	-0.050	0.156
-198.304	122.610	0.229	-0.283
-197.290	-54.740	0.112	0.050
-196.275	-200.000	0.003	-0.077
-195.260	421.061	-0.137	-0.289
-194.246	660.824	0.069	-0.175
-193.231	22.781	0.129	-0.104
-192.217	-200.000	0.018	0.270
-191.202	-63.896	0.324	-0.131
-190.187	-159.221	-0.280	-0.016
-189.173	-51.539	-0.293	-0.135
-188.158	-200.000	-0.037	0.275
-187.144	-40.121	-0.306	-0.157
-186.129	191.397	0.174	0.258
-185.114	-65.091	-0.412	-0.164
-184.100	-143.214	0.237	0.022
-183.085	-27.166	-0.384	-0.221
-182.071	19.869	0.154	0.122
-181.056	103.844	0.282	0.327
-180.042	-92.999	-0.175	0.048
-179.027	-200.000	-0.016	-0.274
-178.012	25.835	0.263	-0.216
-176.998	362.624	0.187	0.370
-175.983	47.021	-0.160	-0.147
-174.969	-108.136	0.073	0.016
-173.954	-74.584	0.201	0.071
-172.939	-29.735	-0.248	0.140
-171.925	800.000	0.040	0.154
-170.910	-96.532	-0.091	-0.024
-169.896	-200.000	0.035	-0.247
-168.881	-200.000	0.024	0.155
-167.866	-200.000	0.057	0.378
-166.852	-93.053	0.212	-0.058
-165.837	-23.215	-0.200	0.119
-164.823	-200.000	-0.011	0.079
-163.808	91.215	-0.093	0.103
-162.793	-184.572	0.255	0.004
-161.779	706.656	0.070	0.181
-160.764	106.410	0.101	0.118
-159.750	-100.243	0.202	0.049
-158.735	7.870	-0.082	-0.061
-157.720	-82.431	-0.137	0.044
-156.706	-159.727	-0.176	0.010
-155.691	-141.992	-0.191	0.019
-154.677	-71.660	-0.116	0.043
-153.662	79.613	-0.095	0.100
-152.647	-200.000	0.018	-0.108
-151.633	664.114	-0.057	0.144
-150.618	18.635	0.230	-0.182
-149.604	-84.471	-0.249	0.077
-148.589	602.204	0.086	0.210
-147.574	66.898	0.099	0.099
-146.560	13.455	-0.213	0.163
-145.545	-35.014	0.240	-0.129
-144.531	-50.688	0.130	0.061
-143.516	49.341	0.161	0.149
-142.502	717.874	-0.022	-0.058
-141.487	90.687	0.133	-0.147
-140.472	9.931	0.168	-0.126
-139.458	-200.000	-0.001	-0.172
-138.443	85.368	0.283	-0.306
-137.429	316.016	0.214	0.398
-136.414	169.696	-0.134	-0.188
-135.399	800.000	0.100	0.403
-134.385	-164.059	-0.139	-0.006
-133.370	-156.989	-0.452	0.027
-132.356	185.488	0.252	-0.369
-131.341	-3.050	0.152	0.105
-130.326	-200.000	-0.028	0.132
-129.312	110.199	0.250	-0.296
-128.297	122.703	-0.199	-0.245
-127.283	800.000	0.017	-0.051
-126.268	1.936	-0.130	-0.092
-125.253	85.507	-0.020	0.021
-124.239	-98.809	-0.190	-0.048
-123.224	294.116	0.058	0.103
-122.210	191.934	-0.088	-0.130
-121.195	-118.330	0.145	0.025
