DTS Sentinel unit serial number:	SN413079Multiplexer serial number:	ORYXHardware model number:	OX4-SRSoftware version number:	ORYX F/W v4.00 Oryx Data Collector v3.7.2.0data status	okinstallation	princeton_trtdifferential loss correction	single-endedforward channel	channel 1reverse channel	N/Adate	2019/09/17time	22:46:35forward acquisition time	60.00reverse acquisition time	0.00gamma	496.2192k internal	0.2340k external	0.2340temperature offset calibration	0.9980default loss term (dB/km)	0.3790temperature slope calibration	1.0000multiplexer offset coefficient	1.0000multiplexer slope coefficient	1.0000fibre end	0.00T internal ref (°C)	25.02T ext. ref 1 (°C)	0.18T ext. ref 2 (°C)	18.30length (m)	temperature (°C)	Stokes	anti-Stokes-747.200	800.000	0.137	0.516
-746.185	573.960	-0.085	0.207
-745.171	800.000	-0.073	0.310
-744.156	800.000	-0.091	0.259
-743.142	-135.187	0.189	-0.023
-742.127	365.391	-0.133	0.268
-741.112	800.000	-0.052	-0.187
-740.098	42.657	0.106	-0.097
-739.083	-2.549	-0.274	-0.193
-738.069	-27.230	-0.261	-0.152
-737.054	-113.978	-0.138	-0.027
-736.039	-92.337	0.056	0.016
-735.025	559.025	-0.037	-0.090
-734.010	687.650	-0.028	0.073
-732.996	-200.000	0.019	-0.166
-731.981	-200.000	-0.022	0.151
-730.966	633.752	-0.068	0.172
-729.952	-37.374	-0.097	-0.052
-728.937	-16.346	-0.201	0.128
-727.923	-200.000	-0.006	0.359
-726.908	800.000	-0.031	-0.097
-725.894	68.971	0.189	-0.195
-724.879	-56.396	-0.186	-0.083
-723.864	106.873	0.113	0.134
-722.850	800.000	0.059	-0.184
-721.835	-36.391	0.166	0.090
-720.821	-76.959	-0.083	0.029
-719.806	512.730	0.165	-0.385
-718.791	79.654	-0.132	-0.142
-717.777	-166.429	0.338	-0.014
-716.762	-200.000	0.004	-0.138
-715.748	559.131	0.069	-0.168
-714.733	-200.000	0.020	-0.622
-713.718	56.762	0.045	0.044
-712.704	-200.000	0.002	0.114
-711.689	-200.000	0.007	-0.072
-710.675	-94.658	0.099	-0.027
-709.660	679.477	-0.117	0.305
-708.645	-8.466	-0.083	0.056
-707.631	-16.200	0.369	-0.234
-706.616	-200.000	0.011	-0.198
-705.602	800.000	0.033	0.107
-704.587	-100.828	-0.040	-0.010
-703.572	-45.462	0.156	0.078
-702.558	-200.000	0.005	0.039
-701.543	439.675	-0.090	0.198
-700.529	-200.000	0.042	0.350
-699.514	38.649	0.145	-0.129
-698.499	-83.285	-0.149	-0.048
-697.485	237.436	0.065	-0.107
-696.470	170.434	0.207	0.296
-695.456	800.000	-0.063	-0.200
-694.441	-29.129	-0.227	0.130
-693.426	26.925	0.074	-0.062
-692.412	-18.203	-0.200	-0.125
-691.397	800.000	-0.145	-0.449
-690.383	-106.073	-0.381	0.086
-689.368	0.207	0.154	-0.110
-688.354	-200.000	0.021	0.159
-687.339	684.729	0.120	0.315
-686.324	-121.072	-0.212	0.036
-685.310	-44.006	0.106	0.053
-684.295	136.296	-0.084	0.109
-683.281	14.455	0.015	-0.011
-682.266	800.000	-0.039	0.165
-681.251	472.110	-0.126	-0.283
-680.237	167.192	-0.192	-0.273
-679.222	-99.503	0.217	-0.055
-678.208	736.054	-0.114	-0.306
-677.193	-11.786	0.150	-0.099
-676.178	-67.467	0.065	-0.026
-675.164	-121.382	0.433	0.072
-674.149	95.971	-0.060	0.069
-673.135	288.287	0.119	-0.216
-672.120	-119.279	0.299	0.052
-671.105	8.389	-0.186	0.140
-670.091	800.000	0.098	-0.312
-669.076	-200.000	0.039	0.223
-668.062	16.760	-0.088	0.070
-667.047	-200.000	0.007	0.256
-666.032	800.000	-0.081	-0.236
-665.018	-28.316	-0.200	0.115
-664.003	-24.124	0.197	-0.117
-662.989	23.548	-0.140	0.115
-661.974	-110.867	0.069	-0.014
-660.959	-37.765	-0.198	-0.105
-659.945	-127.945	-0.236	0.034
-658.930	-116.817	-0.102	0.019
-657.916	49.753	0.076	0.072
-656.901	414.826	-0.072	0.154
-655.886	800.000	-0.087	0.279
-654.872	-46.803	0.226	-0.110
-653.857	-200.000	0.018	-0.147
-652.843	-200.000	0.037	-0.173
-651.828	800.000	-0.035	0.122
-650.814	-100.526	-0.111	-0.027
-649.799	-56.278	0.244	-0.108
-648.784	54.935	0.040	-0.038
-647.770	800.000	0.032	0.124
-646.755	666.733	0.088	0.227
-645.741	36.496	-0.212	0.186
-644.726	800.000	0.019	-0.069
-643.711	-35.815	-0.285	0.154
-642.697	17.811	0.328	-0.260
-641.682	800.000	0.080	0.258
-640.668	-15.056	0.222	0.142
-639.653	-115.066	0.372	-0.070
-638.638	9.766	-0.083	-0.063
-637.624	-49.069	0.260	-0.124
-636.609	-99.721	0.432	0.108
-635.595	-60.997	-0.166	0.070
-634.580	53.554	-0.100	0.096
-633.565	-200.000	0.051	0.233
-632.551	188.660	-0.256	0.382
-631.536	-200.000	0.012	-0.201
-630.522	297.908	0.113	-0.208
-629.507	-60.245	0.135	-0.057
-628.492	-109.316	-0.071	-0.015
-627.478	-56.235	0.094	-0.042
-626.463	-103.522	-0.185	-0.043
-625.449	25.937	-0.233	-0.194
-624.434	-55.085	-0.278	-0.125
-623.419	-89.463	-0.448	0.131
-622.405	800.000	-0.024	-0.068
-621.390	-145.240	-0.182	0.016
-620.376	-200.000	-0.074	0.357
-619.361	-82.501	-0.194	0.063
-618.346	-117.275	0.404	-0.073
-617.332	43.884	-0.059	-0.054
-616.317	-200.000	-0.002	-0.215
-615.303	-83.195	-0.267	0.086
-614.288	-139.204	0.121	0.013
-613.273	-12.967	0.101	0.065
-612.259	100.174	0.069	-0.079
-611.244	-9.397	-0.106	0.071
-610.230	301.230	-0.105	0.193
-609.215	639.122	-0.105	0.267
-608.201	-200.000	0.020	-0.272
-607.186	-37.472	0.249	-0.133
-606.171	-152.041	-0.238	-0.017
-605.157	-178.069	0.314	-0.007
-604.142	-179.436	-0.416	0.009
-603.128	-156.657	-0.166	0.010
-602.113	-67.467	-0.056	-0.022
-601.098	800.000	-0.032	0.113
-600.084	-197.235	0.106	-0.001
-599.069	-95.840	-0.066	0.018
-598.055	648.217	-0.033	0.085
-597.040	-11.441	-0.053	0.035
-596.025	-113.670	-0.294	-0.057
-595.011	800.000	-0.130	0.469
-593.996	-200.000	0.084	-0.000
-592.982	-17.990	0.415	-0.259
-591.967	-200.000	0.019	-0.137
-590.952	46.652	0.127	-0.117
-589.938	50.748	-0.107	0.101
-588.923	-19.094	0.406	-0.251
-587.909	-137.839	-0.082	0.009
-586.894	-19.783	-0.143	-0.088
-585.879	486.718	0.058	0.133
-584.865	-145.410	-0.124	-0.011
-583.850	-200.000	0.007	-0.328
-582.836	-83.122	-0.102	0.033
-581.821	-200.000	-0.004	0.189
-580.806	452.532	-0.074	0.163
-579.792	-184.766	0.237	0.004
-578.777	601.549	0.087	-0.215
-577.763	-139.114	0.304	-0.033
-576.748	-132.131	-0.317	-0.041
-575.733	40.854	0.216	0.194
-574.719	-67.143	0.329	-0.129
-573.704	121.730	0.063	0.078
-572.690	-86.182	-0.262	-0.080
-571.675	97.198	0.178	-0.204
-570.661	-152.042	0.172	0.012
-569.646	-15.640	-0.289	-0.183
-568.631	-200.000	0.012	-0.073
-567.617	-26.712	0.211	-0.123
-566.602	34.037	0.376	-0.326
-565.588	800.000	-0.084	0.241
-564.573	500.381	-0.049	0.113
-563.558	124.012	-0.153	-0.191
-562.544	-200.000	0.022	0.188
-561.529	408.278	0.110	0.231
-560.515	65.312	-0.126	0.127
-559.500	-46.042	-0.260	-0.127
-558.485	430.235	-0.042	0.090
-557.471	88.154	-0.166	-0.183
-556.456	-26.186	-0.184	-0.107
-555.442	800.000	-0.059	-0.215
-554.427	-200.000	0.023	0.184
-553.412	800.000	-0.148	-0.586
-552.398	13.495	-0.193	-0.149
-551.383	138.277	0.284	0.371
-550.369	-200.000	-0.004	-0.047
-549.354	-75.272	0.105	0.037
-548.339	-20.086	0.040	0.024
-547.325	-200.000	0.074	0.378
-546.310	-98.983	0.201	0.051
-545.296	125.309	-0.127	-0.160
-544.281	-48.884	-0.135	-0.065
-543.266	800.000	-0.033	-0.130
-542.252	103.551	0.152	-0.177
-541.237	-124.285	0.139	-0.022
-540.223	168.255	-0.146	0.207
-539.208	-18.654	-0.075	-0.046
-538.193	-14.353	0.108	0.069
-537.179	-89.327	0.097	-0.029
-536.164	173.305	-0.174	-0.249
-535.150	-41.994	-0.040	0.020
-534.135	-114.786	-0.591	0.112
-533.121	-22.396	0.165	-0.100
-532.106	594.454	-0.014	0.035
-531.091	41.468	-0.161	0.145
-530.077	800.000	-0.041	-0.114
-529.062	-200.000	-0.032	-0.414
-528.048	-200.000	-0.001	-0.192
-527.033	-93.628	-0.308	0.084
-526.018	508.898	-0.053	0.121
-525.004	52.791	-0.145	0.138
-523.989	134.656	0.166	-0.214
-522.975	191.667	0.069	0.104
-521.960	-200.000	0.072	0.402
-520.945	-54.707	-0.166	-0.075
-519.931	16.323	0.245	-0.192
-518.916	-63.728	-0.160	0.065
-517.902	800.000	0.066	0.242
-516.887	800.000	-0.043	0.145
-515.872	291.824	-0.080	-0.145
-514.858	48.713	-0.134	-0.125
-513.843	-68.305	-0.068	0.026
-512.829	-69.778	0.192	0.073
-511.814	800.000	0.172	0.484
-510.799	-142.270	-0.088	-0.009
-509.785	-112.629	0.158	-0.031
-508.770	483.581	0.084	0.189
-507.756	-25.445	-0.156	-0.091
-506.741	-18.596	-0.228	-0.141
-505.726	-156.616	0.248	0.015
-504.712	-200.000	-0.044	-0.214
-503.697	-19.087	-0.334	0.206
-502.683	800.000	0.086	0.373
-501.668	800.000	0.088	0.327
-500.653	-5.871	-0.173	-0.117
-499.639	23.638	-0.256	-0.209
-498.624	-200.000	0.020	-0.170
-497.610	-105.355	0.256	0.058
-496.595	-77.824	0.114	0.039
-495.581	-79.245	0.124	-0.042
-494.566	800.000	-0.044	-0.163
-493.551	-63.451	-0.143	0.058
-492.537	177.354	-0.170	-0.246
-491.522	37.016	-0.262	-0.231
-490.508	-90.547	0.110	0.032
-489.493	-107.982	-0.149	0.032
-488.478	445.829	0.155	-0.338
-487.464	-82.390	-0.319	-0.103
-486.449	199.809	0.204	-0.311
-485.435	800.000	0.050	0.161
-484.420	312.025	-0.098	0.182
-483.405	-200.000	0.016	0.115
-482.391	-170.568	0.398	-0.014
-481.376	-200.000	0.025	-0.153
-480.362	800.000	0.031	-0.093
-479.347	-120.357	0.143	-0.024
-478.332	165.665	-0.209	0.293
-477.318	75.464	-0.065	-0.069
-476.303	800.000	0.084	0.331
-475.289	-94.970	-0.143	0.038
-474.274	-200.000	0.007	0.432
-473.259	-200.000	0.002	0.117
-472.245	800.000	0.035	-0.126
-471.230	-200.000	-0.015	0.073
-470.216	27.512	0.234	-0.195
-469.201	800.000	0.052	-0.205
-468.186	-3.708	-0.034	0.024
-467.172	130.376	0.236	0.300
-466.157	-200.000	0.013	0.277
-465.143	225.984	-0.088	-0.142
-464.128	98.845	0.094	-0.107
-463.113	-200.000	-0.035	-0.178
-462.099	367.541	0.077	-0.153
-461.084	800.000	-0.054	0.180
-460.070	134.384	-0.086	-0.111
-459.055	-40.816	0.263	-0.135
-458.040	-200.000	0.003	0.032
-457.026	-200.000	-0.016	-0.276
-456.011	800.000	-0.101	-0.283
-454.997	-56.653	-0.236	0.104
-453.982	14.272	0.081	-0.063
-452.968	127.383	-0.173	0.218
-451.953	-152.896	0.196	-0.014
-450.938	103.014	0.089	-0.103
-449.924	-67.419	0.129	-0.050
-448.909	-7.577	0.137	0.092
-447.895	30.416	-0.155	-0.132
-446.880	800.000	0.035	0.129
-445.865	461.174	-0.154	-0.341
-444.851	33.266	-0.162	-0.139
-443.836	-115.924	0.168	-0.031
-442.822	800.000	-0.072	0.275
-441.807	-73.482	0.134	-0.048
-440.792	-200.000	-0.053	-0.280
-439.778	33.159	-0.128	-0.110
-438.763	711.480	0.048	-0.125
-437.749	341.084	-0.074	0.144
-436.734	800.000	0.092	-0.338
-435.719	381.746	-0.079	0.162
-434.705	24.930	0.084	0.069
-433.690	-200.000	-0.009	-0.109
-432.676	265.588	0.103	-0.178
-431.661	76.861	-0.175	0.184
-430.646	9.109	0.170	0.127
-429.632	-124.679	0.289	0.044
-428.617	252.809	0.052	0.088
-427.603	387.962	0.279	0.572
-426.588	-200.000	-0.034	0.288
-425.573	84.894	-0.111	-0.120
-424.559	800.000	-0.059	0.205
-423.544	-27.420	-0.185	-0.106
-422.530	346.029	-0.095	-0.185
-421.515	-200.000	-0.017	0.115
-420.500	-16.507	-0.127	0.080
-419.486	167.113	0.172	0.241
-418.471	448.557	-0.057	-0.125
-417.457	-34.748	0.283	0.153
-416.442	-104.818	-0.182	0.041
-415.428	0.975	-0.190	0.135
-414.413	151.431	0.115	0.155
-413.398	104.935	-0.122	0.142
-412.384	-200.000	-0.021	-0.111
-411.369	-149.776	0.356	-0.028
-410.355	-140.942	-0.156	-0.016
-409.340	13.538	-0.161	-0.123
-408.325	-200.000	0.031	-0.211
-407.311	14.109	0.278	0.214
-406.296	-200.000	-0.060	0.364
-405.282	0.372	0.086	-0.061
-404.267	-200.000	0.035	-0.195
-403.252	-131.758	0.283	-0.037
-402.238	-139.817	0.139	-0.015
-401.223	2.312	-0.059	0.042
-400.209	-26.663	-0.112	-0.065
-399.194	92.785	0.183	-0.205
-398.179	-118.848	-0.171	-0.030
-397.165	800.000	0.096	0.330
-396.150	800.000	-0.106	0.301
-395.136	-37.541	0.278	-0.147
-394.121	206.058	-0.145	0.223
-393.106	108.574	-0.323	0.382
-392.092	66.336	-0.153	0.154
-391.077	-28.853	0.136	-0.077
-390.063	242.201	0.032	-0.053
-389.048	-200.000	-0.041	0.212
-388.033	81.993	0.111	-0.119
-387.019	-200.000	0.026	-0.210
-386.004	-200.000	-0.017	-0.299
-384.990	-19.228	-0.254	0.156
-383.975	-40.917	0.073	0.037
-382.960	9.059	-0.081	-0.060
-381.946	141.668	0.051	0.067
-380.931	-40.538	-0.244	0.125
-379.917	800.000	0.095	-0.398
-378.902	800.000	0.072	0.309
-377.888	800.000	-0.088	-0.252
-376.873	800.000	-0.097	0.333
-375.858	-51.596	0.099	-0.046
-374.844	800.000	-0.053	-0.173
-373.829	10.116	0.253	-0.190
-372.815	126.644	-0.123	0.154
-371.800	800.000	-0.059	0.162
-370.785	-200.000	-0.034	-0.153
-369.771	-67.502	0.090	-0.035
-368.756	-10.613	0.143	0.094
-367.742	-200.000	0.034	0.225
-366.727	-200.000	-0.036	0.235
-365.712	-7.581	0.273	0.182
-364.698	239.145	0.153	0.252
-363.683	627.493	0.102	-0.255
-362.669	372.212	-0.132	0.265
-361.654	-154.479	0.242	0.016
-360.639	-84.421	0.216	-0.067
-359.625	155.703	-0.216	0.294
-358.610	-200.000	-0.019	0.232
-357.596	-100.992	0.184	0.045
-356.581	-68.610	-0.153	-0.058
-355.566	-170.385	0.334	0.012
-354.552	-49.246	-0.120	-0.057
-353.537	-109.056	0.112	0.024
-352.523	-110.414	0.174	-0.036
-351.508	7.229	0.426	0.314
-350.493	-101.783	-0.194	0.046
-349.479	-14.811	-0.120	-0.076
-348.464	-10.107	-0.025	0.017
-347.450	20.672	-0.177	-0.142
-346.435	-41.921	-0.305	-0.154
-345.420	768.691	0.046	0.123
-344.406	53.528	-0.309	-0.292
-343.391	-200.000	-0.004	0.039
-342.377	-131.138	0.065	-0.009
-341.362	-134.777	0.370	-0.044
-340.348	-128.483	-0.292	0.041
-339.333	-200.000	-0.015	-0.161
-338.318	36.922	-0.158	-0.138
-337.304	14.906	-0.197	0.152
-336.289	-50.237	0.192	-0.090
-335.275	-69.314	0.080	0.030
-334.260	-130.093	-0.187	0.025
-333.245	-53.636	-0.363	0.164
-332.231	-22.094	-0.158	0.095
-331.216	23.581	-0.267	0.217
-330.202	-4.270	-0.220	-0.150
-329.187	-200.000	0.042	-0.221
-328.172	51.896	-0.257	0.241
-327.158	93.676	-0.156	0.175
-326.143	330.630	0.185	-0.351
-325.129	33.463	-0.149	0.128
-324.114	800.000	-0.078	-0.274
-323.099	-200.000	-0.063	0.601
-322.085	106.635	-0.302	-0.354
-321.070	800.000	-0.101	-0.391
-320.056	-200.000	0.006	-0.202
-319.041	158.370	-0.141	-0.193
-318.026	-15.703	0.075	-0.047
-317.012	498.530	-0.107	0.243
-315.997	-37.162	0.132	-0.070
-314.983	94.233	0.141	-0.158
-313.968	-200.000	0.035	-0.188
-312.953	425.597	-0.079	-0.168
-311.939	502.669	0.086	-0.197
-310.924	-200.000	0.128	-0.562
-309.910	-146.115	0.259	0.022
-308.895	800.000	-0.063	-0.259
-307.880	-62.422	-0.164	-0.067
-306.866	-29.807	-0.371	-0.208
-305.851	-147.905	-0.375	0.031
-304.837	143.762	0.108	-0.141
-303.822	100.075	0.267	0.305
-302.807	-123.073	0.075	-0.012
-301.793	-168.038	0.222	-0.009
-300.778	800.000	-0.033	0.138
-299.764	800.000	-0.030	-0.114
-298.749	-31.847	0.043	0.024
-297.735	112.236	0.169	-0.201
-296.720	-9.572	-0.109	-0.071
-295.705	-153.307	0.072	0.005
-294.691	4.599	0.156	0.113
-293.676	93.780	-0.092	0.103
-292.662	2.008	0.137	-0.098
-291.647	7.738	-0.138	-0.102
-290.632	100.583	-0.023	0.027
-289.618	165.754	0.107	0.149
-288.603	800.000	0.036	0.131
-287.589	15.802	0.070	-0.054
-286.574	145.820	-0.143	0.188
-285.559	-146.579	-0.086	0.007
-284.545	126.365	0.192	-0.239
-283.530	159.927	0.155	-0.213
-282.516	82.889	0.130	0.140
-281.501	-50.416	-0.196	-0.091
-280.486	79.730	-0.194	-0.205
-279.472	-163.542	-0.307	-0.014
-278.457	-125.951	-0.014	0.002
-277.443	-95.250	-0.361	-0.096
-276.428	-139.957	0.220	-0.023
-275.413	137.159	0.311	0.400
-274.399	-20.011	-0.302	0.183
-273.384	44.934	0.153	0.139
-272.370	125.570	-0.089	0.110
-271.355	-88.148	0.262	0.077
-270.340	-200.000	-0.004	0.091
-269.326	-122.471	0.482	0.077
-268.311	800.000	-0.065	0.194
-267.297	714.017	0.009	0.024
-266.282	-85.284	-0.120	0.037
-265.267	-87.150	0.289	-0.087
-264.253	-54.628	0.413	-0.184
-263.238	-200.000	0.014	-0.086
-262.224	414.089	0.177	0.370
-261.209	800.000	0.148	0.446
-260.195	-17.917	-0.107	-0.066
-259.180	-8.296	-0.184	-0.122
-258.165	775.209	0.036	-0.097
-257.151	120.858	-0.292	-0.357
-256.136	105.183	-0.227	-0.264
-255.122	164.489	0.124	-0.172
-254.107	-126.037	0.490	-0.072
-253.092	-200.000	-0.002	0.117
-252.078	-200.000	-0.013	-0.076
-251.063	800.000	-0.044	0.181
-250.049	-189.950	0.160	0.002
-249.034	-43.657	0.070	-0.035
-248.019	-106.374	-0.133	-0.029
-247.005	42.213	-0.227	0.203
-245.990	800.000	-0.030	0.088
-244.976	-98.600	-0.119	-0.030
-243.961	38.864	-0.135	0.119
-242.946	5.629	0.147	0.107
-241.932	-129.194	0.207	-0.028
-240.917	-200.000	0.071	-0.386
-239.903	58.376	-0.241	-0.232
-238.888	-200.000	0.047	0.295
-237.873	-21.731	-0.140	-0.084
-236.859	770.344	-0.157	0.420
-235.844	531.128	-0.162	-0.375
-234.830	-200.000	0.023	-0.170
-233.815	-85.159	-0.235	0.072
-232.800	800.000	0.059	0.223
-231.786	-28.179	-0.112	0.064
-230.771	92.189	0.269	0.298
-229.757	2.426	0.235	0.167
-228.742	-59.640	0.304	0.128
-227.727	493.266	-0.037	0.083
-226.713	678.047	0.072	-0.185
-225.698	-15.090	0.383	0.241
-224.684	31.240	-0.189	0.159
-223.669	55.219	-0.054	0.051
-222.655	800.000	0.029	0.091
-221.640	61.078	-0.211	0.206
-220.625	347.700	-0.044	-0.086
-219.611	-200.000	0.052	-0.224
-218.596	-34.721	-0.463	-0.249
-217.582	64.882	-0.127	0.125
-216.567	132.212	0.099	-0.126
-215.552	334.339	-0.113	-0.215
-214.538	-94.920	0.197	-0.052
-213.523	-121.462	-0.211	0.034
-212.509	800.000	0.063	-0.256
-211.494	616.576	0.100	0.245
-210.479	800.000	-0.015	-0.053
-209.465	-62.166	0.242	-0.099
-208.450	684.886	-0.131	-0.336
-207.436	-200.000	0.019	0.167
-206.421	215.948	0.102	0.158
-205.406	-124.903	0.069	-0.010
-204.392	-119.590	0.062	-0.011
-203.377	418.329	0.100	0.209
-202.363	-54.091	-0.180	0.080
-201.348	-108.516	0.121	-0.026
-200.333	571.909	-0.077	0.185
-199.319	-20.800	-0.119	-0.072
-198.304	-107.405	-0.089	0.019
-197.290	-1.014	0.088	0.061
-196.275	-132.629	-0.168	0.021
-195.260	-29.822	0.118	0.066
-194.246	800.000	-0.043	0.157
-193.231	-69.269	-0.322	-0.121
-192.217	-50.852	0.282	-0.130
-191.202	141.630	-0.158	0.206
-190.187	-200.000	-0.027	-0.231
-189.173	214.640	0.245	-0.381
-188.158	-109.895	0.162	0.033
-187.144	800.000	0.067	-0.214
-186.129	-45.736	-0.442	-0.214
-185.114	114.459	0.082	0.097
-184.100	-72.635	0.294	-0.106
-183.085	114.240	-0.347	-0.415
-182.071	-24.215	-0.193	-0.113
-181.056	-200.000	-0.008	0.264
-180.042	-20.233	-0.039	0.024
-179.027	-171.630	0.320	0.010
-178.012	395.181	-0.114	0.232
-176.998	-130.027	0.168	-0.023
-175.983	-2.310	-0.064	0.044
-174.969	-139.978	-0.112	-0.012
-173.954	-193.587	-0.610	-0.005
-172.939	-200.000	0.013	0.173
-171.925	-111.387	0.249	0.050
-170.910	234.688	0.148	-0.240
-169.896	-148.867	0.181	-0.014
-168.881	-72.641	0.091	-0.033
-167.866	-200.000	-0.027	-0.137
-166.852	177.781	-0.178	-0.255
-165.837	46.313	0.124	0.113
-164.823	-40.696	0.206	-0.105
-163.808	-86.682	0.112	0.034
-162.793	-193.867	0.037	-0.000
-161.779	-200.000	-0.004	-0.132
-160.764	119.998	0.079	-0.096
-159.750	86.021	0.188	0.202
-158.735	0.489	0.083	0.058
-157.720	-141.925	-0.113	0.011
-156.706	800.000	-0.088	-0.280
-155.691	-200.000	0.014	0.156
-154.677	78.404	-0.165	0.173
-153.662	157.104	0.279	0.378
-152.647	-153.447	0.591	-0.040
-151.633	-200.000	-0.041	-0.357
-150.618	-200.000	-0.019	-0.381
-149.604	9.434	0.320	-0.237
-148.589	-155.026	-0.272	0.017
-147.574	358.678	0.236	-0.462
-146.560	-53.700	0.173	-0.077
-145.545	378.269	0.145	-0.290
-144.531	-108.617	0.269	-0.057
-143.516	287.825	0.188	-0.334
-142.502	244.079	0.162	0.267
-141.487	691.307	0.074	-0.190
-140.472	-54.109	-0.183	-0.082
-139.458	-68.717	-0.190	-0.072
-138.443	71.689	0.128	0.130
-137.429	-200.000	0.013	0.255
-136.414	800.000	0.025	0.074
-135.399	-41.316	-0.396	-0.200
-134.385	512.572	-0.076	-0.173
-133.370	-8.768	-0.238	0.156
-132.356	63.303	0.223	0.219
-131.341	36.864	0.117	0.102
-130.326	-109.003	-0.236	-0.049
-129.312	38.804	-0.157	-0.137
-128.297	9.715	0.341	0.253
-127.283	-200.000	-0.001	-0.348
-126.268	-148.107	-0.227	-0.018
-125.253	-200.000	0.005	0.094
-124.239	-200.000	0.008	0.101
-123.224	800.000	0.016	-0.053
-122.210	344.242	-0.139	0.266
-121.195	7.340	0.285	0.208
