DTS Sentinel unit serial number:	SN413079Multiplexer serial number:	ORYXHardware model number:	OX4-SRSoftware version number:	ORYX F/W v4.00 Oryx Data Collector v3.7.2.0data status	okinstallation	princeton_trtdifferential loss correction	single-endedforward channel	channel 1reverse channel	N/Adate	2019/09/18time	17:10:35forward acquisition time	60.00reverse acquisition time	0.00gamma	496.2192k internal	0.2294k external	0.2294temperature offset calibration	1.0003default loss term (dB/km)	0.3790temperature slope calibration	1.0000multiplexer offset coefficient	1.0000multiplexer slope coefficient	1.0000fibre end	0.00T internal ref (°C)	39.87T ext. ref 1 (°C)	0.89T ext. ref 2 (°C)	34.47length (m)	temperature (°C)	Stokes	anti-Stokes-747.200	-162.380	0.101	0.005
-746.185	345.884	-0.100	0.201
-745.171	-42.545	0.342	0.178
-744.156	377.083	0.126	-0.264
-743.142	436.547	-0.087	0.193
-742.127	-200.000	-0.067	0.318
-741.112	800.000	-0.089	0.276
-740.098	193.423	0.234	0.361
-739.083	187.498	0.150	-0.229
-738.069	-200.000	-0.008	0.096
-737.054	116.255	-0.051	-0.064
-736.039	-200.000	0.043	0.271
-735.025	-127.268	0.221	0.033
-734.010	-188.945	-0.083	0.001
-732.996	-154.472	-0.331	0.023
-731.981	65.524	-0.030	0.031
-730.966	-76.285	0.228	0.082
-729.952	-169.273	-0.371	-0.014
-728.937	23.640	-0.243	-0.205
-727.923	-139.361	0.038	-0.004
-726.908	-200.000	-0.058	-0.268
-725.894	492.705	0.045	-0.106
-724.879	-109.821	-0.312	0.067
-723.864	186.028	-0.070	-0.107
-722.850	-125.380	-0.191	-0.030
-721.835	660.079	0.073	-0.192
-720.821	581.647	-0.081	0.203
-719.806	176.123	-0.202	-0.300
-718.791	-200.000	0.037	-0.181
-717.777	-56.059	0.208	0.095
-716.762	-75.747	-0.086	-0.031
-715.748	98.720	-0.086	0.102
-714.733	182.317	-0.131	-0.197
-713.718	693.215	0.069	-0.183
-712.704	-12.642	-0.214	-0.143
-711.689	800.000	-0.077	-0.294
-710.675	-200.000	-0.047	0.221
-709.660	78.549	-0.140	-0.153
-708.645	-141.780	-0.218	0.022
-707.631	10.297	-0.133	0.103
-706.616	-200.000	-0.016	-0.139
-705.602	147.690	-0.100	0.137
-704.587	329.734	-0.060	0.118
-703.572	161.520	-0.069	0.098
-702.558	231.319	0.145	0.243
-701.543	-114.088	-0.105	-0.021
-700.529	83.700	-0.206	-0.229
-699.514	-100.070	-0.250	0.064
-698.499	-82.809	0.095	0.031
-697.485	-116.969	-0.489	0.091
-696.470	371.576	-0.130	0.269
-695.456	19.284	-0.100	-0.082
-694.441	1.063	0.340	0.249
-693.426	25.504	-0.339	0.288
-692.412	-200.000	-0.041	-0.330
-691.397	-200.000	-0.003	-0.188
-690.383	78.718	0.122	-0.133
-689.368	-80.904	-0.124	0.042
-688.354	454.999	-0.109	0.247
-687.339	-113.363	-0.326	-0.065
-686.324	-81.246	0.217	0.073
-685.310	178.194	-0.133	-0.199
-684.295	-200.000	0.008	0.054
-683.281	-200.000	-0.004	-0.049
-682.266	-83.335	-0.153	-0.050
-681.251	-182.791	0.370	0.007
-680.237	-29.789	-0.065	-0.038
-679.222	-29.211	-0.130	0.076
-678.208	132.676	0.142	0.187
-677.193	-166.969	-0.047	-0.002
-676.178	74.472	0.088	0.094
-675.164	-41.678	-0.112	0.059
-674.149	-52.049	0.106	-0.050
-673.135	-41.295	-0.036	-0.019
-672.120	-55.736	-0.236	0.107
-671.105	-200.000	-0.084	-0.429
-670.091	125.509	-0.092	0.119
-669.076	-200.000	-0.034	-0.300
-668.062	77.736	0.203	-0.221
-667.047	68.958	0.077	0.081
-666.032	53.971	-0.282	-0.277
-665.018	-83.913	0.275	-0.089
-664.003	-198.733	0.272	0.002
-662.989	-7.523	0.186	-0.129
-661.974	108.095	-0.175	-0.212
-660.959	82.377	0.319	0.352
-659.945	-66.135	-0.080	0.032
-658.930	-30.413	-0.130	-0.075
-657.916	574.738	-0.099	-0.246
-656.901	185.263	-0.112	-0.170
-655.886	82.148	0.155	0.172
-654.872	138.736	-0.108	-0.145
-653.857	-81.611	0.085	0.028
-652.843	-112.529	-0.265	0.054
-651.828	-53.906	0.044	0.020
-650.814	37.953	-0.313	0.283
-649.799	-4.991	0.150	-0.106
-648.784	-108.478	-0.313	0.069
-647.770	-200.000	-0.002	-0.250
-646.755	-90.916	-0.201	-0.059
-645.741	67.191	0.171	0.178
-644.726	389.103	-0.136	0.288
-643.711	-81.198	0.158	-0.053
-642.697	48.146	-0.232	-0.221
-641.682	627.856	0.082	-0.211
-640.668	800.000	0.091	0.297
-639.653	-82.705	-0.356	-0.117
-638.638	448.184	-0.128	-0.288
-637.624	800.000	-0.060	0.174
-636.609	-79.055	-0.146	0.050
-635.595	-43.192	-0.099	-0.051
-634.580	52.153	0.285	0.277
-633.565	800.000	-0.054	0.172
-632.551	337.238	-0.033	-0.066
-631.536	-43.800	-0.195	0.100
-630.522	-116.548	0.305	0.057
-629.507	279.832	0.067	-0.122
-628.492	-89.289	0.353	0.106
-627.478	164.485	-0.073	-0.105
-626.463	-200.000	0.059	-0.300
-625.449	-17.789	0.105	-0.067
-624.434	-200.000	0.051	0.389
-623.419	-27.572	0.274	0.162
-622.405	403.188	-0.101	-0.217
-621.390	5.065	-0.162	0.121
-620.376	423.097	-0.027	-0.060
-619.361	634.154	-0.077	-0.198
-618.346	138.734	-0.154	-0.207
-617.332	686.507	-0.099	0.262
-616.317	-36.576	0.309	-0.169
-615.303	234.262	0.076	0.128
-614.288	800.000	-0.074	-0.257
-613.273	-57.737	-0.223	0.099
-612.259	800.000	-0.079	-0.312
-611.244	294.835	0.187	-0.347
-610.230	-200.000	-0.050	-0.265
-609.215	-52.653	0.302	-0.142
-608.201	-200.000	0.013	0.538
-607.186	800.000	-0.049	-0.190
-606.171	-162.368	0.264	0.013
-605.157	371.032	0.163	0.336
-604.142	-161.359	-0.200	0.011
-603.128	-45.061	0.394	0.199
-602.113	-200.000	0.014	-0.212
-601.098	-200.000	0.020	-0.564
-600.084	-31.897	-0.176	-0.100
-599.069	395.504	0.153	0.324
-598.055	-56.854	0.405	0.182
-597.040	336.329	-0.109	-0.214
-596.025	-200.000	0.037	-0.175
-595.011	800.000	-0.033	-0.144
-593.996	-200.000	-0.001	0.057
-592.982	56.204	0.012	-0.012
-591.967	-7.536	-0.137	-0.094
-590.952	-19.434	-0.353	-0.223
-589.938	-200.000	0.071	-0.324
-588.923	432.917	0.122	-0.270
-587.909	800.000	-0.110	-0.312
-586.894	-200.000	0.023	-0.103
-585.879	67.771	-0.252	0.261
-584.865	-28.550	-0.054	0.032
-583.850	-8.323	-0.186	-0.127
-582.836	-8.306	0.246	-0.168
-581.821	800.000	0.051	-0.180
-580.806	-109.379	-0.264	-0.057
-579.792	198.822	-0.261	-0.405
-578.777	99.884	0.144	-0.170
-577.763	-87.347	-0.074	-0.023
-576.748	-58.470	0.336	-0.148
-575.733	100.142	-0.059	-0.069
-574.719	-156.014	0.195	0.013
-573.704	-24.258	0.247	0.150
-572.690	44.251	-0.096	-0.089
-571.675	230.798	0.102	0.170
-570.661	126.140	0.151	0.194
-569.646	-7.368	0.211	-0.145
-568.631	-62.675	0.138	-0.058
-567.617	7.084	0.134	-0.101
-566.602	30.667	0.144	-0.125
-565.588	-6.295	-0.188	-0.130
-564.573	26.141	-0.321	-0.272
-563.558	118.233	-0.129	0.161
-562.544	800.000	0.049	0.217
-561.529	-200.000	-0.036	-0.185
-560.515	99.143	0.118	-0.139
-559.500	800.000	-0.065	0.261
-558.485	-200.000	-0.001	0.156
-557.471	96.359	-0.336	0.390
-556.456	800.000	0.077	0.259
-555.442	-200.000	-0.001	0.368
-554.427	-119.991	0.295	-0.051
-553.412	-97.835	0.328	-0.086
-552.398	800.000	0.070	0.219
-551.383	-126.331	-0.346	0.052
-550.369	485.900	-0.173	0.399
-549.354	156.862	0.109	0.153
-548.339	97.913	-0.251	0.293
-547.325	200.582	-0.132	-0.205
-546.310	311.146	-0.082	0.157
-545.296	100.610	-0.098	0.116
-544.281	-112.011	-0.131	-0.027
-543.266	-200.000	0.056	0.262
-542.252	-132.211	-0.151	0.020
-541.237	-36.346	0.219	-0.120
-540.223	-91.447	0.059	-0.017
-539.208	65.554	0.164	-0.168
-538.193	179.351	-0.128	0.190
-537.179	48.294	-0.026	0.025
-536.164	-24.236	-0.086	0.052
-535.150	-120.746	0.332	-0.057
-534.135	144.858	0.331	-0.449
-533.121	201.976	0.105	-0.165
-532.106	-200.000	-0.014	0.132
-531.091	362.101	-0.239	0.486
-530.077	316.304	-0.062	0.118
-529.062	-200.000	-0.022	0.148
-528.048	-200.000	0.024	-0.195
-527.033	281.544	0.118	0.215
-526.018	87.989	0.118	0.132
-525.004	113.615	-0.041	-0.050
-523.989	-62.142	0.136	-0.058
-522.975	-116.583	-0.169	-0.032
-521.960	-200.000	-0.059	0.345
-520.945	90.365	0.128	0.145
-519.931	-138.793	-0.176	-0.019
-518.916	-200.000	0.049	0.319
-517.902	800.000	-0.051	0.146
-516.887	-55.733	0.214	-0.097
-515.872	156.785	0.072	0.101
-514.858	-17.824	-0.453	-0.288
-513.843	-110.704	-0.244	-0.051
-512.829	-141.524	-0.331	0.034
-511.814	-70.279	-0.028	-0.011
-510.799	-43.585	0.125	-0.064
-509.785	542.308	-0.049	-0.119
-508.770	7.645	0.352	0.267
-507.756	800.000	-0.092	-0.280
-506.741	201.321	0.026	0.041
-505.726	800.000	0.077	0.223
-504.712	800.000	0.038	-0.139
-503.697	141.611	0.215	0.288
-502.683	151.208	0.178	-0.245
-501.668	-38.008	-0.168	-0.090
-500.653	-200.000	-0.000	-0.157
-499.639	-200.000	-0.057	0.363
-498.624	-200.000	0.022	0.113
-497.610	103.158	-0.170	-0.202
-496.595	-200.000	-0.004	-0.135
-495.581	-17.058	0.049	0.031
-494.566	169.606	-0.023	-0.033
-493.551	-84.889	0.083	-0.027
-492.537	-43.756	0.125	-0.064
-491.522	74.065	-0.133	0.141
-490.508	12.523	0.104	-0.081
-489.493	-200.000	-0.011	-0.235
-488.478	-200.000	0.002	0.294
-487.464	101.727	-0.184	-0.218
-486.449	-147.912	-0.416	-0.035
-485.435	-75.058	0.390	0.141
-484.420	-118.153	-0.364	0.066
-483.405	328.336	0.137	-0.267
-482.391	168.246	0.064	0.092
-481.376	160.434	-0.094	-0.132
-480.362	60.696	-0.192	-0.193
-479.347	294.617	0.106	0.197
-478.332	413.108	-0.062	0.133
-477.318	-90.860	0.208	-0.061
-476.303	-66.173	-0.140	0.056
-475.289	-200.000	0.051	0.227
-474.274	-22.555	0.142	0.087
-473.259	-137.895	0.173	-0.020
-472.245	-118.264	-0.112	-0.020
-471.230	18.191	0.054	-0.044
-470.216	-45.604	-0.302	-0.151
-469.201	218.091	-0.272	0.440
-468.186	83.844	-0.225	0.249
-467.172	800.000	-0.051	-0.142
-466.157	-14.630	-0.222	-0.144
-465.143	-30.916	-0.095	0.054
-464.128	-129.184	0.332	-0.047
-463.113	-200.000	-0.035	-0.184
-462.099	-36.152	-0.127	0.069
-461.084	133.206	-0.091	-0.119
-460.070	683.150	-0.059	0.156
-459.055	85.769	-0.071	-0.079
-458.040	-124.586	-0.114	-0.018
-457.026	800.000	0.056	0.156
-456.011	-76.733	0.204	-0.072
-454.997	-150.492	-0.068	-0.005
-453.982	14.918	0.286	-0.226
-452.968	43.036	0.140	-0.129
-451.953	644.496	-0.077	-0.199
-450.938	138.738	0.137	0.181
-449.924	-114.792	0.193	-0.037
-448.909	94.526	0.250	-0.288
-447.895	-46.977	-0.308	-0.152
-446.880	-44.711	0.249	-0.126
-445.865	-200.000	0.027	-0.140
-444.851	59.369	-0.144	0.144
-443.836	-200.000	-0.014	0.093
-442.822	615.980	-0.105	0.267
-441.807	-141.050	0.195	0.020
-440.792	137.140	-0.034	0.045
-439.778	-58.667	-0.212	-0.093
-438.763	-200.000	-0.026	0.321
-437.749	670.656	0.109	-0.286
-436.734	-200.000	0.021	-0.196
-435.719	-128.736	-0.041	0.006
-434.705	-200.000	0.013	-0.196
-433.690	3.590	0.173	-0.127
-432.676	-48.095	0.470	0.229
-431.661	5.368	-0.034	-0.025
-430.646	266.950	-0.198	-0.349
-429.632	282.835	0.113	-0.205
-428.617	-15.854	0.052	-0.034
-427.603	138.722	0.122	-0.162
-426.588	-189.274	0.419	-0.005
-425.573	-200.000	-0.007	-0.167
-424.559	-81.008	0.093	-0.031
-423.544	-200.000	0.025	-0.386
-422.530	26.909	0.154	-0.131
-421.515	551.354	-0.018	0.044
-420.500	-147.059	-0.250	-0.022
-419.486	800.000	0.121	0.451
-418.471	-6.352	0.296	-0.204
-417.457	245.562	-0.252	-0.429
-416.442	298.677	0.213	-0.395
-415.428	-83.326	-0.045	-0.015
-414.413	187.163	0.156	-0.234
-413.398	277.835	-0.029	-0.052
-412.384	-19.762	0.114	0.071
-411.369	-189.351	0.274	0.003
-410.355	-41.738	-0.120	0.062
-409.340	34.237	-0.146	0.129
-408.325	-78.262	-0.310	-0.108
-407.311	-116.321	0.456	-0.085
-406.296	800.000	-0.070	0.266
-405.282	2.099	-0.159	-0.116
-404.267	-112.195	-0.267	-0.054
-403.252	800.000	0.032	-0.117
-402.238	-171.186	0.394	0.013
-401.223	-58.259	-0.174	0.076
-400.209	-60.420	-0.158	0.068
-399.194	4.834	-0.087	0.064
-398.179	146.246	0.158	0.213
-397.165	-200.000	0.016	0.100
-396.150	588.705	0.065	0.163
-395.136	-135.759	0.201	0.024
-394.121	-200.000	0.020	-0.244
-393.106	351.409	-0.085	-0.171
-392.092	303.281	-0.082	-0.153
-391.077	69.244	0.181	0.188
-390.063	800.000	-0.136	0.410
-389.048	129.560	0.171	0.220
-388.033	331.149	0.090	0.176
-387.019	-5.489	0.282	-0.195
-386.004	-143.814	-0.035	-0.003
-384.990	-182.698	0.301	-0.006
-383.975	58.362	0.072	0.071
-382.960	-81.353	-0.137	-0.045
-381.946	66.171	0.132	-0.135
-380.931	197.282	-0.221	0.340
-379.917	-110.564	-0.255	0.053
-378.902	21.718	-0.124	-0.102
-377.888	-129.175	0.219	0.031
-376.873	-200.000	0.008	0.121
-375.858	-200.000	-0.009	0.094
-374.844	293.626	-0.069	0.127
-373.829	800.000	0.040	-0.116
-372.815	-145.764	0.078	0.007
-371.800	-200.000	0.013	0.150
-370.785	586.712	0.103	0.255
-369.771	-200.000	0.023	0.348
-368.756	1.611	-0.148	0.107
-367.742	-66.929	0.067	-0.027
-366.727	398.369	0.119	0.252
-365.712	95.894	0.112	0.129
-364.698	-88.129	0.130	-0.039
-363.683	135.274	0.108	-0.142
-362.669	-167.439	-0.264	0.011
-361.654	-49.080	-0.092	-0.044
-360.639	-88.662	0.150	0.045
-359.625	299.231	-0.032	-0.059
-358.610	800.000	-0.026	-0.110
-357.596	-103.826	0.060	0.014
-356.581	-116.003	-0.076	0.014
-355.566	21.254	-0.314	0.257
-354.552	59.261	0.240	-0.238
-353.537	-89.914	0.277	-0.082
-352.523	-142.935	-0.268	0.026
-351.508	93.701	-0.035	0.040
-350.493	-65.161	0.100	-0.040
-349.479	-149.092	-0.163	-0.013
-348.464	447.632	0.057	0.127
-347.450	800.000	0.095	0.266
-346.435	-89.203	0.072	0.021
-345.420	71.093	-0.139	0.145
-344.406	-200.000	-0.005	-0.028
-343.391	-167.587	-0.128	-0.005
-342.377	-6.016	-0.329	-0.226
-341.362	-158.192	-0.369	0.022
-340.348	249.530	0.059	0.101
-339.333	-65.891	-0.254	0.102
-338.318	-200.000	-0.020	0.152
-337.304	233.346	0.175	0.289
-336.289	146.711	0.112	-0.152
-335.275	9.591	0.070	0.053
-334.260	155.873	-0.087	0.121
-333.245	1.951	0.104	0.075
-332.231	192.217	0.171	-0.259
-331.216	-118.861	-0.078	0.014
-330.202	586.892	0.070	-0.174
-329.187	-56.130	0.309	0.138
-328.172	-200.000	-0.016	0.238
-327.158	-89.444	-0.341	-0.101
-326.143	-88.870	0.205	0.061
-325.129	-200.000	0.010	-0.099
-324.114	-164.924	-0.231	0.010
-323.099	236.101	-0.047	-0.079
-322.085	149.619	0.225	-0.307
-321.070	173.286	0.132	-0.191
-320.056	-200.000	-0.012	-0.060
-319.041	-178.536	0.213	0.005
-318.026	-200.000	0.003	0.126
-317.012	794.154	-0.062	0.172
-315.997	58.230	-0.019	-0.018
-314.983	137.426	-0.095	0.124
-313.968	-200.000	0.011	-0.080
-312.953	800.000	-0.046	0.136
-311.939	800.000	0.060	0.174
-310.924	138.616	-0.184	0.243
-309.910	-200.000	-0.010	0.336
-308.895	21.150	-0.235	0.192
-307.880	-128.559	-0.126	0.018
-306.866	452.494	0.077	0.172
-305.851	180.075	-0.169	-0.250
-304.837	-99.837	0.072	0.018
-303.822	596.780	-0.132	0.328
-302.807	-48.132	-0.126	0.061
-301.793	-200.000	-0.038	0.196
-300.778	-200.000	0.034	-0.194
-299.764	102.214	-0.106	0.124
-298.749	-117.769	-0.159	0.029
-297.735	-79.721	-0.270	0.092
-296.720	800.000	-0.040	0.165
-295.705	-12.525	-0.086	-0.056
-294.691	-23.266	-0.207	0.125
-293.676	41.863	0.255	-0.232
-292.662	99.954	-0.058	0.067
-291.647	26.402	-0.141	-0.118
-290.632	-200.000	0.036	0.173
-289.618	-97.767	0.080	0.021
-288.603	-82.821	-0.652	-0.212
-287.589	-80.322	-0.454	-0.152
-286.574	-200.000	0.072	-0.344
-285.559	-200.000	-0.045	-0.248
-284.545	-200.000	0.003	-0.337
-283.530	-200.000	-0.025	-0.162
-282.516	43.651	-0.359	-0.330
-281.501	800.000	-0.015	0.058
-280.486	-92.260	-0.340	-0.096
-279.472	14.738	0.272	0.213
-278.457	490.929	-0.078	-0.178
-277.443	96.463	-0.047	0.054
-276.428	50.556	-0.076	-0.073
-275.413	-70.140	0.186	0.071
-274.399	-200.000	0.074	-0.595
-273.384	663.687	-0.131	-0.340
-272.370	-128.271	0.255	0.036
-271.355	-158.858	-0.249	0.014
-270.340	-172.259	0.140	0.005
-269.326	150.955	0.140	-0.190
-268.311	800.000	-0.077	-0.295
-267.297	-200.000	-0.001	0.111
-266.282	19.567	0.178	0.144
-265.267	-86.127	0.033	-0.010
-264.253	-65.114	-0.177	0.072
-263.238	800.000	0.079	-0.223
-262.224	-85.257	0.161	0.051
-261.209	-200.000	-0.061	0.281
-260.195	-27.659	0.273	0.159
-259.180	-172.897	-0.124	-0.004
-258.165	-108.282	0.139	-0.030
-257.151	240.885	0.164	0.275
-256.136	800.000	0.051	-0.210
-255.122	-161.585	0.014	0.001
-254.107	291.425	0.129	0.236
-253.092	-200.000	0.034	-0.163
-252.078	150.735	0.155	0.212
-251.063	-29.050	0.209	0.120
-250.049	-200.000	0.048	-0.254
-249.034	33.174	0.185	0.161
-248.019	-75.580	-0.414	0.148
-247.005	1.869	0.261	0.189
-245.990	-5.261	-0.251	-0.173
-244.976	800.000	-0.117	0.349
-243.961	59.826	-0.162	-0.160
-242.946	142.438	0.031	-0.041
-241.932	95.294	-0.162	-0.185
-240.917	800.000	-0.034	0.112
-239.903	-102.850	-0.086	0.021
-238.888	-95.322	-0.289	0.078
-237.873	-129.844	0.386	-0.053
-236.859	221.604	-0.159	0.257
-235.844	-200.000	-0.010	-0.094
-234.830	-7.978	-0.253	-0.171
-233.815	-200.000	0.012	0.122
-232.800	116.148	-0.156	0.191
-231.786	461.774	0.038	0.086
-230.771	11.140	0.016	0.012
-229.757	33.458	-0.026	0.023
-228.742	331.524	-0.013	0.025
-227.727	-148.483	0.345	-0.028
-226.713	-179.528	0.252	-0.006
-225.698	290.057	0.058	0.105
-224.684	-200.000	-0.019	0.306
-223.669	-10.140	0.144	0.096
-222.655	-168.810	0.263	0.010
-221.640	184.578	0.123	-0.182
-220.625	-15.428	-0.094	-0.060
-219.611	-52.108	-0.375	-0.174
-218.596	-55.960	-0.135	-0.060
-217.582	94.899	-0.206	0.235
-216.567	-200.000	-0.001	-0.008
-215.552	153.055	0.041	-0.056
-214.538	-30.385	-0.042	-0.024
-213.523	78.795	-0.093	0.100
-212.509	383.631	-0.094	-0.195
-211.494	-200.000	0.004	-0.444
-210.479	314.506	0.105	-0.198
-209.465	-118.614	0.257	0.046
-208.450	-114.405	0.479	-0.092
-207.436	-200.000	-0.007	0.190
-206.421	195.626	0.173	0.264
-205.406	455.654	0.099	0.221
-204.392	-76.167	0.283	0.100
-203.377	800.000	-0.044	0.159
-202.363	-200.000	-0.019	0.086
-201.348	-148.643	0.207	0.017
-200.333	-10.258	0.055	0.037
-199.319	587.548	-0.026	-0.065
-198.304	-200.000	-0.054	-0.272
-197.290	-200.000	0.034	-0.234
-196.275	-22.754	-0.155	-0.094
-195.260	156.181	-0.033	-0.045
-194.246	23.371	0.052	0.043
-193.231	-200.000	-0.009	0.217
-192.217	-48.722	0.116	0.056
-191.202	30.398	0.269	-0.230
-190.187	-200.000	-0.024	-0.256
-189.173	-200.000	0.031	0.140
-188.158	228.954	-0.168	0.274
-187.144	77.400	0.064	-0.068
-186.129	-35.645	0.150	-0.081
-185.114	800.000	-0.071	0.221
-184.100	-70.332	-0.174	-0.066
-183.085	-200.000	0.015	-0.406
-182.071	-200.000	0.036	0.293
-181.056	-102.049	-0.348	0.084
-180.042	311.078	-0.143	-0.268
-179.027	-10.492	-0.186	-0.123
-178.012	195.401	-0.097	0.147
-176.998	82.221	-0.086	0.093
-175.983	-141.160	0.297	-0.030
-174.969	92.903	-0.215	0.243
-173.954	426.464	0.059	-0.127
-172.939	-200.000	-0.005	0.110
-171.925	-76.192	-0.334	-0.118
-170.910	324.369	-0.115	-0.221
-169.896	-116.618	0.290	0.053
-168.881	13.523	-0.401	-0.311
-167.866	-9.016	-0.246	0.165
-166.852	302.734	0.160	0.297
-165.837	228.086	-0.117	0.191
-164.823	183.413	-0.160	0.236
-163.808	-160.142	0.348	-0.019
-162.793	85.097	-0.156	-0.171
-161.779	800.000	-0.045	0.153
-160.764	-200.000	0.012	-0.071
-159.750	57.510	0.090	0.088
-158.735	11.072	0.100	0.077
-157.720	-200.000	-0.011	-0.058
-156.706	-43.731	0.188	0.095
-155.691	-47.904	-0.161	0.078
-154.677	309.981	0.074	-0.138
-153.662	159.007	0.133	-0.185
-152.647	-190.710	-0.288	-0.003
-151.633	-38.915	0.297	0.157
-150.618	-200.000	0.018	0.208
-149.604	800.000	-0.026	0.102
-148.589	-104.353	-0.199	0.046
-147.574	-200.000	0.019	-0.094
-146.560	-105.418	0.090	-0.020
-145.545	39.702	0.113	-0.101
-144.531	58.992	0.079	0.078
-143.516	200.168	0.157	0.241
-142.502	-200.000	0.001	-0.044
-141.487	13.657	0.058	0.045
-140.472	-200.000	-0.062	0.316
-139.458	135.720	-0.104	-0.135
-138.443	-17.323	0.192	-0.121
-137.429	-76.425	-0.228	-0.080
-136.414	-109.469	-0.165	0.035
-135.399	-200.000	-0.019	0.216
-134.385	99.448	0.066	0.076
-133.370	-109.480	0.546	-0.115
-132.356	168.175	0.145	-0.206
-131.341	-200.000	-0.030	-0.297
-130.326	-33.989	-0.242	-0.133
-129.312	56.158	-0.019	0.019
-128.297	-117.999	-0.099	0.018
-127.283	260.724	-0.062	-0.108
-126.268	-26.285	-0.169	0.099
-125.253	-170.476	0.247	0.009
-124.239	-22.016	-0.409	0.248
-123.224	-200.000	0.011	0.054
-122.210	-127.479	-0.130	0.019
