DTS Sentinel unit serial number:	SN413079Multiplexer serial number:	ORYXHardware model number:	OX4-SRSoftware version number:	ORYX F/W v4.00 Oryx Data Collector v3.7.2.0data status	okinstallation	princeton_trtdifferential loss correction	single-endedforward channel	channel 1reverse channel	N/Adate	2019/09/12time	19:47:34forward acquisition time	15.00reverse acquisition time	0.00gamma	496.2192k internal	0.2322k external	0.2322temperature offset calibration	1.0141default loss term (dB/km)	0.3790temperature slope calibration	1.0000multiplexer offset coefficient	1.0000multiplexer slope coefficient	1.0000fibre end	0.00T internal ref (°C)	31.94T ext. ref 1 (°C)	3.46T ext. ref 2 (°C)	26.56length (m)	temperature (°C)	Stokes	anti-Stokes-747.200	572.683	0.259	-0.639
-746.185	-0.863	-0.806	0.577
-745.171	800.000	-0.268	0.841
-744.156	-200.000	-0.068	0.765
-743.142	-67.128	1.175	0.468
-742.127	118.888	0.681	-0.850
-741.112	800.000	-0.308	-0.934
-740.098	2.297	0.649	-0.474
-739.083	-126.818	-0.733	-0.109
-738.069	-200.000	0.185	0.875
-737.054	223.531	-0.180	0.293
-736.039	-138.015	-0.559	0.063
-735.025	-104.675	0.340	-0.079
-734.010	282.438	-0.379	-0.686
-732.996	800.000	0.208	-0.634
-731.981	461.064	0.402	0.904
-730.966	-103.554	0.770	0.183
-729.952	243.739	0.219	0.371
-728.937	800.000	-0.097	-0.351
-727.923	147.012	0.198	-0.269
-726.908	-17.033	-0.226	-0.144
-725.894	-200.000	-0.066	0.794
-724.879	184.049	-0.167	-0.249
-723.864	34.711	0.275	0.243
-722.850	-62.378	-0.455	0.191
-721.835	-200.000	-0.028	0.347
-720.821	17.433	-0.213	-0.171
-719.806	-92.717	-0.391	0.110
-718.791	800.000	0.204	-0.757
-717.777	-200.000	0.004	0.717
-716.762	12.961	0.244	-0.190
-715.748	729.273	0.139	0.373
-714.733	-200.000	-0.159	-0.718
-713.718	-60.085	-0.498	-0.215
-712.704	664.009	0.294	0.767
-711.689	34.391	0.406	-0.358
-710.675	-200.000	-0.113	0.739
-709.660	800.000	0.076	0.270
-708.645	-79.865	0.454	-0.154
-707.631	-107.230	-0.194	0.043
-706.616	-9.662	0.383	0.257
-705.602	75.603	-0.218	0.232
-704.587	241.579	0.483	0.814
-703.572	-69.434	-0.134	0.052
-702.558	25.787	0.411	0.346
-701.543	88.675	-0.841	-0.943
-700.529	-46.711	0.389	0.192
-699.514	-171.418	-0.880	-0.030
-698.499	-200.000	-0.044	0.457
-697.485	-146.628	0.348	0.030
-696.470	100.755	0.358	0.420
-695.456	-16.973	0.412	0.262
-694.441	141.417	0.224	0.300
-693.426	-2.654	0.128	0.090
-692.412	-33.794	-0.223	0.124
-691.397	-200.000	-0.094	0.542
-690.383	326.165	0.175	-0.338
-689.368	-81.016	-1.260	-0.420
-688.354	-168.271	-0.608	0.024
-687.339	400.346	0.203	-0.430
-686.324	-94.627	0.455	-0.125
-685.310	-189.054	0.597	-0.007
-684.295	-166.445	0.234	0.010
-683.281	-200.000	-0.209	1.141
-682.266	62.436	-0.231	-0.232
-681.251	-200.000	-0.027	-0.471
-680.237	69.413	-0.403	0.418
-679.222	-109.082	0.443	0.095
-678.208	-170.417	0.643	0.023
-677.193	133.259	-0.303	0.395
-676.178	-200.000	-0.052	0.367
-675.164	-200.000	0.042	0.399
-674.149	-200.000	-0.037	0.228
-673.135	-163.697	-0.907	0.043
-672.120	-187.682	1.129	0.015
-671.105	-54.559	0.343	0.156
-670.091	224.264	-0.681	-1.109
-669.076	178.437	0.192	-0.282
-668.062	235.886	0.086	0.144
-667.047	800.000	0.016	0.055
-666.032	-80.228	0.700	0.236
-665.018	800.000	0.162	0.582
-664.003	-101.264	0.506	0.124
-662.989	-38.778	0.312	-0.166
-661.974	-165.370	-0.355	0.016
-660.959	-149.393	-0.531	-0.043
-659.945	124.294	-0.319	-0.404
-658.930	38.437	-0.606	-0.544
-657.916	800.000	0.291	0.937
-656.901	238.256	0.237	0.396
-655.886	-104.284	0.390	0.091
-654.872	151.298	-0.747	-1.023
-653.857	-200.000	-0.065	-0.547
-652.843	-200.000	0.089	-0.405
-651.828	800.000	0.166	0.706
-650.814	-25.767	-0.585	-0.347
-649.799	800.000	-0.075	-0.294
-648.784	8.298	0.282	0.213
-647.770	-75.952	-0.422	0.150
-646.755	-112.822	-0.278	-0.056
-645.741	419.263	0.307	-0.661
-644.726	-92.958	-0.113	0.032
-643.711	563.075	-0.213	-0.518
-642.697	753.594	-0.150	-0.407
-641.682	-157.625	-0.323	-0.019
-640.668	-32.361	-0.632	-0.355
-639.653	800.000	0.194	-0.810
-638.638	101.272	0.482	-0.565
-637.624	21.103	-0.739	0.603
-636.609	-5.844	-0.178	0.122
-635.595	117.664	0.264	-0.327
-634.580	-120.187	0.618	0.106
-633.565	-54.162	-0.632	-0.289
-632.551	263.232	0.343	-0.600
-631.536	-200.000	0.019	0.276
-630.522	78.741	-0.398	0.428
-629.507	-110.566	-0.621	-0.129
-628.492	-77.947	-0.171	-0.059
-627.478	540.905	-0.349	-0.837
-626.463	49.289	0.519	-0.491
-625.449	-138.322	-0.232	0.026
-624.434	217.702	-0.529	-0.848
-623.419	-87.656	0.905	-0.275
-622.405	-167.789	-0.350	-0.014
-621.390	7.452	-0.678	0.510
-620.376	443.923	-0.200	-0.442
-619.361	-18.906	0.595	0.372
-618.346	800.000	-0.149	0.470
-617.332	-37.605	0.304	0.163
-616.317	52.663	-0.506	-0.486
-615.303	150.794	0.286	-0.391
-614.288	-104.760	0.157	-0.036
-613.273	800.000	0.419	1.248
-612.259	656.578	-0.148	-0.382
-611.244	-200.000	-0.053	0.311
-610.230	-43.793	1.034	0.523
-609.215	800.000	-0.125	-0.526
-608.201	167.857	-0.059	0.084
-607.186	-40.879	0.240	-0.125
-606.171	-200.000	-0.084	0.901
-605.157	-137.151	-0.871	0.100
-604.142	-200.000	-0.087	0.753
-603.128	-104.499	-0.535	-0.124
-602.113	212.417	-0.475	-0.752
-601.098	-63.169	0.065	0.027
-600.084	-93.382	0.506	0.141
-599.069	-200.000	-0.038	0.234
-598.055	800.000	0.251	-0.748
-597.040	102.276	0.249	-0.292
-596.025	-56.237	0.522	-0.233
-595.011	13.491	-0.286	-0.223
-593.996	-90.255	-1.165	-0.340
-592.982	-121.850	1.140	-0.189
-591.967	-200.000	-0.085	-0.808
-590.952	800.000	-0.122	-0.525
-589.938	-44.995	0.017	0.009
-588.923	24.159	0.216	0.179
-587.909	800.000	0.132	0.536
-586.894	-97.970	0.200	0.052
-585.879	692.770	-0.211	-0.557
-584.865	-136.496	-0.589	-0.069
-583.850	742.172	-0.077	-0.208
-582.836	470.661	0.142	-0.322
-581.821	-16.107	-0.277	0.176
-580.806	-200.000	0.015	0.085
-579.792	-125.812	0.136	-0.021
-578.777	743.644	0.259	-0.700
-577.763	-158.517	-0.261	-0.015
-576.748	-122.098	0.728	-0.120
-575.733	-200.000	-0.012	-0.561
-574.719	-138.958	1.212	0.132
-573.704	-126.962	-0.457	-0.067
-572.690	-130.777	0.168	0.023
-571.675	-41.673	0.468	-0.241
-570.661	609.626	0.272	0.681
-569.646	-131.922	-0.457	-0.060
-568.631	-200.000	0.101	0.528
-567.617	-12.077	-0.354	0.232
-566.602	-200.000	-0.111	-0.945
-565.588	575.178	-0.349	-0.854
-564.573	-62.859	0.686	-0.285
-563.558	-56.870	0.388	0.172
-562.544	-200.000	0.009	0.250
-561.529	-172.694	0.380	0.012
-560.515	-56.814	0.107	0.048
-559.500	410.594	-0.175	0.372
-558.485	201.996	0.217	0.335
-557.471	-160.443	0.085	0.005
-556.456	-150.451	-1.239	-0.095
-555.442	-175.488	-0.709	-0.019
-554.427	800.000	0.338	0.965
-553.412	111.906	0.380	0.460
-552.398	-145.943	0.298	0.026
-551.383	537.491	-0.070	0.166
-550.369	800.000	-0.166	-0.563
-549.354	44.889	0.263	0.243
-548.339	-165.216	0.059	0.003
-547.325	144.324	-0.364	-0.487
-546.310	-200.000	-0.006	-0.974
-545.296	-186.743	-0.497	-0.007
-544.281	-76.429	-0.463	-0.163
-543.266	-52.297	-0.770	-0.358
-542.252	-74.496	0.432	-0.156
-541.237	-20.223	0.663	-0.410
-540.223	800.000	0.112	0.461
-539.208	94.131	0.300	0.342
-538.193	-200.000	-0.054	-0.393
-537.179	-90.732	-0.426	-0.123
-536.164	-14.075	-0.274	-0.177
-535.150	-37.265	-0.110	0.059
-534.135	-51.872	-0.544	-0.254
-533.121	-200.000	-0.073	-0.785
-532.106	800.000	0.100	-0.416
-531.091	-200.000	-0.172	0.872
-530.077	-39.811	0.556	-0.291
-529.062	342.549	0.189	-0.371
-528.048	316.771	-0.138	0.261
-527.033	284.299	-0.197	0.355
-526.018	800.000	0.304	-0.900
-525.004	100.345	-0.383	0.445
-523.989	-123.112	0.536	0.086
-522.975	-200.000	-0.037	-0.290
-521.960	-87.604	0.607	-0.184
-520.945	-200.000	-0.094	0.867
-519.931	-200.000	0.053	-0.459
-518.916	-62.475	1.138	-0.474
-517.902	-134.782	0.094	0.011
-516.887	46.577	-0.505	0.469
-515.872	-55.898	0.422	-0.189
-514.858	-167.775	-0.456	-0.018
-513.843	-200.000	0.018	0.443
-512.829	91.987	-0.384	0.433
-511.814	697.971	0.356	0.936
-510.799	-200.000	-0.048	0.589
-509.785	-42.865	0.218	0.111
-508.770	-17.368	-0.528	-0.333
-507.756	-200.000	0.004	-0.133
-506.741	38.862	0.446	-0.399
-505.726	-141.156	-0.288	0.029
-504.712	100.648	0.180	-0.210
-503.697	-200.000	-0.004	-0.081
-502.683	800.000	0.072	0.305
-501.668	800.000	0.269	0.789
-500.653	-200.000	0.118	-0.581
-499.639	-23.610	-0.169	-0.101
-498.624	800.000	-0.140	-0.409
-497.610	12.976	-0.361	-0.280
-496.595	800.000	-0.194	0.665
-495.581	800.000	0.108	-0.402
-494.566	194.511	-0.211	0.320
-493.551	-200.000	0.007	-0.114
-492.537	-200.000	0.123	0.653
-491.522	149.616	-0.140	0.189
-490.508	-40.867	0.472	0.244
-489.493	800.000	0.135	0.445
-488.478	800.000	0.050	0.155
-487.464	160.336	-0.210	0.293
-486.449	-63.479	-0.392	-0.161
-485.435	87.656	0.385	0.426
-484.420	-200.000	0.125	-0.571
-483.405	-78.588	-0.311	-0.106
-482.391	-200.000	-0.036	0.338
-481.376	233.049	-0.619	1.017
-480.362	-200.000	-0.112	0.513
-479.347	65.197	-0.716	0.724
-478.332	-61.225	-0.545	-0.229
-477.318	471.334	0.404	-0.909
-476.303	-200.000	0.029	0.482
-475.289	469.514	0.085	-0.191
-474.274	800.000	-0.307	-0.952
-473.259	-37.736	0.026	0.014
-472.245	-98.532	-0.877	0.224
-471.230	124.401	0.221	0.278
-470.216	-186.543	0.398	-0.006
-469.201	-29.206	0.945	-0.541
-468.186	114.433	0.701	0.853
-467.172	443.532	-0.252	0.552
-466.157	-89.691	-0.353	-0.103
-465.143	-200.000	-0.024	0.324
-464.128	284.671	0.354	-0.637
-463.113	69.431	0.044	-0.045
-462.099	120.408	-0.360	-0.447
-461.084	-33.055	-0.443	0.246
-460.070	596.328	0.076	0.187
-459.055	-200.000	0.024	-0.281
-458.040	13.978	0.609	0.473
-457.026	-169.639	0.404	0.015
-456.011	143.467	-0.310	-0.412
-454.997	-52.095	-0.188	0.087
-453.982	-200.000	-0.039	0.434
-452.968	737.867	0.346	0.926
-451.953	800.000	0.262	-0.752
-450.938	-39.208	0.727	0.382
-449.924	153.214	-0.475	-0.649
-448.909	64.573	0.169	-0.170
-447.895	11.675	-0.577	-0.442
-446.880	336.878	0.282	0.547
-445.865	-81.672	0.449	0.147
-444.851	800.000	0.197	-0.776
-443.836	-200.000	-0.100	-0.485
-442.822	-78.298	-0.842	0.289
-441.807	238.968	-0.431	0.716
-440.792	154.124	-0.251	-0.344
-439.778	330.635	-0.132	-0.254
-438.763	-71.782	0.219	0.081
-437.749	-1.359	-0.160	-0.113
-436.734	55.526	0.728	0.703
-435.719	-86.344	-0.443	0.136
-434.705	410.029	-0.349	0.738
-433.690	-134.674	0.787	-0.096
-432.676	221.797	0.210	0.337
-431.661	350.843	0.520	1.026
-430.646	-200.000	0.167	0.740
-429.632	29.467	-0.971	-0.824
-428.617	-107.818	0.537	0.117
-427.603	307.067	-0.180	-0.335
-426.588	150.287	0.121	-0.164
-425.573	-150.776	0.884	0.067
-424.559	76.748	-0.663	-0.702
-423.544	-21.747	-0.450	-0.273
-422.530	-90.025	-0.127	0.037
-421.515	288.026	0.200	-0.361
-420.500	-26.488	-0.231	-0.135
-419.486	0.567	-0.480	0.342
-418.471	-132.086	0.373	0.048
-417.457	93.086	-0.239	0.270
-416.442	92.208	0.285	-0.320
-415.428	-200.000	0.081	-0.999
-414.413	-157.109	-0.591	-0.036
-413.398	29.721	0.579	-0.492
-412.384	800.000	-0.203	-0.590
-411.369	-164.070	-0.385	-0.018
-410.355	115.073	-0.381	0.463
-409.340	800.000	0.155	-0.500
-408.325	800.000	-0.200	0.576
-407.311	336.263	-0.282	0.545
-406.296	-200.000	0.115	0.860
-405.282	-200.000	-0.024	0.405
-404.267	-99.490	-0.622	-0.156
-403.252	-104.242	-0.739	0.171
-402.238	556.278	-0.132	0.317
-401.223	-200.000	0.012	-0.193
-400.209	-127.969	0.109	0.016
-399.194	23.769	0.476	0.391
-398.179	620.207	0.245	0.613
-397.165	48.762	0.782	0.731
-396.150	-131.037	0.242	-0.032
-395.136	98.152	0.578	-0.664
-394.121	-122.935	-0.617	0.099
-393.106	149.228	-0.395	-0.533
-392.092	-11.982	-0.126	-0.082
-391.077	-200.000	-0.062	0.387
-390.063	-200.000	0.037	-0.747
-389.048	-118.557	0.508	0.089
-388.033	367.189	-0.256	-0.514
-387.019	201.720	-0.213	0.327
-386.004	-94.905	0.641	0.173
-384.990	-165.487	1.029	-0.045
-383.975	-200.000	0.037	0.808
-382.960	-154.458	-0.385	-0.026
-381.946	-18.076	-0.171	-0.107
-380.931	-172.329	-0.539	-0.017
-379.917	-200.000	-0.232	-0.001
-378.902	800.000	0.129	-0.551
-377.888	-19.358	0.221	0.137
-376.873	800.000	0.277	1.090
-375.858	800.000	-0.234	0.675
-374.844	-121.080	0.289	0.048
-373.829	282.166	0.249	-0.444
-372.815	-190.040	-0.358	-0.004
-371.800	35.935	0.573	-0.502
-370.785	-200.000	0.310	-0.001
-369.771	-154.674	-0.788	-0.052
-368.756	-108.197	-0.535	0.115
-367.742	-29.113	-0.457	-0.261
-366.727	87.555	0.252	0.278
-365.712	-150.395	1.279	-0.098
-364.698	-60.208	0.478	-0.203
-363.683	282.962	0.255	-0.455
-362.669	55.627	-0.289	0.279
-361.654	13.682	0.515	-0.398
-360.639	7.804	-0.173	-0.129
-359.625	3.396	0.207	0.150
-358.610	-126.568	-0.448	0.066
-357.596	6.226	-0.608	-0.448
-356.581	-200.000	-0.006	0.133
-355.566	-127.112	0.683	-0.100
-354.552	-113.361	-0.507	-0.099
-353.537	-200.000	-0.005	-0.093
-352.523	140.181	0.275	0.360
-351.508	655.517	0.236	0.603
-350.493	105.800	0.626	0.737
-349.479	-200.000	0.048	-0.498
-348.464	104.992	0.440	-0.516
-347.450	-16.693	0.688	-0.433
-346.435	143.938	-0.364	-0.482
-345.420	-21.352	-0.413	-0.251
-344.406	55.120	0.473	0.455
-343.391	13.187	-0.461	0.355
-342.377	800.000	0.082	0.337
-341.362	379.182	-0.180	-0.367
-340.348	-79.688	0.571	-0.191
-339.333	-22.764	-0.264	-0.158
-338.318	-94.788	0.357	-0.096
-337.304	800.000	0.228	-0.667
-336.289	2.381	-0.308	0.221
-335.275	171.433	-0.349	0.498
-334.260	3.337	0.284	-0.206
-333.245	371.371	-0.260	-0.525
-332.231	44.253	-0.270	-0.246
-331.216	74.943	0.451	-0.472
-330.202	31.299	0.515	0.439
-329.187	-138.336	-0.418	0.046
-328.172	-108.901	-0.670	-0.142
-327.158	9.029	0.509	0.382
-326.143	-115.693	0.622	-0.116
-325.129	800.000	-0.108	-0.298
-324.114	-124.321	0.911	0.141
-323.099	-117.961	-0.877	0.156
-322.085	17.977	0.413	-0.327
-321.070	-87.992	-0.536	-0.160
-320.056	237.757	-0.141	-0.232
-319.041	-28.345	0.284	0.163
-318.026	8.039	-0.296	-0.220
-317.012	7.881	-0.543	0.404
-315.997	-166.024	-0.283	-0.012
-314.983	-68.404	-0.789	-0.304
-313.968	-200.000	-0.025	-0.381
-312.953	-117.657	-0.295	0.053
-311.939	-49.659	0.237	0.112
-310.924	-200.000	0.019	0.297
-309.910	245.343	-0.597	0.998
-308.895	243.985	-0.191	0.318
-307.880	262.573	-0.074	0.127
-306.866	-200.000	-0.031	0.304
-305.851	123.079	-0.063	0.079
-304.837	-156.706	0.326	0.020
-303.822	34.010	-0.510	0.441
-302.807	190.708	0.078	0.116
-301.793	-54.129	0.728	0.329
-300.778	765.374	0.127	0.343
-299.764	6.394	0.602	0.443
-298.749	184.787	-0.354	0.521
-297.735	127.457	-0.501	0.631
-296.720	20.456	0.304	0.244
-295.705	-200.000	-0.006	0.122
-294.691	-200.000	-0.037	-0.690
-293.676	69.864	-0.371	0.380
-292.662	-200.000	0.002	-0.096
-291.647	29.234	-0.123	0.104
-290.632	-12.166	-0.762	-0.495
-289.618	800.000	0.081	-0.236
-288.603	541.462	-0.055	-0.130
-287.589	23.699	-0.177	-0.145
-286.574	-150.261	-0.191	-0.015
-285.559	-61.471	0.804	-0.335
-284.545	-133.277	0.211	0.026
-283.530	-161.865	0.106	-0.005
-282.516	800.000	-0.245	0.911
-281.501	423.443	-0.056	0.120
-280.486	365.578	-0.220	-0.439
-279.472	205.785	0.499	-0.769
-278.457	-159.376	-0.393	0.022
-277.443	-25.514	-0.154	-0.090
-276.428	-200.000	0.076	0.435
-275.413	800.000	0.163	-0.624
-274.399	-200.000	0.121	0.882
-273.384	-130.484	0.251	-0.034
-272.370	-200.000	-0.002	0.283
-271.355	23.081	0.343	-0.279
-270.340	-155.660	-0.113	-0.007
-269.326	510.029	0.153	-0.352
-268.311	-200.000	0.045	0.198
-267.297	-67.885	0.460	-0.178
-266.282	191.118	-0.475	-0.709
-265.267	-13.873	-0.469	-0.301
-264.253	-10.646	-0.801	0.525
-263.238	149.661	-0.416	-0.558
-262.224	-71.248	0.628	-0.234
-261.209	81.267	0.611	-0.654
-260.195	-41.594	-0.453	0.231
-259.180	800.000	-0.148	-0.625
-258.165	800.000	-0.193	-0.796
-257.151	-71.094	-0.347	0.129
-256.136	-36.655	0.291	0.155
-255.122	-75.452	-0.709	0.250
-254.107	3.003	-0.716	0.516
-253.092	401.199	0.214	-0.444
-252.078	800.000	0.074	-0.309
-251.063	-82.696	0.441	0.142
-250.049	126.263	0.217	-0.272
-249.034	-75.465	0.208	0.074
-248.019	-111.241	-0.269	0.055
-247.005	800.000	-0.066	0.279
-245.990	3.878	0.056	-0.041
-244.976	645.145	0.191	0.483
-243.961	43.783	-0.600	0.544
-242.946	800.000	0.204	-0.616
-241.932	267.786	-0.320	0.556
-240.917	800.000	0.272	1.094
-239.903	9.031	0.638	-0.477
-238.888	36.023	0.492	-0.429
-237.873	39.901	0.398	0.354
-236.859	-47.850	-0.276	-0.132
-235.844	195.840	0.331	-0.499
-234.830	150.067	-0.341	0.458
-233.815	800.000	0.022	0.064
-232.800	-2.366	-0.565	-0.392
-231.786	169.249	-0.114	0.162
-230.771	727.178	0.095	-0.251
-229.757	262.413	0.403	-0.692
-228.742	53.953	0.165	-0.157
-227.727	-99.911	0.333	0.082
-226.713	800.000	0.078	0.314
-225.698	-150.755	-1.121	0.084
-224.684	388.808	-0.368	0.755
-223.669	-200.000	0.080	0.719
-222.655	-111.211	0.900	-0.182
-221.640	72.931	0.445	-0.460
-220.625	-142.262	0.354	0.035
-219.611	128.217	0.294	0.370
-218.596	15.062	-0.816	0.632
-217.582	115.416	-0.415	-0.502
-216.567	-200.000	-0.069	-0.489
-215.552	-200.000	-0.066	-0.898
-214.538	-64.013	0.441	-0.178
-213.523	35.553	0.106	-0.092
-212.509	-73.548	0.206	-0.075
-211.494	328.634	-0.332	0.631
-210.479	420.128	0.224	0.475
-209.465	-200.000	0.107	0.689
-208.450	-200.000	0.001	1.268
-207.436	73.823	0.736	0.764
-206.421	-62.405	0.101	0.042
-205.406	-200.000	-0.026	0.211
-204.392	23.883	0.788	-0.642
-203.377	-22.770	-0.166	-0.099
-202.363	-200.000	-0.058	-0.914
-201.348	-37.269	0.260	0.138
-200.333	16.661	0.190	0.149
-199.319	228.199	-0.336	-0.540
-198.304	800.000	0.191	-0.754
-197.290	56.748	0.373	-0.359
-196.275	470.936	-0.287	0.638
-195.260	13.476	-0.633	0.486
-194.246	-23.865	-0.525	0.311
-193.231	6.475	0.349	0.256
-192.217	-200.000	-0.061	0.299
-191.202	-200.000	-0.037	0.522
-190.187	800.000	0.113	-0.313
-189.173	-200.000	-0.262	-1.142
-188.158	-200.000	-0.093	-0.419
-187.144	-200.000	0.017	0.114
-186.129	-79.625	-0.371	-0.124
-185.114	30.977	0.450	-0.381
-184.100	233.057	0.230	0.374
-183.085	-200.000	0.082	-0.634
-182.071	-200.000	-0.055	-0.446
-181.056	-125.248	0.745	0.113
-180.042	-82.323	0.757	0.243
-179.027	-200.000	-0.053	0.624
-178.012	800.000	0.339	1.034
-176.998	800.000	-0.174	0.603
-175.983	-57.407	-0.150	0.065
-174.969	-42.924	-0.212	-0.107
-173.954	62.935	-0.215	0.212
-172.939	-200.000	-0.138	-1.133
-171.925	314.109	-0.478	0.888
-170.910	422.162	0.098	0.207
-169.896	439.171	0.222	0.478
-168.881	44.574	-0.166	0.151
-167.866	105.886	0.433	-0.506
-166.852	-8.190	0.790	-0.526
-165.837	-200.000	0.103	0.684
-164.823	11.878	0.605	-0.459
-163.808	-44.824	-0.451	0.222
-162.793	-200.000	0.087	0.663
-161.779	265.826	-0.172	-0.296
-160.764	581.990	0.165	-0.400
-159.750	-97.722	0.498	0.127
-158.735	93.675	-0.348	-0.389
-157.720	265.870	-0.341	0.587
-156.706	41.911	-0.446	-0.399
-155.691	101.539	0.303	0.349
-154.677	141.037	-0.558	0.728
-153.662	183.631	-0.332	-0.485
-152.647	-77.311	-0.350	-0.120
-151.633	800.000	-0.183	0.787
-150.618	97.849	-0.076	0.087
-149.604	800.000	-0.279	-0.815
-148.589	-200.000	-0.016	0.232
-147.574	-200.000	0.041	0.764
-146.560	565.195	-0.353	-0.845
-145.545	5.831	-0.173	-0.127
-144.531	-55.576	-0.267	-0.118
-143.516	146.299	0.144	-0.191
-142.502	251.136	0.166	-0.278
-141.487	-12.394	-0.461	-0.297
-140.472	19.537	-0.190	0.151
-139.458	-105.950	-0.643	-0.143
-138.443	-200.000	-0.038	0.191
-137.429	-200.000	0.092	-0.416
-136.414	153.435	-0.273	0.369
-135.399	-45.774	0.278	-0.136
-134.385	800.000	0.262	0.970
-133.370	93.123	-0.355	-0.395
-132.356	120.796	0.323	0.396
-131.341	-42.108	0.356	0.180
-130.326	-51.645	0.473	-0.218
-129.312	18.253	0.211	0.166
-128.297	188.813	-0.393	0.580
-127.283	800.000	-0.100	-0.351
-126.268	800.000	0.118	0.463
-125.253	-77.944	-0.149	0.051
-124.239	-140.675	-0.460	0.047
-123.224	201.292	-0.111	-0.168
-122.210	-73.094	0.842	0.305
-121.195	231.945	0.549	0.888
