DTS Sentinel unit serial number:	SN413079Multiplexer serial number:	ORYXHardware model number:	OX4-SRSoftware version number:	ORYX F/W v4.00 Oryx Data Collector v3.7.2.0data status	okinstallation	princeton_trtdifferential loss correction	single-endedforward channel	channel 1reverse channel	N/Adate	2019/09/18time	14:54:35forward acquisition time	60.00reverse acquisition time	0.00gamma	496.2192k internal	0.2307k external	0.2307temperature offset calibration	0.9995default loss term (dB/km)	0.3790temperature slope calibration	1.0000multiplexer offset coefficient	1.0000multiplexer slope coefficient	1.0000fibre end	0.00T internal ref (°C)	35.17T ext. ref 1 (°C)	0.72T ext. ref 2 (°C)	30.34length (m)	temperature (°C)	Stokes	anti-Stokes-747.200	-10.185	0.131	-0.088
-746.185	800.000	-0.062	0.248
-745.171	-8.308	-0.180	0.123
-744.156	-200.000	0.019	0.449
-743.142	-28.531	0.063	0.037
-742.127	3.057	0.206	0.152
-741.112	-73.714	0.291	0.108
-740.098	217.838	-0.015	0.025
-739.083	-70.739	0.115	-0.044
-738.069	-200.000	-0.020	-0.138
-737.054	19.178	0.250	0.204
-736.039	-200.000	0.047	0.325
-735.025	626.532	0.026	0.066
-734.010	-153.521	-0.309	-0.022
-732.996	-113.808	0.361	0.071
-731.981	90.339	-0.402	-0.457
-730.966	800.000	-0.103	-0.412
-729.952	-62.590	0.175	-0.074
-728.937	46.957	0.068	-0.065
-727.923	198.874	-0.133	0.207
-726.908	-87.158	0.217	-0.067
-725.894	800.000	-0.114	-0.440
-724.879	800.000	0.062	0.238
-723.864	-16.709	0.138	-0.089
-722.850	-23.888	0.178	-0.108
-721.835	800.000	-0.024	-0.080
-720.821	115.902	0.196	0.244
-719.806	26.077	-0.182	-0.155
-718.791	772.344	-0.161	-0.445
-717.777	-22.440	-0.032	-0.020
-716.762	95.755	0.079	-0.091
-715.748	42.937	-0.221	-0.204
-714.733	-200.000	0.025	0.290
-713.718	-200.000	0.050	-0.361
-712.704	190.535	-0.233	-0.356
-711.689	48.041	0.150	-0.142
-710.675	2.144	0.028	0.021
-709.660	58.075	0.233	-0.232
-708.645	-15.050	-0.228	-0.148
-707.631	627.005	0.131	0.335
-706.616	-200.000	0.032	0.374
-705.602	143.087	0.223	0.301
-704.587	-142.924	0.474	-0.047
-703.572	-200.000	0.034	-0.321
-702.558	-200.000	0.008	-0.079
-701.543	99.263	0.102	-0.120
-700.529	-9.526	0.359	0.243
-699.514	-188.530	-0.206	0.003
-698.499	-122.212	0.112	-0.019
-697.485	-12.896	0.387	0.256
-696.470	-80.009	0.211	0.072
-695.456	-57.886	0.090	0.040
-694.441	800.000	-0.129	-0.377
-693.426	-67.636	0.337	-0.134
-692.412	-88.908	0.283	-0.085
-691.397	191.196	-0.165	-0.252
-690.383	319.336	0.084	-0.162
-689.368	-64.563	-0.056	-0.023
-688.354	-121.277	-0.382	-0.065
-687.339	66.816	-0.284	-0.294
-686.324	-127.220	-0.175	-0.026
-685.310	-108.580	0.083	-0.018
-684.295	-181.487	-0.469	0.009
-683.281	-102.546	0.363	0.088
-682.266	-200.000	0.018	0.257
-681.251	800.000	-0.028	-0.085
-680.237	-139.405	-0.149	-0.016
-679.222	-115.553	0.179	0.034
-678.208	188.869	0.181	-0.274
-677.193	-85.640	-0.159	0.050
-676.178	-200.000	0.010	0.096
-675.164	145.736	0.037	-0.051
-674.149	85.397	0.126	-0.141
-673.135	64.590	0.025	-0.025
-672.120	219.095	0.083	0.134
-671.105	-17.313	-0.132	-0.084
-670.091	-11.018	-0.240	0.160
-669.076	-200.000	-0.023	-0.139
-668.062	-56.936	-0.191	-0.085
-667.047	-73.501	0.098	0.036
-666.032	-200.000	0.007	-0.246
-665.018	-16.707	-0.374	0.240
-664.003	117.107	-0.242	0.302
-662.989	800.000	-0.086	-0.320
-661.974	82.447	-0.097	0.106
-660.959	800.000	0.108	-0.411
-659.945	-48.213	-0.271	-0.132
-658.930	-200.000	-0.052	-0.380
-657.916	-61.286	-0.105	-0.045
-656.901	-200.000	-0.002	0.327
-655.886	-163.939	-0.282	0.013
-654.872	-199.108	0.121	-0.001
-653.857	-64.774	0.157	0.064
-652.843	69.016	-0.134	0.139
-651.828	-163.650	0.206	-0.010
-650.814	-200.000	-0.064	0.297
-649.799	-73.104	0.157	0.058
-648.784	160.250	0.140	-0.198
-647.770	800.000	0.035	0.155
-646.755	800.000	-0.040	0.138
-645.741	-104.290	-0.145	-0.034
-644.726	-80.617	-0.423	0.143
-643.711	353.685	0.044	0.089
-642.697	374.408	0.071	-0.147
-641.682	534.313	0.153	-0.366
-640.668	-38.128	-0.244	-0.131
-639.653	-101.617	-0.245	-0.060
-638.638	-99.441	-0.252	0.064
-637.624	-51.268	0.153	0.072
-636.609	800.000	0.031	0.126
-635.595	38.903	0.258	0.234
-634.580	35.928	0.104	-0.092
-633.565	153.089	0.067	-0.093
-632.551	-200.000	-0.007	0.049
-631.536	-159.316	-0.085	0.005
-630.522	-200.000	0.008	0.196
-629.507	-200.000	-0.013	0.271
-628.492	-64.820	0.167	-0.068
-627.478	-200.000	0.019	-0.171
-626.463	300.323	-0.066	-0.123
-625.449	364.297	-0.135	0.274
-624.434	-30.793	-0.104	-0.060
-623.419	-56.983	0.042	-0.019
-622.405	55.863	0.449	0.440
-621.390	672.002	0.046	-0.121
-620.376	-148.703	-0.246	0.020
-619.361	9.205	-0.356	-0.272
-618.346	-59.110	0.196	0.085
-617.332	-39.531	0.244	-0.130
-616.317	-70.191	-0.224	0.086
-615.303	88.187	-0.209	0.235
-614.288	-72.393	-0.239	-0.089
-613.273	-168.071	0.216	-0.009
-612.259	212.201	0.087	0.139
-611.244	463.606	-0.063	0.143
-610.230	1.540	0.255	-0.186
-609.215	-70.835	0.335	-0.128
-608.201	582.826	-0.087	-0.217
-607.186	-57.297	-0.156	-0.069
-606.171	-105.293	0.158	-0.036
-605.157	-59.824	0.086	-0.037
-604.142	-155.886	-0.367	-0.024
-603.128	-180.746	-0.271	0.006
-602.113	-42.581	0.189	0.098
-601.098	-200.000	-0.064	-0.300
-600.084	128.435	-0.072	-0.092
-599.069	22.913	-0.194	0.161
-598.055	-200.000	0.015	-0.138
-597.040	-27.573	-0.248	0.146
-596.025	-200.000	-0.015	-0.141
-595.011	252.732	-0.163	0.280
-593.996	-51.553	-0.265	-0.125
-592.982	-33.139	0.315	-0.176
-591.967	-200.000	0.093	-0.514
-590.952	-24.656	-0.224	-0.135
-589.938	76.387	-0.069	0.074
-588.923	-123.823	-0.331	-0.053
-587.909	-112.551	-0.169	-0.034
-586.894	-191.289	-0.139	0.001
-585.879	-18.582	-0.181	-0.114
-584.865	148.595	0.038	-0.051
-583.850	-174.111	-0.319	-0.009
-582.836	-200.000	0.016	-0.152
-581.821	-39.113	-0.080	0.043
-580.806	-58.429	-0.434	-0.191
-579.792	-91.649	-0.117	-0.034
-578.777	524.171	0.006	0.014
-577.763	-200.000	0.019	0.215
-576.748	162.675	-0.149	-0.211
-575.733	-200.000	-0.009	0.370
-574.719	-53.383	-0.012	0.006
-573.704	795.504	-0.060	0.166
-572.690	-200.000	-0.011	-0.124
-571.675	-200.000	0.011	0.055
-570.661	800.000	-0.088	0.313
-569.646	-89.497	0.077	0.023
-568.631	-3.219	-0.234	-0.164
-567.617	108.320	-0.128	0.155
-566.602	-87.754	-0.375	-0.114
-565.588	-46.605	0.247	0.122
-564.573	800.000	-0.035	-0.107
-563.558	-123.856	0.338	-0.054
-562.544	-102.413	0.184	0.044
-561.529	-200.000	-0.045	0.239
-560.515	800.000	-0.062	0.260
-559.500	800.000	-0.014	-0.045
-558.485	48.678	0.333	0.316
-557.471	800.000	0.031	0.106
-556.456	33.269	-0.123	0.108
-555.442	108.667	0.145	0.175
-554.427	-200.000	-0.029	-0.141
-553.412	447.621	0.092	0.204
-552.398	21.799	0.186	-0.153
-551.383	-160.178	0.113	0.006
-550.369	800.000	0.050	0.208
-549.354	84.877	0.094	-0.103
-548.339	387.914	0.119	-0.248
-547.325	-164.511	0.192	-0.009
-546.310	-161.508	0.107	-0.006
-545.296	-2.005	-0.036	-0.025
-544.281	-41.219	-0.287	0.149
-543.266	172.811	0.054	-0.078
-542.252	144.348	-0.123	0.166
-541.237	-48.979	-0.201	-0.097
-540.223	32.478	0.116	-0.101
-539.208	613.058	0.171	0.431
-538.193	444.320	-0.064	-0.143
-537.179	-34.879	0.043	-0.024
-536.164	336.714	-0.066	-0.130
-535.150	-200.000	-0.110	-0.562
-534.135	96.293	0.350	-0.404
-533.121	800.000	0.042	-0.173
-532.106	-72.969	0.070	0.026
-531.091	-200.000	0.016	0.162
-530.077	-200.000	-0.298	-0.000
-529.062	18.171	0.178	0.144
-528.048	-102.188	0.154	0.037
-527.033	-71.631	-0.183	0.069
-526.018	369.625	-0.125	0.255
-525.004	248.645	-0.103	-0.176
-523.989	233.805	0.166	0.275
-522.975	-170.147	-0.227	0.008
-521.960	16.332	0.282	0.224
-520.945	-40.367	0.146	-0.076
-519.931	101.093	-0.136	0.159
-518.916	-200.000	-0.043	-0.285
-517.902	-40.527	-0.179	0.094
-516.887	-11.906	-0.382	-0.253
-515.872	-81.835	0.209	0.069
-514.858	425.699	0.071	0.155
-513.843	27.683	-0.254	0.216
-512.829	-123.045	-0.240	0.039
-511.814	92.847	0.115	0.131
-510.799	-200.000	-0.007	0.105
-509.785	-200.000	-0.018	0.243
-508.770	343.287	-0.041	-0.081
-507.756	-43.013	0.104	0.053
-506.741	800.000	-0.093	-0.335
-505.726	61.861	0.039	0.039
-504.712	-56.000	-0.138	0.062
-503.697	120.412	-0.315	0.394
-502.683	-19.084	-0.298	-0.186
-501.668	-44.601	0.344	0.173
-500.653	51.175	-0.210	0.201
-499.639	-200.000	-0.000	0.011
-498.624	-132.974	0.133	0.017
-497.610	146.026	-0.080	0.109
-496.595	138.644	0.137	0.181
-495.581	8.257	0.254	0.192
-494.566	135.968	-0.251	-0.329
-493.551	9.804	-0.116	0.089
-492.537	17.168	0.230	-0.184
-491.522	41.377	0.092	0.083
-490.508	-198.914	-0.176	0.001
-489.493	-61.190	0.571	-0.242
-488.478	-63.407	0.163	0.067
-487.464	314.228	-0.015	-0.028
-486.449	800.000	0.018	0.053
-485.435	800.000	-0.041	-0.118
-484.420	-83.850	-0.207	-0.067
-483.405	104.949	-0.121	-0.144
-482.391	142.193	-0.326	-0.436
-481.376	-200.000	0.021	0.179
-480.362	-200.000	-0.050	-0.249
-479.347	-200.000	-0.012	-0.057
-478.332	-118.778	-0.142	-0.025
-477.318	-113.733	0.114	-0.022
-476.303	207.759	-0.138	0.218
-475.289	-1.768	0.129	0.091
-474.274	-187.563	-0.249	-0.003
-473.259	-200.000	0.018	0.184
-472.245	-200.000	0.036	0.275
-471.230	-21.018	0.229	0.141
-470.216	128.843	0.052	-0.067
-469.201	-37.780	-0.237	0.127
-468.186	101.068	0.136	-0.159
-467.172	107.931	0.053	-0.063
-466.157	46.023	0.153	0.143
-465.143	-200.000	0.026	-0.186
-464.128	800.000	-0.092	-0.369
-463.113	-200.000	0.013	0.106
-462.099	0.885	-0.127	0.092
-461.084	-51.440	-0.237	-0.111
-460.070	-123.500	0.363	0.058
-459.055	800.000	-0.020	0.071
-458.040	105.915	-0.149	0.178
-457.026	158.578	-0.093	-0.130
-456.011	-200.000	-0.014	0.317
-454.997	-57.496	-0.224	-0.099
-453.982	-109.000	0.420	-0.090
-452.968	-200.000	0.030	-0.145
-451.953	-5.123	-0.168	0.116
-450.938	-200.000	0.002	0.173
-449.924	800.000	-0.083	-0.250
-448.909	6.445	0.151	0.113
-447.895	121.610	0.166	0.208
-446.880	800.000	0.027	-0.098
-445.865	35.345	-0.268	-0.236
-444.851	-200.000	0.003	-0.121
-443.836	-150.386	-0.164	0.013
-442.822	-73.310	0.270	-0.099
-441.807	-100.794	0.093	0.023
-440.792	134.315	-0.096	-0.125
-439.778	517.327	-0.053	0.125
-438.763	131.491	-0.207	0.268
-437.749	46.471	0.213	-0.198
-436.734	749.846	-0.060	0.163
-435.719	-200.000	-0.187	0.001
-434.705	800.000	0.086	-0.366
-433.690	-200.000	0.019	-0.102
-432.676	800.000	0.098	-0.387
-431.661	393.653	0.077	0.160
-430.646	-69.564	-0.271	0.104
-429.632	800.000	-0.015	-0.046
-428.617	11.310	0.267	-0.205
-427.603	-68.048	0.113	-0.044
-426.588	-172.852	-0.239	-0.007
-425.573	372.582	0.128	0.262
-424.559	-54.165	-0.207	-0.095
-423.544	-107.541	0.270	0.059
-422.530	-200.000	-0.077	-0.405
-421.515	800.000	0.109	0.318
-420.500	-109.165	-0.335	0.072
-419.486	-0.955	-0.193	-0.137
-418.471	-136.534	-0.193	-0.022
-417.457	-0.916	-0.163	-0.116
-416.442	10.840	-0.172	0.132
-415.428	-45.385	0.272	0.135
-414.413	-98.241	-0.253	-0.065
-413.398	-129.356	0.175	-0.024
-412.384	-32.269	-0.438	-0.245
-411.369	-200.000	-0.015	0.109
-410.355	-200.000	0.009	-0.211
-409.340	-20.714	0.080	0.049
-408.325	110.826	0.198	-0.239
-407.311	-138.885	-0.148	0.016
-406.296	13.289	-0.489	-0.380
-405.282	-200.000	0.001	0.023
-404.267	280.352	-0.074	-0.133
-403.252	-200.000	-0.013	0.142
-402.238	-200.000	-0.107	0.479
-401.223	-200.000	-0.010	0.334
-400.209	151.905	-0.087	-0.119
-399.194	-64.893	-0.240	-0.097
-398.179	-37.864	0.320	0.171
-397.165	-200.000	0.001	0.094
-396.150	-85.976	-0.281	0.087
-395.136	-94.879	0.039	0.010
-394.121	4.799	0.147	0.109
-393.106	800.000	0.050	0.196
-392.092	800.000	0.070	-0.232
-391.077	322.416	0.079	-0.151
-390.063	-135.524	0.152	-0.018
-389.048	175.117	0.083	-0.121
-388.033	94.760	0.224	0.255
-387.019	24.074	-0.276	0.228
-386.004	42.573	0.132	0.121
-384.990	311.592	-0.059	-0.110
-383.975	144.133	0.117	-0.156
-382.960	331.069	-0.088	-0.171
-381.946	-42.259	-0.292	0.150
-380.931	100.514	-0.250	0.292
-379.917	-44.952	0.256	0.128
-378.902	469.158	-0.025	-0.056
-377.888	-34.796	0.247	-0.135
-376.873	-200.000	0.047	-0.240
-375.858	-95.962	0.208	0.055
-374.844	-159.542	-0.175	0.010
-373.829	-200.000	0.040	0.209
-372.815	-46.889	-0.136	-0.067
-371.800	-83.004	0.066	0.021
-370.785	7.903	0.050	-0.037
-369.771	-102.583	-0.353	-0.084
-368.756	139.134	0.054	0.071
-367.742	-200.000	-0.073	-0.385
-366.727	125.314	-0.187	0.236
-365.712	-51.040	-0.114	0.054
-364.698	14.553	-0.187	-0.147
-363.683	-200.000	0.087	0.395
-362.669	388.233	-0.144	0.298
-361.654	-56.353	-0.292	0.130
-360.639	148.092	-0.167	0.225
-359.625	-44.242	0.357	-0.180
-358.610	-200.000	-0.036	-0.252
-357.596	-57.443	-0.258	-0.114
-356.581	80.443	-0.144	0.155
-355.566	-13.472	-0.161	0.105
-354.552	-48.888	-0.304	-0.146
-353.537	-200.000	0.034	0.197
-352.523	234.566	0.099	0.163
-351.508	134.722	0.040	0.051
-350.493	25.125	0.192	0.159
-349.479	-6.957	0.178	-0.121
-348.464	-55.402	0.526	-0.236
-347.450	-51.237	0.213	0.100
-346.435	33.942	0.262	-0.228
-345.420	-200.000	0.025	-0.162
-344.406	-76.736	0.221	-0.078
-343.391	-13.392	-0.296	0.193
-342.377	184.275	-0.101	0.150
-341.362	-93.569	0.085	0.023
-340.348	800.000	0.142	-0.404
-339.333	-0.609	0.066	0.047
-338.318	-200.000	-0.086	0.385
-337.304	-90.237	-0.024	-0.007
-336.289	800.000	0.017	-0.048
-335.275	-114.619	0.167	-0.032
-334.260	-200.000	0.016	-0.105
-333.245	-170.698	0.432	0.015
-332.231	190.618	0.113	0.170
-331.216	242.397	0.142	-0.237
-330.202	-3.833	0.153	0.106
-329.187	183.737	0.146	0.216
-328.172	16.515	0.302	0.238
-327.158	-200.000	-0.008	0.222
-326.143	225.860	-0.200	-0.325
-325.129	272.474	-0.140	-0.247
-324.114	241.826	0.113	-0.189
-323.099	-200.000	0.007	-0.154
-322.085	396.343	-0.222	-0.464
-321.070	78.721	0.155	-0.165
-320.056	-200.000	0.034	-0.226
-319.041	33.831	0.095	-0.083
-318.026	291.788	0.086	0.156
-317.012	-74.634	0.074	-0.026
-315.997	-31.557	0.346	0.194
-314.983	-154.445	-0.171	-0.011
-313.968	800.000	0.143	0.604
-312.953	-17.438	0.159	0.100
-311.939	512.651	0.093	-0.216
-310.924	585.259	-0.061	-0.150
-309.910	43.091	-0.219	0.200
-308.895	-71.416	0.168	0.063
-307.880	-71.718	0.141	-0.052
-306.866	343.081	0.102	-0.200
-305.851	343.026	-0.085	-0.166
-304.837	330.546	-0.048	0.092
-303.822	65.295	-0.260	-0.263
-302.807	8.489	-0.209	0.157
-301.793	468.391	0.092	0.207
-300.778	128.356	-0.030	0.038
-299.764	-200.000	-0.047	0.328
-298.749	47.740	-0.130	-0.121
-297.735	-4.871	-0.143	0.099
-296.720	131.723	0.126	-0.161
-295.705	-49.105	0.238	0.114
-294.691	65.421	0.187	0.189
-293.676	309.407	0.095	-0.178
-292.662	-132.736	0.103	0.013
-291.647	187.935	0.165	-0.247
-290.632	800.000	0.089	-0.277
-289.618	127.895	0.139	-0.176
-288.603	800.000	-0.056	-0.201
-287.589	800.000	0.046	0.152
-286.574	-20.760	0.110	0.067
-285.559	-200.000	-0.025	-0.325
-284.545	-79.552	0.257	-0.087
-283.530	800.000	-0.114	-0.315
-282.516	41.488	0.076	0.068
-281.501	800.000	0.092	-0.321
-280.486	800.000	-0.053	-0.198
-279.472	8.664	0.139	0.105
-278.457	-156.401	-0.351	0.022
-277.443	-85.176	-0.193	-0.060
-276.428	20.093	0.308	0.248
-275.413	39.438	0.382	0.342
-274.399	-141.445	-0.304	-0.031
-273.384	-200.000	0.017	0.365
-272.370	-200.000	0.128	0.001
-271.355	-136.338	-0.400	0.047
-270.340	-73.921	0.150	-0.055
-269.326	112.894	-0.242	0.292
-268.311	800.000	-0.024	-0.073
-267.297	-146.649	0.370	0.032
-266.282	-136.643	0.312	-0.036
-265.267	800.000	-0.055	-0.219
-264.253	19.459	0.034	0.027
-263.238	253.510	-0.148	-0.252
-262.224	800.000	-0.036	-0.136
-261.209	95.646	0.152	-0.173
-260.195	301.146	0.115	-0.212
-259.180	-13.146	-0.097	0.063
-258.165	15.683	0.070	0.055
-257.151	594.510	-0.064	-0.157
-256.136	41.053	0.267	-0.241
-255.122	-200.000	0.016	0.079
-254.107	234.692	-0.263	-0.433
-253.092	61.152	-0.092	0.091
-252.078	-139.825	-0.060	0.006
-251.063	-158.652	-0.227	0.013
-250.049	-16.595	-0.296	0.187
-249.034	144.542	0.286	-0.381
-248.019	160.532	0.192	-0.268
-247.005	-200.000	0.021	0.332
-245.990	-200.000	0.009	0.223
-244.976	340.258	0.024	-0.048
-243.961	-200.000	-0.017	-0.238
-242.946	-110.799	0.192	0.039
-241.932	-200.000	0.013	0.512
-240.917	-154.755	0.174	-0.011
-239.903	800.000	0.062	-0.198
-238.888	-120.695	0.051	-0.009
-237.873	-200.000	0.008	0.129
-236.859	-179.006	-0.275	0.006
-235.844	800.000	0.084	0.298
-234.830	-200.000	-0.020	-0.123
-233.815	-200.000	0.003	-0.044
-232.800	-200.000	-0.007	0.144
-231.786	-200.000	0.029	-0.269
-230.771	-200.000	0.027	-0.141
-229.757	-58.168	0.284	-0.123
-228.742	615.501	0.023	-0.057
-227.727	-86.586	0.053	-0.016
-226.713	-182.576	0.281	0.005
-225.698	-5.615	-0.516	0.352
-224.684	-82.621	0.049	-0.016
-223.669	39.171	0.143	-0.127
-222.655	298.312	0.126	0.231
-221.640	-26.078	0.167	-0.098
-220.625	674.347	0.025	0.064
-219.611	-72.782	-0.091	-0.033
-218.596	65.071	0.088	0.089
-217.582	660.489	0.038	-0.097
-216.567	136.030	0.192	0.249
-215.552	-44.846	-0.079	-0.039
-214.538	39.397	0.284	-0.253
-213.523	65.168	0.131	0.132
-212.509	1.075	-0.346	0.247
-211.494	-156.731	0.250	0.015
-210.479	800.000	-0.038	-0.157
-209.465	-172.644	-0.178	0.006
-208.450	-109.102	0.352	-0.075
-207.436	-200.000	-0.082	0.448
-206.421	-170.905	-0.276	-0.009
-205.406	-113.795	-0.203	0.039
-204.392	-200.000	0.248	0.000
-203.377	-200.000	-0.040	0.214
-202.363	448.929	0.049	0.108
-201.348	-121.028	0.240	-0.040
-200.333	93.631	0.178	0.201
-199.319	-45.040	-0.138	-0.068
-198.304	107.628	0.155	-0.184
-197.290	-200.000	0.009	0.072
-196.275	24.016	-0.140	-0.115
-195.260	-131.365	0.109	0.014
-194.246	671.803	-0.213	0.550
-193.231	-126.594	-0.264	0.039
-192.217	800.000	0.090	-0.366
-191.202	-200.000	0.052	-0.229
-190.187	176.594	0.171	0.247
-189.173	-90.273	0.293	0.085
-188.158	-4.749	0.160	-0.110
-187.144	197.237	-0.162	-0.246
-186.129	67.762	0.155	-0.158
-185.114	72.655	-0.079	0.082
-184.100	310.576	-0.074	0.137
-183.085	123.142	-0.061	-0.076
-182.071	-72.743	-0.192	-0.071
-181.056	218.303	-0.038	0.061
-180.042	-74.300	-0.100	-0.036
-179.027	-12.427	0.130	0.085
-178.012	-17.989	-0.315	-0.197
-176.998	-25.859	-0.196	-0.115
-175.983	-132.081	0.258	0.033
-174.969	370.573	0.189	0.380
-173.954	94.227	-0.137	-0.155
-172.939	-200.000	0.014	0.218
-171.925	-64.070	0.343	-0.139
-170.910	-13.574	-0.309	0.199
-169.896	15.953	-0.069	0.054
-168.881	800.000	-0.094	-0.341
-167.866	800.000	0.045	-0.160
-166.852	-137.292	0.279	0.032
-165.837	-78.077	0.120	-0.041
-164.823	510.075	0.045	0.105
-163.808	-108.762	-0.211	0.045
-162.793	-128.243	-0.145	0.021
-161.779	23.926	0.253	0.207
-160.764	-148.494	0.357	0.029
-159.750	75.400	0.316	0.331
-158.735	-44.392	0.107	0.053
-157.720	-102.099	-0.191	-0.046
-156.706	800.000	-0.036	0.124
-155.691	-61.705	0.144	0.060
-154.677	-200.000	0.000	-0.176
-153.662	800.000	-0.149	-0.536
-152.647	-26.183	-0.077	-0.045
-151.633	800.000	-0.076	0.224
-150.618	-67.928	-0.210	0.081
-149.604	-69.073	0.248	0.095
-148.589	15.186	0.101	0.079
-147.574	11.063	-0.104	-0.079
-146.560	-161.789	0.169	0.009
-145.545	71.368	-0.121	0.125
-144.531	61.055	0.014	-0.014
-143.516	-200.000	0.038	0.316
-142.502	-119.719	-0.101	0.017
-141.487	-37.166	-0.270	-0.144
-140.472	-43.656	-0.233	-0.117
-139.458	-200.000	0.025	-0.126
-138.443	4.845	-0.192	-0.140
-137.429	164.447	0.044	0.062
-136.414	-200.000	0.018	0.116
-135.399	800.000	0.030	0.095
-134.385	-200.000	0.015	0.137
-133.370	322.249	-0.166	0.313
-132.356	800.000	-0.038	-0.117
-131.341	574.886	0.133	-0.322
-130.326	-200.000	-0.006	-0.229
-129.312	-26.809	0.671	0.389
-128.297	-200.000	-0.016	0.227
-127.283	163.718	-0.134	-0.187
-126.268	800.000	0.054	-0.169
-125.253	265.812	-0.135	0.233
-124.239	573.830	0.041	-0.099
-123.224	-200.000	0.012	0.302
-122.210	-143.771	0.168	0.016
-121.195	-200.000	-0.012	-0.177
-120.180	-64.519	-0.189	0.076
