DTS Sentinel unit serial number:	SN413079Multiplexer serial number:	ORYXHardware model number:	OX4-SRSoftware version number:	ORYX F/W v4.00 Oryx Data Collector v3.7.2.0data status	okinstallation	princeton_trtdifferential loss correction	single-endedforward channel	channel 1reverse channel	N/Adate	2019/09/13time	20:46:35forward acquisition time	60.00reverse acquisition time	0.00gamma	496.2192k internal	0.2331k external	0.2331temperature offset calibration	1.0087default loss term (dB/km)	0.3790temperature slope calibration	1.0000multiplexer offset coefficient	1.0000multiplexer slope coefficient	1.0000fibre end	0.00T internal ref (°C)	28.81T ext. ref 1 (°C)	3.19T ext. ref 2 (°C)	23.40length (m)	temperature (°C)	Stokes	anti-Stokes-747.200	-109.025	0.130	0.028
-746.185	-200.000	0.008	0.329
-745.171	106.874	0.116	-0.138
-744.156	-98.205	-0.174	0.045
-743.142	-184.062	0.367	-0.006
-742.127	182.078	0.068	0.101
-741.112	-32.984	0.020	0.011
-740.098	473.503	0.167	0.378
-739.083	800.000	0.080	-0.281
-738.069	34.965	-0.137	0.121
-737.054	-37.167	-0.401	-0.216
-736.039	-59.224	0.171	0.074
-735.025	-56.216	0.383	0.171
-734.010	-81.088	-0.091	0.030
-732.996	-23.902	0.184	0.111
-731.981	80.933	0.059	0.064
-730.966	-183.648	-0.064	0.001
-729.952	-200.000	-0.006	0.145
-728.937	84.162	0.136	-0.149
-727.923	124.300	0.270	-0.342
-726.908	155.092	-0.087	-0.121
-725.894	-79.355	-0.201	0.069
-724.879	-74.096	-0.495	0.180
-723.864	-81.334	-0.140	0.046
-722.850	-200.000	-0.025	-0.163
-721.835	39.554	0.452	-0.407
-720.821	-37.342	-0.037	0.020
-719.806	145.140	-0.211	-0.284
-718.791	-79.113	-0.161	-0.055
-717.777	23.281	-0.267	-0.221
-716.762	-200.000	0.044	-0.371
-715.748	-99.843	0.103	0.026
-714.733	-89.129	-0.085	-0.025
-713.718	-182.866	-0.296	0.005
-712.704	-11.046	-0.115	0.077
-711.689	68.437	0.162	0.166
-710.675	-108.718	-0.330	0.071
-709.660	36.460	-0.198	0.176
-708.645	-49.471	-0.040	0.019
-707.631	-111.979	-0.227	0.046
-706.616	-99.788	-0.434	0.109
-705.602	-22.577	0.322	0.196
-704.587	92.246	-0.160	-0.181
-703.572	27.050	-0.115	0.097
-702.558	292.599	0.233	-0.427
-701.543	-200.000	-0.098	-0.475
-700.529	-200.000	-0.026	0.160
-699.514	57.113	-0.155	0.151
-698.499	646.584	0.077	-0.197
-697.485	-0.396	-0.039	-0.028
-696.470	16.699	-0.263	0.209
-695.456	-9.488	-0.315	-0.211
-694.441	-78.957	0.144	-0.049
-693.426	-200.000	0.006	-0.224
-692.412	5.781	-0.381	0.283
-691.397	-200.000	-0.017	0.160
-690.383	-107.994	-0.310	-0.068
-689.368	-200.000	0.009	0.058
-688.354	-102.161	0.187	0.045
-687.339	43.677	-0.343	-0.315
-686.324	201.242	0.133	0.206
-685.310	-4.036	0.155	-0.108
-684.295	-200.000	-0.006	0.535
-683.281	-53.129	-0.420	-0.194
-682.266	-61.536	-0.103	-0.044
-681.251	800.000	0.104	-0.294
-680.237	27.276	-0.182	-0.153
-679.222	800.000	0.046	0.163
-678.208	-114.603	0.194	-0.037
-677.193	-104.812	0.054	-0.012
-676.178	335.046	0.231	-0.449
-675.164	303.398	-0.087	-0.162
-674.149	-200.000	0.006	0.318
-673.135	-137.115	-0.071	-0.008
-672.120	-200.000	0.065	-0.392
-671.105	-55.819	-0.183	-0.082
-670.091	-42.374	0.166	0.085
-669.076	-104.791	0.359	0.083
-668.062	6.710	-0.182	0.136
-667.047	-64.825	-0.233	0.095
-666.032	-200.000	0.027	0.122
-665.018	-138.602	0.147	0.016
-664.003	-142.845	0.214	-0.021
-662.989	-200.000	0.024	0.152
-661.974	91.488	0.128	-0.144
-660.959	800.000	-0.026	0.082
-659.945	61.644	0.216	-0.216
-658.930	-200.000	0.041	-0.311
-657.916	-200.000	0.017	-0.127
-656.901	-129.396	0.283	0.039
-655.886	347.289	0.091	-0.179
-654.872	384.973	-0.229	-0.473
-653.857	-174.330	0.295	-0.009
-652.843	800.000	0.137	0.482
-651.828	43.012	-0.053	-0.049
-650.814	-75.973	-0.153	0.054
-649.799	-35.308	0.089	-0.048
-648.784	-200.000	-0.039	-0.175
-647.770	-200.000	-0.013	0.142
-646.755	-77.369	-0.010	-0.003
-645.741	262.827	0.017	0.029
-644.726	-122.007	0.157	0.026
-643.711	364.959	-0.156	-0.315
-642.697	-141.825	0.382	0.038
-641.682	33.764	-0.171	-0.149
-640.668	-91.718	-0.454	0.129
-639.653	800.000	0.057	-0.227
-638.638	-200.000	-0.012	0.203
-637.624	-181.625	-0.058	-0.001
-636.609	-76.963	0.148	0.052
-635.595	44.546	0.132	-0.122
-634.580	116.739	-0.103	0.126
-633.565	-25.289	0.288	0.171
-632.551	-35.533	0.046	0.025
-631.536	-110.361	0.207	-0.043
-630.522	-150.773	-0.359	-0.027
-629.507	-108.993	0.261	-0.056
-628.492	218.469	0.144	-0.231
-627.478	-89.038	0.118	0.035
-626.463	316.371	-0.194	-0.366
-625.449	-94.078	-0.117	-0.032
-624.434	-94.445	-0.324	0.088
-623.419	-95.825	0.129	-0.035
-622.405	-161.815	-0.064	-0.003
-621.390	-19.085	-0.068	-0.042
-620.376	267.921	0.183	-0.321
-619.361	55.163	-0.128	-0.124
-618.346	594.687	-0.075	-0.186
-617.332	-64.048	0.160	-0.065
-616.317	193.321	-0.098	0.148
-615.303	-81.080	-0.378	-0.125
-614.288	-17.936	-0.099	-0.062
-613.273	-200.000	0.037	0.180
-612.259	402.851	-0.039	-0.083
-611.244	75.316	-0.231	-0.244
-610.230	-9.780	0.183	-0.122
-609.215	24.324	0.104	-0.086
-608.201	800.000	-0.062	-0.218
-607.186	-95.696	-0.133	0.036
-606.171	-123.577	-0.164	0.026
-605.157	-156.485	-0.251	0.016
-604.142	551.534	0.049	-0.118
-603.128	800.000	0.098	-0.365
-602.113	-63.684	0.158	0.065
-601.098	228.993	0.015	-0.025
-600.084	35.511	0.412	0.362
-599.069	-200.000	-0.018	-0.129
-598.055	-200.000	-0.007	0.088
-597.040	-200.000	-0.400	0.001
-596.025	-200.000	0.026	-0.202
-595.011	-200.000	0.010	-0.256
-593.996	-24.692	0.255	0.152
-592.982	216.413	-0.041	-0.065
-591.967	-80.555	0.139	0.046
-590.952	501.939	0.083	0.193
-589.938	-11.797	-0.341	-0.224
-588.923	-200.000	0.090	-0.489
-587.909	-200.000	0.007	0.079
-586.894	208.738	-0.164	-0.257
-585.879	197.115	0.179	0.273
-584.865	-26.923	0.247	-0.144
-583.850	-130.514	0.267	0.036
-582.836	-8.222	0.066	-0.045
-581.821	68.574	-0.081	0.083
-580.806	54.958	-0.141	-0.136
-579.792	103.219	0.174	-0.204
-578.777	208.267	0.169	-0.264
-577.763	44.977	-0.154	-0.142
-576.748	-200.000	0.192	0.001
-575.733	19.391	0.301	0.242
-574.719	40.895	-0.127	-0.115
-573.704	383.391	0.047	0.096
-572.690	481.804	-0.243	-0.551
-571.675	58.745	0.192	-0.188
-570.661	589.410	0.062	-0.154
-569.646	31.108	-0.091	-0.078
-568.631	43.710	0.200	0.183
-567.617	-200.000	0.003	0.039
-566.602	-50.794	0.186	-0.087
-565.588	414.130	0.126	0.268
-564.573	-21.767	0.060	0.036
-563.558	-59.513	0.212	-0.091
-562.544	-126.742	-0.280	0.041
-561.529	-36.672	0.279	-0.150
-560.515	-200.000	0.001	-0.012
-559.500	-158.642	0.158	0.009
-558.485	120.671	0.055	-0.068
-557.471	800.000	-0.204	0.663
-556.456	-82.808	0.276	-0.089
-555.442	-4.123	-0.156	0.108
-554.427	800.000	0.048	0.166
-553.412	43.927	-0.207	-0.189
-552.398	-96.186	-0.218	0.058
-551.383	442.041	-0.070	0.153
-550.369	-118.426	-0.355	-0.063
-549.354	800.000	-0.112	0.372
-548.339	800.000	0.077	0.329
-547.325	-174.122	-0.260	0.008
-546.310	-136.798	0.180	-0.021
-545.296	40.879	0.104	0.093
-544.281	296.777	-0.085	0.155
-543.266	775.281	-0.079	0.215
-542.252	81.283	0.214	0.231
-541.237	-124.813	0.271	0.042
-540.223	-118.618	-0.144	0.025
-539.208	-84.959	-0.352	0.110
-538.193	533.766	0.023	-0.054
-537.179	-200.000	0.002	-0.055
-536.164	554.087	0.011	-0.027
-535.150	-119.896	-0.173	-0.030
-534.135	-200.000	-0.088	0.434
-533.121	437.411	0.137	0.298
-532.106	150.892	0.352	0.477
-531.091	-4.887	0.173	0.119
-530.077	-186.642	-0.153	-0.002
-529.062	-104.413	-0.291	-0.067
-528.048	-22.387	-0.199	0.120
-527.033	161.148	0.030	-0.041
-526.018	12.694	0.247	-0.190
-525.004	86.555	-0.030	-0.033
-523.989	39.502	-0.238	-0.213
-522.975	-200.000	0.056	0.251
-521.960	800.000	0.046	0.153
-520.945	-200.000	-0.008	-0.041
-519.931	134.419	-0.037	0.047
-518.916	-200.000	-0.026	-0.197
-517.902	-200.000	0.020	-0.253
-516.887	241.508	0.104	-0.174
-515.872	-95.066	0.174	0.047
-514.858	-56.252	0.417	-0.185
-513.843	-126.373	-0.138	0.021
-512.829	-47.148	0.376	-0.183
-511.814	-135.096	0.390	-0.047
-510.799	17.576	0.196	0.155
-509.785	-2.478	0.250	0.175
-508.770	-110.139	-0.244	0.051
-507.756	188.003	-0.213	0.317
-506.741	800.000	0.114	-0.343
-505.726	-154.745	-0.044	0.003
-504.712	800.000	-0.090	-0.280
-503.697	21.127	0.175	0.141
-502.683	-5.806	0.293	-0.200
-501.668	-200.000	0.026	-0.175
-500.653	328.222	-0.040	0.076
-499.639	-181.556	0.157	0.003
-498.624	676.791	0.064	-0.166
-497.610	-109.899	0.175	-0.036
-496.595	800.000	-0.064	-0.193
-495.581	262.161	0.122	-0.210
-494.566	244.296	0.110	-0.184
-493.551	-20.885	-0.196	-0.120
-492.537	54.285	-0.274	-0.263
-491.522	-102.376	0.151	0.036
-490.508	800.000	0.033	-0.098
-489.493	-200.000	-0.008	0.128
-488.478	800.000	0.037	-0.124
-487.464	-17.868	0.238	-0.149
-486.449	800.000	0.035	-0.134
-485.435	-200.000	-0.038	-0.221
-484.420	-36.286	-0.020	-0.011
-483.405	800.000	-0.063	0.213
-482.391	406.728	-0.156	-0.328
-481.376	-89.500	-0.240	-0.070
-480.362	-200.000	0.074	0.366
-479.347	-52.055	-0.235	0.109
-478.332	-200.000	0.011	0.299
-477.318	31.653	-0.055	-0.047
-476.303	-161.479	-0.182	-0.009
-475.289	473.947	-0.037	-0.083
-474.274	800.000	0.079	0.283
-473.259	-14.099	-0.170	-0.109
-472.245	-86.082	-0.243	0.075
-471.230	-87.034	-0.216	0.065
-470.216	-200.000	0.044	-0.205
-469.201	800.000	-0.063	-0.265
-468.186	704.049	0.070	0.183
-467.172	-128.051	0.281	0.040
-466.157	761.869	-0.026	0.071
-465.143	484.420	0.175	-0.396
-464.128	-200.000	-0.003	-0.072
-463.113	-13.949	0.378	0.243
-462.099	-31.616	0.115	-0.064
-461.084	-7.877	0.180	0.121
-460.070	800.000	-0.076	0.291
-459.055	-200.000	0.003	-0.151
-458.040	-163.134	0.136	0.007
-457.026	-200.000	-0.027	0.272
-456.011	61.756	0.083	-0.082
-454.997	489.184	0.105	-0.239
-453.982	84.980	0.041	-0.045
-452.968	-188.447	-0.363	0.005
-451.953	-139.573	-0.111	0.012
-450.938	453.197	0.137	0.301
-449.924	-200.000	-0.036	0.182
-448.909	-3.912	-0.282	0.195
-447.895	-148.438	0.248	0.020
-446.880	426.248	0.098	-0.210
-445.865	524.000	0.025	-0.059
-444.851	460.760	0.070	-0.155
-443.836	800.000	0.073	-0.282
-442.822	-148.390	-0.065	0.005
-441.807	-54.920	-0.159	0.071
-440.792	-85.372	0.185	0.057
-439.778	28.511	-0.359	0.302
-438.763	100.661	0.175	0.202
-437.749	177.160	-0.033	0.047
-436.734	748.572	-0.082	-0.220
-435.719	45.449	-0.190	0.174
-434.705	-143.255	-0.128	0.012
-433.690	-137.315	0.344	-0.039
-432.676	-4.985	0.066	-0.045
-431.661	-58.823	0.146	-0.063
-430.646	-200.000	-0.014	-0.214
-429.632	-50.058	0.136	-0.064
-428.617	800.000	0.063	0.177
-427.603	-177.260	-0.211	0.005
-426.588	-9.690	-0.181	0.120
-425.573	-121.310	-0.089	0.015
-424.559	800.000	-0.166	0.521
-423.544	-6.480	-0.157	0.106
-422.530	-57.403	-0.302	-0.132
-421.515	174.520	-0.085	0.123
-420.500	-200.000	-0.051	-0.297
-419.486	-161.070	-0.289	0.015
-418.471	-2.874	0.213	0.148
-417.457	516.158	0.078	0.182
-416.442	-128.340	-0.215	0.030
-415.428	-200.000	0.021	0.315
-414.413	351.951	-0.182	0.357
-413.398	253.802	0.286	-0.486
-412.384	800.000	-0.079	-0.229
-411.369	-93.402	-0.235	0.065
-410.355	-113.725	0.360	-0.070
-409.340	-200.000	0.022	0.345
-408.325	-167.973	0.200	0.008
-407.311	-45.700	-0.093	-0.045
-406.296	-200.000	0.047	0.403
-405.282	442.255	-0.091	0.198
-404.267	662.274	-0.046	0.118
-403.252	800.000	0.116	-0.344
-402.238	-50.489	-0.256	0.120
-401.223	800.000	-0.029	0.103
-400.209	-118.650	0.183	0.032
-399.194	-68.014	0.163	0.063
-398.179	-200.000	0.054	0.258
-397.165	800.000	-0.078	-0.308
-396.150	-142.253	0.385	0.038
-395.136	-200.000	-0.014	-0.123
-394.121	249.693	-0.084	-0.141
-393.106	-200.000	-0.047	0.630
-392.092	91.193	-0.352	0.392
-391.077	74.453	0.407	0.425
-390.063	329.846	-0.156	0.299
-389.048	300.612	0.107	0.195
-388.033	32.839	-0.177	-0.152
-387.019	463.624	0.036	0.079
-386.004	-88.357	0.135	0.040
-384.990	12.349	-0.159	-0.122
-383.975	-71.562	0.205	-0.076
-382.960	-149.976	0.069	-0.005
-381.946	678.962	0.156	0.402
-380.931	-200.000	0.070	-0.305
-379.917	800.000	-0.071	0.247
-378.902	237.665	-0.250	-0.411
-377.888	-56.057	-0.109	0.048
-376.873	800.000	-0.069	-0.252
-375.858	460.513	-0.106	-0.233
-374.844	-200.000	0.008	-0.205
-373.829	170.338	0.035	0.050
-372.815	-40.265	-0.111	-0.057
-371.800	-28.019	0.349	-0.201
-370.785	42.324	-0.130	0.117
-369.771	88.043	0.185	0.203
-368.756	514.983	-0.118	-0.274
-367.742	-131.938	-0.415	-0.054
-366.727	232.040	-0.018	-0.029
-365.712	284.555	-0.059	0.105
-364.698	10.107	0.142	0.107
-363.683	-200.000	-0.004	-0.092
-362.669	67.589	0.035	0.036
-361.654	-78.553	0.063	0.021
-360.639	-200.000	0.060	0.336
-359.625	-200.000	-0.154	-0.000
-358.610	95.852	-0.061	-0.069
-357.596	-68.789	0.146	-0.056
-356.581	15.709	-0.148	-0.115
-355.566	-162.674	-0.172	0.008
-354.552	110.003	0.054	-0.064
-353.537	75.732	-0.221	-0.231
-352.523	169.497	-0.109	-0.154
-351.508	441.089	-0.094	-0.204
-350.493	-72.335	-0.253	-0.093
-349.479	-78.723	-0.132	0.044
-348.464	2.769	-0.153	0.110
-347.450	-92.027	0.322	-0.090
-346.435	-140.518	0.609	-0.063
-345.420	-59.335	0.204	0.087
-344.406	504.820	0.037	-0.085
-343.391	196.690	-0.086	0.130
-342.377	-146.947	-0.208	-0.018
-341.362	-29.543	0.051	-0.029
-340.348	12.478	-0.202	-0.154
-339.333	25.844	0.172	0.142
-338.318	-31.048	0.266	0.149
-337.304	-13.438	0.114	-0.073
-336.289	6.823	-0.157	0.116
-335.275	-62.928	-0.187	-0.077
-334.260	247.739	0.061	0.102
-333.245	-127.851	-0.027	-0.004
-332.231	29.613	-0.104	-0.088
-331.216	-14.608	-0.225	-0.143
-330.202	-59.895	-0.296	0.125
-329.187	701.972	0.076	-0.198
-328.172	190.646	0.083	0.124
-327.158	296.979	-0.165	-0.301
-326.143	183.672	-0.097	-0.142
-325.129	-7.670	-0.119	0.080
-324.114	-200.000	0.032	-0.175
-323.099	-49.097	-0.310	0.147
-322.085	333.191	0.065	-0.125
-321.070	-27.192	0.438	0.253
-320.056	800.000	-0.067	-0.268
-319.041	35.588	0.215	-0.187
-318.026	33.531	-0.015	-0.013
-317.012	-28.401	-0.234	0.134
-315.997	-20.413	0.169	-0.103
-314.983	4.921	0.112	-0.082
-313.968	-123.273	0.141	-0.022
-312.953	-175.446	0.382	0.010
-311.939	790.707	-0.072	0.196
-310.924	-123.597	0.208	-0.033
-309.910	-200.000	-0.042	-0.372
-308.895	-197.268	-0.416	-0.003
-307.880	-143.758	-0.374	-0.035
-306.866	-200.000	-0.006	0.119
-305.851	71.785	-0.089	-0.091
-304.837	57.266	-0.102	0.098
-303.822	-200.000	-0.057	0.451
-302.807	-14.397	-0.251	0.160
-301.793	8.974	-0.021	0.015
-300.778	560.558	0.048	0.115
-299.764	2.326	0.343	-0.245
-298.749	-31.419	-0.089	0.050
-297.735	-56.273	0.059	0.026
-296.720	62.611	-0.125	0.124
-295.705	800.000	-0.080	-0.245
-294.691	282.199	-0.111	0.196
-293.676	-64.823	0.114	-0.046
-292.662	-63.661	0.070	-0.028
-291.647	190.613	0.102	0.151
-290.632	-28.611	-0.125	-0.071
-289.618	-27.787	-0.080	0.046
-288.603	-200.000	-0.002	-0.113
-287.589	-74.731	-0.050	0.018
-286.574	-38.960	0.222	-0.115
-285.559	229.735	0.060	-0.097
-284.545	353.016	-0.094	-0.184
-283.530	657.841	0.087	0.222
-282.516	68.484	0.173	0.175
-281.501	106.729	-0.131	-0.153
-280.486	-148.309	0.401	0.033
-279.472	178.931	0.062	-0.090
-278.457	-130.445	-0.248	-0.033
-277.443	207.047	0.049	-0.076
-276.428	236.289	0.072	-0.119
-275.413	58.681	-0.192	-0.186
-274.399	221.267	-0.078	-0.124
-273.384	-63.079	-0.195	-0.080
-272.370	-200.000	0.013	-0.061
-271.355	298.896	0.060	-0.109
-270.340	288.051	-0.103	-0.184
-269.326	-145.853	0.142	0.012
-268.311	-6.544	-0.368	0.248
-267.297	800.000	0.062	0.263
-266.282	800.000	0.052	0.164
-265.267	219.257	-0.140	0.222
-264.253	12.495	-0.135	-0.103
-263.238	17.340	0.197	-0.154
-262.224	-1.088	-0.033	0.023
-261.209	3.278	-0.254	0.182
-260.195	19.969	0.044	-0.035
-259.180	92.986	-0.137	0.153
-258.165	35.683	0.014	0.012
-257.151	538.565	-0.021	0.049
-256.136	-5.214	0.194	-0.131
-255.122	219.509	-0.091	0.144
-254.107	-108.942	-0.631	-0.133
-253.092	-118.582	-0.089	0.015
-252.078	-190.013	-0.275	0.003
-251.063	18.022	0.438	0.345
-250.049	-200.000	0.014	-0.160
-249.034	98.939	-0.323	-0.368
-248.019	288.891	-0.097	-0.173
-247.005	433.591	0.131	0.280
-245.990	-47.557	-0.459	0.220
-244.976	73.418	0.018	0.019
-243.961	800.000	-0.045	-0.187
-242.946	198.315	-0.134	0.203
-241.932	351.322	0.115	-0.225
-240.917	172.499	-0.132	-0.187
-239.903	-93.233	0.169	0.046
-238.888	248.340	-0.104	-0.173
-237.873	-18.447	-0.108	0.066
-236.859	81.625	0.095	0.101
-235.844	800.000	0.136	-0.375
-234.830	-200.000	-0.032	-0.196
-233.815	800.000	0.044	-0.153
-232.800	-23.227	0.199	-0.118
-231.786	93.436	0.210	0.234
-230.771	-200.000	-0.007	0.203
-229.757	-33.507	0.102	0.056
-228.742	-130.949	-0.189	0.025
-227.727	-17.560	0.098	0.061
-226.713	800.000	0.048	0.159
-225.698	-103.451	-0.228	-0.053
-224.684	-24.357	-0.114	0.067
-223.669	-197.958	-0.390	0.002
-222.655	-200.000	0.026	0.170
-221.640	-200.000	0.040	-0.349
-220.625	-97.097	0.127	-0.033
-219.611	-118.868	-0.294	-0.051
-218.596	96.978	-0.238	-0.269
-217.582	106.868	0.142	-0.166
-216.567	-93.057	0.125	0.034
-215.552	-122.397	0.042	0.007
-214.538	-82.993	0.048	0.015
-213.523	186.564	-0.129	-0.190
-212.509	144.631	-0.208	0.274
-211.494	-21.323	0.326	-0.196
-210.479	-147.385	-0.187	-0.016
-209.465	331.141	0.095	-0.181
-208.450	-121.438	0.287	0.047
-207.436	-200.000	-0.004	0.426
-206.421	225.477	0.166	0.265
-205.406	-200.000	0.007	-0.053
-204.392	-200.000	-0.032	-0.316
-203.377	-143.214	0.354	-0.034
-202.363	-43.845	-0.091	-0.045
-201.348	-200.000	0.053	0.305
-200.333	-96.520	-0.273	0.071
-199.319	-200.000	-0.015	0.121
-198.304	36.815	-0.254	-0.221
-197.290	800.000	-0.087	-0.245
-196.275	-141.092	0.137	-0.014
-195.260	-182.727	-0.312	0.006
-194.246	-200.000	-0.038	0.273
-193.231	-163.053	0.264	0.013
-192.217	290.329	0.032	0.058
-191.202	283.701	-0.066	0.117
-190.187	32.200	0.205	0.174
-189.173	800.000	-0.044	0.175
-188.158	110.406	0.318	-0.377
-187.144	-56.095	0.351	0.154
-186.129	-200.000	-0.034	-0.239
-185.114	505.469	-0.065	0.149
-184.100	112.774	0.061	-0.073
-183.085	106.099	-0.040	0.046
-182.071	-93.701	-0.050	-0.014
-181.056	134.550	0.107	0.137
-180.042	-14.330	0.038	-0.024
-179.027	16.977	-0.149	-0.116
-178.012	-110.891	0.342	0.069
-176.998	-59.996	0.133	0.056
-175.983	-70.107	0.066	0.025
-174.969	86.136	-0.208	0.225
-173.954	731.404	-0.075	0.196
-172.939	-23.885	0.327	0.193
-171.925	69.336	0.223	0.226
-170.910	-64.838	0.145	0.058
-169.896	-35.696	0.080	0.043
-168.881	800.000	0.056	0.174
-167.866	278.205	-0.051	-0.089
-166.852	723.565	0.067	-0.176
-165.837	-149.905	-0.241	-0.019
-164.823	800.000	-0.069	-0.228
-163.808	24.255	-0.091	0.074
-162.793	365.625	-0.184	0.364
-161.779	-165.846	0.193	0.008
-160.764	-46.161	0.270	0.131
-159.750	800.000	-0.097	-0.282
-158.735	-200.000	-0.101	0.582
-157.720	-25.714	-0.237	0.138
-156.706	142.291	-0.036	0.047
-155.691	25.204	-0.088	-0.072
-154.677	-59.845	0.218	0.092
-153.662	-200.000	0.004	-0.096
-152.647	50.877	0.171	0.159
-151.633	-101.833	0.332	-0.079
-150.618	-200.000	-0.036	-0.274
-149.604	-200.000	-0.011	-0.081
-148.589	-145.622	0.222	0.020
-147.574	-200.000	0.001	0.009
-146.560	98.124	-0.201	-0.227
-145.545	8.130	0.146	0.108
-144.531	403.594	-0.218	-0.450
-143.516	800.000	-0.061	0.201
-142.502	394.017	-0.088	0.181
-141.487	-200.000	0.015	-0.112
-140.472	-161.393	-0.139	-0.007
-139.458	-131.806	0.350	0.045
-138.443	218.660	0.165	-0.258
-137.429	-200.000	-0.000	0.139
-136.414	58.344	0.104	-0.100
-135.399	56.315	-0.211	0.201
-134.385	800.000	-0.077	0.264
-133.370	800.000	-0.085	-0.243
-132.356	-155.183	-0.163	0.010
-131.341	-49.600	0.118	-0.055
-130.326	86.766	-0.164	0.178
-129.312	-200.000	-0.049	-0.268
-128.297	15.347	0.074	-0.057
-127.283	751.328	0.051	0.136
-126.268	-68.294	-0.197	0.075
-125.253	-200.000	-0.004	-0.314
-124.239	177.041	0.157	-0.224
-123.224	279.921	0.085	0.149
-122.210	276.687	-0.105	-0.183
-121.195	800.000	0.046	0.146
