DTS Sentinel unit serial number:	SN413079Multiplexer serial number:	ORYXHardware model number:	OX4-SRSoftware version number:	ORYX F/W v4.00 Oryx Data Collector v3.7.2.0data status	okinstallation	princeton_trtdifferential loss correction	single-endedforward channel	channel 1reverse channel	N/Adate	2019/09/16time	02:18:35forward acquisition time	60.00reverse acquisition time	0.00gamma	496.2192k internal	0.2331k external	0.2331temperature offset calibration	0.9976default loss term (dB/km)	0.3790temperature slope calibration	1.0000multiplexer offset coefficient	1.0000multiplexer slope coefficient	1.0000fibre end	0.00T internal ref (°C)	27.56T ext. ref 1 (°C)	10.19T ext. ref 2 (°C)	22.56length (m)	temperature (°C)	Stokes	anti-Stokes-747.200	112.130	-0.203	0.247
-746.185	-78.363	-0.320	0.110
-745.171	-118.608	-0.314	0.056
-744.156	120.634	-0.189	0.237
-743.142	-200.000	0.041	-0.250
-742.127	90.917	-0.084	-0.094
-741.112	800.000	0.086	-0.294
-740.098	-71.885	0.160	0.060
-739.083	60.629	-0.267	0.266
-738.069	-36.499	-0.246	-0.133
-737.054	4.351	0.137	-0.101
-736.039	-117.099	-0.296	-0.054
-735.025	-69.939	0.376	0.144
-734.010	37.621	-0.105	-0.094
-732.996	-102.233	0.231	-0.056
-731.981	488.244	-0.025	-0.058
-730.966	25.251	-0.155	0.129
-729.952	119.703	-0.165	-0.206
-728.937	63.248	-0.264	0.266
-727.923	-98.231	0.024	-0.006
-726.908	800.000	0.123	-0.355
-725.894	-107.101	-0.443	-0.098
-724.879	-39.901	-0.231	0.121
-723.864	306.830	-0.201	-0.377
-722.850	140.046	-0.306	-0.406
-721.835	190.465	-0.136	-0.205
-720.821	-121.426	0.164	0.027
-719.806	12.972	-0.212	-0.165
-718.791	427.209	-0.222	0.481
-717.777	350.737	-0.095	0.189
-716.762	-20.341	-0.186	-0.115
-715.748	-200.000	0.007	-0.070
-714.733	-4.538	-0.120	-0.083
-713.718	-93.098	0.159	0.045
-712.704	267.798	0.206	-0.363
-711.689	-147.693	0.189	0.016
-710.675	5.519	-0.487	0.361
-709.660	-70.633	-0.446	-0.169
-708.645	-111.671	-0.205	0.042
-707.631	800.000	0.040	0.145
-706.616	54.788	-0.156	-0.151
-705.602	-74.614	-0.157	-0.057
-704.587	-136.869	-0.099	0.011
-703.572	800.000	0.146	-0.494
-702.558	-200.000	-0.037	0.183
-701.543	800.000	-0.159	0.495
-700.529	-25.504	-0.091	0.054
-699.514	800.000	0.026	0.093
-698.499	-38.111	0.135	-0.072
-697.485	-200.000	0.032	-0.218
-696.470	-200.000	-0.028	-0.505
-695.456	105.950	0.207	0.246
-694.441	-44.252	-0.267	-0.135
-693.426	-200.000	-0.000	0.247
-692.412	271.687	0.088	-0.156
-691.397	800.000	-0.052	-0.227
-690.383	-109.121	0.321	-0.069
-689.368	-144.557	0.090	-0.008
-688.354	-31.607	0.278	-0.157
-687.339	56.412	0.342	-0.334
-686.324	-200.000	0.019	0.364
-685.310	-200.000	-0.013	-0.142
-684.295	445.509	0.112	-0.248
-683.281	100.825	0.189	0.220
-682.266	28.994	-0.017	-0.014
-681.251	-32.718	0.113	0.063
-680.237	74.278	0.129	-0.136
-679.222	-109.265	0.273	-0.058
-678.208	-200.000	0.026	-0.138
-677.193	-200.000	0.036	0.180
-676.178	800.000	-0.070	0.243
-675.164	-44.523	-0.469	0.235
-674.149	254.548	-0.145	-0.249
-673.135	-58.876	-0.319	0.138
-672.120	313.398	0.180	-0.340
-671.105	785.669	-0.093	0.257
-670.091	0.943	-0.343	-0.247
-669.076	-62.576	-0.290	0.121
-668.062	-107.846	0.314	-0.069
-667.047	-14.058	-0.039	-0.025
-666.032	800.000	0.029	-0.090
-665.018	172.024	0.049	-0.071
-664.003	-132.297	-0.497	0.064
-662.989	-88.705	-0.275	-0.082
-661.974	66.761	-0.103	0.106
-660.959	-130.022	0.275	0.038
-659.945	-152.982	-0.351	0.025
-658.930	703.407	-0.112	0.296
-657.916	-106.484	0.252	0.056
-656.901	199.123	-0.132	-0.204
-655.886	-101.840	-0.072	-0.017
-654.872	-140.531	-0.160	0.017
-653.857	612.101	-0.117	-0.294
-652.843	445.118	0.105	-0.231
-651.828	-64.885	-0.153	-0.062
-650.814	61.034	0.303	0.302
-649.799	800.000	0.039	0.134
-648.784	196.813	0.029	0.044
-647.770	44.298	0.233	0.215
-646.755	457.252	0.109	0.242
-645.741	124.623	0.204	-0.257
-644.726	372.344	-0.039	-0.079
-643.711	800.000	0.105	-0.303
-642.697	-101.251	-0.238	-0.058
-641.682	222.143	-0.062	-0.100
-640.668	30.056	-0.280	-0.239
-639.653	-200.000	0.036	0.330
-638.638	-62.617	0.062	0.026
-637.624	-200.000	0.002	0.023
-636.609	-140.374	-0.195	0.020
-635.595	-172.864	0.020	0.001
-634.580	-108.503	0.330	-0.071
-633.565	28.951	0.127	-0.108
-632.551	190.794	-0.241	-0.362
-631.536	92.398	-0.080	-0.091
-630.522	-2.931	0.185	-0.129
-629.507	-119.032	-0.085	-0.015
-628.492	800.000	-0.077	0.230
-627.478	800.000	-0.049	-0.178
-626.463	-40.257	0.373	0.194
-625.449	748.952	-0.018	0.048
-624.434	-52.490	0.227	-0.105
-623.419	31.795	0.148	0.128
-622.405	291.218	-0.100	0.182
-621.390	800.000	-0.080	0.265
-620.376	141.828	0.079	0.105
-619.361	52.794	-0.114	-0.109
-618.346	140.618	-0.120	-0.158
-617.332	8.683	0.161	0.121
-616.317	-200.000	0.010	-0.043
-615.303	-177.825	0.155	0.004
-614.288	-34.769	-0.158	-0.087
-613.273	-200.000	0.010	-0.194
-612.259	800.000	-0.066	-0.242
-611.244	-200.000	0.008	-0.142
-610.230	-200.000	-0.020	-0.182
-609.215	-131.399	0.116	0.015
-608.201	-104.131	-0.222	-0.052
-607.186	-23.898	-0.254	-0.152
-606.171	170.691	-0.226	-0.324
-605.157	-161.464	0.120	-0.006
-604.142	-74.468	-0.088	-0.032
-603.128	16.878	0.055	-0.043
-602.113	-200.000	-0.004	-0.032
-601.098	-200.000	0.027	-0.368
-600.084	32.380	-0.371	-0.321
-599.069	800.000	-0.024	0.067
-598.055	-58.628	-0.445	-0.193
-597.040	-121.905	-0.073	0.012
-596.025	-200.000	-0.037	-0.199
-595.011	-200.000	0.021	-0.208
-593.996	359.403	-0.092	-0.185
-592.982	-4.329	-0.261	-0.180
-591.967	-200.000	0.038	0.209
-590.952	370.272	0.012	0.025
-589.938	160.261	-0.055	0.077
-588.923	800.000	0.057	0.207
-587.909	-200.000	-0.029	-0.234
-586.894	77.149	-0.079	0.084
-585.879	-200.000	-0.012	-0.099
-584.865	800.000	-0.068	-0.197
-583.850	-155.047	0.177	-0.012
-582.836	97.310	0.204	0.234
-581.821	757.977	0.053	-0.143
-580.806	-129.414	-0.116	0.016
-579.792	270.062	-0.190	0.334
-578.777	269.642	0.064	-0.112
-577.763	63.553	-0.111	0.112
-576.748	307.545	-0.032	0.059
-575.733	236.950	-0.130	-0.215
-574.719	-153.257	0.214	-0.015
-573.704	25.177	-0.053	0.044
-572.690	47.709	-0.278	-0.260
-571.675	-88.020	-0.249	-0.075
-570.661	161.531	-0.176	0.246
-569.646	-200.000	-0.003	0.245
-568.631	-24.291	-0.102	0.061
-567.617	79.211	-0.143	-0.153
-566.602	-62.891	-0.173	0.072
-565.588	-200.000	0.052	0.251
-564.573	800.000	-0.054	-0.233
-563.558	-200.000	0.033	-0.452
-562.544	312.392	0.127	-0.239
-561.529	-170.742	0.227	0.008
-560.515	-130.749	0.254	0.034
-559.500	54.503	0.063	-0.061
-558.485	-200.000	0.017	-0.089
-557.471	-27.180	-0.195	0.114
-556.456	38.922	0.043	0.039
-555.442	-200.000	0.004	0.077
-554.427	-74.904	-0.153	-0.055
-553.412	115.641	0.189	-0.231
-552.398	62.626	-0.138	0.138
-551.383	-200.000	-0.028	0.158
-550.369	-82.127	-0.271	-0.088
-549.354	-200.000	0.007	0.224
-548.339	800.000	0.042	-0.158
-547.325	89.338	0.094	0.104
-546.310	-39.813	-0.028	-0.014
-545.296	12.676	-0.200	-0.154
-544.281	-200.000	0.001	-0.397
-543.266	800.000	0.061	0.200
-542.252	-200.000	0.003	0.058
-541.237	800.000	0.083	0.256
-540.223	235.199	-0.043	0.072
-539.208	-47.188	-0.174	-0.085
-538.193	337.029	-0.066	0.129
-537.179	-200.000	-0.021	-0.132
-536.164	97.051	-0.157	-0.180
-535.150	314.313	0.133	-0.250
-534.135	800.000	-0.047	-0.204
-533.121	-57.408	-0.262	0.115
-532.106	390.023	0.100	-0.207
-531.091	166.715	0.046	0.064
-530.077	71.775	-0.196	0.203
-529.062	-200.000	-0.014	-0.231
-528.048	-145.365	-0.338	0.030
-527.033	210.782	-0.113	0.178
-526.018	-114.091	0.439	-0.085
-525.004	108.460	0.109	0.130
-523.989	-200.000	0.016	-0.136
-522.975	-200.000	0.006	-0.305
-521.960	-34.946	0.280	0.153
-520.945	-23.699	-0.517	-0.309
-519.931	155.818	-0.166	0.228
-518.916	-83.345	-0.361	0.116
-517.902	-7.617	-0.241	-0.163
-516.887	-139.129	-0.289	0.031
-515.872	581.102	0.074	-0.181
-514.858	-200.000	-0.057	0.251
-513.843	-61.819	-0.215	0.090
-512.829	-200.000	0.023	0.123
-511.814	27.235	0.433	0.362
-510.799	66.632	0.177	-0.180
-509.785	-28.587	0.356	0.205
-508.770	-128.366	-0.033	-0.005
-507.756	564.966	-0.143	-0.346
-506.741	-200.000	0.043	-0.309
-505.726	-200.000	-0.026	0.234
-504.712	-85.514	0.224	0.070
-503.697	-7.373	-0.231	-0.156
-502.683	685.078	-0.029	-0.075
-501.668	7.823	0.207	0.155
-500.653	-200.000	-0.027	0.146
-499.639	6.388	-0.081	-0.060
-498.624	250.172	0.071	-0.120
-497.610	-153.395	-0.332	0.023
-496.595	90.745	-0.127	-0.142
-495.581	42.420	0.234	-0.212
-494.566	-43.527	-0.127	0.064
-493.551	-63.299	-0.253	0.104
-492.537	-61.472	-0.093	-0.039
-491.522	-200.000	0.025	-0.217
-490.508	176.420	0.193	-0.280
-489.493	120.392	0.045	-0.055
-488.478	-15.025	-0.130	-0.083
-487.464	276.261	0.139	-0.246
-486.449	-102.001	-0.222	-0.053
-485.435	-84.783	0.222	-0.070
-484.420	800.000	-0.022	-0.066
-483.405	-200.000	-0.003	-0.086
-482.391	-55.637	0.211	0.094
-481.376	271.778	0.090	0.159
-480.362	-137.180	-0.291	-0.033
-479.347	-144.001	0.198	0.019
-478.332	153.591	-0.268	0.366
-477.318	-63.502	-0.067	0.027
-476.303	-115.594	0.585	-0.110
-475.289	-200.000	-0.028	-0.124
-474.274	28.872	0.194	0.164
-473.259	-178.378	-0.280	-0.007
-472.245	99.783	0.129	-0.149
-471.230	-200.000	0.061	0.392
-470.216	800.000	-0.141	0.398
-469.201	-200.000	-0.024	-0.211
-468.186	-200.000	-0.024	0.144
-467.172	80.751	0.250	0.268
-466.157	97.454	-0.037	-0.042
-465.143	-44.972	0.136	-0.068
-464.128	125.650	-0.154	-0.194
-463.113	21.347	-0.103	0.083
-462.099	612.871	-0.136	-0.338
-461.084	800.000	-0.059	-0.244
-460.070	263.544	0.112	0.194
-459.055	69.723	-0.147	0.151
-458.040	-200.000	-0.022	0.189
-457.026	-132.561	0.339	-0.043
-456.011	-200.000	0.010	-0.241
-454.997	-200.000	-0.002	-0.224
-453.982	-127.936	0.170	0.024
-452.968	-200.000	-0.026	-0.338
-451.953	-200.000	-0.073	0.000
-450.938	114.799	-0.125	-0.151
-449.924	-84.191	-0.252	0.079
-448.909	710.516	0.080	0.210
-447.895	-35.695	0.183	0.099
-446.880	-198.265	-0.082	0.000
-445.865	-106.097	-0.390	0.087
-444.851	-2.887	-0.307	0.213
-443.836	8.686	0.108	-0.081
-442.822	52.827	-0.326	0.310
-441.807	120.162	-0.059	-0.073
-440.792	30.137	-0.127	0.108
-439.778	8.736	-0.172	-0.129
-438.763	463.181	-0.045	0.100
-437.749	-103.264	-0.369	0.087
-436.734	-27.521	0.057	0.033
-435.719	-87.563	0.104	-0.031
-434.705	-94.177	-0.088	-0.024
-433.690	486.350	0.156	0.354
-432.676	246.155	-0.082	-0.137
-431.661	-13.841	0.108	-0.069
-430.646	463.275	0.023	-0.051
-429.632	-54.084	0.271	-0.122
-428.617	-200.000	0.002	0.091
-427.603	-200.000	-0.020	0.194
-426.588	-151.492	0.225	-0.017
-425.573	250.170	-0.222	-0.375
-424.559	115.170	-0.120	-0.146
-423.544	-128.100	-0.173	0.025
-422.530	800.000	-0.095	0.359
-421.515	186.149	-0.125	0.184
-420.500	-183.375	0.050	-0.001
-419.486	-81.063	-0.155	0.051
-418.471	-200.000	-0.006	0.221
-417.457	-200.000	0.011	-0.100
-416.442	-63.365	-0.067	-0.027
-415.428	-36.891	-0.031	-0.017
-414.413	501.203	-0.074	0.169
-413.398	269.083	-0.072	0.125
-412.384	-200.000	0.042	-0.248
-411.369	-15.148	0.251	0.160
-410.355	-82.217	-0.236	-0.076
-409.340	84.934	-0.108	-0.117
-408.325	16.440	0.091	-0.072
-407.311	-48.808	0.192	0.092
-406.296	91.640	0.156	0.174
-405.282	-143.182	0.195	0.019
-404.267	25.024	-0.216	-0.178
-403.252	-131.865	0.326	-0.042
-402.238	-17.330	-0.179	-0.112
-401.223	-151.212	0.287	0.021
-400.209	-55.927	0.193	-0.085
-399.194	53.226	0.147	0.140
-398.179	296.191	0.050	-0.092
-397.165	328.222	0.174	-0.332
-396.150	3.125	0.244	0.176
-395.136	-200.000	0.021	0.149
-394.121	-200.000	0.002	-0.011
-393.106	-25.472	-0.381	0.224
-392.092	72.891	0.207	-0.215
-391.077	-59.147	0.314	0.134
-390.063	-130.484	0.109	0.015
-389.048	-200.000	-0.036	-0.342
-388.033	-74.478	0.083	0.030
-387.019	-64.187	0.253	-0.102
-386.004	-61.786	-0.333	0.138
-384.990	-161.477	-0.326	-0.017
-383.975	-200.000	-0.007	0.069
-382.960	-74.533	0.372	0.133
-381.946	800.000	0.115	-0.327
-380.931	-150.235	0.340	0.026
-379.917	-116.300	0.096	-0.018
-378.902	-63.773	-0.143	-0.058
-377.888	-122.976	-0.178	0.028
-376.873	800.000	-0.051	0.157
-375.858	152.493	-0.044	-0.060
-374.844	-49.248	0.268	-0.127
-373.829	-200.000	0.018	-0.261
-372.815	49.323	0.154	0.143
-371.800	476.547	-0.054	-0.122
-370.785	-70.481	0.221	-0.083
-369.771	-200.000	0.021	-0.315
-368.756	800.000	0.031	-0.125
-367.742	-200.000	-0.005	-0.268
-366.727	-132.455	-0.205	0.026
-365.712	218.214	-0.137	0.217
-364.698	266.704	0.041	0.072
-363.683	-200.000	-0.018	-0.101
-362.669	800.000	-0.057	-0.202
-361.654	-155.746	0.085	0.005
-360.639	800.000	0.061	0.188
-359.625	-200.000	-0.041	0.393
-358.610	800.000	-0.055	-0.223
-357.596	-154.384	0.181	0.012
-356.581	-55.734	0.306	-0.136
-355.566	-76.389	-0.457	0.160
-354.552	800.000	0.069	0.214
-353.537	-71.749	0.245	0.091
-352.523	190.593	-0.111	0.165
-351.508	-200.000	0.024	0.209
-350.493	510.589	0.071	0.163
-349.479	800.000	-0.038	-0.136
-348.464	-89.315	-0.200	0.058
-347.450	75.125	-0.084	-0.088
-346.435	-36.901	0.069	0.037
-345.420	306.126	0.228	0.421
-344.406	-88.321	0.376	0.112
-343.391	-200.000	0.022	0.224
-342.377	-162.170	0.367	0.018
-341.362	224.109	0.099	0.158
-340.348	-145.861	-0.269	0.024
-339.333	-49.722	0.250	-0.118
-338.318	-66.123	-0.096	-0.038
-337.304	-86.130	0.120	0.037
-336.289	-138.338	0.250	0.027
-335.275	448.580	-0.197	-0.430
-334.260	-91.277	0.140	0.040
-333.245	800.000	0.042	0.117
-332.231	350.777	0.119	-0.233
-331.216	-18.643	-0.075	0.046
-330.202	13.788	-0.409	0.315
-329.187	-12.142	-0.160	0.103
-328.172	27.950	-0.175	0.146
-327.158	48.340	-0.066	-0.062
-326.143	212.435	0.159	-0.248
-325.129	-165.515	0.536	-0.023
-324.114	-44.415	0.064	0.032
-323.099	-3.455	-0.181	0.124
-322.085	-60.809	0.168	-0.071
-321.070	404.041	-0.093	-0.193
-320.056	630.049	-0.086	0.217
-319.041	-21.208	0.217	0.131
-318.026	-200.000	-0.009	-0.124
-317.012	-112.362	0.071	0.014
-315.997	-200.000	-0.042	-0.249
-314.983	-9.305	-0.216	-0.143
-313.968	420.759	0.121	0.256
-312.953	1.941	-0.198	0.141
-311.939	-116.655	0.057	-0.010
-310.924	441.783	-0.166	0.358
-309.910	-179.028	-0.238	0.005
-308.895	-146.456	0.392	-0.034
-307.880	25.440	-0.117	0.096
-306.866	-99.862	-0.488	-0.121
-305.851	5.242	-0.113	0.082
-304.837	-26.094	-0.191	0.111
-303.822	-166.626	0.060	0.002
-302.807	416.054	-0.072	0.151
-301.793	-75.900	0.219	-0.077
-300.778	-106.877	-0.089	0.019
-299.764	-200.000	0.061	0.285
-298.749	142.043	-0.059	-0.077
-297.735	130.159	-0.077	-0.098
-296.720	53.550	0.167	-0.159
-295.705	316.922	0.015	0.029
-294.691	176.178	-0.082	0.117
-293.676	131.677	-0.115	-0.146
-292.662	428.160	0.108	0.230
-291.647	483.147	-0.090	0.203
-290.632	171.553	0.141	0.200
-289.618	800.000	-0.076	0.299
-288.603	-162.271	0.151	0.007
-287.589	-53.885	-0.399	0.180
-286.574	127.121	-0.096	0.120
-285.559	753.921	-0.118	0.314
-284.545	338.569	0.110	0.211
-283.530	-58.750	0.141	0.060
-282.516	-106.418	-0.183	0.040
-281.501	800.000	0.142	-0.459
-280.486	-80.113	0.097	-0.032
-279.472	-176.397	-0.187	-0.005
-278.457	6.451	-0.063	0.046
-277.443	-200.000	-0.018	-0.229
-276.428	7.801	-0.092	0.068
-275.413	-28.127	-0.179	0.102
-274.399	-200.000	0.004	0.133
-273.384	-81.852	-0.025	0.008
-272.370	-200.000	0.057	0.344
-271.355	86.878	0.113	-0.123
-270.340	61.718	0.106	-0.104
-269.326	-75.603	-0.108	0.038
-268.311	-103.885	-0.392	-0.090
-267.297	-200.000	0.009	-0.064
-266.282	259.452	0.088	-0.150
-265.267	-54.951	0.184	0.082
-264.253	800.000	-0.028	0.083
-263.238	530.767	0.020	-0.048
-262.224	800.000	0.012	-0.037
-261.209	145.628	0.222	0.294
-260.195	603.066	-0.070	0.172
-259.180	-188.395	0.327	-0.004
-258.165	-160.397	-0.090	0.005
-257.151	227.821	0.211	-0.338
-256.136	800.000	-0.030	-0.095
-255.122	-94.842	-0.084	0.022
-254.107	-200.000	0.037	0.236
-253.092	670.332	-0.041	-0.104
-252.078	-148.900	0.305	-0.024
-251.063	-84.946	0.262	0.081
-250.049	-71.198	0.390	0.145
-249.034	115.475	-0.156	0.188
-248.019	356.898	0.141	0.278
-247.005	-81.806	0.334	0.108
-245.990	-5.099	-0.093	0.063
-244.976	-200.000	0.001	0.147
-243.961	61.412	0.058	0.057
-242.946	-117.658	-0.111	-0.020
-241.932	800.000	-0.068	0.280
-240.917	-172.476	0.172	-0.005
-239.903	-200.000	-0.002	-0.089
-238.888	800.000	0.099	-0.329
-237.873	-138.272	0.416	-0.045
-236.859	58.456	0.128	0.124
-235.844	132.306	0.143	-0.182
-234.830	-138.778	0.290	-0.031
-233.815	83.969	-0.209	0.225
-232.800	-147.585	0.205	0.017
-231.786	90.015	0.017	0.019
-230.771	26.550	-0.104	-0.086
-229.757	613.716	0.101	-0.249
-228.742	-14.547	-0.038	-0.024
-227.727	21.266	0.270	-0.216
-226.713	9.252	-0.147	0.109
-225.698	800.000	-0.040	0.110
-224.684	-109.982	-0.189	0.039
-223.669	125.218	0.154	-0.191
-222.655	356.636	0.092	0.180
-221.640	800.000	-0.030	-0.092
-220.625	-95.586	0.326	0.086
-219.611	-73.360	-0.218	-0.079
-218.596	-99.746	0.205	0.051
-217.582	-200.000	-0.014	-0.064
-216.567	800.000	0.032	-0.087
-215.552	172.961	-0.128	-0.181
-214.538	276.393	-0.106	-0.186
-213.523	-153.470	-0.096	0.007
-212.509	-126.206	0.197	-0.029
-211.494	-200.000	0.016	-0.193
-210.479	67.295	0.151	0.152
-209.465	438.159	-0.110	-0.236
-208.450	800.000	0.047	0.145
-207.436	-31.353	-0.134	0.074
-206.421	62.705	-0.251	-0.247
-205.406	-89.820	-0.144	0.041
-204.392	218.201	-0.112	-0.176
-203.377	-48.851	-0.190	0.090
-202.363	-137.216	-0.175	-0.020
-201.348	151.337	-0.065	0.087
-200.333	-1.903	0.173	-0.120
-199.319	59.286	-0.392	0.380
-198.304	-153.182	-0.365	0.025
-197.290	-200.000	0.013	-0.104
-196.275	-29.118	-0.109	0.062
-195.260	15.872	0.185	0.144
-194.246	-106.705	0.304	0.067
-193.231	105.802	-0.126	0.147
-192.217	-18.594	-0.143	0.088
-191.202	-200.000	-0.027	-0.225
-190.187	-200.000	-0.019	0.186
-189.173	-200.000	-0.004	0.443
-188.158	235.630	-0.111	-0.180
-187.144	800.000	0.092	-0.261
-186.129	-200.000	-0.040	-0.313
-185.114	800.000	-0.044	-0.144
-184.100	-70.565	0.191	-0.071
-183.085	341.483	0.051	0.097
-182.071	-91.413	-0.187	-0.053
-181.056	800.000	-0.054	0.149
-180.042	800.000	0.129	0.374
-179.027	235.681	0.069	0.112
-178.012	-200.000	-0.022	-0.102
-176.998	191.840	0.078	0.115
-175.983	-36.397	0.329	-0.175
-174.969	-104.243	-0.096	0.022
-173.954	144.453	0.238	0.312
-172.939	-141.982	0.360	0.035
-171.925	205.842	0.149	0.228
-170.910	63.057	0.106	0.105
-169.896	800.000	0.079	0.278
-168.881	-200.000	-0.012	-0.283
-167.866	222.637	-0.064	-0.101
-166.852	636.900	-0.030	0.076
-165.837	39.585	-0.203	0.179
-164.823	-194.237	0.404	-0.003
-163.808	800.000	-0.099	0.317
-162.793	-146.474	0.172	0.015
-161.779	-23.298	-0.275	-0.163
-160.764	-200.000	0.028	-0.289
-159.750	-200.000	0.007	0.277
-158.735	229.661	0.141	-0.227
-157.720	-200.000	0.016	-0.164
-156.706	-9.542	-0.078	-0.051
-155.691	28.251	0.182	0.151
-154.677	741.952	0.038	0.101
-153.662	-27.845	0.224	-0.128
-152.647	-76.329	-0.083	-0.029
-151.633	12.964	-0.139	-0.105
-150.618	324.339	0.169	0.317
-149.604	-77.998	-0.303	0.103
-148.589	64.586	0.194	0.192
-147.574	800.000	-0.041	0.117
-146.560	208.133	-0.091	0.140
-145.545	-103.535	-0.343	0.079
-144.531	-200.000	-0.029	-0.146
-143.516	-200.000	0.019	0.237
-142.502	-42.371	0.186	-0.093
-141.487	184.262	0.187	-0.272
-140.472	-18.203	-0.181	-0.111
-139.458	-3.210	-0.083	-0.057
-138.443	-200.000	-0.014	-0.242
-137.429	25.465	0.214	-0.175
-136.414	386.677	0.080	0.163
-135.399	67.622	-0.179	0.180
-134.385	-80.210	-0.204	-0.067
-133.370	58.262	0.031	-0.030
-132.356	-200.000	0.001	-0.177
-131.341	-62.921	-0.341	0.139
-130.326	800.000	0.032	0.098
-129.312	-200.000	-0.024	0.159
-128.297	622.567	-0.060	0.150
-127.283	148.948	0.213	-0.283
-126.268	200.499	0.149	0.225
-125.253	143.247	0.084	-0.110
-124.239	-14.565	-0.265	-0.168
-123.224	59.593	-0.060	-0.058
-122.210	370.610	-0.105	-0.210
