DTS Sentinel unit serial number:	SN413079Multiplexer serial number:	ORYXHardware model number:	OX4-SRSoftware version number:	ORYX F/W v4.00 Oryx Data Collector v3.7.2.0data status	okinstallation	princeton_trtdifferential loss correction	single-endedforward channel	channel 1reverse channel	N/Adate	2019/09/13time	17:54:35forward acquisition time	60.00reverse acquisition time	0.00gamma	496.2192k internal	0.2306k external	0.2306temperature offset calibration	1.0150default loss term (dB/km)	0.3790temperature slope calibration	1.0000multiplexer offset coefficient	1.0000multiplexer slope coefficient	1.0000fibre end	0.00T internal ref (°C)	35.30T ext. ref 1 (°C)	4.89T ext. ref 2 (°C)	28.27length (m)	temperature (°C)	Stokes	anti-Stokes-747.200	-71.309	0.224	0.086
-746.185	-125.245	-0.353	0.055
-745.171	692.292	-0.028	-0.075
-744.156	-200.000	0.022	0.114
-743.142	-56.236	0.224	-0.101
-742.127	109.575	0.123	0.150
-741.112	-32.848	-0.239	-0.135
-740.098	229.833	-0.048	0.081
-739.083	27.577	0.306	-0.262
-738.069	800.000	0.051	0.212
-737.054	-99.872	-0.207	0.053
-736.039	-135.036	-0.173	0.021
-735.025	-107.210	0.322	0.072
-734.010	-128.454	-0.076	-0.011
-732.996	87.132	-0.147	-0.166
-731.981	-112.975	-0.184	-0.037
-730.966	474.523	-0.076	-0.175
-729.952	-161.783	-0.388	0.020
-728.937	3.062	-0.173	-0.128
-727.923	-200.000	-0.039	0.304
-726.908	-119.404	-0.199	-0.035
-725.894	800.000	-0.106	0.313
-724.879	104.411	0.054	-0.064
-723.864	800.000	0.033	-0.123
-722.850	800.000	0.040	-0.174
-721.835	-200.000	0.014	0.150
-720.821	316.150	-0.157	-0.301
-719.806	373.497	0.090	0.187
-718.791	-143.709	0.140	0.013
-717.777	-200.000	-0.016	-0.171
-716.762	-63.109	0.415	-0.174
-715.748	-159.959	0.129	0.007
-714.733	-69.958	-0.176	0.068
-713.718	-167.557	-0.164	-0.007
-712.704	-139.373	0.274	0.030
-711.689	-39.886	-0.191	0.101
-710.675	360.876	0.065	-0.133
-709.660	230.783	0.096	-0.160
-708.645	121.733	0.150	-0.190
-707.631	450.768	-0.067	-0.149
-706.616	-123.977	0.261	0.042
-705.602	-14.064	0.269	-0.176
-704.587	322.517	-0.029	0.055
-703.572	366.393	0.073	0.150
-702.558	-92.397	-0.139	0.040
-701.543	-71.462	0.160	-0.061
-700.529	0.459	-0.124	0.090
-699.514	-24.806	-0.145	0.088
-698.499	-11.801	-0.285	-0.190
-697.485	-12.258	-0.101	0.067
-696.470	89.062	-0.203	-0.230
-695.456	10.498	0.062	0.048
-694.441	35.873	-0.132	0.118
-693.426	-200.000	-0.026	-0.238
-692.412	3.256	-0.261	-0.193
-691.397	-119.486	-0.487	-0.086
-690.383	468.336	0.069	-0.157
-689.368	-200.000	0.075	-0.355
-688.354	304.334	0.054	-0.102
-687.339	-99.643	-0.086	0.022
-686.324	13.034	-0.163	-0.128
-685.310	-24.736	0.192	0.116
-684.295	-117.122	-0.298	-0.055
-683.281	-52.298	0.153	-0.072
-682.266	800.000	-0.116	-0.361
-681.251	93.798	-0.170	-0.195
-680.237	265.348	-0.037	-0.065
-679.222	-13.882	0.263	0.172
-678.208	129.554	-0.077	-0.099
-677.193	103.879	-0.129	-0.154
-676.178	-175.316	0.331	-0.009
-675.164	-84.224	-0.376	-0.121
-674.149	-134.203	0.042	0.005
-673.135	-200.000	0.061	0.309
-672.120	-45.765	0.203	-0.102
-671.105	-65.571	-0.134	-0.055
-670.091	-35.605	0.243	0.133
-669.076	45.324	-0.103	0.096
-668.062	-200.000	0.013	-0.234
-667.047	78.467	-0.241	-0.261
-666.032	-59.319	-0.064	0.028
-665.018	64.061	-0.171	0.175
-664.003	490.547	-0.079	0.183
-662.989	-42.519	0.037	-0.019
-661.974	800.000	-0.089	-0.291
-660.959	-181.535	-0.141	-0.003
-659.945	-95.695	0.170	0.046
-658.930	238.555	0.197	-0.332
-657.916	-105.762	0.210	-0.048
-656.901	-200.000	-0.038	0.431
-655.886	-55.371	-0.013	0.006
-654.872	62.502	-0.230	-0.233
-653.857	-114.321	0.394	0.077
-652.843	-101.244	-0.630	0.156
-651.828	299.406	0.128	-0.238
-650.814	-125.265	-0.254	-0.039
-649.799	800.000	0.049	0.159
-648.784	113.890	-0.284	-0.350
-647.770	-200.000	0.003	-0.028
-646.755	-115.503	0.074	-0.014
-645.741	152.276	-0.076	0.105
-644.726	71.913	0.102	0.107
-643.711	-88.874	-0.185	0.056
-642.697	-200.000	-0.008	0.587
-641.682	123.866	0.287	-0.365
-640.668	800.000	0.114	-0.369
-639.653	248.570	-0.128	-0.220
-638.638	292.855	-0.079	-0.146
-637.624	-200.000	-0.001	0.263
-636.609	-200.000	0.008	-0.221
-635.595	-34.979	0.157	-0.087
-634.580	-89.485	0.104	-0.031
-633.565	-200.000	0.019	0.208
-632.551	215.057	-0.023	-0.037
-631.536	145.135	-0.169	0.230
-630.522	-109.040	0.241	0.052
-629.507	75.888	0.158	-0.169
-628.492	-184.804	0.305	0.005
-627.478	-9.373	-0.090	-0.061
-626.463	-15.756	0.242	-0.156
-625.449	52.352	-0.310	-0.300
-624.434	-200.000	0.036	0.186
-623.419	84.155	-0.105	-0.116
-622.405	377.006	-0.028	-0.059
-621.390	-69.383	-0.274	-0.106
-620.376	-103.736	0.248	0.059
-619.361	-200.000	0.012	-0.134
-618.346	-118.949	-0.246	-0.044
-617.332	-51.384	0.090	-0.043
-616.317	-40.499	0.152	-0.080
-615.303	-152.043	0.228	-0.017
-614.288	-88.251	0.090	0.027
-613.273	212.651	0.184	0.294
-612.259	272.584	0.037	0.066
-611.244	4.130	0.158	-0.117
-610.230	5.942	-0.140	-0.105
-609.215	-48.095	-0.165	-0.081
-608.201	7.643	-0.036	0.028
-607.186	-77.742	0.194	-0.068
-606.171	800.000	0.093	0.339
-605.157	-200.000	-0.027	-0.177
-604.142	62.259	0.162	-0.164
-603.128	4.892	-0.178	-0.132
-602.113	-128.672	0.104	-0.015
-601.098	-147.572	-0.161	0.014
-600.084	-200.000	-0.003	-0.144
-599.069	-131.385	-0.286	-0.038
-598.055	-200.000	-0.017	0.127
-597.040	-99.931	-0.112	-0.028
-596.025	196.688	0.167	-0.258
-595.011	-115.501	-0.189	0.036
-593.996	-200.000	-0.017	0.311
-592.982	-200.000	-0.022	-0.125
-591.967	-200.000	0.002	0.013
-590.952	800.000	-0.058	0.183
-589.938	301.815	-0.173	0.324
-588.923	-200.000	0.026	0.291
-587.909	224.765	-0.140	-0.228
-586.894	-200.000	0.015	-0.175
-585.879	-49.876	-0.249	-0.120
-584.865	-200.000	0.060	0.530
-583.850	93.709	-0.164	0.187
-582.836	-200.000	0.007	0.056
-581.821	124.094	-0.264	0.336
-580.806	-97.263	-0.346	0.091
-579.792	800.000	-0.043	-0.131
-578.777	257.472	0.074	-0.129
-577.763	59.622	0.065	-0.065
-576.748	30.613	0.164	-0.142
-575.733	69.209	-0.293	-0.305
-574.719	499.713	0.083	-0.194
-573.704	660.164	0.069	0.180
-572.690	26.450	-0.320	0.271
-571.675	89.785	-0.047	-0.053
-570.661	116.247	0.193	-0.239
-569.646	-200.000	-0.001	-0.078
-568.631	-25.636	0.239	0.142
-567.617	227.976	-0.135	-0.222
-566.602	8.124	0.332	-0.252
-565.588	-200.000	0.081	-0.363
-564.573	40.709	-0.218	-0.198
-563.558	-200.000	0.041	-0.222
-562.544	-72.568	-0.513	0.191
-561.529	-149.618	-0.189	-0.015
-560.515	79.477	-0.153	-0.166
-559.500	127.199	-0.109	0.140
-558.485	-33.969	0.077	0.043
-557.471	14.729	-0.210	0.166
-556.456	273.329	-0.218	0.389
-555.442	-174.609	0.125	0.004
-554.427	800.000	0.016	0.062
-553.412	-95.177	0.283	-0.077
-552.398	-15.952	-0.151	-0.097
-551.383	-36.724	0.296	-0.161
-550.369	-194.890	0.005	0.000
-549.354	800.000	0.054	0.172
-548.339	-45.993	0.080	-0.040
-547.325	68.119	0.120	0.124
-546.310	-172.515	0.254	0.008
-545.296	-63.495	0.160	-0.066
-544.281	-25.405	0.311	-0.185
-543.266	412.857	-0.126	0.270
-542.252	-85.836	-0.324	0.101
-541.237	800.000	-0.026	-0.109
-540.223	4.243	-0.138	-0.102
-539.208	449.009	0.106	0.235
-538.193	615.100	-0.147	0.371
-537.179	-28.484	-0.186	-0.108
-536.164	192.631	-0.091	-0.139
-535.150	-81.765	0.343	-0.114
-534.135	-42.269	-0.079	0.041
-533.121	-49.737	-0.278	0.134
-532.106	-83.488	-0.170	-0.055
-531.091	67.014	-0.196	-0.202
-530.077	495.063	0.058	0.133
-529.062	-200.000	0.017	-0.102
-528.048	-107.062	-0.127	0.028
-527.033	-200.000	-0.053	0.242
-526.018	415.307	0.137	0.294
-525.004	292.397	0.088	-0.162
-523.989	162.789	-0.035	0.050
-522.975	474.421	0.125	-0.285
-521.960	-63.254	-0.217	0.090
-520.945	800.000	0.046	0.169
-519.931	339.058	0.097	0.190
-518.916	169.271	-0.168	-0.241
-517.902	-154.254	-0.180	0.012
-516.887	-200.000	0.025	0.247
-515.872	-6.715	-0.300	0.206
-514.858	-116.724	-0.221	0.041
-513.843	-200.000	-0.049	0.364
-512.829	452.893	0.119	0.264
-511.814	-200.000	-0.007	0.045
-510.799	-129.457	0.224	-0.031
-509.785	62.984	0.215	-0.217
-508.770	-170.723	-0.119	-0.004
-507.756	258.392	0.110	0.191
-506.741	-175.619	0.110	0.003
-505.726	-200.000	0.018	0.092
-504.712	77.586	-0.423	0.454
-503.697	-200.000	0.004	0.090
-502.683	-200.000	-0.022	0.189
-501.668	800.000	0.052	0.174
-500.653	571.579	-0.088	0.217
-499.639	800.000	0.104	0.333
-498.624	54.168	-0.241	0.234
-497.610	232.299	0.085	-0.140
-496.595	9.416	-0.123	-0.094
-495.581	353.601	-0.049	-0.098
-494.566	-200.000	0.032	0.353
-493.551	332.335	-0.026	0.050
-492.537	-182.205	-0.242	-0.005
-491.522	-28.482	0.280	-0.162
-490.508	-113.949	0.495	-0.097
-489.493	18.859	-0.236	0.190
-488.478	-99.774	-0.104	-0.026
-487.464	65.591	-0.262	-0.267
-486.449	-41.306	0.087	-0.045
-485.435	464.962	0.041	-0.092
-484.420	800.000	0.064	-0.217
-483.405	-125.650	-0.166	-0.025
-482.391	-66.022	0.222	0.089
-481.376	-23.371	-0.094	0.057
-480.362	-53.608	-0.281	-0.129
-479.347	-200.000	0.007	-0.122
-478.332	-2.125	-0.222	0.157
-477.318	627.281	-0.059	-0.151
-476.303	65.528	-0.115	-0.117
-475.289	-167.658	0.213	-0.008
-474.274	50.549	-0.168	-0.160
-473.259	-13.549	-0.106	0.069
-472.245	-30.577	0.070	0.040
-471.230	-66.048	0.332	0.133
-470.216	77.401	0.166	0.178
-469.201	112.251	0.339	0.413
-468.186	271.318	0.120	-0.213
-467.172	-110.101	0.142	0.030
-466.157	-200.000	-0.014	-0.155
-465.143	-139.544	-0.076	-0.008
-464.128	24.646	0.272	-0.227
-463.113	-5.215	0.256	0.177
-462.099	800.000	-0.055	0.195
-461.084	139.445	-0.217	-0.287
-460.070	86.643	0.175	-0.194
-459.055	-200.000	-0.041	0.293
-458.040	-200.000	0.022	0.122
-457.026	800.000	-0.046	-0.150
-456.011	14.698	-0.176	-0.138
-454.997	-200.000	0.022	0.111
-453.982	120.048	0.055	-0.069
-452.968	-89.394	0.392	-0.116
-451.953	18.763	0.134	-0.108
-450.938	-3.649	0.185	-0.129
-449.924	78.681	0.165	0.178
-448.909	-122.678	-0.273	0.044
-447.895	711.698	0.187	-0.497
-446.880	284.899	0.109	0.197
-445.865	161.527	0.160	-0.225
-444.851	-152.743	-0.226	0.016
-443.836	-133.581	-0.126	0.016
-442.822	800.000	-0.014	0.049
-441.807	-81.314	-0.287	0.095
-440.792	58.853	0.153	0.151
-439.778	6.214	-0.081	-0.060
-438.763	59.338	0.116	-0.115
-437.749	429.978	0.052	0.113
-436.734	49.469	-0.208	-0.197
-435.719	-200.000	-0.451	0.002
-434.705	-50.542	-0.184	-0.087
-433.690	37.326	-0.137	-0.122
-432.676	-200.000	0.047	0.348
-431.661	411.830	0.062	0.132
-430.646	241.932	0.056	-0.094
-429.632	-138.752	-0.259	-0.028
-428.617	-143.065	-0.109	-0.011
-427.603	-200.000	0.052	-0.367
-426.588	-200.000	-0.016	-0.233
-425.573	-96.815	-0.147	-0.039
-424.559	800.000	0.036	-0.118
-423.544	81.194	-0.233	-0.253
-422.530	-52.258	-0.215	0.100
-421.515	800.000	-0.035	0.115
-420.500	391.638	-0.071	0.148
-419.486	386.041	-0.107	-0.222
-418.471	69.387	-0.069	0.071
-417.457	-91.093	0.184	0.053
-416.442	-77.363	-0.116	-0.040
-415.428	-70.619	-0.034	-0.013
-414.413	-51.485	0.128	0.060
-413.398	-150.422	0.436	-0.034
-412.384	-88.742	0.442	-0.132
-411.369	329.881	-0.149	-0.288
-410.355	52.546	-0.086	-0.083
-409.340	-200.000	-0.039	0.201
-408.325	-162.033	-0.156	-0.008
-407.311	-200.000	0.022	-0.117
-406.296	-128.709	-0.421	0.060
-405.282	800.000	0.088	-0.281
-404.267	-139.878	0.178	-0.019
-403.252	56.654	0.186	0.182
-402.238	-93.335	0.172	0.048
-401.223	-200.000	-0.006	0.026
-400.209	9.659	-0.120	-0.091
-399.194	800.000	-0.068	-0.293
-398.179	-0.762	0.203	-0.144
-397.165	-200.000	-0.004	-0.068
-396.150	-40.394	-0.459	0.239
-395.136	-18.959	-0.207	-0.129
-394.121	117.417	-0.151	-0.187
-393.106	-15.410	0.280	-0.179
-392.092	114.817	0.114	-0.140
-391.077	214.152	0.201	0.319
-390.063	527.504	0.117	0.277
-389.048	-94.579	0.132	-0.036
-388.033	400.028	-0.135	-0.284
-387.019	581.418	-0.071	0.176
-386.004	-91.191	-0.278	-0.080
-384.990	152.291	0.112	-0.153
-383.975	-139.195	-0.082	0.009
-382.960	402.868	0.104	0.220
-381.946	796.722	-0.069	-0.189
-380.931	-200.000	0.019	0.305
-379.917	800.000	-0.052	0.153
-378.902	-44.620	-0.046	-0.023
-377.888	180.066	-0.084	0.124
-376.873	-135.915	-0.101	0.012
-375.858	800.000	-0.039	-0.114
-374.844	365.430	0.178	0.359
-373.829	116.616	0.067	-0.083
-372.815	-92.776	-0.058	0.016
-371.800	-53.970	0.018	0.008
-370.785	800.000	-0.044	-0.133
-369.771	155.565	-0.082	-0.113
-368.756	-139.005	-0.224	0.024
-367.742	548.556	0.143	0.343
-366.727	-21.668	0.448	0.273
-365.712	522.574	0.058	-0.138
-364.698	-62.687	-0.257	0.107
-363.683	48.808	0.161	-0.151
-362.669	219.060	0.099	0.158
-361.654	800.000	-0.035	-0.102
-360.639	54.802	0.054	0.052
-359.625	38.378	-0.171	0.153
-358.610	75.998	-0.116	-0.123
-357.596	-184.706	0.201	0.003
-356.581	-125.972	-0.047	-0.007
-355.566	-104.164	0.243	0.057
-354.552	-109.631	0.298	-0.063
-353.537	27.051	-0.173	-0.145
-352.523	800.000	-0.048	0.201
-351.508	7.834	0.128	-0.096
-350.493	183.286	0.118	0.175
-349.479	89.300	-0.132	0.147
-348.464	800.000	-0.059	-0.175
-347.450	-56.466	-0.153	-0.068
-346.435	-5.237	-0.135	0.093
-345.420	296.193	0.092	-0.168
-344.406	800.000	0.048	-0.194
-343.391	27.774	-0.144	0.121
-342.377	231.778	-0.080	-0.131
-341.362	-120.348	0.252	-0.043
-340.348	450.948	-0.025	0.055
-339.333	297.285	-0.064	0.117
-338.318	-18.090	0.112	0.070
-337.304	-114.775	-0.237	0.045
-336.289	-200.000	-0.025	0.330
-335.275	-135.800	0.148	0.017
-334.260	13.254	0.180	0.139
-333.245	-131.435	0.365	0.048
-332.231	231.271	0.164	0.268
-331.216	-200.000	-0.001	-0.067
-330.202	428.719	-0.079	0.170
-329.187	93.302	-0.040	0.045
-328.172	-34.033	0.199	0.109
-327.158	800.000	0.096	-0.279
-326.143	-37.679	0.286	-0.152
-325.129	-8.121	0.136	-0.092
-324.114	-116.387	-0.238	-0.044
-323.099	-177.812	0.202	0.005
-322.085	-118.570	-0.257	-0.046
-321.070	91.292	0.111	-0.125
-320.056	243.952	-0.175	-0.294
-319.041	-200.000	0.019	0.200
-318.026	800.000	0.045	-0.134
-317.012	-172.041	0.336	-0.011
-315.997	-184.889	0.316	-0.005
-314.983	-144.665	-0.300	-0.028
-313.968	-200.000	-0.040	-0.389
-312.953	-15.867	0.158	-0.101
-311.939	125.428	0.038	0.048
-310.924	-4.955	-0.273	0.188
-309.910	21.700	-0.186	-0.152
-308.895	-140.480	0.189	-0.020
-307.880	-200.000	-0.021	-0.270
-306.866	733.989	-0.108	0.289
-305.851	-2.720	-0.107	0.075
-304.837	-200.000	0.022	-0.172
-303.822	-200.000	0.038	0.234
-302.807	800.000	-0.114	-0.442
-301.793	-200.000	0.015	-0.118
-300.778	800.000	0.012	0.052
-299.764	552.985	-0.117	0.280
-298.749	67.419	0.050	0.051
-297.735	-22.236	0.166	0.100
-296.720	10.357	0.167	-0.127
-295.705	-200.000	-0.001	-0.022
-294.691	800.000	-0.090	0.248
-293.676	128.884	-0.211	0.269
-292.662	-80.595	-0.196	0.065
-291.647	265.099	-0.060	-0.105
-290.632	-162.501	-0.172	-0.008
-289.618	94.366	0.168	0.191
-288.603	223.125	0.034	0.055
-287.589	-133.277	-0.258	0.033
-286.574	-200.000	-0.012	-0.213
-285.559	-120.765	0.296	0.050
-284.545	656.140	0.132	-0.340
-283.530	-139.718	-0.612	0.065
-282.516	-45.952	-0.184	0.090
-281.501	-59.090	-0.041	-0.018
-280.486	-106.405	0.509	0.114
-279.472	-200.000	-0.054	0.324
-278.457	-143.916	0.296	0.028
-277.443	-200.000	0.074	-0.328
-276.428	632.571	0.037	-0.093
-275.413	-43.690	-0.165	-0.083
-274.399	233.995	0.075	-0.123
-273.384	431.545	-0.121	0.261
-272.370	-171.056	0.384	0.013
-271.355	800.000	0.120	-0.351
-270.340	348.802	-0.035	-0.069
-269.326	800.000	0.043	-0.140
-268.311	54.758	-0.196	0.189
-267.297	-174.597	-0.510	-0.015
-266.282	-78.388	0.506	0.173
-265.267	792.510	-0.046	-0.127
-264.253	-69.816	-0.237	0.090
-263.238	14.222	0.009	-0.007
-262.224	32.295	0.369	0.318
-261.209	199.240	0.186	0.284
-260.195	-200.000	0.022	0.193
-259.180	226.140	-0.036	0.058
-258.165	-200.000	-0.011	0.310
-257.151	-148.452	-0.207	0.017
-256.136	98.626	0.132	-0.152
-255.122	46.125	0.118	-0.109
-254.107	422.140	-0.001	-0.002
-253.092	118.157	-0.086	-0.105
-252.078	-132.846	-0.407	-0.052
-251.063	561.051	0.014	-0.033
-250.049	-142.184	0.233	-0.023
-249.034	124.627	-0.176	0.221
-248.019	800.000	0.083	-0.247
-247.005	-107.237	-0.089	-0.020
-245.990	-200.000	0.011	-0.114
-244.976	-72.396	0.045	-0.016
-243.961	-91.070	0.158	0.045
-242.946	-140.721	0.173	0.018
-241.932	17.536	0.062	0.049
-240.917	-180.063	-0.191	0.004
-239.903	307.399	0.080	0.149
-238.888	-200.000	-0.005	-0.148
-237.873	452.997	0.027	0.060
-236.859	-117.844	-0.207	0.037
-235.844	537.939	0.017	-0.040
-234.830	-200.000	-0.009	0.143
-233.815	800.000	-0.035	-0.105
-232.800	324.994	-0.171	0.327
-231.786	228.018	-0.027	-0.044
-230.771	25.129	-0.189	-0.156
-229.757	-132.312	0.086	0.011
-228.742	-31.294	0.029	0.017
-227.727	-167.543	0.117	-0.005
-226.713	-89.350	-0.010	0.003
-225.698	-129.797	-0.073	0.010
-224.684	-127.770	-0.206	0.030
-223.669	-133.723	-0.169	-0.021
-222.655	800.000	0.073	0.209
-221.640	-200.000	0.007	0.198
-220.625	-32.849	-0.082	-0.046
-219.611	800.000	-0.059	0.201
-218.596	-200.000	-0.039	0.293
-217.582	800.000	0.053	0.156
-216.567	162.841	0.188	0.263
-215.552	76.747	0.042	-0.045
-214.538	800.000	-0.065	0.264
-213.523	-175.799	-0.143	0.004
-212.509	-96.680	0.403	-0.106
-211.494	20.909	-0.371	-0.299
-210.479	-200.000	0.013	-0.078
-209.465	800.000	-0.054	-0.230
-208.450	558.120	-0.094	0.226
-207.436	-25.996	-0.246	0.144
-206.421	-200.000	0.009	-0.073
-205.406	-160.502	0.035	0.002
-204.392	344.380	-0.034	0.067
-203.377	274.498	0.054	0.095
-202.363	-200.000	-0.003	-0.170
-201.348	-200.000	0.063	-0.457
-200.333	-147.105	0.450	0.038
-199.319	-200.000	-0.011	0.169
-198.304	-72.473	0.307	0.113
-197.290	-200.000	-0.006	0.155
-196.275	687.940	0.070	-0.183
-195.260	5.678	-0.072	-0.053
-194.246	-159.543	0.204	0.011
-193.231	-200.000	0.055	-0.263
-192.217	160.213	0.068	-0.094
-191.202	-147.240	0.087	0.007
-190.187	671.634	0.124	-0.321
-189.173	800.000	0.054	-0.229
-188.158	-148.477	-0.303	0.025
-187.144	448.475	0.140	0.307
-186.129	4.452	-0.136	-0.100
-185.114	-200.000	-0.022	-0.230
-184.100	-30.610	-0.225	-0.127
-183.085	65.005	0.096	-0.096
-182.071	-32.131	0.234	0.130
-181.056	-21.984	0.119	-0.072
-180.042	-39.012	0.195	0.102
-179.027	-200.000	0.053	-0.311
-178.012	683.488	-0.087	0.226
-176.998	219.929	0.096	0.152
-175.983	169.026	-0.177	0.251
-174.969	-200.000	-0.090	-0.441
-173.954	77.574	0.076	0.080
-172.939	-200.000	0.034	0.158
-171.925	-15.492	-0.136	0.086
-170.910	129.420	-0.257	-0.327
-169.896	7.985	0.012	-0.009
-168.881	-170.793	0.428	0.015
-167.866	800.000	-0.030	-0.116
-166.852	69.445	-0.178	0.182
-165.837	96.237	-0.310	-0.353
-164.823	-200.000	-0.034	-0.327
-163.808	139.945	0.256	-0.335
-162.793	-200.000	0.015	-0.088
-161.779	204.856	0.233	-0.360
-160.764	317.791	0.068	-0.128
-159.750	-61.504	0.237	0.099
-158.735	562.993	-0.061	-0.148
-157.720	-200.000	0.005	0.060
-156.706	800.000	0.090	0.267
-155.691	-108.799	0.310	0.066
-154.677	314.980	-0.114	0.214
-153.662	-200.000	0.015	0.145
-152.647	235.113	0.157	0.258
-151.633	114.256	0.168	-0.203
-150.618	-180.571	0.140	-0.003
-149.604	-56.644	0.176	-0.077
-148.589	37.872	0.109	0.097
-147.574	207.976	0.180	-0.279
-146.560	-162.722	-0.016	-0.001
-145.545	800.000	-0.045	-0.155
-144.531	-144.517	-0.103	0.009
-143.516	80.667	0.110	-0.118
-142.502	153.961	-0.157	-0.214
-141.487	800.000	0.068	-0.239
-140.472	-200.000	-0.016	-0.123
-139.458	362.230	0.128	-0.255
-138.443	800.000	0.076	-0.303
-137.429	-200.000	-0.062	-0.409
-136.414	-159.057	0.196	-0.011
-135.399	-200.000	0.004	0.163
-134.385	116.721	0.085	0.104
-133.370	-200.000	-0.053	-0.238
-132.356	-152.501	0.166	0.012
-131.341	213.863	0.100	-0.158
-130.326	337.512	-0.151	0.293
-129.312	71.874	-0.230	-0.237
-128.297	162.278	-0.098	-0.136
-127.283	-114.149	0.185	0.035
-126.268	-119.542	0.113	0.019
-125.253	-36.932	0.092	-0.049
-124.239	-200.000	0.075	-0.376
-123.224	-200.000	-0.007	-0.225
-122.210	37.974	0.064	-0.057
