DTS Sentinel unit serial number:	SN413079Multiplexer serial number:	ORYXHardware model number:	OX4-SRSoftware version number:	ORYX F/W v4.00 Oryx Data Collector v3.7.2.0data status	okinstallation	princeton_trtdifferential loss correction	single-endedforward channel	channel 1reverse channel	N/Adate	2019/09/16time	09:06:36forward acquisition time	60.00reverse acquisition time	0.00gamma	496.2192k internal	0.2325k external	0.2325temperature offset calibration	0.9974default loss term (dB/km)	0.3790temperature slope calibration	1.0000multiplexer offset coefficient	1.0000multiplexer slope coefficient	1.0000fibre end	0.00T internal ref (°C)	30.75T ext. ref 1 (°C)	12.08T ext. ref 2 (°C)	28.23length (m)	temperature (°C)	Stokes	anti-Stokes-747.200	-80.706	0.092	-0.031
-746.185	-200.000	-0.005	0.094
-745.171	800.000	0.071	-0.202
-744.156	800.000	-0.113	0.422
-743.142	336.655	-0.155	-0.304
-742.127	599.104	-0.155	0.387
-741.112	240.161	-0.093	-0.157
-740.098	69.366	0.192	0.199
-739.083	619.475	-0.069	0.176
-738.069	141.258	-0.226	0.302
-737.054	800.000	0.039	0.141
-736.039	318.751	-0.058	-0.112
-735.025	247.028	0.238	0.406
-734.010	-200.000	0.032	0.284
-732.996	-61.429	-0.292	0.124
-731.981	34.108	0.160	-0.141
-730.966	800.000	0.047	-0.153
-729.952	800.000	0.020	0.077
-728.937	68.629	0.007	-0.007
-727.923	102.003	0.202	0.238
-726.908	-200.000	-0.006	-0.106
-725.894	-51.302	0.279	-0.132
-724.879	-200.000	0.031	-0.289
-723.864	-200.000	0.065	-0.296
-722.850	-200.000	0.004	-0.037
-721.835	136.073	-0.032	-0.042
-720.821	-23.092	-0.200	-0.122
-719.806	93.471	0.037	0.042
-718.791	-200.000	-0.042	-0.213
-717.777	754.290	0.070	-0.191
-716.762	-164.530	-0.128	-0.006
-715.748	-200.000	-0.016	-0.356
-714.733	800.000	0.080	-0.311
-713.718	257.146	0.074	-0.129
-712.704	525.309	-0.139	-0.330
-711.689	-118.244	0.187	0.034
-710.675	409.891	-0.155	-0.332
-709.660	-200.000	0.003	0.036
-708.645	265.721	-0.174	-0.307
-707.631	-107.813	0.259	0.057
-706.616	284.257	0.095	-0.172
-705.602	782.054	0.056	-0.156
-704.587	-89.277	-0.246	-0.073
-703.572	266.884	0.081	0.143
-702.558	355.768	0.024	0.048
-701.543	-200.000	-0.010	0.111
-700.529	800.000	-0.047	-0.134
-699.514	-79.472	-0.220	0.075
-698.499	-130.129	-0.276	0.038
-697.485	-104.963	-0.205	0.047
-696.470	-200.000	0.008	0.134
-695.456	3.879	-0.194	-0.143
-694.441	127.084	0.046	-0.059
-693.426	17.975	-0.260	-0.209
-692.412	88.214	0.085	-0.095
-691.397	631.412	0.149	-0.380
-690.383	-200.000	-0.025	-0.133
-689.368	-13.366	0.208	-0.136
-688.354	-200.000	-0.003	-0.043
-687.339	-200.000	-0.010	-0.113
-686.324	40.704	0.137	0.125
-685.310	-200.000	0.023	-0.452
-684.295	-128.059	0.226	0.033
-683.281	-200.000	-0.001	-0.086
-682.266	-164.508	-0.154	-0.007
-681.251	1.331	-0.108	-0.078
-680.237	-77.151	0.139	0.049
-679.222	800.000	-0.104	-0.332
-678.208	-100.519	0.121	0.030
-677.193	133.049	-0.075	-0.097
-676.178	99.352	-0.137	-0.159
-675.164	-200.000	0.001	0.305
-674.149	-19.513	-0.021	-0.013
-673.135	-105.266	-0.201	-0.046
-672.120	170.206	0.017	-0.025
-671.105	69.334	-0.114	-0.118
-670.091	781.110	-0.193	-0.530
-669.076	44.091	-0.458	-0.423
-668.062	340.033	-0.180	-0.353
-667.047	126.757	-0.179	-0.229
-666.032	800.000	0.044	0.176
-665.018	-125.533	-0.046	0.007
-664.003	-200.000	-0.025	-0.293
-662.989	412.311	-0.094	-0.201
-661.974	135.111	0.079	-0.103
-660.959	131.061	0.150	0.193
-659.945	41.225	-0.025	0.023
-658.930	-129.554	0.341	0.047
-657.916	800.000	0.084	-0.259
-656.901	-69.136	-0.158	-0.061
-655.886	-58.067	-0.069	0.030
-654.872	-35.221	0.074	0.041
-653.857	-200.000	-0.026	-0.247
-652.843	-200.000	0.086	-0.483
-651.828	800.000	0.094	-0.324
-650.814	285.077	-0.102	-0.185
-649.799	8.383	-0.196	-0.148
-648.784	98.755	-0.203	-0.236
-647.770	800.000	0.087	-0.322
-646.755	395.068	0.104	-0.218
-645.741	-200.000	0.008	0.129
-644.726	13.472	-0.159	0.124
-643.711	-70.986	-0.288	-0.109
-642.697	-200.000	-0.005	-0.403
-641.682	-30.316	0.147	-0.084
-640.668	129.505	0.053	-0.069
-639.653	364.147	0.032	-0.065
-638.638	33.245	0.346	0.301
-637.624	-90.177	0.371	0.109
-636.609	351.832	0.073	-0.146
-635.595	549.329	0.105	-0.253
-634.580	99.931	-0.293	-0.341
-633.565	-85.921	-0.280	0.087
-632.551	-107.329	-0.287	0.063
-631.536	164.915	-0.104	0.147
-630.522	-59.007	0.085	0.037
-629.507	63.580	-0.073	-0.074
-628.492	-14.704	-0.187	-0.120
-627.478	-109.520	-0.065	-0.014
-626.463	-200.000	0.212	-0.001
-625.449	-37.419	-0.276	0.148
-624.434	32.497	0.272	-0.236
-623.419	348.125	-0.020	0.040
-622.405	212.315	0.140	-0.222
-621.390	61.042	-0.125	0.125
-620.376	106.304	-0.132	-0.157
-619.361	-200.000	0.008	-0.098
-618.346	800.000	0.065	-0.237
-617.332	764.653	-0.099	-0.271
-616.317	-46.634	-0.166	0.082
-615.303	-65.196	0.381	0.154
-614.288	37.242	-0.227	0.202
-613.273	637.794	0.156	0.399
-612.259	-108.621	-0.266	-0.057
-611.244	-11.921	-0.155	-0.102
-610.230	-200.000	0.001	-0.544
-609.215	-139.716	-0.408	0.044
-608.201	-132.727	-0.245	-0.032
-607.186	290.832	-0.108	-0.196
-606.171	58.709	0.209	-0.207
-605.157	-122.229	0.156	-0.026
-604.142	-72.382	0.272	-0.101
-603.128	-129.720	-0.309	0.043
-602.113	320.025	-0.021	0.040
-601.098	98.407	-0.051	-0.059
-600.084	322.695	0.131	-0.251
-599.069	-200.000	-0.006	-0.314
-598.055	133.351	-0.130	0.169
-597.040	-33.907	-0.093	0.052
-596.025	-123.089	-0.132	0.021
-595.011	237.684	0.113	0.188
-593.996	-8.907	-0.071	0.048
-592.982	191.519	-0.113	0.170
-591.967	37.983	-0.201	0.180
-590.952	-165.914	-0.260	-0.011
-589.938	-60.978	0.343	-0.145
-588.923	-48.616	0.134	-0.064
-587.909	29.115	-0.228	-0.194
-586.894	-52.913	0.078	-0.036
-585.879	-4.839	-0.108	0.075
-584.865	-89.989	0.082	-0.024
-583.850	-181.461	-0.157	0.003
-582.836	-200.000	-0.023	-0.181
-581.821	800.000	-0.075	-0.225
-580.806	197.607	0.221	-0.338
-579.792	800.000	0.023	-0.090
-578.777	-182.108	-0.217	0.004
-577.763	428.571	-0.104	-0.225
-576.748	299.627	-0.243	-0.449
-575.733	48.027	0.063	-0.059
-574.719	703.859	0.053	0.141
-573.704	50.282	-0.141	0.134
-572.690	-74.959	-0.099	-0.036
-571.675	201.778	-0.134	0.207
-570.661	-138.753	-0.166	-0.018
-569.646	-189.535	0.387	-0.004
-568.631	210.227	-0.052	0.082
-567.617	307.401	0.093	-0.174
-566.602	-181.182	0.176	0.004
-565.588	-83.388	0.124	-0.040
-564.573	-64.222	-0.111	-0.045
-563.558	737.983	-0.141	0.378
-562.544	-200.000	-0.019	0.256
-561.529	-112.943	-0.097	0.019
-560.515	-55.128	-0.440	-0.199
-559.500	20.240	0.404	0.327
-558.485	-58.945	0.107	-0.047
-557.471	-49.112	0.138	0.066
-556.456	232.002	-0.159	0.262
-555.442	16.810	-0.087	-0.069
-554.427	191.434	0.115	-0.174
-553.412	50.745	0.270	-0.256
-552.398	634.918	-0.072	-0.183
-551.383	-52.284	-0.051	-0.023
-550.369	800.000	-0.063	-0.207
-549.354	-196.748	-0.253	-0.002
-548.339	-108.982	0.236	-0.050
-547.325	399.409	-0.034	0.072
-546.310	138.878	0.137	-0.181
-545.296	18.099	-0.289	-0.231
-544.281	35.073	-0.166	-0.146
-543.266	-200.000	-0.049	-0.488
-542.252	255.907	-0.175	0.300
-541.237	163.008	-0.132	0.186
-540.223	-200.000	-0.027	-0.150
-539.208	-60.213	-0.035	-0.015
-538.193	-120.368	0.264	-0.045
-537.179	-200.000	-0.007	-0.152
-536.164	49.391	0.195	-0.184
-535.150	-156.232	0.293	-0.018
-534.135	-33.089	0.232	0.129
-533.121	800.000	-0.068	0.247
-532.106	800.000	-0.032	-0.124
-531.091	89.738	-0.183	-0.204
-530.077	752.157	0.036	-0.097
-529.062	111.473	-0.125	-0.151
-528.048	-75.394	-0.215	-0.077
-527.033	800.000	-0.165	0.477
-526.018	-64.826	-0.104	-0.042
-525.004	116.854	0.077	0.095
-523.989	-27.256	-0.181	0.106
-522.975	-126.732	-0.096	0.014
-521.960	222.479	0.130	0.209
-520.945	-165.567	-0.090	-0.004
-519.931	-14.552	0.063	0.041
-518.916	-200.000	-0.050	-0.237
-517.902	717.112	-0.028	0.075
-516.887	338.129	-0.081	0.158
-515.872	205.320	-0.128	-0.198
-514.858	-50.549	0.027	-0.013
-513.843	-56.303	-0.130	-0.058
-512.829	800.000	0.047	-0.142
-511.814	-177.804	0.047	0.001
-510.799	800.000	0.029	0.085
-509.785	488.257	-0.140	0.321
-508.770	800.000	0.017	-0.051
-507.756	-94.994	0.405	-0.110
-506.741	-124.566	0.310	-0.048
-505.726	164.027	-0.204	-0.287
-504.712	-57.356	0.281	-0.124
-503.697	800.000	-0.129	-0.461
-502.683	-200.000	0.075	-0.328
-501.668	48.572	-0.074	0.069
-500.653	-117.356	-0.181	-0.033
-499.639	212.846	0.113	0.179
-498.624	-173.372	-0.251	-0.008
-497.610	204.945	-0.249	0.386
-496.595	-200.000	-0.064	0.311
-495.581	-115.320	0.190	0.036
-494.566	-36.358	-0.329	0.177
-493.551	-82.307	-0.018	-0.006
-492.537	-200.000	-0.010	0.213
-491.522	10.897	-0.185	-0.142
-490.508	-88.802	-0.216	0.064
-489.493	-200.000	0.015	-0.069
-488.478	5.927	0.057	-0.042
-487.464	-24.328	-0.048	-0.028
-486.449	751.248	0.064	-0.173
-485.435	503.553	0.083	-0.193
-484.420	420.266	-0.114	-0.243
-483.405	-200.000	0.045	-0.244
-482.391	-40.335	-0.169	0.088
-481.376	800.000	-0.050	-0.206
-480.362	-68.256	0.037	0.014
-479.347	382.794	0.126	0.259
-478.332	24.286	0.081	0.067
-477.318	112.873	0.111	0.135
-476.303	140.011	-0.072	0.094
-475.289	672.586	-0.030	0.078
-474.274	155.443	-0.232	0.318
-473.259	240.249	0.232	0.387
-472.245	131.499	0.098	-0.125
-471.230	780.785	0.088	0.239
-470.216	-123.289	-0.137	-0.022
-469.201	89.352	-0.125	-0.139
-468.186	-200.000	0.002	0.068
-467.172	74.341	-0.111	0.116
-466.157	80.464	0.163	0.176
-465.143	39.638	-0.040	0.036
-464.128	-101.166	-0.188	0.046
-463.113	-200.000	-0.014	-0.142
-462.099	-200.000	0.012	0.275
-461.084	320.020	0.093	0.176
-460.070	800.000	0.045	-0.193
-459.055	800.000	0.061	-0.222
-458.040	-46.194	-0.214	-0.105
-457.026	298.005	0.113	-0.207
-456.011	-200.000	-0.020	0.150
-454.997	-8.841	0.092	0.062
-453.982	-111.916	0.156	-0.032
-452.968	51.143	-0.193	0.183
-451.953	-200.000	-0.025	0.257
-450.938	128.366	0.103	0.130
-449.924	722.190	0.120	0.319
-448.909	-159.384	0.257	0.014
-447.895	-200.000	-0.022	-0.415
-446.880	-81.516	0.121	-0.040
-445.865	-96.623	-0.107	-0.028
-444.851	360.206	-0.073	0.146
-443.836	-55.010	-0.356	-0.160
-442.822	-164.325	-0.147	-0.007
-441.807	-76.944	-0.302	0.105
-440.792	800.000	0.158	0.530
-439.778	800.000	-0.013	0.037
-438.763	228.808	-0.057	0.093
-437.749	-200.000	-0.001	-0.021
-436.734	45.984	0.220	-0.203
-435.719	73.073	0.072	-0.075
-434.705	-133.589	0.265	0.033
-433.690	-92.495	0.426	-0.119
-432.676	-94.821	0.114	-0.031
-431.661	-200.000	-0.016	-0.212
-430.646	40.733	0.202	0.181
-429.632	800.000	0.069	-0.238
-428.617	8.940	-0.189	0.142
-427.603	-200.000	-0.005	-0.087
-426.588	167.629	-0.206	0.292
-425.573	131.654	0.109	-0.139
-424.559	-144.661	0.059	0.005
-423.544	303.588	0.108	0.200
-422.530	10.931	-0.115	-0.087
-421.515	-43.942	0.175	-0.088
-420.500	276.617	-0.193	0.341
-419.486	-200.000	-0.074	0.357
-418.471	-63.527	-0.303	0.124
-417.457	-69.974	0.103	0.039
-416.442	140.706	0.126	0.166
-415.428	-200.000	0.001	-0.103
-414.413	214.597	-0.080	-0.126
-413.398	-9.698	0.183	0.122
-412.384	314.048	-0.135	0.253
-411.369	-150.763	0.208	-0.016
-410.355	70.012	-0.077	0.079
-409.340	136.863	-0.190	-0.247
-408.325	-85.677	0.158	-0.049
-407.311	-66.488	-0.517	-0.204
-406.296	-126.946	0.113	0.017
-405.282	800.000	0.054	0.200
-404.267	-88.856	-0.220	0.065
-403.252	418.076	-0.090	0.191
-402.238	800.000	-0.068	-0.283
-401.223	584.203	0.040	-0.098
-400.209	529.207	-0.014	-0.034
-399.194	-106.304	-0.179	-0.040
-398.179	-200.000	0.058	-0.258
-397.165	800.000	-0.017	-0.075
-396.150	20.071	0.101	-0.081
-395.136	-167.550	0.231	0.009
-394.121	-200.000	0.035	-0.392
-393.106	196.333	-0.110	-0.167
-392.092	487.369	0.123	0.279
-391.077	-200.000	-0.157	0.000
-390.063	98.336	-0.113	0.129
-389.048	-41.687	-0.183	-0.094
-388.033	-200.000	0.071	-0.356
-387.019	13.920	-0.161	-0.125
-386.004	-26.530	0.066	0.038
-384.990	-159.357	0.150	-0.008
-383.975	-82.356	-0.113	0.037
-382.960	-200.000	0.004	0.139
-381.946	-101.005	-0.282	-0.069
-380.931	-200.000	-0.024	0.144
-379.917	101.783	0.163	0.189
-378.902	-52.158	0.339	0.157
-377.888	212.205	-0.085	-0.134
-376.873	-101.523	0.184	-0.044
-375.858	-2.304	0.144	0.100
-374.844	-76.339	-0.315	-0.110
-373.829	-154.822	-0.243	0.016
-372.815	-125.702	-0.258	0.039
-371.800	-97.995	-0.199	-0.051
-370.785	-12.394	-0.371	0.241
-369.771	588.601	0.080	-0.195
-368.756	-79.293	0.139	0.047
-367.742	20.607	0.043	0.034
-366.727	800.000	0.014	-0.059
-365.712	-67.351	-0.301	-0.118
-364.698	800.000	0.071	0.225
-363.683	800.000	0.045	0.190
-362.669	116.751	-0.174	0.212
-361.654	-138.569	0.406	-0.044
-360.639	396.180	0.039	0.081
-359.625	-93.063	0.209	-0.058
-358.610	-20.035	-0.255	-0.157
-357.596	-200.000	0.058	0.307
-356.581	-76.575	0.143	0.050
-355.566	310.839	0.023	0.042
-354.552	-192.230	-0.356	0.003
-353.537	281.813	0.216	-0.384
-352.523	-200.000	-0.007	-0.123
-351.508	-182.158	0.260	0.005
-350.493	134.466	0.216	0.279
-349.479	269.086	0.092	0.161
-348.464	800.000	-0.060	0.201
-347.450	185.850	0.141	-0.209
-346.435	153.873	0.171	0.233
-345.420	139.942	0.059	-0.078
-344.406	91.235	0.061	0.069
-343.391	-200.000	0.005	0.131
-342.377	800.000	0.051	-0.178
-341.362	22.257	0.136	-0.110
-340.348	334.836	-0.141	-0.272
-339.333	-200.000	0.072	-0.421
-338.318	-200.000	0.083	0.000
-337.304	-200.000	-0.007	-0.169
-336.289	-33.402	0.416	0.229
-335.275	-200.000	0.018	0.086
-334.260	9.251	-0.337	0.253
-333.245	102.184	0.083	0.097
-332.231	152.879	0.081	-0.111
-331.216	66.414	0.170	-0.172
-330.202	-31.874	0.312	0.174
-329.187	-133.836	0.469	-0.058
-328.172	-200.000	0.061	-0.266
-327.158	-200.000	-0.017	-0.101
-326.143	-33.120	-0.089	-0.049
-325.129	-200.000	-0.018	-0.192
-324.114	-200.000	-0.001	-0.231
-323.099	38.103	-0.179	-0.158
-322.085	-200.000	0.003	0.278
-321.070	-200.000	-0.044	-0.295
-320.056	-200.000	-0.023	0.268
-319.041	161.134	0.058	0.081
-318.026	70.634	0.164	0.169
-317.012	-28.290	-0.183	0.105
-315.997	-30.798	-0.204	0.115
-314.983	800.000	0.015	-0.042
-313.968	-128.462	0.183	0.026
-312.953	0.505	0.286	0.203
-311.939	-112.260	0.280	-0.056
-310.924	302.961	0.118	0.217
-309.910	-122.508	0.408	-0.066
-308.895	113.741	0.163	0.196
-307.880	32.176	-0.303	0.259
-306.866	-200.000	-0.005	-0.057
-305.851	506.922	-0.014	0.032
-304.837	-198.931	0.263	0.001
-303.822	-91.098	-0.233	-0.066
-302.807	-50.969	-0.119	0.055
-301.793	19.503	0.135	-0.108
-300.778	7.009	0.028	-0.021
-299.764	34.864	0.156	-0.135
-298.749	-12.417	0.149	-0.097
-297.735	-31.564	-0.094	-0.052
-296.720	490.087	-0.100	0.228
-295.705	119.511	0.069	0.085
-294.691	-140.705	-0.270	0.028
-293.676	21.509	0.108	0.087
-292.662	23.748	0.143	0.117
-291.647	800.000	0.047	0.130
-290.632	-200.000	-0.018	0.170
-289.618	61.050	0.109	-0.108
-288.603	30.197	0.140	-0.119
-287.589	800.000	-0.092	0.256
-286.574	-200.000	0.060	-0.284
-285.559	452.704	-0.072	-0.158
-284.545	120.070	-0.122	0.151
-283.530	256.349	-0.055	0.094
-282.516	36.269	-0.291	0.254
-281.501	800.000	0.028	-0.119
-280.486	106.153	0.273	0.321
-279.472	627.602	-0.168	0.421
-278.457	10.704	0.124	-0.094
-277.443	-200.000	0.003	-0.022
-276.428	65.418	0.194	-0.195
-275.413	36.074	0.266	-0.232
-274.399	-1.699	-0.095	0.066
-273.384	-56.092	-0.298	0.132
-272.370	43.585	0.054	0.049
-271.355	-158.422	0.358	0.021
-270.340	137.913	0.102	0.132
-269.326	-80.458	-0.156	0.051
-268.311	242.177	0.240	-0.397
-267.297	13.085	0.072	-0.055
-266.282	32.677	-0.081	0.070
-265.267	-61.108	-0.199	0.083
-264.253	-107.561	-0.260	0.056
-263.238	26.752	-0.230	-0.191
-262.224	-51.829	-0.150	0.069
-261.209	187.524	-0.106	-0.156
-260.195	-11.176	-0.202	0.132
-259.180	-70.790	0.366	0.137
-258.165	170.206	-0.110	0.156
-257.151	-22.593	0.319	0.191
-256.136	-171.620	0.238	-0.008
-255.122	38.368	0.169	0.149
-254.107	318.327	-0.124	-0.233
-253.092	328.623	-0.096	-0.184
-252.078	-177.810	0.222	0.005
-251.063	-131.376	-0.054	-0.007
-250.049	-121.608	-0.101	0.017
-249.034	-10.882	-0.054	0.035
-248.019	70.843	-0.234	0.240
-247.005	113.689	0.057	0.069
-245.990	744.840	-0.038	0.101
-244.976	-200.000	0.031	0.267
-243.961	-52.152	-0.184	0.084
-242.946	-200.000	0.020	0.297
-241.932	401.301	0.050	0.103
-240.917	-20.675	-0.260	-0.158
-239.903	-155.762	-0.382	0.024
-238.888	-76.830	-0.258	0.089
-237.873	-200.000	0.067	0.545
-236.859	261.979	0.040	-0.068
-235.844	800.000	0.048	-0.178
-234.830	-29.704	0.255	-0.144
-233.815	-105.235	-0.172	0.039
-232.800	-7.962	0.496	-0.331
-231.786	-84.762	0.085	0.026
-230.771	-200.000	-0.010	0.052
-229.757	149.194	0.071	0.095
-228.742	252.566	0.098	-0.166
-227.727	-124.732	0.214	-0.033
-226.713	-197.921	0.244	0.001
-225.698	290.628	-0.087	-0.156
-224.684	-20.640	-0.190	-0.115
-223.669	55.881	0.142	0.136
-222.655	141.643	0.061	-0.080
-221.640	97.321	-0.230	-0.261
-220.625	14.922	0.181	0.140
-219.611	-12.840	-0.034	0.022
-218.596	62.569	0.115	0.114
-217.582	-52.196	-0.011	-0.005
-216.567	-72.891	-0.418	0.152
-215.552	800.000	0.048	-0.153
-214.538	-161.657	-0.137	0.007
-213.523	29.222	0.173	0.145
-212.509	58.352	0.229	0.222
-211.494	34.951	-0.167	0.144
-210.479	-40.341	-0.103	0.053
-209.465	111.243	0.103	-0.123
-208.450	800.000	0.050	0.169
-207.436	-64.795	0.275	-0.110
-206.421	-200.000	0.085	-0.404
-205.406	-85.070	0.236	-0.073
-204.392	474.605	0.130	0.289
-203.377	-122.863	-0.168	0.027
-202.363	94.204	-0.135	0.152
-201.348	800.000	0.046	-0.139
-200.333	-140.365	0.340	-0.035
-199.319	40.671	-0.169	-0.151
-198.304	-65.939	0.501	-0.198
-197.290	-106.312	-0.311	0.069
-196.275	-107.293	-0.142	0.031
-195.260	-200.000	0.040	-0.326
-194.246	-57.322	0.304	-0.132
-193.231	-40.433	-0.390	0.200
-192.217	-65.565	-0.005	-0.002
-191.202	-157.870	-0.542	-0.032
-190.187	-74.227	0.125	0.045
-189.173	140.251	0.089	0.115
-188.158	-200.000	0.012	0.069
-187.144	-113.496	0.254	-0.049
-186.129	288.840	0.086	0.154
-185.114	352.401	0.080	0.157
-184.100	19.086	0.141	-0.112
-183.085	92.667	0.131	0.146
-182.071	652.162	-0.027	0.069
-181.056	-200.000	-0.050	0.343
-180.042	-129.090	0.093	-0.013
-179.027	-69.615	0.131	-0.049
-178.012	269.043	0.106	-0.184
-176.998	-200.000	0.004	0.035
-175.983	191.437	-0.140	0.208
-174.969	800.000	-0.046	0.169
-173.954	637.157	0.058	0.144
-172.939	-200.000	0.041	-0.323
-171.925	128.980	0.110	-0.138
-170.910	-200.000	-0.029	0.418
-169.896	800.000	0.051	-0.207
-168.881	-200.000	0.037	-0.344
-167.866	-66.275	-0.142	0.056
-166.852	-67.847	-0.040	0.015
-165.837	-200.000	0.012	0.151
-164.823	5.310	0.328	0.238
-163.808	89.552	0.209	0.230
-162.793	184.290	-0.123	-0.180
-161.779	800.000	-0.049	0.138
-160.764	-200.000	-0.200	0.001
-159.750	252.656	0.029	-0.049
-158.735	20.648	0.251	0.201
-157.720	800.000	-0.021	-0.063
-156.706	22.207	0.081	0.065
-155.691	-25.628	-0.197	-0.114
-154.677	-111.067	0.026	-0.005
-153.662	-25.241	-0.073	-0.043
-152.647	-200.000	0.006	-0.187
-151.633	-200.000	-0.050	0.219
-150.618	228.777	0.106	0.170
-149.604	455.870	0.138	0.303
-148.589	7.887	-0.126	-0.093
-147.574	800.000	0.084	0.280
-146.560	237.416	-0.064	0.105
-145.545	-118.733	0.117	0.020
-144.531	-67.000	-0.486	-0.189
-143.516	800.000	0.042	-0.166
-142.502	237.314	-0.048	-0.078
-141.487	-30.252	-0.221	0.124
-140.472	259.006	0.070	-0.119
-139.458	233.213	0.014	-0.023
-138.443	23.047	-0.326	-0.264
-137.429	-14.894	0.187	-0.118
-136.414	-132.133	0.045	0.006
-135.399	144.032	0.018	-0.024
-134.385	-200.000	-0.016	0.171
-133.370	800.000	-0.190	-0.529
-132.356	420.179	-0.051	-0.108
-131.341	-200.000	0.036	0.246
-130.326	-96.223	0.107	0.028
-129.312	800.000	0.086	-0.325
-128.297	-200.000	-0.011	-0.074
-127.283	346.334	0.058	0.112
-126.268	-119.849	0.305	0.052
-125.253	11.645	-0.094	0.071
-124.239	-200.000	-0.014	0.363
-123.224	619.091	-0.034	-0.085
-122.210	393.105	0.047	-0.097
-121.195	780.518	0.118	-0.319
