DTS Sentinel unit serial number:	SN413079Multiplexer serial number:	ORYXHardware model number:	OX4-SRSoftware version number:	ORYX F/W v4.00 Oryx Data Collector v3.7.2.0data status	okinstallation	princeton_trtdifferential loss correction	single-endedforward channel	channel 1reverse channel	N/Adate	2019/09/16time	00:14:36forward acquisition time	60.00reverse acquisition time	0.00gamma	496.2192k internal	0.2333k external	0.2333temperature offset calibration	0.9978default loss term (dB/km)	0.3790temperature slope calibration	1.0000multiplexer offset coefficient	1.0000multiplexer slope coefficient	1.0000fibre end	0.00T internal ref (°C)	27.69T ext. ref 1 (°C)	9.47T ext. ref 2 (°C)	21.60length (m)	temperature (°C)	Stokes	anti-Stokes-747.200	-64.586	0.114	0.047
-746.185	-93.439	-0.240	-0.067
-745.171	172.273	-0.231	0.334
-744.156	800.000	0.059	0.258
-743.142	800.000	0.138	0.417
-742.127	148.973	-0.080	0.109
-741.112	25.775	-0.241	-0.202
-740.098	-6.565	-0.415	0.284
-739.083	-200.000	0.014	0.230
-738.069	800.000	0.078	0.290
-737.054	-200.000	0.033	0.169
-736.039	-5.332	-0.100	0.069
-735.025	800.000	0.111	0.387
-734.010	-85.825	-0.340	-0.106
-732.996	800.000	0.135	-0.415
-731.981	-71.812	-0.190	-0.071
-730.966	203.653	-0.202	0.315
-729.952	-123.068	-0.584	0.094
-728.937	-150.958	-0.261	-0.020
-727.923	-200.000	-0.018	-0.255
-726.908	-200.000	-0.008	0.152
-725.894	-200.000	0.356	-0.000
-724.879	-155.730	-0.131	0.008
-723.864	-39.720	-0.352	-0.185
-722.850	53.418	0.097	0.094
-721.835	267.010	-0.142	-0.249
-720.821	3.718	-0.153	-0.112
-719.806	-56.603	-0.216	-0.096
-718.791	-200.000	-0.007	0.049
-717.777	132.870	0.103	-0.133
-716.762	75.193	0.146	0.154
-715.748	800.000	0.064	-0.189
-714.733	-200.000	-0.005	0.071
-713.718	55.194	-0.082	0.080
-712.704	74.136	-0.163	0.172
-711.689	-200.000	0.009	0.091
-710.675	25.379	-0.050	0.042
-709.660	-115.696	-0.037	-0.007
-708.645	-103.931	-0.255	-0.060
-707.631	37.927	0.197	0.176
-706.616	800.000	-0.048	0.166
-705.602	-48.380	0.140	-0.068
-704.587	-58.174	-0.035	-0.015
-703.572	-137.031	-0.146	0.017
-702.558	-95.905	-0.233	-0.062
-701.543	-149.591	0.130	-0.010
-700.529	-33.571	-0.395	-0.219
-699.514	-200.000	-0.053	-0.289
-698.499	-123.940	-0.172	0.027
-697.485	-152.800	-0.156	0.011
-696.470	-152.085	0.314	-0.023
-695.456	432.988	-0.052	0.113
-694.441	-40.847	0.338	-0.176
-693.426	-52.701	-0.234	0.108
-692.412	241.829	-0.106	-0.179
-691.397	-57.450	0.072	0.032
-690.383	221.042	-0.067	-0.108
-689.368	49.521	-0.166	0.157
-688.354	262.684	-0.140	0.244
-687.339	-200.000	-0.031	-0.498
-686.324	341.738	0.060	-0.117
-685.310	8.512	0.175	0.132
-684.295	-71.072	-0.092	0.035
-683.281	321.995	-0.023	0.044
-682.266	-200.000	0.035	0.197
-681.251	-91.532	-0.061	-0.017
-680.237	-147.014	0.121	0.010
-679.222	547.474	-0.027	0.066
-678.208	-39.879	-0.155	0.081
-677.193	-50.722	-0.206	-0.097
-676.178	-200.000	0.045	0.247
-675.164	-44.255	-0.178	0.089
-674.149	-171.608	-0.272	0.009
-673.135	-120.163	0.182	0.031
-672.120	-73.337	-0.134	-0.049
-671.105	-77.120	-0.394	-0.138
-670.091	461.776	-0.148	-0.331
-669.076	57.755	0.238	-0.233
-668.062	-200.000	-0.033	-0.280
-667.047	-3.690	-0.362	-0.252
-666.032	661.722	-0.056	-0.146
-665.018	-26.612	0.158	0.093
-664.003	-103.766	-0.209	-0.049
-662.989	-59.368	-0.172	0.074
-661.974	800.000	-0.110	-0.309
-660.959	-200.000	-0.022	0.344
-659.945	-200.000	0.030	-0.191
-658.930	-200.000	0.080	-0.381
-657.916	-63.020	-0.078	-0.032
-656.901	-200.000	0.030	0.144
-655.886	27.014	-0.048	-0.041
-654.872	108.836	0.198	-0.237
-653.857	322.480	-0.103	0.197
-652.843	426.781	0.147	-0.317
-651.828	-151.243	-0.183	-0.014
-650.814	-38.911	0.132	-0.070
-649.799	-200.000	-0.023	0.221
-648.784	-200.000	0.029	-0.172
-647.770	800.000	-0.029	-0.119
-646.755	-22.576	0.161	-0.097
-645.741	-200.000	0.010	-0.413
-644.726	-43.010	-0.134	0.068
-643.711	-70.302	-0.180	0.068
-642.697	379.596	-0.050	-0.103
-641.682	162.293	0.180	0.253
-640.668	90.511	-0.108	-0.121
-639.653	-172.538	0.165	-0.005
-638.638	-129.838	-0.266	-0.037
-637.624	28.548	-0.419	-0.355
-636.609	-93.695	0.087	0.024
-635.595	800.000	0.121	-0.365
-634.580	323.874	0.032	-0.061
-633.565	-67.257	0.227	-0.089
-632.551	-30.242	0.237	-0.135
-631.536	-99.796	-0.127	0.032
-630.522	6.705	-0.169	0.126
-629.507	145.636	0.156	0.209
-628.492	-119.674	-0.058	0.010
-627.478	-98.572	0.216	-0.055
-626.463	-141.565	0.419	-0.042
-625.449	14.498	0.174	-0.136
-624.434	-200.000	-0.050	-0.262
-623.419	800.000	-0.051	-0.212
-622.405	800.000	-0.026	0.089
-621.390	-200.000	0.026	0.284
-620.376	800.000	0.029	0.122
-619.361	41.398	0.239	-0.217
-618.346	248.225	-0.064	-0.108
-617.332	695.075	-0.090	0.238
-616.317	-186.692	0.198	0.003
-615.303	202.317	0.213	-0.328
-614.288	-66.207	0.065	-0.026
-613.273	128.150	-0.142	-0.181
-612.259	-170.240	-0.230	0.008
-611.244	-200.000	0.080	0.384
-610.230	-131.501	-0.378	0.050
-609.215	237.209	0.164	-0.271
-608.201	155.031	-0.099	-0.136
-607.186	95.468	0.022	-0.025
-606.171	92.283	0.182	-0.205
-605.157	-200.000	-0.031	0.193
-604.142	600.294	-0.064	0.158
-603.128	-191.138	-0.089	-0.001
-602.113	390.249	-0.166	-0.344
-601.098	52.445	0.308	-0.294
-600.084	-64.577	-0.365	0.148
-599.069	-131.877	0.166	-0.022
-598.055	483.205	0.109	-0.248
-597.040	-200.000	-0.018	-0.136
-596.025	85.966	0.108	0.118
-595.011	-1.069	0.363	0.257
-593.996	791.114	-0.004	0.011
-592.982	-145.991	-0.116	-0.010
-591.967	-6.414	0.081	-0.055
-590.952	800.000	-0.071	0.214
-589.938	-200.000	-0.015	-0.372
-588.923	-55.228	0.136	0.061
-587.909	-39.380	-0.088	-0.046
-586.894	96.642	0.245	0.280
-585.879	137.708	0.268	0.351
-584.865	-94.304	0.179	0.049
-583.850	-50.368	-0.463	0.219
-582.836	-116.712	0.276	-0.051
-581.821	-200.000	0.067	-0.336
-580.806	66.156	0.302	0.306
-579.792	-113.860	-0.129	0.025
-578.777	-116.837	-0.160	0.029
-577.763	-45.158	0.277	-0.138
-576.748	-9.516	0.057	0.038
-575.733	-149.340	0.039	0.003
-574.719	-131.506	-0.119	0.016
-573.704	32.544	0.356	0.307
-572.690	-200.000	0.039	0.593
-571.675	219.072	-0.256	-0.409
-570.661	362.850	-0.090	0.181
-569.646	251.826	-0.231	-0.393
-568.631	7.500	-0.177	0.132
-567.617	-200.000	-0.021	-0.133
-566.602	-114.110	0.204	0.039
-565.588	147.107	-0.094	-0.126
-564.573	800.000	-0.107	0.320
-563.558	-23.932	-0.440	-0.263
-562.544	410.343	0.101	-0.214
-561.529	94.419	-0.040	0.045
-560.515	800.000	-0.032	-0.103
-559.500	186.780	0.052	0.077
-558.485	-200.000	0.029	0.130
-557.471	-36.995	0.207	0.111
-556.456	-200.000	0.004	0.150
-555.442	18.175	0.325	0.259
-554.427	-200.000	-0.001	-0.043
-553.412	204.205	0.108	-0.168
-552.398	800.000	-0.058	0.168
-551.383	28.175	0.161	0.135
-550.369	800.000	-0.065	-0.254
-549.354	-200.000	0.003	-0.184
-548.339	800.000	0.079	-0.241
-547.325	-38.584	0.077	-0.041
-546.310	-87.180	0.200	0.061
-545.296	-144.084	0.131	-0.012
-544.281	-188.120	-0.060	-0.001
-543.266	395.456	0.112	0.234
-542.252	-200.000	0.013	0.000
-541.237	563.124	0.133	-0.321
-540.223	-64.073	-0.326	-0.133
-539.208	-29.055	0.366	-0.210
-538.193	-181.148	0.185	0.004
-537.179	-74.178	-0.296	0.107
-536.164	-49.443	-0.348	0.165
-535.150	88.459	-0.168	-0.186
-534.135	168.461	-0.084	-0.120
-533.121	217.814	-0.128	0.204
-532.106	505.272	-0.056	-0.130
-531.091	-100.212	-0.319	-0.079
-530.077	459.189	-0.169	0.375
-529.062	-66.193	0.147	0.058
-528.048	226.434	0.082	0.133
-527.033	84.215	-0.150	0.164
-526.018	-200.000	-0.018	-0.261
-525.004	89.980	-0.176	-0.196
-523.989	800.000	-0.066	0.266
-522.975	-200.000	-0.015	0.075
-521.960	-97.178	0.132	-0.034
-520.945	147.396	-0.094	0.126
-519.931	131.108	0.091	-0.117
-518.916	246.509	0.026	0.044
-517.902	-111.520	0.176	-0.036
-516.887	800.000	-0.065	0.231
-515.872	487.706	0.086	-0.195
-514.858	-115.520	-0.325	-0.061
-513.843	-120.505	-0.463	-0.078
-512.829	-110.923	0.351	-0.072
-511.814	59.298	-0.296	-0.291
-510.799	-200.000	0.003	-0.296
-509.785	198.775	0.143	0.218
-508.770	800.000	0.084	0.291
-507.756	410.132	0.109	0.230
-506.741	-56.947	-0.499	-0.219
-505.726	-66.904	-0.310	0.122
-504.712	-117.747	-0.138	0.025
-503.697	800.000	-0.087	-0.318
-502.683	267.626	0.093	0.162
-501.668	707.584	-0.094	-0.247
-500.653	800.000	0.052	0.156
-499.639	800.000	-0.024	0.084
-498.624	-140.860	0.083	-0.008
-497.610	513.033	-0.098	-0.228
-496.595	-24.711	0.116	0.068
-495.581	-134.787	0.136	0.016
-494.566	-200.000	-0.056	-0.333
-493.551	-200.000	-0.012	-0.052
-492.537	44.803	0.178	0.163
-491.522	-200.000	-0.032	-0.184
-490.508	-142.121	-0.178	-0.018
-489.493	582.125	-0.021	-0.052
-488.478	50.697	0.111	-0.104
-487.464	-9.196	-0.093	0.062
-486.449	168.644	-0.060	0.085
-485.435	-108.950	0.165	-0.035
-484.420	-102.471	-0.245	0.058
-483.405	392.147	0.165	-0.342
-482.391	-200.000	0.004	0.089
-481.376	202.451	0.075	-0.116
-480.362	800.000	0.051	-0.220
-479.347	743.541	-0.105	-0.281
-478.332	-200.000	0.063	-0.387
-477.318	-42.760	0.118	-0.060
-476.303	-200.000	0.021	-0.219
-475.289	-4.696	-0.193	0.133
-474.274	-20.739	0.244	0.149
-473.259	-200.000	-0.018	-0.312
-472.245	195.878	0.171	0.259
-471.230	252.236	-0.172	0.292
-470.216	178.610	0.080	-0.116
-469.201	-124.948	0.075	-0.011
-468.186	-17.189	-0.157	0.099
-467.172	-200.000	-0.007	-0.330
-466.157	800.000	-0.064	-0.201
-465.143	130.199	-0.241	0.307
-464.128	-132.526	0.082	-0.010
-463.113	53.420	0.064	0.061
-462.099	-129.826	0.283	-0.039
-461.084	-200.000	-0.001	0.174
-460.070	800.000	0.089	0.333
-459.055	361.100	-0.132	0.264
-458.040	6.018	0.140	-0.103
-457.026	-200.000	0.038	-0.170
-456.011	800.000	-0.068	0.216
-454.997	-150.159	0.485	0.037
-453.982	-200.000	0.010	-0.075
-452.968	800.000	-0.053	0.190
-451.953	15.804	-0.215	0.168
-450.938	800.000	-0.073	0.264
-449.924	80.673	-0.086	-0.092
-448.909	64.330	0.133	0.133
-447.895	-78.521	-0.082	0.028
-446.880	41.042	0.124	-0.112
-445.865	-112.693	0.156	0.031
-444.851	681.620	0.046	0.119
-443.836	-65.719	-0.264	-0.105
-442.822	-106.445	0.278	-0.062
-441.807	-29.239	0.215	-0.123
-440.792	-16.955	0.287	-0.180
-439.778	-40.470	-0.202	0.104
-438.763	-29.805	-0.035	0.020
-437.749	104.031	0.092	0.108
-436.734	151.674	0.107	0.144
-435.719	-108.813	-0.322	0.068
-434.705	-82.098	-0.198	-0.064
-433.690	118.099	0.308	-0.377
-432.676	800.000	0.101	0.280
-431.661	166.837	0.159	-0.225
-430.646	-1.206	0.024	-0.017
-429.632	-140.606	-0.530	0.055
-428.617	65.823	0.218	0.219
-427.603	20.179	-0.026	0.021
-426.588	-71.416	0.476	0.177
-425.573	800.000	0.021	-0.062
-424.559	38.455	-0.110	-0.097
-423.544	-188.581	0.039	-0.000
-422.530	800.000	-0.063	-0.245
-421.515	211.228	-0.134	0.210
-420.500	-127.617	0.176	0.025
-419.486	-81.846	-0.220	0.072
-418.471	-118.595	-0.092	0.016
-417.457	-102.323	0.174	-0.041
-416.442	800.000	0.038	-0.117
-415.428	732.390	0.083	-0.220
-414.413	174.577	0.200	0.288
-413.398	-96.268	0.213	0.056
-412.384	83.201	-0.118	-0.127
-411.369	-167.838	0.316	-0.012
-410.355	65.611	-0.202	-0.203
-409.340	300.982	0.087	-0.159
-408.325	-200.000	-0.033	-0.152
-407.311	8.981	-0.251	-0.188
-406.296	11.877	0.188	-0.143
-405.282	-99.888	0.133	0.033
-404.267	-63.952	0.417	-0.169
-403.252	800.000	0.106	0.410
-402.238	637.767	-0.041	0.102
-401.223	13.125	0.101	-0.078
-400.209	14.773	-0.040	0.031
-399.194	-200.000	-0.049	0.337
-398.179	277.039	-0.129	-0.228
-397.165	-70.356	-0.490	-0.184
-396.150	-47.960	0.237	0.114
-395.136	-0.446	-0.014	-0.010
-394.121	331.842	0.144	-0.275
-393.106	-170.624	-0.545	-0.019
-392.092	-61.749	0.224	0.093
-391.077	231.910	0.116	0.189
-390.063	-14.614	0.119	0.076
-389.048	519.333	0.007	-0.016
-388.033	-80.614	-0.367	-0.121
-387.019	-200.000	0.064	0.341
-386.004	128.852	-0.095	-0.120
-384.990	-200.000	0.034	-0.163
-383.975	-83.652	-0.285	-0.090
-382.960	53.484	-0.186	-0.177
-381.946	800.000	-0.125	-0.468
-380.931	-200.000	0.013	-0.192
-379.917	-200.000	0.070	-0.313
-378.902	120.863	-0.256	-0.316
-377.888	161.135	0.084	0.116
-376.873	130.642	-0.355	0.451
-375.858	-196.242	-0.264	-0.002
-374.844	-130.808	0.077	0.010
-373.829	88.050	0.227	0.250
-372.815	-200.000	0.031	-0.154
-371.800	-190.999	-0.261	-0.003
-370.785	172.638	-0.054	0.076
-369.771	-23.512	0.235	0.140
-368.756	85.200	-0.031	-0.034
-367.742	-200.000	-0.010	-0.298
-366.727	-101.735	0.084	-0.020
-365.712	-167.450	-0.188	-0.007
-364.698	144.883	-0.148	0.196
-363.683	-200.000	-0.029	-0.233
-362.669	414.567	-0.106	0.223
-361.654	46.272	-0.077	0.070
-360.639	-1.817	0.163	-0.114
-359.625	-118.491	-0.132	0.023
-358.610	-5.433	-0.292	-0.199
-357.596	-65.918	0.063	-0.025
-356.581	52.728	-0.071	-0.067
-355.566	-66.109	-0.186	-0.073
-354.552	-200.000	0.020	0.096
-353.537	166.950	-0.192	0.270
-352.523	436.058	0.083	0.178
-351.508	-43.073	-0.090	0.045
-350.493	65.238	0.134	-0.134
-349.479	75.412	0.274	0.287
-348.464	105.528	-0.088	-0.104
-347.450	-200.000	-0.068	0.397
-346.435	-97.319	0.171	0.044
-345.420	-200.000	0.051	0.399
-344.406	500.415	-0.109	0.249
-343.391	108.879	0.059	0.070
-342.377	800.000	0.106	-0.320
-341.362	128.600	-0.109	-0.137
-340.348	-170.369	0.168	-0.006
-339.333	-141.317	-0.153	0.015
-338.318	116.719	-0.020	0.024
-337.304	-53.279	-0.063	-0.028
-336.289	-80.184	0.164	-0.054
-335.275	-200.000	-0.037	0.352
-334.260	-79.094	0.107	0.036
-333.245	-136.735	-0.003	-0.000
-332.231	-200.000	-0.020	-0.233
-331.216	-146.407	-0.088	-0.008
-330.202	310.451	-0.113	0.209
-329.187	689.962	-0.021	0.053
-328.172	-90.022	0.279	0.081
-327.158	-74.475	-0.121	0.043
-326.143	800.000	0.098	0.269
-325.129	72.759	-0.232	-0.240
-324.114	69.696	-0.225	-0.229
-323.099	-64.181	0.211	0.085
-322.085	29.730	-0.117	0.098
-321.070	-200.000	0.020	-0.091
-320.056	-76.296	0.215	-0.075
-319.041	412.412	-0.131	0.276
-318.026	-6.261	0.141	0.095
-317.012	-26.883	0.182	-0.105
-315.997	203.716	0.080	0.123
-314.983	0.349	0.314	0.222
-313.968	-18.154	-0.280	0.173
-312.953	11.363	-0.024	0.018
-311.939	146.799	0.057	-0.076
-310.924	458.911	0.070	-0.155
-309.910	785.566	0.068	0.185
-308.895	-20.545	0.351	0.213
-307.880	64.215	-0.170	-0.169
-306.866	-200.000	0.002	0.333
-305.851	192.884	-0.137	-0.205
-304.837	145.485	0.118	-0.156
-303.822	620.779	0.091	0.227
-302.807	741.640	-0.100	0.265
-301.793	-200.000	-0.024	-0.188
-300.778	136.066	-0.078	0.100
-299.764	770.483	-0.079	-0.213
-298.749	-200.000	-0.007	-0.170
-297.735	-6.080	0.102	0.069
-296.720	-77.182	0.177	-0.061
-295.705	-80.783	-0.189	0.062
-294.691	-103.091	-0.245	0.057
-293.676	10.984	-0.233	-0.176
-292.662	193.941	-0.077	0.116
-291.647	-77.513	0.033	0.011
-290.632	-4.711	0.086	-0.058
-289.618	-200.000	-0.038	-0.256
-288.603	-200.000	-0.047	-0.214
-287.589	800.000	-0.085	0.242
-286.574	-87.828	-0.132	-0.039
-285.559	-6.314	0.097	-0.066
-284.545	212.516	0.113	0.176
-283.530	127.640	0.074	0.093
-282.516	-200.000	0.004	0.257
-281.501	800.000	-0.039	0.119
-280.486	140.386	-0.098	0.127
-279.472	97.937	0.052	-0.060
-278.457	-23.532	-0.249	-0.148
-277.443	-109.305	0.048	-0.010
-276.428	-21.584	-0.108	0.065
-275.413	34.865	0.374	0.323
-274.399	54.009	-0.112	0.106
-273.384	32.818	0.231	0.197
-272.370	248.967	0.093	-0.155
-271.355	-188.009	0.073	-0.001
-270.340	-200.000	0.022	-0.149
-269.326	-18.027	-0.268	0.166
-268.311	141.909	-0.070	0.092
-267.297	-100.634	0.228	0.056
-266.282	-137.417	-0.222	-0.025
-265.267	800.000	0.099	0.313
-264.253	185.903	0.133	-0.196
-263.238	-148.768	0.223	-0.018
-262.224	606.981	0.056	-0.138
-261.209	-92.911	-0.201	0.055
-260.195	-200.000	-0.002	-0.256
-259.180	210.776	0.073	-0.114
-258.165	255.889	-0.119	0.202
-257.151	152.164	0.150	0.201
-256.136	-26.710	-0.207	0.120
-255.122	-139.589	-0.208	-0.022
-254.107	28.289	0.137	-0.114
-253.092	-72.549	-0.280	-0.102
-252.078	-200.000	0.049	-0.314
-251.063	358.326	-0.125	-0.246
-250.049	113.458	-0.286	0.342
-249.034	800.000	-0.017	0.049
-248.019	800.000	0.122	-0.389
-247.005	209.090	0.235	0.363
-245.990	-200.000	-0.056	-0.341
-244.976	-146.534	0.245	0.021
-243.961	-186.146	-0.410	0.006
-242.946	-200.000	-0.018	-0.111
-241.932	-200.000	-0.008	0.195
-240.917	597.500	-0.101	-0.246
-239.903	639.256	0.109	0.272
-238.888	-182.260	0.180	-0.003
-237.873	-41.234	-0.399	-0.203
-236.859	-38.455	-0.117	0.061
-235.844	-200.000	-0.001	-0.182
-234.830	-76.803	-0.413	0.142
-233.815	141.878	-0.054	0.071
-232.800	192.833	-0.108	0.161
-231.786	-166.499	0.068	0.003
-230.771	-200.000	0.002	0.240
-229.757	30.510	-0.198	-0.167
-228.742	127.949	0.048	-0.060
-227.727	-89.815	0.154	-0.044
-226.713	26.399	0.165	-0.136
-225.698	244.350	-0.125	0.208
-224.684	-200.000	-0.029	-0.195
-223.669	36.094	0.243	-0.211
-222.655	-200.000	-0.058	0.372
-221.640	-77.349	-0.204	-0.070
-220.625	290.035	0.053	-0.094
-219.611	5.289	0.272	0.198
-218.596	99.798	0.067	0.076
-217.582	-88.287	0.278	-0.082
-216.567	800.000	-0.070	0.235
-215.552	2.948	-0.286	0.204
-214.538	-2.374	0.336	0.232
-213.523	719.267	0.065	0.169
-212.509	-200.000	-0.010	0.375
-211.494	-87.582	0.059	0.017
-210.479	-71.028	0.149	0.055
-209.465	4.175	-0.220	0.159
-208.450	166.602	0.084	0.118
-207.436	84.790	-0.094	-0.102
-206.421	-140.412	0.135	-0.014
-205.406	-49.838	0.154	0.072
-204.392	-200.000	-0.046	-0.225
-203.377	-28.301	-0.129	0.074
-202.363	-54.955	0.344	-0.153
-201.348	-150.121	-0.239	0.018
-200.333	116.033	0.050	0.061
-199.319	-32.001	-0.037	-0.020
-198.304	800.000	-0.035	0.107
-197.290	-123.577	-0.098	-0.015
-196.275	-35.100	0.033	-0.018
-195.260	-9.552	-0.095	-0.063
-194.246	-4.340	0.306	-0.208
-193.231	265.844	0.168	0.289
-192.217	150.133	-0.077	0.102
-191.202	-63.522	0.135	-0.055
-190.187	-75.087	0.097	-0.034
-189.173	-200.000	-0.057	-0.377
-188.158	800.000	0.046	0.142
-187.144	-51.169	0.109	0.050
-186.129	800.000	0.042	0.169
-185.114	800.000	-0.049	0.197
-184.100	-158.496	0.037	-0.002
-183.085	800.000	0.147	-0.433
-182.071	18.075	-0.243	-0.191
-181.056	-96.330	-0.171	0.045
-180.042	-115.367	0.224	0.042
-179.027	396.692	-0.141	-0.290
-178.012	215.113	0.116	0.180
-176.998	312.549	-0.082	-0.151
-175.983	-166.873	0.287	-0.012
-174.969	3.402	-0.101	0.072
-173.954	-34.385	-0.291	0.157
-172.939	-64.824	0.384	-0.153
-171.925	226.033	0.027	-0.044
-170.910	-13.746	-0.126	-0.080
-169.896	800.000	0.016	0.048
-168.881	137.515	-0.093	-0.119
-167.866	6.192	0.075	0.055
-166.852	-25.418	-0.043	0.025
-165.837	800.000	-0.028	0.101
-164.823	-124.276	0.163	-0.025
-163.808	276.025	-0.080	0.139
-162.793	-151.278	-0.071	-0.005
-161.779	-12.997	-0.223	-0.143
-160.764	800.000	-0.040	0.121
-159.750	-200.000	0.027	-0.185
-158.735	-157.515	-0.047	0.003
-157.720	218.505	0.136	-0.213
-156.706	-200.000	-0.017	0.135
-155.691	-200.000	0.027	0.138
-154.677	-144.792	-0.224	-0.020
-153.662	-200.000	0.012	-0.139
-152.647	-200.000	-0.053	0.326
-151.633	-200.000	0.017	0.109
-150.618	162.816	-0.158	-0.218
-149.604	-200.000	0.039	-0.201
-148.589	-75.581	-0.125	-0.044
-147.574	-77.607	0.260	-0.089
-146.560	42.084	0.028	-0.025
-145.545	-111.464	0.330	-0.066
-144.531	-200.000	-0.002	0.134
-143.516	-93.959	0.238	-0.064
-142.502	-124.307	0.093	-0.014
-141.487	-200.000	-0.015	0.329
-140.472	79.127	0.263	-0.277
-139.458	613.366	-0.095	0.232
-138.443	-51.884	0.195	0.089
-137.429	-144.341	0.318	0.029
-136.414	271.153	0.130	0.225
-135.399	32.853	0.173	0.147
-134.385	-200.000	0.001	0.126
-133.370	-200.000	-0.029	-0.288
-132.356	117.548	-0.148	-0.178
-131.341	676.588	-0.156	-0.397
-130.326	341.307	-0.206	-0.394
-129.312	45.949	0.130	0.118
-128.297	-58.866	-0.282	0.120
-127.283	137.130	-0.132	0.169
-126.268	120.968	-0.361	-0.441
-125.253	16.351	-0.307	0.238
-124.239	669.982	-0.090	0.228
-123.224	-200.000	0.064	-0.329
-122.210	-105.610	0.204	0.045
