DTS Sentinel unit serial number:	SN413079Multiplexer serial number:	ORYXHardware model number:	OX4-SRSoftware version number:	ORYX F/W v4.00 Oryx Data Collector v3.7.2.0data status	okinstallation	princeton_trtdifferential loss correction	single-endedforward channel	channel 1reverse channel	N/Adate	2019/09/16time	01:46:35forward acquisition time	60.00reverse acquisition time	0.00gamma	496.2192k internal	0.2333k external	0.2333temperature offset calibration	0.9974default loss term (dB/km)	0.3790temperature slope calibration	1.0000multiplexer offset coefficient	1.0000multiplexer slope coefficient	1.0000fibre end	0.00T internal ref (°C)	27.37T ext. ref 1 (°C)	10.01T ext. ref 2 (°C)	22.23length (m)	temperature (°C)	Stokes	anti-Stokes-747.200	-125.642	-0.281	-0.043
-746.185	-48.193	-0.204	0.099
-745.171	315.555	-0.040	0.077
-744.156	252.662	-0.165	-0.283
-743.142	-94.049	-0.283	0.078
-742.127	-154.873	-0.147	0.010
-741.112	59.843	0.044	-0.044
-740.098	723.418	-0.182	0.488
-739.083	-200.000	-0.027	-0.138
-738.069	531.263	-0.179	0.426
-737.054	-50.688	-0.240	0.114
-736.039	79.381	-0.145	-0.156
-735.025	800.000	0.045	-0.177
-734.010	99.228	-0.185	-0.215
-732.996	49.243	-0.035	-0.033
-731.981	231.014	0.020	0.032
-730.966	14.124	0.307	0.240
-729.952	800.000	-0.167	0.491
-728.937	800.000	-0.063	-0.231
-727.923	-98.369	-0.188	0.048
-726.908	-129.064	-0.292	0.041
-725.894	-200.000	0.041	-0.188
-724.879	56.020	-0.029	-0.028
-723.864	-81.677	0.185	-0.061
-722.850	-177.269	0.200	0.005
-721.835	-180.024	-0.337	-0.007
-720.821	-25.666	-0.190	-0.113
-719.806	-200.000	0.016	-0.144
-718.791	-163.372	0.101	0.005
-717.777	800.000	-0.034	0.110
-716.762	-113.022	-0.172	0.034
-715.748	-78.991	0.104	-0.036
-714.733	608.055	-0.054	0.136
-713.718	272.072	-0.084	-0.149
-712.704	-114.837	-0.400	-0.077
-711.689	-58.779	0.304	-0.132
-710.675	-26.064	-0.121	0.072
-709.660	-200.000	-0.032	-0.222
-708.645	370.522	0.055	0.113
-707.631	201.448	0.083	-0.129
-706.616	800.000	0.073	-0.307
-705.602	548.780	-0.095	-0.229
-704.587	-200.000	-0.061	0.399
-703.572	-100.046	-0.140	0.035
-702.558	162.150	0.086	0.121
-701.543	-42.836	0.179	-0.091
-700.529	-12.301	0.200	0.131
-699.514	96.293	0.170	0.195
-698.499	-200.000	-0.072	0.385
-697.485	-200.000	0.021	-0.095
-696.470	100.734	-0.095	0.111
-695.456	-126.054	-0.248	0.037
-694.441	-154.563	0.145	-0.010
-693.426	-66.889	-0.278	0.110
-692.412	134.142	-0.180	-0.233
-691.397	-24.737	0.304	-0.181
-690.383	122.443	-0.278	-0.349
-689.368	70.709	0.196	-0.204
-688.354	444.615	-0.136	-0.299
-687.339	-80.115	-0.108	0.036
-686.324	-45.081	0.204	0.102
-685.310	-126.769	-0.079	0.012
-684.295	388.091	0.128	-0.266
-683.281	-98.926	-0.246	-0.063
-682.266	19.294	0.101	-0.081
-681.251	-198.192	-0.162	-0.001
-680.237	-81.786	0.088	-0.029
-679.222	360.189	0.102	-0.205
-678.208	-1.969	-0.149	0.105
-677.193	-200.000	0.082	0.409
-676.178	-89.969	-0.163	-0.048
-675.164	173.191	0.081	0.118
-674.149	370.031	-0.047	0.095
-673.135	-200.000	0.009	0.436
-672.120	-114.664	-0.124	-0.024
-671.105	21.436	-0.183	0.149
-670.091	-163.797	-0.207	-0.010
-669.076	151.424	-0.059	0.081
-668.062	7.055	-0.108	-0.080
-667.047	-32.897	-0.200	-0.112
-666.032	7.574	-0.060	-0.045
-665.018	-40.209	0.213	0.111
-664.003	-198.785	0.148	0.001
-662.989	-158.678	-0.324	0.019
-661.974	-152.216	-0.421	-0.031
-660.959	559.492	0.043	-0.104
-659.945	-200.000	-0.015	-0.082
-658.930	45.339	-0.100	0.092
-657.916	-200.000	0.037	-0.169
-656.901	-124.488	0.247	-0.039
-655.886	-118.321	0.328	0.058
-654.872	107.995	-0.271	-0.324
-653.857	718.372	0.136	0.363
-652.843	32.864	0.225	0.195
-651.828	800.000	-0.068	-0.193
-650.814	-39.032	-0.040	0.021
-649.799	156.683	-0.024	-0.033
-648.784	800.000	-0.023	0.081
-647.770	-122.530	-0.309	-0.050
-646.755	-200.000	0.320	0.001
-645.741	234.685	0.296	0.488
-644.726	-87.939	0.300	-0.090
-643.711	-165.133	-0.112	-0.005
-642.697	-194.479	0.212	-0.002
-641.682	-200.000	0.008	0.175
-640.668	323.011	-0.217	0.415
-639.653	-142.874	0.265	0.026
-638.638	180.984	0.070	-0.103
-637.624	-21.879	-0.258	0.157
-636.609	51.612	-0.043	-0.041
-635.595	95.668	-0.213	0.243
-634.580	318.551	0.178	-0.337
-633.565	-10.462	-0.183	0.121
-632.551	-55.497	0.134	0.060
-631.536	584.051	-0.012	0.029
-630.522	266.384	-0.111	0.194
-629.507	-200.000	0.033	-0.199
-628.492	-200.000	-0.065	0.328
-627.478	-200.000	0.025	-0.227
-626.463	-60.145	-0.229	-0.098
-625.449	31.857	0.177	0.152
-624.434	-82.857	-0.388	-0.125
-623.419	-152.479	-0.127	-0.009
-622.405	800.000	0.016	-0.048
-621.390	-200.000	-0.014	0.113
-620.376	119.562	-0.127	0.157
-619.361	-48.905	-0.183	-0.088
-618.346	-200.000	0.031	-0.159
-617.332	-118.104	-0.414	0.074
-616.317	46.562	-0.197	-0.183
-615.303	-200.000	0.010	-0.062
-614.288	93.656	-0.141	0.159
-613.273	-127.727	-0.155	-0.022
-612.259	366.964	-0.036	-0.073
-611.244	130.174	0.105	-0.134
-610.230	92.128	-0.269	-0.303
-609.215	-124.255	0.394	-0.062
-608.201	118.890	-0.108	0.133
-607.186	119.653	-0.127	-0.158
-606.171	-8.464	0.059	0.040
-605.157	-76.707	-0.263	-0.092
-604.142	-34.260	-0.139	-0.076
-603.128	-47.276	0.233	-0.113
-602.113	-200.000	-0.001	-0.120
-601.098	263.177	-0.063	0.110
-600.084	186.081	-0.034	0.051
-599.069	-200.000	0.036	0.230
-598.055	323.678	-0.092	0.175
-597.040	-83.695	-0.279	-0.089
-596.025	16.271	-0.143	-0.113
-595.011	800.000	0.080	-0.229
-593.996	800.000	0.068	-0.248
-592.982	-159.387	-0.161	0.009
-591.967	-154.661	0.348	0.023
-590.952	-194.820	-0.392	0.003
-589.938	94.825	-0.190	-0.216
-588.923	-187.505	-0.206	-0.003
-587.909	-73.854	0.104	-0.038
-586.894	-200.000	-0.014	-0.213
-585.879	311.651	0.034	0.063
-584.865	135.491	0.046	-0.060
-583.850	-200.000	-0.021	0.095
-582.836	282.939	0.044	0.080
-581.821	-200.000	0.023	0.212
-580.806	-111.331	-0.529	-0.108
-579.792	0.564	0.319	-0.228
-578.777	16.979	0.129	0.102
-577.763	-200.000	0.023	-0.115
-576.748	-78.626	-0.117	0.040
-575.733	323.538	-0.145	-0.277
-574.719	-61.204	-0.138	-0.058
-573.704	-200.000	0.001	-0.156
-572.690	-80.808	0.329	0.109
-571.675	-200.000	0.008	-0.149
-570.661	-200.000	0.018	0.188
-569.646	-89.216	0.154	-0.045
-568.631	-69.449	-0.080	0.031
-567.617	133.162	0.050	-0.064
-566.602	-12.965	-0.050	-0.033
-565.588	-59.953	0.210	-0.089
-564.573	-35.990	0.397	0.214
-563.558	0.191	-0.090	-0.064
-562.544	-121.804	-0.258	0.043
-561.529	-100.531	-0.307	-0.076
-560.515	-107.686	0.090	-0.020
-559.500	800.000	-0.079	0.284
-558.485	40.999	-0.221	-0.199
-557.471	67.396	0.016	0.016
-556.456	-132.841	-0.212	-0.027
-555.442	-160.717	-0.316	0.017
-554.427	182.919	0.086	-0.127
-553.412	22.322	0.131	0.107
-552.398	800.000	-0.055	0.217
-551.383	-124.890	-0.128	-0.020
-550.369	250.635	-0.149	-0.252
-549.354	222.619	0.152	-0.244
-548.339	37.237	0.132	-0.117
-547.325	800.000	0.080	-0.221
-546.310	622.597	-0.026	-0.065
-545.296	-44.255	-0.145	-0.073
-544.281	-50.288	-0.258	0.122
-543.266	-8.424	-0.085	0.057
-542.252	-94.535	0.553	-0.150
-541.237	24.901	-0.203	-0.168
-540.223	-200.000	0.066	0.521
-539.208	-200.000	0.006	-0.045
-538.193	-170.139	0.078	-0.003
-537.179	-9.232	-0.284	-0.190
-536.164	-152.059	-0.175	0.013
-535.150	-96.437	-0.478	-0.126
-534.135	-135.702	0.203	0.024
-533.121	-103.044	0.444	0.105
-532.106	-92.948	-0.120	0.033
-531.091	495.998	-0.015	-0.035
-530.077	-70.362	-0.151	-0.057
-529.062	748.494	-0.075	0.203
-528.048	-200.000	0.028	-0.173
-527.033	-173.212	-0.153	-0.005
-526.018	392.128	0.159	0.330
-525.004	335.379	0.203	-0.392
-523.989	148.556	-0.119	-0.160
-522.975	-101.706	0.134	-0.032
-521.960	-29.676	0.256	0.146
-520.945	258.625	0.166	0.285
-519.931	315.297	-0.065	0.123
-518.916	172.676	-0.120	-0.172
-517.902	-91.207	-0.204	-0.058
-516.887	-75.614	-0.148	0.053
-515.872	-200.000	-0.049	-0.320
-514.858	-39.897	0.248	0.129
-513.843	179.564	-0.187	0.273
-512.829	-200.000	-0.004	0.031
-511.814	800.000	0.032	0.100
-510.799	345.190	0.195	0.381
-509.785	19.218	-0.107	-0.085
-508.770	-140.735	-0.064	-0.007
-507.756	-200.000	-0.000	-0.030
-506.741	-60.669	-0.188	-0.080
-505.726	-96.776	-0.165	0.043
-504.712	-103.561	-0.172	0.040
-503.697	600.891	0.058	-0.144
-502.683	-93.084	0.141	0.039
-501.668	-14.927	0.138	-0.088
-500.653	-69.245	0.187	0.072
-499.639	-93.021	-0.248	-0.069
-498.624	-8.932	0.101	-0.067
-497.610	-16.799	0.224	-0.141
-496.595	14.276	0.156	-0.121
-495.581	31.050	0.157	0.134
-494.566	15.336	0.145	0.113
-493.551	-200.000	0.002	0.283
-492.537	-200.000	-0.073	-0.329
-491.522	309.611	0.089	-0.166
-490.508	506.623	-0.072	0.166
-489.493	66.560	0.251	0.254
-488.478	61.099	0.067	-0.066
-487.464	29.328	-0.229	-0.194
-486.449	-200.000	-0.036	0.239
-485.435	-62.728	0.372	-0.153
-484.420	79.046	-0.221	0.236
-483.405	450.026	-0.160	-0.351
-482.391	10.745	0.180	-0.137
-481.376	19.157	0.333	0.266
-480.362	786.006	0.074	-0.203
-479.347	98.909	0.036	0.041
-478.332	-87.082	0.282	-0.085
-477.318	287.372	-0.076	-0.137
-476.303	-8.478	-0.226	-0.151
-475.289	27.587	0.149	0.125
-474.274	800.000	0.111	-0.378
-473.259	-64.872	-0.141	-0.057
-472.245	-14.435	-0.333	0.213
-471.230	-200.000	0.012	0.193
-470.216	153.643	-0.124	-0.168
-469.201	197.622	0.016	0.024
-468.186	594.758	0.032	0.078
-467.172	-64.007	-0.265	-0.108
-466.157	-55.874	0.226	0.100
-465.143	800.000	0.106	-0.338
-464.128	-200.000	0.003	0.038
-463.113	-200.000	-0.018	-0.226
-462.099	-29.223	0.258	0.147
-461.084	21.858	0.253	0.205
-460.070	33.092	0.108	0.093
-459.055	25.709	-0.123	-0.101
-458.040	-73.284	0.135	0.049
-457.026	800.000	0.043	0.181
-456.011	444.636	0.195	0.426
-454.997	-200.000	0.013	-0.249
-453.982	-171.435	-0.271	0.009
-452.968	60.886	0.205	0.202
-451.953	239.767	-0.092	-0.152
-450.938	-200.000	-0.017	-0.159
-449.924	-200.000	-0.063	-0.412
-448.909	3.724	-0.254	-0.184
-447.895	-138.039	-0.291	0.032
-446.880	-111.182	0.015	-0.003
-445.865	232.411	-0.074	0.121
-444.851	147.639	0.059	0.080
-443.836	-81.315	0.335	0.110
-442.822	-43.197	0.192	-0.097
-441.807	336.501	0.046	-0.088
-440.792	-11.582	0.090	0.059
-439.778	-62.022	-0.251	-0.104
-438.763	-85.712	0.099	0.031
-437.749	800.000	-0.113	-0.353
-436.734	-70.032	-0.063	0.024
-435.719	800.000	0.070	0.264
-434.705	-200.000	-0.004	-0.020
-433.690	-11.059	0.325	-0.213
-432.676	130.783	-0.043	-0.055
-431.661	107.060	0.190	0.225
-430.646	199.399	0.039	-0.059
-429.632	20.733	-0.213	0.171
-428.617	203.666	0.246	-0.378
-427.603	800.000	0.030	-0.107
-426.588	800.000	0.030	0.128
-425.573	284.889	-0.110	-0.197
-424.559	-200.000	-0.045	0.250
-423.544	-93.082	-0.100	-0.028
-422.530	800.000	0.018	0.072
-421.515	77.532	-0.209	0.221
-420.500	-101.833	-0.248	-0.060
-419.486	145.039	-0.063	0.083
-418.471	373.136	0.097	0.197
-417.457	800.000	-0.062	0.196
-416.442	-120.231	0.178	0.030
-415.428	26.294	0.279	0.232
-414.413	-125.009	-0.200	0.031
-413.398	-200.000	-0.031	-0.179
-412.384	90.952	-0.037	0.041
-411.369	24.772	0.171	-0.141
-410.355	-104.710	0.312	0.071
-409.340	-146.846	-0.343	0.029
-408.325	-8.196	0.065	-0.043
-407.311	-82.853	-0.184	0.059
-406.296	232.357	0.267	0.434
-405.282	-73.850	-0.297	0.107
-404.267	305.097	-0.111	-0.205
-403.252	37.636	0.110	0.096
-402.238	228.233	0.079	-0.127
-401.223	-143.083	0.503	0.048
-400.209	-200.000	0.046	0.257
-399.194	-200.000	0.005	-0.203
-398.179	-103.518	-0.210	0.049
-397.165	-200.000	-0.028	-0.120
-396.150	194.333	-0.144	-0.216
-395.136	-82.314	-0.183	-0.059
-394.121	762.866	0.020	0.054
-393.106	-143.495	0.164	0.016
-392.092	620.312	0.087	-0.218
-391.077	-93.353	-0.158	0.044
-390.063	18.488	0.219	-0.173
-389.048	-200.000	-0.003	0.058
-388.033	-140.325	0.223	0.023
-387.019	800.000	0.064	-0.192
-386.004	559.898	0.205	-0.492
-384.990	-104.662	-0.286	-0.065
-383.975	38.554	-0.284	-0.251
-382.960	-200.000	-0.031	-0.198
-381.946	-200.000	-0.006	-0.098
-380.931	-200.000	-0.042	0.380
-379.917	139.814	-0.118	0.154
-378.902	-36.698	0.220	0.117
-377.888	-3.435	0.149	0.103
-376.873	-82.762	0.160	-0.051
-375.858	509.078	-0.070	0.160
-374.844	800.000	0.025	-0.075
-373.829	-200.000	0.008	0.089
-372.815	183.924	0.041	0.060
-371.800	-200.000	-0.072	-0.441
-370.785	800.000	0.086	0.315
-369.771	21.549	-0.136	-0.110
-368.756	-88.133	0.101	0.030
-367.742	-200.000	0.005	0.214
-366.727	-41.368	-0.276	-0.141
-365.712	45.817	-0.274	0.251
-364.698	138.600	0.119	0.155
-363.683	3.811	-0.316	-0.228
-362.669	-200.000	-0.028	0.125
-361.654	-111.214	-0.183	0.037
-360.639	8.284	0.134	0.100
-359.625	-80.122	0.074	0.025
-358.610	-78.292	0.071	-0.024
-357.596	-200.000	-0.019	0.247
-356.581	-3.734	0.228	-0.157
-355.566	800.000	0.103	0.400
-354.552	283.359	0.152	-0.270
-353.537	800.000	0.101	-0.302
-352.523	612.349	-0.155	-0.385
-351.508	-200.000	-0.019	-0.084
-350.493	431.901	0.094	0.201
-349.479	59.604	0.166	-0.162
-348.464	-200.000	0.047	0.410
-347.450	-200.000	-0.053	-0.375
-346.435	49.826	0.181	-0.169
-345.420	-24.007	-0.244	0.145
-344.406	244.774	0.096	0.160
-343.391	-144.648	-0.222	0.020
-342.377	800.000	0.095	0.306
-341.362	-55.388	0.180	0.080
-340.348	-17.000	-0.077	0.048
-339.333	85.227	-0.244	0.265
-338.318	-34.745	0.176	-0.095
-337.304	-124.103	0.259	0.040
-336.289	-76.217	0.314	0.110
-335.275	143.346	0.126	0.166
-334.260	-5.324	0.058	0.040
-333.245	800.000	0.058	0.159
-332.231	501.237	-0.137	-0.312
-331.216	-141.174	0.227	0.023
-330.202	501.748	0.077	0.177
-329.187	25.338	-0.144	-0.119
-328.172	-164.760	-0.188	-0.008
-327.158	-66.141	0.225	0.089
-326.143	282.396	-0.168	0.298
-325.129	64.406	0.008	-0.008
-324.114	66.268	-0.392	-0.394
-323.099	214.050	-0.118	0.184
-322.085	-65.562	-0.250	0.099
-321.070	429.369	-0.063	0.135
-320.056	800.000	0.107	-0.395
-319.041	-105.739	0.204	0.046
-318.026	445.799	0.026	-0.056
-317.012	549.327	-0.122	-0.288
-315.997	-97.693	0.071	0.018
-314.983	-90.390	-0.407	-0.117
-313.968	-72.101	-0.135	0.050
-312.953	-200.000	-0.001	-0.052
-311.939	-85.741	0.247	0.076
-310.924	105.436	-0.086	-0.100
-309.910	-51.136	-0.072	-0.033
-308.895	41.934	-0.253	-0.227
-307.880	-22.254	-0.099	0.059
-306.866	171.189	-0.161	-0.228
-305.851	-15.004	-0.220	-0.140
-304.837	342.286	-0.130	-0.252
-303.822	579.842	-0.067	0.162
-302.807	-47.981	-0.265	-0.127
-301.793	-60.587	0.304	0.127
-300.778	-152.647	0.342	0.024
-299.764	-95.555	0.232	-0.062
-298.749	800.000	0.091	-0.296
-297.735	33.397	-0.096	-0.082
-296.720	-94.015	0.095	0.026
-295.705	-135.215	-0.316	-0.037
-294.691	-200.000	-0.005	0.033
-293.676	-200.000	-0.007	0.199
-292.662	-200.000	0.019	-0.147
-291.647	-63.371	-0.175	0.071
-290.632	194.015	0.142	-0.212
-289.618	-200.000	0.031	0.178
-288.603	-43.025	-0.123	-0.062
-287.589	669.779	0.090	-0.229
-286.574	800.000	0.130	0.475
-285.559	-61.226	-0.370	0.154
-284.545	345.157	-0.118	0.229
-283.530	-43.354	0.270	0.135
-282.516	218.476	0.068	-0.108
-281.501	-68.973	0.017	-0.007
-280.486	9.499	-0.237	0.177
-279.472	-135.291	0.165	0.020
-278.457	3.004	-0.108	-0.078
-277.443	246.050	0.044	-0.074
-276.428	471.843	-0.127	0.283
-275.413	800.000	0.076	0.259
-274.399	-200.000	-0.024	-0.137
-273.384	30.702	0.061	0.052
-272.370	-119.044	-0.179	-0.031
-271.355	-26.943	0.251	-0.145
-270.340	-200.000	-0.004	0.234
-269.326	-124.095	0.251	-0.039
-268.311	331.032	-0.145	-0.275
-267.297	-17.423	-0.217	-0.135
-266.282	-58.662	0.262	0.112
-265.267	382.172	-0.159	0.322
-264.253	87.977	0.392	-0.429
-263.238	87.275	-0.202	-0.220
-262.224	518.930	-0.050	0.116
-261.209	500.280	0.030	0.068
-260.195	25.460	0.160	-0.131
-259.180	10.704	0.054	-0.040
-258.165	83.601	0.351	-0.377
-257.151	46.965	-0.255	-0.234
-256.136	800.000	-0.038	-0.120
-255.122	-68.728	0.110	-0.042
-254.107	-200.000	0.001	0.225
-253.092	-24.349	0.148	0.087
-252.078	-200.000	-0.063	-0.380
-251.063	204.454	-0.056	0.086
-250.049	47.347	0.092	0.084
-249.034	-82.474	0.383	0.123
-248.019	159.345	0.128	-0.176
-247.005	295.736	0.007	0.013
-245.990	265.544	0.204	-0.350
-244.976	108.330	-0.191	-0.225
-243.961	-5.303	-0.267	0.181
-242.946	-200.000	-0.026	-0.224
-241.932	800.000	0.064	-0.213
-240.917	31.793	0.237	-0.201
-239.903	-200.000	0.009	-0.165
-238.888	-143.775	0.149	0.014
-237.873	-200.000	-0.040	0.485
-236.859	-119.372	0.402	0.069
-235.844	-200.000	0.032	-0.181
-234.830	-111.259	0.190	-0.038
-233.815	194.178	0.069	-0.104
-232.800	-190.474	-0.481	0.005
-231.786	-200.000	0.065	-0.357
-230.771	-17.620	0.083	0.051
-229.757	106.877	0.141	0.165
-228.742	123.381	0.164	0.203
-227.727	-153.627	0.235	-0.016
-226.713	800.000	-0.073	0.264
-225.698	800.000	0.095	0.344
-224.684	-111.694	-0.154	0.031
-223.669	65.918	-0.140	-0.140
-222.655	-99.845	-0.031	0.008
-221.640	-113.838	-0.141	-0.027
-220.625	-57.605	-0.149	0.065
-219.611	-93.981	0.137	-0.037
-218.596	-46.132	0.128	-0.062
-217.582	61.921	0.275	0.270
-216.567	155.205	-0.133	-0.181
-215.552	431.337	0.057	0.121
-214.538	-75.409	-0.239	-0.084
-213.523	459.983	-0.018	0.039
-212.509	800.000	0.031	0.115
-211.494	-25.503	0.104	-0.060
-210.479	-200.000	-0.046	0.232
-209.465	-148.168	0.311	0.025
-208.450	800.000	0.043	-0.159
-207.436	-46.548	-0.193	0.093
-206.421	89.114	-0.086	0.095
-205.406	-15.794	-0.195	0.122
-204.392	34.238	-0.215	-0.185
-203.377	-158.985	0.280	0.016
-202.363	-29.447	-0.156	-0.088
-201.348	-42.604	-0.222	0.111
-200.333	-184.160	0.085	-0.001
-199.319	517.484	-0.045	0.103
-198.304	409.148	0.107	0.222
-197.290	101.980	-0.110	0.126
-196.275	3.864	-0.454	0.327
-195.260	-67.370	-0.341	0.132
-194.246	3.612	-0.151	0.108
-193.231	95.893	0.210	0.236
-192.217	17.786	0.136	-0.106
-191.202	-200.000	0.044	0.255
-190.187	178.299	0.091	0.130
-189.173	-37.231	0.418	-0.220
-188.158	800.000	0.005	-0.016
-187.144	-149.533	0.150	0.012
-186.129	193.605	-0.102	-0.152
-185.114	-200.000	-0.003	0.119
-184.100	800.000	-0.077	-0.328
-183.085	95.741	0.069	-0.077
-182.071	-14.205	-0.065	-0.041
-181.056	-200.000	0.041	0.256
-180.042	-200.000	0.056	-0.276
-179.027	3.676	0.188	0.135
-178.012	27.870	0.086	0.071
-176.998	800.000	-0.054	-0.179
-175.983	337.363	0.043	0.082
-174.969	800.000	0.038	0.116
-173.954	29.093	0.168	0.140
-172.939	-127.228	0.193	-0.028
-171.925	16.799	-0.074	0.058
-170.910	149.554	0.144	-0.192
-169.896	-93.650	-0.272	-0.074
-168.881	677.653	-0.171	0.437
-167.866	35.448	0.058	0.050
-166.852	356.054	0.031	-0.061
-165.837	-65.422	0.277	0.110
-164.823	95.704	-0.234	0.263
-163.808	304.155	0.199	0.363
-162.793	-118.603	0.231	0.040
-161.779	162.479	0.204	-0.282
-160.764	182.968	-0.095	0.138
-159.750	-200.000	0.004	-0.071
-158.735	766.186	-0.071	-0.190
-157.720	-150.811	0.379	-0.028
-156.706	6.493	-0.224	-0.164
-155.691	-139.566	-0.159	0.017
-154.677	-200.000	0.072	0.375
-153.662	-200.000	-0.032	0.330
-152.647	-153.054	-0.051	0.003
-151.633	800.000	-0.065	0.265
-150.618	60.902	-0.215	-0.210
-149.604	272.689	-0.040	-0.070
-148.589	77.516	-0.232	-0.242
-147.574	-16.036	0.354	0.221
-146.560	-133.852	-0.291	0.036
-145.545	800.000	0.110	0.398
-144.531	15.287	-0.277	0.214
-143.516	800.000	0.110	-0.329
-142.502	-17.635	0.458	-0.282
-141.487	-65.805	0.061	0.024
-140.472	-55.168	0.093	-0.041
-139.458	11.127	0.265	0.199
-138.443	-9.607	0.176	0.115
-137.429	-127.807	-0.191	-0.027
-136.414	91.311	-0.226	-0.249
-135.399	-175.079	-0.209	-0.006
-134.385	-200.000	0.023	-0.303
-133.370	-200.000	-0.015	-0.082
-132.356	791.441	0.088	0.236
-131.341	-194.398	0.162	0.001
-130.326	-200.000	-0.011	-0.202
-129.312	17.117	0.107	-0.084
-128.297	-133.781	0.166	0.020
-127.283	106.652	-0.342	0.399
-126.268	41.026	-0.103	0.091
-125.253	800.000	-0.033	-0.125
-124.239	54.415	0.144	0.137
-123.224	800.000	-0.035	0.112
-122.210	800.000	0.085	0.293
-121.195	800.000	-0.098	0.333
