DTS Sentinel unit serial number:	SN413079Multiplexer serial number:	ORYXHardware model number:	OX4-SRSoftware version number:	ORYX F/W v4.00 Oryx Data Collector v3.7.2.0data status	okinstallation	princeton_trtdifferential loss correction	single-endedforward channel	channel 1reverse channel	N/Adate	2019/09/15time	21:58:35forward acquisition time	60.00reverse acquisition time	0.00gamma	496.2192k internal	0.2330k external	0.2330temperature offset calibration	0.9965default loss term (dB/km)	0.3790temperature slope calibration	1.0000multiplexer offset coefficient	1.0000multiplexer slope coefficient	1.0000fibre end	0.00T internal ref (°C)	29.91T ext. ref 1 (°C)	8.52T ext. ref 2 (°C)	23.00length (m)	temperature (°C)	Stokes	anti-Stokes-747.200	-106.896	0.360	-0.080
-746.185	-93.125	-0.271	-0.076
-745.171	633.268	-0.096	0.245
-744.156	-115.131	-0.380	-0.073
-743.142	-45.463	0.176	0.088
-742.127	-19.040	0.196	0.123
-741.112	800.000	-0.114	0.399
-740.098	-200.000	-0.060	-0.269
-739.083	-116.237	0.190	-0.035
-738.069	273.440	-0.108	0.193
-737.054	626.149	0.109	0.276
-736.039	26.686	-0.066	-0.056
-735.025	-167.475	-0.114	-0.005
-734.010	-96.189	-0.237	0.063
-732.996	303.901	0.248	-0.463
-731.981	368.862	-0.048	-0.097
-730.966	66.880	0.098	-0.101
-729.952	12.998	-0.094	-0.073
-728.937	1.431	-0.515	-0.373
-727.923	-98.553	-0.316	0.081
-726.908	-84.198	-0.374	-0.119
-725.894	800.000	-0.049	-0.163
-724.879	-134.224	-0.199	-0.025
-723.864	-85.469	0.133	0.042
-722.850	236.047	0.212	-0.353
-721.835	-84.157	-0.265	0.084
-720.821	-84.490	0.319	-0.101
-719.806	-200.000	0.019	0.126
-718.791	-200.000	0.029	-0.488
-717.777	496.198	0.123	-0.285
-716.762	74.265	0.125	-0.132
-715.748	153.368	-0.166	0.229
-714.733	-46.951	-0.299	0.147
-713.718	216.215	-0.150	0.240
-712.704	3.627	0.229	-0.168
-711.689	205.473	-0.197	0.309
-710.675	800.000	0.051	-0.155
-709.660	65.461	-0.256	0.261
-708.645	64.209	0.251	0.254
-707.631	-64.684	0.254	-0.104
-706.616	800.000	-0.081	-0.259
-705.602	-41.350	0.396	0.205
-704.587	387.039	-0.040	0.083
-703.572	-200.000	0.016	0.075
-702.558	545.723	-0.121	0.292
-701.543	111.992	-0.115	-0.140
-700.529	-120.616	-0.124	0.021
-699.514	17.851	-0.182	0.146
-698.499	-200.000	0.019	-0.190
-697.485	-53.643	-0.268	0.123
-696.470	74.514	-0.235	-0.249
-695.456	-75.906	0.080	0.028
-694.441	800.000	-0.019	-0.072
-693.426	800.000	-0.111	-0.484
-692.412	336.411	0.117	0.229
-691.397	179.162	-0.157	0.230
-690.383	144.365	0.127	-0.171
-689.368	-124.082	-0.337	0.053
-688.354	-56.120	0.171	0.077
-687.339	25.303	-0.046	0.038
-686.324	-200.000	-0.001	-0.362
-685.310	-200.000	0.001	-0.294
-684.295	-117.724	-0.149	-0.027
-683.281	14.848	-0.257	0.202
-682.266	-30.774	-0.101	-0.058
-681.251	-59.031	-0.197	0.085
-680.237	176.208	0.149	-0.217
-679.222	71.849	0.162	0.170
-678.208	216.252	0.259	-0.414
-677.193	13.638	-0.261	-0.204
-676.178	800.000	0.109	-0.451
-675.164	-125.454	0.271	0.041
-674.149	-25.047	-0.089	-0.053
-673.135	16.991	0.237	0.189
-672.120	-59.148	-0.096	0.041
-671.105	-145.271	0.081	-0.007
-670.091	-22.848	0.215	-0.130
-669.076	-17.465	-0.108	0.068
-668.062	-112.317	-0.390	-0.078
-667.047	119.946	-0.078	0.097
-666.032	-102.350	-0.161	-0.039
-665.018	105.083	0.171	0.203
-664.003	534.218	0.032	0.077
-662.989	-14.162	-0.077	-0.050
-661.974	800.000	-0.024	-0.096
-660.959	-95.157	0.125	0.034
-659.945	-200.000	-0.001	0.072
-658.930	-93.861	-0.067	0.019
-657.916	-44.004	0.227	-0.115
-656.901	-103.405	0.165	0.039
-655.886	-200.000	0.010	0.297
-654.872	246.901	0.075	-0.127
-653.857	-116.176	0.106	0.020
-652.843	220.128	0.041	-0.065
-651.828	738.682	-0.067	0.182
-650.814	-29.126	0.277	-0.160
-649.799	-118.256	-0.108	0.019
-648.784	83.283	0.042	-0.046
-647.770	-3.511	0.235	0.164
-646.755	506.738	0.143	0.332
-645.741	271.288	0.156	0.276
-644.726	-133.486	-0.215	-0.027
-643.711	-82.550	-0.157	0.051
-642.697	227.322	0.035	-0.057
-641.682	645.838	-0.044	0.112
-640.668	-200.000	-0.028	-0.207
-639.653	29.800	-0.044	0.038
-638.638	15.279	0.222	-0.174
-637.624	60.881	0.149	0.148
-636.609	-55.816	0.137	-0.061
-635.595	-30.714	-0.218	0.124
-634.580	-147.978	-0.039	-0.003
-633.565	-191.577	0.250	-0.003
-632.551	333.266	0.066	-0.127
-631.536	-200.000	0.028	0.247
-630.522	9.636	-0.195	0.148
-629.507	227.792	-0.116	-0.189
-628.492	3.267	-0.407	-0.297
-627.478	800.000	0.085	-0.254
-626.463	661.034	-0.118	-0.304
-625.449	701.756	0.105	-0.277
-624.434	72.452	-0.166	-0.173
-623.419	-200.000	-0.017	0.198
-622.405	173.044	0.237	-0.342
-621.390	-11.338	0.103	-0.068
-620.376	-19.808	-0.517	-0.320
-619.361	-27.084	-0.223	0.130
-618.346	-66.155	0.281	-0.112
-617.332	-54.821	-0.241	0.109
-616.317	-31.888	-0.138	-0.077
-615.303	-75.782	-0.045	-0.016
-614.288	205.998	-0.225	-0.351
-613.273	-98.519	-0.175	0.045
-612.259	72.072	-0.062	0.064
-611.244	265.423	-0.174	-0.305
-610.230	-59.157	0.119	0.051
-609.215	800.000	0.056	0.182
-608.201	-57.263	-0.162	-0.071
-607.186	209.559	0.184	-0.289
-606.171	98.180	-0.037	0.043
-605.157	62.077	0.057	-0.057
-604.142	277.940	0.057	0.102
-603.128	-111.721	0.052	-0.011
-602.113	-200.000	-0.022	-0.491
-601.098	-37.266	0.133	-0.071
-600.084	-192.999	-0.210	-0.002
-599.069	202.902	0.217	-0.335
-598.055	90.864	0.277	0.311
-597.040	-200.000	0.029	-0.166
-596.025	258.873	0.097	0.168
-595.011	-159.025	-0.157	-0.009
-593.996	123.211	-0.122	0.153
-592.982	48.560	0.164	-0.154
-591.967	656.825	0.165	-0.423
-590.952	-200.000	-0.064	-0.532
-589.938	-200.000	-0.010	-0.139
-588.923	-200.000	-0.009	0.217
-587.909	143.951	0.272	-0.362
-586.894	396.744	0.124	-0.260
-585.879	255.233	0.107	-0.184
-584.865	125.682	0.118	0.149
-583.850	800.000	0.077	0.303
-582.836	39.032	0.210	-0.188
-581.821	311.441	0.116	0.218
-580.806	135.481	0.104	0.135
-579.792	-20.666	0.147	0.091
-578.777	-200.000	-0.018	-0.359
-577.763	358.864	0.157	0.315
-576.748	164.641	-0.077	0.108
-575.733	-166.399	-0.234	0.010
-574.719	-89.457	-0.174	0.051
-573.704	-200.000	-0.006	0.125
-572.690	33.433	0.063	-0.054
-571.675	306.700	0.104	0.194
-570.661	-13.997	-0.193	0.125
-569.646	-98.923	-0.331	0.084
-568.631	130.708	0.178	-0.229
-567.617	-200.000	0.039	-0.222
-566.602	800.000	0.050	-0.200
-565.588	-61.815	-0.262	0.110
-564.573	176.342	0.107	-0.156
-563.558	-73.284	-0.289	-0.106
-562.544	151.510	0.139	0.189
-561.529	57.581	0.226	-0.221
-560.515	-34.465	0.236	-0.129
-559.500	-119.490	-0.146	-0.025
-558.485	15.798	0.086	0.067
-557.471	10.733	-0.280	0.214
-556.456	31.658	0.132	0.113
-555.442	-200.000	-0.022	-0.154
-554.427	38.413	0.061	0.055
-553.412	800.000	-0.086	-0.285
-552.398	-30.299	0.062	-0.035
-551.383	800.000	0.048	-0.148
-550.369	10.199	-0.113	-0.086
-549.354	98.466	0.049	0.056
-548.339	-71.766	0.139	-0.052
-547.325	-153.482	-0.173	-0.012
-546.310	218.847	-0.037	-0.060
-545.296	800.000	-0.054	-0.173
-544.281	-83.683	0.191	0.061
-543.266	73.040	-0.241	0.252
-542.252	-38.923	-0.191	0.100
-541.237	-200.000	-0.005	0.138
-540.223	294.082	-0.041	0.075
-539.208	130.594	-0.135	0.172
-538.193	-132.700	0.411	-0.053
-537.179	86.731	-0.270	-0.297
-536.164	284.316	0.153	0.274
-535.150	794.644	0.115	0.315
-534.135	-200.000	-0.019	0.245
-533.121	-91.403	0.291	0.083
-532.106	221.573	-0.096	0.155
-531.091	800.000	0.014	0.043
-530.077	204.110	0.142	0.220
-529.062	-19.826	-0.063	-0.039
-528.048	-200.000	0.023	-0.128
-527.033	-134.099	0.211	-0.026
-526.018	512.759	0.086	0.200
-525.004	-200.000	0.064	-0.516
-523.989	-138.121	0.111	0.012
-522.975	170.311	0.096	0.137
-521.960	53.745	0.400	0.383
-520.945	483.564	0.119	-0.270
-519.931	-80.852	-0.241	-0.080
-518.916	-20.773	-0.285	-0.174
-517.902	-10.177	-0.223	-0.148
-516.887	299.643	0.056	-0.104
-515.872	41.013	0.067	-0.060
-514.858	800.000	-0.036	0.107
-513.843	-112.103	0.084	-0.017
-512.829	800.000	0.078	0.232
-511.814	-86.436	0.184	-0.057
-510.799	34.142	0.323	0.281
-509.785	-103.057	0.208	0.049
-508.770	1.053	0.079	0.057
-507.756	-56.967	0.087	-0.038
-506.741	800.000	-0.051	-0.173
-505.726	166.700	-0.064	0.091
-504.712	-200.000	0.109	-0.545
-503.697	-114.878	-0.159	0.030
-502.683	800.000	-0.161	-0.468
-501.668	19.816	0.170	-0.137
-500.653	-200.000	-0.042	-0.456
-499.639	3.181	0.185	0.134
-498.624	800.000	-0.068	0.222
-497.610	27.249	-0.226	0.190
-496.595	-26.237	0.248	0.145
-495.581	32.300	-0.195	-0.168
-494.566	-92.527	0.348	-0.097
-493.551	-109.623	-0.104	-0.022
-492.537	57.316	-0.127	-0.124
-491.522	800.000	0.061	-0.173
-490.508	147.034	-0.123	0.166
-489.493	-6.776	0.090	-0.061
-488.478	800.000	-0.045	0.147
-487.464	800.000	-0.006	0.023
-486.449	12.073	-0.034	-0.026
-485.435	-165.660	-0.093	0.004
-484.420	-122.634	-0.099	-0.016
-483.405	-10.258	-0.330	-0.219
-482.391	-185.982	0.280	-0.004
-481.376	426.508	-0.061	-0.132
-480.362	127.638	-0.179	0.227
-479.347	-151.695	0.192	-0.014
-478.332	90.891	0.055	-0.061
-477.318	-97.635	0.270	-0.070
-476.303	20.116	-0.416	0.335
-475.289	-88.861	-0.272	-0.080
-474.274	-51.418	0.197	-0.092
-473.259	-6.917	-0.301	-0.204
-472.245	-200.000	0.010	0.172
-471.230	-101.106	-0.143	-0.035
-470.216	-18.698	0.240	-0.149
-469.201	-98.455	-0.021	0.005
-468.186	800.000	0.043	-0.145
-467.172	-37.316	-0.095	0.051
-466.157	172.558	0.100	0.143
-465.143	52.190	-0.187	0.178
-464.128	-5.351	0.366	-0.251
-463.113	-60.884	-0.466	0.196
-462.099	-200.000	-0.028	0.352
-461.084	-31.139	0.266	0.149
-460.070	322.416	0.076	0.144
-459.055	-17.775	-0.117	-0.073
-458.040	-82.754	-0.122	0.039
-457.026	-130.676	0.251	0.034
-456.011	110.854	0.188	-0.225
-454.997	-96.232	-0.076	-0.020
-453.982	-200.000	0.105	-0.460
-452.968	-109.856	-0.175	-0.037
-451.953	-11.040	-0.297	0.195
-450.938	-12.802	-0.183	0.119
-449.924	-47.986	0.136	-0.066
-448.909	-102.953	-0.350	-0.083
-447.895	800.000	0.035	0.103
-446.880	94.556	0.287	-0.324
-445.865	-200.000	0.033	-0.166
-444.851	-51.823	-0.180	-0.083
-443.836	59.742	-0.140	-0.138
-442.822	161.539	-0.108	-0.150
-441.807	-19.818	-0.199	0.123
-440.792	104.247	-0.251	-0.294
-439.778	-10.398	0.119	-0.078
-438.763	417.483	-0.099	0.211
-437.749	269.169	0.014	-0.025
-436.734	-200.000	-0.020	-0.168
-435.719	-154.930	0.109	0.007
-434.705	-200.000	0.044	-0.615
-433.690	800.000	-0.069	-0.197
-432.676	-200.000	-0.066	0.567
-431.661	-52.517	-0.209	-0.096
-430.646	-200.000	0.017	-0.139
-429.632	94.070	-0.149	-0.168
-428.617	-113.518	-0.286	-0.056
-427.603	-63.390	0.308	0.126
-426.588	-200.000	-0.015	0.185
-425.573	141.987	0.129	0.171
-424.559	696.210	-0.138	-0.360
-423.544	-200.000	0.063	0.499
-422.530	-71.948	-0.320	0.118
-421.515	800.000	-0.112	0.355
-420.500	-41.364	0.084	0.043
-419.486	-200.000	0.008	-0.150
-418.471	10.502	-0.273	0.207
-417.457	-73.128	0.181	0.066
-416.442	-62.359	0.319	0.132
-415.428	-200.000	-0.020	-0.402
-414.413	-200.000	-0.012	0.070
-413.398	254.978	0.080	-0.137
-412.384	-97.234	-0.342	-0.089
-411.369	190.208	0.150	0.223
-410.355	292.411	0.048	0.088
-409.340	-200.000	0.048	0.304
-408.325	-40.114	0.381	0.198
-407.311	24.201	-0.215	0.176
-406.296	-103.789	-0.417	-0.097
-405.282	800.000	0.068	0.269
-404.267	424.579	0.230	-0.492
-403.252	-200.000	-0.017	0.092
-402.238	-200.000	-0.004	-0.080
-401.223	31.541	-0.059	-0.050
-400.209	-45.564	-0.124	0.061
-399.194	10.982	0.364	-0.276
-398.179	-145.725	0.096	0.008
-397.165	-178.745	-0.064	-0.001
-396.150	-85.361	0.188	0.058
-395.136	275.893	0.216	0.381
-394.121	-98.676	0.251	0.064
-393.106	-200.000	0.022	0.264
-392.092	-200.000	0.026	-0.151
-391.077	87.576	0.201	-0.221
-390.063	215.348	0.183	-0.288
-389.048	-35.814	-0.131	-0.071
-388.033	-69.627	-0.308	0.117
-387.019	-175.636	0.151	0.004
-386.004	-89.310	-0.044	0.013
-384.990	-200.000	-0.004	-0.106
-383.975	-123.597	-0.165	-0.026
-382.960	800.000	0.053	-0.212
-381.946	481.011	0.204	0.459
-380.931	-78.186	-0.212	0.072
-379.917	-200.000	-0.004	0.344
-378.902	-200.000	-0.019	0.162
-377.888	157.376	0.057	-0.078
-376.873	-200.000	-0.030	-0.240
-375.858	-113.285	-0.210	-0.041
-374.844	545.697	-0.033	-0.079
-373.829	-200.000	0.010	0.142
-372.815	14.894	0.231	0.179
-371.800	-177.036	0.101	-0.003
-370.785	-94.059	-0.140	-0.038
-369.771	-84.042	-0.115	-0.036
-368.756	-134.841	-0.221	0.027
-367.742	-4.710	-0.206	0.141
-366.727	-118.221	0.077	0.014
-365.712	-82.268	0.111	0.036
-364.698	334.284	-0.111	-0.213
-363.683	-200.000	-0.010	-0.053
-362.669	46.842	0.232	-0.214
-361.654	571.345	-0.108	-0.262
-360.639	800.000	0.080	0.284
-359.625	800.000	0.070	0.211
-358.610	621.569	-0.060	0.151
-357.596	-148.065	0.148	-0.012
-356.581	358.722	0.051	-0.100
-355.566	-36.239	-0.280	0.150
-354.552	-47.616	0.208	-0.100
-353.537	-134.886	-0.537	0.064
-352.523	-200.000	-0.001	0.461
-351.508	569.394	-0.078	-0.188
-350.493	-136.290	0.395	-0.046
-349.479	128.275	-0.046	0.058
-348.464	800.000	0.048	-0.135
-347.450	800.000	0.008	-0.035
-346.435	-167.307	0.220	0.009
-345.420	113.974	0.091	0.109
-344.406	800.000	-0.038	-0.112
-343.391	800.000	0.040	-0.142
-342.377	-142.136	-0.035	0.003
-341.362	-163.941	0.074	0.003
-340.348	-200.000	-0.012	0.142
-339.333	517.716	-0.088	0.204
-338.318	-200.000	-0.026	-0.217
-337.304	-200.000	0.021	-0.148
-336.289	-56.687	-0.270	0.118
-335.275	119.739	-0.106	-0.130
-334.260	260.968	0.012	-0.021
-333.245	-107.899	0.175	-0.038
-332.231	90.455	-0.102	0.113
-331.216	5.152	0.066	0.048
-330.202	-191.193	-0.091	0.001
-329.187	-200.000	0.000	0.286
-328.172	-11.933	0.133	0.087
-327.158	-13.156	-0.067	0.043
-326.143	11.288	-0.129	0.098
-325.129	-200.000	-0.010	0.295
-324.114	800.000	-0.118	0.354
-323.099	140.837	-0.170	0.223
-322.085	-24.491	0.054	0.032
-321.070	-113.818	0.122	0.023
-320.056	446.679	-0.138	0.301
-319.041	660.192	0.072	0.183
-318.026	-76.571	-0.064	-0.022
-317.012	467.539	-0.107	0.237
-315.997	170.960	0.101	0.144
-314.983	-166.625	0.227	-0.009
-313.968	-200.000	0.001	0.248
-312.953	-53.074	0.285	0.130
-311.939	-92.854	0.200	-0.055
-310.924	428.914	0.087	0.187
-309.910	359.882	-0.014	0.027
-308.895	-74.208	0.082	-0.030
-307.880	-200.000	-0.060	-0.407
-306.866	39.196	0.241	0.213
-305.851	800.000	0.100	0.344
-304.837	216.153	-0.054	0.085
-303.822	-49.018	-0.048	0.023
-302.807	707.866	0.068	-0.177
-301.793	800.000	0.046	-0.169
-300.778	-23.270	0.123	0.073
-299.764	-200.000	0.087	0.485
-298.749	800.000	-0.024	0.073
-297.735	800.000	0.021	0.074
-296.720	-89.531	-0.510	-0.148
-295.705	-200.000	-0.003	0.334
-294.691	-135.267	0.331	-0.039
-293.676	-103.838	-0.144	0.033
-292.662	-132.159	-0.105	0.014
-291.647	-18.923	-0.110	0.068
-290.632	-200.000	0.007	0.482
-289.618	-123.922	0.292	-0.046
-288.603	147.751	-0.159	-0.213
-287.589	-10.260	0.405	-0.266
-286.574	-144.605	-0.197	0.018
-285.559	800.000	0.069	-0.223
-284.545	-133.527	0.097	-0.012
-283.530	35.798	-0.105	0.091
-282.516	-123.166	-0.239	0.038
-281.501	51.448	-0.160	0.151
-280.486	159.808	-0.168	-0.232
-279.472	-200.000	0.002	-0.431
-278.457	800.000	-0.056	0.206
-277.443	128.378	0.174	-0.219
-276.428	392.100	0.084	-0.173
-275.413	-100.457	-0.167	0.041
-274.399	247.172	-0.132	0.221
-273.384	-110.943	-0.134	0.027
-272.370	208.224	-0.107	0.165
-271.355	-200.000	0.080	0.466
-270.340	-39.327	0.207	-0.107
-269.326	800.000	0.027	-0.104
-268.311	-58.595	0.292	-0.125
-267.297	70.577	-0.061	-0.062
-266.282	344.484	0.141	-0.274
-265.267	-87.124	0.316	0.095
-264.253	14.775	-0.058	-0.045
-263.238	-17.123	0.121	0.076
-262.224	-108.511	-0.084	-0.018
-261.209	155.084	-0.059	0.080
-260.195	-50.723	0.235	-0.110
-259.180	-17.439	-0.121	0.075
-258.165	35.851	-0.150	0.130
-257.151	-21.791	0.170	-0.102
-256.136	165.668	0.078	-0.109
-255.122	-111.129	-0.340	0.069
-254.107	800.000	-0.041	-0.135
-253.092	137.279	-0.051	-0.066
-252.078	466.779	0.118	0.261
-251.063	-200.000	0.017	0.159
-250.049	439.864	0.147	-0.317
-249.034	-50.032	0.254	-0.119
-248.019	-77.635	-0.227	0.077
-247.005	-200.000	0.130	0.000
-245.990	346.726	-0.113	0.220
-244.976	217.642	-0.265	-0.417
-243.961	-111.353	0.440	-0.089
-242.946	-17.855	-0.165	-0.102
-241.932	-200.000	-0.040	-0.246
-240.917	-22.023	0.420	0.252
-239.903	-200.000	-0.001	-0.025
-238.888	-41.242	-0.065	0.033
-237.873	-44.954	0.113	-0.055
-236.859	-200.000	0.035	0.166
-235.844	800.000	-0.055	0.181
-234.830	-91.284	-0.241	0.068
-233.815	197.675	0.176	0.265
-232.800	-57.072	-0.175	-0.076
-231.786	-0.225	-0.283	-0.199
-230.771	-148.945	-0.175	-0.014
-229.757	-81.829	-0.142	-0.046
-228.742	-126.620	-0.164	-0.024
-227.727	288.340	-0.046	0.082
-226.713	-200.000	-0.052	0.331
-225.698	-6.285	-0.176	-0.119
-224.684	82.017	0.126	0.135
-223.669	34.089	0.141	-0.122
-222.655	-47.474	-0.215	0.103
-221.640	351.858	0.126	-0.247
-220.625	-200.000	0.023	0.188
-219.611	800.000	-0.034	0.143
-218.596	676.952	0.005	0.012
-217.582	-200.000	-0.002	0.171
-216.567	-30.011	-0.121	0.068
-215.552	-200.000	-0.015	0.202
-214.538	-76.086	-0.171	0.060
-213.523	9.688	0.010	0.008
-212.509	233.655	0.136	-0.222
-211.494	-8.571	-0.286	-0.190
-210.479	-117.474	-0.239	-0.043
-209.465	30.834	0.207	-0.175
-208.450	-200.000	-0.022	-0.340
-207.436	82.799	0.175	-0.187
-206.421	-137.671	0.148	0.016
-205.406	757.232	-0.048	-0.127
-204.392	181.316	-0.099	-0.144
-203.377	157.699	-0.204	0.278
-202.363	43.500	-0.102	-0.092
-201.348	-200.000	0.039	-0.203
-200.333	-200.000	-0.011	-0.097
-199.319	-131.261	-0.062	-0.008
-198.304	23.944	-0.168	0.137
-197.290	-112.238	-0.134	0.026
-196.275	35.755	0.098	0.085
-195.260	226.601	0.202	-0.324
-194.246	720.730	-0.107	-0.280
-193.231	-57.206	0.536	-0.233
-192.217	-104.683	0.040	-0.009
-191.202	-140.709	0.280	-0.028
-190.187	-17.978	-0.163	-0.101
-189.173	-149.188	-0.224	0.018
-188.158	-185.376	0.513	0.008
-187.144	-143.311	-0.182	0.017
-186.129	-200.000	-0.002	0.038
-185.114	-200.000	0.005	-0.036
-184.100	-20.734	-0.243	-0.147
-183.085	-2.894	0.224	-0.154
-182.071	320.919	0.195	0.365
-181.056	144.869	0.149	0.196
-180.042	-107.770	0.287	-0.062
-179.027	-23.758	0.056	0.033
-178.012	9.706	0.075	-0.056
-176.998	-200.000	0.010	0.267
-175.983	109.279	0.054	-0.064
-174.969	135.752	-0.075	0.096
-173.954	448.624	0.112	0.243
-172.939	100.023	0.148	0.168
-171.925	28.861	-0.285	0.238
-170.910	-200.000	0.150	-0.000
-169.896	-176.345	-0.314	0.008
-168.881	800.000	0.052	-0.182
-167.866	69.168	0.165	0.167
-166.852	703.343	-0.075	0.196
-165.837	-75.687	0.207	-0.072
-164.823	31.859	0.170	-0.144
-163.808	-200.000	0.032	0.383
-162.793	498.029	-0.136	0.308
-161.779	616.139	-0.135	0.334
-160.764	-133.502	-0.177	-0.022
-159.750	800.000	0.024	0.087
-158.735	-27.589	0.292	0.167
-157.720	186.759	-0.123	-0.180
-156.706	-40.162	-0.213	-0.109
-155.691	155.517	-0.088	0.119
-154.677	-136.573	-0.210	0.024
-153.662	54.843	-0.047	-0.044
-152.647	39.863	-0.112	-0.099
-151.633	33.757	-0.407	-0.348
-150.618	-200.000	0.022	-0.158
-149.604	-4.235	0.169	-0.115
-148.589	20.634	0.250	-0.199
-147.574	800.000	-0.056	-0.179
-146.560	38.349	0.140	-0.123
-145.545	800.000	0.095	0.399
-144.531	135.811	-0.113	0.144
-143.516	-14.330	-0.227	0.144
-142.502	59.062	-0.136	0.132
-141.487	-123.717	-0.101	0.016
-140.472	-12.513	-0.254	0.163
-139.458	-81.605	-0.282	-0.091
-138.443	722.416	0.007	0.017
-137.429	-61.257	-0.163	-0.067
-136.414	-96.750	0.233	-0.060
-135.399	-57.248	0.332	-0.144
-134.385	-87.413	0.155	0.046
-133.370	800.000	-0.029	0.114
-132.356	-3.680	-0.296	0.202
-131.341	-200.000	-0.031	-0.139
-130.326	-59.245	-0.252	0.107
-129.312	211.736	-0.117	-0.181
-128.297	-20.586	-0.073	0.044
-127.283	-111.074	0.021	-0.004
-126.268	-200.000	0.046	-0.287
-125.253	-69.035	0.258	-0.098
-124.239	-147.040	-0.540	0.045
-123.224	-58.219	0.216	0.093
-122.210	-200.000	-0.007	-0.388
-121.195	-154.092	-0.220	-0.015
