DTS Sentinel unit serial number:	SN413079Multiplexer serial number:	ORYXHardware model number:	OX4-SRSoftware version number:	ORYX F/W v4.00 Oryx Data Collector v3.7.2.0data status	okinstallation	princeton_trtdifferential loss correction	single-endedforward channel	channel 1reverse channel	N/Adate	2019/09/11time	00:04:11forward acquisition time	60.00reverse acquisition time	0.00gamma	496.2192k internal	0.2331k external	0.2331temperature offset calibration	0.9938default loss term (dB/km)	0.3790temperature slope calibration	1.0000multiplexer offset coefficient	1.0000multiplexer slope coefficient	1.0000fibre end	0.00T internal ref (°C)	29.37T ext. ref 1 (°C)	-0.29T ext. ref 2 (°C)	22.93length (m)	temperature (°C)	Stokes	anti-Stokes-747.200	-91.128	0.372	0.108
-746.185	-74.115	-0.303	-0.110
-745.171	-100.937	0.210	-0.052
-744.156	-59.570	0.128	0.055
-743.142	1.221	-0.078	0.056
-742.127	105.807	0.131	0.156
-741.112	173.703	-0.069	-0.100
-740.098	-87.962	0.102	0.031
-739.083	-66.516	0.066	0.026
-738.069	800.000	0.090	0.381
-737.054	198.765	0.147	0.227
-736.039	-101.587	0.106	0.026
-735.025	66.530	0.142	0.145
-734.010	90.474	-0.376	-0.423
-732.996	-200.000	-0.025	-0.396
-731.981	-62.761	-0.015	0.006
-730.966	-200.000	0.045	-0.254
-729.952	618.651	0.093	-0.235
-728.937	70.784	-0.078	0.082
-727.923	27.675	-0.171	-0.145
-726.908	547.322	0.092	0.222
-725.894	-67.097	-0.113	0.045
-724.879	99.028	-0.184	0.213
-723.864	204.698	-0.089	-0.139
-722.850	-200.000	-0.004	0.128
-721.835	22.078	-0.235	-0.193
-720.821	-73.901	-0.242	0.088
-719.806	-16.975	0.189	0.120
-718.791	471.886	-0.062	-0.140
-717.777	-125.822	0.173	-0.026
-716.762	-200.000	-0.008	-0.035
-715.748	800.000	-0.081	-0.277
-714.733	200.050	0.111	-0.171
-713.718	-37.323	-0.047	-0.025
-712.704	279.377	0.107	-0.192
-711.689	-86.052	0.173	-0.054
-710.675	800.000	-0.022	0.062
-709.660	36.939	-0.142	0.126
-708.645	275.907	-0.028	-0.049
-707.631	-91.543	-0.194	0.055
-706.616	-200.000	0.008	-0.297
-705.602	-27.932	0.022	0.013
-704.587	-73.034	0.199	0.073
-703.572	-200.000	-0.020	0.168
-702.558	-200.000	-0.024	0.204
-701.543	800.000	-0.047	0.136
-700.529	-159.721	0.237	-0.013
-699.514	-68.252	-0.413	-0.162
-698.499	78.922	0.256	0.275
-697.485	29.657	-0.153	0.131
-696.470	-10.350	0.194	0.129
-695.456	-200.000	0.006	0.202
-694.441	-94.884	-0.264	0.072
-693.426	-96.980	0.192	-0.051
-692.412	-129.122	0.274	0.038
-691.397	-56.298	-0.146	0.065
-690.383	-40.541	-0.101	-0.052
-689.368	-95.661	-0.511	-0.137
-688.354	46.372	-0.181	-0.168
-687.339	-64.958	0.116	0.047
-686.324	481.358	0.019	0.043
-685.310	800.000	-0.045	-0.134
-684.295	-93.610	-0.032	0.009
-683.281	332.608	-0.080	0.155
-682.266	-105.826	0.181	-0.041
-681.251	-32.680	0.213	0.119
-680.237	-108.645	-0.389	0.084
-679.222	304.361	0.171	-0.319
-678.208	-38.187	0.319	-0.170
-677.193	225.499	-0.135	-0.220
-676.178	712.690	-0.031	-0.083
-675.164	569.711	0.202	-0.494
-674.149	-200.000	0.004	-0.052
-673.135	-49.889	-0.275	-0.131
-672.120	-200.000	0.029	-0.175
-671.105	70.193	-0.173	-0.179
-670.091	67.195	-0.178	0.182
-669.076	-108.298	0.044	0.010
-668.062	28.585	0.113	-0.096
-667.047	-111.966	-0.164	-0.033
-666.032	-85.777	0.121	-0.038
-665.018	-81.539	-0.192	-0.063
-664.003	-121.544	0.353	-0.059
-662.989	-200.000	0.000	-0.326
-661.974	-200.000	0.070	0.330
-660.959	-29.744	-0.118	-0.067
-659.945	-2.864	-0.142	0.099
-658.930	-200.000	0.033	-0.229
-657.916	-160.457	0.314	-0.017
-656.901	746.776	0.015	0.041
-655.886	178.899	0.127	0.186
-654.872	-63.246	0.443	0.183
-653.857	-92.104	-0.329	-0.093
-652.843	98.406	0.119	0.137
-651.828	-200.000	-0.012	0.072
-650.814	-66.231	-0.216	-0.086
-649.799	-200.000	0.006	-0.282
-648.784	103.056	-0.074	-0.087
-647.770	-200.000	0.021	0.305
-646.755	241.543	-0.125	-0.209
-645.741	-200.000	0.007	-0.406
-644.726	-96.740	0.071	0.019
-643.711	-200.000	-0.016	0.291
-642.697	-129.014	-0.158	0.022
-641.682	-92.337	-0.066	-0.019
-640.668	45.105	0.144	-0.133
-639.653	654.149	0.134	-0.345
-638.638	-67.452	-0.047	0.019
-637.624	-174.347	-0.044	-0.001
-636.609	-48.287	0.293	-0.141
-635.595	467.699	-0.100	-0.225
-634.580	-65.552	-0.296	-0.119
-633.565	-200.000	-0.031	0.526
-632.551	-200.000	-0.028	-0.239
-631.536	-84.355	0.352	-0.112
-630.522	800.000	-0.072	-0.257
-629.507	290.396	0.066	0.120
-628.492	-46.339	0.379	-0.187
-627.478	-91.342	-0.157	-0.045
-626.463	800.000	-0.108	0.341
-625.449	800.000	0.028	0.119
-624.434	-200.000	0.007	-0.206
-623.419	-116.463	0.176	-0.032
-622.405	-85.241	-0.151	-0.047
-621.390	-141.524	-0.418	-0.042
-620.376	-47.281	-0.255	0.125
-619.361	800.000	-0.140	-0.410
-618.346	-98.598	-0.156	-0.040
-617.332	-110.608	-0.169	0.035
-616.317	-16.999	0.240	0.152
-615.303	800.000	0.026	0.075
-614.288	46.334	0.373	-0.346
-613.273	-114.937	0.204	0.039
-612.259	-159.871	0.200	-0.011
-611.244	-33.447	-0.180	-0.100
-610.230	46.607	0.196	-0.182
-609.215	-200.000	-0.006	0.044
-608.201	62.077	-0.055	-0.054
-607.186	-200.000	-0.025	0.251
-606.171	31.465	-0.187	0.161
-605.157	88.159	0.252	0.280
-604.142	65.909	-0.202	-0.205
-603.128	470.097	-0.127	-0.285
-602.113	-43.026	0.365	0.185
-601.098	-28.145	-0.217	-0.126
-600.084	86.079	0.185	-0.204
-599.069	-77.057	0.218	-0.076
-598.055	-137.496	-0.327	-0.037
-597.040	29.013	-0.156	0.132
-596.025	670.774	-0.026	0.066
-595.011	127.266	0.085	0.108
-593.996	-13.884	-0.289	-0.187
-592.982	55.532	-0.123	-0.119
-591.967	800.000	-0.086	-0.326
-590.952	256.071	-0.136	0.233
-589.938	-164.103	0.387	0.018
-588.923	20.378	0.087	-0.070
-587.909	-200.000	-0.031	-0.147
-586.894	51.537	-0.342	-0.325
-585.879	82.294	0.239	0.259
-584.865	497.578	0.047	-0.107
-583.850	101.960	0.287	-0.335
-582.836	-168.855	0.384	0.014
-581.821	-81.661	0.124	0.041
-580.806	-200.000	0.030	0.393
-579.792	-200.000	-0.010	0.316
-578.777	-200.000	-0.067	-0.331
-577.763	379.780	-0.090	-0.184
-576.748	-200.000	0.032	-0.172
-575.733	146.646	0.077	-0.103
-574.719	76.208	0.196	-0.207
-573.704	-119.767	-0.320	-0.055
-572.690	800.000	0.093	-0.335
-571.675	74.354	-0.234	-0.246
-570.661	-200.000	-0.029	-0.151
-569.646	-200.000	0.019	0.282
-568.631	800.000	0.042	0.176
-567.617	-178.812	-0.162	0.004
-566.602	-190.685	-0.162	-0.002
-565.588	-66.558	0.031	-0.012
-564.573	205.278	-0.063	0.098
-563.558	-200.000	-0.040	0.488
-562.544	-200.000	-0.020	0.299
-561.529	-79.269	0.345	-0.117
-560.515	-58.236	0.193	-0.084
-559.500	-99.486	0.403	0.101
-558.485	37.456	0.288	0.255
-557.471	-200.000	-0.002	0.156
-556.456	-200.000	0.083	0.456
-555.442	343.952	0.081	0.159
-554.427	-48.051	-0.185	0.090
-553.412	-200.000	-0.039	-0.335
-552.398	-140.102	0.347	-0.036
-551.383	800.000	-0.022	-0.090
-550.369	223.859	0.070	0.113
-549.354	-89.688	-0.198	0.058
-548.339	-53.141	-0.128	-0.059
-547.325	-200.000	0.030	0.325
-546.310	-132.099	-0.136	0.018
-545.296	139.549	-0.330	0.434
-544.281	-61.121	-0.226	0.095
-543.266	-129.256	0.081	0.011
-542.252	-6.314	0.179	-0.122
-541.237	28.130	-0.121	-0.102
-540.223	671.578	-0.026	-0.068
-539.208	284.904	0.157	-0.283
-538.193	657.606	0.092	-0.236
-537.179	66.843	0.027	-0.027
-536.164	164.744	-0.267	0.376
-535.150	43.187	0.087	-0.079
-534.135	800.000	0.075	-0.271
-533.121	-66.791	-0.087	-0.034
-532.106	405.469	-0.058	0.123
-531.091	141.963	-0.023	-0.031
-530.077	-48.680	-0.181	-0.087
-529.062	225.915	-0.088	0.142
-528.048	-200.000	0.020	0.165
-527.033	-133.915	0.048	-0.006
-526.018	68.724	-0.419	-0.430
-525.004	53.064	-0.275	0.262
-523.989	800.000	0.047	-0.170
-522.975	-146.910	-0.050	-0.004
-521.960	-117.095	-0.198	-0.036
-520.945	-200.000	0.071	-0.377
-519.931	345.048	-0.081	-0.158
-518.916	800.000	0.112	0.355
-517.902	-19.412	-0.398	0.246
-516.887	-78.558	-0.229	-0.078
-515.872	518.513	-0.039	-0.091
-514.858	10.329	-0.237	-0.180
-513.843	22.885	-0.089	0.073
-512.829	-200.000	0.004	0.019
-511.814	506.268	0.029	-0.067
-510.799	224.905	0.104	-0.167
-509.785	800.000	-0.079	-0.343
-508.770	-200.000	-0.018	0.316
-507.756	800.000	-0.061	-0.267
-506.741	-114.252	-0.170	0.033
-505.726	-57.496	0.207	0.090
-504.712	-126.108	-0.073	0.011
-503.697	-200.000	-0.001	-0.109
-502.683	-68.338	-0.154	-0.060
-501.668	156.376	0.177	0.243
-500.653	-200.000	-0.013	0.205
-499.639	800.000	-0.078	0.323
-498.624	450.092	-0.021	0.046
-497.610	440.610	0.033	0.071
-496.595	218.762	0.238	-0.379
-495.581	-19.237	0.199	0.123
-494.566	254.245	0.027	0.046
-493.551	-200.000	-0.037	-0.162
-492.537	317.581	-0.188	-0.354
-491.522	-54.461	0.272	0.123
-490.508	292.404	0.078	0.141
-489.493	-181.281	-0.153	0.003
-488.478	130.038	0.079	0.100
-487.464	65.079	0.173	0.175
-486.449	-51.491	0.261	-0.122
-485.435	-200.000	0.068	0.336
-484.420	-12.758	-0.267	-0.173
-483.405	800.000	0.060	0.198
-482.391	16.645	0.124	0.098
-481.376	-95.519	-0.188	0.050
-480.362	130.907	-0.205	-0.262
-479.347	32.839	-0.277	-0.239
-478.332	363.369	-0.027	0.054
-477.318	800.000	0.045	-0.180
-476.303	70.296	-0.113	0.116
-475.289	67.998	-0.218	0.222
-474.274	180.735	-0.104	0.152
-473.259	249.038	-0.203	0.342
-472.245	-65.043	-0.214	0.086
-471.230	-200.000	-0.062	-0.388
-470.216	170.969	-0.172	0.246
-469.201	217.991	-0.050	0.079
-468.186	170.713	-0.112	0.160
-467.172	89.144	-0.147	-0.164
-466.157	-39.808	0.193	0.100
-465.143	109.462	-0.262	-0.312
-464.128	-200.000	0.027	-0.145
-463.113	-34.210	-0.218	0.119
-462.099	-200.000	0.008	0.137
-461.084	-9.338	0.218	-0.145
-460.070	51.562	-0.315	-0.298
-459.055	295.688	-0.167	0.305
-458.040	1.471	0.326	-0.233
-457.026	-71.440	-0.268	0.100
-456.011	-105.431	-0.163	-0.037
-454.997	-60.645	0.262	0.110
-453.982	331.504	-0.104	0.200
-452.968	-5.808	0.074	0.051
-451.953	-141.684	-0.191	0.019
-450.938	-200.000	0.018	-0.250
-449.924	-200.000	-0.004	-0.126
-448.909	-200.000	-0.060	-0.486
-447.895	-200.000	-0.013	-0.372
-446.880	157.330	-0.079	0.109
-445.865	-91.837	-0.085	-0.024
-444.851	-154.546	0.182	-0.012
-443.836	-186.307	-0.322	-0.005
-442.822	800.000	-0.096	0.267
-441.807	156.139	-0.094	-0.129
-440.792	575.951	0.097	0.236
-439.778	-95.929	-0.286	0.076
-438.763	231.689	0.172	0.281
-437.749	-200.000	-0.053	-0.280
-436.734	-122.629	0.267	-0.043
-435.719	800.000	0.046	0.171
-434.705	272.030	-0.075	0.132
-433.690	354.474	-0.194	-0.384
-432.676	-200.000	-0.050	-0.359
-431.661	180.402	-0.036	-0.053
-430.646	310.251	-0.132	0.245
-429.632	23.243	-0.119	-0.098
-428.617	30.916	-0.034	0.029
-427.603	0.491	0.159	0.113
-426.588	-95.071	0.217	0.058
-425.573	-135.086	0.413	-0.049
-424.559	-37.536	-0.185	0.098
-423.544	-79.337	-0.210	-0.071
-422.530	-200.000	0.021	-0.186
-421.515	106.334	0.097	0.115
-420.500	341.942	-0.170	0.330
-419.486	-93.193	0.199	0.055
-418.471	-98.923	-0.194	-0.049
-417.457	-17.650	-0.264	-0.165
-416.442	177.380	0.143	0.207
-415.428	-170.642	0.329	-0.011
-414.413	-200.000	-0.015	0.102
-413.398	100.855	-0.088	-0.102
-412.384	-84.625	0.363	-0.114
-411.369	-200.000	-0.034	0.241
-410.355	-4.045	0.314	-0.217
-409.340	-200.000	-0.031	0.156
-408.325	-97.074	0.206	0.053
-407.311	-200.000	0.089	0.433
-406.296	-30.514	-0.345	-0.194
-405.282	800.000	-0.029	0.087
-404.267	800.000	-0.036	0.115
-403.252	393.057	0.121	-0.249
-402.238	-200.000	0.074	-0.378
-401.223	-20.061	-0.297	0.182
-400.209	9.711	0.325	0.245
-399.194	-200.000	-0.000	0.185
-398.179	800.000	-0.082	-0.265
-397.165	-190.486	0.246	0.003
-396.150	26.690	-0.180	0.149
-395.136	-200.000	-0.012	-0.074
-394.121	800.000	-0.035	-0.119
-393.106	6.477	-0.303	0.224
-392.092	-69.757	-0.273	0.104
-391.077	459.488	-0.057	-0.126
-390.063	-125.525	0.480	-0.072
-389.048	-110.452	-0.191	0.039
-388.033	-101.801	-0.241	0.058
-387.019	-136.931	-0.294	-0.033
-386.004	-200.000	0.011	-0.067
-384.990	97.719	0.102	-0.117
-383.975	97.813	0.099	0.113
-382.960	800.000	-0.054	0.152
-381.946	-59.552	-0.376	-0.160
-380.931	-87.278	-0.116	-0.035
-379.917	800.000	-0.051	-0.156
-378.902	-3.473	0.129	-0.089
-377.888	-163.573	0.305	0.014
-376.873	98.886	-0.059	-0.067
-375.858	334.373	0.128	-0.245
-374.844	158.355	-0.084	0.116
-373.829	194.239	0.026	0.040
-372.815	-200.000	0.046	0.288
-371.800	800.000	-0.041	0.157
-370.785	-200.000	-0.002	-0.092
-369.771	269.101	0.168	-0.293
-368.756	800.000	-0.065	0.252
-367.742	25.234	-0.055	-0.046
-366.727	-31.744	-0.123	-0.069
-365.712	800.000	-0.063	0.222
-364.698	434.152	-0.149	0.322
-363.683	331.170	-0.210	-0.401
-362.669	-200.000	-0.049	-0.314
-361.654	-34.625	0.210	0.114
-360.639	-113.584	0.131	-0.025
-359.625	-136.035	-0.208	0.024
-358.610	-200.000	0.013	-0.180
-357.596	-109.470	-0.153	0.032
-356.581	-200.000	0.370	0.001
-355.566	-71.851	-0.144	-0.053
-354.552	25.985	0.260	-0.215
-353.537	95.059	-0.212	0.240
-352.523	123.710	0.086	-0.107
-351.508	69.295	0.062	-0.063
-350.493	-103.040	-0.062	0.015
-349.479	800.000	-0.059	-0.181
-348.464	-200.000	-0.008	0.063
-347.450	301.271	-0.061	-0.111
-346.435	-167.428	0.257	0.010
-345.420	94.616	0.082	-0.093
-344.406	502.785	-0.090	-0.206
-343.391	-115.905	0.191	0.035
-342.377	-200.000	-0.024	0.125
-341.362	-131.931	-0.432	-0.056
-340.348	-190.113	0.110	-0.001
-339.333	-200.000	-0.044	-0.301
-338.318	-54.427	-0.237	0.107
-337.304	-12.816	0.242	-0.156
-336.289	-98.664	-0.098	-0.025
-335.275	-200.000	-0.004	0.172
-334.260	-113.004	0.256	-0.050
-333.245	-96.690	0.183	0.048
-332.231	-200.000	0.020	-0.256
-331.216	7.722	0.214	-0.159
-330.202	446.414	0.057	0.125
-329.187	60.719	-0.151	-0.148
-328.172	-147.783	0.350	-0.029
-327.158	800.000	0.018	0.076
-326.143	-16.823	-0.191	-0.120
-325.129	85.129	-0.169	0.184
-324.114	800.000	-0.073	0.247
-323.099	238.560	-0.101	-0.166
-322.085	133.977	0.047	0.060
-321.070	598.606	0.057	0.140
-320.056	17.417	-0.137	-0.107
-319.041	319.232	-0.183	0.343
-318.026	-111.714	0.052	0.011
-317.012	-59.595	0.156	-0.066
-315.997	36.103	-0.221	-0.193
-314.983	-4.115	-0.146	0.100
-313.968	9.339	-0.019	-0.014
-312.953	406.476	0.059	-0.124
-311.939	619.591	-0.067	-0.166
-310.924	-30.140	0.292	0.164
-309.910	-65.190	0.105	0.042
-308.895	-153.142	0.188	-0.013
-307.880	-169.502	0.042	-0.002
-306.866	-112.875	0.318	-0.062
-305.851	575.618	0.199	-0.481
-304.837	800.000	-0.059	0.174
-303.822	75.572	-0.133	0.139
-302.807	300.575	0.038	-0.069
-301.793	-54.747	0.236	-0.105
-300.778	23.047	0.212	-0.172
-299.764	-42.449	0.281	0.142
-298.749	97.744	-0.121	0.138
-297.735	-163.845	0.328	-0.015
-296.720	800.000	-0.053	0.183
-295.705	367.685	-0.046	0.093
-294.691	-73.432	0.079	0.029
-293.676	-30.861	0.257	0.143
-292.662	-200.000	-0.021	0.341
-291.647	-34.334	0.123	-0.067
-290.632	-50.690	0.166	0.077
-289.618	-19.123	-0.263	-0.162
-288.603	-66.813	0.487	-0.191
-287.589	33.280	0.182	0.156
-286.574	132.945	0.267	0.341
-285.559	434.287	0.093	0.199
-284.545	-31.827	0.188	0.104
-283.530	-97.646	0.169	-0.043
-282.516	68.842	0.108	0.109
-281.501	157.087	-0.220	0.301
-280.486	800.000	-0.060	-0.187
-279.472	-90.357	-0.109	-0.031
-278.457	131.911	0.290	0.369
-277.443	-19.168	-0.245	-0.150
-276.428	-53.511	0.137	-0.062
-275.413	-200.000	0.094	0.499
-274.399	-200.000	0.077	-0.399
-273.384	-139.875	0.254	-0.027
-272.370	-21.163	-0.213	0.129
-271.355	117.407	0.209	0.254
-270.340	-71.488	0.205	0.076
-269.326	-68.073	-0.301	-0.116
-268.311	-69.564	0.354	0.134
-267.297	-36.934	0.065	-0.035
-266.282	-200.000	-0.038	-0.174
-265.267	95.351	0.032	-0.036
-264.253	27.154	0.258	0.214
-263.238	800.000	0.057	0.228
-262.224	-200.000	0.011	-0.253
-261.209	318.466	-0.162	-0.303
-260.195	-10.974	0.192	0.125
-259.180	800.000	0.106	0.371
-258.165	-200.000	-0.044	-0.377
-257.151	602.393	-0.155	-0.381
-256.136	-47.239	0.465	0.224
-255.122	49.574	0.208	0.193
-254.107	-11.346	-0.345	-0.224
-253.092	800.000	-0.048	-0.190
-252.078	-45.348	-0.060	-0.029
-251.063	-200.000	0.007	-0.185
-250.049	119.693	-0.148	0.181
-249.034	403.389	-0.129	0.269
-248.019	-200.000	0.043	-0.263
-247.005	17.213	0.085	0.067
-245.990	2.265	0.159	-0.113
-244.976	-200.000	0.026	0.247
-243.961	-64.197	-0.043	-0.017
-242.946	-41.708	-0.242	0.123
-241.932	185.449	0.088	0.128
-240.917	334.374	-0.122	0.234
-239.903	-112.431	0.298	0.059
-238.888	23.646	0.329	0.267
-237.873	313.087	-0.049	0.090
-236.859	-200.000	-0.024	0.557
-235.844	-63.391	-0.231	0.094
-234.830	800.000	0.018	0.068
-233.815	27.981	0.205	-0.170
-232.800	113.702	-0.176	0.211
-231.786	144.223	-0.023	0.031
-230.771	149.007	-0.077	-0.103
-229.757	-200.000	-0.007	-0.340
-228.742	-105.812	-0.183	-0.041
-227.727	-55.146	-0.273	0.121
-226.713	55.147	0.035	-0.033
-225.698	800.000	0.099	-0.426
-224.684	-20.035	-0.072	-0.044
-223.669	800.000	0.033	0.133
-222.655	-39.531	-0.074	-0.038
-221.640	185.287	-0.184	-0.270
-220.625	89.300	-0.083	0.091
-219.611	-41.982	-0.241	0.122
-218.596	269.625	0.040	-0.069
-217.582	-200.000	0.007	0.115
-216.567	539.610	0.056	0.130
-215.552	377.115	0.264	-0.533
-214.538	-56.230	0.219	0.096
-213.523	800.000	-0.111	0.426
-212.509	25.290	0.090	0.073
-211.494	-200.000	-0.102	-0.457
-210.479	-155.609	0.195	-0.012
-209.465	-98.644	0.363	0.091
-208.450	22.132	-0.038	-0.030
-207.436	-200.000	-0.160	-0.001
-206.421	707.396	0.010	-0.027
-205.406	-200.000	0.034	0.200
-204.392	35.571	0.168	-0.145
-203.377	-175.330	-0.393	-0.011
-202.363	278.570	-0.157	0.276
-201.348	-160.435	-0.069	-0.004
-200.333	-123.784	0.216	-0.034
-199.319	35.852	-0.199	0.173
-198.304	800.000	0.020	-0.058
-197.290	576.869	-0.086	-0.207
-196.275	-7.869	0.193	-0.128
-195.260	-132.463	0.172	0.022
-194.246	156.881	-0.086	-0.117
-193.231	1.178	0.098	0.069
-192.217	15.151	0.047	0.036
-191.202	115.664	-0.099	0.120
-190.187	-74.210	0.249	0.089
-189.173	66.502	-0.149	-0.150
-188.158	-50.192	0.165	0.077
-187.144	64.992	-0.250	0.249
-186.129	-200.000	-0.015	0.192
-185.114	-105.078	-0.216	0.049
-184.100	-200.000	-0.015	0.165
-183.085	-200.000	-0.025	-0.158
-182.071	-43.554	-0.201	-0.100
-181.056	212.829	-0.106	0.165
-180.042	358.267	0.180	0.354
-179.027	178.102	0.210	0.301
-178.012	513.013	-0.037	0.085
-176.998	-71.231	-0.335	-0.124
-175.983	-200.000	-0.017	-0.153
-174.969	394.790	0.111	-0.228
-173.954	-200.000	0.005	-0.035
-172.939	-101.115	-0.067	0.016
-171.925	-108.782	0.247	-0.052
-170.910	-165.591	0.110	-0.005
-169.896	-22.166	-0.245	0.146
-168.881	-65.986	0.087	-0.034
-167.866	781.024	-0.084	-0.225
-166.852	19.169	0.174	0.138
-165.837	-64.856	-0.130	0.052
-164.823	-106.333	-0.326	0.072
-163.808	-106.406	0.263	0.058
-162.793	-131.206	0.075	0.010
-161.779	371.067	0.018	0.036
-160.764	800.000	0.118	0.380
-159.750	80.038	0.149	-0.158
-158.735	-60.617	-0.433	0.181
-157.720	-62.537	0.210	-0.086
-156.706	-155.277	0.187	-0.012
-155.691	-200.000	-0.272	0.001
-154.677	216.406	0.115	0.180
-153.662	-200.000	0.072	-0.366
-152.647	-200.000	0.014	-0.253
-151.633	-82.394	0.100	-0.032
-150.618	800.000	-0.055	0.158
-149.604	27.636	-0.218	-0.180
-148.589	-13.967	-0.155	0.098
-147.574	-200.000	-0.022	-0.147
-146.560	52.132	0.092	-0.086
-145.545	166.230	0.056	0.078
-144.531	-200.000	-0.002	0.194
-143.516	-41.146	0.236	0.120
-142.502	-65.442	-0.034	-0.013
-141.487	-87.406	0.089	-0.026
-140.472	53.389	0.021	0.020
-139.458	-77.205	-0.176	0.060
-138.443	-54.813	0.358	0.159
-137.429	292.200	-0.049	0.087
-136.414	-4.282	-0.210	-0.143
-135.399	-97.473	0.211	0.054
-134.385	-200.000	0.044	-0.361
-133.370	-200.000	-0.020	0.102
-132.356	394.208	-0.129	-0.263
-131.341	-22.638	-0.214	-0.127
-130.326	-18.640	-0.205	-0.126
-129.312	800.000	0.060	-0.217
-128.297	-133.635	-0.075	0.009
-127.283	-200.000	0.027	0.203
-126.268	637.361	0.094	-0.235
-125.253	-200.000	0.019	-0.150
-124.239	-102.812	0.080	0.019
-123.224	-200.000	-0.005	-0.262
-122.210	9.116	-0.064	-0.047
