DTS Sentinel unit serial number:	SN413079Multiplexer serial number:	ORYXHardware model number:	OX4-SRSoftware version number:	ORYX F/W v4.00 Oryx Data Collector v3.7.2.0data status	okinstallation	princeton_trtdifferential loss correction	single-endedforward channel	channel 1reverse channel	N/Adate	2019/09/11time	04:28:11forward acquisition time	60.00reverse acquisition time	0.00gamma	496.2192k internal	0.2331k external	0.2331temperature offset calibration	0.9926default loss term (dB/km)	0.3790temperature slope calibration	1.0000multiplexer offset coefficient	1.0000multiplexer slope coefficient	1.0000fibre end	0.00T internal ref (°C)	29.56T ext. ref 1 (°C)	-0.28T ext. ref 2 (°C)	23.43length (m)	temperature (°C)	Stokes	anti-Stokes-747.200	22.699	-0.152	-0.125
-746.185	521.682	-0.064	0.152
-745.171	-138.250	0.184	-0.021
-744.156	-83.045	-0.296	0.096
-743.142	121.489	0.304	-0.381
-742.127	7.027	-0.360	0.270
-741.112	-200.000	0.063	-0.472
-740.098	-44.104	-0.395	0.200
-739.083	712.359	-0.071	0.189
-738.069	-159.431	-0.403	-0.023
-737.054	-200.000	0.032	-0.175
-736.039	-85.477	-0.340	0.107
-735.025	-91.307	0.463	-0.133
-734.010	-143.600	-0.558	0.053
-732.996	-23.298	-0.203	0.123
-731.981	-200.000	-0.018	-0.082
-730.966	136.832	-0.101	0.133
-729.952	42.094	0.082	0.075
-728.937	476.472	-0.080	0.183
-727.923	-200.000	0.004	-0.066
-726.908	164.382	0.087	0.124
-725.894	-21.226	0.221	-0.136
-724.879	225.328	-0.211	-0.343
-723.864	131.946	-0.108	0.140
-722.850	46.955	0.062	-0.058
-721.835	188.322	-0.096	0.144
-720.821	-142.260	-0.153	-0.015
-719.806	-130.590	-0.297	-0.040
-718.791	725.326	-0.081	-0.216
-717.777	-27.317	-0.273	-0.160
-716.762	800.000	0.056	0.195
-715.748	774.810	-0.059	-0.162
-714.733	-24.228	0.220	0.132
-713.718	399.713	-0.059	0.124
-712.704	-137.296	0.168	-0.019
-711.689	-200.000	-0.043	-0.204
-710.675	-128.476	0.344	-0.049
-709.660	142.210	-0.113	-0.151
-708.645	-24.630	-0.193	0.116
-707.631	-40.013	-0.297	-0.156
-706.616	-72.898	0.216	0.080
-705.602	-200.000	0.032	0.412
-704.587	-141.314	-0.396	-0.040
-703.572	35.274	-0.244	0.215
-702.558	143.742	-0.111	-0.149
-701.543	-200.000	-0.014	-0.176
-700.529	-98.673	0.441	-0.113
-699.514	800.000	-0.023	-0.083
-698.499	535.181	0.118	-0.282
-697.485	9.106	0.058	-0.044
-696.470	29.944	0.054	0.046
-695.456	219.310	-0.061	-0.098
-694.441	69.785	0.242	-0.250
-693.426	-137.194	-0.089	0.010
-692.412	-200.000	-0.020	-0.256
-691.397	-200.000	-0.416	-0.001
-690.383	16.477	0.205	0.163
-689.368	128.701	0.082	-0.105
-688.354	-103.825	-0.646	0.152
-687.339	-67.847	-0.193	0.076
-686.324	745.809	0.143	0.386
-685.310	-103.581	-0.308	-0.073
-684.295	494.722	0.091	0.209
-683.281	800.000	-0.026	-0.095
-682.266	-43.960	-0.089	-0.045
-681.251	-51.089	0.209	0.098
-680.237	-126.548	-0.329	-0.049
-679.222	-192.671	-0.245	-0.002
-678.208	-29.144	0.239	0.138
-677.193	-99.538	0.179	-0.045
-676.178	800.000	0.042	0.121
-675.164	800.000	0.048	-0.207
-674.149	92.860	0.327	0.371
-673.135	124.940	-0.095	0.120
-672.120	800.000	-0.072	-0.291
-671.105	75.136	-0.188	-0.199
-670.091	-79.090	-0.069	0.023
-669.076	-24.224	0.142	-0.085
-668.062	245.767	-0.102	-0.172
-667.047	55.684	0.122	0.119
-666.032	125.968	-0.219	-0.278
-665.018	800.000	-0.047	0.183
-664.003	-139.740	0.097	0.010
-662.989	-11.977	-0.059	0.039
-661.974	800.000	0.041	-0.128
-660.959	-98.790	0.178	0.046
-659.945	-54.671	0.145	0.066
-658.930	-4.375	-0.083	-0.058
-657.916	529.779	-0.073	0.173
-656.901	106.605	0.108	-0.128
-655.886	-200.000	-0.036	-0.424
-654.872	-24.939	0.185	-0.110
-653.857	77.897	0.068	-0.073
-652.843	-8.762	0.271	-0.182
-651.828	-200.000	-0.068	-0.318
-650.814	-77.502	-0.175	0.061
-649.799	657.917	0.077	0.199
-648.784	-44.421	0.273	0.137
-647.770	-89.526	-0.071	-0.021
-646.755	-48.575	-0.081	0.039
-645.741	55.159	0.135	-0.131
-644.726	649.039	-0.015	0.037
-643.711	35.245	-0.118	0.104
-642.697	-136.726	-0.330	-0.038
-641.682	-83.191	-0.229	0.074
-640.668	129.266	-0.236	-0.302
-639.653	-200.000	0.009	-0.500
-638.638	169.500	-0.102	-0.145
-637.624	-200.000	0.053	-0.375
-636.609	57.291	-0.155	-0.152
-635.595	111.738	-0.148	0.179
-634.580	315.610	-0.071	0.134
-633.565	-125.496	-0.547	-0.083
-632.551	394.495	0.130	0.272
-631.536	-61.089	0.235	0.100
-630.522	-129.921	-0.126	0.017
-629.507	-73.748	0.142	-0.052
-628.492	616.406	-0.062	0.157
-627.478	800.000	-0.044	0.161
-626.463	345.729	-0.147	-0.289
-625.449	173.684	0.258	0.373
-624.434	-3.348	-0.421	0.294
-623.419	-53.735	-0.174	-0.080
-622.405	35.178	0.195	0.172
-621.390	-200.000	-0.049	-0.215
-620.376	193.203	0.200	-0.303
-619.361	800.000	-0.006	0.017
-618.346	128.699	-0.034	0.044
-617.332	101.994	-0.377	0.440
-616.317	539.054	0.146	-0.347
-615.303	-200.000	-0.012	-0.208
-614.288	800.000	0.073	-0.287
-613.273	68.738	0.095	-0.098
-612.259	-34.688	0.254	-0.139
-611.244	-130.063	0.452	0.062
-610.230	75.301	-0.093	-0.098
-609.215	-22.058	0.249	-0.151
-608.201	-200.000	0.058	0.306
-607.186	44.606	-0.027	-0.025
-606.171	-106.674	-0.078	-0.017
-605.157	-84.623	0.318	0.100
-604.142	114.051	-0.195	-0.238
-603.128	286.355	-0.172	0.311
-602.113	-184.934	-0.218	-0.003
-601.098	-200.000	-0.029	-0.139
-600.084	-200.000	-0.033	0.165
-599.069	-136.624	-0.335	-0.039
-598.055	-53.237	0.240	0.110
-597.040	800.000	-0.076	0.259
-596.025	-62.177	0.161	0.067
-595.011	-10.693	0.100	0.066
-593.996	74.571	-0.042	0.044
-592.982	86.508	-0.183	-0.202
-591.967	36.180	0.111	0.098
-590.952	88.202	0.213	-0.236
-589.938	196.120	-0.023	-0.035
-588.923	83.795	-0.096	0.105
-587.909	-200.000	0.012	0.238
-586.894	-200.000	0.031	-0.155
-585.879	-200.000	-0.014	-0.171
-584.865	485.813	-0.003	0.006
-583.850	-74.630	0.356	0.128
-582.836	800.000	-0.033	-0.112
-581.821	-180.726	-0.111	-0.002
-580.806	635.177	0.055	0.139
-579.792	83.617	-0.093	0.101
-578.777	3.487	0.161	-0.117
-577.763	-55.183	-0.558	-0.251
-576.748	376.307	0.224	-0.458
-575.733	136.621	0.099	-0.129
-574.719	800.000	-0.051	-0.195
-573.704	-83.650	-0.076	-0.024
-572.690	216.167	-0.169	-0.269
-571.675	-200.000	-0.026	-0.202
-570.661	-145.992	-0.316	0.028
-569.646	-76.182	-0.335	-0.118
-568.631	272.659	-0.128	-0.227
-567.617	-200.000	0.022	0.159
-566.602	-100.712	0.245	-0.060
-565.588	-200.000	0.024	-0.127
-564.573	99.990	-0.169	0.196
-563.558	378.554	-0.056	-0.115
-562.544	-84.943	-0.249	-0.078
-561.529	-42.596	-0.197	0.100
-560.515	687.936	-0.041	-0.108
-559.500	-200.000	-0.025	-0.178
-558.485	-48.120	-0.234	0.113
-557.471	196.438	-0.169	-0.257
-556.456	-200.000	-0.052	-0.319
-555.442	-114.740	-0.099	0.019
-554.427	794.718	0.124	0.342
-553.412	-46.619	-0.119	-0.058
-552.398	5.676	-0.211	-0.156
-551.383	182.859	0.117	0.172
-550.369	204.268	-0.109	-0.169
-549.354	800.000	0.018	-0.056
-548.339	-164.319	-0.200	0.009
-547.325	83.156	0.108	-0.118
-546.310	-200.000	-0.016	-0.081
-545.296	246.746	0.126	0.211
-544.281	-23.786	-0.192	-0.115
-543.266	-63.933	-0.114	0.046
-542.252	-200.000	-0.065	-0.449
-541.237	-94.886	0.168	0.045
-540.223	185.733	-0.102	-0.152
-539.208	-200.000	0.019	-0.262
-538.193	13.201	-0.196	-0.151
-537.179	-29.080	0.409	-0.234
-536.164	198.715	0.177	0.271
-535.150	-29.333	0.321	-0.183
-534.135	157.405	-0.208	0.288
-533.121	29.666	0.127	0.108
-532.106	619.303	0.068	-0.170
-531.091	115.322	0.102	0.124
-530.077	800.000	0.106	0.305
-529.062	-57.406	0.055	-0.024
-528.048	307.918	-0.107	0.199
-527.033	276.789	-0.041	0.073
-526.018	69.600	0.309	0.317
-525.004	-200.000	-0.023	0.146
-523.989	800.000	-0.052	-0.215
-522.975	800.000	-0.040	-0.131
-521.960	-200.000	0.000	0.224
-520.945	91.778	-0.251	0.282
-519.931	645.059	0.179	-0.457
-518.916	-137.235	0.098	0.011
-517.902	-28.582	-0.142	-0.082
-516.887	488.402	0.045	0.102
-515.872	-200.000	0.029	-0.243
-514.858	-56.074	-0.109	0.048
-513.843	520.340	0.140	0.328
-512.829	-36.887	0.112	0.060
-511.814	-135.873	-0.128	-0.015
-510.799	-185.637	-0.022	-0.000
-509.785	-200.000	-0.006	0.110
-508.770	214.103	0.068	-0.107
-507.756	339.028	-0.226	0.439
-506.741	-151.959	0.201	0.015
-505.726	163.751	0.068	-0.096
-504.712	-34.370	-0.047	0.025
-503.697	-162.296	-0.225	-0.011
-502.683	-129.257	0.220	0.031
-501.668	-200.000	-0.023	0.112
-500.653	262.502	-0.139	-0.241
-499.639	75.814	-0.195	-0.205
-498.624	-69.026	0.089	-0.034
-497.610	167.619	-0.121	-0.171
-496.595	491.188	0.019	0.042
-495.581	78.069	-0.175	-0.186
-494.566	-122.346	-0.603	0.098
-493.551	-20.973	-0.076	-0.047
-492.537	-74.718	-0.138	0.049
-491.522	254.334	0.202	0.344
-490.508	264.572	0.184	0.318
-489.493	160.743	0.128	0.178
-488.478	-163.413	-0.243	0.012
-487.464	-144.930	-0.097	0.009
-486.449	800.000	0.058	-0.187
-485.435	-172.788	-0.303	0.009
-484.420	98.907	-0.032	0.037
-483.405	-169.855	0.334	0.012
-482.391	-21.624	-0.102	-0.062
-481.376	800.000	0.084	0.305
-480.362	-4.151	0.039	-0.027
-479.347	-77.040	0.503	0.175
-478.332	43.914	-0.128	0.116
-477.318	800.000	-0.069	-0.283
-476.303	107.211	-0.184	0.218
-475.289	-200.000	0.042	0.252
-474.274	75.688	0.237	0.249
-473.259	-183.042	-0.473	-0.008
-472.245	-132.029	-0.119	-0.015
-471.230	239.458	-0.040	-0.067
-470.216	-109.864	0.060	0.013
-469.201	-91.674	0.461	0.131
-468.186	-200.000	-0.000	-0.285
-467.172	-200.000	0.051	-0.272
-466.157	497.149	-0.060	0.136
-465.143	265.956	-0.041	-0.071
-464.128	14.695	-0.407	0.316
-463.113	-28.628	-0.288	-0.165
-462.099	500.884	0.080	-0.184
-461.084	-67.933	0.350	-0.136
-460.070	12.428	-0.245	0.188
-459.055	800.000	-0.050	-0.199
-458.040	-200.000	-0.021	-0.217
-457.026	20.716	0.073	0.059
-456.011	-101.269	-0.076	-0.018
-454.997	-66.583	-0.136	0.054
-453.982	63.343	0.164	-0.164
-452.968	-200.000	0.091	0.500
-451.953	155.581	0.183	0.251
-450.938	-10.844	0.176	-0.116
-449.924	800.000	-0.076	0.278
-448.909	-200.000	-0.003	-0.191
-447.895	106.466	0.250	0.295
-446.880	-200.000	0.004	0.330
-445.865	-174.949	0.111	0.003
-444.851	-18.757	-0.096	-0.059
-443.836	-167.785	0.037	0.001
-442.822	380.747	0.044	0.091
-441.807	800.000	-0.093	0.375
-440.792	800.000	-0.015	0.048
-439.778	726.408	-0.089	0.235
-438.763	-15.687	0.362	-0.229
-437.749	230.508	-0.136	-0.221
-436.734	-200.000	-0.030	-0.318
-435.719	-200.000	0.009	0.222
-434.705	7.033	0.146	-0.108
-433.690	-124.380	-0.119	-0.018
-432.676	10.983	0.233	-0.177
-431.661	-91.230	-0.193	0.055
-430.646	265.547	0.066	0.115
-429.632	-200.000	-0.019	0.347
-428.617	20.888	0.273	0.220
-427.603	426.963	0.057	-0.123
-426.588	800.000	0.047	0.194
-425.573	-200.000	0.007	0.099
-424.559	-153.706	0.081	-0.006
-423.544	-3.728	0.217	0.150
-422.530	-98.977	-0.290	-0.073
-421.515	-15.876	0.072	0.046
-420.500	474.525	0.047	-0.104
-419.486	-73.195	-0.153	-0.056
-418.471	-200.000	0.007	-0.215
-417.457	-40.291	-0.023	-0.012
-416.442	800.000	-0.075	-0.248
-415.428	-200.000	-0.001	-0.308
-414.413	-200.000	0.032	-0.151
-413.398	164.315	-0.074	-0.104
-412.384	68.444	0.039	0.040
-411.369	-200.000	-0.026	0.413
-410.355	575.899	0.055	0.133
-409.340	-120.789	0.614	0.103
-408.325	-138.982	0.269	-0.029
-407.311	-200.000	-0.005	0.058
-406.296	57.866	-0.115	-0.112
-405.282	150.450	0.018	-0.024
-404.267	32.522	0.177	0.152
-403.252	29.597	-0.205	-0.173
-402.238	-82.382	-0.135	-0.044
-401.223	688.010	0.037	0.095
-400.209	-100.649	0.217	-0.053
-399.194	20.972	-0.215	0.173
-398.179	74.058	0.166	0.173
-397.165	-200.000	-0.023	0.267
-396.150	800.000	-0.082	0.226
-395.136	-200.000	0.002	0.251
-394.121	800.000	0.068	0.213
-393.106	100.884	0.140	0.161
-392.092	-161.628	-0.393	0.020
-391.077	-92.731	0.412	-0.115
-390.063	-146.546	-0.097	0.008
-389.048	-117.411	-0.203	-0.037
-388.033	338.498	0.030	0.059
-387.019	-92.947	0.250	0.069
-386.004	32.950	0.239	0.205
-384.990	51.637	-0.214	0.202
-383.975	-200.000	-0.038	0.230
-382.960	97.225	-0.148	-0.168
-381.946	279.055	0.128	-0.226
-380.931	-10.755	0.065	-0.042
-379.917	-200.000	0.012	0.193
-378.902	-200.000	0.056	-0.597
-377.888	-39.952	0.124	0.064
-376.873	568.766	-0.154	0.371
-375.858	-57.435	0.229	0.100
-374.844	800.000	-0.079	-0.268
-373.829	-37.683	0.130	0.069
-372.815	-69.398	-0.339	0.129
-371.800	151.489	-0.120	0.161
-370.785	258.054	-0.106	0.181
-369.771	75.386	-0.148	0.155
-368.756	-154.701	-0.191	0.013
-367.742	-127.346	-0.112	0.016
-366.727	-109.252	0.183	0.038
-365.712	208.824	0.139	-0.215
-364.698	-200.000	0.016	0.117
-363.683	-70.488	-0.343	0.129
-362.669	725.340	-0.116	0.306
-361.654	-89.240	0.118	-0.034
-360.639	91.598	0.251	0.279
-359.625	132.552	0.037	-0.047
-358.610	-97.831	0.096	-0.025
-357.596	-86.934	0.078	0.024
-356.581	800.000	-0.076	-0.286
-355.566	164.531	0.198	-0.277
-354.552	-200.000	-0.032	-0.149
-353.537	-78.849	0.111	0.038
-352.523	800.000	-0.070	0.201
-351.508	94.343	-0.273	0.307
-350.493	800.000	0.036	0.147
-349.479	-99.210	0.128	0.032
-348.464	-47.333	-0.233	-0.113
-347.450	-200.000	-0.048	0.239
-346.435	52.341	0.238	0.225
-345.420	43.762	-0.320	-0.290
-344.406	242.897	-0.131	-0.218
-343.391	548.617	0.084	0.199
-342.377	27.654	0.332	-0.277
-341.362	-99.799	-0.153	-0.038
-340.348	179.598	0.210	-0.304
-339.333	483.020	-0.002	0.005
-338.318	-93.863	-0.161	0.044
-337.304	-200.000	0.009	-0.045
-336.289	-137.952	-0.308	-0.034
-335.275	-117.588	0.166	-0.030
-334.260	43.510	0.028	0.026
-333.245	170.810	-0.124	0.176
-332.231	-183.698	-0.323	0.005
-331.216	-67.868	0.147	-0.057
-330.202	731.250	-0.094	0.248
-329.187	-50.237	-0.167	0.078
-328.172	113.346	-0.248	-0.298
-327.158	351.011	0.152	-0.297
-326.143	-62.181	0.186	0.077
-325.129	67.664	0.165	-0.167
-324.114	-97.898	-0.165	0.042
-323.099	-60.586	0.098	-0.041
-322.085	-200.000	0.004	-0.262
-321.070	157.562	-0.132	-0.180
-320.056	-77.774	-0.312	0.107
-319.041	800.000	0.034	0.113
-318.026	-200.000	0.031	0.139
-317.012	69.821	0.216	-0.221
-315.997	-15.101	0.112	0.071
-314.983	177.907	-0.132	0.191
-313.968	-145.810	0.232	0.020
-312.953	64.412	0.102	0.102
-311.939	-73.098	-0.021	-0.008
-310.924	-99.123	0.178	-0.045
-309.910	139.008	0.049	-0.064
-308.895	-120.676	0.360	0.060
-307.880	800.000	0.054	-0.176
-306.866	-65.384	-0.018	-0.007
-305.851	361.442	-0.036	-0.071
-304.837	30.737	0.131	-0.111
-303.822	-200.000	-0.000	-0.354
-302.807	800.000	-0.025	-0.087
-301.793	113.074	-0.075	0.090
-300.778	-137.873	0.092	-0.010
-299.764	183.386	0.042	-0.062
-298.749	-200.000	-0.001	-0.181
-297.735	719.468	-0.132	-0.348
-296.720	109.752	-0.294	0.348
-295.705	221.576	0.096	-0.152
-294.691	-86.448	-0.456	-0.138
-293.676	800.000	0.112	-0.366
-292.662	-200.000	-0.006	0.076
-291.647	193.304	-0.091	-0.137
-290.632	385.908	-0.103	-0.211
-289.618	-42.807	0.020	-0.010
-288.603	-36.601	-0.201	-0.107
-287.589	800.000	0.024	-0.072
-286.574	800.000	-0.007	-0.023
-285.559	-112.805	-0.208	-0.041
-284.545	-200.000	0.009	0.133
-283.530	129.340	-0.126	0.159
-282.516	-25.474	0.130	-0.076
-281.501	246.836	0.076	0.126
-280.486	-159.305	0.296	0.016
-279.472	181.190	0.181	-0.264
-278.457	-75.013	-0.345	-0.122
-277.443	-200.000	-0.029	0.153
-276.428	800.000	0.044	0.170
-275.413	800.000	-0.078	-0.274
-274.399	-139.834	0.092	0.010
-273.384	-200.000	0.008	0.136
-272.370	-44.894	0.066	-0.033
-271.355	36.877	0.249	0.217
-270.340	-200.000	-0.001	0.393
-269.326	460.314	-0.023	-0.050
-268.311	38.650	0.225	-0.199
-267.297	-7.187	-0.208	-0.139
-266.282	-138.456	0.417	0.045
-265.267	-64.773	-0.356	0.142
-264.253	56.338	0.237	-0.227
-263.238	681.846	0.100	-0.258
-262.224	-56.938	-0.208	0.090
-261.209	56.773	0.116	0.111
-260.195	443.099	0.104	-0.225
-259.180	-114.918	0.200	0.038
-258.165	604.928	-0.045	-0.111
-257.151	75.567	-0.236	0.246
-256.136	386.143	0.251	0.511
-255.122	-200.000	0.010	0.121
-254.107	98.500	-0.088	0.101
-253.092	61.466	-0.154	-0.151
-252.078	333.891	0.100	0.192
-251.063	-116.324	0.205	0.037
-250.049	505.822	0.053	0.122
-249.034	-200.000	0.051	-0.305
-248.019	-200.000	-0.002	-0.394
-247.005	134.327	0.166	-0.212
-245.990	-46.302	-0.081	0.039
-244.976	-200.000	0.015	-0.080
-243.961	29.329	-0.191	0.160
-242.946	-66.071	0.239	0.094
-241.932	-45.497	0.133	-0.065
-240.917	319.095	0.303	-0.566
-239.903	147.641	-0.220	-0.293
-238.888	-104.197	0.187	0.043
-237.873	-133.553	-0.326	-0.040
-236.859	-165.731	-0.309	0.013
-235.844	176.064	0.217	0.310
-234.830	-113.608	0.276	-0.053
-233.815	230.658	0.113	0.182
-232.800	-70.108	0.033	-0.012
-231.786	-200.000	-0.047	0.386
-230.771	800.000	0.134	-0.398
-229.757	-53.755	-0.344	-0.155
-228.742	248.905	0.076	-0.127
-227.727	175.388	-0.166	-0.237
-226.713	-77.692	-0.173	-0.059
-225.698	-34.072	-0.125	0.068
-224.684	-32.238	0.254	0.140
-223.669	-200.000	-0.103	-0.477
-222.655	93.809	-0.222	0.248
-221.640	2.228	-0.202	0.144
-220.625	-151.605	0.179	0.013
-219.611	37.856	0.149	0.130
-218.596	377.049	-0.081	0.162
-217.582	-1.493	-0.300	0.209
-216.567	8.909	0.172	-0.128
-215.552	92.078	0.157	-0.175
-214.538	151.194	-0.223	0.299
-213.523	-0.029	-0.359	-0.252
-212.509	800.000	-0.064	-0.244
-211.494	800.000	-0.028	-0.081
-210.479	-82.753	0.265	-0.084
-209.465	648.476	0.082	0.206
-208.450	-105.434	-0.069	0.015
-207.436	50.390	-0.229	0.213
-206.421	-77.345	0.157	-0.054
-205.406	-200.000	-0.009	-0.320
-204.392	800.000	-0.031	-0.105
-203.377	262.485	0.207	-0.354
-202.363	-15.101	0.174	0.110
-201.348	-200.000	0.080	-0.358
-200.333	-171.652	0.159	0.005
-199.319	146.071	-0.018	0.023
-198.304	46.793	-0.035	-0.032
-197.290	123.009	0.153	0.188
-196.275	-200.000	-0.070	0.469
-195.260	-52.863	-0.431	0.196
-194.246	-188.383	-0.333	0.004
-193.231	34.176	-0.278	0.238
-192.217	216.151	-0.065	-0.102
-191.202	62.373	0.188	0.185
-190.187	-200.000	0.014	0.370
-189.173	192.771	0.077	0.114
-188.158	130.782	-0.109	0.138
-187.144	-5.208	-0.192	0.130
-186.129	-184.569	0.133	-0.002
-185.114	-200.000	0.042	0.438
-184.100	-113.459	0.183	-0.035
-183.085	210.402	-0.028	-0.043
-182.071	41.055	-0.331	0.294
-181.056	-191.155	0.154	0.002
-180.042	228.527	0.114	0.182
-179.027	-6.767	-0.067	-0.045
-178.012	-0.718	0.279	-0.194
-176.998	-55.486	-0.106	0.047
-175.983	-41.116	0.364	-0.185
-174.969	117.609	0.207	0.250
-173.954	361.741	-0.068	-0.134
-172.939	102.489	0.114	-0.131
-171.925	70.415	0.255	-0.259
-170.910	-7.601	-0.200	-0.133
-169.896	-40.382	-0.243	-0.124
-168.881	800.000	0.058	-0.182
-167.866	-1.236	0.327	0.227
-166.852	-107.926	0.235	0.050
-165.837	684.200	0.087	-0.223
-164.823	4.849	-0.075	-0.054
-163.808	271.018	0.131	-0.227
-162.793	-200.000	-0.010	0.053
-161.779	-183.886	0.512	-0.008
-160.764	12.248	0.255	0.193
-159.750	-61.622	0.286	0.118
-158.735	-123.706	0.043	-0.007
-157.720	-141.967	-0.260	0.025
-156.706	141.750	0.158	-0.206
-155.691	150.797	0.119	0.158
-154.677	-31.357	0.302	-0.167
-153.662	-128.643	-0.219	0.030
-152.647	800.000	-0.073	0.232
-151.633	99.338	0.043	-0.049
-150.618	800.000	0.067	-0.273
-149.604	-60.615	-0.349	0.146
-148.589	-130.647	0.259	-0.034
-147.574	36.231	-0.094	0.081
-146.560	216.738	0.092	0.144
-145.545	48.023	0.144	0.133
-144.531	80.254	-0.132	0.140
-143.516	-115.383	0.194	0.036
-142.502	-161.864	0.457	0.023
-141.487	-15.787	-0.209	0.131
-140.472	278.747	0.189	0.332
-139.458	-181.688	0.358	0.007
-138.443	-55.947	-0.227	-0.100
-137.429	185.700	0.156	0.228
-136.414	261.930	-0.057	0.098
-135.399	144.566	0.176	0.231
-134.385	150.699	0.123	0.164
-133.370	-200.000	-0.047	-0.207
-132.356	-73.060	0.306	0.110
-131.341	-200.000	-0.005	0.069
-130.326	458.629	-0.105	-0.230
-129.312	96.185	-0.201	-0.226
-128.297	24.070	0.148	-0.120
-127.283	-193.956	0.168	-0.001
-126.268	-72.236	0.119	0.043
-125.253	800.000	0.064	-0.186
-124.239	189.289	0.135	-0.198
-123.224	-137.229	-0.226	-0.025
-122.210	-200.000	-0.011	-0.224
-121.195	-143.471	-0.073	-0.007
