DTS Sentinel unit serial number:	SN413079Multiplexer serial number:	ORYXHardware model number:	OX4-SRSoftware version number:	ORYX F/W v4.00 Oryx Data Collector v3.7.2.0data status	okinstallation	princeton_trtdifferential loss correction	single-endedforward channel	channel 1reverse channel	N/Adate	2019/09/11time	08:12:11forward acquisition time	60.00reverse acquisition time	0.00gamma	496.2192k internal	0.2319k external	0.2319temperature offset calibration	1.0008default loss term (dB/km)	0.3790temperature slope calibration	1.0000multiplexer offset coefficient	1.0000multiplexer slope coefficient	1.0000fibre end	0.00T internal ref (°C)	32.45T ext. ref 1 (°C)	0.90T ext. ref 2 (°C)	29.27length (m)	temperature (°C)	Stokes	anti-Stokes-747.200	-200.000	0.027	-0.141
-746.185	79.902	-0.164	0.178
-745.171	-96.378	-0.355	0.095
-744.156	800.000	-0.059	-0.233
-743.142	-50.169	0.088	0.042
-742.127	388.563	0.119	0.249
-741.112	-97.698	0.284	-0.074
-740.098	124.243	-0.184	0.234
-739.083	-134.158	0.234	-0.029
-738.069	328.422	-0.243	0.471
-737.054	11.424	-0.460	-0.357
-736.039	-200.000	0.004	0.203
-735.025	-200.000	0.015	0.117
-734.010	-133.444	-0.427	-0.054
-732.996	-155.265	-0.377	0.025
-731.981	-66.607	0.393	-0.158
-730.966	-147.987	-0.152	0.013
-729.952	-56.817	-0.269	0.120
-728.937	-40.871	-0.283	0.148
-727.923	48.832	-0.168	-0.160
-726.908	185.969	0.153	-0.230
-725.894	250.961	0.092	-0.158
-724.879	800.000	0.101	-0.342
-723.864	-144.702	-0.195	-0.018
-722.850	800.000	0.103	-0.451
-721.835	800.000	-0.061	0.263
-720.821	-66.447	-0.164	0.066
-719.806	39.226	-0.036	0.032
-718.791	800.000	-0.098	0.337
-717.777	-37.374	-0.269	-0.145
-716.762	800.000	-0.035	0.124
-715.748	-200.000	0.027	-0.337
-714.733	718.227	-0.083	-0.223
-713.718	-200.000	-0.073	-0.408
-712.704	15.489	-0.156	-0.124
-711.689	-51.601	-0.050	-0.023
-710.675	-135.972	-0.076	-0.009
-709.660	64.982	0.227	-0.232
-708.645	5.563	-0.250	-0.187
-707.631	800.000	0.098	0.399
-706.616	-200.000	0.031	-0.418
-705.602	-53.481	0.159	-0.074
-704.587	139.795	-0.214	-0.285
-703.572	-154.552	-0.214	-0.014
-702.558	7.185	-0.116	0.087
-701.543	-96.885	0.081	0.021
-700.529	62.470	-0.125	-0.126
-699.514	130.711	0.066	-0.086
-698.499	-88.918	0.138	-0.041
-697.485	61.058	0.060	-0.060
-696.470	-120.021	-0.262	0.045
-695.456	530.567	0.071	-0.169
-694.441	509.151	0.023	-0.053
-693.426	-200.000	0.041	0.184
-692.412	278.507	-0.050	-0.091
-691.397	-200.000	-0.039	-0.315
-690.383	-138.660	-0.176	0.019
-689.368	-99.372	-0.052	0.013
-688.354	-143.988	0.205	-0.019
-687.339	238.864	-0.130	-0.219
-686.324	-173.007	-0.268	0.008
-685.310	-200.000	-0.028	0.234
-684.295	159.182	-0.117	0.164
-683.281	800.000	0.025	-0.075
-682.266	-115.075	0.111	-0.021
-681.251	-122.625	-0.263	0.043
-680.237	534.140	0.034	-0.081
-679.222	-40.822	-0.192	0.100
-678.208	-200.000	-0.077	0.468
-677.193	800.000	-0.024	-0.078
-676.178	19.488	-0.076	0.061
-675.164	-200.000	0.046	0.307
-674.149	-115.485	-0.160	0.030
-673.135	274.317	0.100	-0.179
-672.120	44.336	0.193	0.179
-671.105	169.532	0.173	0.250
-670.091	-165.902	0.061	-0.003
-669.076	-200.000	-0.005	0.307
-668.062	-200.000	-0.010	-0.083
-667.047	359.531	0.123	0.249
-666.032	-200.000	0.036	0.327
-665.018	-29.869	-0.118	-0.068
-664.003	800.000	-0.070	0.259
-662.989	319.730	0.202	-0.387
-661.974	367.836	0.143	-0.291
-660.959	-29.684	0.149	-0.086
-659.945	248.593	-0.125	0.214
-658.930	-170.482	0.162	-0.006
-657.916	-200.000	-0.006	0.117
-656.901	-113.316	-0.062	0.012
-655.886	-112.803	0.324	-0.065
-654.872	-147.375	-0.229	0.020
-653.857	-2.067	-0.085	-0.060
-652.843	226.447	-0.145	-0.237
-651.828	75.206	-0.074	-0.079
-650.814	800.000	-0.039	0.159
-649.799	-85.136	-0.138	-0.043
-648.784	67.512	0.143	-0.147
-647.770	245.271	0.130	-0.221
-646.755	-113.673	-0.161	-0.032
-645.741	649.469	-0.054	-0.140
-644.726	-200.000	-0.007	0.253
-643.711	108.294	0.111	-0.134
-642.697	-200.000	-0.013	0.244
-641.682	318.215	-0.147	0.281
-640.668	119.060	0.116	-0.145
-639.653	15.758	-0.054	0.043
-638.638	-200.000	0.019	-0.117
-637.624	180.557	-0.097	0.143
-636.609	406.140	-0.075	0.159
-635.595	-147.818	-0.300	0.025
-634.580	0.115	-0.078	-0.056
-633.565	41.752	-0.176	0.161
-632.551	-78.638	-0.206	-0.071
-631.536	67.097	-0.235	0.241
-630.522	-200.000	0.049	0.276
-629.507	-22.836	0.316	-0.192
-628.492	-52.133	0.106	-0.050
-627.478	127.473	-0.129	0.165
-626.463	-146.853	0.407	0.035
-625.449	-186.696	0.243	0.003
-624.434	-117.587	-0.114	-0.021
-623.419	-9.783	-0.076	0.051
-622.405	-111.129	-0.204	0.042
-621.390	-109.218	0.096	0.021
-620.376	800.000	-0.083	-0.362
-619.361	-200.000	-0.051	-0.240
-618.346	-41.745	0.197	-0.102
-617.332	120.491	0.084	-0.106
-616.317	-200.000	-0.018	0.138
-615.303	557.394	-0.083	0.201
-614.288	-200.000	0.024	-0.186
-613.273	206.104	0.184	-0.288
-612.259	-200.000	0.005	-0.162
-611.244	84.052	0.181	0.199
-610.230	170.425	-0.113	-0.162
-609.215	-18.488	-0.188	0.118
-608.201	-200.000	0.002	-0.422
-607.186	800.000	-0.081	-0.240
-606.171	-90.874	0.405	0.117
-605.157	-112.615	-0.279	-0.056
-604.142	291.202	0.122	-0.224
-603.128	-84.410	-0.236	-0.075
-602.113	63.184	0.249	0.251
-601.098	93.839	-0.183	0.209
-600.084	-124.258	0.187	-0.029
-599.069	800.000	-0.069	0.202
-598.055	-200.000	0.058	0.258
-597.040	-140.813	-0.593	-0.061
-596.025	800.000	0.091	-0.297
-595.011	800.000	-0.067	-0.253
-593.996	-56.129	-0.238	-0.106
-592.982	-171.708	0.152	-0.005
-591.967	-57.413	-0.073	-0.032
-590.952	608.332	0.040	-0.101
-589.938	22.618	0.094	0.077
-588.923	676.006	0.127	-0.331
-587.909	38.518	-0.046	-0.042
-586.894	800.000	-0.049	0.185
-585.879	-56.040	0.161	0.072
-584.865	-66.610	-0.227	0.090
-583.850	-128.612	0.046	-0.007
-582.836	-104.378	0.191	-0.044
-581.821	-56.360	0.108	0.048
-580.806	628.521	0.104	-0.264
-579.792	-16.788	0.314	-0.199
-578.777	6.616	-0.086	-0.064
-577.763	-200.000	-0.016	0.086
-576.748	-90.082	-0.280	0.082
-575.733	-200.000	-0.023	0.230
-574.719	800.000	0.040	0.162
-573.704	-200.000	-0.030	-0.213
-572.690	-200.000	0.036	-0.185
-571.675	-200.000	0.000	0.204
-570.661	242.697	0.146	0.245
-569.646	-200.000	0.044	0.245
-568.631	-200.000	-0.031	-0.142
-567.617	800.000	-0.023	-0.097
-566.602	-163.774	0.040	-0.002
-565.588	40.313	-0.143	-0.129
-564.573	84.289	-0.105	-0.115
-563.558	-87.945	0.316	-0.096
-562.544	-106.025	-0.252	-0.057
-561.529	800.000	0.020	0.076
-560.515	-200.000	-0.032	0.333
-559.500	-200.000	0.001	-0.145
-558.485	276.210	-0.178	-0.318
-557.471	-99.170	0.221	0.056
-556.456	124.866	0.089	0.113
-555.442	-113.628	0.135	0.026
-554.427	45.758	0.018	-0.017
-553.412	509.706	-0.042	0.099
-552.398	-71.367	-0.117	0.044
-551.383	8.261	0.164	0.123
-550.369	-200.000	0.054	0.414
-549.354	-130.657	0.217	-0.029
-548.339	-20.370	-0.305	0.189
-547.325	123.685	-0.119	0.150
-546.310	204.924	-0.198	-0.309
-545.296	84.581	-0.209	-0.229
-544.281	-116.464	0.229	-0.042
-543.266	28.599	-0.543	0.461
-542.252	-200.000	-0.045	-0.264
-541.237	-52.367	-0.185	0.086
-540.223	68.550	0.154	-0.159
-539.208	148.638	0.021	-0.028
-538.193	118.743	0.129	0.160
-537.179	-200.000	-0.046	0.276
-536.164	-200.000	-0.047	0.227
-535.150	113.174	-0.015	-0.018
-534.135	169.917	-0.139	-0.199
-533.121	800.000	0.122	-0.432
-532.106	-13.567	-0.107	0.070
-531.091	24.404	0.307	0.254
-530.077	-200.000	-0.009	-0.394
-529.062	-121.838	0.035	-0.006
-528.048	-96.666	-0.180	-0.048
-527.033	39.836	0.243	-0.219
-526.018	-26.066	-0.103	0.061
-525.004	-200.000	0.071	-0.330
-523.989	-200.000	-0.017	-0.283
-522.975	-200.000	0.047	-0.246
-521.960	22.832	-0.206	-0.170
-520.945	-75.112	-0.230	0.083
-519.931	800.000	0.025	0.103
-518.916	-200.000	-0.003	-0.014
-517.902	14.188	0.063	0.049
-516.887	-85.747	-0.239	-0.074
-515.872	-200.000	0.046	0.312
-514.858	-92.043	-0.290	0.082
-513.843	80.048	0.126	-0.136
-512.829	2.909	-0.136	0.099
-511.814	63.672	0.151	0.152
-510.799	-31.973	-0.086	0.048
-509.785	54.905	-0.244	0.237
-508.770	629.676	-0.013	0.033
-507.756	-106.970	0.092	-0.020
-506.741	-77.238	0.117	-0.041
-505.726	800.000	-0.132	-0.374
-504.712	-200.000	-0.036	0.164
-503.697	26.822	-0.163	0.137
-502.683	85.539	-0.027	-0.030
-501.668	-147.745	-0.421	0.035
-500.653	-200.000	0.025	-0.204
-499.639	-168.790	0.196	-0.007
-498.624	800.000	-0.061	0.252
-497.610	-83.305	-0.016	0.005
-496.595	-75.893	0.270	0.096
-495.581	-92.096	0.063	-0.018
-494.566	-8.223	-0.195	-0.131
-493.551	-200.000	-0.066	-0.299
-492.537	-101.661	-0.196	0.048
-491.522	-200.000	-0.065	0.284
-490.508	-140.238	0.346	0.036
-489.493	-200.000	0.091	-0.422
-488.478	342.420	-0.100	-0.195
-487.464	-200.000	0.049	-0.279
-486.449	106.046	0.278	0.330
-485.435	-200.000	-0.012	0.256
-484.420	536.567	-0.037	0.087
-483.405	451.917	-0.128	-0.284
-482.391	-94.630	-0.087	0.024
-481.376	-200.000	0.035	-0.253
-480.362	-151.333	-0.298	0.022
-479.347	-6.930	-0.170	-0.116
-478.332	800.000	0.089	-0.274
-477.318	-143.057	-0.351	-0.034
-476.303	456.117	-0.065	0.145
-475.289	-67.037	0.122	0.048
-474.274	-34.073	0.039	-0.021
-473.259	145.698	0.242	0.325
-472.245	70.318	0.246	0.254
-471.230	-200.000	0.001	0.246
-470.216	-185.616	0.052	-0.001
-469.201	800.000	-0.028	0.122
-468.186	-200.000	0.042	-0.201
-467.172	46.727	-0.087	0.081
-466.157	-63.102	-0.209	0.086
-465.143	115.937	0.083	0.102
-464.128	-136.178	-0.104	-0.012
-463.113	-200.000	-0.007	0.186
-462.099	110.285	-0.132	-0.158
-461.084	800.000	-0.087	0.334
-460.070	202.691	0.089	-0.137
-459.055	207.852	-0.098	-0.153
-458.040	-200.000	-0.021	-0.254
-457.026	-18.429	0.069	0.043
-456.011	-34.760	0.369	0.202
-454.997	189.654	0.089	0.134
-453.982	75.460	-0.052	-0.055
-452.968	59.735	-0.094	0.093
-451.953	-1.257	-0.361	-0.255
-450.938	613.675	-0.113	0.284
-449.924	-166.057	0.135	0.006
-448.909	800.000	0.083	-0.329
-447.895	-36.374	-0.134	0.072
-446.880	222.310	0.012	-0.020
-445.865	-114.315	-0.162	0.031
-444.851	-6.333	0.040	0.028
-443.836	-200.000	-0.032	0.313
-442.822	-200.000	0.005	-0.046
-441.807	-25.358	0.147	0.087
-440.792	-60.257	0.138	0.059
-439.778	-200.000	-0.007	-0.034
-438.763	514.980	-0.050	-0.116
-437.749	70.733	-0.125	0.129
-436.734	-5.980	-0.099	0.067
-435.719	-139.054	0.135	0.015
-434.705	-139.169	0.192	0.021
-433.690	-200.000	-0.034	0.411
-432.676	-200.000	-0.057	0.528
-431.661	65.403	-0.170	-0.172
-430.646	-98.115	-0.245	-0.063
-429.632	143.035	-0.103	0.137
-428.617	-136.992	-0.231	0.026
-427.603	-170.047	-0.082	0.003
-426.588	9.493	0.036	0.027
-425.573	-131.798	-0.244	0.032
-424.559	68.427	-0.114	-0.116
-423.544	-3.338	-0.248	0.173
-422.530	136.094	0.082	0.107
-421.515	-200.000	-0.006	0.159
-420.500	273.757	0.203	0.358
-419.486	251.764	-0.136	-0.231
-418.471	160.307	0.098	-0.137
-417.457	312.129	-0.092	0.172
-416.442	-200.000	-0.015	0.386
-415.428	429.284	-0.122	0.263
-414.413	-123.833	-0.285	-0.045
-413.398	800.000	0.084	0.313
-412.384	118.650	0.202	0.249
-411.369	258.313	0.202	0.347
-410.355	800.000	0.123	0.370
-409.340	-76.146	0.318	-0.112
-408.325	174.450	0.108	-0.156
-407.311	-200.000	0.046	0.231
-406.296	-67.199	-0.223	0.088
-405.282	-79.548	0.179	-0.060
-404.267	-91.266	0.281	-0.080
-403.252	27.197	0.299	0.250
-402.238	175.531	-0.056	-0.081
-401.223	434.653	-0.047	-0.103
-400.209	127.108	0.133	-0.169
-399.194	-71.954	-0.431	-0.160
-398.179	-110.245	-0.160	-0.033
-397.165	-200.000	0.030	-0.153
-396.150	245.473	0.054	0.091
-395.136	-57.762	0.265	-0.116
-394.121	-28.265	0.264	-0.152
-393.106	484.027	-0.098	-0.223
-392.092	634.452	-0.071	0.179
-391.077	125.294	-0.098	0.123
-390.063	204.159	-0.152	-0.234
-389.048	157.049	0.112	-0.154
-388.033	131.831	-0.139	0.178
-387.019	-50.985	-0.167	-0.078
-386.004	-89.645	0.420	-0.123
-384.990	484.483	0.094	-0.213
-383.975	-103.708	0.047	0.011
-382.960	42.837	0.161	0.146
-381.946	-200.000	0.006	0.046
-380.931	-45.173	-0.222	-0.110
-379.917	3.199	0.154	0.112
-378.902	142.793	-0.072	-0.096
-377.888	35.709	-0.130	-0.114
-376.873	-200.000	-0.076	-0.415
-375.858	-22.090	0.238	0.144
-374.844	-135.965	0.234	0.027
-373.829	-103.213	0.444	-0.105
-372.815	-80.591	-0.292	-0.097
-371.800	127.621	0.232	0.293
-370.785	253.771	-0.139	-0.236
-369.771	-200.000	0.069	-0.322
-368.756	287.841	0.038	-0.069
-367.742	-17.614	-0.120	0.075
-366.727	11.032	0.128	0.098
-365.712	195.635	-0.035	-0.053
-364.698	704.525	0.081	-0.212
-363.683	6.205	-0.173	0.128
-362.669	107.761	-0.132	-0.156
-361.654	-200.000	0.024	0.341
-360.639	-163.994	0.137	0.006
-359.625	16.569	0.169	0.133
-358.610	193.452	0.137	0.206
-357.596	800.000	-0.066	0.207
-356.581	-187.512	0.327	-0.004
-355.566	-63.119	-0.142	-0.058
-354.552	112.345	0.099	-0.119
-353.537	101.621	-0.206	-0.239
-352.523	119.792	-0.080	0.099
-351.508	665.979	-0.071	0.183
-350.493	-93.030	0.160	-0.044
-349.479	800.000	-0.045	0.156
-348.464	75.751	0.298	0.314
-347.450	130.673	-0.095	0.122
-346.435	-36.840	0.147	-0.079
-345.420	-81.201	-0.168	0.055
-344.406	476.103	-0.068	-0.154
-343.391	800.000	-0.013	0.056
-342.377	119.056	-0.109	0.134
-341.362	-65.171	0.295	0.119
-340.348	-200.000	0.016	0.530
-339.333	-64.690	0.471	-0.190
-338.318	23.875	-0.352	0.289
-337.304	706.439	0.163	0.428
-336.289	800.000	-0.104	-0.365
-335.275	213.784	0.153	-0.241
-334.260	121.377	0.150	-0.186
-333.245	-1.138	0.074	-0.052
-332.231	-2.742	0.169	-0.117
-331.216	-70.596	0.142	-0.054
-330.202	-153.224	0.188	-0.013
-329.187	-200.000	-0.014	-0.141
-328.172	-200.000	0.006	-0.141
-327.158	242.045	0.130	-0.217
-326.143	800.000	0.052	0.145
-325.129	427.980	0.109	-0.234
-324.114	-200.000	0.052	-0.271
-323.099	34.589	-0.055	-0.048
-322.085	472.850	0.067	0.150
-321.070	64.063	0.126	0.126
-320.056	-45.793	-0.544	0.268
-319.041	800.000	0.007	0.025
-318.026	-123.888	0.214	-0.034
-317.012	-51.572	-0.104	0.048
-315.997	-200.000	0.007	0.152
-314.983	329.734	-0.039	0.075
-313.968	800.000	0.056	-0.174
-312.953	-108.630	-0.142	0.030
-311.939	473.646	-0.087	0.196
-310.924	-200.000	0.059	0.263
-309.910	-7.137	-0.182	-0.123
-308.895	-200.000	-0.059	0.293
-307.880	-71.172	0.141	-0.053
-306.866	4.669	-0.095	-0.069
-305.851	-72.136	-0.141	0.052
-304.837	-132.253	-0.311	0.040
-303.822	800.000	-0.075	-0.288
-302.807	800.000	0.040	0.117
-301.793	-155.180	-0.269	0.017
-300.778	99.302	0.147	0.169
-299.764	-135.119	0.249	-0.030
-298.749	-200.000	0.024	-0.403
-297.735	-36.947	-0.151	0.080
-296.720	27.105	0.090	-0.075
-295.705	-102.489	0.244	-0.058
-294.691	-200.000	0.029	0.195
-293.676	-19.293	0.115	0.071
-292.662	800.000	0.040	-0.133
-291.647	-34.276	0.088	0.048
-290.632	-69.571	0.274	-0.104
-289.618	84.367	-0.195	0.212
-288.603	-200.000	0.013	0.268
-287.589	-137.537	-0.077	-0.009
-286.574	121.134	-0.232	-0.287
-285.559	-200.000	0.013	-0.324
-284.545	374.221	0.021	0.042
-283.530	4.454	0.095	-0.069
-282.516	-110.586	0.176	0.036
-281.501	172.260	0.288	0.411
-280.486	-11.986	-0.228	0.149
-279.472	44.986	-0.096	0.088
-278.457	-3.399	0.230	0.159
-277.443	-74.995	-0.215	-0.076
-276.428	-101.891	-0.241	0.058
-275.413	800.000	0.116	0.366
-274.399	800.000	0.088	0.307
-273.384	-94.276	-0.181	0.049
-272.370	202.834	-0.015	0.023
-271.355	-200.000	0.015	-0.205
-270.340	49.863	0.097	-0.091
-269.326	-39.800	-0.074	-0.039
-268.311	-200.000	0.023	-0.244
-267.297	-103.179	-0.130	-0.031
-266.282	-16.051	0.291	-0.184
-265.267	202.789	0.161	-0.247
-264.253	-29.881	0.154	-0.087
-263.238	348.046	0.209	0.409
-262.224	252.856	0.081	-0.138
-261.209	56.634	-0.113	0.109
-260.195	-47.153	0.176	0.085
-259.180	-116.444	0.277	0.051
-258.165	435.702	0.094	0.203
-257.151	-181.811	-0.138	0.003
-256.136	-108.995	-0.263	0.056
-255.122	230.850	0.043	-0.070
-254.107	800.000	-0.005	0.014
-253.092	9.638	0.266	-0.200
-252.078	9.525	0.323	0.243
-251.063	279.636	-0.095	0.168
-250.049	-79.654	0.124	0.042
-249.034	86.166	-0.183	0.200
-248.019	-23.288	0.197	0.118
-247.005	75.371	0.152	-0.160
-245.990	-200.000	-0.004	0.154
-244.976	-97.907	-0.302	-0.077
-243.961	392.311	0.105	-0.216
-242.946	-37.037	-0.097	0.051
-241.932	9.695	0.325	-0.244
-240.917	-117.602	0.211	-0.038
-239.903	523.411	0.161	-0.374
-238.888	138.274	0.094	-0.122
-237.873	800.000	-0.032	-0.108
-236.859	-66.865	-0.181	0.071
-235.844	92.070	0.081	-0.090
-234.830	110.683	-0.114	0.136
-233.815	219.634	-0.157	-0.249
-232.800	-200.000	0.005	-0.169
-231.786	800.000	0.039	-0.158
-230.771	-168.420	-0.368	-0.014
-229.757	800.000	0.062	-0.170
-228.742	-29.918	0.192	-0.108
-227.727	-200.000	-0.032	0.156
-226.713	-8.622	-0.064	-0.042
-225.698	-115.805	-0.117	0.022
-224.684	-200.000	-0.006	-0.165
-223.669	130.276	-0.048	-0.060
-222.655	-200.000	-0.060	-0.268
-221.640	104.207	0.118	-0.138
-220.625	-110.451	-0.315	0.065
-219.611	-131.375	-0.227	-0.030
-218.596	533.933	0.114	-0.268
-217.582	79.388	0.171	-0.182
-216.567	24.166	0.210	-0.172
-215.552	-200.000	-0.010	-0.211
-214.538	13.138	-0.222	-0.170
-213.523	-185.629	0.101	0.002
-212.509	-23.991	0.328	0.194
-211.494	800.000	-0.073	0.233
-210.479	-46.272	0.248	0.121
-209.465	-61.386	0.161	-0.067
-208.450	-82.896	-0.315	0.101
-207.436	-200.000	0.007	0.060
-206.421	-200.000	0.082	0.414
-205.406	-157.429	0.114	-0.007
-204.392	-200.000	-0.005	-0.062
-203.377	121.183	0.200	-0.247
-202.363	72.137	-0.144	0.148
-201.348	106.500	-0.295	0.346
-200.333	145.094	-0.176	-0.234
-199.319	-31.257	0.017	0.009
-198.304	249.665	0.143	0.239
-197.290	151.881	-0.250	-0.338
-196.275	-41.655	-0.388	-0.197
-195.260	-114.872	-0.211	0.040
-194.246	39.778	0.265	-0.235
-193.231	-200.000	0.013	-0.087
-192.217	800.000	-0.019	-0.076
-191.202	-200.000	-0.012	0.092
-190.187	101.145	-0.251	-0.289
-189.173	17.605	0.325	-0.256
-188.158	-114.859	-0.247	-0.047
-187.144	59.964	-0.324	-0.317
-186.129	93.672	0.338	0.379
-185.114	578.094	0.077	-0.186
-184.100	140.455	0.112	0.147
-183.085	-73.925	0.256	0.092
-182.071	-106.798	-0.286	-0.063
-181.056	109.371	0.171	0.202
-180.042	123.499	-0.159	-0.197
-179.027	-42.778	-0.198	0.100
-178.012	9.814	-0.136	-0.102
-176.998	75.457	-0.132	-0.138
-175.983	-200.000	-0.023	-0.132
-174.969	261.332	-0.033	-0.057
-173.954	-200.000	0.046	-0.294
-172.939	81.329	0.054	-0.058
-171.925	29.809	0.038	-0.032
-170.910	-110.762	-0.157	-0.032
-169.896	-121.305	-0.306	-0.051
-168.881	800.000	0.058	-0.172
-167.866	-110.366	0.311	0.064
-166.852	-52.426	-0.288	-0.132
-165.837	-4.243	-0.086	0.059
-164.823	-83.120	0.243	-0.077
-163.808	-68.903	0.249	0.095
-162.793	-66.333	0.173	-0.068
-161.779	-23.479	-0.105	0.062
-160.764	-200.000	0.024	-0.210
-159.750	6.939	-0.148	0.109
-158.735	495.064	0.132	0.299
-157.720	539.948	0.050	0.118
-156.706	85.109	-0.181	0.196
-155.691	-121.691	0.118	-0.019
-154.677	800.000	0.008	0.030
-153.662	209.406	0.139	0.216
-152.647	-200.000	0.020	-0.168
-151.633	243.118	-0.110	0.181
-150.618	-200.000	-0.021	0.195
-149.604	-200.000	0.002	0.090
-148.589	109.403	-0.070	-0.083
-147.574	1.553	-0.138	0.098
-146.560	-200.000	-0.011	0.178
-145.545	800.000	-0.008	-0.031
-144.531	-134.103	-0.297	-0.036
-143.516	-200.000	0.040	0.225
-142.502	-139.110	-0.302	0.032
-141.487	206.659	-0.214	0.330
-140.472	-30.321	-0.456	0.256
-139.458	10.775	-0.125	-0.094
-138.443	-70.207	0.266	-0.100
-137.429	213.679	-0.040	0.063
-136.414	171.434	-0.140	-0.198
-135.399	51.393	-0.074	0.070
-134.385	-132.304	0.035	0.004
-133.370	-177.827	-0.258	-0.006
-132.356	-200.000	-0.025	-0.141
-131.341	304.755	0.075	0.137
-130.326	800.000	0.086	-0.252
-129.312	345.604	-0.036	0.070
-128.297	2.437	-0.134	0.096
-127.283	352.541	-0.163	0.319
-126.268	53.249	-0.079	-0.075
-125.253	-200.000	0.046	-0.347
-124.239	-32.539	-0.380	-0.209
-123.224	-93.973	0.143	-0.039
-122.210	-116.261	0.123	-0.023
