DTS Sentinel unit serial number:	SN413079Multiplexer serial number:	ORYXHardware model number:	OX4-SRSoftware version number:	ORYX F/W v4.00 Oryx Data Collector v3.7.2.0data status	okinstallation	princeton_trtdifferential loss correction	single-endedforward channel	channel 1reverse channel	N/Adate	2019/09/16time	18:54:35forward acquisition time	60.00reverse acquisition time	0.00gamma	496.2192k internal	0.2310k external	0.2310temperature offset calibration	0.9943default loss term (dB/km)	0.3790temperature slope calibration	1.0000multiplexer offset coefficient	1.0000multiplexer slope coefficient	1.0000fibre end	0.00T internal ref (°C)	35.80T ext. ref 1 (°C)	0.07T ext. ref 2 (°C)	29.12length (m)	temperature (°C)	Stokes	anti-Stokes-747.200	180.017	0.163	0.242
-746.185	4.988	0.217	0.162
-745.171	-1.012	-0.202	-0.145
-744.156	-135.698	0.217	-0.026
-743.142	800.000	-0.176	-0.509
-742.127	-99.531	-0.377	-0.096
-741.112	-131.383	0.399	0.054
-740.098	-200.000	-0.028	0.494
-739.083	-149.094	0.223	0.018
-738.069	-85.208	-0.040	-0.013
-737.054	96.790	-0.105	0.122
-736.039	-120.823	-0.155	-0.027
-735.025	-142.571	-0.210	0.021
-734.010	-65.629	-0.229	-0.093
-732.996	-71.149	-0.325	-0.124
-731.981	-92.309	-0.342	-0.098
-730.966	800.000	0.037	-0.143
-729.952	-200.000	-0.070	-0.378
-728.937	137.913	-0.081	-0.108
-727.923	151.862	0.007	0.010
-726.908	800.000	0.041	-0.151
-725.894	-77.507	-0.125	-0.044
-724.879	52.113	-0.072	0.069
-723.864	-75.328	-0.479	-0.173
-722.850	800.000	0.124	-0.348
-721.835	-158.008	-0.082	-0.005
-720.821	165.464	-0.261	-0.375
-719.806	-200.000	0.015	-0.097
-718.791	-200.000	0.017	-0.217
-717.777	-37.041	-0.308	0.167
-716.762	-200.000	0.031	0.183
-715.748	77.740	0.158	0.171
-714.733	800.000	-0.076	-0.318
-713.718	800.000	0.081	-0.344
-712.704	-200.000	-0.083	-0.390
-711.689	-116.298	-0.405	0.076
-710.675	68.201	0.183	0.191
-709.660	-200.000	0.017	0.174
-708.645	-25.065	-0.364	-0.219
-707.631	-156.084	0.146	0.009
-706.616	-21.376	-0.094	-0.058
-705.602	-137.236	0.159	-0.018
-704.587	117.088	0.022	-0.028
-703.572	401.613	0.217	0.463
-702.558	283.101	0.131	-0.239
-701.543	-53.270	0.092	0.043
-700.529	-200.000	0.036	0.179
-699.514	-64.241	0.074	-0.031
-698.499	-53.534	-0.040	0.018
-697.485	-200.000	-0.070	0.349
-696.470	-67.898	-0.325	0.129
-695.456	608.352	0.049	-0.124
-694.441	108.294	0.088	-0.107
-693.426	-153.011	-0.503	0.036
-692.412	64.525	0.135	-0.138
-691.397	-200.000	0.007	0.087
-690.383	-20.639	0.284	-0.177
-689.368	105.262	-0.295	-0.353
-688.354	-139.551	0.176	0.019
-687.339	129.551	-0.087	-0.113
-686.324	-200.000	0.019	0.280
-685.310	-131.377	-0.390	-0.052
-684.295	497.630	-0.079	-0.183
-683.281	115.440	0.057	0.070
-682.266	51.436	0.036	0.035
-681.251	126.752	-0.052	0.066
-680.237	5.269	-0.271	0.203
-679.222	644.879	-0.106	-0.275
-678.208	-90.220	-0.101	0.030
-677.193	40.962	0.066	0.060
-676.178	191.092	0.105	0.159
-675.164	-113.113	0.234	-0.047
-674.149	206.503	-0.134	-0.211
-673.135	-9.722	-0.168	0.113
-672.120	-75.115	-0.074	-0.027
-671.105	326.709	-0.103	0.201
-670.091	800.000	-0.063	0.238
-669.076	-133.145	-0.208	-0.027
-668.062	633.684	-0.152	-0.390
-667.047	134.252	-0.190	-0.249
-666.032	36.165	-0.396	0.353
-665.018	-200.000	-0.030	0.426
-664.003	760.731	-0.053	-0.145
-662.989	621.073	0.135	-0.344
-661.974	-63.959	0.179	0.074
-660.959	484.990	-0.052	-0.121
-659.945	-94.555	-0.177	0.049
-658.930	494.607	-0.028	0.066
-657.916	25.122	0.199	-0.168
-656.901	463.142	-0.077	0.175
-655.886	800.000	-0.111	0.386
-654.872	442.343	-0.077	-0.170
-653.857	-43.955	0.378	-0.192
-652.843	222.424	-0.166	-0.271
-651.828	-116.781	-0.086	0.016
-650.814	-157.923	0.238	0.014
-649.799	-200.000	0.000	-0.212
-648.784	-47.504	0.380	0.187
-647.770	315.282	-0.175	-0.333
-646.755	-109.372	-0.324	-0.069
-645.741	-200.000	-0.065	-0.301
-644.726	40.424	-0.244	0.222
-643.711	-16.918	0.185	0.119
-642.697	-200.000	-0.007	-0.282
-641.682	-66.075	-0.336	0.135
-640.668	-200.000	-0.021	0.225
-639.653	237.982	-0.083	-0.139
-638.638	114.543	0.235	-0.290
-637.624	86.756	-0.152	-0.170
-636.609	-105.253	0.197	0.045
-635.595	563.327	0.019	-0.047
-634.580	-200.000	0.013	0.081
-633.565	-13.957	0.211	-0.138
-632.551	280.431	-0.096	0.173
-631.536	268.195	-0.053	-0.094
-630.522	-102.598	-0.261	-0.063
-629.507	5.503	-0.169	-0.127
-628.492	434.146	0.159	0.350
-627.478	800.000	-0.093	0.267
-626.463	-121.701	0.648	0.108
-625.449	-200.000	0.000	0.208
-624.434	-200.000	-0.054	0.285
-623.419	440.556	0.098	0.218
-622.405	-86.064	0.320	-0.100
-621.390	-3.404	-0.294	-0.207
-620.376	260.099	0.029	0.051
-619.361	-44.695	0.100	-0.050
-618.346	-200.000	0.020	-0.126
-617.332	16.529	-0.209	0.167
-616.317	46.056	-0.159	-0.149
-615.303	395.944	-0.196	-0.414
-614.288	800.000	0.060	-0.217
-613.273	-165.327	-0.183	0.008
-612.259	-141.711	-0.204	-0.021
-611.244	656.074	0.021	-0.054
-610.230	-200.000	0.032	0.339
-609.215	161.114	0.153	-0.216
-608.201	263.054	0.088	-0.154
-607.186	-200.000	-0.022	-0.212
-606.171	54.994	0.170	-0.166
-605.157	-104.028	-0.232	0.055
-604.142	-139.258	0.183	0.020
-603.128	800.000	-0.070	-0.240
-602.113	-9.090	-0.077	0.052
-601.098	100.215	0.144	-0.169
-600.084	-54.091	0.264	0.121
-599.069	-56.200	0.118	0.053
-598.055	-91.016	0.268	-0.078
-597.040	-103.509	-0.348	-0.083
-596.025	2.282	-0.263	0.192
-595.011	-66.120	-0.222	0.089
-593.996	629.718	-0.064	-0.164
-592.982	-200.000	0.014	0.258
-591.967	679.873	0.063	-0.167
-590.952	800.000	0.045	-0.126
-589.938	-200.000	0.001	0.211
-588.923	-44.856	0.327	0.165
-587.909	-152.538	-0.043	-0.003
-586.894	375.291	0.080	-0.165
-585.879	352.107	0.209	-0.419
-584.865	-200.000	0.073	-0.329
-583.850	-56.687	0.114	-0.051
-582.836	-200.000	-0.045	0.206
-581.821	-143.660	-0.089	-0.008
-580.806	-200.000	-0.001	-0.200
-579.792	154.358	-0.203	-0.281
-578.777	643.517	0.108	-0.277
-577.763	-200.000	-0.023	-0.310
-576.748	107.857	0.087	-0.105
-575.733	-200.000	-0.003	-0.266
-574.719	800.000	-0.057	0.180
-573.704	38.773	0.196	-0.177
-572.690	-84.701	0.314	-0.100
-571.675	-11.299	-0.036	0.024
-570.661	161.072	0.223	0.315
-569.646	156.398	-0.173	-0.241
-568.631	-149.250	-0.121	-0.010
-567.617	26.569	-0.174	-0.147
-566.602	-93.365	0.118	-0.033
-565.588	-53.028	-0.202	0.094
-564.573	-200.000	-0.018	0.093
-563.558	-56.774	-0.189	0.084
-562.544	-200.000	0.010	0.205
-561.529	800.000	0.048	0.182
-560.515	108.556	0.300	-0.362
-559.500	800.000	0.035	-0.114
-558.485	800.000	-0.065	-0.254
-557.471	-200.000	-0.035	-0.298
-556.456	-200.000	-0.037	-0.411
-555.442	79.150	-0.165	-0.178
-554.427	-89.451	0.092	-0.027
-553.412	219.512	-0.235	-0.379
-552.398	-31.879	-0.385	0.218
-551.383	-200.000	-0.015	0.140
-550.369	-200.000	-0.059	-0.590
-549.354	-52.165	-0.280	-0.131
-548.339	373.362	-0.050	-0.102
-547.325	67.889	0.040	-0.041
-546.310	-2.854	-0.181	0.128
-545.296	-200.000	0.007	0.176
-544.281	-200.000	0.091	0.449
-543.266	71.063	0.147	0.153
-542.252	387.106	0.078	-0.162
-541.237	-200.000	-0.017	0.268
-540.223	254.962	0.111	0.191
-539.208	-61.728	0.271	-0.115
-538.193	-86.408	0.142	0.044
-537.179	250.911	0.236	-0.405
-536.164	-166.074	0.182	0.008
-535.150	-74.742	0.048	0.017
-534.135	-70.087	0.270	0.104
-533.121	-200.000	-0.063	-0.467
-532.106	12.984	-0.072	-0.056
-531.091	-124.351	0.216	-0.034
-530.077	179.041	-0.135	0.199
-529.062	800.000	-0.056	0.244
-528.048	134.751	0.227	-0.296
-527.033	-52.662	0.294	0.137
-526.018	-39.029	-0.051	-0.027
-525.004	-60.588	0.091	-0.039
-523.989	-65.354	0.191	-0.077
-522.975	-129.901	-0.354	0.049
-521.960	408.257	0.076	0.161
-520.945	800.000	-0.082	0.349
-519.931	132.893	-0.103	0.134
-518.916	-26.312	0.191	0.113
-517.902	321.341	-0.159	0.304
-516.887	-71.124	0.203	-0.077
-515.872	-99.487	-0.230	-0.058
-514.858	79.910	0.113	0.122
-513.843	-105.493	-0.194	-0.044
-512.829	117.972	0.164	-0.203
-511.814	-200.000	0.001	0.142
-510.799	-200.000	-0.031	-0.166
-509.785	235.238	0.145	0.241
-508.770	645.094	0.056	0.145
-507.756	254.905	0.071	0.122
-506.741	661.122	0.012	-0.031
-505.726	-25.263	0.414	0.247
-504.712	150.781	-0.171	-0.234
-503.697	-78.313	-0.207	0.072
-502.683	-200.000	0.034	-0.280
-501.668	-19.367	0.187	-0.116
-500.653	-70.660	0.208	-0.079
-499.639	517.523	0.090	-0.213
-498.624	-181.759	0.237	0.005
-497.610	205.699	-0.053	-0.083
-496.595	435.994	0.105	0.230
-495.581	-186.356	-0.128	-0.002
-494.566	122.690	0.167	0.210
-493.551	636.502	-0.020	0.050
-492.537	304.959	0.150	-0.281
-491.522	89.222	0.118	0.132
-490.508	-18.508	0.124	0.078
-489.493	-11.013	-0.194	-0.128
-488.478	59.572	-0.197	-0.196
-487.464	-25.198	0.367	-0.219
-486.449	177.878	-0.116	0.170
-485.435	-200.000	-0.006	0.159
-484.420	-200.000	-0.002	0.048
-483.405	-146.272	-0.166	0.015
-482.391	-140.810	-0.151	-0.016
-481.376	-200.000	0.015	-0.209
-480.362	-29.367	-0.217	-0.125
-479.347	-164.535	-0.083	0.004
-478.332	-32.358	0.307	0.172
-477.318	-162.408	0.389	0.019
-476.303	-69.130	-0.280	-0.108
-475.289	7.973	0.153	-0.116
-474.274	-3.500	-0.137	-0.096
-473.259	276.589	-0.153	0.274
-472.245	224.035	-0.188	0.305
-471.230	-172.631	0.275	-0.009
-470.216	-68.090	0.203	0.079
-469.201	49.517	-0.096	0.091
-468.186	-200.000	0.312	0.001
-467.172	-130.100	-0.396	-0.054
-466.157	461.276	0.044	-0.097
-465.143	-15.516	0.135	0.087
-464.128	800.000	-0.081	0.277
-463.113	-200.000	-0.053	0.373
-462.099	40.789	-0.075	0.068
-461.084	-200.000	-0.045	-0.361
-460.070	800.000	0.027	-0.117
-459.055	115.742	0.125	0.154
-458.040	17.917	0.163	0.130
-457.026	800.000	-0.072	0.223
-456.011	-200.000	0.025	0.235
-454.997	132.573	0.080	0.104
-453.982	406.849	0.064	0.135
-452.968	800.000	-0.102	-0.360
-451.953	800.000	0.076	-0.257
-450.938	264.822	-0.044	-0.077
-449.924	-29.574	-0.166	0.095
-448.909	800.000	0.034	-0.134
-447.895	59.257	0.089	-0.088
-446.880	-200.000	0.011	0.121
-445.865	-17.710	-0.240	-0.151
-444.851	149.541	0.103	0.140
-443.836	800.000	-0.088	-0.311
-442.822	85.383	0.198	0.218
-441.807	800.000	-0.039	0.118
-440.792	-84.981	0.220	-0.069
-439.778	35.742	0.122	-0.108
-438.763	-85.688	-0.117	-0.036
-437.749	-196.630	0.130	0.001
-436.734	-36.765	-0.241	-0.130
-435.719	-3.211	-0.109	0.076
-434.705	-200.000	0.009	0.255
-433.690	159.830	0.222	-0.310
-432.676	-200.000	0.002	-0.334
-431.661	8.770	0.275	-0.208
-430.646	-41.842	-0.539	-0.277
-429.632	-200.000	0.025	0.179
-428.617	124.148	-0.098	0.123
-427.603	-5.094	-0.171	-0.118
-426.588	124.334	-0.170	0.214
-425.573	-100.762	0.031	-0.008
-424.559	-113.467	-0.296	0.058
-423.544	-142.556	0.215	-0.021
-422.530	-97.468	0.246	0.064
-421.515	267.377	-0.096	0.168
-420.500	277.907	-0.185	0.330
-419.486	-17.791	0.168	0.106
-418.471	-28.289	-0.411	0.238
-417.457	-9.397	-0.278	0.186
-416.442	42.444	0.054	0.049
-415.428	-200.000	-0.025	-0.154
-414.413	-12.581	-0.140	0.092
-413.398	-41.106	0.043	-0.022
-412.384	-119.139	-0.052	0.009
-411.369	167.629	-0.068	0.097
-410.355	-200.000	0.030	0.277
-409.340	-101.936	0.224	-0.054
-408.325	188.194	-0.099	-0.148
-407.311	-80.950	-0.249	0.083
-406.296	-200.000	-0.016	0.109
-405.282	50.453	-0.345	0.327
-404.267	-38.808	0.212	0.112
-403.252	-200.000	-0.012	0.144
-402.238	-70.182	0.227	0.086
-401.223	195.253	-0.204	0.310
-400.209	-80.349	0.089	-0.030
-399.194	96.251	-0.043	0.049
-398.179	655.539	0.114	0.294
-397.165	-157.379	0.222	-0.013
-396.150	156.076	0.171	0.236
-395.136	-121.203	-0.233	-0.039
-394.121	800.000	0.058	0.222
-393.106	131.549	-0.220	0.283
-392.092	82.089	0.178	0.193
-391.077	147.160	0.165	0.223
-390.063	800.000	-0.170	0.527
-389.048	-80.223	0.252	0.085
-388.033	15.521	-0.170	0.134
-387.019	-200.000	0.007	-0.174
-386.004	-200.000	-0.027	0.138
-384.990	32.228	-0.350	-0.303
-383.975	11.937	-0.088	0.068
-382.960	52.290	0.059	-0.056
-381.946	-200.000	-0.002	-0.040
-380.931	30.153	0.083	0.071
-379.917	-130.331	0.119	0.016
-378.902	800.000	0.032	0.124
-377.888	-200.000	-0.034	-0.244
-376.873	242.234	0.136	0.227
-375.858	-83.333	0.307	0.099
-374.844	156.178	0.084	0.116
-373.829	-170.806	-0.292	0.010
-372.815	74.109	0.112	-0.117
-371.800	93.933	0.104	0.119
-370.785	777.484	0.081	-0.220
-369.771	-10.454	-0.090	0.059
-368.756	-11.884	-0.197	0.129
-367.742	-137.563	0.097	0.011
-366.727	117.571	0.074	0.092
-365.712	476.928	0.054	-0.123
-364.698	-100.963	0.210	0.052
-363.683	800.000	-0.051	-0.161
-362.669	44.786	-0.315	-0.290
-361.654	121.810	0.252	0.314
-360.639	358.198	0.135	0.270
-359.625	800.000	-0.033	0.110
-358.610	-181.648	-0.162	-0.003
-357.596	800.000	-0.029	0.115
-356.581	20.548	-0.141	0.114
-355.566	-6.376	-0.183	0.125
-354.552	-70.004	0.096	-0.037
-353.537	-140.705	0.272	0.028
-352.523	-41.588	-0.137	-0.070
-351.508	367.713	-0.071	0.143
-350.493	-174.992	-0.352	-0.010
-349.479	-25.521	0.268	-0.158
-348.464	-51.186	0.261	0.122
-347.450	88.363	-0.132	-0.146
-346.435	800.000	-0.053	0.219
-345.420	-200.000	0.011	0.174
-344.406	427.048	-0.075	0.163
-343.391	800.000	-0.175	0.540
-342.377	800.000	0.083	-0.335
-341.362	349.603	0.046	0.090
-340.348	111.425	-0.147	0.178
-339.333	-200.000	0.020	-0.092
-338.318	251.860	0.054	0.093
-337.304	216.318	0.233	-0.370
-336.289	-177.622	-0.109	0.003
-335.275	-51.156	-0.053	0.025
-334.260	-97.239	0.248	-0.065
-333.245	278.749	-0.085	0.151
-332.231	-200.000	0.024	0.201
-331.216	-117.497	-0.125	0.023
-330.202	-77.265	-0.232	0.081
-329.187	-200.000	-0.063	-0.381
-328.172	-112.397	-0.169	0.034
-327.158	-102.401	0.174	0.042
-326.143	53.892	-0.101	-0.097
-325.129	253.883	0.183	0.312
-324.114	800.000	0.089	0.265
-323.099	212.391	0.056	0.089
-322.085	21.346	0.320	-0.260
-321.070	-18.350	-0.230	0.143
-320.056	-38.110	-0.197	0.104
-319.041	549.079	-0.121	0.290
-318.026	-153.991	0.328	-0.022
-317.012	-73.819	-0.246	-0.089
-315.997	313.651	0.046	0.087
-314.983	-27.851	-0.110	-0.064
-313.968	-44.314	0.139	0.070
-312.953	153.280	0.155	-0.211
-311.939	414.351	-0.128	0.272
-310.924	800.000	-0.060	-0.192
-309.910	-119.837	0.510	-0.088
-308.895	-200.000	0.007	0.076
-307.880	-70.686	0.218	-0.082
-306.866	-72.754	-0.138	0.051
-305.851	-200.000	-0.008	-0.334
-304.837	341.068	0.056	0.109
-303.822	-9.335	-0.022	-0.015
-302.807	800.000	-0.051	-0.201
-301.793	398.095	-0.164	-0.343
-300.778	331.346	-0.151	-0.290
-299.764	-18.717	-0.236	0.147
-298.749	-82.931	0.202	0.065
-297.735	7.445	-0.105	-0.078
-296.720	746.473	-0.120	-0.322
-295.705	800.000	0.056	-0.184
-294.691	141.748	-0.190	0.252
-293.676	-23.145	-0.243	0.146
-292.662	-160.622	0.275	-0.015
-291.647	350.828	-0.070	-0.137
-290.632	144.792	-0.020	0.026
-289.618	-145.732	0.220	0.020
-288.603	266.997	-0.090	-0.157
-287.589	-98.711	-0.458	-0.116
-286.574	-200.000	-0.026	0.240
-285.559	800.000	0.030	0.108
-284.545	800.000	-0.085	-0.313
-283.530	261.990	-0.158	-0.273
-282.516	-125.191	-0.425	0.065
-281.501	-142.556	0.156	0.015
-280.486	800.000	-0.056	0.225
-279.472	-120.205	-0.592	-0.101
-278.457	157.106	0.038	-0.052
-277.443	210.205	0.039	-0.061
-276.428	-200.000	-0.005	0.048
-275.413	260.102	-0.121	0.208
-274.399	-135.303	0.193	-0.023
-273.384	-200.000	0.049	-0.429
-272.370	-200.000	0.036	-0.323
-271.355	-2.993	0.177	-0.123
-270.340	-101.008	0.099	0.024
-269.326	302.688	-0.041	-0.077
-268.311	-200.000	-0.060	-0.279
-267.297	800.000	0.008	-0.032
-266.282	800.000	-0.162	-0.461
-265.267	800.000	0.018	-0.050
-264.253	84.271	0.053	0.058
-263.238	-161.298	0.184	-0.010
-262.224	-91.164	-0.091	-0.026
-261.209	-121.829	-0.267	0.044
-260.195	-200.000	0.002	-0.217
-259.180	-200.000	-0.038	0.283
-258.165	-56.733	0.262	0.116
-257.151	-64.756	0.200	-0.081
-256.136	468.892	0.064	-0.143
-255.122	152.961	0.094	-0.129
-254.107	-31.890	-0.116	0.065
-253.092	-128.648	-0.561	-0.079
-252.078	36.376	-0.131	-0.115
-251.063	-102.452	-0.077	-0.018
-250.049	-200.000	0.008	-0.087
-249.034	-63.507	0.104	0.043
-248.019	-48.066	-0.221	0.107
-247.005	-100.664	-0.112	-0.028
-245.990	56.061	0.297	-0.287
-244.976	-200.000	0.018	0.138
-243.961	204.371	-0.056	0.086
-242.946	-200.000	0.015	0.274
-241.932	705.871	-0.065	0.170
-240.917	800.000	0.015	-0.057
-239.903	247.888	-0.093	0.156
-238.888	236.448	-0.212	0.349
-237.873	-144.917	0.322	-0.029
-236.859	800.000	0.046	0.135
-235.844	-200.000	-0.023	0.370
-234.830	81.345	-0.214	0.231
-233.815	800.000	0.070	-0.229
-232.800	800.000	0.033	-0.125
-231.786	71.365	-0.202	-0.208
-230.771	111.974	-0.100	-0.120
-229.757	-83.748	0.094	0.030
-228.742	173.471	-0.083	0.119
-227.727	13.002	-0.132	-0.102
-226.713	-96.338	-0.188	-0.049
-225.698	-200.000	0.030	-0.287
-224.684	-200.000	-0.026	-0.119
-223.669	12.589	-0.096	-0.074
-222.655	17.283	-0.279	-0.220
-221.640	171.262	-0.068	0.097
-220.625	748.843	0.091	0.244
-219.611	0.615	-0.134	0.095
-218.596	-200.000	0.047	0.422
-217.582	-200.000	0.018	-0.352
-216.567	-2.084	0.061	0.043
-215.552	-195.385	0.333	0.002
-214.538	5.249	-0.129	0.095
-213.523	257.072	0.076	0.130
-212.509	-89.470	0.170	0.050
-211.494	-99.013	-0.222	-0.056
-210.479	223.444	0.090	0.145
-209.465	-200.000	-0.002	-0.105
-208.450	-57.989	0.294	0.128
-207.436	83.842	0.233	0.253
-206.421	-147.204	-0.100	0.008
-205.406	-31.208	-0.239	0.134
-204.392	-26.085	0.086	-0.050
-203.377	241.017	0.170	-0.282
-202.363	118.887	0.134	0.164
-201.348	438.819	0.078	-0.169
-200.333	-12.563	0.244	-0.158
-199.319	-200.000	0.014	-0.121
-198.304	-200.000	-0.065	-0.386
-197.290	-200.000	0.027	0.130
-196.275	332.072	-0.039	0.075
-195.260	293.387	0.161	-0.292
-194.246	37.297	0.161	0.142
-193.231	157.459	0.183	0.251
-192.217	-200.000	0.027	0.198
-191.202	800.000	0.098	0.320
-190.187	-99.781	0.242	0.060
-189.173	251.632	-0.177	0.299
-188.158	-63.492	-0.354	0.145
-187.144	267.240	0.056	0.097
-186.129	101.734	0.122	-0.141
-185.114	30.359	0.121	-0.103
-184.100	-10.823	0.335	0.220
-183.085	-126.343	-0.223	0.033
-182.071	-160.197	0.295	0.016
-181.056	-200.000	-0.031	-0.327
-180.042	149.865	-0.212	-0.285
-179.027	197.263	0.176	-0.267
-178.012	-151.948	-0.088	-0.006
-176.998	-83.033	-0.082	-0.026
-175.983	800.000	-0.074	-0.319
-174.969	-150.478	0.278	0.021
-173.954	80.125	-0.028	-0.030
-172.939	-200.000	0.024	0.213
-171.925	-200.000	0.028	-0.294
-170.910	-200.000	0.008	-0.076
-169.896	610.278	-0.018	-0.044
-168.881	-200.000	0.011	0.245
-167.866	-200.000	-0.019	-0.164
-166.852	340.196	-0.053	-0.103
-165.837	21.685	-0.241	0.195
-164.823	-97.498	-0.085	-0.022
-163.808	-136.748	-0.335	-0.038
-162.793	-41.193	0.106	0.054
-161.779	-54.051	0.185	0.084
-160.764	23.059	0.141	-0.115
-159.750	46.229	-0.212	0.195
-158.735	800.000	0.053	-0.166
-157.720	800.000	-0.026	0.085
-156.706	-5.076	0.177	-0.121
-155.691	-98.299	-0.075	-0.019
-154.677	-200.000	0.012	-0.093
-153.662	-78.649	-0.166	0.056
-152.647	800.000	0.062	0.190
-151.633	0.972	0.105	-0.075
-150.618	249.053	-0.076	-0.127
-149.604	-27.888	-0.300	-0.173
-148.589	-200.000	0.000	-0.172
-147.574	535.928	-0.031	-0.074
-146.560	153.725	0.080	-0.109
-145.545	-65.715	-0.008	-0.003
-144.531	29.161	0.102	0.086
-143.516	92.024	-0.063	0.071
-142.502	-65.235	-0.048	-0.019
-141.487	-33.881	0.320	0.175
-140.472	-15.086	0.064	0.041
-139.458	357.878	-0.186	-0.368
-138.443	157.661	-0.218	-0.299
-137.429	-8.613	0.181	-0.121
-136.414	26.408	-0.204	0.169
-135.399	-200.000	0.024	0.130
-134.385	-200.000	0.046	0.367
-133.370	-200.000	-0.012	0.233
-132.356	-26.152	0.092	0.054
-131.341	-172.090	0.177	-0.006
-130.326	304.158	0.130	-0.240
-129.312	800.000	-0.104	0.290
-128.297	-200.000	0.058	0.302
-127.283	800.000	0.094	0.343
-126.268	287.699	0.081	0.145
-125.253	-97.403	0.137	0.035
-124.239	176.313	-0.234	0.336
-123.224	-47.445	0.195	0.094
-122.210	-182.339	0.263	0.005
-121.195	38.768	0.068	0.061
