DTS Sentinel unit serial number:	SN413079Multiplexer serial number:	ORYXHardware model number:	OX4-SRSoftware version number:	ORYX F/W v4.00 Oryx Data Collector v3.7.2.0data status	okinstallation	princeton_trtdifferential loss correction	single-endedforward channel	channel 1reverse channel	N/Adate	2019/09/17time	09:42:35forward acquisition time	60.00reverse acquisition time	0.00gamma	496.2192k internal	0.2324k external	0.2324temperature offset calibration	0.9960default loss term (dB/km)	0.3790temperature slope calibration	1.0000multiplexer offset coefficient	1.0000multiplexer slope coefficient	1.0000fibre end	0.00T internal ref (°C)	29.28T ext. ref 1 (°C)	0.16T ext. ref 2 (°C)	25.42length (m)	temperature (°C)	Stokes	anti-Stokes-747.200	-11.324	0.130	0.086
-746.185	800.000	-0.068	0.205
-745.171	800.000	0.047	-0.152
-744.156	12.588	0.106	-0.082
-743.142	-61.661	-0.118	0.050
-742.127	800.000	-0.165	0.568
-741.112	113.207	0.140	0.172
-740.098	-83.241	-0.263	0.085
-739.083	89.140	0.218	-0.245
-738.069	288.175	-0.175	0.319
-737.054	-200.000	-0.004	-0.147
-736.039	-85.575	-0.127	-0.040
-735.025	120.993	0.116	0.146
-734.010	307.250	0.113	-0.212
-732.996	-200.000	-0.025	-0.383
-731.981	-45.294	-0.288	0.144
-730.966	30.583	-0.167	-0.144
-729.952	414.572	0.153	-0.328
-728.937	800.000	-0.042	0.157
-727.923	105.633	-0.315	0.376
-726.908	-37.957	-0.347	0.186
-725.894	590.853	-0.220	-0.549
-724.879	-38.922	-0.238	-0.126
-723.864	126.531	-0.113	0.145
-722.850	27.597	0.193	-0.164
-721.835	-147.767	-0.185	0.016
-720.821	123.054	0.033	-0.042
-719.806	128.894	-0.108	-0.139
-718.791	110.669	0.065	0.079
-717.777	-113.576	0.198	-0.039
-716.762	-95.731	0.197	-0.053
-715.748	85.256	0.041	-0.045
-714.733	-200.000	-0.019	-0.386
-713.718	24.612	-0.090	-0.075
-712.704	176.315	-0.057	-0.083
-711.689	-200.000	0.024	0.118
-710.675	-130.835	0.149	0.020
-709.660	-68.560	-0.427	-0.167
-708.645	-112.922	0.095	-0.019
-707.631	-200.000	-0.040	0.182
-706.616	493.131	0.125	-0.288
-705.602	-73.868	-0.063	0.023
-704.587	-76.830	-0.258	-0.091
-703.572	800.000	-0.040	0.172
-702.558	143.408	0.181	0.243
-701.543	-45.316	0.311	-0.155
-700.529	-200.000	-0.024	-0.211
-699.514	-118.796	0.127	-0.023
-698.499	4.945	-0.151	-0.112
-697.485	-65.662	0.252	-0.102
-696.470	-41.255	-0.214	-0.111
-695.456	-48.103	0.218	0.106
-694.441	459.598	0.078	-0.175
-693.426	18.159	0.267	0.215
-692.412	205.981	0.217	-0.341
-691.397	-200.000	0.039	0.327
-690.383	202.322	-0.176	0.273
-689.368	-184.393	0.087	-0.001
-688.354	629.211	0.099	-0.251
-687.339	-196.946	-0.188	0.001
-686.324	-112.819	0.089	0.018
-685.310	-183.478	-0.258	0.004
-684.295	-165.206	-0.145	0.006
-683.281	-166.975	-0.085	-0.004
-682.266	159.281	0.119	0.167
-681.251	52.085	-0.112	0.108
-680.237	-85.275	0.129	0.041
-679.222	-43.559	0.238	0.121
-678.208	45.953	-0.063	-0.059
-677.193	-200.000	0.075	0.379
-676.178	-93.986	0.161	-0.044
-675.164	-200.000	0.001	0.085
-674.149	426.385	0.015	0.032
-673.135	-49.069	-0.193	0.093
-672.120	-93.089	0.219	0.061
-671.105	43.384	-0.093	-0.085
-670.091	-85.999	-0.199	-0.062
-669.076	-62.936	-0.261	0.109
-668.062	-28.973	0.132	-0.076
-667.047	800.000	-0.018	-0.052
-666.032	-200.000	-0.081	-0.410
-665.018	-162.170	-0.233	0.012
-664.003	-71.567	0.221	-0.083
-662.989	163.825	-0.208	0.295
-661.974	-79.489	0.086	0.029
-660.959	283.442	-0.119	0.214
-659.945	43.976	0.145	0.134
-658.930	582.528	-0.021	-0.051
-657.916	-150.333	-0.198	0.015
-656.901	399.175	0.164	0.345
-655.886	-200.000	-0.003	-0.026
-654.872	-160.840	0.211	-0.011
-653.857	-99.559	0.055	-0.014
-652.843	-200.000	0.066	-0.294
-651.828	-123.881	0.259	-0.041
-650.814	-130.291	-0.206	-0.028
-649.799	21.676	-0.115	-0.094
-648.784	-200.000	-0.010	0.321
-647.770	-18.322	-0.219	-0.138
-646.755	84.617	-0.157	-0.173
-645.741	203.451	0.053	0.082
-644.726	-69.544	-0.233	0.090
-643.711	-143.197	-0.283	-0.027
-642.697	57.221	-0.345	0.338
-641.682	136.734	-0.092	0.121
-640.668	6.315	0.079	-0.059
-639.653	-200.000	-0.014	0.152
-638.638	531.451	0.036	0.086
-637.624	261.585	-0.083	-0.145
-636.609	800.000	-0.054	0.155
-635.595	-11.005	0.060	-0.040
-634.580	266.312	-0.199	-0.349
-633.565	-200.000	0.008	0.046
-632.551	204.838	-0.024	-0.037
-631.536	-200.000	-0.012	-0.210
-630.522	473.926	-0.117	0.264
-629.507	-88.181	-0.401	-0.121
-628.492	-76.182	-0.228	0.081
-627.478	-200.000	-0.031	0.141
-626.463	195.479	-0.238	-0.364
-625.449	-65.094	0.195	0.079
-624.434	-24.819	-0.355	0.212
-623.419	-174.450	0.084	0.002
-622.405	-200.000	-0.028	0.130
-621.390	-200.000	0.016	0.122
-620.376	-84.491	0.364	0.115
-619.361	244.220	-0.083	-0.140
-618.346	23.674	-0.184	0.152
-617.332	-200.000	0.066	0.352
-616.317	10.190	-0.203	-0.155
-615.303	800.000	-0.051	-0.173
-614.288	511.464	0.072	-0.168
-613.273	-200.000	0.001	0.095
-612.259	54.045	-0.111	0.107
-611.244	-60.941	0.279	-0.118
-610.230	-200.000	-0.068	0.361
-609.215	-170.701	0.391	0.014
-608.201	-199.269	-0.287	0.002
-607.186	-89.638	-0.266	-0.078
-606.171	91.657	-0.078	-0.088
-605.157	-56.584	-0.196	0.087
-604.142	-70.560	0.309	-0.117
-603.128	712.597	-0.046	-0.123
-602.113	-200.000	-0.003	0.103
-601.098	3.322	0.013	-0.009
-600.084	-151.143	0.203	0.015
-599.069	-200.000	0.019	-0.160
-598.055	105.061	0.105	-0.124
-597.040	321.000	0.047	0.090
-596.025	-110.968	0.011	0.002
-595.011	-193.232	-0.124	0.001
-593.996	-63.513	-0.214	0.088
-592.982	-200.000	0.013	0.149
-591.967	-52.518	-0.318	-0.147
-590.952	-200.000	0.082	-0.461
-589.938	-200.000	-0.006	-0.159
-588.923	9.366	0.111	-0.084
-587.909	-88.774	-0.157	0.047
-586.894	79.048	-0.093	-0.100
-585.879	-200.000	-0.049	0.236
-584.865	46.831	-0.236	0.220
-583.850	-87.304	0.372	0.113
-582.836	-200.000	-0.005	-0.143
-581.821	800.000	-0.174	-0.521
-580.806	800.000	-0.025	0.077
-579.792	-200.000	0.000	-0.040
-578.777	800.000	-0.023	-0.092
-577.763	-200.000	0.016	-0.122
-576.748	23.830	-0.025	-0.021
-575.733	-74.023	0.203	0.074
-574.719	-149.976	-0.223	-0.017
-573.704	258.576	-0.080	-0.139
-572.690	70.344	-0.154	0.159
-571.675	-26.689	0.286	0.168
-570.661	21.994	0.281	0.230
-569.646	264.501	0.052	-0.090
-568.631	-76.848	-0.142	-0.050
-567.617	-200.000	-0.013	0.081
-566.602	-200.000	0.044	0.225
-565.588	786.620	0.029	-0.080
-564.573	800.000	-0.093	-0.307
-563.558	800.000	-0.108	0.387
-562.544	-84.526	0.209	-0.066
-561.529	800.000	-0.045	0.182
-560.515	-3.738	0.096	-0.067
-559.500	50.548	0.195	0.185
-558.485	800.000	0.165	0.470
-557.471	398.155	-0.154	0.323
-556.456	800.000	0.043	0.121
-555.442	-200.000	-0.038	-0.302
-554.427	370.027	0.108	-0.220
-553.412	-115.756	0.199	-0.037
-552.398	-179.080	0.103	-0.002
-551.383	-200.000	0.005	0.185
-550.369	-130.694	0.273	0.037
-549.354	127.366	-0.120	-0.153
-548.339	-128.220	-0.173	-0.025
-547.325	99.303	0.112	-0.130
-546.310	-200.000	-0.003	0.165
-545.296	-2.453	0.399	-0.280
-544.281	800.000	-0.081	0.336
-543.266	78.250	-0.199	-0.212
-542.252	64.103	-0.396	-0.399
-541.237	-196.195	0.250	-0.002
-540.223	-16.819	0.010	-0.006
-539.208	441.794	-0.059	-0.130
-538.193	183.861	0.145	-0.215
-537.179	-27.102	0.156	-0.091
-536.164	800.000	-0.103	-0.345
-535.150	65.805	0.094	-0.095
-534.135	15.186	-0.208	-0.164
-533.121	158.605	-0.110	-0.153
-532.106	31.655	0.293	-0.252
-531.091	46.812	0.085	0.079
-530.077	-200.000	-0.010	-0.138
-529.062	-53.448	0.155	-0.071
-528.048	1.988	-0.028	-0.020
-527.033	-94.100	-0.292	-0.080
-526.018	-110.695	0.055	0.011
-525.004	421.152	0.107	-0.229
-523.989	800.000	0.049	0.139
-522.975	-120.636	0.308	0.052
-521.960	-200.000	-0.003	0.022
-520.945	-128.936	-0.123	0.017
-519.931	-70.663	0.296	-0.112
-518.916	70.260	-0.149	-0.154
-517.902	800.000	-0.082	0.271
-516.887	28.379	0.308	0.260
-515.872	51.674	-0.028	-0.027
-514.858	37.258	0.180	-0.159
-513.843	792.391	-0.087	0.238
-512.829	16.393	0.116	-0.092
-511.814	570.460	-0.152	0.369
-510.799	513.070	-0.069	0.160
-509.785	-89.747	0.234	0.069
-508.770	-200.000	0.012	-0.089
-507.756	-200.000	0.021	-0.177
-506.741	80.191	0.043	0.046
-505.726	-122.942	0.330	-0.053
-504.712	20.558	-0.089	-0.072
-503.697	753.286	0.111	0.300
-502.683	57.685	-0.138	0.135
-501.668	8.250	-0.143	0.108
-500.653	301.412	-0.172	-0.318
-499.639	-58.568	0.126	-0.055
-498.624	-200.000	-0.008	0.043
-497.610	537.705	-0.014	-0.033
-496.595	-200.000	0.232	-0.001
-495.581	-200.000	-0.030	0.220
-494.566	1.192	0.088	-0.063
-493.551	4.529	0.279	-0.205
-492.537	-200.000	0.065	-0.285
-491.522	-200.000	-0.022	-0.224
-490.508	-89.027	0.531	0.157
-489.493	-66.638	0.250	0.099
-488.478	-80.522	-0.289	-0.096
-487.464	-200.000	-0.011	0.113
-486.449	-119.953	0.251	-0.043
-485.435	-135.621	-0.408	-0.048
-484.420	232.853	-0.053	-0.087
-483.405	-200.000	-0.010	-0.089
-482.391	-15.605	-0.110	0.070
-481.376	714.704	-0.066	-0.176
-480.362	-46.983	0.240	0.117
-479.347	102.297	-0.227	0.265
-478.332	-200.000	-0.034	-0.197
-477.318	-101.786	0.275	-0.067
-476.303	-148.031	0.162	-0.013
-475.289	-163.541	0.077	-0.004
-474.274	69.351	0.022	0.022
-473.259	153.267	0.327	0.447
-472.245	-50.539	0.518	-0.244
-471.230	248.957	0.139	-0.235
-470.216	-200.000	-0.038	0.190
-469.201	-123.291	0.249	0.040
-468.186	-115.366	-0.378	-0.071
-467.172	205.359	-0.154	-0.240
-466.157	-200.000	-0.041	-0.218
-465.143	-82.939	-0.065	0.021
-464.128	-200.000	-0.007	0.146
-463.113	763.074	-0.116	-0.315
-462.099	-189.064	-0.512	0.006
-461.084	280.074	-0.110	-0.196
-460.070	-127.091	0.096	0.014
-459.055	50.999	0.166	0.158
-458.040	208.651	0.123	0.193
-457.026	220.459	0.128	-0.204
-456.011	-200.000	-0.051	-0.243
-454.997	384.817	0.041	0.083
-453.982	-171.293	-0.256	-0.009
-452.968	138.730	-0.251	0.329
-451.953	-44.287	0.106	0.053
-450.938	800.000	0.046	0.159
-449.924	25.311	0.045	0.037
-448.909	259.596	-0.054	0.093
-447.895	741.108	-0.064	-0.172
-446.880	-132.811	-0.080	0.010
-445.865	6.348	0.339	-0.251
-444.851	-200.000	-0.012	0.166
-443.836	8.282	-0.284	0.213
-442.822	-141.256	0.221	0.022
-441.807	-200.000	-0.096	0.617
-440.792	289.365	0.197	0.357
-439.778	102.903	-0.081	-0.095
-438.763	-62.534	0.147	-0.061
-437.749	-115.855	-0.029	-0.005
-436.734	758.934	0.045	-0.120
-435.719	98.533	-0.144	0.165
-434.705	245.870	0.071	-0.119
-433.690	240.383	0.135	-0.224
-432.676	-200.000	0.012	0.231
-431.661	-111.099	-0.296	0.061
-430.646	800.000	-0.033	0.139
-429.632	-58.058	-0.048	0.021
-428.617	-200.000	0.019	0.118
-427.603	-89.402	-0.181	0.053
-426.588	37.339	0.091	0.080
-425.573	-153.020	-0.449	-0.032
-424.559	84.038	-0.113	-0.123
-423.544	-71.368	-0.347	-0.130
-422.530	800.000	-0.076	0.243
-421.515	-81.655	-0.261	-0.085
-420.500	-44.318	-0.149	0.075
-419.486	-127.481	0.231	-0.033
-418.471	249.999	-0.117	-0.198
-417.457	-24.507	-0.192	0.114
-416.442	-30.220	0.029	-0.016
-415.428	21.007	-0.068	-0.055
-414.413	495.021	0.009	-0.021
-413.398	-126.304	-0.185	-0.028
-412.384	73.377	-0.045	-0.047
-411.369	-200.000	-0.006	0.367
-410.355	-39.953	0.131	0.068
-409.340	43.274	-0.090	0.082
-408.325	266.259	-0.304	-0.529
-407.311	-160.970	-0.283	-0.015
-406.296	-173.341	-0.341	-0.010
-405.282	-200.000	-0.012	-0.138
-404.267	81.946	0.307	-0.332
-403.252	465.042	0.110	0.245
-402.238	-121.089	0.202	0.034
-401.223	19.011	0.143	-0.114
-400.209	-91.598	-0.259	0.074
-399.194	298.355	0.130	-0.239
-398.179	-100.695	0.331	0.081
-397.165	-200.000	-0.022	0.183
-396.150	28.713	-0.225	0.190
-395.136	357.972	0.083	-0.166
-394.121	317.205	0.137	-0.258
-393.106	-112.147	0.282	0.056
-392.092	152.302	0.156	0.212
-391.077	-160.314	-0.214	0.011
-390.063	-75.975	-0.144	-0.051
-389.048	337.028	-0.071	0.137
-388.033	749.752	-0.034	-0.092
-387.019	144.268	0.294	-0.391
-386.004	63.053	0.048	0.048
-384.990	-200.000	-0.003	0.112
-383.975	-68.588	-0.179	0.069
-382.960	5.855	0.332	0.245
-381.946	-157.993	-0.368	0.022
-380.931	-61.346	0.074	0.031
-379.917	159.598	0.076	-0.106
-378.902	512.689	-0.144	-0.334
-377.888	-200.000	-0.188	0.000
-376.873	-84.685	-0.082	0.026
-375.858	-130.869	0.367	-0.049
-374.844	230.748	0.004	0.007
-373.829	800.000	-0.079	0.221
-372.815	-149.196	0.114	0.009
-371.800	67.359	0.068	0.070
-370.785	-116.183	-0.125	-0.023
-369.771	-190.614	0.106	-0.001
-368.756	37.282	0.171	-0.151
-367.742	-13.822	0.266	-0.171
-366.727	-30.913	-0.104	0.058
-365.712	-66.376	-0.189	0.075
-364.698	-137.049	-0.221	-0.025
-363.683	21.587	0.178	0.144
-362.669	163.519	0.086	0.120
-361.654	-0.928	-0.226	-0.159
-360.639	-200.000	0.025	-0.198
-359.625	-200.000	-0.042	-0.298
-358.610	800.000	-0.033	0.139
-357.596	-43.579	-0.251	0.126
-356.581	292.611	-0.087	0.158
-355.566	131.785	-0.236	0.301
-354.552	358.345	-0.051	-0.102
-353.537	-200.000	-0.002	0.089
-352.523	-49.723	0.132	0.063
-351.508	-47.155	-0.176	0.085
-350.493	328.450	0.076	0.144
-349.479	516.605	-0.078	0.182
-348.464	-115.107	0.012	-0.002
-347.450	-200.000	-0.014	-0.335
-346.435	-80.587	0.356	0.118
-345.420	108.192	-0.130	0.154
-344.406	-60.268	0.097	-0.041
-343.391	800.000	0.014	-0.042
-342.377	-80.780	0.158	-0.052
-341.362	-191.151	-0.092	0.001
-340.348	-200.000	0.026	-0.143
-339.333	-16.677	-0.278	-0.175
-338.318	800.000	-0.021	0.069
-337.304	800.000	-0.124	-0.388
-336.289	-199.771	0.245	0.001
-335.275	-100.151	0.188	-0.046
-334.260	573.340	-0.034	-0.083
-333.245	800.000	0.063	-0.248
-332.231	15.355	-0.140	0.109
-331.216	-149.282	0.145	0.011
-330.202	-57.462	0.387	-0.169
-329.187	-80.613	0.346	0.114
-328.172	-36.181	-0.059	-0.031
-327.158	102.450	0.077	-0.089
-326.143	46.264	-0.278	-0.256
-325.129	-59.027	-0.339	0.145
-324.114	36.287	-0.196	-0.171
-323.099	51.060	0.290	-0.273
-322.085	530.597	0.117	0.275
-321.070	584.089	0.063	-0.152
-320.056	-131.757	0.455	-0.059
-319.041	-41.185	0.075	0.038
-318.026	674.767	0.081	-0.210
-317.012	-74.932	-0.115	0.041
-315.997	321.360	-0.158	-0.298
-314.983	48.528	0.098	0.091
-313.968	-69.930	-0.080	0.030
-312.953	6.595	-0.130	0.096
-311.939	-84.802	-0.160	-0.050
-310.924	151.522	-0.103	-0.140
-309.910	-200.000	-0.036	0.356
-308.895	800.000	0.053	-0.150
-307.880	-26.521	0.251	0.146
-306.866	53.733	0.091	0.087
-305.851	61.931	-0.151	-0.149
-304.837	78.027	0.186	-0.197
-303.822	-200.000	-0.030	0.301
-302.807	89.974	0.187	-0.208
-301.793	-41.141	0.068	-0.035
-300.778	224.064	-0.166	0.266
-299.764	-40.929	0.300	-0.154
-298.749	-200.000	0.034	-0.405
-297.735	458.583	0.069	0.152
-296.720	-95.786	-0.210	-0.056
-295.705	8.610	0.086	-0.064
-294.691	-15.507	0.329	-0.208
-293.676	90.989	0.041	0.046
-292.662	-180.646	-0.194	-0.004
-291.647	-83.731	0.260	0.082
-290.632	83.214	0.110	0.118
-289.618	-200.000	0.028	-0.177
-288.603	-200.000	0.010	0.221
-287.589	290.391	0.221	0.399
-286.574	-146.818	0.197	-0.017
-285.559	741.346	-0.073	-0.194
-284.545	-105.533	-0.100	-0.023
-283.530	-200.000	-0.032	0.156
-282.516	800.000	0.043	-0.162
-281.501	800.000	0.148	0.424
-280.486	354.525	-0.131	0.259
-279.472	282.882	0.150	0.266
-278.457	79.170	0.048	0.051
-277.443	-43.034	0.191	-0.096
-276.428	800.000	-0.087	-0.265
-275.413	800.000	-0.050	-0.195
-274.399	-53.951	-0.200	-0.090
-273.384	286.441	0.099	-0.177
-272.370	28.422	0.128	0.107
-271.355	29.747	0.186	0.157
-270.340	-200.000	-0.046	-0.249
-269.326	125.865	-0.262	0.328
-268.311	128.522	-0.131	-0.166
-267.297	75.245	0.192	-0.201
-266.282	16.338	-0.247	-0.193
-265.267	-153.484	-0.185	-0.013
-264.253	81.796	0.059	0.064
-263.238	-200.000	0.012	0.059
-262.224	197.255	-0.045	-0.068
-261.209	-170.524	-0.100	0.003
-260.195	-79.966	0.268	-0.089
-259.180	203.664	0.147	-0.225
-258.165	352.883	0.056	0.110
-257.151	14.896	-0.068	0.052
-256.136	-22.681	-0.250	-0.150
-255.122	-200.000	0.014	-0.292
-254.107	-51.096	-0.385	-0.179
-253.092	-200.000	0.001	-0.157
-252.078	-62.181	-0.132	-0.054
-251.063	-65.305	-0.133	0.053
-250.049	-96.110	0.145	-0.038
-249.034	-62.170	-0.187	0.077
-248.019	-27.753	0.175	0.101
-247.005	104.636	0.163	-0.190
-245.990	247.922	0.131	0.219
-244.976	800.000	0.045	0.139
-243.961	103.787	0.081	0.094
-242.946	93.819	0.178	0.199
-241.932	-61.917	0.195	0.081
-240.917	-5.600	-0.163	0.111
-239.903	-200.000	-0.003	-0.072
-238.888	-84.088	0.443	0.139
-237.873	332.359	-0.060	0.115
-236.859	-200.000	0.016	-0.107
-235.844	-1.433	0.199	0.139
-234.830	800.000	0.036	-0.148
-233.815	-48.230	0.116	-0.055
-232.800	260.951	0.238	-0.408
-231.786	37.307	0.163	0.143
-230.771	91.892	0.234	0.260
-229.757	-123.481	-0.165	0.026
-228.742	800.000	-0.070	0.243
-227.727	35.536	0.078	0.068
-226.713	-136.290	-0.236	0.027
-225.698	440.599	-0.082	0.177
-224.684	-96.292	0.156	0.041
-223.669	114.362	-0.160	-0.193
-222.655	800.000	-0.088	-0.316
-221.640	800.000	-0.203	-0.566
-220.625	3.048	0.137	-0.098
-219.611	-200.000	-0.029	-0.255
-218.596	560.163	0.033	0.079
-217.582	119.612	-0.113	-0.139
-216.567	140.986	-0.096	-0.126
-215.552	567.313	0.130	0.312
-214.538	-200.000	0.024	-0.103
-213.523	-8.538	-0.112	0.074
-212.509	-147.615	-0.186	0.015
-211.494	32.996	0.174	-0.149
-210.479	36.150	-0.290	0.253
-209.465	-26.442	0.057	-0.033
-208.450	-200.000	0.009	-0.048
-207.436	-53.764	0.314	0.142
-206.421	-47.385	0.135	0.065
-205.406	800.000	0.066	0.246
-204.392	110.405	0.267	0.317
-203.377	85.199	0.107	0.116
-202.363	800.000	-0.034	-0.126
-201.348	178.930	-0.107	0.155
-200.333	202.212	-0.195	0.297
-199.319	-47.380	0.245	-0.118
-198.304	135.109	-0.093	0.120
-197.290	-200.000	-0.023	0.176
-196.275	42.441	-0.268	-0.241
-195.260	-140.164	0.219	0.023
-194.246	-92.676	-0.200	-0.055
-193.231	-152.423	0.289	0.021
-192.217	-20.868	-0.300	0.182
-191.202	-99.906	0.021	-0.005
-190.187	-96.896	-0.106	0.027
-189.173	-25.042	-0.164	0.096
-188.158	419.901	-0.043	0.092
-187.144	132.519	-0.171	0.218
-186.129	495.252	0.034	0.076
-185.114	800.000	-0.047	-0.137
-184.100	-200.000	0.002	0.117
-183.085	-83.275	0.231	-0.073
-182.071	-150.635	0.408	0.031
-181.056	171.266	-0.095	-0.135
-180.042	-139.225	-0.275	0.029
-179.027	-44.471	-0.125	0.062
-178.012	-200.000	-0.001	0.252
-176.998	286.636	0.117	0.208
-175.983	507.253	-0.065	-0.148
-174.969	-87.026	-0.287	0.086
-173.954	-101.170	-0.198	-0.048
-172.939	-200.000	-0.032	0.207
-171.925	24.984	-0.254	0.208
-170.910	800.000	-0.021	0.059
-169.896	-50.187	-0.220	0.103
-168.881	800.000	-0.042	0.160
-167.866	350.722	0.105	-0.206
-166.852	29.770	-0.078	0.065
-165.837	-42.302	0.224	-0.113
-164.823	-140.028	-0.412	-0.043
-163.808	41.425	0.332	-0.297
-162.793	-89.066	-0.181	-0.053
-161.779	54.216	0.023	0.022
-160.764	172.701	-0.147	0.208
-159.750	410.914	0.156	-0.327
-158.735	-200.000	-0.032	0.248
-157.720	-52.033	-0.293	0.134
-156.706	179.910	0.172	0.249
-155.691	-43.277	0.059	0.029
-154.677	-110.261	0.225	0.046
-153.662	-121.792	-0.046	0.007
-152.647	10.552	0.130	-0.097
-151.633	59.359	0.042	0.041
-150.618	-200.000	-0.043	-0.270
-149.604	317.216	-0.071	-0.133
-148.589	287.867	0.141	0.252
-147.574	-121.681	0.095	-0.016
-146.560	800.000	0.085	0.244
-145.545	-113.709	0.544	-0.105
-144.531	63.665	-0.078	-0.077
-143.516	-63.373	-0.117	0.048
-142.502	-46.816	-0.173	0.083
-141.487	62.132	-0.104	0.102
-140.472	800.000	-0.085	0.282
-139.458	-187.812	0.376	-0.005
-138.443	-147.935	0.090	-0.007
-137.429	163.395	0.147	0.203
-136.414	-54.820	-0.257	-0.115
-135.399	-109.180	-0.168	-0.035
-134.385	-94.815	0.112	0.030
-133.370	-67.040	0.318	0.124
-132.356	128.853	0.126	0.159
-131.341	-41.120	0.104	0.053
-130.326	-200.000	-0.027	0.231
-129.312	86.802	0.033	-0.036
-128.297	175.094	-0.151	-0.216
-127.283	-142.524	-0.208	-0.020
-126.268	-200.000	0.006	-0.400
-125.253	67.165	0.047	-0.047
-124.239	-150.808	-0.222	-0.017
-123.224	78.547	0.162	0.171
-122.210	-95.772	-0.213	-0.056
-121.195	-200.000	0.062	0.272
