DTS Sentinel unit serial number:	SN413079Multiplexer serial number:	ORYXHardware model number:	OX4-SRSoftware version number:	ORYX F/W v4.00 Oryx Data Collector v3.7.2.0data status	okinstallation	princeton_trtdifferential loss correction	single-endedforward channel	channel 1reverse channel	N/Adate	2019/09/11time	00:16:11forward acquisition time	60.00reverse acquisition time	0.00gamma	496.2192k internal	0.2332k external	0.2332temperature offset calibration	0.9931default loss term (dB/km)	0.3790temperature slope calibration	1.0000multiplexer offset coefficient	1.0000multiplexer slope coefficient	1.0000fibre end	0.00T internal ref (°C)	29.31T ext. ref 1 (°C)	-0.32T ext. ref 2 (°C)	22.81length (m)	temperature (°C)	Stokes	anti-Stokes-747.200	-65.851	0.297	0.120
-746.185	800.000	-0.085	0.262
-745.171	-148.142	0.156	0.013
-744.156	578.556	0.085	0.211
-743.142	69.156	0.185	0.192
-742.127	800.000	-0.187	0.552
-741.112	-93.613	-0.281	0.078
-740.098	-118.174	-0.221	0.040
-739.083	101.334	0.163	-0.191
-738.069	800.000	-0.081	0.282
-737.054	270.897	0.080	0.141
-736.039	88.814	-0.219	0.245
-735.025	-55.333	0.196	0.088
-734.010	-95.019	-0.287	-0.078
-732.996	-200.000	-0.022	0.115
-731.981	136.531	-0.146	-0.192
-730.966	36.653	-0.283	-0.251
-729.952	-113.633	0.231	-0.045
-728.937	388.293	-0.158	-0.328
-727.923	59.076	-0.123	0.122
-726.908	345.674	0.141	-0.278
-725.894	122.918	0.025	0.031
-724.879	-200.000	0.030	-0.139
-723.864	-200.000	-0.031	-0.281
-722.850	-79.146	0.191	-0.065
-721.835	234.481	0.175	-0.290
-720.821	33.989	-0.175	0.153
-719.806	77.324	-0.178	-0.190
-718.791	35.659	-0.097	-0.085
-717.777	-46.183	0.091	-0.045
-716.762	-200.000	-0.005	-0.248
-715.748	-200.000	0.034	-0.164
-714.733	-200.000	-0.026	-0.163
-713.718	151.145	0.218	-0.298
-712.704	593.409	0.195	-0.485
-711.689	-5.190	-0.234	0.162
-710.675	-10.921	-0.110	-0.073
-709.660	52.072	-0.139	0.133
-708.645	-37.750	-0.219	0.117
-707.631	-200.000	0.004	0.040
-706.616	5.407	-0.055	-0.041
-705.602	117.541	0.177	-0.219
-704.587	375.694	0.064	0.130
-703.572	83.504	-0.086	-0.094
-702.558	-169.864	0.357	-0.013
-701.543	26.908	0.055	-0.046
-700.529	-200.000	-0.000	0.097
-699.514	245.829	0.257	-0.435
-698.499	-28.739	0.144	-0.083
-697.485	-103.778	-0.459	-0.108
-696.470	23.371	0.048	-0.040
-695.456	-113.388	0.170	0.034
-694.441	48.381	-0.232	0.218
-693.426	729.678	-0.085	-0.227
-692.412	30.431	-0.036	-0.031
-691.397	-106.840	-0.229	0.051
-690.383	-200.000	0.074	-0.363
-689.368	208.071	0.015	-0.023
-688.354	147.539	0.135	-0.183
-687.339	-200.000	0.002	0.077
-686.324	-151.262	-0.233	-0.017
-685.310	-58.147	-0.295	0.129
-684.295	-30.674	0.363	-0.206
-683.281	522.231	-0.089	-0.210
-682.266	800.000	-0.082	0.295
-681.251	-200.000	0.046	0.250
-680.237	-128.903	0.214	-0.030
-679.222	-200.000	0.049	-0.347
-678.208	-104.157	-0.036	0.009
-677.193	800.000	-0.004	0.019
-676.178	42.130	-0.223	0.203
-675.164	-145.290	-0.036	0.003
-674.149	177.317	0.207	0.302
-673.135	-20.061	-0.377	-0.233
-672.120	-33.121	-0.191	0.106
-671.105	114.676	0.104	-0.128
-670.091	105.311	0.209	-0.248
-669.076	18.291	0.341	0.273
-668.062	134.015	-0.102	0.133
-667.047	82.508	-0.087	0.095
-666.032	-200.000	-0.074	-0.417
-665.018	476.486	0.077	-0.175
-664.003	800.000	-0.103	-0.363
-662.989	-200.000	-0.051	-0.295
-661.974	-21.642	-0.354	-0.216
-660.959	-200.000	-0.019	-0.153
-659.945	20.698	-0.091	0.074
-658.930	203.940	0.152	0.236
-657.916	-55.304	-0.085	-0.038
-656.901	-200.000	-0.017	0.344
-655.886	95.822	0.228	0.261
-654.872	-13.901	0.145	-0.094
-653.857	-30.287	-0.262	-0.149
-652.843	-8.647	0.259	-0.175
-651.828	-62.376	0.091	-0.038
-650.814	458.374	-0.069	0.155
-649.799	3.466	0.395	0.289
-648.784	37.857	-0.293	-0.261
-647.770	-55.890	-0.139	-0.062
-646.755	-101.616	0.147	0.036
-645.741	303.137	0.040	-0.074
-644.726	-81.821	-0.479	-0.157
-643.711	-63.717	0.313	-0.128
-642.697	71.490	-0.147	0.153
-641.682	-135.179	0.274	-0.033
-640.668	149.431	-0.103	-0.140
-639.653	-200.000	-0.008	0.284
-638.638	21.518	-0.321	-0.262
-637.624	-200.000	-0.032	-0.431
-636.609	-7.333	-0.095	-0.064
-635.595	-19.269	0.196	-0.122
-634.580	-108.096	0.245	-0.053
-633.565	-200.000	-0.020	-0.255
-632.551	-101.630	-0.088	0.021
-631.536	-49.650	-0.167	-0.080
-630.522	-73.031	-0.247	-0.091
-629.507	138.905	0.034	0.045
-628.492	800.000	-0.050	-0.155
-627.478	213.251	-0.095	0.150
-626.463	-200.000	-0.014	-0.168
-625.449	177.353	-0.148	0.216
-624.434	239.202	-0.170	0.283
-623.419	78.230	0.113	-0.121
-622.405	260.785	0.129	0.224
-621.390	95.679	-0.182	0.207
-620.376	800.000	-0.094	-0.401
-619.361	0.734	0.142	0.102
-618.346	-139.092	0.341	-0.037
-617.332	88.603	0.229	-0.255
-616.317	57.387	-0.184	0.180
-615.303	358.833	0.067	-0.134
-614.288	-139.535	0.366	-0.039
-613.273	198.967	0.249	0.382
-612.259	-49.699	-0.274	-0.130
-611.244	800.000	-0.068	0.288
-610.230	-60.947	0.123	0.052
-609.215	-21.235	0.053	0.033
-608.201	170.822	0.128	-0.184
-607.186	42.712	-0.091	0.083
-606.171	-60.250	-0.290	-0.123
-605.157	-200.000	0.017	-0.115
-604.142	156.980	0.130	0.180
-603.128	58.678	0.189	0.186
-602.113	-200.000	0.010	0.165
-601.098	-20.308	-0.212	0.131
-600.084	-106.381	-0.113	0.025
-599.069	103.841	-0.225	-0.264
-598.055	-61.741	-0.228	0.096
-597.040	-102.238	0.131	0.031
-596.025	128.742	0.222	-0.283
-595.011	355.454	-0.156	-0.310
-593.996	800.000	-0.042	-0.157
-592.982	41.172	0.081	-0.073
-591.967	-130.868	0.157	-0.021
-590.952	-21.576	0.263	-0.160
-589.938	-98.565	0.028	-0.007
-588.923	-200.000	-0.013	-0.272
-587.909	200.447	-0.076	-0.116
-586.894	170.652	-0.146	0.209
-585.879	89.902	0.123	-0.137
-584.865	-200.000	0.051	0.266
-583.850	800.000	0.037	-0.159
-582.836	-128.137	0.366	-0.052
-581.821	-200.000	-0.038	0.298
-580.806	58.177	-0.099	0.097
-579.792	-42.007	0.072	-0.037
-578.777	-72.892	-0.104	0.038
-577.763	512.418	0.032	-0.075
-576.748	521.008	0.093	0.217
-575.733	-28.925	-0.302	-0.173
-574.719	-139.391	0.522	0.056
-573.704	-12.867	0.295	0.192
-572.690	201.361	-0.145	0.223
-571.675	-147.791	-0.334	0.028
-570.661	-6.898	0.062	0.042
-569.646	-32.233	-0.201	-0.112
-568.631	119.005	-0.101	0.124
-567.617	85.898	-0.184	0.202
-566.602	49.919	0.087	0.082
-565.588	-76.773	0.089	0.031
-564.573	46.652	0.156	0.144
-563.558	800.000	-0.020	0.082
-562.544	81.206	-0.287	-0.309
-561.529	-96.346	0.198	-0.052
-560.515	129.983	-0.128	-0.164
-559.500	610.707	0.217	-0.541
-558.485	-200.000	0.001	-0.225
-557.471	171.201	0.082	-0.118
-556.456	-19.665	0.180	0.111
-555.442	281.730	0.103	-0.185
-554.427	-115.699	-0.180	-0.034
-553.412	-200.000	-0.011	0.094
-552.398	-135.381	0.372	0.044
-551.383	-200.000	0.043	-0.188
-550.369	45.526	-0.145	-0.134
-549.354	-101.470	-0.101	-0.025
-548.339	-200.000	-0.030	0.372
-547.325	14.651	-0.070	0.055
-546.310	639.262	0.093	0.236
-545.296	-200.000	-0.036	0.168
-544.281	-13.574	-0.148	0.095
-543.266	-102.914	-0.075	0.018
-542.252	-200.000	0.049	-0.298
-541.237	-72.161	-0.043	-0.016
-540.223	800.000	0.025	0.096
-539.208	118.911	-0.215	-0.265
-538.193	800.000	-0.032	0.133
-537.179	47.527	0.040	0.037
-536.164	-179.783	0.232	-0.005
-535.150	-9.349	0.234	0.156
-534.135	-32.161	0.431	-0.241
-533.121	523.522	-0.087	-0.204
-532.106	122.373	0.117	-0.146
-531.091	243.636	-0.100	-0.168
-530.077	-70.368	-0.161	0.061
-529.062	-67.511	-0.157	-0.061
-528.048	74.359	0.083	0.087
-527.033	542.770	0.085	0.202
-526.018	-107.071	0.122	0.027
-525.004	5.720	-0.101	-0.075
-523.989	303.020	-0.076	-0.140
-522.975	-200.000	-0.004	0.250
-521.960	-64.393	0.175	-0.071
-520.945	-94.050	-0.077	0.021
-519.931	-31.207	0.135	0.076
-518.916	-32.001	0.188	0.105
-517.902	-80.935	0.130	0.043
-516.887	800.000	0.065	0.226
-515.872	800.000	-0.046	0.200
-514.858	800.000	0.110	0.445
-513.843	-115.908	-0.229	-0.043
-512.829	232.839	0.041	0.068
-511.814	90.448	0.158	0.176
-510.799	-32.913	-0.136	0.075
-509.785	792.195	-0.158	-0.433
-508.770	-117.692	0.271	-0.049
-507.756	50.833	-0.313	-0.295
-506.741	800.000	0.015	0.060
-505.726	800.000	0.109	0.406
-504.712	-133.607	-0.332	0.041
-503.697	490.149	-0.081	0.185
-502.683	-200.000	0.016	-0.213
-501.668	115.009	-0.123	0.149
-500.653	149.787	0.150	0.203
-499.639	50.890	0.074	0.070
-498.624	-82.137	0.171	-0.056
-497.610	-200.000	0.035	-0.276
-496.595	80.749	0.281	-0.302
-495.581	196.897	-0.227	-0.345
-494.566	322.941	0.064	-0.121
-493.551	1.045	-0.182	0.130
-492.537	98.160	-0.109	-0.125
-491.522	44.045	-0.229	0.209
-490.508	205.887	0.128	0.199
-489.493	-76.581	-0.058	0.020
-488.478	688.673	0.096	-0.251
-487.464	478.326	0.138	0.312
-486.449	29.617	-0.310	0.263
-485.435	7.381	0.150	0.112
-484.420	143.210	-0.144	0.191
-483.405	-200.000	-0.019	-0.103
-482.391	-143.068	0.144	0.014
-481.376	-81.341	-0.028	-0.009
-480.362	800.000	0.016	0.070
-479.347	-8.239	-0.139	0.093
-478.332	-200.000	0.044	0.300
-477.318	-200.000	-0.053	0.309
-476.303	232.074	0.109	0.179
-475.289	-200.000	-0.012	-0.081
-474.274	83.301	-0.111	0.121
-473.259	800.000	-0.071	-0.263
-472.245	-72.442	0.140	-0.051
-471.230	114.545	0.268	0.325
-470.216	116.544	-0.312	0.381
-469.201	-200.000	-0.026	0.248
-468.186	800.000	0.023	0.097
-467.172	-96.655	0.098	0.026
-466.157	-88.795	0.128	-0.038
-465.143	-200.000	-0.002	0.089
-464.128	-46.129	0.034	-0.016
-463.113	-200.000	0.005	0.213
-462.099	-200.000	0.028	0.178
-461.084	-15.618	-0.118	0.075
-460.070	-91.950	0.235	-0.066
-459.055	-158.220	-0.223	0.013
-458.040	2.981	-0.073	-0.053
-457.026	-134.650	-0.149	-0.018
-456.011	4.443	0.271	-0.198
-454.997	26.035	-0.029	0.024
-453.982	-19.378	-0.186	-0.115
-452.968	-126.774	0.168	0.025
-451.953	-132.571	0.365	-0.047
-450.938	-169.326	-0.212	0.008
-449.924	800.000	0.027	-0.097
-448.909	42.891	0.300	-0.272
-447.895	-98.525	0.219	0.056
-446.880	-86.391	-0.403	-0.123
-445.865	5.013	-0.218	-0.160
-444.851	407.306	0.108	0.227
-443.836	4.259	-0.091	-0.066
-442.822	42.740	0.152	-0.138
-441.807	207.380	0.144	-0.223
-440.792	178.947	0.042	0.060
-439.778	-200.000	-0.035	-0.270
-438.763	800.000	-0.022	0.072
-437.749	-200.000	-0.035	0.195
-436.734	-29.252	-0.086	0.049
-435.719	-89.739	-0.334	-0.097
-434.705	-125.768	0.178	-0.027
-433.690	16.376	0.111	-0.087
-432.676	800.000	-0.085	0.238
-431.661	800.000	0.103	0.426
-430.646	28.805	0.100	0.085
-429.632	396.870	0.048	-0.100
-428.617	-200.000	0.041	0.242
-427.603	-66.823	-0.223	-0.088
-426.588	559.174	-0.104	0.251
-425.573	304.543	0.127	0.234
-424.559	189.934	-0.119	-0.177
-423.544	-3.929	0.171	-0.118
-422.530	3.136	-0.166	-0.120
-421.515	-200.000	-0.007	-0.117
-420.500	3.892	0.203	0.147
-419.486	-120.058	-0.161	0.027
-418.471	-170.221	-0.307	-0.011
-417.457	-139.577	0.363	0.038
-416.442	-177.801	-0.221	-0.005
-415.428	-177.137	-0.295	0.007
-414.413	-126.180	0.156	-0.023
-413.398	-80.161	-0.100	0.033
-412.384	800.000	0.169	-0.509
-411.369	23.935	-0.163	-0.133
-410.355	-39.854	0.048	-0.025
-409.340	-200.000	0.043	-0.193
-408.325	800.000	0.068	-0.282
-407.311	-162.520	0.308	-0.015
-406.296	800.000	-0.043	-0.136
-405.282	-200.000	0.071	0.328
-404.267	-99.498	0.126	0.031
-403.252	-95.202	-0.217	0.058
-402.238	-71.985	0.164	-0.061
-401.223	11.919	-0.100	-0.077
-400.209	-200.000	-0.024	-0.340
-399.194	-52.858	-0.096	-0.044
-398.179	64.318	-0.201	0.201
-397.165	563.376	0.114	0.274
-396.150	96.430	0.190	0.216
-395.136	-200.000	0.077	-0.392
-394.121	539.167	-0.063	-0.150
-393.106	-99.341	0.348	0.087
-392.092	-46.080	-0.303	0.148
-391.077	126.775	-0.100	0.126
-390.063	13.274	0.305	-0.234
-389.048	669.954	0.065	-0.167
-388.033	-200.000	0.017	0.094
-387.019	406.884	-0.107	-0.223
-386.004	-200.000	0.010	0.164
-384.990	-120.688	-0.082	-0.014
-383.975	9.446	-0.084	-0.063
-382.960	-127.783	-0.368	0.053
-381.946	-54.813	-0.164	0.073
-380.931	-106.616	-0.288	0.064
-379.917	53.036	0.090	-0.085
-378.902	-6.725	-0.452	-0.305
-377.888	-200.000	-0.002	-0.038
-376.873	189.273	0.233	0.347
-375.858	-7.268	-0.190	0.127
-374.844	50.180	-0.162	-0.152
-373.829	126.464	0.241	-0.302
-372.815	-151.948	-0.496	0.036
-371.800	-62.738	0.232	-0.096
-370.785	93.919	0.202	0.227
-369.771	147.839	0.144	-0.193
-368.756	7.411	0.070	-0.052
-367.742	-200.000	-0.001	0.220
-366.727	698.950	0.073	-0.192
-365.712	-62.852	0.338	-0.139
-364.698	-200.000	0.009	-0.352
-363.683	-34.061	-0.166	0.090
-362.669	-98.869	-0.041	-0.010
-361.654	47.147	0.111	0.102
-360.639	-30.503	-0.402	0.226
-359.625	800.000	0.034	-0.098
-358.610	-70.239	-0.228	0.086
-357.596	-17.329	0.193	-0.120
-356.581	-7.077	0.187	0.126
-355.566	31.075	0.206	-0.175
-354.552	-200.000	-0.011	-0.215
-353.537	-101.020	-0.216	0.052
-352.523	125.473	-0.090	0.112
-351.508	-47.855	-0.101	-0.049
-350.493	-200.000	-0.033	0.152
-349.479	150.052	0.066	0.089
-348.464	69.067	0.201	-0.205
-347.450	-200.000	0.001	-0.073
-346.435	-51.711	0.117	0.054
-345.420	-200.000	0.024	0.146
-344.406	-152.696	-0.320	0.023
-343.391	-145.810	-0.286	-0.025
-342.377	27.108	-0.192	0.159
-341.362	800.000	-0.046	0.182
-340.348	-200.000	-0.011	-0.232
-339.333	-200.000	-0.034	-0.164
-338.318	-69.252	0.310	-0.118
-337.304	321.086	0.052	-0.097
-336.289	305.713	0.104	0.191
-335.275	169.574	-0.205	0.289
-334.260	-8.798	0.098	0.065
-333.245	-25.802	0.153	0.089
-332.231	800.000	0.024	-0.068
-331.216	529.391	0.176	-0.412
-330.202	332.561	0.068	-0.130
-329.187	423.534	-0.183	-0.390
-328.172	131.477	-0.195	-0.248
-327.158	9.334	-0.267	-0.200
-326.143	40.334	-0.261	-0.233
-325.129	-200.000	-0.018	0.082
-324.114	800.000	0.006	-0.022
-323.099	-186.003	-0.136	0.002
-322.085	249.264	-0.050	0.083
-321.070	800.000	0.028	0.116
-320.056	-166.564	0.233	-0.010
-319.041	11.451	-0.049	0.037
-318.026	75.439	0.163	-0.170
-317.012	-200.000	-0.036	-0.270
-315.997	-60.135	0.200	-0.085
-314.983	117.171	0.290	-0.353
-313.968	209.861	0.139	0.216
-312.953	-200.000	-0.006	-0.066
-311.939	-200.000	0.021	0.247
-310.924	26.043	-0.082	-0.067
-309.910	387.937	0.049	0.100
-308.895	-200.000	0.006	-0.123
-307.880	-8.418	0.301	-0.200
-306.866	-200.000	-0.036	-0.202
-305.851	30.024	-0.188	-0.158
-304.837	800.000	-0.057	0.158
-303.822	151.962	-0.220	-0.297
-302.807	61.247	-0.121	-0.119
-301.793	-46.160	0.094	0.046
-300.778	294.570	0.067	0.120
-299.764	121.685	0.079	0.098
-298.749	-31.160	-0.176	0.098
-297.735	164.563	0.075	0.105
-296.720	44.779	0.204	0.185
-295.705	-28.743	-0.133	-0.076
-294.691	-53.007	0.130	0.059
-293.676	800.000	-0.079	0.270
-292.662	800.000	0.010	0.031
-291.647	-167.806	0.132	-0.005
-290.632	83.465	-0.286	-0.308
-289.618	-200.000	0.011	0.118
-288.603	-200.000	0.029	-0.143
-287.589	18.093	0.193	0.152
-286.574	-119.887	-0.335	-0.057
-285.559	800.000	0.133	-0.431
-284.545	59.217	0.322	-0.314
-283.530	416.290	0.072	0.151
-282.516	-137.015	0.229	-0.026
-281.501	166.367	-0.131	0.183
-280.486	-114.590	-0.030	-0.006
-279.472	51.229	0.140	0.131
-278.457	495.843	0.062	-0.141
-277.443	170.178	-0.012	0.016
-276.428	602.785	-0.029	-0.070
-275.413	-56.551	-0.162	0.071
-274.399	782.362	-0.199	-0.539
-273.384	800.000	0.021	0.083
-272.370	171.525	-0.103	-0.146
-271.355	-88.209	0.072	-0.021
-270.340	55.566	0.081	0.078
-269.326	-102.702	-0.120	-0.028
-268.311	-53.053	0.332	0.151
-267.297	-17.320	0.282	0.176
-266.282	-110.263	-0.178	0.037
-265.267	-200.000	0.035	0.382
-264.253	33.338	-0.131	-0.112
-263.238	-27.754	0.070	-0.040
-262.224	-189.751	0.097	0.001
-261.209	-200.000	0.007	0.139
-260.195	-200.000	0.027	0.300
-259.180	-7.051	0.087	-0.059
-258.165	-200.000	0.011	-0.127
-257.151	-129.835	-0.309	-0.042
-256.136	-20.840	-0.295	-0.179
-255.122	75.971	0.142	0.148
-254.107	800.000	0.087	-0.352
-253.092	-3.424	0.260	-0.179
-252.078	-26.322	-0.125	0.073
-251.063	618.594	0.123	0.304
-250.049	-200.000	-0.036	0.179
-249.034	314.011	-0.080	-0.149
-248.019	-200.000	0.014	0.280
-247.005	764.837	0.134	-0.358
-245.990	-167.043	-0.348	0.014
-244.976	-200.000	-0.327	0.000
-243.961	-10.340	0.030	0.019
-242.946	99.550	0.154	-0.175
-241.932	800.000	-0.066	0.184
-240.917	130.402	-0.042	0.053
-239.903	-34.699	-0.353	0.190
-238.888	-200.000	-0.007	-0.107
-237.873	-200.000	-0.003	0.164
-236.859	-42.969	-0.074	-0.037
-235.844	486.579	-0.036	0.081
-234.830	-8.151	-0.448	0.298
-233.815	-200.000	-0.035	0.304
-232.800	-75.714	0.055	0.019
-231.786	592.022	-0.054	0.132
-230.771	-67.435	-0.091	-0.035
-229.757	-19.870	-0.264	0.161
-228.742	800.000	0.076	0.260
-227.727	-139.211	0.410	-0.044
-226.713	-62.747	0.232	0.095
-225.698	-200.000	0.012	0.055
-224.684	-146.147	0.094	0.008
-223.669	-11.504	0.301	0.195
-222.655	362.589	-0.155	0.307
-221.640	-200.000	-0.021	-0.439
-220.625	-80.020	-0.228	-0.076
-219.611	-88.823	-0.046	-0.013
-218.596	-177.443	0.529	0.013
-217.582	-53.720	-0.358	0.161
-216.567	-87.318	0.170	-0.051
-215.552	-126.843	-0.211	0.031
-214.538	-51.897	0.146	0.067
-213.523	799.834	-0.093	-0.254
-212.509	-130.857	0.463	-0.061
-211.494	45.683	0.256	0.233
-210.479	800.000	0.034	0.104
-209.465	-66.478	-0.179	-0.070
-208.450	-200.000	0.043	-0.245
-207.436	-58.264	0.202	0.087
-206.421	66.656	-0.052	-0.052
-205.406	800.000	-0.025	-0.085
-204.392	-117.063	-0.317	-0.057
-203.377	-22.302	-0.230	0.137
-202.363	140.938	-0.010	0.013
-201.348	158.286	0.018	0.025
-200.333	-42.805	-0.186	-0.093
-199.319	-145.584	-0.187	0.017
-198.304	-200.000	0.014	0.359
-197.290	221.991	0.089	-0.141
-196.275	800.000	0.108	0.390
-195.260	-43.309	-0.183	-0.091
-194.246	-93.603	-0.326	-0.089
-193.231	-200.000	-0.034	0.330
-192.217	-93.872	-0.253	0.069
-191.202	-200.000	-0.019	-0.371
-190.187	-45.792	0.338	0.164
-189.173	29.962	-0.161	-0.135
-188.158	22.369	-0.090	0.072
-187.144	301.709	-0.104	-0.190
-186.129	108.388	0.229	-0.269
-185.114	-200.000	-0.020	-0.495
-184.100	154.584	0.136	-0.183
-183.085	-142.794	0.210	-0.020
-182.071	-86.226	-0.239	0.073
-181.056	800.000	-0.082	-0.259
-180.042	-126.974	0.351	-0.051
-179.027	-107.193	-0.085	-0.019
-178.012	349.158	-0.045	-0.087
-176.998	-200.000	0.035	0.180
-175.983	-80.162	0.084	0.028
-174.969	800.000	-0.101	0.303
-173.954	23.402	-0.109	-0.088
-172.939	-200.000	0.029	0.137
-171.925	-172.288	-0.147	0.005
-170.910	800.000	-0.032	-0.103
-169.896	-95.867	0.278	0.073
-168.881	698.580	-0.033	0.086
-167.866	44.122	-0.057	0.052
-166.852	-29.823	0.105	-0.059
-165.837	-92.642	-0.151	-0.042
-164.823	582.326	0.051	0.122
-163.808	800.000	0.053	0.164
-162.793	227.615	-0.236	0.377
-161.779	101.806	-0.103	-0.118
-160.764	-100.840	0.114	0.028
-159.750	800.000	0.117	0.356
-158.735	-119.280	0.221	-0.038
-157.720	585.005	-0.027	0.066
-156.706	-200.000	-0.039	0.508
-155.691	-200.000	-0.024	0.107
-154.677	-1.648	0.153	-0.106
-153.662	156.362	-0.034	-0.047
-152.647	66.377	0.081	-0.081
-151.633	-90.857	0.299	-0.085
-150.618	-11.567	-0.200	0.129
-149.604	-200.000	-0.173	0.001
-148.589	-109.724	0.328	-0.068
-147.574	-15.902	0.247	-0.154
-146.560	716.972	0.085	-0.222
-145.545	278.080	-0.222	0.390
-144.531	-156.822	0.173	-0.010
-143.516	-13.825	0.131	-0.083
-142.502	-200.000	0.013	-0.364
-141.487	-11.965	-0.149	-0.096
-140.472	-12.362	0.157	0.101
-139.458	68.122	0.105	0.105
-138.443	3.208	-0.232	0.166
-137.429	56.419	0.109	0.104
-136.414	33.510	-0.145	0.124
-135.399	-35.964	0.311	0.165
-134.385	172.829	-0.149	0.211
-133.370	800.000	-0.081	0.262
-132.356	11.616	0.203	0.153
-131.341	-144.141	0.046	0.004
-130.326	288.011	-0.179	0.318
-129.312	25.953	-0.145	-0.119
-128.297	-56.424	0.094	-0.041
-127.283	-61.262	-0.177	0.073
-126.268	-200.000	-0.017	-0.191
-125.253	57.346	0.071	0.068
-124.239	-97.883	-0.415	0.105
-123.224	28.600	0.121	-0.100
-122.210	-105.953	0.192	-0.042
-121.195	-65.777	-0.100	-0.039
-120.180	800.000	0.063	0.184
