DTS Sentinel unit serial number:	SN413079Multiplexer serial number:	ORYXHardware model number:	OX4-SRSoftware version number:	ORYX F/W v4.00 Oryx Data Collector v3.7.2.0data status	okinstallation	princeton_trtdifferential loss correction	single-endedforward channel	channel 1reverse channel	N/Adate	2019/09/18time	00:30:35forward acquisition time	60.00reverse acquisition time	0.00gamma	496.2192k internal	0.2340k external	0.2340temperature offset calibration	0.9979default loss term (dB/km)	0.3790temperature slope calibration	1.0000multiplexer offset coefficient	1.0000multiplexer slope coefficient	1.0000fibre end	0.00T internal ref (°C)	23.55T ext. ref 1 (°C)	0.17T ext. ref 2 (°C)	17.13length (m)	temperature (°C)	Stokes	anti-Stokes-747.200	-200.000	0.015	-0.075
-746.185	800.000	-0.128	0.356
-745.171	-200.000	-0.009	0.042
-744.156	800.000	0.029	0.097
-743.142	-200.000	-0.018	-0.191
-742.127	-200.000	-0.099	0.486
-741.112	7.211	-0.124	0.093
-740.098	-200.000	-0.069	0.398
-739.083	-15.589	0.168	0.108
-738.069	-72.583	-0.246	-0.091
-737.054	34.392	-0.146	-0.128
-736.039	-200.000	-0.016	-0.302
-735.025	116.596	0.117	0.144
-734.010	18.482	-0.095	-0.076
-732.996	249.765	0.115	-0.196
-731.981	-34.091	0.028	-0.016
-730.966	505.104	-0.109	0.254
-729.952	-200.000	-0.015	-0.248
-728.937	-200.000	-0.003	-0.133
-727.923	-200.000	-0.036	-0.195
-726.908	800.000	-0.124	-0.457
-725.894	21.634	-0.213	0.174
-724.879	354.468	-0.140	0.280
-723.864	-85.093	0.201	-0.063
-722.850	-200.000	-0.023	0.130
-721.835	18.059	-0.142	-0.114
-720.821	-200.000	0.012	-0.198
-719.806	307.513	-0.176	-0.329
-718.791	484.669	-0.092	-0.210
-717.777	-17.042	-0.109	0.069
-716.762	445.993	-0.014	-0.030
-715.748	512.662	0.121	-0.282
-714.733	-27.108	-0.131	-0.076
-713.718	-43.390	-0.322	-0.163
-712.704	28.520	0.062	0.052
-711.689	-200.000	-0.028	0.211
-710.675	-200.000	0.013	-0.097
-709.660	67.204	0.179	-0.183
-708.645	-200.000	0.016	-0.183
-707.631	-200.000	-0.011	0.076
-706.616	706.789	0.054	0.144
-705.602	-68.367	-0.151	0.059
-704.587	190.131	0.105	0.158
-703.572	343.450	-0.098	-0.193
-702.558	-11.861	-0.061	-0.040
-701.543	-23.274	-0.161	0.097
-700.529	-200.000	0.083	-0.000
-699.514	-200.000	0.003	-0.380
-698.499	77.198	-0.084	0.090
-697.485	-200.000	-0.032	-0.379
-696.470	-30.586	0.353	0.200
-695.456	-63.817	-0.058	0.024
-694.441	387.608	-0.035	0.072
-693.426	118.092	-0.094	0.115
-692.412	-200.000	-0.049	0.346
-691.397	-200.000	0.000	0.134
-690.383	71.713	0.071	-0.074
-689.368	285.133	0.071	0.127
-688.354	-50.301	-0.414	0.196
-687.339	800.000	0.007	0.022
-686.324	-200.000	-0.021	-0.194
-685.310	-16.424	-0.168	-0.106
-684.295	3.331	-0.091	0.066
-683.281	-126.652	0.055	-0.008
-682.266	800.000	-0.023	0.072
-681.251	-22.728	0.110	0.066
-680.237	-144.859	-0.205	0.019
-679.222	70.095	0.209	0.216
-678.208	785.834	-0.137	0.375
-677.193	-200.000	0.058	-0.270
-676.178	-31.241	-0.139	0.078
-675.164	-17.931	-0.122	0.077
-674.149	130.012	0.150	0.192
-673.135	214.286	0.034	0.054
-672.120	-85.643	0.211	0.066
-671.105	616.600	0.043	0.107
-670.091	76.013	-0.104	0.110
-669.076	-200.000	0.010	0.343
-668.062	45.492	0.047	0.044
-667.047	-165.744	-0.195	0.008
-666.032	171.839	0.177	0.254
-665.018	800.000	-0.047	0.142
-664.003	185.695	0.065	0.097
-662.989	-24.235	0.263	0.157
-661.974	-61.641	0.123	0.051
-660.959	-200.000	0.144	0.000
-659.945	-144.909	0.177	-0.016
-658.930	-200.000	-0.013	0.323
-657.916	-200.000	-0.015	-0.065
-656.901	-162.762	-0.129	0.006
-655.886	792.093	-0.062	0.171
-654.872	111.430	-0.128	0.155
-653.857	-47.051	-0.181	-0.088
-652.843	174.876	-0.138	0.199
-651.828	-69.959	-0.186	-0.071
-650.814	800.000	0.003	-0.009
-649.799	-149.715	-0.185	-0.015
-648.784	-199.101	-0.320	0.002
-647.770	397.048	0.116	-0.243
-646.755	-88.436	-0.466	-0.139
-645.741	17.511	-0.199	-0.158
-644.726	105.995	0.222	0.263
-643.711	-200.000	-0.006	0.371
-642.697	232.007	-0.169	-0.277
-641.682	-78.135	0.159	-0.055
-640.668	-200.000	-0.089	-0.421
-639.653	-29.328	0.211	-0.121
-638.638	-137.881	-0.251	0.028
-637.624	296.158	-0.137	0.252
-636.609	-62.111	0.113	-0.047
-635.595	-200.000	-0.026	-0.212
-634.580	-200.000	0.039	0.371
-633.565	97.401	-0.329	0.378
-632.551	178.347	-0.086	0.125
-631.536	-53.881	-0.132	-0.060
-630.522	-44.477	-0.243	0.122
-629.507	-146.011	-0.072	-0.006
-628.492	-50.437	0.358	-0.169
-627.478	114.737	-0.163	0.199
-626.463	800.000	0.020	0.069
-625.449	117.281	-0.067	-0.082
-624.434	377.381	-0.070	-0.142
-623.419	-141.794	-0.225	-0.023
-622.405	-200.000	-0.039	-0.199
-621.390	800.000	-0.070	-0.244
-620.376	-200.000	-0.040	-0.306
-619.361	133.728	0.098	0.127
-618.346	-167.016	-0.319	-0.013
-617.332	792.587	-0.097	0.265
-616.317	276.440	0.031	-0.055
-615.303	202.301	-0.178	-0.274
-614.288	-200.000	0.012	-0.155
-613.273	-48.727	-0.110	-0.053
-612.259	-196.462	0.276	0.002
-611.244	800.000	-0.054	0.180
-610.230	67.915	-0.200	-0.204
-609.215	181.019	0.105	-0.153
-608.201	456.304	-0.080	0.177
-607.186	188.495	-0.124	0.185
-606.171	-16.557	0.330	0.209
-605.157	-63.994	0.373	0.152
-604.142	452.511	-0.028	-0.063
-603.128	10.010	-0.150	-0.114
-602.113	486.003	-0.027	-0.062
-601.098	65.442	-0.098	-0.099
-600.084	40.432	-0.213	-0.191
-599.069	333.015	-0.139	0.267
-598.055	-56.038	0.089	0.040
-597.040	-102.878	0.027	-0.007
-596.025	2.419	-0.120	-0.087
-595.011	11.602	0.040	-0.030
-593.996	777.330	0.105	-0.285
-592.982	-111.333	-0.491	0.100
-591.967	-101.106	-0.230	-0.056
-590.952	2.223	-0.300	0.216
-589.938	800.000	-0.125	0.406
-588.923	390.719	0.060	0.125
-587.909	-200.000	0.001	-0.217
-586.894	-200.000	-0.008	0.046
-585.879	10.864	-0.229	-0.174
-584.865	159.049	-0.103	-0.143
-583.850	121.585	0.179	-0.222
-582.836	-200.000	-0.021	-0.178
-581.821	800.000	-0.118	-0.401
-580.806	-26.549	0.145	-0.084
-579.792	40.554	0.157	-0.141
-578.777	62.778	0.121	-0.121
-577.763	-118.115	-0.221	-0.039
-576.748	-80.777	0.284	-0.094
-575.733	234.916	-0.190	-0.312
-574.719	-21.695	0.159	0.096
-573.704	-200.000	0.042	-0.244
-572.690	399.481	-0.079	0.165
-571.675	118.451	0.073	-0.090
-570.661	-200.000	-0.057	0.372
-569.646	3.633	0.074	-0.054
-568.631	198.289	0.065	-0.099
-567.617	-200.000	-0.015	0.232
-566.602	-50.935	-0.279	0.130
-565.588	133.012	0.244	0.313
-564.573	417.851	-0.220	-0.467
-563.558	-45.023	0.137	-0.068
-562.544	342.666	0.088	0.171
-561.529	-133.921	-0.399	0.049
-560.515	-65.448	-0.045	-0.018
-559.500	-200.000	-0.024	-0.181
-558.485	160.632	0.015	0.021
-557.471	-22.033	0.188	0.114
-556.456	184.303	0.237	0.350
-555.442	-30.978	-0.265	0.149
-554.427	-149.350	0.420	0.033
-553.412	741.196	-0.168	0.448
-552.398	-200.000	-0.010	-0.078
-551.383	251.759	0.279	-0.472
-550.369	-200.000	0.067	-0.327
-549.354	800.000	-0.025	0.080
-548.339	512.921	0.059	0.138
-547.325	607.168	-0.005	-0.012
-546.310	414.732	-0.067	-0.142
-545.296	800.000	-0.050	-0.178
-544.281	390.409	0.081	0.167
-543.266	-24.918	-0.199	0.118
-542.252	-48.275	-0.107	-0.051
-541.237	407.229	-0.122	-0.256
-540.223	-95.938	0.333	0.088
-539.208	-10.921	0.415	-0.272
-538.193	-90.957	0.467	-0.133
-537.179	5.825	0.118	0.087
-536.164	-200.000	0.003	-0.092
-535.150	-156.110	-0.100	-0.006
-534.135	-200.000	-0.000	0.098
-533.121	157.119	-0.174	-0.240
-532.106	-73.270	0.223	-0.081
-531.091	385.420	-0.090	0.184
-530.077	-131.214	-0.138	-0.018
-529.062	-95.365	-0.142	-0.038
-528.048	267.641	-0.194	-0.337
-527.033	-200.000	0.005	-0.278
-526.018	-200.000	0.019	-0.185
-525.004	179.475	0.097	0.141
-523.989	34.888	0.152	-0.132
-522.975	-78.497	0.046	0.016
-521.960	800.000	-0.027	-0.115
-520.945	800.000	0.043	-0.131
-519.931	-65.546	0.149	-0.059
-518.916	-200.000	-0.033	-0.172
-517.902	74.621	0.110	0.114
-516.887	111.450	-0.130	-0.156
-515.872	-54.339	-0.254	0.114
-514.858	-23.892	0.154	0.091
-513.843	53.410	-0.094	-0.090
-512.829	33.676	0.141	0.122
-511.814	-56.050	-0.157	-0.070
-510.799	229.355	0.134	0.217
-509.785	293.262	0.104	-0.188
-508.770	-136.738	-0.282	-0.032
-507.756	-15.517	-0.098	0.062
-506.741	-200.000	0.024	0.104
-505.726	-147.216	-0.221	-0.019
-504.712	87.026	0.268	0.294
-503.697	-115.915	0.089	0.017
-502.683	-200.000	-0.036	0.156
-501.668	-138.491	0.370	0.040
-500.653	360.368	-0.105	0.208
-499.639	-200.000	0.020	0.230
-498.624	345.132	0.218	0.426
-497.610	-65.759	-0.241	0.096
-496.595	108.195	0.134	0.159
-495.581	-102.262	0.138	0.033
-494.566	200.128	-0.095	-0.144
-493.551	800.000	0.077	-0.223
-492.537	192.827	0.040	-0.059
-491.522	-57.999	-0.219	0.095
-490.508	145.266	-0.314	0.417
-489.493	-158.100	0.143	0.008
-488.478	-200.000	0.026	-0.183
-487.464	-128.233	0.338	-0.048
-486.449	800.000	0.087	-0.278
-485.435	-68.197	-0.228	0.088
-484.420	-113.677	0.183	0.035
-483.405	-0.711	-0.089	-0.063
-482.391	-200.000	0.028	-0.136
-481.376	-161.381	-0.154	0.008
-480.362	-200.000	0.061	-0.312
-479.347	-29.617	0.216	0.122
-478.332	-197.343	-0.153	-0.001
-477.318	-199.881	-0.304	0.002
-476.303	-56.852	0.157	0.069
-475.289	42.546	0.132	0.119
-474.274	800.000	0.094	-0.300
-473.259	-164.579	-0.181	-0.008
-472.245	-112.195	-0.120	-0.024
-471.230	26.928	-0.278	-0.231
-470.216	117.699	0.177	-0.216
-469.201	137.700	-0.132	-0.172
-468.186	-128.379	0.097	0.014
-467.172	-200.000	0.010	0.118
-466.157	109.216	0.079	0.094
-465.143	-200.000	0.028	-0.217
-464.128	-8.258	-0.219	-0.146
-463.113	47.052	0.353	0.325
-462.099	-200.000	-0.287	0.001
-461.084	-68.953	0.178	0.068
-460.070	343.736	0.105	0.204
-459.055	415.275	-0.056	0.117
-458.040	456.773	0.112	0.247
-457.026	-48.382	0.077	-0.037
-456.011	418.287	-0.081	-0.173
-454.997	-200.000	-0.026	0.172
-453.982	800.000	0.065	-0.231
-452.968	313.920	-0.138	-0.257
-451.953	-113.869	-0.361	0.070
-450.938	-200.000	-0.006	-0.048
-449.924	-70.572	-0.305	-0.114
-448.909	-2.662	-0.136	0.095
-447.895	-125.838	0.154	-0.023
-446.880	-30.230	0.215	-0.121
-445.865	800.000	-0.123	-0.490
-444.851	22.567	0.350	-0.284
-443.836	-52.951	-0.084	-0.038
-442.822	-93.612	0.265	0.072
-441.807	33.538	0.195	-0.168
-440.792	800.000	-0.062	-0.208
-439.778	2.051	0.123	0.088
-438.763	-200.000	0.008	0.101
-437.749	-126.292	-0.279	0.041
-436.734	22.341	0.036	-0.029
-435.719	800.000	0.014	-0.056
-434.705	-200.000	0.037	0.368
-433.690	264.219	-0.199	-0.344
-432.676	75.526	-0.123	-0.129
-431.661	364.734	-0.035	0.070
-430.646	-169.674	-0.086	-0.003
-429.632	775.765	-0.058	0.157
-428.617	800.000	0.036	-0.109
-427.603	-57.132	0.072	0.032
-426.588	24.818	0.328	0.269
-425.573	94.872	0.085	0.096
-424.559	-200.000	-0.019	-0.194
-423.544	-144.163	0.294	-0.027
-422.530	389.271	0.036	0.074
-421.515	-200.000	-0.022	-0.142
-420.500	-200.000	0.028	0.160
-419.486	64.528	-0.197	-0.197
-418.471	-95.479	0.288	0.076
-417.457	-200.000	-0.046	-0.276
-416.442	-200.000	0.009	-0.209
-415.428	-172.152	0.101	0.003
-414.413	416.758	-0.035	-0.075
-413.398	10.651	0.441	0.333
-412.384	43.453	0.066	0.060
-411.369	-79.390	0.147	0.049
-410.355	-200.000	0.061	-0.304
-409.340	103.331	0.186	0.216
-408.325	-118.784	-0.377	-0.066
-407.311	126.923	-0.181	0.227
-406.296	-117.626	0.143	0.025
-405.282	800.000	0.049	-0.203
-404.267	-200.000	0.014	0.274
-403.252	-88.016	-0.134	-0.040
-402.238	-150.697	0.125	0.009
-401.223	800.000	0.062	-0.174
-400.209	540.390	-0.051	-0.120
-399.194	-28.567	-0.360	0.205
-398.179	-200.000	-0.052	0.436
-397.165	-200.000	-0.010	0.273
-396.150	-69.507	0.142	-0.054
-395.136	-93.399	-0.355	-0.097
-394.121	800.000	-0.034	-0.095
-393.106	-200.000	0.015	0.327
-392.092	-55.711	0.242	-0.107
-391.077	-2.578	0.069	-0.048
-390.063	-9.911	0.232	-0.153
-389.048	800.000	0.059	0.226
-388.033	-71.324	-0.303	0.112
-387.019	-32.902	-0.246	-0.135
-386.004	-132.826	-0.236	-0.030
-384.990	142.528	0.075	-0.098
-383.975	-116.053	-0.130	-0.024
-382.960	-200.000	-0.022	0.362
-381.946	-96.304	-0.325	-0.085
-380.931	-113.284	0.158	-0.031
-379.917	172.394	0.223	0.317
-378.902	131.983	-0.264	0.336
-377.888	44.491	0.127	0.115
-376.873	32.415	0.081	0.069
-375.858	37.341	0.198	-0.174
-374.844	-200.000	-0.047	-0.207
-373.829	70.488	0.054	-0.055
-372.815	-37.090	0.189	0.100
-371.800	-200.000	-0.044	-0.488
-370.785	-105.323	0.153	-0.034
-369.771	-200.000	-0.042	-0.307
-368.756	245.797	0.018	0.030
-367.742	95.158	-0.108	0.122
-366.727	800.000	0.125	0.342
-365.712	211.075	0.061	0.095
-364.698	-5.953	0.230	-0.155
-363.683	-130.694	-0.171	-0.023
-362.669	-96.522	-0.382	0.100
-361.654	-2.873	0.227	0.156
-360.639	616.646	0.056	-0.138
-359.625	-200.000	-0.003	-0.134
-358.610	139.425	-0.258	-0.335
-357.596	-74.614	0.253	-0.090
-356.581	-134.076	-0.200	0.024
-355.566	-76.471	-0.222	-0.077
-354.552	-169.264	0.015	0.001
-353.537	-50.372	0.127	0.059
-352.523	-143.917	0.293	-0.027
-351.508	800.000	-0.102	-0.437
-350.493	295.116	-0.046	0.082
-349.479	282.023	-0.184	0.325
-348.464	-37.779	0.057	-0.030
-347.450	757.353	-0.076	-0.203
-346.435	800.000	0.040	0.128
-345.420	81.817	0.382	0.408
-344.406	-96.585	0.037	-0.010
-343.391	322.631	-0.164	0.309
-342.377	-78.738	-0.074	0.025
-341.362	-26.130	0.069	-0.040
-340.348	-60.621	0.103	-0.043
-339.333	587.887	-0.080	0.194
-338.318	-26.256	0.260	0.151
-337.304	527.547	0.142	-0.330
-336.289	-49.472	-0.107	-0.050
-335.275	-188.467	-0.026	0.000
-334.260	292.025	-0.232	-0.418
-333.245	13.111	0.143	-0.109
-332.231	-139.078	-0.297	-0.032
-331.216	689.729	0.064	0.164
-330.202	-200.000	0.025	-0.331
-329.187	-89.273	-0.377	-0.110
-328.172	-69.221	0.296	0.112
-327.158	491.707	0.085	0.191
-326.143	-117.102	0.116	-0.021
-325.129	-200.000	-0.005	0.127
-324.114	-200.000	-0.083	0.456
-323.099	39.913	0.114	-0.101
-322.085	119.018	0.092	-0.112
-321.070	800.000	-0.046	-0.190
-320.056	-107.462	0.150	-0.032
-319.041	15.386	0.129	-0.100
-318.026	-76.037	0.196	-0.068
-317.012	800.000	-0.171	0.483
-315.997	800.000	-0.045	-0.136
-314.983	-11.942	0.136	0.088
-313.968	-102.109	0.307	-0.073
-312.953	-38.059	0.037	-0.020
-311.939	27.156	0.251	0.208
-310.924	138.692	0.336	0.435
-309.910	333.159	0.147	0.280
-308.895	-32.145	0.310	-0.171
-307.880	-15.435	0.060	0.038
-306.866	-200.000	-0.014	0.096
-305.851	-151.265	0.177	0.013
-304.837	-108.652	0.203	0.043
-303.822	249.478	-0.153	0.255
-302.807	-75.329	0.117	-0.041
-301.793	293.234	0.109	-0.197
-300.778	-65.302	-0.139	0.055
-299.764	-118.208	-0.123	0.022
-298.749	-114.011	-0.420	0.080
-297.735	132.432	0.133	-0.168
-296.720	-200.000	-0.038	-0.465
-295.705	118.848	0.036	-0.044
-294.691	-119.709	-0.294	0.050
-293.676	386.217	0.160	0.326
-292.662	800.000	0.047	0.193
-291.647	-23.147	-0.250	0.148
-290.632	254.432	-0.141	-0.238
-289.618	356.842	-0.063	-0.124
-288.603	116.192	0.021	0.025
-287.589	111.187	-0.138	-0.163
-286.574	800.000	0.066	-0.185
-285.559	95.934	-0.204	0.229
-284.545	788.974	0.076	-0.206
-283.530	-137.854	0.080	-0.009
-282.516	-119.751	0.018	0.003
-281.501	-135.948	0.239	-0.028
-280.486	-60.086	0.178	-0.075
-279.472	-20.219	0.297	0.180
-278.457	-155.517	-0.010	0.001
-277.443	-53.890	-0.328	0.147
-276.428	-200.000	-0.025	-0.161
-275.413	87.247	-0.025	0.027
-274.399	137.284	0.216	-0.277
-273.384	800.000	0.173	-0.489
-272.370	-200.000	-0.010	0.072
-271.355	698.379	0.023	0.060
-270.340	348.683	0.055	0.106
-269.326	800.000	-0.080	-0.315
-268.311	-104.699	-0.204	-0.046
-267.297	-89.433	0.115	-0.033
-266.282	-127.609	0.199	-0.028
-265.267	401.841	-0.041	0.085
-264.253	-150.405	0.094	-0.007
-263.238	-187.001	-0.138	0.002
-262.224	-200.000	0.008	-0.082
-261.209	433.311	0.105	0.225
-260.195	-51.177	-0.359	-0.166
-259.180	-58.295	0.381	0.163
-258.165	-91.677	-0.110	-0.031
-257.151	-200.000	0.320	0.001
-256.136	-200.000	0.032	0.273
-255.122	-136.897	-0.199	0.023
-254.107	-200.000	-0.020	0.362
-253.092	-200.000	0.031	0.242
-252.078	163.519	0.022	-0.030
-251.063	127.430	-0.186	0.232
-250.049	54.732	-0.305	0.289
-249.034	90.512	0.170	0.187
-248.019	-100.611	-0.238	0.058
-247.005	800.000	-0.036	-0.137
-245.990	174.720	-0.124	-0.176
-244.976	134.051	-0.148	0.189
-243.961	800.000	-0.086	-0.239
-242.946	91.529	-0.162	0.179
-241.932	449.554	-0.144	0.311
-240.917	-200.000	0.031	0.318
-239.903	11.365	-0.062	0.046
-238.888	3.453	0.284	0.204
-237.873	186.585	0.116	0.169
-236.859	96.317	0.131	-0.147
-235.844	-154.018	-0.327	0.022
-234.830	-72.197	0.070	-0.025
-233.815	-135.106	-0.247	-0.029
-232.800	26.084	0.245	-0.201
-231.786	463.013	0.035	-0.077
-230.771	-34.642	0.338	0.182
-229.757	-149.341	0.226	0.018
-228.742	-39.282	0.145	0.075
-227.727	351.571	0.110	0.214
-226.713	457.814	0.095	0.207
-225.698	164.201	-0.043	0.060
-224.684	657.512	-0.100	-0.252
-223.669	-42.984	0.202	0.101
-222.655	800.000	0.112	0.362
-221.640	499.100	-0.179	-0.404
-220.625	110.271	0.032	-0.038
-219.611	-200.000	-0.017	0.208
-218.596	-32.296	0.087	0.048
-217.582	23.722	-0.319	-0.258
-216.567	230.419	0.158	0.253
-215.552	258.269	0.081	0.137
-214.538	-33.869	0.106	-0.058
-213.523	-200.000	0.011	-0.189
-212.509	-114.738	-0.148	0.028
-211.494	-172.942	-0.182	0.006
-210.479	-200.000	-0.049	0.348
-209.465	800.000	-0.021	0.089
-208.450	-36.186	-0.187	-0.099
-207.436	193.370	0.035	-0.051
-206.421	253.751	-0.179	-0.300
-205.406	-80.968	0.058	-0.019
-204.392	274.516	-0.096	-0.167
-203.377	296.227	-0.139	-0.250
-202.363	-16.159	0.172	0.107
-201.348	-104.085	-0.160	-0.036
-200.333	140.125	-0.231	-0.299
-199.319	-78.915	0.104	0.035
-198.304	-1.405	0.019	0.013
-197.290	423.760	-0.135	0.284
-196.275	578.475	-0.148	0.354
-195.260	-127.937	0.107	-0.015
-194.246	2.529	-0.166	-0.118
-193.231	-105.014	0.254	0.057
-192.217	156.987	-0.129	0.175
-191.202	-72.607	-0.229	-0.083
-190.187	-62.390	-0.190	0.078
-189.173	-47.705	-0.166	-0.079
-188.158	-88.341	-0.249	-0.073
-187.144	-83.189	0.256	0.081
-186.129	-200.000	0.016	0.114
-185.114	120.708	0.094	0.115
-184.100	-52.932	0.515	0.232
-183.085	-200.000	0.036	-0.307
-182.071	315.445	0.136	-0.252
-181.056	-73.463	0.088	0.031
-180.042	-49.212	0.064	0.030
-179.027	145.829	-0.150	0.197
-178.012	-50.076	-0.089	0.041
-176.998	-127.912	0.372	0.052
-175.983	-200.000	0.023	-0.130
-174.969	23.825	-0.173	-0.140
-173.954	144.407	0.061	-0.080
-172.939	-200.000	0.024	0.163
-171.925	500.175	-0.082	0.184
-170.910	-51.823	-0.006	0.003
-169.896	39.348	0.177	-0.155
-168.881	-20.746	0.190	-0.114
-167.866	675.356	-0.113	0.287
-166.852	558.927	0.033	-0.077
-165.837	-200.000	0.058	-0.336
-164.823	33.119	-0.141	-0.120
-163.808	800.000	-0.140	-0.391
-162.793	-40.903	0.170	-0.086
-161.779	-200.000	0.001	0.406
-160.764	-89.167	0.051	-0.015
-159.750	-8.596	-0.424	0.279
-158.735	-121.844	0.150	0.024
-157.720	-148.431	0.055	0.004
-156.706	-145.599	0.098	-0.009
-155.691	-10.084	0.097	0.063
-154.677	-118.956	-0.134	-0.023
-153.662	-200.000	0.029	0.130
-152.647	-200.000	0.097	0.473
-151.633	71.236	0.066	-0.067
-150.618	-156.026	0.056	0.003
-149.604	103.240	0.067	-0.077
-148.589	724.290	-0.039	0.103
-147.574	800.000	0.053	0.206
-146.560	-96.709	-0.437	0.113
-145.545	612.875	-0.034	0.084
-144.531	120.257	-0.116	-0.141
-143.516	7.921	-0.156	-0.115
-142.502	-109.774	0.217	0.045
-141.487	-150.265	0.095	0.007
-140.472	-76.603	0.070	-0.024
-139.458	-90.486	0.105	-0.030
-138.443	-200.000	0.062	-0.413
-137.429	-200.000	-0.002	0.082
-136.414	-200.000	0.004	0.161
-135.399	-200.000	-0.002	-0.294
-134.385	-119.796	0.139	0.023
-133.370	234.976	0.243	0.393
-132.356	-173.076	0.060	0.002
-131.341	-200.000	0.050	-0.225
-130.326	302.491	0.170	0.308
-129.312	28.221	0.100	-0.083
-128.297	-177.884	-0.448	-0.011
-127.283	-200.000	0.005	0.245
-126.268	76.740	0.180	0.187
-125.253	15.710	0.087	-0.067
-124.239	398.158	-0.041	0.084
-123.224	-44.680	-0.345	0.168
-122.210	-33.367	0.147	0.079
