DTS Sentinel unit serial number:	SN413079Multiplexer serial number:	ORYXHardware model number:	OX4-SRSoftware version number:	ORYX F/W v4.00 Oryx Data Collector v3.7.2.0data status	okinstallation	princeton_trtdifferential loss correction	single-endedforward channel	channel 1reverse channel	N/Adate	2019/09/16time	17:02:35forward acquisition time	60.00reverse acquisition time	0.00gamma	496.2192k internal	0.2296k external	0.2296temperature offset calibration	0.9965default loss term (dB/km)	0.3790temperature slope calibration	1.0000multiplexer offset coefficient	1.0000multiplexer slope coefficient	1.0000fibre end	0.00T internal ref (°C)	39.25T ext. ref 1 (°C)	15.30T ext. ref 2 (°C)	33.47length (m)	temperature (°C)	Stokes	anti-Stokes-747.200	-58.529	0.104	0.046
-746.185	-200.000	-0.061	0.347
-745.171	378.725	0.104	0.218
-744.156	-200.000	-0.027	0.373
-743.142	-30.055	-0.125	0.072
-742.127	-13.037	0.300	0.199
-741.112	205.173	0.176	0.280
-740.098	59.304	-0.120	0.120
-739.083	46.521	-0.181	0.172
-738.069	0.999	-0.453	0.331
-737.054	103.980	-0.143	-0.172
-736.039	800.000	-0.035	-0.099
-735.025	51.969	-0.172	0.167
-734.010	195.405	-0.171	-0.265
-732.996	800.000	-0.032	-0.109
-731.981	277.552	0.097	0.177
-730.966	-129.027	0.217	0.031
-729.952	-97.090	0.185	0.049
-728.937	-200.000	-0.016	-0.599
-727.923	800.000	-0.115	-0.344
-726.908	-158.863	-0.356	-0.021
-725.894	82.258	-0.018	0.020
-724.879	360.746	0.193	-0.395
-723.864	800.000	-0.132	-0.433
-722.850	-151.000	0.581	0.045
-721.835	-200.000	-0.028	0.129
-720.821	-154.213	0.194	0.013
-719.806	82.140	-0.274	-0.303
-718.791	-36.668	0.208	0.114
-717.777	49.682	0.266	-0.256
-716.762	476.106	0.027	0.063
-715.748	-35.753	0.271	-0.150
-714.733	353.536	-0.118	0.239
-713.718	-200.000	0.040	-0.187
-712.704	-92.923	-0.309	-0.088
-711.689	31.792	0.076	0.066
-710.675	-127.360	-0.267	0.040
-709.660	-200.000	0.022	0.308
-708.645	-4.837	-0.069	0.048
-707.631	235.976	-0.099	-0.167
-706.616	-12.363	0.309	0.206
-705.602	48.323	-0.099	0.094
-704.587	-200.000	0.063	0.306
-703.572	136.501	0.146	0.194
-702.558	87.785	-0.123	0.140
-701.543	-139.791	0.229	0.025
-700.529	106.988	-0.065	0.079
-699.514	-91.673	-0.355	0.103
-698.499	576.649	0.050	-0.124
-697.485	-75.391	-0.184	0.067
-696.470	-71.271	-0.344	0.131
-695.456	-173.568	0.261	-0.008
-694.441	56.494	0.186	-0.185
-693.426	-50.332	0.151	0.073
-692.412	800.000	-0.085	-0.246
-691.397	-200.000	0.006	-0.241
-690.383	34.437	-0.169	-0.150
-689.368	-27.403	-0.205	0.122
-688.354	-38.849	-0.117	0.063
-687.339	74.923	-0.056	0.061
-686.324	445.254	0.046	0.103
-685.310	800.000	-0.095	0.278
-684.295	-200.000	-0.031	-0.184
-683.281	330.932	0.178	-0.350
-682.266	-69.941	-0.122	-0.047
-681.251	19.916	0.156	0.128
-680.237	690.666	-0.222	-0.591
-679.222	91.162	-0.163	0.187
-678.208	28.175	0.122	-0.105
-677.193	-200.000	0.034	-0.000
-676.178	160.528	0.152	0.216
-675.164	410.330	0.098	-0.212
-674.149	-56.251	-0.173	0.078
-673.135	39.345	0.188	-0.171
-672.120	-79.841	0.183	0.063
-671.105	-200.000	0.015	-0.203
-670.091	-126.670	-0.415	-0.063
-669.076	81.114	-0.022	0.024
-668.062	127.420	0.179	-0.232
-667.047	-193.261	-0.250	0.002
-666.032	374.201	0.124	-0.257
-665.018	-200.000	0.028	0.229
-664.003	146.813	0.137	0.188
-662.989	50.408	0.136	-0.131
-661.974	52.986	-0.065	-0.063
-660.959	-98.545	0.107	0.028
-659.945	-200.000	-0.067	-0.300
-658.930	-78.928	-0.258	-0.089
-657.916	-97.885	0.176	-0.046
-656.901	-200.000	0.014	0.167
-655.886	128.351	0.199	0.258
-654.872	-120.617	-0.427	-0.074
-653.857	-174.229	0.428	0.013
-652.843	800.000	-0.068	0.263
-651.828	-92.225	0.312	0.090
-650.814	-19.539	0.272	-0.171
-649.799	-85.042	0.310	0.099
-648.784	-90.719	-0.087	0.026
-647.770	432.900	-0.148	-0.327
-646.755	-200.000	-0.012	-0.241
-645.741	-105.243	0.189	0.044
-644.726	558.401	0.046	-0.114
-643.711	-145.322	-0.214	-0.020
-642.697	800.000	-0.012	-0.047
-641.682	81.541	-0.161	0.177
-640.668	49.162	0.146	0.139
-639.653	-43.404	-0.258	-0.132
-638.638	316.641	-0.124	0.238
-637.624	800.000	0.099	0.368
-636.609	526.419	-0.142	0.340
-635.595	317.206	-0.152	0.293
-634.580	-7.199	0.145	0.100
-633.565	-38.315	0.052	-0.028
-632.551	-129.646	0.391	-0.055
-631.536	-62.006	0.121	0.052
-630.522	-75.520	0.163	0.059
-629.507	180.516	0.111	0.165
-628.492	596.214	-0.079	-0.198
-627.478	-131.001	0.241	-0.033
-626.463	170.119	0.220	-0.320
-625.449	-75.373	-0.053	0.019
-624.434	84.390	-0.364	0.404
-623.419	330.925	0.103	0.201
-622.405	335.462	-0.095	-0.188
-621.390	800.000	0.038	-0.108
-620.376	-8.860	-0.177	0.121
-619.361	776.534	0.062	-0.171
-618.346	123.744	0.164	-0.209
-617.332	3.508	-0.220	-0.163
-616.317	-73.889	0.135	0.050
-615.303	80.780	0.067	-0.074
-614.288	-93.008	-0.164	0.047
-613.273	-200.000	-0.008	0.342
-612.259	609.197	0.071	-0.179
-611.244	800.000	0.074	0.247
-610.230	800.000	0.071	0.200
-609.215	-32.658	0.187	-0.106
-608.201	74.451	-0.108	-0.116
-607.186	128.931	-0.190	-0.246
-606.171	-74.640	-0.341	-0.125
-605.157	-90.211	0.220	-0.065
-604.142	800.000	-0.098	-0.334
-603.128	217.194	-0.131	-0.213
-602.113	49.852	0.099	-0.095
-601.098	775.744	0.137	0.379
-600.084	800.000	-0.070	0.220
-599.069	703.347	0.101	-0.270
-598.055	-200.000	-0.241	-0.001
-597.040	154.966	0.136	-0.190
-596.025	-200.000	-0.014	-0.233
-595.011	601.821	-0.055	-0.139
-593.996	197.701	-0.177	0.275
-592.982	-130.841	0.057	-0.008
-591.967	-75.303	0.037	-0.013
-590.952	2.097	-0.028	0.021
-589.938	11.507	-0.103	-0.080
-588.923	800.000	0.028	-0.122
-587.909	-200.000	-0.026	0.194
-586.894	-80.456	-0.111	-0.038
-585.879	144.089	-0.260	-0.353
-584.865	92.979	-0.196	-0.225
-583.850	-200.000	0.042	-0.225
-582.836	30.353	0.286	0.248
-581.821	158.254	0.097	0.136
-580.806	33.316	-0.157	-0.139
-579.792	360.843	-0.035	0.071
-578.777	31.935	0.174	-0.152
-577.763	-65.617	0.343	0.140
-576.748	-123.123	0.253	0.041
-575.733	29.793	0.318	0.275
-574.719	-200.000	0.040	-0.353
-573.704	583.256	-0.108	-0.268
-572.690	223.800	-0.114	-0.187
-571.675	389.803	0.098	0.205
-570.661	188.874	-0.135	-0.205
-569.646	-177.720	-0.303	0.007
-568.631	198.273	-0.157	-0.244
-567.617	271.895	-0.163	-0.292
-566.602	100.435	-0.327	0.385
-565.588	187.823	0.094	-0.142
-564.573	-121.516	-0.071	-0.012
-563.558	-200.000	-0.003	0.228
-562.544	-11.239	-0.251	0.168
-561.529	-200.000	0.050	0.230
-560.515	-92.702	-0.162	-0.046
-559.500	20.349	0.106	-0.087
-558.485	800.000	-0.086	-0.316
-557.471	-200.000	0.021	-0.136
-556.456	800.000	-0.057	-0.225
-555.442	-200.000	0.030	0.157
-554.427	-200.000	-0.038	-0.482
-553.412	-49.517	-0.261	-0.126
-552.398	520.669	0.068	-0.161
-551.383	-33.891	-0.138	0.077
-550.369	-94.986	-0.167	0.046
-549.354	155.891	-0.160	0.224
-548.339	800.000	-0.055	0.189
-547.325	-200.000	-0.052	-0.275
-546.310	124.833	0.041	-0.052
-545.296	-200.000	-0.029	-0.163
-544.281	-200.000	0.021	-0.103
-543.266	175.770	0.061	-0.089
-542.252	-54.313	-0.221	0.102
-541.237	800.000	-0.076	0.237
-540.223	-200.000	0.040	0.283
-539.208	112.721	-0.314	-0.385
-538.193	122.331	0.180	-0.228
-537.179	215.544	-0.239	-0.384
-536.164	-94.386	-0.154	0.042
-535.150	177.522	-0.071	-0.104
-534.135	15.762	0.291	-0.232
-533.121	154.242	0.264	-0.367
-532.106	-24.509	-0.128	-0.077
-531.091	-200.000	0.020	0.261
-530.077	-155.748	-0.285	-0.019
-529.062	-32.652	0.094	0.053
-528.048	-200.000	0.021	-0.343
-527.033	-15.773	-0.139	-0.090
-526.018	-122.949	0.274	0.045
-525.004	-91.355	0.069	0.020
-523.989	767.432	0.072	0.199
-522.975	-191.222	0.342	-0.004
-521.960	-200.000	-0.038	0.243
-520.945	-91.310	-0.279	0.081
-519.931	-147.088	-0.412	0.036
-518.916	173.751	-0.103	0.151
-517.902	-57.969	0.242	0.107
-516.887	-75.357	0.050	-0.018
-515.872	-32.256	0.248	-0.140
-514.858	0.938	0.180	0.131
-513.843	69.790	-0.143	0.150
-512.829	648.436	-0.085	-0.220
-511.814	-180.741	-0.153	0.003
-510.799	80.672	0.171	0.187
-509.785	36.459	0.133	-0.118
-508.770	-15.967	0.121	-0.078
-507.756	800.000	0.069	-0.199
-506.741	40.408	0.067	-0.061
-505.726	-0.809	-0.306	-0.219
-504.712	800.000	-0.051	0.143
-503.697	300.499	0.053	-0.099
-502.683	-59.506	-0.293	0.127
-501.668	-95.881	-0.083	0.022
-500.653	-104.261	0.143	-0.034
-499.639	478.422	-0.049	0.111
-498.624	10.496	-0.179	0.138
-497.610	-17.397	-0.223	0.142
-496.595	800.000	0.062	0.234
-495.581	-114.931	0.280	0.054
-494.566	-69.817	0.169	0.065
-493.551	-106.713	-0.218	0.049
-492.537	-164.825	0.066	0.003
-491.522	800.000	-0.083	-0.250
-490.508	800.000	-0.121	-0.362
-489.493	168.870	-0.084	-0.121
-488.478	-100.683	0.200	0.050
-487.464	294.237	-0.079	0.146
-486.449	160.903	-0.060	0.084
-485.435	-79.462	-0.103	0.035
-484.420	-104.631	0.169	0.039
-483.405	39.953	-0.075	-0.068
-482.391	-4.129	-0.185	0.130
-481.376	-84.639	0.141	-0.045
-480.362	-78.060	-0.145	-0.051
-479.347	-121.798	-0.239	0.040
-478.332	-107.778	-0.063	-0.014
-477.318	-200.000	0.012	-0.081
-476.303	106.108	-0.140	-0.167
-475.289	65.335	-0.166	0.170
-474.274	-92.736	0.123	-0.035
-473.259	-0.560	0.056	-0.040
-472.245	204.495	0.114	0.178
-471.230	42.790	0.174	0.160
-470.216	100.637	0.162	0.190
-469.201	23.888	0.141	-0.117
-468.186	132.283	0.140	0.182
-467.172	184.978	-0.119	-0.178
-466.157	-62.668	0.149	0.063
-465.143	475.747	0.123	0.281
-464.128	170.441	-0.105	0.151
-463.113	-35.944	0.087	0.047
-462.099	800.000	0.118	0.367
-461.084	-200.000	0.022	-0.124
-460.070	-102.120	-0.010	0.002
-459.055	164.190	-0.206	0.293
-458.040	233.594	-0.053	0.088
-457.026	-157.680	0.161	0.010
-456.011	-200.000	-0.124	0.001
-454.997	-135.159	0.226	-0.027
-453.982	43.301	0.084	-0.078
-452.968	-91.508	0.156	0.045
-451.953	-60.982	-0.157	0.067
-450.938	-73.041	-0.384	0.142
-449.924	-200.000	0.043	0.383
-448.909	167.862	0.136	0.196
-447.895	70.667	0.116	0.121
-446.880	800.000	-0.111	0.312
-445.865	34.913	-0.160	-0.141
-444.851	-3.928	-0.258	-0.181
-443.836	-43.715	-0.233	-0.119
-442.822	800.000	-0.006	-0.023
-441.807	56.195	-0.031	0.030
-440.792	0.912	-0.211	0.153
-439.778	-86.556	0.148	0.046
-438.763	-26.247	-0.196	0.116
-437.749	268.293	0.038	0.068
-436.734	-65.827	-0.309	-0.125
-435.719	-200.000	0.035	0.246
-434.705	-41.025	0.029	0.015
-433.690	272.444	-0.119	0.211
-432.676	56.335	-0.118	-0.116
-431.661	86.787	0.218	-0.243
-430.646	-27.613	0.098	-0.057
-429.632	-97.000	0.090	-0.024
-428.617	-131.710	-0.113	0.015
-427.603	-200.000	0.023	-0.164
-426.588	-200.000	0.065	0.343
-425.573	-50.786	0.249	0.118
-424.559	30.254	0.094	0.081
-423.544	-139.713	-0.231	-0.025
-422.530	-45.847	-0.137	0.068
-421.515	-50.930	-0.129	-0.061
-420.500	3.223	-0.206	0.151
-419.486	17.737	0.232	-0.187
-418.471	800.000	0.098	0.314
-417.457	381.920	-0.064	0.132
-416.442	-200.000	-0.055	0.285
-415.428	800.000	-0.103	0.392
-414.413	-15.854	-0.158	-0.102
-413.398	-200.000	-0.013	0.107
-412.384	-200.000	0.021	-0.113
-411.369	-191.733	-0.433	0.004
-410.355	-92.286	-0.191	-0.054
-409.340	153.738	0.122	-0.169
-408.325	-200.000	-0.006	0.199
-407.311	58.966	0.107	-0.106
-406.296	-44.080	0.262	0.133
-405.282	800.000	-0.045	-0.133
-404.267	-144.748	0.388	0.036
-403.252	-148.244	0.253	-0.021
-402.238	-200.000	-0.023	0.146
-401.223	-96.756	-0.205	-0.054
-400.209	-172.811	-0.034	0.001
-399.194	76.858	0.182	0.195
-398.179	-139.536	0.206	-0.022
-397.165	-62.954	-0.199	0.083
-396.150	-200.000	-0.021	0.179
-395.136	33.966	-0.055	-0.048
-394.121	9.964	-0.181	0.138
-393.106	-83.133	0.178	0.058
-392.092	386.532	0.130	0.270
-391.077	-160.079	-0.157	0.009
-390.063	133.915	-0.067	-0.087
-389.048	-117.766	0.161	0.029
-388.033	124.229	-0.266	-0.337
-387.019	8.860	0.361	-0.274
-386.004	-104.180	0.162	-0.038
-384.990	390.041	0.022	-0.046
-383.975	-151.257	0.155	-0.012
-382.960	-20.100	0.218	0.135
-381.946	-17.117	0.186	-0.118
-380.931	-200.000	0.006	-0.196
-379.917	-110.328	-0.055	0.011
-378.902	24.596	-0.176	-0.147
-377.888	-26.166	-0.223	0.132
-376.873	-2.142	0.114	0.081
-375.858	72.775	0.190	-0.199
-374.844	-200.000	0.019	0.101
-373.829	-200.000	0.003	0.184
-372.815	-195.259	-0.277	0.002
-371.800	188.964	0.157	0.237
-370.785	800.000	-0.054	-0.153
-369.771	-22.008	-0.096	0.059
-368.756	308.275	-0.197	-0.369
-367.742	-200.000	-0.004	0.155
-366.727	433.382	0.020	0.044
-365.712	783.483	0.046	0.127
-364.698	-200.000	-0.044	-0.257
-363.683	800.000	-0.076	0.326
-362.669	11.398	-0.241	0.185
-361.654	800.000	-0.089	0.300
-360.639	114.939	0.079	-0.097
-359.625	-200.000	-0.029	0.374
-358.610	-28.731	0.083	0.048
-357.596	800.000	0.113	-0.379
-356.581	-200.000	0.012	-0.128
-355.566	-7.620	-0.242	-0.165
-354.552	102.248	0.173	-0.204
-353.537	-27.927	0.102	0.059
-352.523	-41.535	-0.186	-0.096
-351.508	-200.000	0.026	-0.292
-350.493	-74.605	0.094	-0.034
-349.479	-61.562	0.326	-0.138
-348.464	198.912	-0.118	-0.181
-347.450	-51.834	0.266	-0.124
-346.435	-17.382	0.104	-0.066
-345.420	77.061	0.225	0.241
-344.406	800.000	0.083	-0.254
-343.391	-25.494	-0.052	-0.031
-342.377	1.112	0.204	0.147
-341.362	-134.087	-0.266	-0.033
-340.348	-169.655	0.333	-0.012
-339.333	-197.740	-0.298	0.002
-338.318	-200.000	-0.019	0.458
-337.304	-149.073	0.137	-0.011
-336.289	-42.222	0.080	-0.041
-335.275	133.541	-0.176	-0.228
-334.260	18.437	-0.079	0.064
-333.245	103.469	0.138	0.163
-332.231	800.000	0.013	-0.055
-331.216	-34.342	0.179	-0.099
-330.202	196.550	-0.063	0.097
-329.187	-32.556	0.196	0.110
-328.172	800.000	0.031	-0.124
-327.158	96.424	0.303	0.349
-326.143	800.000	0.062	0.197
-325.129	15.248	-0.075	0.059
-324.114	-200.000	-0.043	0.410
-323.099	788.553	-0.101	-0.279
-322.085	150.031	-0.126	0.172
-321.070	-85.922	-0.184	0.057
-320.056	94.713	0.143	0.163
-319.041	204.579	-0.067	0.105
-318.026	-200.000	0.015	-0.102
-317.012	-10.719	-0.202	-0.134
-315.997	-85.623	-0.382	0.119
-314.983	-200.000	0.039	-0.260
-313.968	-12.333	0.010	-0.007
-312.953	123.044	0.113	0.142
-311.939	800.000	-0.094	0.318
-310.924	15.522	0.151	-0.119
-309.910	80.495	0.056	0.061
-308.895	-92.532	0.178	0.050
-307.880	800.000	0.060	0.177
-306.866	-93.238	-0.111	-0.031
-305.851	-1.673	-0.173	0.123
-304.837	26.747	0.243	-0.205
-303.822	-200.000	0.027	0.268
-302.807	-200.000	0.057	0.344
-301.793	-139.147	-0.209	-0.023
-300.778	-55.609	0.476	0.214
-299.764	39.944	-0.038	-0.034
-298.749	53.728	0.212	-0.205
-297.735	115.178	-0.095	0.117
-296.720	-200.000	0.003	-0.040
-295.705	507.950	-0.146	0.341
-294.691	-146.882	0.226	-0.020
-293.676	-117.873	-0.211	0.038
-292.662	-83.820	-0.244	0.078
-291.647	97.557	0.109	0.126
-290.632	-74.642	-0.095	-0.034
-289.618	800.000	-0.034	0.112
-288.603	-10.903	0.068	-0.045
-287.589	-200.000	-0.008	-0.203
-286.574	-97.136	0.291	-0.076
-285.559	-142.627	0.150	0.015
-284.545	-200.000	0.042	-0.232
-283.530	127.797	-0.116	-0.148
-282.516	-200.000	-0.007	0.075
-281.501	-200.000	0.040	-0.187
-280.486	-111.707	-0.289	0.059
-279.472	695.968	0.066	-0.173
-278.457	-200.000	0.004	0.034
-277.443	-176.803	-0.152	0.004
-276.428	-0.565	-0.183	0.130
-275.413	-4.531	-0.251	-0.174
-274.399	133.325	-0.173	-0.224
-273.384	-9.221	-0.223	-0.150
-272.370	-200.000	-0.182	0.000
-271.355	-35.564	0.201	-0.109
-270.340	201.662	0.064	-0.099
-269.326	191.355	-0.111	0.168
-268.311	736.265	-0.145	0.389
-267.297	-200.000	-0.043	-0.456
-266.282	386.739	-0.075	-0.155
-265.267	800.000	0.064	-0.211
-264.253	411.478	0.146	0.310
-263.238	800.000	-0.033	0.113
-262.224	14.270	-0.178	0.139
-261.209	-161.610	-0.268	-0.014
-260.195	-81.437	0.153	-0.050
-259.180	192.826	0.134	-0.203
-258.165	307.734	0.128	-0.239
-257.151	257.409	0.124	0.214
-256.136	5.144	-0.267	0.198
-255.122	11.176	0.204	0.156
-254.107	221.077	-0.102	-0.164
-253.092	-39.106	0.368	0.194
-252.078	382.817	0.083	0.171
-251.063	-200.000	-0.000	-0.066
-250.049	-200.000	-0.032	-0.157
-249.034	-200.000	-0.031	-0.193
-248.019	275.005	0.029	-0.051
-247.005	800.000	-0.041	-0.151
-245.990	-166.183	-0.184	-0.008
-244.976	-200.000	0.013	-0.126
-243.961	-100.645	0.387	-0.096
-242.946	154.584	-0.101	-0.139
-241.932	779.253	-0.034	0.093
-240.917	-118.490	0.169	0.030
-239.903	206.641	-0.200	-0.312
-238.888	39.173	-0.254	0.228
-237.873	-115.345	0.174	0.033
-236.859	-10.361	-0.047	-0.031
-235.844	-107.722	-0.287	0.063
-234.830	70.356	-0.339	0.351
-233.815	-166.714	0.209	0.009
-232.800	60.865	0.133	-0.132
-231.786	168.437	-0.058	-0.082
-230.771	188.119	0.158	0.237
-229.757	-100.577	0.346	0.086
-228.742	-14.789	-0.225	-0.144
-227.727	-69.055	-0.277	0.107
-226.713	164.115	-0.075	-0.105
-225.698	94.226	-0.332	-0.378
-224.684	-200.000	-0.008	0.053
-223.669	7.540	-0.056	-0.042
-222.655	52.705	-0.185	0.177
-221.640	-140.923	-0.109	0.011
-220.625	-82.533	0.377	0.123
-219.611	-200.000	0.018	-0.139
-218.596	100.792	0.198	-0.230
-217.582	-200.000	0.068	0.390
-216.567	446.326	0.142	-0.313
-215.552	-55.155	-0.080	-0.036
-214.538	-125.850	0.111	-0.017
-213.523	-27.496	0.115	0.067
-212.509	79.458	-0.133	-0.143
-211.494	43.253	-0.207	-0.189
-210.479	261.745	0.032	-0.055
-209.465	-69.135	0.123	0.047
-208.450	-42.928	0.055	-0.028
-207.436	199.526	-0.181	0.278
-206.421	167.773	0.074	-0.105
-205.406	103.664	0.102	0.120
-204.392	-130.853	-0.252	-0.034
-203.377	-154.616	0.135	-0.009
-202.363	656.526	0.072	-0.185
-201.348	22.136	0.312	0.255
-200.333	33.435	0.072	0.063
-199.319	-114.940	0.144	0.027
-198.304	159.251	-0.115	0.160
-197.290	-98.094	-0.015	-0.004
-196.275	297.256	0.050	0.091
-195.260	-200.000	-0.035	-0.192
-194.246	-80.796	-0.253	-0.084
-193.231	64.681	0.322	-0.325
-192.217	-94.869	0.272	0.074
-191.202	800.000	0.101	-0.317
-190.187	121.427	-0.167	-0.208
-189.173	-81.968	0.116	0.038
-188.158	216.742	0.084	0.134
-187.144	-81.122	0.326	0.108
-186.129	624.109	-0.110	0.276
-185.114	69.813	-0.171	0.177
-184.100	194.481	-0.089	0.136
-183.085	129.632	-0.078	-0.100
-182.071	800.000	-0.049	-0.144
-181.056	-71.053	0.403	-0.152
-180.042	-4.441	0.278	-0.192
-179.027	800.000	0.075	-0.251
-178.012	91.508	0.046	-0.051
-176.998	120.567	-0.042	-0.052
-175.983	-200.000	0.259	0.000
-174.969	-200.000	-0.032	-0.323
-173.954	222.836	-0.088	-0.141
-172.939	-70.810	0.158	0.059
-171.925	800.000	-0.082	-0.321
-170.910	148.748	-0.054	-0.073
-169.896	420.991	-0.172	-0.367
-168.881	-200.000	0.048	0.298
-167.866	53.950	0.089	0.085
-166.852	-183.823	0.134	0.002
-165.837	-102.990	-0.197	-0.047
-164.823	9.423	0.091	-0.069
-163.808	-116.085	0.425	-0.079
-162.793	-80.633	-0.312	-0.104
-161.779	-120.168	0.191	-0.033
-160.764	18.922	0.261	0.209
-159.750	0.748	-0.041	0.029
-158.735	81.801	0.102	-0.110
-157.720	-145.264	0.277	-0.025
-156.706	-8.005	-0.202	0.136
-155.691	223.794	0.168	0.271
-154.677	-160.524	-0.058	-0.003
-153.662	-147.474	0.155	0.013
-152.647	137.270	-0.187	-0.244
-151.633	-65.883	0.375	0.150
-150.618	100.304	0.273	0.316
-149.604	-44.556	0.314	-0.157
-148.589	-172.999	0.206	-0.006
-147.574	47.639	0.161	0.150
-146.560	800.000	0.086	0.347
-145.545	-80.384	0.261	-0.087
-144.531	-115.743	0.111	0.021
-143.516	-200.000	-0.030	0.232
-142.502	-200.000	0.038	0.217
-141.487	119.410	-0.223	-0.276
-140.472	-99.358	0.064	-0.016
-139.458	72.608	0.149	-0.155
-138.443	-121.462	0.082	0.014
-137.429	800.000	0.036	0.127
-136.414	-200.000	-0.003	-0.052
-135.399	-200.000	-0.024	-0.151
-134.385	800.000	0.078	-0.317
-133.370	-19.282	-0.146	-0.090
-132.356	-44.914	-0.110	-0.055
-131.341	-175.425	-0.229	0.006
-130.326	-10.240	-0.084	0.055
-129.312	105.931	-0.074	-0.087
-128.297	800.000	-0.041	-0.158
-127.283	-7.705	0.131	0.089
-126.268	-200.000	-0.023	0.266
-125.253	-200.000	0.015	0.069
-124.239	-4.214	-0.171	0.118
-123.224	195.260	0.257	-0.389
-122.210	-65.397	0.194	0.078
-121.195	-200.000	-0.020	-0.231
-120.180	-43.136	0.178	0.090
