DTS Sentinel unit serial number:	SN413079Multiplexer serial number:	ORYXHardware model number:	OX4-SRSoftware version number:	ORYX F/W v4.00 Oryx Data Collector v3.7.2.0data status	okinstallation	princeton_trtdifferential loss correction	single-endedforward channel	channel 1reverse channel	N/Adate	2019/09/11time	00:36:11forward acquisition time	60.00reverse acquisition time	0.00gamma	496.2192k internal	0.2331k external	0.2331temperature offset calibration	0.9932default loss term (dB/km)	0.3790temperature slope calibration	1.0000multiplexer offset coefficient	1.0000multiplexer slope coefficient	1.0000fibre end	0.00T internal ref (°C)	29.22T ext. ref 1 (°C)	-0.31T ext. ref 2 (°C)	23.01length (m)	temperature (°C)	Stokes	anti-Stokes-747.200	-2.277	0.232	0.164
-746.185	-106.182	-0.389	-0.088
-745.171	-88.183	-0.134	-0.040
-744.156	-105.454	0.191	-0.044
-743.142	54.808	0.082	-0.080
-742.127	-43.316	0.283	0.144
-741.112	270.508	-0.099	0.175
-740.098	-85.838	0.317	-0.099
-739.083	-68.027	0.094	0.037
-738.069	60.298	0.095	0.095
-737.054	-60.609	0.277	-0.118
-736.039	195.712	0.062	-0.094
-735.025	800.000	0.083	0.243
-734.010	178.741	-0.112	-0.164
-732.996	-143.803	-0.217	-0.021
-731.981	404.555	0.107	0.227
-730.966	800.000	0.043	-0.155
-729.952	514.930	0.022	-0.051
-728.937	-138.389	-0.367	-0.041
-727.923	-34.232	0.451	0.249
-726.908	406.819	-0.096	-0.204
-725.894	12.209	0.131	-0.101
-724.879	-128.771	0.101	-0.014
-723.864	143.428	-0.044	-0.059
-722.850	-182.329	-0.273	0.005
-721.835	27.850	0.170	-0.144
-720.821	-70.345	-0.192	0.073
-719.806	-200.000	0.062	-0.286
-718.791	-95.803	-0.185	0.050
-717.777	-1.829	-0.127	-0.090
-716.762	207.773	0.146	0.230
-715.748	800.000	0.051	0.146
-714.733	61.949	-0.162	0.162
-713.718	-46.971	-0.248	-0.122
-712.704	21.782	-0.117	0.096
-711.689	-200.000	0.017	0.170
-710.675	-32.432	0.167	0.093
-709.660	800.000	-0.097	-0.279
-708.645	77.755	-0.066	-0.071
-707.631	-95.851	0.225	0.060
-706.616	281.369	-0.111	0.199
-705.602	-194.821	-0.170	-0.001
-704.587	-78.528	0.146	0.050
-703.572	-32.000	-0.097	-0.055
-702.558	800.000	0.079	0.244
-701.543	41.861	-0.312	-0.285
-700.529	181.823	0.098	0.145
-699.514	-166.892	-0.169	-0.007
-698.499	362.394	0.169	-0.340
-697.485	95.777	0.195	0.223
-696.470	358.302	-0.068	0.136
-695.456	28.383	-0.151	-0.128
-694.441	-200.000	-0.092	-0.451
-693.426	800.000	-0.164	0.472
-692.412	101.842	0.151	-0.176
-691.397	-200.000	0.051	-0.348
-690.383	9.767	0.194	-0.148
-689.368	-73.303	0.093	0.034
-688.354	-55.370	0.039	-0.018
-687.339	38.516	-0.210	0.188
-686.324	23.596	0.178	-0.147
-685.310	-200.000	-0.067	-0.324
-684.295	-161.762	0.075	-0.004
-683.281	-65.403	0.264	-0.107
-682.266	31.685	0.297	-0.256
-681.251	-157.520	-0.316	0.019
-680.237	800.000	-0.087	0.243
-679.222	800.000	0.017	-0.067
-678.208	-19.591	0.146	-0.090
-677.193	-60.042	-0.210	0.090
-676.178	7.038	0.289	-0.216
-675.164	-200.000	0.016	-0.164
-674.149	-19.333	0.264	-0.164
-673.135	108.678	-0.138	-0.166
-672.120	800.000	0.017	0.051
-671.105	98.498	-0.188	-0.217
-670.091	-0.273	0.085	-0.060
-669.076	-55.682	-0.346	0.155
-668.062	169.108	-0.155	0.221
-667.047	-200.000	0.005	-0.041
-666.032	-128.739	-0.110	-0.016
-665.018	-2.032	-0.304	-0.214
-664.003	658.245	-0.102	-0.263
-662.989	70.579	-0.127	0.132
-661.974	71.297	0.095	-0.099
-660.959	-77.594	0.191	-0.066
-659.945	-118.484	-0.131	-0.023
-658.930	259.980	-0.138	0.239
-657.916	-200.000	0.064	-0.335
-656.901	-200.000	0.018	-0.108
-655.886	694.700	-0.089	-0.235
-654.872	-119.672	0.111	0.019
-653.857	-57.206	0.364	-0.161
-652.843	2.329	0.191	0.138
-651.828	-29.257	0.150	0.086
-650.814	253.677	-0.236	-0.403
-649.799	-69.654	0.054	0.021
-648.784	-5.349	-0.068	0.047
-647.770	-200.000	-0.020	0.235
-646.755	-200.000	0.006	0.038
-645.741	67.720	-0.021	-0.022
-644.726	-46.931	-0.042	0.021
-643.711	-165.145	-0.260	-0.012
-642.697	-145.856	0.242	-0.022
-641.682	87.558	0.095	-0.105
-640.668	62.514	-0.102	-0.102
-639.653	-27.137	-0.104	-0.061
-638.638	-57.513	-0.123	0.054
-637.624	-98.498	0.174	0.045
-636.609	-21.320	-0.393	-0.241
-635.595	-200.000	-0.041	-0.402
-634.580	-64.577	-0.308	-0.125
-633.565	56.189	-0.152	-0.148
-632.551	800.000	0.071	-0.226
-631.536	-54.735	0.165	0.075
-630.522	-49.132	0.343	-0.164
-629.507	-96.878	-0.229	-0.060
-628.492	-170.084	-0.205	0.007
-627.478	-200.000	0.012	-0.097
-626.463	-88.279	-0.192	0.058
-625.449	800.000	-0.045	-0.143
-624.434	-46.699	-0.206	-0.101
-623.419	-134.583	0.138	0.017
-622.405	-200.000	0.009	0.072
-621.390	-120.271	-0.166	0.028
-620.376	106.002	0.057	0.067
-619.361	191.524	-0.158	0.238
-618.346	-200.000	-0.026	0.292
-617.332	124.454	0.239	-0.301
-616.317	95.549	0.136	0.155
-615.303	206.728	-0.057	0.088
-614.288	368.245	0.056	0.113
-613.273	-200.000	0.080	-0.374
-612.259	265.632	-0.137	-0.240
-611.244	-24.480	0.121	0.072
-610.230	-108.423	-0.393	0.085
-609.215	800.000	-0.021	0.087
-608.201	-171.477	0.206	0.007
-607.186	148.681	-0.085	-0.115
-606.171	-144.333	0.285	-0.027
-605.157	-47.811	0.173	-0.084
-604.142	310.230	0.122	-0.229
-603.128	800.000	0.102	0.335
-602.113	94.699	0.124	0.141
-601.098	-22.212	-0.140	-0.085
-600.084	800.000	0.048	-0.194
-599.069	-93.610	-0.025	0.007
-598.055	21.601	-0.260	-0.212
-597.040	-103.118	-0.043	-0.010
-596.025	6.722	-0.017	0.012
-595.011	-14.518	-0.072	-0.046
-593.996	444.899	0.107	-0.234
-592.982	-200.000	0.013	-0.287
-591.967	800.000	0.112	0.371
-590.952	-93.141	-0.174	-0.048
-589.938	216.253	0.071	-0.114
-588.923	70.674	-0.258	0.267
-587.909	-55.585	0.041	0.018
-586.894	-116.393	0.218	-0.040
-585.879	-68.537	0.163	-0.063
-584.865	167.886	0.015	0.021
-583.850	405.623	-0.090	-0.189
-582.836	-109.269	-0.587	0.125
-581.821	-200.000	-0.006	0.163
-580.806	800.000	0.026	0.110
-579.792	-200.000	0.002	0.016
-578.777	23.442	0.082	0.068
-577.763	-127.504	0.188	0.027
-576.748	429.168	-0.106	0.228
-575.733	-91.732	-0.163	-0.046
-574.719	-9.306	0.434	-0.290
-573.704	347.771	-0.058	0.114
-572.690	-71.045	-0.286	-0.107
-571.675	117.544	-0.146	-0.180
-570.661	-200.000	-0.120	0.545
-569.646	167.121	-0.190	-0.270
-568.631	-112.810	-0.283	0.056
-567.617	800.000	-0.000	0.002
-566.602	180.353	-0.086	0.127
-565.588	-0.242	-0.168	-0.120
-564.573	-131.406	0.233	0.031
-563.558	-72.875	-0.300	0.110
-562.544	94.866	-0.119	0.136
-561.529	-11.849	0.262	-0.172
-560.515	-200.000	-0.005	0.085
-559.500	-200.000	-0.069	0.308
-558.485	-159.062	-0.145	0.008
-557.471	800.000	0.111	-0.335
-556.456	-136.667	-0.211	0.024
-555.442	249.322	-0.105	0.179
-554.427	44.123	-0.166	0.152
-553.412	123.902	0.091	-0.114
-552.398	-5.297	-0.093	0.064
-551.383	-7.143	-0.149	-0.101
-550.369	800.000	0.038	-0.107
-549.354	-200.000	0.027	-0.162
-548.339	-111.034	0.090	-0.018
-547.325	-200.000	0.042	0.218
-546.310	-200.000	0.008	0.137
-545.296	-108.563	-0.227	-0.049
-544.281	-79.424	-0.253	0.085
-543.266	-37.035	-0.113	0.061
-542.252	26.545	-0.159	0.133
-541.237	-200.000	-0.061	-0.328
-540.223	-120.480	0.109	-0.019
-539.208	-109.244	0.329	-0.070
-538.193	800.000	0.022	-0.061
-537.179	-200.000	0.067	0.347
-536.164	800.000	-0.068	-0.190
-535.150	452.903	0.066	-0.146
-534.135	346.425	0.063	-0.124
-533.121	800.000	-0.049	0.193
-532.106	714.815	0.083	0.219
-531.091	289.295	-0.107	-0.194
-530.077	55.313	0.120	-0.115
-529.062	800.000	-0.007	-0.022
-528.048	531.978	-0.123	-0.291
-527.033	800.000	-0.050	-0.147
-526.018	800.000	0.059	0.252
-525.004	22.471	-0.156	-0.127
-523.989	-170.528	0.052	0.002
-522.975	-200.000	0.029	-0.407
-521.960	13.430	0.195	-0.151
-520.945	-34.421	0.075	0.041
-519.931	35.150	0.186	0.162
-518.916	800.000	0.052	-0.194
-517.902	661.516	-0.019	-0.049
-516.887	-136.371	-0.111	0.013
-515.872	280.782	-0.109	-0.195
-514.858	61.938	-0.099	-0.099
-513.843	168.398	-0.073	0.104
-512.829	633.345	0.027	0.068
-511.814	-154.733	-0.213	-0.014
-510.799	3.900	0.267	0.194
-509.785	37.411	-0.086	0.076
-508.770	-133.659	-0.075	-0.009
-507.756	-57.883	-0.259	0.113
-506.741	107.713	0.215	0.255
-505.726	238.253	-0.068	-0.112
-504.712	76.276	0.125	-0.132
-503.697	-200.000	-0.182	-0.000
-502.683	-200.000	-0.003	0.373
-501.668	-105.961	0.303	-0.068
-500.653	-15.751	0.361	-0.229
-499.639	542.948	-0.064	-0.152
-498.624	800.000	-0.076	-0.297
-497.610	236.178	-0.115	-0.189
-496.595	-32.949	0.179	-0.099
-495.581	-200.000	0.017	-0.387
-494.566	-21.742	-0.021	-0.013
-493.551	-37.712	-0.030	-0.016
-492.537	669.980	-0.078	0.202
-491.522	166.187	0.065	0.092
-490.508	433.741	0.094	0.204
-489.493	785.568	0.068	0.186
-488.478	14.471	-0.169	-0.131
-487.464	-94.542	-0.341	0.093
-486.449	292.093	0.101	0.183
-485.435	259.897	-0.100	0.172
-484.420	800.000	-0.059	0.191
-483.405	-200.000	0.008	-0.239
-482.391	140.954	-0.122	0.160
-481.376	261.214	-0.078	0.135
-480.362	399.247	0.189	0.395
-479.347	-53.656	0.139	0.063
-478.332	-200.000	-0.002	-0.104
-477.318	-200.000	0.013	-0.082
-476.303	-138.291	-0.310	-0.034
-475.289	-139.483	0.208	0.022
-474.274	-200.000	-0.022	-0.237
-473.259	46.886	-0.086	0.080
-472.245	-200.000	-0.014	0.128
-471.230	800.000	0.178	0.591
-470.216	77.101	-0.175	0.185
-469.201	-118.143	-0.268	0.048
-468.186	-133.696	0.310	0.038
-467.172	-42.889	-0.123	0.062
-466.157	800.000	-0.017	0.067
-465.143	800.000	0.058	-0.175
-464.128	19.308	-0.160	0.128
-463.113	-48.857	-0.395	-0.189
-462.099	-200.000	-0.014	-0.373
-461.084	275.485	0.175	0.308
-460.070	-200.000	-0.015	0.181
-459.055	-200.000	0.050	-0.344
-458.040	-200.000	0.012	-0.299
-457.026	-184.370	-0.162	-0.003
-456.011	57.117	0.191	0.185
-454.997	259.296	-0.052	0.089
-453.982	800.000	-0.050	0.176
-452.968	-33.635	0.264	-0.145
-451.953	-45.852	-0.341	-0.167
-450.938	335.764	0.082	-0.158
-449.924	-77.737	-0.099	0.034
-448.909	800.000	-0.173	-0.481
-447.895	2.681	-0.284	-0.205
-446.880	153.358	0.102	-0.139
-445.865	-175.042	0.284	-0.008
-444.851	-200.000	0.001	-0.153
-443.836	20.713	-0.253	-0.204
-442.822	-155.899	-0.186	0.012
-441.807	-105.382	0.253	0.057
-440.792	-25.186	0.013	0.008
-439.778	175.744	-0.098	-0.142
-438.763	223.403	-0.029	0.047
-437.749	-53.084	-0.378	0.173
-436.734	-97.825	0.255	0.066
-435.719	-146.623	-0.277	-0.024
-434.705	-161.538	0.091	0.005
-433.690	-121.621	-0.452	0.074
-432.676	39.596	0.080	0.071
-431.661	231.532	0.025	0.041
-430.646	-25.394	-0.125	-0.073
-429.632	6.990	0.284	-0.210
-428.617	-153.777	-0.111	-0.008
-427.603	-200.000	0.032	0.346
-426.588	212.711	0.082	0.129
-425.573	19.024	-0.183	0.146
-424.559	-8.347	-0.163	0.109
-423.544	9.409	-0.304	-0.229
-422.530	-22.791	-0.169	-0.101
-421.515	43.295	-0.183	-0.166
-420.500	-36.039	-0.067	-0.036
-419.486	-1.382	0.171	-0.120
-418.471	-27.009	0.135	-0.078
-417.457	227.213	-0.160	-0.258
-416.442	-70.472	0.314	0.118
-415.428	-85.165	-0.155	0.048
-414.413	452.195	-0.067	-0.147
-413.398	-200.000	0.007	0.138
-412.384	55.363	0.223	0.214
-411.369	97.264	-0.084	0.096
-410.355	31.348	-0.163	-0.139
-409.340	-200.000	-0.066	-0.356
-408.325	-93.354	-0.275	0.076
-407.311	-21.027	0.105	0.064
-406.296	800.000	0.105	0.428
-405.282	-120.346	-0.144	-0.024
-404.267	104.754	0.102	0.120
-403.252	35.555	-0.113	-0.098
-402.238	-200.000	0.039	-0.211
-401.223	-143.769	0.160	-0.015
-400.209	49.074	0.078	0.073
-399.194	800.000	0.066	0.274
-398.179	-152.162	-0.286	-0.021
-397.165	-200.000	0.053	0.317
-396.150	-180.865	0.194	0.004
-395.136	-0.145	0.156	-0.111
-394.121	-200.000	0.033	0.194
-393.106	121.870	0.153	0.190
-392.092	800.000	-0.038	-0.143
-391.077	-54.274	-0.081	-0.037
-390.063	197.981	0.160	0.243
-389.048	167.230	0.193	-0.273
-388.033	161.572	-0.074	-0.103
-387.019	198.540	-0.033	0.051
-386.004	-90.349	0.226	0.065
-384.990	-1.251	-0.097	0.068
-383.975	-105.281	-0.472	0.107
-382.960	265.931	0.179	0.310
-381.946	113.318	0.068	0.082
-380.931	-152.265	0.251	0.018
-379.917	27.442	-0.030	-0.025
-378.902	-46.756	0.073	-0.036
-377.888	154.173	0.259	-0.352
-376.873	-48.264	0.253	-0.121
-375.858	-60.166	-0.297	-0.126
-374.844	-200.000	-0.028	0.205
-373.829	34.759	-0.202	0.175
-372.815	-117.936	0.366	0.065
-371.800	-142.995	0.109	0.010
-370.785	0.487	-0.086	-0.061
-369.771	237.197	-0.199	-0.327
-368.756	800.000	-0.076	0.218
-367.742	-116.834	0.333	-0.060
-366.727	252.791	0.138	-0.233
-365.712	800.000	0.060	0.189
-364.698	-200.000	0.023	-0.182
-363.683	-84.775	-0.169	0.053
-362.669	-35.923	0.072	0.038
-361.654	278.115	0.066	-0.116
-360.639	-200.000	0.041	0.290
-359.625	-200.000	-0.040	0.252
-358.610	-122.434	0.366	-0.059
-357.596	800.000	-0.042	-0.119
-356.581	22.136	0.132	-0.107
-355.566	-108.628	-0.268	0.057
-354.552	63.630	0.089	0.089
-353.537	74.366	0.104	-0.109
-352.523	-130.896	0.339	-0.045
-351.508	-107.653	0.101	-0.022
-350.493	-96.591	0.139	0.036
-349.479	800.000	-0.074	-0.277
-348.464	-27.372	0.093	0.054
-347.450	800.000	-0.037	-0.106
-346.435	165.914	-0.066	0.092
-345.420	181.301	0.039	0.057
-344.406	148.963	0.206	0.277
-343.391	-121.453	0.241	-0.040
-342.377	322.650	0.095	0.179
-341.362	-90.122	0.253	-0.073
-340.348	-92.437	-0.423	-0.118
-339.333	-139.284	-0.064	-0.007
-338.318	-109.954	0.395	0.082
-337.304	317.975	0.111	-0.208
-336.289	6.116	-0.139	-0.102
-335.275	-200.000	-0.051	0.532
-334.260	263.292	-0.078	0.133
-333.245	-200.000	0.016	0.179
-332.231	-200.000	0.006	0.073
-331.216	-140.427	-0.094	0.010
-330.202	-79.050	-0.204	0.069
-329.187	-148.923	0.161	-0.013
-328.172	-146.648	0.206	-0.018
-327.158	-145.998	0.126	0.011
-326.143	-194.674	-0.036	-0.000
-325.129	-200.000	0.000	-0.095
-324.114	-22.566	-0.172	-0.103
-323.099	800.000	0.040	0.157
-322.085	800.000	-0.042	-0.153
-321.070	91.952	-0.182	0.203
-320.056	-101.747	-0.162	-0.039
-319.041	800.000	0.076	0.277
-318.026	-43.261	-0.107	0.054
-317.012	-200.000	0.021	-0.165
-315.997	-160.487	0.364	-0.019
-314.983	-65.370	0.145	-0.058
-313.968	-78.968	0.282	0.095
-312.953	17.674	0.127	-0.100
-311.939	-158.322	-0.382	0.022
-310.924	416.839	-0.191	-0.404
-309.910	800.000	-0.077	0.286
-308.895	47.435	0.166	-0.153
-307.880	27.779	0.222	0.185
-306.866	164.700	0.072	0.101
-305.851	-89.770	0.422	0.122
-304.837	-200.000	-0.020	-0.151
-303.822	142.828	0.237	0.311
-302.807	-151.139	0.306	-0.023
-301.793	329.921	0.160	-0.305
-300.778	-136.716	0.265	-0.030
-299.764	25.532	0.141	-0.116
-298.749	346.547	-0.163	-0.318
-297.735	-200.000	-0.055	0.242
-296.720	-200.000	-0.003	0.327
-295.705	361.949	-0.009	-0.018
-294.691	800.000	-0.017	0.058
-293.676	-200.000	0.009	0.168
-292.662	-65.503	-0.186	0.074
-291.647	-200.000	0.003	0.112
-290.632	-151.209	-0.266	-0.020
-289.618	-76.397	0.213	0.074
-288.603	272.906	-0.106	0.185
-287.589	150.521	0.080	0.108
-286.574	81.851	-0.073	-0.078
-285.559	124.415	0.184	0.229
-284.545	184.210	0.133	-0.195
-283.530	228.532	-0.123	-0.198
-282.516	254.193	0.106	-0.179
-281.501	-33.475	-0.147	0.080
-280.486	-76.310	-0.225	-0.078
-279.472	-101.682	0.189	-0.045
-278.457	800.000	-0.019	-0.075
-277.443	-200.000	-0.041	0.412
-276.428	-157.772	-0.145	0.009
-275.413	-200.000	0.007	0.059
-274.399	-124.315	0.221	-0.034
-273.384	250.298	-0.204	-0.342
-272.370	-45.254	-0.157	0.077
-271.355	-136.132	-0.542	-0.063
-270.340	800.000	-0.025	0.088
-269.326	-43.206	-0.110	0.055
-268.311	186.954	0.089	0.131
-267.297	800.000	0.046	-0.133
-266.282	626.725	-0.100	-0.249
-265.267	-114.446	0.142	-0.027
-264.253	280.642	0.030	-0.052
-263.238	-30.098	-0.376	-0.211
-262.224	82.334	-0.104	0.111
-261.209	-126.932	0.316	0.046
-260.195	-26.870	-0.261	0.151
-259.180	-164.406	-0.422	0.019
-258.165	-88.030	0.251	0.074
-257.151	800.000	0.039	-0.155
-256.136	-126.609	0.154	-0.023
-255.122	340.611	-0.139	0.267
-254.107	-110.178	-0.130	0.027
-253.092	-73.777	0.299	0.107
-252.078	-157.823	0.252	0.015
-251.063	-90.924	-0.260	-0.074
-250.049	101.649	0.110	0.126
-249.034	94.269	-0.085	-0.095
-248.019	-148.215	0.298	0.024
-247.005	-72.295	0.248	0.091
-245.990	135.425	-0.152	-0.195
-244.976	31.729	0.221	-0.188
-243.961	-200.000	-0.004	-0.217
-242.946	-200.000	-0.001	-0.231
-241.932	-15.122	0.055	0.035
-240.917	124.896	0.155	0.193
-239.903	-116.724	0.111	-0.020
-238.888	-69.630	0.064	0.024
-237.873	720.206	-0.169	-0.443
-236.859	-118.042	-0.239	0.042
-235.844	139.194	0.231	0.300
-234.830	319.393	0.118	-0.220
-233.815	339.928	0.079	-0.153
-232.800	79.389	0.070	0.074
-231.786	383.328	0.148	-0.299
-230.771	-82.527	0.272	-0.087
-229.757	-94.406	-0.157	-0.042
-228.742	-133.711	-0.193	0.024
-227.727	-59.903	0.185	-0.078
-226.713	800.000	-0.046	-0.146
-225.698	-128.884	0.110	0.015
-224.684	-200.000	0.072	-0.323
-223.669	-27.622	0.055	0.032
-222.655	-96.346	0.296	-0.077
-221.640	-200.000	0.011	-0.212
-220.625	-200.000	-0.036	-0.346
-219.611	126.008	0.043	-0.054
-218.596	-52.534	0.072	0.033
-217.582	-9.641	-0.113	0.074
-216.567	22.936	0.212	0.172
-215.552	63.142	0.029	0.029
-214.538	269.205	0.157	0.272
-213.523	210.048	0.119	0.184
-212.509	-24.774	0.191	0.112
-211.494	634.642	0.096	0.241
-210.479	-131.787	-0.131	0.017
-209.465	-101.255	0.232	0.056
-208.450	239.195	0.204	0.335
-207.436	-53.859	0.013	-0.006
-206.421	-200.000	-0.047	0.438
-205.406	21.268	0.231	0.185
-204.392	-6.625	-0.505	-0.339
-203.377	28.454	0.252	0.210
-202.363	53.483	-0.059	0.056
-201.348	26.720	0.210	0.173
-200.333	228.864	-0.055	0.088
-199.319	249.728	0.106	0.177
-198.304	-174.084	0.088	0.003
-197.290	12.245	-0.231	-0.175
-196.275	189.922	0.150	-0.222
-195.260	-13.894	0.119	-0.075
-194.246	-175.241	0.072	0.002
-193.231	-200.000	-0.009	0.144
-192.217	-8.119	-0.193	-0.128
-191.202	-36.583	0.205	-0.108
-190.187	-127.173	-0.262	-0.038
-189.173	-124.222	-0.203	-0.031
-188.158	330.603	0.035	-0.066
-187.144	-89.795	0.246	-0.071
-186.129	800.000	0.055	-0.167
-185.114	-200.000	0.010	0.262
-184.100	35.450	-0.214	-0.185
-183.085	-200.000	0.001	-0.014
-182.071	-3.113	-0.259	-0.178
-181.056	158.545	0.037	-0.050
-180.042	-36.285	-0.399	-0.212
-179.027	-35.339	-0.137	-0.074
-178.012	800.000	-0.048	0.173
-176.998	-79.646	0.368	-0.122
-175.983	-163.776	-0.132	-0.006
-174.969	66.495	0.168	0.168
-173.954	-200.000	0.016	0.125
-172.939	-51.350	-0.043	0.020
-171.925	638.914	0.147	0.367
-170.910	536.043	-0.045	0.104
-169.896	-200.000	0.053	0.481
-168.881	-134.018	0.068	-0.008
-167.866	491.424	-0.185	-0.416
-166.852	-106.159	-0.312	0.069
-165.837	-34.606	-0.219	0.118
-164.823	-117.645	0.202	0.036
-163.808	-200.000	0.012	0.161
-162.793	-200.000	-0.031	0.257
-161.779	51.357	0.158	-0.148
-160.764	326.297	0.218	-0.410
-159.750	-200.000	-0.003	-0.225
-158.735	160.167	0.096	-0.132
-157.720	132.537	0.017	-0.022
-156.706	94.385	-0.085	0.095
-155.691	-161.335	0.560	0.029
-154.677	-127.960	-0.329	0.047
-153.662	508.063	-0.096	0.218
-152.647	488.214	-0.165	0.369
-151.633	264.402	-0.113	-0.194
-150.618	61.372	0.138	-0.135
-149.604	94.141	0.356	0.397
-148.589	-174.149	0.279	-0.008
-147.574	-195.146	0.162	0.001
-146.560	-200.000	0.077	0.479
-145.545	-200.000	-0.012	0.485
-144.531	800.000	0.135	0.440
-143.516	662.001	-0.113	-0.286
-142.502	-53.687	0.150	-0.067
-141.487	-200.000	-0.065	0.482
-140.472	105.859	-0.049	0.057
-139.458	800.000	0.038	-0.162
-138.443	-136.794	0.195	-0.022
-137.429	6.381	-0.126	-0.092
-136.414	518.654	0.076	0.176
-135.399	-65.563	-0.134	-0.053
-134.385	-175.288	0.320	0.009
-133.370	297.210	-0.079	0.143
-132.356	-97.524	0.358	-0.091
-131.341	-200.000	-0.019	-0.104
-130.326	-200.000	-0.011	0.107
-129.312	3.150	-0.121	0.086
-128.297	-200.000	-0.047	-0.325
-127.283	800.000	-0.040	-0.117
-126.268	189.285	-0.236	0.347
-125.253	246.695	-0.069	0.114
-124.239	-56.489	-0.052	-0.023
-123.224	141.137	-0.059	0.076
-122.210	800.000	-0.070	-0.244
-121.195	800.000	-0.082	0.310
