DTS Sentinel unit serial number:	SN413079Multiplexer serial number:	ORYXHardware model number:	OX4-SRSoftware version number:	ORYX F/W v4.00 Oryx Data Collector v3.7.2.0data status	okinstallation	princeton_trtdifferential loss correction	single-endedforward channel	channel 1reverse channel	N/Adate	2019/09/12time	18:52:34forward acquisition time	15.00reverse acquisition time	0.00gamma	496.2192k internal	0.2320k external	0.2320temperature offset calibration	1.0098default loss term (dB/km)	0.3790temperature slope calibration	1.0000multiplexer offset coefficient	1.0000multiplexer slope coefficient	1.0000fibre end	0.00T internal ref (°C)	32.87T ext. ref 1 (°C)	2.98T ext. ref 2 (°C)	27.42length (m)	temperature (°C)	Stokes	anti-Stokes-747.200	134.138	-0.410	0.537
-746.185	17.147	0.204	-0.164
-745.171	-200.000	-0.007	0.213
-744.156	-25.764	0.491	0.293
-743.142	640.823	-0.046	0.118
-742.127	268.055	-0.138	0.244
-741.112	-38.965	0.277	-0.148
-740.098	-19.011	-0.460	0.289
-739.083	-123.979	0.816	0.130
-738.069	745.317	-0.227	-0.618
-737.054	-50.291	-0.652	-0.312
-736.039	-13.381	-0.264	-0.173
-735.025	-200.000	0.026	0.423
-734.010	-43.410	0.584	0.298
-732.996	55.388	-0.504	0.493
-731.981	-200.000	0.061	0.506
-730.966	-134.486	-0.496	-0.061
-729.952	-30.522	-0.169	0.097
-728.937	-144.446	-0.821	-0.077
-727.923	-102.988	0.842	-0.202
-726.908	-200.000	-0.048	-0.291
-725.894	76.770	-0.381	0.408
-724.879	562.760	-0.096	-0.236
-723.864	-200.000	0.047	-0.721
-722.850	89.512	-0.043	-0.049
-721.835	-104.347	0.798	-0.187
-720.821	-110.510	0.224	0.047
-719.806	266.583	0.166	0.293
-718.791	-200.000	0.038	1.036
-717.777	143.117	0.333	-0.448
-716.762	486.107	-0.199	-0.459
-715.748	800.000	-0.137	0.441
-714.733	576.084	0.286	0.707
-713.718	-200.000	-0.078	-0.388
-712.704	-107.884	-1.029	0.226
-711.689	-200.000	0.098	0.844
-710.675	361.501	-0.087	0.176
-709.660	-132.318	0.689	0.090
-708.645	159.400	-0.489	-0.687
-707.631	-200.000	-0.036	-0.707
-706.616	322.490	-0.491	0.945
-705.602	-200.000	-0.077	-0.627
-704.587	-200.000	-0.033	0.216
-703.572	-200.000	0.006	-0.607
-702.558	-21.569	-0.321	0.198
-701.543	314.485	0.299	0.569
-700.529	303.588	0.188	0.351
-699.514	-131.539	-0.996	0.133
-698.499	36.818	0.289	0.258
-697.485	94.230	0.155	-0.178
-696.470	5.146	-0.654	0.486
-695.456	-103.979	-0.496	0.117
-694.441	132.021	-0.065	0.084
-693.426	-59.482	-0.596	0.258
-692.412	-200.000	-0.001	-0.809
-691.397	-115.427	0.528	0.100
-690.383	496.473	-0.072	-0.168
-689.368	123.419	-0.121	0.153
-688.354	312.438	-0.213	-0.403
-687.339	651.860	0.354	0.915
-686.324	121.026	0.245	-0.308
-685.310	-200.000	0.034	0.651
-684.295	-139.744	-0.280	0.030
-683.281	-74.307	-0.305	-0.111
-682.266	800.000	-0.172	0.714
-681.251	-8.930	0.151	-0.102
-680.237	800.000	0.080	-0.293
-679.222	-27.382	-0.690	-0.405
-678.208	-93.251	-0.432	0.121
-677.193	236.961	-0.502	0.839
-676.178	-145.422	0.208	-0.019
-675.164	-165.047	0.500	-0.022
-674.149	800.000	-0.176	0.652
-673.135	29.633	0.213	0.182
-672.120	-200.000	0.043	0.689
-671.105	277.707	-0.228	0.410
-670.091	-76.150	0.068	-0.024
-669.076	-200.000	-0.002	-0.259
-668.062	41.965	-0.644	0.589
-667.047	800.000	0.120	0.497
-666.032	-70.234	0.272	0.104
-665.018	298.318	0.582	1.080
-664.003	56.746	0.380	-0.373
-662.989	532.241	-0.028	-0.066
-661.974	-44.145	-0.680	-0.344
-660.959	-200.000	0.079	-0.455
-659.945	120.143	0.553	0.692
-658.930	800.000	-0.023	0.079
-657.916	-142.846	-0.256	0.025
-656.901	-200.000	0.436	0.001
-655.886	54.906	-0.570	0.555
-654.872	-170.237	-0.193	0.007
-653.857	106.398	-0.422	-0.504
-652.843	476.896	-0.390	0.888
-651.828	-200.000	0.150	0.926
-650.814	-200.000	-0.025	0.931
-649.799	800.000	-0.104	-0.308
-648.784	27.280	-0.246	-0.208
-647.770	86.835	-0.141	0.157
-646.755	32.139	0.360	0.313
-645.741	-60.362	0.671	0.288
-644.726	-70.548	-0.129	0.049
-643.711	-106.794	0.840	-0.188
-642.697	652.772	-0.164	-0.424
-641.682	-1.631	-0.447	0.317
-640.668	-168.788	-0.622	0.024
-639.653	-99.858	-0.533	0.134
-638.638	-49.743	-0.737	-0.353
-637.624	226.244	0.119	0.195
-636.609	-95.457	0.212	0.057
-635.595	-110.747	0.544	0.113
-634.580	223.483	-0.352	0.572
-633.565	-155.221	0.609	0.040
-632.551	223.910	0.093	-0.151
-631.536	800.000	0.181	-0.629
-630.522	-155.048	-0.385	-0.025
-629.507	122.249	-0.386	0.485
-628.492	-132.703	1.060	-0.137
-627.478	-29.624	0.675	0.388
-626.463	3.671	-0.820	-0.603
-625.449	-200.000	-0.038	-0.484
-624.434	-200.000	0.071	0.923
-623.419	-130.583	0.482	-0.065
-622.405	109.464	0.236	-0.284
-621.390	-127.400	0.320	0.047
-620.376	-74.271	0.670	-0.244
-619.361	-9.740	0.377	-0.253
-618.346	452.985	0.191	0.426
-617.332	94.494	0.338	0.387
-616.317	533.564	0.067	-0.161
-615.303	-147.288	-0.575	0.049
-614.288	-60.718	0.541	0.231
-613.273	-121.678	-0.893	0.149
-612.259	-55.220	-0.368	0.166
-611.244	-93.563	0.711	0.198
-610.230	-120.563	-0.504	-0.086
-609.215	-110.021	-0.684	-0.144
-608.201	-42.035	-0.411	-0.212
-607.186	-36.548	0.714	-0.386
-606.171	153.330	-0.569	-0.783
-605.157	265.826	-0.247	-0.434
-604.142	-115.915	0.125	-0.024
-603.128	21.216	-0.256	0.209
-602.113	800.000	0.018	-0.077
-601.098	270.663	0.156	-0.276
-600.084	36.907	-0.271	0.241
-599.069	286.943	0.292	0.531
-598.055	41.745	-0.500	0.456
-597.040	-200.000	-0.026	-0.724
-596.025	-200.000	0.045	0.241
-595.011	90.744	-0.461	0.520
-593.996	66.766	-0.276	0.283
-592.982	105.833	-0.598	0.712
-591.967	-107.011	-1.163	0.258
-590.952	241.483	0.617	1.035
-589.938	160.695	-0.277	-0.389
-588.923	419.354	-0.285	-0.613
-587.909	-102.278	-0.927	-0.224
-586.894	70.415	0.150	-0.156
-585.879	-200.000	-0.043	0.231
-584.865	-119.402	-0.640	0.112
-583.850	-103.352	-0.687	0.163
-582.836	-47.826	-0.602	0.293
-581.821	-200.000	0.040	0.282
-580.806	333.467	-0.144	-0.280
-579.792	-69.696	-1.000	-0.384
-578.777	-136.268	-0.574	0.067
-577.763	-156.987	0.485	0.030
-576.748	-200.000	-0.047	-0.288
-575.733	436.012	-0.234	0.513
-574.719	800.000	0.224	-0.947
-573.704	360.398	0.239	-0.480
-572.690	-43.362	-0.454	-0.231
-571.675	55.377	0.222	-0.215
-570.661	139.414	0.177	-0.233
-569.646	-27.686	0.362	-0.211
-568.631	-200.000	0.039	0.257
-567.617	92.218	-0.309	-0.349
-566.602	-10.747	0.528	-0.351
-565.588	-148.839	-0.491	0.040
-564.573	20.247	0.424	-0.344
-563.558	124.789	-0.362	-0.458
-562.544	-48.472	0.166	0.080
-561.529	47.046	-0.861	-0.805
-560.515	-132.459	0.761	-0.098
-559.500	-113.469	1.122	0.221
-558.485	644.058	-0.281	-0.720
-557.471	59.004	-0.265	0.261
-556.456	800.000	-0.045	-0.170
-555.442	-200.000	-0.001	0.103
-554.427	183.344	-0.440	0.653
-553.412	-52.033	-0.169	0.079
-552.398	-100.546	0.347	-0.086
-551.383	-63.645	0.298	0.123
-550.369	-60.251	-0.382	-0.163
-549.354	800.000	0.059	0.254
-548.339	452.974	-0.174	0.386
-547.325	181.832	0.469	-0.693
-546.310	800.000	0.137	-0.415
-545.296	213.080	-0.089	0.141
-544.281	225.517	-0.260	-0.423
-543.266	-77.191	-0.246	-0.086
-542.252	171.364	-0.382	-0.550
-541.237	381.710	0.159	0.328
-540.223	-118.910	1.080	0.190
-539.208	-44.670	0.600	0.301
-538.193	-85.493	0.332	-0.104
-537.179	231.543	-0.199	0.327
-536.164	54.099	0.147	0.142
-535.150	800.000	0.098	-0.378
-534.135	410.611	-0.178	-0.379
-533.121	107.500	0.575	0.687
-532.106	689.785	-0.115	0.302
-531.091	49.678	0.310	-0.292
-530.077	400.308	0.220	0.462
-529.062	-59.480	0.201	0.087
-528.048	23.739	0.441	-0.364
-527.033	-175.108	0.644	-0.018
-526.018	-200.000	-0.079	0.447
-525.004	7.809	-0.138	0.104
-523.989	-200.000	0.031	0.775
-522.975	49.900	-0.884	-0.836
-521.960	-5.177	0.422	-0.291
-520.945	90.476	-0.152	-0.171
-519.931	800.000	-0.173	-0.591
-518.916	-120.847	-0.629	-0.106
-517.902	34.667	-0.221	-0.194
-516.887	134.800	0.405	0.527
-515.872	263.239	-0.148	0.257
-514.858	-200.000	-0.002	0.317
-513.843	-200.000	0.072	0.595
-512.829	800.000	0.218	-0.714
-511.814	-10.464	-0.591	0.392
-510.799	-50.569	-0.640	0.302
-509.785	91.897	0.439	-0.495
-508.770	-87.143	-0.739	-0.225
-507.756	-93.676	0.228	0.063
-506.741	524.578	0.310	0.730
-505.726	-200.000	-0.097	0.597
-504.712	-18.723	0.211	0.132
-503.697	44.200	0.498	0.458
-502.683	-55.814	-0.356	0.159
-501.668	510.439	-0.111	0.259
-500.653	-141.150	0.466	0.048
-499.639	-200.000	0.009	0.466
-498.624	-61.352	0.689	0.290
-497.610	800.000	-0.101	0.416
-496.595	-200.000	0.067	0.809
-495.581	-55.362	-0.178	-0.080
-494.566	-1.284	-0.336	-0.238
-493.551	160.847	-0.281	-0.393
-492.537	31.619	0.333	0.287
-491.522	129.074	0.282	0.360
-490.508	91.821	-0.204	-0.230
-489.493	-150.627	0.327	0.025
-488.478	-56.406	0.621	0.276
-487.464	-71.265	0.601	-0.226
-486.449	-121.384	0.688	-0.115
-485.435	174.732	-0.191	-0.277
-484.420	-64.628	0.582	-0.237
-483.405	-66.360	-0.257	-0.102
-482.391	-13.555	0.186	0.121
-481.376	376.689	0.402	-0.821
-480.362	-200.000	0.004	-0.871
-479.347	492.793	-0.477	-1.094
-478.332	16.457	0.475	-0.376
-477.318	69.365	-0.543	0.559
-476.303	-58.457	-0.754	0.328
-475.289	-50.687	0.255	-0.120
-474.274	-126.716	0.380	0.056
-473.259	-144.878	0.901	-0.083
-472.245	-56.112	0.788	0.351
-471.230	41.222	-0.386	-0.349
-470.216	-200.000	0.062	0.582
-469.201	123.557	-0.286	-0.359
-468.186	22.249	-0.161	0.132
-467.172	49.687	-0.531	-0.501
-466.157	800.000	-0.327	1.045
-465.143	475.526	0.144	0.326
-464.128	-83.689	-0.972	-0.310
-463.113	-200.000	0.063	-0.316
-462.099	800.000	0.151	-0.469
-461.084	-200.000	0.049	0.323
-460.070	382.603	0.537	1.104
-459.055	-200.000	-0.047	-0.211
-458.040	-200.000	0.030	-0.313
-457.026	-12.888	0.189	-0.123
-456.011	-142.643	1.003	0.098
-454.997	693.803	0.084	0.221
-453.982	-200.000	-0.040	0.464
-452.968	91.050	-0.220	0.247
-451.953	438.681	0.234	0.510
-450.938	-125.694	-0.799	-0.121
-449.924	29.975	-0.203	-0.173
-448.909	-12.091	-0.776	-0.508
-447.895	-94.249	0.822	-0.225
-446.880	120.488	0.261	0.324
-445.865	-26.023	-0.493	-0.290
-444.851	-139.300	0.555	0.060
-443.836	-200.000	-0.061	1.234
-442.822	92.814	-0.097	-0.110
-441.807	473.780	0.375	-0.846
-440.792	49.310	-0.157	0.148
-439.778	-25.373	0.634	0.375
-438.763	800.000	-0.052	0.155
-437.749	-200.000	0.136	0.639
-436.734	-132.643	1.385	-0.177
-435.719	-200.000	0.047	0.253
-434.705	59.246	0.775	-0.762
-433.690	53.271	-0.350	0.335
-432.676	132.758	0.387	-0.499
-431.661	396.538	0.266	0.556
-430.646	11.392	1.033	0.791
-429.632	113.954	0.367	0.446
-428.617	-111.975	-1.000	0.201
-427.603	-200.000	0.076	0.720
-426.588	154.511	-0.099	-0.136
-425.573	99.293	0.488	0.563
-424.559	800.000	0.149	-0.417
-423.544	800.000	0.304	-0.854
-422.530	446.857	-0.290	0.636
-421.515	256.996	0.164	-0.282
-420.500	361.116	-0.326	0.652
-419.486	-74.948	0.385	-0.138
-418.471	-151.574	-0.806	-0.060
-417.457	35.536	0.303	-0.266
-416.442	-200.000	-0.048	0.441
-415.428	800.000	-0.126	-0.353
-414.413	-200.000	-0.100	-0.521
-413.398	-78.303	-0.488	-0.167
-412.384	109.309	-0.356	0.426
-411.369	608.816	0.121	0.301
-410.355	5.033	0.189	0.139
-409.340	-113.142	0.717	-0.141
-408.325	-29.141	-0.966	0.553
-407.311	-172.459	-0.673	0.021
-406.296	-11.808	0.320	-0.210
-405.282	53.895	-0.673	0.645
-404.267	-150.247	0.489	0.038
-403.252	-200.000	0.035	0.344
-402.238	-125.148	-1.236	-0.189
-401.223	2.585	-0.226	-0.163
-400.209	122.780	-0.382	-0.476
-399.194	46.046	-0.201	-0.186
-398.179	-20.728	0.238	0.146
-397.165	378.515	0.413	-0.843
-396.150	139.566	0.097	0.127
-395.136	98.139	-0.819	-0.940
-394.121	226.760	0.392	-0.636
-393.106	800.000	-0.206	-0.636
-392.092	800.000	-0.248	-0.793
-391.077	108.090	-0.562	0.669
-390.063	663.554	-0.042	-0.107
-389.048	180.274	-0.154	-0.225
-388.033	-200.000	0.220	1.060
-387.019	-200.000	-0.005	-0.265
-386.004	598.672	-0.250	-0.618
-384.990	-200.000	0.108	-0.750
-383.975	-134.742	0.791	-0.096
-382.960	350.087	-0.105	0.206
-381.946	-200.000	-0.049	0.919
-380.931	-51.420	0.447	0.208
-379.917	46.047	0.211	-0.195
-378.902	-200.000	0.063	0.798
-377.888	94.005	-0.113	-0.128
-376.873	-140.214	-0.502	-0.052
-375.858	116.525	0.319	-0.390
-374.844	747.398	-0.137	0.368
-373.829	36.300	-0.376	0.330
-372.815	-93.241	0.234	-0.065
-371.800	-115.255	-0.589	0.111
-370.785	135.110	0.351	-0.454
-369.771	-132.643	-0.554	0.071
-368.756	767.287	-0.340	-0.920
-367.742	-200.000	0.059	-1.161
-366.727	79.914	-0.389	-0.416
-365.712	-200.000	0.036	-0.830
-364.698	800.000	-0.112	0.356
-363.683	477.391	0.306	0.689
-362.669	800.000	-0.119	-0.338
-361.654	800.000	0.233	-0.846
-360.639	78.193	-0.492	-0.523
-359.625	278.420	-0.357	0.633
-358.610	-106.115	0.747	0.167
-357.596	5.616	-0.711	0.523
-356.581	-148.539	0.348	0.028
-355.566	46.609	-0.240	0.222
-354.552	-36.165	-0.282	0.151
-353.537	127.468	0.366	-0.462
-352.523	58.172	-0.305	0.298
-351.508	529.068	0.043	-0.100
-350.493	200.119	-0.128	-0.196
-349.479	438.965	0.183	0.397
-348.464	75.946	0.106	-0.112
-347.450	-43.774	-0.195	0.098
-346.435	-75.181	-0.298	-0.106
-345.420	-125.352	-0.680	-0.103
-344.406	-133.067	0.197	0.025
-343.391	-200.000	-0.029	-0.670
-342.377	-200.000	-0.008	-0.147
-341.362	-135.821	-0.647	-0.076
-340.348	-200.000	-0.033	0.243
-339.333	75.980	-0.247	-0.260
-338.318	-34.694	0.171	-0.093
-337.304	-158.871	-0.516	0.029
-336.289	-41.492	0.860	0.440
-335.275	-200.000	0.105	-0.549
-334.260	-119.107	-1.044	-0.182
-333.245	-200.000	-0.143	0.955
-332.231	-169.551	0.794	0.029
-331.216	62.881	0.775	-0.772
-330.202	78.752	-0.666	0.709
-329.187	-116.722	0.655	0.120
-328.172	-69.536	0.968	0.369
-327.158	-145.998	-0.487	-0.043
-326.143	24.796	1.106	-0.912
-325.129	-28.524	0.929	0.533
-324.114	202.177	0.201	0.309
-323.099	-105.526	-0.240	0.054
-322.085	-200.000	0.075	0.596
-321.070	-200.000	-0.148	-1.271
-320.056	4.302	0.416	-0.303
-319.041	-164.898	-1.675	0.075
-318.026	-59.705	0.417	-0.178
-317.012	-86.456	-0.508	0.155
-315.997	-200.000	-0.139	-0.727
-314.983	71.318	-0.177	0.183
-313.968	-50.604	-0.785	0.368
-312.953	680.317	-0.249	0.644
-311.939	487.020	-0.219	-0.496
-310.924	-200.000	0.070	0.396
-309.910	-177.994	-0.456	-0.011
-308.895	5.387	1.041	0.764
-307.880	225.449	0.136	-0.219
-306.866	169.027	-0.117	0.166
-305.851	-200.000	0.078	0.440
-304.837	-81.146	0.502	0.165
-303.822	-200.000	0.010	0.294
-302.807	800.000	0.145	0.539
-301.793	-35.152	0.615	0.333
-300.778	-200.000	-0.084	0.566
-299.764	-200.000	0.006	0.098
-298.749	112.934	-0.231	-0.278
-297.735	-5.663	1.216	0.829
-296.720	-92.075	0.370	-0.104
-295.705	282.629	-0.439	-0.784
-294.691	-200.000	0.193	-0.858
-293.676	-200.000	0.162	-0.889
-292.662	-75.627	0.817	0.289
-291.647	238.190	0.380	-0.627
-290.632	-50.776	0.605	-0.283
-289.618	-105.459	0.091	-0.021
-288.603	89.989	-0.273	-0.303
-287.589	-200.000	-0.001	-0.058
-286.574	-200.000	-0.083	-0.365
-285.559	27.035	-0.061	-0.051
-284.545	542.209	-0.300	-0.711
-283.530	-63.398	0.381	-0.155
-282.516	-200.000	0.093	-0.484
-281.501	-107.425	-0.395	-0.086
-280.486	52.587	0.102	0.097
-279.472	800.000	-0.298	-0.954
-278.457	-200.000	0.182	0.835
-277.443	-98.371	0.559	0.142
-276.428	-108.600	-0.665	0.142
-275.413	-200.000	0.055	0.261
-274.399	20.248	-0.087	0.070
-273.384	-200.000	-0.091	-0.596
-272.370	-71.735	-0.527	-0.195
-271.355	7.675	-0.114	0.085
-270.340	59.414	-0.170	-0.166
-269.326	194.017	-0.433	-0.651
-268.311	-56.671	0.435	-0.191
-267.297	135.145	-0.047	-0.060
-266.282	164.256	-0.262	0.367
-265.267	-73.591	-0.287	0.104
-264.253	-200.000	-0.056	0.497
-263.238	-97.511	0.671	-0.173
-262.224	272.865	-0.183	-0.321
-261.209	-23.398	-0.249	0.149
-260.195	6.632	-0.554	0.409
-259.180	800.000	0.088	-0.274
-258.165	529.226	0.294	0.689
-257.151	145.559	-0.433	0.575
-256.136	-200.000	-0.041	0.225
-255.122	-178.789	-0.497	-0.011
-254.107	-84.588	-0.418	0.131
-253.092	-160.233	0.359	-0.019
-252.078	568.890	-0.405	-0.977
-251.063	-109.330	-0.454	-0.095
-250.049	-36.095	-0.198	-0.106
-249.034	800.000	0.208	0.674
-248.019	-48.773	0.339	-0.161
-247.005	-140.429	-0.553	0.057
-245.990	-185.079	0.581	0.009
-244.976	-103.488	0.749	-0.175
-243.961	93.381	0.069	0.077
-242.946	800.000	0.148	0.412
-241.932	-200.000	0.041	-0.562
-240.917	-137.372	0.175	-0.020
-239.903	-85.312	-0.394	0.122
-238.888	-116.390	-1.026	0.188
-237.873	9.046	0.483	0.362
-236.859	-73.376	-0.837	0.303
-235.844	-158.667	-0.227	0.013
-234.830	-200.000	0.073	-0.394
-233.815	58.528	0.394	0.384
-232.800	800.000	-0.098	-0.405
-231.786	-57.057	-0.296	0.129
-230.771	800.000	-0.247	-0.916
-229.757	-98.069	-0.310	-0.079
-228.742	83.139	0.192	-0.207
-227.727	328.292	-0.306	0.583
-226.713	251.497	-0.228	-0.385
-225.698	342.025	-0.394	0.765
-224.684	-109.151	-0.415	0.087
-223.669	-71.413	0.276	0.102
-222.655	-78.235	0.469	0.160
-221.640	-200.000	-0.031	0.406
-220.625	-200.000	0.056	0.443
-219.611	531.468	0.084	-0.197
-218.596	71.699	-0.673	0.693
-217.582	800.000	-0.049	0.173
-216.567	-77.738	0.316	0.108
-215.552	-133.210	0.740	-0.093
-214.538	193.951	-0.025	-0.038
-213.523	-143.586	-0.461	-0.043
-212.509	270.853	-0.202	0.352
-211.494	35.656	-0.473	0.411
-210.479	-38.195	0.205	-0.107
-209.465	-153.252	0.307	-0.021
-208.450	-59.749	-0.624	0.265
-207.436	536.964	0.169	-0.398
-206.421	23.923	0.649	-0.530
-205.406	800.000	0.338	-1.354
-204.392	400.591	-0.114	-0.236
-203.377	-115.533	0.719	-0.134
-202.363	-21.792	-0.588	-0.354
-201.348	-176.855	1.042	0.026
-200.333	-144.953	0.970	-0.088
-199.319	354.245	0.194	-0.382
-198.304	-75.318	0.394	0.139
-197.290	-39.608	0.285	0.148
-196.275	194.621	0.141	0.212
-195.260	-44.775	0.383	-0.189
-194.246	120.743	-0.374	-0.460
-193.231	-200.000	-0.016	-0.918
-192.217	177.447	0.381	0.549
-191.202	175.375	-0.208	0.299
-190.187	214.964	0.328	-0.514
-189.173	-200.000	0.053	-0.602
-188.158	-117.056	1.080	0.195
-187.144	18.159	0.270	-0.213
-186.129	-96.384	-0.154	-0.040
-185.114	290.167	0.384	-0.689
-184.100	246.773	-0.083	0.138
-183.085	390.435	-0.162	-0.333
-182.071	449.953	0.071	0.154
-181.056	-134.535	0.250	0.030
-180.042	-53.658	0.790	0.357
-179.027	-200.000	-0.019	0.182
-178.012	-15.066	-0.098	-0.062
-176.998	-200.000	0.008	-0.309
-175.983	198.917	-0.586	-0.888
-174.969	542.609	0.072	0.171
-173.954	-138.399	-0.507	-0.055
-172.939	117.620	-0.191	0.232
-171.925	115.251	0.449	0.542
-170.910	19.232	0.458	-0.364
-169.896	-200.000	-0.061	0.966
-168.881	-17.631	-0.652	0.405
-167.866	5.974	-0.207	-0.151
-166.852	-84.623	-0.419	0.131
-165.837	-107.681	-0.210	0.045
-164.823	191.747	-0.276	-0.411
-163.808	251.373	0.144	-0.242
-162.793	136.202	-0.173	0.223
-161.779	-200.000	-0.018	0.091
-160.764	95.576	-0.596	0.672
-159.750	218.797	-0.657	-1.038
-158.735	800.000	-0.202	0.758
-157.720	-200.000	0.004	0.428
-156.706	800.000	0.545	1.522
-155.691	95.339	0.313	0.353
-154.677	800.000	-0.264	0.900
-153.662	235.428	0.113	0.185
-152.647	220.524	0.393	0.623
-151.633	122.944	-0.311	-0.385
-150.618	-200.000	-0.020	-0.771
-149.604	258.424	0.300	-0.511
-148.589	729.002	-0.147	-0.389
-147.574	-115.203	-0.362	0.068
-146.560	233.510	-0.314	0.510
-145.545	155.352	-0.621	0.845
-144.531	-96.186	1.021	0.268
-143.516	800.000	0.341	0.997
-142.502	-108.331	0.579	0.123
-141.487	-200.000	0.051	0.677
-140.472	-55.854	0.771	-0.340
-139.458	-74.384	-0.667	-0.238
-138.443	482.892	-0.121	0.272
-137.429	56.436	-0.946	-0.908
-136.414	-32.287	-0.669	-0.369
-135.399	-73.236	-0.809	0.293
-134.385	-200.000	0.071	-0.489
-133.370	800.000	0.146	-0.625
-132.356	-200.000	-0.078	-0.480
-131.341	547.675	-0.075	0.177
-130.326	800.000	-0.147	-0.614
-129.312	800.000	0.073	-0.204
-128.297	-200.000	-0.031	-0.189
-127.283	-200.000	0.001	-0.307
-126.268	43.690	0.472	-0.426
-125.253	-48.495	-0.964	-0.458
-124.239	164.241	0.171	-0.238
-123.224	5.233	-0.261	0.190
-122.210	-200.000	-0.062	0.548
