DTS Sentinel unit serial number:	SN413079Multiplexer serial number:	ORYXHardware model number:	OX4-SRSoftware version number:	ORYX F/W v4.00 Oryx Data Collector v3.7.2.0data status	okinstallation	princeton_trtdifferential loss correction	single-endedforward channel	channel 1reverse channel	N/Adate	2019/09/12time	09:52:11forward acquisition time	60.00reverse acquisition time	0.00gamma	496.2192k internal	0.2299k external	0.2299temperature offset calibration	1.0050default loss term (dB/km)	0.3790temperature slope calibration	1.0000multiplexer offset coefficient	1.0000multiplexer slope coefficient	1.0000fibre end	0.00T internal ref (°C)	36.06T ext. ref 1 (°C)	1.85T ext. ref 2 (°C)	32.33length (m)	temperature (°C)	Stokes	anti-Stokes-747.200	-200.000	0.008	-0.078
-746.185	125.353	-0.072	0.093
-745.171	396.834	0.226	-0.481
-744.156	81.569	0.226	-0.249
-743.142	348.795	0.131	0.263
-742.127	-16.392	-0.273	0.177
-741.112	383.431	0.029	0.061
-740.098	263.600	0.284	0.504
-739.083	-87.825	-0.139	0.043
-738.069	-200.000	-0.006	0.094
-737.054	-200.000	0.030	0.607
-736.039	16.534	-0.401	0.323
-735.025	800.000	-0.036	-0.151
-734.010	254.062	-0.170	-0.297
-732.996	-105.605	-0.045	-0.010
-731.981	95.976	-0.279	-0.325
-730.966	800.000	-0.036	0.109
-729.952	-1.223	0.218	-0.157
-728.937	-95.001	0.006	-0.002
-727.923	74.745	0.102	-0.110
-726.908	-68.183	0.132	0.052
-725.894	-200.000	-0.020	0.129
-724.879	-125.010	-0.293	0.046
-723.864	86.522	-0.331	-0.372
-722.850	800.000	-0.037	-0.155
-721.835	-44.856	0.180	-0.091
-720.821	800.000	0.020	0.066
-719.806	-125.827	0.272	-0.042
-718.791	390.355	0.113	-0.240
-717.777	-129.406	0.217	0.031
-716.762	-156.213	0.114	0.007
-715.748	15.554	-0.146	-0.117
-714.733	445.597	0.071	0.159
-713.718	-20.004	0.218	0.137
-712.704	-16.507	-0.063	0.041
-711.689	-113.336	-0.517	-0.103
-710.675	-186.400	0.144	0.002
-709.660	800.000	0.054	-0.175
-708.645	-200.000	0.007	0.053
-707.631	-43.748	-0.092	0.047
-706.616	-21.583	-0.288	-0.179
-705.602	300.698	-0.128	-0.240
-704.587	-151.939	-0.224	0.017
-703.572	331.513	0.041	0.080
-702.558	-73.082	0.278	-0.104
-701.543	-26.493	0.132	0.079
-700.529	80.616	-0.102	-0.112
-699.514	540.444	0.076	0.184
-698.499	-200.000	-0.046	-0.322
-697.485	-68.550	0.070	0.028
-696.470	74.485	-0.061	0.066
-695.456	-97.820	0.265	-0.070
-694.441	69.976	0.194	-0.203
-693.426	-109.918	-0.240	-0.051
-692.412	161.033	-0.171	-0.243
-691.397	30.065	-0.085	0.074
-690.383	196.953	-0.088	0.137
-689.368	-45.448	0.352	0.178
-688.354	-200.000	0.031	-0.238
-687.339	80.986	-0.179	-0.196
-686.324	800.000	0.036	0.159
-685.310	-74.273	-0.060	0.022
-684.295	-200.000	-0.033	0.357
-683.281	-10.786	-0.222	-0.149
-682.266	316.989	-0.021	0.041
-681.251	110.558	-0.154	-0.188
-680.237	-200.000	0.012	0.150
-679.222	-185.746	-0.053	-0.001
-678.208	-200.000	-0.017	-0.116
-677.193	101.678	-0.191	-0.227
-676.178	783.180	-0.069	0.191
-675.164	434.525	-0.205	0.452
-674.149	-40.484	0.116	0.062
-673.135	47.575	0.115	-0.110
-672.120	98.586	-0.249	-0.293
-671.105	594.435	0.121	-0.304
-670.091	-57.543	-0.103	-0.046
-669.076	657.362	-0.109	0.286
-668.062	35.110	-0.152	-0.135
-667.047	595.286	-0.021	-0.052
-666.032	-93.405	0.282	-0.080
-665.018	-28.777	-0.101	-0.059
-664.003	-95.271	0.216	-0.059
-662.989	-200.000	-0.064	0.314
-661.974	667.949	-0.065	0.171
-660.959	-188.159	-0.338	0.004
-659.945	684.013	0.127	0.338
-658.930	-200.000	-0.028	0.192
-657.916	-73.959	0.290	0.107
-656.901	-170.150	0.187	-0.007
-655.886	800.000	0.039	-0.129
-654.872	800.000	0.041	-0.116
-653.857	700.014	0.076	-0.204
-652.843	-200.000	0.004	0.229
-651.828	800.000	0.091	-0.326
-650.814	422.427	-0.111	-0.243
-649.799	68.332	0.164	-0.171
-648.784	-54.704	0.119	-0.055
-647.770	-200.000	0.131	-0.729
-646.755	800.000	-0.080	-0.246
-645.741	-92.153	-0.232	0.067
-644.726	800.000	-0.074	0.245
-643.711	-200.000	-0.004	0.103
-642.697	205.852	-0.099	0.156
-641.682	-111.537	0.060	-0.012
-640.668	24.433	-0.223	0.188
-639.653	133.422	-0.151	-0.199
-638.638	186.162	0.030	0.046
-637.624	162.215	-0.133	-0.189
-636.609	673.278	0.100	0.264
-635.595	289.214	0.137	-0.253
-634.580	396.299	-0.099	-0.210
-633.565	-36.755	0.394	-0.215
-632.551	-175.190	-0.156	-0.004
-631.536	62.270	-0.256	-0.260
-630.522	263.910	0.235	0.415
-629.507	-158.022	-0.156	-0.009
-628.492	18.330	-0.023	0.019
-627.478	-200.000	-0.004	-0.347
-626.463	-70.818	0.240	-0.092
-625.449	-200.000	0.037	0.216
-624.434	646.357	-0.101	0.261
-623.419	110.942	-0.141	0.172
-622.405	800.000	0.087	-0.287
-621.390	-199.878	0.433	-0.002
-620.376	-68.839	-0.166	0.065
-619.361	98.203	0.132	-0.154
-618.346	-15.513	0.080	0.052
-617.332	800.000	-0.069	0.227
-616.317	-200.000	-0.024	0.197
-615.303	800.000	0.027	-0.107
-614.288	-200.000	-0.042	-0.235
-613.273	-200.000	-0.020	-0.146
-612.259	122.299	-0.083	-0.106
-611.244	-81.379	0.116	0.039
-610.230	-34.808	-0.142	-0.079
-609.215	-200.000	0.000	-0.038
-608.201	12.085	-0.079	-0.062
-607.186	24.070	-0.215	-0.180
-606.171	-88.869	0.197	0.059
-605.157	62.093	-0.184	-0.186
-604.142	-130.349	-0.093	0.013
-603.128	397.349	0.061	0.129
-602.113	-138.354	0.131	0.015
-601.098	-200.000	0.029	-0.397
-600.084	-61.298	-0.211	-0.090
-599.069	478.640	-0.124	0.285
-598.055	24.939	-0.249	0.210
-597.040	-112.809	0.238	-0.048
-596.025	56.267	-0.135	0.133
-595.011	-39.855	0.126	0.067
-593.996	-127.322	0.235	0.035
-592.982	-200.000	0.004	0.265
-591.967	10.983	-0.340	0.264
-590.952	-6.460	0.283	0.196
-589.938	-200.000	-0.008	0.124
-588.923	-75.366	-0.103	-0.037
-587.909	429.028	0.082	0.180
-586.894	0.144	-0.074	-0.054
-585.879	-28.571	0.313	0.183
-584.865	-132.315	0.171	-0.022
-583.850	-151.107	0.530	0.040
-582.836	-103.760	-0.324	0.077
-581.821	8.558	0.124	0.095
-580.806	55.190	-0.202	-0.198
-579.792	295.772	-0.042	-0.077
-578.777	-146.643	-0.135	-0.012
-577.763	-17.425	0.148	-0.095
-576.748	103.997	-0.106	-0.126
-575.733	800.000	-0.060	-0.210
-574.719	-200.000	-0.015	0.124
-573.704	-200.000	-0.013	-0.166
-572.690	293.302	0.056	-0.104
-571.675	-53.919	0.074	0.034
-570.661	173.885	0.187	0.273
-569.646	-43.541	-0.111	-0.057
-568.631	-21.307	-0.048	-0.030
-567.617	234.708	-0.174	0.291
-566.602	132.812	-0.038	0.050
-565.588	344.548	-0.138	0.274
-564.573	-27.482	-0.188	-0.111
-563.558	157.944	-0.052	0.073
-562.544	765.494	-0.004	-0.012
-561.529	-163.215	0.075	0.004
-560.515	-200.000	0.008	-0.228
-559.500	-28.658	-0.239	0.139
-558.485	-200.000	0.008	-0.082
-557.471	-200.000	-0.011	-0.061
-556.456	-56.566	-0.149	0.067
-555.442	221.112	-0.086	-0.140
-554.427	23.708	-0.206	-0.172
-553.412	38.419	-0.171	0.154
-552.398	-77.748	0.223	-0.078
-551.383	20.194	0.236	0.193
-550.369	167.906	-0.121	0.174
-549.354	160.833	-0.100	0.141
-548.339	-59.060	-0.248	-0.108
-547.325	184.257	0.124	0.186
-546.310	800.000	0.110	0.402
-545.296	-5.754	-0.278	-0.193
-544.281	-45.568	0.293	-0.147
-543.266	137.489	0.057	0.076
-542.252	-200.000	0.016	0.137
-541.237	234.287	0.162	-0.271
-540.223	-20.389	0.160	-0.100
-539.208	-200.000	-0.004	-0.128
-538.193	800.000	-0.086	0.297
-537.179	48.203	-0.135	-0.128
-536.164	-123.386	0.149	0.024
-535.150	-7.768	0.229	-0.157
-534.135	-37.105	-0.166	0.090
-533.121	253.249	0.082	0.141
-532.106	-41.159	-0.139	-0.073
-531.091	-87.598	0.104	-0.032
-530.077	-94.632	-0.348	0.096
-529.062	132.226	-0.086	-0.112
-528.048	800.000	-0.107	-0.371
-527.033	-79.789	0.201	-0.068
-526.018	-161.646	0.312	-0.016
-525.004	-200.000	-0.000	0.061
-523.989	-122.603	-0.223	-0.037
-522.975	224.704	-0.222	-0.364
-521.960	-200.000	-0.010	0.270
-520.945	141.665	0.074	-0.099
-519.931	8.494	-0.059	0.045
-518.916	-48.501	0.123	0.060
-517.902	-200.000	-0.026	0.209
-516.887	-14.615	0.302	0.196
-515.872	601.019	-0.044	0.112
-514.858	19.478	0.054	0.044
-513.843	-147.346	-0.106	0.009
-512.829	-98.271	0.232	0.060
-511.814	-127.412	0.318	-0.047
-510.799	-77.416	0.108	0.038
-509.785	800.000	0.110	0.407
-508.770	-147.895	-0.026	0.002
-507.756	-76.035	-0.201	0.072
-506.741	8.845	0.028	-0.021
-505.726	-75.930	-0.248	-0.089
-504.712	-19.967	-0.061	-0.038
-503.697	42.784	0.204	0.188
-502.683	-63.188	0.250	0.104
-501.668	220.547	-0.112	0.182
-500.653	-75.838	0.057	0.020
-499.639	257.588	-0.156	0.272
-498.624	56.488	-0.122	0.120
-497.610	96.357	-0.140	-0.162
-496.595	-200.000	0.048	0.422
-495.581	222.466	0.144	-0.234
-494.566	551.018	0.160	-0.389
-493.551	-17.013	-0.075	0.048
-492.537	-137.978	-0.142	0.016
-491.522	800.000	0.065	0.238
-490.508	530.228	-0.118	0.282
-489.493	30.108	-0.149	-0.128
-488.478	152.464	0.141	-0.194
-487.464	2.487	0.174	-0.127
-486.449	-46.982	0.258	-0.127
-485.435	-45.962	-0.058	-0.029
-484.420	97.593	0.079	-0.092
-483.405	-51.410	-0.077	0.036
-482.391	10.425	0.217	-0.167
-481.376	120.184	0.122	0.152
-480.362	74.196	-0.076	0.080
-479.347	-106.754	-0.306	0.069
-478.332	-102.950	0.259	0.062
-477.318	-56.026	-0.377	-0.170
-476.303	-108.205	-0.323	-0.071
-475.289	9.685	0.288	-0.220
-474.274	-99.834	-0.313	0.079
-473.259	-200.000	0.021	-0.163
-472.245	-19.666	-0.066	-0.041
-471.230	72.736	0.103	0.109
-470.216	-24.409	-0.087	-0.052
-469.201	-200.000	0.013	-0.144
-468.186	522.011	0.029	-0.069
-467.172	245.264	0.068	-0.115
-466.157	2.252	-0.275	-0.201
-465.143	108.779	0.056	0.068
-464.128	-71.359	0.429	-0.162
-463.113	-20.765	0.210	-0.130
-462.099	-10.663	0.224	0.149
-461.084	800.000	-0.103	-0.383
-460.070	-200.000	0.015	-0.077
-459.055	-42.067	-0.299	-0.154
-458.040	-200.000	0.125	0.578
-457.026	145.510	-0.050	0.068
-456.011	312.017	-0.253	0.479
-454.997	-83.055	0.349	0.113
-453.982	-200.000	-0.012	0.096
-452.968	-200.000	-0.050	0.253
-451.953	800.000	0.044	-0.164
-450.938	-41.727	0.233	-0.121
-449.924	302.515	-0.047	0.087
-448.909	-79.631	0.098	-0.033
-447.895	-143.137	-0.412	0.040
-446.880	142.700	0.150	-0.201
-445.865	-30.438	-0.146	0.083
-444.851	-82.085	0.099	0.032
-443.836	1.099	0.185	-0.134
-442.822	-27.640	0.422	-0.247
-441.807	-91.675	-0.099	-0.028
-440.792	539.692	-0.105	-0.252
-439.778	197.281	-0.208	0.320
-438.763	-83.822	-0.294	0.095
-437.749	-31.795	-0.245	-0.138
-436.734	800.000	0.043	0.165
-435.719	111.562	-0.074	0.090
-434.705	-139.947	0.133	0.014
-433.690	208.124	-0.189	-0.297
-432.676	339.168	0.048	0.094
-431.661	185.913	-0.143	0.214
-430.646	440.437	-0.029	0.063
-429.632	289.531	0.054	0.099
-428.617	-21.203	0.289	0.178
-427.603	-113.906	0.132	-0.026
-426.588	800.000	-0.139	-0.490
-425.573	-200.000	-0.012	-0.155
-424.559	519.508	-0.125	0.295
-423.544	197.916	0.149	0.230
-422.530	210.031	0.121	0.191
-421.515	-14.960	-0.068	-0.044
-420.500	-81.479	-0.205	0.068
-419.486	272.560	0.118	-0.209
-418.471	-178.534	0.263	0.006
-417.457	393.050	-0.110	0.231
-416.442	-101.957	0.227	-0.055
-415.428	31.237	0.121	0.105
-414.413	-200.000	0.027	-0.290
-413.398	69.809	0.024	-0.025
-412.384	35.251	0.312	0.275
-411.369	-124.422	0.167	0.026
-410.355	-200.000	-0.047	0.290
-409.340	60.454	-0.206	0.205
-408.325	-43.625	0.149	-0.076
-407.311	226.813	-0.038	-0.061
-406.296	88.247	0.263	-0.294
-405.282	800.000	0.070	0.281
-404.267	-108.729	0.244	-0.053
-403.252	-200.000	-0.203	0.001
-402.238	800.000	-0.029	-0.108
-401.223	-200.000	0.009	0.039
-400.209	-44.227	0.131	0.066
-399.194	82.991	0.300	0.328
-398.179	-200.000	-0.001	0.262
-397.165	653.031	-0.029	0.076
-396.150	-59.619	0.336	0.145
-395.136	-200.000	-0.026	-0.157
-394.121	-34.050	-0.195	0.108
-393.106	57.823	0.181	-0.178
-392.092	-200.000	0.066	-0.394
-391.077	-138.760	-0.243	0.027
-390.063	-171.545	0.179	0.006
-389.048	154.747	-0.100	-0.138
-388.033	-200.000	-0.031	-0.174
-387.019	800.000	0.019	-0.065
-386.004	198.925	0.170	0.263
-384.990	-107.373	0.199	-0.044
-383.975	425.849	-0.035	0.075
-382.960	-50.535	-0.426	-0.202
-381.946	46.489	0.155	0.145
-380.931	20.284	0.145	-0.118
-379.917	-200.000	0.001	-0.157
-378.902	449.161	-0.089	-0.197
-377.888	103.964	-0.126	0.149
-376.873	-104.689	0.127	0.030
-375.858	207.776	-0.089	0.140
-374.844	800.000	-0.121	-0.365
-373.829	800.000	-0.117	-0.349
-372.815	35.531	0.192	-0.170
-371.800	104.208	0.226	0.267
-370.785	-117.247	-0.267	-0.049
-369.771	61.747	-0.278	0.279
-368.756	-200.000	0.007	0.256
-367.742	-36.327	-0.064	0.035
-366.727	317.975	0.023	-0.043
-365.712	-200.000	0.020	-0.329
-364.698	45.944	-0.092	-0.086
-363.683	-177.014	0.199	-0.005
-362.669	528.088	-0.085	-0.202
-361.654	-200.000	-0.017	-0.169
-360.639	215.404	0.065	-0.103
-359.625	148.596	0.087	0.118
-358.610	-75.635	0.085	0.030
-357.596	-64.187	-0.426	-0.174
-356.581	292.605	0.065	0.119
-355.566	-200.000	0.051	-0.251
-354.552	323.657	-0.040	-0.076
-353.537	-153.493	0.342	0.024
-352.523	-93.770	-0.110	0.030
-351.508	-74.074	-0.299	-0.109
-350.493	-200.000	0.009	-0.378
-349.479	-91.837	-0.184	0.052
-348.464	800.000	0.018	0.057
-347.450	554.778	-0.059	-0.143
-346.435	-200.000	-0.006	-0.132
-345.420	-59.355	0.106	0.046
-344.406	-29.369	0.089	0.051
-343.391	800.000	-0.042	0.120
-342.377	-161.775	-0.310	0.016
-341.362	580.368	0.100	0.246
-340.348	-31.339	0.258	-0.146
-339.333	332.777	-0.067	0.130
-338.318	-200.000	0.022	-0.168
-337.304	-73.118	-0.266	-0.098
-336.289	126.235	0.089	-0.113
-335.275	-74.574	0.208	-0.075
-334.260	-200.000	0.031	-0.212
-333.245	221.066	-0.054	-0.087
-332.231	136.390	-0.198	-0.259
-331.216	155.771	-0.085	0.117
-330.202	-0.235	0.054	0.038
-329.187	1.088	-0.177	-0.127
-328.172	40.973	-0.209	0.190
-327.158	300.013	-0.060	0.110
-326.143	-154.720	-0.240	0.016
-325.129	751.498	0.119	-0.323
-324.114	-19.749	-0.218	0.135
-323.099	800.000	0.065	0.219
-322.085	-200.000	-0.014	-0.234
-321.070	28.433	-0.166	-0.141
-320.056	137.737	0.091	-0.120
-319.041	289.428	0.046	-0.084
-318.026	-14.664	0.031	0.020
-317.012	93.066	-0.263	0.298
-315.997	-140.971	0.292	-0.030
-314.983	151.279	0.254	0.347
-313.968	800.000	-0.038	-0.126
-312.953	39.981	0.046	0.042
-311.939	484.961	-0.101	0.230
-310.924	-16.444	-0.030	0.019
-309.910	-62.719	-0.438	-0.182
-308.895	-200.000	0.003	-0.046
-307.880	800.000	0.124	0.413
-306.866	-30.444	-0.173	0.098
-305.851	-155.882	-0.174	0.011
-304.837	81.676	-0.091	0.099
-303.822	425.716	-0.146	-0.316
-302.807	-15.831	-0.322	0.206
-301.793	800.000	0.029	-0.092
-300.778	261.073	0.207	-0.359
-299.764	28.688	0.041	0.035
-298.749	-200.000	0.009	-0.095
-297.735	464.096	-0.020	-0.044
-296.720	-116.080	-0.146	0.027
-295.705	-62.632	-0.085	-0.035
-294.691	-35.355	0.187	0.102
-293.676	163.022	-0.193	0.272
-292.662	-22.675	0.104	0.063
-291.647	800.000	0.065	-0.201
-290.632	-200.000	0.087	0.448
-289.618	-26.881	-0.019	-0.011
-288.603	-47.526	-0.197	0.096
-287.589	-148.792	-0.314	-0.025
-286.574	-47.112	0.101	-0.050
-285.559	109.269	-0.204	0.245
-284.545	-65.109	-0.403	0.163
-283.530	59.079	0.144	0.142
-282.516	293.712	0.013	-0.024
-281.501	800.000	0.015	0.046
-280.486	135.370	0.062	-0.081
-279.472	110.339	0.289	-0.348
-278.457	69.691	-0.224	-0.231
-277.443	-86.255	-0.283	-0.087
-276.428	56.634	0.201	-0.196
-275.413	-200.000	-0.004	0.233
-274.399	-27.382	-0.145	-0.085
-273.384	-32.176	0.239	0.134
-272.370	-189.085	0.184	-0.002
-271.355	73.518	-0.191	0.201
-270.340	-133.104	-0.366	-0.046
-269.326	440.729	-0.078	-0.171
-268.311	196.982	0.096	-0.146
-267.297	800.000	0.123	0.406
-266.282	-3.020	-0.047	-0.033
-265.267	32.331	0.317	-0.274
-264.253	-197.876	-0.276	0.002
-263.238	-42.370	0.217	0.111
-262.224	-200.000	-0.013	-0.135
-261.209	219.618	-0.184	-0.295
-260.195	-126.687	0.562	0.083
-259.180	483.297	0.082	0.186
-258.165	601.142	-0.012	0.029
-257.151	267.310	-0.095	-0.166
-256.136	-112.476	-0.258	-0.052
-255.122	82.371	-0.213	-0.232
-254.107	-148.349	0.139	-0.011
-253.092	-77.548	-0.315	-0.109
-252.078	2.813	0.094	0.068
-251.063	249.570	-0.037	0.062
-250.049	-67.471	0.073	-0.029
-249.034	-101.898	0.207	-0.050
-248.019	84.126	-0.127	-0.139
-247.005	407.557	-0.079	0.167
-245.990	-200.000	0.019	-0.187
-244.976	31.316	0.303	-0.261
-243.961	290.776	-0.129	0.235
-242.946	-200.000	0.007	0.298
-241.932	-27.644	0.162	-0.094
-240.917	2.411	-0.030	0.022
-239.903	800.000	-0.048	0.150
-238.888	-200.000	-0.034	0.472
-237.873	-56.654	0.195	0.086
-236.859	440.291	0.106	0.233
-235.844	19.312	0.103	0.083
-234.830	45.858	-0.159	-0.147
-233.815	800.000	-0.212	0.710
-232.800	333.808	0.113	0.219
-231.786	-200.000	-0.021	-0.285
-230.771	800.000	0.050	-0.202
-229.757	80.870	-0.081	0.088
-228.742	162.517	0.196	-0.275
-227.727	322.029	-0.063	-0.121
-226.713	-129.687	-0.160	-0.022
-225.698	5.443	-0.125	-0.093
-224.684	236.170	-0.149	-0.247
-223.669	800.000	-0.083	0.302
-222.655	-139.497	-0.180	0.019
-221.640	-5.469	-0.146	0.100
-220.625	155.707	-0.068	-0.094
-219.611	-77.589	-0.273	0.095
-218.596	504.166	0.057	0.132
-217.582	800.000	0.033	-0.139
-216.567	800.000	0.049	0.210
-215.552	-96.450	0.212	-0.056
-214.538	-14.476	-0.161	0.104
-213.523	118.704	0.189	0.234
-212.509	282.325	-0.012	-0.022
-211.494	-51.637	0.323	0.150
-210.479	-200.000	-0.045	0.268
-209.465	67.461	-0.217	0.222
-208.450	359.096	-0.210	-0.420
-207.436	-15.013	-0.281	-0.180
-206.421	-164.394	0.164	-0.007
-205.406	-116.351	-0.188	-0.035
-204.392	800.000	-0.019	-0.074
-203.377	-133.984	-0.263	-0.033
-202.363	151.282	-0.091	-0.123
-201.348	-120.797	-0.053	0.009
-200.333	-171.503	0.177	-0.006
-199.319	709.734	-0.075	-0.197
-198.304	-111.597	0.200	-0.041
-197.290	-129.620	-0.085	0.012
-196.275	-5.449	0.218	-0.150
-195.260	-200.000	0.017	-0.281
-194.246	-65.397	0.116	-0.046
-193.231	-38.010	-0.209	0.111
-192.217	-116.964	0.273	0.050
-191.202	800.000	0.095	0.319
-190.187	74.638	-0.233	0.245
-189.173	631.026	-0.086	0.217
-188.158	-155.226	-0.163	0.011
-187.144	12.365	0.320	0.246
-186.129	111.552	-0.071	0.086
-185.114	-82.195	-0.047	0.015
-184.100	185.252	-0.066	0.097
-183.085	-200.000	-0.008	-0.135
-182.071	116.964	0.337	0.413
-181.056	-200.000	0.027	0.158
-180.042	57.490	0.336	-0.328
-179.027	-151.301	0.300	0.022
-178.012	182.835	0.244	-0.359
-176.998	800.000	-0.037	-0.122
-175.983	-93.424	0.317	-0.088
-174.969	210.913	0.141	0.221
-173.954	-55.616	0.361	0.161
-172.939	200.499	0.189	-0.290
-171.925	-98.555	-0.122	-0.031
-170.910	-168.504	-0.077	-0.003
-169.896	335.576	0.022	-0.043
-168.881	89.091	0.200	0.222
-167.866	-164.159	-0.379	-0.017
-166.852	-200.000	0.062	0.394
-165.837	-120.220	0.137	-0.023
-164.823	695.726	0.101	0.264
-163.808	58.277	-0.364	-0.356
-162.793	-127.046	-0.186	-0.027
-161.779	125.668	-0.114	0.143
-160.764	-13.126	0.102	-0.066
-159.750	-200.000	0.013	-0.201
-158.735	366.825	-0.167	-0.337
-157.720	-59.724	0.194	0.083
-156.706	-13.787	-0.122	-0.079
-155.691	-117.998	0.356	-0.064
-154.677	627.167	0.043	-0.108
-153.662	-29.602	0.402	-0.229
-152.647	-37.112	0.264	-0.141
-151.633	-200.000	-0.023	-0.111
-150.618	800.000	0.080	-0.270
-149.604	-144.903	-0.337	0.031
-148.589	306.955	-0.015	-0.028
-147.574	-200.000	-0.005	-0.052
-146.560	-16.514	0.177	-0.112
-145.545	116.790	0.070	0.086
-144.531	46.459	0.070	0.065
-143.516	-200.000	0.018	0.385
-142.502	-163.079	0.194	-0.009
-141.487	-34.651	0.141	-0.077
-140.472	-70.335	0.301	-0.114
-139.458	-152.989	-0.204	-0.014
-138.443	-54.206	-0.180	-0.081
-137.429	-200.000	0.001	-0.069
-136.414	-129.220	-0.155	0.022
-135.399	146.112	0.179	-0.239
-134.385	59.870	0.228	-0.225
-133.370	-200.000	0.013	-0.257
-132.356	-44.290	0.312	-0.156
-131.341	755.383	-0.076	0.205
-130.326	-23.717	0.083	-0.050
-129.312	214.300	0.111	-0.174
-128.297	-66.626	-0.116	0.046
-127.283	134.201	-0.152	-0.196
-126.268	246.362	0.105	0.177
-125.253	65.797	0.100	-0.101
-124.239	-200.000	-0.042	0.311
-123.224	-200.000	0.014	0.113
-122.210	34.144	0.118	0.102
-121.195	430.756	0.101	-0.218
