DTS Sentinel unit serial number:	SN413079Multiplexer serial number:	ORYXHardware model number:	OX4-SRSoftware version number:	ORYX F/W v4.00 Oryx Data Collector v3.7.2.0data status	okinstallation	princeton_trtdifferential loss correction	single-endedforward channel	channel 1reverse channel	N/Adate	2019/09/16time	10:02:35forward acquisition time	60.00reverse acquisition time	0.00gamma	496.2192k internal	0.2316k external	0.2316temperature offset calibration	0.9960default loss term (dB/km)	0.3790temperature slope calibration	1.0000multiplexer offset coefficient	1.0000multiplexer slope coefficient	1.0000fibre end	0.00T internal ref (°C)	33.56T ext. ref 1 (°C)	12.39T ext. ref 2 (°C)	32.07length (m)	temperature (°C)	Stokes	anti-Stokes-747.200	478.080	0.195	0.448
-746.185	-17.901	-0.410	0.261
-745.171	320.482	-0.098	0.189
-744.156	50.857	0.183	0.176
-743.142	251.443	0.026	-0.045
-742.127	444.355	0.103	0.230
-741.112	308.571	-0.091	-0.171
-740.098	652.818	-0.095	0.246
-739.083	-148.746	0.005	-0.000
-738.069	-56.723	-0.197	0.088
-737.054	42.707	-0.228	-0.210
-736.039	66.600	-0.190	-0.196
-735.025	-9.270	0.130	-0.088
-734.010	130.061	-0.093	-0.121
-732.996	800.000	-0.084	0.295
-731.981	202.410	0.113	-0.176
-730.966	202.088	0.259	0.404
-729.952	-178.101	-0.011	0.000
-728.937	-71.982	-0.108	-0.041
-727.923	-73.810	-0.231	0.085
-726.908	744.085	0.067	0.181
-725.894	56.314	-0.169	-0.166
-724.879	124.959	0.183	0.234
-723.864	-5.726	-0.106	0.074
-722.850	800.000	0.049	0.205
-721.835	-66.485	-0.058	-0.023
-720.821	258.707	-0.090	-0.156
-719.806	-105.949	-0.307	0.070
-718.791	-200.000	0.042	0.212
-717.777	109.260	-0.121	-0.147
-716.762	19.803	0.286	-0.233
-715.748	440.574	0.130	0.288
-714.733	-124.390	0.119	-0.019
-713.718	-200.000	-0.120	0.546
-712.704	763.393	-0.126	-0.347
-711.689	73.325	-0.038	0.040
-710.675	241.918	0.059	-0.099
-709.660	504.332	0.146	-0.343
-708.645	-200.000	-0.020	0.098
-707.631	18.388	0.114	-0.092
-706.616	338.980	-0.183	-0.361
-705.602	800.000	0.106	-0.307
-704.587	-200.000	-0.029	-0.253
-703.572	150.854	-0.300	-0.413
-702.558	-99.551	0.137	0.035
-701.543	-26.358	-0.207	-0.123
-700.529	239.709	-0.120	-0.203
-699.514	-45.127	-0.098	-0.049
-698.499	-167.845	0.164	-0.007
-697.485	800.000	-0.065	0.223
-696.470	1.293	0.092	-0.067
-695.456	-58.572	-0.364	-0.159
-694.441	22.723	0.252	0.209
-693.426	-30.404	-0.187	-0.107
-692.412	-33.704	-0.234	-0.130
-691.397	236.169	-0.135	-0.225
-690.383	800.000	0.038	-0.158
-689.368	90.685	-0.295	-0.334
-688.354	64.495	0.236	-0.240
-687.339	238.298	0.207	-0.347
-686.324	280.905	0.210	-0.380
-685.310	-84.778	-0.405	0.129
-684.295	800.000	0.046	-0.167
-683.281	-125.966	0.135	0.021
-682.266	-5.167	0.135	-0.094
-681.251	-89.403	0.263	0.078
-680.237	-128.582	-0.309	-0.044
-679.222	800.000	0.045	0.174
-678.208	-72.482	0.144	0.054
-677.193	114.576	-0.170	-0.209
-676.178	-2.494	0.088	0.063
-675.164	-200.000	-0.025	0.176
-674.149	-25.459	-0.039	-0.023
-673.135	684.255	-0.146	-0.384
-672.120	-68.708	-0.190	-0.074
-671.105	724.646	-0.076	-0.204
-670.091	-130.051	-0.247	-0.034
-669.076	285.186	0.106	0.193
-668.062	-109.206	0.219	-0.047
-667.047	181.168	0.201	0.299
-666.032	1.375	-0.398	-0.289
-665.018	210.810	0.074	0.117
-664.003	68.161	-0.252	-0.261
-662.989	800.000	-0.106	0.406
-661.974	38.789	0.225	0.203
-660.959	-200.000	-0.035	-0.170
-659.945	214.193	0.037	0.060
-658.930	-69.538	0.048	-0.018
-657.916	93.304	-0.122	0.140
-656.901	-200.000	0.052	-0.272
-655.886	-115.248	-0.348	-0.066
-654.872	625.764	-0.168	-0.428
-653.857	-107.140	-0.307	0.068
-652.843	-85.101	-0.163	-0.052
-651.828	185.200	-0.097	-0.146
-650.814	800.000	-0.056	0.224
-649.799	-87.365	0.343	-0.105
-648.784	-28.854	0.163	0.095
-647.770	50.292	-0.343	-0.327
-646.755	-31.194	-0.234	0.133
-645.741	181.781	-0.165	0.246
-644.726	-84.380	0.089	-0.028
-643.711	429.664	0.149	-0.325
-642.697	650.353	-0.091	-0.236
-641.682	800.000	-0.051	-0.143
-640.668	-11.643	-0.142	-0.094
-639.653	-200.000	-0.046	-0.204
-638.638	-68.903	0.076	-0.030
-637.624	-200.000	-0.045	-0.244
-636.609	-0.025	0.152	-0.109
-635.595	-101.096	-0.278	0.069
-634.580	-79.284	0.197	0.068
-633.565	42.276	-0.278	-0.255
-632.551	-53.935	0.042	-0.019
-631.536	-200.000	-0.061	-0.390
-630.522	347.028	0.049	0.098
-629.507	358.531	-0.102	0.205
-628.492	270.280	0.131	0.232
-627.478	51.294	-0.094	0.090
-626.463	768.440	0.076	0.209
-625.449	92.668	-0.217	0.247
-624.434	-200.000	0.002	0.285
-623.419	143.366	-0.012	0.016
-622.405	-200.000	0.040	0.199
-621.390	-182.976	0.166	0.003
-620.376	-0.611	-0.024	-0.017
-619.361	-75.337	-0.150	-0.054
-618.346	-51.696	-0.097	0.046
-617.332	158.889	0.070	-0.098
-616.317	-113.207	0.197	-0.039
-615.303	562.151	0.115	-0.280
-614.288	-35.676	0.128	-0.070
-613.273	536.055	-0.068	-0.162
-612.259	-90.467	0.378	-0.110
-611.244	433.064	-0.088	0.193
-610.230	-43.405	-0.141	-0.072
-609.215	800.000	-0.062	-0.185
-608.201	-200.000	-0.023	-0.107
-607.186	-58.977	-0.164	0.071
-606.171	-88.101	-0.403	-0.122
-605.157	800.000	-0.040	-0.141
-604.142	38.706	0.200	-0.180
-603.128	27.187	0.068	0.058
-602.113	-90.317	0.178	-0.052
-601.098	234.448	0.147	0.245
-600.084	371.998	0.105	0.214
-599.069	-74.601	-0.063	0.023
-598.055	-200.000	0.045	0.228
-597.040	-130.124	-0.418	0.057
-596.025	366.826	0.031	-0.062
-595.011	138.297	0.219	-0.289
-593.996	1.127	-0.271	-0.196
-592.982	-174.651	0.253	-0.007
-591.967	-19.080	0.258	-0.162
-590.952	13.622	0.149	0.117
-589.938	278.574	0.077	0.138
-588.923	-50.615	0.183	0.087
-587.909	-83.515	-0.275	0.089
-586.894	-4.244	0.202	-0.141
-585.879	110.265	-0.107	-0.130
-584.865	-200.000	-0.003	0.020
-583.850	800.000	-0.152	0.498
-582.836	98.156	0.106	0.123
-581.821	355.556	-0.034	-0.068
-580.806	390.553	-0.121	0.252
-579.792	800.000	-0.091	-0.289
-578.777	-99.147	-0.361	-0.092
-577.763	800.000	-0.071	0.215
-576.748	-66.429	-0.171	0.068
-575.733	800.000	0.044	0.150
-574.719	715.832	0.115	-0.306
-573.704	-200.000	0.056	-0.260
-572.690	-86.234	-0.480	0.149
-571.675	-200.000	-0.050	-0.342
-570.661	95.927	-0.195	-0.224
-569.646	545.704	-0.033	0.080
-568.631	-148.261	0.202	-0.017
-567.617	19.446	0.120	-0.097
-566.602	-120.371	0.157	-0.027
-565.588	-15.353	-0.093	0.060
-564.573	-22.327	0.322	-0.196
-563.558	-200.000	-0.033	-0.253
-562.544	-168.018	0.128	-0.005
-561.529	-42.727	-0.075	-0.038
-560.515	-20.944	-0.257	-0.159
-559.500	-121.329	-0.309	0.052
-558.485	80.378	0.129	0.140
-557.471	-47.201	-0.115	-0.056
-556.456	111.454	-0.121	0.147
-555.442	87.470	-0.094	-0.105
-554.427	114.568	-0.120	0.147
-553.412	16.364	-0.041	-0.033
-552.398	534.494	0.128	0.305
-551.383	-102.623	-0.174	-0.042
-550.369	-200.000	-0.009	-0.064
-549.354	800.000	0.046	-0.180
-548.339	-192.294	-0.138	-0.001
-547.325	-74.249	0.077	0.028
-546.310	-200.000	0.053	0.346
-545.296	-30.994	0.110	-0.063
-544.281	-30.100	-0.225	-0.129
-543.266	175.808	0.038	0.055
-542.252	44.806	-0.137	-0.126
-541.237	-91.501	0.130	-0.037
-540.223	81.771	-0.081	0.088
-539.208	-52.821	-0.307	0.142
-538.193	147.127	-0.119	-0.161
-537.179	-200.000	0.012	0.257
-536.164	800.000	0.089	0.304
-535.150	800.000	-0.071	-0.201
-534.135	141.410	-0.168	0.223
-533.121	-177.433	0.029	0.001
-532.106	-200.000	0.011	0.391
-531.091	-121.138	0.174	-0.029
-530.077	-200.000	0.058	-0.407
-529.062	800.000	0.017	0.059
-528.048	-144.128	0.144	0.014
-527.033	498.924	0.076	0.176
-526.018	-200.000	-0.059	0.273
-525.004	-200.000	0.016	0.221
-523.989	41.394	0.111	-0.101
-522.975	-169.695	0.256	0.009
-521.960	-200.000	0.015	-0.421
-520.945	-200.000	-0.024	0.198
-519.931	-6.713	-0.159	-0.108
-518.916	299.089	0.084	0.156
-517.902	-200.000	-0.022	0.183
-516.887	-132.967	-0.216	0.028
-515.872	-200.000	0.056	-0.292
-514.858	-200.000	-0.008	0.046
-513.843	-200.000	0.005	0.131
-512.829	101.707	0.279	0.327
-511.814	89.209	0.287	0.321
-510.799	-10.245	0.035	0.024
-509.785	166.464	-0.012	-0.017
-508.770	-91.294	-0.169	-0.048
-507.756	-65.560	0.046	-0.019
-506.741	89.365	0.222	0.248
-505.726	-80.240	-0.303	0.102
-504.712	8.214	-0.293	-0.221
-503.697	-133.871	0.329	0.041
-502.683	-9.621	-0.048	-0.032
-501.668	149.010	0.063	0.085
-500.653	-5.744	-0.128	0.088
-499.639	12.881	0.178	-0.138
-498.624	-151.476	0.314	0.023
-497.610	123.627	-0.068	-0.086
-496.595	-200.000	0.017	-0.126
-495.581	50.565	0.260	-0.247
-494.566	425.084	0.127	-0.274
-493.551	-0.740	-0.083	0.059
-492.537	-62.762	-0.343	-0.143
-491.522	-200.000	-0.051	-0.311
-490.508	77.310	-0.243	-0.260
-489.493	160.932	0.209	0.292
-488.478	621.572	0.016	0.040
-487.464	29.158	-0.216	0.184
-486.449	49.640	-0.189	-0.179
-485.435	-138.514	-0.040	-0.004
-484.420	-200.000	-0.015	-0.301
-483.405	-73.588	0.260	0.095
-482.391	-91.117	-0.176	0.051
-481.376	22.657	-0.114	-0.093
-480.362	-137.430	-0.069	0.008
-479.347	-200.000	-0.007	0.105
-478.332	-158.324	-0.189	-0.011
-477.318	-200.000	0.045	-0.239
-476.303	2.205	-0.116	0.084
-475.289	800.000	-0.071	0.281
-474.274	800.000	0.013	-0.053
-473.259	545.436	-0.029	-0.069
-472.245	105.037	0.176	0.208
-471.230	112.565	-0.249	0.302
-470.216	-123.245	0.097	0.016
-469.201	420.079	-0.164	-0.352
-468.186	-111.596	0.138	0.028
-467.172	-200.000	-0.004	0.126
-466.157	-87.712	0.242	0.073
-465.143	-149.131	-0.270	0.022
-464.128	-112.236	-0.227	0.046
-463.113	-74.523	-0.442	0.159
-462.099	163.492	0.108	-0.152
-461.084	-163.542	-0.563	0.027
-460.070	-43.137	-0.172	0.088
-459.055	88.180	0.035	0.039
-458.040	-80.209	0.086	-0.029
-457.026	-200.000	0.040	0.227
-456.011	-108.029	-0.153	0.033
-454.997	74.203	0.212	0.223
-453.982	-200.000	0.058	-0.325
-452.968	229.731	-0.144	0.236
-451.953	-84.359	0.269	-0.085
-450.938	-24.503	-0.123	0.074
-449.924	800.000	0.110	-0.329
-448.909	707.192	-0.092	-0.243
-447.895	-47.219	-0.162	0.079
-446.880	37.168	0.320	-0.284
-445.865	141.634	0.078	0.103
-444.851	-59.561	0.087	0.038
-443.836	-200.000	-0.080	-0.444
-442.822	284.026	0.105	0.189
-441.807	-161.412	-0.358	0.019
-440.792	-200.000	-0.005	0.085
-439.778	-159.722	0.017	-0.001
-438.763	-132.079	-0.291	0.038
-437.749	-200.000	-0.044	-0.267
-436.734	516.762	-0.067	-0.156
-435.719	20.216	0.280	0.227
-434.705	800.000	0.099	0.293
-433.690	-0.119	-0.231	0.165
-432.676	-108.884	0.254	-0.054
-431.661	103.453	0.142	-0.167
-430.646	430.999	-0.096	-0.207
-429.632	800.000	0.051	-0.212
-428.617	-32.351	0.201	0.112
-427.603	-155.386	0.090	-0.006
-426.588	-138.602	0.341	-0.037
-425.573	92.887	0.117	0.132
-424.559	194.768	-0.248	-0.376
-423.544	49.444	0.241	-0.227
-422.530	-50.542	0.240	-0.113
-421.515	-200.000	-0.028	-0.206
-420.500	-89.147	-0.171	-0.050
-419.486	-80.425	0.136	-0.045
-418.471	-94.067	-0.277	-0.076
-417.457	58.830	0.062	-0.061
-416.442	154.083	0.123	-0.169
-415.428	-86.151	-0.272	0.084
-414.413	788.182	-0.121	0.332
-413.398	-73.679	0.070	-0.025
-412.384	396.092	-0.027	0.057
-411.369	-100.988	0.213	0.052
-410.355	345.075	-0.090	0.176
-409.340	328.373	-0.007	0.013
-408.325	232.737	-0.087	-0.142
-407.311	-92.062	-0.326	0.092
-406.296	526.315	-0.135	-0.318
-405.282	-200.000	0.059	0.323
-404.267	588.729	-0.087	0.213
-403.252	800.000	0.114	0.416
-402.238	-67.582	0.427	-0.167
-401.223	-200.000	0.061	-0.517
-400.209	-70.174	0.352	-0.134
-399.194	800.000	0.042	0.173
-398.179	-26.116	0.180	-0.106
-397.165	-124.749	-0.343	-0.053
-396.150	216.215	-0.161	0.256
-395.136	-141.014	0.294	0.030
-394.121	-88.335	-0.034	0.010
-393.106	395.820	-0.045	-0.093
-392.092	5.200	0.372	-0.274
-391.077	121.875	0.150	0.187
-390.063	-193.288	-0.099	-0.001
-389.048	-41.221	0.471	0.243
-388.033	-98.177	0.117	0.030
-387.019	47.128	-0.025	0.024
-386.004	800.000	-0.130	-0.443
-384.990	-40.738	0.208	0.108
-383.975	33.297	-0.176	-0.153
-382.960	359.597	0.020	-0.040
-381.946	20.526	-0.221	0.178
-380.931	394.112	0.034	0.070
-379.917	123.329	0.072	0.090
-378.902	-200.000	0.063	0.453
-377.888	-117.762	-0.201	0.036
-376.873	263.370	0.078	0.136
-375.858	-200.000	0.092	0.429
-374.844	-84.819	0.120	0.038
-373.829	258.599	-0.102	0.175
-372.815	800.000	-0.037	-0.137
-371.800	800.000	0.081	-0.300
-370.785	5.056	-0.185	-0.136
-369.771	-100.246	0.066	-0.016
-368.756	-107.574	0.388	-0.085
-367.742	-18.215	-0.265	0.166
-366.727	474.756	0.020	0.045
-365.712	800.000	0.141	-0.427
-364.698	-83.613	-0.064	0.020
-363.683	-127.768	-0.051	0.007
-362.669	-15.661	0.124	0.079
-361.654	-188.759	-0.281	0.003
-360.639	39.956	0.128	0.115
-359.625	-200.000	-0.009	-0.269
-358.610	694.705	-0.052	-0.136
-357.596	459.302	-0.107	-0.237
-356.581	46.537	0.094	-0.087
-355.566	34.216	-0.172	-0.149
-354.552	-200.000	-0.001	0.329
-353.537	-98.649	0.540	-0.137
-352.523	-12.045	-0.111	0.072
-351.508	8.392	0.104	0.078
-350.493	-200.000	0.052	-0.375
-349.479	-200.000	-0.026	-0.288
-348.464	82.299	-0.155	-0.167
-347.450	32.434	0.179	-0.155
-346.435	-27.061	-0.256	0.149
-345.420	-118.825	-0.050	0.009
-344.406	800.000	-0.089	0.334
-343.391	-37.902	-0.211	-0.112
-342.377	-156.206	-0.157	-0.010
-341.362	186.748	0.029	0.043
-340.348	579.904	-0.072	-0.177
-339.333	90.090	-0.123	-0.137
-338.318	553.666	-0.038	0.091
-337.304	800.000	-0.074	0.275
-336.289	-26.854	0.104	0.061
-335.275	-107.011	-0.220	-0.049
-334.260	-109.751	0.080	-0.017
-333.245	-200.000	-0.027	0.228
-332.231	343.650	0.070	0.137
-331.216	-79.675	0.261	0.088
-330.202	-188.657	0.214	0.003
-329.187	-153.699	-0.125	-0.009
-328.172	-151.850	-0.286	0.021
-327.158	25.976	0.075	0.062
-326.143	-200.000	-0.070	-0.312
-325.129	362.903	-0.098	0.196
-324.114	-103.297	0.206	-0.048
-323.099	-121.036	0.238	0.040
-322.085	800.000	-0.016	0.058
-321.070	39.031	-0.117	0.104
-320.056	-60.179	-0.181	0.077
-319.041	84.499	-0.145	0.158
-318.026	-138.028	0.174	0.019
-317.012	14.452	0.044	0.034
-315.997	800.000	-0.024	0.077
-314.983	-200.000	-0.031	-0.162
-313.968	-200.000	-0.027	0.141
-312.953	800.000	-0.018	0.067
-311.939	16.483	0.327	-0.258
-310.924	127.921	0.011	-0.013
-309.910	315.035	-0.112	-0.210
-308.895	-58.697	-0.235	0.101
-307.880	67.696	-0.067	0.068
-306.866	-43.002	0.167	-0.084
-305.851	-200.000	-0.026	-0.263
-304.837	-88.570	0.292	-0.087
-303.822	-129.305	0.045	0.006
-302.807	800.000	0.150	0.424
-301.793	-27.072	-0.138	-0.080
-300.778	-200.000	0.040	0.192
-299.764	190.465	0.153	0.229
-298.749	-85.022	-0.433	-0.135
-297.735	-92.081	0.268	-0.075
-296.720	216.082	0.091	0.144
-295.705	-200.000	0.022	0.137
-294.691	60.045	0.092	-0.091
-293.676	-120.441	-0.192	-0.033
-292.662	-91.940	0.180	-0.051
-291.647	113.008	-0.226	-0.273
-290.632	172.665	-0.160	0.230
-289.618	-193.076	-0.155	-0.001
-288.603	-80.880	-0.209	-0.069
-287.589	142.638	0.069	0.092
-286.574	743.237	-0.096	-0.257
-285.559	-54.610	-0.130	-0.059
-284.545	196.683	0.140	-0.212
-283.530	800.000	0.018	-0.061
-282.516	-2.763	0.134	0.093
-281.501	270.483	-0.224	0.392
-280.486	114.859	-0.131	-0.159
-279.472	-199.567	-0.296	-0.002
-278.457	-111.735	0.225	-0.045
-277.443	561.845	-0.154	0.371
-276.428	3.486	0.192	0.139
-275.413	-200.000	-0.031	-0.138
-274.399	-200.000	-0.044	0.263
-273.384	-107.968	-0.118	0.025
-272.370	142.839	-0.117	0.155
-271.355	-182.129	-0.097	-0.002
-270.340	253.635	0.047	-0.080
-269.326	100.119	-0.148	-0.170
-268.311	-200.000	-0.008	0.128
-267.297	-200.000	0.019	-0.238
-266.282	800.000	0.030	-0.092
-265.267	25.274	-0.155	0.128
-264.253	-107.947	0.221	0.048
-263.238	800.000	-0.057	0.231
-262.224	3.153	-0.099	0.071
-261.209	-200.000	0.006	0.083
-260.195	-14.650	-0.077	-0.049
-259.180	800.000	-0.065	-0.229
-258.165	-103.487	-0.219	-0.051
-257.151	23.181	0.065	-0.053
-256.136	107.630	0.147	-0.174
-255.122	-172.768	-0.094	0.003
-254.107	29.732	0.286	-0.242
-253.092	72.936	-0.247	-0.256
-252.078	-200.000	-0.006	0.262
-251.063	235.153	-0.046	0.076
-250.049	194.997	0.059	-0.089
-249.034	-18.458	0.275	0.171
-248.019	-200.000	-0.014	-0.117
-247.005	323.867	-0.065	-0.123
-245.990	-113.066	0.183	-0.036
-244.976	-90.921	0.364	-0.104
-243.961	701.757	0.086	0.224
-242.946	-106.034	-0.095	0.021
-241.932	176.214	0.065	-0.094
-240.917	-95.420	0.116	-0.031
-239.903	-111.271	-0.212	-0.043
-238.888	-200.000	0.016	-0.090
-237.873	800.000	-0.090	-0.295
-236.859	-60.977	0.292	0.123
-235.844	-83.764	-0.216	-0.069
-234.830	524.378	0.198	-0.462
-233.815	-93.961	0.137	0.037
-232.800	86.154	0.311	-0.340
-231.786	291.670	-0.153	0.277
-230.771	-150.847	0.314	-0.024
-229.757	70.027	0.139	0.143
-228.742	202.607	0.091	0.140
-227.727	-135.070	-0.062	0.007
-226.713	45.361	-0.122	0.112
-225.698	-91.346	-0.118	0.033
-224.684	-99.812	0.338	-0.084
-223.669	525.615	0.132	-0.309
-222.655	555.775	-0.066	-0.159
-221.640	-53.925	0.244	-0.111
-220.625	-105.016	-0.216	-0.049
-219.611	-134.848	0.243	0.029
-218.596	-200.000	-0.012	0.077
-217.582	-104.609	0.381	0.087
-216.567	76.985	0.132	-0.139
-215.552	18.950	0.111	-0.088
-214.538	515.273	0.049	-0.115
-213.523	142.481	0.253	0.334
-212.509	-200.000	0.014	0.193
-211.494	-200.000	-0.009	0.410
-210.479	800.000	0.055	0.201
-209.465	-153.645	0.289	0.020
-208.450	800.000	0.067	0.254
-207.436	-124.586	-0.330	-0.051
-206.421	-20.366	-0.302	-0.184
-205.406	-34.990	-0.061	-0.033
-204.392	-12.677	-0.016	0.010
-203.377	-108.849	-0.119	-0.025
-202.363	358.640	0.034	-0.068
-201.348	-200.000	0.009	0.093
-200.333	-73.573	0.140	0.051
-199.319	486.176	-0.007	0.017
-198.304	341.396	-0.058	-0.112
-197.290	-200.000	0.043	0.233
-196.275	230.919	-0.162	0.264
-195.260	800.000	0.051	0.172
-194.246	-200.000	-0.001	-0.112
-193.231	93.225	0.389	-0.436
-192.217	104.128	0.134	-0.156
-191.202	-200.000	0.008	-0.096
-190.187	262.639	0.174	-0.299
-189.173	-131.273	0.146	0.019
-188.158	188.649	-0.118	0.175
-187.144	-49.073	0.103	0.049
-186.129	800.000	-0.034	-0.148
-185.114	-102.741	-0.264	-0.062
-184.100	-37.528	-0.176	-0.093
-183.085	-77.767	0.244	-0.084
-182.071	93.856	0.053	0.060
-181.056	606.207	0.052	-0.128
-180.042	800.000	-0.060	-0.175
-179.027	-57.125	-0.174	-0.076
-178.012	-93.004	0.039	0.011
-176.998	2.508	0.313	0.225
-175.983	800.000	-0.163	0.448
-174.969	-23.648	0.124	-0.074
-173.954	53.253	-0.136	-0.129
-172.939	-22.585	-0.163	-0.098
-171.925	-79.458	-0.340	-0.114
-170.910	-200.000	0.084	0.427
-169.896	-200.000	0.001	0.142
-168.881	-65.637	-0.079	0.031
-167.866	98.299	0.148	0.169
-166.852	609.141	-0.074	0.184
-165.837	-166.886	0.260	-0.011
-164.823	-200.000	0.017	-0.157
-163.808	662.040	-0.101	0.258
-162.793	422.841	0.111	0.237
-161.779	-200.000	0.007	0.069
-160.764	-200.000	0.013	0.145
-159.750	-126.478	-0.234	0.034
-158.735	-200.000	0.004	0.059
-157.720	-82.810	-0.109	0.035
-156.706	-100.768	0.051	0.012
-155.691	400.522	-0.062	0.129
-154.677	-183.958	0.133	-0.002
-153.662	-132.531	-0.190	0.024
-152.647	800.000	0.026	0.099
-151.633	-200.000	0.000	0.422
-150.618	100.958	-0.186	-0.214
-149.604	273.184	0.154	-0.269
-148.589	800.000	-0.115	0.346
-147.574	-121.002	0.282	0.047
-146.560	-200.000	0.025	0.233
-145.545	-94.605	-0.379	0.102
-144.531	34.198	0.201	-0.174
-143.516	-72.720	-0.135	0.049
-142.502	338.336	-0.096	0.185
-141.487	-3.223	-0.053	0.037
-140.472	125.154	0.061	-0.076
-139.458	800.000	0.134	-0.416
-138.443	-60.637	-0.246	-0.103
-137.429	279.193	-0.164	-0.290
-136.414	800.000	-0.066	-0.202
-135.399	800.000	0.079	-0.318
-134.385	190.438	-0.164	-0.243
-133.370	34.206	0.166	-0.143
-132.356	-151.171	0.106	-0.008
-131.341	800.000	0.031	0.111
-130.326	-200.000	-0.008	0.143
-129.312	116.277	-0.192	-0.232
-128.297	-107.917	-0.444	-0.095
-127.283	800.000	0.051	-0.142
-126.268	-122.465	0.275	-0.044
-125.253	-93.089	0.137	-0.038
-124.239	-80.191	-0.185	-0.061
-123.224	203.066	0.012	-0.019
-122.210	-200.000	0.036	0.387
