DTS Sentinel unit serial number:	SN413079Multiplexer serial number:	ORYXHardware model number:	OX4-SRSoftware version number:	ORYX F/W v4.00 Oryx Data Collector v3.7.2.0data status	okinstallation	princeton_trtdifferential loss correction	single-endedforward channel	channel 1reverse channel	N/Adate	2019/09/12time	01:32:11forward acquisition time	60.00reverse acquisition time	0.00gamma	496.2192k internal	0.2320k external	0.2320temperature offset calibration	1.0078default loss term (dB/km)	0.3790temperature slope calibration	1.0000multiplexer offset coefficient	1.0000multiplexer slope coefficient	1.0000fibre end	0.00T internal ref (°C)	32.94T ext. ref 1 (°C)	2.09T ext. ref 2 (°C)	27.63length (m)	temperature (°C)	Stokes	anti-Stokes-747.200	-7.529	0.253	0.173
-746.185	150.645	0.326	0.448
-745.171	48.899	0.064	-0.061
-744.156	77.410	0.215	0.232
-743.142	-200.000	0.033	0.471
-742.127	-200.000	0.057	0.330
-741.112	800.000	-0.020	-0.061
-740.098	-200.000	0.019	-0.103
-739.083	-33.608	-0.271	-0.151
-738.069	-55.528	-0.318	0.144
-737.054	-111.327	-0.178	0.037
-736.039	-128.129	-0.182	0.026
-735.025	-124.864	-0.075	-0.012
-734.010	-200.000	-0.077	-0.418
-732.996	0.731	0.070	-0.051
-731.981	-200.000	-0.024	0.274
-730.966	365.756	-0.091	0.184
-729.952	-91.709	-0.015	0.004
-728.937	-111.951	-0.294	0.060
-727.923	-200.000	0.069	-0.363
-726.908	-154.845	-0.597	-0.040
-725.894	-200.000	-0.018	0.343
-724.879	-171.733	-0.095	-0.003
-723.864	89.704	0.384	0.433
-722.850	128.582	-0.242	0.312
-721.835	-109.405	-0.202	0.043
-720.821	-127.129	0.120	0.018
-719.806	564.840	0.026	0.064
-718.791	800.000	0.095	-0.322
-717.777	-68.627	0.382	0.149
-716.762	-39.064	-0.272	0.145
-715.748	244.637	-0.108	0.184
-714.733	345.729	0.072	-0.144
-713.718	-132.747	-0.301	0.039
-712.704	-90.413	-0.312	-0.091
-711.689	22.273	-0.132	-0.109
-710.675	-116.306	0.211	-0.039
-709.660	-89.117	-0.139	0.041
-708.645	131.225	-0.239	0.310
-707.631	-121.397	-0.173	-0.029
-706.616	-174.165	-0.218	-0.006
-705.602	-99.795	-0.189	-0.048
-704.587	320.605	0.039	-0.074
-703.572	442.088	-0.076	-0.169
-702.558	4.901	-0.099	-0.074
-701.543	526.182	0.127	-0.302
-700.529	179.384	-0.074	-0.110
-699.514	-51.023	-0.038	-0.018
-698.499	-132.302	-0.136	-0.018
-697.485	-74.239	0.109	0.040
-696.470	-138.592	-0.377	0.042
-695.456	-200.000	0.004	0.047
-694.441	70.475	-0.207	-0.216
-693.426	23.101	0.107	0.089
-692.412	800.000	0.103	0.375
-691.397	-74.746	-0.242	-0.088
-690.383	202.840	-0.309	-0.481
-689.368	800.000	0.082	0.319
-688.354	800.000	-0.074	0.316
-687.339	-132.010	-0.209	0.027
-686.324	31.500	-0.266	0.231
-685.310	-59.906	0.102	0.044
-684.295	222.763	-0.232	-0.377
-683.281	-75.792	0.283	-0.101
-682.266	9.133	-0.058	-0.044
-681.251	46.231	-0.067	0.062
-680.237	90.246	0.214	0.241
-679.222	-200.000	-0.076	0.467
-678.208	-59.715	-0.084	0.037
-677.193	-200.000	-0.007	-0.079
-676.178	-200.000	-0.032	-0.175
-675.164	800.000	-0.020	0.060
-674.149	313.961	0.070	-0.133
-673.135	-65.956	0.240	0.097
-672.120	-24.870	0.134	-0.080
-671.105	319.226	0.150	0.287
-670.091	-103.050	-0.277	0.066
-669.076	800.000	-0.067	0.209
-668.062	21.508	0.191	-0.156
-667.047	-82.480	-0.117	-0.038
-666.032	136.564	0.152	-0.201
-665.018	70.893	-0.210	-0.219
-664.003	568.032	-0.040	-0.099
-662.989	-134.012	0.369	-0.046
-661.974	102.931	-0.061	-0.071
-660.959	-118.219	-0.325	0.058
-659.945	31.133	-0.136	-0.118
-658.930	-52.903	-0.253	-0.117
-657.916	-22.418	-0.165	0.101
-656.901	265.429	-0.116	-0.203
-655.886	106.814	-0.046	-0.055
-654.872	-4.522	0.100	0.069
-653.857	-200.000	-0.027	0.208
-652.843	-200.000	0.011	-0.211
-651.828	-200.000	0.057	0.318
-650.814	-160.409	-0.360	-0.019
-649.799	66.249	-0.275	-0.281
-648.784	-96.666	0.306	0.081
-647.770	-144.291	-0.261	0.024
-646.755	-76.696	0.226	-0.080
-645.741	-200.000	-0.028	0.128
-644.726	144.804	-0.086	-0.116
-643.711	-41.027	0.299	0.156
-642.697	-88.496	-0.172	-0.052
-641.682	126.267	0.188	-0.240
-640.668	-46.280	0.317	0.157
-639.653	-200.000	0.017	0.201
-638.638	181.252	-0.204	-0.302
-637.624	-95.922	-0.057	0.015
-636.609	800.000	0.061	-0.177
-635.595	-200.000	0.002	-0.115
-634.580	-44.267	-0.165	0.083
-633.565	-158.569	-0.222	0.013
-632.551	26.833	-0.068	0.057
-631.536	-172.258	-0.162	-0.005
-630.522	-200.000	-0.010	-0.061
-629.507	-200.000	-0.002	-0.037
-628.492	800.000	0.042	-0.170
-627.478	-39.158	0.108	0.057
-626.463	-134.090	-0.059	0.007
-625.449	24.189	0.090	-0.075
-624.434	210.756	-0.130	0.205
-623.419	-63.387	-0.256	-0.106
-622.405	82.749	0.211	0.231
-621.390	-200.000	-0.048	0.470
-620.376	436.602	0.055	-0.121
-619.361	14.243	-0.120	-0.094
-618.346	188.198	0.170	0.255
-617.332	-200.000	0.043	0.318
-616.317	34.889	-0.085	0.075
-615.303	800.000	0.086	0.312
-614.288	276.788	-0.074	0.132
-613.273	712.294	-0.062	0.164
-612.259	-132.690	-0.307	-0.040
-611.244	-16.908	-0.159	-0.101
-610.230	-128.463	-0.123	-0.018
-609.215	-98.988	-0.501	0.128
-608.201	152.414	-0.112	-0.154
-607.186	-4.016	-0.066	0.046
-606.171	660.097	0.076	0.198
-605.157	-91.580	0.197	0.056
-604.142	513.622	0.097	-0.229
-603.128	-72.522	-0.268	-0.099
-602.113	46.720	0.143	-0.134
-601.098	800.000	0.074	0.213
-600.084	-200.000	0.047	0.249
-599.069	800.000	0.031	-0.090
-598.055	-138.776	-0.295	0.032
-597.040	800.000	0.092	-0.403
-596.025	-63.430	0.214	-0.088
-595.011	-200.000	0.021	0.156
-593.996	-200.000	-0.002	-0.308
-592.982	8.824	0.217	-0.164
-591.967	-159.138	-0.233	0.013
-590.952	72.814	-0.167	-0.175
-589.938	106.341	-0.049	0.058
-588.923	800.000	0.050	0.152
-587.909	-200.000	0.018	0.131
-586.894	-200.000	0.034	-0.356
-585.879	-200.000	-0.041	0.254
-584.865	-152.855	-0.083	0.006
-583.850	-146.038	-0.259	0.023
-582.836	-77.170	-0.207	0.072
-581.821	-120.088	0.071	-0.012
-580.806	3.849	-0.218	-0.160
-579.792	-200.000	-0.036	0.157
-578.777	43.532	-0.150	0.137
-577.763	-39.555	-0.152	0.080
-576.748	-54.014	0.024	0.011
-575.733	800.000	-0.122	0.368
-574.719	-200.000	0.022	0.164
-573.704	-200.000	-0.060	-0.334
-572.690	252.770	0.188	-0.322
-571.675	800.000	0.082	0.319
-570.661	-200.000	0.011	0.101
-569.646	-54.533	-0.126	-0.057
-568.631	-113.864	-0.047	-0.009
-567.617	-133.750	0.229	0.029
-566.602	-95.434	-0.122	0.033
-565.588	15.767	-0.036	0.029
-564.573	748.529	0.089	-0.241
-563.558	-38.046	-0.185	-0.099
-562.544	-130.635	-0.190	-0.026
-561.529	-159.539	-0.204	0.011
-560.515	541.106	0.027	0.065
-559.500	800.000	-0.016	0.067
-558.485	335.527	0.048	-0.094
-557.471	169.220	0.118	-0.169
-556.456	-162.007	0.127	-0.006
-555.442	60.352	0.169	-0.168
-554.427	-142.399	-0.095	-0.009
-553.412	-39.269	0.343	-0.181
-552.398	232.224	0.104	-0.172
-551.383	69.556	-0.235	-0.243
-550.369	-54.700	0.057	0.026
-549.354	171.388	0.192	-0.277
-548.339	-66.568	-0.170	-0.068
-547.325	377.307	0.106	0.218
-546.310	-160.166	0.317	-0.017
-545.296	80.303	0.163	0.176
-544.281	676.089	-0.076	-0.199
-543.266	-94.972	-0.245	0.067
-542.252	-119.274	-0.131	0.023
-541.237	-56.931	0.319	0.141
-540.223	50.098	-0.050	0.048
-539.208	-120.967	-0.337	-0.057
-538.193	-52.796	0.134	-0.062
-537.179	-28.825	-0.239	-0.138
-536.164	-122.356	0.418	0.068
-535.150	-200.000	0.045	0.212
-534.135	-200.000	0.017	0.229
-533.121	650.444	0.057	-0.146
-532.106	-200.000	0.051	-0.382
-531.091	232.217	-0.103	0.169
-530.077	-128.510	-0.362	0.052
-529.062	-83.344	0.130	0.042
-528.048	253.125	0.122	-0.208
-527.033	-177.063	0.090	-0.002
-526.018	-185.154	-0.193	-0.003
-525.004	329.890	0.023	0.045
-523.989	157.939	0.040	0.055
-522.975	-37.748	0.304	-0.162
-521.960	-35.836	0.096	0.052
-520.945	-38.889	-0.271	-0.143
-519.931	800.000	0.037	0.106
-518.916	-102.716	-0.150	0.036
-517.902	302.673	-0.164	-0.304
-516.887	250.667	0.134	0.227
-515.872	-75.123	0.071	0.026
-514.858	-200.000	-0.042	0.238
-513.843	-20.635	-0.120	0.074
-512.829	-135.959	0.234	0.028
-511.814	-54.177	0.289	-0.132
-510.799	-200.000	0.054	-0.242
-509.785	157.783	-0.036	-0.050
-508.770	-99.733	-0.282	-0.071
-507.756	61.767	0.161	0.160
-506.741	-200.000	-0.020	-0.215
-505.726	89.771	0.145	-0.163
-504.712	-200.000	-0.034	0.155
-503.697	800.000	-0.029	-0.109
-502.683	800.000	0.064	-0.186
-501.668	5.732	0.103	-0.076
-500.653	-85.703	0.208	-0.065
-499.639	-13.851	0.090	-0.058
-498.624	-200.000	0.008	0.278
-497.610	354.219	0.105	-0.208
-496.595	-19.636	0.066	-0.041
-495.581	434.286	-0.133	0.290
-494.566	401.125	-0.018	0.039
-493.551	-2.173	0.114	-0.080
-492.537	800.000	0.067	-0.252
-491.522	623.785	0.111	0.279
-490.508	188.795	-0.169	0.253
-489.493	800.000	-0.079	0.326
-488.478	176.280	0.115	0.168
-487.464	-107.382	-0.120	0.026
-486.449	-200.000	-0.019	0.093
-485.435	-142.446	0.421	0.041
-484.420	652.276	0.111	-0.285
-483.405	22.304	-0.111	-0.091
-482.391	-129.915	-0.456	0.063
-481.376	-158.971	0.325	-0.018
-480.362	99.744	0.296	0.343
-479.347	-144.454	0.160	0.015
-478.332	-107.913	0.053	-0.011
-477.318	800.000	0.038	-0.137
-476.303	-56.647	0.369	0.163
-475.289	-58.717	-0.063	0.027
-474.274	425.970	0.161	-0.348
-473.259	-177.430	-0.089	0.002
-472.245	800.000	0.102	-0.320
-471.230	800.000	0.030	-0.107
-470.216	-200.000	0.065	0.393
-469.201	-23.231	0.231	-0.139
-468.186	-112.310	0.288	0.058
-467.172	-87.893	0.075	0.023
-466.157	-181.172	-0.260	0.005
-465.143	800.000	-0.119	0.363
-464.128	-155.391	-0.253	-0.016
-463.113	-36.871	0.037	0.020
-462.099	-110.418	0.156	-0.032
-461.084	800.000	-0.042	0.184
-460.070	183.185	0.053	0.078
-459.055	-200.000	-0.013	0.089
-458.040	-33.999	0.148	-0.081
-457.026	4.059	0.308	-0.225
-456.011	-152.013	-0.218	0.016
-454.997	153.212	0.155	-0.212
-453.982	-51.486	0.190	-0.089
-452.968	-128.034	-0.291	-0.042
-451.953	5.698	-0.267	-0.198
-450.938	-30.416	-0.088	-0.050
-449.924	-200.000	0.003	-0.016
-448.909	57.052	0.070	-0.069
-447.895	800.000	-0.041	0.134
-446.880	189.218	0.176	0.263
-445.865	800.000	-0.165	-0.471
-444.851	76.174	0.165	0.175
-443.836	-162.047	0.213	-0.011
-442.822	-120.911	-0.277	0.047
-441.807	426.340	0.143	0.308
-440.792	800.000	-0.068	-0.273
-439.778	-157.036	-0.149	-0.009
-438.763	800.000	0.018	-0.050
-437.749	800.000	0.036	-0.132
-436.734	55.929	-0.144	0.139
-435.719	3.496	-0.090	0.066
-434.705	109.324	-0.239	-0.286
-433.690	-48.094	0.323	0.156
-432.676	-153.469	-0.235	0.016
-431.661	800.000	0.067	0.193
-430.646	-119.451	-0.209	-0.036
-429.632	-200.000	0.007	0.112
-428.617	-124.003	-0.262	0.041
-427.603	-90.699	0.128	-0.037
-426.588	-143.339	-0.132	0.013
-425.573	120.040	-0.060	-0.074
-424.559	-10.869	-0.172	0.113
-423.544	-200.000	-0.022	0.382
-422.530	-200.000	-0.001	-0.133
-421.515	36.807	-0.193	-0.170
-420.500	-37.706	-0.298	0.158
-419.486	489.609	-0.079	-0.181
-418.471	642.992	-0.031	0.080
-417.457	-200.000	0.009	-0.353
-416.442	-73.208	-0.085	0.031
-415.428	59.879	-0.123	-0.121
-414.413	-41.323	-0.160	0.082
-413.398	-75.674	0.232	-0.082
-412.384	309.492	-0.107	0.200
-411.369	-168.262	0.248	-0.010
-410.355	83.226	-0.399	-0.434
-409.340	-114.112	-0.226	-0.044
-408.325	-22.126	-0.056	0.034
-407.311	-140.262	-0.154	-0.016
-406.296	-91.626	-0.317	-0.090
-405.282	798.774	0.049	-0.136
-404.267	36.406	0.051	-0.045
-403.252	-1.244	-0.188	-0.132
-402.238	-86.052	-0.397	0.122
-401.223	30.425	0.260	-0.221
-400.209	-143.568	0.368	-0.035
-399.194	-92.020	-0.294	-0.083
-398.179	-200.000	0.015	-0.188
-397.165	-200.000	0.024	-0.158
-396.150	-200.000	-0.021	0.202
-395.136	341.274	-0.091	0.178
-394.121	11.096	-0.184	-0.141
-393.106	800.000	0.061	0.203
-392.092	800.000	0.051	-0.162
-391.077	-100.638	-0.146	-0.036
-390.063	29.089	-0.200	-0.169
-389.048	800.000	0.031	-0.125
-388.033	46.565	-0.077	-0.071
-387.019	84.851	0.086	0.094
-386.004	407.574	0.228	0.481
-384.990	274.685	-0.132	-0.233
-383.975	-200.000	0.031	0.165
-382.960	-17.243	0.180	-0.113
-381.946	216.549	0.128	0.203
-380.931	14.620	-0.098	-0.076
-379.917	123.739	0.160	0.200
-378.902	-133.974	-0.191	0.024
-377.888	-121.975	-0.184	-0.030
-376.873	190.863	0.022	-0.033
-375.858	172.300	-0.038	-0.054
-374.844	-20.669	-0.034	0.021
-373.829	58.748	0.104	0.101
-372.815	-200.000	0.021	0.167
-371.800	-200.000	0.048	-0.308
-370.785	-60.384	0.253	-0.107
-369.771	-20.364	-0.407	-0.249
-368.756	-7.220	-0.075	-0.051
-367.742	-49.875	0.274	0.130
-366.727	-144.775	0.302	-0.028
-365.712	-92.815	0.286	-0.080
-364.698	-158.081	-0.242	-0.014
-363.683	-139.682	0.178	-0.019
-362.669	-200.000	-0.041	0.262
-361.654	-200.000	-0.041	0.431
-360.639	283.833	0.133	0.238
-359.625	-48.993	-0.362	0.173
-358.610	800.000	0.002	0.007
-357.596	800.000	-0.013	-0.054
-356.581	-200.000	0.032	0.140
-355.566	800.000	-0.053	0.201
-354.552	-4.413	0.264	0.182
-353.537	106.927	-0.282	-0.334
-352.523	-34.481	-0.281	-0.153
-351.508	-99.432	0.331	-0.083
-350.493	3.192	-0.234	-0.170
-349.479	-200.000	0.045	-0.209
-348.464	-123.348	-0.260	-0.041
-347.450	153.569	0.215	-0.294
-346.435	-24.269	0.060	0.035
-345.420	162.501	-0.005	-0.008
-344.406	368.715	-0.085	0.172
-343.391	-76.094	0.503	-0.177
-342.377	220.584	-0.019	-0.030
-341.362	123.061	-0.068	0.085
-340.348	-200.000	0.017	-0.143
-339.333	-10.051	0.116	0.077
-338.318	-200.000	0.003	0.012
-337.304	505.104	0.082	-0.189
-336.289	-6.162	-0.116	-0.079
-335.275	-87.355	-0.239	0.072
-334.260	292.957	-0.115	-0.208
-333.245	800.000	0.030	-0.119
-332.231	23.540	0.330	0.270
-331.216	117.013	-0.045	-0.054
-330.202	71.380	0.237	0.244
-329.187	119.159	-0.048	0.060
-328.172	-171.275	0.197	-0.007
-327.158	23.381	0.092	-0.075
-326.143	755.220	0.118	-0.318
-325.129	100.599	0.069	0.080
-324.114	-175.056	-0.211	-0.006
-323.099	191.839	-0.047	0.070
-322.085	-44.140	-0.319	-0.159
-321.070	-200.000	0.002	0.016
-320.056	800.000	0.052	-0.165
-319.041	-45.168	0.308	-0.152
-318.026	49.137	0.060	-0.056
-317.012	-61.624	-0.336	-0.140
-315.997	-27.268	-0.305	-0.177
-314.983	-200.000	-0.041	-0.200
-313.968	-69.491	0.286	-0.109
-312.953	-200.000	0.039	-0.210
-311.939	-35.345	0.083	-0.045
-310.924	-200.000	-0.067	0.361
-309.910	-12.467	0.260	0.169
-308.895	-190.304	-0.133	0.001
-307.880	23.690	0.109	0.089
-306.866	-75.343	-0.075	-0.027
-305.851	-147.372	-0.145	-0.012
-304.837	161.821	-0.145	-0.202
-303.822	105.618	0.306	0.360
-302.807	800.000	0.067	-0.196
-301.793	143.504	-0.145	0.192
-300.778	456.943	0.131	0.289
-299.764	-15.139	-0.159	0.101
-298.749	94.337	-0.142	0.161
-297.735	363.343	-0.124	-0.248
-296.720	104.268	-0.067	-0.079
-295.705	800.000	0.090	0.268
-294.691	106.646	0.284	-0.334
-293.676	-200.000	0.031	0.357
-292.662	-101.693	0.046	-0.011
-291.647	-200.000	0.051	-0.344
-290.632	-200.000	-0.062	-0.323
-289.618	235.558	-0.149	-0.245
-288.603	7.826	0.135	-0.101
-287.589	228.682	-0.061	0.099
-286.574	-5.115	-0.080	0.054
-285.559	-200.000	0.003	0.383
-284.545	30.512	0.288	-0.244
-283.530	80.540	0.070	0.075
-282.516	73.826	-0.078	-0.081
-281.501	58.332	0.041	0.040
-280.486	-58.972	-0.200	0.086
-279.472	-45.377	0.242	0.119
-278.457	662.520	-0.019	0.048
-277.443	-200.000	0.021	0.220
-276.428	499.984	-0.078	0.178
-275.413	-44.117	0.247	0.123
-274.399	-160.508	-0.458	0.024
-273.384	-200.000	0.417	0.001
-272.370	34.726	0.290	0.251
-271.355	475.738	0.068	-0.152
-270.340	422.415	0.072	0.153
-269.326	3.117	-0.076	-0.055
-268.311	-149.457	0.189	-0.015
-267.297	800.000	-0.044	-0.150
-266.282	-71.272	-0.243	0.090
-265.267	-2.462	0.196	0.136
-264.253	107.403	0.150	0.176
-263.238	-200.000	0.009	0.250
-262.224	800.000	-0.045	0.132
-261.209	36.869	0.104	-0.091
-260.195	-200.000	0.029	0.145
-259.180	-19.151	-0.075	-0.046
-258.165	232.042	0.125	0.204
-257.151	17.956	0.188	-0.149
-256.136	-200.000	0.017	-0.199
-255.122	-93.360	-0.117	-0.032
-254.107	4.660	0.417	0.303
-253.092	-74.627	-0.261	0.093
-252.078	-200.000	-0.001	-0.054
-251.063	-86.188	-0.294	0.090
-250.049	306.001	0.037	0.069
-249.034	800.000	0.058	0.182
-248.019	800.000	0.008	-0.029
-247.005	-101.772	0.087	-0.021
-245.990	-156.186	-0.141	-0.009
-244.976	800.000	0.018	-0.070
-243.961	175.431	-0.158	-0.227
-242.946	60.575	-0.044	0.043
-241.932	220.852	0.258	-0.411
-240.917	-200.000	-0.044	-0.345
-239.903	308.222	0.106	-0.197
-238.888	10.049	0.201	-0.151
-237.873	-9.426	0.029	-0.019
-236.859	266.090	0.074	-0.128
-235.844	229.121	0.206	-0.333
-234.830	800.000	0.079	0.307
-233.815	343.205	0.083	0.162
-232.800	29.292	0.061	-0.051
-231.786	112.923	-0.090	-0.108
-230.771	203.864	-0.139	-0.213
-229.757	187.205	0.098	-0.145
-228.742	18.237	0.031	-0.025
-227.727	-36.301	0.124	-0.066
-226.713	-116.423	-0.189	-0.035
-225.698	7.915	-0.099	0.073
-224.684	-200.000	-0.003	0.174
-223.669	-200.000	0.008	-0.133
-222.655	144.703	0.191	0.253
-221.640	-95.593	0.311	0.083
-220.625	800.000	0.039	0.127
-219.611	88.861	-0.055	0.061
-218.596	-122.784	0.261	0.042
-217.582	-0.314	0.252	-0.177
-216.567	262.694	-0.185	-0.317
-215.552	-17.565	0.319	0.199
-214.538	367.576	-0.054	-0.107
-213.523	-7.239	0.143	0.096
-212.509	349.431	-0.068	0.133
-211.494	800.000	0.077	0.275
-210.479	-62.793	-0.146	0.060
-209.465	156.275	0.090	-0.122
-208.450	-67.529	-0.118	-0.046
-207.436	37.540	0.196	0.172
-206.421	-135.155	-0.075	0.009
-205.406	-200.000	-0.030	0.137
-204.392	95.844	0.016	0.018
-203.377	24.295	-0.363	-0.297
-202.363	-111.156	0.075	0.015
-201.348	-200.000	-0.006	0.145
-200.333	335.341	-0.093	-0.179
-199.319	229.163	0.063	-0.102
-198.304	165.339	0.094	-0.132
-197.290	-200.000	0.002	0.146
-196.275	645.242	-0.181	0.458
-195.260	-200.000	0.020	-0.120
-194.246	76.591	-0.297	0.312
-193.231	115.819	0.219	0.265
-192.217	-200.000	-0.010	0.316
-191.202	-200.000	-0.030	0.214
-190.187	-55.682	-0.304	-0.134
-189.173	-109.601	0.060	0.013
-188.158	121.630	-0.108	-0.134
-187.144	40.226	-0.186	0.165
-186.129	-36.056	-0.141	0.075
-185.114	38.502	0.293	0.258
-184.100	74.253	-0.157	-0.163
-183.085	-125.175	0.052	-0.008
-182.071	-120.777	-0.485	-0.081
-181.056	68.642	-0.177	-0.179
-180.042	108.674	0.096	0.114
-179.027	55.012	0.181	0.173
-178.012	-20.632	-0.297	-0.181
-176.998	-2.366	-0.086	-0.060
-175.983	-200.000	-0.017	-0.230
-174.969	-83.888	-0.324	-0.102
-173.954	-153.034	0.234	0.016
-172.939	-35.669	0.134	0.072
-171.925	800.000	-0.062	0.174
-170.910	-200.000	-0.025	-0.185
-169.896	53.772	0.223	-0.211
-168.881	-107.177	0.116	-0.025
-167.866	47.512	0.179	0.165
-166.852	-51.842	-0.369	0.170
-165.837	335.362	-0.049	0.093
-164.823	436.697	0.097	0.210
-163.808	-13.141	0.174	0.112
-162.793	217.838	-0.211	0.332
-161.779	59.454	0.205	-0.200
-160.764	-70.422	0.281	0.105
-159.750	228.231	0.163	0.263
-158.735	-60.138	0.176	0.074
-157.720	85.767	-0.143	-0.155
-156.706	72.097	0.111	0.115
-155.691	-21.335	-0.259	-0.156
-154.677	60.326	-0.166	0.162
-153.662	800.000	0.029	-0.088
-152.647	-152.033	-0.093	-0.007
-151.633	484.549	0.144	-0.323
-150.618	-115.206	0.295	0.055
-149.604	-200.000	-0.004	-0.113
-148.589	-200.000	0.076	0.331
-147.574	743.992	0.160	0.424
-146.560	-70.371	-0.174	0.065
-145.545	-117.131	0.228	0.041
-144.531	-193.093	-0.291	-0.003
-143.516	101.406	-0.193	-0.222
-142.502	402.634	-0.075	0.155
-141.487	800.000	-0.061	-0.251
-140.472	388.174	-0.171	-0.350
-139.458	-161.809	-0.187	-0.009
-138.443	-108.198	0.482	0.103
-137.429	-72.443	0.135	0.049
-136.414	13.519	-0.245	0.187
-135.399	41.445	0.318	0.284
-134.385	-200.000	0.073	0.316
-133.370	141.578	-0.125	0.163
-132.356	-156.209	-0.133	0.008
-131.341	636.753	-0.136	0.341
-130.326	385.953	0.062	-0.127
-129.312	83.687	-0.238	0.256
-128.297	105.414	-0.130	0.151
-127.283	-117.739	-0.279	-0.050
-126.268	-8.443	-0.172	0.114
-125.253	578.173	0.095	0.228
-124.239	-200.000	-0.023	-0.130
-123.224	356.540	-0.116	0.229
-122.210	114.943	0.107	0.128
-121.195	-200.000	-0.143	-0.000
