DTS Sentinel unit serial number:	SN413079Multiplexer serial number:	ORYXHardware model number:	OX4-SRSoftware version number:	ORYX F/W v4.00 Oryx Data Collector v3.7.2.0data status	okinstallation	princeton_trtdifferential loss correction	single-endedforward channel	channel 1reverse channel	N/Adate	2019/09/12time	17:28:11forward acquisition time	60.00reverse acquisition time	0.00gamma	496.2192k internal	0.2315k external	0.2315temperature offset calibration	1.0099default loss term (dB/km)	0.3790temperature slope calibration	1.0000multiplexer offset coefficient	1.0000multiplexer slope coefficient	1.0000fibre end	0.00T internal ref (°C)	34.67T ext. ref 1 (°C)	2.83T ext. ref 2 (°C)	28.67length (m)	temperature (°C)	Stokes	anti-Stokes-747.200	-100.579	0.129	0.032
-746.185	485.549	-0.073	0.168
-745.171	162.948	-0.031	0.043
-744.156	-200.000	0.045	0.200
-743.142	-126.939	-0.409	-0.061
-742.127	-8.694	-0.297	-0.202
-741.112	13.150	-0.134	0.105
-740.098	-85.580	-0.195	-0.061
-739.083	-200.000	-0.004	0.060
-738.069	63.036	-0.090	0.092
-737.054	-136.371	0.168	0.020
-736.039	1.408	0.034	0.025
-735.025	202.417	0.146	0.228
-734.010	-200.000	-0.028	-0.145
-732.996	150.060	0.133	-0.182
-731.981	39.305	-0.135	0.123
-730.966	-109.953	-0.163	0.035
-729.952	-84.875	0.288	0.091
-728.937	37.737	0.114	-0.102
-727.923	7.911	-0.114	-0.087
-726.908	-135.519	-0.297	-0.036
-725.894	-120.954	-0.243	0.041
-724.879	800.000	0.073	-0.244
-723.864	-200.000	0.077	-0.342
-722.850	-81.837	-0.170	0.057
-721.835	-85.831	-0.134	-0.042
-720.821	-155.686	-0.167	0.011
-719.806	80.235	0.163	0.178
-718.791	-50.470	0.036	-0.017
-717.777	-75.839	0.291	-0.105
-716.762	-92.529	-0.200	0.057
-715.748	-72.570	0.126	0.047
-714.733	-200.000	-0.009	-0.204
-713.718	-90.333	-0.271	-0.080
-712.704	482.657	-0.137	0.316
-711.689	-200.000	0.099	-0.519
-710.675	-149.382	0.253	-0.020
-709.660	800.000	-0.080	-0.253
-708.645	139.177	-0.189	-0.252
-707.631	111.153	0.063	-0.076
-706.616	-200.000	0.009	0.075
-705.602	-200.000	-0.063	-0.349
-704.587	-12.227	-0.535	-0.354
-703.572	-200.000	-0.011	-0.274
-702.558	-200.000	0.037	-0.195
-701.543	724.723	-0.072	-0.194
-700.529	-41.729	-0.094	-0.049
-699.514	-41.848	0.221	0.115
-698.499	-200.000	0.041	-0.449
-697.485	800.000	0.122	-0.359
-696.470	-75.964	-0.171	-0.061
-695.456	5.473	0.213	-0.159
-694.441	800.000	0.054	0.165
-693.426	-29.678	0.184	-0.106
-692.412	-148.186	-0.206	-0.017
-691.397	-200.000	-0.009	-0.113
-690.383	-200.000	0.036	-0.264
-689.368	-51.029	-0.150	-0.071
-688.354	-94.290	-0.279	-0.077
-687.339	-110.409	0.058	-0.012
-686.324	-9.819	0.057	0.039
-685.310	325.949	0.073	-0.141
-684.295	-62.741	0.148	0.062
-683.281	-52.323	0.122	0.057
-682.266	-200.000	-0.027	-0.142
-681.251	536.962	-0.012	0.029
-680.237	4.049	-0.298	0.220
-679.222	82.854	-0.266	-0.292
-678.208	800.000	-0.007	-0.029
-677.193	39.857	0.232	0.210
-676.178	-200.000	0.054	-0.356
-675.164	-108.141	-0.133	0.029
-674.149	139.823	-0.148	0.197
-673.135	-1.061	0.147	0.105
-672.120	237.857	0.153	-0.257
-671.105	800.000	-0.053	-0.188
-670.091	-14.998	-0.016	-0.011
-669.076	800.000	-0.033	-0.100
-668.062	64.864	-0.083	0.085
-667.047	738.892	-0.017	0.045
-666.032	291.264	0.071	-0.131
-665.018	326.122	-0.031	-0.060
-664.003	-99.013	0.069	0.018
-662.989	-200.000	0.007	-0.131
-661.974	-94.823	-0.133	-0.037
-660.959	-138.345	-0.146	0.016
-659.945	119.549	-0.246	0.308
-658.930	98.408	0.224	0.260
-657.916	489.198	-0.084	-0.194
-656.901	341.202	0.219	0.432
-655.886	-148.706	-0.495	0.041
-654.872	-200.000	0.023	0.256
-653.857	-95.068	-0.444	-0.121
-652.843	81.334	-0.130	-0.142
-651.828	-62.903	0.216	-0.090
-650.814	502.320	-0.032	0.074
-649.799	10.709	-0.199	-0.153
-648.784	800.000	-0.079	0.272
-647.770	6.123	-0.338	0.253
-646.755	800.000	0.028	0.085
-645.741	173.990	0.093	0.135
-644.726	144.564	-0.119	0.160
-643.711	-200.000	-0.031	0.308
-642.697	-162.852	-0.415	-0.020
-641.682	-40.095	0.223	-0.118
-640.668	-197.077	0.081	-0.001
-639.653	25.439	-0.159	0.133
-638.638	-123.082	-0.273	-0.044
-637.624	-200.000	0.028	0.143
-636.609	-82.939	0.295	-0.096
-635.595	68.235	0.147	-0.152
-634.580	800.000	0.095	-0.355
-633.565	800.000	0.187	0.581
-632.551	-200.000	0.009	0.059
-631.536	-34.269	-0.155	0.086
-630.522	-48.597	-0.067	-0.033
-629.507	165.650	-0.014	-0.020
-628.492	-135.687	-0.207	-0.025
-627.478	-15.649	-0.296	-0.190
-626.463	104.133	0.129	-0.153
-625.449	85.261	0.185	-0.204
-624.434	6.233	0.366	-0.274
-623.419	-81.244	0.213	-0.071
-622.405	158.823	0.140	0.196
-621.390	3.378	0.295	0.217
-620.376	800.000	-0.060	-0.195
-619.361	-89.081	0.456	0.136
-618.346	800.000	0.038	-0.110
-617.332	16.334	-0.088	-0.070
-616.317	-30.082	-0.155	0.089
-615.303	-200.000	0.017	-0.220
-614.288	800.000	0.017	0.052
-613.273	-126.428	0.467	0.070
-612.259	-50.743	0.262	0.124
-611.244	-89.285	0.109	0.032
-610.230	-200.000	-0.032	-0.260
-609.215	-200.000	0.009	0.067
-608.201	-116.824	-0.102	0.019
-607.186	-129.948	0.303	-0.042
-606.171	-41.801	-0.228	0.118
-605.157	-200.000	-0.058	-0.486
-604.142	-173.040	0.088	0.003
-603.128	-20.224	0.130	-0.081
-602.113	-177.529	0.220	-0.005
-601.098	195.983	0.095	0.145
-600.084	-30.256	-0.208	-0.119
-599.069	403.976	0.155	-0.329
-598.055	-24.530	0.153	0.092
-597.040	-200.000	0.023	-0.565
-596.025	-16.925	-0.023	-0.014
-595.011	695.426	-0.094	-0.248
-593.996	800.000	0.058	0.236
-592.982	-75.340	-0.275	0.099
-591.967	800.000	-0.057	-0.240
-590.952	-75.383	0.072	0.026
-589.938	-137.490	0.181	-0.021
-588.923	181.238	0.083	0.123
-587.909	-98.059	-0.232	-0.060
-586.894	190.332	0.185	0.279
-585.879	-147.555	0.233	-0.020
-584.865	-130.959	0.332	-0.045
-583.850	-18.470	0.089	-0.056
-582.836	196.507	-0.237	-0.363
-581.821	523.711	0.107	-0.254
-580.806	-106.255	-0.110	-0.025
-579.792	20.944	0.099	0.081
-578.777	-67.753	-0.175	0.069
-577.763	-200.000	0.015	0.101
-576.748	-94.339	-0.221	-0.061
-575.733	-200.000	-0.055	-0.418
-574.719	-41.170	0.264	-0.137
-573.704	800.000	0.042	-0.186
-572.690	-200.000	-0.270	-0.000
-571.675	306.106	-0.101	0.189
-570.661	800.000	-0.096	0.349
-569.646	-126.870	0.222	0.033
-568.631	-99.605	0.211	-0.053
-567.617	148.075	0.138	-0.187
-566.602	329.432	-0.093	0.180
-565.588	21.872	-0.301	0.247
-564.573	-200.000	-0.007	0.036
-563.558	-200.000	-0.001	-0.077
-562.544	493.872	0.088	0.204
-561.529	98.094	-0.178	-0.206
-560.515	800.000	0.029	0.085
-559.500	301.377	-0.136	0.253
-558.485	800.000	0.092	0.292
-557.471	-40.931	-0.155	0.081
-556.456	59.850	-0.193	0.191
-555.442	-14.720	0.170	-0.110
-554.427	60.790	0.228	0.228
-553.412	206.696	0.132	0.207
-552.398	7.155	0.199	-0.149
-551.383	-200.000	0.026	0.250
-550.369	-105.226	-0.035	0.008
-549.354	626.016	0.062	0.158
-548.339	-171.456	0.173	-0.006
-547.325	-100.337	0.031	0.008
-546.310	-200.000	-0.058	-0.526
-545.296	-200.000	0.067	-0.324
-544.281	627.343	-0.163	-0.413
-543.266	92.396	-0.140	0.159
-542.252	-155.683	-0.209	0.013
-541.237	-52.470	-0.350	0.163
-540.223	370.692	0.085	-0.174
-539.208	345.299	-0.115	0.227
-538.193	13.303	-0.330	0.257
-537.179	378.699	0.114	0.235
-536.164	65.839	-0.208	-0.211
-535.150	142.136	-0.078	0.104
-534.135	-89.906	-0.230	-0.067
-533.121	-101.727	-0.137	0.033
-532.106	-135.280	0.138	-0.017
-531.091	-200.000	-0.008	-0.148
-530.077	149.645	0.094	-0.129
-529.062	114.962	-0.081	0.099
-528.048	449.365	0.132	-0.293
-527.033	-128.068	-0.250	-0.036
-526.018	103.784	0.187	-0.221
-525.004	-82.869	-0.062	0.020
-523.989	95.378	-0.031	-0.035
-522.975	-200.000	-0.036	-0.340
-521.960	-200.000	-0.028	0.195
-520.945	170.235	-0.038	0.055
-519.931	176.044	0.059	-0.086
-518.916	-58.230	-0.277	0.121
-517.902	-48.938	0.175	0.084
-516.887	-31.106	-0.283	-0.160
-515.872	-200.000	0.020	-0.398
-514.858	-40.737	-0.192	0.100
-513.843	-33.608	-0.137	-0.076
-512.829	-200.000	0.025	-0.143
-511.814	-47.611	-0.130	0.063
-510.799	-53.396	0.288	0.132
-509.785	52.699	0.234	-0.225
-508.770	-83.855	-0.461	-0.147
-507.756	-200.000	-0.045	0.214
-506.741	-63.668	-0.293	-0.121
-505.726	258.469	-0.055	0.095
-504.712	-27.555	0.207	0.121
-503.697	-200.000	0.006	0.110
-502.683	47.371	-0.257	-0.240
-501.668	-109.943	0.108	-0.023
-500.653	-176.452	0.043	0.001
-499.639	-200.000	-0.046	-0.211
-498.624	-200.000	0.052	-0.358
-497.610	34.607	-0.185	0.163
-496.595	-175.129	-0.216	0.006
-495.581	-54.931	-0.368	0.167
-494.566	800.000	-0.018	0.054
-493.551	800.000	-0.084	-0.278
-492.537	-200.000	-0.023	0.207
-491.522	-200.000	0.008	0.060
-490.508	162.958	0.118	-0.166
-489.493	-200.000	-0.023	-0.251
-488.478	-174.316	0.396	0.011
-487.464	-183.329	0.390	-0.007
-486.449	-150.347	0.149	0.011
-485.435	-42.602	-0.207	0.106
-484.420	24.407	-0.068	-0.056
-483.405	343.131	0.035	0.069
-482.391	-3.704	0.141	0.098
-481.376	-88.384	-0.259	-0.077
-480.362	174.115	-0.071	0.103
-479.347	-71.561	-0.143	0.054
-478.332	166.667	-0.065	0.092
-477.318	-81.120	0.378	0.125
-476.303	237.394	-0.101	0.167
-475.289	-49.365	-0.187	-0.090
-474.274	-176.798	0.189	0.005
-473.259	88.104	-0.201	-0.224
-472.245	-139.777	-0.369	0.039
-471.230	-200.000	0.048	-0.319
-470.216	-163.286	0.076	-0.004
-469.201	-136.655	0.031	0.004
-468.186	30.251	-0.130	-0.111
-467.172	-181.513	0.265	0.005
-466.157	800.000	0.072	-0.217
-465.143	-144.823	-0.089	-0.008
-464.128	-95.093	0.131	-0.036
-463.113	-61.869	-0.139	-0.058
-462.099	-200.000	-0.001	-0.015
-461.084	-200.000	-0.005	-0.153
-460.070	264.786	-0.266	-0.465
-459.055	-200.000	-0.013	0.093
-458.040	-84.805	-0.303	0.095
-457.026	800.000	-0.058	-0.168
-456.011	800.000	-0.050	0.173
-454.997	21.057	-0.257	-0.209
-453.982	88.573	-0.362	-0.403
-452.968	-111.810	-0.075	0.015
-451.953	-200.000	-0.003	0.105
-450.938	-179.476	0.244	-0.005
-449.924	-200.000	-0.027	-0.189
-448.909	-17.899	-0.107	0.067
-447.895	-94.775	-0.125	-0.034
-446.880	-50.339	-0.280	0.133
-445.865	-98.422	0.253	0.065
-444.851	-200.000	-0.077	0.353
-443.836	-50.287	0.320	0.151
-442.822	519.469	0.064	0.149
-441.807	-135.829	-0.162	0.019
-440.792	-0.503	-0.174	-0.124
-439.778	-200.000	-0.012	0.248
-438.763	12.425	-0.216	0.167
-437.749	-200.000	0.003	0.207
-436.734	107.356	0.065	0.078
-435.719	140.090	0.179	0.236
-434.705	-200.000	0.006	-0.315
-433.690	-150.227	-0.392	0.030
-432.676	310.645	0.036	-0.067
-431.661	-73.049	-0.212	-0.078
-430.646	800.000	-0.041	0.124
-429.632	-173.992	-0.038	0.001
-428.617	-134.443	-0.264	-0.032
-427.603	-109.587	0.248	-0.052
-426.588	474.353	0.058	0.131
-425.573	-25.441	0.207	-0.122
-424.559	628.474	0.122	-0.309
-423.544	181.922	-0.154	0.227
-422.530	379.772	0.138	-0.283
-421.515	75.464	0.183	0.193
-420.500	-87.790	0.211	-0.064
-419.486	329.789	-0.231	0.445
-418.471	-181.170	-0.141	0.003
-417.457	343.678	-0.173	-0.340
-416.442	800.000	-0.024	-0.072
-415.428	335.627	0.129	0.250
-414.413	369.158	0.109	-0.221
-413.398	-87.450	-0.304	-0.092
-412.384	-133.332	0.238	0.030
-411.369	-162.913	-0.313	0.015
-410.355	-200.000	0.093	0.000
-409.340	25.724	-0.157	0.131
-408.325	143.413	-0.176	-0.234
-407.311	-108.068	0.072	0.016
-406.296	72.094	0.145	-0.151
-405.282	99.470	0.029	0.033
-404.267	-54.024	0.258	-0.117
-403.252	19.081	0.174	0.140
-402.238	477.521	-0.041	-0.093
-401.223	130.371	-0.117	-0.149
-400.209	237.403	-0.156	0.258
-399.194	220.430	-0.116	0.186
-398.179	-200.000	0.074	0.617
-397.165	240.167	-0.059	0.098
-396.150	800.000	0.064	-0.245
-395.136	71.866	-0.169	0.175
-394.121	-200.000	-0.039	0.282
-393.106	-200.000	-0.000	0.064
-392.092	69.045	-0.192	0.197
-391.077	146.453	0.122	-0.163
-390.063	-95.780	0.293	0.078
-389.048	-200.000	-0.003	0.019
-388.033	800.000	-0.047	0.150
-387.019	395.625	-0.086	0.179
-386.004	115.958	0.021	0.026
-384.990	230.060	-0.053	0.086
-383.975	-2.138	-0.150	-0.105
-382.960	161.985	0.080	-0.112
-381.946	50.363	-0.151	-0.142
-380.931	131.503	0.115	0.148
-379.917	-32.445	0.025	-0.014
-378.902	-200.000	-0.083	-0.506
-377.888	126.024	0.090	-0.114
-376.873	-62.478	0.073	-0.030
-375.858	-200.000	0.052	-0.233
-374.844	46.128	-0.267	-0.247
-373.829	141.780	-0.079	-0.105
-372.815	153.465	0.048	0.066
-371.800	-74.508	-0.302	0.109
-370.785	-200.000	0.033	-0.152
-369.771	-71.176	0.340	-0.127
-368.756	-200.000	0.019	-0.301
-367.742	664.209	-0.070	-0.180
-366.727	-22.487	0.265	-0.160
-365.712	-115.704	-0.169	-0.032
-364.698	61.605	0.290	0.288
-363.683	-138.579	0.054	0.006
-362.669	228.934	-0.118	0.191
-361.654	692.455	0.077	-0.203
-360.639	26.258	0.139	-0.116
-359.625	236.231	-0.162	0.268
-358.610	-20.460	0.058	-0.036
-357.596	6.030	0.227	0.168
-356.581	-53.257	0.207	0.095
-355.566	319.220	0.185	-0.349
-354.552	-200.000	0.042	-0.390
-353.537	800.000	0.032	0.122
-352.523	-72.462	-0.460	0.170
-351.508	-61.328	-0.068	0.028
-350.493	-80.621	-0.385	0.128
-349.479	83.002	-0.188	0.204
-348.464	800.000	-0.124	0.514
-347.450	800.000	0.086	-0.332
-346.435	-123.066	0.178	0.029
-345.420	-102.539	0.366	-0.087
-344.406	800.000	0.046	-0.136
-343.391	366.753	-0.064	-0.130
-342.377	-119.575	0.332	-0.057
-341.362	-86.477	0.471	-0.144
-340.348	-1.588	-0.293	0.206
-339.333	403.159	-0.081	0.169
-338.318	-1.949	-0.062	0.043
-337.304	-3.642	0.124	0.086
-336.289	-94.466	-0.267	-0.073
-335.275	-136.666	0.133	-0.015
-334.260	-200.000	-0.016	0.216
-333.245	40.316	0.097	-0.087
-332.231	-71.650	0.123	0.046
-331.216	-117.139	0.250	-0.045
-330.202	-18.738	0.201	0.125
-329.187	86.989	-0.135	0.149
-328.172	-98.157	0.210	-0.054
-327.158	-30.102	0.138	-0.079
-326.143	-200.000	0.026	-0.166
-325.129	-59.959	0.182	0.077
-324.114	-71.513	-0.077	0.029
-323.099	-69.715	-0.042	0.016
-322.085	-200.000	0.002	-0.416
-321.070	-200.000	-0.011	-0.246
-320.056	-12.257	0.071	0.046
-319.041	-152.694	-0.148	0.011
-318.026	-200.000	0.015	0.317
-317.012	-92.183	0.255	-0.072
-315.997	168.326	0.122	0.172
-314.983	-157.380	-0.023	-0.001
-313.968	-200.000	-0.007	-0.233
-312.953	47.844	0.102	-0.095
-311.939	-12.379	-0.120	0.078
-310.924	-70.940	0.157	0.059
-309.910	-200.000	0.087	0.468
-308.895	216.427	0.108	0.171
-307.880	-200.000	0.027	0.273
-306.866	-134.576	-0.300	-0.037
-305.851	-73.915	-0.363	0.131
-304.837	-17.882	0.054	-0.034
-303.822	-96.891	-0.282	0.074
-302.807	84.618	-0.154	-0.167
-301.793	60.941	0.171	-0.169
-300.778	-200.000	-0.007	-0.312
-299.764	39.579	0.296	0.264
-298.749	-142.844	0.337	0.033
-297.735	-8.668	-0.288	-0.192
-296.720	-3.919	-0.093	0.064
-295.705	-200.000	0.003	-0.047
-294.691	444.134	-0.100	-0.217
-293.676	200.084	0.275	-0.420
-292.662	-172.227	-0.228	-0.007
-291.647	800.000	0.056	0.239
-290.632	374.542	-0.094	0.190
-289.618	800.000	-0.061	-0.205
-288.603	43.310	-0.219	0.199
-287.589	653.819	-0.108	0.275
-286.574	-95.078	-0.092	-0.025
-285.559	-94.916	0.053	0.014
-284.545	-148.695	0.268	-0.022
-283.530	-152.370	0.055	0.004
-282.516	186.118	0.083	-0.123
-281.501	499.938	-0.062	0.142
-280.486	-200.000	0.015	0.268
-279.472	-200.000	0.031	0.170
-278.457	71.238	-0.121	0.125
-277.443	-200.000	-0.047	-0.327
-276.428	-200.000	0.023	-0.202
-275.413	-200.000	0.001	-0.119
-274.399	-200.000	0.038	0.261
-273.384	516.896	0.124	0.288
-272.370	49.487	-0.119	0.111
-271.355	-144.976	0.123	0.011
-270.340	360.238	-0.009	-0.017
-269.326	61.790	-0.097	0.097
-268.311	800.000	-0.023	0.086
-267.297	407.786	0.124	0.261
-266.282	202.674	-0.223	0.342
-265.267	-69.642	0.255	-0.097
-264.253	-200.000	-0.004	0.037
-263.238	-19.391	0.118	-0.073
-262.224	-200.000	-0.017	-0.077
-261.209	-108.922	0.182	-0.039
-260.195	80.478	-0.149	-0.160
-259.180	-200.000	-0.042	0.220
-258.165	81.571	-0.425	0.457
-257.151	-14.050	-0.215	-0.138
-256.136	800.000	-0.078	-0.333
-255.122	-200.000	-0.019	0.094
-254.107	211.729	-0.112	0.175
-253.092	-128.194	0.077	0.011
-252.078	1.712	-0.226	-0.162
-251.063	-141.313	0.064	0.006
-250.049	-200.000	0.015	0.174
-249.034	-145.126	0.221	0.020
-248.019	176.565	-0.135	-0.195
-247.005	73.250	-0.173	0.179
-245.990	-90.588	-0.272	-0.078
-244.976	-69.617	0.329	0.125
-243.961	-200.000	0.020	-0.187
-242.946	-35.964	0.375	0.201
-241.932	-200.000	0.002	0.145
-240.917	-200.000	0.015	0.142
-239.903	-28.328	-0.563	0.323
-238.888	112.601	-0.159	-0.191
-237.873	123.178	0.171	-0.213
-236.859	64.278	0.242	-0.242
-235.844	-99.160	0.187	-0.047
-234.830	-4.810	0.261	-0.179
-233.815	39.351	-0.093	-0.083
-232.800	-40.050	0.103	0.053
-231.786	-26.453	-0.180	-0.105
-230.771	20.213	0.111	-0.089
-229.757	380.191	-0.155	-0.315
-228.742	-197.785	-0.480	0.003
-227.727	113.473	0.202	-0.244
-226.713	494.640	-0.176	-0.402
-225.698	-74.566	-0.429	0.153
-224.684	-47.104	0.168	0.081
-223.669	200.860	-0.245	0.374
-222.655	-200.000	0.078	0.507
-221.640	-200.000	0.118	0.531
-220.625	469.689	0.084	-0.187
-219.611	800.000	-0.055	-0.153
-218.596	79.937	0.180	-0.193
-217.582	717.829	0.046	0.122
-216.567	-18.191	-0.297	-0.184
-215.552	-54.643	0.196	-0.088
-214.538	113.431	-0.243	-0.292
-213.523	28.542	0.168	-0.141
-212.509	-195.469	0.254	-0.002
-211.494	10.646	0.210	0.159
-210.479	-41.141	0.089	0.046
-209.465	269.273	-0.046	-0.080
-208.450	-200.000	0.030	0.519
-207.436	59.059	0.214	0.208
-206.421	-133.701	0.111	-0.014
-205.406	-200.000	-0.030	0.138
-204.392	-200.000	-0.089	-0.448
-203.377	287.306	0.146	0.262
-202.363	-21.008	0.406	-0.247
-201.348	800.000	0.031	0.124
-200.333	551.206	0.022	0.053
-199.319	-91.974	-0.336	-0.095
-198.304	-101.455	0.101	-0.024
-197.290	96.223	0.118	0.134
-196.275	-59.586	0.338	-0.144
-195.260	282.547	-0.215	0.382
-194.246	-147.817	0.280	-0.023
-193.231	-142.178	0.157	-0.015
-192.217	176.899	-0.134	0.194
-191.202	-200.000	-0.003	0.230
-190.187	-195.620	0.153	0.001
-189.173	-57.773	-0.146	-0.064
-188.158	140.599	0.096	0.126
-187.144	-200.000	-0.005	0.089
-186.129	-106.319	0.308	0.068
-185.114	323.364	0.143	0.270
-184.100	211.728	0.138	0.215
-183.085	-81.456	-0.359	0.117
-182.071	-12.255	-0.151	0.098
-181.056	-121.318	0.536	-0.089
-180.042	9.444	-0.431	-0.324
-179.027	-156.965	-0.124	0.008
-178.012	-71.900	0.310	0.114
-176.998	800.000	-0.111	0.348
-175.983	57.146	-0.187	-0.181
-174.969	-72.426	0.038	0.014
-173.954	294.870	0.086	-0.155
-172.939	3.752	0.273	0.198
-171.925	-73.476	-0.124	-0.045
-170.910	272.487	-0.005	0.009
-169.896	-28.890	-0.142	0.081
-168.881	-62.357	-0.280	-0.115
-167.866	-38.952	0.301	-0.157
-166.852	131.400	0.193	0.245
-165.837	-200.000	-0.062	0.471
-164.823	-90.028	-0.288	0.083
-163.808	-200.000	0.234	-0.001
-162.793	-41.767	-0.093	-0.047
-161.779	121.290	-0.079	0.098
-160.764	60.675	0.121	-0.118
-159.750	-200.000	0.023	-0.468
-158.735	-108.334	0.154	0.033
-157.720	36.436	-0.144	-0.126
-156.706	-72.201	-0.049	-0.018
-155.691	-200.000	-0.028	-0.341
-154.677	131.550	0.164	0.209
-153.662	-180.460	0.257	-0.005
-152.647	-45.413	0.216	0.106
-151.633	800.000	0.117	-0.486
-150.618	203.374	0.187	-0.287
-149.604	-162.867	-0.180	0.009
-148.589	9.109	-0.209	-0.156
-147.574	-79.794	0.209	-0.070
-146.560	800.000	0.063	0.257
-145.545	385.704	0.112	0.229
-144.531	320.883	0.042	0.078
-143.516	44.789	-0.102	0.093
-142.502	30.099	-0.093	0.079
-141.487	-123.073	-0.295	-0.047
-140.472	-29.528	-0.080	0.045
-139.458	-139.165	-0.409	0.044
-138.443	561.183	0.084	-0.200
-137.429	-53.278	-0.067	-0.030
-136.414	64.301	-0.109	-0.108
-135.399	-28.103	-0.135	-0.077
-134.385	95.500	-0.111	-0.126
-133.370	171.565	-0.136	-0.193
-132.356	800.000	-0.076	0.215
-131.341	-117.946	0.101	-0.018
-130.326	800.000	0.069	-0.284
-129.312	-200.000	0.015	-0.132
-128.297	-31.831	-0.076	0.042
-127.283	59.900	-0.276	-0.269
-126.268	-73.434	-0.234	0.084
-125.253	123.858	0.020	-0.025
-124.239	134.749	0.070	0.090
-123.224	800.000	-0.103	-0.379
-122.210	-114.517	-0.428	-0.081
