DTS Sentinel unit serial number:	SN413079Multiplexer serial number:	ORYXHardware model number:	OX4-SRSoftware version number:	ORYX F/W v4.00 Oryx Data Collector v3.7.2.0data status	okinstallation	princeton_trtdifferential loss correction	single-endedforward channel	channel 1reverse channel	N/Adate	2019/09/18time	14:46:35forward acquisition time	60.00reverse acquisition time	0.00gamma	496.2192k internal	0.2307k external	0.2307temperature offset calibration	0.9988default loss term (dB/km)	0.3790temperature slope calibration	1.0000multiplexer offset coefficient	1.0000multiplexer slope coefficient	1.0000fibre end	0.00T internal ref (°C)	34.98T ext. ref 1 (°C)	0.73T ext. ref 2 (°C)	32.64length (m)	temperature (°C)	Stokes	anti-Stokes-747.200	56.344	-0.192	0.190
-746.185	-75.816	0.103	0.037
-745.171	-200.000	-0.028	0.302
-744.156	435.473	-0.102	0.226
-743.142	53.066	-0.089	0.086
-742.127	108.824	-0.002	0.003
-741.112	-200.000	-0.098	0.448
-740.098	800.000	-0.079	0.229
-739.083	246.495	0.097	0.166
-738.069	800.000	0.039	-0.152
-737.054	-44.306	-0.131	-0.067
-736.039	-57.726	-0.061	-0.027
-735.025	-163.792	-0.144	-0.007
-734.010	-200.000	0.030	-0.196
-732.996	-180.031	-0.129	0.003
-731.981	43.627	0.096	0.090
-730.966	-77.089	-0.107	0.038
-729.952	-200.000	0.051	-0.389
-728.937	131.737	-0.107	-0.140
-727.923	82.562	-0.152	-0.168
-726.908	135.484	0.045	-0.060
-725.894	-172.548	-0.155	-0.005
-724.879	11.593	-0.199	0.155
-723.864	-62.077	0.037	0.016
-722.850	-125.925	-0.106	-0.016
-721.835	397.184	-0.057	-0.121
-720.821	-155.966	-0.152	-0.010
-719.806	165.898	-0.096	-0.138
-718.791	73.385	-0.012	0.013
-717.777	128.452	-0.125	0.162
-716.762	-6.668	0.074	0.051
-715.748	257.042	-0.114	-0.199
-714.733	50.553	0.155	0.149
-713.718	-3.531	-0.040	-0.028
-712.704	-34.416	-0.312	-0.174
-711.689	-200.000	-0.033	0.237
-710.675	263.979	0.111	-0.197
-709.660	-200.000	0.000	-0.330
-708.645	646.074	0.126	-0.326
-707.631	-200.000	0.025	0.193
-706.616	-127.298	0.151	-0.022
-705.602	235.327	0.037	-0.062
-704.587	-200.000	0.056	-0.377
-703.572	-200.000	-0.044	0.257
-702.558	-90.787	-0.073	-0.021
-701.543	8.018	0.161	0.123
-700.529	800.000	0.038	-0.122
-699.514	-74.273	0.192	0.070
-698.499	-200.000	-0.047	-0.276
-697.485	-200.000	-0.022	0.171
-696.470	31.846	0.447	-0.391
-695.456	391.372	-0.144	-0.303
-694.441	-200.000	0.006	0.302
-693.426	382.506	-0.057	-0.120
-692.412	-103.211	0.263	-0.063
-691.397	211.516	-0.142	-0.227
-690.383	-34.835	0.491	-0.272
-689.368	800.000	-0.104	0.331
-688.354	89.253	-0.139	-0.157
-687.339	-150.345	0.204	-0.016
-686.324	-25.822	-0.141	-0.084
-685.310	-40.246	-0.227	-0.120
-684.295	-21.996	-0.231	-0.143
-683.281	145.006	-0.166	-0.225
-682.266	-2.562	-0.304	-0.216
-681.251	-9.197	0.264	-0.179
-680.237	-200.000	-0.038	-0.296
-679.222	-149.192	-0.184	0.015
-678.208	14.122	0.086	-0.068
-677.193	80.536	-0.164	-0.179
-676.178	-143.434	0.069	-0.007
-675.164	56.613	-0.109	0.108
-674.149	-32.027	-0.271	-0.154
-673.135	-152.127	-0.140	-0.010
-672.120	-85.726	-0.152	0.048
-671.105	-200.000	-0.015	0.454
-670.091	574.359	-0.137	0.338
-669.076	-35.917	0.108	-0.059
-668.062	800.000	-0.017	0.057
-667.047	-200.000	0.012	0.187
-666.032	127.115	0.085	-0.109
-665.018	-28.668	-0.243	-0.142
-664.003	-128.185	0.251	0.036
-662.989	427.172	-0.088	0.193
-661.974	-200.000	-0.097	-0.447
-660.959	-57.152	0.257	-0.115
-659.945	-49.426	0.075	0.036
-658.930	41.226	-0.278	0.255
-657.916	-74.253	0.381	0.140
-656.901	-36.699	0.398	-0.217
-655.886	-88.346	-0.194	-0.059
-654.872	-200.000	0.008	0.195
-653.857	-151.693	-0.201	-0.015
-652.843	-200.000	-0.043	0.259
-651.828	631.943	0.087	-0.224
-650.814	-83.790	0.302	-0.098
-649.799	-52.253	0.235	0.110
-648.784	226.708	-0.108	0.178
-647.770	226.544	-0.167	-0.275
-646.755	210.266	-0.150	-0.238
-645.741	49.199	0.058	0.055
-644.726	5.909	-0.085	-0.063
-643.711	-200.000	-0.054	-0.288
-642.697	-56.263	0.130	0.059
-641.682	-98.367	-0.237	-0.062
-640.668	-163.180	-0.233	-0.011
-639.653	-5.871	0.155	-0.108
-638.638	-30.360	-0.248	-0.142
-637.624	-103.106	-0.348	-0.083
-636.609	-200.000	-0.014	0.123
-635.595	167.270	0.171	-0.245
-634.580	800.000	-0.057	0.186
-633.565	-138.052	-0.160	0.018
-632.551	23.849	0.043	-0.036
-631.536	-12.654	-0.045	0.030
-630.522	-78.704	-0.169	-0.059
-629.507	49.913	0.152	-0.146
-628.492	-10.928	-0.185	0.124
-627.478	-121.556	-0.093	0.016
-626.463	-136.822	0.187	-0.022
-625.449	-200.000	-0.018	0.156
-624.434	-200.000	-0.021	-0.189
-623.419	-200.000	0.027	-0.125
-622.405	-112.549	-0.483	0.098
-621.390	151.450	-0.303	0.418
-620.376	718.674	0.050	0.134
-619.361	319.731	0.060	0.115
-618.346	150.905	-0.155	0.214
-617.332	53.768	0.245	-0.238
-616.317	6.534	-0.223	0.167
-615.303	-17.830	0.024	0.015
-614.288	-27.101	0.068	0.040
-613.273	61.784	-0.032	-0.032
-612.259	-70.207	0.200	0.077
-611.244	-200.000	-0.025	0.129
-610.230	-46.168	-0.310	0.154
-609.215	247.112	-0.105	0.179
-608.201	-153.716	0.377	-0.026
-607.186	-139.576	-0.092	-0.010
-606.171	110.461	0.192	0.234
-605.157	243.005	0.034	0.057
-604.142	147.969	-0.196	-0.268
-603.128	-63.202	-0.180	-0.075
-602.113	800.000	0.092	0.272
-601.098	435.894	0.083	0.183
-600.084	2.978	-0.267	-0.196
-599.069	418.544	0.149	-0.322
-598.055	270.567	-0.073	-0.130
-597.040	-88.853	-0.086	0.026
-596.025	507.782	-0.091	-0.214
-595.011	800.000	0.023	-0.088
-593.996	-200.000	0.008	-0.179
-592.982	513.257	0.051	-0.120
-591.967	-96.322	0.190	0.051
-590.952	800.000	-0.063	0.182
-589.938	-74.310	-0.106	-0.039
-588.923	-200.000	-0.021	0.283
-587.909	347.184	0.007	0.014
-586.894	-116.393	-0.316	-0.059
-585.879	30.620	-0.334	-0.289
-584.865	100.363	-0.123	0.144
-583.850	800.000	0.014	-0.048
-582.836	-37.261	0.061	0.033
-581.821	561.083	-0.167	-0.407
-580.806	-49.982	-0.111	0.053
-579.792	-84.990	0.115	-0.037
-578.777	-200.000	0.015	-0.151
-577.763	-27.087	-0.210	-0.124
-576.748	204.426	0.053	-0.082
-575.733	541.226	-0.026	-0.062
-574.719	-200.000	0.022	-0.234
-573.704	161.700	0.200	-0.283
-572.690	703.644	-0.033	0.088
-571.675	494.449	-0.149	0.345
-570.661	143.390	0.162	-0.218
-569.646	218.628	-0.101	-0.162
-568.631	-200.000	0.003	-0.072
-567.617	173.482	0.265	-0.385
-566.602	-27.456	-0.289	0.170
-565.588	-45.163	0.294	0.148
-564.573	-200.000	0.007	-0.038
-563.558	154.183	0.157	-0.217
-562.544	-124.884	0.194	0.030
-561.529	-200.000	-0.005	-0.064
-560.515	15.037	-0.101	0.080
-559.500	-200.000	0.016	-0.086
-558.485	-200.000	0.018	0.165
-557.471	46.958	-0.033	-0.031
-556.456	-13.843	-0.265	0.173
-555.442	-136.574	0.337	-0.039
-554.427	679.901	0.063	0.166
-553.412	-154.061	-0.261	0.018
-552.398	187.933	0.144	0.217
-551.383	-114.638	-0.126	-0.024
-550.369	-200.000	0.022	-0.187
-549.354	-200.000	0.055	-0.255
-548.339	-28.010	-0.166	-0.097
-547.325	-96.642	-0.198	-0.053
-546.310	16.464	0.040	0.032
-545.296	-7.909	-0.226	-0.154
-544.281	468.255	0.127	0.289
-543.266	-94.451	-0.144	0.040
-542.252	54.918	0.157	-0.153
-541.237	-200.000	-0.018	0.124
-540.223	-34.082	0.086	0.047
-539.208	-61.880	-0.290	0.122
-538.193	800.000	0.030	-0.116
-537.179	189.961	0.122	0.184
-536.164	800.000	0.028	-0.112
-535.150	289.336	0.177	0.324
-534.135	800.000	0.053	-0.152
-533.121	25.061	0.154	-0.129
-532.106	-200.000	-0.009	-0.049
-531.091	-51.068	-0.210	-0.099
-530.077	-200.000	-0.001	-0.028
-529.062	-200.000	0.004	-0.085
-528.048	-198.634	0.125	0.001
-527.033	353.943	0.081	-0.162
-526.018	-200.000	-0.028	-0.250
-525.004	36.505	-0.036	0.032
-523.989	800.000	-0.116	0.435
-522.975	-20.327	0.067	-0.042
-521.960	183.046	0.099	-0.147
-520.945	-77.014	-0.233	0.082
-519.931	-12.573	0.364	0.240
-518.916	-24.482	-0.243	0.146
-517.902	275.823	0.137	0.245
-516.887	-147.328	-0.192	0.016
-515.872	605.545	0.108	-0.272
-514.858	-111.174	-0.212	0.044
-513.843	-94.891	-0.206	0.056
-512.829	-135.103	-0.227	-0.028
-511.814	-15.753	-0.046	0.030
-510.799	-164.853	0.553	0.025
-509.785	800.000	-0.055	0.179
-508.770	800.000	0.078	0.292
-507.756	-137.621	0.199	-0.023
-506.741	-200.000	-0.006	-0.248
-505.726	310.931	-0.057	0.108
-504.712	20.812	-0.081	-0.066
-503.697	800.000	-0.060	-0.205
-502.683	-23.749	0.022	-0.013
-501.668	669.633	-0.044	-0.116
-500.653	-76.293	0.189	-0.067
-499.639	-200.000	0.021	0.231
-498.624	800.000	-0.022	-0.069
-497.610	6.459	-0.061	-0.046
-496.595	98.053	-0.109	-0.127
-495.581	116.379	0.220	0.271
-494.566	30.955	-0.166	0.143
-493.551	-124.785	-0.238	0.037
-492.537	465.360	-0.036	0.081
-491.522	37.160	0.061	0.055
-490.508	-171.153	-0.146	0.005
-489.493	-91.324	0.307	0.088
-488.478	105.684	-0.197	0.234
-487.464	-57.198	-0.351	0.156
-486.449	-176.552	-0.123	-0.003
-485.435	-200.000	0.082	-0.362
-484.420	-200.000	-0.025	-0.129
-483.405	23.478	-0.133	-0.110
-482.391	3.577	0.103	0.076
-481.376	79.434	-0.150	-0.162
-480.362	-121.356	0.199	-0.033
-479.347	-87.021	-0.139	-0.043
-478.332	20.124	0.057	0.047
-477.318	-200.000	0.041	0.192
-476.303	113.861	0.382	0.468
-475.289	-64.802	-0.011	0.005
-474.274	200.631	-0.253	-0.391
-473.259	113.797	-0.223	-0.273
-472.245	316.719	0.068	-0.130
-471.230	24.216	-0.233	0.193
-470.216	-101.742	0.216	-0.053
-469.201	-200.000	0.006	-0.292
-468.186	-63.128	-0.383	-0.159
-467.172	-200.000	0.037	0.385
-466.157	20.498	0.080	0.065
-465.143	91.964	-0.248	-0.281
-464.128	-111.420	-0.259	-0.053
-463.113	-159.641	-0.163	-0.009
-462.099	-2.220	-0.154	-0.109
-461.084	800.000	0.052	0.167
-460.070	-53.726	-0.275	-0.126
-459.055	-115.227	0.066	-0.013
-458.040	-47.552	0.058	0.028
-457.026	-90.020	-0.037	0.011
-456.011	-57.105	-0.103	0.046
-454.997	79.457	-0.193	0.208
-453.982	-186.418	0.262	-0.004
-452.968	156.530	0.128	0.178
-451.953	792.528	0.076	-0.211
-450.938	-200.000	-0.003	-0.016
-449.924	101.818	0.060	0.070
-448.909	-46.547	0.074	0.037
-447.895	535.298	0.048	-0.115
-446.880	-200.000	0.002	0.306
-445.865	-122.290	-0.062	0.010
-444.851	38.990	0.076	-0.069
-443.836	-40.796	0.344	0.179
-442.822	140.967	0.227	0.301
-441.807	800.000	-0.013	-0.052
-440.792	73.211	-0.138	-0.146
-439.778	45.668	0.205	-0.190
-438.763	-62.909	-0.155	-0.064
-437.749	-200.000	-0.003	-0.205
-436.734	19.164	0.234	-0.189
-435.719	-43.999	0.133	0.067
-434.705	-200.000	0.003	-0.166
-433.690	-200.000	-0.057	0.382
-432.676	800.000	0.070	0.211
-431.661	123.427	0.267	0.337
-430.646	-200.000	-0.000	0.018
-429.632	697.434	0.168	-0.444
-428.617	307.267	-0.122	-0.228
-427.603	514.954	-0.060	-0.141
-426.588	-200.000	0.037	0.180
-425.573	-200.000	-0.001	0.111
-424.559	-12.402	0.188	0.123
-423.544	-22.653	-0.472	-0.287
-422.530	130.729	0.192	-0.247
-421.515	-94.315	0.300	0.082
-420.500	170.744	-0.089	0.128
-419.486	-55.569	0.322	-0.145
-418.471	-200.000	0.003	0.062
-417.457	-56.404	-0.074	0.033
-416.442	-200.000	0.110	0.483
-415.428	350.911	-0.116	0.231
-414.413	800.000	-0.015	-0.042
-413.398	550.417	-0.083	0.199
-412.384	-122.790	0.382	0.062
-411.369	-132.833	0.192	0.025
-410.355	-200.000	-0.001	-0.166
-409.340	-168.935	-0.330	-0.012
-408.325	117.764	0.154	0.190
-407.311	-71.362	-0.052	-0.019
-406.296	-200.000	0.025	0.214
-405.282	69.892	0.120	0.124
-404.267	-79.921	-0.330	-0.111
-403.252	800.000	-0.058	-0.233
-402.238	148.476	-0.136	-0.184
-401.223	-14.939	-0.247	0.159
-400.209	102.969	0.255	-0.300
-399.194	30.494	-0.164	-0.141
-398.179	-200.000	-0.051	0.423
-397.165	-200.000	-0.037	-0.335
-396.150	-81.182	0.075	-0.025
-395.136	-65.668	0.201	-0.081
-394.121	372.364	-0.108	0.220
-393.106	-144.610	0.371	-0.034
-392.092	521.856	0.052	-0.123
-391.077	-45.844	0.208	0.103
-390.063	-118.633	0.217	-0.038
-389.048	43.352	-0.354	0.325
-388.033	328.992	-0.142	0.275
-387.019	127.369	-0.240	0.306
-386.004	-200.000	0.005	0.135
-384.990	-200.000	0.004	-0.114
-383.975	-18.430	-0.237	0.148
-382.960	126.087	-0.081	0.102
-381.946	94.627	0.146	0.166
-380.931	-115.286	-0.137	-0.026
-379.917	-24.052	0.235	-0.141
-378.902	-135.568	-0.212	-0.025
-377.888	-86.037	-0.011	0.003
-376.873	-200.000	0.024	-0.243
-375.858	-200.000	0.005	0.209
-374.844	-200.000	0.128	0.000
-373.829	335.242	0.063	0.122
-372.815	-2.127	0.200	0.141
-371.800	149.843	-0.152	-0.206
-370.785	-112.888	0.092	-0.018
-369.771	-80.602	-0.458	0.153
-368.756	-116.868	0.348	-0.064
-367.742	387.304	-0.060	-0.125
-366.727	100.505	-0.177	0.206
-365.712	-12.041	-0.247	0.162
-364.698	-110.972	-0.187	0.039
-363.683	766.132	0.078	-0.212
-362.669	-131.651	0.267	0.035
-361.654	-200.000	0.002	0.078
-360.639	181.329	-0.037	0.054
-359.625	-200.000	0.024	-0.262
-358.610	37.628	0.176	0.157
-357.596	135.529	-0.271	-0.354
-356.581	292.133	0.071	0.129
-355.566	22.182	-0.107	0.088
-354.552	167.933	-0.068	-0.097
-353.537	290.507	-0.093	-0.169
-352.523	800.000	-0.036	-0.111
-351.508	800.000	-0.054	-0.170
-350.493	-200.000	-0.004	0.110
-349.479	1.568	0.309	-0.222
-348.464	-189.604	0.276	-0.003
-347.450	-100.786	0.158	-0.039
-346.435	-98.236	0.535	0.138
-345.420	-44.257	0.257	-0.129
-344.406	-200.000	0.063	0.382
-343.391	-161.014	0.026	-0.001
-342.377	-200.000	-0.001	0.008
-341.362	-200.000	0.032	0.225
-340.348	-200.000	0.003	0.141
-339.333	218.461	0.103	0.165
-338.318	-163.806	0.245	0.012
-337.304	-35.094	0.357	0.195
-336.289	800.000	0.115	0.391
-335.275	-69.018	-0.109	-0.042
-334.260	9.611	0.116	-0.088
-333.245	-200.000	-0.017	0.120
-332.231	-200.000	0.015	-0.077
-331.216	-38.111	0.321	0.171
-330.202	-133.083	0.157	0.020
-329.187	-72.801	-0.192	0.071
-328.172	-8.537	0.094	0.063
-327.158	89.707	0.110	-0.123
-326.143	25.110	0.104	-0.086
-325.129	207.937	0.056	-0.087
-324.114	28.391	-0.154	0.131
-323.099	800.000	0.180	0.499
-322.085	20.183	0.350	-0.283
-321.070	800.000	-0.052	-0.209
-320.056	381.400	0.071	0.145
-319.041	-17.288	0.358	0.226
-318.026	-6.495	0.140	0.096
-317.012	116.881	-0.150	-0.184
-315.997	86.251	-0.186	0.205
-314.983	-191.455	0.085	0.001
-313.968	800.000	-0.034	-0.104
-312.953	112.237	0.115	-0.139
-311.939	72.960	-0.022	-0.022
-310.924	-200.000	-0.066	-0.324
-309.910	94.654	0.159	-0.181
-308.895	-86.932	0.325	-0.099
-307.880	283.908	-0.179	-0.321
-306.866	735.535	-0.079	-0.212
-305.851	800.000	0.037	-0.149
-304.837	800.000	-0.011	-0.032
-303.822	-114.699	0.240	-0.046
-302.807	-200.000	0.014	0.169
-301.793	-200.000	-0.011	0.321
-300.778	442.108	0.148	-0.324
-299.764	351.454	0.017	-0.034
-298.749	-200.000	-0.036	-0.229
-297.735	286.735	0.137	0.248
-296.720	-200.000	0.080	-0.428
-295.705	-105.268	0.183	-0.042
-294.691	54.261	-0.177	-0.170
-293.676	800.000	0.059	0.167
-292.662	-96.042	-0.078	-0.021
-291.647	-130.072	-0.068	-0.009
-290.632	149.997	0.079	-0.107
-289.618	-148.066	-0.182	-0.015
-288.603	800.000	0.101	-0.384
-287.589	800.000	0.043	0.132
-286.574	-60.220	0.163	0.069
-285.559	22.171	-0.391	0.319
-284.545	211.828	-0.103	0.162
-283.530	203.432	0.115	0.178
-282.516	41.358	-0.109	0.098
-281.501	-138.075	-0.387	-0.043
-280.486	-200.000	-0.010	0.286
-279.472	-200.000	0.001	-0.065
-278.457	-200.000	0.004	0.278
-277.443	306.223	0.166	0.308
-276.428	-139.436	-0.095	-0.010
-275.413	-175.796	0.297	0.008
-274.399	377.935	0.143	-0.292
-273.384	9.952	-0.204	-0.155
-272.370	800.000	-0.044	-0.152
-271.355	-200.000	0.016	-0.154
-270.340	800.000	0.096	-0.306
-269.326	343.111	0.095	0.185
-268.311	-200.000	0.016	0.095
-267.297	283.593	-0.127	0.228
-266.282	65.164	0.261	-0.263
-265.267	342.599	0.117	-0.229
-264.253	-132.983	-0.245	0.031
-263.238	103.431	-0.102	-0.119
-262.224	140.838	0.171	0.225
-261.209	-17.519	0.096	0.060
-260.195	-200.000	0.041	0.368
-259.180	-200.000	-0.012	0.370
-258.165	800.000	-0.055	0.169
-257.151	-200.000	0.000	0.268
-256.136	-59.105	-0.389	0.168
-255.122	29.547	0.066	0.056
-254.107	800.000	0.051	0.158
-253.092	-9.479	0.027	0.018
-252.078	-97.230	0.142	0.037
-251.063	257.001	0.127	-0.218
-250.049	385.448	-0.124	-0.255
-249.034	6.736	0.111	-0.082
-248.019	-200.000	-0.107	-0.500
-247.005	40.037	-0.112	-0.101
-245.990	-47.064	-0.095	0.046
-244.976	57.700	0.213	-0.208
-243.961	-17.233	0.252	-0.158
-242.946	180.323	-0.179	-0.261
-241.932	18.620	0.116	0.092
-240.917	-200.000	-0.031	0.259
-239.903	-57.665	-0.135	-0.059
-238.888	659.400	-0.135	0.347
-237.873	280.935	0.147	0.263
-236.859	129.334	0.016	0.020
-235.844	57.236	0.086	0.084
-234.830	37.104	0.121	0.107
-233.815	800.000	-0.037	0.132
-232.800	-200.000	0.008	-0.224
-231.786	444.576	-0.155	-0.339
-230.771	-200.000	-0.017	0.147
-229.757	-200.000	0.019	-0.265
-228.742	-200.000	-0.038	0.463
-227.727	182.764	0.142	-0.209
-226.713	-68.596	-0.255	-0.098
-225.698	-55.881	0.400	-0.178
-224.684	-156.989	0.306	0.019
-223.669	267.185	0.059	0.103
-222.655	237.224	0.112	-0.185
-221.640	12.074	-0.178	0.136
-220.625	-200.000	0.062	-0.274
-219.611	209.233	-0.087	0.135
-218.596	30.318	0.118	-0.100
-217.582	-200.000	-0.044	-0.297
-216.567	-200.000	0.035	-0.278
-215.552	800.000	0.057	0.180
-214.538	81.579	0.198	0.213
-213.523	67.263	-0.126	-0.128
-212.509	-200.000	0.083	-0.000
-211.494	344.889	-0.124	0.243
-210.479	-109.813	-0.125	-0.026
-209.465	-89.411	-0.087	-0.026
-208.450	290.599	0.081	-0.147
-207.436	288.090	-0.138	-0.249
-206.421	800.000	-0.052	0.170
-205.406	-109.825	0.214	0.045
-204.392	-200.000	-0.003	0.223
-203.377	337.426	0.078	-0.151
-202.363	-178.008	0.229	-0.005
-201.348	-200.000	-0.002	0.213
-200.333	-99.952	-0.342	-0.085
-199.319	-21.310	0.340	0.207
-198.304	-96.117	0.066	0.018
-197.290	224.371	-0.151	-0.243
-196.275	692.125	-0.021	-0.055
-195.260	48.342	-0.100	0.093
-194.246	325.146	-0.022	-0.042
-193.231	486.925	-0.067	-0.152
-192.217	800.000	0.076	0.270
-191.202	369.394	-0.088	0.177
-190.187	-115.782	-0.116	0.022
-189.173	-154.826	0.427	-0.028
-188.158	-125.767	0.024	-0.004
-187.144	19.576	-0.247	0.198
-186.129	-200.000	-0.011	0.323
-185.114	-200.000	0.037	0.215
-184.100	-44.018	-0.218	0.109
-183.085	800.000	-0.054	-0.201
-182.071	1.655	-0.042	-0.030
-181.056	-97.225	-0.198	0.051
-180.042	-160.091	0.207	0.011
-179.027	-104.836	0.153	-0.035
-178.012	-12.396	-0.096	-0.063
-176.998	-200.000	-0.015	-0.161
-175.983	282.897	0.081	-0.144
-174.969	-3.984	-0.217	0.150
-173.954	76.377	-0.148	0.155
-172.939	-4.436	-0.086	0.059
-171.925	-50.662	0.108	0.051
-170.910	183.248	0.188	-0.276
-169.896	-73.913	-0.183	0.066
-168.881	-154.270	0.161	0.011
-167.866	144.724	-0.208	0.276
-166.852	2.904	-0.079	-0.057
-165.837	-200.000	-0.046	-0.388
-164.823	-100.741	0.054	0.013
-163.808	-135.464	0.098	0.012
-162.793	130.533	0.029	0.037
-161.779	-200.000	-0.015	-0.147
-160.764	451.834	-0.198	-0.436
-159.750	18.193	0.111	0.088
-158.735	56.123	-0.314	0.303
-157.720	467.550	0.184	-0.410
-156.706	53.769	-0.401	0.383
-155.691	-200.000	-0.071	-0.379
-154.677	271.935	0.095	0.166
-153.662	-200.000	0.041	-0.214
-152.647	-48.680	-0.204	-0.097
-151.633	800.000	-0.110	-0.340
-150.618	-46.699	0.178	0.087
-149.604	-200.000	-0.074	-0.433
-148.589	795.225	-0.087	0.237
-147.574	97.366	0.075	-0.086
-146.560	389.341	-0.106	0.218
-145.545	-200.000	-0.027	0.391
-144.531	10.212	-0.128	-0.097
-143.516	-134.867	-0.270	-0.032
-142.502	-26.643	-0.209	-0.122
-141.487	-43.838	0.255	0.128
-140.472	-200.000	0.041	-0.193
-139.458	800.000	0.039	-0.127
-138.443	-54.730	0.258	-0.116
-137.429	-1.764	-0.203	-0.142
-136.414	620.152	-0.055	0.138
-135.399	-200.000	0.040	-0.465
-134.385	26.596	0.192	-0.159
-133.370	-50.282	-0.222	0.104
-132.356	503.410	0.018	-0.042
-131.341	-20.000	-0.052	0.032
-130.326	139.196	0.212	-0.277
-129.312	-50.885	0.447	-0.208
-128.297	-6.513	0.059	-0.040
-127.283	-2.583	-0.093	-0.065
-126.268	388.873	-0.016	-0.033
-125.253	374.119	-0.046	0.092
-124.239	447.100	0.128	0.280
-123.224	114.521	0.259	0.313
-122.210	800.000	-0.005	0.018
