DTS Sentinel unit serial number:	SN413079Multiplexer serial number:	ORYXHardware model number:	OX4-SRSoftware version number:	ORYX F/W v4.00 Oryx Data Collector v3.7.2.0data status	okinstallation	princeton_trtdifferential loss correction	single-endedforward channel	channel 1reverse channel	N/Adate	2019/09/11time	15:00:11forward acquisition time	60.00reverse acquisition time	0.00gamma	496.2192k internal	0.2291k external	0.2291temperature offset calibration	0.9988default loss term (dB/km)	0.3790temperature slope calibration	1.0000multiplexer offset coefficient	1.0000multiplexer slope coefficient	1.0000fibre end	0.00T internal ref (°C)	42.81T ext. ref 1 (°C)	0.94T ext. ref 2 (°C)	37.77length (m)	temperature (°C)	Stokes	anti-Stokes-747.200	60.466	-0.102	0.103
-746.185	634.983	-0.081	0.211
-745.171	33.490	-0.100	0.089
-744.156	159.673	-0.302	0.431
-743.142	-11.936	-0.121	0.081
-742.127	237.494	0.212	0.359
-741.112	800.000	0.014	0.064
-740.098	234.989	-0.105	0.177
-739.083	-116.165	0.121	0.023
-738.069	593.892	0.054	0.136
-737.054	29.668	-0.133	0.116
-736.039	-200.000	-0.015	-0.125
-735.025	-200.000	0.010	-0.054
-734.010	800.000	0.105	0.351
-732.996	-121.328	-0.152	0.026
-731.981	533.919	-0.090	-0.219
-730.966	22.198	-0.324	-0.270
-729.952	-200.000	-0.013	-0.157
-728.937	-200.000	0.011	0.105
-727.923	157.558	-0.146	-0.207
-726.908	-53.764	-0.376	0.176
-725.894	-155.536	0.164	-0.011
-724.879	-117.381	-0.334	0.062
-723.864	627.712	0.185	0.479
-722.850	38.537	0.211	0.192
-721.835	62.477	0.086	0.088
-720.821	52.982	-0.011	-0.011
-719.806	245.218	-0.175	0.301
-718.791	-99.598	-0.103	-0.027
-717.777	-156.348	-0.461	0.030
-716.762	-45.054	-0.078	-0.040
-715.748	75.449	0.085	0.092
-714.733	559.478	-0.086	0.211
-713.718	-125.691	-0.187	0.029
-712.704	146.654	-0.190	-0.261
-711.689	84.994	-0.127	0.143
-710.675	-49.773	0.177	0.086
-709.660	-200.000	-0.034	0.450
-708.645	-14.145	0.276	-0.182
-707.631	-93.283	0.418	0.119
-706.616	-37.443	-0.251	0.137
-705.602	-200.000	0.006	-0.067
-704.587	-98.051	-0.472	0.124
-703.572	-200.000	-0.002	0.086
-702.558	-31.901	-0.076	-0.043
-701.543	-113.691	-0.138	-0.027
-700.529	-200.000	0.030	-0.314
-699.514	-101.789	0.137	0.034
-698.499	-100.269	0.269	-0.068
-697.485	24.844	0.161	0.137
-696.470	-200.000	0.015	-0.164
-695.456	-200.000	0.003	0.201
-694.441	163.803	-0.045	0.065
-693.426	141.144	0.092	0.125
-692.412	161.274	0.131	0.187
-691.397	185.142	0.116	0.175
-690.383	230.301	0.137	-0.228
-689.368	-65.489	-0.189	-0.077
-688.354	141.910	-0.128	-0.174
-687.339	-122.773	0.152	0.025
-686.324	-200.000	-0.009	-0.178
-685.310	-182.264	0.335	0.006
-684.295	-200.000	0.026	-0.216
-683.281	372.393	0.072	0.150
-682.266	532.926	0.202	-0.488
-681.251	786.046	0.082	-0.229
-680.237	-200.000	-0.065	-0.320
-679.222	-12.491	0.170	-0.113
-678.208	800.000	0.064	-0.211
-677.193	-74.533	-0.047	0.017
-676.178	71.821	0.262	-0.278
-675.164	19.993	-0.430	-0.354
-674.149	800.000	0.103	-0.333
-673.135	800.000	-0.032	0.122
-672.120	-49.884	0.280	-0.136
-671.105	158.839	0.116	-0.164
-670.091	20.965	-0.144	0.119
-669.076	326.175	0.142	0.277
-668.062	-200.000	0.060	0.391
-667.047	-200.000	-0.007	0.376
-666.032	-88.833	-0.101	0.031
-665.018	371.650	0.179	-0.371
-664.003	687.071	-0.093	-0.248
-662.989	-13.336	0.188	0.125
-661.974	800.000	-0.040	0.148
-660.959	-200.000	-0.027	0.131
-659.945	31.963	0.024	0.021
-658.930	800.000	0.062	0.229
-657.916	137.078	0.150	0.200
-656.901	350.255	-0.096	0.193
-655.886	124.394	0.141	-0.181
-654.872	99.817	0.210	-0.248
-653.857	-118.570	-0.469	-0.085
-652.843	-200.000	0.051	-0.368
-651.828	-3.197	0.311	-0.221
-650.814	-42.705	0.124	0.064
-649.799	-181.576	0.164	-0.003
-648.784	-200.000	0.002	0.137
-647.770	-200.000	0.050	-0.266
-646.755	-141.441	-0.223	-0.023
-645.741	171.521	-0.185	0.272
-644.726	-200.000	0.018	-0.121
-643.711	-200.000	0.024	-0.121
-642.697	800.000	0.089	-0.356
-641.682	-22.257	-0.184	-0.114
-640.668	359.216	0.056	0.115
-639.653	-92.452	-0.032	-0.009
-638.638	800.000	0.057	0.228
-637.624	-84.427	-0.294	-0.095
-636.609	-66.343	-0.045	-0.018
-635.595	-200.000	0.020	0.193
-634.580	-80.685	-0.112	-0.038
-633.565	-123.327	0.065	0.011
-632.551	92.121	-0.155	-0.178
-631.536	183.598	-0.177	-0.266
-630.522	-70.855	-0.422	-0.162
-629.507	142.047	-0.146	-0.197
-628.492	-95.987	-0.311	-0.084
-627.478	-165.110	-0.305	0.014
-626.463	28.972	-0.132	0.114
-625.449	59.026	-0.081	-0.082
-624.434	-98.013	-0.322	-0.085
-623.419	85.915	-0.118	-0.132
-622.405	30.317	-0.518	0.451
-621.390	-25.256	-0.201	-0.121
-620.376	800.000	-0.048	0.139
-619.361	-68.090	0.405	0.161
-618.346	-51.420	0.222	-0.106
-617.332	800.000	-0.141	-0.444
-616.317	-35.130	-0.369	-0.205
-615.303	-10.203	0.090	-0.061
-614.288	132.707	-0.078	0.102
-613.273	-200.000	0.019	0.120
-612.259	-104.503	0.135	-0.032
-611.244	-200.000	0.038	-0.239
-610.230	-200.000	-0.011	0.200
-609.215	151.281	0.168	0.232
-608.201	113.421	-0.146	0.181
-607.186	585.592	-0.099	-0.247
-606.171	125.377	0.116	-0.148
-605.157	-200.000	0.035	-0.281
-604.142	262.608	0.184	-0.326
-603.128	369.944	0.111	0.229
-602.113	-200.000	0.018	-0.167
-601.098	99.474	-0.085	-0.101
-600.084	261.556	-0.034	-0.061
-599.069	-21.865	-0.222	-0.138
-598.055	439.617	0.226	-0.502
-597.040	-200.000	0.021	-0.201
-596.025	-194.471	-0.236	0.002
-595.011	160.673	0.029	0.041
-593.996	-77.914	0.350	0.123
-592.982	-200.000	0.037	-0.219
-591.967	633.943	-0.143	0.370
-590.952	-130.250	-0.091	-0.013
-589.938	41.348	-0.368	-0.339
-588.923	176.341	-0.207	-0.306
-587.909	-200.000	-0.014	-0.094
-586.894	800.000	0.071	-0.276
-585.879	-130.594	-0.156	0.021
-584.865	-30.184	0.085	-0.049
-583.850	170.834	-0.103	0.150
-582.836	-200.000	0.009	0.350
-581.821	20.362	0.296	0.243
-580.806	706.205	-0.022	0.059
-579.792	-24.495	0.083	-0.050
-578.777	75.348	0.280	-0.300
-577.763	-74.540	-0.212	-0.078
-576.748	-44.321	0.088	0.045
-575.733	-72.393	0.100	0.038
-574.719	360.540	0.200	0.408
-573.704	800.000	0.127	0.426
-572.690	-38.137	0.126	-0.068
-571.675	38.806	-0.179	0.163
-570.661	216.643	-0.219	0.354
-569.646	296.953	0.185	-0.346
-568.631	-13.798	0.173	-0.114
-567.617	-82.542	-0.199	0.066
-566.602	-200.000	-0.025	0.131
-565.588	144.249	0.128	-0.174
-564.573	-61.643	0.289	-0.123
-563.558	370.806	-0.034	-0.071
-562.544	-93.840	-0.180	-0.050
-561.529	370.792	-0.138	-0.285
-560.515	69.990	-0.231	-0.243
-559.500	48.741	-0.143	0.137
-558.485	-15.525	0.053	0.034
-557.471	25.587	0.274	-0.231
-556.456	-66.932	-0.182	0.073
-555.442	9.914	-0.102	-0.079
-554.427	-200.000	-0.034	-0.288
-553.412	-200.000	-0.003	-0.338
-552.398	-90.698	-0.325	0.095
-551.383	-89.727	0.315	-0.094
-550.369	-161.670	-0.202	-0.011
-549.354	313.168	-0.090	-0.173
-548.339	-73.809	-0.073	-0.027
-547.325	43.974	-0.269	-0.251
-546.310	-200.000	-0.019	-0.190
-545.296	199.526	0.255	0.398
-544.281	177.537	-0.145	0.214
-543.266	-68.013	0.335	-0.133
-542.252	-123.787	0.232	0.037
-541.237	6.197	-0.240	0.181
-540.223	-60.079	0.160	-0.070
-539.208	-72.640	0.157	0.059
-538.193	-54.911	0.424	-0.194
-537.179	-90.983	0.180	0.052
-536.164	-155.865	-0.220	-0.014
-535.150	-120.898	-0.059	-0.010
-534.135	800.000	0.024	-0.094
-533.121	800.000	0.075	0.285
-532.106	-58.164	0.102	-0.045
-531.091	-151.323	-0.384	-0.029
-530.077	-82.646	0.160	0.053
-529.062	-111.496	0.268	0.055
-528.048	-41.255	-0.119	0.062
-527.033	116.655	0.089	-0.111
-526.018	701.001	0.049	-0.131
-525.004	-179.752	-0.136	-0.003
-523.989	-95.956	-0.249	-0.067
-522.975	-200.000	0.020	0.097
-521.960	-90.921	-0.319	0.093
-520.945	-200.000	-0.067	-0.373
-519.931	-84.696	0.257	0.082
-518.916	-200.000	0.022	-0.318
-517.902	725.857	-0.072	-0.196
-516.887	-44.995	-0.085	0.043
-515.872	-200.000	-0.037	0.417
-514.858	6.849	0.044	-0.033
-513.843	-71.956	-0.270	0.102
-512.829	197.846	-0.178	0.276
-511.814	-52.684	0.284	0.133
-510.799	-18.849	-0.417	-0.264
-509.785	800.000	0.066	-0.195
-508.770	219.600	0.119	-0.193
-507.756	145.693	-0.235	-0.320
-506.741	-200.000	0.020	-0.163
-505.726	-200.000	-0.001	0.164
-504.712	800.000	0.085	-0.319
-503.697	-186.970	-0.096	0.001
-502.683	800.000	-0.064	-0.196
-501.668	7.511	0.078	-0.059
-500.653	-156.752	-0.216	0.013
-499.639	349.135	-0.083	0.167
-498.624	800.000	0.035	0.121
-497.610	-200.000	-0.044	0.212
-496.595	471.062	0.134	-0.307
-495.581	-200.000	0.024	0.130
-494.566	-90.377	0.369	0.109
-493.551	47.141	0.031	-0.029
-492.537	-75.214	-0.177	-0.064
-491.522	20.616	-0.146	0.120
-490.508	37.593	-0.143	0.129
-489.493	234.769	-0.147	0.246
-488.478	-36.669	0.007	-0.004
-487.464	-115.668	-0.260	0.049
-486.449	-101.452	0.129	-0.032
-485.435	8.096	0.116	-0.089
-484.420	-141.189	0.020	0.002
-483.405	645.488	-0.098	-0.253
-482.391	-94.171	0.274	-0.076
-481.376	-162.587	-0.199	0.010
-480.362	800.000	-0.110	0.405
-479.347	-200.000	0.004	0.019
-478.332	-200.000	0.015	-0.437
-477.318	-200.000	0.028	0.141
-476.303	389.298	-0.203	0.427
-475.289	800.000	-0.057	0.219
-474.274	4.635	-0.208	0.155
-473.259	331.002	-0.166	-0.324
-472.245	-75.111	0.124	0.045
-471.230	273.461	-0.161	0.288
-470.216	90.705	0.027	0.031
-469.201	178.006	-0.151	0.223
-468.186	-66.354	0.453	0.183
-467.172	-108.209	0.286	-0.063
-466.157	-200.000	0.000	0.020
-465.143	163.581	-0.096	0.137
-464.128	323.268	-0.131	-0.253
-463.113	585.988	-0.060	-0.148
-462.099	-79.404	0.333	0.114
-461.084	14.210	0.194	-0.153
-460.070	800.000	-0.092	-0.264
-459.055	-172.152	0.173	0.006
-458.040	107.129	-0.150	-0.180
-457.026	-200.000	-0.006	0.329
-456.011	45.031	-0.145	-0.135
-454.997	-12.164	-0.219	0.145
-453.982	35.720	-0.128	-0.114
-452.968	-8.917	0.213	0.145
-451.953	728.704	0.050	0.136
-450.938	-200.000	-0.019	-0.237
-449.924	-7.522	-0.250	-0.171
-448.909	130.049	-0.182	0.236
-447.895	71.259	0.175	0.183
-446.880	-200.000	-0.013	-0.247
-445.865	92.723	-0.214	0.245
-444.851	160.077	0.114	-0.160
-443.836	-200.000	0.028	-0.172
-442.822	-35.681	0.211	0.116
-441.807	96.794	0.097	0.112
-440.792	12.878	0.172	0.135
-439.778	800.000	0.098	0.350
-438.763	-6.872	0.328	0.226
-437.749	33.573	0.149	-0.131
-436.734	3.064	0.087	0.064
-435.719	-200.000	0.014	-0.081
-434.705	-200.000	-0.011	-0.360
-433.690	-200.000	0.001	0.170
-432.676	800.000	-0.027	0.083
-431.661	466.504	0.037	0.083
-430.646	-39.505	-0.164	-0.087
-429.632	-200.000	-0.062	-0.339
-428.617	52.164	0.230	-0.222
-427.603	-200.000	0.011	0.155
-426.588	-200.000	-0.007	-0.050
-425.573	350.209	-0.126	0.252
-424.559	-57.687	0.286	0.127
-423.544	-94.421	0.236	0.065
-422.530	-200.000	0.016	0.527
-421.515	-200.000	0.073	0.396
-420.500	-119.529	0.274	-0.048
-419.486	513.835	0.149	0.351
-418.471	-79.757	-0.172	0.058
-417.457	-46.463	0.200	-0.099
-416.442	147.164	0.153	-0.208
-415.428	-125.662	-0.310	0.047
-414.413	105.852	0.176	-0.210
-413.398	679.645	-0.095	-0.249
-412.384	0.968	-0.133	0.097
-411.369	42.626	0.149	-0.137
-410.355	255.960	0.122	0.211
-409.340	43.169	0.157	-0.145
-408.325	800.000	0.039	0.121
-407.311	-38.872	0.129	0.069
-406.296	-108.152	-0.132	0.029
-405.282	800.000	-0.043	-0.143
-404.267	58.104	0.156	-0.155
-403.252	-82.401	0.200	-0.066
-402.238	-200.000	-0.023	-0.218
-401.223	19.301	-0.351	-0.284
-400.209	-200.000	0.031	0.174
-399.194	800.000	-0.033	0.111
-398.179	141.728	0.067	0.089
-397.165	-134.485	0.140	-0.017
-396.150	321.865	-0.057	-0.110
-395.136	-34.685	0.113	-0.062
-394.121	-54.866	0.139	-0.063
-393.106	800.000	-0.033	0.145
-392.092	-150.878	-0.235	-0.018
-391.077	-73.191	-0.105	-0.039
-390.063	-84.524	0.336	0.107
-389.048	-187.095	0.214	0.003
-388.033	259.859	-0.113	0.197
-387.019	77.836	-0.290	-0.312
-386.004	126.170	0.113	-0.144
-384.990	800.000	0.050	0.172
-383.975	-200.000	-0.028	-0.138
-382.960	-115.599	0.164	0.031
-381.946	32.852	-0.111	-0.097
-380.931	800.000	-0.070	-0.201
-379.917	13.096	0.201	-0.157
-378.902	115.012	-0.079	0.097
-377.888	103.517	-0.116	-0.137
-376.873	65.711	0.156	-0.160
-375.858	178.133	-0.093	0.137
-374.844	-62.535	-0.256	0.107
-373.829	37.862	0.189	-0.170
-372.815	800.000	-0.074	-0.244
-371.800	-189.962	-0.550	0.006
-370.785	-115.921	-0.315	-0.059
-369.771	800.000	0.114	-0.349
-368.756	800.000	-0.088	-0.246
-367.742	-45.951	-0.153	-0.076
-366.727	147.461	-0.102	-0.138
-365.712	-200.000	-0.032	0.160
-364.698	-145.827	-0.074	-0.007
-363.683	27.374	0.087	-0.074
-362.669	-98.169	0.409	-0.106
-361.654	800.000	0.042	-0.119
-360.639	-52.705	0.152	-0.071
-359.625	-200.000	-0.025	0.472
-358.610	-58.864	-0.100	0.044
-357.596	329.694	0.028	-0.054
-356.581	1.049	-0.317	0.229
-355.566	97.585	0.154	0.179
-354.552	781.929	0.056	0.155
-353.537	256.399	-0.096	0.167
-352.523	50.103	0.047	0.044
-351.508	-162.168	0.199	-0.010
-350.493	800.000	0.078	0.276
-349.479	369.836	-0.106	0.217
-348.464	-200.000	-0.010	0.253
-347.450	2.005	0.092	0.067
-346.435	-118.467	0.422	0.075
-345.420	521.885	-0.127	0.300
-344.406	-36.945	-0.277	0.149
-343.391	229.387	-0.122	0.200
-342.377	142.884	0.239	0.320
-341.362	58.878	0.106	0.105
-340.348	84.275	-0.022	0.024
-339.333	-98.774	-0.255	-0.066
-338.318	-32.432	0.053	-0.030
-337.304	800.000	0.057	-0.197
-336.289	-200.000	-0.031	0.398
-335.275	-157.865	-0.243	-0.015
-334.260	-200.000	-0.045	0.310
-333.245	536.284	0.124	0.296
-332.231	800.000	-0.105	-0.300
-331.216	-41.304	-0.202	0.105
-330.202	59.079	0.139	-0.138
-329.187	85.171	0.192	-0.212
-328.172	86.340	0.124	-0.137
-327.158	800.000	-0.042	-0.142
-326.143	5.361	-0.149	-0.111
-325.129	138.208	0.158	0.208
-324.114	0.579	0.219	0.158
-323.099	-38.374	-0.113	-0.060
-322.085	59.796	-0.178	-0.177
-321.070	-200.000	-0.040	-0.242
-320.056	30.925	0.224	0.194
-319.041	-67.278	-0.208	0.082
-318.026	130.573	0.066	-0.085
-317.012	-88.069	0.219	-0.066
-315.997	-200.000	-0.022	0.301
-314.983	-200.000	-0.010	-0.246
-313.968	307.548	0.096	-0.180
-312.953	-46.522	-0.151	0.075
-311.939	-200.000	0.002	-0.143
-310.924	-0.861	0.352	0.251
-309.910	-200.000	0.044	-0.227
-308.895	-45.140	-0.213	-0.106
-307.880	-145.798	-0.147	0.013
-306.866	-200.000	-0.018	-0.238
-305.851	268.900	0.120	0.213
-304.837	29.334	0.450	0.385
-303.822	-200.000	-0.024	-0.358
-302.807	-200.000	-0.092	-0.441
-301.793	165.457	-0.220	-0.313
-300.778	-37.322	0.209	-0.112
-299.764	-79.691	-0.101	0.034
-298.749	412.033	-0.190	0.407
-297.735	800.000	0.090	0.316
-296.720	45.830	0.208	-0.194
-295.705	-61.504	0.470	-0.199
-294.691	56.712	-0.235	-0.230
-293.676	-117.792	-0.520	0.094
-292.662	141.308	-0.143	0.190
-291.647	-200.000	-0.011	-0.202
-290.632	45.220	0.220	-0.204
-289.618	-200.000	-0.008	-0.242
-288.603	800.000	0.014	-0.053
-287.589	-16.675	0.147	-0.094
-286.574	141.209	0.075	0.099
-285.559	-200.000	0.006	0.275
-284.545	76.049	0.186	0.198
-283.530	800.000	0.035	-0.127
-282.516	-94.325	-0.286	0.078
-281.501	-200.000	-0.002	0.320
-280.486	572.743	0.111	0.272
-279.472	-104.129	0.263	0.062
-278.457	596.154	-0.103	-0.256
-277.443	-50.434	-0.202	-0.096
-276.428	-66.249	0.206	0.083
-275.413	800.000	-0.078	0.273
-274.399	-117.045	0.208	0.038
-273.384	427.480	-0.097	0.211
-272.370	522.686	0.031	0.073
-271.355	125.125	-0.077	0.097
-270.340	48.391	0.128	-0.120
-269.326	-55.581	0.298	0.134
-268.311	-86.637	0.199	0.061
-267.297	-77.661	0.305	0.106
-266.282	72.276	0.245	0.256
-265.267	28.173	0.147	-0.125
-264.253	-30.298	-0.152	0.087
-263.238	-93.279	-0.384	0.107
-262.224	171.831	-0.153	-0.221
-261.209	-200.000	0.004	0.270
-260.195	-76.520	0.179	-0.063
-259.180	-200.000	-0.075	0.354
-258.165	800.000	-0.115	-0.364
-257.151	1.692	0.244	-0.177
-256.136	121.105	-0.198	0.248
-255.122	-121.566	-0.186	-0.031
-254.107	273.324	0.053	0.095
-253.092	178.507	-0.087	0.128
-252.078	-200.000	-0.045	-0.239
-251.063	-96.129	0.247	-0.066
-250.049	-54.536	-0.260	-0.118
-249.034	28.620	0.196	-0.166
-248.019	-200.000	-0.114	0.662
-247.005	-65.902	-0.242	0.097
-245.990	-32.652	-0.183	-0.102
-244.976	364.214	0.176	0.356
-243.961	-4.370	-0.010	-0.007
-242.946	-53.544	0.124	-0.057
-241.932	-200.000	-0.104	0.499
-240.917	-200.000	-0.080	0.479
-239.903	-140.481	-0.084	0.009
-238.888	-88.503	0.187	0.056
-237.873	800.000	0.058	0.214
-236.859	-128.652	-0.046	0.007
-235.844	-200.000	0.024	-0.260
-234.830	-11.484	0.062	-0.041
-233.815	-46.347	0.159	0.078
-232.800	-135.311	0.270	0.032
-231.786	-142.733	0.261	0.026
-230.771	17.372	-0.164	0.130
-229.757	-120.709	-0.126	-0.021
-228.742	538.083	-0.029	-0.070
-227.727	-34.677	-0.177	0.097
-226.713	-134.749	-0.163	0.020
-225.698	-19.595	-0.192	-0.120
-224.684	-156.302	-0.167	-0.011
-223.669	-9.854	-0.269	-0.180
-222.655	800.000	-0.077	-0.222
-221.640	-82.008	-0.390	-0.128
-220.625	-175.257	0.247	-0.007
-219.611	63.671	0.028	-0.028
-218.596	-33.299	0.141	-0.078
-217.582	800.000	-0.027	0.104
-216.567	-129.095	0.361	-0.051
-215.552	25.528	0.142	-0.119
-214.538	150.385	0.091	-0.124
-213.523	-199.282	0.054	-0.000
-212.509	-200.000	0.020	0.138
-211.494	-200.000	-0.045	0.299
-210.479	-9.927	0.215	0.143
-209.465	800.000	0.043	-0.122
-208.450	-152.649	-0.297	-0.021
-207.436	218.641	0.116	-0.186
-206.421	18.275	0.167	0.133
-205.406	-128.924	-0.051	0.007
-204.392	206.653	-0.089	-0.139
-203.377	-200.000	0.010	0.213
-202.363	-99.483	0.313	-0.079
-201.348	65.517	0.134	-0.136
-200.333	-152.987	-0.483	0.034
-199.319	2.240	-0.139	0.101
-198.304	428.125	0.154	-0.333
-197.290	-200.000	0.298	0.001
-196.275	-200.000	-0.001	-0.100
-195.260	201.997	-0.209	-0.324
-194.246	-25.752	0.099	0.059
-193.231	-200.000	0.123	0.762
-192.217	36.399	-0.234	0.206
-191.202	33.606	0.280	0.244
-190.187	800.000	-0.066	0.202
-189.173	800.000	-0.065	-0.231
-188.158	208.194	-0.086	0.134
-187.144	-141.401	-0.267	0.027
-186.129	-95.246	-0.193	-0.052
-185.114	-111.843	0.210	0.043
-184.100	-30.561	-0.181	-0.103
-183.085	92.396	-0.089	-0.100
-182.071	714.525	0.067	-0.179
-181.056	-98.528	0.155	-0.040
-180.042	-81.548	-0.219	-0.072
-179.027	-107.800	0.091	-0.020
-178.012	-22.341	0.253	0.154
-176.998	76.143	-0.144	-0.153
-175.983	800.000	0.037	-0.104
-174.969	-131.804	-0.058	-0.008
-173.954	-45.713	0.170	0.084
-172.939	16.764	0.146	0.116
-171.925	338.293	-0.089	-0.174
-170.910	-200.000	0.025	-0.342
-169.896	-47.905	0.266	0.129
-168.881	368.883	-0.013	0.026
-167.866	62.402	0.055	-0.055
-166.852	-65.532	0.224	-0.090
-165.837	-95.748	0.071	0.019
-164.823	-91.540	0.041	0.012
-163.808	-18.720	-0.316	0.197
-162.793	2.158	0.297	0.215
-161.779	-200.000	0.042	0.236
-160.764	-200.000	-0.043	-0.216
-159.750	332.106	0.081	-0.156
-158.735	-200.000	-0.006	0.213
-157.720	705.175	0.077	-0.204
-156.706	-200.000	0.010	-0.358
-155.691	-200.000	0.007	-0.180
-154.677	800.000	0.095	0.321
-153.662	29.703	0.276	0.235
-152.647	-193.796	0.195	0.002
-151.633	-200.000	-0.021	0.128
-150.618	-200.000	0.047	0.287
-149.604	-138.700	-0.232	0.025
-148.589	-200.000	-0.060	-0.331
-147.574	-101.912	-0.164	-0.040
-146.560	-88.652	-0.354	0.105
-145.545	800.000	-0.048	0.133
-144.531	393.380	0.054	0.113
-143.516	125.625	0.123	0.155
-142.502	-200.000	-0.015	-0.088
-141.487	-200.000	0.014	-0.165
-140.472	197.124	0.183	-0.280
-139.458	-30.406	0.137	-0.078
-138.443	630.580	-0.197	0.499
-137.429	-139.691	0.226	-0.024
-136.414	304.802	0.127	0.236
-135.399	136.964	-0.036	0.047
-134.385	-36.472	-0.352	0.189
-133.370	-200.000	-0.043	-0.294
-132.356	800.000	0.048	-0.208
-131.341	55.684	0.327	-0.317
-130.326	-200.000	0.020	0.163
-129.312	516.010	-0.118	0.275
-128.297	-200.000	0.038	0.351
-127.283	-80.032	0.265	-0.089
-126.268	800.000	-0.049	0.188
-125.253	38.387	0.105	0.093
-124.239	-22.582	-0.122	-0.074
-123.224	-96.080	0.355	-0.094
-122.210	90.225	-0.072	-0.081
-121.195	181.182	0.190	0.279
