DTS Sentinel unit serial number:	SN413079Multiplexer serial number:	ORYXHardware model number:	OX4-SRSoftware version number:	ORYX F/W v4.00 Oryx Data Collector v3.7.2.0data status	okinstallation	princeton_trtdifferential loss correction	single-endedforward channel	channel 1reverse channel	N/Adate	2019/09/15time	06:26:35forward acquisition time	60.00reverse acquisition time	0.00gamma	496.2192k internal	0.2324k external	0.2324temperature offset calibration	0.9995default loss term (dB/km)	0.3790temperature slope calibration	1.0000multiplexer offset coefficient	1.0000multiplexer slope coefficient	1.0000fibre end	0.00T internal ref (°C)	30.50T ext. ref 1 (°C)	4.84T ext. ref 2 (°C)	25.36length (m)	temperature (°C)	Stokes	anti-Stokes-747.200	-72.547	-0.218	0.081
-746.185	154.794	-0.115	0.160
-745.171	75.786	-0.122	0.130
-744.156	800.000	-0.056	-0.177
-743.142	-87.422	-0.031	-0.009
-742.127	-200.000	0.069	0.364
-741.112	-200.000	-0.031	0.207
-740.098	-138.276	-0.091	0.010
-739.083	-200.000	0.002	0.128
-738.069	800.000	0.082	0.245
-737.054	-200.000	0.075	-0.502
-736.039	800.000	-0.029	-0.092
-735.025	124.841	-0.139	0.177
-734.010	-22.009	-0.121	-0.074
-732.996	415.496	-0.169	-0.363
-731.981	133.017	0.110	-0.144
-730.966	6.119	-0.222	0.166
-729.952	-200.000	-0.013	-0.338
-728.937	800.000	-0.018	0.077
-727.923	-200.000	-0.018	-0.245
-726.908	30.852	0.036	-0.031
-725.894	-124.182	0.153	-0.024
-724.879	-99.459	-0.220	0.056
-723.864	166.422	0.178	0.255
-722.850	-200.000	0.061	-0.424
-721.835	-200.000	-0.010	-0.202
-720.821	162.115	-0.128	-0.181
-719.806	-200.000	0.003	0.374
-718.791	-4.432	-0.053	0.037
-717.777	-200.000	0.000	-0.045
-716.762	-85.569	-0.231	-0.072
-715.748	178.329	-0.108	0.158
-714.733	81.660	0.245	-0.268
-713.718	-112.338	-0.462	0.093
-712.704	-103.020	0.149	0.036
-711.689	532.055	0.113	-0.269
-710.675	-28.675	-0.257	-0.149
-709.660	-200.000	-0.011	-0.053
-708.645	-82.613	0.316	0.103
-707.631	-200.000	0.005	-0.392
-706.616	-185.776	-0.148	0.002
-705.602	85.016	-0.113	-0.125
-704.587	-36.066	0.254	-0.138
-703.572	-91.696	-0.075	0.022
-702.558	-70.055	0.271	-0.104
-701.543	-137.586	-0.241	-0.027
-700.529	39.585	0.206	0.186
-699.514	231.378	-0.129	0.213
-698.499	800.000	0.015	-0.046
-697.485	-200.000	0.034	-0.201
-696.470	46.933	-0.146	-0.136
-695.456	800.000	-0.101	-0.369
-694.441	-176.099	0.408	0.011
-693.426	-120.088	0.218	-0.038
-692.412	-49.586	-0.095	0.045
-691.397	-80.816	-0.221	0.074
-690.383	-23.258	0.118	0.071
-689.368	90.740	0.108	-0.121
-688.354	-58.892	-0.185	0.081
-687.339	-200.000	-0.009	-0.372
-686.324	152.604	0.134	0.184
-685.310	-73.505	0.144	0.053
-684.295	-137.404	-0.224	0.026
-683.281	800.000	-0.094	-0.286
-682.266	219.431	0.157	-0.253
-681.251	-200.000	-0.015	-0.140
-680.237	-106.525	-0.396	-0.089
-679.222	-171.947	-0.284	0.009
-678.208	56.677	0.066	0.064
-677.193	-147.292	0.076	0.006
-676.178	-76.419	0.385	-0.136
-675.164	636.142	0.126	-0.321
-674.149	-25.865	0.309	-0.183
-673.135	58.493	0.205	-0.203
-672.120	250.617	-0.163	-0.279
-671.105	-15.832	-0.063	0.041
-670.091	92.854	0.089	-0.101
-669.076	48.445	-0.111	-0.105
-668.062	382.656	-0.174	-0.360
-667.047	-200.000	0.003	0.093
-666.032	144.011	0.151	0.202
-665.018	-200.000	0.018	-0.103
-664.003	332.040	0.102	-0.198
-662.989	-200.000	0.024	-0.192
-661.974	-65.506	-0.109	0.044
-660.959	-38.969	-0.171	-0.091
-659.945	-200.000	-0.050	-0.272
-658.930	-200.000	0.027	-0.196
-657.916	-107.884	0.128	-0.028
-656.901	800.000	0.027	0.076
-655.886	117.382	-0.268	-0.332
-654.872	64.986	-0.027	0.028
-653.857	-32.393	0.073	-0.041
-652.843	-133.109	0.188	0.024
-651.828	91.421	0.140	-0.158
-650.814	695.940	-0.054	-0.142
-649.799	-179.468	-0.047	0.001
-648.784	-200.000	0.015	0.090
-647.770	-113.078	-0.433	-0.086
-646.755	1.648	0.320	0.232
-645.741	800.000	-0.027	-0.079
-644.726	-200.000	-0.022	-0.164
-643.711	-87.880	-0.098	0.030
-642.697	146.426	0.140	0.189
-641.682	-30.198	0.175	-0.100
-640.668	-176.044	-0.265	0.007
-639.653	-49.977	-0.290	-0.138
-638.638	10.099	-0.313	-0.239
-637.624	-200.000	0.046	-0.554
-636.609	349.139	-0.007	0.013
-635.595	-137.637	-0.278	0.031
-634.580	-44.083	0.232	0.117
-633.565	70.175	0.343	0.356
-632.551	-149.040	-0.198	-0.016
-631.536	-24.320	-0.148	-0.089
-630.522	-95.662	-0.180	0.048
-629.507	151.030	-0.136	-0.186
-628.492	800.000	-0.085	0.296
-627.478	-122.263	0.060	-0.010
-626.463	-19.815	0.045	-0.028
-625.449	-93.736	0.499	-0.138
-624.434	18.236	0.082	0.066
-623.419	707.865	-0.086	0.230
-622.405	96.102	0.249	-0.286
-621.390	-200.000	0.037	0.381
-620.376	-200.000	0.030	0.445
-619.361	-133.778	0.008	0.001
-618.346	188.368	0.035	0.053
-617.332	424.926	-0.050	-0.109
-616.317	34.689	-0.211	-0.185
-615.303	-70.970	0.153	-0.058
-614.288	120.587	-0.017	0.022
-613.273	-143.414	0.402	-0.039
-612.259	117.700	0.187	-0.231
-611.244	-13.837	-0.379	-0.246
-610.230	-200.000	-0.013	-0.154
-609.215	91.322	0.043	0.049
-608.201	149.324	-0.163	0.222
-607.186	-149.020	0.298	-0.024
-606.171	-200.000	-0.004	0.177
-605.157	521.161	0.067	0.159
-604.142	117.781	0.298	0.368
-603.128	-180.302	-0.311	0.007
-602.113	199.186	-0.179	0.276
-601.098	102.742	-0.116	-0.136
-600.084	-200.000	0.003	0.022
-599.069	602.475	-0.052	0.129
-598.055	-166.683	-0.384	-0.016
-597.040	605.000	-0.103	0.257
-596.025	68.160	-0.075	0.077
-595.011	211.478	0.132	0.209
-593.996	86.464	0.266	-0.294
-592.982	486.221	-0.080	0.183
-591.967	-56.094	0.146	0.065
-590.952	8.373	0.113	0.085
-589.938	-14.814	-0.152	0.098
-588.923	-145.167	0.232	0.021
-587.909	283.918	0.048	0.086
-586.894	-200.000	0.014	-0.187
-585.879	800.000	-0.030	-0.114
-584.865	-2.696	0.147	-0.103
-583.850	800.000	0.103	-0.307
-582.836	188.537	0.083	0.125
-581.821	-35.477	-0.097	0.053
-580.806	25.331	0.070	0.059
-579.792	335.220	-0.147	-0.286
-578.777	-93.984	-0.207	0.057
-577.763	-72.663	0.079	0.029
-576.748	-200.000	0.019	0.265
-575.733	16.462	-0.173	-0.137
-574.719	-52.317	0.196	-0.091
-573.704	-174.813	-0.055	-0.002
-572.690	800.000	0.081	0.341
-571.675	5.485	0.083	-0.062
-570.661	571.268	-0.069	0.169
-569.646	-157.963	0.177	-0.010
-568.631	62.991	0.085	-0.086
-567.617	-3.897	-0.162	-0.113
-566.602	370.148	0.097	0.198
-565.588	108.299	-0.051	-0.061
-564.573	-200.000	0.013	0.161
-563.558	800.000	0.049	0.160
-562.544	-200.000	0.006	-0.125
-561.529	-64.154	0.030	0.012
-560.515	-60.356	-0.100	0.043
-559.500	98.224	0.167	-0.193
-558.485	-109.064	-0.178	-0.038
-557.471	244.947	-0.083	0.140
-556.456	-53.986	-0.085	0.039
-555.442	175.989	-0.154	-0.224
-554.427	37.652	-0.090	-0.080
-553.412	-4.048	-0.265	-0.184
-552.398	194.834	0.148	-0.224
-551.383	-200.000	-0.030	0.180
-550.369	294.736	-0.082	0.151
-549.354	777.536	-0.072	-0.198
-548.339	-200.000	0.010	-0.086
-547.325	800.000	-0.068	-0.243
-546.310	-74.820	-0.155	0.056
-545.296	-200.000	0.048	-0.328
-544.281	-80.061	-0.038	-0.013
-543.266	170.486	0.128	0.184
-542.252	-36.128	-0.146	-0.079
-541.237	-56.175	0.300	-0.134
-540.223	-200.000	0.050	0.252
-539.208	800.000	-0.149	0.466
-538.193	232.404	-0.125	-0.206
-537.179	-133.394	0.270	0.034
-536.164	-92.238	-0.455	0.128
-535.150	359.311	-0.026	0.053
-534.135	418.024	-0.033	0.070
-533.121	-132.107	-0.214	0.028
-532.106	48.487	0.078	-0.074
-531.091	386.501	0.030	0.063
-530.077	48.021	-0.332	-0.310
-529.062	-192.383	0.213	-0.002
-528.048	628.052	0.084	0.213
-527.033	111.517	0.047	-0.056
-526.018	-200.000	0.012	0.122
-525.004	-129.097	0.232	0.032
-523.989	316.694	-0.038	-0.072
-522.975	772.232	0.040	0.110
-521.960	-20.069	0.103	0.063
-520.945	-76.542	0.138	-0.048
-519.931	-33.237	-0.119	0.066
-518.916	-200.000	-0.021	0.236
-517.902	-113.265	-0.157	0.031
-516.887	-62.915	-0.318	-0.132
-515.872	-64.715	-0.016	-0.006
-514.858	54.658	-0.269	0.260
-513.843	-11.616	-0.307	0.202
-512.829	-104.879	0.189	0.043
-511.814	216.943	0.062	-0.099
-510.799	268.464	-0.117	-0.204
-509.785	800.000	0.159	-0.479
-508.770	-40.332	-0.254	0.132
-507.756	-50.587	-0.405	-0.191
-506.741	-25.509	0.086	-0.051
-505.726	354.126	0.085	-0.170
-504.712	-83.941	-0.206	-0.065
-503.697	-102.833	0.067	-0.016
-502.683	-123.050	0.149	0.024
-501.668	437.474	-0.065	-0.142
-500.653	-134.603	0.135	-0.016
-499.639	-200.000	0.015	0.191
-498.624	54.540	-0.090	0.087
-497.610	66.395	0.218	0.221
-496.595	-40.615	-0.284	0.147
-495.581	-102.606	-0.115	0.027
-494.566	35.566	0.144	0.127
-493.551	-200.000	0.056	0.370
-492.537	800.000	-0.059	0.203
-491.522	800.000	0.092	0.305
-490.508	-102.787	-0.155	-0.037
-489.493	-200.000	-0.028	-0.204
-488.478	-35.645	0.196	0.106
-487.464	517.072	-0.022	-0.050
-486.449	-169.020	0.042	0.002
-485.435	493.752	-0.086	0.198
-484.420	-125.337	0.062	-0.009
-483.405	-73.197	-0.274	0.100
-482.391	98.268	-0.149	0.171
-481.376	118.175	0.078	0.096
-480.362	37.775	0.195	-0.173
-479.347	115.733	-0.076	-0.092
-478.332	56.327	-0.289	-0.281
-477.318	800.000	0.102	-0.287
-476.303	-162.120	-0.126	0.006
-475.289	68.901	0.179	-0.184
-474.274	-200.000	0.014	0.127
-473.259	-32.368	0.249	-0.139
-472.245	83.818	0.111	0.121
-471.230	83.885	-0.167	-0.182
-470.216	-14.699	-0.027	0.017
-469.201	-15.976	-0.170	-0.108
-468.186	-3.269	0.017	-0.012
-467.172	-106.395	-0.155	0.035
-466.157	-165.507	-0.101	-0.004
-465.143	566.663	-0.042	-0.101
-464.128	19.789	0.268	-0.216
-463.113	105.266	0.077	-0.091
-462.099	-93.105	-0.171	-0.047
-461.084	-15.397	0.065	0.042
-460.070	67.774	0.074	-0.076
-459.055	330.797	-0.076	-0.145
-458.040	-95.493	-0.377	-0.101
-457.026	88.067	-0.040	-0.044
-456.011	-17.864	-0.356	0.223
-454.997	120.362	-0.070	-0.086
-453.982	30.166	-0.081	0.069
-452.968	-125.902	0.283	0.042
-451.953	388.359	-0.092	-0.190
-450.938	140.825	-0.139	0.183
-449.924	-200.000	0.080	-0.352
-448.909	111.368	-0.111	-0.134
-447.895	635.316	-0.040	-0.101
-446.880	585.637	0.072	0.176
-445.865	-63.307	0.324	-0.133
-444.851	-200.000	-0.010	-0.194
-443.836	89.488	-0.078	-0.087
-442.822	11.818	0.208	0.159
-441.807	-69.100	-0.173	-0.066
-440.792	-146.019	0.212	-0.019
-439.778	-200.000	0.040	0.236
-438.763	800.000	0.075	-0.236
-437.749	318.955	0.179	0.338
-436.734	256.035	-0.208	-0.356
-435.719	-200.000	0.127	0.583
-434.705	-75.244	0.273	0.097
-433.690	26.795	-0.164	0.137
-432.676	-132.379	0.223	0.029
-431.661	53.597	0.175	-0.167
-430.646	-200.000	0.012	0.076
-429.632	360.651	0.102	-0.203
-428.617	69.055	-0.096	0.099
-427.603	-14.713	0.247	0.158
-426.588	47.075	0.237	0.220
-425.573	625.283	0.084	-0.212
-424.559	-200.000	-0.027	-0.416
-423.544	59.584	0.147	0.145
-422.530	330.494	0.142	-0.272
-421.515	-112.691	0.114	-0.023
-420.500	800.000	-0.039	-0.170
-419.486	-200.000	0.020	0.110
-418.471	-12.489	0.195	0.127
-417.457	-33.679	0.044	-0.024
-416.442	342.591	0.119	-0.232
-415.428	-143.382	-0.242	-0.023
-414.413	191.217	0.151	0.226
-413.398	-33.462	-0.043	0.024
-412.384	90.124	-0.119	-0.132
-411.369	226.126	0.127	-0.205
-410.355	-9.085	-0.287	0.191
-409.340	149.312	0.029	0.039
-408.325	8.569	0.264	0.198
-407.311	-200.000	-0.008	-0.287
-406.296	488.782	-0.105	-0.239
-405.282	-85.480	0.147	0.046
-404.267	60.714	0.138	-0.137
-403.252	800.000	-0.017	0.071
-402.238	-53.699	-0.275	0.125
-401.223	-174.549	0.488	0.014
-400.209	710.861	0.114	-0.300
-399.194	249.709	-0.185	-0.312
-398.179	16.351	0.046	-0.036
-397.165	-200.000	-0.023	0.175
-396.150	-46.189	0.089	-0.044
-395.136	-190.749	-0.105	0.001
-394.121	29.281	-0.074	-0.063
-393.106	800.000	-0.084	0.278
-392.092	-55.582	-0.247	-0.110
-391.077	800.000	0.007	0.031
-390.063	2.132	-0.016	-0.011
-389.048	800.000	-0.086	-0.243
-388.033	-200.000	0.010	0.325
-387.019	-150.715	-0.158	-0.012
-386.004	99.802	0.267	0.307
-384.990	-200.000	-0.015	0.134
-383.975	117.947	0.016	0.020
-382.960	150.939	-0.167	0.226
-381.946	-173.041	-0.097	-0.003
-380.931	737.482	-0.130	-0.346
-379.917	-69.833	-0.155	-0.059
-378.902	-200.000	0.012	0.063
-377.888	-80.922	0.142	0.047
-376.873	-142.435	-0.096	0.009
-375.858	184.930	0.106	-0.156
-374.844	-200.000	-0.017	-0.149
-373.829	-50.102	0.198	0.093
-372.815	67.024	-0.054	-0.054
-371.800	-126.010	0.058	-0.009
-370.785	61.610	-0.279	0.277
-369.771	-61.487	0.052	-0.022
-368.756	-111.583	0.060	-0.012
-367.742	-200.000	-0.027	-0.245
-366.727	236.904	-0.116	-0.191
-365.712	-25.384	-0.045	-0.027
-364.698	-0.094	-0.048	-0.034
-363.683	-91.271	0.279	0.079
-362.669	603.109	-0.042	-0.103
-361.654	82.253	0.091	-0.098
-360.639	-200.000	0.039	0.345
-359.625	-54.490	0.160	-0.072
-358.610	171.215	0.157	-0.224
-357.596	32.782	0.188	-0.162
-356.581	46.527	-0.127	0.117
-355.566	379.981	-0.146	-0.297
-354.552	800.000	0.079	-0.221
-353.537	122.825	-0.143	0.178
-352.523	-200.000	0.043	0.376
-351.508	216.324	0.137	0.217
-350.493	278.745	-0.120	-0.213
-349.479	-200.000	-0.011	-0.206
-348.464	800.000	-0.119	-0.347
-347.450	-139.993	0.342	-0.036
-346.435	-78.003	-0.130	-0.044
-345.420	274.805	0.092	-0.161
-344.406	655.501	-0.052	-0.132
-343.391	147.634	0.057	0.077
-342.377	11.155	0.155	0.118
-341.362	800.000	-0.022	-0.078
-340.348	186.365	-0.079	-0.117
-339.333	-152.501	-0.200	-0.014
-338.318	-41.174	-0.303	0.155
-337.304	-38.218	0.157	-0.083
-336.289	799.650	-0.035	0.095
-335.275	-200.000	0.022	-0.278
-334.260	-200.000	-0.021	0.104
-333.245	-156.351	-0.256	-0.016
-332.231	-200.000	-0.024	0.151
-331.216	-167.208	0.266	0.011
-330.202	-13.683	-0.076	0.049
-329.187	-115.441	-0.256	-0.048
-328.172	-54.241	0.263	0.118
-327.158	248.126	0.079	-0.133
-326.143	730.046	-0.056	-0.148
-325.129	45.109	0.279	0.256
-324.114	752.410	0.114	0.305
-323.099	-200.000	0.018	0.170
-322.085	-92.169	-0.067	0.019
-321.070	-200.000	0.063	0.299
-320.056	800.000	0.036	-0.131
-319.041	6.660	0.047	0.035
-318.026	-79.156	0.345	0.116
-317.012	772.760	0.067	0.182
-315.997	-82.970	0.425	0.136
-314.983	182.986	-0.069	-0.101
-313.968	116.769	-0.123	-0.150
-312.953	-200.000	-0.029	-0.167
-311.939	48.696	0.177	0.165
-310.924	-200.000	-0.035	0.236
-309.910	642.314	0.117	0.295
-308.895	-142.665	-0.247	-0.024
-307.880	308.440	-0.115	-0.214
-306.866	5.463	0.400	-0.293
-305.851	330.851	-0.050	0.096
-304.837	14.153	-0.073	0.056
-303.822	-71.581	-0.103	-0.038
-302.807	151.418	0.299	0.404
-301.793	370.435	0.053	-0.106
-300.778	345.739	-0.103	-0.202
-299.764	-60.016	0.162	-0.069
-298.749	64.020	-0.188	-0.187
-297.735	-10.437	-0.555	-0.365
-296.720	-30.443	-0.134	-0.075
-295.705	128.549	0.204	-0.258
-294.691	-172.425	-0.212	-0.007
-293.676	800.000	0.096	-0.289
-292.662	-200.000	0.015	0.169
-291.647	-200.000	-0.009	-0.314
-290.632	-200.000	-0.023	-0.101
-289.618	-135.816	0.320	-0.038
-288.603	-156.432	0.315	0.019
-287.589	85.156	-0.229	-0.249
-286.574	-200.000	-0.014	0.143
-285.559	371.510	0.097	-0.196
-284.545	-15.693	-0.158	-0.100
-283.530	-200.000	-0.014	-0.136
-282.516	-200.000	0.035	-0.192
-281.501	-200.000	-0.013	0.269
-280.486	94.980	-0.136	-0.153
-279.472	800.000	0.098	-0.288
-278.457	-10.369	-0.105	0.069
-277.443	280.793	-0.066	0.117
-276.428	663.166	-0.120	0.307
-275.413	241.614	-0.123	0.204
-274.399	-170.546	-0.229	-0.008
-273.384	-22.779	-0.164	-0.098
-272.370	-200.000	-0.012	-0.156
-271.355	-12.651	-0.302	0.195
-270.340	800.000	-0.033	-0.131
-269.326	154.477	-0.108	-0.147
-268.311	-143.327	-0.293	-0.028
-267.297	-147.637	0.115	0.010
-266.282	-200.000	0.005	-0.112
-265.267	-109.575	0.379	-0.079
-264.253	-137.361	0.192	0.022
-263.238	800.000	-0.079	0.275
-262.224	-11.876	-0.329	0.214
-261.209	177.261	0.040	0.058
-260.195	-200.000	0.018	0.314
-259.180	74.439	-0.275	0.287
-258.165	800.000	0.039	-0.143
-257.151	-55.547	0.227	-0.101
-256.136	71.906	0.149	-0.154
-255.122	69.803	-0.149	-0.152
-254.107	-200.000	0.036	0.176
-253.092	-28.221	-0.394	0.225
-252.078	-200.000	0.020	0.108
-251.063	47.538	0.089	0.082
-250.049	-200.000	-0.005	0.220
-249.034	-24.621	-0.239	-0.141
-248.019	-9.569	-0.191	-0.126
-247.005	-56.701	0.373	-0.163
-245.990	-200.000	0.082	0.359
-244.976	-168.543	0.321	-0.012
-243.961	-10.657	-0.236	0.155
-242.946	-126.890	0.124	0.018
-241.932	387.881	-0.018	0.038
-240.917	20.686	0.264	-0.212
-239.903	-144.416	0.175	-0.016
-238.888	-200.000	-0.021	-0.154
-237.873	800.000	0.063	0.215
-236.859	-200.000	0.002	0.031
-235.844	44.866	-0.270	0.246
-234.830	-89.087	0.297	0.087
-233.815	92.090	0.042	0.047
-232.800	-61.571	-0.095	0.040
-231.786	-28.932	0.218	0.124
-230.771	-7.714	0.246	-0.164
-229.757	-200.000	0.068	0.321
-228.742	735.545	-0.061	0.161
-227.727	-44.808	-0.345	0.170
-226.713	619.538	0.078	-0.194
-225.698	53.353	-0.137	0.130
-224.684	20.785	0.277	-0.222
-223.669	42.496	-0.212	0.191
-222.655	252.414	0.043	0.073
-221.640	-200.000	-0.051	0.289
-220.625	-200.000	0.014	-0.129
-219.611	-200.000	-0.009	-0.205
-218.596	167.584	-0.069	-0.097
-217.582	173.596	0.161	0.230
-216.567	-79.658	0.110	0.037
-215.552	-54.159	-0.291	-0.131
-214.538	85.589	-0.043	-0.047
-213.523	48.737	0.414	-0.384
-212.509	107.212	0.193	0.227
-211.494	-95.752	-0.192	-0.051
-210.479	800.000	0.069	-0.199
-209.465	-200.000	0.075	0.387
-208.450	-41.672	0.258	-0.131
-207.436	374.403	0.120	0.242
-206.421	-125.704	-0.352	-0.053
-205.406	-200.000	0.001	-0.008
-204.392	251.681	-0.186	0.314
-203.377	-49.233	0.170	-0.080
-202.363	800.000	0.039	-0.134
-201.348	800.000	0.138	-0.446
-200.333	54.837	-0.186	-0.177
-199.319	-194.975	0.137	-0.001
-198.304	52.374	-0.213	0.201
-197.290	109.950	-0.145	0.172
-196.275	69.046	-0.125	0.127
-195.260	-108.940	0.132	-0.028
-194.246	30.603	-0.149	0.126
-193.231	151.589	-0.212	-0.286
-192.217	-40.167	0.044	0.023
-191.202	-91.921	-0.245	-0.069
-190.187	33.723	-0.158	0.136
-189.173	-191.627	0.272	0.003
-188.158	-200.000	-0.010	0.154
-187.144	-0.573	0.048	0.034
-186.129	-116.329	0.161	0.029
-185.114	-196.460	0.310	0.002
-184.100	154.350	-0.009	0.012
-183.085	-6.453	-0.168	-0.113
-182.071	-200.000	-0.003	-0.129
-181.056	139.111	0.110	-0.142
-180.042	-116.634	0.097	0.018
-179.027	800.000	0.058	-0.234
-178.012	622.679	-0.063	0.158
-176.998	-200.000	-0.075	0.435
-175.983	226.868	-0.114	-0.182
-174.969	800.000	-0.030	0.125
-173.954	-198.699	0.148	-0.001
-172.939	-34.909	-0.287	-0.155
-171.925	-99.337	-0.055	-0.014
-170.910	341.605	0.144	-0.279
-169.896	-154.975	0.422	0.027
-168.881	-135.599	0.199	-0.023
-167.866	-200.000	0.014	0.285
-166.852	-4.570	0.041	0.028
-165.837	-72.379	0.162	-0.059
-164.823	405.739	0.097	0.202
-163.808	-182.339	0.061	0.001
-162.793	25.997	-0.195	0.160
-161.779	800.000	-0.065	-0.194
-160.764	-200.000	0.068	-0.372
-159.750	800.000	-0.164	0.446
-158.735	-169.226	-0.167	-0.006
-157.720	-88.342	0.341	0.101
-156.706	-200.000	-0.024	-0.129
-155.691	516.421	-0.056	0.129
-154.677	375.199	-0.055	-0.111
-153.662	-200.000	0.041	-0.190
-152.647	273.477	0.047	0.082
-151.633	10.582	-0.026	-0.019
-150.618	-63.699	-0.200	0.081
-149.604	447.110	-0.062	-0.136
-148.589	800.000	0.116	-0.447
-147.574	-106.719	0.107	-0.024
-146.560	181.014	-0.015	0.022
-145.545	-144.143	0.421	0.039
-144.531	-200.000	-0.024	0.121
-143.516	-92.832	-0.185	0.051
-142.502	127.648	0.190	0.237
-141.487	28.321	-0.163	-0.136
-140.472	-84.049	0.199	0.062
-139.458	-200.000	0.007	0.101
-138.443	-200.000	0.027	-0.263
-137.429	-130.515	-0.259	0.035
-136.414	-70.001	-0.121	0.045
-135.399	182.948	0.170	0.247
-134.385	-187.871	0.150	0.002
-133.370	-200.000	0.012	0.330
-132.356	-60.554	0.339	0.142
-131.341	-63.082	-0.163	0.066
-130.326	-200.000	-0.009	-0.157
-129.312	-200.000	0.046	0.224
-128.297	6.712	0.173	0.127
-127.283	-165.415	0.095	0.004
-126.268	225.267	0.045	0.071
-125.253	42.571	0.268	-0.241
-124.239	105.784	0.235	0.274
-123.224	353.124	-0.080	-0.157
-122.210	206.656	0.180	-0.276
