DTS Sentinel unit serial number:	SN413079Multiplexer serial number:	ORYXHardware model number:	OX4-SRSoftware version number:	ORYX F/W v4.00 Oryx Data Collector v3.7.2.0data status	okinstallation	princeton_trtdifferential loss correction	single-endedforward channel	channel 1reverse channel	N/Adate	2019/09/13time	07:38:35forward acquisition time	60.00reverse acquisition time	0.00gamma	496.2192k internal	0.2334k external	0.2334temperature offset calibration	1.0163default loss term (dB/km)	0.3790temperature slope calibration	1.0000multiplexer offset coefficient	1.0000multiplexer slope coefficient	1.0000fibre end	0.00T internal ref (°C)	26.31T ext. ref 1 (°C)	4.20T ext. ref 2 (°C)	22.26length (m)	temperature (°C)	Stokes	anti-Stokes-747.200	-24.664	0.059	-0.035
-746.185	-200.000	-0.002	-0.032
-745.171	-128.562	-0.529	-0.075
-744.156	-89.918	-0.142	0.042
-743.142	-200.000	0.048	0.214
-742.127	-19.554	-0.164	-0.102
-741.112	204.044	0.152	-0.237
-740.098	-1.608	-0.322	0.228
-739.083	-55.771	-0.271	-0.122
-738.069	-102.711	0.111	-0.027
-737.054	223.548	0.150	0.243
-736.039	-158.644	-0.330	0.019
-735.025	-167.531	-0.169	0.007
-734.010	-61.773	-0.172	-0.072
-732.996	-32.482	0.031	-0.018
-731.981	-199.652	-0.129	0.001
-730.966	51.153	0.082	-0.078
-729.952	400.153	-0.051	-0.107
-728.937	-200.000	0.029	-0.155
-727.923	800.000	0.035	-0.144
-726.908	-200.000	0.022	-0.109
-725.894	-117.710	-0.129	-0.023
-724.879	-32.125	-0.221	-0.124
-723.864	-200.000	0.007	-0.271
-722.850	68.162	-0.184	-0.189
-721.835	-200.000	0.036	0.298
-720.821	563.862	-0.124	-0.302
-719.806	-50.689	0.203	-0.096
-718.791	-2.258	-0.256	-0.180
-717.777	-49.969	-0.179	-0.085
-716.762	690.414	0.073	0.191
-715.748	7.681	0.220	-0.165
-714.733	-96.520	-0.494	-0.131
-713.718	126.779	-0.096	-0.122
-712.704	451.799	-0.086	-0.191
-711.689	-97.608	-0.181	0.047
-710.675	52.619	-0.324	0.310
-709.660	-92.679	0.134	-0.038
-708.645	-200.000	-0.015	-0.165
-707.631	-200.000	-0.000	-0.177
-706.616	367.807	0.112	-0.227
-705.602	-91.995	0.230	-0.065
-704.587	337.706	0.122	0.239
-703.572	800.000	-0.043	0.145
-702.558	800.000	-0.091	0.351
-701.543	-122.336	-0.199	0.033
-700.529	6.073	0.185	-0.137
-699.514	82.559	0.098	0.107
-698.499	-171.942	-0.293	-0.010
-697.485	-200.000	0.007	0.297
-696.470	464.032	-0.078	0.175
-695.456	37.789	0.068	0.061
-694.441	-42.306	0.174	-0.089
-693.426	-107.956	-0.176	-0.038
-692.412	-200.000	-0.050	-0.226
-691.397	800.000	0.083	-0.355
-690.383	18.804	-0.351	-0.282
-689.368	146.754	0.231	0.312
-688.354	-30.409	0.243	-0.138
-687.339	345.874	0.155	-0.306
-686.324	800.000	-0.090	-0.282
-685.310	205.027	-0.080	0.124
-684.295	-34.841	-0.268	0.147
-683.281	98.022	0.031	-0.036
-682.266	-200.000	-0.035	0.228
-681.251	276.928	-0.139	0.247
-680.237	-50.719	-0.128	0.060
-679.222	94.307	0.189	-0.215
-678.208	-2.187	0.086	-0.061
-677.193	-165.157	0.112	-0.005
-676.178	800.000	-0.046	-0.143
-675.164	272.503	0.117	0.206
-674.149	19.502	0.244	-0.197
-673.135	163.844	-0.080	-0.113
-672.120	234.055	-0.114	-0.189
-671.105	302.532	0.093	-0.173
-670.091	25.976	-0.203	0.170
-669.076	330.616	-0.054	-0.105
-668.062	207.581	0.081	-0.126
-667.047	-200.000	-0.017	-0.080
-666.032	-99.088	-0.278	-0.071
-665.018	800.000	-0.069	-0.268
-664.003	-200.000	0.045	-0.296
-662.989	417.960	0.198	-0.424
-661.974	107.243	0.274	-0.326
-660.959	393.157	0.109	0.226
-659.945	800.000	-0.097	0.278
-658.930	59.947	0.195	0.193
-657.916	2.231	-0.226	-0.164
-656.901	-57.369	0.142	-0.062
-655.886	42.916	-0.392	0.358
-654.872	61.139	0.106	-0.105
-653.857	123.854	-0.177	-0.223
-652.843	-42.167	-0.140	-0.072
-651.828	-101.112	-0.195	0.048
-650.814	800.000	-0.090	0.251
-649.799	800.000	-0.061	0.192
-648.784	-131.012	-0.309	0.041
-647.770	-200.000	-0.006	0.099
-646.755	332.114	0.067	0.129
-645.741	345.521	0.055	0.107
-644.726	654.841	0.079	0.202
-643.711	-200.000	-0.080	-0.354
-642.697	-82.370	-0.289	0.094
-641.682	-134.026	-0.243	0.030
-640.668	-160.464	-0.148	-0.008
-639.653	355.681	-0.071	-0.142
-638.638	26.099	-0.081	-0.068
-637.624	88.833	-0.184	0.204
-636.609	-169.896	0.097	0.003
-635.595	-200.000	-0.002	0.024
-634.580	-104.218	-0.128	-0.030
-633.565	13.929	-0.132	-0.102
-632.551	-169.606	-0.223	-0.008
-631.536	336.560	-0.111	-0.216
-630.522	-116.050	0.337	0.063
-629.507	-148.831	-0.478	0.039
-628.492	-64.672	0.257	0.104
-627.478	-137.716	-0.143	-0.016
-626.463	-200.000	0.007	-0.166
-625.449	-200.000	-0.038	-0.192
-624.434	424.525	0.147	-0.317
-623.419	-200.000	0.017	-0.113
-622.405	-142.638	0.235	-0.023
-621.390	-200.000	0.039	0.225
-620.376	74.879	0.084	-0.089
-619.361	379.353	-0.124	-0.253
-618.346	-200.000	0.005	0.057
-617.332	-78.906	-0.160	0.054
-616.317	-122.516	0.422	-0.069
-615.303	-183.848	0.363	-0.006
-614.288	-37.712	-0.143	-0.076
-613.273	-108.063	-0.398	0.086
-612.259	-54.876	-0.040	0.018
-611.244	-84.852	0.171	0.054
-610.230	103.978	-0.124	0.145
-609.215	-188.323	0.358	-0.005
-608.201	800.000	-0.056	0.215
-607.186	-13.517	-0.147	-0.095
-606.171	114.312	-0.027	0.032
-605.157	-7.949	0.197	0.133
-604.142	230.097	-0.081	-0.133
-603.128	-109.788	-0.150	-0.031
-602.113	-46.185	-0.097	0.048
-601.098	474.574	0.059	0.134
-600.084	-160.310	-0.238	-0.013
-599.069	-200.000	-0.016	-0.130
-598.055	100.618	-0.178	0.207
-597.040	38.408	-0.194	-0.173
-596.025	-98.435	0.469	0.120
-595.011	-126.304	0.159	-0.024
-593.996	435.352	0.180	0.391
-592.982	-152.820	-0.114	-0.008
-591.967	-137.067	-0.340	-0.039
-590.952	-200.000	0.004	-0.290
-589.938	37.083	-0.133	-0.118
-588.923	5.927	-0.111	0.082
-587.909	-27.270	0.191	-0.111
-586.894	-61.932	0.070	0.029
-585.879	-167.297	-0.153	-0.006
-584.865	-123.000	0.455	-0.073
-583.850	-15.267	-0.090	0.058
-582.836	30.761	-0.374	-0.320
-581.821	-159.515	-0.338	0.019
-580.806	-72.383	0.024	-0.009
-579.792	-75.054	-0.468	-0.167
-578.777	800.000	0.105	0.332
-577.763	-95.764	0.068	0.018
-576.748	-104.059	0.301	0.070
-575.733	41.674	-0.243	0.219
-574.719	-139.547	-0.189	-0.020
-573.704	22.440	-0.108	0.088
-572.690	62.868	-0.163	-0.163
-571.675	11.186	-0.104	0.079
-570.661	200.804	0.041	-0.063
-569.646	-200.000	0.042	0.363
-568.631	-193.693	0.252	-0.002
-567.617	-110.131	0.296	-0.062
-566.602	800.000	0.093	-0.263
-565.588	800.000	0.103	0.295
-564.573	226.553	-0.121	0.195
-563.558	472.493	0.105	0.236
-562.544	-91.054	0.120	-0.034
-561.529	138.317	0.108	-0.142
-560.515	-200.000	-0.021	0.212
-559.500	152.273	0.235	-0.320
-558.485	-58.768	-0.375	-0.162
-557.471	-53.340	0.276	0.126
-556.456	167.847	-0.055	-0.078
-555.442	-98.464	0.174	0.044
-554.427	-5.369	-0.069	0.047
-553.412	-116.702	-0.312	0.057
-552.398	-200.000	-0.031	0.225
-551.383	-7.487	-0.246	-0.166
-550.369	-167.104	0.389	-0.016
-549.354	-200.000	-0.042	-0.278
-548.339	-200.000	0.057	-0.268
-547.325	107.633	-0.126	0.150
-546.310	-87.413	-0.195	0.059
-545.296	-200.000	-0.005	0.203
-544.281	-167.151	-0.160	0.006
-543.266	-56.574	-0.139	-0.061
-542.252	-109.699	-0.037	-0.008
-541.237	-140.224	-0.183	0.019
-540.223	-88.572	-0.290	0.086
-539.208	49.557	-0.133	-0.125
-538.193	11.177	-0.040	-0.031
-537.179	-38.338	-0.039	-0.020
-536.164	85.183	0.135	-0.148
-535.150	472.135	0.090	-0.203
-534.135	-124.468	0.238	0.037
-533.121	-138.482	0.280	0.031
-532.106	800.000	-0.065	0.199
-531.091	-130.860	0.139	-0.018
-530.077	-115.899	-0.246	0.046
-529.062	-64.579	0.058	-0.023
-528.048	-200.000	-0.007	-0.122
-527.033	663.468	-0.045	-0.115
-526.018	27.743	0.145	-0.122
-525.004	800.000	0.071	0.223
-523.989	670.864	0.117	-0.301
-522.975	405.869	-0.121	-0.255
-521.960	-153.683	0.423	-0.029
-520.945	-48.686	-0.150	-0.072
-519.931	-0.846	0.036	0.025
-518.916	-100.016	0.132	0.033
-517.902	800.000	-0.025	0.071
-516.887	-200.000	0.049	-0.215
-515.872	-1.425	-0.370	-0.260
-514.858	139.850	0.176	-0.231
-513.843	288.979	0.156	0.281
-512.829	7.738	0.172	0.128
-511.814	-87.012	0.052	0.016
-510.799	-200.000	-0.011	-0.301
-509.785	-200.000	-0.005	0.029
-508.770	-200.000	-0.003	0.019
-507.756	57.158	0.061	0.059
-506.741	653.999	0.065	0.166
-505.726	118.294	0.023	-0.028
-504.712	19.241	0.244	0.195
-503.697	-200.000	0.004	0.081
-502.683	135.213	0.231	-0.299
-501.668	-21.209	-0.447	0.272
-500.653	524.985	-0.115	0.269
-499.639	264.010	-0.104	-0.180
-498.624	-94.171	0.218	0.059
-497.610	-111.681	-0.140	0.028
-496.595	-200.000	-0.026	-0.365
-495.581	-52.417	-0.152	-0.070
-494.566	9.073	-0.354	-0.266
-493.551	-100.877	-0.154	-0.038
-492.537	-96.142	0.090	-0.024
-491.522	-65.464	0.240	0.096
-490.508	-47.625	0.098	0.047
-489.493	389.279	0.082	0.169
-488.478	800.000	-0.042	-0.157
-487.464	-200.000	-0.017	0.134
-486.449	368.690	-0.116	0.233
-485.435	79.922	-0.073	0.078
-484.420	-200.000	0.045	-0.255
-483.405	-179.811	0.128	-0.003
-482.391	-200.000	-0.012	-0.142
-481.376	-38.855	0.447	0.234
-480.362	-105.319	-0.179	0.040
-479.347	28.614	-0.011	0.009
-478.332	-163.201	-0.294	0.014
-477.318	-47.322	0.335	-0.162
-476.303	-7.481	-0.329	-0.222
-475.289	-72.007	-0.132	-0.049
-474.274	292.684	-0.081	0.146
-473.259	197.771	0.116	-0.176
-472.245	258.210	-0.031	-0.054
-471.230	109.077	0.100	-0.118
-470.216	-160.412	0.146	-0.008
-469.201	143.897	-0.083	-0.111
-468.186	-79.810	0.123	0.041
-467.172	-200.000	0.047	0.354
-466.157	598.971	0.044	-0.108
-465.143	137.817	-0.094	0.123
-464.128	-106.459	-0.199	0.044
-463.113	23.597	-0.148	0.121
-462.099	12.157	-0.408	0.312
-461.084	108.045	-0.369	0.437
-460.070	53.599	0.103	0.098
-459.055	-22.147	0.058	0.035
-458.040	194.507	0.146	-0.220
-457.026	-200.000	-0.023	0.111
-456.011	-52.638	0.181	-0.083
-454.997	72.733	-0.217	0.225
-453.982	-200.000	0.227	0.000
-452.968	-29.880	0.348	-0.197
-451.953	75.085	0.123	-0.129
-450.938	-89.207	-0.134	-0.039
-449.924	-110.740	0.207	-0.042
-448.909	-32.468	0.288	0.160
-447.895	-163.216	0.553	0.026
-446.880	-13.951	0.148	0.095
-445.865	-200.000	-0.083	-0.379
-444.851	-200.000	0.004	-0.200
-443.836	-5.623	0.106	0.072
-442.822	93.180	-0.207	0.232
-441.807	-16.950	0.270	0.169
-440.792	-58.390	-0.367	0.158
-439.778	350.379	0.131	0.258
-438.763	-105.896	0.209	-0.047
-437.749	6.562	0.251	-0.185
-436.734	-111.454	0.128	-0.026
-435.719	-200.000	-0.014	-0.326
-434.705	-174.709	0.104	0.003
-433.690	800.000	-0.045	-0.127
-432.676	-200.000	-0.019	0.257
-431.661	-41.665	-0.265	0.135
-430.646	-109.135	0.403	0.085
-429.632	-50.455	0.145	0.068
-428.617	-182.522	0.305	-0.006
-427.603	-126.562	0.390	0.057
-426.588	-83.177	0.330	0.105
-425.573	-200.000	-0.006	0.173
-424.559	-15.280	-0.354	-0.225
-423.544	800.000	0.028	0.086
-422.530	-107.076	-0.279	0.061
-421.515	-17.440	0.077	-0.048
-420.500	222.486	0.029	-0.047
-419.486	-67.407	0.135	0.053
-418.471	-9.438	0.123	0.082
-417.457	-48.445	0.272	0.130
-416.442	64.691	-0.207	0.207
-415.428	168.594	-0.185	-0.261
-414.413	113.092	-0.168	-0.202
-413.398	-96.944	0.263	0.068
-412.384	257.687	-0.041	-0.070
-411.369	269.471	0.192	-0.335
-410.355	800.000	-0.093	0.265
-409.340	-169.801	-0.048	-0.002
-408.325	16.124	-0.393	0.308
-407.311	12.900	-0.080	0.062
-406.296	24.870	-0.307	-0.253
-405.282	-28.495	-0.094	0.054
-404.267	-84.061	-0.250	-0.079
-403.252	800.000	-0.049	-0.141
-402.238	40.964	0.267	0.239
-401.223	-131.629	-0.452	-0.059
-400.209	215.000	0.069	0.109
-399.194	-97.503	-0.134	-0.035
-398.179	-76.352	0.197	0.069
-397.165	312.678	0.083	-0.155
-396.150	800.000	-0.118	-0.348
-395.136	-34.897	-0.252	0.136
-394.121	-73.530	0.278	-0.100
-393.106	-142.945	-0.083	0.008
-392.092	40.569	-0.155	0.139
-391.077	-160.350	-0.408	-0.022
-390.063	800.000	-0.079	0.320
-389.048	-74.450	-0.341	-0.122
-388.033	-162.647	0.444	0.022
-387.019	800.000	-0.010	0.041
-386.004	-46.131	-0.067	-0.033
-384.990	-43.972	-0.099	-0.049
-383.975	-5.357	0.090	-0.061
-382.960	42.596	-0.233	-0.210
-381.946	800.000	0.053	0.182
-380.931	-42.960	-0.145	-0.073
-379.917	4.357	-0.164	0.119
-378.902	-92.829	0.061	-0.017
-377.888	37.228	-0.218	-0.192
-376.873	-82.561	0.089	-0.029
-375.858	42.526	-0.184	-0.166
-374.844	40.259	0.311	-0.277
-373.829	123.830	-0.014	0.017
-372.815	-159.768	0.154	0.008
-371.800	-200.000	-0.046	-0.253
-370.785	262.727	0.148	0.254
-369.771	-159.465	-0.216	-0.012
-368.756	-200.000	0.018	-0.109
-367.742	3.183	-0.115	-0.083
-366.727	800.000	-0.072	-0.209
-365.712	-5.686	0.167	-0.114
-364.698	-156.769	0.096	-0.006
-363.683	800.000	-0.046	0.130
-362.669	-134.078	-0.203	0.025
-361.654	187.934	-0.124	0.184
-360.639	-2.115	0.247	-0.172
-359.625	520.323	-0.021	0.049
-358.610	-33.089	0.239	0.131
-357.596	-200.000	0.047	-0.225
-356.581	-128.393	-0.304	0.043
-355.566	-132.593	0.442	0.056
-354.552	-110.132	-0.273	0.056
-353.537	800.000	-0.085	-0.234
-352.523	-32.669	-0.271	0.149
-351.508	26.498	0.041	0.034
-350.493	-65.618	-0.207	0.082
-349.479	604.863	-0.095	-0.234
-348.464	-103.980	0.150	0.035
-347.450	-112.567	-0.192	-0.038
-346.435	800.000	-0.011	-0.037
-345.420	-64.194	0.226	0.091
-344.406	618.894	-0.059	-0.148
-343.391	31.131	-0.135	-0.114
-342.377	-46.359	-0.211	0.103
-341.362	-154.432	0.317	0.021
-340.348	-131.079	0.252	-0.033
-339.333	273.187	0.082	0.144
-338.318	-146.664	0.240	0.021
-337.304	-111.740	-0.025	-0.005
-336.289	57.388	-0.148	0.143
-335.275	200.271	0.114	-0.173
-334.260	800.000	-0.084	0.261
-333.245	446.054	-0.075	-0.162
-332.231	558.249	-0.108	-0.258
-331.216	-40.767	0.183	0.094
-330.202	-127.209	-0.076	-0.011
-329.187	800.000	-0.064	0.213
-328.172	693.512	0.077	0.199
-327.158	-200.000	0.008	0.158
-326.143	-40.076	-0.192	-0.099
-325.129	52.288	-0.036	0.034
-324.114	800.000	0.059	0.176
-323.099	-102.284	0.270	0.064
-322.085	23.386	0.349	0.283
-321.070	-200.000	0.017	-0.177
-320.056	301.305	0.190	-0.348
-319.041	-147.691	-0.133	-0.011
-318.026	-200.000	-0.050	-0.279
-317.012	70.620	-0.350	-0.357
-315.997	-200.000	-0.004	-0.215
-314.983	-28.452	-0.148	-0.084
-313.968	34.417	0.278	-0.240
-312.953	179.333	0.230	-0.333
-311.939	-94.559	-0.267	-0.072
-310.924	-171.982	0.054	0.002
-309.910	-26.121	0.240	0.139
-308.895	-200.000	-0.035	0.239
-307.880	-147.037	-0.364	0.031
-306.866	800.000	0.079	-0.244
-305.851	387.702	0.234	0.479
-304.837	-200.000	0.041	-0.218
-303.822	-200.000	0.063	0.368
-302.807	151.574	0.168	0.226
-301.793	-53.187	-0.417	-0.189
-300.778	-200.000	0.024	0.349
-299.764	-200.000	0.005	0.483
-298.749	-66.712	-0.024	-0.010
-297.735	53.585	-0.261	0.247
-296.720	-200.000	-0.024	0.366
-295.705	-200.000	0.002	-0.019
-294.691	-41.248	-0.127	0.065
-293.676	-124.672	-0.004	-0.001
-292.662	177.412	-0.119	-0.171
-291.647	-28.529	-0.147	0.084
-290.632	-41.515	0.198	0.101
-289.618	-68.732	0.208	-0.079
-288.603	204.780	-0.133	0.204
-287.589	772.237	0.121	0.326
-286.574	-27.644	-0.130	0.074
-285.559	47.805	0.239	0.220
-284.545	-200.000	-0.027	0.143
-283.530	-31.704	-0.232	-0.129
-282.516	52.996	0.059	-0.056
-281.501	183.930	-0.113	-0.165
-280.486	0.601	0.343	0.242
-279.472	800.000	-0.028	0.111
-278.457	-127.123	0.173	0.025
-277.443	-76.544	0.165	0.057
-276.428	-53.315	0.170	-0.077
-275.413	24.451	0.106	-0.086
-274.399	180.492	-0.109	0.158
-273.384	31.028	0.331	0.280
-272.370	-119.587	-0.406	0.069
-271.355	-24.034	-0.356	-0.210
-270.340	-56.081	-0.329	-0.144
-269.326	-99.312	-0.252	-0.063
-268.311	800.000	0.063	0.193
-267.297	-179.381	0.188	-0.004
-266.282	-116.408	0.298	-0.054
-265.267	44.160	0.160	-0.145
-264.253	-33.114	-0.026	-0.014
-263.238	-200.000	-0.004	0.129
-262.224	-83.467	0.273	0.086
-261.209	-117.432	-0.416	-0.074
-260.195	-94.745	0.198	-0.053
-259.180	157.218	0.116	0.158
-258.165	559.430	-0.179	-0.427
-257.151	108.913	0.142	0.167
-256.136	199.702	-0.235	-0.356
-255.122	160.540	-0.004	-0.005
-254.107	0.528	-0.063	0.045
-253.092	-78.855	-0.038	-0.013
-252.078	-200.000	-0.017	-0.276
-251.063	-30.164	0.160	0.090
-250.049	4.472	0.419	-0.303
-249.034	-38.008	0.100	-0.052
-248.019	-200.000	0.064	-0.291
-247.005	-200.000	0.036	-0.207
-245.990	-14.273	0.202	-0.128
-244.976	52.349	0.146	-0.138
-243.961	44.563	0.217	-0.197
-242.946	-102.328	-0.062	0.015
-241.932	800.000	-0.094	0.367
-240.917	71.591	-0.177	-0.181
-239.903	-23.802	0.147	0.087
-238.888	-151.018	0.101	-0.008
-237.873	184.730	0.182	-0.265
-236.859	-200.000	-0.004	0.180
-235.844	-200.000	0.003	0.097
-234.830	-200.000	0.008	-0.100
-233.815	475.814	-0.115	0.256
-232.800	315.754	0.123	0.229
-231.786	170.549	0.253	0.357
-230.771	-33.394	0.047	0.026
-229.757	78.567	-0.104	-0.109
-228.742	12.548	-0.202	0.153
-227.727	-84.926	-0.114	0.035
-226.713	40.918	-0.226	0.201
-225.698	-75.623	0.178	0.062
-224.684	-200.000	0.007	-0.198
-223.669	70.603	0.098	0.099
-222.655	-42.541	0.112	0.056
-221.640	-49.800	-0.285	-0.133
-220.625	-48.966	0.433	-0.204
-219.611	-200.000	-0.018	0.138
-218.596	-200.000	-0.006	0.175
-217.582	23.537	-0.250	0.203
-216.567	596.549	-0.143	0.349
-215.552	298.714	-0.049	-0.089
-214.538	-117.109	-0.259	-0.046
-213.523	91.507	0.240	0.265
-212.509	321.774	0.083	-0.156
-211.494	-200.000	-0.034	0.277
-210.479	-82.264	0.019	-0.006
-209.465	800.000	-0.106	-0.429
-208.450	297.078	-0.080	0.145
-207.436	257.623	-0.013	-0.023
-206.421	677.783	-0.031	0.078
-205.406	800.000	0.038	0.119
-204.392	-18.160	-0.143	-0.088
-203.377	-88.875	-0.279	0.081
-202.363	-83.615	0.283	0.089
-201.348	-92.504	-0.121	0.033
-200.333	3.652	-0.225	-0.162
-199.319	278.943	0.127	-0.222
-198.304	-158.224	0.425	-0.024
-197.290	-36.152	-0.365	0.194
-196.275	3.215	0.272	0.194
-195.260	-70.545	0.048	0.018
-194.246	-2.315	-0.042	-0.029
-193.231	-51.675	0.238	-0.109
-192.217	-130.601	-0.220	0.029
-191.202	-96.185	0.126	0.033
-190.187	179.115	0.202	0.290
-189.173	-158.851	0.367	0.021
-188.158	304.384	-0.054	-0.098
-187.144	-200.000	0.022	-0.121
-186.129	363.821	-0.151	-0.298
-185.114	-200.000	0.009	-0.073
-184.100	-23.053	-0.214	0.127
-183.085	166.426	-0.319	0.445
-182.071	59.190	-0.180	0.174
-181.056	-8.380	0.389	-0.257
-180.042	-200.000	-0.029	-0.312
-179.027	199.590	0.208	-0.314
-178.012	-174.856	0.491	0.014
-176.998	-8.078	0.358	-0.237
-175.983	-158.441	-0.215	0.012
-174.969	26.524	-0.124	-0.102
-173.954	-37.920	0.228	0.119
-172.939	24.928	0.105	0.086
-171.925	-137.900	-0.130	0.014
-170.910	-200.000	-0.036	-0.239
-169.896	-55.025	0.272	-0.121
-168.881	-39.388	-0.289	0.149
-167.866	62.576	-0.165	-0.162
-166.852	-125.093	0.067	-0.010
-165.837	498.376	-0.077	-0.173
-164.823	-178.407	-0.230	-0.005
-163.808	-200.000	-0.189	0.000
-162.793	-33.705	-0.144	-0.078
-161.779	193.769	0.077	-0.114
-160.764	524.180	0.159	-0.368
-159.750	800.000	0.046	-0.192
-158.735	-125.383	-0.104	0.016
-157.720	-15.826	0.132	0.083
-156.706	-200.000	-0.014	-0.088
-155.691	43.651	0.069	-0.062
-154.677	340.734	-0.066	0.126
-153.662	134.470	-0.074	-0.095
-152.647	-72.550	0.307	0.111
-151.633	768.081	-0.106	0.283
-150.618	800.000	-0.018	-0.072
-149.604	-200.000	0.044	0.539
-148.589	-42.545	0.134	-0.067
-147.574	-173.130	-0.229	0.007
-146.560	222.761	0.041	-0.064
-145.545	-200.000	-0.018	0.095
-144.531	49.216	-0.067	0.062
-143.516	800.000	-0.055	-0.234
-142.502	-13.717	-0.181	0.115
-141.487	-2.965	0.261	0.179
-140.472	-12.206	0.284	-0.183
-139.458	170.993	0.104	-0.146
-138.443	6.461	-0.169	0.123
-137.429	-116.761	0.149	-0.027
-136.414	-95.795	-0.429	0.112
-135.399	55.860	0.058	0.055
-134.385	-200.000	0.014	-0.130
-133.370	-48.258	0.288	-0.136
-132.356	103.098	0.084	-0.097
-131.341	-62.819	0.204	-0.083
-130.326	43.052	0.107	0.096
-129.312	-58.272	0.397	-0.170
-128.297	461.763	0.073	0.160
-127.283	291.810	0.029	0.051
-126.268	-200.000	-0.004	-0.070
-125.253	-200.000	0.067	-0.288
-124.239	212.472	0.010	0.015
-123.224	-200.000	-0.018	0.242
-122.210	-200.000	-0.002	0.195
