DTS Sentinel unit serial number:	SN413079Multiplexer serial number:	ORYXHardware model number:	OX4-SRSoftware version number:	ORYX F/W v4.00 Oryx Data Collector v3.7.2.0data status	okinstallation	princeton_trtdifferential loss correction	single-endedforward channel	channel 1reverse channel	N/Adate	2019/09/16time	15:06:35forward acquisition time	60.00reverse acquisition time	0.00gamma	496.2192k internal	0.2293k external	0.2293temperature offset calibration	0.9949default loss term (dB/km)	0.3790temperature slope calibration	1.0000multiplexer offset coefficient	1.0000multiplexer slope coefficient	1.0000fibre end	0.00T internal ref (°C)	41.12T ext. ref 1 (°C)	14.50T ext. ref 2 (°C)	36.43length (m)	temperature (°C)	Stokes	anti-Stokes-747.200	449.117	0.087	0.197
-746.185	301.139	-0.056	-0.105
-745.171	46.628	0.175	-0.166
-744.156	748.636	0.066	0.182
-743.142	-138.059	-0.189	0.022
-742.127	-200.000	-0.107	0.484
-741.112	-21.845	0.058	-0.036
-740.098	402.344	-0.111	0.240
-739.083	107.176	0.099	0.121
-738.069	-200.000	0.045	0.414
-737.054	-200.000	-0.006	0.053
-736.039	-176.198	-0.092	0.002
-735.025	38.381	0.204	0.186
-734.010	618.081	-0.080	0.205
-732.996	-91.643	0.433	0.126
-731.981	-36.538	0.076	-0.042
-730.966	-114.065	-0.375	-0.074
-729.952	-107.241	0.429	0.096
-728.937	446.512	-0.168	-0.377
-727.923	-71.383	0.068	-0.026
-726.908	-102.365	-0.428	-0.105
-725.894	173.839	-0.032	0.047
-724.879	172.595	-0.060	-0.088
-723.864	-134.988	-0.103	0.013
-722.850	800.000	-0.191	-0.574
-721.835	-20.761	-0.326	-0.205
-720.821	-200.000	0.025	-0.153
-719.806	-200.000	-0.014	-0.063
-718.791	-11.158	0.150	0.101
-717.777	-101.991	-0.100	0.025
-716.762	234.747	0.205	-0.346
-715.748	-115.218	-0.228	-0.044
-714.733	62.225	-0.150	0.153
-713.718	800.000	0.121	0.367
-712.704	-90.207	-0.334	0.099
-711.689	-28.248	-0.172	-0.102
-710.675	-18.550	-0.305	0.194
-709.660	-94.448	-0.281	0.078
-708.645	800.000	-0.113	0.386
-707.631	-112.464	0.214	-0.044
-706.616	-88.804	0.253	-0.077
-705.602	-165.527	-0.342	-0.015
-704.587	-72.883	-0.166	-0.063
-703.572	-84.188	0.359	-0.116
-702.558	292.947	0.026	-0.048
-701.543	-112.845	0.320	0.065
-700.529	800.000	-0.065	-0.243
-699.514	-100.323	-0.110	-0.028
-698.499	-45.981	0.320	-0.161
-697.485	-200.000	0.010	0.260
-696.470	328.810	-0.166	0.326
-695.456	-99.581	0.188	-0.048
-694.441	-113.507	-0.414	0.083
-693.426	-61.778	0.097	-0.042
-692.412	527.941	0.073	-0.176
-691.397	24.837	-0.158	0.134
-690.383	-12.260	0.260	0.174
-689.368	565.807	0.077	0.190
-688.354	-96.120	-0.041	0.011
-687.339	-200.000	0.019	-0.141
-686.324	255.595	0.083	0.146
-685.310	-43.328	0.147	-0.076
-684.295	47.600	0.112	-0.106
-683.281	33.178	-0.124	-0.110
-682.266	-200.000	0.001	-0.160
-681.251	472.180	-0.055	-0.125
-680.237	-54.918	-0.043	0.020
-679.222	-97.650	-0.187	-0.049
-678.208	-200.000	0.014	0.102
-677.193	4.227	-0.273	-0.204
-676.178	3.539	-0.063	-0.047
-675.164	226.416	-0.135	0.223
-674.149	-107.434	0.182	0.041
-673.135	-116.015	-0.214	0.041
-672.120	-34.196	0.206	0.115
-671.105	-200.000	0.023	0.127
-670.091	-126.936	-0.254	0.038
-669.076	85.375	-0.092	-0.103
-668.062	-200.000	0.006	-0.120
-667.047	-200.000	-0.025	-0.464
-666.032	183.660	-0.144	-0.217
-665.018	-136.796	-0.388	-0.046
-664.003	-6.389	-0.101	-0.070
-662.989	116.321	0.194	0.243
-661.974	374.554	0.093	0.194
-660.959	-103.863	0.022	-0.005
-659.945	-86.135	-0.267	-0.084
-658.930	800.000	-0.107	0.470
-657.916	800.000	0.067	-0.244
-656.901	53.109	-0.200	-0.196
-655.886	27.380	-0.251	-0.215
-654.872	-19.862	0.459	0.289
-653.857	-122.875	0.120	-0.020
-652.843	55.817	-0.064	-0.064
-651.828	343.578	-0.085	0.169
-650.814	292.919	-0.017	0.032
-649.799	30.856	-0.100	0.087
-648.784	-200.000	0.043	-0.231
-647.770	-181.189	-0.109	-0.002
-646.755	83.677	-0.068	-0.075
-645.741	129.894	-0.126	0.164
-644.726	-17.980	0.250	-0.160
-643.711	-200.000	-0.022	0.298
-642.697	-200.000	-0.010	0.246
-641.682	569.679	-0.050	0.123
-640.668	-138.628	-0.184	0.021
-639.653	800.000	0.087	0.353
-638.638	325.033	-0.129	-0.252
-637.624	-38.690	-0.213	-0.115
-636.609	166.272	-0.066	-0.095
-635.595	800.000	-0.070	0.212
-634.580	-121.667	-0.233	-0.039
-633.565	-200.000	-0.028	0.188
-632.551	-200.000	-0.087	0.582
-631.536	800.000	-0.041	0.176
-630.522	-85.876	0.287	0.091
-629.507	12.681	-0.348	0.274
-628.492	26.185	-0.207	-0.176
-627.478	114.487	0.107	-0.132
-626.463	18.173	0.033	-0.026
-625.449	-200.000	-0.010	-0.230
-624.434	-34.730	0.356	-0.198
-623.419	-105.283	0.173	0.040
-622.405	284.152	0.192	0.351
-621.390	332.056	0.093	-0.183
-620.376	446.347	0.164	0.367
-619.361	-54.463	-0.126	-0.058
-618.346	-75.556	-0.140	0.051
-617.332	483.163	-0.058	0.133
-616.317	-85.777	0.098	0.031
-615.303	800.000	0.054	-0.159
-614.288	427.745	-0.179	-0.393
-613.273	-200.000	-0.063	0.000
-612.259	-160.378	-0.256	-0.014
-611.244	-60.622	0.154	0.067
-610.230	-71.020	0.209	-0.080
-609.215	-200.000	0.042	-0.202
-608.201	-75.029	-0.557	0.203
-607.186	200.610	-0.153	-0.240
-606.171	-87.030	0.283	-0.088
-605.157	92.657	0.120	0.138
-604.142	800.000	0.032	0.094
-603.128	-200.000	-0.061	-0.447
-602.113	93.005	-0.087	-0.100
-601.098	-22.365	0.214	-0.132
-600.084	0.379	-0.356	-0.258
-599.069	611.343	-0.062	0.158
-598.055	-116.427	0.351	0.066
-597.040	31.986	-0.332	-0.291
-596.025	-40.927	-0.207	0.109
-595.011	-20.233	0.419	-0.262
-593.996	47.899	0.203	-0.193
-592.982	14.803	-0.338	0.269
-591.967	-200.000	0.006	-0.302
-590.952	298.148	-0.125	-0.233
-589.938	112.776	0.258	-0.318
-588.923	800.000	-0.055	0.171
-587.909	16.324	-0.227	-0.182
-586.894	-39.526	-0.119	0.063
-585.879	-184.038	0.204	-0.003
-584.865	-1.687	0.222	-0.159
-583.850	-13.719	0.172	0.113
-582.836	-200.000	-0.066	-0.329
-581.821	140.431	0.102	-0.137
-580.806	38.266	-0.095	-0.086
-579.792	-63.041	0.384	0.161
-578.777	-29.877	0.129	0.075
-577.763	379.808	0.188	-0.392
-576.748	-113.817	-0.608	0.120
-575.733	-9.920	-0.136	0.092
-574.719	-22.219	-0.283	0.174
-573.704	-200.000	-0.015	-0.255
-572.690	517.896	-0.096	-0.229
-571.675	-34.020	0.125	0.070
-570.661	70.484	-0.304	0.320
-569.646	-200.000	0.052	0.346
-568.631	-200.000	0.016	-0.173
-567.617	196.929	-0.252	-0.391
-566.602	-4.835	-0.175	0.122
-565.588	158.488	-0.090	0.127
-564.573	-173.245	0.157	-0.005
-563.558	800.000	0.044	-0.143
-562.544	160.458	0.133	0.189
-561.529	-15.353	-0.019	-0.012
-560.515	-200.000	0.007	0.409
-559.500	-200.000	-0.014	-0.085
-558.485	328.091	-0.046	-0.090
-557.471	800.000	-0.063	0.205
-556.456	800.000	-0.028	0.104
-555.442	-84.319	0.116	0.037
-554.427	-113.538	-0.069	-0.014
-553.412	-200.000	0.038	-0.251
-552.398	303.602	-0.098	-0.184
-551.383	56.219	-0.128	0.127
-550.369	-190.583	0.174	-0.002
-549.354	156.972	-0.141	-0.197
-548.339	314.090	0.175	-0.335
-547.325	-200.000	-0.028	0.226
-546.310	241.806	-0.022	0.038
-545.296	-200.000	0.014	-0.100
-544.281	-104.796	-0.174	-0.041
-543.266	800.000	-0.028	0.121
-542.252	10.356	0.300	0.232
-541.237	296.110	-0.086	0.161
-540.223	42.367	-0.069	0.064
-539.208	-59.146	0.130	0.057
-538.193	146.965	-0.239	0.327
-537.179	-200.000	-0.050	0.263
-536.164	256.263	-0.281	0.490
-535.150	-75.770	0.439	-0.158
-534.135	-200.000	0.013	0.327
-533.121	-200.000	-0.063	-0.362
-532.106	293.477	-0.110	-0.204
-531.091	-200.000	-0.019	-0.114
-530.077	522.947	-0.138	-0.329
-529.062	330.923	-0.041	0.079
-528.048	-105.118	-0.036	0.008
-527.033	-15.412	-0.046	0.030
-526.018	-53.429	0.258	-0.120
-525.004	-136.607	0.160	0.019
-523.989	511.774	-0.047	0.111
-522.975	-37.662	-0.371	0.201
-521.960	-102.882	-0.276	0.067
-520.945	299.791	-0.152	0.285
-519.931	-200.000	0.001	-0.105
-518.916	800.000	-0.053	-0.202
-517.902	-10.500	0.076	-0.051
-516.887	348.677	-0.141	-0.282
-515.872	5.588	-0.266	-0.199
-514.858	57.487	0.050	-0.050
-513.843	328.806	-0.085	-0.165
-512.829	-161.616	-0.198	-0.010
-511.814	611.564	-0.077	0.194
-510.799	8.664	-0.269	0.205
-509.785	-128.493	-0.066	0.010
-508.770	-97.544	0.070	-0.018
-507.756	-200.000	-0.011	0.083
-506.741	-200.000	-0.009	0.159
-505.726	-200.000	0.003	-0.061
-504.712	297.002	-0.104	0.194
-503.697	237.555	-0.062	-0.104
-502.683	-13.804	-0.311	-0.204
-501.668	800.000	0.074	0.311
-500.653	111.310	-0.034	0.041
-499.639	36.661	0.207	0.186
-498.624	210.815	0.140	0.223
-497.610	174.774	0.087	0.127
-496.595	-74.480	-0.210	-0.077
-495.581	114.126	-0.146	-0.180
-494.566	362.122	0.092	-0.186
-493.551	-139.396	0.334	0.036
-492.537	127.395	0.039	-0.050
-491.522	498.684	0.153	0.358
-490.508	-128.035	-0.138	0.020
-489.493	14.631	-0.133	-0.106
-488.478	319.934	-0.087	0.167
-487.464	-117.948	0.319	-0.058
-486.449	741.678	-0.172	-0.469
-485.435	110.594	0.105	-0.128
-484.420	-45.359	0.230	0.115
-483.405	105.685	-0.050	0.060
-482.391	250.035	0.061	-0.105
-481.376	198.844	-0.229	-0.354
-480.362	-126.807	0.062	-0.009
-479.347	-22.570	0.249	0.153
-478.332	-69.856	0.440	-0.170
-477.318	229.710	0.072	0.119
-476.303	605.240	0.046	0.115
-475.289	-154.696	-0.312	0.021
-474.274	-107.594	-0.199	-0.044
-473.259	-200.000	-0.449	0.001
-472.245	91.843	-0.195	0.222
-471.230	22.623	0.276	-0.229
-470.216	-200.000	0.022	0.342
-469.201	-70.701	0.104	0.040
-468.186	-20.537	0.062	0.039
-467.172	-51.859	-0.138	0.065
-466.157	354.168	0.102	-0.205
-465.143	800.000	0.080	-0.228
-464.128	30.994	-0.028	0.024
-463.113	-110.923	-0.313	-0.065
-462.099	800.000	-0.145	0.452
-461.084	-144.512	-0.181	0.017
-460.070	-48.314	-0.221	0.108
-459.055	161.798	0.087	0.124
-458.040	800.000	0.069	0.267
-457.026	-77.498	0.322	-0.113
-456.011	-56.796	0.158	-0.070
-454.997	-200.000	0.010	0.073
-453.982	51.277	0.209	0.201
-452.968	499.182	0.057	0.132
-451.953	-169.036	-0.337	0.013
-450.938	-200.000	-0.024	-0.280
-449.924	-200.000	0.007	-0.388
-448.909	-200.000	0.036	-0.313
-447.895	88.533	-0.026	-0.030
-446.880	800.000	-0.066	-0.210
-445.865	-78.688	0.093	-0.032
-444.851	-82.104	0.108	0.036
-443.836	86.809	-0.080	-0.090
-442.822	-147.218	0.116	0.010
-441.807	800.000	0.035	-0.129
-440.792	89.598	-0.083	0.094
-439.778	143.467	0.197	0.265
-438.763	572.193	0.108	0.266
-437.749	33.357	-0.179	0.157
-436.734	-57.325	0.099	-0.044
-435.719	419.163	0.040	0.086
-434.705	-200.000	-0.017	-0.224
-433.690	800.000	0.010	-0.028
-432.676	41.572	0.081	-0.074
-431.661	194.511	0.240	0.367
-430.646	109.074	0.098	0.119
-429.632	-71.927	-0.296	-0.111
-428.617	-200.000	0.008	-0.061
-427.603	-200.000	-0.036	-0.162
-426.588	-200.000	-0.036	0.275
-425.573	110.693	0.034	0.041
-424.559	-60.123	0.058	0.025
-423.544	-103.347	-0.400	-0.095
-422.530	-94.239	-0.152	-0.042
-421.515	-52.901	-0.244	0.113
-420.500	152.393	0.221	0.305
-419.486	-65.492	-0.207	-0.084
-418.471	800.000	-0.052	0.167
-417.457	233.599	-0.135	0.225
-416.442	69.871	-0.075	0.078
-415.428	-39.707	-0.232	-0.123
-414.413	800.000	0.029	0.083
-413.398	-31.589	0.178	-0.101
-412.384	-200.000	0.088	-0.000
-411.369	128.685	-0.148	-0.191
-410.355	-75.041	0.286	0.103
-409.340	-37.411	0.189	0.102
-408.325	251.145	0.044	0.076
-407.311	439.756	-0.134	0.296
-406.296	-109.291	0.184	-0.039
-405.282	55.451	0.138	-0.135
-404.267	50.717	-0.145	0.138
-403.252	-68.095	-0.215	0.085
-402.238	21.398	-0.043	-0.035
-401.223	330.853	-0.169	-0.329
-400.209	800.000	0.051	0.169
-399.194	800.000	0.074	-0.209
-398.179	-34.841	0.383	-0.211
-397.165	-87.989	0.238	0.072
-396.150	-58.272	0.304	-0.133
-395.136	81.746	-0.037	0.041
-394.121	-117.577	0.146	-0.027
-393.106	-200.000	0.067	0.489
-392.092	176.272	0.318	0.466
-391.077	10.850	-0.013	0.010
-390.063	-25.504	-0.303	-0.181
-389.048	-50.274	0.060	0.028
-388.033	25.543	-0.156	0.131
-387.019	-200.000	-0.029	0.131
-386.004	-60.708	0.289	-0.123
-384.990	237.787	0.034	0.058
-383.975	-49.549	-0.261	-0.125
-382.960	24.012	-0.325	-0.270
-381.946	-60.202	-0.143	-0.061
-380.931	-85.520	0.359	0.113
-379.917	-44.275	0.139	0.070
-378.902	101.277	-0.062	-0.073
-377.888	25.616	-0.236	0.198
-376.873	800.000	0.042	0.164
-375.858	-200.000	0.007	0.334
-374.844	22.384	0.141	-0.117
-373.829	-200.000	-0.018	0.138
-372.815	800.000	-0.053	-0.175
-371.800	-200.000	0.007	0.087
-370.785	-87.870	-0.188	-0.057
-369.771	-200.000	0.039	-0.457
-368.756	208.015	-0.052	-0.082
-367.742	131.842	-0.110	0.143
-366.727	650.291	-0.126	0.326
-365.712	291.231	0.078	0.143
-364.698	-113.681	0.175	0.034
-363.683	-26.306	0.188	0.111
-362.669	-200.000	-0.076	0.618
-361.654	-135.649	0.304	-0.036
-360.639	800.000	-0.052	0.209
-359.625	-200.000	-0.041	0.281
-358.610	-128.134	0.052	-0.007
-357.596	641.464	0.131	0.337
-356.581	-10.369	-0.516	0.345
-355.566	190.293	-0.170	0.257
-354.552	-74.711	-0.211	-0.076
-353.537	800.000	-0.038	0.148
-352.523	-79.114	0.121	-0.041
-351.508	-65.674	0.380	0.154
-350.493	482.966	-0.105	0.240
-349.479	-164.414	-0.268	0.012
-348.464	13.738	-0.070	-0.055
-347.450	-100.369	-0.325	-0.081
-346.435	31.352	0.231	-0.200
-345.420	-200.000	-0.022	0.129
-344.406	-94.064	0.494	-0.136
-343.391	381.135	0.208	-0.430
-342.377	-200.000	0.031	0.330
-341.362	149.424	0.051	-0.069
-340.348	-39.023	-0.308	-0.163
-339.333	-63.054	0.219	0.091
-338.318	-200.000	0.008	-0.058
-337.304	184.550	-0.274	-0.410
-336.289	-145.368	0.154	-0.014
-335.275	-94.955	-0.247	-0.067
-334.260	-167.562	0.231	-0.009
-333.245	-200.000	0.032	0.243
-332.231	-35.113	0.190	0.104
-331.216	167.342	-0.143	0.205
-330.202	-91.383	-0.620	-0.178
-329.187	-26.785	-0.198	-0.117
-328.172	62.419	-0.284	0.285
-327.158	172.889	0.150	0.217
-326.143	800.000	0.047	0.200
-325.129	-23.442	-0.074	0.045
-324.114	14.992	-0.041	-0.033
-323.099	43.237	-0.143	0.131
-322.085	-190.931	0.177	0.002
-321.070	-173.200	-0.175	0.005
-320.056	302.545	-0.085	0.159
-319.041	342.632	0.120	0.236
-318.026	-21.540	-0.057	-0.035
-317.012	-124.714	0.238	-0.037
-315.997	-186.400	0.528	-0.008
-314.983	388.762	0.202	-0.421
-313.968	-146.140	0.024	-0.002
-312.953	-131.040	-0.170	-0.023
-311.939	178.370	0.191	0.281
-310.924	293.013	0.154	-0.282
-309.910	800.000	0.088	-0.280
-308.895	-179.963	0.562	0.012
-307.880	30.465	0.210	0.180
-306.866	-26.756	-0.150	0.088
-305.851	570.044	0.088	-0.214
-304.837	231.345	0.142	0.234
-303.822	-26.811	0.241	0.142
-302.807	22.521	-0.132	-0.108
-301.793	-171.665	-0.240	0.008
-300.778	-86.014	-0.357	0.111
-299.764	234.132	0.086	-0.143
-298.749	-200.000	0.036	-0.169
-297.735	-40.764	0.238	0.124
-296.720	800.000	0.128	-0.427
-295.705	8.222	0.284	0.214
-294.691	177.928	0.055	0.081
-293.676	-200.000	-0.060	-0.646
-292.662	-111.445	0.245	0.050
-291.647	-7.981	0.268	-0.182
-290.632	-113.304	0.169	0.033
-289.618	-80.051	0.242	-0.082
-288.603	-16.344	-0.188	0.120
-287.589	-121.631	-0.173	0.029
-286.574	439.776	-0.116	-0.254
-285.559	-146.639	0.069	-0.006
-284.545	-200.000	0.031	-0.167
-283.530	714.823	0.055	-0.147
-282.516	800.000	-0.086	-0.317
-281.501	-134.038	0.202	-0.025
-280.486	197.270	-0.085	0.130
-279.472	269.129	0.226	-0.398
-278.457	-200.000	0.050	-0.276
-277.443	246.882	-0.080	-0.135
-276.428	-57.486	0.206	0.091
-275.413	800.000	0.137	-0.389
-274.399	-26.378	-0.183	-0.108
-273.384	-102.914	0.250	-0.060
-272.370	-39.672	-0.345	0.181
-271.355	73.227	-0.192	0.201
-270.340	-145.270	-0.229	-0.021
-269.326	-26.665	-0.059	0.035
-268.311	157.949	-0.132	-0.183
-267.297	-144.458	0.117	0.011
-266.282	33.371	-0.199	0.174
-265.267	76.952	0.096	0.103
-264.253	106.515	0.137	-0.163
-263.238	209.984	-0.155	-0.245
-262.224	-200.000	-0.016	-0.217
-261.209	255.678	0.137	0.235
-260.195	70.172	-0.136	-0.141
-259.180	-200.000	0.007	-0.071
-258.165	79.811	-0.063	0.067
-257.151	273.528	0.097	0.173
-256.136	669.733	0.060	0.155
-255.122	800.000	-0.117	-0.431
-254.107	-200.000	0.063	-0.365
-253.092	100.819	-0.144	-0.168
-252.078	-67.077	0.053	-0.021
-251.063	-200.000	0.015	-0.103
-250.049	-77.065	0.570	-0.200
-249.034	-85.358	0.391	-0.122
-248.019	-37.474	0.037	0.020
-247.005	59.596	-0.055	0.054
-245.990	-200.000	0.013	-0.284
-244.976	27.146	-0.239	0.201
-243.961	-200.000	-0.041	-0.276
-242.946	-92.987	0.134	-0.038
-241.932	213.167	0.213	0.338
-240.917	191.475	0.035	-0.053
-239.903	-78.059	-0.169	0.058
-238.888	-190.440	0.360	-0.004
-237.873	80.931	-0.194	-0.210
-236.859	800.000	-0.095	-0.415
-235.844	-8.201	-0.199	-0.135
-234.830	114.119	0.269	0.328
-233.815	420.458	0.118	-0.253
-232.800	-165.960	0.165	0.007
-231.786	-93.992	0.448	0.123
-230.771	1.309	-0.122	0.088
-229.757	-6.112	0.074	0.051
-228.742	-200.000	0.077	0.479
-227.727	43.002	0.151	-0.138
-226.713	290.745	0.102	0.187
-225.698	79.020	0.118	0.126
-224.684	-142.770	-0.305	-0.030
-223.669	800.000	0.020	0.062
-222.655	30.211	-0.378	0.323
-221.640	-127.691	-0.195	0.028
-220.625	-157.323	-0.195	-0.012
-219.611	-200.000	0.038	-0.192
-218.596	24.562	-0.150	0.124
-217.582	304.036	-0.043	-0.079
-216.567	-111.584	-0.170	0.035
-215.552	-110.389	0.357	0.074
-214.538	137.289	0.157	0.205
-213.523	800.000	0.024	-0.081
-212.509	-151.676	0.138	0.010
-211.494	-63.529	-0.053	-0.022
-210.479	129.708	0.111	-0.142
-209.465	-200.000	-0.009	-0.168
-208.450	-103.553	0.445	0.105
-207.436	745.479	0.052	-0.140
-206.421	800.000	-0.064	-0.271
-205.406	158.313	-0.160	-0.223
-204.392	151.729	0.034	-0.047
-203.377	11.628	-0.186	-0.143
-202.363	-169.275	-0.167	0.006
-201.348	-200.000	-0.034	0.332
-200.333	54.540	-0.210	-0.203
-199.319	201.756	0.214	0.331
-198.304	220.938	-0.038	0.061
-197.290	-200.000	0.065	0.363
-196.275	193.378	0.066	-0.100
-195.260	-109.790	-0.186	-0.039
-194.246	-48.292	-0.354	-0.171
-193.231	-11.045	0.118	-0.078
-192.217	-108.064	0.120	0.026
-191.202	405.022	0.113	-0.239
-190.187	37.213	-0.122	-0.108
-189.173	-134.076	-0.207	0.026
-188.158	4.838	-0.199	-0.146
-187.144	-111.001	-0.148	-0.030
-186.129	398.945	0.096	0.202
-185.114	800.000	-0.064	-0.190
-184.100	-89.267	0.107	-0.032
-183.085	102.424	-0.148	0.173
-182.071	-111.642	-0.188	-0.038
-181.056	162.748	0.249	-0.349
-180.042	-99.273	-0.196	-0.050
-179.027	58.528	0.092	-0.091
-178.012	-100.870	-0.178	-0.044
-176.998	176.322	0.088	0.129
-175.983	378.980	-0.133	-0.272
-174.969	349.048	0.106	-0.208
-173.954	-50.046	-0.137	-0.065
-172.939	31.536	0.178	0.153
-171.925	-132.721	0.322	0.041
-170.910	-200.000	-0.032	0.157
-169.896	468.486	0.120	0.270
-168.881	-138.751	-0.567	-0.062
-167.866	800.000	-0.012	0.049
-166.852	424.289	0.097	-0.209
-165.837	215.830	0.036	0.057
-164.823	-121.128	0.257	0.043
-163.808	-101.955	0.235	-0.057
-162.793	-89.455	-0.208	-0.061
-161.779	-91.274	-0.113	-0.032
-160.764	-35.303	0.194	-0.105
-159.750	800.000	-0.043	0.160
-158.735	-104.613	0.119	0.028
-157.720	120.685	0.053	-0.066
-156.706	-49.811	0.110	-0.052
-155.691	-200.000	0.002	-0.186
-154.677	-13.147	0.105	0.068
-153.662	-200.000	-0.003	0.150
-152.647	130.628	0.211	0.270
-151.633	-78.127	0.138	-0.048
-150.618	-55.687	0.127	-0.057
-149.604	-147.443	0.259	0.022
-148.589	800.000	-0.028	0.108
-147.574	-76.278	-0.293	-0.103
-146.560	-200.000	0.045	0.235
-145.545	7.124	-0.351	-0.262
-144.531	-69.294	-0.300	-0.115
-143.516	-165.206	-0.291	0.013
-142.502	-100.929	0.317	-0.078
-141.487	800.000	0.028	-0.104
-140.472	-110.683	0.207	0.043
-139.458	0.651	-0.248	-0.177
-138.443	375.039	-0.114	0.233
-137.429	178.094	0.119	0.173
-136.414	-41.510	0.120	0.062
-135.399	562.988	-0.106	-0.256
-134.385	2.157	-0.135	-0.097
-133.370	-80.035	0.153	-0.051
-132.356	-17.509	0.332	-0.209
-131.341	578.213	0.087	0.211
-130.326	-169.575	0.179	-0.007
-129.312	14.485	0.065	0.050
-128.297	81.318	-0.164	-0.177
-127.283	-48.571	0.145	0.069
-126.268	15.904	-0.189	0.149
-125.253	-150.749	-0.151	-0.011
-124.239	-52.681	-0.403	-0.186
-123.224	800.000	-0.146	-0.573
-122.210	-200.000	-0.008	0.224
