DTS Sentinel unit serial number:	SN413079Multiplexer serial number:	ORYXHardware model number:	OX4-SRSoftware version number:	ORYX F/W v4.00 Oryx Data Collector v3.7.2.0data status	okinstallation	princeton_trtdifferential loss correction	single-endedforward channel	channel 1reverse channel	N/Adate	2019/09/17time	12:26:35forward acquisition time	60.00reverse acquisition time	0.00gamma	496.2192k internal	0.2319k external	0.2319temperature offset calibration	0.9977default loss term (dB/km)	0.3790temperature slope calibration	1.0000multiplexer offset coefficient	1.0000multiplexer slope coefficient	1.0000fibre end	0.00T internal ref (°C)	31.80T ext. ref 1 (°C)	0.44T ext. ref 2 (°C)	28.92length (m)	temperature (°C)	Stokes	anti-Stokes-747.200	432.457	0.050	-0.111
-746.185	124.317	-0.040	0.051
-745.171	-141.130	0.088	0.009
-744.156	800.000	-0.029	0.110
-743.142	71.385	-0.083	-0.087
-742.127	800.000	-0.072	0.228
-741.112	-177.408	-0.103	0.003
-740.098	800.000	-0.107	0.428
-739.083	189.826	-0.199	0.302
-738.069	-200.000	-0.003	-0.127
-737.054	-72.842	0.193	0.072
-736.039	-164.204	-0.371	0.017
-735.025	92.203	0.182	0.207
-734.010	-200.000	-0.008	0.194
-732.996	98.863	-0.056	-0.065
-731.981	327.430	0.052	-0.102
-730.966	498.993	-0.134	0.313
-729.952	3.341	0.232	-0.171
-728.937	191.600	0.084	-0.129
-727.923	-200.000	-0.002	-0.036
-726.908	206.246	-0.123	0.194
-725.894	-200.000	0.025	0.160
-724.879	5.470	-0.226	0.168
-723.864	-93.641	-0.175	0.049
-722.850	307.677	-0.127	-0.240
-721.835	12.090	0.133	-0.103
-720.821	550.218	-0.045	0.109
-719.806	619.794	0.001	0.002
-718.791	228.008	0.181	-0.298
-717.777	-116.817	0.041	-0.008
-716.762	-72.105	-0.266	-0.100
-715.748	14.243	0.329	-0.260
-714.733	-185.834	0.214	-0.003
-713.718	169.309	-0.093	0.134
-712.704	-40.034	0.251	-0.132
-711.689	32.697	0.097	-0.085
-710.675	87.564	0.096	0.107
-709.660	296.684	0.074	-0.138
-708.645	-27.937	0.099	-0.058
-707.631	-56.781	0.286	0.128
-706.616	63.776	0.009	0.009
-705.602	54.583	-0.395	-0.384
-704.587	800.000	0.063	0.240
-703.572	87.904	-0.101	-0.113
-702.558	337.824	-0.137	-0.270
-701.543	679.406	0.044	-0.116
-700.529	51.500	-0.192	-0.184
-699.514	1.534	0.240	-0.174
-698.499	-200.000	-0.029	0.261
-697.485	10.193	0.178	0.136
-696.470	-131.839	-0.231	-0.031
-695.456	-92.901	0.145	-0.041
-694.441	76.198	-0.188	0.201
-693.426	100.257	0.029	-0.034
-692.412	15.546	-0.043	-0.034
-691.397	306.686	-0.084	0.158
-690.383	800.000	-0.105	-0.332
-689.368	800.000	0.111	0.324
-688.354	467.579	0.059	-0.133
-687.339	-32.186	-0.067	-0.038
-686.324	51.461	-0.298	-0.285
-685.310	-200.000	-0.011	-0.192
-684.295	-200.000	0.030	0.178
-683.281	-92.449	-0.264	0.075
-682.266	544.362	-0.085	-0.205
-681.251	-21.151	-0.254	0.157
-680.237	576.770	0.032	0.078
-679.222	-43.162	-0.252	-0.129
-678.208	265.937	-0.027	0.047
-677.193	-123.834	0.100	0.016
-676.178	-200.000	-0.025	0.127
-675.164	-200.000	-0.038	-0.216
-674.149	-200.000	-0.039	0.239
-673.135	414.763	0.125	-0.269
-672.120	135.428	-0.185	0.242
-671.105	67.089	0.164	0.169
-670.091	423.426	-0.057	0.124
-669.076	-157.800	-0.349	0.021
-668.062	-27.760	0.024	0.014
-667.047	-47.619	-0.150	-0.073
-666.032	-13.467	-0.191	-0.125
-665.018	-5.019	-0.172	-0.120
-664.003	-105.063	-0.207	0.048
-662.989	-41.778	0.156	0.081
-661.974	58.574	-0.097	0.096
-660.959	26.382	-0.412	0.348
-659.945	-87.529	-0.614	-0.187
-658.930	-200.000	-0.007	0.155
-657.916	32.345	0.049	0.043
-656.901	166.313	-0.066	0.094
-655.886	29.568	-0.094	0.081
-654.872	306.665	-0.064	0.120
-653.857	-200.000	-0.033	-0.149
-652.843	-126.099	-0.168	0.025
-651.828	142.504	0.094	0.125
-650.814	-8.856	0.154	0.104
-649.799	-136.574	-0.273	-0.032
-648.784	54.918	-0.222	0.217
-647.770	-200.000	-0.002	-0.081
-646.755	54.185	-0.144	-0.140
-645.741	-34.795	-0.241	-0.133
-644.726	92.538	0.171	0.195
-643.711	-200.000	-0.017	-0.323
-642.697	800.000	0.028	0.099
-641.682	45.443	-0.152	0.141
-640.668	-59.637	0.289	0.125
-639.653	-72.465	0.200	-0.074
-638.638	415.265	0.085	-0.183
-637.624	150.227	0.336	0.460
-636.609	800.000	-0.060	0.238
-635.595	-11.344	0.126	-0.084
-634.580	-82.897	-0.216	-0.070
-633.565	-32.555	0.129	0.072
-632.551	-200.000	0.034	-0.238
-631.536	800.000	0.029	-0.108
-630.522	594.129	-0.137	0.341
-629.507	-117.375	-0.264	0.048
-628.492	-91.674	0.277	0.079
-627.478	195.876	0.193	-0.295
-626.463	-197.572	-0.248	-0.002
-625.449	-53.052	-0.253	-0.117
-624.434	-143.335	0.249	0.024
-623.419	-154.847	0.143	0.010
-622.405	-200.000	-0.009	0.069
-621.390	-104.245	0.355	0.083
-620.376	137.370	-0.072	-0.095
-619.361	94.587	-0.044	0.050
-618.346	-4.273	0.169	0.118
-617.332	-200.000	-0.019	0.254
-616.317	-69.715	-0.337	-0.130
-615.303	-154.413	-0.179	0.012
-614.288	-166.001	0.474	-0.020
-613.273	-128.683	-0.286	-0.041
-612.259	-53.065	0.105	-0.048
-611.244	-200.000	-0.010	0.151
-610.230	800.000	0.113	0.379
-609.215	18.525	0.107	0.086
-608.201	-200.000	-0.004	0.162
-607.186	97.308	-0.264	0.305
-606.171	155.585	0.156	-0.216
-605.157	-173.973	-0.054	-0.002
-604.142	-27.380	-0.257	0.151
-603.128	-2.319	-0.235	0.166
-602.113	131.554	-0.341	-0.442
-601.098	800.000	0.071	-0.213
-600.084	23.729	-0.265	0.220
-599.069	-68.512	0.236	0.092
-598.055	800.000	-0.057	-0.226
-597.040	117.322	0.085	0.105
-596.025	-34.151	0.392	-0.216
-595.011	263.639	0.078	0.136
-593.996	336.820	0.040	-0.078
-592.982	-140.992	0.354	-0.036
-591.967	-140.023	-0.052	-0.006
-590.952	-200.000	0.007	-0.111
-589.938	-48.177	-0.194	-0.094
-588.923	-93.316	-0.009	-0.003
-587.909	-18.581	-0.130	-0.082
-586.894	13.757	-0.435	-0.340
-585.879	33.066	0.245	-0.213
-584.865	65.828	0.145	0.148
-583.850	-200.000	-0.001	-0.251
-582.836	-200.000	-0.028	0.148
-581.821	172.458	0.057	-0.083
-580.806	582.598	-0.049	-0.120
-579.792	-20.811	-0.112	-0.069
-578.777	-80.403	-0.186	-0.062
-577.763	-200.000	0.052	-0.274
-576.748	-95.952	0.194	0.052
-575.733	-200.000	-0.066	0.345
-574.719	109.684	0.188	0.227
-573.704	48.939	-0.169	-0.159
-572.690	-200.000	0.029	-0.197
-571.675	202.073	0.040	0.062
-570.661	-200.000	0.012	0.097
-569.646	-129.223	-0.185	-0.026
-568.631	-200.000	-0.002	-0.076
-567.617	800.000	-0.073	0.279
-566.602	-132.482	-0.275	0.036
-565.588	218.425	-0.126	-0.202
-564.573	225.410	-0.230	-0.374
-563.558	800.000	0.055	0.222
-562.544	-113.614	0.288	0.056
-561.529	-106.333	-0.149	-0.033
-560.515	-200.000	-0.012	0.286
-559.500	420.555	0.027	-0.058
-558.485	-6.756	0.210	-0.143
-557.471	675.715	0.071	0.186
-556.456	-29.565	-0.034	0.019
-555.442	800.000	0.015	0.063
-554.427	800.000	-0.043	0.121
-553.412	-78.888	-0.086	0.029
-552.398	58.368	-0.009	-0.009
-551.383	638.964	0.129	-0.330
-550.369	-161.770	-0.316	-0.016
-549.354	-200.000	-0.036	-0.205
-548.339	-200.000	-0.002	-0.054
-547.325	-200.000	-0.055	0.445
-546.310	670.143	-0.093	-0.242
-545.296	-39.993	-0.188	-0.099
-544.281	-31.774	-0.264	-0.148
-543.266	-134.092	-0.108	-0.013
-542.252	-200.000	0.005	0.103
-541.237	45.580	-0.215	-0.199
-540.223	45.212	0.128	0.118
-539.208	-200.000	-0.088	0.507
-538.193	196.503	-0.060	-0.092
-537.179	-106.572	-0.179	-0.040
-536.164	-200.000	-0.056	0.330
-535.150	-200.000	-0.022	0.354
-534.135	800.000	0.019	0.055
-533.121	643.322	-0.040	0.104
-532.106	-90.561	-0.276	-0.080
-531.091	114.869	-0.105	0.128
-530.077	-62.773	0.245	0.102
-529.062	-200.000	0.011	-0.232
-528.048	21.509	0.262	-0.214
-527.033	-33.922	-0.087	-0.048
-526.018	-72.970	0.512	0.189
-525.004	-200.000	-0.022	-0.399
-523.989	336.554	-0.067	-0.131
-522.975	-72.027	-0.390	0.145
-521.960	800.000	-0.064	0.250
-520.945	76.673	0.142	-0.151
-519.931	-102.664	0.281	-0.067
-518.916	-200.000	0.012	-0.092
-517.902	800.000	0.090	0.381
-516.887	134.152	0.177	0.229
-515.872	268.085	0.141	0.248
-514.858	-153.768	0.133	0.009
-513.843	-200.000	0.067	0.382
-512.829	-83.486	0.071	0.023
-511.814	-200.000	-0.008	0.046
-510.799	-16.396	-0.044	-0.028
-509.785	-200.000	-0.024	-0.123
-508.770	-28.394	0.051	0.029
-507.756	800.000	0.055	-0.211
-506.741	-127.847	-0.201	0.029
-505.726	774.623	0.098	-0.269
-504.712	-56.573	-0.271	-0.121
-503.697	-200.000	0.012	0.383
-502.683	175.975	0.203	-0.295
-501.668	26.571	-0.470	-0.394
-500.653	41.708	0.092	-0.084
-499.639	800.000	-0.044	0.164
-498.624	22.082	-0.017	-0.014
-497.610	21.704	0.070	0.057
-496.595	597.439	-0.141	0.350
-495.581	-12.971	0.158	0.103
-494.566	109.141	0.116	-0.140
-493.551	-52.833	-0.335	-0.155
-492.537	190.419	0.102	0.154
-491.522	35.699	-0.162	-0.143
-490.508	-200.000	-0.007	0.196
-489.493	-173.564	-0.485	0.015
-488.478	-200.000	-0.039	-0.192
-487.464	800.000	0.020	0.076
-486.449	214.449	0.089	-0.141
-485.435	8.336	0.140	-0.105
-484.420	-125.222	0.303	0.046
-483.405	531.274	0.064	-0.151
-482.391	-200.000	-0.012	-0.116
-481.376	-138.019	0.322	0.036
-480.362	9.766	-0.221	-0.167
-479.347	34.715	-0.195	0.171
-478.332	-200.000	0.010	0.129
-477.318	86.638	-0.171	0.189
-476.303	386.897	0.078	0.160
-475.289	55.189	0.172	0.166
-474.274	237.926	-0.023	0.038
-473.259	-114.225	-0.420	0.081
-472.245	-200.000	-0.182	-0.001
-471.230	-169.678	-0.165	0.006
-470.216	-63.716	-0.431	-0.177
-469.201	-73.636	0.192	-0.070
-468.186	67.005	0.308	-0.314
-467.172	390.701	0.130	0.271
-466.157	194.341	-0.092	0.139
-465.143	-181.266	0.437	0.009
-464.128	-132.138	-0.374	-0.049
-463.113	-77.460	0.251	-0.087
-462.099	-200.000	0.027	0.163
-461.084	-200.000	0.005	-0.158
-460.070	18.613	-0.107	-0.086
-459.055	34.613	-0.070	-0.061
-458.040	459.630	0.049	-0.109
-457.026	-140.805	-0.226	-0.023
-456.011	-200.000	-0.058	-0.485
-454.997	-46.498	-0.100	0.049
-453.982	-63.809	0.272	-0.112
-452.968	-98.376	0.087	-0.022
-451.953	149.112	0.081	-0.109
-450.938	-73.115	-0.135	-0.050
-449.924	-200.000	-0.027	0.160
-448.909	504.432	-0.154	-0.356
-447.895	39.604	0.014	0.013
-446.880	-165.484	0.118	-0.005
-445.865	-194.065	0.079	-0.001
-444.851	-150.001	0.166	0.013
-443.836	332.115	0.098	0.189
-442.822	598.361	-0.036	0.088
-441.807	-56.100	-0.210	0.093
-440.792	485.192	0.171	-0.390
-439.778	-200.000	-0.021	0.179
-438.763	100.534	0.273	-0.317
-437.749	-159.875	0.302	-0.017
-436.734	-48.862	0.057	-0.027
-435.719	94.032	-0.116	0.132
-434.705	-69.249	-0.390	-0.150
-433.690	478.634	0.128	-0.290
-432.676	-155.246	-0.071	0.005
-431.661	-167.105	-0.166	0.007
-430.646	264.861	-0.181	-0.315
-429.632	211.311	0.205	-0.322
-428.617	-130.368	0.188	0.025
-427.603	-200.000	0.131	-0.579
-426.588	561.778	0.113	-0.272
-425.573	64.518	-0.061	0.062
-424.559	186.738	0.048	0.072
-423.544	58.410	-0.150	0.147
-422.530	-200.000	-0.043	-0.237
-421.515	-200.000	0.012	0.082
-420.500	13.825	0.120	0.094
-419.486	88.918	0.117	0.130
-418.471	129.400	0.218	0.278
-417.457	-92.029	0.234	-0.066
-416.442	800.000	-0.084	0.262
-415.428	18.985	-0.145	0.116
-414.413	-4.095	0.122	-0.084
-413.398	38.306	-0.054	0.048
-412.384	-44.527	-0.162	0.081
-411.369	-98.490	0.289	0.074
-410.355	349.626	0.124	-0.245
-409.340	-118.440	0.098	-0.017
-408.325	-200.000	-0.074	-0.396
-407.311	-59.285	0.187	-0.080
-406.296	-47.241	-0.385	-0.187
-405.282	-44.459	-0.177	-0.088
-404.267	-62.360	-0.242	-0.100
-403.252	-200.000	-0.056	-0.274
-402.238	-42.353	-0.247	0.126
-401.223	-55.637	-0.226	-0.101
-400.209	296.657	-0.073	-0.133
-399.194	112.311	0.170	-0.206
-398.179	21.214	-0.278	0.225
-397.165	-124.390	0.090	-0.014
-396.150	800.000	-0.105	-0.323
-395.136	-200.000	0.015	-0.167
-394.121	12.492	-0.186	0.143
-393.106	82.788	0.243	-0.264
-392.092	-140.184	0.259	-0.027
-391.077	0.552	0.039	0.028
-390.063	-16.309	0.199	0.126
-389.048	-117.688	0.069	0.012
-388.033	117.041	0.123	-0.151
-387.019	209.614	-0.045	-0.070
-386.004	800.000	-0.141	-0.426
-384.990	-46.484	0.119	-0.058
-383.975	-47.017	-0.156	-0.076
-382.960	193.305	0.197	0.297
-381.946	20.337	0.167	-0.135
-380.931	-96.811	0.218	-0.057
-379.917	74.882	0.141	0.148
-378.902	-83.733	-0.265	-0.084
-377.888	606.939	0.041	-0.101
-376.873	-140.933	-0.063	0.006
-375.858	525.426	0.032	0.076
-374.844	480.032	0.139	0.315
-373.829	186.008	-0.102	-0.151
-372.815	-14.037	-0.305	-0.196
-371.800	-200.000	0.087	0.409
-370.785	80.330	0.144	-0.154
-369.771	-200.000	-0.006	-0.128
-368.756	452.846	0.047	-0.105
-367.742	678.296	0.078	-0.202
-366.727	-133.400	-0.354	-0.044
-365.712	-200.000	-0.078	-0.493
-364.698	5.262	0.174	0.128
-363.683	-7.822	0.167	-0.112
-362.669	-200.000	-0.011	-0.060
-361.654	260.282	0.104	-0.180
-360.639	-13.947	-0.079	0.051
-359.625	-18.124	-0.152	-0.095
-358.610	-200.000	0.013	0.075
-357.596	83.754	-0.164	0.178
-356.581	-9.075	0.079	-0.053
-355.566	-73.730	-0.126	-0.046
-354.552	-177.803	-0.227	0.005
-353.537	128.431	-0.025	0.031
-352.523	-89.558	-0.124	-0.036
-351.508	-116.734	-0.267	0.049
-350.493	183.295	0.152	-0.224
-349.479	343.653	0.160	-0.313
-348.464	211.625	0.178	0.279
-347.450	-28.631	0.180	-0.103
-346.435	401.177	-0.018	-0.038
-345.420	800.000	-0.043	-0.154
-344.406	28.690	0.265	0.223
-343.391	-109.463	0.253	0.053
-342.377	-50.565	0.277	-0.130
-341.362	-43.444	0.329	0.165
-340.348	146.413	0.287	0.384
-339.333	-121.605	-0.262	0.043
-338.318	-200.000	0.019	0.113
-337.304	-114.585	-0.188	-0.036
-336.289	-37.084	0.211	-0.112
-335.275	99.954	0.148	0.171
-334.260	800.000	-0.103	0.309
-333.245	-200.000	-0.052	0.337
-332.231	800.000	0.113	0.327
-331.216	-88.126	0.301	0.090
-330.202	-142.673	-0.347	0.034
-329.187	-45.539	-0.237	0.117
-328.172	-82.369	-0.135	-0.044
-327.158	-91.149	-0.247	0.071
-326.143	800.000	-0.033	0.137
-325.129	-42.044	0.127	-0.065
-324.114	649.230	-0.162	0.413
-323.099	715.027	0.033	-0.088
-322.085	528.382	-0.153	-0.360
-321.070	-104.116	0.117	0.027
-320.056	-84.435	-0.167	0.053
-319.041	-200.000	0.022	0.000
-318.026	-200.000	-0.012	-0.185
-317.012	-51.815	-0.178	0.083
-315.997	206.991	0.065	-0.101
-314.983	-5.664	0.355	0.242
-313.968	369.039	-0.058	-0.116
-312.953	694.843	0.075	0.197
-311.939	-200.000	0.080	0.366
-310.924	-187.546	-0.345	-0.005
-309.910	-150.043	0.411	-0.032
-308.895	-200.000	0.082	0.448
-307.880	800.000	0.045	-0.182
-306.866	-200.000	-0.029	-0.290
-305.851	6.022	-0.105	0.078
-304.837	82.392	-0.198	0.213
-303.822	-114.867	0.282	0.054
-302.807	-17.383	0.057	-0.035
-301.793	0.948	0.075	-0.054
-300.778	-95.538	-0.182	-0.049
-299.764	-200.000	-0.059	0.262
-298.749	-34.450	-0.198	0.108
-297.735	-200.000	0.007	0.229
-296.720	381.939	0.061	0.125
-295.705	23.773	-0.227	-0.186
-294.691	670.043	0.128	-0.329
-293.676	800.000	0.105	-0.371
-292.662	-200.000	-0.049	0.262
-291.647	-200.000	-0.020	0.355
-290.632	-42.561	0.399	-0.202
-289.618	-200.000	0.018	0.170
-288.603	-113.714	0.197	0.038
-287.589	800.000	-0.072	-0.207
-286.574	-146.312	-0.476	0.041
-285.559	-200.000	0.034	0.264
-284.545	-200.000	0.006	-0.119
-283.530	-10.866	0.145	-0.095
-282.516	-200.000	0.055	0.341
-281.501	114.330	-0.269	-0.326
-280.486	-122.040	0.114	0.019
-279.472	130.822	0.072	-0.092
-278.457	225.911	0.095	0.154
-277.443	800.000	0.038	-0.156
-276.428	33.345	0.132	-0.114
-275.413	-136.063	-0.302	-0.035
-274.399	4.726	0.247	0.180
-273.384	-132.620	-0.088	-0.011
-272.370	8.862	0.221	0.165
-271.355	-23.160	-0.043	-0.026
-270.340	-42.541	-0.157	0.079
-269.326	-54.363	-0.204	0.092
-268.311	184.128	0.186	-0.273
-267.297	-45.124	0.091	-0.045
-266.282	-94.267	-0.314	-0.085
-265.267	-200.000	0.012	0.632
-264.253	104.652	-0.059	-0.070
-263.238	-23.230	-0.056	0.033
-262.224	800.000	0.106	0.426
-261.209	-200.000	0.055	-0.274
-260.195	-149.791	0.206	0.016
-259.180	-200.000	0.029	0.216
-258.165	800.000	0.010	0.032
-257.151	98.528	-0.195	0.223
-256.136	800.000	-0.100	0.286
-255.122	-162.046	0.197	-0.010
-254.107	-200.000	-0.039	0.527
-253.092	74.287	0.112	0.117
-252.078	800.000	-0.042	0.173
-251.063	85.042	-0.215	-0.234
-250.049	3.567	0.152	-0.110
-249.034	800.000	0.105	0.401
-248.019	221.658	0.114	-0.182
-247.005	-200.000	0.070	-0.325
-245.990	260.917	0.159	-0.273
-244.976	800.000	-0.027	-0.095
-243.961	162.967	-0.145	-0.202
-242.946	185.876	0.128	-0.189
-241.932	800.000	0.027	0.107
-240.917	-57.324	0.198	0.086
-239.903	-126.447	-0.074	-0.011
-238.888	-74.480	-0.273	0.098
-237.873	499.707	0.113	-0.258
-236.859	96.393	-0.208	0.236
-235.844	800.000	-0.080	0.234
-234.830	800.000	0.045	-0.179
-233.815	-77.936	-0.100	-0.034
-232.800	800.000	0.077	0.227
-231.786	157.062	0.197	0.271
-230.771	-103.572	-0.176	-0.041
-229.757	-77.312	0.269	0.093
-228.742	5.058	0.241	-0.176
-227.727	-81.246	0.314	-0.103
-226.713	403.011	0.100	-0.208
-225.698	-161.044	-0.542	-0.028
-224.684	-200.000	-0.023	-0.276
-223.669	-82.316	-0.257	0.083
-222.655	-200.000	-0.212	0.000
-221.640	-200.000	0.018	0.147
-220.625	793.660	-0.018	-0.048
-219.611	-200.000	0.039	0.230
-218.596	-4.652	0.215	0.147
-217.582	133.658	0.077	-0.099
-216.567	102.229	0.080	-0.093
-215.552	244.728	0.085	-0.141
-214.538	-45.773	0.449	0.220
-213.523	-140.330	-0.058	-0.006
-212.509	-89.759	0.214	0.062
-211.494	-127.100	-0.229	0.033
-210.479	-200.000	-0.012	0.224
-209.465	431.425	0.092	-0.198
-208.450	153.532	0.085	0.115
-207.436	49.525	0.188	0.175
-206.421	608.884	-0.068	-0.168
-205.406	89.754	-0.057	0.063
-204.392	358.833	-0.072	-0.143
-203.377	-13.132	-0.199	-0.128
-202.363	800.000	0.183	-0.703
-201.348	800.000	0.068	-0.227
-200.333	-131.611	0.181	0.024
-199.319	509.807	-0.099	-0.229
-198.304	32.989	-0.235	0.202
-197.290	53.340	0.223	0.211
-196.275	-58.498	-0.095	0.041
-195.260	-200.000	0.017	0.339
-194.246	41.069	-0.045	-0.041
-193.231	-62.375	-0.105	-0.043
-192.217	-88.940	-0.307	-0.090
-191.202	-62.900	-0.172	-0.070
-190.187	-188.298	0.052	-0.001
-189.173	56.637	0.228	0.220
-188.158	-134.828	0.215	0.026
-187.144	-15.673	0.431	-0.272
-186.129	-121.106	-0.306	-0.051
-185.114	96.877	-0.134	-0.152
-184.100	-200.000	-0.003	0.363
-183.085	-43.759	0.095	-0.048
-182.071	514.365	0.054	0.124
-181.056	-194.660	0.262	-0.002
-180.042	-172.590	-0.089	0.003
-179.027	-53.453	-0.160	0.073
-178.012	29.466	-0.103	0.087
-176.998	-6.547	-0.118	-0.080
-175.983	-135.578	-0.219	0.026
-174.969	-14.964	-0.401	-0.254
-173.954	-66.153	0.254	-0.100
-172.939	59.013	-0.244	-0.238
-171.925	12.139	-0.174	0.132
-170.910	205.992	-0.144	-0.221
-169.896	-9.553	-0.250	0.165
-168.881	-46.111	0.221	0.108
-167.866	-68.507	0.200	0.077
-166.852	-46.386	-0.355	0.173
-165.837	175.244	-0.205	0.294
-164.823	800.000	0.066	-0.193
-163.808	227.226	0.039	0.063
-162.793	72.173	0.104	0.107
-161.779	-49.348	0.055	-0.026
-160.764	180.997	0.134	0.195
-159.750	150.897	-0.142	-0.192
-158.735	-59.545	0.249	0.106
-157.720	800.000	0.049	0.177
-156.706	-200.000	-0.002	0.061
-155.691	148.428	0.224	-0.300
-154.677	107.796	0.045	0.053
-153.662	-70.592	0.596	0.223
-152.647	-93.993	-0.175	-0.047
-151.633	475.534	-0.072	0.160
-150.618	-31.732	-0.238	-0.132
-149.604	-200.000	0.177	-0.000
-148.589	5.485	0.084	-0.062
-147.574	-63.772	-0.047	0.019
-146.560	356.518	-0.158	-0.312
-145.545	17.158	0.060	0.047
-144.531	-169.183	0.246	-0.009
-143.516	605.096	0.067	-0.165
-142.502	-141.388	-0.243	0.024
-141.487	800.000	0.076	-0.220
-140.472	-0.865	0.086	-0.060
-139.458	-136.101	0.287	-0.033
-138.443	84.179	-0.062	-0.066
-137.429	-200.000	0.037	-0.229
-136.414	436.088	-0.170	-0.365
-135.399	-200.000	-0.067	0.473
-134.385	-99.180	0.088	0.022
-133.370	-31.638	0.293	0.162
-132.356	-78.950	0.295	0.099
-131.341	410.055	0.066	0.139
-130.326	-108.517	-0.248	-0.053
-129.312	-59.586	-0.221	-0.094
-128.297	612.825	0.099	0.244
-127.283	-49.177	-0.434	-0.205
-126.268	56.954	-0.200	0.192
-125.253	108.986	-0.096	-0.113
-124.239	-200.000	-0.006	0.078
-123.224	80.906	0.148	0.158
-122.210	-119.609	0.065	0.011
-121.195	410.108	0.153	-0.320
