DTS Sentinel unit serial number:	SN413079Multiplexer serial number:	ORYXHardware model number:	OX4-SRSoftware version number:	ORYX F/W v4.00 Oryx Data Collector v3.7.2.0data status	okinstallation	princeton_trtdifferential loss correction	single-endedforward channel	channel 1reverse channel	N/Adate	2019/09/19time	09:38:35forward acquisition time	60.00reverse acquisition time	0.00gamma	496.2192k internal	0.2340k external	0.2340temperature offset calibration	1.0004default loss term (dB/km)	0.3790temperature slope calibration	1.0000multiplexer offset coefficient	1.0000multiplexer slope coefficient	1.0000fibre end	0.00T internal ref (°C)	23.06T ext. ref 1 (°C)	0.63T ext. ref 2 (°C)	19.44length (m)	temperature (°C)	Stokes	anti-Stokes-747.200	10.983	-0.128	-0.098
-746.185	332.753	0.216	-0.418
-745.171	209.503	-0.169	-0.266
-744.156	800.000	-0.152	0.479
-743.142	-102.161	-0.239	-0.058
-742.127	-48.796	0.389	-0.187
-741.112	-30.697	-0.182	-0.103
-740.098	-200.000	0.088	0.454
-739.083	800.000	0.025	0.105
-738.069	12.816	0.188	0.146
-737.054	3.574	-0.127	0.093
-736.039	44.826	-0.219	-0.202
-735.025	-200.000	-0.058	-0.312
-734.010	31.338	-0.125	0.108
-732.996	8.921	-0.397	-0.300
-731.981	-94.166	-0.331	-0.091
-730.966	-50.639	0.115	0.054
-729.952	-33.955	-0.234	-0.129
-728.937	-49.644	-0.079	0.038
-727.923	-75.876	-0.175	-0.062
-726.908	157.419	0.117	0.163
-725.894	-200.000	-0.007	-0.287
-724.879	-72.741	-0.229	-0.084
-723.864	-76.126	-0.215	0.076
-722.850	47.120	0.278	-0.259
-721.835	85.205	0.138	0.151
-720.821	-57.747	-0.303	-0.133
-719.806	-62.771	0.130	-0.054
-718.791	-63.551	0.102	-0.042
-717.777	800.000	-0.050	0.164
-716.762	-103.089	-0.141	0.034
-715.748	132.652	-0.090	-0.117
-714.733	800.000	-0.103	0.343
-713.718	104.948	-0.047	-0.056
-712.704	-106.110	-0.294	-0.066
-711.689	-121.234	-0.242	0.041
-710.675	-200.000	0.019	-0.100
-709.660	-27.793	-0.088	0.051
-708.645	431.612	-0.134	-0.291
-707.631	-200.000	-0.077	0.356
-706.616	-83.752	-0.247	0.079
-705.602	-177.496	0.152	0.004
-704.587	-131.969	-0.180	-0.023
-703.572	-200.000	0.021	-0.270
-702.558	106.877	0.120	-0.142
-701.543	435.796	0.114	0.248
-700.529	137.879	-0.131	-0.171
-699.514	12.548	0.043	-0.033
-698.499	172.162	0.149	0.214
-697.485	-200.000	-0.005	0.204
-696.470	-53.393	-0.076	-0.035
-695.456	-140.881	0.147	-0.015
-694.441	7.685	-0.257	-0.192
-693.426	-200.000	-0.007	-0.038
-692.412	-22.545	0.111	-0.067
-691.397	800.000	-0.125	-0.449
-690.383	5.683	-0.547	-0.404
-689.368	515.080	0.078	0.182
-688.354	-14.435	-0.125	0.081
-687.339	-78.846	-0.257	0.088
-686.324	800.000	-0.132	-0.435
-685.310	119.041	0.066	0.081
-684.295	800.000	-0.054	-0.213
-683.281	-111.909	0.379	-0.077
-682.266	561.148	0.144	-0.348
-681.251	800.000	-0.068	0.201
-680.237	-73.940	0.275	0.100
-679.222	-8.182	-0.473	0.318
-678.208	-130.910	0.181	-0.024
-677.193	-139.924	-0.164	-0.017
-676.178	40.334	-0.089	-0.080
-675.164	-200.000	0.004	0.324
-674.149	143.467	-0.205	0.273
-673.135	-75.233	-0.134	-0.048
-672.120	24.695	0.398	-0.329
-671.105	-109.936	-0.305	-0.064
-670.091	76.564	-0.055	0.058
-669.076	-200.000	0.030	0.210
-668.062	51.427	-0.023	-0.022
-667.047	800.000	-0.069	-0.276
-666.032	-65.510	-0.245	0.098
-665.018	-200.000	0.003	0.144
-664.003	115.489	-0.187	-0.229
-662.989	-113.289	0.341	-0.067
-661.974	-44.492	0.122	0.061
-660.959	58.468	0.086	0.085
-659.945	-42.293	-0.276	-0.141
-658.930	-2.990	-0.283	-0.197
-657.916	-76.215	-0.169	0.060
-656.901	-168.597	-0.293	0.011
-655.886	-15.773	0.047	-0.030
-654.872	-129.811	-0.211	-0.029
-653.857	153.167	-0.202	0.276
-652.843	50.952	0.269	0.254
-651.828	-150.661	-0.419	-0.032
-650.814	256.251	-0.031	-0.053
-649.799	25.823	-0.105	-0.088
-648.784	800.000	-0.026	-0.113
-647.770	-132.454	-0.087	0.011
-646.755	-63.891	-0.193	-0.079
-645.741	-200.000	0.030	0.132
-644.726	-200.000	-0.032	0.244
-643.711	-50.586	0.157	-0.074
-642.697	155.899	-0.155	0.213
-641.682	-63.631	0.202	0.083
-640.668	800.000	-0.008	0.029
-639.653	55.934	0.251	0.243
-638.638	-200.000	-0.000	-0.043
-637.624	800.000	-0.096	0.316
-636.609	230.618	-0.100	0.164
-635.595	-200.000	0.006	0.134
-634.580	-111.185	0.185	0.038
-633.565	-200.000	-0.010	0.101
-632.551	92.217	0.029	-0.033
-631.536	-10.467	0.106	0.070
-630.522	-19.762	0.259	-0.160
-629.507	-57.212	0.244	-0.107
-628.492	800.000	0.121	-0.411
-627.478	-200.000	-0.053	-0.265
-626.463	-161.640	0.061	-0.003
-625.449	73.558	0.233	-0.244
-624.434	-31.046	0.008	0.004
-623.419	800.000	-0.140	0.419
-622.405	-100.611	0.260	0.064
-621.390	499.994	0.038	-0.088
-620.376	42.662	0.255	0.231
-619.361	-89.421	-0.058	-0.017
-618.346	53.000	-0.090	0.086
-617.332	34.576	-0.089	-0.077
-616.317	800.000	0.067	-0.218
-615.303	42.960	-0.075	0.068
-614.288	-200.000	0.013	-0.182
-613.273	800.000	0.023	0.097
-612.259	800.000	-0.067	0.225
-611.244	114.976	0.129	0.156
-610.230	94.964	-0.171	-0.194
-609.215	771.689	-0.094	0.257
-608.201	22.453	0.087	-0.071
-607.186	-91.665	-0.227	0.064
-606.171	28.374	0.071	-0.060
-605.157	-164.484	0.288	-0.013
-604.142	800.000	0.048	-0.206
-603.128	82.905	-0.343	-0.371
-602.113	-142.610	0.067	-0.007
-601.098	118.304	0.187	-0.230
-600.084	-200.000	-0.026	-0.209
-599.069	-200.000	-0.054	0.348
-598.055	-63.378	0.141	-0.058
-597.040	-17.135	0.070	0.044
-596.025	18.106	-0.086	-0.068
-595.011	307.774	-0.101	0.187
-593.996	211.204	0.116	0.182
-592.982	25.023	-0.099	-0.082
-591.967	31.374	-0.195	0.167
-590.952	412.653	-0.042	-0.089
-589.938	-61.118	-0.219	0.092
-588.923	-2.545	-0.386	-0.269
-587.909	44.571	-0.165	-0.151
-586.894	412.588	0.211	-0.446
-585.879	-107.719	-0.193	0.042
-584.865	372.181	-0.237	-0.479
-583.850	-5.691	-0.046	0.031
-582.836	-169.952	0.150	-0.005
-581.821	-200.000	0.005	0.361
-580.806	124.623	0.102	0.128
-579.792	169.410	0.078	-0.110
-578.777	-26.960	0.324	0.188
-577.763	350.527	0.101	0.199
-576.748	800.000	-0.060	0.212
-575.733	158.334	0.095	0.131
-574.719	-200.000	-0.035	0.354
-573.704	-200.000	-0.006	-0.176
-572.690	20.331	0.214	0.172
-571.675	-127.207	0.157	-0.023
-570.661	107.817	0.132	0.157
-569.646	444.661	0.158	-0.345
-568.631	-23.973	-0.181	-0.108
-567.617	800.000	0.071	-0.209
-566.602	-105.913	0.286	0.064
-565.588	203.410	-0.249	-0.384
-564.573	177.713	-0.015	0.021
-563.558	18.101	0.069	0.054
-562.544	800.000	0.087	0.306
-561.529	138.463	-0.233	-0.304
-560.515	-200.000	-0.098	-0.573
-559.500	-135.178	0.228	-0.027
-558.485	330.062	0.092	-0.176
-557.471	-200.000	0.056	-0.335
-556.456	169.987	0.276	-0.393
-555.442	-12.911	0.270	-0.175
-554.427	-7.774	-0.240	-0.161
-553.412	5.917	-0.333	0.245
-552.398	95.961	-0.190	-0.216
-551.383	-81.028	-0.146	0.048
-550.369	-91.545	0.084	-0.024
-549.354	255.480	-0.117	0.199
-548.339	-103.494	-0.322	0.075
-547.325	-134.415	0.168	0.020
-546.310	800.000	0.051	-0.146
-545.296	565.148	0.045	-0.109
-544.281	-124.027	0.191	0.030
-543.266	-75.776	0.131	-0.046
-542.252	-102.600	-0.461	-0.109
-541.237	148.102	0.074	0.099
-540.223	-133.851	-0.133	-0.016
-539.208	-165.691	0.107	-0.005
-538.193	2.244	-0.175	0.126
-537.179	-128.893	0.198	0.028
-536.164	-200.000	-0.018	0.233
-535.150	12.260	-0.362	0.278
-534.135	-122.021	0.204	-0.033
-533.121	226.758	0.045	-0.072
-532.106	-77.580	-0.253	-0.087
-531.091	-121.299	-0.266	-0.044
-530.077	10.852	0.125	-0.095
-529.062	9.198	-0.335	-0.252
-528.048	92.337	-0.043	-0.049
-527.033	-200.000	0.040	0.199
-526.018	-93.347	0.281	0.078
-525.004	-55.091	-0.110	0.049
-523.989	131.090	-0.138	-0.176
-522.975	800.000	0.022	-0.076
-521.960	-169.062	-0.313	0.012
-520.945	-28.856	0.449	-0.256
-519.931	-200.000	-0.039	0.220
-518.916	26.238	0.094	0.078
-517.902	-102.458	-0.085	0.020
-516.887	-98.566	-0.109	-0.028
-515.872	239.941	-0.010	0.016
-514.858	30.383	-0.227	-0.192
-513.843	773.341	0.120	-0.325
-512.829	800.000	0.083	-0.272
-511.814	795.252	-0.092	-0.251
-510.799	49.215	-0.152	-0.142
-509.785	800.000	-0.046	-0.132
-508.770	18.386	0.062	-0.049
-507.756	-101.943	-0.256	-0.061
-506.741	173.478	-0.056	-0.081
-505.726	-125.611	0.135	0.020
-504.712	182.431	0.250	0.366
-503.697	-200.000	-0.038	0.356
-502.683	69.079	0.234	0.239
-501.668	-148.450	-0.287	-0.023
-500.653	-88.901	0.145	0.043
-499.639	-112.201	-0.135	0.027
-498.624	800.000	-0.025	-0.082
-497.610	593.899	-0.043	-0.105
-496.595	61.623	0.142	-0.140
-495.581	93.186	0.144	-0.162
-494.566	-26.850	0.054	-0.031
-493.551	-59.315	-0.293	-0.125
-492.537	193.317	-0.113	-0.170
-491.522	-200.000	-0.044	0.222
-490.508	-17.644	0.294	0.184
-489.493	26.407	-0.066	0.055
-488.478	460.808	0.115	0.255
-487.464	41.905	0.244	-0.220
-486.449	-36.251	-0.364	0.195
-485.435	-92.123	-0.084	0.024
-484.420	750.273	-0.093	-0.250
-483.405	-129.640	0.167	0.023
-482.391	-62.412	0.101	0.042
-481.376	-20.517	-0.130	0.080
-480.362	-83.909	-0.045	-0.014
-479.347	58.595	0.127	0.124
-478.332	31.750	-0.179	-0.152
-477.318	800.000	-0.040	0.114
-476.303	800.000	-0.082	0.270
-475.289	97.285	-0.079	-0.090
-474.274	401.416	-0.118	-0.245
-473.259	531.002	0.046	0.108
-472.245	800.000	-0.053	-0.225
-471.230	-58.747	0.291	-0.125
-470.216	-14.667	0.057	-0.036
-469.201	-112.556	-0.050	-0.010
-468.186	-200.000	-0.000	-0.020
-467.172	73.744	0.169	0.175
-466.157	83.332	-0.073	0.079
-465.143	-55.723	-0.349	-0.155
-464.128	150.480	-0.057	-0.076
-463.113	-200.000	-0.036	-0.257
-462.099	477.067	-0.061	0.136
-461.084	-200.000	0.018	0.104
-460.070	338.500	0.231	0.445
-459.055	90.947	-0.168	0.186
-458.040	-68.137	0.052	0.020
-457.026	-62.299	-0.063	0.026
-456.011	-45.941	-0.322	0.158
-454.997	-13.013	0.163	0.105
-453.982	366.837	0.177	-0.354
-452.968	-76.343	-0.219	-0.076
-451.953	-89.371	-0.341	-0.099
-450.938	131.965	0.280	0.358
-449.924	323.571	0.104	-0.197
-448.909	477.962	-0.112	-0.251
-447.895	135.820	-0.270	-0.348
-446.880	-85.477	0.293	0.090
-445.865	605.654	-0.057	0.141
-444.851	-200.000	0.021	0.246
-443.836	311.748	0.068	0.126
-442.822	-134.634	-0.278	0.034
-441.807	-125.279	-0.245	-0.037
-440.792	-7.834	-0.031	-0.021
-439.778	120.321	0.143	0.176
-438.763	151.862	0.122	-0.165
-437.749	784.820	0.029	0.078
-436.734	85.942	0.105	0.115
-435.719	-39.386	-0.177	0.092
-434.705	-200.000	-0.034	0.251
-433.690	74.393	-0.081	0.085
-432.676	-95.167	0.163	-0.044
-431.661	-134.519	-0.306	0.037
-430.646	613.119	-0.169	-0.419
-429.632	800.000	-0.118	-0.416
-428.617	184.916	0.179	0.262
-427.603	-29.939	-0.049	0.028
-426.588	800.000	0.112	0.391
-425.573	-200.000	0.040	0.191
-424.559	800.000	-0.022	-0.088
-423.544	-2.964	0.203	-0.140
-422.530	-134.651	0.278	0.034
-421.515	194.058	0.257	-0.385
-420.500	-28.981	0.177	-0.101
-419.486	687.482	0.031	-0.079
-418.471	0.770	-0.176	0.125
-417.457	-43.133	0.175	-0.088
-416.442	-200.000	0.016	0.154
-415.428	77.769	0.198	0.209
-414.413	-200.000	-0.013	-0.192
-413.398	82.755	-0.243	-0.261
-412.384	-200.000	0.212	0.000
-411.369	-178.943	-0.126	-0.003
-410.355	153.324	0.156	0.211
-409.340	49.524	0.189	0.176
-408.325	-78.407	0.049	0.017
-407.311	-200.000	-0.040	-0.262
-406.296	-200.000	0.029	0.225
-405.282	159.247	0.140	-0.193
-404.267	-116.086	-0.107	-0.020
-403.252	0.755	0.141	0.100
-402.238	-176.065	-0.204	0.005
-401.223	-4.367	0.146	0.100
-400.209	95.564	-0.064	0.072
-399.194	800.000	0.049	0.176
-398.179	800.000	0.105	0.400
-397.165	-178.713	-0.328	0.007
-396.150	26.497	0.194	0.161
-395.136	-120.958	-0.179	-0.030
-394.121	61.255	0.222	-0.218
-393.106	800.000	0.102	-0.292
-392.092	277.019	0.087	-0.152
-391.077	-174.486	-0.152	0.004
-390.063	344.404	-0.122	-0.238
-389.048	162.233	0.054	-0.075
-388.033	-200.000	0.276	-0.000
-387.019	204.183	-0.028	-0.043
-386.004	-200.000	0.014	-0.209
-384.990	105.518	-0.100	-0.117
-383.975	800.000	-0.064	-0.232
-382.960	800.000	-0.180	0.571
-381.946	18.153	-0.117	0.092
-380.931	-200.000	-0.003	-0.349
-379.917	109.908	0.157	0.187
-378.902	184.572	-0.167	0.245
-377.888	-200.000	0.095	0.437
-376.873	-103.269	0.582	-0.136
-375.858	800.000	0.034	0.093
-374.844	-73.636	-0.075	-0.027
-373.829	162.869	-0.207	0.287
-372.815	344.549	0.135	0.262
-371.800	-96.996	0.125	0.032
-370.785	-74.699	0.132	-0.047
-369.771	-110.279	0.312	0.064
-368.756	87.614	-0.088	0.096
-367.742	36.528	0.170	-0.149
-366.727	29.377	-0.224	0.188
-365.712	-21.564	0.088	0.053
-364.698	800.000	0.017	-0.072
-363.683	46.497	-0.108	0.099
-362.669	-82.195	-0.171	0.055
-361.654	-195.578	-0.308	0.002
-360.639	-200.000	0.011	-0.183
-359.625	-83.453	-0.104	-0.033
-358.610	594.738	0.140	0.341
-357.596	78.152	-0.258	-0.271
-356.581	-27.692	0.202	-0.116
-355.566	-165.027	-0.091	0.004
-354.552	67.600	0.150	-0.152
-353.537	-14.378	-0.038	-0.024
-352.523	-200.000	-0.023	-0.159
-351.508	-86.633	-0.062	0.019
-350.493	-113.427	0.148	0.029
-349.479	285.161	0.093	-0.165
-348.464	193.913	-0.262	-0.391
-347.450	81.712	0.034	-0.037
-346.435	-66.247	-0.145	0.057
-345.420	-200.000	-0.014	-0.133
-344.406	800.000	0.084	-0.285
-343.391	-110.805	-0.172	0.035
-342.377	710.813	0.081	0.213
-341.362	-164.983	-0.142	0.006
-340.348	132.101	0.205	-0.260
-339.333	82.052	0.259	-0.276
-338.318	800.000	-0.113	0.317
-337.304	-54.494	0.074	0.033
-336.289	-129.293	0.252	-0.035
-335.275	-90.703	-0.182	-0.052
-334.260	-2.815	0.158	0.109
-333.245	-200.000	-0.007	0.161
-332.231	-166.189	-0.242	-0.010
-331.216	-11.615	0.014	0.009
-330.202	-85.183	-0.254	0.078
-329.187	800.000	-0.086	0.252
-328.172	-33.042	-0.145	0.080
-327.158	-43.171	-0.135	-0.067
-326.143	-152.837	0.055	-0.004
-325.129	90.527	0.202	0.223
-324.114	-16.049	0.116	0.073
-323.099	320.693	0.143	0.267
-322.085	-200.000	-0.008	-0.175
-321.070	-200.000	0.015	0.368
-320.056	-200.000	0.024	0.176
-319.041	-11.456	-0.073	0.048
-318.026	180.624	-0.058	-0.084
-317.012	-59.546	-0.121	-0.051
-315.997	-23.791	-0.107	-0.063
-314.983	-200.000	-0.040	-0.184
-313.968	-200.000	-0.021	0.118
-312.953	800.000	0.078	-0.230
-311.939	712.572	0.130	-0.340
-310.924	444.364	-0.038	-0.082
-309.910	-105.807	-0.181	-0.040
-308.895	275.562	0.042	-0.073
-307.880	617.883	-0.160	-0.396
-306.866	209.391	0.085	0.131
-305.851	-69.386	-0.185	0.070
-304.837	800.000	-0.014	-0.054
-303.822	65.096	-0.265	-0.264
-302.807	-200.000	-0.056	-0.261
-301.793	800.000	0.068	0.206
-300.778	315.997	-0.063	-0.117
-299.764	-106.737	0.154	0.034
-298.749	-57.633	-0.259	-0.112
-297.735	133.997	0.230	-0.294
-296.720	-7.703	-0.185	-0.123
-295.705	-143.150	0.353	-0.034
-294.691	734.837	0.065	-0.170
-293.676	800.000	-0.023	-0.070
-292.662	95.562	0.256	-0.287
-291.647	-151.746	0.137	-0.010
-290.632	-146.696	-0.242	0.021
-289.618	-200.000	-0.023	-0.185
-288.603	800.000	0.049	0.144
-287.589	537.312	-0.037	-0.086
-286.574	-138.124	0.308	0.034
-285.559	69.890	-0.185	0.188
-284.545	-36.295	0.119	0.063
-283.530	-200.000	-0.056	0.387
-282.516	-200.000	0.007	-0.215
-281.501	441.980	-0.101	0.218
-280.486	-200.000	-0.045	-0.282
-279.472	-200.000	-0.012	0.172
-278.457	-45.026	-0.346	0.169
-277.443	178.555	-0.067	-0.096
-276.428	-200.000	-0.054	0.275
-275.413	-103.254	-0.222	-0.052
-274.399	800.000	-0.083	0.234
-273.384	64.541	-0.333	-0.331
-272.370	136.171	-0.019	-0.024
-271.355	-200.000	-0.021	0.197
-270.340	-93.393	0.430	-0.117
-269.326	-145.181	-0.230	0.020
-268.311	-118.788	-0.217	-0.038
-267.297	-100.846	0.161	-0.039
-266.282	316.468	0.038	-0.071
-265.267	125.582	-0.201	-0.250
-264.253	-73.149	-0.075	0.027
-263.238	800.000	-0.065	0.178
-262.224	78.749	-0.106	-0.111
-261.209	-200.000	-0.008	0.074
-260.195	-25.847	0.076	0.044
-259.180	-99.818	-0.393	-0.097
-258.165	80.861	0.126	0.134
-257.151	37.084	0.247	-0.215
-256.136	-35.667	-0.031	0.017
-255.122	226.742	-0.054	-0.087
-254.107	-66.961	-0.096	0.037
-253.092	800.000	-0.152	0.465
-252.078	800.000	-0.083	0.295
-251.063	38.203	0.136	0.119
-250.049	-2.042	0.105	0.073
-249.034	-200.000	0.063	0.570
-248.019	60.626	-0.137	0.134
-247.005	121.618	-0.186	0.229
-245.990	106.804	-0.285	-0.333
-244.976	567.079	0.080	0.190
-243.961	800.000	-0.118	-0.342
-242.946	466.894	-0.116	-0.256
-241.932	800.000	-0.051	-0.142
-240.917	-122.920	-0.064	0.010
-239.903	617.948	0.136	0.336
-238.888	800.000	-0.017	-0.059
-237.873	60.361	0.272	-0.265
-236.859	-134.318	0.160	-0.019
-235.844	-38.069	-0.302	0.158
-234.830	-53.528	-0.198	-0.089
-233.815	-98.149	0.298	0.075
-232.800	-18.176	0.277	-0.171
-231.786	-73.135	0.027	0.010
-230.771	376.269	-0.021	0.043
-229.757	-200.000	0.057	0.271
-228.742	333.299	0.087	0.165
-227.727	-200.000	-0.009	0.230
-226.713	-122.553	-0.160	-0.026
-225.698	389.671	0.052	-0.106
-224.684	85.623	0.173	0.187
-223.669	-104.363	0.181	0.041
-222.655	188.738	0.104	-0.153
-221.640	-122.738	0.017	0.003
-220.625	-87.721	0.381	-0.113
-219.611	800.000	0.027	-0.076
-218.596	344.413	-0.035	0.067
-217.582	-92.551	-0.368	0.101
-216.567	-184.392	0.232	0.004
-215.552	-19.765	-0.077	0.047
-214.538	14.246	0.212	-0.162
-213.523	187.644	-0.118	0.173
-212.509	198.207	0.316	0.474
-211.494	402.855	0.169	-0.348
-210.479	491.613	0.126	-0.283
-209.465	50.234	0.203	0.188
-208.450	-200.000	-0.033	0.346
-207.436	38.022	-0.210	-0.184
-206.421	87.835	0.190	0.207
-205.406	-190.974	-0.115	0.001
-204.392	17.905	0.100	0.078
-203.377	-64.031	-0.109	0.044
-202.363	181.133	0.018	-0.026
-201.348	7.963	0.219	0.162
-200.333	-62.895	-0.312	0.127
-199.319	800.000	0.143	0.420
-198.304	70.977	-0.127	0.130
-197.290	-99.592	0.170	0.042
-196.275	221.444	0.292	0.460
-195.260	-71.076	-0.057	0.021
-194.246	260.869	0.178	0.302
-193.231	418.788	0.281	-0.590
-192.217	346.714	-0.043	0.084
-191.202	84.750	-0.307	-0.330
-190.187	-142.299	0.081	0.008
-189.173	-35.835	0.183	0.097
-188.158	118.661	0.326	-0.395
-187.144	164.145	0.112	0.154
-186.129	-20.135	-0.315	0.190
-185.114	-79.128	0.213	0.071
-184.100	-145.311	-0.171	-0.015
-183.085	525.486	-0.024	-0.055
-182.071	-200.000	-0.003	0.189
-181.056	-200.000	-0.009	0.040
-180.042	800.000	-0.044	-0.139
-179.027	-74.695	0.170	-0.060
-178.012	-145.417	-0.109	0.010
-176.998	-111.990	0.165	-0.033
-175.983	-71.403	0.213	0.078
-174.969	-105.487	-0.178	0.040
-173.954	100.522	-0.057	0.065
-172.939	38.274	-0.385	-0.336
-171.925	-200.000	-0.066	-0.492
-170.910	-74.682	0.245	-0.086
-169.896	800.000	-0.039	0.140
-168.881	-26.372	-0.069	-0.040
-167.866	195.963	0.153	0.228
-166.852	270.944	0.163	-0.282
-165.837	212.934	-0.148	-0.228
-164.823	76.415	0.092	-0.096
-163.808	-182.078	0.297	-0.005
-162.793	-143.065	-0.176	0.017
-161.779	-86.666	-0.340	0.102
-160.764	472.995	0.053	-0.118
-159.750	-8.006	0.088	0.058
-158.735	-36.713	-0.107	0.056
-157.720	-109.900	0.098	0.020
-156.706	661.977	-0.014	-0.036
-155.691	593.915	-0.077	0.187
-154.677	-118.500	-0.303	-0.053
-153.662	20.709	0.333	0.264
-152.647	-13.294	0.089	0.057
-151.633	89.411	-0.365	0.399
-150.618	8.744	0.096	0.071
-149.604	90.738	0.074	0.081
-148.589	-16.250	-0.309	-0.192
-147.574	-123.868	0.371	0.057
-146.560	484.672	0.075	-0.167
-145.545	-200.000	-0.007	0.076
-144.531	124.407	-0.126	0.155
-143.516	293.591	-0.113	-0.202
-142.502	-200.000	0.070	0.525
-141.487	-52.583	-0.059	-0.027
-140.472	-31.049	-0.297	-0.164
-139.458	-92.100	0.334	0.092
-138.443	15.850	-0.110	-0.085
-137.429	551.998	-0.124	-0.292
-136.414	800.000	-0.039	-0.126
-135.399	32.104	-0.177	0.149
-134.385	219.941	0.131	-0.205
-133.370	-200.000	-0.011	0.070
-132.356	720.023	-0.054	-0.141
-131.341	-108.630	-0.452	0.095
-130.326	-78.852	-0.255	0.085
-129.312	129.996	0.142	-0.178
-128.297	-40.151	-0.367	-0.187
-127.283	77.456	-0.239	0.248
-126.268	-122.989	0.081	0.013
-125.253	-15.388	0.119	0.075
-124.239	800.000	-0.096	0.339
-123.224	-200.000	0.047	0.274
-122.210	233.985	-0.145	0.234
-121.195	-200.000	-0.038	0.383
