DTS Sentinel unit serial number:	SN413079Multiplexer serial number:	ORYXHardware model number:	OX4-SRSoftware version number:	ORYX F/W v4.00 Oryx Data Collector v3.7.2.0data status	okinstallation	princeton_trtdifferential loss correction	single-endedforward channel	channel 1reverse channel	N/Adate	2019/09/10time	23:56:11forward acquisition time	60.00reverse acquisition time	0.00gamma	496.2192k internal	0.2331k external	0.2331temperature offset calibration	0.9936default loss term (dB/km)	0.3790temperature slope calibration	1.0000multiplexer offset coefficient	1.0000multiplexer slope coefficient	1.0000fibre end	0.00T internal ref (°C)	29.47T ext. ref 1 (°C)	-0.32T ext. ref 2 (°C)	23.06length (m)	temperature (°C)	Stokes	anti-Stokes-747.200	-75.288	0.306	-0.110
-746.185	-200.000	-0.014	0.099
-745.171	-123.402	0.327	0.052
-744.156	-7.654	-0.279	0.190
-743.142	4.429	0.134	0.099
-742.127	-73.890	0.239	-0.087
-741.112	800.000	-0.070	0.283
-740.098	475.357	-0.065	0.147
-739.083	72.010	0.050	-0.052
-738.069	-7.467	0.035	0.024
-737.054	-94.013	-0.250	0.069
-736.039	-142.504	-0.424	-0.042
-735.025	-55.026	0.233	0.105
-734.010	2.996	-0.121	-0.089
-732.996	-179.041	-0.321	-0.007
-731.981	103.760	0.065	-0.077
-730.966	35.855	0.126	-0.112
-729.952	-115.540	-0.134	0.025
-728.937	23.775	0.367	-0.304
-727.923	-200.000	0.046	-0.286
-726.908	-200.000	0.001	-0.095
-725.894	-200.000	-0.033	-0.181
-724.879	0.179	-0.319	0.229
-723.864	-12.879	0.140	0.092
-722.850	-164.853	0.220	-0.010
-721.835	215.972	0.204	-0.326
-720.821	36.580	-0.120	-0.107
-719.806	-200.000	-0.024	-0.195
-718.791	800.000	-0.026	0.110
-717.777	-31.517	-0.044	-0.025
-716.762	-4.122	0.230	0.160
-715.748	58.490	-0.112	0.111
-714.733	-200.000	0.047	-0.325
-713.718	800.000	-0.069	-0.302
-712.704	-80.296	-0.118	0.040
-711.689	-200.000	-0.010	-0.109
-710.675	-106.780	-0.308	0.069
-709.660	30.948	0.164	0.142
-708.645	-57.499	0.133	-0.059
-707.631	-70.203	0.160	0.061
-706.616	785.228	0.041	-0.113
-705.602	-17.087	-0.089	0.056
-704.587	-51.778	-0.323	-0.151
-703.572	-200.000	-0.046	-0.207
-702.558	659.023	-0.196	0.506
-701.543	-94.166	0.373	-0.103
-700.529	302.602	0.139	-0.258
-699.514	249.750	-0.189	0.321
-698.499	800.000	-0.064	0.255
-697.485	-108.811	0.251	0.054
-696.470	450.639	0.049	0.109
-695.456	731.247	-0.057	0.153
-694.441	390.688	-0.143	-0.298
-693.426	-167.057	-0.048	0.002
-692.412	88.688	-0.213	-0.237
-691.397	125.175	-0.094	-0.119
-690.383	30.143	-0.373	-0.319
-689.368	411.198	0.006	-0.013
-688.354	-92.967	-0.347	-0.097
-687.339	3.669	0.245	-0.180
-686.324	-200.000	-0.001	-0.098
-685.310	648.570	-0.037	-0.095
-684.295	9.438	-0.171	-0.130
-683.281	-123.687	-0.341	-0.054
-682.266	16.690	0.108	-0.086
-681.251	-200.000	0.000	-0.125
-680.237	-13.675	-0.215	-0.139
-679.222	-146.034	-0.102	-0.009
-678.208	-115.829	0.192	0.036
-677.193	-16.756	-0.191	0.121
-676.178	8.485	-0.127	-0.096
-675.164	190.216	-0.076	0.114
-674.149	-154.893	-0.271	-0.018
-673.135	-26.897	0.432	-0.253
-672.120	-200.000	-0.006	-0.246
-671.105	-200.000	0.030	-0.291
-670.091	-200.000	0.008	-0.401
-669.076	27.679	0.156	-0.132
-668.062	381.132	-0.155	-0.320
-667.047	57.128	-0.163	-0.159
-666.032	-27.674	0.074	-0.043
-665.018	-200.000	0.027	0.235
-664.003	83.504	0.126	0.137
-662.989	-200.000	0.004	0.221
-661.974	139.257	0.184	0.242
-660.959	-200.000	-0.058	-0.316
-659.945	34.976	0.044	-0.039
-658.930	110.528	0.060	0.073
-657.916	-151.792	0.573	0.042
-656.901	-120.485	-0.182	-0.031
-655.886	105.820	-0.173	-0.205
-654.872	800.000	0.041	-0.158
-653.857	-24.106	0.193	0.116
-652.843	-7.475	0.256	-0.174
-651.828	-66.587	-0.185	-0.074
-650.814	-200.000	-0.002	0.151
-649.799	-0.993	-0.157	-0.111
-648.784	-160.317	-0.211	-0.011
-647.770	800.000	-0.034	-0.135
-646.755	-41.015	0.169	-0.088
-645.741	-200.000	0.063	-0.570
-644.726	128.625	0.059	0.075
-643.711	800.000	0.070	0.285
-642.697	-95.068	0.347	0.094
-641.682	152.935	-0.181	0.248
-640.668	-195.088	0.178	0.001
-639.653	-54.083	-0.357	-0.163
-638.638	-35.615	0.199	-0.108
-637.624	81.339	0.112	-0.122
-636.609	-200.000	0.184	-0.000
-635.595	-95.302	-0.233	-0.063
-634.580	-200.000	-0.057	-0.288
-633.565	-63.325	0.027	-0.011
-632.551	-58.763	-0.227	0.098
-631.536	-200.000	-0.008	0.153
-630.522	-143.435	0.172	0.017
-629.507	208.477	0.095	0.148
-628.492	800.000	0.011	0.031
-627.478	120.134	0.052	0.065
-626.463	-146.010	0.075	-0.007
-625.449	-47.720	0.262	-0.127
-624.434	-67.844	-0.050	-0.019
-623.419	106.831	-0.277	-0.329
-622.405	-171.977	0.278	-0.009
-621.390	-200.000	0.012	-0.330
-620.376	467.360	-0.083	-0.187
-619.361	-95.528	-0.336	0.090
-618.346	260.190	-0.267	-0.463
-617.332	111.786	-0.037	0.045
-616.317	298.441	0.045	-0.084
-615.303	-7.555	0.498	0.337
-614.288	558.908	0.093	0.226
-613.273	-81.177	-0.183	-0.060
-612.259	158.329	-0.116	-0.161
-611.244	-58.861	0.100	0.043
-610.230	-200.000	0.020	-0.130
-609.215	49.654	0.154	-0.145
-608.201	800.000	-0.025	0.089
-607.186	800.000	-0.096	-0.344
-606.171	-19.889	-0.482	-0.298
-605.157	-46.021	-0.171	-0.084
-604.142	-127.974	-0.334	-0.048
-603.128	-28.347	0.081	-0.047
-602.113	51.168	0.170	-0.161
-601.098	-132.163	-0.257	-0.033
-600.084	-105.838	0.214	-0.048
-599.069	800.000	0.127	-0.379
-598.055	101.812	-0.052	0.061
-597.040	144.292	-0.154	0.206
-596.025	-0.418	-0.059	0.042
-595.011	-200.000	-0.003	0.098
-593.996	800.000	0.027	-0.096
-592.982	-200.000	0.012	0.166
-591.967	69.029	-0.215	-0.221
-590.952	-71.475	-0.125	-0.047
-589.938	259.333	-0.121	-0.209
-588.923	53.504	0.107	-0.103
-587.909	-85.244	-0.176	0.055
-586.894	-90.276	-0.313	0.091
-585.879	150.459	0.163	0.221
-584.865	-187.815	-0.297	0.004
-583.850	-147.298	0.196	-0.017
-582.836	162.582	-0.051	0.071
-581.821	10.737	-0.099	0.075
-580.806	329.655	-0.323	-0.621
-579.792	84.803	-0.172	-0.189
-578.777	-121.976	0.054	-0.009
-577.763	-66.258	0.090	-0.036
-576.748	175.462	-0.122	-0.176
-575.733	-171.124	-0.202	0.007
-574.719	-110.174	-0.158	-0.033
-573.704	-50.557	-0.141	-0.067
-572.690	28.323	0.269	0.228
-571.675	-86.816	-0.292	-0.089
-570.661	-53.030	-0.205	-0.094
-569.646	-153.983	0.166	-0.011
-568.631	-80.038	-0.118	-0.039
-567.617	119.623	0.212	-0.263
-566.602	565.605	0.051	-0.124
-565.588	-110.643	0.151	-0.031
-564.573	60.969	-0.107	-0.106
-563.558	186.779	-0.177	-0.263
-562.544	-200.000	0.052	-0.293
-561.529	387.294	-0.044	0.091
-560.515	168.046	-0.115	-0.163
-559.500	288.967	-0.051	0.092
-558.485	-103.380	0.343	0.081
-557.471	-145.115	-0.121	0.011
-556.456	53.165	-0.023	0.022
-555.442	140.595	0.203	-0.268
-554.427	-27.463	0.156	0.090
-553.412	686.991	0.083	-0.217
-552.398	202.951	-0.095	0.146
-551.383	293.324	0.110	-0.200
-550.369	-99.017	0.224	0.057
-549.354	-200.000	0.022	0.411
-548.339	-2.120	0.179	-0.126
-547.325	4.765	0.316	0.232
-546.310	62.863	0.186	0.186
-545.296	800.000	0.054	-0.166
-544.281	48.124	-0.085	-0.080
-543.266	-71.544	-0.325	0.121
-542.252	-145.227	-0.015	0.001
-541.237	168.007	-0.096	-0.136
-540.223	331.810	0.053	-0.102
-539.208	-182.509	-0.193	-0.004
-538.193	-22.058	-0.108	-0.066
-537.179	-200.000	-0.005	-0.116
-536.164	-80.481	-0.153	-0.051
-535.150	-50.800	-0.189	-0.089
-534.135	-48.404	0.345	-0.166
-533.121	649.215	-0.122	-0.311
-532.106	-200.000	-0.009	0.049
-531.091	-89.994	-0.091	-0.027
-530.077	18.609	-0.149	0.119
-529.062	-34.150	-0.104	0.057
-528.048	-16.473	-0.290	0.183
-527.033	800.000	0.073	-0.222
-526.018	800.000	-0.087	-0.292
-525.004	-109.221	0.395	-0.084
-523.989	105.470	-0.130	-0.153
-522.975	-200.000	-0.008	0.178
-521.960	-200.000	-0.041	0.199
-520.945	-87.725	-0.151	-0.045
-519.931	546.934	0.072	0.172
-518.916	4.198	0.120	-0.088
-517.902	-131.718	0.028	-0.004
-516.887	211.310	-0.098	0.153
-515.872	-57.757	-0.135	-0.059
-514.858	-200.000	-0.008	-0.224
-513.843	800.000	0.082	-0.270
-512.829	-27.313	-0.302	-0.175
-511.814	800.000	0.067	0.227
-510.799	730.230	-0.061	0.163
-509.785	-43.348	-0.235	0.118
-508.770	67.479	0.111	0.113
-507.756	9.047	0.069	-0.052
-506.741	-200.000	0.016	0.176
-505.726	-80.638	-0.173	-0.057
-504.712	-84.360	-0.283	-0.089
-503.697	-200.000	0.049	-0.222
-502.683	181.038	0.147	0.216
-501.668	-70.736	0.107	-0.040
-500.653	77.270	-0.096	-0.101
-499.639	-2.612	0.108	-0.075
-498.624	-200.000	-0.007	-0.153
-497.610	-56.339	-0.292	-0.129
-496.595	39.293	-0.107	-0.095
-495.581	-118.656	0.093	0.016
-494.566	204.368	0.158	0.244
-493.551	-95.638	-0.054	-0.015
-492.537	96.694	0.161	0.184
-491.522	-56.654	-0.240	0.106
-490.508	-200.000	0.041	0.183
-489.493	0.818	-0.200	-0.143
-488.478	64.427	-0.146	0.147
-487.464	180.737	-0.088	-0.129
-486.449	-135.328	-0.323	0.038
-485.435	-175.369	0.201	-0.005
-484.420	-47.271	-0.223	-0.108
-483.405	-122.801	0.376	0.060
-482.391	-116.470	0.339	-0.062
-481.376	141.250	0.038	0.051
-480.362	2.884	-0.111	0.080
-479.347	-37.537	0.373	-0.198
-478.332	185.875	0.096	-0.142
-477.318	131.388	-0.227	0.290
-476.303	-200.000	0.003	0.119
-475.289	800.000	-0.025	-0.074
-474.274	800.000	0.055	0.225
-473.259	-79.198	0.037	0.012
-472.245	-42.553	-0.220	-0.111
-471.230	198.051	-0.147	0.224
-470.216	115.769	0.173	0.211
-469.201	-200.000	0.053	0.286
-468.186	-200.000	-0.001	-0.223
-467.172	-70.258	0.121	-0.046
-466.157	-200.000	0.013	-0.265
-465.143	721.015	-0.047	0.125
-464.128	-121.931	-0.174	0.029
-463.113	76.643	0.062	0.065
-462.099	800.000	-0.048	-0.133
-461.084	800.000	0.105	0.302
-460.070	-153.572	-0.361	0.025
-459.055	-200.000	0.007	0.529
-458.040	-200.000	0.002	0.024
-457.026	-81.507	0.146	0.048
-456.011	-200.000	-0.004	0.144
-454.997	448.006	-0.187	-0.411
-453.982	32.752	-0.402	0.346
-452.968	677.097	-0.022	0.057
-451.953	587.141	0.050	-0.122
-450.938	168.166	0.244	0.346
-449.924	-164.461	-0.456	0.021
-448.909	800.000	0.037	0.129
-447.895	-90.560	0.335	-0.096
-446.880	228.116	0.083	0.135
-445.865	-86.786	0.330	0.100
-444.851	383.833	0.053	0.108
-443.836	438.982	-0.084	-0.181
-442.822	-176.107	-0.159	0.004
-441.807	-119.067	-0.186	0.032
-440.792	-200.000	-0.085	0.486
-439.778	339.355	0.228	0.443
-438.763	-200.000	0.009	-0.113
-437.749	-200.000	-0.037	0.246
-436.734	26.516	-0.150	-0.125
-435.719	-54.602	0.178	0.080
-434.705	-200.000	0.052	-0.283
-433.690	241.977	0.058	0.097
-432.676	61.808	0.185	-0.183
-431.661	234.210	-0.076	-0.125
-430.646	800.000	-0.051	0.173
-429.632	-200.000	-0.035	0.182
-428.617	473.803	0.139	-0.311
-427.603	-200.000	0.057	-0.329
-426.588	-200.000	-0.020	0.106
-425.573	-29.805	0.305	-0.173
-424.559	469.568	0.135	-0.300
-423.544	-95.230	0.276	-0.074
-422.530	552.446	-0.004	-0.009
-421.515	-89.061	0.012	0.003
-420.500	-200.000	-0.024	-0.442
-419.486	-141.640	0.196	0.020
-418.471	-153.028	0.193	-0.013
-417.457	122.237	0.157	0.195
-416.442	-128.117	0.332	0.047
-415.428	-52.841	-0.215	0.098
-414.413	-151.780	-0.091	-0.007
-413.398	800.000	0.051	0.173
-412.384	14.220	-0.531	-0.411
-411.369	451.861	0.161	0.354
-410.355	-104.871	-0.263	0.060
-409.340	563.782	-0.141	-0.340
-408.325	-34.521	-0.120	0.066
-407.311	800.000	0.047	0.175
-406.296	134.185	0.233	-0.300
-405.282	633.009	-0.069	0.175
-404.267	40.311	-0.098	-0.087
-403.252	-200.000	0.039	-0.370
-402.238	800.000	0.018	-0.069
-401.223	-6.490	0.267	0.180
-400.209	-93.459	-0.248	0.068
-399.194	186.956	0.226	-0.335
-398.179	21.831	-0.211	-0.170
-397.165	800.000	0.076	-0.250
-396.150	-200.000	0.001	-0.173
-395.136	83.121	-0.159	0.171
-394.121	177.119	-0.282	0.408
-393.106	800.000	-0.096	-0.394
-392.092	-200.000	-0.019	-0.190
-391.077	-200.000	0.015	0.448
-390.063	-200.000	-0.031	0.341
-389.048	800.000	0.091	0.383
-388.033	-30.353	0.153	0.086
-387.019	-200.000	0.022	-0.138
-386.004	-36.029	-0.355	-0.190
-384.990	-80.575	-0.119	-0.039
-383.975	-163.947	0.068	0.003
-382.960	-200.000	0.099	-0.446
-381.946	-2.481	-0.087	-0.060
-380.931	138.610	-0.230	0.299
-379.917	0.431	-0.147	-0.104
-378.902	-120.287	-0.166	-0.028
-377.888	800.000	0.020	0.069
-376.873	251.954	0.031	-0.053
-375.858	-24.169	0.185	0.110
-374.844	800.000	-0.105	0.318
-373.829	-200.000	-0.060	-0.270
-372.815	167.739	-0.137	-0.193
-371.800	-125.918	-0.263	0.039
-370.785	-53.216	-0.127	-0.058
-369.771	118.413	0.153	0.188
-368.756	-200.000	-0.014	-0.105
-367.742	18.676	-0.213	0.169
-366.727	228.188	0.157	-0.254
-365.712	800.000	0.057	0.156
-364.698	-200.000	-0.020	-0.194
-363.683	274.686	-0.128	0.225
-362.669	293.439	-0.104	-0.189
-361.654	62.234	-0.056	-0.056
-360.639	-190.978	-0.228	-0.002
-359.625	152.273	-0.214	-0.290
-358.610	-128.622	-0.161	-0.023
-357.596	-200.000	0.004	0.279
-356.581	255.054	0.159	0.270
-355.566	-95.970	-0.263	0.069
-354.552	-178.315	0.302	0.007
-353.537	38.902	0.340	0.301
-352.523	-121.092	0.206	-0.034
-351.508	34.905	-0.049	0.042
-350.493	800.000	-0.079	-0.275
-349.479	-200.000	0.052	-0.445
-348.464	479.344	0.185	-0.415
-347.450	372.537	0.087	-0.175
-346.435	-200.000	-0.029	-0.157
-345.420	233.332	-0.282	0.459
-344.406	-200.000	-0.040	-0.261
-343.391	375.465	-0.075	-0.151
-342.377	800.000	0.027	-0.108
-341.362	87.030	0.160	-0.175
-340.348	269.922	0.032	-0.055
-339.333	-145.419	0.271	-0.024
-338.318	-109.573	0.056	0.012
-337.304	34.142	-0.218	-0.189
-336.289	-154.455	0.121	0.008
-335.275	-96.553	0.334	-0.087
-334.260	-140.443	0.024	-0.003
-333.245	270.748	0.264	0.460
-332.231	299.874	0.026	0.047
-331.216	178.146	0.163	-0.235
-330.202	77.702	0.379	0.400
-329.187	-112.734	-0.307	-0.060
-328.172	216.286	0.038	0.060
-327.158	126.445	0.274	-0.344
-326.143	-124.666	0.077	0.012
-325.129	-59.793	0.123	0.052
-324.114	10.156	0.264	-0.199
-323.099	323.028	0.063	-0.120
-322.085	30.809	0.177	0.150
-321.070	-69.578	-0.152	-0.057
-320.056	-200.000	-0.024	-0.178
-319.041	-51.449	0.192	0.089
-318.026	11.003	-0.201	-0.152
-317.012	-15.347	0.163	0.103
-315.997	800.000	-0.065	0.210
-314.983	-141.125	0.176	0.018
-313.968	-23.031	-0.293	0.175
-312.953	800.000	0.093	0.362
-311.939	-200.000	-0.017	0.318
-310.924	-200.000	0.002	-0.110
-309.910	296.481	0.087	0.158
-308.895	-200.000	-0.013	0.213
-307.880	97.140	0.222	0.252
-306.866	135.068	0.128	0.165
-305.851	800.000	0.036	0.125
-304.837	-200.000	-0.033	-0.165
-303.822	268.355	0.065	-0.113
-302.807	-200.000	0.036	0.179
-301.793	268.924	-0.127	-0.220
-300.778	101.321	-0.023	0.026
-299.764	661.694	0.160	0.408
-298.749	-105.934	0.206	0.046
-297.735	631.992	-0.058	0.146
-296.720	-7.022	-0.140	0.094
-295.705	-40.855	0.118	0.060
-294.691	116.169	0.272	0.329
-293.676	800.000	0.052	0.226
-292.662	58.246	-0.015	-0.014
-291.647	-200.000	0.001	-0.010
-290.632	-184.909	0.189	-0.003
-289.618	-200.000	0.030	0.144
-288.603	569.220	-0.059	0.141
-287.589	175.055	-0.066	0.094
-286.574	188.043	0.173	0.256
-285.559	69.865	-0.050	-0.051
-284.545	-60.618	-0.124	-0.052
-283.530	215.077	0.136	0.213
-282.516	-94.913	0.115	0.031
-281.501	438.189	0.132	0.284
-280.486	80.444	0.148	-0.157
-279.472	-110.265	0.030	-0.006
-278.457	-200.000	0.090	0.550
-277.443	-200.000	0.047	0.215
-276.428	-138.806	0.195	0.021
-275.413	51.584	-0.240	0.226
-274.399	-79.822	0.311	0.103
-273.384	-197.898	-0.204	0.001
-272.370	-23.745	-0.053	-0.031
-271.355	-15.549	-0.196	0.123
-270.340	-160.280	0.150	-0.008
-269.326	-200.000	0.020	-0.237
-268.311	64.967	-0.124	-0.124
-267.297	-147.317	-0.278	-0.023
-266.282	-19.267	-0.291	0.178
-265.267	800.000	0.030	-0.102
-264.253	145.775	0.124	0.164
-263.238	-79.653	-0.114	-0.038
-262.224	541.371	0.101	-0.237
-261.209	800.000	0.102	0.338
-260.195	179.756	0.147	-0.212
-259.180	215.614	-0.033	0.052
-258.165	-68.338	0.208	0.080
-257.151	-71.942	-0.213	-0.078
-256.136	600.655	0.102	-0.251
-255.122	-110.808	0.101	0.021
-254.107	256.686	-0.084	-0.142
-253.092	63.455	0.148	0.146
-252.078	800.000	-0.010	-0.036
-251.063	-174.489	-0.295	0.008
-250.049	-124.264	0.077	0.012
-249.034	-200.000	-0.002	-0.156
-248.019	-30.363	-0.065	-0.037
-247.005	800.000	0.021	-0.075
-245.990	-200.000	0.012	-0.316
-244.976	-10.282	-0.112	-0.074
-243.961	124.837	-0.078	0.097
-242.946	-47.906	0.083	-0.039
-241.932	191.952	0.199	0.295
-240.917	800.000	0.171	-0.523
-239.903	-39.075	-0.234	-0.121
-238.888	-200.000	-0.013	0.114
-237.873	292.995	-0.083	0.150
-236.859	-109.604	-0.290	-0.060
-235.844	-16.323	0.296	-0.185
-234.830	262.265	-0.085	0.145
-233.815	109.126	0.176	-0.208
-232.800	-123.541	0.236	-0.037
-231.786	754.493	-0.044	0.118
-230.771	-200.000	-0.009	-0.105
-229.757	-112.016	-0.312	-0.062
-228.742	-5.584	-0.183	-0.124
-227.727	-200.000	-0.027	0.248
-226.713	-167.703	0.190	-0.007
-225.698	-40.093	0.262	0.135
-224.684	653.755	0.073	0.184
-223.669	-116.142	-0.123	-0.023
-222.655	194.275	-0.111	-0.165
-221.640	-99.653	-0.106	-0.026
-220.625	-5.029	0.098	0.067
-219.611	-2.064	0.170	0.118
-218.596	-158.787	-0.137	-0.008
-217.582	94.974	-0.123	-0.138
-216.567	800.000	0.060	-0.218
-215.552	-33.921	-0.183	0.099
-214.538	111.775	0.116	0.138
-213.523	222.326	0.055	-0.088
-212.509	747.840	-0.074	0.196
-211.494	800.000	0.088	0.281
-210.479	800.000	-0.104	0.321
-209.465	269.697	-0.157	0.271
-208.450	-132.600	-0.071	0.009
-207.436	322.715	-0.052	0.097
-206.421	168.046	0.125	0.175
-205.406	328.585	0.191	0.362
-204.392	432.931	-0.096	-0.205
-203.377	464.689	0.063	-0.138
-202.363	-79.755	-0.159	0.053
-201.348	-34.328	0.245	-0.132
-200.333	20.772	0.296	0.236
-199.319	-169.938	0.211	0.007
-198.304	184.795	0.233	0.340
-197.290	-63.939	-0.377	-0.152
-196.275	-107.224	-0.108	0.023
-195.260	49.879	-0.152	-0.142
-194.246	800.000	-0.047	0.135
-193.231	-200.000	-0.031	0.163
-192.217	445.008	0.110	-0.239
-191.202	800.000	-0.048	0.138
-190.187	-68.664	-0.027	-0.010
-189.173	251.923	-0.273	0.457
-188.158	-10.994	-0.205	-0.133
-187.144	-200.000	-0.016	0.208
-186.129	43.086	0.237	0.213
-185.114	112.524	-0.024	0.029
-184.100	-131.121	0.328	0.043
-183.085	13.415	-0.065	0.050
-182.071	283.777	-0.269	-0.476
-181.056	-129.144	0.080	0.011
-180.042	233.264	0.132	-0.213
-179.027	800.000	-0.109	-0.349
-178.012	99.568	0.165	-0.188
-176.998	-200.000	-0.002	0.070
-175.983	5.583	-0.226	0.164
-174.969	-71.927	0.079	0.029
-173.954	-118.978	0.135	0.023
-172.939	-55.579	0.108	0.047
-171.925	-56.861	-0.310	-0.135
-170.910	43.135	0.127	-0.114
-169.896	-200.000	-0.010	-0.118
-168.881	149.694	0.050	0.067
-167.866	-160.818	0.360	0.019
-166.852	-134.941	0.224	0.027
-165.837	242.770	0.176	0.290
-164.823	-135.540	0.113	-0.013
-163.808	21.295	-0.201	0.160
-162.793	180.837	0.090	0.130
-161.779	4.540	0.089	0.064
-160.764	-200.000	-0.020	-0.244
-159.750	5.173	0.118	-0.086
-158.735	-119.772	0.103	-0.018
-157.720	-200.000	-0.065	0.296
-156.706	218.892	-0.136	-0.214
-155.691	41.424	-0.124	0.111
-154.677	-124.186	0.081	0.012
-153.662	-200.000	0.063	0.300
-152.647	800.000	-0.037	0.143
-151.633	-19.390	0.073	0.044
-150.618	-149.385	0.179	0.014
-149.604	-82.455	-0.373	-0.119
-148.589	-122.068	-0.284	-0.046
-147.574	-13.379	0.221	0.141
-146.560	-76.732	0.266	-0.092
-145.545	-64.650	0.151	0.060
-144.531	101.842	-0.221	0.253
-143.516	-70.707	0.168	0.062
-142.502	28.055	0.201	-0.167
-141.487	-200.000	0.005	-0.215
-140.472	-4.573	0.099	0.067
-139.458	800.000	-0.090	0.312
-138.443	0.602	-0.298	-0.209
-137.429	6.000	0.096	-0.070
-136.414	-200.000	0.013	0.148
-135.399	-200.000	-0.058	-0.340
-134.385	157.169	0.166	0.225
-133.370	-103.826	0.050	0.011
-132.356	-86.519	0.189	0.057
-131.341	-200.000	0.001	-0.303
-130.326	-200.000	-0.015	-0.243
-129.312	-200.000	0.008	0.108
-128.297	-98.057	-0.218	0.055
-127.283	726.562	-0.134	0.350
-126.268	239.017	-0.179	0.293
-125.253	72.518	0.058	0.059
-124.239	-78.705	0.152	0.051
-123.224	800.000	0.033	0.108
-122.210	-25.566	0.037	-0.021
-121.195	127.986	0.139	-0.174
