DTS Sentinel unit serial number:	SN413079Multiplexer serial number:	ORYXHardware model number:	OX4-SRSoftware version number:	ORYX F/W v4.00 Oryx Data Collector v3.7.2.0data status	okinstallation	princeton_trtdifferential loss correction	single-endedforward channel	channel 1reverse channel	N/Adate	2019/09/11time	20:52:11forward acquisition time	60.00reverse acquisition time	0.00gamma	496.2192k internal	0.2307k external	0.2307temperature offset calibration	1.0040default loss term (dB/km)	0.3790temperature slope calibration	1.0000multiplexer offset coefficient	1.0000multiplexer slope coefficient	1.0000fibre end	0.00T internal ref (°C)	36.92T ext. ref 1 (°C)	1.49T ext. ref 2 (°C)	30.76length (m)	temperature (°C)	Stokes	anti-Stokes-747.200	800.000	-0.075	0.222
-746.185	94.497	-0.324	0.374
-745.171	800.000	-0.124	0.420
-744.156	-63.977	-0.276	0.115
-743.142	-29.667	-0.243	-0.141
-742.127	-200.000	-0.062	0.282
-741.112	-200.000	-0.023	0.172
-740.098	17.858	-0.146	0.118
-739.083	-1.608	0.244	-0.175
-738.069	-27.799	-0.303	0.179
-737.054	98.784	0.103	-0.121
-736.039	72.981	0.087	-0.092
-735.025	-137.336	-0.103	-0.012
-734.010	-163.364	-0.122	-0.006
-732.996	-122.533	-0.400	-0.066
-731.981	-11.385	-0.202	0.135
-730.966	-87.281	-0.248	0.077
-729.952	-43.367	-0.358	-0.184
-728.937	-120.433	-0.259	0.045
-727.923	-117.089	-0.204	0.038
-726.908	37.127	-0.167	-0.150
-725.894	-49.514	-0.143	0.069
-724.879	-200.000	-0.030	-0.183
-723.864	77.057	-0.144	0.156
-722.850	-54.899	-0.128	-0.059
-721.835	-71.197	-0.171	0.065
-720.821	-200.000	-0.021	0.141
-719.806	-200.000	0.009	-0.266
-718.791	800.000	-0.177	-0.535
-717.777	800.000	0.072	-0.279
-716.762	-39.414	0.350	-0.187
-715.748	-13.772	-0.170	-0.112
-714.733	227.718	-0.164	-0.270
-713.718	302.670	0.016	0.029
-712.704	329.507	-0.130	-0.255
-711.689	197.855	0.159	-0.247
-710.675	-200.000	-0.035	-0.357
-709.660	19.469	0.231	0.188
-708.645	17.573	-0.197	0.159
-707.631	-200.000	-0.023	0.211
-706.616	270.249	0.061	0.108
-705.602	-200.000	-0.031	-0.381
-704.587	-44.128	-0.376	-0.191
-703.572	599.516	0.067	-0.168
-702.558	-156.225	0.130	-0.008
-701.543	-200.000	0.018	0.261
-700.529	13.491	-0.518	0.408
-699.514	-200.000	-0.213	0.001
-698.499	56.309	-0.104	-0.102
-697.485	586.055	-0.187	0.466
-696.470	-87.127	0.030	0.009
-695.456	-200.000	0.060	0.345
-694.441	40.857	-0.146	-0.133
-693.426	8.366	0.271	-0.207
-692.412	106.669	-0.109	-0.131
-691.397	35.389	0.200	-0.178
-690.383	-160.449	-0.354	-0.019
-689.368	-87.395	-0.106	-0.032
-688.354	28.304	-0.173	0.148
-687.339	145.968	-0.270	-0.368
-686.324	-200.000	-0.048	0.278
-685.310	-137.086	-0.261	-0.030
-684.295	14.155	0.216	0.171
-683.281	-63.128	0.289	0.121
-682.266	405.278	-0.038	-0.081
-681.251	-29.309	0.161	0.094
-680.237	-200.000	-0.033	-0.313
-679.222	-182.492	0.264	0.005
-678.208	-37.155	-0.316	0.171
-677.193	386.971	0.146	0.306
-676.178	87.349	-0.140	-0.158
-675.164	-46.572	0.332	-0.165
-674.149	778.307	-0.118	0.328
-673.135	84.037	0.042	0.047
-672.120	-60.321	0.291	0.125
-671.105	706.169	-0.122	0.326
-670.091	-200.000	-0.010	0.127
-669.076	-200.000	0.446	-0.001
-668.062	-7.612	-0.262	-0.180
-667.047	105.704	0.222	0.266
-666.032	-133.320	0.301	0.038
-665.018	-87.814	0.232	-0.071
-664.003	25.820	-0.085	-0.072
-662.989	800.000	-0.072	0.216
-661.974	-88.760	-0.261	0.079
-660.959	545.581	0.107	0.259
-659.945	-200.000	-0.018	-0.102
-658.930	-200.000	-0.013	-0.156
-657.916	147.015	-0.078	-0.107
-656.901	-28.517	0.337	-0.197
-655.886	-200.000	-0.061	-0.333
-654.872	-200.000	-0.001	0.165
-653.857	73.027	0.299	-0.316
-652.843	-30.664	-0.187	-0.107
-651.828	-1.836	-0.156	0.111
-650.814	-116.463	0.097	-0.018
-649.799	-128.605	-0.122	-0.017
-648.784	-28.284	-0.254	-0.148
-647.770	106.878	-0.120	0.144
-646.755	-140.382	-0.171	-0.018
-645.741	219.080	-0.097	-0.157
-644.726	-136.604	-0.267	-0.031
-643.711	-200.000	-0.002	0.019
-642.697	-122.010	0.183	-0.030
-641.682	-135.322	0.336	-0.041
-640.668	6.523	-0.101	0.076
-639.653	-200.000	0.032	-0.216
-638.638	-35.578	-0.194	-0.107
-637.624	-200.000	0.041	-0.245
-636.609	140.366	-0.043	0.057
-635.595	-200.000	-0.032	-0.157
-634.580	337.274	0.050	0.098
-633.565	-200.000	0.014	0.110
-632.551	-100.809	0.197	-0.049
-631.536	-53.121	0.157	-0.073
-630.522	-183.435	-0.269	-0.005
-629.507	-103.294	-0.122	-0.029
-628.492	192.986	0.201	-0.308
-627.478	-184.429	-0.168	-0.003
-626.463	-101.397	0.091	-0.022
-625.449	800.000	0.080	-0.326
-624.434	-13.796	0.121	0.079
-623.419	-69.969	-0.239	0.092
-622.405	-149.873	-0.225	0.018
-621.390	-47.370	0.093	0.046
-620.376	-76.054	-0.116	-0.041
-619.361	252.813	0.071	0.122
-618.346	80.061	-0.113	-0.123
-617.332	800.000	0.109	-0.332
-616.317	-14.446	-0.154	-0.100
-615.303	66.175	-0.057	-0.059
-614.288	-64.558	0.236	0.097
-613.273	-200.000	0.062	-0.359
-612.259	-10.071	-0.359	-0.242
-611.244	-200.000	0.011	-0.274
-610.230	-29.123	0.290	-0.168
-609.215	-200.000	-0.010	-0.085
-608.201	-200.000	-0.051	-0.503
-607.186	125.613	-0.076	0.097
-606.171	800.000	0.018	-0.067
-605.157	-125.096	-0.099	-0.015
-604.142	800.000	-0.117	0.450
-603.128	132.613	0.148	0.193
-602.113	314.693	-0.150	-0.285
-601.098	134.378	0.066	-0.087
-600.084	800.000	-0.094	0.291
-599.069	-32.331	0.338	0.191
-598.055	-19.115	-0.104	-0.065
-597.040	25.495	-0.176	0.148
-596.025	193.490	-0.230	-0.352
-595.011	-42.781	0.215	-0.110
-593.996	-85.142	0.350	-0.111
-592.982	-161.735	-0.195	-0.010
-591.967	-173.608	-0.133	0.004
-590.952	264.502	0.177	0.312
-589.938	-97.787	-0.116	0.030
-588.923	254.702	0.150	-0.260
-587.909	264.388	-0.169	0.297
-586.894	-200.000	0.075	-0.523
-585.879	800.000	-0.033	-0.101
-584.865	-200.000	-0.082	-0.636
-583.850	-200.000	-0.004	-0.037
-582.836	156.457	0.169	-0.235
-581.821	64.548	0.219	0.223
-580.806	-144.120	-0.184	0.017
-579.792	268.979	-0.073	-0.129
-578.777	133.578	0.095	-0.124
-577.763	-175.495	-0.129	-0.004
-576.748	-6.833	-0.325	0.223
-575.733	-64.181	0.156	0.064
-574.719	92.071	-0.114	0.130
-573.704	-200.000	-0.062	-0.334
-572.690	-200.000	0.022	-0.491
-571.675	1.071	-0.228	0.166
-570.661	-128.410	-0.143	-0.021
-569.646	-200.000	0.020	0.117
-568.631	-174.715	-0.294	-0.008
-567.617	187.500	-0.101	-0.152
-566.602	93.715	-0.149	0.171
-565.588	177.129	-0.156	0.229
-564.573	64.113	0.178	0.181
-563.558	800.000	0.078	0.279
-562.544	719.981	-0.155	-0.416
-561.529	-105.645	0.400	-0.091
-560.515	-20.730	0.053	-0.033
-559.500	800.000	-0.040	-0.129
-558.485	-130.669	-0.326	0.044
-557.471	-200.000	0.028	0.252
-556.456	1.933	-0.194	-0.141
-555.442	45.637	0.058	0.054
-554.427	-65.487	0.331	0.134
-553.412	-200.000	-0.029	-0.321
-552.398	658.804	0.144	-0.373
-551.383	-105.456	-0.031	-0.007
-550.369	-47.951	-0.087	0.042
-549.354	-82.208	-0.502	-0.165
-548.339	-9.171	-0.320	-0.216
-547.325	-50.428	0.161	0.077
-546.310	11.822	-0.258	-0.200
-545.296	-96.286	-0.279	-0.075
-544.281	-200.000	-0.009	-0.109
-543.266	26.272	0.118	-0.099
-542.252	-135.149	0.192	-0.023
-541.237	52.382	-0.066	0.063
-540.223	-200.000	-0.018	-0.182
-539.208	34.329	0.112	-0.099
-538.193	-71.860	-0.086	-0.032
-537.179	-200.000	0.021	0.133
-536.164	-92.341	-0.194	-0.055
-535.150	416.811	-0.062	0.133
-534.135	-200.000	-0.007	0.336
-533.121	-122.766	-0.044	-0.007
-532.106	-170.033	0.139	-0.005
-531.091	162.005	0.116	-0.163
-530.077	-200.000	-0.015	-0.110
-529.062	410.724	-0.036	0.077
-528.048	-87.553	0.181	0.055
-527.033	283.712	0.103	-0.187
-526.018	519.915	-0.110	-0.260
-525.004	-100.219	-0.219	0.055
-523.989	44.643	0.215	0.199
-522.975	-120.802	0.121	-0.021
-521.960	-34.012	-0.272	-0.151
-520.945	-176.068	-0.261	-0.007
-519.931	-200.000	-0.044	0.238
-518.916	86.932	-0.045	-0.050
-517.902	-200.000	-0.003	-0.103
-516.887	-148.709	0.111	0.009
-515.872	-21.071	-0.123	-0.076
-514.858	738.444	-0.079	-0.215
-513.843	295.743	-0.234	-0.432
-512.829	-56.121	0.091	-0.041
-511.814	242.311	0.106	0.179
-510.799	143.058	0.055	0.074
-509.785	178.487	0.127	-0.187
-508.770	-53.873	0.439	0.202
-507.756	253.745	0.082	-0.141
-506.741	-200.000	0.027	-0.172
-505.726	271.710	-0.217	0.386
-504.712	-58.574	0.196	-0.085
-503.697	-113.897	-0.097	0.019
-502.683	53.624	0.136	0.131
-501.668	11.426	-0.292	0.225
-500.653	76.722	-0.104	-0.111
-499.639	449.553	-0.185	-0.410
-498.624	800.000	0.039	-0.150
-497.610	136.349	0.103	0.136
-496.595	-84.879	0.273	-0.086
-495.581	-200.000	0.036	-0.235
-494.566	67.090	0.083	0.085
-493.551	494.994	-0.027	0.064
-492.537	-200.000	0.011	0.099
-491.522	-200.000	-0.050	-0.321
-490.508	20.181	0.139	0.113
-489.493	-200.000	0.008	0.375
-488.478	-200.000	0.003	0.359
-487.464	800.000	-0.104	0.300
-486.449	143.627	-0.050	-0.067
-485.435	8.484	0.150	0.113
-484.420	-54.277	0.175	0.080
-483.405	-68.180	0.132	-0.052
-482.391	744.473	0.063	-0.170
-481.376	132.223	0.076	-0.099
-480.362	-158.926	0.151	0.009
-479.347	509.933	0.116	0.272
-478.332	-25.076	-0.305	-0.182
-477.318	175.387	-0.090	-0.131
-476.303	45.018	-0.281	-0.260
-475.289	-200.000	-0.001	0.179
-474.274	148.405	0.064	-0.087
-473.259	490.746	-0.146	0.335
-472.245	-200.000	-0.001	-0.134
-471.230	772.281	0.082	0.224
-470.216	-91.145	0.119	0.034
-469.201	5.565	-0.117	0.087
-468.186	83.115	-0.138	0.151
-467.172	800.000	-0.089	-0.282
-466.157	34.229	-0.289	0.253
-465.143	113.616	-0.144	-0.176
-464.128	800.000	0.086	-0.336
-463.113	138.161	0.154	-0.203
-462.099	-24.283	0.104	0.063
-461.084	-25.981	0.159	-0.094
-460.070	-158.012	-0.243	-0.014
-459.055	-200.000	-0.184	0.000
-458.040	-56.551	-0.218	0.097
-457.026	-200.000	-0.018	-0.116
-456.011	-200.000	-0.017	0.141
-454.997	125.154	0.233	-0.296
-453.982	-102.346	0.320	-0.077
-452.968	-119.754	-0.242	0.042
-451.953	239.734	-0.003	-0.005
-450.938	-84.624	-0.353	0.112
-449.924	-20.682	-0.065	-0.040
-448.909	-12.640	-0.091	-0.060
-447.895	-7.098	0.459	-0.313
-446.880	-46.862	-0.191	0.094
-445.865	800.000	0.183	0.599
-444.851	92.525	-0.041	0.047
-443.836	30.573	0.064	-0.055
-442.822	39.809	-0.221	-0.199
-441.807	-200.000	-0.017	0.214
-440.792	-102.752	-0.242	0.058
-439.778	306.723	0.105	-0.197
-438.763	-14.865	0.220	0.142
-437.749	83.429	-0.085	-0.093
-436.734	800.000	0.105	0.291
-435.719	474.996	-0.097	-0.219
-434.705	497.884	-0.109	-0.251
-433.690	-200.000	0.026	-0.226
-432.676	-64.229	-0.413	-0.169
-431.661	-55.859	0.310	-0.139
-430.646	-50.183	-0.081	0.038
-429.632	800.000	-0.074	0.281
-428.617	-200.000	-0.004	0.064
-427.603	404.682	0.092	0.195
-426.588	-139.307	-0.226	-0.024
-425.573	-136.384	0.136	0.016
-424.559	307.204	0.117	0.220
-423.544	399.683	0.051	0.108
-422.530	-200.000	0.008	-0.096
-421.515	39.981	0.075	0.067
-420.500	72.201	0.145	-0.152
-419.486	800.000	0.018	0.079
-418.471	233.786	0.121	0.199
-417.457	-200.000	0.038	-0.269
-416.442	191.034	0.139	0.210
-415.428	52.305	-0.136	-0.130
-414.413	-100.406	0.149	0.037
-413.398	97.371	0.115	-0.133
-412.384	85.738	-0.112	-0.124
-411.369	80.372	-0.254	0.275
-410.355	800.000	-0.015	-0.061
-409.340	64.247	0.286	-0.289
-408.325	587.893	0.118	0.291
-407.311	-91.754	0.034	-0.010
-406.296	-200.000	-0.090	-0.441
-405.282	76.231	0.321	-0.341
-404.267	-200.000	-0.035	0.289
-403.252	-91.336	0.052	0.015
-402.238	-107.027	0.117	-0.026
-401.223	-28.396	0.206	0.119
-400.209	-123.485	-0.147	0.023
-399.194	-166.508	0.202	0.008
-398.179	61.036	-0.181	0.181
-397.165	-4.769	0.066	0.045
-396.150	800.000	-0.049	0.138
-395.136	53.482	0.111	0.107
-394.121	-8.251	0.269	0.181
-393.106	-114.640	-0.290	-0.056
-392.092	90.269	0.146	-0.164
-391.077	617.321	0.172	-0.433
-390.063	-92.626	0.222	0.062
-389.048	494.460	0.056	-0.130
-388.033	-55.200	-0.375	-0.169
-387.019	116.826	0.129	0.159
-386.004	-50.901	0.138	0.065
-384.990	-75.396	0.352	-0.126
-383.975	86.129	0.144	-0.159
-382.960	-110.060	-0.408	-0.086
-381.946	-31.887	-0.156	0.088
-380.931	103.024	0.016	0.019
-379.917	-138.646	0.257	0.028
-378.902	164.222	-0.230	-0.325
-377.888	313.890	-0.123	0.232
-376.873	800.000	0.046	0.138
-375.858	-200.000	0.010	0.177
-374.844	343.059	-0.073	0.144
-373.829	624.371	0.058	-0.147
-372.815	85.177	0.126	-0.138
-371.800	-200.000	-0.041	0.314
-370.785	172.865	-0.145	-0.210
-369.771	-172.846	-0.232	-0.007
-368.756	52.345	-0.135	-0.129
-367.742	-8.322	0.094	-0.063
-366.727	616.556	-0.075	0.188
-365.712	110.128	-0.046	-0.055
-364.698	-200.000	-0.014	0.096
-363.683	109.333	-0.360	0.432
-362.669	124.056	0.066	0.083
-361.654	-77.160	-0.169	0.059
-360.639	-131.505	-0.136	-0.018
-359.625	189.604	0.031	0.046
-358.610	-158.770	0.173	-0.010
-357.596	-128.015	-0.113	0.016
-356.581	413.223	0.118	0.251
-355.566	91.357	0.113	0.127
-354.552	-53.759	0.075	0.034
-353.537	-200.000	0.021	0.283
-352.523	-200.000	0.039	0.174
-351.508	-24.706	0.055	0.033
-350.493	78.791	-0.109	0.117
-349.479	-12.695	-0.072	-0.047
-348.464	81.367	0.126	0.136
-347.450	23.628	-0.342	0.282
-346.435	-1.580	0.165	0.117
-345.420	-34.251	-0.205	0.113
-344.406	-62.781	-0.298	-0.123
-343.391	16.786	-0.054	-0.043
-342.377	-200.000	-0.008	-0.087
-341.362	357.505	0.024	0.049
-340.348	130.350	-0.044	0.056
-339.333	-200.000	0.044	-0.392
-338.318	7.790	-0.186	0.140
-337.304	-148.440	-0.070	-0.006
-336.289	-6.844	-0.126	-0.086
-335.275	-11.795	0.106	0.070
-334.260	-44.965	0.506	-0.252
-333.245	-144.782	0.154	0.014
-332.231	120.495	-0.096	0.120
-331.216	-0.372	-0.367	-0.261
-330.202	-169.671	-0.091	0.003
-329.187	-108.926	-0.069	-0.015
-328.172	-129.630	-0.147	0.020
-327.158	199.325	0.125	0.191
-326.143	-200.000	0.056	0.363
-325.129	120.772	-0.121	0.151
-324.114	-16.798	-0.384	-0.243
-323.099	-43.108	0.102	0.052
-322.085	-17.487	-0.212	0.133
-321.070	800.000	0.060	0.180
-320.056	204.143	-0.141	-0.219
-319.041	187.247	0.091	-0.135
-318.026	-182.301	-0.121	0.002
-317.012	-11.590	-0.278	-0.183
-315.997	-118.308	-0.120	0.021
-314.983	-200.000	-0.006	0.557
-313.968	800.000	-0.084	0.269
-312.953	-200.000	-0.029	0.131
-311.939	-200.000	0.013	0.125
-310.924	-83.344	0.277	0.089
-309.910	-42.538	0.237	-0.121
-308.895	-200.000	-0.008	0.129
-307.880	-125.504	0.232	-0.035
-306.866	132.605	-0.183	0.236
-305.851	-200.000	-0.020	0.213
-304.837	-21.992	0.352	-0.214
-303.822	-200.000	0.016	-0.159
-302.807	-200.000	0.007	0.196
-301.793	-200.000	0.006	0.118
-300.778	-141.100	-0.371	-0.038
-299.764	-200.000	-0.025	-0.115
-298.749	669.276	0.069	-0.177
-297.735	75.671	0.325	-0.344
-296.720	-200.000	0.076	-0.388
-295.705	-200.000	0.032	-0.257
-294.691	-200.000	-0.001	-0.056
-293.676	205.103	0.056	0.088
-292.662	243.662	0.059	0.100
-291.647	132.014	0.093	0.120
-290.632	505.418	-0.041	0.094
-289.618	800.000	-0.021	0.075
-288.603	-200.000	0.043	-0.439
-287.589	-200.000	-0.093	0.419
-286.574	-10.979	-0.121	0.080
-285.559	-27.734	-0.278	-0.161
-284.545	446.828	-0.117	-0.257
-283.530	800.000	-0.080	-0.238
-282.516	-121.751	0.259	-0.043
-281.501	-63.430	-0.187	0.077
-280.486	781.588	-0.041	0.112
-279.472	599.774	0.103	0.256
-278.457	-200.000	0.001	-0.271
-277.443	-57.745	0.136	0.059
-276.428	-42.313	-0.190	-0.097
-275.413	438.794	-0.037	-0.080
-274.399	-109.094	0.240	0.051
-273.384	135.964	-0.156	-0.202
-272.370	-200.000	0.058	0.530
-271.355	-11.698	-0.365	0.239
-270.340	-28.404	0.349	0.201
-269.326	-128.782	-0.315	-0.044
-268.311	-4.945	0.292	0.201
-267.297	-63.093	0.321	-0.132
-266.282	-12.568	0.120	0.078
-265.267	-200.000	-0.044	0.258
-264.253	11.539	-0.248	0.190
-263.238	33.638	-0.141	0.122
-262.224	-89.267	-0.306	0.090
-261.209	-26.946	-0.087	-0.051
-260.195	165.259	0.050	-0.070
-259.180	70.728	-0.192	0.198
-258.165	98.486	-0.156	-0.180
-257.151	226.205	0.191	-0.309
-256.136	-54.280	0.237	0.108
-255.122	-177.751	0.315	0.008
-254.107	-14.550	0.031	-0.020
-253.092	-117.581	0.154	0.028
-252.078	387.133	0.065	-0.134
-251.063	-95.727	-0.324	-0.087
-250.049	-31.162	0.280	-0.158
-249.034	-200.000	0.004	-0.032
-248.019	345.516	-0.124	-0.244
-247.005	-112.560	0.108	-0.022
-245.990	-169.465	0.178	-0.006
-244.976	581.134	-0.110	-0.268
-243.961	-141.134	0.156	0.016
-242.946	-156.194	-0.213	0.013
-241.932	-200.000	-0.026	-0.275
-240.917	-42.974	0.060	0.030
-239.903	28.934	0.171	-0.145
-238.888	-200.000	-0.012	0.306
-237.873	-77.465	0.179	0.062
-236.859	14.991	-0.179	-0.139
-235.844	203.713	0.141	0.217
-234.830	128.251	0.134	-0.170
-233.815	-0.059	0.064	-0.045
-232.800	-86.189	0.126	0.039
-231.786	384.653	-0.155	0.319
-230.771	120.242	0.068	0.084
-229.757	800.000	-0.038	-0.114
-228.742	-200.000	-0.004	-0.104
-227.727	82.716	0.176	0.190
-226.713	-200.000	0.055	0.245
-225.698	198.755	-0.209	0.320
-224.684	-83.054	0.144	0.046
-223.669	-135.135	0.133	0.016
-222.655	-102.511	-0.386	0.092
-221.640	800.000	0.174	0.507
-220.625	800.000	0.187	0.660
-219.611	291.802	-0.087	0.158
-218.596	-200.000	0.003	0.299
-217.582	-25.775	-0.195	0.114
-216.567	-61.200	-0.352	-0.148
-215.552	307.364	0.088	-0.164
-214.538	58.631	-0.161	0.157
-213.523	-131.663	-0.054	0.007
-212.509	800.000	-0.098	0.284
-211.494	-131.186	0.233	-0.031
-210.479	211.181	0.059	-0.092
-209.465	-88.391	0.366	-0.109
-208.450	-36.286	-0.224	-0.120
-207.436	210.670	-0.050	0.079
-206.421	-200.000	-0.035	0.265
-205.406	37.275	-0.165	0.146
-204.392	-1.601	0.228	0.160
-203.377	-114.515	0.360	0.069
-202.363	-174.822	-0.195	-0.005
-201.348	800.000	0.046	-0.137
-200.333	27.869	-0.068	-0.057
-199.319	153.235	-0.038	0.051
-198.304	96.275	-0.040	-0.045
-197.290	-12.899	-0.166	-0.107
-196.275	-156.849	0.405	0.025
-195.260	-200.000	-0.013	0.339
-194.246	-81.632	0.390	-0.128
-193.231	-153.122	0.351	0.025
-192.217	562.698	-0.048	0.115
-191.202	-64.651	0.171	-0.069
-190.187	-18.628	0.371	0.230
-189.173	-200.000	0.003	-0.152
-188.158	-11.902	0.018	-0.012
-187.144	262.958	0.250	0.432
-186.129	-200.000	-0.010	-0.259
-185.114	-146.824	0.219	-0.019
-184.100	-94.752	-0.190	0.051
-183.085	-200.000	0.007	0.109
-182.071	800.000	0.100	0.289
-181.056	36.251	-0.235	0.206
-180.042	41.734	0.149	-0.134
-179.027	263.480	-0.144	0.248
-178.012	-200.000	-0.032	0.171
-176.998	194.839	0.138	-0.208
-175.983	55.233	0.195	0.188
-174.969	42.591	0.263	0.238
-173.954	-46.718	-0.134	0.065
-172.939	-150.393	0.462	0.035
-171.925	-81.450	0.400	-0.131
-170.910	-76.290	-0.101	0.035
-169.896	37.006	0.123	-0.108
-168.881	251.172	0.113	-0.190
-167.866	-19.510	0.287	0.177
-166.852	-36.634	0.111	-0.059
-165.837	-200.000	-0.032	0.296
-164.823	-164.317	0.222	0.010
-163.808	-26.196	-0.111	-0.065
-162.793	153.153	0.125	-0.170
-161.779	-36.350	0.063	-0.034
-160.764	-200.000	-0.005	-0.290
-159.750	363.804	-0.013	0.025
-158.735	-37.754	0.277	0.147
-157.720	-200.000	0.006	-0.117
-156.706	143.151	-0.196	-0.259
-155.691	151.527	-0.148	-0.200
-154.677	169.017	0.176	0.250
-153.662	-29.163	0.097	0.055
-152.647	-132.871	-0.296	-0.038
-151.633	-156.531	-0.197	-0.012
-150.618	-200.000	-0.058	0.265
-149.604	-75.795	-0.422	-0.149
-148.589	-35.751	0.299	0.161
-147.574	-111.606	0.445	0.090
-146.560	800.000	-0.033	0.134
-145.545	11.450	-0.058	0.044
-144.531	-200.000	0.042	-0.217
-143.516	283.595	-0.075	0.133
-142.502	-162.650	0.306	-0.015
-141.487	-200.000	0.032	0.290
-140.472	12.975	-0.131	0.100
-139.458	336.774	-0.044	0.086
-138.443	101.062	-0.091	0.105
-137.429	-42.055	0.248	0.126
-136.414	-24.336	0.186	0.110
-135.399	-48.955	-0.199	-0.095
-134.385	265.864	0.055	-0.095
-133.370	594.222	-0.032	0.078
-132.356	-80.996	0.164	-0.054
-131.341	109.625	0.104	0.123
-130.326	-200.000	0.001	-0.313
-129.312	109.054	0.139	0.165
-128.297	321.403	0.054	-0.103
-127.283	800.000	0.121	-0.352
-126.268	366.909	-0.164	0.328
-125.253	-200.000	0.023	0.192
-124.239	145.560	0.246	0.327
-123.224	234.250	-0.067	-0.109
-122.210	-68.017	0.254	-0.098
