DTS Sentinel unit serial number:	SN413079Multiplexer serial number:	ORYXHardware model number:	OX4-SRSoftware version number:	ORYX F/W v4.00 Oryx Data Collector v3.7.2.0data status	okinstallation	princeton_trtdifferential loss correction	single-endedforward channel	channel 1reverse channel	N/Adate	2019/09/17time	05:22:35forward acquisition time	60.00reverse acquisition time	0.00gamma	496.2192k internal	0.2324k external	0.2324temperature offset calibration	0.9969default loss term (dB/km)	0.3790temperature slope calibration	1.0000multiplexer offset coefficient	1.0000multiplexer slope coefficient	1.0000fibre end	0.00T internal ref (°C)	29.31T ext. ref 1 (°C)	0.14T ext. ref 2 (°C)	23.57length (m)	temperature (°C)	Stokes	anti-Stokes-747.200	-17.095	-0.238	0.152
-746.185	-106.090	-0.286	0.065
-745.171	800.000	-0.096	-0.326
-744.156	-158.018	-0.228	-0.014
-743.142	-200.000	0.026	0.215
-742.127	35.158	-0.199	0.176
-741.112	-200.000	0.003	0.068
-740.098	595.459	-0.025	-0.062
-739.083	231.623	-0.052	0.086
-738.069	48.544	-0.114	0.108
-737.054	-107.990	0.203	-0.045
-736.039	-145.155	-0.513	-0.047
-735.025	99.676	-0.123	-0.144
-734.010	-76.156	-0.270	0.096
-732.996	-60.956	0.148	-0.063
-731.981	615.346	-0.081	0.204
-730.966	289.334	-0.077	0.141
-729.952	-44.081	-0.087	0.044
-728.937	53.972	0.280	-0.271
-727.923	300.580	0.115	-0.215
-726.908	-57.073	0.185	-0.082
-725.894	-9.610	0.135	-0.091
-724.879	-77.911	0.219	0.076
-723.864	76.269	-0.093	-0.100
-722.850	-200.000	0.026	-0.183
-721.835	800.000	0.066	-0.211
-720.821	79.315	0.047	0.051
-719.806	-200.000	-0.025	-0.242
-718.791	80.992	0.144	0.156
-717.777	236.547	-0.072	-0.121
-716.762	14.344	-0.117	0.092
-715.748	-9.673	-0.167	0.112
-714.733	514.413	-0.208	0.489
-713.718	-128.639	0.138	-0.020
-712.704	-19.527	0.102	0.064
-711.689	-128.504	-0.150	0.021
-710.675	-55.087	-0.182	-0.083
-709.660	-200.000	0.055	0.380
-708.645	-200.000	0.046	-0.370
-707.631	5.349	-0.057	0.043
-706.616	-200.000	0.018	-0.174
-705.602	343.995	-0.099	-0.195
-704.587	-200.000	-0.009	-0.106
-703.572	20.079	-0.025	-0.020
-702.558	28.889	-0.139	-0.119
-701.543	-154.556	-0.374	0.025
-700.529	-87.084	0.236	0.073
-699.514	325.743	0.200	-0.386
-698.499	81.889	0.190	-0.208
-697.485	-108.194	-0.109	-0.024
-696.470	-200.000	0.047	-0.235
-695.456	-73.601	-0.116	0.043
-694.441	-200.000	-0.035	0.185
-693.426	-200.000	-0.001	0.120
-692.412	100.877	0.121	-0.142
-691.397	-101.048	0.135	0.033
-690.383	-200.000	0.008	-0.134
-689.368	-155.995	-0.301	0.019
-688.354	88.094	-0.017	-0.019
-687.339	227.584	-0.069	-0.113
-686.324	237.992	-0.042	-0.071
-685.310	-163.001	0.212	0.010
-684.295	-165.055	0.188	0.008
-683.281	-34.243	-0.209	-0.116
-682.266	-200.000	-0.040	0.179
-681.251	-158.947	-0.172	-0.010
-680.237	-200.000	-0.000	0.211
-679.222	-200.000	-0.040	-0.227
-678.208	24.850	-0.222	-0.185
-677.193	269.578	-0.051	-0.090
-676.178	800.000	0.027	-0.109
-675.164	114.634	-0.137	-0.168
-674.149	159.602	-0.142	0.199
-673.135	156.668	-0.095	-0.133
-672.120	159.107	-0.059	0.083
-671.105	74.520	-0.101	-0.107
-670.091	325.765	0.083	0.160
-669.076	-58.788	-0.099	-0.043
-668.062	324.594	-0.132	-0.253
-667.047	184.673	-0.129	0.193
-666.032	-157.241	-0.230	0.014
-665.018	125.813	-0.084	-0.106
-664.003	16.988	-0.290	-0.231
-662.989	-76.728	0.233	0.082
-661.974	548.005	-0.086	-0.207
-660.959	-200.000	-0.019	-0.101
-659.945	800.000	0.088	0.375
-658.930	105.253	-0.103	0.122
-657.916	-125.927	0.168	0.025
-656.901	-25.704	0.256	-0.152
-655.886	-115.744	-0.458	-0.086
-654.872	-200.000	0.079	-0.428
-653.857	-200.000	-0.028	-0.184
-652.843	-200.000	-0.028	0.126
-651.828	-200.000	-0.016	0.146
-650.814	800.000	-0.042	-0.164
-649.799	2.963	0.302	-0.220
-648.784	55.871	0.103	-0.101
-647.770	-43.510	0.146	0.074
-646.755	-200.000	0.038	-0.340
-645.741	793.185	-0.083	0.229
-644.726	234.956	-0.090	-0.149
-643.711	-116.798	-0.409	0.075
-642.697	71.483	-0.115	0.120
-641.682	-90.486	-0.192	0.056
-640.668	-200.000	-0.082	-0.689
-639.653	-90.687	-0.098	-0.028
-638.638	82.664	0.155	0.169
-637.624	-88.875	-0.046	-0.014
-636.609	-10.989	0.082	0.055
-635.595	-200.000	0.000	0.192
-634.580	-158.679	0.336	0.019
-633.565	177.578	0.027	-0.039
-632.551	578.826	-0.063	0.155
-631.536	-200.000	-0.008	-0.385
-630.522	173.068	-0.102	-0.147
-629.507	-117.946	0.259	-0.047
-628.492	-111.313	0.255	0.052
-627.478	132.848	0.098	-0.126
-626.463	363.046	-0.092	-0.185
-625.449	-54.970	0.310	0.140
-624.434	310.326	-0.108	-0.203
-623.419	121.852	-0.181	0.227
-622.405	-200.000	0.032	-0.154
-621.390	607.541	-0.025	-0.063
-620.376	285.106	0.134	-0.242
-619.361	-200.000	0.010	-0.130
-618.346	116.942	0.190	-0.235
-617.332	-54.123	-0.176	-0.080
-616.317	-72.180	0.192	-0.072
-615.303	76.721	-0.118	-0.126
-614.288	-81.647	-0.147	0.048
-613.273	384.313	-0.026	0.053
-612.259	380.575	0.075	-0.155
-611.244	-130.976	-0.124	-0.017
-610.230	280.610	0.034	0.061
-609.215	677.647	-0.166	-0.433
-608.201	-148.739	-0.321	-0.026
-607.186	-22.067	0.257	0.157
-606.171	497.030	0.086	-0.198
-605.157	800.000	0.124	-0.346
-604.142	-76.233	-0.320	-0.113
-603.128	73.869	-0.221	0.233
-602.113	87.634	0.074	-0.082
-601.098	-92.125	-0.249	-0.071
-600.084	-110.436	-0.463	0.096
-599.069	800.000	-0.027	-0.112
-598.055	-51.339	0.306	0.143
-597.040	-6.966	-0.351	0.239
-596.025	-200.000	0.008	0.185
-595.011	-120.041	-0.125	0.021
-593.996	426.953	-0.129	0.278
-592.982	-200.000	-0.053	0.267
-591.967	-95.983	-0.249	-0.066
-590.952	-200.000	-0.026	-0.217
-589.938	-200.000	0.030	-0.294
-588.923	-174.779	0.300	-0.009
-587.909	178.204	-0.204	0.299
-586.894	-64.920	0.233	-0.095
-585.879	800.000	-0.028	-0.112
-584.865	135.567	0.185	0.242
-583.850	43.972	0.009	0.008
-582.836	-68.585	-0.191	-0.074
-581.821	800.000	0.027	-0.080
-580.806	-200.000	-0.044	-0.398
-579.792	-143.957	-0.095	0.009
-578.777	-200.000	-0.007	-0.117
-577.763	-200.000	-0.014	-0.223
-576.748	800.000	-0.054	-0.193
-575.733	414.982	0.069	-0.147
-574.719	231.957	0.142	0.233
-573.704	228.170	0.191	0.311
-572.690	314.390	0.091	-0.173
-571.675	-200.000	0.019	0.102
-570.661	435.782	-0.089	-0.195
-569.646	-49.409	-0.091	-0.044
-568.631	-53.468	0.314	0.144
-567.617	238.191	0.132	-0.220
-566.602	-102.522	-0.331	-0.079
-565.588	800.000	0.069	0.254
-564.573	800.000	0.072	0.235
-563.558	195.853	0.218	0.333
-562.544	-46.262	-0.310	-0.153
-561.529	-200.000	-0.219	-0.000
-560.515	-7.826	0.157	0.106
-559.500	-158.370	-0.467	-0.027
-558.485	-93.516	0.179	0.050
-557.471	-32.426	-0.141	-0.079
-556.456	-168.707	-0.122	-0.005
-555.442	33.620	-0.012	-0.010
-554.427	122.096	-0.208	0.260
-553.412	-63.505	-0.166	0.068
-552.398	800.000	-0.066	0.241
-551.383	126.250	0.145	0.184
-550.369	-49.686	-0.223	0.106
-549.354	800.000	-0.090	0.348
-548.339	315.645	-0.081	0.153
-547.325	-5.258	0.320	-0.221
-546.310	329.415	-0.055	0.105
-545.296	-144.045	-0.312	-0.029
-544.281	800.000	0.052	-0.159
-543.266	231.889	0.146	0.239
-542.252	15.013	0.408	0.320
-541.237	-8.217	-0.064	0.043
-540.223	-7.429	0.159	-0.108
-539.208	-53.174	-0.313	0.144
-538.193	-169.314	-0.202	-0.007
-537.179	-47.988	0.181	0.088
-536.164	497.969	0.109	0.252
-535.150	-200.000	0.016	-0.106
-534.135	81.257	0.204	-0.220
-533.121	-200.000	0.001	0.074
-532.106	-200.000	-0.040	-0.429
-531.091	-200.000	0.059	-0.286
-530.077	51.629	0.184	-0.175
-529.062	-200.000	0.042	0.259
-528.048	133.101	-0.224	0.290
-527.033	-116.175	-0.240	0.045
-526.018	98.608	0.155	-0.179
-525.004	800.000	0.049	0.173
-523.989	-51.727	-0.317	0.148
-522.975	-81.657	-0.182	0.060
-521.960	19.582	-0.118	-0.095
-520.945	-182.016	-0.113	-0.002
-519.931	800.000	-0.069	0.242
-518.916	-66.804	0.253	-0.100
-517.902	800.000	-0.063	-0.202
-516.887	-43.905	-0.297	-0.150
-515.872	16.606	-0.164	0.130
-514.858	-200.000	0.015	0.109
-513.843	-73.607	-0.104	-0.038
-512.829	800.000	0.081	-0.328
-511.814	303.452	-0.043	-0.080
-510.799	612.741	-0.094	-0.236
-509.785	-200.000	0.107	-0.564
-508.770	800.000	-0.100	-0.296
-507.756	123.732	-0.099	0.125
-506.741	-174.004	-0.189	-0.006
-505.726	618.776	0.149	0.375
-504.712	-82.430	-0.231	-0.075
-503.697	303.069	-0.135	-0.250
-502.683	-200.000	0.055	0.246
-501.668	-179.808	0.253	0.005
-500.653	-40.560	-0.066	0.034
-499.639	-99.426	0.339	0.085
-498.624	800.000	0.043	0.133
-497.610	-23.019	0.038	-0.023
-496.595	47.574	-0.046	0.043
-495.581	-121.027	-0.111	0.019
-494.566	800.000	-0.061	-0.258
-493.551	17.722	0.077	0.061
-492.537	-110.945	0.100	0.021
-491.522	106.891	-0.100	-0.118
-490.508	-200.000	0.012	-0.393
-489.493	800.000	0.099	0.286
-488.478	-200.000	0.030	-0.176
-487.464	-174.470	-0.180	0.005
-486.449	-95.926	0.096	0.025
-485.435	-200.000	-0.020	0.153
-484.420	278.274	0.135	-0.240
-483.405	-82.668	-0.065	0.021
-482.391	-1.912	0.294	-0.206
-481.376	-200.000	-0.158	0.000
-480.362	-70.050	0.189	0.072
-479.347	-200.000	0.075	-0.376
-478.332	29.934	-0.281	-0.239
-477.318	-89.193	-0.049	-0.014
-476.303	658.005	-0.019	0.049
-475.289	237.827	0.110	-0.182
-474.274	-59.203	0.171	0.074
-473.259	-60.407	0.287	-0.122
-472.245	61.458	0.153	0.152
-471.230	-200.000	-0.037	0.263
-470.216	-200.000	0.025	0.376
-469.201	-0.171	-0.125	0.089
-468.186	800.000	0.094	0.383
-467.172	-200.000	0.022	-0.278
-466.157	800.000	0.023	0.073
-465.143	72.887	0.329	-0.344
-464.128	407.455	-0.089	-0.188
-463.113	-200.000	0.064	-0.321
-462.099	-75.942	-0.110	0.039
-461.084	-103.273	-0.457	0.108
-460.070	561.825	-0.054	0.130
-459.055	800.000	-0.052	-0.198
-458.040	158.583	-0.159	-0.221
-457.026	171.283	-0.105	0.151
-456.011	-75.826	0.231	-0.082
-454.997	-200.000	-0.021	0.360
-453.982	108.933	0.113	0.135
-452.968	54.547	0.185	0.178
-451.953	93.627	0.035	-0.040
-450.938	-113.548	0.190	0.037
-449.924	69.216	0.074	0.076
-448.909	800.000	0.067	-0.195
-447.895	177.779	0.127	0.185
-446.880	-79.053	-0.008	-0.003
-445.865	-74.418	-0.177	-0.064
-444.851	132.895	0.237	0.306
-443.836	-36.566	0.217	-0.116
-442.822	-150.103	-0.306	0.024
-441.807	20.236	0.246	-0.198
-440.792	-200.000	0.047	0.245
-439.778	43.519	0.102	-0.093
-438.763	159.845	0.179	0.248
-437.749	-21.359	-0.052	0.031
-436.734	-132.818	0.124	0.016
-435.719	93.547	-0.200	0.226
-434.705	-36.482	0.079	-0.043
-433.690	-61.488	-0.087	0.037
-432.676	-32.073	0.120	0.067
-431.661	-200.000	0.012	-0.075
-430.646	800.000	-0.081	0.273
-429.632	-110.182	0.124	-0.026
-428.617	-107.752	-0.088	-0.019
-427.603	-158.582	0.420	0.024
-426.588	1.412	0.077	0.055
-425.573	49.753	-0.064	-0.060
-424.559	800.000	-0.107	-0.328
-423.544	-171.896	-0.266	-0.009
-422.530	-156.581	-0.057	0.004
-421.515	-18.697	0.360	-0.224
-420.500	-125.528	0.161	0.024
-419.486	-28.983	0.250	0.143
-418.471	6.152	0.207	0.153
-417.457	-12.540	-0.101	0.066
-416.442	95.184	0.056	0.063
-415.428	673.072	-0.090	-0.234
-414.413	-28.890	0.365	-0.209
-413.398	-52.644	-0.322	0.148
-412.384	277.117	0.157	0.277
-411.369	-31.480	0.346	0.194
-410.355	-200.000	0.020	0.278
-409.340	-105.370	-0.173	0.039
-408.325	-200.000	-0.041	0.355
-407.311	-92.702	-0.226	-0.063
-406.296	-65.565	0.268	-0.107
-405.282	800.000	0.058	0.187
-404.267	-98.488	0.122	0.031
-403.252	-80.804	-0.304	0.100
-402.238	-167.500	0.126	0.005
-401.223	-200.000	0.010	0.223
-400.209	800.000	-0.070	0.289
-399.194	-200.000	0.019	0.152
-398.179	-40.991	0.158	-0.082
-397.165	197.467	-0.100	-0.151
-396.150	-200.000	-0.005	-0.158
-395.136	72.578	-0.181	0.188
-394.121	-78.200	0.104	-0.036
-393.106	-200.000	-0.007	0.318
-392.092	-200.000	0.001	0.011
-391.077	770.221	0.034	0.092
-390.063	800.000	0.092	0.391
-389.048	183.807	0.300	0.442
-388.033	-154.387	-0.247	-0.017
-387.019	57.825	-0.161	-0.156
-386.004	-88.840	-0.173	-0.051
-384.990	-200.000	0.035	-0.281
-383.975	-98.069	-0.352	0.090
-382.960	-75.674	-0.265	-0.094
-381.946	-97.938	0.267	-0.069
-380.931	-200.000	-0.003	-0.047
-379.917	-96.548	-0.047	0.012
-378.902	-200.000	0.025	0.113
-377.888	123.557	-0.262	-0.327
-376.873	-149.859	-0.130	-0.010
-375.858	-70.650	0.212	0.080
-374.844	800.000	-0.065	0.256
-373.829	71.489	-0.266	-0.275
-372.815	-76.152	-0.102	-0.036
-371.800	-53.290	-0.225	0.103
-370.785	250.892	-0.100	0.169
-369.771	-14.775	-0.057	-0.036
-368.756	-95.852	-0.289	0.077
-367.742	292.880	0.067	0.122
-366.727	800.000	0.021	-0.066
-365.712	-103.360	-0.069	-0.016
-364.698	-14.729	0.183	0.117
-363.683	-200.000	-0.008	-0.323
-362.669	330.532	-0.096	-0.184
-361.654	404.415	-0.094	-0.198
-360.639	800.000	0.111	0.333
-359.625	176.686	-0.229	-0.332
-358.610	122.326	-0.280	-0.348
-357.596	166.321	0.133	-0.187
-356.581	32.780	-0.086	0.074
-355.566	-200.000	0.037	-0.257
-354.552	149.711	0.150	0.203
-353.537	-200.000	0.025	0.260
-352.523	-110.311	0.236	0.049
-351.508	-62.604	-0.310	-0.128
-350.493	68.052	-0.153	-0.156
-349.479	-67.849	-0.289	-0.112
-348.464	251.228	-0.069	-0.117
-347.450	-45.589	-0.282	-0.139
-346.435	311.295	0.138	0.258
-345.420	-37.927	-0.346	0.183
-344.406	-54.100	0.222	0.100
-343.391	-44.665	0.135	0.067
-342.377	413.675	-0.092	0.194
-341.362	-112.929	0.214	0.042
-340.348	800.000	-0.094	-0.266
-339.333	-69.662	-0.069	-0.026
-338.318	14.484	-0.219	-0.170
-337.304	-57.429	0.160	-0.070
-336.289	-200.000	-0.026	-0.172
-335.275	-200.000	-0.009	0.214
-334.260	640.056	-0.097	0.246
-333.245	-104.586	0.136	0.031
-332.231	-200.000	0.094	0.412
-331.216	172.868	-0.278	0.398
-330.202	-97.974	-0.175	-0.045
-329.187	-37.283	-0.337	0.179
-328.172	6.214	-0.075	0.055
-327.158	-149.575	0.197	-0.015
-326.143	-129.720	-0.039	0.005
-325.129	-143.640	-0.180	0.017
-324.114	60.871	0.266	0.262
-323.099	-102.270	-0.200	0.048
-322.085	320.005	0.116	-0.218
-321.070	-117.615	-0.118	0.021
-320.056	-110.388	-0.380	0.078
-319.041	-200.000	-0.074	-0.394
-318.026	-4.810	-0.036	-0.025
-317.012	103.118	-0.051	-0.060
-315.997	-89.290	0.069	-0.020
-314.983	96.701	-0.214	0.243
-313.968	-117.262	-0.357	-0.064
-312.953	-15.420	0.174	-0.111
-311.939	-10.438	0.112	-0.073
-310.924	-200.000	0.005	-0.214
-309.910	15.549	-0.086	-0.067
-308.895	-50.461	-0.142	0.067
-307.880	-121.778	0.205	0.034
-306.866	-200.000	0.004	0.191
-305.851	-156.918	-0.304	0.018
-304.837	122.477	0.173	0.215
-303.822	799.789	0.035	-0.095
-302.807	-50.495	0.364	-0.171
-301.793	21.761	0.141	-0.114
-300.778	197.019	0.042	-0.063
-299.764	222.521	0.117	0.187
-298.749	211.329	0.030	-0.046
-297.735	-53.366	0.474	-0.215
-296.720	245.677	-0.089	0.149
-295.705	-113.637	-0.063	0.012
-294.691	82.909	0.060	0.064
-293.676	-39.003	-0.071	-0.037
-292.662	122.777	-0.218	0.271
-291.647	-131.384	-0.160	-0.021
-290.632	453.841	-0.026	-0.057
-289.618	-102.289	0.025	-0.006
-288.603	-200.000	0.010	0.137
-287.589	-200.000	-0.010	0.054
-286.574	-97.343	0.301	0.078
-285.559	60.645	-0.171	-0.168
-284.545	-200.000	0.026	-0.195
-283.530	-200.000	-0.002	0.130
-282.516	-200.000	-0.007	-0.207
-281.501	147.971	-0.132	0.177
-280.486	-68.118	0.019	-0.007
-279.472	-166.660	0.313	0.013
-278.457	150.014	0.060	-0.081
-277.443	-200.000	0.036	-0.205
-276.428	641.307	-0.037	-0.093
-275.413	392.190	-0.043	-0.089
-274.399	800.000	-0.037	-0.131
-273.384	-59.824	-0.188	-0.080
-272.370	-200.000	0.058	0.423
-271.355	83.908	-0.180	0.195
-270.340	800.000	0.031	-0.119
-269.326	-25.671	-0.230	0.135
-268.311	36.015	-0.099	-0.087
-267.297	-141.515	-0.141	-0.014
-266.282	244.870	0.028	-0.046
-265.267	-55.121	0.066	0.029
-264.253	800.000	-0.161	-0.675
-263.238	-104.811	0.202	-0.046
-262.224	800.000	0.088	-0.339
-261.209	-33.235	0.080	-0.044
-260.195	257.878	-0.100	0.171
-259.180	273.145	0.167	0.292
-258.165	-11.856	0.197	-0.128
-257.151	-195.725	0.361	-0.003
-256.136	343.176	-0.024	-0.046
-255.122	148.273	-0.113	0.151
-254.107	-9.285	-0.141	-0.093
-253.092	54.079	0.141	-0.134
-252.078	800.000	-0.023	-0.079
-251.063	-114.001	0.212	0.041
-250.049	-111.092	0.356	0.072
-249.034	-200.000	0.056	-0.265
-248.019	-87.199	-0.308	-0.093
-247.005	739.577	0.062	0.166
-245.990	603.285	0.105	-0.258
-244.976	681.373	-0.029	-0.076
-243.961	1.277	0.180	0.128
-242.946	269.260	0.125	0.218
-241.932	-200.000	0.004	0.094
-240.917	-47.446	0.199	0.096
-239.903	-43.717	0.042	0.021
-238.888	800.000	-0.020	-0.056
-237.873	-56.719	-0.150	-0.066
-236.859	800.000	-0.009	0.035
-235.844	297.205	-0.141	0.256
-234.830	-137.344	-0.104	0.012
-233.815	360.762	0.137	0.271
-232.800	36.533	0.298	-0.260
-231.786	-44.793	0.017	-0.008
-230.771	-123.701	0.179	-0.028
-229.757	-200.000	-0.015	0.077
-228.742	-200.000	0.004	-0.142
-227.727	-59.296	0.212	-0.090
-226.713	-200.000	0.041	-0.295
-225.698	800.000	0.053	-0.199
-224.684	-109.397	-0.132	0.028
-223.669	-30.679	-0.091	-0.051
-222.655	800.000	-0.039	-0.127
-221.640	800.000	-0.025	0.081
-220.625	-40.672	0.185	0.095
-219.611	-200.000	-0.070	0.418
-218.596	-200.000	-0.015	0.128
-217.582	-10.748	0.172	-0.112
-216.567	-54.462	0.230	0.103
-215.552	51.430	0.150	0.141
-214.538	232.299	0.148	0.240
-213.523	-141.616	0.122	0.012
-212.509	43.228	0.281	0.253
-211.494	-5.143	0.080	0.055
-210.479	-126.405	-0.274	0.040
-209.465	26.869	0.077	-0.064
-208.450	-200.000	-0.019	-0.290
-207.436	67.256	0.210	0.211
-206.421	-82.428	-0.306	0.098
-205.406	-200.000	-0.050	-0.370
-204.392	-66.339	-0.165	-0.065
-203.377	800.000	0.069	0.220
-202.363	-7.644	0.168	-0.112
-201.348	13.742	0.137	0.105
-200.333	187.907	0.027	-0.040
-199.319	800.000	0.060	-0.229
-198.304	-68.119	0.213	-0.082
-197.290	-107.549	0.094	-0.020
-196.275	-144.994	-0.113	-0.010
-195.260	-112.113	-0.374	-0.074
-194.246	800.000	0.065	0.251
-193.231	2.546	-0.035	0.025
-192.217	-2.994	0.088	-0.061
-191.202	-200.000	-0.047	0.374
-190.187	-103.003	-0.198	-0.047
-189.173	-24.355	-0.306	0.180
-188.158	-13.770	0.143	0.091
-187.144	389.257	0.026	-0.053
-186.129	-101.025	0.153	-0.037
-185.114	-200.000	0.022	-0.205
-184.100	-120.834	-0.091	0.015
-183.085	116.625	-0.206	0.250
-182.071	712.919	-0.084	-0.220
-181.056	-119.525	0.127	0.022
-180.042	800.000	-0.044	-0.133
-179.027	-94.933	0.323	-0.086
-178.012	28.090	0.134	0.112
-176.998	-107.924	0.522	-0.112
-175.983	-200.000	0.006	-0.082
-174.969	95.100	-0.251	-0.282
-173.954	-104.204	0.210	0.048
-172.939	-16.102	-0.049	-0.031
-171.925	-102.230	-0.328	0.078
-170.910	-126.888	0.206	0.030
-169.896	68.786	-0.110	-0.112
-168.881	-16.976	0.146	-0.091
-167.866	-145.810	0.020	0.002
-166.852	211.599	0.171	0.266
-165.837	800.000	0.051	0.173
-164.823	-26.757	-0.090	0.052
-163.808	-2.104	0.140	-0.097
-162.793	223.592	-0.066	0.104
-161.779	230.071	0.098	-0.158
-160.764	-200.000	0.021	0.255
-159.750	-49.279	0.111	0.052
-158.735	-66.462	-0.290	-0.114
-157.720	231.210	-0.100	-0.162
-156.706	-135.373	0.083	0.010
-155.691	-118.755	-0.110	-0.019
-154.677	424.382	-0.093	0.198
-153.662	330.468	0.033	0.063
-152.647	375.247	0.113	-0.228
-151.633	9.959	0.260	0.194
-150.618	800.000	0.052	0.221
-149.604	-18.051	-0.213	0.131
-148.589	53.415	0.181	0.171
-147.574	-200.000	-0.056	0.610
-146.560	800.000	-0.032	-0.108
-145.545	-200.000	0.007	-0.130
-144.531	379.775	0.037	-0.074
-143.516	373.977	0.028	-0.057
-142.502	-98.305	-0.118	-0.030
-141.487	-32.022	0.149	0.082
-140.472	-1.347	0.167	0.116
-139.458	391.395	-0.247	0.505
-138.443	118.615	-0.162	0.197
-137.429	374.886	0.062	0.124
-136.414	-104.458	-0.418	0.095
-135.399	-0.666	-0.060	-0.042
-134.385	800.000	0.024	-0.069
-133.370	592.665	0.093	-0.227
-132.356	-2.799	-0.195	0.135
-131.341	-200.000	0.008	0.292
-130.326	-113.054	0.474	0.092
-129.312	297.546	-0.164	-0.296
-128.297	72.880	-0.160	-0.164
-127.283	800.000	-0.068	-0.291
-126.268	386.514	-0.038	0.076
-125.253	65.642	0.142	0.141
-124.239	483.553	-0.133	0.298
-123.224	284.259	0.132	-0.233
-122.210	175.469	0.271	-0.387
