DTS Sentinel unit serial number:	SN413079Multiplexer serial number:	ORYXHardware model number:	OX4-SRSoftware version number:	ORYX F/W v4.00 Oryx Data Collector v3.7.2.0data status	okinstallation	princeton_trtdifferential loss correction	single-endedforward channel	channel 1reverse channel	N/Adate	2019/09/18time	16:30:35forward acquisition time	60.00reverse acquisition time	0.00gamma	496.2192k internal	0.2292k external	0.2292temperature offset calibration	0.9993default loss term (dB/km)	0.3790temperature slope calibration	1.0000multiplexer offset coefficient	1.0000multiplexer slope coefficient	1.0000fibre end	0.00T internal ref (°C)	39.22T ext. ref 1 (°C)	0.84T ext. ref 2 (°C)	36.41length (m)	temperature (°C)	Stokes	anti-Stokes-747.200	-200.000	-0.057	0.308
-746.185	-200.000	-0.044	0.565
-745.171	-64.814	-0.121	0.050
-744.156	-107.916	-0.220	0.049
-743.142	-15.162	0.004	-0.003
-742.127	724.933	-0.068	0.186
-741.112	-2.081	-0.151	-0.109
-740.098	800.000	-0.128	0.381
-739.083	-95.300	0.294	0.081
-738.069	-200.000	0.030	-0.221
-737.054	800.000	0.050	-0.169
-736.039	-153.849	-0.208	0.015
-735.025	-122.768	0.451	0.075
-734.010	-156.321	-0.139	0.009
-732.996	43.827	-0.114	-0.107
-731.981	-91.256	-0.177	0.052
-730.966	-76.525	0.083	0.030
-729.952	229.747	0.180	-0.301
-728.937	-67.476	-0.032	0.013
-727.923	-93.095	0.254	0.072
-726.908	-38.369	-0.385	0.208
-725.894	201.412	0.169	-0.267
-724.879	-189.924	-0.088	0.001
-723.864	-200.000	0.002	-0.095
-722.850	-143.367	-0.288	0.028
-721.835	92.277	-0.135	-0.156
-720.821	-162.804	0.223	-0.011
-719.806	-200.000	0.018	-0.110
-718.791	-0.921	-0.265	0.192
-717.777	-41.667	0.119	-0.062
-716.762	-200.000	0.015	0.096
-715.748	58.720	-0.138	-0.139
-714.733	-79.321	0.173	-0.060
-713.718	-61.576	-0.264	-0.113
-712.704	-200.000	0.009	0.114
-711.689	142.645	-0.095	-0.128
-710.675	-79.242	-0.227	-0.079
-709.660	-10.274	0.135	-0.092
-708.645	-72.065	-0.255	0.097
-707.631	-100.887	0.314	-0.079
-706.616	-200.000	-0.061	-0.293
-705.602	20.715	0.143	-0.118
-704.587	-188.029	-0.382	0.005
-703.572	192.712	0.190	0.294
-702.558	-56.083	-0.210	-0.095
-701.543	30.239	0.018	-0.016
-700.529	-200.000	-0.016	-0.126
-699.514	-200.000	0.031	0.144
-698.499	-200.000	0.044	-0.368
-697.485	-200.000	-0.014	-0.178
-696.470	-41.059	-0.301	-0.159
-695.456	-20.928	0.116	0.072
-694.441	538.935	-0.157	-0.381
-693.426	296.968	0.305	0.572
-692.412	322.491	-0.070	-0.135
-691.397	-73.646	0.253	0.094
-690.383	295.914	-0.094	-0.176
-689.368	-200.000	-0.022	0.175
-688.354	71.899	0.057	-0.061
-687.339	-12.806	0.196	-0.131
-686.324	-200.000	-0.003	0.154
-685.310	-6.212	-0.046	-0.032
-684.295	257.049	-0.095	0.167
-683.281	-92.103	0.043	-0.012
-682.266	-200.000	-0.015	-0.105
-681.251	-102.351	-0.272	-0.067
-680.237	-200.000	-0.033	0.150
-679.222	-124.695	0.189	-0.030
-678.208	-51.684	-0.390	-0.186
-677.193	-88.399	0.205	-0.062
-676.178	132.061	0.174	-0.228
-675.164	315.299	-0.097	-0.186
-674.149	-200.000	0.009	0.276
-673.135	-200.000	0.002	-0.031
-672.120	343.813	-0.088	-0.175
-671.105	23.018	-0.184	0.154
-670.091	-93.229	-0.357	-0.101
-669.076	734.840	0.094	-0.258
-668.062	-200.000	-0.013	-0.379
-667.047	-0.727	-0.160	-0.116
-666.032	1.826	0.189	0.139
-665.018	-200.000	0.002	-0.257
-664.003	-95.687	-0.167	-0.045
-662.989	294.420	-0.162	0.302
-661.974	-111.547	-0.347	0.072
-660.959	800.000	0.036	0.111
-659.945	525.339	0.083	0.199
-658.930	298.380	0.212	-0.397
-657.916	-200.000	0.004	-0.213
-656.901	487.473	0.131	0.305
-655.886	-100.949	0.175	0.044
-654.872	-195.364	-0.198	-0.002
-653.857	71.868	0.298	-0.317
-652.843	-200.000	0.037	-0.212
-651.828	-11.179	0.346	-0.232
-650.814	-200.000	-0.002	-0.134
-649.799	-200.000	-0.000	-0.112
-648.784	800.000	-0.050	-0.162
-647.770	-200.000	0.035	-0.259
-646.755	-69.161	-0.339	0.133
-645.741	1.128	-0.306	-0.224
-644.726	-200.000	0.010	-0.457
-643.711	-200.000	0.080	-0.526
-642.697	136.035	0.034	-0.046
-641.682	-139.540	-0.091	0.010
-640.668	29.687	-0.181	0.157
-639.653	-103.538	0.205	0.049
-638.638	-200.000	-0.010	-0.211
-637.624	-11.070	-0.256	-0.172
-636.609	63.384	0.107	0.109
-635.595	400.471	-0.090	-0.192
-634.580	800.000	0.056	0.181
-633.565	-101.308	-0.192	0.048
-632.551	-200.000	-0.106	0.533
-631.536	-28.392	0.195	0.115
-630.522	-125.823	0.231	0.035
-629.507	137.869	-0.095	-0.127
-628.492	38.234	-0.177	-0.161
-627.478	800.000	0.063	0.190
-626.463	-40.893	0.102	-0.054
-625.449	13.107	0.061	0.048
-624.434	-152.609	0.083	0.006
-623.419	-200.000	0.068	-0.508
-622.405	-200.000	0.026	0.159
-621.390	513.665	0.106	-0.252
-620.376	-171.475	-0.136	-0.005
-619.361	-88.844	-0.080	-0.024
-618.346	-111.439	-0.332	-0.069
-617.332	-194.782	-0.259	0.002
-616.317	709.804	0.045	0.120
-615.303	655.219	-0.128	-0.334
-614.288	-26.482	-0.147	-0.088
-613.273	-76.606	-0.311	0.111
-612.259	-200.000	-0.036	-0.166
-611.244	-200.000	0.015	-0.204
-610.230	-200.000	0.058	-0.267
-609.215	-41.096	-0.121	0.064
-608.201	-200.000	0.022	0.187
-607.186	-200.000	-0.006	0.264
-606.171	363.998	0.060	0.122
-605.157	-15.530	-0.142	0.092
-604.142	800.000	-0.078	-0.222
-603.128	-38.811	0.365	0.196
-602.113	-155.575	0.136	0.009
-601.098	800.000	0.047	-0.145
-600.084	-200.000	0.019	0.223
-599.069	-6.924	-0.442	0.306
-598.055	13.804	-0.407	-0.322
-597.040	-200.000	0.038	0.177
-596.025	33.663	0.185	-0.164
-595.011	-75.164	-0.122	-0.044
-593.996	55.685	-0.094	-0.093
-592.982	-15.793	0.218	0.141
-591.967	151.942	0.077	-0.108
-590.952	12.157	-0.258	-0.202
-589.938	-116.884	-0.068	-0.013
-588.923	224.057	-0.079	0.130
-587.909	143.124	0.124	0.168
-586.894	-16.129	0.056	-0.036
-585.879	-200.000	-0.012	-0.083
-584.865	-117.055	-0.109	-0.020
-583.850	-14.325	-0.124	-0.082
-582.836	-58.838	-0.194	0.086
-581.821	-4.290	0.195	0.137
-580.806	-184.966	-0.110	0.002
-579.792	-123.189	-0.103	0.017
-578.777	588.177	-0.108	0.270
-577.763	-158.366	0.309	-0.018
-576.748	491.080	-0.106	-0.246
-575.733	-200.000	0.033	-0.196
-574.719	800.000	-0.008	-0.024
-573.704	800.000	0.081	0.247
-572.690	145.754	-0.080	0.109
-571.675	431.788	0.080	-0.177
-570.661	55.931	-0.224	0.221
-569.646	-200.000	0.013	-0.068
-568.631	57.183	0.113	0.112
-567.617	-140.259	0.321	0.034
-566.602	800.000	-0.054	0.160
-565.588	421.675	-0.210	-0.458
-564.573	-43.975	0.035	-0.018
-563.558	-200.000	0.038	0.185
-562.544	93.312	-0.072	0.083
-561.529	85.777	0.346	0.387
-560.515	-200.000	0.286	0.001
-559.500	-64.463	0.125	-0.052
-558.485	-200.000	0.007	-0.146
-557.471	27.037	-0.251	-0.214
-556.456	277.208	0.076	-0.138
-555.442	-200.000	0.010	-0.136
-554.427	87.295	0.237	-0.266
-553.412	800.000	0.112	0.388
-552.398	-136.574	-0.183	-0.022
-551.383	61.233	0.148	-0.150
-550.369	800.000	-0.058	-0.217
-549.354	-92.466	-0.048	-0.014
-548.339	194.204	-0.117	-0.180
-547.325	492.364	-0.034	-0.080
-546.310	176.511	0.091	-0.134
-545.296	238.709	-0.082	-0.138
-544.281	-48.479	0.165	-0.081
-543.266	16.810	-0.163	-0.131
-542.252	505.881	-0.091	-0.214
-541.237	342.464	0.159	-0.315
-540.223	467.366	-0.094	0.214
-539.208	-200.000	0.029	0.204
-538.193	-14.564	-0.263	-0.172
-537.179	197.194	-0.082	-0.127
-536.164	-161.816	0.182	-0.009
-535.150	152.549	-0.106	0.147
-534.135	800.000	0.114	0.355
-533.121	-84.152	0.200	-0.064
-532.106	-23.505	-0.197	-0.120
-531.091	-17.933	0.182	0.116
-530.077	-84.493	-0.128	-0.041
-529.062	-57.587	0.280	-0.125
-528.048	112.118	0.199	0.244
-527.033	214.028	0.139	-0.222
-526.018	522.280	-0.076	0.180
-525.004	800.000	-0.072	0.236
-523.989	362.149	-0.097	-0.197
-522.975	56.359	-0.195	0.193
-521.960	25.887	-0.120	-0.102
-520.945	706.484	-0.129	-0.345
-519.931	28.438	0.141	-0.121
-518.916	-200.000	0.024	-0.309
-517.902	319.288	-0.139	-0.268
-516.887	-136.638	-0.385	-0.045
-515.872	114.484	-0.204	0.252
-514.858	329.044	0.047	0.092
-513.843	116.841	-0.183	0.228
-512.829	743.093	-0.038	-0.104
-511.814	-142.350	0.107	-0.011
-510.799	440.879	0.030	0.067
-509.785	-200.000	0.072	0.444
-508.770	-38.783	0.372	-0.199
-507.756	-200.000	0.058	0.295
-506.741	-170.761	0.281	-0.010
-505.726	5.816	0.212	-0.159
-504.712	76.924	0.182	0.196
-503.697	-165.205	-0.175	0.008
-502.683	-113.569	-0.295	-0.059
-501.668	-15.593	0.256	0.166
-500.653	-117.993	0.411	-0.075
-499.639	-27.140	0.253	-0.150
-498.624	-200.000	0.007	-0.235
-497.610	-64.108	0.122	0.050
-496.595	-127.335	-0.225	0.033
-495.581	15.014	-0.358	0.284
-494.566	189.161	-0.104	0.158
-493.551	-189.336	-0.226	-0.003
-492.537	-22.556	-0.049	-0.030
-491.522	-200.000	0.009	0.179
-490.508	-20.490	0.209	0.130
-489.493	422.747	-0.157	0.341
-488.478	128.393	0.169	0.218
-487.464	-200.000	-0.013	-0.140
-486.449	-78.727	-0.179	-0.062
-485.435	212.761	-0.024	-0.038
-484.420	-76.634	0.481	-0.171
-483.405	-200.000	-0.012	-0.173
-482.391	-118.000	0.157	-0.029
-481.376	23.364	-0.046	-0.038
-480.362	175.114	-0.085	0.124
-479.347	794.331	-0.113	0.316
-478.332	125.646	-0.063	0.081
-477.318	800.000	0.083	-0.308
-476.303	190.005	-0.183	0.278
-475.289	128.451	0.129	0.166
-474.274	99.491	0.077	0.090
-473.259	-200.000	0.012	-0.228
-472.245	-17.325	0.350	-0.223
-471.230	-3.804	0.123	-0.086
-470.216	332.039	-0.033	-0.064
-469.201	-35.035	-0.184	0.101
-468.186	-45.094	0.100	0.050
-467.172	-144.208	0.220	-0.021
-466.157	-88.185	-0.219	-0.066
-465.143	16.022	0.258	0.205
-464.128	-200.000	-0.029	-0.137
-463.113	29.444	0.194	-0.167
-462.099	430.856	-0.141	-0.309
-461.084	-200.000	-0.026	0.129
-460.070	-200.000	-0.033	-0.330
-459.055	45.745	-0.208	0.194
-458.040	800.000	-0.069	0.209
-457.026	2.246	0.022	-0.016
-456.011	800.000	0.017	0.060
-454.997	283.267	0.232	-0.422
-453.982	-79.189	0.042	-0.014
-452.968	-115.927	-0.048	-0.009
-451.953	106.819	0.151	-0.181
-450.938	-200.000	0.076	-0.366
-449.924	-126.323	0.211	-0.032
-448.909	-47.078	-0.265	-0.131
-447.895	16.741	-0.317	0.254
-446.880	111.989	-0.154	0.189
-445.865	783.505	0.064	0.178
-444.851	-200.000	-0.010	-0.105
-443.836	-65.551	0.427	0.173
-442.822	32.268	0.170	0.148
-441.807	-200.000	0.050	0.371
-440.792	-200.000	-0.043	-0.410
-439.778	-200.000	-0.143	0.000
-438.763	-112.588	-0.144	0.029
-437.749	-61.130	0.257	-0.110
-436.734	800.000	-0.112	0.419
-435.719	254.549	0.188	-0.325
-434.705	-126.015	0.088	0.013
-433.690	-90.244	0.253	-0.074
-432.676	-93.982	-0.159	0.044
-431.661	314.365	0.071	0.135
-430.646	-4.891	-0.164	-0.115
-429.632	477.707	-0.234	-0.535
-428.617	304.697	-0.014	0.027
-427.603	-200.000	0.028	-0.219
-426.588	148.467	-0.114	-0.155
-425.573	91.914	0.293	0.334
-424.559	130.120	0.158	0.205
-423.544	-94.392	0.064	0.018
-422.530	-9.747	0.040	0.027
-421.515	800.000	0.064	0.276
-420.500	582.122	-0.130	-0.322
-419.486	227.569	-0.159	0.261
-418.471	18.519	0.151	-0.122
-417.457	1.840	-0.203	0.148
-416.442	-59.566	0.260	-0.113
-415.428	-200.000	-0.030	-0.292
-414.413	287.248	0.032	-0.058
-413.398	-200.000	-0.009	0.055
-412.384	-120.636	-0.210	-0.036
-411.369	-200.000	-0.017	0.182
-410.355	252.550	-0.042	0.073
-409.340	208.138	0.143	-0.226
-408.325	-39.908	0.188	-0.099
-407.311	-200.000	0.035	-0.308
-406.296	-139.420	0.195	0.021
-405.282	150.376	-0.089	0.122
-404.267	42.601	-0.129	0.118
-403.252	-161.623	0.391	-0.020
-402.238	384.443	-0.063	0.131
-401.223	286.412	-0.061	0.110
-400.209	-60.337	-0.134	-0.057
-399.194	-36.900	-0.116	-0.063
-398.179	-14.702	0.140	0.091
-397.165	736.417	-0.125	0.338
-396.150	112.875	0.035	-0.043
-395.136	196.093	-0.141	0.217
-394.121	-62.414	-0.195	0.082
-393.106	800.000	0.041	-0.129
-392.092	586.652	-0.036	-0.089
-391.077	-48.512	0.042	0.021
-390.063	-59.475	0.169	-0.073
-389.048	419.218	-0.042	0.092
-388.033	409.965	-0.145	-0.310
-387.019	-200.000	-0.006	0.198
-386.004	-200.000	0.008	-0.252
-384.990	278.630	-0.248	-0.446
-383.975	39.291	0.088	-0.079
-382.960	-59.038	-0.228	-0.099
-381.946	117.237	-0.083	-0.103
-380.931	-189.077	-0.358	-0.004
-379.917	800.000	-0.094	-0.266
-378.902	395.231	-0.121	-0.255
-377.888	800.000	0.078	0.222
-376.873	-162.281	0.384	-0.019
-375.858	-24.548	0.128	0.077
-374.844	-14.132	0.079	0.051
-373.829	-141.093	-0.238	-0.025
-372.815	-200.000	0.021	-0.212
-371.800	-200.000	0.022	0.166
-370.785	12.644	0.221	-0.172
-369.771	-94.750	0.157	-0.043
-368.756	352.717	-0.140	-0.280
-367.742	800.000	-0.124	-0.405
-366.727	23.785	0.065	0.054
-365.712	-62.173	0.232	0.098
-364.698	473.970	-0.032	-0.073
-363.683	-70.515	-0.266	0.101
-362.669	-12.357	0.241	0.159
-361.654	-200.000	-0.048	0.295
-360.639	-77.769	-0.255	-0.089
-359.625	-61.329	0.515	0.219
-358.610	315.735	-0.069	0.131
-357.596	31.605	0.187	0.162
-356.581	4.422	-0.136	0.101
-355.566	-200.000	-0.049	0.275
-354.552	102.929	-0.224	0.265
-353.537	20.479	-0.258	-0.210
-352.523	-200.000	-0.026	-0.300
-351.508	-200.000	-0.001	0.013
-350.493	-122.732	0.176	0.029
-349.479	43.810	-0.213	0.197
-348.464	261.588	0.116	0.202
-347.450	169.030	0.064	-0.093
-346.435	209.117	-0.053	0.083
-345.420	60.674	0.035	0.035
-344.406	-125.890	-0.347	-0.053
-343.391	196.768	0.078	-0.120
-342.377	457.995	0.071	-0.159
-341.362	657.931	0.105	-0.272
-340.348	800.000	-0.078	-0.238
-339.333	-200.000	0.005	0.090
-338.318	10.710	0.280	-0.215
-337.304	-117.859	-0.215	-0.039
-336.289	-12.700	-0.461	-0.303
-335.275	268.216	0.128	-0.226
-334.260	800.000	0.121	-0.356
-333.245	-200.000	0.007	0.056
-332.231	32.973	-0.047	0.041
-331.216	-11.296	-0.003	-0.002
-330.202	86.281	0.178	-0.197
-329.187	-122.243	-0.334	-0.055
-328.172	254.077	-0.023	-0.040
-327.158	-40.390	0.325	-0.170
-326.143	-200.000	-0.007	0.092
-325.129	800.000	0.078	0.246
-324.114	152.263	-0.162	-0.222
-323.099	-65.202	-0.358	-0.145
-322.085	-103.183	0.367	0.087
-321.070	-200.000	0.002	0.184
-320.056	51.705	-0.080	-0.077
-319.041	106.357	-0.065	-0.077
-318.026	31.973	-0.091	0.079
-317.012	116.801	0.091	0.112
-315.997	-70.657	-0.110	-0.042
-314.983	136.563	-0.157	-0.207
-313.968	-43.375	0.193	0.098
-312.953	219.384	-0.147	-0.236
-311.939	-200.000	-0.078	0.390
-310.924	-200.000	-0.004	0.060
-309.910	-200.000	0.028	-0.151
-308.895	14.981	-0.175	0.138
-307.880	-23.558	0.123	-0.074
-306.866	-200.000	-0.001	0.252
-305.851	800.000	0.080	0.298
-304.837	-99.470	-0.100	0.025
-303.822	449.589	0.135	0.298
-302.807	-119.409	0.192	0.034
-301.793	-200.000	-0.026	0.127
-300.778	-1.247	0.149	0.106
-299.764	-85.789	0.188	-0.059
-298.749	-129.152	0.268	-0.038
-297.735	-42.990	-0.128	0.065
-296.720	-200.000	0.017	-0.268
-295.705	-76.910	0.236	0.083
-294.691	-200.000	-0.023	0.191
-293.676	-200.000	-0.042	0.295
-292.662	800.000	0.086	0.320
-291.647	-200.000	0.054	0.298
-290.632	107.481	-0.179	-0.215
-289.618	690.236	0.014	0.037
-288.603	-200.000	-0.006	0.220
-287.589	-170.376	-0.240	0.008
-286.574	-31.261	-0.174	-0.099
-285.559	-1.932	-0.242	0.171
-284.545	53.531	-0.221	0.213
-283.530	800.000	-0.056	-0.180
-282.516	-200.000	0.055	0.290
-281.501	215.327	0.159	0.254
-280.486	728.308	0.132	0.353
-279.472	167.929	0.045	-0.064
-278.457	-8.950	0.046	-0.031
-277.443	158.494	-0.075	-0.104
-276.428	-45.180	0.366	-0.183
-275.413	800.000	0.086	-0.274
-274.399	308.248	0.009	0.017
-273.384	-200.000	-0.039	-0.187
-272.370	-200.000	0.033	0.341
-271.355	-200.000	0.026	-0.243
-270.340	-8.609	-0.223	-0.151
-269.326	161.104	-0.101	0.142
-268.311	-200.000	0.000	-0.088
-267.297	286.781	0.097	-0.175
-266.282	-20.523	0.260	-0.161
-265.267	-172.059	0.255	0.008
-264.253	-65.711	0.176	-0.071
-263.238	-200.000	-0.042	0.293
-262.224	800.000	-0.094	-0.348
-261.209	-200.000	0.013	0.191
-260.195	800.000	-0.053	0.205
-259.180	-114.240	0.404	-0.078
-258.165	-200.000	-0.004	0.025
-257.151	-106.269	-0.235	0.053
-256.136	-89.281	-0.370	0.109
-255.122	-34.498	-0.232	0.128
-254.107	-200.000	0.016	-0.218
-253.092	43.432	-0.124	-0.114
-252.078	84.904	-0.140	-0.154
-251.063	-158.524	-0.541	-0.031
-250.049	-121.055	-0.141	-0.024
-249.034	79.623	0.305	-0.328
-248.019	-189.548	-0.155	-0.002
-247.005	-6.600	0.029	0.020
-245.990	-200.000	0.011	0.198
-244.976	64.999	-0.192	0.195
-243.961	117.514	0.267	-0.330
-242.946	-115.153	0.083	0.016
-241.932	-200.000	0.050	0.222
-240.917	446.554	-0.162	0.358
-239.903	-200.000	-0.009	-0.054
-238.888	558.363	0.060	0.145
-237.873	-72.232	0.144	-0.053
-236.859	800.000	0.105	0.372
-235.844	-54.897	0.056	-0.025
-234.830	-137.762	-0.344	0.039
-233.815	340.903	-0.024	-0.046
-232.800	448.086	-0.096	-0.212
-231.786	-200.000	0.032	-0.231
-230.771	68.680	-0.252	0.259
-229.757	83.261	0.032	0.035
-228.742	274.334	0.061	0.108
-227.727	338.593	-0.138	0.270
-226.713	-154.452	-0.190	0.013
-225.698	342.911	0.095	-0.187
-224.684	12.288	-0.249	0.193
-223.669	-128.011	0.279	0.040
-222.655	87.196	0.071	-0.079
-221.640	-35.708	0.197	0.107
-220.625	-25.459	0.151	0.089
-219.611	800.000	0.114	0.451
-218.596	46.006	-0.130	0.121
-217.582	800.000	-0.060	0.191
-216.567	279.048	0.031	-0.055
-215.552	676.682	0.069	-0.181
-214.538	-200.000	0.002	0.054
-213.523	52.349	0.182	0.174
-212.509	-200.000	-0.016	-0.126
-211.494	4.151	0.354	0.260
-210.479	44.473	0.034	0.031
-209.465	-200.000	-0.027	0.219
-208.450	-47.978	-0.265	0.129
-207.436	11.318	-0.306	0.235
-206.421	-200.000	-0.005	-0.055
-205.406	800.000	0.066	-0.225
-204.392	134.138	0.138	-0.180
-203.377	14.060	0.232	-0.181
-202.363	-122.472	0.134	0.022
-201.348	800.000	0.042	0.134
-200.333	207.565	0.038	-0.059
-199.319	800.000	-0.020	0.070
-198.304	-200.000	0.041	-0.200
-197.290	800.000	0.062	-0.176
-196.275	-200.000	-0.031	0.318
-195.260	-96.777	0.418	0.110
-194.246	800.000	-0.057	-0.189
-193.231	-103.023	-0.120	0.028
-192.217	383.764	0.103	-0.213
-191.202	-137.727	-0.108	0.012
-190.187	-200.000	0.001	0.091
-189.173	18.193	0.265	-0.212
-188.158	649.359	0.088	0.225
-187.144	-36.604	0.241	-0.130
-186.129	79.133	0.004	-0.005
-185.114	-98.570	-0.139	0.036
-184.100	514.451	0.046	0.108
-183.085	64.778	0.282	0.285
-182.071	194.058	0.108	-0.164
-181.056	44.671	0.198	-0.183
-180.042	26.898	-0.139	-0.116
-179.027	-181.790	-0.146	0.003
-178.012	792.404	-0.075	0.206
-176.998	120.543	-0.186	0.231
-175.983	111.001	-0.186	0.224
-174.969	143.379	0.195	0.260
-173.954	127.651	0.225	0.286
-172.939	-143.036	0.261	0.025
-171.925	44.763	0.067	-0.062
-170.910	-200.000	-0.020	0.091
-169.896	-200.000	-0.068	0.300
-168.881	-159.392	-0.157	-0.009
-167.866	-61.308	-0.162	0.068
-166.852	-126.877	0.106	-0.016
-165.837	-41.640	-0.157	0.080
-164.823	800.000	-0.119	-0.407
-163.808	128.154	0.061	0.077
-162.793	126.289	0.110	0.139
-161.779	-106.807	-0.271	0.060
-160.764	800.000	-0.040	-0.125
-159.750	15.573	0.104	-0.082
-158.735	-175.946	0.135	-0.004
-157.720	-200.000	0.023	0.275
-156.706	616.511	0.105	0.262
-155.691	-200.000	-0.067	-0.457
-154.677	92.599	0.070	0.079
-153.662	24.651	-0.078	-0.064
-152.647	-52.953	0.116	-0.053
-151.633	92.914	-0.192	0.217
-150.618	-200.000	-0.001	0.028
-149.604	-23.350	0.101	0.061
-148.589	-150.134	0.430	0.033
-147.574	73.867	-0.110	-0.116
-146.560	-200.000	-0.013	0.088
-145.545	-200.000	-0.068	0.331
-144.531	107.493	-0.144	0.171
-143.516	-200.000	0.004	-0.214
-142.502	78.511	-0.146	-0.156
-141.487	-33.120	0.313	0.174
-140.472	-200.000	-0.012	0.074
-139.458	800.000	-0.043	-0.140
-138.443	702.421	0.088	-0.232
-137.429	-12.817	0.194	0.126
-136.414	-100.476	-0.244	-0.060
-135.399	800.000	-0.044	0.162
-134.385	5.171	0.114	-0.084
-133.370	-57.294	-0.132	0.058
-132.356	-62.648	-0.169	0.070
-131.341	-200.000	0.047	-0.325
-130.326	-53.479	-0.112	-0.051
-129.312	-47.424	-0.120	-0.059
-128.297	308.912	0.145	-0.270
-127.283	-200.000	0.043	0.259
-126.268	800.000	0.037	-0.139
-125.253	99.922	0.183	-0.212
-124.239	22.548	-0.140	-0.114
-123.224	-38.839	-0.182	-0.096
-122.210	67.496	-0.062	-0.064
