DTS Sentinel unit serial number:	SN413079Multiplexer serial number:	ORYXHardware model number:	OX4-SRSoftware version number:	ORYX F/W v4.00 Oryx Data Collector v3.7.2.0data status	okinstallation	princeton_trtdifferential loss correction	single-endedforward channel	channel 1reverse channel	N/Adate	2019/09/15time	14:10:35forward acquisition time	60.00reverse acquisition time	0.00gamma	496.2192k internal	0.2292k external	0.2292temperature offset calibration	0.9966default loss term (dB/km)	0.3790temperature slope calibration	1.0000multiplexer offset coefficient	1.0000multiplexer slope coefficient	1.0000fibre end	0.00T internal ref (°C)	38.77T ext. ref 1 (°C)	4.95T ext. ref 2 (°C)	35.88length (m)	temperature (°C)	Stokes	anti-Stokes-747.200	-200.000	0.009	-0.162
-746.185	121.827	-0.114	0.145
-745.171	-25.919	0.219	0.132
-744.156	800.000	-0.048	0.200
-743.142	309.435	-0.068	0.129
-742.127	275.960	-0.212	0.385
-741.112	-133.284	0.203	-0.026
-740.098	-200.000	-0.035	0.163
-739.083	800.000	0.057	-0.232
-738.069	-200.000	-0.023	0.251
-737.054	72.454	0.032	0.034
-736.039	-50.744	-0.462	0.223
-735.025	800.000	-0.112	0.461
-734.010	439.299	-0.125	0.279
-732.996	430.591	-0.255	-0.566
-731.981	-29.721	-0.150	0.088
-730.966	1.799	0.093	0.068
-729.952	66.708	-0.168	0.175
-728.937	35.118	0.245	-0.220
-727.923	594.237	-0.137	-0.346
-726.908	-78.770	0.325	-0.113
-725.894	-80.320	0.208	-0.071
-724.879	186.694	-0.139	-0.212
-723.864	2.418	0.113	-0.084
-722.850	87.520	-0.089	-0.100
-721.835	693.170	-0.120	-0.323
-720.821	9.232	-0.263	-0.203
-719.806	-149.464	-0.308	-0.025
-718.791	-58.836	-0.203	-0.090
-717.777	-200.000	0.047	-0.387
-716.762	78.305	0.091	-0.100
-715.748	45.366	0.225	-0.212
-714.733	56.560	-0.330	0.328
-713.718	-101.474	-0.177	-0.044
-712.704	315.487	0.034	-0.065
-711.689	20.488	-0.244	-0.201
-710.675	-200.000	-0.022	-0.158
-709.660	-200.000	-0.010	-0.187
-708.645	432.996	0.114	0.253
-707.631	649.236	0.170	-0.446
-706.616	-156.729	-0.247	-0.016
-705.602	800.000	-0.108	-0.456
-704.587	662.192	-0.053	0.141
-703.572	-166.395	0.102	-0.004
-702.558	-3.023	0.024	0.017
-701.543	-200.000	-0.019	0.166
-700.529	294.692	0.036	0.066
-699.514	-200.000	0.002	-0.211
-698.499	800.000	0.129	-0.431
-697.485	68.776	0.134	0.140
-696.470	-23.154	0.139	0.086
-695.456	800.000	-0.116	-0.436
-694.441	800.000	0.090	-0.302
-693.426	16.558	-0.091	0.074
-692.412	187.071	-0.047	-0.072
-691.397	402.941	-0.013	-0.027
-690.383	473.383	0.067	-0.153
-689.368	-78.692	-0.198	-0.069
-688.354	19.592	0.134	-0.110
-687.339	-200.000	0.021	0.173
-686.324	-200.000	-0.019	-0.220
-685.310	-200.000	-0.012	-0.305
-684.295	-170.245	0.107	-0.004
-683.281	800.000	-0.097	0.277
-682.266	-200.000	0.003	0.034
-681.251	-119.385	-0.142	0.025
-680.237	-49.107	-0.289	0.141
-679.222	-169.421	0.065	-0.002
-678.208	685.785	0.129	-0.345
-677.193	-155.417	-0.342	0.023
-676.178	-200.000	-0.031	0.282
-675.164	92.331	-0.158	-0.181
-674.149	800.000	-0.080	0.233
-673.135	800.000	-0.070	0.214
-672.120	-200.000	0.022	-0.166
-671.105	-78.906	-0.021	-0.007
-670.091	180.373	0.213	-0.319
-669.076	-200.000	-0.031	-0.314
-668.062	31.388	-0.082	-0.072
-667.047	-41.331	-0.264	0.139
-666.032	-20.062	-0.164	0.103
-665.018	22.506	0.315	-0.263
-664.003	201.107	-0.104	-0.163
-662.989	5.425	-0.154	0.116
-661.974	154.334	0.216	0.302
-660.959	-200.000	-0.006	-0.069
-659.945	800.000	0.034	0.134
-658.930	-200.000	-0.027	-0.147
-657.916	-89.806	0.262	0.078
-656.901	800.000	0.014	0.048
-655.886	800.000	0.058	-0.176
-654.872	-114.088	-0.412	-0.081
-653.857	86.471	-0.236	-0.265
-652.843	-85.075	0.380	-0.121
-651.828	-65.250	0.052	-0.021
-650.814	16.762	-0.142	-0.115
-649.799	120.575	0.097	-0.123
-648.784	-30.500	0.095	-0.055
-647.770	-128.106	-0.314	-0.046
-646.755	-101.805	0.449	-0.111
-645.741	-125.629	0.330	0.051
-644.726	-110.803	0.244	-0.051
-643.711	-136.767	0.018	-0.002
-642.697	285.191	-0.136	0.250
-641.682	800.000	0.101	-0.348
-640.668	165.472	0.069	0.099
-639.653	-200.000	-0.010	0.076
-638.638	-200.000	-0.010	0.104
-637.624	-200.000	-0.013	0.174
-636.609	-117.282	-0.306	-0.057
-635.595	238.589	0.174	0.295
-634.580	0.555	0.165	-0.120
-633.565	-200.000	-0.017	-0.132
-632.551	-46.547	-0.528	-0.264
-631.536	384.202	0.064	0.134
-630.522	-100.924	0.310	0.078
-629.507	-200.000	0.017	0.315
-628.492	164.543	0.085	0.122
-627.478	330.939	-0.184	-0.360
-626.463	196.134	0.123	-0.191
-625.449	10.082	-0.285	-0.221
-624.434	-116.655	-0.395	0.074
-623.419	90.050	0.064	0.073
-622.405	38.671	0.145	0.132
-621.390	-94.281	-0.255	-0.071
-620.376	499.515	-0.032	-0.076
-619.361	-50.185	-0.038	-0.018
-618.346	414.416	0.112	-0.243
-617.332	-200.000	0.058	-0.318
-616.317	171.544	0.204	0.298
-615.303	-200.000	0.009	-0.101
-614.288	-1.042	-0.194	-0.140
-613.273	-86.602	-0.180	0.056
-612.259	480.163	-0.033	0.075
-611.244	19.646	-0.081	-0.066
-610.230	65.070	0.052	0.053
-609.215	104.547	-0.225	-0.270
-608.201	800.000	-0.025	-0.081
-607.186	-87.291	-0.191	-0.059
-606.171	279.617	-0.021	0.037
-605.157	26.786	0.146	0.124
-604.142	800.000	-0.068	-0.291
-603.128	173.944	-0.095	-0.140
-602.113	182.793	0.121	-0.182
-601.098	289.464	-0.148	0.273
-600.084	-200.000	-0.017	-0.242
-599.069	-105.462	-0.332	-0.077
-598.055	7.128	-0.233	-0.177
-597.040	-52.609	-0.106	-0.050
-596.025	-200.000	-0.038	0.225
-595.011	-89.624	-0.177	-0.053
-593.996	-121.604	-0.040	-0.007
-592.982	-97.014	0.092	0.025
-591.967	-200.000	-0.042	-0.283
-590.952	-200.000	0.015	-0.118
-589.938	491.642	0.163	-0.380
-588.923	-189.996	0.066	-0.001
-587.909	-43.048	0.208	-0.107
-586.894	-65.839	-0.074	0.030
-585.879	-200.000	0.027	0.135
-584.865	87.004	-0.147	-0.166
-583.850	800.000	-0.086	-0.260
-582.836	-111.009	-0.085	0.018
-581.821	-120.368	-0.398	-0.069
-580.806	181.992	0.145	0.218
-579.792	51.056	-0.079	-0.076
-578.777	-200.000	-0.025	0.307
-577.763	-159.056	0.192	-0.011
-576.748	-139.390	-0.193	0.021
-575.733	1.750	-0.114	-0.084
-574.719	709.218	0.036	0.098
-573.704	98.898	-0.206	-0.242
-572.690	-46.045	-0.134	-0.067
-571.675	-200.000	0.057	0.349
-570.661	-178.586	-0.108	-0.003
-569.646	-200.000	0.043	0.293
-568.631	-107.120	-0.122	-0.027
-567.617	-200.000	0.009	-0.220
-566.602	-200.000	0.052	-0.257
-565.588	63.092	-0.281	0.286
-564.573	45.305	0.270	-0.253
-563.558	-12.653	-0.120	-0.079
-562.544	-63.972	0.233	0.097
-561.529	800.000	0.035	0.142
-560.515	149.013	-0.220	0.303
-559.500	170.675	-0.010	0.015
-558.485	275.695	0.181	0.326
-557.471	-41.865	0.144	0.075
-556.456	-38.662	-0.295	-0.158
-555.442	219.453	0.022	-0.037
-554.427	520.982	0.103	0.246
-553.412	800.000	-0.015	0.060
-552.398	-113.897	0.027	-0.005
-551.383	-122.905	0.253	0.041
-550.369	-190.797	0.360	-0.004
-549.354	-133.163	-0.132	0.017
-548.339	-160.598	-0.120	0.007
-547.325	-160.253	0.356	0.020
-546.310	129.521	0.152	-0.197
-545.296	245.098	-0.073	-0.125
-544.281	421.354	-0.107	-0.234
-543.266	-141.841	-0.091	0.009
-542.252	-200.000	-0.013	-0.225
-541.237	-118.562	-0.315	-0.057
-540.223	27.127	-0.125	0.106
-539.208	800.000	-0.027	0.097
-538.193	800.000	-0.046	-0.134
-537.179	-82.862	0.291	-0.095
-536.164	-54.072	-0.104	0.048
-535.150	-96.679	-0.261	-0.070
-534.135	-68.457	0.251	-0.099
-533.121	-13.602	0.106	-0.069
-532.106	582.373	0.079	-0.197
-531.091	-200.000	0.021	-0.182
-530.077	-200.000	-0.026	-0.315
-529.062	-200.000	-0.014	-0.150
-528.048	-58.441	0.309	0.136
-527.033	133.804	-0.148	0.194
-526.018	-97.730	0.063	-0.016
-525.004	-102.849	0.259	-0.063
-523.989	-96.899	0.247	0.066
-522.975	-79.048	0.167	0.058
-521.960	800.000	0.121	0.430
-520.945	750.589	0.088	-0.241
-519.931	-174.591	-0.077	0.002
-518.916	-72.973	-0.392	-0.146
-517.902	-81.483	-0.164	0.055
-516.887	273.097	0.095	0.169
-515.872	4.630	-0.205	0.153
-514.858	36.464	-0.090	-0.081
-513.843	-11.475	0.129	0.086
-512.829	-200.000	-0.018	0.203
-511.814	-14.480	0.194	-0.127
-510.799	91.511	-0.179	-0.203
-509.785	623.134	-0.170	0.434
-508.770	100.242	-0.160	-0.188
-507.756	-28.329	0.115	0.067
-506.741	-125.216	0.114	-0.018
-505.726	-20.904	-0.120	0.074
-504.712	-200.000	-0.011	0.126
-503.697	-200.000	-0.017	-0.273
-502.683	800.000	-0.087	-0.367
-501.668	-200.000	0.002	-0.327
-500.653	324.852	-0.098	-0.189
-499.639	5.011	-0.129	-0.096
-498.624	-2.345	-0.122	0.087
-497.610	-7.496	-0.191	0.131
-496.595	-63.657	0.188	0.078
-495.581	224.284	0.094	0.154
-494.566	109.031	-0.098	0.119
-493.551	-33.374	-0.125	-0.070
-492.537	-75.801	0.224	-0.081
-491.522	-32.227	0.118	0.067
-490.508	10.270	0.034	0.026
-489.493	354.808	-0.045	0.091
-488.478	-198.636	-0.116	-0.001
-487.464	-200.000	-0.023	-0.160
-486.449	-151.810	-0.201	0.015
-485.435	115.730	-0.122	0.151
-484.420	800.000	-0.050	0.210
-483.405	286.135	-0.170	-0.311
-482.391	-200.000	-0.033	0.236
-481.376	576.220	-0.142	0.351
-480.362	-200.000	-0.032	-0.157
-479.347	731.710	0.081	0.220
-478.332	22.869	-0.065	-0.054
-477.318	-49.939	0.208	-0.100
-476.303	57.126	0.172	-0.170
-475.289	715.003	-0.044	0.118
-474.274	-40.274	0.075	-0.040
-473.259	387.758	0.032	0.067
-472.245	800.000	-0.068	-0.255
-471.230	800.000	0.038	-0.117
-470.216	-16.399	0.158	-0.101
-469.201	800.000	0.142	-0.415
-468.186	-18.608	-0.249	0.157
-467.172	-141.719	0.200	-0.020
-466.157	-29.908	0.152	0.088
-465.143	-27.004	-0.184	0.109
-464.128	20.292	0.172	0.141
-463.113	129.497	-0.040	0.051
-462.099	-2.443	-0.153	-0.108
-461.084	-90.662	0.146	0.043
-460.070	-48.918	-0.165	0.080
-459.055	-65.200	0.035	0.014
-458.040	-102.188	-0.242	0.059
-457.026	16.069	-0.062	0.049
-456.011	-119.406	-0.229	0.040
-454.997	124.983	-0.065	0.082
-453.982	-200.000	0.038	0.190
-452.968	-200.000	-0.059	0.268
-451.953	-7.023	-0.247	-0.170
-450.938	-77.216	0.157	0.055
-449.924	-101.480	-0.332	-0.082
-448.909	800.000	0.084	-0.251
-447.895	800.000	-0.082	0.236
-446.880	760.971	0.063	0.173
-445.865	172.364	-0.118	-0.172
-444.851	-167.117	0.141	-0.006
-443.836	-116.061	0.152	-0.029
-442.822	-109.134	0.114	0.024
-441.807	510.233	0.053	-0.124
-440.792	108.200	-0.103	-0.125
-439.778	-200.000	-0.019	0.356
-438.763	13.124	0.398	-0.311
-437.749	800.000	-0.064	-0.203
-436.734	-200.000	-0.022	0.221
-435.719	-200.000	-0.016	-0.116
-434.705	20.390	0.044	0.036
-433.690	145.107	-0.236	0.319
-432.676	-12.096	0.426	0.282
-431.661	800.000	-0.068	0.254
-430.646	-97.003	0.160	0.042
-429.632	512.689	0.095	-0.224
-428.617	-100.909	-0.314	0.078
-427.603	-146.557	0.254	-0.022
-426.588	-86.800	-0.325	0.100
-425.573	-79.905	-0.343	0.117
-424.559	-21.240	-0.239	-0.147
-423.544	-158.802	0.084	0.005
-422.530	-93.789	-0.399	-0.111
-421.515	56.294	0.206	0.202
-420.500	-81.495	-0.315	0.105
-419.486	-15.900	-0.279	-0.180
-418.471	42.249	0.119	0.109
-417.457	85.452	-0.092	0.102
-416.442	-45.964	0.131	0.065
-415.428	489.990	-0.097	-0.224
-414.413	-147.879	0.109	0.009
-413.398	-74.457	0.170	-0.062
-412.384	-75.316	-0.114	0.041
-411.369	-103.983	-0.277	-0.065
-410.355	-200.000	0.006	-0.230
-409.340	219.477	0.100	-0.162
-408.325	-147.764	-0.258	0.022
-407.311	-66.948	0.026	-0.010
-406.296	142.654	0.095	-0.127
-405.282	390.032	-0.085	0.177
-404.267	-200.000	0.019	0.259
-403.252	60.798	0.213	0.214
-402.238	-200.000	0.035	-0.300
-401.223	800.000	-0.056	-0.170
-400.209	-125.508	-0.124	0.019
-399.194	-57.510	0.352	0.156
-398.179	-200.000	-0.059	0.321
-397.165	-60.597	0.202	0.086
-396.150	99.255	-0.220	0.257
-395.136	-200.000	-0.017	0.196
-394.121	279.639	0.209	-0.376
-393.106	114.446	0.163	-0.201
-392.092	-98.127	-0.199	-0.052
-391.077	800.000	0.018	-0.069
-390.063	3.330	-0.071	0.052
-389.048	28.247	-0.145	-0.123
-388.033	-200.000	-0.053	0.459
-387.019	-19.441	0.173	-0.108
-386.004	-143.443	0.323	-0.031
-384.990	552.291	-0.137	0.333
-383.975	800.000	-0.081	0.284
-382.960	-63.886	-0.040	-0.017
-381.946	74.196	-0.129	-0.137
-380.931	-139.306	0.167	-0.018
-379.917	-26.516	-0.076	-0.045
-378.902	800.000	0.132	-0.399
-377.888	159.350	-0.127	0.179
-376.873	285.405	-0.136	0.247
-375.858	-71.731	-0.097	0.037
-374.844	-89.156	0.441	-0.131
-373.829	737.765	0.052	0.141
-372.815	800.000	-0.108	0.317
-371.800	5.352	-0.093	0.069
-370.785	105.890	0.074	-0.089
-369.771	-37.642	-0.083	-0.045
-368.756	800.000	-0.021	-0.070
-367.742	362.241	0.153	0.310
-366.727	444.247	0.101	-0.223
-365.712	-88.053	-0.110	-0.033
-364.698	800.000	-0.023	0.073
-363.683	163.811	0.113	0.161
-362.669	800.000	-0.026	-0.110
-361.654	-100.162	-0.281	0.070
-360.639	-142.805	-0.023	-0.002
-359.625	407.208	-0.101	0.215
-358.610	-200.000	0.023	-0.340
-357.596	-96.436	-0.140	-0.037
-356.581	-165.073	-0.264	0.012
-355.566	800.000	-0.066	-0.223
-354.552	-200.000	-0.004	0.061
-353.537	-22.587	0.384	-0.234
-352.523	-183.282	0.130	-0.002
-351.508	264.423	-0.128	-0.225
-350.493	-145.547	-0.296	0.027
-349.479	530.555	-0.073	0.174
-348.464	-200.000	-0.048	0.455
-347.450	-38.767	-0.390	0.207
-346.435	59.567	0.050	-0.050
-345.420	-200.000	-0.026	-0.171
-344.406	84.716	-0.045	0.049
-343.391	-200.000	-0.030	-0.294
-342.377	-8.351	-0.043	-0.029
-341.362	-129.243	0.114	-0.016
-340.348	401.811	-0.218	-0.461
-339.333	144.680	0.097	0.130
-338.318	-147.810	0.070	0.006
-337.304	-141.686	0.111	0.011
-336.289	192.878	0.188	0.287
-335.275	800.000	-0.066	0.212
-334.260	-200.000	-0.038	-0.288
-333.245	13.587	-0.207	0.162
-332.231	-50.397	0.212	-0.101
-331.216	-1.272	0.121	0.086
-330.202	141.292	0.174	0.232
-329.187	357.741	0.151	-0.303
-328.172	800.000	0.066	-0.267
-327.158	-20.234	0.156	-0.097
-326.143	322.265	0.116	0.222
-325.129	-200.000	0.005	-0.077
-324.114	36.516	0.227	0.202
-323.099	51.475	0.143	0.136
-322.085	800.000	0.040	0.112
-321.070	-145.125	0.358	0.033
-320.056	-136.103	-0.239	0.028
-319.041	-185.720	0.303	0.005
-318.026	-117.669	0.191	-0.035
-317.012	285.704	-0.153	-0.277
-315.997	-88.864	-0.192	0.057
-314.983	-12.620	-0.298	-0.196
-313.968	221.036	-0.139	0.224
-312.953	-89.693	-0.217	0.064
-311.939	-134.465	-0.209	-0.026
-310.924	-155.630	-0.232	0.015
-309.910	-65.283	0.174	-0.071
-308.895	-146.680	0.354	0.031
-307.880	-74.195	-0.386	0.140
-306.866	118.024	-0.164	-0.203
-305.851	613.606	-0.117	0.296
-304.837	-2.735	0.131	-0.092
-303.822	-39.816	0.215	-0.113
-302.807	-200.000	-0.079	-0.418
-301.793	-111.716	0.222	-0.045
-300.778	450.582	0.072	0.161
-299.764	-97.148	-0.140	-0.037
-298.749	-64.482	0.309	0.126
-297.735	60.082	-0.171	0.170
-296.720	75.639	-0.216	0.229
-295.705	26.038	-0.206	-0.173
-294.691	78.928	0.344	-0.371
-293.676	199.007	0.114	0.176
-292.662	800.000	0.117	-0.493
-291.647	-200.000	-0.030	-0.239
-290.632	800.000	-0.092	0.318
-289.618	-61.144	0.089	-0.038
-288.603	71.580	-0.146	0.153
-287.589	128.660	0.170	-0.218
-286.574	-37.426	0.136	-0.073
-285.559	374.717	0.029	-0.059
-284.545	-14.986	-0.424	-0.273
-283.530	-200.000	-0.013	0.179
-282.516	102.755	0.029	0.034
-281.501	-50.429	-0.103	-0.049
-280.486	800.000	0.063	0.233
-279.472	-194.132	0.064	0.001
-278.457	-200.000	-0.012	-0.129
-277.443	-200.000	0.046	0.370
-276.428	800.000	0.084	-0.239
-275.413	-79.004	-0.082	-0.028
-274.399	511.267	-0.031	-0.073
-273.384	800.000	0.132	-0.371
-272.370	-2.915	0.165	0.116
-271.355	35.390	0.262	0.231
-270.340	27.978	0.224	0.190
-269.326	205.804	-0.238	0.372
-268.311	-43.109	0.563	0.287
-267.297	190.032	0.135	-0.203
-266.282	3.372	-0.259	0.190
-265.267	-200.000	0.046	0.383
-264.253	27.782	-0.146	0.123
-263.238	313.372	-0.218	0.412
-262.224	-48.972	-0.388	-0.187
-261.209	-200.000	0.057	-0.256
-260.195	5.237	-0.061	0.045
-259.180	297.580	-0.158	0.291
-258.165	800.000	0.059	0.186
-257.151	800.000	0.043	0.126
-256.136	-200.000	0.012	-0.159
-255.122	-179.844	0.114	0.002
-254.107	-200.000	0.013	-0.227
-253.092	14.668	0.092	-0.072
-252.078	58.241	0.146	-0.144
-251.063	-34.150	0.117	0.065
-250.049	-200.000	0.033	-0.178
-249.034	-82.908	0.086	-0.028
-248.019	205.528	0.105	-0.164
-247.005	541.199	-0.020	0.049
-245.990	-200.000	-0.003	-0.136
-244.976	-200.000	0.051	-0.273
-243.961	-94.641	0.330	-0.090
-242.946	-78.312	-0.197	0.068
-241.932	-200.000	-0.009	0.146
-240.917	177.942	0.075	-0.110
-239.903	205.844	-0.179	-0.279
-238.888	56.323	0.167	0.163
-237.873	-4.978	-0.116	0.080
-236.859	-140.256	0.419	0.044
-235.844	60.722	0.103	0.102
-234.830	-84.544	-0.292	-0.092
-233.815	-200.000	0.009	0.232
-232.800	82.747	-0.120	0.131
-231.786	182.435	0.103	-0.152
-230.771	-200.000	0.005	-0.072
-229.757	201.371	0.101	0.156
-228.742	-186.751	0.269	0.004
-227.727	-175.306	0.302	-0.008
-226.713	566.315	0.057	0.138
-225.698	640.237	-0.032	-0.083
-224.684	396.188	0.118	0.246
-223.669	-200.000	0.009	-0.301
-222.655	248.241	0.154	-0.261
-221.640	218.212	0.155	-0.248
-220.625	-23.452	0.107	0.064
-219.611	-80.997	0.062	-0.021
-218.596	-200.000	0.006	-0.059
-217.582	129.571	0.244	-0.312
-216.567	-162.884	0.053	-0.003
-215.552	115.976	0.124	-0.153
-214.538	47.688	-0.126	0.118
-213.523	87.151	0.195	0.216
-212.509	233.680	0.113	0.187
-211.494	800.000	-0.017	-0.068
-210.479	-39.604	0.187	-0.098
-209.465	800.000	0.047	-0.186
-208.450	211.539	-0.085	0.134
-207.436	-112.027	0.475	0.096
-206.421	210.280	-0.069	-0.108
-205.406	-15.671	0.234	-0.149
-204.392	25.333	0.150	-0.125
-203.377	78.791	-0.416	0.446
-202.363	281.859	0.075	-0.135
-201.348	-33.293	-0.086	0.048
-200.333	-200.000	0.002	0.347
-199.319	-22.788	-0.137	-0.083
-198.304	800.000	-0.048	0.200
-197.290	-176.370	0.159	0.004
-196.275	70.165	-0.044	0.045
-195.260	-200.000	0.002	0.322
-194.246	394.183	-0.059	-0.124
-193.231	-82.581	-0.111	0.036
-192.217	-21.824	-0.108	-0.066
-191.202	-149.188	-0.124	0.010
-190.187	-82.537	-0.220	0.072
-189.173	356.442	-0.136	-0.272
-188.158	800.000	-0.087	0.270
-187.144	-17.679	0.118	0.074
-186.129	403.552	0.083	-0.175
-185.114	608.376	-0.007	-0.018
-184.100	52.974	0.198	0.190
-183.085	26.437	-0.084	-0.070
-182.071	800.000	-0.040	-0.155
-181.056	-44.671	-0.149	-0.074
-180.042	800.000	-0.039	-0.114
-179.027	-63.370	0.035	0.015
-178.012	445.297	-0.032	0.070
-176.998	6.669	-0.171	0.127
-175.983	-90.441	0.294	-0.085
-174.969	-75.428	0.203	-0.073
-173.954	800.000	-0.132	-0.372
-172.939	-200.000	-0.015	0.124
-171.925	162.704	0.056	0.078
-170.910	108.855	0.160	-0.191
-169.896	-102.823	-0.170	-0.040
-168.881	-144.735	0.256	0.024
-167.866	800.000	0.038	-0.162
-166.852	176.736	-0.255	0.372
-165.837	-200.000	-0.016	-0.116
-164.823	54.934	0.160	-0.155
-163.808	-200.000	0.004	-0.029
-162.793	-200.000	-0.003	0.135
-161.779	800.000	0.059	0.231
-160.764	567.404	-0.155	0.376
-159.750	-147.691	0.300	0.025
-158.735	-122.541	0.198	-0.032
-157.720	244.156	0.119	0.200
-156.706	800.000	0.017	0.047
-155.691	231.520	-0.173	0.283
-154.677	168.353	0.058	0.083
-153.662	88.232	0.123	0.136
-152.647	-145.309	-0.133	-0.012
-151.633	267.964	-0.082	-0.144
-150.618	-200.000	-0.010	-0.153
-149.604	-64.118	-0.111	0.045
-148.589	-51.718	0.341	-0.159
-147.574	-85.040	0.414	0.130
-146.560	-54.103	-0.043	-0.019
-145.545	196.850	-0.120	0.183
-144.531	-200.000	0.027	0.178
-143.516	11.711	0.159	0.122
-142.502	258.408	0.223	-0.385
-141.487	-85.488	0.198	-0.061
-140.472	-200.000	0.001	0.165
-139.458	-38.448	0.223	-0.118
-138.443	-88.291	0.153	-0.046
-137.429	362.677	-0.040	0.079
-136.414	99.317	0.086	0.099
-135.399	36.484	0.236	-0.208
-134.385	-200.000	-0.040	0.245
-133.370	-9.723	-0.216	-0.144
-132.356	272.726	0.109	0.193
-131.341	505.546	0.055	0.128
-130.326	800.000	0.037	0.113
-129.312	80.510	-0.045	-0.048
-128.297	145.573	0.140	-0.187
-127.283	-34.775	-0.173	-0.095
-126.268	-66.280	0.346	0.138
-125.253	619.179	-0.090	0.225
-124.239	-200.000	-0.081	-0.368
-123.224	-98.833	0.181	0.046
-122.210	-200.000	0.005	-0.256
