DTS Sentinel unit serial number:	SN413079Multiplexer serial number:	ORYXHardware model number:	OX4-SRSoftware version number:	ORYX F/W v4.00 Oryx Data Collector v3.7.2.0data status	okinstallation	princeton_trtdifferential loss correction	single-endedforward channel	channel 1reverse channel	N/Adate	2019/09/17time	22:22:35forward acquisition time	60.00reverse acquisition time	0.00gamma	496.2192k internal	0.2340k external	0.2340temperature offset calibration	0.9973default loss term (dB/km)	0.3790temperature slope calibration	1.0000multiplexer offset coefficient	1.0000multiplexer slope coefficient	1.0000fibre end	0.00T internal ref (°C)	25.50T ext. ref 1 (°C)	0.17T ext. ref 2 (°C)	18.54length (m)	temperature (°C)	Stokes	anti-Stokes-747.200	-107.373	0.350	0.077
-746.185	136.638	-0.293	0.383
-745.171	29.470	-0.107	0.091
-744.156	389.812	0.082	0.170
-743.142	147.970	0.094	-0.127
-742.127	298.287	0.140	-0.258
-741.112	10.926	-0.130	0.099
-740.098	108.677	-0.275	0.330
-739.083	-14.925	0.058	-0.037
-738.069	-74.505	-0.288	-0.104
-737.054	800.000	-0.020	0.085
-736.039	-200.000	-0.038	-0.223
-735.025	76.298	0.167	0.177
-734.010	-174.947	0.309	-0.009
-732.996	800.000	-0.018	-0.074
-731.981	282.911	-0.046	0.082
-730.966	131.661	-0.065	-0.084
-729.952	-200.000	0.001	0.336
-728.937	-49.832	0.098	-0.047
-727.923	17.994	0.103	0.082
-726.908	-52.455	-0.128	0.059
-725.894	-200.000	0.053	-0.290
-724.879	-29.606	-0.266	-0.152
-723.864	-57.398	-0.101	0.044
-722.850	335.344	-0.143	0.277
-721.835	-115.123	-0.235	0.045
-720.821	-18.740	0.181	0.113
-719.806	15.927	-0.048	0.038
-718.791	673.111	-0.059	-0.152
-717.777	151.385	-0.227	-0.310
-716.762	-44.896	0.149	0.074
-715.748	-73.951	-0.397	-0.144
-714.733	26.059	0.082	-0.069
-713.718	-112.958	-0.355	-0.070
-712.704	800.000	0.036	0.132
-711.689	729.319	-0.029	-0.077
-710.675	-200.000	0.022	0.377
-709.660	-137.303	-0.339	0.038
-708.645	283.991	0.026	0.047
-707.631	388.072	-0.094	0.195
-706.616	-63.519	0.438	-0.180
-705.602	-156.745	-0.426	-0.026
-704.587	-26.120	0.237	-0.139
-703.572	800.000	0.044	-0.153
-702.558	800.000	-0.151	0.469
-701.543	43.499	0.248	0.227
-700.529	357.539	-0.088	0.175
-699.514	153.129	-0.092	-0.126
-698.499	800.000	-0.029	-0.105
-697.485	-200.000	0.007	0.093
-696.470	78.779	0.249	-0.266
-695.456	800.000	-0.071	0.204
-694.441	598.747	0.063	0.158
-693.426	171.015	-0.061	0.087
-692.412	800.000	0.023	0.092
-691.397	666.551	-0.078	0.202
-690.383	22.988	0.274	0.224
-689.368	-34.967	0.229	0.125
-688.354	594.776	-0.134	0.330
-687.339	308.904	-0.029	0.055
-686.324	-5.794	-0.221	0.152
-685.310	44.633	0.299	0.275
-684.295	282.381	-0.101	0.182
-683.281	46.031	-0.057	-0.053
-682.266	-142.404	0.203	-0.020
-681.251	800.000	-0.136	0.478
-680.237	-94.652	-0.216	0.059
-679.222	800.000	0.063	0.222
-678.208	-101.113	-0.259	-0.063
-677.193	51.788	-0.115	0.110
-676.178	6.629	-0.121	0.090
-675.164	-200.000	-0.024	-0.268
-674.149	800.000	-0.037	-0.128
-673.135	-54.321	-0.256	-0.116
-672.120	18.284	-0.331	-0.264
-671.105	-70.981	0.321	-0.121
-670.091	-5.785	0.235	-0.161
-669.076	-200.000	0.067	0.326
-668.062	441.713	0.135	-0.294
-667.047	-124.592	-0.037	-0.006
-666.032	-26.211	0.231	-0.136
-665.018	-200.000	-0.003	0.220
-664.003	-200.000	0.031	0.135
-662.989	-200.000	0.019	0.247
-661.974	-25.457	-0.072	-0.043
-660.959	364.972	-0.037	-0.075
-659.945	594.572	0.059	0.146
-658.930	800.000	0.051	0.180
-657.916	-200.000	-0.033	0.193
-656.901	375.983	-0.039	-0.079
-655.886	-33.906	-0.277	-0.152
-654.872	157.373	-0.075	0.104
-653.857	34.094	-0.029	-0.025
-652.843	800.000	0.061	0.253
-651.828	-95.152	0.056	-0.015
-650.814	14.145	-0.333	0.259
-649.799	-141.947	0.124	-0.012
-648.784	348.614	0.188	-0.370
-647.770	403.445	-0.093	0.196
-646.755	-43.797	0.087	-0.044
-645.741	15.941	-0.132	-0.104
-644.726	-200.000	0.029	-0.457
-643.711	-196.702	0.045	-0.000
-642.697	-125.771	0.036	0.005
-641.682	-68.354	-0.254	-0.098
-640.668	-13.658	0.119	0.077
-639.653	5.333	0.190	-0.140
-638.638	-16.444	-0.395	-0.250
-637.624	-200.000	-0.038	0.166
-636.609	771.934	-0.121	-0.330
-635.595	-200.000	-0.031	-0.235
-634.580	-120.304	-0.302	-0.051
-633.565	-150.852	-0.153	0.012
-632.551	29.852	0.223	0.190
-631.536	67.445	-0.150	-0.153
-630.522	197.294	-0.182	-0.277
-629.507	-151.565	0.319	0.024
-628.492	-45.623	-0.485	0.239
-627.478	210.407	-0.076	-0.120
-626.463	-94.983	0.239	0.065
-625.449	-20.824	-0.145	0.089
-624.434	-200.000	-0.003	-0.041
-623.419	-95.158	0.210	-0.057
-622.405	390.044	-0.127	0.263
-621.390	180.428	0.183	0.267
-620.376	-157.411	0.085	-0.005
-619.361	33.382	-0.354	-0.307
-618.346	293.820	-0.072	0.132
-617.332	417.673	0.109	-0.232
-616.317	35.474	-0.156	-0.136
-615.303	675.721	-0.042	0.110
-614.288	97.796	0.174	0.200
-613.273	-59.056	0.091	0.039
-612.259	77.688	0.083	0.088
-611.244	-200.000	0.036	-0.227
-610.230	-49.031	-0.220	-0.105
-609.215	-200.000	-0.003	-0.053
-608.201	-200.000	-0.072	0.334
-607.186	279.500	-0.163	0.289
-606.171	-141.426	-0.186	0.019
-605.157	217.684	0.116	-0.184
-604.142	-102.601	0.379	0.090
-603.128	-200.000	-0.017	0.132
-602.113	754.608	-0.232	-0.625
-601.098	92.698	-0.103	-0.116
-600.084	-200.000	0.009	0.064
-599.069	-77.199	0.399	-0.139
-598.055	-89.782	-0.064	-0.019
-597.040	114.816	0.191	-0.232
-596.025	-200.000	0.005	-0.224
-595.011	-36.312	0.046	-0.025
-593.996	-200.000	0.008	-0.302
-592.982	800.000	-0.061	0.205
-591.967	661.666	-0.131	-0.335
-590.952	83.690	0.215	-0.234
-589.938	452.392	0.006	-0.013
-588.923	-61.982	-0.291	-0.121
-587.909	112.033	0.062	0.075
-586.894	-139.780	0.261	0.028
-585.879	78.224	-0.164	0.175
-584.865	-60.822	-0.119	0.050
-583.850	-165.805	-0.102	0.004
-582.836	-71.100	0.167	0.063
-581.821	748.193	-0.019	0.052
-580.806	-53.351	0.326	0.149
-579.792	-0.907	-0.173	0.122
-578.777	490.897	0.107	-0.244
-577.763	-200.000	-0.013	0.120
-576.748	-200.000	-0.026	0.195
-575.733	-200.000	0.000	-0.114
-574.719	-200.000	-0.074	-0.334
-573.704	-200.000	-0.010	0.126
-572.690	381.939	0.114	-0.233
-571.675	-49.961	0.165	-0.078
-570.661	-14.980	0.167	0.107
-569.646	26.689	0.172	-0.144
-568.631	-151.969	-0.159	0.012
-567.617	-43.700	0.099	-0.049
-566.602	-57.966	0.027	0.012
-565.588	800.000	0.099	0.307
-564.573	158.197	-0.104	-0.143
-563.558	720.049	0.033	0.086
-562.544	-200.000	-0.020	-0.194
-561.529	800.000	0.048	0.185
-560.515	-200.000	0.055	0.269
-559.500	800.000	-0.035	-0.103
-558.485	-77.281	-0.100	-0.035
-557.471	-200.000	-0.071	-0.459
-556.456	81.433	-0.221	-0.238
-555.442	-26.876	-0.123	-0.071
-554.427	-154.688	-0.150	0.010
-553.412	87.980	0.168	0.185
-552.398	-70.135	-0.394	0.149
-551.383	274.159	0.072	0.128
-550.369	39.943	-0.320	-0.286
-549.354	-56.674	0.150	0.066
-548.339	1.404	0.051	-0.036
-547.325	329.764	-0.147	0.281
-546.310	-62.312	0.146	0.061
-545.296	-200.000	0.038	0.175
-544.281	69.911	0.183	-0.188
-543.266	-200.000	-0.019	0.307
-542.252	800.000	0.051	-0.161
-541.237	-146.792	0.125	-0.011
-540.223	631.781	-0.097	-0.245
-539.208	-200.000	-0.023	-0.197
-538.193	-200.000	-0.012	0.248
-537.179	249.880	-0.133	0.224
-536.164	-56.486	0.069	0.031
-535.150	-200.000	0.018	-0.139
-534.135	-200.000	-0.045	0.323
-533.121	-200.000	0.132	0.000
-532.106	633.152	-0.049	-0.124
-531.091	-21.658	0.156	-0.095
-530.077	-118.486	-0.207	0.036
-529.062	-73.326	-0.252	-0.092
-528.048	-18.643	0.176	0.109
-527.033	127.315	-0.095	0.120
-526.018	-65.600	-0.277	-0.110
-525.004	246.054	-0.013	0.021
-523.989	330.213	0.079	-0.150
-522.975	800.000	0.072	-0.282
-521.960	-94.703	0.298	-0.080
-520.945	78.869	0.264	-0.280
-519.931	-48.599	-0.143	0.069
-518.916	-200.000	-0.007	0.069
-517.902	299.635	0.157	-0.287
-516.887	-4.918	0.141	-0.097
-515.872	-200.000	-0.072	-0.506
-514.858	-99.759	0.181	-0.045
-513.843	-114.044	-0.287	0.055
-512.829	72.656	-0.115	-0.119
-511.814	-92.275	0.369	-0.103
-510.799	49.914	-0.413	0.387
-509.785	396.272	0.098	0.204
-508.770	-119.483	-0.241	-0.041
-507.756	-75.084	0.148	0.053
-506.741	202.147	0.115	0.177
-505.726	31.539	0.169	-0.145
-504.712	75.664	-0.258	-0.270
-503.697	-26.802	-0.228	-0.133
-502.683	-112.096	-0.332	-0.066
-501.668	402.375	-0.105	0.220
-500.653	745.360	0.038	-0.101
-499.639	-103.191	0.360	0.084
-498.624	-135.625	-0.160	0.019
-497.610	-200.000	-0.023	-0.437
-496.595	-200.000	-0.019	-0.336
-495.581	-88.757	0.308	-0.091
-494.566	301.319	0.147	-0.270
-493.551	-28.347	-0.360	-0.206
-492.537	-115.556	-0.128	0.024
-491.522	-149.170	-0.286	0.023
-490.508	-200.000	-0.004	0.191
-489.493	234.360	-0.127	0.208
-488.478	-24.222	0.206	-0.122
-487.464	-200.000	-0.017	0.097
-486.449	31.254	0.176	0.150
-485.435	-200.000	-0.045	-0.340
-484.420	255.068	-0.094	-0.159
-483.405	-6.811	0.349	0.235
-482.391	-200.000	0.077	0.000
-481.376	351.632	-0.097	0.191
-480.362	-200.000	0.013	-0.356
-479.347	-200.000	-0.012	0.075
-478.332	-64.670	-0.157	0.063
-477.318	800.000	0.077	0.258
-476.303	-200.000	0.016	0.252
-475.289	-152.992	0.047	-0.003
-474.274	75.345	0.025	-0.026
-473.259	265.209	-0.159	-0.275
-472.245	148.192	0.093	-0.124
-471.230	108.003	0.088	0.104
-470.216	-25.418	-0.053	0.031
-469.201	-65.343	0.062	0.025
-468.186	405.615	-0.081	-0.169
-467.172	-1.635	-0.238	-0.166
-466.157	-172.616	0.188	0.006
-465.143	-74.068	0.072	0.026
-464.128	-121.642	-0.158	0.026
-463.113	70.512	0.141	0.144
-462.099	-16.568	0.082	-0.051
-461.084	292.880	-0.117	-0.211
-460.070	-77.578	-0.336	-0.115
-459.055	-146.968	-0.085	-0.007
-458.040	2.836	-0.083	-0.060
-457.026	-12.705	-0.194	0.125
-456.011	238.302	0.099	0.163
-454.997	-134.630	-0.343	-0.041
-453.982	37.206	-0.105	0.092
-452.968	-200.000	0.015	-0.082
-451.953	20.145	0.198	0.158
-450.938	-200.000	0.006	0.131
-449.924	33.263	0.099	-0.085
-448.909	538.337	0.058	-0.137
-447.895	36.594	0.299	-0.261
-446.880	224.372	-0.020	-0.032
-445.865	86.994	0.050	0.055
-444.851	-21.505	-0.125	-0.076
-443.836	-124.065	0.024	0.004
-442.822	-24.803	0.296	-0.174
-441.807	-200.000	-0.015	-0.246
-440.792	-80.368	0.079	-0.026
-439.778	-158.128	-0.063	-0.004
-438.763	47.215	0.158	0.146
-437.749	-200.000	-0.024	-0.137
-436.734	-200.000	0.050	0.238
-435.719	56.930	-0.084	-0.081
-434.705	14.055	-0.195	0.150
-433.690	800.000	-0.082	-0.258
-432.676	702.299	-0.107	-0.280
-431.661	140.895	0.211	-0.276
-430.646	-56.883	-0.189	0.082
-429.632	9.904	-0.161	0.121
-428.617	-200.000	0.066	0.371
-427.603	-79.327	0.170	-0.057
-426.588	-74.644	0.091	0.032
-425.573	-93.455	0.198	0.054
-424.559	70.649	0.122	0.125
-423.544	-140.007	-0.120	0.013
-422.530	76.381	0.201	-0.211
-421.515	-105.852	-0.283	-0.063
-420.500	-96.388	-0.210	0.055
-419.486	800.000	0.005	-0.020
-418.471	-160.446	0.399	0.021
-417.457	174.938	-0.170	0.244
-416.442	-200.000	0.020	0.207
-415.428	221.835	-0.128	-0.203
-414.413	-42.774	0.193	-0.097
-413.398	-76.436	-0.237	0.082
-412.384	350.656	-0.055	-0.108
-411.369	-61.101	-0.032	0.013
-410.355	-97.563	-0.065	-0.017
-409.340	-182.446	-0.093	0.002
-408.325	80.075	-0.060	-0.064
-407.311	-124.762	0.110	0.017
-406.296	3.967	0.189	0.136
-405.282	-48.689	-0.275	-0.131
-404.267	-111.022	-0.142	0.029
-403.252	800.000	-0.059	-0.231
-402.238	0.658	0.131	0.093
-401.223	-15.784	-0.122	-0.077
-400.209	-54.797	-0.136	0.061
-399.194	421.539	-0.127	-0.269
-398.179	49.603	-0.095	-0.089
-397.165	800.000	-0.129	-0.384
-396.150	-50.063	-0.172	-0.081
-395.136	-98.742	0.205	0.052
-394.121	209.267	-0.051	0.080
-393.106	-104.158	-0.347	-0.080
-392.092	-16.561	0.166	-0.104
-391.077	-200.000	0.068	0.361
-390.063	68.684	-0.204	0.207
-389.048	165.605	-0.166	-0.231
-388.033	-94.656	0.273	0.073
-387.019	-41.935	-0.031	0.015
-386.004	-23.082	-0.117	-0.069
-384.990	461.971	-0.111	0.244
-383.975	-162.943	-0.009	-0.000
-382.960	8.638	-0.144	0.107
-381.946	-137.060	0.236	0.027
-380.931	-200.000	-0.036	0.155
-379.917	-102.192	-0.361	0.086
-378.902	797.800	0.056	-0.153
-377.888	319.003	0.131	0.245
-376.873	-200.000	0.004	-0.356
-375.858	7.950	0.094	0.070
-374.844	-12.001	0.113	0.073
-373.829	-42.791	-0.134	-0.067
-372.815	-200.000	-0.001	-0.393
-371.800	132.328	-0.156	0.199
-370.785	-200.000	0.004	-0.104
-369.771	81.775	0.192	0.206
-368.756	-46.876	-0.197	0.095
-367.742	-154.778	0.268	-0.018
-366.727	-200.000	-0.022	-0.172
-365.712	-22.135	-0.624	-0.374
-364.698	800.000	-0.091	0.280
-363.683	-99.370	-0.464	-0.115
-362.669	-15.745	0.334	0.210
-361.654	-127.791	0.295	-0.042
-360.639	-81.492	-0.198	-0.064
-359.625	436.596	-0.069	-0.148
-358.610	-40.424	0.161	0.082
-357.596	22.902	0.182	-0.147
-356.581	-200.000	0.006	0.204
-355.566	-200.000	-0.004	-0.174
-354.552	123.527	-0.039	0.049
-353.537	153.329	-0.129	-0.175
-352.523	-41.132	0.582	0.296
-351.508	17.302	-0.377	-0.295
-350.493	-15.940	-0.019	0.012
-349.479	-108.473	0.169	-0.036
-348.464	-131.710	0.367	-0.048
-347.450	-200.000	-0.015	-0.127
-346.435	800.000	0.026	0.083
-345.420	800.000	0.112	0.481
-344.406	-7.889	-0.314	0.209
-343.391	-153.230	-0.206	0.014
-342.377	800.000	-0.012	-0.036
-341.362	-69.185	0.195	0.074
-340.348	800.000	0.075	0.318
-339.333	19.251	-0.012	0.010
-338.318	-72.882	-0.041	-0.015
-337.304	-13.548	0.240	0.153
-336.289	32.745	0.107	-0.091
-335.275	-70.167	0.159	-0.060
-334.260	-200.000	-0.020	-0.180
-333.245	-200.000	0.070	-0.415
-332.231	-152.553	0.169	-0.012
-331.216	16.542	-0.225	0.176
-330.202	85.563	0.230	0.249
-329.187	800.000	-0.088	0.336
-328.172	-92.962	-0.360	-0.099
-327.158	39.722	-0.331	-0.293
-326.143	-200.000	0.028	-0.191
-325.129	65.491	0.081	0.081
-324.114	-50.054	0.122	-0.057
-323.099	-37.555	0.081	-0.042
-322.085	-80.348	0.207	0.068
-321.070	45.564	-0.297	-0.271
-320.056	101.660	-0.225	0.259
-319.041	-52.042	-0.030	0.014
-318.026	32.600	-0.147	0.126
-317.012	-148.678	0.240	0.019
-315.997	800.000	-0.056	0.211
-314.983	-14.612	-0.117	0.074
-313.968	800.000	0.069	-0.211
-312.953	800.000	0.040	-0.145
-311.939	37.731	-0.246	0.215
-310.924	47.155	-0.183	-0.168
-309.910	-85.315	0.102	0.032
-308.895	596.955	0.169	0.414
-307.880	6.580	0.223	0.163
-306.866	800.000	-0.131	0.406
-305.851	731.271	0.031	-0.082
-304.837	-200.000	-0.019	-0.254
-303.822	-128.167	0.504	0.071
-302.807	237.440	-0.133	0.218
-301.793	-107.266	-0.244	0.053
-300.778	691.209	0.039	-0.100
-299.764	-200.000	0.005	-0.033
-298.749	-3.664	0.168	-0.115
-297.735	-43.745	0.073	-0.036
-296.720	81.209	0.366	-0.390
-295.705	-17.084	-0.170	0.106
-294.691	-34.740	0.309	-0.166
-293.676	800.000	0.088	-0.363
-292.662	667.574	-0.158	-0.402
-291.647	-200.000	0.011	0.168
-290.632	22.786	-0.147	0.118
-289.618	-28.202	0.329	-0.187
-288.603	24.058	-0.368	-0.299
-287.589	678.782	0.081	-0.207
-286.574	17.269	-0.103	0.080
-285.559	31.370	0.213	-0.180
-284.545	129.933	-0.177	-0.222
-283.530	440.033	0.149	0.321
-282.516	-135.445	-0.029	-0.003
-281.501	727.283	-0.092	0.241
-280.486	453.793	-0.083	0.182
-279.472	-46.516	-0.302	0.146
-278.457	-59.231	-0.106	-0.045
-277.443	0.546	-0.300	0.211
-276.428	-42.818	0.434	-0.217
-275.413	-60.563	0.170	0.071
-274.399	-121.166	-0.449	0.074
-273.384	167.601	0.288	0.403
-272.370	-169.890	-0.134	0.005
-271.355	-75.598	0.183	0.064
-270.340	-172.044	0.270	0.009
-269.326	59.443	-0.102	-0.099
-268.311	35.671	0.238	0.205
-267.297	-188.313	-0.245	-0.003
-266.282	-81.944	-0.230	-0.074
-265.267	605.034	-0.021	0.052
-264.253	321.455	-0.129	0.241
-263.238	-43.560	0.204	0.101
-262.224	800.000	0.058	0.213
-261.209	113.243	0.128	-0.153
-260.195	-200.000	0.005	0.085
-259.180	800.000	-0.055	0.200
-258.165	-77.537	0.233	-0.079
-257.151	-67.210	-0.212	0.082
-256.136	-96.759	0.185	0.048
-255.122	-200.000	-0.022	0.176
-254.107	43.908	0.115	0.104
-253.092	96.035	0.118	0.133
-252.078	248.782	-0.134	0.223
-251.063	-87.721	0.265	0.079
-250.049	-72.333	0.124	0.045
-249.034	-96.334	0.209	0.055
-248.019	61.293	-0.161	-0.158
-247.005	-5.039	-0.210	-0.142
-245.990	-13.227	-0.317	-0.202
-244.976	-200.000	-0.005	-0.205
-243.961	-120.123	-0.348	-0.059
-242.946	368.389	0.082	0.162
-241.932	-39.398	0.201	0.104
-240.917	-59.828	-0.083	-0.035
-239.903	-7.436	0.153	-0.102
-238.888	656.424	-0.096	-0.243
-237.873	0.870	0.189	-0.133
-236.859	347.428	-0.055	-0.107
-235.844	-200.000	-0.053	0.458
-234.830	191.528	0.027	-0.039
-233.815	137.533	-0.183	0.236
-232.800	-112.338	0.366	-0.072
-231.786	301.638	0.209	0.379
-230.771	-81.016	-0.469	0.153
-229.757	800.000	-0.145	0.411
-228.742	-34.782	0.248	0.133
-227.727	-109.266	-0.103	-0.021
-226.713	26.410	0.228	0.187
-225.698	-120.481	0.305	-0.051
-224.684	-43.809	0.255	0.126
-223.669	-200.000	0.028	0.155
-222.655	-60.867	-0.386	0.160
-221.640	-200.000	-0.066	0.610
-220.625	132.094	0.137	-0.173
-219.611	-150.377	0.157	0.012
-218.596	800.000	0.063	0.181
-217.582	101.820	-0.054	-0.062
-216.567	89.688	-0.279	-0.305
-215.552	19.547	0.460	0.363
-214.538	-22.002	-0.285	0.170
-213.523	310.948	0.021	-0.039
-212.509	445.288	0.082	-0.176
-211.494	88.432	-0.059	0.064
-210.479	-111.889	0.246	0.049
-209.465	72.289	0.150	0.154
-208.450	397.463	-0.119	0.244
-207.436	-168.409	0.012	0.000
-206.421	-200.000	-0.012	-0.120
-205.406	-200.000	0.026	-0.394
-204.392	800.000	-0.096	0.280
-203.377	176.814	0.018	0.026
-202.363	-200.000	0.015	0.170
-201.348	-142.410	0.074	-0.007
-200.333	-200.000	0.017	0.265
-199.319	800.000	-0.095	0.270
-198.304	-200.000	-0.035	-0.243
-197.290	-138.400	0.318	-0.034
-196.275	506.831	-0.172	-0.391
-195.260	-200.000	-0.038	0.229
-194.246	207.633	0.084	0.129
-193.231	111.748	0.139	0.165
-192.217	-33.342	0.191	0.104
-191.202	6.300	0.073	0.053
-190.187	-200.000	0.017	-0.100
-189.173	-188.134	-0.083	-0.001
-188.158	-104.881	0.107	-0.024
-187.144	417.114	0.186	0.389
-186.129	-73.712	0.206	0.074
-185.114	193.626	-0.095	0.141
-184.100	-120.339	0.251	0.042
-183.085	93.897	-0.058	0.065
-182.071	-41.970	-0.054	0.027
-181.056	-200.000	0.023	0.454
-180.042	-101.862	-0.156	-0.037
-179.027	-130.442	0.237	0.031
-178.012	800.000	0.057	0.202
-176.998	-39.261	0.245	0.126
-175.983	52.304	-0.203	0.190
-174.969	209.001	0.039	-0.059
-173.954	120.893	0.155	0.189
-172.939	-85.713	-0.126	-0.038
-171.925	76.948	0.191	-0.199
-170.910	-115.247	-0.462	0.086
-169.896	-200.000	0.017	0.199
-168.881	346.708	0.096	-0.184
-167.866	-186.967	-0.531	-0.007
-166.852	330.556	-0.083	-0.157
-165.837	11.911	0.152	-0.115
-164.823	52.303	-0.070	-0.066
-163.808	-106.334	0.291	0.064
-162.793	693.428	-0.109	-0.279
-161.779	83.127	0.149	-0.159
-160.764	670.434	-0.059	0.150
-159.750	576.979	-0.040	0.095
-158.735	202.883	0.222	0.336
-157.720	311.075	0.046	0.085
-156.706	619.965	-0.106	-0.260
-155.691	31.736	0.075	-0.063
-154.677	-132.287	-0.361	-0.046
-153.662	293.482	0.211	0.378
-152.647	-42.250	0.377	-0.189
-151.633	-42.737	0.185	-0.092
-150.618	-9.644	0.121	0.079
-149.604	800.000	0.059	0.181
-148.589	-138.921	-0.484	0.051
-147.574	345.294	-0.045	-0.086
-146.560	411.652	0.184	0.383
-145.545	-120.168	0.304	-0.051
-144.531	-145.476	-0.342	0.030
-143.516	-143.894	0.141	0.013
-142.502	255.702	0.045	0.076
-141.487	607.597	-0.025	-0.061
-140.472	-200.000	0.023	0.133
-139.458	-200.000	0.008	-0.093
-138.443	257.296	-0.292	0.492
-137.429	800.000	0.063	0.215
-136.414	-114.247	-0.166	0.031
-135.399	-200.000	0.004	-0.237
-134.385	31.679	-0.106	0.089
-133.370	-200.000	-0.052	0.316
-132.356	408.602	0.065	-0.134
-131.341	268.886	0.146	-0.251
-130.326	-80.711	-0.100	0.033
-129.312	-42.810	-0.204	0.102
-128.297	3.641	0.359	0.256
-127.283	-200.000	0.074	0.381
-126.268	451.975	0.161	-0.349
-125.253	336.253	-0.093	0.176
-124.239	167.176	0.289	-0.401
-123.224	-53.435	-0.333	-0.149
-122.210	-72.719	-0.265	0.096
-121.195	113.330	-0.287	0.341
-120.180	-200.000	0.034	-0.210
