DTS Sentinel unit serial number:	SN413079Multiplexer serial number:	ORYXHardware model number:	OX4-SRSoftware version number:	ORYX F/W v4.00 Oryx Data Collector v3.7.2.0data status	okinstallation	princeton_trtdifferential loss correction	single-endedforward channel	channel 1reverse channel	N/Adate	2019/09/12time	19:35:34forward acquisition time	15.00reverse acquisition time	0.00gamma	496.2192k internal	0.2322k external	0.2322temperature offset calibration	1.0121default loss term (dB/km)	0.3790temperature slope calibration	1.0000multiplexer offset coefficient	1.0000multiplexer slope coefficient	1.0000fibre end	0.00T internal ref (°C)	32.19T ext. ref 1 (°C)	3.32T ext. ref 2 (°C)	26.65length (m)	temperature (°C)	Stokes	anti-Stokes-747.200	-200.000	-0.019	0.310
-746.185	-5.884	-0.571	-0.395
-745.171	-200.000	0.003	-0.638
-744.156	9.624	-0.743	0.569
-743.142	-200.000	-0.389	-0.001
-742.127	-35.796	0.344	-0.188
-741.112	173.543	0.193	-0.281
-740.098	587.485	-0.145	-0.362
-739.083	157.998	0.473	0.662
-738.069	97.454	-0.702	-0.815
-737.054	-200.000	0.124	0.590
-736.039	800.000	-0.200	0.616
-735.025	24.502	-0.084	-0.071
-734.010	-50.430	0.300	-0.143
-732.996	55.112	-0.500	-0.488
-731.981	-34.115	-0.451	-0.251
-730.966	-77.977	-0.609	-0.212
-729.952	-73.812	-0.328	-0.120
-728.937	219.232	0.478	-0.772
-727.923	-75.526	-0.717	0.258
-726.908	103.816	0.335	-0.397
-725.894	-35.674	0.317	-0.174
-724.879	227.592	-0.345	0.567
-723.864	-200.000	0.003	0.145
-722.850	131.393	-0.274	0.356
-721.835	-12.458	0.359	0.237
-720.821	338.645	0.448	-0.881
-719.806	27.887	0.173	-0.148
-718.791	-200.000	0.043	-0.297
-717.777	112.136	-0.265	-0.323
-716.762	-152.183	-0.901	0.066
-715.748	107.558	0.322	-0.386
-714.733	621.973	0.334	0.849
-713.718	350.004	-0.313	-0.624
-712.704	-200.000	0.036	0.522
-711.689	-200.000	-0.022	0.739
-710.675	-75.230	-0.950	-0.342
-709.660	-58.005	-0.805	-0.354
-708.645	-110.341	-0.480	0.101
-707.631	275.535	-0.341	0.610
-706.616	-44.110	-0.595	-0.301
-705.602	-101.862	0.836	-0.204
-704.587	-67.028	-0.654	0.260
-703.572	-200.000	0.145	-1.058
-702.558	434.663	-0.246	-0.540
-701.543	110.383	0.132	-0.160
-700.529	-200.000	-0.011	0.196
-699.514	-70.585	-0.657	0.251
-698.499	498.827	-0.310	0.721
-697.485	468.958	0.380	0.861
-696.470	399.560	0.117	-0.247
-695.456	-200.000	-0.088	-0.769
-694.441	143.930	0.174	0.233
-693.426	116.756	-0.218	0.269
-692.412	-200.000	-0.005	0.551
-691.397	-200.000	-0.008	0.106
-690.383	393.826	0.191	0.401
-689.368	-16.840	-0.663	-0.422
-688.354	800.000	-0.399	1.303
-687.339	800.000	-0.193	0.619
-686.324	73.080	-0.229	0.241
-685.310	-55.108	0.266	0.121
-684.295	724.262	0.058	0.155
-683.281	-192.256	-0.990	0.009
-682.266	-42.242	0.446	-0.230
-681.251	-75.607	-0.457	-0.164
-680.237	-200.000	0.020	0.493
-679.222	183.487	0.702	1.046
-678.208	-164.865	-0.363	0.016
-677.193	-1.323	-0.636	-0.453
-676.178	124.511	0.632	-0.801
-675.164	-62.074	0.242	-0.102
-674.149	-200.000	0.047	0.288
-673.135	252.397	-0.346	0.594
-672.120	-57.779	0.630	-0.278
-671.105	151.220	0.256	-0.351
-670.091	-58.702	-0.514	-0.224
-669.076	-112.713	0.808	0.162
-668.062	-71.940	1.141	0.428
-667.047	136.221	0.139	-0.183
-666.032	-93.501	-0.448	-0.125
-665.018	-20.519	-0.319	0.197
-664.003	282.467	-0.289	-0.522
-662.989	399.760	0.158	0.333
-661.974	-117.827	-0.628	-0.114
-660.959	-100.005	-0.722	0.182
-659.945	-61.970	-0.487	0.205
-658.930	-200.000	-0.002	0.052
-657.916	380.001	0.082	0.170
-656.901	222.597	-0.255	-0.413
-655.886	83.974	0.044	0.049
-654.872	-124.196	0.756	-0.119
-653.857	110.721	-0.484	-0.586
-652.843	102.008	-0.418	-0.491
-651.828	138.069	0.256	0.338
-650.814	-1.714	-0.568	-0.403
-649.799	-200.000	-0.084	-0.577
-648.784	495.358	-0.063	0.146
-647.770	263.046	-0.192	0.336
-646.755	785.939	-0.039	-0.108
-645.741	-42.791	-0.569	-0.291
-644.726	800.000	-0.042	0.130
-643.711	-121.814	0.303	0.050
-642.697	-200.000	-0.152	-0.749
-641.682	-200.000	0.066	-0.496
-640.668	-45.881	-0.619	0.307
-639.653	-31.171	0.691	0.392
-638.638	200.371	0.377	0.584
-637.624	167.036	-0.447	0.638
-636.609	-200.000	0.007	0.276
-635.595	-96.096	0.228	-0.061
-634.580	800.000	-0.125	-0.401
-633.565	-200.000	0.091	0.484
-632.551	-200.000	0.112	-0.583
-631.536	105.697	-0.208	-0.248
-630.522	-9.430	0.681	-0.457
-629.507	-59.397	-1.047	-0.453
-628.492	-25.383	-0.352	-0.209
-627.478	112.048	0.310	0.377
-626.463	-56.868	0.155	0.069
-625.449	-66.943	-0.367	-0.146
-624.434	155.697	-0.483	-0.669
-623.419	-122.491	0.579	0.095
-622.405	-4.862	0.656	0.455
-621.390	-125.926	0.669	-0.101
-620.376	582.251	0.273	-0.674
-619.361	-61.949	0.371	-0.156
-618.346	6.479	-0.316	0.236
-617.332	27.737	-0.550	-0.466
-616.317	-71.055	0.518	-0.196
-615.303	-200.000	0.050	-0.254
-614.288	259.712	-0.232	-0.402
-613.273	118.149	-0.388	-0.481
-612.259	183.745	0.314	0.467
-611.244	-43.597	0.555	0.282
-610.230	-200.000	-0.017	-0.331
-609.215	-200.000	0.151	0.707
-608.201	125.951	-0.570	-0.724
-607.186	-94.380	1.271	0.349
-606.171	729.998	0.083	0.222
-605.157	-70.009	-1.439	-0.551
-604.142	-44.847	0.688	0.344
-603.128	-200.000	-0.014	1.253
-602.113	51.914	0.041	-0.039
-601.098	-108.906	0.878	-0.188
-600.084	-116.132	-0.517	-0.097
-599.069	-200.000	-0.026	0.337
-598.055	-200.000	-0.045	0.293
-597.040	-47.728	0.547	0.266
-596.025	800.000	-0.101	0.416
-595.011	-26.733	-0.215	0.126
-593.996	-156.860	-0.370	-0.023
-592.982	213.860	0.247	0.393
-591.967	-3.563	0.488	0.341
-590.952	-200.000	0.102	-0.690
-589.938	-93.032	0.157	0.044
-588.923	310.586	-0.434	-0.816
-587.909	232.479	-0.432	0.712
-586.894	-179.126	0.749	0.017
-585.879	-156.566	0.388	-0.024
-584.865	-1.623	-0.472	-0.334
-583.850	-200.000	-0.059	0.268
-582.836	-66.302	-0.323	-0.129
-581.821	-31.341	0.332	0.188
-580.806	330.640	0.097	0.188
-579.792	-80.508	-0.192	-0.064
-578.777	-34.555	-0.092	0.051
-577.763	-13.037	-0.323	0.211
-576.748	-200.000	0.200	-1.202
-575.733	241.444	0.209	-0.351
-574.719	7.381	0.418	0.314
-573.704	-66.545	-0.704	0.280
-572.690	410.795	-0.135	0.286
-571.675	6.610	0.550	0.410
-570.661	122.856	0.261	0.328
-569.646	-200.000	0.077	-0.499
-568.631	42.916	0.484	-0.443
-567.617	42.512	0.470	0.429
-566.602	-60.853	0.285	0.121
-565.588	-44.402	-0.479	-0.240
-564.573	800.000	-0.122	-0.393
-563.558	800.000	-0.020	-0.056
-562.544	-200.000	-0.096	0.617
-561.529	325.720	0.087	0.167
-560.515	-200.000	0.183	0.901
-559.500	-65.787	0.133	-0.053
-558.485	133.918	-0.215	-0.280
-557.471	199.030	-0.495	0.760
-556.456	-94.806	-1.499	0.408
-555.442	270.914	-0.260	-0.459
-554.427	-43.470	0.289	-0.146
-553.412	-5.529	-0.273	-0.188
-552.398	508.871	0.282	-0.657
-551.383	-200.000	-0.001	0.153
-550.369	104.595	0.019	-0.022
-549.354	-90.481	0.390	0.113
-548.339	-24.176	-0.857	-0.513
-547.325	-93.380	-0.167	0.046
-546.310	-33.101	0.621	0.345
-545.296	-31.393	-0.103	0.058
-544.281	-39.583	-0.503	-0.264
-543.266	686.293	0.098	-0.256
-542.252	63.552	0.302	0.304
-541.237	-22.760	-0.113	-0.068
-540.223	658.271	-0.208	0.536
-539.208	-200.000	-0.050	1.240
-538.193	125.458	-0.794	1.004
-537.179	-35.524	-0.473	0.258
-536.164	-200.000	0.004	-0.299
-535.150	-21.726	0.281	-0.172
-534.135	800.000	0.109	-0.446
-533.121	-200.000	-0.025	0.318
-532.106	15.680	-0.508	0.400
-531.091	-109.406	0.613	0.130
-530.077	-83.394	0.919	0.295
-529.062	800.000	-0.170	-0.735
-528.048	-145.547	0.135	-0.012
-527.033	-200.000	0.021	0.204
-526.018	-65.404	0.608	-0.245
-525.004	-162.245	-0.229	0.011
-523.989	-128.573	-0.604	0.086
-522.975	307.996	0.414	0.773
-521.960	-56.300	-0.327	-0.146
-520.945	-12.625	0.739	-0.483
-519.931	-53.520	0.512	0.235
-518.916	572.057	0.297	-0.726
-517.902	-74.108	0.749	0.272
-516.887	-200.000	0.038	0.314
-515.872	800.000	-0.155	-0.512
-514.858	-119.210	-1.020	-0.178
-513.843	-84.056	0.189	0.060
-512.829	-200.000	0.049	0.655
-511.814	-124.763	-0.139	0.022
-510.799	-75.338	-0.301	-0.107
-509.785	-200.000	-0.004	0.259
-508.770	-200.000	0.045	0.359
-507.756	-200.000	0.078	-0.838
-506.741	-200.000	0.064	-0.422
-505.726	-200.000	0.065	-0.818
-504.712	-164.918	-0.247	0.011
-503.697	-200.000	0.007	-0.120
-502.683	-29.080	0.581	-0.333
-501.668	-200.000	0.106	0.758
-500.653	800.000	-0.144	-0.521
-499.639	-104.161	0.430	-0.100
-498.624	146.969	0.285	-0.384
-497.610	-131.273	-0.663	0.088
-496.595	504.197	-0.259	0.599
-495.581	800.000	0.167	0.647
-494.566	71.305	0.632	-0.656
-493.551	586.904	-0.307	-0.755
-492.537	-124.730	-0.431	0.067
-491.522	-51.578	0.581	-0.271
-490.508	-96.748	-1.058	-0.278
-489.493	-147.002	-0.811	-0.070
-488.478	257.726	-0.150	-0.259
-487.464	663.346	-0.135	-0.349
-486.449	444.485	-0.321	0.705
-485.435	-93.990	1.207	0.332
-484.420	-200.000	-0.019	0.928
-483.405	-134.781	-0.577	-0.070
-482.391	151.492	0.249	-0.339
-481.376	-35.608	-0.418	0.227
-480.362	253.302	-0.152	-0.259
-479.347	-27.669	0.276	-0.160
-478.332	698.520	0.011	0.028
-477.318	-161.190	-0.428	-0.022
-476.303	-200.000	0.016	-0.181
-475.289	800.000	0.157	0.545
-474.274	24.918	0.861	0.714
-473.259	-138.767	0.404	-0.044
-472.245	328.811	-0.457	0.878
-471.230	4.606	0.457	-0.335
-470.216	-200.000	-0.030	-0.796
-469.201	-80.029	0.326	-0.109
-468.186	-84.646	0.597	-0.188
-467.172	102.333	0.812	0.949
-466.157	-158.754	-0.362	0.021
-465.143	407.578	-0.151	0.319
-464.128	-91.782	0.470	-0.133
-463.113	-200.000	-0.003	-0.554
-462.099	-200.000	-0.037	-0.328
-461.084	-200.000	-0.005	0.731
-460.070	82.030	0.623	0.675
-459.055	-82.258	0.380	0.124
-458.040	383.834	0.160	0.330
-457.026	-144.571	0.743	-0.069
-456.011	-146.399	-0.235	-0.021
-454.997	74.503	-0.144	0.152
-453.982	56.286	-1.039	-1.008
-452.968	800.000	0.197	0.652
-451.953	681.384	-0.127	0.331
-450.938	-39.103	-0.407	-0.214
-449.924	353.269	-0.081	-0.160
-448.909	-174.869	-0.560	-0.016
-447.895	-105.277	0.685	0.156
-446.880	227.800	-0.045	0.073
-445.865	132.980	0.514	-0.663
-444.851	-200.000	-0.095	-0.482
-443.836	-127.439	-0.506	-0.073
-442.822	-200.000	-0.053	0.682
-441.807	209.023	-0.283	-0.443
-440.792	33.095	0.470	-0.407
-439.778	-43.212	0.679	-0.343
-438.763	68.428	1.149	-1.176
-437.749	18.741	0.751	0.600
-436.734	800.000	0.180	0.733
-435.719	335.296	0.278	-0.538
-434.705	-46.151	-0.115	-0.056
-433.690	-200.000	-0.042	-0.393
-432.676	-117.428	-0.680	0.123
-431.661	-200.000	0.414	0.001
-430.646	-200.000	0.126	0.574
-429.632	-200.000	-0.133	-0.817
-428.617	170.121	0.498	-0.711
-427.603	-89.068	0.080	-0.024
-426.588	107.982	-0.533	0.634
-425.573	-123.030	0.458	-0.073
-424.559	173.367	-0.399	0.574
-423.544	-51.155	0.217	0.102
-422.530	-44.543	0.024	0.012
-421.515	239.570	-0.296	0.491
-420.500	800.000	0.108	0.411
-419.486	-171.641	-0.562	0.019
-418.471	-51.072	0.139	-0.065
-417.457	143.565	-0.066	0.087
-416.442	-183.492	-0.149	-0.003
-415.428	-74.094	-0.817	0.295
-414.413	-160.741	-0.520	0.028
-413.398	-3.946	0.541	-0.374
-412.384	46.929	-0.393	-0.365
-411.369	78.172	0.343	0.365
-410.355	11.982	0.522	-0.400
-409.340	-77.327	-0.877	-0.304
-408.325	800.000	-0.148	0.543
-407.311	350.623	-0.080	0.158
-406.296	188.401	-0.526	-0.785
-405.282	121.769	-0.201	0.250
-404.267	-178.974	0.307	0.007
-403.252	188.011	-0.730	-1.088
-402.238	80.946	0.407	-0.438
-401.223	279.773	-0.451	0.802
-400.209	800.000	0.086	0.261
-399.194	-200.000	-0.029	-0.367
-398.179	235.585	-0.208	-0.343
-397.165	763.703	-0.219	-0.592
-396.150	208.980	0.078	0.121
-395.136	-200.000	-0.009	0.111
-394.121	-25.046	0.216	-0.127
-393.106	-169.652	-0.256	0.009
-392.092	364.621	0.449	-0.900
-391.077	214.611	0.402	-0.635
-390.063	134.464	0.232	-0.300
-389.048	800.000	0.213	-0.719
-388.033	-92.873	0.435	-0.121
-387.019	151.743	-0.507	-0.688
-386.004	-200.000	0.044	-0.369
-384.990	-200.000	-0.185	-0.821
-383.975	84.509	-0.311	-0.339
-382.960	-200.000	-0.072	-0.600
-381.946	13.745	0.332	-0.257
-380.931	687.630	0.055	0.144
-379.917	-200.000	0.015	0.145
-378.902	-200.000	-0.019	-0.732
-377.888	-123.386	-0.562	-0.089
-376.873	255.804	-0.259	-0.443
-375.858	-200.000	-0.070	-0.752
-374.844	-194.742	0.386	0.003
-373.829	472.417	-0.098	-0.219
-372.815	-200.000	-0.085	-0.564
-371.800	-99.012	0.294	0.074
-370.785	-120.763	0.428	-0.072
-369.771	-200.000	-0.157	0.823
-368.756	45.958	0.483	0.445
-367.742	-182.147	0.930	0.017
-366.727	-94.631	-0.465	-0.126
-365.712	390.184	0.191	0.394
-364.698	-98.203	0.599	-0.153
-363.683	-19.805	0.344	0.211
-362.669	-200.000	0.036	-0.309
-361.654	751.430	-0.358	0.962
-360.639	-43.323	-0.505	-0.254
-359.625	-137.666	-0.710	0.079
-358.610	200.040	0.300	0.458
-357.596	-67.479	-0.720	-0.281
-356.581	239.303	0.078	-0.129
-355.566	-111.692	-0.499	-0.101
-354.552	800.000	0.106	-0.373
-353.537	127.145	0.188	0.237
-352.523	215.372	0.108	-0.171
-351.508	266.430	0.213	-0.371
-350.493	18.179	-0.623	0.495
-349.479	0.857	0.517	0.369
-348.464	15.377	-0.266	-0.208
-347.450	800.000	0.158	-0.470
-346.435	165.224	-0.322	0.452
-345.420	-200.000	-0.140	0.624
-344.406	6.058	-0.034	-0.025
-343.391	-11.201	-0.777	0.509
-342.377	-64.858	-0.339	0.137
-341.362	69.466	-0.638	0.653
-340.348	-64.776	0.131	-0.053
-339.333	328.008	-0.366	0.699
-338.318	-1.197	-0.557	0.391
-337.304	800.000	-0.186	-0.646
-336.289	-4.470	-0.661	0.454
-335.275	793.292	0.302	-0.827
-334.260	101.470	-0.242	-0.280
-333.245	800.000	0.215	0.659
-332.231	-149.103	1.188	0.095
-331.216	-31.138	-0.461	0.258
-330.202	-129.664	-0.424	0.058
-329.187	345.303	0.395	0.771
-328.172	12.826	-0.439	0.337
-327.158	265.668	-0.077	-0.133
-326.143	-58.406	0.166	0.072
-325.129	-152.494	-0.971	0.069
-324.114	60.996	0.172	-0.169
-323.099	-59.072	0.923	0.396
-322.085	219.615	-0.217	0.346
-321.070	-144.779	0.523	-0.048
-320.056	22.758	-0.474	-0.386
-319.041	-103.752	-0.114	0.027
-318.026	22.460	0.287	0.233
-317.012	800.000	-0.140	0.581
-315.997	-81.018	0.877	0.289
-314.983	-1.407	-0.275	0.193
-313.968	-113.569	0.248	-0.048
-312.953	800.000	-0.078	-0.273
-311.939	-44.147	0.784	0.391
-310.924	615.063	-0.243	0.604
-309.910	-117.346	-1.011	-0.182
-308.895	-200.000	0.015	0.349
-307.880	2.712	-0.341	0.245
-306.866	450.304	0.422	0.925
-305.851	-50.925	-0.657	-0.307
-304.837	-200.000	-0.025	0.128
-303.822	21.648	0.202	-0.164
-302.807	-200.000	-0.013	-0.339
-301.793	-75.786	-0.247	0.087
-300.778	-22.325	-0.273	-0.164
-299.764	209.775	0.407	-0.633
-298.749	-200.000	-0.000	0.009
-297.735	444.424	0.299	-0.651
-296.720	-200.000	-0.170	-0.858
-295.705	-200.000	-0.059	-0.314
-294.691	6.250	0.610	0.450
-293.676	785.374	-0.160	0.435
-292.662	800.000	0.253	0.717
-291.647	716.475	-0.364	0.959
-290.632	-200.000	0.109	-0.549
-289.618	103.438	0.331	0.386
-288.603	141.285	-0.168	0.221
-287.589	-158.037	-0.258	0.015
-286.574	-200.000	-0.007	0.042
-285.559	-43.044	0.324	0.163
-284.545	139.903	0.498	-0.652
-283.530	-200.000	-0.024	0.260
-282.516	-75.865	0.121	0.043
-281.501	-23.936	0.306	0.182
-280.486	800.000	-0.072	-0.231
-279.472	-154.978	0.202	0.013
-278.457	-122.677	-0.714	-0.115
-277.443	-178.001	0.571	-0.013
-276.428	6.485	0.409	0.301
-275.413	800.000	0.204	0.647
-274.399	301.007	-0.131	0.239
-273.384	110.526	-0.912	-1.088
-272.370	800.000	0.278	0.768
-271.355	90.030	-0.300	0.333
-270.340	200.758	-0.095	-0.145
-269.326	800.000	0.327	-0.896
-268.311	-105.466	-0.623	-0.140
-267.297	259.719	0.329	0.564
-266.282	74.459	-0.434	0.452
-265.267	465.452	-0.093	0.206
-264.253	120.505	0.336	-0.414
-263.238	-107.489	0.644	0.140
-262.224	165.718	0.257	0.361
-261.209	-200.000	0.199	0.957
-260.195	800.000	0.013	-0.045
-259.180	158.737	-0.153	-0.210
-258.165	288.484	-0.094	0.168
-257.151	-200.000	-0.047	0.481
-256.136	-42.258	-0.280	0.142
-255.122	387.849	-0.191	0.391
-254.107	-66.882	0.057	-0.022
-253.092	-115.411	0.663	0.124
-252.078	800.000	0.038	0.148
-251.063	-200.000	0.090	-0.570
-250.049	-95.028	-0.231	0.062
-249.034	320.669	-0.184	-0.346
-248.019	57.896	0.556	-0.539
-247.005	78.065	0.223	-0.236
-245.990	231.592	-0.374	-0.607
-244.976	-102.681	-0.799	-0.189
-243.961	-14.531	0.564	0.360
-242.946	22.307	-0.221	-0.179
-241.932	272.680	-0.284	-0.497
-240.917	-63.565	0.257	0.105
-239.903	596.558	0.349	0.856
-238.888	-98.556	1.028	0.260
-237.873	-200.000	-0.010	-0.236
-236.859	800.000	-0.131	-0.420
-235.844	-200.000	0.015	-0.327
-234.830	62.638	-0.136	0.135
-233.815	-143.573	0.363	-0.034
-232.800	445.097	0.511	1.112
-231.786	800.000	-0.077	0.227
-230.771	363.113	0.187	-0.372
-229.757	305.318	-0.291	0.535
-228.742	800.000	0.279	-0.827
-227.727	222.548	0.471	-0.751
-226.713	-156.975	1.402	0.085
-225.698	-95.968	-0.565	-0.149
-224.684	46.249	-0.438	-0.401
-223.669	-104.626	-0.128	-0.029
-222.655	-52.312	0.958	0.439
-221.640	-200.000	-0.035	-0.160
-220.625	-200.000	-0.007	-0.642
-219.611	-159.310	-0.567	-0.031
-218.596	85.183	0.267	0.290
-217.582	43.777	0.132	-0.120
-216.567	-175.785	-0.122	-0.003
-215.552	800.000	0.334	-1.087
-214.538	-200.000	-0.171	0.912
-213.523	663.939	-0.147	-0.376
-212.509	-158.835	0.318	0.018
-211.494	-134.640	0.512	0.062
-210.479	-200.000	0.002	-0.241
-209.465	64.749	0.356	0.355
-208.450	56.265	0.164	0.158
-207.436	53.087	-0.191	-0.181
-206.421	-200.000	-0.186	-1.687
-205.406	31.334	-0.336	-0.286
-204.392	64.782	-0.580	0.579
-203.377	-200.000	-0.143	0.787
-202.363	-200.000	0.008	0.127
-201.348	-200.000	0.039	0.201
-200.333	-200.000	-0.054	-0.312
-199.319	-21.580	0.788	-0.475
-198.304	-200.000	0.108	0.629
-197.290	-200.000	0.064	-0.623
-196.275	800.000	-0.073	-0.256
-195.260	64.257	-0.831	-0.828
-194.246	800.000	-0.250	0.806
-193.231	190.916	0.193	0.286
-192.217	-158.209	-0.573	0.033
-191.202	-87.893	-0.346	-0.103
-190.187	274.936	-0.238	0.417
-189.173	-200.000	-0.097	0.593
-188.158	800.000	-0.155	0.670
-187.144	144.522	-0.265	0.350
-186.129	54.717	-0.284	0.270
-185.114	-200.000	0.006	-0.651
-184.100	96.398	0.484	0.548
-183.085	87.312	-0.487	0.532
-182.071	-98.824	0.317	0.080
-181.056	-128.265	0.534	0.075
-180.042	50.952	-0.481	0.451
-179.027	-200.000	0.012	-0.999
-178.012	-82.018	0.662	-0.214
-176.998	-15.413	-0.397	-0.251
-175.983	318.447	-0.400	-0.749
-174.969	-152.764	-0.754	0.053
-173.954	-35.643	-0.905	-0.485
-172.939	39.649	-0.487	-0.431
-171.925	-112.020	0.422	0.084
-170.910	800.000	0.079	-0.283
-169.896	115.242	0.360	0.434
-168.881	-18.229	-0.613	0.379
-167.866	-98.893	0.598	0.150
-166.852	68.543	-0.422	-0.428
-165.837	117.713	-0.342	0.415
-164.823	388.466	0.214	0.438
-163.808	-156.347	-0.530	0.033
-162.793	57.517	0.462	-0.446
-161.779	-200.000	-0.082	0.513
-160.764	-200.000	0.038	-0.364
-159.750	596.249	-0.057	-0.140
-158.735	-105.419	-0.920	-0.207
-157.720	800.000	-0.060	-0.187
-156.706	-45.191	-0.119	0.059
-155.691	800.000	0.165	0.589
-154.677	188.529	-0.272	-0.401
-153.662	-200.000	0.106	0.687
-152.647	-114.427	0.520	-0.099
-151.633	-178.697	-0.655	0.015
-150.618	80.183	0.481	0.511
-149.604	69.303	-0.635	-0.645
-148.589	-118.553	0.244	0.043
-147.574	231.753	-0.703	-1.138
-146.560	225.862	-0.328	-0.525
-145.545	15.643	0.321	0.249
-144.531	-87.203	-0.845	0.253
-143.516	-58.969	0.448	0.191
-142.502	-136.796	0.558	-0.063
-141.487	-200.000	0.032	0.167
-140.472	314.139	0.115	-0.213
-139.458	-200.000	0.024	0.397
-138.443	-47.058	0.696	-0.335
-137.429	-200.000	0.055	0.634
-136.414	-89.161	-0.339	-0.099
-135.399	-52.168	-0.434	0.198
-134.385	-4.177	-0.369	0.252
-133.370	800.000	-0.175	0.529
-132.356	146.126	-0.206	0.273
-131.341	-21.117	0.592	0.357
-130.326	72.673	-0.595	-0.613
-129.312	-200.000	0.020	0.511
-128.297	-56.803	0.360	0.157
-127.283	-30.910	0.149	0.083
-126.268	-61.068	-0.139	-0.058
-125.253	68.914	-0.223	0.226
-124.239	800.000	-0.159	-0.595
-123.224	-200.000	0.045	-0.505
-122.210	-52.847	0.436	0.198
