DTS Sentinel unit serial number:	SN413079Multiplexer serial number:	ORYXHardware model number:	OX4-SRSoftware version number:	ORYX F/W v4.00 Oryx Data Collector v3.7.2.0data status	okinstallation	princeton_trtdifferential loss correction	single-endedforward channel	channel 1reverse channel	N/Adate	2019/09/19time	06:14:35forward acquisition time	60.00reverse acquisition time	0.00gamma	496.2192k internal	0.2343k external	0.2343temperature offset calibration	1.0021default loss term (dB/km)	0.3790temperature slope calibration	1.0000multiplexer offset coefficient	1.0000multiplexer slope coefficient	1.0000fibre end	0.00T internal ref (°C)	19.09T ext. ref 1 (°C)	0.57T ext. ref 2 (°C)	12.76length (m)	temperature (°C)	Stokes	anti-Stokes-747.200	800.000	0.040	-0.159
-746.185	280.013	-0.297	0.531
-745.171	4.050	-0.017	-0.012
-744.156	-86.572	-0.176	-0.054
-743.142	-200.000	0.041	0.217
-742.127	187.532	-0.088	-0.132
-741.112	247.724	-0.153	0.259
-740.098	-157.301	-0.570	0.034
-739.083	34.199	0.019	-0.016
-738.069	74.621	-0.327	0.345
-737.054	373.477	-0.131	0.266
-736.039	-200.000	-0.026	-0.181
-735.025	800.000	0.084	0.351
-734.010	-78.874	0.167	-0.057
-732.996	-22.455	-0.266	-0.161
-731.981	-150.383	-0.488	0.038
-730.966	-200.000	0.036	-0.319
-729.952	-200.000	-0.047	-0.297
-728.937	-97.441	-0.291	-0.076
-727.923	215.897	-0.113	0.180
-726.908	-200.000	-0.005	-0.060
-725.894	-46.378	-0.346	-0.170
-724.879	-162.356	-0.166	0.008
-723.864	800.000	0.136	0.507
-722.850	800.000	0.072	0.251
-721.835	296.016	-0.055	0.102
-720.821	-92.801	0.256	-0.072
-719.806	-200.000	-0.022	0.117
-718.791	-200.000	0.020	0.199
-717.777	-111.407	0.141	0.029
-716.762	473.991	-0.127	-0.287
-715.748	123.617	-0.198	0.248
-714.733	100.169	-0.176	-0.205
-713.718	91.036	-0.144	-0.161
-712.704	27.920	0.302	-0.254
-711.689	-78.735	-0.156	-0.053
-710.675	-74.430	-0.097	0.035
-709.660	-95.096	0.131	-0.035
-708.645	800.000	-0.097	0.325
-707.631	83.453	0.215	0.234
-706.616	51.703	-0.317	-0.302
-705.602	-200.000	-0.002	-0.088
-704.587	165.557	0.184	-0.260
-703.572	35.784	0.168	-0.148
-702.558	-200.000	0.066	-0.338
-701.543	86.750	0.240	-0.264
-700.529	2.291	-0.190	-0.138
-699.514	-200.000	0.032	-0.326
-698.499	418.530	-0.061	-0.130
-697.485	409.718	-0.127	-0.269
-696.470	43.085	-0.161	-0.147
-695.456	100.375	0.094	-0.109
-694.441	-2.699	-0.225	0.157
-693.426	-158.162	-0.356	0.021
-692.412	800.000	0.073	-0.223
-691.397	-116.857	-0.407	0.075
-690.383	-97.546	-0.040	0.011
-689.368	101.858	-0.180	-0.210
-688.354	-93.167	-0.154	-0.043
-687.339	-200.000	0.005	-0.520
-686.324	25.492	-0.169	-0.141
-685.310	-200.000	0.006	-0.237
-684.295	-171.293	0.486	0.016
-683.281	37.350	-0.358	-0.317
-682.266	42.230	-0.324	-0.294
-681.251	236.945	0.027	-0.045
-680.237	800.000	0.049	-0.142
-679.222	800.000	0.142	-0.480
-678.208	229.561	0.256	-0.417
-677.193	-25.626	-0.215	-0.126
-676.178	168.253	0.200	-0.285
-675.164	177.095	-0.084	-0.123
-674.149	-200.000	-0.019	0.094
-673.135	377.816	0.072	0.146
-672.120	-169.720	-0.209	0.008
-671.105	-22.391	0.255	-0.154
-670.091	51.877	-0.138	0.131
-669.076	-130.741	-0.431	-0.058
-668.062	89.303	0.136	-0.151
-667.047	-200.000	0.009	0.088
-666.032	38.412	-0.196	0.175
-665.018	285.776	-0.159	0.286
-664.003	800.000	0.057	-0.217
-662.989	-200.000	-0.009	0.506
-661.974	800.000	-0.015	-0.060
-660.959	226.429	-0.131	-0.212
-659.945	9.431	-0.165	-0.124
-658.930	720.653	-0.201	0.533
-657.916	33.103	-0.258	0.223
-656.901	-200.000	0.008	-0.081
-655.886	455.392	-0.125	0.278
-654.872	800.000	0.109	-0.329
-653.857	-41.502	-0.119	-0.061
-652.843	78.517	-0.265	-0.282
-651.828	-200.000	-0.021	-0.169
-650.814	263.114	-0.092	-0.159
-649.799	-185.660	-0.317	-0.005
-648.784	800.000	0.089	-0.310
-647.770	-0.861	0.224	0.158
-646.755	800.000	0.078	-0.220
-645.741	-9.709	-0.149	0.099
-644.726	-200.000	0.005	0.044
-643.711	-146.852	-0.087	-0.007
-642.697	215.742	0.244	0.387
-641.682	-151.387	-0.142	0.011
-640.668	-5.017	0.216	-0.148
-639.653	-200.000	0.009	-0.106
-638.638	-85.141	0.202	-0.063
-637.624	116.914	-0.026	-0.032
-636.609	-188.455	0.231	0.003
-635.595	-110.040	0.159	-0.033
-634.580	223.703	-0.091	0.146
-633.565	800.000	0.032	-0.138
-632.551	72.353	-0.142	-0.147
-631.536	211.849	0.226	0.355
-630.522	-109.733	-0.247	-0.052
-629.507	-67.826	-0.072	-0.028
-628.492	-55.894	0.199	0.089
-627.478	-200.000	0.014	0.087
-626.463	-39.464	0.067	0.035
-625.449	86.114	-0.162	-0.178
-624.434	39.858	0.086	0.077
-623.419	-17.516	-0.441	0.277
-622.405	-61.093	0.333	0.140
-621.390	61.188	-0.333	-0.330
-620.376	-200.000	-0.022	-0.271
-619.361	-64.104	0.201	0.082
-618.346	39.182	0.037	-0.033
-617.332	-25.555	0.100	0.059
-616.317	-86.690	-0.572	-0.174
-615.303	-164.774	-0.020	-0.001
-614.288	-183.164	0.334	-0.006
-613.273	-16.562	-0.223	-0.141
-612.259	-200.000	-0.039	-0.191
-611.244	-200.000	0.047	-0.357
-610.230	-11.856	0.187	0.122
-609.215	101.413	0.205	-0.238
-608.201	-200.000	0.025	-0.426
-607.186	-5.465	-0.077	0.053
-606.171	447.117	0.085	0.186
-605.157	247.409	-0.193	0.325
-604.142	53.678	-0.374	0.358
-603.128	-38.178	-0.158	0.083
-602.113	34.067	0.321	0.278
-601.098	-40.369	-0.209	0.108
-600.084	-200.000	0.002	0.145
-599.069	-146.244	-0.096	0.008
-598.055	0.351	0.270	0.192
-597.040	-47.582	-0.073	0.035
-596.025	-69.291	-0.337	-0.129
-595.011	230.491	-0.159	0.258
-593.996	-200.000	0.003	-0.128
-592.982	-200.000	0.022	-0.125
-591.967	12.312	0.134	0.103
-590.952	551.714	0.038	0.090
-589.938	800.000	-0.054	-0.211
-588.923	800.000	-0.081	-0.327
-587.909	140.404	-0.153	0.201
-586.894	-167.755	0.060	0.002
-585.879	52.227	0.305	-0.290
-584.865	142.472	0.189	0.250
-583.850	-41.392	-0.494	-0.253
-582.836	128.546	-0.160	-0.203
-581.821	-154.538	0.303	-0.020
-580.806	420.282	-0.097	0.207
-579.792	113.720	0.070	-0.084
-578.777	-14.494	-0.272	-0.174
-577.763	-200.000	-0.006	0.118
-576.748	45.354	0.020	0.019
-575.733	-34.881	-0.122	-0.066
-574.719	-79.778	-0.179	-0.060
-573.704	-161.311	-0.226	-0.012
-572.690	-200.000	0.024	0.309
-571.675	460.990	-0.141	0.312
-570.661	-8.626	0.065	-0.043
-569.646	-200.000	0.146	-0.705
-568.631	-19.212	-0.145	0.090
-567.617	-48.112	0.290	0.140
-566.602	25.019	0.177	0.146
-565.588	800.000	0.031	0.107
-564.573	-165.141	0.053	0.002
-563.558	97.114	0.229	-0.261
-562.544	-145.545	-0.595	0.053
-561.529	5.332	0.175	-0.128
-560.515	18.337	0.349	-0.277
-559.500	-139.838	-0.198	0.021
-558.485	-61.363	0.058	-0.024
-557.471	800.000	-0.077	-0.222
-556.456	-106.701	0.361	-0.080
-555.442	-200.000	0.015	-0.183
-554.427	800.000	-0.113	-0.336
-553.412	-20.906	0.357	-0.218
-552.398	116.943	-0.203	-0.248
-551.383	-200.000	0.009	0.126
-550.369	114.880	0.357	-0.433
-549.354	259.202	0.016	-0.027
-548.339	800.000	-0.046	0.127
-547.325	19.210	-0.068	-0.054
-546.310	521.837	-0.046	-0.107
-545.296	-200.000	0.029	0.134
-544.281	-76.967	-0.053	0.018
-543.266	-3.675	-0.238	-0.164
-542.252	800.000	-0.097	0.314
-541.237	313.331	-0.095	0.177
-540.223	5.350	0.217	0.159
-539.208	800.000	-0.105	-0.347
-538.193	-9.856	-0.144	0.096
-537.179	49.557	0.133	0.125
-536.164	-200.000	0.025	0.139
-535.150	560.490	0.145	-0.348
-534.135	-173.351	-0.289	0.009
-533.121	-4.507	-0.290	0.199
-532.106	43.043	0.163	0.147
-531.091	87.435	0.174	0.191
-530.077	-12.770	-0.114	-0.074
-529.062	-200.000	0.032	-0.395
-528.048	-24.433	0.069	-0.041
-527.033	-200.000	-0.034	-0.201
-526.018	22.587	0.217	-0.177
-525.004	-71.942	-0.347	0.128
-523.989	-200.000	0.036	0.210
-522.975	800.000	0.035	0.104
-521.960	-162.731	-0.137	0.007
-520.945	-62.191	0.364	-0.151
-519.931	-147.335	0.245	-0.021
-518.916	315.417	-0.033	0.061
-517.902	-200.000	0.027	-0.240
-516.887	11.853	-0.140	-0.107
-515.872	-121.631	0.103	0.017
-514.858	-137.232	0.075	0.009
-513.843	-0.844	0.189	-0.133
-512.829	-2.592	-0.222	-0.155
-511.814	-36.697	0.191	-0.102
-510.799	197.902	-0.091	0.137
-509.785	34.106	-0.275	0.238
-508.770	-46.347	0.099	-0.048
-507.756	186.760	0.073	-0.108
-506.741	94.709	-0.191	0.216
-505.726	-152.125	0.094	0.007
-504.712	12.511	-0.152	-0.116
-503.697	76.179	0.255	-0.268
-502.683	800.000	-0.076	-0.249
-501.668	209.784	0.157	-0.243
-500.653	-49.268	0.126	0.060
-499.639	-141.140	-0.323	0.033
-498.624	-176.575	0.242	-0.006
-497.610	-122.578	0.091	-0.015
-496.595	800.000	0.067	0.232
-495.581	-200.000	0.015	0.083
-494.566	-200.000	-0.295	-0.000
-493.551	60.562	0.124	-0.122
-492.537	108.047	0.094	0.111
-491.522	-86.688	0.122	0.037
-490.508	-162.735	-0.273	0.013
-489.493	1.712	-0.318	-0.227
-488.478	472.084	0.067	0.149
-487.464	210.412	0.046	0.072
-486.449	-200.000	0.025	-0.319
-485.435	232.825	0.063	0.102
-484.420	20.373	0.078	0.063
-483.405	-13.056	0.126	-0.081
-482.391	-82.101	-0.293	-0.095
-481.376	83.451	-0.108	-0.117
-480.362	-23.084	-0.130	-0.078
-479.347	-84.909	-0.037	0.011
-478.332	-111.631	0.214	-0.043
-477.318	-140.101	0.133	-0.014
-476.303	-200.000	-0.027	-0.307
-475.289	800.000	-0.097	0.341
-474.274	-29.424	0.499	-0.283
-473.259	452.248	-0.073	-0.159
-472.245	82.299	-0.183	0.196
-471.230	-36.841	-0.119	0.063
-470.216	800.000	-0.010	-0.034
-469.201	-70.506	0.430	-0.161
-468.186	-131.344	-0.352	0.046
-467.172	741.538	0.020	-0.054
-466.157	254.267	-0.159	0.269
-465.143	-126.410	-0.244	0.036
-464.128	-22.689	0.139	-0.083
-463.113	-43.911	-0.133	0.066
-462.099	159.114	0.142	-0.196
-461.084	-95.427	0.150	-0.040
-460.070	312.064	-0.152	0.283
-459.055	109.303	-0.124	0.147
-458.040	-29.776	0.066	0.037
-457.026	-76.120	0.311	0.109
-456.011	80.623	-0.111	0.118
-454.997	194.451	-0.097	-0.145
-453.982	-174.723	0.299	0.008
-452.968	-200.000	-0.019	-0.324
-451.953	-200.000	0.011	-0.124
-450.938	-13.707	0.058	0.037
-449.924	-200.000	0.009	0.095
-448.909	654.585	0.055	0.141
-447.895	800.000	-0.065	0.181
-446.880	-143.708	0.060	0.006
-445.865	372.517	0.110	0.222
-444.851	-200.000	0.016	0.109
-443.836	138.632	-0.252	0.327
-442.822	-200.000	-0.006	0.113
-441.807	-133.523	-0.236	-0.029
-440.792	198.609	0.170	-0.257
-439.778	-200.000	0.008	-0.250
-438.763	-200.000	-0.022	0.270
-437.749	45.698	-0.225	-0.206
-436.734	-200.000	0.053	0.297
-435.719	-39.984	-0.164	0.084
-434.705	-170.519	0.263	-0.009
-433.690	94.333	-0.280	-0.315
-432.676	-133.440	0.042	-0.005
-431.661	-66.299	0.361	-0.142
-430.646	726.488	0.075	-0.198
-429.632	525.784	0.110	-0.257
-428.617	562.038	-0.125	0.300
-427.603	-7.345	-0.274	0.184
-426.588	58.958	0.093	0.091
-425.573	-161.114	0.228	-0.012
-424.559	-46.164	0.224	-0.109
-423.544	-149.691	-0.129	0.010
-422.530	152.304	0.188	-0.254
-421.515	15.106	-0.088	0.068
-420.500	-200.000	-0.042	0.255
-419.486	-59.932	0.308	-0.130
-418.471	-113.545	-0.157	-0.030
-417.457	-62.906	-0.472	-0.193
-416.442	95.493	-0.086	-0.097
-415.428	-127.459	0.183	-0.026
-414.413	-20.881	-0.199	-0.120
-413.398	800.000	-0.030	0.094
-412.384	142.884	-0.195	0.256
-411.369	-162.273	-0.071	0.003
-410.355	108.920	-0.137	-0.162
-409.340	128.283	-0.101	0.127
-408.325	-75.965	0.326	-0.114
-407.311	-8.195	-0.296	-0.197
-406.296	46.741	0.101	-0.093
-405.282	-80.605	-0.076	-0.025
-404.267	46.823	0.238	0.219
-403.252	305.377	-0.100	0.183
-402.238	1.581	-0.103	0.073
-401.223	-195.711	0.199	-0.001
-400.209	-72.518	0.158	0.058
-399.194	53.857	0.219	-0.208
-398.179	599.365	-0.008	0.019
-397.165	-200.000	-0.023	0.166
-396.150	-167.025	-0.099	0.004
-395.136	-145.841	0.080	-0.007
-394.121	-27.082	0.438	0.252
-393.106	-136.494	-0.153	-0.018
-392.092	124.501	0.251	-0.312
-391.077	-7.244	0.172	0.115
-390.063	-200.000	-0.044	0.231
-389.048	-47.042	0.093	-0.045
-388.033	-140.923	-0.153	0.016
-387.019	88.311	0.309	-0.339
-386.004	303.739	0.044	0.081
-384.990	-200.000	-0.009	0.210
-383.975	-12.791	-0.081	0.052
-382.960	-200.000	0.021	-0.178
-381.946	46.098	0.185	0.170
-380.931	-177.757	-0.401	0.010
-379.917	673.191	-0.067	0.173
-378.902	-200.000	0.000	-0.362
-377.888	314.746	0.086	-0.159
-376.873	83.186	0.073	0.079
-375.858	184.108	0.129	-0.189
-374.844	-99.678	0.187	-0.046
-373.829	-123.648	0.280	0.044
-372.815	163.910	-0.269	-0.374
-371.800	-200.000	-0.019	0.098
-370.785	-200.000	0.004	0.040
-369.771	-153.468	-0.128	-0.009
-368.756	190.964	-0.052	-0.076
-367.742	13.094	0.093	-0.071
-366.727	116.554	-0.086	0.103
-365.712	-200.000	-0.015	0.112
-364.698	-183.525	-0.083	-0.001
-363.683	800.000	-0.074	-0.277
-362.669	-200.000	-0.072	0.511
-361.654	-200.000	-0.004	0.146
-360.639	370.193	0.083	-0.166
-359.625	800.000	0.131	0.366
-358.610	800.000	0.031	0.112
-357.596	-119.641	-0.071	-0.012
-356.581	-117.920	-0.359	0.063
-355.566	349.930	0.020	-0.039
-354.552	19.252	-0.182	-0.144
-353.537	-77.406	0.235	-0.080
-352.523	245.597	0.204	0.339
-351.508	-200.000	-0.043	0.233
-350.493	483.047	0.027	0.061
-349.479	382.595	0.113	0.229
-348.464	-131.469	-0.454	0.059
-347.450	800.000	-0.022	0.084
-346.435	106.155	0.274	0.320
-345.420	-101.230	0.075	-0.018
-344.406	-29.700	-0.131	0.074
-343.391	255.626	-0.195	0.330
-342.377	-2.325	0.212	-0.146
-341.362	-200.000	-0.016	-0.184
-340.348	-139.345	-0.341	0.036
-339.333	-200.000	0.013	-0.178
-338.318	-200.000	0.031	-0.275
-337.304	477.678	-0.090	-0.200
-336.289	-200.000	0.006	-0.160
-335.275	-200.000	0.033	0.318
-334.260	27.642	0.160	-0.133
-333.245	152.011	0.183	-0.246
-332.231	348.726	-0.202	0.393
-331.216	-200.000	0.031	-0.172
-330.202	-180.697	0.106	0.002
-329.187	-118.195	-0.161	0.028
-328.172	-104.744	-0.261	-0.059
-327.158	46.600	0.093	-0.085
-326.143	-5.225	0.253	-0.171
-325.129	2.482	0.139	0.099
-324.114	-200.000	-0.012	0.086
-323.099	-200.000	0.034	-0.307
-322.085	-74.281	-0.122	0.044
-321.070	-55.033	-0.269	0.119
-320.056	-23.030	0.247	-0.147
-319.041	60.305	-0.155	-0.151
-318.026	-67.270	0.301	0.117
-317.012	-200.000	0.015	-0.130
-315.997	514.650	0.073	-0.168
-314.983	-200.000	-0.002	-0.501
-313.968	-143.959	-0.214	0.020
-312.953	-134.130	0.159	-0.019
-311.939	214.308	0.249	-0.388
-310.924	203.598	-0.120	0.182
-309.910	-69.282	0.100	-0.038
-308.895	-195.510	-0.468	0.003
-307.880	7.371	0.093	0.068
-306.866	226.471	-0.067	-0.108
-305.851	-200.000	0.000	0.102
-304.837	99.527	0.216	0.247
-303.822	589.947	0.106	0.257
-302.807	270.631	0.091	0.157
-301.793	-200.000	0.003	-0.164
-300.778	-162.221	-0.049	-0.002
-299.764	136.731	-0.156	-0.201
-298.749	-200.000	-0.014	-0.107
-297.735	800.000	0.167	-0.489
-296.720	800.000	-0.147	0.407
-295.705	52.425	0.198	0.186
-294.691	-83.483	-0.417	-0.131
-293.676	149.489	0.079	0.106
-292.662	29.996	-0.169	-0.142
-291.647	-200.000	-0.015	0.096
-290.632	-77.091	0.104	-0.036
-289.618	800.000	-0.023	-0.070
-288.603	-171.834	0.147	0.005
-287.589	-85.564	0.191	-0.059
-286.574	43.870	-0.346	0.312
-285.559	397.244	0.194	0.400
-284.545	67.920	0.127	-0.128
-283.530	-9.433	-0.155	-0.102
-282.516	-200.000	-0.086	-0.552
-281.501	101.573	-0.298	-0.341
-280.486	800.000	0.025	-0.090
-279.472	800.000	-0.059	0.204
-278.457	-19.779	0.060	0.037
-277.443	-200.000	-0.001	0.074
-276.428	511.646	-0.137	-0.313
-275.413	14.314	0.230	-0.176
-274.399	-123.897	0.473	-0.073
-273.384	696.295	-0.131	0.339
-272.370	221.243	-0.181	0.285
-271.355	-52.170	-0.161	-0.073
-270.340	144.020	-0.160	0.209
-269.326	-105.098	-0.213	0.048
-268.311	800.000	-0.087	-0.318
-267.297	74.863	-0.065	-0.067
-266.282	55.411	-0.237	0.225
-265.267	22.597	0.084	-0.068
-264.253	-90.791	0.138	0.039
-263.238	323.885	0.071	-0.133
-262.224	-131.396	-0.437	0.057
-261.209	-200.000	-0.131	0.000
-260.195	113.396	0.154	0.183
-259.180	-123.189	0.256	-0.040
-258.165	74.396	0.188	-0.194
-257.151	200.839	0.168	-0.254
-256.136	413.961	0.147	0.306
-255.122	157.646	-0.199	0.271
-254.107	-0.322	0.380	-0.265
-253.092	168.639	-0.281	0.393
-252.078	398.698	0.063	-0.130
-251.063	-200.000	-0.004	0.031
-250.049	-79.813	0.116	0.038
-249.034	166.579	0.059	0.083
-248.019	99.057	0.029	-0.033
-247.005	231.789	-0.233	0.376
-245.990	254.421	0.038	-0.064
-244.976	-200.000	0.022	0.185
-243.961	266.937	0.024	0.041
-242.946	-33.603	0.286	0.155
-241.932	-11.137	-0.292	0.189
-240.917	-200.000	0.010	0.274
-239.903	-89.957	0.265	-0.076
-238.888	73.424	0.026	-0.027
-237.873	-131.428	-0.258	-0.033
-236.859	800.000	-0.112	0.395
-235.844	349.408	0.104	0.202
-234.830	-99.760	0.201	-0.049
-233.815	800.000	0.034	0.140
-232.800	582.890	-0.058	0.139
-231.786	-200.000	0.058	-0.331
-230.771	-200.000	0.070	0.358
-229.757	-200.000	0.037	0.515
-228.742	93.272	0.102	0.113
-227.727	-8.167	-0.281	0.186
-226.713	-200.000	0.045	-0.403
-225.698	-110.680	-0.215	-0.043
-224.684	118.223	0.113	-0.137
-223.669	-200.000	-0.025	-0.290
-222.655	800.000	0.036	-0.138
-221.640	-96.923	0.194	0.050
-220.625	800.000	-0.028	-0.086
-219.611	-68.404	0.307	-0.117
-218.596	-81.764	0.290	-0.093
-217.582	228.758	-0.213	-0.340
-216.567	225.222	-0.251	0.399
-215.552	800.000	0.062	0.239
-214.538	800.000	-0.107	0.365
-213.523	-68.292	-0.168	0.064
-212.509	-200.000	-0.030	-0.150
-211.494	-18.841	-0.330	-0.202
-210.479	-200.000	0.089	-0.417
-209.465	-79.068	0.348	0.116
-208.450	800.000	-0.013	-0.046
-207.436	-200.000	-0.018	-0.205
-206.421	24.594	-0.233	-0.189
-205.406	800.000	-0.071	0.217
-204.392	-106.765	-0.326	-0.071
-203.377	108.871	0.174	-0.204
-202.363	-200.000	0.043	0.238
-201.348	359.501	-0.083	0.162
-200.333	-21.258	0.218	-0.131
-199.319	-200.000	0.027	0.158
-198.304	87.757	-0.285	0.309
-197.290	56.031	-0.206	-0.196
-196.275	-101.284	-0.099	0.024
-195.260	189.622	-0.047	-0.070
-194.246	-0.340	0.098	-0.068
-193.231	565.951	-0.107	0.255
-192.217	8.729	-0.264	0.195
-191.202	-46.520	0.099	-0.048
-190.187	34.154	0.221	-0.189
-189.173	-200.000	-0.017	-0.113
-188.158	-200.000	0.003	-0.273
-187.144	800.000	-0.043	-0.125
-186.129	800.000	0.097	0.282
-185.114	-153.084	0.035	-0.002
-184.100	-200.000	0.039	-0.213
-183.085	106.499	-0.159	0.184
-182.071	34.022	-0.122	-0.104
-181.056	380.453	-0.167	0.336
-180.042	-3.787	-0.230	0.156
-179.027	31.476	0.084	-0.071
-178.012	0.743	0.290	0.203
-176.998	-167.006	-0.190	-0.008
-175.983	-86.516	-0.487	0.146
-174.969	110.394	0.210	-0.247
-173.954	-21.700	-0.234	0.139
-172.939	200.584	0.118	0.178
-171.925	189.503	0.197	0.289
-170.910	800.000	0.044	-0.155
-169.896	-18.567	0.207	0.127
-168.881	5.124	0.105	-0.076
-167.866	426.675	-0.137	-0.290
-166.852	-122.700	-0.088	0.014
-165.837	800.000	0.063	0.172
-164.823	-34.316	0.061	-0.033
-163.808	-10.972	0.145	0.094
-162.793	-66.109	-0.202	0.079
-161.779	-23.415	0.344	0.202
-160.764	-200.000	0.020	0.219
-159.750	276.561	0.203	0.353
-158.735	156.437	-0.182	0.246
-157.720	216.788	0.095	0.149
-156.706	-169.565	0.301	-0.011
-155.691	20.522	-0.199	-0.157
-154.677	433.882	0.081	-0.171
-153.662	97.977	0.148	0.167
-152.647	237.366	0.077	-0.125
-151.633	345.513	0.099	0.190
-150.618	34.966	-0.186	0.159
-149.604	-104.006	0.078	-0.018
-148.589	163.741	-0.188	-0.259
-147.574	29.235	-0.276	0.229
-146.560	-93.087	0.188	-0.051
-145.545	60.989	0.123	0.119
-144.531	36.826	-0.159	-0.137
-143.516	800.000	0.008	0.028
-142.502	573.917	0.061	0.147
-141.487	245.011	-0.086	-0.141
-140.472	800.000	0.149	-0.414
-139.458	-27.474	-0.121	-0.069
-138.443	-77.546	-0.206	-0.070
-137.429	-188.791	-0.032	-0.000
-136.414	-200.000	0.077	0.394
-135.399	-7.535	-0.186	0.123
-134.385	-146.603	0.514	-0.044
-133.370	-88.636	-0.350	0.102
-132.356	196.691	0.036	-0.053
-131.341	-31.278	-0.168	-0.093
-130.326	-33.913	0.189	-0.102
-129.312	-49.634	0.054	-0.025
-128.297	-69.503	-0.100	-0.038
-127.283	-100.041	0.044	-0.011
-126.268	-69.151	-0.211	0.079
-125.253	43.283	-0.217	0.194
-124.239	106.564	0.144	0.167
-123.224	295.886	-0.184	-0.330
-122.210	259.560	-0.111	0.188
-121.195	800.000	0.028	0.097
