DTS Sentinel unit serial number:	SN413079Multiplexer serial number:	ORYXHardware model number:	OX4-SRSoftware version number:	ORYX F/W v4.00 Oryx Data Collector v3.7.2.0data status	okinstallation	princeton_trtdifferential loss correction	single-endedforward channel	channel 1reverse channel	N/Adate	2019/09/17time	20:02:35forward acquisition time	60.00reverse acquisition time	0.00gamma	496.2192k internal	0.2325k external	0.2325temperature offset calibration	0.9977default loss term (dB/km)	0.3790temperature slope calibration	1.0000multiplexer offset coefficient	1.0000multiplexer slope coefficient	1.0000fibre end	0.00T internal ref (°C)	33.05T ext. ref 1 (°C)	0.22T ext. ref 2 (°C)	22.80length (m)	temperature (°C)	Stokes	anti-Stokes-747.200	305.869	-0.203	-0.381
-746.185	800.000	0.057	0.211
-745.171	-141.669	0.156	0.016
-744.156	81.117	0.083	-0.091
-743.142	-200.000	-0.007	0.180
-742.127	-200.000	0.043	0.316
-741.112	-164.398	0.337	0.016
-740.098	79.410	-0.257	0.278
-739.083	48.003	-0.146	0.138
-738.069	800.000	0.055	0.230
-737.054	-200.000	-0.086	0.396
-736.039	34.085	-0.262	-0.230
-735.025	128.701	0.166	0.213
-734.010	172.741	-0.334	0.486
-732.996	87.934	-0.227	-0.254
-731.981	-54.117	0.211	-0.097
-730.966	196.718	0.146	-0.225
-729.952	-127.805	-0.296	-0.043
-728.937	105.954	-0.165	-0.197
-727.923	-57.063	-0.480	0.213
-726.908	-32.505	0.126	0.071
-725.894	273.952	-0.162	-0.289
-724.879	-18.181	-0.091	-0.057
-723.864	-69.410	-0.215	0.083
-722.850	-124.531	-0.334	0.052
-721.835	-200.000	-0.025	-0.172
-720.821	-34.797	-0.415	0.229
-719.806	-149.836	0.330	-0.026
-718.791	-24.235	-0.258	-0.155
-717.777	160.624	-0.178	0.250
-716.762	800.000	-0.083	0.301
-715.748	26.113	0.081	-0.068
-714.733	60.817	0.200	0.200
-713.718	381.669	0.128	0.265
-712.704	-30.381	-0.029	-0.017
-711.689	31.200	-0.320	0.277
-710.675	549.076	-0.073	-0.177
-709.660	-200.000	-0.039	-0.258
-708.645	-200.000	0.018	0.194
-707.631	-100.961	-0.261	0.065
-706.616	-106.274	0.275	-0.062
-705.602	-37.867	-0.113	0.061
-704.587	178.015	-0.180	-0.265
-703.572	118.003	0.023	0.029
-702.558	262.762	-0.087	0.152
-701.543	-135.332	-0.383	0.046
-700.529	-135.226	0.059	-0.007
-699.514	124.003	-0.178	0.225
-698.499	-104.041	-0.131	0.031
-697.485	62.890	0.317	-0.320
-696.470	32.719	-0.247	0.215
-695.456	800.000	0.085	0.251
-694.441	45.917	-0.260	-0.242
-693.426	800.000	0.058	-0.168
-692.412	204.425	-0.158	-0.247
-691.397	-113.865	-0.320	0.063
-690.383	800.000	-0.087	-0.302
-689.368	-200.000	0.054	-0.445
-688.354	-69.272	0.153	-0.059
-687.339	-184.312	-0.562	0.009
-686.324	394.375	0.117	-0.245
-685.310	-113.485	0.151	-0.030
-684.295	-192.770	-0.042	0.000
-683.281	-200.000	-0.022	0.285
-682.266	-200.000	0.075	0.343
-681.251	79.070	-0.178	0.192
-680.237	800.000	-0.063	-0.202
-679.222	-55.583	-0.094	-0.042
-678.208	-0.027	-0.205	0.147
-677.193	-105.490	0.199	-0.046
-676.178	-200.000	0.007	-0.113
-675.164	29.300	0.051	0.043
-674.149	-122.140	-0.157	0.026
-673.135	85.067	0.130	0.143
-672.120	243.433	-0.157	-0.265
-671.105	-70.140	-0.310	-0.118
-670.091	-30.707	0.272	0.155
-669.076	-137.772	0.058	-0.007
-668.062	800.000	-0.035	-0.145
-667.047	145.211	0.054	0.073
-666.032	-48.536	-0.264	-0.128
-665.018	-152.840	-0.139	0.010
-664.003	637.851	0.106	0.272
-662.989	-172.280	0.209	-0.007
-661.974	-41.149	0.165	-0.086
-660.959	800.000	-0.047	-0.168
-659.945	-25.112	-0.223	-0.133
-658.930	481.191	-0.006	-0.013
-657.916	-141.373	-0.424	-0.043
-656.901	-200.000	-0.003	-0.111
-655.886	-3.846	0.160	0.112
-654.872	389.293	-0.036	0.074
-653.857	118.601	-0.158	0.196
-652.843	209.889	0.054	-0.085
-651.828	-95.535	0.283	0.076
-650.814	-61.660	0.105	0.044
-649.799	322.486	0.131	0.251
-648.784	-89.257	0.157	-0.047
-647.770	-110.186	0.180	-0.038
-646.755	524.374	-0.103	-0.243
-645.741	-17.312	0.157	-0.100
-644.726	-80.912	0.244	-0.081
-643.711	212.464	-0.060	0.095
-642.697	-119.062	0.359	-0.063
-641.682	-59.351	0.087	0.038
-640.668	-200.000	-0.099	0.444
-639.653	-149.188	-0.374	-0.030
-638.638	800.000	-0.054	-0.185
-637.624	24.629	0.095	0.079
-636.609	395.832	-0.072	0.151
-635.595	-18.317	-0.061	-0.038
-634.580	36.493	0.095	-0.085
-633.565	-92.843	0.018	0.005
-632.551	-200.000	0.001	-0.194
-631.536	-81.765	0.249	-0.082
-630.522	-32.209	0.213	-0.119
-629.507	-191.281	0.309	-0.003
-628.492	148.176	-0.269	-0.364
-627.478	491.475	-0.111	0.255
-626.463	80.083	0.166	0.179
-625.449	618.729	0.125	0.316
-624.434	-118.652	-0.371	-0.066
-623.419	-125.445	0.219	0.034
-622.405	65.855	-0.266	-0.271
-621.390	159.906	0.064	-0.090
-620.376	168.109	-0.143	-0.205
-619.361	800.000	-0.112	-0.319
-618.346	800.000	0.036	0.119
-617.332	-162.564	-0.518	0.026
-616.317	-159.118	-0.164	0.009
-615.303	-138.651	-0.408	0.045
-614.288	-57.663	-0.260	0.114
-613.273	637.022	0.126	0.320
-612.259	-200.000	-0.029	-0.289
-611.244	-200.000	0.018	-0.184
-610.230	-200.000	-0.044	-0.252
-609.215	-130.320	0.218	-0.030
-608.201	800.000	0.027	0.109
-607.186	-200.000	0.025	-0.126
-606.171	-71.790	-0.157	-0.059
-605.157	97.551	0.297	-0.342
-604.142	202.475	0.113	0.175
-603.128	721.023	-0.057	-0.153
-602.113	106.012	0.202	-0.241
-601.098	14.048	0.252	-0.197
-600.084	-200.000	0.026	0.637
-599.069	800.000	0.030	-0.111
-598.055	-200.000	0.036	0.432
-597.040	-22.770	-0.201	-0.122
-596.025	-40.425	0.220	0.115
-595.011	-123.387	0.176	0.028
-593.996	11.324	-0.078	0.060
-592.982	42.018	-0.132	-0.120
-591.967	-50.275	-0.304	-0.144
-590.952	-97.510	-0.058	0.015
-589.938	-39.583	0.118	0.062
-588.923	507.346	-0.067	0.157
-587.909	-90.388	-0.273	-0.079
-586.894	-29.071	-0.114	0.065
-585.879	323.534	-0.112	-0.213
-584.865	-65.811	-0.216	0.087
-583.850	193.257	-0.053	0.081
-582.836	-174.703	-0.404	-0.011
-581.821	348.998	-0.064	0.126
-580.806	168.430	0.112	0.160
-579.792	800.000	-0.118	-0.409
-578.777	-98.099	0.126	0.032
-577.763	63.272	0.154	-0.155
-576.748	-200.000	-0.014	-0.309
-575.733	-200.000	-0.031	0.152
-574.719	-167.725	0.031	-0.001
-573.704	31.975	0.184	-0.159
-572.690	-96.224	0.099	-0.026
-571.675	-5.874	-0.218	-0.150
-570.661	-80.072	0.118	0.040
-569.646	276.681	-0.140	0.249
-568.631	115.327	0.296	-0.363
-567.617	159.283	0.126	0.176
-566.602	-86.402	0.212	0.065
-565.588	47.629	0.214	-0.200
-564.573	-200.000	0.010	-0.161
-563.558	30.635	0.096	-0.082
-562.544	539.933	0.076	0.181
-561.529	800.000	-0.074	0.280
-560.515	-133.329	0.101	0.013
-559.500	527.552	0.099	0.235
-558.485	101.641	0.164	-0.191
-557.471	160.232	0.131	0.183
-556.456	800.000	-0.125	0.375
-555.442	-147.261	0.219	-0.019
-554.427	-17.682	-0.178	0.112
-553.412	-89.749	-0.168	-0.049
-552.398	-200.000	0.014	-0.342
-551.383	263.470	0.110	-0.191
-550.369	9.639	0.310	-0.235
-549.354	-168.010	0.283	0.011
-548.339	737.095	-0.036	-0.096
-547.325	-6.688	0.205	0.140
-546.310	800.000	0.072	-0.202
-545.296	-200.000	-0.035	0.340
-544.281	-7.674	-0.267	0.181
-543.266	-139.218	0.235	0.025
-542.252	546.259	-0.126	0.301
-541.237	83.601	-0.181	-0.197
-540.223	800.000	0.065	-0.250
-539.208	-200.000	-0.062	-0.488
-538.193	469.359	0.102	0.229
-537.179	-130.797	-0.088	0.012
-536.164	86.410	0.137	0.151
-535.150	50.463	0.176	0.167
-534.135	-76.008	0.230	0.081
-533.121	163.277	-0.115	-0.162
-532.106	77.843	0.088	0.094
-531.091	-79.881	0.108	0.036
-530.077	800.000	0.050	0.155
-529.062	-134.422	0.086	0.010
-528.048	34.511	0.241	-0.211
-527.033	-200.000	0.034	-0.214
-526.018	-200.000	-0.017	-0.100
-525.004	-40.398	-0.182	-0.095
-523.989	-144.607	-0.220	0.020
-522.975	657.286	0.054	0.140
-521.960	-200.000	-0.034	0.157
-520.945	-150.043	0.379	-0.029
-519.931	-107.275	0.177	-0.039
-518.916	276.719	-0.142	0.253
-517.902	-200.000	0.022	0.341
-516.887	-200.000	-0.008	-0.280
-515.872	-34.360	-0.255	0.140
-514.858	-13.031	0.010	0.007
-513.843	75.280	-0.088	-0.093
-512.829	50.237	-0.274	0.259
-511.814	-18.585	-0.154	-0.096
-510.799	104.437	-0.127	-0.149
-509.785	104.958	-0.063	-0.074
-508.770	434.461	-0.084	0.183
-507.756	-111.817	0.171	-0.035
-506.741	800.000	0.022	-0.086
-505.726	81.712	0.169	0.183
-504.712	-44.283	0.147	0.074
-503.697	-12.547	-0.072	0.047
-502.683	-74.694	0.044	-0.016
-501.668	288.779	-0.078	-0.141
-500.653	-21.120	-0.248	0.152
-499.639	-104.917	-0.277	0.064
-498.624	-62.651	0.163	0.067
-497.610	564.152	-0.109	0.263
-496.595	-200.000	0.014	0.282
-495.581	462.722	-0.118	-0.262
-494.566	236.342	0.162	-0.268
-493.551	72.273	0.098	-0.102
-492.537	-200.000	0.015	-0.226
-491.522	-200.000	-0.018	-0.198
-490.508	-200.000	-0.020	-0.247
-489.493	-200.000	-0.023	-0.213
-488.478	260.028	0.207	-0.357
-487.464	185.946	0.104	0.154
-486.449	-91.143	0.243	-0.070
-485.435	-200.000	0.022	-0.135
-484.420	800.000	-0.049	-0.137
-483.405	-67.314	0.213	-0.084
-482.391	256.764	-0.079	0.136
-481.376	-18.281	0.014	0.009
-480.362	31.182	-0.063	-0.054
-479.347	-159.586	0.414	-0.023
-478.332	191.446	-0.196	-0.296
-477.318	800.000	0.057	-0.221
-476.303	-200.000	-0.034	-0.217
-475.289	-200.000	-0.036	0.195
-474.274	-155.566	-0.232	-0.015
-473.259	-62.949	-0.170	-0.070
-472.245	-162.114	-0.194	-0.010
-471.230	-127.629	-0.320	0.046
-470.216	134.920	-0.010	-0.013
-469.201	-175.058	-0.132	0.004
-468.186	-55.974	0.243	-0.108
-467.172	-16.191	-0.242	0.153
-466.157	-65.733	-0.306	-0.122
-465.143	-96.357	-0.207	-0.055
-464.128	-6.796	0.150	-0.102
-463.113	-70.340	-0.225	-0.085
-462.099	468.241	-0.090	0.202
-461.084	-1.445	-0.146	0.103
-460.070	-200.000	-0.033	0.262
-459.055	169.474	0.174	0.248
-458.040	800.000	-0.043	-0.180
-457.026	-136.434	-0.263	-0.031
-456.011	3.567	0.278	0.203
-454.997	-98.617	0.171	-0.043
-453.982	-30.406	0.242	0.137
-452.968	-177.499	0.186	0.005
-451.953	-102.466	0.423	0.101
-450.938	-200.000	-0.006	-0.245
-449.924	-200.000	-0.030	-0.228
-448.909	-200.000	-0.001	0.113
-447.895	-200.000	0.015	-0.110
-446.880	244.845	-0.161	0.270
-445.865	218.825	-0.127	-0.202
-444.851	-90.369	-0.372	-0.108
-443.836	800.000	-0.101	-0.279
-442.822	430.028	-0.027	0.059
-441.807	308.128	-0.103	-0.191
-440.792	-47.300	-0.229	0.111
-439.778	-52.158	-0.045	0.021
-438.763	-22.709	-0.181	-0.109
-437.749	-165.884	0.307	-0.013
-436.734	51.787	-0.252	0.239
-435.719	-200.000	0.007	0.103
-434.705	-200.000	0.006	-0.123
-433.690	53.214	0.272	0.260
-432.676	-125.785	-0.204	0.031
-431.661	-44.679	-0.118	0.059
-430.646	33.761	-0.330	-0.286
-429.632	109.313	0.156	0.186
-428.617	771.458	0.058	0.158
-427.603	168.144	-0.049	0.069
-426.588	17.855	-0.169	-0.134
-425.573	183.174	0.067	0.098
-424.559	15.900	0.260	0.204
-423.544	-200.000	-0.074	0.460
-422.530	148.855	0.278	-0.375
-421.515	-92.679	0.219	-0.061
-420.500	-164.443	0.148	-0.007
-419.486	11.300	0.118	-0.090
-418.471	-75.191	0.150	0.053
-417.457	143.286	-0.156	-0.207
-416.442	-83.045	-0.171	0.055
-415.428	-128.205	-0.429	0.061
-414.413	-23.099	-0.155	0.093
-413.398	118.509	-0.160	0.197
-412.384	-4.965	0.226	-0.155
-411.369	-82.527	0.608	0.197
-410.355	379.063	-0.030	-0.061
-409.340	57.539	0.110	-0.107
-408.325	-200.000	0.009	0.052
-407.311	39.422	-0.161	0.144
-406.296	117.232	0.106	0.129
-405.282	487.120	0.031	-0.070
-404.267	-59.331	-0.535	-0.229
-403.252	275.153	0.119	-0.211
-402.238	-39.496	0.186	-0.097
-401.223	-200.000	-0.000	-0.077
-400.209	-31.097	0.274	-0.154
-399.194	-159.955	-0.356	-0.019
-398.179	-12.055	0.331	-0.216
-397.165	-136.285	0.137	-0.016
-396.150	135.059	-0.247	0.319
-395.136	-22.691	-0.156	0.094
-394.121	-28.866	0.156	-0.089
-393.106	-53.490	-0.215	0.098
-392.092	-22.977	0.333	0.200
-391.077	-23.987	-0.159	-0.095
-390.063	-80.340	-0.228	-0.076
-389.048	-56.310	0.224	-0.099
-388.033	-161.305	-0.336	0.017
-387.019	-200.000	0.000	0.137
-386.004	-200.000	-0.090	-0.416
-384.990	11.087	0.199	0.151
-383.975	-200.000	-0.010	0.093
-382.960	-122.480	0.165	-0.027
-381.946	-112.546	0.116	0.023
-380.931	-87.807	0.425	-0.128
-379.917	-49.180	-0.188	-0.089
-378.902	545.471	-0.045	-0.107
-377.888	-58.715	-0.132	-0.057
-376.873	13.011	-0.182	-0.140
-375.858	-137.377	0.196	0.022
-374.844	281.558	0.133	-0.237
-373.829	351.011	-0.033	-0.065
-372.815	71.728	-0.148	-0.153
-371.800	-165.806	-0.137	-0.006
-370.785	-20.414	-0.115	-0.070
-369.771	-54.517	-0.277	-0.125
-368.756	-89.444	-0.231	0.068
-367.742	-13.920	0.054	-0.035
-366.727	323.630	0.124	-0.235
-365.712	-165.626	0.201	-0.009
-364.698	-200.000	-0.053	0.231
-363.683	43.315	-0.298	0.270
-362.669	132.866	0.043	-0.055
-361.654	211.784	-0.035	-0.054
-360.639	-80.797	0.218	-0.072
-359.625	800.000	0.073	0.240
-358.610	-25.308	0.104	0.061
-357.596	16.888	0.248	-0.195
-356.581	-76.338	-0.099	-0.035
-355.566	64.387	0.142	-0.142
-354.552	32.740	-0.020	-0.017
-353.537	-24.663	-0.155	-0.092
-352.523	214.590	0.169	0.266
-351.508	156.125	-0.100	-0.137
-350.493	64.563	0.101	-0.102
-349.479	232.843	0.297	-0.484
-348.464	-27.145	0.128	0.074
-347.450	535.237	0.041	0.096
-346.435	250.055	-0.085	0.144
-345.420	0.023	0.144	0.102
-344.406	292.401	-0.098	0.177
-343.391	43.095	0.057	-0.052
-342.377	-103.147	0.120	0.028
-341.362	-30.142	-0.205	0.116
-340.348	19.457	-0.150	0.120
-339.333	-200.000	0.001	0.008
-338.318	631.192	0.008	0.019
-337.304	786.346	-0.076	0.208
-336.289	-200.000	-0.034	0.224
-335.275	-33.970	0.342	0.187
-334.260	-200.000	-0.022	0.368
-333.245	148.402	-0.166	-0.222
-332.231	-79.277	-0.082	-0.028
-331.216	199.092	0.071	0.109
-330.202	-200.000	0.050	0.313
-329.187	-24.398	0.083	-0.049
-328.172	-33.776	-0.066	-0.036
-327.158	335.850	0.154	0.297
-326.143	433.124	0.098	0.212
-325.129	252.053	0.073	-0.124
-324.114	-119.304	-0.290	-0.050
-323.099	-65.575	-0.428	0.171
-322.085	292.557	0.093	-0.167
-321.070	-125.600	-0.248	0.037
-320.056	-200.000	0.038	-0.213
-319.041	800.000	0.066	0.211
-318.026	-200.000	-0.012	-0.367
-317.012	-107.426	-0.431	-0.094
-315.997	-66.548	-0.066	-0.026
-314.983	-125.715	0.325	0.049
-313.968	227.846	-0.034	-0.056
-312.953	-200.000	0.016	-0.124
-311.939	13.241	-0.203	-0.156
-310.924	-200.000	0.015	-0.085
-309.910	30.326	-0.281	0.239
-308.895	-40.169	-0.105	0.054
-307.880	14.581	-0.114	-0.088
-306.866	2.317	-0.152	-0.109
-305.851	-66.350	0.114	0.045
-304.837	-76.985	0.135	0.047
-303.822	800.000	-0.073	-0.250
-302.807	704.131	-0.109	-0.286
-301.793	-124.964	-0.248	0.038
-300.778	110.783	0.078	-0.093
-299.764	-200.000	0.021	-0.470
-298.749	-101.106	0.082	0.020
-297.735	341.802	-0.117	0.226
-296.720	32.363	-0.320	-0.274
-295.705	91.279	-0.264	-0.294
-294.691	-88.589	0.236	0.070
-293.676	28.630	0.246	-0.207
-292.662	-38.037	-0.255	0.134
-291.647	63.645	0.148	0.147
-290.632	-136.897	0.251	-0.029
-289.618	329.625	0.084	0.160
-288.603	-141.378	-0.361	0.036
-287.589	-91.230	0.579	-0.164
-286.574	-61.739	0.324	0.135
-285.559	123.584	0.075	-0.093
-284.545	57.462	-0.155	-0.151
-283.530	800.000	0.011	-0.043
-282.516	16.924	0.397	0.311
-281.501	-200.000	0.003	-0.261
-280.486	56.706	0.108	0.104
-279.472	25.745	-0.131	-0.108
-278.457	-64.560	0.178	0.072
-277.443	253.282	-0.191	0.323
-276.428	-150.519	-0.121	0.009
-275.413	-200.000	-0.028	-0.168
-274.399	451.768	0.105	0.230
-273.384	-200.000	0.032	-0.208
-272.370	-151.620	0.241	0.018
-271.355	-155.547	0.264	0.017
-270.340	-23.629	-0.439	-0.261
-269.326	230.907	-0.201	0.325
-268.311	218.583	-0.058	0.092
-267.297	13.335	-0.205	0.157
-266.282	800.000	-0.032	0.109
-265.267	-188.143	-0.180	-0.002
-264.253	181.168	0.274	0.399
-263.238	207.508	-0.142	0.219
-262.224	-10.933	0.181	0.119
-261.209	-90.691	-0.080	0.023
-260.195	-200.000	-0.070	-0.666
-259.180	-200.000	0.002	0.305
-258.165	800.000	0.079	0.341
-257.151	356.086	0.214	-0.422
-256.136	-95.331	0.099	0.026
-255.122	-7.903	-0.190	0.127
-254.107	-74.456	0.383	-0.137
-253.092	-10.033	-0.277	0.182
-252.078	-200.000	-0.019	0.185
-251.063	97.134	0.124	-0.141
-250.049	684.296	0.091	0.234
-249.034	-2.335	-0.151	-0.105
-248.019	-200.000	0.039	-0.335
-247.005	-150.582	-0.258	0.020
-245.990	800.000	0.004	-0.018
-244.976	690.758	0.041	0.106
-243.961	-165.844	0.082	0.004
-242.946	93.851	0.185	0.207
-241.932	800.000	0.048	0.142
-240.917	800.000	0.043	0.170
-239.903	-200.000	-0.003	0.210
-238.888	-200.000	-0.010	-0.096
-237.873	112.576	-0.064	0.076
-236.859	276.694	-0.133	-0.233
-235.844	-62.918	0.057	0.023
-234.830	-20.435	0.175	-0.107
-233.815	800.000	-0.071	0.203
-232.800	-53.994	0.134	0.061
-231.786	7.075	-0.236	0.174
-230.771	94.942	-0.133	-0.150
-229.757	-200.000	0.028	-0.139
-228.742	722.815	-0.064	-0.169
-227.727	-65.379	0.281	-0.112
-226.713	-196.319	-0.080	0.001
-225.698	-107.609	0.265	0.057
-224.684	142.778	-0.081	0.106
-223.669	-172.913	0.113	-0.003
-222.655	17.562	-0.035	-0.028
-221.640	96.121	0.131	0.148
-220.625	541.458	0.057	-0.135
-219.611	68.403	0.139	0.141
-218.596	800.000	-0.096	0.391
-217.582	-122.668	0.211	0.034
-216.567	142.714	0.064	-0.084
-215.552	361.632	-0.108	-0.214
-214.538	43.597	-0.349	0.315
-213.523	-200.000	-0.009	0.203
-212.509	66.167	0.201	0.202
-211.494	67.016	0.110	-0.111
-210.479	494.600	-0.126	0.286
-209.465	-106.267	-0.077	0.017
-208.450	-53.637	0.291	-0.131
-207.436	-200.000	0.034	0.253
-206.421	-200.000	-0.035	-0.173
-205.406	-90.983	-0.195	0.055
-204.392	-100.877	0.308	-0.075
-203.377	-155.947	-0.195	-0.012
-202.363	275.460	0.131	-0.229
-201.348	-200.000	0.020	0.240
-200.333	-200.000	-0.026	0.197
-199.319	800.000	0.035	-0.149
-198.304	-62.475	-0.210	0.086
-197.290	-40.889	0.196	0.100
-196.275	559.213	0.249	0.595
-195.260	-173.803	-0.206	0.006
-194.246	281.958	-0.125	0.221
-193.231	177.381	0.207	-0.298
-192.217	-137.725	-0.042	-0.005
-191.202	654.086	-0.069	0.176
-190.187	-200.000	0.041	-0.271
-189.173	14.529	-0.295	-0.227
-188.158	-90.423	-0.190	0.054
-187.144	98.829	0.101	-0.115
-186.129	641.848	0.127	-0.318
-185.114	-118.169	0.216	0.038
-184.100	130.149	-0.250	0.316
-183.085	-200.000	-0.021	0.223
-182.071	800.000	0.125	0.371
-181.056	633.018	-0.157	-0.393
-180.042	800.000	-0.040	-0.170
-179.027	230.296	-0.125	-0.201
-178.012	-133.825	-0.099	0.012
-176.998	-85.175	-0.118	0.036
-175.983	-188.792	-0.214	-0.003
-174.969	-153.630	-0.086	-0.006
-173.954	170.349	-0.119	-0.169
-172.939	-101.449	0.118	0.028
-171.925	91.418	0.059	-0.066
-170.910	-81.356	-0.285	-0.093
-169.896	-81.832	0.273	0.088
-168.881	-56.922	-0.187	-0.081
-167.866	800.000	-0.056	0.166
-166.852	-72.849	-0.116	-0.042
-165.837	416.619	0.053	0.111
-164.823	-136.873	-0.421	-0.048
-163.808	287.879	-0.116	0.207
-162.793	-152.917	0.203	-0.014
-161.779	-123.583	0.021	0.003
-160.764	711.549	0.088	0.230
-159.750	-115.275	-0.129	0.024
-158.735	800.000	0.057	-0.206
-157.720	-99.534	-0.185	0.046
-156.706	-15.921	-0.042	-0.027
-155.691	-49.274	0.235	0.111
-154.677	-40.104	0.134	0.069
-153.662	-97.050	0.144	-0.037
-152.647	-200.000	0.009	0.462
-151.633	-130.227	0.356	0.048
-150.618	-42.038	-0.087	0.044
-149.604	143.880	-0.142	-0.186
-148.589	99.290	-0.106	-0.121
-147.574	499.822	-0.061	0.138
-146.560	-54.451	-0.222	-0.099
-145.545	41.589	0.209	-0.186
-144.531	23.638	0.164	0.133
-143.516	-60.649	-0.281	0.117
-142.502	483.690	0.036	-0.080
-141.487	302.314	-0.192	0.351
-140.472	174.215	-0.040	0.057
-139.458	322.599	-0.102	-0.192
-138.443	115.386	0.175	0.211
-137.429	266.911	-0.114	0.196
-136.414	294.585	0.161	0.290
-135.399	129.084	0.094	0.119
-134.385	-200.000	-0.010	-0.163
-133.370	-65.198	0.378	0.150
-132.356	-100.747	-0.222	0.054
-131.341	-96.285	0.290	-0.076
-130.326	199.776	0.159	-0.240
-129.312	-177.234	-0.138	0.003
-128.297	-100.730	0.019	-0.005
-127.283	-95.427	-0.088	-0.023
-126.268	800.000	-0.060	-0.245
-125.253	-86.300	-0.108	-0.033
-124.239	13.982	0.114	0.088
-123.224	291.768	0.151	0.271
-122.210	-141.766	-0.241	0.024
