DTS Sentinel unit serial number:	SN413079Multiplexer serial number:	ORYXHardware model number:	OX4-SRSoftware version number:	ORYX F/W v4.00 Oryx Data Collector v3.7.2.0data status	okinstallation	princeton_trtdifferential loss correction	single-endedforward channel	channel 1reverse channel	N/Adate	2019/09/13time	03:10:35forward acquisition time	60.00reverse acquisition time	0.00gamma	496.2192k internal	0.2332k external	0.2332temperature offset calibration	1.0159default loss term (dB/km)	0.3790temperature slope calibration	1.0000multiplexer offset coefficient	1.0000multiplexer slope coefficient	1.0000fibre end	0.00T internal ref (°C)	27.41T ext. ref 1 (°C)	4.07T ext. ref 2 (°C)	22.15length (m)	temperature (°C)	Stokes	anti-Stokes-747.200	327.041	0.020	-0.039
-746.185	25.220	-0.282	-0.235
-745.171	98.614	0.014	0.016
-744.156	-200.000	-0.036	0.455
-743.142	142.793	-0.017	-0.023
-742.127	124.399	-0.374	0.473
-741.112	96.119	-0.230	0.265
-740.098	-200.000	-0.039	0.294
-739.083	-121.686	-0.353	-0.059
-738.069	313.219	-0.177	0.335
-737.054	800.000	-0.093	0.337
-736.039	16.196	-0.457	0.362
-735.025	-96.948	-0.096	-0.025
-734.010	36.216	-0.358	-0.318
-732.996	77.599	-0.389	-0.417
-731.981	-200.000	-0.010	0.049
-730.966	-200.000	0.043	0.221
-729.952	-200.000	0.044	0.209
-728.937	-156.553	0.113	0.007
-727.923	-17.837	-0.170	-0.107
-726.908	23.745	-0.154	-0.128
-725.894	-200.000	-0.029	0.461
-724.879	84.657	-0.123	0.136
-723.864	24.208	-0.290	-0.241
-722.850	-81.387	-0.225	0.074
-721.835	-200.000	-0.001	0.142
-720.821	-200.000	0.012	0.138
-719.806	67.926	-0.243	-0.250
-718.791	76.273	-0.273	-0.291
-717.777	-1.947	-0.217	-0.154
-716.762	-200.000	0.004	-0.318
-715.748	-68.090	-0.162	0.063
-714.733	452.278	0.069	-0.153
-713.718	70.869	0.199	-0.207
-712.704	-20.594	-0.234	-0.145
-711.689	681.904	-0.123	0.323
-710.675	-200.000	0.032	0.477
-709.660	-52.441	0.084	-0.039
-708.645	-200.000	0.035	-0.369
-707.631	800.000	-0.039	0.172
-706.616	109.982	-0.060	0.072
-705.602	800.000	-0.105	0.372
-704.587	-120.963	-0.140	-0.024
-703.572	-17.164	0.273	-0.173
-702.558	-38.326	-0.059	-0.031
-701.543	-78.124	0.287	-0.099
-700.529	653.428	-0.128	0.330
-699.514	70.975	-0.150	-0.156
-698.499	305.235	-0.204	-0.381
-697.485	-129.407	-0.184	-0.026
-696.470	359.116	-0.137	-0.275
-695.456	-19.458	0.226	0.141
-694.441	75.768	-0.137	0.145
-693.426	-57.743	-0.069	-0.030
-692.412	-137.519	0.116	-0.013
-691.397	90.622	-0.142	0.160
-690.383	-114.225	0.120	0.023
-689.368	299.243	0.072	-0.134
-688.354	311.203	-0.151	-0.284
-687.339	-158.657	-0.174	-0.010
-686.324	-110.488	-0.196	-0.041
-685.310	458.010	0.064	-0.142
-684.295	-120.671	-0.209	-0.036
-683.281	-200.000	0.015	0.341
-682.266	18.143	-0.086	0.069
-681.251	-42.552	0.158	0.081
-680.237	-102.521	0.334	-0.080
-679.222	-200.000	-0.001	-0.211
-678.208	-200.000	0.024	0.191
-677.193	-146.392	-0.168	0.015
-676.178	800.000	0.090	0.354
-675.164	181.678	0.065	0.096
-674.149	-162.101	0.166	-0.008
-673.135	800.000	0.069	0.233
-672.120	800.000	-0.081	0.259
-671.105	137.801	-0.086	-0.114
-670.091	-51.568	-0.061	0.028
-669.076	800.000	0.181	-0.505
-668.062	-60.001	-0.155	0.066
-667.047	-157.529	-0.409	-0.025
-666.032	-167.750	-0.099	-0.004
-665.018	460.863	-0.183	0.410
-664.003	6.106	-0.072	0.053
-662.989	465.114	0.041	0.092
-661.974	41.941	-0.142	-0.129
-660.959	-200.000	0.009	-0.203
-659.945	15.210	-0.243	0.191
-658.930	241.154	-0.044	0.074
-657.916	-78.585	0.279	0.096
-656.901	-53.102	-0.314	-0.145
-655.886	-45.914	0.129	-0.064
-654.872	57.801	-0.248	-0.243
-653.857	-200.000	0.001	0.036
-652.843	-56.406	0.306	-0.136
-651.828	213.827	-0.150	-0.238
-650.814	211.647	0.093	0.147
-649.799	-85.541	-0.293	-0.091
-648.784	-83.003	0.327	-0.106
-647.770	6.138	-0.216	-0.161
-646.755	102.192	-0.129	-0.152
-645.741	-24.943	0.151	0.090
-644.726	341.580	0.067	0.130
-643.711	282.604	0.059	-0.105
-642.697	53.181	0.194	-0.186
-641.682	-14.507	0.420	-0.271
-640.668	305.273	-0.203	-0.378
-639.653	-25.293	0.143	-0.085
-638.638	323.959	0.053	0.102
-637.624	476.271	0.146	0.331
-636.609	-48.704	-0.183	0.088
-635.595	-200.000	-0.019	-0.254
-634.580	754.727	0.061	0.166
-633.565	-18.307	0.237	-0.149
-632.551	67.184	0.198	-0.202
-631.536	-146.671	0.257	0.022
-630.522	-142.708	-0.063	-0.006
-629.507	44.150	-0.064	-0.059
-628.492	-56.411	0.103	-0.046
-627.478	-88.558	0.258	0.077
-626.463	-5.752	-0.155	-0.107
-625.449	71.389	0.291	0.302
-624.434	-62.315	-0.361	-0.151
-623.419	142.618	-0.175	0.233
-622.405	-45.077	-0.201	-0.100
-621.390	444.177	-0.010	0.021
-620.376	33.242	0.211	-0.183
-619.361	-200.000	0.001	-0.363
-618.346	-106.912	0.096	0.021
-617.332	-79.854	-0.109	0.037
-616.317	-8.312	-0.157	0.106
-615.303	609.803	0.007	0.018
-614.288	51.165	-0.100	-0.095
-613.273	-79.893	-0.102	0.034
-612.259	578.017	0.188	0.461
-611.244	71.060	-0.157	0.163
-610.230	-59.836	-0.319	0.137
-609.215	-22.401	0.323	0.196
-608.201	-115.542	0.083	-0.016
-607.186	-127.469	-0.108	-0.016
-606.171	-36.788	0.146	-0.078
-605.157	-83.487	0.187	0.060
-604.142	128.626	-0.055	0.070
-603.128	-8.368	-0.203	-0.137
-602.113	-200.000	-0.020	-0.214
-601.098	-114.452	0.077	0.015
-600.084	-200.000	0.017	0.124
-599.069	-146.073	-0.207	0.018
-598.055	-200.000	-0.022	-0.352
-597.040	-200.000	0.019	0.349
-596.025	-28.948	-0.129	-0.074
-595.011	156.790	0.110	-0.152
-593.996	16.864	0.220	0.174
-592.982	549.816	-0.125	0.299
-591.967	800.000	0.034	0.121
-590.952	-151.764	0.229	0.017
-589.938	528.165	0.113	0.266
-588.923	-200.000	0.010	-0.046
-587.909	-72.469	-0.148	0.055
-586.894	-112.329	-0.111	-0.022
-585.879	800.000	-0.075	0.262
-584.865	-147.725	-0.197	-0.017
-583.850	-200.000	-0.022	-0.138
-582.836	-158.600	0.243	0.014
-581.821	71.249	-0.262	0.272
-580.806	-81.065	-0.358	-0.118
-579.792	-200.000	-0.020	-0.149
-578.777	578.586	0.114	-0.278
-577.763	157.482	0.129	0.179
-576.748	-200.000	-0.059	-0.281
-575.733	-81.256	-0.133	0.044
-574.719	-8.264	0.146	0.098
-573.704	144.923	0.120	-0.160
-572.690	-200.000	-0.007	-0.156
-571.675	-124.919	-0.058	0.009
-570.661	-200.000	-0.016	-0.271
-569.646	-105.407	0.181	-0.041
-568.631	274.189	-0.172	-0.304
-567.617	36.943	-0.136	0.120
-566.602	-13.886	0.075	-0.048
-565.588	608.820	-0.077	-0.191
-564.573	-200.000	-0.056	-0.293
-563.558	-147.403	0.134	0.011
-562.544	327.993	0.163	0.313
-561.529	800.000	0.015	-0.055
-560.515	55.335	-0.138	-0.133
-559.500	15.037	-0.210	0.164
-558.485	-73.248	-0.155	0.057
-557.471	-35.612	0.246	0.134
-556.456	-166.655	-0.403	-0.017
-555.442	-200.000	0.047	0.262
-554.427	-64.870	0.021	0.009
-553.412	-68.787	-0.098	0.038
-552.398	172.921	-0.165	-0.237
-551.383	176.032	0.223	-0.323
-550.369	313.893	0.218	-0.409
-549.354	-105.972	-0.044	0.010
-548.339	72.723	-0.218	-0.227
-547.325	42.907	-0.176	0.160
-546.310	-19.978	-0.107	-0.066
-545.296	-20.385	0.232	-0.143
-544.281	-109.104	0.181	-0.038
-543.266	268.796	0.066	-0.115
-542.252	80.343	0.273	0.294
-541.237	138.397	0.098	-0.128
-540.223	322.276	-0.129	-0.244
-539.208	521.689	0.095	0.222
-538.193	-71.518	-0.371	0.138
-537.179	800.000	-0.081	-0.296
-536.164	120.341	-0.139	-0.172
-535.150	230.999	-0.148	0.241
-534.135	264.898	0.120	-0.209
-533.121	168.178	0.068	0.097
-532.106	800.000	-0.054	-0.195
-531.091	14.671	-0.021	0.016
-530.077	800.000	-0.059	-0.251
-529.062	-200.000	0.024	0.198
-528.048	800.000	-0.026	0.072
-527.033	-200.000	-0.015	0.368
-526.018	-93.786	0.030	-0.008
-525.004	-129.872	-0.237	0.033
-523.989	800.000	0.061	0.228
-522.975	-75.337	0.193	0.069
-521.960	504.703	0.142	0.327
-520.945	-73.016	0.106	-0.039
-519.931	800.000	-0.073	0.318
-518.916	-97.564	-0.542	0.140
-517.902	12.127	-0.181	0.139
-516.887	-145.833	-0.198	0.018
-515.872	369.992	0.135	0.272
-514.858	151.303	-0.152	-0.206
-513.843	-57.998	-0.157	-0.068
-512.829	79.336	-0.205	0.219
-511.814	-147.537	-0.055	0.005
-510.799	-2.929	-0.282	0.196
-509.785	15.765	0.054	-0.042
-508.770	800.000	0.026	0.087
-507.756	-200.000	0.008	-0.060
-506.741	-200.000	-0.016	0.193
-505.726	-200.000	0.025	0.164
-504.712	800.000	-0.065	-0.240
-503.697	34.352	-0.079	0.069
-502.683	-200.000	0.016	-0.156
-501.668	800.000	0.036	-0.103
-500.653	-200.000	-0.034	-0.438
-499.639	-44.181	0.119	-0.060
-498.624	-141.742	-0.005	0.000
-497.610	-7.789	0.133	0.090
-496.595	30.268	-0.172	0.146
-495.581	-200.000	0.013	0.069
-494.566	46.619	0.073	0.068
-493.551	272.652	-0.152	0.267
-492.537	-200.000	-0.014	0.321
-491.522	-41.118	-0.178	-0.091
-490.508	-200.000	-0.009	-0.250
-489.493	60.439	-0.144	0.142
-488.478	-66.723	-0.110	0.043
-487.464	-108.657	0.231	-0.049
-486.449	-138.033	-0.520	-0.058
-485.435	-200.000	-0.076	0.374
-484.420	-114.812	-0.134	0.025
-483.405	90.674	0.135	-0.151
-482.391	-200.000	0.051	0.265
-481.376	800.000	0.063	0.239
-480.362	800.000	-0.056	-0.159
-479.347	712.457	-0.159	0.419
-478.332	-125.016	0.305	-0.047
-477.318	28.214	0.286	0.240
-476.303	-62.265	-0.057	0.024
-475.289	800.000	-0.018	0.060
-474.274	39.587	0.106	-0.094
-473.259	311.269	0.119	-0.223
-472.245	-200.000	-0.019	-0.205
-471.230	407.791	-0.143	-0.301
-470.216	8.267	-0.081	0.061
-469.201	163.077	-0.108	-0.150
-468.186	-75.366	-0.197	-0.070
-467.172	-168.477	-0.251	0.010
-466.157	-128.702	-0.166	0.023
-465.143	-46.684	-0.176	-0.086
-464.128	168.508	0.245	-0.347
-463.113	-48.984	-0.450	0.215
-462.099	166.828	0.062	0.087
-461.084	-175.572	0.020	-0.001
-460.070	-200.000	0.021	-0.111
-459.055	-62.234	0.226	0.094
-458.040	-135.248	0.149	-0.018
-457.026	-176.968	0.162	0.004
-456.011	-34.197	0.115	0.063
-454.997	800.000	0.182	0.554
-453.982	800.000	-0.056	0.196
-452.968	800.000	-0.109	0.399
-451.953	-119.442	0.384	-0.066
-450.938	229.507	0.143	0.233
-449.924	-130.224	0.341	-0.046
-448.909	-63.014	-0.245	-0.101
-447.895	313.619	0.121	-0.227
-446.880	-124.815	-0.389	0.060
-445.865	-200.000	0.014	-0.086
-444.851	553.461	0.176	0.421
-443.836	-71.759	0.402	0.149
-442.822	-147.653	0.338	0.028
-441.807	42.243	-0.110	0.099
-440.792	-30.783	0.120	-0.068
-439.778	-163.459	-0.158	0.007
-438.763	138.204	-0.227	-0.297
-437.749	-51.729	0.201	-0.093
-436.734	101.471	0.318	-0.368
-435.719	115.117	0.275	-0.334
-434.705	653.757	-0.120	-0.306
-433.690	-93.756	0.110	-0.030
-432.676	-200.000	-0.027	0.263
-431.661	-200.000	-0.031	-0.219
-430.646	-115.913	0.064	0.012
-429.632	-60.186	0.093	0.039
-428.617	-128.887	-0.032	-0.005
-427.603	-21.810	-0.419	0.254
-426.588	-8.970	-0.230	0.153
-425.573	-133.786	0.158	-0.020
-424.559	800.000	-0.066	-0.205
-423.544	11.937	-0.092	-0.070
-422.530	354.206	-0.012	-0.024
-421.515	-85.127	-0.179	-0.056
-420.500	-22.939	-0.291	-0.175
-419.486	330.455	0.064	0.122
-418.471	-72.408	-0.360	0.132
-417.457	-152.986	-0.055	-0.004
-416.442	136.123	0.072	-0.093
-415.428	800.000	0.031	0.101
-414.413	-200.000	-0.010	0.508
-413.398	-1.271	-0.321	0.225
-412.384	121.008	-0.038	0.046
-411.369	30.737	-0.114	-0.097
-410.355	619.760	0.097	0.241
-409.340	127.119	-0.148	0.186
-408.325	-1.392	-0.330	-0.232
-407.311	-60.883	0.155	-0.065
-406.296	-200.000	0.031	-0.236
-405.282	-95.195	-0.130	0.035
-404.267	126.961	-0.201	-0.253
-403.252	-200.000	0.032	-0.387
-402.238	800.000	0.039	-0.157
-401.223	-44.942	-0.193	0.095
-400.209	-95.463	0.383	-0.102
-399.194	130.056	-0.121	0.154
-398.179	168.832	-0.106	0.149
-397.165	131.037	-0.025	0.031
-396.150	426.452	0.130	0.277
-395.136	-200.000	0.018	0.143
-394.121	-7.712	-0.264	-0.177
-393.106	-6.459	0.131	0.088
-392.092	-29.314	0.129	0.073
-391.077	-142.090	0.119	-0.012
-390.063	41.866	0.090	-0.081
-389.048	800.000	-0.064	-0.190
-388.033	-93.981	0.129	0.035
-387.019	-4.041	-0.103	0.071
-386.004	437.265	-0.034	0.073
-384.990	479.884	0.073	0.164
-383.975	98.323	-0.185	-0.212
-382.960	109.809	-0.157	0.187
-381.946	-200.000	-0.036	0.326
-380.931	-85.069	-0.289	-0.090
-379.917	354.117	0.169	-0.333
-378.902	149.757	-0.106	0.142
-377.888	-72.220	-0.059	-0.022
-376.873	-42.195	-0.202	-0.102
-375.858	-153.748	0.071	-0.005
-374.844	-200.000	0.003	-0.164
-373.829	566.426	-0.159	0.383
-372.815	800.000	-0.117	0.331
-371.800	199.138	-0.098	-0.149
-370.785	-7.920	0.062	-0.042
-369.771	106.387	0.085	0.100
-368.756	0.726	0.138	0.098
-367.742	-87.270	-0.241	0.072
-366.727	29.754	-0.174	-0.147
-365.712	-187.990	0.225	0.003
-364.698	-101.257	-0.626	0.152
-363.683	5.644	0.392	-0.287
-362.669	-101.797	-0.308	-0.074
-361.654	-5.132	-0.336	0.229
-360.639	33.463	0.078	0.067
-359.625	-138.554	-0.205	-0.022
-358.610	-200.000	0.022	-0.174
-357.596	800.000	-0.057	-0.196
-356.581	65.028	-0.151	-0.152
-355.566	-127.939	-0.391	0.056
-354.552	-132.163	0.089	0.011
-353.537	800.000	0.122	-0.432
-352.523	-200.000	0.020	0.395
-351.508	-178.128	0.275	0.006
-350.493	-166.073	-0.511	0.022
-349.479	8.181	0.113	-0.084
-348.464	-106.341	-0.058	-0.013
-347.450	420.179	0.068	-0.145
-346.435	109.891	0.359	-0.427
-345.420	-113.330	-0.044	-0.009
-344.406	47.884	0.046	-0.043
-343.391	-57.270	-0.368	-0.160
-342.377	-200.000	-0.023	0.127
-341.362	190.594	-0.093	-0.138
-340.348	192.609	0.071	0.106
-339.333	-103.481	0.366	0.085
-338.318	160.702	-0.116	0.161
-337.304	-200.000	-0.011	-0.173
-336.289	625.886	-0.062	0.156
-335.275	-200.000	0.008	0.111
-334.260	-129.066	0.203	0.028
-333.245	-101.509	0.290	0.070
-332.231	7.869	0.304	0.225
-331.216	-200.000	0.003	0.192
-330.202	394.900	-0.040	-0.083
-329.187	-97.204	-0.092	0.024
-328.172	-200.000	0.040	-0.228
-327.158	-115.942	-0.195	0.036
-326.143	-6.266	-0.094	0.064
-325.129	52.532	0.118	-0.111
-324.114	237.169	0.091	0.149
-323.099	119.519	-0.257	0.315
-322.085	152.944	0.198	0.268
-321.070	443.187	0.106	-0.231
-320.056	447.833	0.104	-0.227
-319.041	-161.807	-0.096	0.005
-318.026	-5.465	-0.111	0.075
-317.012	462.409	0.057	-0.126
-315.997	-141.766	0.160	-0.016
-314.983	-41.619	0.343	-0.174
-313.968	280.442	-0.153	-0.271
-312.953	506.969	-0.072	-0.165
-311.939	-200.000	-0.008	-0.227
-310.924	-12.892	-0.269	-0.173
-309.910	-200.000	-0.007	0.113
-308.895	-84.427	-0.068	0.021
-307.880	-116.616	-0.161	-0.029
-306.866	528.354	0.078	0.183
-305.851	120.968	0.223	0.274
-304.837	-25.831	0.081	0.047
-303.822	-92.578	0.057	-0.016
-302.807	37.233	-0.090	-0.079
-301.793	-7.350	0.031	0.020
-300.778	-200.000	0.044	0.335
-299.764	-25.977	-0.362	0.211
-298.749	154.261	0.166	0.225
-297.735	140.677	0.119	0.155
-296.720	-85.205	-0.174	-0.054
-295.705	800.000	0.020	-0.078
-294.691	-32.065	0.084	-0.046
-293.676	135.515	-0.157	0.202
-292.662	451.553	-0.092	-0.201
-291.647	-81.532	0.112	-0.036
-290.632	-96.447	0.404	-0.105
-289.618	-97.208	-0.141	-0.036
-288.603	-44.004	-0.061	-0.030
-287.589	138.159	0.218	-0.282
-286.574	800.000	0.053	-0.191
-285.559	197.852	-0.083	0.125
-284.545	-95.045	-0.305	0.082
-283.530	-111.453	-0.268	0.054
-282.516	-145.785	-0.296	0.026
-281.501	-173.377	-0.227	-0.007
-280.486	228.507	-0.024	-0.039
-279.472	61.029	0.142	-0.139
-278.457	502.314	0.080	-0.182
-277.443	-200.000	0.017	0.163
-276.428	-66.665	-0.203	0.079
-275.413	-61.811	-0.167	-0.069
-274.399	-101.238	0.060	-0.014
-273.384	-20.902	0.085	0.051
-272.370	150.726	-0.345	0.463
-271.355	-94.591	-0.259	0.070
-270.340	87.131	0.093	-0.101
-269.326	-200.000	-0.001	-0.063
-268.311	-200.000	0.002	-0.183
-267.297	113.761	-0.169	0.202
-266.282	31.134	0.340	0.288
-265.267	-46.843	0.430	0.208
-264.253	-114.814	0.087	0.016
-263.238	-200.000	0.019	0.084
-262.224	-67.864	0.291	-0.112
-261.209	800.000	-0.031	0.107
-260.195	113.181	0.326	-0.391
-259.180	8.395	0.255	-0.190
-258.165	800.000	-0.076	-0.260
-257.151	-130.817	0.238	-0.032
-256.136	-8.168	-0.147	0.098
-255.122	-200.000	-0.076	-0.488
-254.107	292.842	0.085	-0.153
-253.092	121.170	-0.190	-0.234
-252.078	-76.740	0.350	-0.121
-251.063	-200.000	0.010	-0.144
-250.049	-79.760	0.188	0.062
-249.034	800.000	-0.014	-0.050
-248.019	291.808	0.078	0.140
-247.005	188.639	0.119	-0.176
-245.990	800.000	0.068	0.263
-244.976	440.492	-0.037	-0.080
-243.961	-200.000	-0.021	0.135
-242.946	29.698	0.238	-0.200
-241.932	385.529	-0.080	-0.162
-240.917	-146.959	0.186	0.016
-239.903	-34.024	0.293	0.159
-238.888	210.360	0.062	-0.096
-237.873	372.413	-0.110	-0.221
-236.859	-121.423	0.133	-0.022
-235.844	66.893	-0.092	-0.092
-234.830	800.000	-0.078	-0.216
-233.815	-200.000	-0.033	0.153
-232.800	-200.000	-0.025	-0.271
-231.786	-126.316	0.223	-0.033
-230.771	-200.000	0.031	0.262
-229.757	-200.000	-0.023	-0.140
-228.742	800.000	0.088	0.285
-227.727	-123.837	-0.154	-0.024
-226.713	10.848	0.104	0.079
-225.698	-107.032	0.437	0.095
-224.684	-200.000	0.369	-0.000
-223.669	-119.112	0.445	-0.077
-222.655	-16.959	-0.215	-0.134
-221.640	591.174	0.109	0.265
-220.625	334.348	-0.045	-0.085
-219.611	800.000	0.043	-0.168
-218.596	104.020	-0.182	-0.211
-217.582	138.181	-0.004	-0.006
-216.567	-136.937	0.327	-0.037
-215.552	-200.000	0.022	-0.203
-214.538	-19.918	0.379	0.231
-213.523	-22.883	-0.042	-0.025
-212.509	-200.000	-0.015	0.204
-211.494	37.755	0.035	0.031
-210.479	-200.000	-0.024	-0.261
-209.465	218.415	0.128	0.201
-208.450	95.245	-0.023	-0.026
-207.436	165.304	0.071	0.099
-206.421	-200.000	-0.012	0.269
-205.406	-200.000	-0.021	0.163
-204.392	-112.427	-0.131	-0.026
-203.377	-200.000	0.026	0.138
-202.363	800.000	-0.064	0.187
-201.348	800.000	-0.028	-0.107
-200.333	800.000	-0.035	0.130
-199.319	-200.000	0.002	0.131
-198.304	-200.000	0.022	-0.224
-197.290	330.540	-0.082	0.156
-196.275	43.646	0.226	0.204
-195.260	137.806	0.053	0.068
-194.246	106.669	0.238	-0.279
-193.231	-140.194	-0.029	0.003
-192.217	-200.000	0.073	0.333
-191.202	353.018	-0.023	-0.044
-190.187	275.328	-0.082	0.143
-189.173	10.666	0.054	0.041
-188.158	617.959	0.092	0.227
-187.144	-82.379	-0.108	-0.035
-186.129	45.367	0.201	0.182
-185.114	-200.000	-0.034	0.189
-184.100	800.000	0.105	-0.351
-183.085	490.211	-0.136	0.305
-182.071	134.274	0.276	0.352
-181.056	-200.000	-0.058	0.306
-180.042	-200.000	0.091	-0.416
-179.027	259.165	0.175	0.296
-178.012	-200.000	0.104	-0.454
-176.998	-25.200	-0.061	0.036
-175.983	800.000	-0.055	-0.233
-174.969	24.701	0.132	-0.107
-173.954	26.392	0.203	-0.167
-172.939	474.541	-0.205	-0.455
-171.925	-66.855	0.176	-0.069
-170.910	-74.357	-0.193	0.069
-169.896	-92.134	0.062	-0.017
-168.881	-2.231	0.216	-0.149
-167.866	21.951	0.026	0.020
-166.852	148.446	0.224	0.297
-165.837	454.499	-0.056	-0.121
-164.823	4.517	-0.258	-0.186
-163.808	-155.019	-0.200	0.013
-162.793	679.828	0.152	-0.389
-161.779	-103.891	0.597	0.137
-160.764	-200.000	-0.027	-0.279
-159.750	-55.736	-0.317	-0.140
-158.735	59.771	-0.138	0.134
-157.720	-100.289	0.421	0.103
-156.706	-3.405	-0.273	0.187
-155.691	-129.022	-0.431	-0.059
-154.677	270.807	0.053	0.092
-153.662	-53.157	-0.034	-0.015
-152.647	-200.000	0.016	-0.112
-151.633	-12.863	0.207	0.133
-150.618	19.349	-0.248	-0.196
-149.604	7.517	-0.283	0.208
-148.589	-6.243	-0.180	-0.121
-147.574	-200.000	-0.030	-0.406
-146.560	282.592	0.095	0.168
-145.545	-200.000	0.004	0.113
-144.531	63.783	0.113	-0.112
-143.516	800.000	-0.060	-0.179
-142.502	800.000	0.045	-0.145
-141.487	21.457	-0.055	-0.044
-140.472	209.240	0.127	0.196
-139.458	298.950	-0.091	0.164
-138.443	-29.712	0.096	-0.054
-137.429	-142.045	0.047	-0.005
-136.414	755.591	0.107	-0.284
-135.399	-200.000	0.036	-0.467
-134.385	-2.597	0.188	0.129
-133.370	-123.713	-0.283	0.044
-132.356	-76.183	-0.245	0.085
-131.341	-66.298	0.084	0.033
-130.326	67.929	-0.113	0.114
-129.312	101.582	-0.108	0.124
-128.297	143.420	0.217	0.283
-127.283	296.448	-0.294	0.530
-126.268	-96.574	-0.014	-0.004
-125.253	24.366	0.330	0.268
-124.239	258.401	-0.107	-0.182
-123.224	209.460	0.026	0.040
-122.210	38.615	-0.089	-0.078
