DTS Sentinel unit serial number:	SN413079Multiplexer serial number:	ORYXHardware model number:	OX4-SRSoftware version number:	ORYX F/W v4.00 Oryx Data Collector v3.7.2.0data status	okinstallation	princeton_trtdifferential loss correction	single-endedforward channel	channel 1reverse channel	N/Adate	2019/09/12time	06:12:11forward acquisition time	60.00reverse acquisition time	0.00gamma	496.2192k internal	0.2320k external	0.2320temperature offset calibration	1.0043default loss term (dB/km)	0.3790temperature slope calibration	1.0000multiplexer offset coefficient	1.0000multiplexer slope coefficient	1.0000fibre end	0.00T internal ref (°C)	32.12T ext. ref 1 (°C)	1.55T ext. ref 2 (°C)	27.37length (m)	temperature (°C)	Stokes	anti-Stokes-747.200	79.215	0.033	-0.036
-746.185	-200.000	-0.015	0.239
-745.171	-200.000	-0.027	0.291
-744.156	81.367	-0.236	-0.258
-743.142	-96.795	-0.263	-0.070
-742.127	54.604	-0.150	0.146
-741.112	191.930	0.060	0.091
-740.098	800.000	-0.087	0.300
-739.083	-200.000	0.021	0.159
-738.069	265.461	-0.214	0.377
-737.054	218.580	-0.162	0.262
-736.039	108.821	-0.227	-0.274
-735.025	-200.000	-0.040	0.298
-734.010	294.378	0.064	0.119
-732.996	-200.000	0.057	-0.269
-731.981	800.000	-0.069	-0.192
-730.966	-32.800	0.113	-0.063
-729.952	-200.000	0.046	-0.324
-728.937	230.035	-0.047	0.077
-727.923	21.989	-0.389	-0.320
-726.908	-200.000	-0.023	0.262
-725.894	-124.934	-0.340	0.053
-724.879	529.206	-0.024	0.056
-723.864	285.352	-0.081	-0.147
-722.850	189.446	0.092	-0.139
-721.835	101.134	-0.205	-0.241
-720.821	40.159	0.105	-0.096
-719.806	-86.447	-0.320	0.099
-718.791	-200.000	0.047	-0.211
-717.777	-148.256	0.129	-0.011
-716.762	-91.474	-0.446	-0.129
-715.748	342.073	0.157	0.310
-714.733	272.431	0.150	-0.267
-713.718	-200.000	0.046	-0.378
-712.704	-55.264	0.034	-0.016
-711.689	-109.472	-0.101	0.022
-710.675	-73.686	0.223	-0.082
-709.660	160.401	-0.225	-0.317
-708.645	-96.665	0.290	-0.077
-707.631	-56.742	-0.253	0.113
-706.616	-200.000	0.039	0.210
-705.602	17.283	0.210	0.168
-704.587	-44.673	-0.243	0.122
-703.572	-19.756	0.280	-0.175
-702.558	197.414	-0.099	0.153
-701.543	-115.694	0.145	-0.028
-700.529	-113.271	0.296	0.059
-699.514	139.110	-0.173	0.230
-698.499	5.988	-0.340	0.254
-697.485	3.795	0.260	0.192
-696.470	-200.000	0.031	-0.162
-695.456	-200.000	-0.018	-0.147
-694.441	-22.165	-0.238	0.145
-693.426	-14.694	0.257	0.167
-692.412	98.878	0.241	-0.281
-691.397	-200.000	-0.048	-0.246
-690.383	13.457	-0.140	-0.110
-689.368	-120.820	-0.425	0.072
-688.354	421.696	0.033	-0.072
-687.339	-200.000	-0.031	0.162
-686.324	-200.000	0.050	-0.436
-685.310	800.000	-0.053	0.150
-684.295	-151.298	0.286	0.022
-683.281	212.691	-0.084	0.134
-682.266	-109.210	0.190	-0.041
-681.251	302.480	-0.104	0.194
-680.237	-61.700	0.319	0.135
-679.222	333.265	0.033	-0.065
-678.208	-200.000	0.019	-0.143
-677.193	-120.000	-0.133	0.023
-676.178	800.000	0.084	-0.282
-675.164	800.000	-0.086	-0.293
-674.149	398.778	-0.057	-0.121
-673.135	-13.780	-0.380	-0.248
-672.120	-146.426	0.271	-0.024
-671.105	-200.000	0.009	-0.152
-670.091	-35.326	0.307	-0.168
-669.076	189.331	-0.234	-0.354
-668.062	-78.831	-0.026	-0.009
-667.047	-148.735	-0.068	0.006
-666.032	38.287	-0.120	0.108
-665.018	-200.000	0.033	-0.224
-664.003	-200.000	0.017	-0.122
-662.989	-200.000	-0.020	-0.215
-661.974	-81.639	-0.093	-0.031
-660.959	800.000	-0.054	0.174
-659.945	-200.000	0.014	0.072
-658.930	-200.000	0.011	-0.112
-657.916	-52.787	-0.160	0.074
-656.901	242.604	0.022	-0.037
-655.886	379.015	0.021	-0.043
-654.872	-200.000	-0.018	0.166
-653.857	-59.881	-0.257	0.111
-652.843	-125.192	-0.135	0.021
-651.828	331.423	-0.098	0.190
-650.814	-150.309	0.184	-0.014
-649.799	-200.000	0.014	-0.333
-648.784	341.608	-0.138	-0.271
-647.770	-123.848	-0.335	-0.053
-646.755	63.175	0.156	0.158
-645.741	-90.292	-0.195	-0.057
-644.726	-0.726	0.249	0.178
-643.711	35.163	-0.137	0.121
-642.697	-25.373	0.072	0.043
-641.682	-107.471	0.030	-0.007
-640.668	-107.293	0.339	0.075
-639.653	244.642	-0.061	-0.104
-638.638	-28.864	-0.309	-0.179
-637.624	252.725	0.096	-0.164
-636.609	31.886	-0.121	-0.105
-635.595	31.572	0.110	0.095
-634.580	-15.420	0.060	-0.039
-633.565	-16.691	-0.202	0.128
-632.551	113.781	0.079	-0.096
-631.536	320.526	0.027	0.051
-630.522	223.169	-0.146	-0.237
-629.507	800.000	-0.023	-0.083
-628.492	-63.216	0.077	-0.032
-627.478	43.095	0.137	-0.125
-626.463	-15.647	-0.153	0.098
-625.449	-11.558	0.227	0.150
-624.434	729.521	0.112	-0.301
-623.419	-84.573	0.017	0.005
-622.405	800.000	-0.115	0.498
-621.390	-21.089	0.226	-0.139
-620.376	800.000	-0.078	0.276
-619.361	-144.516	-0.099	-0.009
-618.346	-200.000	0.006	-0.055
-617.332	146.805	0.017	0.023
-616.317	342.047	-0.218	0.429
-615.303	-200.000	0.001	-0.191
-614.288	110.640	0.076	0.091
-613.273	236.411	0.078	-0.130
-612.259	800.000	-0.109	-0.468
-611.244	78.949	0.071	-0.077
-610.230	16.762	-0.285	0.226
-609.215	-59.679	-0.271	0.117
-608.201	-200.000	-0.004	-0.241
-607.186	219.541	-0.095	0.152
-606.171	485.280	0.146	0.333
-605.157	-137.341	-0.342	0.039
-604.142	210.783	-0.013	-0.021
-603.128	193.587	-0.070	0.107
-602.113	377.984	0.122	0.250
-601.098	57.568	0.109	0.107
-600.084	-3.847	-0.149	0.104
-599.069	240.892	-0.219	0.368
-598.055	398.422	-0.145	0.304
-597.040	15.620	-0.119	0.094
-596.025	-200.000	0.051	0.247
-595.011	114.283	-0.165	-0.202
-593.996	-15.098	0.154	-0.099
-592.982	10.768	-0.027	-0.021
-591.967	-200.000	0.020	-0.162
-590.952	-13.182	0.217	-0.142
-589.938	800.000	-0.041	0.126
-588.923	169.468	0.008	-0.012
-587.909	-200.000	-0.031	0.268
-586.894	54.047	-0.250	0.241
-585.879	-118.167	0.293	-0.052
-584.865	523.574	0.214	-0.506
-583.850	800.000	0.119	-0.348
-582.836	800.000	0.013	-0.039
-581.821	219.638	0.085	-0.136
-580.806	282.057	-0.043	-0.077
-579.792	-144.473	0.123	-0.011
-578.777	619.954	0.063	0.159
-577.763	-200.000	0.004	-0.197
-576.748	-103.490	0.148	-0.035
-575.733	-200.000	-0.014	-0.246
-574.719	-180.560	0.300	-0.006
-573.704	-130.235	-0.273	0.037
-572.690	685.357	-0.047	0.123
-571.675	-180.199	0.109	0.002
-570.661	-200.000	0.026	0.116
-569.646	-124.948	0.112	0.017
-568.631	-109.424	0.189	0.040
-567.617	-200.000	0.051	-0.285
-566.602	174.948	-0.114	-0.166
-565.588	-147.694	-0.054	-0.005
-564.573	65.554	0.215	-0.218
-563.558	-200.000	-0.004	0.259
-562.544	-169.934	0.203	0.007
-561.529	-200.000	-0.032	0.220
-560.515	281.693	0.108	-0.195
-559.500	-66.562	-0.447	-0.178
-558.485	674.785	0.010	-0.027
-557.471	-89.733	0.086	0.025
-556.456	164.357	0.030	0.043
-555.442	62.717	0.395	-0.396
-554.427	-200.000	-0.008	-0.118
-553.412	-109.492	-0.207	0.044
-552.398	-200.000	0.033	0.155
-551.383	-200.000	0.020	0.434
-550.369	162.222	-0.227	-0.319
-549.354	143.741	-0.129	-0.172
-548.339	-200.000	0.016	-0.175
-547.325	800.000	-0.084	0.262
-546.310	-129.181	-0.102	0.014
-545.296	-103.970	0.088	-0.021
-544.281	-71.934	0.365	0.136
-543.266	-12.605	-0.307	-0.201
-542.252	-85.763	0.148	0.046
-541.237	-200.000	0.017	-0.335
-540.223	800.000	0.063	-0.232
-539.208	43.029	-0.262	0.240
-538.193	26.959	-0.177	-0.149
-537.179	800.000	0.042	-0.176
-536.164	-112.997	0.327	0.065
-535.150	-8.499	-0.414	-0.279
-534.135	-8.241	-0.275	0.186
-533.121	-0.834	-0.237	-0.168
-532.106	-200.000	0.040	0.280
-531.091	-60.245	-0.301	0.129
-530.077	-200.000	0.093	0.410
-529.062	800.000	0.033	0.128
-528.048	518.652	-0.073	-0.171
-527.033	96.677	0.173	0.199
-526.018	116.036	-0.270	0.332
-525.004	-89.059	-0.428	0.127
-523.989	-153.470	0.217	-0.015
-522.975	-200.000	-0.024	-0.338
-521.960	-200.000	0.012	-0.069
-520.945	81.394	0.334	0.362
-519.931	307.844	-0.014	-0.026
-518.916	12.243	-0.304	0.235
-517.902	-168.803	-0.464	0.018
-516.887	56.678	0.224	0.219
-515.872	-69.087	0.313	-0.121
-514.858	-45.311	-0.166	0.083
-513.843	-125.583	-0.275	-0.042
-512.829	221.715	-0.165	-0.266
-511.814	-29.248	-0.275	-0.158
-510.799	-8.735	-0.270	0.181
-509.785	226.426	0.113	0.184
-508.770	177.254	-0.251	0.367
-507.756	-137.674	0.050	0.006
-506.741	359.105	-0.077	-0.154
-505.726	-200.000	-0.017	-0.273
-504.712	-149.406	0.351	-0.028
-503.697	800.000	-0.086	0.321
-502.683	-54.528	0.311	-0.141
-501.668	139.329	0.189	-0.249
-500.653	109.796	0.130	-0.156
-499.639	-200.000	-0.000	0.040
-498.624	-200.000	-0.010	-0.142
-497.610	-21.056	-0.092	0.057
-496.595	800.000	0.015	-0.053
-495.581	-133.232	-0.235	0.030
-494.566	-200.000	0.024	0.136
-493.551	282.327	0.190	-0.342
-492.537	240.264	0.048	-0.079
-491.522	203.324	-0.081	0.125
-490.508	347.892	0.182	-0.359
-489.493	-200.000	-0.053	-0.249
-488.478	-135.567	0.107	0.013
-487.464	-40.800	-0.058	0.030
-486.449	-200.000	-0.006	0.102
-485.435	541.652	-0.058	0.138
-484.420	-121.454	-0.217	0.036
-483.405	-36.845	0.194	-0.104
-482.391	800.000	0.046	-0.155
-481.376	-123.919	0.223	0.035
-480.362	100.315	-0.194	0.225
-479.347	-200.000	-0.038	-0.265
-478.332	108.847	-0.124	-0.148
-477.318	79.232	0.119	0.128
-476.303	-19.519	0.086	0.054
-475.289	329.746	-0.093	-0.179
-474.274	-167.153	-0.108	0.004
-473.259	-47.785	-0.124	-0.060
-472.245	261.163	0.035	-0.061
-471.230	265.504	0.108	-0.188
-470.216	28.449	0.167	-0.141
-469.201	162.835	-0.149	-0.209
-468.186	116.055	-0.126	-0.154
-467.172	25.226	0.177	0.147
-466.157	-17.536	0.063	0.040
-465.143	-197.460	0.329	-0.002
-464.128	121.899	0.215	0.268
-463.113	332.491	0.125	0.240
-462.099	-59.922	0.051	-0.022
-461.084	-39.124	0.108	0.057
-460.070	82.163	0.028	0.030
-459.055	800.000	0.014	-0.045
-458.040	196.605	0.168	0.255
-457.026	-200.000	0.015	0.130
-456.011	800.000	-0.039	-0.144
-454.997	-35.968	0.482	-0.260
-453.982	-70.410	-0.229	-0.087
-452.968	800.000	-0.082	0.320
-451.953	-200.000	0.016	0.185
-450.938	-81.387	0.264	0.087
-449.924	94.470	0.302	0.343
-448.909	256.949	0.092	0.159
-447.895	-48.070	-0.200	0.097
-446.880	-75.009	0.182	-0.065
-445.865	-200.000	0.036	-0.168
-444.851	800.000	-0.090	0.315
-443.836	-200.000	0.037	0.352
-442.822	178.947	0.124	-0.181
-441.807	-93.713	0.175	-0.048
-440.792	-54.013	0.050	0.023
-439.778	-45.162	0.238	-0.118
-438.763	401.264	-0.164	-0.345
-437.749	359.637	-0.068	-0.135
-436.734	-39.602	-0.183	0.095
-435.719	576.275	0.081	-0.199
-434.705	7.173	-0.166	-0.123
-433.690	390.674	0.155	0.322
-432.676	193.124	-0.154	0.233
-431.661	-112.058	0.036	-0.007
-430.646	222.879	0.155	-0.249
-429.632	-200.000	0.084	-0.434
-428.617	507.213	-0.082	-0.190
-427.603	296.993	0.031	0.057
-426.588	-120.841	0.062	0.010
-425.573	-77.446	-0.181	0.063
-424.559	222.133	0.069	-0.112
-423.544	-50.439	0.204	0.096
-422.530	167.748	0.123	-0.175
-421.515	11.499	0.209	-0.160
-420.500	18.166	-0.083	0.066
-419.486	-30.433	-0.223	-0.126
-418.471	-200.000	0.059	0.259
-417.457	-176.364	0.397	-0.010
-416.442	87.840	0.243	-0.269
-415.428	-59.307	-0.223	-0.096
-414.413	-127.075	-0.399	0.058
-413.398	-39.750	0.438	0.229
-412.384	54.541	-0.339	-0.326
-411.369	25.726	-0.082	-0.068
-410.355	-200.000	0.023	0.135
-409.340	-68.161	0.097	-0.038
-408.325	-147.249	0.322	0.027
-407.311	64.058	0.306	-0.307
-406.296	20.878	-0.215	0.174
-405.282	-72.200	0.349	0.129
-404.267	215.647	0.074	-0.117
-403.252	96.384	-0.129	-0.148
-402.238	166.855	-0.174	-0.247
-401.223	-136.772	0.166	0.019
-400.209	-109.420	-0.135	-0.028
-399.194	-200.000	-0.051	0.227
-398.179	-31.363	0.327	0.184
-397.165	39.237	-0.077	0.069
-396.150	800.000	0.056	-0.195
-395.136	-11.434	0.357	-0.234
-394.121	800.000	0.122	-0.382
-393.106	-200.000	-0.010	-0.402
-392.092	-9.829	-0.128	-0.085
-391.077	-110.087	-0.192	-0.040
-390.063	-200.000	-0.033	-0.251
-389.048	676.294	0.098	0.254
-388.033	-200.000	0.024	0.154
-387.019	-107.237	-0.164	0.036
-386.004	-40.416	0.176	-0.091
-384.990	10.059	-0.161	-0.122
-383.975	-123.985	0.126	0.020
-382.960	515.076	-0.063	-0.147
-381.946	-16.011	0.227	0.144
-380.931	800.000	-0.029	-0.084
-379.917	25.215	0.108	-0.089
-378.902	140.441	0.089	0.117
-377.888	27.175	0.339	0.284
-376.873	-200.000	-0.022	0.141
-375.858	-58.518	-0.168	-0.073
-374.844	22.058	-0.281	0.228
-373.829	-9.838	0.151	0.100
-372.815	-148.247	0.032	0.003
-371.800	-27.597	0.372	0.215
-370.785	800.000	0.049	0.191
-369.771	200.424	-0.068	0.104
-368.756	13.783	-0.200	-0.155
-367.742	-44.680	-0.272	-0.135
-366.727	258.162	-0.189	-0.325
-365.712	-73.684	-0.203	-0.074
-364.698	-200.000	0.009	-0.079
-363.683	-47.129	-0.359	0.174
-362.669	356.738	0.131	0.260
-361.654	800.000	0.035	-0.123
-360.639	296.392	0.085	0.154
-359.625	-91.458	0.369	0.105
-358.610	168.620	-0.163	0.231
-357.596	109.694	-0.124	0.148
-356.581	161.321	0.103	-0.143
-355.566	-37.096	-0.355	-0.189
-354.552	800.000	0.101	0.359
-353.537	330.295	0.059	0.113
-352.523	246.539	0.180	-0.302
-351.508	60.458	0.085	-0.084
-350.493	800.000	-0.072	-0.227
-349.479	-90.732	-0.287	0.083
-348.464	511.269	0.036	-0.083
-347.450	-66.805	0.096	0.038
-346.435	-200.000	-0.016	0.171
-345.420	338.038	-0.112	0.216
-344.406	121.990	0.139	0.173
-343.391	180.967	-0.178	0.261
-342.377	-15.175	0.042	0.027
-341.362	2.319	-0.081	0.059
-340.348	309.612	-0.096	0.178
-339.333	-200.000	-0.008	-0.141
-338.318	351.936	-0.153	0.302
-337.304	-54.819	-0.305	0.137
-336.289	-200.000	0.024	0.185
-335.275	69.194	0.129	0.132
-334.260	77.209	-0.130	0.137
-333.245	-200.000	0.008	-0.050
-332.231	6.579	0.253	-0.187
-331.216	-200.000	-0.001	-0.237
-330.202	214.584	0.180	0.283
-329.187	-135.433	-0.081	-0.010
-328.172	-200.000	-0.022	-0.346
-327.158	-77.740	-0.081	-0.028
-326.143	-82.645	-0.254	0.082
-325.129	-39.114	0.405	0.212
-324.114	650.357	0.137	-0.349
-323.099	-200.000	-0.009	0.063
-322.085	136.917	0.196	-0.255
-321.070	748.328	-0.144	-0.385
-320.056	-126.666	-0.096	-0.014
-319.041	89.183	-0.127	-0.140
-318.026	169.214	-0.172	-0.244
-317.012	-102.060	-0.056	-0.013
-315.997	152.067	-0.125	-0.170
-314.983	-18.809	-0.154	-0.095
-313.968	-200.000	-0.008	0.175
-312.953	-91.606	-0.101	-0.029
-311.939	91.905	-0.047	-0.052
-310.924	-200.000	0.007	0.294
-309.910	-20.435	0.256	-0.156
-308.895	47.245	0.214	-0.198
-307.880	-144.868	-0.169	0.015
-306.866	79.451	0.195	-0.208
-305.851	-200.000	0.001	-0.279
-304.837	800.000	0.039	0.122
-303.822	-65.541	0.153	-0.061
-302.807	-139.396	-0.275	-0.029
-301.793	-75.517	-0.114	0.040
-300.778	123.192	-0.103	0.128
-299.764	37.690	-0.126	-0.111
-298.749	614.049	-0.119	0.297
-297.735	-80.325	-0.186	-0.062
-296.720	-200.000	-0.023	0.149
-295.705	423.704	-0.100	-0.213
-294.691	29.551	0.175	0.148
-293.676	-33.477	0.165	-0.091
-292.662	-122.174	-0.341	-0.055
-291.647	-156.606	0.368	0.023
-290.632	499.580	-0.107	-0.246
-289.618	281.748	-0.100	-0.178
-288.603	-43.349	-0.250	0.126
-287.589	-134.750	-0.164	0.020
-286.574	-12.927	0.223	0.144
-285.559	356.309	-0.060	-0.118
-284.545	-55.578	0.155	0.069
-283.530	-63.261	0.187	0.076
-282.516	30.188	0.208	-0.177
-281.501	-93.457	0.287	-0.079
-280.486	-200.000	-0.055	-0.298
-279.472	-200.000	0.020	0.102
-278.457	104.228	0.207	-0.242
-277.443	-3.313	0.169	0.117
-276.428	-200.000	0.034	-0.175
-275.413	-68.681	-0.141	0.054
-274.399	652.453	-0.193	-0.492
-273.384	-200.000	0.002	0.130
-272.370	-200.000	0.008	0.138
-271.355	520.602	0.081	-0.189
-270.340	-162.067	0.131	0.007
-269.326	476.401	-0.121	0.270
-268.311	71.382	-0.244	0.251
-267.297	-79.895	-0.260	-0.087
-266.282	-200.000	-0.056	-0.307
-265.267	-31.919	-0.108	0.060
-264.253	306.377	-0.093	-0.172
-263.238	-146.893	-0.157	-0.013
-262.224	-29.763	0.126	0.072
-261.209	-76.263	0.283	-0.099
-260.195	-200.000	-0.245	0.000
-259.180	114.745	0.220	-0.266
-258.165	800.000	-0.036	0.149
-257.151	-80.796	-0.157	0.052
-256.136	-144.392	0.421	0.039
-255.122	-143.640	0.403	0.038
-254.107	800.000	-0.069	0.205
-253.092	-82.584	-0.207	0.066
-252.078	-20.439	-0.285	0.174
-251.063	155.686	-0.113	-0.154
-250.049	-200.000	-0.003	0.038
-249.034	-110.238	-0.327	0.067
-248.019	9.676	0.326	-0.245
-247.005	-200.000	-0.014	-0.210
-245.990	800.000	0.038	0.135
-244.976	-200.000	0.004	-0.048
-243.961	21.687	-0.340	-0.274
-242.946	-47.744	0.146	-0.070
-241.932	620.902	0.016	-0.041
-240.917	-200.000	0.051	-0.276
-239.903	53.739	-0.142	-0.135
-238.888	-200.000	0.026	0.229
-237.873	-138.483	0.273	-0.030
-236.859	16.647	-0.335	-0.263
-235.844	-200.000	-0.001	0.203
-234.830	84.914	-0.111	0.121
-233.815	-200.000	0.080	0.524
-232.800	-46.401	-0.235	0.114
-231.786	776.474	-0.097	0.262
-230.771	3.153	-0.021	-0.015
-229.757	403.567	0.038	-0.079
-228.742	384.447	-0.029	-0.060
-227.727	112.755	0.122	-0.147
-226.713	69.153	0.244	0.249
-225.698	219.782	0.183	-0.290
-224.684	217.814	-0.172	0.271
-223.669	800.000	0.093	0.289
-222.655	718.004	-0.140	-0.367
-221.640	209.626	-0.064	-0.100
-220.625	25.098	-0.223	0.184
-219.611	302.880	0.094	0.172
-218.596	-40.414	-0.162	0.083
-217.582	72.037	0.117	0.120
-216.567	139.992	0.159	-0.208
-215.552	-105.033	-0.308	-0.070
-214.538	-19.256	0.241	-0.148
-213.523	200.481	0.121	-0.184
-212.509	-177.478	0.199	0.005
-211.494	453.558	-0.148	0.324
-210.479	465.293	0.041	-0.091
-209.465	317.439	-0.091	0.170
-208.450	-131.225	0.059	0.008
-207.436	-183.297	0.130	0.002
-206.421	69.814	-0.196	-0.200
-205.406	-74.011	0.119	0.043
-204.392	-56.500	-0.185	-0.081
-203.377	56.268	0.026	0.025
-202.363	106.121	0.138	-0.161
-201.348	-200.000	-0.032	0.313
-200.333	43.891	0.132	0.120
-199.319	274.368	0.104	0.182
-198.304	-80.844	0.113	0.037
-197.290	-178.116	-0.305	0.007
-196.275	341.337	-0.169	0.328
-195.260	-93.677	0.186	0.051
-194.246	-135.850	-0.208	-0.024
-193.231	-24.049	-0.415	-0.246
-192.217	800.000	-0.155	0.446
-191.202	55.512	0.226	-0.217
-190.187	800.000	0.094	-0.302
-189.173	258.004	0.077	-0.130
-188.158	-200.000	0.007	0.078
-187.144	-200.000	-0.103	0.448
-186.129	260.883	0.071	0.122
-185.114	-121.536	-0.134	-0.022
-184.100	14.823	0.127	0.098
-183.085	-200.000	0.000	0.364
-182.071	107.866	0.180	-0.212
-181.056	-200.000	0.029	0.362
-180.042	196.723	0.209	-0.315
-179.027	637.886	0.098	-0.246
-178.012	-125.099	-0.240	0.036
-176.998	11.145	0.153	-0.116
-175.983	800.000	0.015	-0.061
-174.969	26.028	0.215	-0.177
-173.954	-191.309	-0.139	-0.001
-172.939	800.000	0.058	-0.201
-171.925	-144.156	-0.402	-0.037
-170.910	-200.000	0.037	0.433
-169.896	-40.210	0.347	0.178
-168.881	80.694	-0.118	0.126
-167.866	332.727	0.108	0.207
-166.852	-82.503	-0.365	-0.117
-165.837	93.876	0.186	0.208
-164.823	121.667	-0.227	0.280
-163.808	-15.713	0.280	0.177
-162.793	4.171	0.054	0.039
-161.779	-14.183	-0.114	-0.073
-160.764	-200.000	-0.025	0.416
-159.750	-11.933	-0.223	-0.145
-158.735	-0.805	0.334	-0.234
-157.720	-200.000	0.041	0.444
-156.706	-19.950	-0.248	-0.151
-155.691	106.768	-0.172	0.202
-154.677	800.000	0.030	0.124
-153.662	-200.000	0.018	0.223
-152.647	-74.319	-0.123	0.044
-151.633	-81.961	0.230	0.074
-150.618	800.000	-0.076	-0.285
-149.604	44.646	-0.098	-0.089
-148.589	-200.000	-0.012	-0.258
-147.574	-200.000	0.028	-0.222
-146.560	-200.000	0.010	-0.169
-145.545	162.264	0.167	0.231
-144.531	-103.060	0.100	0.023
-143.516	-200.000	0.006	-0.236
-142.502	800.000	0.007	0.031
-141.487	-196.050	-0.480	-0.003
-140.472	-18.118	0.269	0.166
-139.458	603.376	0.069	-0.168
-138.443	32.597	0.356	-0.304
-137.429	-151.994	-0.090	-0.006
-136.414	-146.426	0.146	-0.013
-135.399	110.188	-0.097	-0.115
-134.385	288.901	0.065	0.117
-133.370	-200.000	0.039	0.188
-132.356	-43.875	-0.230	-0.114
-131.341	52.207	-0.312	-0.293
-130.326	82.856	-0.140	-0.150
-129.312	-200.000	-0.043	0.205
-128.297	-31.339	-0.443	0.246
-127.283	-42.003	0.018	0.009
-126.268	-200.000	0.041	0.329
-125.253	1.042	0.207	-0.147
-124.239	-74.546	0.084	0.030
-123.224	-175.807	0.087	-0.002
-122.210	800.000	-0.067	0.202
-121.195	-155.785	-0.258	0.016
