DTS Sentinel unit serial number:	SN413079Multiplexer serial number:	ORYXHardware model number:	OX4-SRSoftware version number:	ORYX F/W v4.00 Oryx Data Collector v3.7.2.0data status	okinstallation	princeton_trtdifferential loss correction	single-endedforward channel	channel 1reverse channel	N/Adate	2019/09/18time	20:22:35forward acquisition time	60.00reverse acquisition time	0.00gamma	496.2192k internal	0.2333k external	0.2333temperature offset calibration	1.0022default loss term (dB/km)	0.3790temperature slope calibration	1.0000multiplexer offset coefficient	1.0000multiplexer slope coefficient	1.0000fibre end	0.00T internal ref (°C)	28.77T ext. ref 1 (°C)	0.85T ext. ref 2 (°C)	19.51length (m)	temperature (°C)	Stokes	anti-Stokes-747.200	70.725	0.211	-0.220
-746.185	-110.692	0.213	0.044
-745.171	-200.000	-0.009	-0.045
-744.156	27.080	-0.125	0.105
-743.142	-200.000	-0.009	-0.139
-742.127	-200.000	-0.030	0.275
-741.112	-20.823	0.132	-0.081
-740.098	800.000	0.042	0.154
-739.083	38.232	-0.342	0.306
-738.069	3.200	-0.181	0.133
-737.054	40.289	-0.289	-0.261
-736.039	-198.670	0.215	-0.001
-735.025	-177.532	0.317	-0.008
-734.010	-200.000	0.020	0.193
-732.996	-73.897	0.371	0.135
-731.981	192.091	0.214	-0.324
-730.966	83.299	0.058	-0.064
-729.952	255.232	0.124	0.213
-728.937	-172.177	-0.439	0.014
-727.923	-200.000	-0.019	0.263
-726.908	800.000	-0.050	0.213
-725.894	70.465	-0.355	-0.369
-724.879	-6.436	-0.279	-0.191
-723.864	-109.422	-0.259	-0.055
-722.850	800.000	-0.081	-0.352
-721.835	-200.000	-0.052	0.336
-720.821	-40.174	-0.175	-0.091
-719.806	-200.000	-0.057	-0.665
-718.791	-200.000	0.010	0.091
-717.777	-200.000	0.031	-0.282
-716.762	-195.980	0.198	-0.001
-715.748	-78.121	0.173	-0.060
-714.733	-200.000	-0.027	-0.227
-713.718	197.178	0.077	-0.117
-712.704	-1.768	-0.197	-0.139
-711.689	-179.266	0.226	0.005
-710.675	593.412	-0.047	-0.117
-709.660	274.430	0.165	-0.294
-708.645	150.188	-0.131	-0.179
-707.631	152.535	-0.098	0.135
-706.616	753.625	0.056	0.152
-705.602	46.462	0.134	0.125
-704.587	-181.922	0.183	0.003
-703.572	-84.050	0.121	-0.039
-702.558	-76.485	0.117	0.041
-701.543	-64.160	0.213	-0.087
-700.529	-22.646	-0.243	0.148
-699.514	127.332	0.242	-0.308
-698.499	30.652	0.178	0.153
-697.485	-200.000	-0.020	-0.092
-696.470	209.147	0.204	-0.321
-695.456	-37.150	0.330	-0.177
-694.441	59.934	-0.152	0.151
-693.426	-84.839	0.319	0.101
-692.412	160.396	0.117	0.164
-691.397	-46.740	0.102	0.050
-690.383	800.000	-0.221	-0.624
-689.368	-200.000	-0.015	-0.203
-688.354	13.082	0.144	0.111
-687.339	-14.746	0.133	-0.085
-686.324	59.043	0.205	0.202
-685.310	188.076	0.126	-0.188
-684.295	-185.055	0.024	0.000
-683.281	-200.000	-0.013	-0.095
-682.266	-165.230	0.233	-0.010
-681.251	-65.374	0.186	-0.075
-680.237	-200.000	0.003	0.156
-679.222	-5.480	0.139	-0.096
-678.208	-2.340	-0.171	0.120
-677.193	-131.408	-0.643	0.085
-676.178	345.067	0.079	-0.156
-675.164	-200.000	-0.023	-0.408
-674.149	800.000	0.083	-0.270
-673.135	-200.000	0.049	0.279
-672.120	-167.798	-0.062	-0.002
-671.105	800.000	0.064	-0.181
-670.091	-115.318	0.104	-0.020
-669.076	219.747	0.172	-0.277
-668.062	-135.882	0.208	-0.025
-667.047	-27.948	-0.256	-0.149
-666.032	-200.000	0.023	0.337
-665.018	800.000	-0.066	0.282
-664.003	25.615	0.507	-0.423
-662.989	-200.000	0.030	-0.318
-661.974	-100.047	0.093	0.023
-660.959	-8.373	-0.395	-0.266
-659.945	-200.000	0.024	-0.142
-658.930	800.000	0.060	-0.192
-657.916	235.773	-0.048	-0.079
-656.901	-200.000	0.049	0.321
-655.886	82.448	-0.086	-0.094
-654.872	34.780	0.189	-0.166
-653.857	107.704	0.176	-0.210
-652.843	800.000	0.011	-0.033
-651.828	99.541	-0.204	0.237
-650.814	-106.011	-0.133	0.030
-649.799	639.432	-0.073	-0.185
-648.784	-200.000	-0.022	-0.197
-647.770	97.517	-0.144	0.165
-646.755	-200.000	-0.020	0.184
-645.741	-110.374	-0.152	-0.032
-644.726	292.808	-0.081	-0.147
-643.711	417.128	0.130	0.279
-642.697	-125.781	-0.135	-0.020
-641.682	800.000	-0.118	-0.393
-640.668	352.284	0.022	-0.044
-639.653	142.158	-0.156	0.208
-638.638	158.239	0.190	-0.264
-637.624	800.000	0.035	0.100
-636.609	-13.338	-0.333	-0.217
-635.595	294.149	-0.048	-0.088
-634.580	-200.000	0.003	-0.234
-633.565	-124.581	0.091	0.014
-632.551	210.728	0.169	-0.266
-631.536	230.817	-0.147	-0.241
-630.522	-39.236	0.170	0.089
-629.507	-200.000	-0.031	0.217
-628.492	43.465	0.073	-0.066
-627.478	-200.000	0.000	-0.218
-626.463	-200.000	-0.068	-0.333
-625.449	23.835	-0.182	-0.150
-624.434	-200.000	0.073	0.355
-623.419	-60.701	-0.210	-0.089
-622.405	51.571	0.081	-0.077
-621.390	100.771	0.166	0.193
-620.376	280.928	-0.095	0.170
-619.361	39.170	-0.246	-0.221
-618.346	-150.056	0.092	-0.007
-617.332	140.689	-0.133	0.176
-616.317	-126.897	0.238	-0.035
-615.303	-166.879	-0.179	-0.007
-614.288	241.141	0.109	-0.182
-613.273	-200.000	-0.024	0.189
-612.259	40.898	-0.168	-0.152
-611.244	100.593	0.161	0.187
-610.230	249.125	-0.215	-0.364
-609.215	-157.654	-0.118	-0.007
-608.201	161.577	-0.177	0.248
-607.186	116.891	0.117	0.143
-606.171	98.971	-0.276	0.318
-605.157	-92.784	0.242	-0.068
-604.142	800.000	0.045	0.171
-603.128	-166.603	0.087	-0.004
-602.113	-185.698	-0.189	-0.003
-601.098	-200.000	0.044	-0.257
-600.084	-200.000	0.008	-0.293
-599.069	111.763	-0.118	0.143
-598.055	-4.099	0.213	-0.147
-597.040	255.196	-0.233	0.399
-596.025	-24.740	-0.052	-0.031
-595.011	24.430	0.111	0.092
-593.996	-92.931	0.243	-0.068
-592.982	-133.508	-0.066	-0.008
-591.967	-200.000	-0.037	0.288
-590.952	-124.340	0.309	-0.048
-589.938	-200.000	-0.066	-0.353
-588.923	158.661	0.135	0.188
-587.909	394.706	0.103	-0.215
-586.894	46.983	-0.216	0.201
-585.879	83.126	-0.256	-0.278
-584.865	501.214	-0.112	0.258
-583.850	545.024	-0.053	-0.126
-582.836	-127.906	0.265	-0.038
-581.821	292.593	0.064	0.117
-580.806	800.000	-0.014	0.057
-579.792	800.000	-0.081	-0.236
-578.777	328.478	-0.213	-0.408
-577.763	-20.362	-0.280	-0.172
-576.748	122.220	-0.138	-0.173
-575.733	-153.969	0.233	0.016
-574.719	-23.073	-0.262	0.158
-573.704	-200.000	0.010	-0.166
-572.690	242.919	0.255	-0.426
-571.675	-151.678	-0.077	-0.006
-570.661	-31.999	-0.271	-0.152
-569.646	800.000	0.043	-0.129
-568.631	-148.912	0.154	-0.012
-567.617	-93.727	-0.385	0.106
-566.602	264.695	-0.189	0.328
-565.588	-159.861	0.233	0.013
-564.573	-109.312	0.168	-0.036
-563.558	480.530	0.061	-0.138
-562.544	434.852	0.075	-0.164
-561.529	-200.000	-0.029	-0.290
-560.515	135.641	0.238	-0.309
-559.500	327.062	0.013	0.025
-558.485	-200.000	0.022	-0.334
-557.471	-22.362	-0.154	0.093
-556.456	133.896	0.054	-0.070
-555.442	800.000	-0.086	-0.337
-554.427	-108.395	0.241	0.052
-553.412	0.938	0.167	0.119
-552.398	61.132	0.165	-0.164
-551.383	-81.347	0.377	0.124
-550.369	120.941	-0.063	-0.078
-549.354	194.644	-0.111	-0.168
-548.339	337.420	0.065	-0.127
-547.325	-36.300	-0.231	0.124
-546.310	83.052	-0.123	-0.134
-545.296	-63.374	0.228	0.094
-544.281	-51.216	-0.167	-0.078
-543.266	141.569	-0.019	0.025
-542.252	18.090	0.102	-0.081
-541.237	333.544	-0.009	-0.018
-540.223	-200.000	0.015	0.350
-539.208	367.342	-0.193	0.389
-538.193	-55.452	0.118	-0.053
-537.179	41.893	-0.110	0.099
-536.164	-3.351	-0.091	0.063
-535.150	100.269	0.129	-0.149
-534.135	459.744	-0.067	-0.149
-533.121	800.000	0.115	0.330
-532.106	-65.760	0.317	-0.127
-531.091	31.849	-0.184	0.158
-530.077	-35.804	0.426	-0.230
-529.062	800.000	0.056	0.193
-528.048	105.075	-0.279	-0.329
-527.033	-200.000	-0.052	-0.241
-526.018	-3.920	-0.106	-0.073
-525.004	-200.000	0.007	-0.234
-523.989	127.604	0.131	-0.166
-522.975	-200.000	0.120	-0.619
-521.960	21.356	0.097	0.078
-520.945	-67.875	0.503	-0.196
-519.931	-200.000	-0.073	0.405
-518.916	106.106	0.194	0.229
-517.902	756.075	-0.036	0.096
-516.887	-200.000	0.002	0.132
-515.872	291.643	0.271	0.491
-514.858	-16.279	0.266	-0.168
-513.843	289.444	0.134	0.242
-512.829	757.443	-0.108	0.290
-511.814	-200.000	-0.016	0.121
-510.799	8.015	-0.021	0.016
-509.785	-181.484	-0.187	0.004
-508.770	-109.009	-0.144	0.031
-507.756	-163.211	0.725	-0.035
-506.741	230.382	-0.108	0.177
-505.726	-60.184	-0.108	0.046
-504.712	-33.528	-0.194	0.107
-503.697	69.389	-0.206	-0.212
-502.683	282.195	0.176	-0.315
-501.668	112.358	-0.161	0.194
-500.653	-86.270	0.491	-0.151
-499.639	-26.549	-0.231	-0.135
-498.624	800.000	0.114	-0.371
-497.610	-200.000	0.005	-0.028
-496.595	-26.710	0.141	0.082
-495.581	-85.576	-0.111	-0.034
-494.566	-113.035	0.004	0.001
-493.551	-200.000	0.066	0.399
-492.537	100.102	-0.168	0.194
-491.522	8.970	-0.288	0.216
-490.508	-200.000	0.061	0.346
-489.493	-200.000	-0.036	0.203
-488.478	213.705	-0.142	0.224
-487.464	-200.000	0.047	0.217
-486.449	405.542	-0.184	0.386
-485.435	-52.840	-0.211	0.097
-484.420	800.000	0.167	-0.535
-483.405	-157.017	-0.192	0.012
-482.391	-200.000	-0.009	0.151
-481.376	-141.887	0.225	-0.022
-480.362	-200.000	0.015	0.142
-479.347	-177.794	-0.338	0.008
-478.332	95.191	0.179	0.203
-477.318	60.198	0.083	0.082
-476.303	-90.672	-0.259	-0.075
-475.289	-39.767	0.246	-0.128
-474.274	-200.000	-0.010	0.150
-473.259	-69.182	0.293	-0.112
-472.245	-21.271	-0.152	0.093
-471.230	-200.000	-0.017	0.280
-470.216	232.420	-0.177	-0.289
-469.201	800.000	-0.022	0.079
-468.186	-23.837	-0.363	-0.216
-467.172	-153.449	-0.180	-0.012
-466.157	-200.000	-0.028	-0.332
-465.143	-141.964	0.061	0.006
-464.128	800.000	-0.092	-0.329
-463.113	-200.000	0.055	0.282
-462.099	220.511	-0.259	0.412
-461.084	-117.394	0.118	-0.021
-460.070	-200.000	0.012	0.139
-459.055	-142.301	-0.415	-0.041
-458.040	258.312	-0.083	0.142
-457.026	-29.362	-0.078	-0.044
-456.011	-200.000	0.032	-0.196
-454.997	-16.611	-0.118	-0.074
-453.982	255.235	0.079	0.134
-452.968	112.558	-0.153	0.184
-451.953	-122.125	0.259	0.042
-450.938	-67.240	-0.140	0.055
-449.924	-200.000	0.063	-0.305
-448.909	84.154	0.060	-0.066
-447.895	436.126	0.125	0.270
-446.880	12.338	-0.036	-0.028
-445.865	-200.000	-0.033	0.237
-444.851	56.076	0.172	0.166
-443.836	-29.658	-0.314	0.178
-442.822	-200.000	0.007	-0.204
-441.807	-59.772	-0.068	-0.029
-440.792	-93.615	-0.198	-0.054
-439.778	5.305	-0.103	-0.076
-438.763	-200.000	0.040	0.257
-437.749	800.000	-0.034	-0.114
-436.734	576.674	-0.116	-0.281
-435.719	-200.000	-0.010	-0.319
-434.705	-38.190	-0.163	-0.086
-433.690	398.701	-0.099	0.207
-432.676	-15.884	0.070	-0.044
-431.661	-36.425	0.286	0.153
-430.646	-172.011	0.067	-0.002
-429.632	-5.835	0.060	-0.041
-428.617	-141.427	0.080	-0.008
-427.603	178.566	0.083	0.121
-426.588	-200.000	0.030	-0.186
-425.573	-200.000	0.019	-0.183
-424.559	54.523	0.045	-0.043
-423.544	-73.000	-0.165	0.060
-422.530	224.383	-0.153	0.246
-421.515	-134.240	-0.290	0.035
-420.500	-134.552	-0.353	-0.043
-419.486	-27.436	0.265	-0.153
-418.471	14.830	0.205	0.159
-417.457	-200.000	-0.018	0.290
-416.442	20.221	0.179	0.144
-415.428	-126.793	-0.171	-0.025
-414.413	159.146	0.138	0.191
-413.398	-87.662	-0.094	0.028
-412.384	71.184	-0.188	0.193
-411.369	-29.588	-0.058	0.033
-410.355	-200.000	0.028	0.298
-409.340	13.324	-0.163	0.125
-408.325	-78.670	-0.088	0.030
-407.311	-188.964	-0.420	0.005
-406.296	-64.438	0.076	0.031
-405.282	-200.000	-0.001	0.064
-404.267	-115.233	-0.070	0.013
-403.252	-27.861	-0.197	-0.113
-402.238	-3.921	0.269	-0.185
-401.223	800.000	0.069	0.202
-400.209	-105.633	-0.204	-0.046
-399.194	-166.499	-0.028	0.001
-398.179	88.512	-0.135	-0.149
-397.165	800.000	-0.077	0.291
-396.150	-200.000	-0.020	0.219
-395.136	311.287	-0.081	0.151
-394.121	-135.637	0.109	-0.013
-393.106	-153.471	0.201	-0.014
-392.092	-91.992	0.155	-0.043
-391.077	-200.000	-0.002	0.084
-390.063	655.754	0.006	-0.014
-389.048	777.124	0.109	-0.294
-388.033	-200.000	-0.007	-0.259
-387.019	43.326	-0.090	0.082
-386.004	82.304	0.043	0.047
-384.990	36.279	-0.179	-0.157
-383.975	-105.745	0.198	-0.044
-382.960	-0.441	-0.193	0.136
-381.946	293.819	0.106	-0.192
-380.931	800.000	0.109	-0.339
-379.917	-49.010	-0.127	-0.061
-378.902	-78.738	-0.231	0.078
-377.888	-101.984	-0.408	-0.097
-376.873	-31.500	0.309	-0.172
-375.858	-110.129	0.236	0.049
-374.844	-24.194	0.197	0.116
-373.829	-200.000	-0.006	-0.194
-372.815	3.832	-0.201	-0.145
-371.800	-18.022	-0.250	-0.155
-370.785	51.009	0.125	0.117
-369.771	317.596	-0.114	-0.214
-368.756	9.296	0.091	0.068
-367.742	-200.000	-0.033	-0.191
-366.727	-176.712	0.410	0.010
-365.712	-27.606	0.118	0.068
-364.698	115.289	0.200	0.241
-363.683	43.182	0.268	0.243
-362.669	-129.347	0.336	-0.046
-361.654	-98.647	0.134	0.034
-360.639	370.743	0.116	0.233
-359.625	-58.125	-0.246	0.106
-358.610	661.967	-0.072	-0.183
-357.596	63.163	-0.214	-0.212
-356.581	-12.098	-0.428	0.277
-355.566	-169.296	-0.100	-0.004
-354.552	-200.000	-0.018	-0.294
-353.537	800.000	-0.070	0.225
-352.523	157.456	0.167	0.229
-351.508	65.331	0.193	-0.194
-350.493	-120.488	-0.265	0.045
-349.479	26.839	-0.071	0.059
-348.464	-118.456	0.178	-0.031
-347.450	-142.134	0.049	-0.005
-346.435	800.000	-0.014	-0.053
-345.420	86.547	0.214	0.233
-344.406	237.485	-0.142	0.234
-343.391	-200.000	-0.020	0.204
-342.377	-28.033	0.079	0.045
-341.362	39.245	-0.097	0.086
-340.348	-75.547	0.251	-0.088
-339.333	800.000	-0.070	-0.251
-338.318	83.742	-0.180	0.194
-337.304	-30.659	0.368	-0.206
-336.289	8.332	-0.274	0.204
-335.275	-119.223	-0.337	0.058
-334.260	117.011	0.198	-0.241
-333.245	-200.000	-0.052	-0.276
-332.231	112.450	0.149	-0.179
-331.216	-119.309	-0.347	-0.060
-330.202	-200.000	-0.011	-0.221
-329.187	45.555	0.265	-0.242
-328.172	-19.501	0.239	0.146
-327.158	-19.121	-0.171	-0.105
-326.143	-103.660	-0.288	-0.067
-325.129	-68.552	0.101	-0.039
-324.114	152.990	-0.104	0.140
-323.099	800.000	0.120	0.327
-322.085	-14.254	0.252	0.161
-321.070	412.479	-0.005	0.011
-320.056	51.724	0.169	-0.159
-319.041	-32.874	-0.100	-0.055
-318.026	107.388	0.319	0.375
-317.012	291.265	-0.091	-0.164
-315.997	121.545	0.147	-0.181
-314.983	12.137	-0.107	-0.081
-313.968	-96.370	-0.139	-0.036
-312.953	-54.602	0.323	-0.145
-311.939	-200.000	-0.002	0.018
-310.924	-4.728	-0.095	0.065
-309.910	-133.494	0.267	0.033
-308.895	17.125	0.299	0.235
-307.880	-132.600	-0.190	-0.024
-306.866	-64.425	0.010	0.004
-305.851	314.266	0.086	-0.159
-304.837	-28.035	0.112	0.064
-303.822	333.976	0.117	-0.225
-302.807	-43.483	-0.201	0.100
-301.793	-200.000	-0.017	0.094
-300.778	-200.000	-0.045	0.312
-299.764	-200.000	0.060	0.399
-298.749	-14.840	0.270	-0.171
-297.735	-101.015	-0.267	0.065
-296.720	-138.793	0.166	0.018
-295.705	-108.157	-0.203	0.043
-294.691	-200.000	-0.005	-0.149
-293.676	-200.000	-0.033	0.158
-292.662	44.781	-0.059	-0.053
-291.647	-57.925	-0.200	0.086
-290.632	18.036	-0.041	0.032
-289.618	27.551	-0.058	0.048
-288.603	-59.320	-0.092	-0.039
-287.589	-92.609	0.033	-0.009
-286.574	181.703	0.038	-0.055
-285.559	-200.000	0.023	-0.257
-284.545	800.000	0.045	-0.160
-283.530	35.649	0.156	0.135
-282.516	414.469	-0.073	-0.153
-281.501	-124.790	-0.143	-0.022
-280.486	800.000	0.123	0.442
-279.472	-200.000	-0.002	-0.075
-278.457	-47.515	-0.050	-0.024
-277.443	339.658	0.092	0.177
-276.428	131.537	0.092	-0.116
-275.413	800.000	-0.060	-0.227
-274.399	-154.688	-0.141	-0.009
-273.384	-53.743	-0.274	-0.123
-272.370	-164.850	0.501	-0.022
-271.355	508.087	0.129	0.295
-270.340	515.640	-0.016	-0.037
-269.326	-83.142	-0.124	0.039
-268.311	-200.000	0.001	-0.066
-267.297	203.972	0.080	0.122
-266.282	-78.740	-0.129	0.043
-265.267	-128.413	-0.060	0.008
-264.253	-121.810	-0.247	-0.040
-263.238	800.000	0.027	0.087
-262.224	601.264	-0.092	0.225
-261.209	596.997	0.097	0.237
-260.195	339.703	0.050	-0.096
-259.180	-200.000	0.051	-0.395
-258.165	53.153	0.226	-0.213
-257.151	-59.820	0.181	-0.076
-256.136	286.878	-0.165	0.294
-255.122	-29.506	0.199	-0.112
-254.107	369.391	0.020	0.040
-253.092	-103.446	0.171	0.040
-252.078	376.955	-0.066	-0.133
-251.063	364.179	-0.059	-0.117
-250.049	622.060	0.108	-0.269
-249.034	-12.455	-0.031	-0.020
-248.019	151.874	0.065	0.088
-247.005	-8.375	0.127	0.084
-245.990	540.547	0.138	-0.324
-244.976	-131.880	0.290	0.037
-243.961	22.498	-0.076	0.061
-242.946	800.000	-0.020	-0.077
-241.932	800.000	0.023	0.074
-240.917	228.752	-0.118	0.190
-239.903	542.693	0.081	0.189
-238.888	93.637	-0.250	0.280
-237.873	-159.731	-0.236	0.013
-236.859	-106.536	-0.161	0.035
-235.844	-68.678	-0.233	0.089
-234.830	-136.352	-0.251	0.029
-233.815	83.414	-0.135	-0.145
-232.800	141.177	-0.086	-0.113
-231.786	35.089	-0.064	0.055
-230.771	94.804	0.229	-0.256
-229.757	13.189	0.103	0.078
-228.742	800.000	0.079	-0.333
-227.727	365.647	0.066	0.132
-226.713	64.461	0.227	0.225
-225.698	4.410	0.411	0.297
-224.684	525.260	0.224	0.519
-223.669	-55.503	-0.177	-0.078
-222.655	-74.786	-0.020	-0.007
-221.640	0.574	0.112	-0.079
-220.625	-62.238	0.160	0.066
-219.611	24.851	-0.199	-0.163
-218.596	167.364	0.190	-0.266
-217.582	-200.000	-0.007	0.054
-216.567	-132.917	0.306	-0.038
-215.552	18.142	0.108	0.085
-214.538	-102.668	0.363	0.085
-213.523	128.117	0.046	0.057
-212.509	-200.000	-0.004	0.155
-211.494	-115.897	0.428	-0.079
-210.479	-78.663	-0.260	-0.087
-209.465	-200.000	-0.036	0.344
-208.450	800.000	0.023	0.100
-207.436	20.501	0.042	0.033
-206.421	800.000	0.089	0.286
-205.406	-200.000	0.012	-0.195
-204.392	-200.000	0.031	-0.177
-203.377	-77.634	-0.138	0.047
-202.363	-200.000	0.009	-0.302
-201.348	74.406	0.219	-0.227
-200.333	-59.044	0.103	-0.044
-199.319	-20.857	0.099	0.060
-198.304	-200.000	-0.059	0.407
-197.290	800.000	0.030	0.110
-196.275	-59.910	-0.104	0.044
-195.260	800.000	-0.035	0.127
-194.246	-200.000	-0.008	0.230
-193.231	-169.425	0.080	0.003
-192.217	-53.066	-0.389	0.176
-191.202	-104.549	0.322	-0.073
-190.187	-11.523	-0.088	0.057
-189.173	163.072	0.157	-0.216
-188.158	-200.000	0.042	0.422
-187.144	-131.138	-0.046	0.006
-186.129	68.598	0.121	-0.122
-185.114	154.990	-0.289	-0.391
-184.100	-120.761	0.155	0.026
-183.085	50.625	0.039	-0.036
-182.071	-200.000	-0.018	-0.109
-181.056	-17.015	0.204	0.127
-180.042	-58.804	0.261	0.111
-179.027	800.000	0.017	-0.047
-178.012	72.459	-0.197	0.202
-176.998	-163.333	-0.084	0.004
-175.983	-100.792	0.115	0.028
-174.969	152.692	0.209	-0.281
-173.954	-200.000	-0.036	-0.160
-172.939	-56.855	-0.209	0.091
-171.925	16.563	0.053	0.041
-170.910	-200.000	-0.026	0.139
-169.896	-43.372	-0.298	-0.148
-168.881	800.000	-0.061	-0.261
-167.866	57.004	-0.072	-0.069
-166.852	-200.000	0.005	-0.039
-165.837	800.000	0.123	-0.364
-164.823	-122.988	0.184	-0.029
-163.808	-200.000	-0.019	-0.131
-162.793	25.556	-0.076	0.062
-161.779	-177.307	-0.435	-0.011
-160.764	0.276	-0.100	-0.070
-159.750	760.977	-0.024	-0.063
-158.735	104.724	-0.216	0.250
-157.720	-200.000	0.016	-0.311
-156.706	7.529	-0.227	0.167
-155.691	-186.801	-0.139	0.002
-154.677	5.071	0.247	-0.179
-153.662	-11.548	0.012	0.008
-152.647	38.934	0.122	0.107
-151.633	-200.000	-0.045	0.217
-150.618	-200.000	0.028	-0.188
-149.604	-63.968	-0.202	-0.081
-148.589	-200.000	-0.046	0.217
-147.574	-200.000	0.006	0.123
-146.560	-138.612	0.101	-0.011
-145.545	-121.863	0.056	0.009
-144.531	-200.000	0.006	0.114
-143.516	182.952	0.169	0.246
-142.502	-200.000	0.037	0.229
-141.487	148.710	0.139	0.185
-140.472	415.668	-0.190	0.397
-139.458	-91.086	-0.158	-0.044
-138.443	221.451	0.153	-0.242
-137.429	-114.768	0.234	0.044
-136.414	800.000	-0.111	-0.434
-135.399	206.911	0.189	-0.290
-134.385	270.955	-0.108	0.186
-133.370	-0.509	-0.100	-0.069
-132.356	-106.628	0.327	-0.071
-131.341	-99.705	-0.215	-0.053
-130.326	800.000	-0.070	0.256
-129.312	33.065	0.187	0.159
-128.297	-200.000	0.013	0.131
-127.283	137.517	-0.256	-0.328
-126.268	-21.660	0.154	-0.092
-125.253	-200.000	-0.043	0.272
-124.239	-200.000	0.000	-0.006
-123.224	-79.050	0.156	-0.052
-122.210	-200.000	0.014	-0.402
