DTS Sentinel unit serial number:	SN413079Multiplexer serial number:	ORYXHardware model number:	OX4-SRSoftware version number:	ORYX F/W v4.00 Oryx Data Collector v3.7.2.0data status	okinstallation	princeton_trtdifferential loss correction	single-endedforward channel	channel 1reverse channel	N/Adate	2019/09/19time	00:18:35forward acquisition time	60.00reverse acquisition time	0.00gamma	496.2192k internal	0.2342k external	0.2342temperature offset calibration	1.0022default loss term (dB/km)	0.3790temperature slope calibration	1.0000multiplexer offset coefficient	1.0000multiplexer slope coefficient	1.0000fibre end	0.00T internal ref (°C)	22.69T ext. ref 1 (°C)	0.75T ext. ref 2 (°C)	15.77length (m)	temperature (°C)	Stokes	anti-Stokes-747.200	135.464	-0.101	0.131
-746.185	-141.059	0.267	-0.027
-745.171	-169.229	0.128	-0.005
-744.156	-92.888	-0.308	0.086
-743.142	152.717	0.114	0.156
-742.127	127.628	0.152	-0.194
-741.112	423.479	-0.131	0.283
-740.098	-64.478	0.025	-0.010
-739.083	407.758	-0.104	-0.220
-738.069	-59.145	-0.286	0.124
-737.054	-57.494	0.261	0.115
-736.039	25.148	-0.398	0.331
-735.025	16.147	-0.287	-0.226
-734.010	-200.000	-0.010	0.221
-732.996	90.353	-0.106	-0.119
-731.981	396.340	-0.022	-0.046
-730.966	-200.000	0.017	0.116
-729.952	-72.383	0.438	-0.162
-728.937	648.619	0.081	-0.208
-727.923	800.000	-0.099	0.288
-726.908	-74.462	-0.158	0.057
-725.894	-200.000	-0.057	-0.322
-724.879	353.571	-0.076	-0.151
-723.864	66.861	-0.269	-0.274
-722.850	40.270	0.284	-0.256
-721.835	-18.716	0.286	-0.178
-720.821	-86.067	-0.316	-0.098
-719.806	624.785	-0.017	-0.042
-718.791	105.639	-0.143	0.169
-717.777	-34.306	-0.207	0.114
-716.762	323.697	0.070	-0.133
-715.748	-200.000	0.013	-0.314
-714.733	115.676	-0.164	-0.201
-713.718	232.715	-0.087	0.142
-712.704	-46.277	-0.007	-0.004
-711.689	-25.860	-0.064	-0.038
-710.675	-61.599	-0.087	-0.037
-709.660	617.680	0.038	-0.095
-708.645	-95.913	-0.315	0.084
-707.631	785.422	0.082	0.225
-706.616	262.135	-0.129	-0.224
-705.602	-46.552	0.359	-0.176
-704.587	800.000	-0.135	-0.468
-703.572	-85.914	-0.430	0.133
-702.558	-58.692	-0.201	-0.087
-701.543	800.000	-0.073	0.250
-700.529	-103.074	0.018	0.004
-699.514	366.881	-0.182	-0.367
-698.499	800.000	-0.066	0.199
-697.485	-8.755	0.419	-0.281
-696.470	800.000	0.056	0.203
-695.456	9.229	0.160	0.121
-694.441	-200.000	-0.020	-0.168
-693.426	800.000	-0.039	0.148
-692.412	-6.990	0.254	0.172
-691.397	14.466	0.186	0.146
-690.383	151.799	-0.177	0.241
-689.368	-70.579	0.300	-0.114
-688.354	174.870	-0.096	-0.138
-687.339	-70.068	-0.040	-0.015
-686.324	-27.177	-0.038	-0.022
-685.310	75.121	-0.033	0.035
-684.295	-147.679	-0.317	-0.027
-683.281	-68.973	0.148	0.057
-682.266	-200.000	-0.023	0.176
-681.251	-68.267	-0.260	-0.101
-680.237	-82.865	-0.298	-0.096
-679.222	-98.925	0.354	-0.090
-678.208	-200.000	-0.085	-0.392
-677.193	196.211	0.013	0.019
-676.178	-20.935	0.149	-0.091
-675.164	-200.000	-0.004	-0.118
-674.149	-200.000	0.020	-0.323
-673.135	32.769	-0.268	0.231
-672.120	-139.758	0.162	-0.017
-671.105	-15.405	0.238	-0.152
-670.091	296.132	0.040	-0.073
-669.076	117.268	-0.199	0.244
-668.062	-26.552	-0.376	-0.220
-667.047	-82.128	-0.335	-0.109
-666.032	656.876	-0.085	0.217
-665.018	-20.406	0.055	0.034
-664.003	49.309	-0.178	0.167
-662.989	-200.000	0.054	-0.303
-661.974	35.036	-0.312	-0.273
-660.959	186.741	0.109	0.162
-659.945	24.250	-0.067	-0.055
-658.930	13.227	-0.148	0.115
-657.916	184.886	-0.086	0.127
-656.901	800.000	-0.056	0.234
-655.886	-116.657	-0.389	-0.071
-654.872	377.684	-0.041	0.084
-653.857	28.186	0.178	-0.150
-652.843	-176.785	0.272	0.007
-651.828	-38.710	0.234	-0.123
-650.814	-200.000	0.032	-0.349
-649.799	-57.253	-0.267	0.117
-648.784	105.308	-0.040	-0.047
-647.770	-25.900	0.215	0.127
-646.755	-113.290	-0.225	-0.044
-645.741	-84.964	-0.146	0.046
-644.726	-1.558	0.095	-0.067
-643.711	-130.405	0.214	0.029
-642.697	67.655	0.123	-0.125
-641.682	378.302	-0.182	0.371
-640.668	-170.001	-0.086	-0.003
-639.653	-30.605	0.105	0.059
-638.638	-200.000	-0.080	0.419
-637.624	193.585	-0.120	0.181
-636.609	-42.980	-0.078	-0.040
-635.595	48.744	0.257	0.240
-634.580	244.431	0.066	0.110
-633.565	-178.783	0.118	0.003
-632.551	-200.000	0.016	-0.083
-631.536	50.930	-0.176	-0.166
-630.522	-171.738	-0.270	-0.009
-629.507	-200.000	0.009	0.063
-628.492	88.655	0.031	0.035
-627.478	-109.713	-0.348	0.073
-626.463	67.710	0.140	0.143
-625.449	65.597	-0.260	0.263
-624.434	800.000	0.057	0.229
-623.419	-12.855	0.033	-0.022
-622.405	306.943	0.164	0.304
-621.390	58.920	-0.240	-0.236
-620.376	-109.014	0.074	-0.016
-619.361	72.572	0.137	0.142
-618.346	-0.185	0.085	0.060
-617.332	-200.000	0.016	0.222
-616.317	-103.801	0.159	-0.037
-615.303	-200.000	-0.295	-0.001
-614.288	-8.754	0.149	-0.099
-613.273	162.086	0.177	-0.248
-612.259	467.947	-0.113	0.252
-611.244	132.810	0.097	0.125
-610.230	29.276	-0.426	0.361
-609.215	-75.165	0.266	0.095
-608.201	304.950	0.127	-0.234
-607.186	37.441	-0.172	0.152
-606.171	-136.349	-0.256	0.030
-605.157	363.206	0.113	-0.226
-604.142	30.728	0.333	-0.284
-603.128	-200.000	-0.006	-0.120
-602.113	-173.452	0.235	-0.007
-601.098	800.000	-0.077	0.212
-600.084	469.974	-0.028	0.062
-599.069	-6.463	-0.158	-0.107
-598.055	-47.262	-0.248	-0.120
-597.040	65.078	0.131	-0.132
-596.025	-180.148	-0.137	0.003
-595.011	148.984	0.194	0.261
-593.996	459.420	-0.053	0.117
-592.982	107.192	0.104	-0.123
-591.967	-17.995	0.141	-0.088
-590.952	57.733	-0.141	0.137
-589.938	29.835	-0.210	-0.178
-588.923	-146.421	-0.166	0.014
-587.909	142.629	-0.129	-0.171
-586.894	-76.172	-0.108	-0.038
-585.879	-82.636	-0.148	0.048
-584.865	-147.910	0.125	-0.010
-583.850	251.370	-0.032	0.054
-582.836	15.819	-0.255	-0.199
-581.821	-82.493	0.115	-0.037
-580.806	103.360	-0.122	-0.142
-579.792	-118.740	-0.331	-0.058
-578.777	128.852	0.189	-0.240
-577.763	-200.000	-0.032	-0.274
-576.748	800.000	-0.052	0.177
-575.733	450.826	-0.052	-0.115
-574.719	-27.856	0.154	0.089
-573.704	-87.434	0.075	0.022
-572.690	668.473	-0.035	0.091
-571.675	178.005	-0.213	0.309
-570.661	161.832	0.246	0.343
-569.646	-165.498	0.255	-0.011
-568.631	49.520	0.019	0.018
-567.617	-13.152	-0.469	0.303
-566.602	532.956	0.045	0.106
-565.588	76.789	-0.173	-0.182
-564.573	800.000	-0.091	0.352
-563.558	554.001	0.093	-0.221
-562.544	-119.552	0.208	-0.036
-561.529	-23.400	-0.275	0.165
-560.515	119.184	-0.107	0.132
-559.500	238.470	-0.064	0.106
-558.485	800.000	-0.040	0.146
-557.471	11.923	-0.166	-0.127
-556.456	800.000	0.116	-0.407
-555.442	-200.000	0.024	0.236
-554.427	-200.000	-0.030	0.341
-553.412	630.428	-0.075	-0.190
-552.398	-129.304	-0.324	0.045
-551.383	-200.000	-0.026	-0.136
-550.369	624.672	-0.036	0.091
-549.354	9.698	-0.567	-0.427
-548.339	159.189	0.190	-0.263
-547.325	362.343	0.045	0.089
-546.310	177.433	-0.301	0.436
-545.296	220.677	-0.069	0.110
-544.281	-60.124	-0.230	0.098
-543.266	191.743	0.157	0.235
-542.252	18.877	-0.072	-0.057
-541.237	74.125	0.117	-0.122
-540.223	3.402	0.150	-0.108
-539.208	-115.956	0.114	0.021
-538.193	-18.939	-0.019	-0.012
-537.179	430.036	-0.069	0.147
-536.164	24.832	0.094	0.078
-535.150	-83.680	0.342	-0.109
-534.135	-41.564	0.046	-0.023
-533.121	65.906	-0.056	0.057
-532.106	-200.000	-0.050	0.360
-531.091	-20.933	0.128	-0.078
-530.077	-92.690	0.223	0.062
-529.062	68.199	-0.128	-0.131
-528.048	-33.703	0.341	-0.187
-527.033	-75.914	-0.391	-0.138
-526.018	-200.000	-0.020	0.198
-525.004	335.034	-0.128	0.246
-523.989	-200.000	-0.003	0.026
-522.975	-200.000	0.015	-0.123
-521.960	-200.000	0.015	0.277
-520.945	-200.000	-0.008	0.156
-519.931	516.803	-0.082	0.191
-518.916	594.972	-0.034	-0.083
-517.902	-151.224	0.288	-0.021
-516.887	-200.000	-0.041	-0.362
-515.872	61.946	0.261	-0.259
-514.858	-200.000	0.002	0.053
-513.843	394.124	0.127	0.263
-512.829	800.000	0.104	-0.303
-511.814	-105.050	0.244	-0.055
-510.799	-23.234	0.198	0.118
-509.785	-200.000	0.013	-0.122
-508.770	445.654	0.176	-0.384
-507.756	-91.231	-0.204	0.058
-506.741	-137.997	0.329	0.036
-505.726	800.000	-0.056	0.170
-504.712	115.042	0.167	-0.202
-503.697	659.476	0.155	-0.396
-502.683	-200.000	0.001	-0.238
-501.668	-110.117	-0.132	-0.027
-500.653	-159.203	-0.203	0.011
-499.639	74.828	-0.084	-0.088
-498.624	-56.029	-0.210	-0.093
-497.610	-200.000	0.013	-0.353
-496.595	112.010	0.114	-0.137
-495.581	301.153	-0.119	-0.218
-494.566	18.472	0.174	0.138
-493.551	-2.026	-0.143	-0.100
-492.537	-200.000	0.035	0.199
-491.522	800.000	0.046	-0.182
-490.508	505.003	0.142	0.326
-489.493	198.098	-0.162	0.245
-488.478	-127.912	-0.177	-0.025
-487.464	113.509	0.290	-0.350
-486.449	800.000	-0.157	-0.614
-485.435	800.000	-0.071	-0.235
-484.420	-91.853	-0.050	-0.014
-483.405	228.288	-0.080	-0.129
-482.391	-133.775	-0.355	-0.044
-481.376	-54.058	-0.112	-0.051
-480.362	158.591	-0.139	-0.191
-479.347	103.906	-0.107	-0.125
-478.332	-131.450	0.390	0.051
-477.318	-200.000	-0.025	-0.217
-476.303	-51.509	0.226	0.105
-475.289	-55.197	-0.262	0.117
-474.274	323.578	0.107	-0.202
-473.259	24.921	-0.066	0.055
-472.245	115.708	0.179	0.217
-471.230	-200.000	-0.022	-0.123
-470.216	800.000	-0.045	-0.154
-469.201	-172.730	-0.273	0.008
-468.186	499.886	0.130	-0.297
-467.172	-60.985	-0.241	0.101
-466.157	291.731	-0.098	0.177
-465.143	800.000	-0.059	-0.229
-464.128	-53.084	-0.036	-0.016
-463.113	37.505	0.351	-0.309
-462.099	-43.846	0.132	-0.066
-461.084	113.254	0.076	-0.092
-460.070	28.049	-0.223	0.186
-459.055	800.000	0.084	0.261
-458.040	-84.517	0.438	-0.137
-457.026	-200.000	0.003	-0.089
-456.011	-57.842	-0.181	-0.079
-454.997	-200.000	0.062	0.287
-453.982	800.000	0.067	0.276
-452.968	-29.780	0.095	0.053
-451.953	-200.000	-0.024	-0.126
-450.938	-91.014	0.182	0.052
-449.924	-200.000	-0.046	-0.298
-448.909	308.318	-0.033	0.061
-447.895	30.857	-0.319	0.271
-446.880	-58.700	0.156	0.067
-445.865	-200.000	-0.023	-0.236
-444.851	800.000	0.043	-0.167
-443.836	-86.301	0.311	-0.095
-442.822	482.276	0.146	-0.329
-441.807	-69.737	-0.439	-0.166
-440.792	-159.493	0.420	0.023
-439.778	593.916	0.039	0.095
-438.763	-200.000	0.002	-0.147
-437.749	-200.000	0.015	0.288
-436.734	-84.144	0.273	-0.086
-435.719	186.161	-0.094	0.138
-434.705	-200.000	-0.008	0.052
-433.690	159.060	0.126	-0.173
-432.676	-69.634	0.329	-0.125
-431.661	-200.000	-0.009	-0.111
-430.646	68.376	-0.180	-0.183
-429.632	-136.332	-0.146	-0.017
-428.617	217.289	0.165	0.260
-427.603	-200.000	0.056	0.392
-426.588	800.000	-0.045	0.197
-425.573	800.000	-0.115	-0.343
-424.559	237.695	-0.188	-0.309
-423.544	-200.000	0.025	-0.245
-422.530	-178.588	-0.104	-0.002
-421.515	-111.494	0.221	0.045
-420.500	-200.000	-0.024	-0.376
-419.486	-62.520	0.049	-0.020
-418.471	-149.889	-0.180	-0.014
-417.457	-120.882	0.207	0.034
-416.442	-7.197	0.113	-0.076
-415.428	57.411	0.261	0.252
-414.413	428.792	0.123	0.262
-413.398	-50.369	-0.234	-0.109
-412.384	-125.424	-0.137	0.021
-411.369	-43.318	-0.212	-0.106
-410.355	87.955	-0.097	-0.107
-409.340	10.598	-0.291	0.220
-408.325	-18.605	-0.263	-0.162
-407.311	800.000	-0.084	0.253
-406.296	-82.486	0.053	0.017
-405.282	-69.153	-0.224	0.085
-404.267	-115.565	-0.016	0.003
-403.252	218.600	0.363	0.574
-402.238	800.000	0.107	0.323
-401.223	2.238	0.119	0.085
-400.209	800.000	0.077	0.265
-399.194	-128.615	0.233	0.033
-398.179	73.409	-0.268	-0.277
-397.165	-28.313	0.103	-0.059
-396.150	144.422	-0.123	-0.162
-395.136	155.977	-0.179	-0.244
-394.121	-68.141	-0.185	-0.071
-393.106	-91.745	0.380	0.107
-392.092	109.598	-0.100	0.119
-391.077	-200.000	-0.008	0.206
-390.063	-200.000	-0.063	0.342
-389.048	24.089	-0.084	-0.068
-388.033	78.776	-0.165	0.174
-387.019	-74.340	0.129	-0.046
-386.004	-17.654	0.161	0.100
-384.990	29.494	0.164	-0.138
-383.975	782.711	0.110	0.297
-382.960	171.769	0.160	0.228
-381.946	600.879	-0.020	-0.049
-380.931	-98.066	0.135	-0.034
-379.917	16.262	0.247	-0.192
-378.902	-109.711	0.428	0.089
-377.888	-200.000	-0.115	0.612
-376.873	-45.194	0.108	0.053
-375.858	67.828	-0.158	0.160
-374.844	800.000	-0.050	0.150
-373.829	208.046	-0.062	0.096
-372.815	750.035	0.039	0.105
-371.800	-200.000	-0.088	0.434
-370.785	740.656	0.116	-0.307
-369.771	800.000	0.041	-0.172
-368.756	322.324	0.150	0.282
-367.742	122.753	0.061	-0.075
-366.727	7.672	0.275	0.203
-365.712	800.000	-0.107	-0.361
-364.698	150.488	0.099	0.133
-363.683	133.840	-0.271	0.346
-362.669	2.791	-0.302	0.216
-361.654	258.360	-0.135	0.229
-360.639	508.209	0.080	0.184
-359.625	-3.176	0.354	0.243
-358.610	-3.046	-0.264	-0.182
-357.596	-44.903	0.200	-0.098
-356.581	-200.000	0.056	0.356
-355.566	-200.000	-0.009	-0.234
-354.552	-159.113	-0.316	-0.018
-353.537	9.915	0.071	-0.053
-352.523	471.710	-0.034	-0.075
-351.508	-46.462	0.285	0.138
-350.493	-112.799	-0.217	-0.043
-349.479	-4.224	0.299	-0.204
-348.464	96.332	0.307	0.347
-347.450	-200.000	0.065	0.280
-346.435	-24.690	-0.318	-0.187
-345.420	42.537	-0.223	-0.200
-344.406	-103.307	0.173	0.040
-343.391	163.579	0.312	0.433
-342.377	157.356	-0.171	-0.233
-341.362	48.567	0.157	0.145
-340.348	651.937	0.076	0.191
-339.333	256.742	0.178	0.301
-338.318	-42.954	-0.402	-0.201
-337.304	-47.839	-0.337	-0.161
-336.289	53.665	0.152	-0.144
-335.275	-13.342	0.237	-0.151
-334.260	-146.802	-0.270	-0.023
-333.245	-87.099	0.211	0.063
-332.231	2.176	0.161	-0.115
-331.216	-124.072	0.218	0.034
-330.202	-62.647	-0.165	-0.067
-329.187	-37.975	-0.111	-0.058
-328.172	-200.000	0.001	0.043
-327.158	-32.895	-0.243	0.133
-326.143	723.699	-0.051	-0.134
-325.129	-98.625	-0.179	-0.045
-324.114	-185.817	0.468	0.007
-323.099	16.139	-0.116	-0.090
-322.085	800.000	-0.042	-0.143
-321.070	486.365	0.036	0.082
-320.056	-52.703	0.241	0.110
-319.041	-200.000	-0.037	-0.294
-318.026	321.515	0.164	-0.308
-317.012	-144.910	0.101	0.009
-315.997	-41.240	0.087	0.044
-314.983	712.404	0.005	0.014
-313.968	-200.000	-0.028	-0.244
-312.953	800.000	-0.075	0.290
-311.939	800.000	0.091	-0.317
-310.924	800.000	-0.076	-0.246
-309.910	-36.014	-0.310	-0.165
-308.895	280.833	0.043	-0.075
-307.880	287.796	0.119	0.211
-306.866	32.350	0.162	-0.138
-305.851	378.236	0.099	-0.200
-304.837	61.632	0.338	-0.331
-303.822	-160.881	-0.404	0.021
-302.807	-58.881	-0.018	-0.008
-301.793	305.224	-0.055	0.101
-300.778	697.784	-0.070	0.182
-299.764	-200.000	0.003	0.180
-298.749	396.602	0.062	-0.127
-297.735	-139.871	-0.348	0.036
-296.720	208.402	0.065	0.099
-295.705	-200.000	0.018	-0.227
-294.691	-200.000	-0.048	-0.211
-293.676	800.000	0.054	-0.149
-292.662	571.971	-0.024	-0.057
-291.647	256.019	0.091	0.153
-290.632	-200.000	-0.017	-0.158
-289.618	315.105	0.062	-0.115
-288.603	-8.950	0.222	0.146
-287.589	20.431	-0.179	0.142
-286.574	-122.701	-0.353	-0.056
-285.559	12.840	-0.136	-0.103
-284.545	-43.055	0.022	-0.011
-283.530	-50.928	0.068	0.031
-282.516	15.558	0.218	0.169
-281.501	436.714	-0.135	-0.290
-280.486	-69.515	-0.196	-0.074
-279.472	-200.000	0.003	0.234
-278.457	-200.000	0.037	0.218
-277.443	-161.066	0.353	0.018
-276.428	-200.000	-0.011	-0.064
-275.413	-171.271	-0.218	0.007
-274.399	-104.901	0.364	0.082
-273.384	800.000	-0.033	0.124
-272.370	-53.357	-0.360	-0.162
-271.355	-36.685	0.317	-0.167
-270.340	-51.955	-0.248	-0.113
-269.326	780.603	-0.082	0.220
-268.311	-39.072	-0.543	-0.281
-267.297	-32.905	0.067	-0.037
-266.282	65.309	-0.101	-0.101
-265.267	73.909	-0.113	0.117
-264.253	88.095	0.155	-0.169
-263.238	800.000	-0.090	0.284
-262.224	318.666	-0.129	-0.240
-261.209	-200.000	0.014	0.160
-260.195	-136.605	-0.065	0.007
-259.180	-20.347	0.342	-0.207
-258.165	-200.000	0.006	-0.112
-257.151	-141.772	0.198	-0.020
-256.136	23.024	-0.051	-0.041
-255.122	-31.610	0.131	0.072
-254.107	800.000	-0.076	-0.223
-253.092	-32.958	0.289	-0.158
-252.078	12.148	0.240	-0.182
-251.063	166.342	-0.085	-0.119
-250.049	120.185	0.150	-0.183
-249.034	90.768	0.170	0.187
-248.019	227.081	0.082	-0.131
-247.005	444.391	-0.060	0.130
-245.990	800.000	-0.102	-0.329
-244.976	-182.648	0.485	0.009
-243.961	-91.862	0.068	0.019
-242.946	800.000	-0.046	-0.187
-241.932	-200.000	-0.003	-0.169
-240.917	85.024	-0.306	0.330
-239.903	388.563	0.060	-0.122
-238.888	-89.571	0.424	0.122
-237.873	800.000	-0.029	0.083
-236.859	282.733	0.118	-0.209
-235.844	444.301	0.073	-0.158
-234.830	21.418	0.264	0.211
-233.815	-55.428	-0.452	0.199
-232.800	-200.000	0.070	-0.317
-231.786	-90.371	-0.192	0.055
-230.771	374.171	0.046	-0.092
-229.757	-200.000	0.012	0.144
-228.742	-134.596	-0.167	0.020
-227.727	201.270	-0.095	-0.143
-226.713	152.639	-0.124	0.167
-225.698	637.686	0.092	-0.229
-224.684	-200.000	-0.005	0.118
-223.669	-103.878	-0.087	0.020
-222.655	800.000	-0.089	-0.254
-221.640	-200.000	-0.024	-0.175
-220.625	172.087	-0.142	-0.201
-219.611	-142.842	-0.281	0.027
-218.596	-96.409	0.316	0.082
-217.582	-8.223	-0.114	-0.075
-216.567	-200.000	-0.050	-0.300
-215.552	175.227	-0.092	-0.131
-214.538	-153.305	-0.157	0.011
-213.523	34.808	0.274	-0.235
-212.509	-200.000	-0.010	-0.133
-211.494	-109.230	0.203	0.042
-210.479	344.070	-0.105	0.202
-209.465	-200.000	-0.024	0.140
-208.450	624.172	-0.098	0.242
-207.436	15.765	-0.188	0.145
-206.421	-200.000	0.025	0.387
-205.406	-29.391	-0.141	-0.079
-204.392	-115.459	-0.067	0.012
-203.377	-41.053	0.074	-0.038
-202.363	459.010	0.133	0.291
-201.348	-200.000	0.051	0.241
-200.333	-92.057	0.361	0.100
-199.319	38.089	0.141	0.123
-198.304	-107.374	0.465	0.100
-197.290	54.451	-0.101	-0.096
-196.275	58.189	0.152	0.146
-195.260	170.617	0.168	-0.235
-194.246	-91.938	0.056	0.016
-193.231	800.000	0.017	-0.072
-192.217	-49.281	-0.318	-0.149
-191.202	-32.539	0.194	0.106
-190.187	-200.000	0.064	0.337
-189.173	-200.000	0.021	-0.310
-188.158	800.000	-0.134	-0.503
-187.144	-50.026	0.171	0.079
-186.129	339.258	-0.024	0.046
-185.114	58.041	-0.203	0.195
-184.100	-200.000	-0.019	0.244
-183.085	-9.662	-0.017	-0.011
-182.071	-123.426	-0.285	0.044
-181.056	-200.000	0.025	0.332
-180.042	-151.280	-0.228	-0.017
-179.027	-160.764	-0.154	-0.008
-178.012	401.167	0.176	0.362
-176.998	-150.035	0.115	-0.009
-175.983	-200.000	-0.009	0.038
-174.969	800.000	0.028	-0.076
-173.954	-62.241	-0.310	-0.127
-172.939	100.485	0.085	-0.097
-171.925	205.348	-0.162	-0.246
-170.910	175.845	0.148	0.211
-169.896	-200.000	-0.003	-0.047
-168.881	-172.723	-0.043	-0.001
-167.866	446.235	-0.162	-0.349
-166.852	196.631	-0.062	-0.092
-165.837	-80.312	0.248	-0.081
-164.823	45.169	-0.093	0.084
-163.808	-148.852	-0.372	-0.029
-162.793	-141.372	-0.091	-0.009
-161.779	112.990	0.064	-0.075
-160.764	-2.882	0.185	-0.126
-159.750	623.319	-0.058	0.143
-158.735	-12.167	0.292	0.187
-157.720	-200.000	-0.035	0.262
-156.706	585.698	-0.025	0.061
-155.691	14.420	-0.111	-0.085
-154.677	800.000	-0.058	0.231
-153.662	800.000	0.039	0.130
-152.647	-39.711	-0.181	-0.093
-151.633	-200.000	-0.052	-0.284
-150.618	-76.735	0.211	0.072
-149.604	-200.000	-0.022	0.233
-148.589	6.023	-0.199	-0.144
-147.574	-142.935	-0.073	-0.007
-146.560	-31.753	-0.114	0.063
-145.545	-200.000	0.036	0.541
-144.531	-200.000	0.029	-0.198
-143.516	420.253	-0.042	0.088
-142.502	-200.000	0.003	0.320
-141.487	-93.903	0.213	-0.057
-140.472	-200.000	0.017	-0.124
-139.458	26.797	0.137	-0.112
-138.443	-200.000	-0.072	-0.418
-137.429	-46.962	0.295	0.141
-136.414	-63.570	0.024	-0.010
-135.399	-107.440	-0.292	0.063
-134.385	58.348	-0.138	0.132
-133.370	-190.382	0.272	-0.003
-132.356	-200.000	0.027	0.218
-131.341	-151.618	-0.615	-0.044
-130.326	112.879	-0.083	-0.098
-129.312	62.083	-0.301	-0.293
-128.297	-32.014	-0.024	-0.013
-127.283	800.000	0.052	0.157
-126.268	307.551	0.020	-0.036
-125.253	141.361	-0.049	0.064
-124.239	-53.724	-0.271	0.121
-123.224	-103.328	-0.106	-0.024
-122.210	-72.226	0.230	-0.083
