DTS Sentinel unit serial number:	SN413079Multiplexer serial number:	ORYXHardware model number:	OX4-SRSoftware version number:	ORYX F/W v4.00 Oryx Data Collector v3.7.2.0data status	okinstallation	princeton_trtdifferential loss correction	single-endedforward channel	channel 1reverse channel	N/Adate	2019/09/15time	11:58:35forward acquisition time	60.00reverse acquisition time	0.00gamma	496.2192k internal	0.2307k external	0.2307temperature offset calibration	0.9988default loss term (dB/km)	0.3790temperature slope calibration	1.0000multiplexer offset coefficient	1.0000multiplexer slope coefficient	1.0000fibre end	0.00T internal ref (°C)	34.41T ext. ref 1 (°C)	5.07T ext. ref 2 (°C)	30.20length (m)	temperature (°C)	Stokes	anti-Stokes-747.200	357.792	-0.144	0.292
-746.185	-200.000	-0.026	0.292
-745.171	29.941	-0.213	-0.184
-744.156	163.312	-0.200	0.285
-743.142	-145.030	-0.331	-0.031
-742.127	-54.081	0.227	-0.105
-741.112	800.000	0.035	-0.138
-740.098	800.000	0.106	0.399
-739.083	-200.000	-0.038	0.494
-738.069	-200.000	-0.006	0.139
-737.054	85.392	-0.105	-0.117
-736.039	-200.000	-0.053	0.336
-735.025	-93.090	0.200	0.056
-734.010	110.845	0.069	-0.085
-732.996	244.221	-0.080	0.137
-731.981	-172.345	0.203	0.007
-730.966	-200.000	-0.029	-0.147
-729.952	13.191	-0.008	0.006
-728.937	800.000	-0.051	0.169
-727.923	-200.000	0.038	0.203
-726.908	178.271	-0.118	-0.175
-725.894	800.000	-0.051	-0.166
-724.879	-51.866	-0.272	-0.128
-723.864	104.202	-0.090	-0.108
-722.850	-137.312	-0.418	0.048
-721.835	-19.418	-0.242	0.152
-720.821	734.331	-0.161	-0.439
-719.806	-49.668	-0.215	0.104
-718.791	-110.518	0.435	0.092
-717.777	56.954	-0.175	0.173
-716.762	-179.843	-0.106	0.002
-715.748	-169.344	-0.204	0.008
-714.733	-13.298	0.287	0.190
-713.718	-102.174	-0.200	-0.049
-712.704	41.910	0.320	-0.295
-711.689	26.659	0.185	0.157
-710.675	-200.000	-0.011	0.224
-709.660	-12.335	-0.250	-0.166
-708.645	95.577	0.207	-0.240
-707.631	264.660	0.024	-0.042
-706.616	-200.000	0.034	0.347
-705.602	-122.225	-0.319	-0.053
-704.587	120.008	-0.061	-0.077
-703.572	-21.514	0.367	-0.227
-702.558	-200.000	-0.013	-0.137
-701.543	-70.492	0.158	-0.061
-700.529	41.210	-0.112	-0.103
-699.514	-200.000	0.024	-0.262
-698.499	489.546	-0.024	0.055
-697.485	-83.467	0.244	-0.079
-696.470	800.000	0.061	0.227
-695.456	232.538	0.142	-0.236
-694.441	18.281	-0.082	-0.067
-693.426	328.646	-0.129	-0.252
-692.412	-200.000	0.015	-0.265
-691.397	136.397	-0.114	-0.151
-690.383	317.060	-0.137	-0.262
-689.368	223.536	-0.278	-0.455
-688.354	83.761	0.139	-0.154
-687.339	-144.738	-0.102	0.010
-686.324	-50.198	-0.073	-0.035
-685.310	-92.255	0.328	0.094
-684.295	237.842	0.019	0.033
-683.281	45.461	-0.118	-0.111
-682.266	-103.913	0.131	-0.031
-681.251	47.382	-0.199	-0.188
-680.237	797.103	0.040	0.113
-679.222	794.840	0.031	0.087
-678.208	22.257	-0.075	-0.062
-677.193	158.843	-0.029	0.041
-676.178	91.386	-0.091	-0.103
-675.164	-69.382	0.062	0.024
-674.149	800.000	-0.081	0.321
-673.135	-72.169	-0.190	0.072
-672.120	-18.844	0.226	-0.143
-671.105	50.917	-0.199	-0.192
-670.091	-128.438	0.080	0.012
-669.076	46.358	0.077	0.073
-668.062	-88.029	0.291	-0.089
-667.047	-65.085	0.231	-0.095
-666.032	221.410	0.077	0.126
-665.018	-187.088	-0.145	-0.002
-664.003	276.368	-0.134	-0.242
-662.989	-5.018	-0.258	0.180
-661.974	399.145	0.077	-0.163
-660.959	-107.161	0.058	-0.013
-659.945	85.114	-0.102	-0.114
-658.930	-106.853	0.047	0.011
-657.916	267.072	0.108	0.191
-656.901	155.866	-0.242	-0.338
-655.886	121.680	0.143	-0.180
-654.872	134.826	-0.146	-0.192
-653.857	29.714	-0.176	-0.152
-652.843	-18.944	0.120	0.076
-651.828	463.370	-0.100	0.225
-650.814	-48.554	0.198	0.096
-649.799	292.902	0.127	-0.234
-648.784	-200.000	0.013	-0.440
-647.770	800.000	0.036	-0.151
-646.755	163.416	-0.071	-0.101
-645.741	-200.000	0.030	-0.140
-644.726	-69.928	0.110	-0.042
-643.711	-200.000	-0.028	-0.309
-642.697	-123.370	-0.233	0.038
-641.682	-42.388	-0.117	-0.060
-640.668	-148.443	-0.388	-0.032
-639.653	-58.724	0.019	-0.008
-638.638	-85.145	-0.063	0.020
-637.624	-22.815	0.111	-0.068
-636.609	23.510	0.259	0.216
-635.595	-58.077	-0.214	-0.095
-634.580	-148.758	0.303	0.025
-633.565	287.000	-0.047	0.087
-632.551	167.812	-0.173	-0.249
-631.536	193.771	0.136	0.209
-630.522	-38.168	-0.356	0.191
-629.507	244.617	-0.148	0.252
-628.492	55.412	0.095	-0.093
-627.478	-30.380	-0.158	-0.091
-626.463	-115.864	-0.116	0.022
-625.449	-38.708	0.171	-0.091
-624.434	-200.000	-0.447	0.001
-623.419	-163.448	-0.196	-0.009
-622.405	-29.860	-0.256	0.147
-621.390	307.681	0.045	-0.085
-620.376	-143.751	0.175	-0.017
-619.361	-200.000	0.027	-0.389
-618.346	473.795	-0.047	-0.107
-617.332	58.353	-0.156	-0.154
-616.317	411.898	0.091	-0.196
-615.303	-117.703	0.287	-0.052
-614.288	-105.720	-0.152	-0.035
-613.273	-86.468	-0.197	-0.061
-612.259	-21.813	0.261	-0.161
-611.244	655.757	0.144	-0.374
-610.230	-167.849	0.129	-0.005
-609.215	-200.000	-0.044	0.268
-608.201	35.791	-0.106	0.094
-607.186	182.380	-0.144	0.215
-606.171	-200.000	-0.026	0.193
-605.157	-200.000	0.012	0.107
-604.142	-200.000	-0.014	-0.112
-603.128	104.931	-0.158	0.188
-602.113	-200.000	-0.011	-0.196
-601.098	-200.000	0.019	-0.091
-600.084	-200.000	0.030	0.211
-599.069	-200.000	-0.009	0.268
-598.055	-32.678	0.054	-0.030
-597.040	800.000	-0.091	-0.322
-596.025	-200.000	0.024	-0.132
-595.011	501.785	0.080	-0.186
-593.996	-94.020	-0.238	-0.066
-592.982	47.078	0.079	0.075
-591.967	-18.103	0.286	0.181
-590.952	-200.000	0.006	0.060
-589.938	-200.000	0.009	0.079
-588.923	-200.000	0.006	0.196
-587.909	-32.194	-0.122	0.069
-586.894	-14.187	-0.133	0.087
-585.879	-120.341	0.165	0.028
-584.865	-52.606	0.212	0.099
-583.850	-72.057	0.138	0.052
-582.836	28.865	-0.250	-0.214
-581.821	-134.334	-0.225	0.028
-580.806	-97.133	0.202	0.053
-579.792	286.072	0.053	-0.097
-578.777	-200.000	0.012	-0.166
-577.763	27.462	0.135	-0.115
-576.748	-64.990	0.385	0.157
-575.733	-22.869	-0.176	-0.107
-574.719	-200.000	0.003	0.385
-573.704	-162.359	-0.249	0.013
-572.690	27.287	-0.087	0.074
-571.675	-20.999	0.187	-0.116
-570.661	34.150	-0.058	-0.051
-569.646	-91.322	0.236	-0.068
-568.631	-21.253	0.070	0.043
-567.617	209.171	-0.214	0.338
-566.602	-97.476	-0.131	-0.035
-565.588	122.258	0.197	-0.249
-564.573	-200.000	0.013	0.165
-563.558	-53.028	0.374	0.174
-562.544	335.353	-0.103	0.201
-561.529	-200.000	0.025	-0.141
-560.515	-45.393	-0.172	0.086
-559.500	-200.000	0.001	0.081
-558.485	115.633	0.059	0.073
-557.471	-81.041	-0.238	0.079
-556.456	120.107	-0.134	-0.168
-555.442	-82.018	-0.180	0.059
-554.427	-101.396	-0.327	0.081
-553.412	360.258	-0.154	-0.312
-552.398	-53.943	0.325	0.149
-551.383	-131.853	-0.151	-0.020
-550.369	-200.000	-0.077	-0.378
-549.354	90.002	0.225	-0.253
-548.339	275.313	0.098	0.175
-547.325	11.409	-0.249	0.193
-546.310	-200.000	0.001	0.206
-545.296	-200.000	0.012	0.128
-544.281	-68.086	0.243	0.096
-543.266	800.000	-0.077	-0.277
-542.252	-200.000	0.014	0.081
-541.237	-200.000	0.067	-0.340
-540.223	-23.165	-0.110	-0.067
-539.208	800.000	0.104	0.353
-538.193	-40.897	0.053	0.028
-537.179	-187.893	-0.449	-0.006
-536.164	-87.912	-0.248	-0.075
-535.150	-24.076	-0.154	0.093
-534.135	800.000	0.059	-0.171
-533.121	-200.000	0.010	0.141
-532.106	131.902	-0.082	0.106
-531.091	-48.704	-0.135	0.065
-530.077	99.939	0.107	-0.125
-529.062	-84.933	0.163	-0.052
-528.048	800.000	-0.087	-0.282
-527.033	-200.000	0.003	0.444
-526.018	447.148	-0.104	-0.230
-525.004	-83.683	0.172	-0.055
-523.989	6.035	-0.314	-0.235
-522.975	12.725	-0.074	0.057
-521.960	116.320	0.309	-0.381
-520.945	-96.569	0.042	-0.011
-519.931	162.707	-0.129	-0.183
-518.916	22.199	-0.151	0.124
-517.902	800.000	0.022	0.077
-516.887	-200.000	0.053	-0.313
-515.872	800.000	0.050	0.178
-514.858	-87.306	-0.067	0.020
-513.843	161.897	0.223	-0.314
-512.829	-200.000	-0.053	0.324
-511.814	563.141	-0.025	-0.062
-510.799	-109.776	-0.211	0.045
-509.785	-164.444	-0.098	-0.005
-508.770	662.442	0.179	-0.465
-507.756	-200.000	-0.041	0.319
-506.741	-200.000	0.034	-0.155
-505.726	316.017	0.061	0.115
-504.712	153.210	0.125	0.172
-503.697	-20.115	-0.058	0.036
-502.683	-200.000	0.007	0.132
-501.668	173.090	0.141	-0.205
-500.653	-107.197	-0.111	0.025
-499.639	2.506	-0.154	-0.112
-498.624	-31.041	-0.221	0.126
-497.610	-84.173	0.163	-0.052
-496.595	-111.109	0.095	-0.020
-495.581	113.211	0.036	-0.043
-494.566	-200.000	0.070	0.325
-493.551	697.149	0.121	0.321
-492.537	800.000	-0.045	-0.136
-491.522	-107.089	0.164	-0.036
-490.508	-85.701	-0.208	-0.065
-489.493	800.000	-0.089	-0.327
-488.478	-27.807	-0.018	-0.010
-487.464	177.897	0.049	0.072
-486.449	-141.467	0.029	-0.003
-485.435	-200.000	-0.002	-0.068
-484.420	-68.928	0.167	0.065
-483.405	-71.298	-0.183	0.069
-482.391	433.840	-0.023	-0.051
-481.376	-97.185	-0.079	-0.021
-480.362	-11.976	-0.073	0.048
-479.347	136.980	0.173	-0.228
-478.332	159.587	0.082	0.115
-477.318	102.977	0.308	-0.362
-476.303	-49.455	0.087	0.042
-475.289	-78.331	-0.082	-0.028
-474.274	110.074	-0.059	0.071
-473.259	-180.024	-0.024	-0.001
-472.245	-176.264	-0.111	-0.003
-471.230	-52.610	0.072	-0.034
-470.216	-200.000	-0.012	-0.119
-469.201	-38.706	-0.107	-0.057
-468.186	-15.587	0.051	-0.033
-467.172	87.055	-0.186	-0.207
-466.157	200.747	0.201	-0.310
-465.143	-101.774	-0.123	0.030
-464.128	-81.268	0.123	0.041
-463.113	0.873	0.135	0.097
-462.099	800.000	-0.064	0.191
-461.084	172.538	0.272	0.393
-460.070	800.000	0.122	0.531
-459.055	201.268	-0.177	0.274
-458.040	800.000	-0.099	0.317
-457.026	138.035	-0.271	0.358
-456.011	800.000	0.035	-0.145
-454.997	-26.503	-0.161	0.095
-453.982	83.841	0.232	-0.255
-452.968	21.522	-0.134	-0.110
-451.953	-104.324	0.191	0.044
-450.938	-61.904	0.252	0.106
-449.924	-126.847	-0.366	0.054
-448.909	-200.000	0.038	0.475
-447.895	-167.367	0.112	-0.005
-446.880	800.000	0.064	-0.200
-445.865	157.404	0.159	0.221
-444.851	-200.000	0.005	-0.068
-443.836	-151.461	0.251	0.019
-442.822	-101.713	0.013	0.003
-441.807	-15.493	0.238	0.153
-440.792	19.477	0.098	-0.079
-439.778	-121.766	-0.208	-0.035
-438.763	-200.000	-0.037	-0.289
-437.749	-200.000	0.029	-0.230
-436.734	-200.000	0.007	0.222
-435.719	182.925	0.121	-0.179
-434.705	73.284	-0.020	-0.021
-433.690	-22.189	-0.355	0.217
-432.676	-162.576	-0.218	0.011
-431.661	800.000	0.052	0.151
-430.646	-25.303	0.231	-0.137
-429.632	-55.852	0.144	0.065
-428.617	-109.105	0.182	-0.039
-427.603	-104.236	-0.097	-0.023
-426.588	61.310	0.142	0.141
-425.573	260.237	-0.132	0.229
-424.559	-164.476	0.264	-0.012
-423.544	300.447	-0.027	0.051
-422.530	-60.294	-0.159	0.068
-421.515	-200.000	-0.017	0.267
-420.500	-200.000	0.119	0.000
-419.486	-200.000	-0.038	0.208
-418.471	800.000	-0.017	0.072
-417.457	-154.571	-0.138	0.009
-416.442	344.774	0.072	0.141
-415.428	-200.000	-0.020	0.123
-414.413	-70.071	-0.074	-0.028
-413.398	-8.572	0.070	-0.047
-412.384	453.657	-0.016	0.035
-411.369	-104.840	0.174	-0.040
-410.355	-32.601	0.118	0.066
-409.340	311.392	0.195	-0.367
-408.325	-91.808	-0.110	-0.031
-407.311	-200.000	0.059	-0.258
-406.296	800.000	-0.090	-0.321
-405.282	-97.956	-0.438	0.113
-404.267	-91.660	-0.367	-0.105
-403.252	56.337	0.287	0.280
-402.238	-200.000	0.061	0.289
-401.223	-128.611	-0.135	-0.019
-400.209	429.668	-0.028	-0.061
-399.194	-200.000	-0.015	-0.222
-398.179	800.000	0.054	-0.177
-397.165	703.789	-0.041	0.109
-396.150	-198.384	-0.246	0.001
-395.136	-171.118	-0.128	0.004
-394.121	47.708	0.097	0.091
-393.106	57.373	0.122	-0.120
-392.092	-37.288	-0.104	-0.056
-391.077	-119.259	-0.187	-0.033
-390.063	107.976	-0.071	0.085
-389.048	-200.000	-0.027	0.215
-388.033	-200.000	-0.046	0.205
-387.019	-2.656	0.244	-0.171
-386.004	325.517	0.048	0.091
-384.990	800.000	-0.050	0.197
-383.975	-147.768	0.266	-0.022
-382.960	-200.000	0.009	-0.048
-381.946	-200.000	0.059	-0.266
-380.931	63.366	-0.093	-0.094
-379.917	800.000	-0.083	0.230
-378.902	-31.466	-0.086	-0.049
-377.888	800.000	0.009	-0.039
-376.873	307.693	0.119	0.222
-375.858	360.563	-0.071	-0.142
-374.844	117.931	-0.106	0.131
-373.829	-200.000	-0.003	0.258
-372.815	164.795	-0.156	-0.221
-371.800	1.595	-0.088	-0.063
-370.785	800.000	-0.150	-0.430
-369.771	-200.000	-0.051	0.283
-368.756	-200.000	-0.018	0.132
-367.742	77.256	-0.182	0.194
-366.727	334.262	-0.113	-0.218
-365.712	-143.605	0.284	-0.027
-364.698	-49.532	-0.127	-0.061
-363.683	-101.726	-0.148	-0.036
-362.669	-28.845	0.032	-0.018
-361.654	-97.500	0.182	-0.047
-360.639	-123.878	0.387	0.061
-359.625	87.273	-0.094	-0.104
-358.610	210.309	0.174	0.274
-357.596	19.889	-0.076	-0.062
-356.581	90.080	0.256	0.286
-355.566	-200.000	0.019	0.291
-354.552	17.540	-0.155	-0.123
-353.537	-200.000	0.001	-0.149
-352.523	-132.143	-0.107	-0.014
-351.508	124.557	0.203	0.256
-350.493	-200.000	0.045	-0.213
-349.479	800.000	-0.035	-0.135
-348.464	638.264	-0.038	0.098
-347.450	276.292	0.141	0.251
-346.435	-175.312	0.414	-0.011
-345.420	-93.128	0.199	-0.055
-344.406	-200.000	0.005	0.293
-343.391	800.000	-0.063	0.225
-342.377	-97.204	-0.299	-0.078
-341.362	-169.695	0.371	-0.013
-340.348	-90.336	-0.093	0.027
-339.333	-26.186	-0.280	-0.165
-338.318	800.000	-0.087	-0.268
-337.304	586.605	-0.111	-0.274
-336.289	-124.953	-0.170	-0.026
-335.275	-111.781	-0.227	0.046
-334.260	88.197	-0.139	-0.154
-333.245	-200.000	-0.069	0.417
-332.231	-200.000	0.016	-0.076
-331.216	446.913	-0.210	-0.461
-330.202	53.644	0.213	-0.205
-329.187	800.000	-0.030	0.084
-328.172	-200.000	0.007	-0.077
-327.158	800.000	-0.037	-0.144
-326.143	-27.092	-0.224	-0.131
-325.129	-179.703	0.058	-0.001
-324.114	-57.025	-0.210	0.093
-323.099	-200.000	0.042	0.184
-322.085	155.585	-0.101	-0.139
-321.070	-200.000	-0.004	0.400
-320.056	101.318	-0.169	-0.197
-319.041	101.394	0.167	-0.194
-318.026	621.600	-0.155	0.391
-317.012	405.252	-0.033	-0.070
-315.997	8.427	-0.066	-0.049
-314.983	229.895	-0.148	-0.241
-313.968	102.818	-0.115	-0.135
-312.953	-109.482	0.262	0.055
-311.939	-60.581	0.258	0.109
-310.924	-123.819	0.192	0.030
-309.910	-84.419	0.135	0.043
-308.895	-3.823	-0.084	-0.058
-307.880	800.000	-0.071	-0.197
-306.866	-129.658	-0.264	0.036
-305.851	-122.960	0.364	-0.059
-304.837	144.461	-0.091	0.122
-303.822	-33.508	0.083	-0.046
-302.807	211.610	0.073	-0.114
-301.793	-74.982	-0.198	0.071
-300.778	800.000	-0.093	-0.386
-299.764	-200.000	-0.035	0.209
-298.749	-200.000	-0.015	-0.123
-297.735	-200.000	-0.002	0.318
-296.720	-200.000	0.024	-0.271
-295.705	-99.916	0.477	-0.119
-294.691	106.592	-0.142	0.168
-293.676	111.359	0.212	-0.255
-292.662	72.758	-0.250	0.261
-291.647	290.197	-0.071	-0.129
-290.632	-87.626	0.055	-0.017
-289.618	5.680	0.272	-0.201
-288.603	-83.086	0.185	-0.060
-287.589	-200.000	-0.017	-0.156
-286.574	800.000	-0.065	0.269
-285.559	195.086	-0.207	0.314
-284.545	48.228	0.395	0.369
-283.530	-106.054	0.129	-0.029
-282.516	-52.782	-0.303	-0.139
-281.501	-33.937	-0.113	0.062
-280.486	-124.453	-0.222	0.035
-279.472	-123.581	-0.478	0.076
-278.457	334.650	0.039	0.075
-277.443	38.893	0.055	-0.049
-276.428	-120.723	-0.131	0.022
-275.413	-200.000	-0.025	0.328
-274.399	-161.091	-0.337	0.018
-273.384	446.266	0.072	-0.158
-272.370	-200.000	-0.029	-0.158
-271.355	-42.595	0.081	0.041
-270.340	55.335	0.168	-0.162
-269.326	-3.605	-0.277	0.192
-268.311	-200.000	-0.071	0.332
-267.297	161.617	0.107	0.149
-266.282	-92.528	0.310	0.087
-265.267	24.204	-0.246	-0.203
-264.253	-47.785	-0.025	0.012
-263.238	44.556	-0.078	-0.072
-262.224	-37.550	-0.147	-0.078
-261.209	538.954	-0.033	-0.079
-260.195	-200.000	0.022	0.284
-259.180	-36.249	0.175	0.094
-258.165	10.128	-0.192	-0.146
-257.151	-63.821	-0.175	-0.072
-256.136	-37.755	-0.169	0.090
-255.122	800.000	0.063	-0.261
-254.107	72.055	0.230	0.239
-253.092	-60.452	0.200	0.085
-252.078	81.133	0.247	0.266
-251.063	-200.000	0.055	-0.241
-250.049	135.414	0.033	0.043
-249.034	-85.441	-0.222	-0.069
-248.019	83.158	-0.212	-0.230
-247.005	-59.554	-0.129	0.055
-245.990	-134.069	0.217	0.027
-244.976	-200.000	0.007	-0.115
-243.961	697.586	0.107	-0.281
-242.946	-120.519	-0.175	0.030
-241.932	-200.000	-0.022	-0.213
-240.917	-33.165	0.232	0.128
-239.903	-152.977	0.398	-0.028
-238.888	-1.270	0.175	-0.123
-237.873	-105.276	0.164	0.037
-236.859	100.914	0.068	0.079
-235.844	-16.446	0.044	-0.028
-234.830	27.253	0.284	-0.237
-233.815	-200.000	0.008	-0.112
-232.800	377.464	0.017	-0.035
-231.786	-28.850	0.273	0.156
-230.771	158.470	-0.061	-0.085
-229.757	-52.639	-0.213	0.098
-228.742	187.370	0.084	0.125
-227.727	8.039	-0.045	-0.033
-226.713	0.466	-0.117	0.084
-225.698	120.687	-0.290	0.359
-224.684	-121.746	0.193	0.032
-223.669	-200.000	0.039	0.372
-222.655	-200.000	-0.010	0.115
-221.640	-6.810	0.197	0.133
-220.625	-80.240	-0.297	0.099
-219.611	-147.634	0.091	0.008
-218.596	14.387	0.029	-0.023
-217.582	-13.128	0.341	0.221
-216.567	-200.000	0.022	-0.298
-215.552	-102.142	0.247	-0.059
-214.538	800.000	0.112	0.399
-213.523	25.760	0.130	-0.108
-212.509	3.148	0.197	-0.142
-211.494	-107.493	-0.268	-0.059
-210.479	28.233	-0.168	-0.141
-209.465	-22.870	-0.151	0.091
-208.450	2.154	-0.178	-0.128
-207.436	-200.000	0.013	-0.066
-206.421	-117.085	-0.062	0.011
-205.406	143.575	0.160	-0.212
-204.392	319.865	0.076	-0.144
-203.377	-200.000	-0.086	-0.399
-202.363	-200.000	-0.003	0.159
-201.348	-35.937	-0.163	-0.088
-200.333	239.265	0.096	-0.158
-199.319	-114.401	-0.173	0.033
-198.304	348.251	-0.028	-0.054
-197.290	-0.144	0.125	0.088
-196.275	-200.000	0.011	-0.168
-195.260	-200.000	0.003	0.052
-194.246	-93.885	0.220	-0.060
-193.231	677.231	0.098	0.254
-192.217	-108.527	0.068	0.015
-191.202	91.290	0.053	-0.059
-190.187	760.238	-0.025	-0.068
-189.173	-149.501	-0.148	-0.012
-188.158	-71.919	0.343	-0.127
-187.144	-200.000	0.048	-0.211
-186.129	-2.822	-0.372	0.259
-185.114	36.505	0.061	0.053
-184.100	-10.745	0.252	0.166
-183.085	-77.977	-0.144	-0.049
-182.071	271.266	0.097	0.171
-181.056	20.262	-0.103	-0.082
-180.042	277.632	-0.078	-0.138
-179.027	-200.000	-0.008	-0.143
-178.012	201.025	0.105	0.160
-176.998	57.842	0.148	0.144
-175.983	27.947	0.165	-0.139
-174.969	75.815	0.114	0.119
-173.954	-200.000	-0.022	-0.161
-172.939	346.937	0.092	-0.179
-171.925	-50.821	0.205	-0.096
-170.910	-53.152	-0.386	-0.176
-169.896	-200.000	0.031	-0.142
-168.881	282.013	-0.059	-0.105
-167.866	332.901	0.150	0.288
-166.852	423.172	0.059	-0.125
-165.837	105.361	0.071	0.084
-164.823	0.762	-0.168	0.119
-163.808	198.154	0.063	0.095
-162.793	80.024	-0.099	-0.106
-161.779	-68.969	0.287	0.110
-160.764	226.513	-0.082	0.133
-159.750	-58.133	0.094	0.041
-158.735	52.574	0.154	-0.147
-157.720	-145.357	0.062	-0.006
-156.706	-81.151	0.291	0.096
-155.691	468.341	-0.077	0.171
-154.677	164.168	0.049	0.069
-153.662	800.000	0.057	0.188
-152.647	110.817	0.029	-0.035
-151.633	571.647	-0.055	-0.132
-150.618	117.062	0.135	0.165
-149.604	112.902	0.126	-0.152
-148.589	-1.471	0.097	0.068
-147.574	-200.000	0.022	-0.220
-146.560	-110.575	-0.179	0.037
-145.545	23.449	-0.102	0.083
-144.531	6.315	-0.206	0.152
-143.516	35.478	0.045	-0.039
-142.502	76.186	-0.145	0.152
-141.487	-85.424	0.205	-0.063
-140.472	-54.822	0.390	-0.175
-139.458	79.603	0.122	-0.130
-138.443	-169.628	0.398	0.014
-137.429	202.540	-0.179	-0.274
-136.414	-97.039	-0.184	-0.048
-135.399	-70.511	0.191	-0.072
-134.385	787.772	-0.042	0.114
-133.370	-82.347	-0.191	-0.062
-132.356	-37.873	-0.239	0.126
-131.341	123.676	0.186	-0.232
-130.326	134.714	-0.196	-0.253
-129.312	-143.515	-0.159	0.015
-128.297	84.290	0.094	0.102
-127.283	123.392	0.137	-0.170
-126.268	-82.065	-0.341	-0.111
-125.253	-200.000	0.001	-0.115
-124.239	-200.000	-0.034	-0.257
-123.224	-168.192	0.036	0.001
-122.210	42.587	0.268	-0.242
