DTS Sentinel unit serial number:	SN413079Multiplexer serial number:	ORYXHardware model number:	OX4-SRSoftware version number:	ORYX F/W v4.00 Oryx Data Collector v3.7.2.0data status	okinstallation	princeton_trtdifferential loss correction	single-endedforward channel	channel 1reverse channel	N/Adate	2019/09/16time	07:30:35forward acquisition time	60.00reverse acquisition time	0.00gamma	496.2192k internal	0.2330k external	0.2330temperature offset calibration	0.9981default loss term (dB/km)	0.3790temperature slope calibration	1.0000multiplexer offset coefficient	1.0000multiplexer slope coefficient	1.0000fibre end	0.00T internal ref (°C)	27.61T ext. ref 1 (°C)	11.62T ext. ref 2 (°C)	23.85length (m)	temperature (°C)	Stokes	anti-Stokes-747.200	219.996	-0.077	-0.124
-746.185	-200.000	-0.052	0.234
-745.171	140.225	-0.127	-0.169
-744.156	-200.000	0.001	0.045
-743.142	11.119	-0.157	0.121
-742.127	-200.000	0.017	0.385
-741.112	73.546	0.154	0.162
-740.098	677.827	-0.094	0.246
-739.083	-200.000	-0.039	0.309
-738.069	-7.942	0.197	-0.134
-737.054	179.400	0.122	-0.179
-736.039	-200.000	-0.047	-0.474
-735.025	-162.010	0.152	0.008
-734.010	116.795	-0.076	-0.094
-732.996	-18.265	-0.254	0.160
-731.981	-25.919	-0.016	-0.009
-730.966	-200.000	0.011	-0.142
-729.952	-78.000	0.173	-0.060
-728.937	-170.188	-0.517	-0.018
-727.923	-137.690	-0.060	-0.007
-726.908	-200.000	0.009	-0.093
-725.894	-47.768	0.281	-0.137
-724.879	-50.157	-0.159	0.076
-723.864	-200.000	0.028	0.351
-722.850	-200.000	-0.018	-0.312
-721.835	240.750	-0.073	0.123
-720.821	-75.051	-0.378	-0.136
-719.806	30.618	0.289	0.249
-718.791	-200.000	-0.031	0.217
-717.777	-200.000	-0.015	-0.334
-716.762	-110.785	-0.203	-0.042
-715.748	223.972	-0.098	-0.159
-714.733	357.585	-0.115	-0.231
-713.718	-70.710	-0.186	0.071
-712.704	166.275	0.301	0.428
-711.689	800.000	-0.131	0.378
-710.675	-200.000	-0.059	-0.311
-709.660	44.817	-0.221	-0.204
-708.645	1.461	0.117	0.084
-707.631	-136.176	0.274	-0.032
-706.616	-8.041	-0.245	-0.166
-705.602	-200.000	-0.007	0.039
-704.587	318.945	-0.041	0.077
-703.572	-200.000	-0.017	0.305
-702.558	-68.541	-0.409	-0.159
-701.543	225.277	0.123	0.200
-700.529	800.000	-0.091	-0.370
-699.514	385.562	-0.151	-0.313
-698.499	101.186	0.045	0.052
-697.485	-27.488	-0.144	-0.084
-696.470	-51.746	0.180	-0.084
-695.456	-200.000	-0.025	0.157
-694.441	86.716	0.155	-0.172
-693.426	128.710	-0.056	-0.072
-692.412	-200.000	0.009	-0.315
-691.397	-200.000	0.017	-0.366
-690.383	-27.274	0.084	-0.049
-689.368	-200.000	-0.013	-0.062
-688.354	-114.004	0.219	0.043
-687.339	800.000	0.001	-0.004
-686.324	271.784	-0.103	0.182
-685.310	800.000	0.067	0.185
-684.295	116.632	-0.188	-0.232
-683.281	-200.000	-0.051	-0.282
-682.266	54.925	-0.098	0.095
-681.251	248.625	0.149	-0.254
-680.237	52.754	-0.141	-0.135
-679.222	332.871	0.101	0.195
-678.208	620.600	0.045	0.113
-677.193	-10.597	-0.343	-0.228
-676.178	-187.330	0.317	-0.004
-675.164	793.063	-0.152	-0.419
-674.149	-200.000	-0.020	-0.261
-673.135	-132.019	-0.150	0.020
-672.120	-105.835	-0.121	-0.027
-671.105	167.567	0.199	0.283
-670.091	771.262	-0.090	0.245
-669.076	-106.018	0.185	-0.042
-668.062	-200.000	-0.023	-0.118
-667.047	-200.000	-0.019	-0.394
-666.032	517.120	-0.106	-0.249
-665.018	635.842	-0.062	-0.158
-664.003	52.007	0.134	0.129
-662.989	-144.471	-0.292	-0.027
-661.974	-200.000	-0.040	-0.444
-660.959	643.101	0.051	-0.130
-659.945	-23.043	-0.271	0.164
-658.930	-200.000	-0.010	-0.110
-657.916	115.102	-0.212	-0.260
-656.901	-10.878	-0.098	-0.065
-655.886	800.000	-0.005	-0.015
-654.872	-200.000	0.018	0.267
-653.857	-200.000	-0.021	-0.151
-652.843	267.409	0.185	-0.324
-651.828	-200.000	-0.011	0.308
-650.814	45.791	0.249	0.231
-649.799	788.979	0.100	0.276
-648.784	351.539	0.154	-0.307
-647.770	800.000	-0.037	0.142
-646.755	-40.570	0.114	0.059
-645.741	-158.546	0.036	0.002
-644.726	-19.230	0.139	-0.086
-643.711	-162.474	-0.320	-0.016
-642.697	585.394	-0.007	-0.017
-641.682	-200.000	0.003	-0.038
-640.668	-107.093	0.334	-0.074
-639.653	-81.943	0.174	-0.057
-638.638	-115.646	-0.315	-0.059
-637.624	21.901	-0.232	-0.189
-636.609	-124.004	-0.209	0.033
-635.595	2.083	-0.162	0.118
-634.580	2.460	0.238	-0.173
-633.565	-200.000	0.078	-0.463
-632.551	239.826	-0.175	-0.292
-631.536	361.919	-0.083	-0.167
-630.522	9.140	0.277	0.210
-629.507	800.000	-0.058	0.172
-628.492	-142.502	0.246	0.024
-627.478	19.765	-0.168	-0.136
-626.463	-12.592	0.126	-0.083
-625.449	136.618	-0.251	0.328
-624.434	-99.276	-0.299	0.076
-623.419	800.000	-0.017	-0.050
-622.405	-169.773	0.505	-0.018
-621.390	-200.000	-0.017	-0.135
-620.376	-200.000	-0.002	-0.249
-619.361	-110.174	-0.265	0.055
-618.346	527.703	-0.040	0.095
-617.332	-200.000	0.004	0.245
-616.317	-116.978	0.156	-0.028
-615.303	112.439	-0.317	-0.384
-614.288	-96.109	-0.164	-0.044
-613.273	-200.000	0.020	-0.126
-612.259	191.914	0.124	-0.188
-611.244	-78.682	0.058	0.020
-610.230	89.047	0.128	-0.143
-609.215	-77.726	-0.322	-0.112
-608.201	800.000	0.058	-0.216
-607.186	13.729	-0.219	-0.170
-606.171	-200.000	-0.021	-0.216
-605.157	107.960	0.031	-0.038
-604.142	-122.632	-0.364	-0.059
-603.128	70.124	0.071	0.073
-602.113	163.529	0.110	-0.155
-601.098	800.000	0.056	0.229
-600.084	-13.084	-0.301	0.196
-599.069	-101.681	-0.270	-0.066
-598.055	93.344	-0.114	0.129
-597.040	26.877	-0.031	0.026
-596.025	-36.901	-0.360	0.193
-595.011	800.000	-0.081	0.260
-593.996	-37.775	0.260	0.138
-592.982	-149.611	-0.214	0.017
-591.967	82.633	-0.105	0.115
-590.952	636.320	0.084	0.213
-589.938	9.461	0.234	-0.177
-588.923	532.448	0.106	-0.252
-587.909	-200.000	0.008	-0.339
-586.894	-55.472	-0.072	-0.032
-585.879	-23.462	0.102	0.061
-584.865	403.485	-0.110	0.231
-583.850	-137.178	-0.275	-0.031
-582.836	800.000	-0.072	-0.274
-581.821	20.783	-0.232	0.188
-580.806	-133.021	-0.169	-0.022
-579.792	800.000	0.041	-0.148
-578.777	-100.819	-0.269	0.066
-577.763	182.613	-0.155	0.229
-576.748	264.679	0.101	-0.176
-575.733	226.265	0.319	-0.518
-574.719	-158.325	-0.194	0.011
-573.704	-137.764	-0.192	0.022
-572.690	57.970	0.198	0.194
-571.675	-200.000	0.007	0.313
-570.661	-136.167	0.118	-0.014
-569.646	-9.550	0.053	-0.036
-568.631	496.307	0.100	0.230
-567.617	800.000	-0.078	-0.217
-566.602	-69.062	-0.178	-0.069
-565.588	796.254	-0.046	-0.126
-564.573	-121.160	0.449	0.075
-563.558	800.000	0.068	0.274
-562.544	44.185	0.256	0.234
-561.529	-200.000	0.004	-0.235
-560.515	-200.000	0.060	-0.398
-559.500	-27.970	0.178	0.103
-558.485	-158.989	-0.157	0.009
-557.471	266.392	-0.141	0.246
-556.456	18.542	0.284	-0.227
-555.442	15.115	-0.283	-0.222
-554.427	-53.521	-0.264	-0.121
-553.412	-22.070	0.374	0.227
-552.398	800.000	0.048	-0.140
-551.383	-180.368	0.243	0.005
-550.369	116.458	0.212	0.259
-549.354	-74.504	0.113	-0.041
-548.339	800.000	0.013	0.037
-547.325	-140.678	0.325	0.034
-546.310	-48.474	-0.104	0.050
-545.296	120.608	-0.093	0.116
-544.281	137.494	-0.065	-0.085
-543.266	-200.000	-0.007	-0.275
-542.252	274.128	0.087	-0.153
-541.237	-110.679	-0.216	-0.045
-540.223	-76.847	-0.105	0.037
-539.208	-112.151	0.365	0.073
-538.193	-200.000	0.016	0.079
-537.179	-145.830	0.349	-0.031
-536.164	237.567	-0.135	0.223
-535.150	-179.975	0.398	0.008
-534.135	74.942	0.112	0.118
-533.121	-200.000	-0.032	-0.152
-532.106	212.889	-0.111	-0.175
-531.091	-20.823	-0.238	0.146
-530.077	-129.757	0.333	-0.046
-529.062	-200.000	-0.035	0.276
-528.048	-25.218	0.052	0.031
-527.033	326.977	-0.023	0.044
-526.018	80.918	0.253	0.272
-525.004	33.853	0.366	0.318
-523.989	-166.625	0.304	0.013
-522.975	800.000	-0.147	0.453
-521.960	-183.070	0.336	0.006
-520.945	-158.880	-0.094	0.005
-519.931	-200.000	-0.004	-0.124
-518.916	-200.000	-0.050	0.334
-517.902	503.425	-0.135	-0.311
-516.887	-200.000	-0.011	-0.363
-515.872	800.000	0.078	0.326
-514.858	-3.388	-0.061	0.043
-513.843	694.702	-0.068	-0.177
-512.829	-144.196	-0.417	-0.039
-511.814	-148.709	-0.359	-0.029
-510.799	-24.506	0.185	-0.110
-509.785	65.197	-0.086	-0.087
-508.770	-116.894	-0.189	0.034
-507.756	-77.401	0.382	0.132
-506.741	509.528	0.170	0.394
-505.726	-105.393	0.121	-0.027
-504.712	-200.000	-0.027	0.335
-503.697	800.000	0.119	0.330
-502.683	800.000	-0.057	-0.227
-501.668	-69.059	0.195	-0.075
-500.653	-112.639	-0.159	0.031
-499.639	-73.838	0.067	0.024
-498.624	97.070	0.272	0.311
-497.610	-14.954	0.378	0.241
-496.595	37.365	0.205	-0.181
-495.581	-200.000	0.451	0.000
-494.566	800.000	-0.117	0.378
-493.551	-46.330	-0.111	0.054
-492.537	67.761	0.181	-0.185
-491.522	800.000	0.050	0.165
-490.508	-200.000	-0.070	-0.366
-489.493	340.542	0.079	0.154
-488.478	-113.928	-0.252	0.049
-487.464	80.462	0.194	0.209
-486.449	-47.743	0.047	0.023
-485.435	-27.704	-0.079	-0.045
-484.420	800.000	0.026	0.091
-483.405	94.050	0.173	0.196
-482.391	270.489	-0.044	-0.077
-481.376	-77.005	-0.084	-0.029
-480.362	-69.020	-0.179	0.069
-479.347	-76.191	0.202	0.071
-478.332	46.586	-0.218	-0.201
-477.318	800.000	0.051	-0.189
-476.303	308.426	0.011	-0.021
-475.289	152.846	0.097	-0.132
-474.274	471.470	0.028	-0.062
-473.259	295.407	-0.184	-0.336
-472.245	443.496	-0.071	-0.156
-471.230	274.812	0.091	-0.161
-470.216	-114.332	-0.137	-0.026
-469.201	70.722	0.149	-0.154
-468.186	194.538	0.056	0.084
-467.172	-200.000	0.023	0.103
-466.157	-200.000	0.031	0.244
-465.143	-0.568	0.302	-0.213
-464.128	-193.078	0.068	0.001
-463.113	-105.762	0.182	-0.041
-462.099	26.178	-0.124	0.103
-461.084	-90.574	-0.283	-0.081
-460.070	-130.833	-0.092	0.012
-459.055	-83.615	-0.184	-0.058
-458.040	503.706	0.082	0.189
-457.026	186.539	-0.159	-0.235
-456.011	381.846	0.048	-0.097
-454.997	319.325	-0.144	-0.272
-453.982	-27.281	0.138	0.080
-452.968	187.255	-0.153	-0.227
-451.953	-46.107	-0.206	0.101
-450.938	97.415	0.188	-0.215
-449.924	-140.907	0.241	-0.025
-448.909	10.391	0.199	0.151
-447.895	-24.306	-0.109	0.064
-446.880	125.267	-0.144	0.181
-445.865	-5.068	0.013	0.009
-444.851	269.861	-0.053	-0.092
-443.836	-160.763	-0.239	-0.013
-442.822	-50.042	0.414	0.195
-441.807	-161.749	-0.302	0.015
-440.792	-200.000	0.014	-0.163
-439.778	800.000	0.053	-0.219
-438.763	58.164	-0.271	0.264
-437.749	7.484	0.215	0.160
-436.734	180.037	-0.018	-0.026
-435.719	-91.321	-0.106	0.030
-434.705	135.973	0.208	0.270
-433.690	530.191	-0.130	-0.306
-432.676	-67.616	-0.174	-0.068
-431.661	-23.237	0.337	0.202
-430.646	4.748	0.121	0.088
-429.632	-200.000	0.038	-0.192
-428.617	-92.583	0.180	0.050
-427.603	26.753	-0.210	-0.175
-426.588	-116.969	-0.249	0.045
-425.573	-119.914	0.307	-0.053
-424.559	-56.237	-0.100	0.044
-423.544	800.000	0.029	-0.099
-422.530	-10.270	0.153	0.101
-421.515	1.501	0.267	-0.191
-420.500	166.812	-0.024	0.034
-419.486	161.125	-0.232	0.322
-418.471	-94.009	0.234	-0.064
-417.457	-123.378	-0.209	-0.033
-416.442	800.000	0.101	0.302
-415.428	463.238	-0.027	0.059
-414.413	-42.887	-0.265	-0.134
-413.398	291.434	-0.052	0.094
-412.384	800.000	0.057	-0.234
-411.369	-193.199	-0.221	0.002
-410.355	563.586	-0.125	-0.301
-409.340	-200.000	0.034	-0.218
-408.325	1.043	-0.445	-0.317
-407.311	-137.205	0.169	0.019
-406.296	-133.250	-0.280	-0.035
-405.282	47.876	0.228	0.211
-404.267	-169.942	0.112	-0.004
-403.252	-116.507	-0.251	0.046
-402.238	-114.124	0.202	0.039
-401.223	-200.000	-0.057	-0.332
-400.209	34.887	-0.222	-0.193
-399.194	800.000	0.090	0.256
-398.179	766.731	0.148	-0.399
-397.165	-119.552	-0.177	-0.030
-396.150	91.669	0.141	0.158
-395.136	542.815	-0.106	-0.252
-394.121	652.567	-0.064	-0.164
-393.106	-118.352	-0.067	-0.012
-392.092	-38.162	-0.076	0.040
-391.077	-200.000	-0.050	-0.374
-390.063	520.545	0.123	0.285
-389.048	-200.000	0.000	-0.311
-388.033	-200.000	0.072	-0.337
-387.019	-34.897	-0.138	0.075
-386.004	-65.004	0.162	0.065
-384.990	48.991	0.124	-0.116
-383.975	-200.000	0.042	0.255
-382.960	-41.647	-0.363	-0.185
-381.946	5.948	0.275	0.202
-380.931	-181.015	0.060	0.001
-379.917	-164.673	-0.026	-0.001
-378.902	800.000	-0.035	-0.100
-377.888	-45.662	-0.228	0.112
-376.873	23.829	0.226	-0.184
-375.858	-187.493	0.213	0.003
-374.844	-136.162	-0.098	-0.011
-373.829	-200.000	0.051	0.331
-372.815	800.000	0.067	0.246
-371.800	54.647	-0.295	-0.283
-370.785	-6.960	-0.172	-0.116
-369.771	414.682	0.089	0.189
-368.756	752.403	0.100	0.268
-367.742	-200.000	0.013	0.478
-366.727	127.615	0.133	0.168
-365.712	800.000	-0.009	-0.031
-364.698	157.244	0.163	0.224
-363.683	85.079	-0.176	0.191
-362.669	227.839	-0.164	0.264
-361.654	-66.601	0.293	-0.115
-360.639	86.289	-0.054	0.059
-359.625	-66.887	-0.256	-0.100
-358.610	-21.805	-0.244	-0.148
-357.596	-125.461	0.078	-0.012
-356.581	-81.873	-0.220	0.072
-355.566	-200.000	0.045	0.308
-354.552	-130.823	0.211	-0.028
-353.537	800.000	-0.099	0.277
-352.523	-200.000	0.005	-0.058
-351.508	142.849	-0.223	0.294
-350.493	-116.537	-0.194	0.035
-349.479	-34.529	0.316	-0.172
-348.464	-196.934	-0.182	-0.001
-347.450	-118.618	0.114	-0.020
-346.435	-31.630	0.171	-0.095
-345.420	-18.057	0.077	0.048
-344.406	191.333	0.068	0.101
-343.391	16.994	0.064	0.050
-342.377	94.213	-0.085	-0.096
-341.362	142.426	-0.287	-0.377
-340.348	-35.821	-0.109	0.059
-339.333	47.801	0.192	-0.178
-338.318	800.000	0.048	-0.143
-337.304	71.441	-0.134	-0.138
-336.289	-79.829	0.345	-0.115
-335.275	-73.605	-0.367	-0.132
-334.260	742.559	-0.059	-0.157
-333.245	85.681	0.037	-0.040
-332.231	283.363	-0.010	0.017
-331.216	-200.000	0.005	-0.167
-330.202	300.122	-0.057	-0.104
-329.187	75.579	0.191	0.199
-328.172	229.423	0.047	0.077
-327.158	-200.000	-0.003	0.060
-326.143	428.262	0.007	0.015
-325.129	-84.553	-0.357	0.112
-324.114	363.431	0.083	0.165
-323.099	-114.411	0.263	0.050
-322.085	159.592	0.177	0.243
-321.070	92.682	0.151	-0.169
-320.056	99.568	0.271	-0.310
-319.041	800.000	-0.083	-0.338
-318.026	800.000	-0.110	0.328
-317.012	-107.695	-0.195	0.042
-315.997	361.772	0.170	-0.338
-314.983	19.672	-0.022	-0.018
-313.968	297.132	-0.249	-0.452
-312.953	-0.438	0.273	0.192
-311.939	5.164	-0.084	-0.061
-310.924	189.452	-0.073	0.108
-309.910	-25.439	0.310	0.181
-308.895	-74.174	-0.448	0.161
-307.880	-200.000	-0.043	0.225
-306.866	-41.983	-0.120	0.061
-305.851	104.972	-0.151	0.176
-304.837	-200.000	0.015	-0.100
-303.822	107.499	0.216	0.254
-302.807	-200.000	0.075	0.347
-301.793	412.555	0.164	0.345
-300.778	-89.519	-0.108	0.031
-299.764	800.000	-0.126	-0.474
-298.749	-95.009	0.165	-0.044
-297.735	-119.592	0.405	0.069
-296.720	-200.000	-0.004	0.087
-295.705	-200.000	0.062	-0.531
-294.691	49.459	0.341	0.318
-293.676	800.000	0.039	-0.167
-292.662	280.309	0.099	0.175
-291.647	800.000	-0.064	0.256
-290.632	-200.000	-0.037	-0.281
-289.618	-66.595	-0.205	-0.080
-288.603	-200.000	0.003	0.287
-287.589	16.648	0.024	0.019
-286.574	80.375	0.289	-0.308
-285.559	800.000	0.078	0.222
-284.545	288.879	-0.033	0.059
-283.530	150.540	-0.127	-0.170
-282.516	-27.469	-0.258	-0.148
-281.501	-33.204	-0.056	0.031
-280.486	-44.712	-0.136	0.067
-279.472	-131.936	-0.247	0.032
-278.457	800.000	-0.084	0.233
-277.443	-118.084	0.194	0.034
-276.428	-190.980	-0.186	-0.002
-275.413	263.614	-0.103	0.178
-274.399	-58.030	0.252	0.108
-273.384	-200.000	-0.021	0.190
-272.370	800.000	0.123	0.406
-271.355	-1.558	-0.068	-0.047
-270.340	-61.455	0.067	-0.028
-269.326	-134.864	-0.398	0.048
-268.311	-73.231	-0.214	0.077
-267.297	203.637	-0.070	0.107
-266.282	800.000	-0.059	-0.197
-265.267	800.000	-0.150	-0.421
-264.253	-3.079	0.066	0.045
-263.238	-200.000	-0.037	0.234
-262.224	-200.000	0.013	0.131
-261.209	-2.855	-0.198	0.137
-260.195	182.854	0.076	0.110
-259.180	-167.701	0.113	-0.004
-258.165	800.000	-0.046	-0.156
-257.151	98.291	-0.194	0.220
-256.136	-200.000	0.016	0.178
-255.122	-2.887	0.156	0.108
-254.107	-200.000	0.007	-0.115
-253.092	108.491	-0.197	0.232
-252.078	-105.418	-0.114	-0.026
-251.063	33.572	0.118	0.101
-250.049	44.896	0.087	-0.079
-249.034	12.767	-0.100	0.076
-248.019	-19.356	-0.150	-0.092
-247.005	-200.000	-0.003	-0.198
-245.990	-103.829	-0.228	0.053
-244.976	800.000	-0.032	-0.127
-243.961	-1.069	0.145	0.101
-242.946	-89.537	0.423	-0.123
-241.932	-54.437	-0.136	-0.061
-240.917	800.000	0.028	-0.105
-239.903	-36.219	-0.146	0.078
-238.888	583.821	-0.077	-0.187
-237.873	-91.963	0.310	-0.087
-236.859	-33.929	0.302	0.164
-235.844	-200.000	0.015	0.115
-234.830	57.466	-0.116	0.112
-233.815	-159.087	-0.144	0.008
-232.800	-37.351	-0.163	-0.086
-231.786	-200.000	0.039	-0.397
-230.771	252.811	-0.216	-0.364
-229.757	64.084	-0.080	0.079
-228.742	-108.855	0.303	0.064
-227.727	166.735	0.274	0.384
-226.713	789.908	-0.026	0.072
-225.698	-68.806	0.167	0.064
-224.684	-84.244	-0.148	0.046
-223.669	-200.000	-0.033	-0.197
-222.655	-41.038	-0.153	0.078
-221.640	37.833	-0.136	0.119
-220.625	44.551	0.125	-0.113
-219.611	800.000	0.044	-0.141
-218.596	800.000	-0.069	-0.263
-217.582	-81.908	0.133	0.043
-216.567	-200.000	0.063	0.342
-215.552	800.000	0.094	0.258
-214.538	-132.230	-0.356	0.045
-213.523	-80.267	-0.138	0.046
-212.509	314.807	-0.116	0.216
-211.494	800.000	0.143	0.395
-210.479	19.644	-0.166	-0.132
-209.465	187.901	-0.119	-0.176
-208.450	483.356	0.069	-0.155
-207.436	-90.177	-0.364	0.104
-206.421	476.481	0.108	0.241
-205.406	-78.657	-0.182	-0.061
-204.392	69.303	0.150	0.152
-203.377	203.427	0.058	0.088
-202.363	-177.273	-0.018	-0.000
-201.348	-16.578	0.198	0.124
-200.333	800.000	-0.057	-0.190
-199.319	-200.000	-0.042	-0.395
-198.304	-89.784	0.133	0.038
-197.290	-9.702	0.160	0.105
-196.275	-200.000	-0.084	0.444
-195.260	50.860	-0.152	-0.142
-194.246	63.618	-0.252	-0.249
-193.231	266.271	-0.021	-0.036
-192.217	-13.713	0.122	-0.078
-191.202	-2.703	-0.334	-0.230
-190.187	-200.000	0.009	-0.241
-189.173	501.293	-0.049	0.111
-188.158	800.000	0.128	-0.445
-187.144	205.930	0.192	-0.294
-186.129	147.142	0.064	-0.085
-185.114	90.769	-0.110	-0.121
-184.100	93.461	0.149	0.166
-183.085	611.891	0.093	-0.230
-182.071	-191.688	-0.379	-0.004
-181.056	-200.000	-0.034	-0.167
-180.042	-179.569	0.111	0.002
-179.027	404.730	0.045	-0.094
-178.012	-89.066	0.161	-0.047
-176.998	108.016	-0.294	0.345
-175.983	800.000	0.200	0.582
-174.969	-200.000	0.009	0.318
-173.954	-128.364	0.325	0.046
-172.939	-200.000	0.017	-0.361
-171.925	-101.325	-0.216	0.052
-170.910	-200.000	0.012	-0.128
-169.896	119.984	-0.157	0.192
-168.881	41.231	0.155	-0.138
-167.866	-16.642	0.486	0.303
-166.852	800.000	0.029	-0.081
-165.837	-36.458	-0.049	0.026
-164.823	-86.234	-0.085	0.026
-163.808	-26.578	-0.037	0.021
-162.793	-145.755	0.124	0.011
-161.779	19.211	-0.317	-0.250
-160.764	-29.848	-0.130	0.073
-159.750	-47.004	0.219	0.105
-158.735	6.762	-0.072	-0.053
-157.720	197.967	0.090	-0.136
-156.706	-200.000	0.001	-0.241
-155.691	-76.934	0.109	-0.038
-154.677	227.646	-0.037	-0.059
-153.662	338.295	-0.061	0.118
-152.647	132.181	0.207	-0.263
-151.633	-2.963	-0.082	-0.056
-150.618	-200.000	-0.020	0.208
-149.604	-149.313	0.110	0.009
-148.589	-20.086	-0.302	-0.183
-147.574	-77.444	0.135	-0.046
-146.560	-200.000	0.001	0.052
-145.545	30.951	-0.069	-0.058
-144.531	800.000	-0.006	0.016
-143.516	-1.186	0.055	0.038
-142.502	39.051	-0.127	-0.111
-141.487	-200.000	0.020	-0.199
-140.472	9.371	0.116	-0.087
-139.458	-61.158	0.154	-0.064
-138.443	-200.000	0.046	-0.202
-137.429	-200.000	-0.009	0.151
-136.414	-11.776	0.182	0.117
-135.399	-57.689	-0.074	-0.032
-134.385	115.265	0.141	0.169
-133.370	800.000	-0.044	0.146
-132.356	221.217	0.053	0.084
-131.341	626.385	-0.050	0.124
-130.326	50.312	-0.123	-0.114
-129.312	168.088	0.199	0.279
-128.297	26.750	-0.253	0.209
-127.283	-161.426	0.108	0.006
-126.268	-75.442	-0.201	-0.070
-125.253	-113.970	-0.427	0.081
-124.239	-200.000	-0.003	0.201
-123.224	800.000	0.144	-0.430
-122.210	-199.754	-0.210	0.001
