DTS Sentinel unit serial number:	SN413079Multiplexer serial number:	ORYXHardware model number:	OX4-SRSoftware version number:	ORYX F/W v4.00 Oryx Data Collector v3.7.2.0data status	okinstallation	princeton_trtdifferential loss correction	single-endedforward channel	channel 1reverse channel	N/Adate	2019/09/18time	02:34:35forward acquisition time	60.00reverse acquisition time	0.00gamma	496.2192k internal	0.2341k external	0.2341temperature offset calibration	0.9975default loss term (dB/km)	0.3790temperature slope calibration	1.0000multiplexer offset coefficient	1.0000multiplexer slope coefficient	1.0000fibre end	0.00T internal ref (°C)	22.81T ext. ref 1 (°C)	0.17T ext. ref 2 (°C)	16.81length (m)	temperature (°C)	Stokes	anti-Stokes-747.200	-130.458	-0.064	0.009
-746.185	-131.768	0.233	-0.031
-745.171	55.558	0.260	0.252
-744.156	-137.040	-0.065	0.007
-743.142	-172.445	-0.236	-0.008
-742.127	-34.713	-0.286	-0.156
-741.112	176.982	0.050	-0.073
-740.098	181.780	-0.043	-0.063
-739.083	22.149	-0.207	-0.169
-738.069	-12.083	0.095	0.063
-737.054	-104.347	-0.448	-0.104
-736.039	29.781	-0.213	0.182
-735.025	-200.000	-0.007	0.100
-734.010	-125.427	-0.319	-0.049
-732.996	-200.000	-0.281	0.001
-731.981	-60.000	0.179	-0.077
-730.966	-57.265	-0.321	-0.141
-729.952	-200.000	-0.038	0.244
-728.937	92.194	-0.215	0.242
-727.923	800.000	-0.096	-0.412
-726.908	227.650	-0.118	0.192
-725.894	281.183	-0.084	0.150
-724.879	-103.862	0.198	0.046
-723.864	-112.172	0.292	-0.059
-722.850	800.000	-0.081	0.232
-721.835	-167.799	-0.083	0.003
-720.821	-121.838	-0.269	-0.044
-719.806	-200.000	-0.044	0.264
-718.791	18.936	-0.184	0.148
-717.777	-200.000	-0.032	-0.208
-716.762	-109.166	-0.191	-0.041
-715.748	-49.246	-0.421	0.201
-714.733	-200.000	0.004	0.159
-713.718	-65.738	-0.459	-0.184
-712.704	66.777	-0.100	0.102
-711.689	-43.134	0.144	0.073
-710.675	26.353	-0.323	0.270
-709.660	410.625	-0.095	-0.202
-708.645	800.000	0.028	-0.089
-707.631	-18.962	0.233	0.145
-706.616	-72.972	-0.264	-0.097
-705.602	-200.000	0.018	0.144
-704.587	345.690	0.149	0.293
-703.572	-200.000	-0.029	-0.346
-702.558	-77.327	-0.183	0.064
-701.543	750.707	-0.073	-0.198
-700.529	68.617	-0.146	-0.150
-699.514	800.000	0.081	0.237
-698.499	800.000	0.078	-0.232
-697.485	-200.000	0.007	0.095
-696.470	-136.326	0.125	0.015
-695.456	-145.468	-0.170	0.015
-694.441	-200.000	-0.008	0.185
-693.426	199.608	-0.110	-0.169
-692.412	99.881	0.055	0.063
-691.397	800.000	0.031	-0.117
-690.383	-136.584	0.126	0.015
-689.368	-43.277	-0.190	-0.096
-688.354	-91.614	-0.325	-0.093
-687.339	44.933	0.120	-0.110
-686.324	-44.214	-0.016	-0.008
-685.310	-138.146	0.226	-0.025
-684.295	44.376	-0.122	-0.112
-683.281	-32.378	0.067	0.037
-682.266	235.655	0.072	0.118
-681.251	-62.183	-0.163	-0.068
-680.237	-200.000	-0.088	0.402
-679.222	599.815	0.053	0.132
-678.208	360.728	0.084	0.167
-677.193	-43.002	-0.235	-0.119
-676.178	-200.000	-0.001	-0.049
-675.164	135.160	0.085	-0.111
-674.149	679.028	0.081	0.210
-673.135	52.340	-0.178	0.170
-672.120	-200.000	0.022	-0.122
-671.105	45.523	0.254	-0.234
-670.091	-114.048	-0.138	-0.027
-669.076	-200.000	0.048	0.000
-668.062	29.118	0.150	-0.127
-667.047	-166.282	0.222	-0.009
-666.032	-74.141	-0.283	-0.102
-665.018	800.000	0.033	-0.133
-664.003	-92.983	-0.398	0.111
-662.989	276.890	-0.090	-0.159
-661.974	-200.000	0.044	-0.258
-660.959	175.137	-0.136	-0.197
-659.945	-149.362	0.231	0.018
-658.930	405.250	-0.166	0.349
-657.916	273.375	-0.086	0.152
-656.901	440.640	0.150	-0.327
-655.886	0.734	0.205	-0.146
-654.872	466.424	-0.037	0.082
-653.857	155.576	0.067	0.092
-652.843	693.475	0.092	0.240
-651.828	-110.879	0.075	0.015
-650.814	73.463	0.216	-0.226
-649.799	800.000	-0.071	0.205
-648.784	-2.877	-0.190	-0.132
-647.770	172.845	-0.139	0.200
-646.755	-150.838	0.373	0.028
-645.741	-3.097	-0.031	0.022
-644.726	800.000	0.039	0.122
-643.711	-200.000	-0.008	-0.168
-642.697	800.000	-0.077	0.245
-641.682	663.959	-0.077	0.197
-640.668	585.379	0.145	0.355
-639.653	105.701	-0.299	-0.353
-638.638	-110.112	0.170	-0.035
-637.624	-79.918	0.152	0.051
-636.609	583.890	0.123	-0.300
-635.595	-10.518	-0.046	0.031
-634.580	761.563	0.134	-0.363
-633.565	-200.000	-0.062	-0.295
-632.551	-79.094	-0.285	-0.097
-631.536	-98.988	-0.295	-0.075
-630.522	8.108	0.201	-0.151
-629.507	-200.000	0.065	0.407
-628.492	70.084	-0.096	-0.099
-627.478	1.928	-0.256	-0.184
-626.463	-110.744	0.137	-0.028
-625.449	800.000	-0.040	-0.112
-624.434	-200.000	-0.015	0.183
-623.419	20.472	0.103	-0.083
-622.405	-200.000	0.020	-0.233
-621.390	-52.374	0.120	-0.055
-620.376	800.000	-0.070	0.241
-619.361	-96.722	-0.193	-0.051
-618.346	600.900	-0.042	-0.104
-617.332	75.041	-0.058	-0.061
-616.317	-200.000	-0.029	-0.370
-615.303	800.000	0.073	-0.246
-614.288	-139.331	0.074	-0.008
-613.273	800.000	0.058	0.222
-612.259	800.000	-0.060	0.173
-611.244	207.697	0.139	-0.217
-610.230	-44.861	-0.066	-0.033
-609.215	800.000	-0.014	0.061
-608.201	-31.206	-0.317	-0.178
-607.186	-77.230	-0.129	0.045
-606.171	403.674	0.262	0.549
-605.157	-84.801	-0.209	0.066
-604.142	343.493	-0.207	0.405
-603.128	108.463	-0.181	0.215
-602.113	70.466	0.122	-0.126
-601.098	59.338	-0.123	-0.121
-600.084	-17.366	0.106	0.067
-599.069	81.115	0.184	0.198
-598.055	49.447	-0.059	-0.055
-597.040	395.536	-0.121	0.251
-596.025	-200.000	0.080	0.472
-595.011	175.522	0.063	-0.091
-593.996	800.000	-0.026	0.088
-592.982	19.095	-0.044	-0.035
-591.967	-114.323	-0.219	-0.042
-590.952	251.027	-0.144	-0.245
-589.938	-161.115	0.439	0.023
-588.923	6.502	-0.153	0.113
-587.909	-200.000	0.021	0.127
-586.894	-165.711	-0.291	0.013
-585.879	-104.628	-0.081	-0.019
-584.865	-123.512	-0.189	-0.030
-583.850	-200.000	-0.016	0.089
-582.836	-200.000	0.046	0.216
-581.821	164.673	-0.139	0.195
-580.806	-182.689	-0.307	0.006
-579.792	475.771	0.132	0.297
-578.777	800.000	-0.040	0.157
-577.763	600.160	-0.089	-0.220
-576.748	297.067	0.288	0.526
-575.733	195.461	0.089	0.135
-574.719	-200.000	-0.023	0.174
-573.704	-200.000	0.034	-0.420
-572.690	-83.770	0.154	-0.049
-571.675	-134.183	0.232	-0.029
-570.661	-91.483	-0.045	-0.013
-569.646	-56.361	0.210	-0.093
-568.631	34.448	-0.183	0.159
-567.617	276.862	0.131	0.231
-566.602	-45.210	0.216	0.107
-565.588	549.233	-0.143	-0.342
-564.573	44.573	0.099	0.090
-563.558	800.000	-0.042	0.136
-562.544	-200.000	-0.012	-0.134
-561.529	38.464	-0.226	-0.200
-560.515	-58.347	-0.044	0.019
-559.500	-26.966	0.256	0.149
-558.485	251.367	0.110	0.186
-557.471	-136.375	0.086	0.010
-556.456	-200.000	-0.033	0.430
-555.442	-113.536	-0.235	-0.046
-554.427	-69.468	0.412	-0.157
-553.412	-82.545	-0.174	-0.056
-552.398	-84.008	-0.084	-0.027
-551.383	26.053	0.031	-0.026
-550.369	184.348	-0.224	0.330
-549.354	293.962	-0.093	-0.169
-548.339	112.150	-0.078	0.093
-547.325	2.777	-0.171	0.123
-546.310	-53.944	-0.123	0.056
-545.296	-122.341	0.139	-0.023
-544.281	-94.140	0.058	-0.016
-543.266	500.299	-0.049	0.112
-542.252	800.000	-0.087	0.379
-541.237	553.710	0.135	0.323
-540.223	-71.087	0.147	0.055
-539.208	-153.188	-0.117	-0.008
-538.193	52.045	-0.020	-0.019
-537.179	83.624	-0.115	0.125
-536.164	-200.000	-0.037	0.171
-535.150	-28.612	-0.090	0.052
-534.135	-162.586	0.490	0.024
-533.121	47.323	-0.252	0.233
-532.106	106.157	0.098	-0.116
-531.091	45.027	0.195	-0.178
-530.077	-49.359	0.090	0.043
-529.062	-82.021	-0.102	0.033
-528.048	-200.000	0.029	0.148
-527.033	56.092	-0.133	0.129
-526.018	-16.028	0.076	-0.048
-525.004	-154.255	-0.151	0.010
-523.989	-14.040	-0.024	0.016
-522.975	-94.044	-0.135	-0.037
-521.960	-200.000	0.040	-0.312
-520.945	150.576	-0.149	0.201
-519.931	-47.519	0.194	0.093
-518.916	-25.303	-0.261	-0.153
-517.902	228.780	-0.109	-0.177
-516.887	800.000	0.038	-0.128
-515.872	-200.000	0.232	0.000
-514.858	32.208	-0.034	0.029
-513.843	79.006	0.268	-0.285
-512.829	477.477	-0.074	0.167
-511.814	-0.250	0.157	0.111
-510.799	126.591	-0.120	-0.151
-509.785	-109.855	0.067	0.014
-508.770	-48.134	-0.141	-0.067
-507.756	33.133	-0.168	-0.144
-506.741	-46.997	-0.313	0.152
-505.726	49.110	0.132	-0.123
-504.712	-200.000	0.004	0.234
-503.697	-200.000	-0.037	-0.204
-502.683	-89.456	0.391	0.114
-501.668	-69.079	0.051	0.019
-500.653	-71.232	-0.105	-0.039
-499.639	-200.000	0.028	0.129
-498.624	121.002	0.200	-0.247
-497.610	-200.000	0.026	-0.163
-496.595	-31.016	0.111	0.062
-495.581	-200.000	0.013	-0.181
-494.566	-102.986	0.285	-0.067
-493.551	16.902	-0.161	0.127
-492.537	-200.000	0.054	-0.247
-491.522	169.853	-0.094	-0.133
-490.508	-146.455	0.240	-0.021
-489.493	-80.239	-0.490	0.163
-488.478	-200.000	-0.011	-0.120
-487.464	-200.000	-0.014	-0.093
-486.449	-97.162	-0.097	0.025
-485.435	-139.027	0.114	-0.012
-484.420	-200.000	0.007	0.094
-483.405	-155.048	0.307	-0.020
-482.391	91.335	-0.082	-0.092
-481.376	87.330	0.170	-0.187
-480.362	183.318	-0.162	-0.237
-479.347	800.000	-0.091	0.297
-478.332	238.000	-0.129	-0.213
-477.318	-66.606	-0.164	0.065
-476.303	-200.000	0.026	-0.261
-475.289	94.183	-0.155	-0.174
-474.274	-82.877	-0.165	0.053
-473.259	-200.000	0.048	0.374
-472.245	800.000	-0.072	0.226
-471.230	-200.000	-0.028	-0.327
-470.216	-88.697	-0.189	0.056
-469.201	-1.426	-0.140	-0.098
-468.186	48.818	0.266	0.247
-467.172	-89.670	-0.119	0.035
-466.157	543.969	-0.030	-0.071
-465.143	470.645	-0.099	0.221
-464.128	127.690	0.163	0.205
-463.113	40.322	0.164	0.147
-462.099	147.178	0.204	0.272
-461.084	-200.000	0.017	-0.178
-460.070	366.141	0.096	-0.191
-459.055	78.090	0.089	0.094
-458.040	-200.000	0.001	-0.201
-457.026	800.000	0.077	0.245
-456.011	-200.000	0.015	0.287
-454.997	162.144	0.045	-0.062
-453.982	-98.546	-0.134	-0.034
-452.968	116.359	0.150	0.182
-451.953	180.754	0.074	-0.108
-450.938	201.892	0.085	0.130
-449.924	-200.000	0.029	0.246
-448.909	572.063	0.112	-0.269
-447.895	156.717	-0.034	-0.046
-446.880	289.767	0.144	0.259
-445.865	292.618	0.099	-0.179
-444.851	-56.727	-0.142	0.062
-443.836	-125.318	-0.260	0.039
-442.822	237.930	0.179	-0.295
-441.807	52.634	0.080	-0.076
-440.792	113.497	0.129	0.156
-439.778	113.508	-0.175	0.210
-438.763	-124.244	0.033	-0.005
-437.749	-61.194	0.140	0.059
-436.734	-200.000	-0.001	-0.129
-435.719	105.693	0.173	-0.203
-434.705	118.711	-0.122	0.149
-433.690	-51.279	-0.057	0.026
-432.676	573.666	0.093	0.223
-431.661	119.822	-0.229	-0.281
-430.646	800.000	-0.022	-0.062
-429.632	800.000	-0.103	-0.396
-428.617	56.454	-0.297	-0.286
-427.603	-200.000	-0.003	-0.072
-426.588	-49.415	-0.182	-0.086
-425.573	48.996	-0.174	0.162
-424.559	13.666	0.210	-0.162
-423.544	106.846	0.166	0.195
-422.530	800.000	-0.079	-0.279
-421.515	-76.087	-0.297	-0.104
-420.500	-116.955	0.107	0.019
-419.486	267.423	-0.152	-0.264
-418.471	-55.626	-0.385	0.170
-417.457	-153.648	0.198	0.014
-416.442	46.765	-0.180	-0.166
-415.428	-106.049	-0.109	-0.024
-414.413	135.924	0.105	-0.135
-413.398	-53.649	-0.431	0.195
-412.384	334.571	-0.056	-0.108
-411.369	-99.152	-0.156	0.039
-410.355	-15.853	-0.099	0.062
-409.340	-9.920	-0.207	-0.136
-408.325	364.367	-0.204	-0.406
-407.311	245.674	-0.102	-0.170
-406.296	265.101	-0.076	0.131
-405.282	-67.950	-0.111	-0.043
-404.267	-200.000	0.001	-0.251
-403.252	-200.000	-0.001	-0.143
-402.238	131.859	0.097	-0.123
-401.223	-77.858	0.210	-0.072
-400.209	-200.000	0.076	0.398
-399.194	-25.716	-0.166	0.097
-398.179	-156.615	-0.028	-0.002
-397.165	800.000	-0.044	-0.125
-396.150	-36.786	-0.266	-0.141
-395.136	-170.005	0.080	-0.003
-394.121	215.473	0.078	0.123
-393.106	-146.575	0.276	0.024
-392.092	19.851	-0.025	0.020
-391.077	39.379	-0.167	0.147
-390.063	109.540	-0.200	0.236
-389.048	-40.918	0.440	-0.225
-388.033	-200.000	0.013	-0.255
-387.019	-74.339	0.229	-0.082
-386.004	-89.865	-0.226	-0.065
-384.990	55.143	0.017	0.016
-383.975	800.000	-0.032	0.095
-382.960	84.752	0.063	-0.068
-381.946	-19.088	-0.179	-0.110
-380.931	-38.760	-0.359	-0.187
-379.917	-200.000	-0.004	0.286
-378.902	-36.856	-0.055	-0.029
-377.888	-127.369	-0.188	-0.027
-376.873	-90.128	-0.073	-0.021
-375.858	205.935	-0.108	-0.166
-374.844	209.119	0.152	0.235
-373.829	52.213	0.188	0.177
-372.815	800.000	0.073	-0.227
-371.800	307.201	0.106	0.195
-370.785	-200.000	-0.003	-0.036
-369.771	-47.519	-0.184	0.088
-368.756	26.110	0.081	0.067
-367.742	6.296	0.129	0.094
-366.727	712.379	-0.047	0.123
-365.712	-200.000	0.038	0.219
-364.698	678.962	0.052	-0.134
-363.683	-54.653	0.207	0.092
-362.669	194.621	-0.078	0.117
-361.654	-24.612	-0.322	0.189
-360.639	23.826	-0.223	0.181
-359.625	-200.000	0.080	0.391
-358.610	36.117	0.255	0.221
-357.596	-110.566	0.234	-0.048
-356.581	84.039	0.121	0.131
-355.566	138.413	-0.256	-0.331
-354.552	108.414	0.127	0.149
-353.537	37.356	0.101	-0.089
-352.523	160.369	0.247	0.340
-351.508	-150.514	-0.239	-0.018
-350.493	800.000	-0.127	0.391
-349.479	15.230	-0.122	-0.095
-348.464	800.000	-0.021	-0.084
-347.450	25.640	-0.295	-0.243
-346.435	23.728	0.135	0.110
-345.420	167.352	0.126	-0.176
-344.406	-151.281	-0.252	-0.019
-343.391	105.502	-0.058	0.067
-342.377	167.554	0.177	-0.249
-341.362	-128.909	-0.043	-0.006
-340.348	800.000	0.050	-0.184
-339.333	-191.568	-0.398	0.004
-338.318	-64.422	0.114	-0.046
-337.304	800.000	-0.022	0.075
-336.289	140.863	0.238	0.310
-335.275	-200.000	0.020	-0.118
-334.260	137.124	0.161	-0.207
-333.245	-47.580	-0.123	0.059
-332.231	-200.000	0.018	-0.139
-331.216	-91.979	0.336	-0.094
-330.202	-105.658	-0.213	-0.048
-329.187	416.891	0.080	-0.168
-328.172	800.000	-0.182	-0.511
-327.158	800.000	-0.049	0.172
-326.143	-200.000	0.018	0.179
-325.129	-154.126	-0.268	-0.018
-324.114	255.452	0.160	0.270
-323.099	-119.248	0.260	0.045
-322.085	-200.000	-0.058	-0.283
-321.070	-13.349	0.227	-0.145
-320.056	551.309	-0.075	-0.178
-319.041	-95.819	0.373	-0.098
-318.026	126.390	0.124	-0.154
-317.012	646.127	0.106	0.266
-315.997	126.569	-0.298	-0.372
-314.983	-116.989	-0.014	0.003
-313.968	220.145	0.132	-0.209
-312.953	-200.000	-0.008	-0.125
-311.939	412.530	0.164	0.344
-310.924	-74.025	-0.299	0.107
-309.910	66.672	0.059	-0.059
-308.895	-74.075	0.051	0.018
-307.880	-200.000	0.022	0.221
-306.866	-49.878	0.012	0.006
-305.851	-66.738	0.264	-0.103
-304.837	-90.018	-0.208	0.060
-303.822	-80.369	0.091	-0.030
-302.807	-200.000	-0.015	0.240
-301.793	-163.685	-0.176	-0.008
-300.778	800.000	0.061	0.191
-299.764	21.951	0.096	-0.077
-298.749	-200.000	-0.011	-0.072
-297.735	800.000	-0.091	0.270
-296.720	-36.158	0.272	0.144
-295.705	100.208	-0.151	0.172
-294.691	-200.000	0.021	0.103
-293.676	-200.000	0.035	0.336
-292.662	61.897	-0.042	0.041
-291.647	-200.000	0.027	-0.221
-290.632	-33.746	-0.264	0.143
-289.618	99.561	-0.103	-0.117
-288.603	-146.177	-0.126	0.011
-287.589	800.000	0.098	-0.294
-286.574	301.403	0.057	-0.104
-285.559	38.954	-0.027	0.024
-284.545	51.196	0.159	-0.148
-283.530	92.421	-0.095	0.105
-282.516	-22.867	0.098	0.058
-281.501	33.034	0.207	-0.176
-280.486	42.549	0.170	0.152
-279.472	-200.000	-0.032	-0.145
-278.457	-200.000	0.034	-0.196
-277.443	-88.978	-0.138	0.040
-276.428	161.799	0.091	-0.125
-275.413	-200.000	0.041	0.202
-274.399	52.538	0.261	-0.246
-273.384	51.388	-0.140	0.131
-272.370	800.000	0.081	-0.330
-271.355	97.245	-0.059	-0.067
-270.340	-150.566	0.508	-0.038
-269.326	161.048	-0.068	0.093
-268.311	-24.331	-0.227	-0.133
-267.297	29.598	0.238	0.199
-266.282	-200.000	0.013	0.425
-265.267	800.000	-0.031	-0.096
-264.253	-95.732	-0.108	-0.028
-263.238	800.000	0.034	-0.114
-262.224	-106.351	0.354	0.078
-261.209	587.550	-0.074	-0.180
-260.195	390.806	0.085	-0.174
-259.180	446.710	0.089	-0.193
-258.165	-200.000	-0.022	-0.183
-257.151	640.346	-0.024	-0.061
-256.136	-127.513	-0.138	0.020
-255.122	-154.103	-0.470	0.031
-254.107	-82.859	-0.250	-0.079
-253.092	-70.556	0.158	-0.059
-252.078	800.000	0.016	-0.066
-251.063	288.191	0.166	0.295
-250.049	115.651	-0.329	-0.396
-249.034	-200.000	0.015	-0.081
-248.019	-200.000	0.027	0.446
-247.005	654.911	-0.061	0.153
-245.990	-200.000	-0.018	-0.261
-244.976	96.637	-0.223	0.251
-243.961	-92.427	-0.127	-0.035
-242.946	-51.638	0.208	-0.095
-241.932	-149.138	0.171	-0.013
-240.917	-152.321	-0.099	-0.007
-239.903	114.874	-0.181	-0.217
-238.888	-95.578	-0.199	0.052
-237.873	-182.715	0.020	0.000
-236.859	-46.814	0.184	0.089
-235.844	529.574	-0.055	-0.127
-234.830	-129.509	-0.088	-0.012
-233.815	-200.000	-0.020	-0.299
-232.800	-75.890	0.154	-0.053
-231.786	-80.179	0.155	0.051
-230.771	-44.239	-0.216	0.107
-229.757	-200.000	-0.022	-0.195
-228.742	-112.725	0.181	0.035
-227.727	397.567	0.034	-0.070
-226.713	800.000	-0.050	-0.180
-225.698	5.071	0.253	0.183
-224.684	663.021	-0.078	-0.197
-223.669	121.087	0.069	0.084
-222.655	37.564	0.171	0.149
-221.640	-91.965	0.364	-0.101
-220.625	393.494	0.119	-0.242
-219.611	-60.665	0.240	-0.100
-218.596	-103.206	-0.266	-0.062
-217.582	42.376	0.368	-0.329
-216.567	-94.367	-0.089	-0.024
-215.552	203.730	0.124	0.189
-214.538	-200.000	0.002	0.058
-213.523	15.531	-0.110	-0.085
-212.509	159.516	0.241	0.329
-211.494	-130.769	-0.387	-0.051
-210.479	-200.000	0.016	0.308
-209.465	171.161	-0.064	-0.091
-208.450	-60.347	0.147	-0.061
-207.436	-20.146	-0.211	-0.128
-206.421	-98.335	-0.047	0.012
-205.406	189.425	-0.021	-0.031
-204.392	-129.297	0.356	-0.049
-203.377	800.000	-0.056	-0.188
-202.363	800.000	0.102	-0.292
-201.348	-105.900	0.462	0.102
-200.333	-200.000	0.049	0.239
-199.319	-170.095	0.245	0.009
-198.304	-200.000	-0.026	0.149
-197.290	-200.000	0.025	0.203
-196.275	-78.944	-0.216	-0.072
-195.260	15.748	0.363	0.280
-194.246	642.633	-0.077	0.193
-193.231	-55.644	0.249	-0.109
-192.217	-6.106	0.037	0.025
-191.202	721.375	0.083	0.217
-190.187	464.665	-0.054	0.118
-189.173	358.888	-0.140	-0.273
-188.158	-200.000	0.049	-0.223
-187.144	-200.000	0.018	0.216
-186.129	-21.225	0.108	0.064
-185.114	128.912	-0.057	0.072
-184.100	-172.691	0.459	0.014
-183.085	-74.609	0.174	-0.061
-182.071	77.984	-0.040	0.041
-181.056	-28.793	-0.324	-0.183
-180.042	-184.390	0.306	-0.005
-179.027	-200.000	-0.345	-0.001
-178.012	124.275	-0.163	-0.200
-176.998	-200.000	-0.043	-0.332
-175.983	-12.126	-0.377	0.242
-174.969	-200.000	-0.010	0.125
-173.954	-53.130	0.084	0.038
-172.939	520.836	0.105	0.240
-171.925	110.063	-0.213	-0.250
-170.910	11.223	0.304	-0.228
-169.896	84.751	0.142	-0.152
-168.881	800.000	0.115	-0.339
-167.866	-60.396	-0.066	0.027
-166.852	-20.849	-0.122	-0.073
-165.837	-50.349	0.142	0.066
-164.823	-136.255	-0.370	0.042
-163.808	635.360	-0.164	-0.407
-162.793	-172.419	0.317	-0.010
-161.779	60.291	-0.177	-0.171
-160.764	-84.529	-0.155	-0.048
-159.750	71.682	0.115	0.117
-158.735	800.000	0.039	-0.147
-157.720	-60.193	0.106	0.044
-156.706	201.826	0.080	0.122
-155.691	-200.000	-0.059	-0.268
-154.677	86.307	0.251	0.270
-153.662	800.000	-0.066	0.222
-152.647	-200.000	0.056	0.323
-151.633	83.293	0.203	0.217
-150.618	800.000	0.054	0.148
-149.604	522.615	-0.034	0.078
-148.589	-134.732	-0.134	0.016
-147.574	-120.401	0.419	-0.070
-146.560	-200.000	0.011	-0.173
-145.545	-200.000	0.034	-0.165
-144.531	-200.000	-0.021	0.428
-143.516	-40.603	0.404	-0.205
-142.502	-116.091	0.433	0.079
-141.487	-200.000	0.016	-0.115
-140.472	127.987	-0.114	0.142
-139.458	177.360	-0.149	0.212
-138.443	800.000	-0.009	-0.032
-137.429	-139.129	0.042	-0.004
-136.414	184.332	0.235	0.341
-135.399	-200.000	0.007	0.128
-134.385	-200.000	0.019	-0.088
-133.370	-56.290	0.364	-0.158
-132.356	-200.000	0.048	0.288
-131.341	93.731	0.275	0.305
-130.326	419.857	0.027	0.056
-129.312	-200.000	0.002	-0.087
-128.297	625.611	0.122	0.301
-127.283	374.484	-0.069	-0.137
-126.268	154.954	0.275	0.370
-125.253	-69.703	-0.291	-0.109
-124.239	800.000	-0.050	-0.159
-123.224	360.778	-0.104	0.204
-122.210	-17.297	0.279	0.172
