DTS Sentinel unit serial number:	SN413079Multiplexer serial number:	ORYXHardware model number:	OX4-SRSoftware version number:	ORYX F/W v4.00 Oryx Data Collector v3.7.2.0data status	okinstallation	princeton_trtdifferential loss correction	single-endedforward channel	channel 1reverse channel	N/Adate	2019/09/17time	10:30:35forward acquisition time	60.00reverse acquisition time	0.00gamma	496.2192k internal	0.2323k external	0.2323temperature offset calibration	0.9961default loss term (dB/km)	0.3790temperature slope calibration	1.0000multiplexer offset coefficient	1.0000multiplexer slope coefficient	1.0000fibre end	0.00T internal ref (°C)	30.00T ext. ref 1 (°C)	0.18T ext. ref 2 (°C)	25.58length (m)	temperature (°C)	Stokes	anti-Stokes-747.200	800.000	0.035	-0.118
-746.185	-51.771	0.311	-0.146
-745.171	-72.928	0.249	-0.092
-744.156	-133.009	-0.444	-0.057
-743.142	-36.188	0.179	-0.098
-742.127	45.593	0.257	0.240
-741.112	-200.000	0.072	-0.330
-740.098	-200.000	-0.037	0.173
-739.083	30.265	-0.242	-0.209
-738.069	276.546	0.123	0.221
-737.054	800.000	0.007	-0.024
-736.039	800.000	0.016	-0.073
-735.025	-200.000	0.008	-0.041
-734.010	-200.000	0.037	0.214
-732.996	-81.213	0.064	0.021
-731.981	277.368	0.145	-0.260
-730.966	-30.626	-0.244	0.139
-729.952	-19.852	-0.195	0.121
-728.937	-200.000	0.031	0.177
-727.923	-11.602	-0.035	-0.023
-726.908	-200.000	-0.008	-0.057
-725.894	-124.812	-0.505	-0.079
-724.879	800.000	0.031	0.132
-723.864	-77.695	0.272	-0.095
-722.850	-85.054	-0.312	-0.099
-721.835	800.000	-0.034	-0.108
-720.821	800.000	0.063	-0.228
-719.806	-66.963	-0.228	-0.091
-718.791	-86.210	0.127	-0.040
-717.777	67.867	-0.028	0.029
-716.762	19.774	-0.195	0.158
-715.748	-48.140	-0.151	-0.074
-714.733	-73.396	-0.411	-0.152
-713.718	62.631	-0.195	-0.197
-712.704	-140.988	0.263	-0.027
-711.689	-140.498	-0.260	0.027
-710.675	-200.000	-0.015	0.113
-709.660	-89.209	0.161	-0.048
-708.645	800.000	0.049	0.186
-707.631	-145.766	-0.127	0.011
-706.616	115.929	0.177	0.218
-705.602	-54.260	0.353	-0.162
-704.587	-152.418	0.075	-0.005
-703.572	31.310	-0.377	-0.326
-702.558	-150.606	-0.392	0.030
-701.543	-39.689	0.247	-0.130
-700.529	166.223	-0.098	-0.141
-699.514	-62.787	-0.082	0.034
-698.499	522.971	0.056	0.132
-697.485	-55.420	0.150	0.068
-696.470	800.000	-0.100	-0.355
-695.456	95.838	-0.044	-0.051
-694.441	-113.555	0.283	-0.056
-693.426	-117.035	0.274	0.050
-692.412	105.732	0.153	-0.182
-691.397	58.283	0.220	0.217
-690.383	134.843	0.103	-0.134
-689.368	22.784	-0.199	0.164
-688.354	-26.568	0.482	-0.284
-687.339	-101.070	0.307	0.076
-686.324	800.000	-0.033	0.127
-685.310	193.082	-0.044	-0.067
-684.295	800.000	-0.049	-0.194
-683.281	800.000	0.054	-0.230
-682.266	-98.673	0.151	-0.039
-681.251	-84.387	0.096	0.030
-680.237	-200.000	-0.079	-0.361
-679.222	-178.672	0.115	-0.003
-678.208	-6.614	0.258	-0.177
-677.193	206.039	-0.113	-0.177
-676.178	126.863	0.258	-0.330
-675.164	62.066	0.106	-0.107
-674.149	-200.000	-0.008	-0.201
-673.135	-200.000	0.043	-0.321
-672.120	800.000	0.033	0.141
-671.105	43.833	0.103	-0.095
-670.091	-39.420	0.342	-0.180
-669.076	-127.818	-0.124	-0.018
-668.062	-150.164	0.060	-0.005
-667.047	-58.762	0.441	-0.192
-666.032	-125.310	-0.160	-0.025
-665.018	-172.388	0.158	0.005
-664.003	-200.000	-0.044	0.445
-662.989	14.318	0.061	0.048
-661.974	-63.803	-0.175	0.072
-660.959	-200.000	0.003	0.084
-659.945	152.316	-0.200	0.275
-658.930	-129.576	0.293	-0.041
-657.916	-95.401	-0.156	-0.042
-656.901	27.656	-0.064	-0.054
-655.886	226.967	0.222	-0.363
-654.872	376.351	-0.093	0.192
-653.857	567.921	-0.035	0.086
-652.843	-200.000	0.026	0.396
-651.828	-200.000	0.003	-0.471
-650.814	800.000	0.098	0.276
-649.799	-200.000	-0.031	0.260
-648.784	25.258	0.104	0.087
-647.770	-200.000	0.017	-0.222
-646.755	-33.449	-0.138	-0.077
-645.741	158.545	0.155	0.216
-644.726	-104.249	-0.100	0.023
-643.711	800.000	-0.049	0.197
-642.697	-108.853	0.393	-0.084
-641.682	-92.355	-0.209	-0.059
-640.668	26.962	0.148	0.124
-639.653	-200.000	-0.010	-0.236
-638.638	22.620	-0.082	-0.068
-637.624	150.200	-0.243	-0.332
-636.609	1.496	0.189	0.136
-635.595	-200.000	-0.062	0.293
-634.580	378.045	-0.152	-0.313
-633.565	-115.958	0.178	0.033
-632.551	-200.000	0.036	0.280
-631.536	-116.934	0.376	0.069
-630.522	22.792	0.138	-0.114
-629.507	-64.409	-0.077	0.032
-628.492	-132.254	-0.339	0.044
-627.478	144.110	-0.117	-0.156
-626.463	-200.000	-0.002	0.136
-625.449	800.000	-0.116	0.360
-624.434	53.201	0.227	-0.218
-623.419	192.737	0.161	0.244
-622.405	-145.939	-0.265	-0.024
-621.390	-135.627	-0.328	-0.039
-620.376	-1.721	0.118	-0.084
-619.361	-138.378	0.205	0.023
-618.346	-41.836	-0.194	0.100
-617.332	-117.374	0.063	0.011
-616.317	136.757	0.249	-0.326
-615.303	49.440	0.184	-0.174
-614.288	103.163	-0.138	0.162
-613.273	-109.996	-0.129	0.027
-612.259	-200.000	0.004	-0.248
-611.244	13.188	-0.227	0.177
-610.230	-52.254	0.153	-0.071
-609.215	349.727	0.106	0.209
-608.201	-200.000	0.011	0.132
-607.186	-16.484	-0.142	0.090
-606.171	495.388	0.027	0.062
-605.157	-200.000	-0.006	0.120
-604.142	301.254	0.038	0.070
-603.128	800.000	0.033	-0.112
-602.113	-161.599	-0.170	0.009
-601.098	-113.127	-0.097	0.019
-600.084	131.221	0.097	-0.125
-599.069	472.752	-0.103	-0.232
-598.055	8.494	0.162	-0.122
-597.040	307.247	-0.049	-0.092
-596.025	-200.000	-0.023	-0.137
-595.011	-174.411	-0.434	-0.013
-593.996	-61.415	-0.016	-0.007
-592.982	1.001	-0.095	0.068
-591.967	800.000	-0.076	0.302
-590.952	-122.990	-0.195	0.032
-589.938	266.332	0.103	-0.180
-588.923	203.588	0.077	-0.120
-587.909	-200.000	-0.018	-0.081
-586.894	-200.000	0.001	0.150
-585.879	800.000	-0.122	0.430
-584.865	-144.491	-0.183	-0.017
-583.850	800.000	-0.188	-0.743
-582.836	225.025	0.172	-0.279
-581.821	800.000	-0.081	0.232
-580.806	-10.249	0.140	0.093
-579.792	-47.452	-0.695	-0.339
-578.777	-115.873	-0.156	-0.029
-577.763	221.166	-0.078	-0.125
-576.748	71.082	-0.178	-0.185
-575.733	-89.161	-0.313	-0.093
-574.719	211.115	0.040	0.063
-573.704	23.893	0.271	-0.224
-572.690	111.551	0.123	0.149
-571.675	-200.000	-0.008	0.135
-570.661	-193.764	-0.255	-0.002
-569.646	81.742	0.167	0.181
-568.631	-72.252	0.349	0.130
-567.617	-200.000	0.023	-0.124
-566.602	367.667	0.208	-0.421
-565.588	-124.864	-0.053	0.008
-564.573	800.000	0.090	-0.307
-563.558	-200.000	-0.055	-0.350
-562.544	42.222	0.083	-0.075
-561.529	135.356	-0.181	-0.235
-560.515	800.000	-0.158	-0.461
-559.500	-140.685	0.164	-0.017
-558.485	-174.079	0.215	-0.006
-557.471	-200.000	0.007	0.057
-556.456	73.037	-0.202	-0.212
-555.442	40.144	0.194	-0.174
-554.427	238.829	-0.106	0.176
-553.412	-128.693	0.146	0.021
-552.398	-200.000	-0.025	-0.124
-551.383	257.984	0.147	0.253
-550.369	-145.769	-0.288	0.026
-549.354	788.915	-0.060	0.165
-548.339	47.075	0.076	0.071
-547.325	-109.518	-0.362	-0.077
-546.310	-160.950	-0.218	0.011
-545.296	-62.605	-0.085	-0.035
-544.281	-104.510	0.426	0.099
-543.266	-92.271	0.074	0.021
-542.252	-26.918	-0.270	0.158
-541.237	-200.000	0.005	0.059
-540.223	4.334	-0.155	0.114
-539.208	519.548	-0.020	0.047
-538.193	-67.028	0.127	0.050
-537.179	-200.000	0.025	-0.280
-536.164	-135.916	0.109	-0.013
-535.150	-200.000	-0.039	-0.222
-534.135	543.223	0.059	0.141
-533.121	-143.104	0.158	-0.015
-532.106	-88.636	0.057	-0.017
-531.091	127.566	0.075	-0.095
-530.077	193.672	-0.062	-0.094
-529.062	-127.115	0.240	0.035
-528.048	95.033	-0.400	0.457
-527.033	-200.000	-0.041	0.214
-526.018	392.118	-0.061	0.126
-525.004	86.935	0.021	-0.023
-523.989	-75.705	-0.060	0.021
-522.975	242.564	0.128	0.215
-521.960	-28.814	-0.129	-0.074
-520.945	13.402	-0.302	-0.235
-519.931	-69.413	-0.234	-0.090
-518.916	800.000	-0.031	-0.126
-517.902	-18.839	0.205	0.128
-516.887	-14.188	-0.165	0.106
-515.872	325.946	-0.105	0.201
-514.858	305.045	0.024	0.044
-513.843	-200.000	-0.003	0.049
-512.829	-36.092	0.261	-0.141
-511.814	-34.404	-0.400	0.219
-510.799	800.000	0.023	-0.096
-509.785	-131.387	-0.121	-0.016
-508.770	294.663	-0.095	-0.174
-507.756	-31.932	-0.198	-0.111
-506.741	-200.000	-0.027	-0.316
-505.726	-129.999	0.385	-0.053
-504.712	-107.566	-0.032	0.007
-503.697	19.985	0.075	-0.060
-502.683	800.000	-0.019	-0.065
-501.668	-200.000	0.014	-0.095
-500.653	389.515	0.049	-0.102
-499.639	-200.000	-0.027	0.164
-498.624	-162.141	0.136	0.007
-497.610	24.855	0.159	-0.132
-496.595	-81.533	-0.137	-0.045
-495.581	218.864	-0.213	-0.340
-494.566	-200.000	0.046	-0.213
-493.551	75.158	-0.167	-0.176
-492.537	-118.782	-0.128	0.023
-491.522	49.011	0.313	-0.294
-490.508	-82.629	0.274	-0.089
-489.493	-200.000	0.003	0.167
-488.478	367.779	0.123	0.248
-487.464	-103.399	-0.385	-0.091
-486.449	-106.269	-0.266	0.060
-485.435	-200.000	0.011	0.076
-484.420	-71.964	0.037	-0.014
-483.405	800.000	0.082	0.334
-482.391	-51.503	-0.194	0.091
-481.376	-195.037	-0.028	0.000
-480.362	-123.428	0.138	-0.022
-479.347	158.047	0.115	-0.160
-478.332	-200.000	-0.007	-0.141
-477.318	800.000	-0.037	0.135
-476.303	152.197	0.179	-0.244
-475.289	147.438	-0.132	0.177
-474.274	-64.265	0.329	-0.134
-473.259	-87.536	-0.051	0.015
-472.245	-200.000	-0.069	-0.414
-471.230	-22.712	0.198	-0.120
-470.216	315.021	-0.109	0.205
-469.201	-73.326	0.114	0.042
-468.186	-112.882	0.150	0.030
-467.172	-200.000	-0.008	0.177
-466.157	36.646	0.095	0.084
-465.143	-200.000	-0.036	0.189
-464.128	800.000	-0.079	-0.306
-463.113	-68.533	-0.150	0.058
-462.099	-88.104	0.191	0.057
-461.084	256.039	0.188	-0.322
-460.070	226.346	-0.042	0.068
-459.055	-53.002	0.318	-0.146
-458.040	-115.381	0.280	0.053
-457.026	181.198	-0.106	-0.155
-456.011	138.772	-0.100	0.132
-454.997	-48.564	-0.074	0.036
-453.982	-200.000	0.005	-0.141
-452.968	-200.000	0.025	-0.308
-451.953	130.773	0.201	0.257
-450.938	-200.000	0.036	-0.269
-449.924	471.233	0.065	-0.147
-448.909	-200.000	0.004	-0.107
-447.895	-1.095	0.195	0.138
-446.880	800.000	-0.075	0.324
-445.865	313.259	-0.060	0.113
-444.851	-80.766	0.189	-0.063
-443.836	103.557	-0.157	-0.183
-442.822	-72.295	-0.412	-0.152
-441.807	800.000	-0.055	0.236
-440.792	-10.065	-0.106	-0.070
-439.778	48.123	0.224	-0.209
-438.763	-2.976	0.026	0.018
-437.749	335.888	-0.250	-0.483
-436.734	-109.443	0.296	-0.062
-435.719	166.540	0.204	0.288
-434.705	43.073	-0.169	-0.153
-433.690	-127.070	0.497	-0.073
-432.676	-108.624	-0.258	-0.055
-431.661	64.335	0.097	-0.097
-430.646	-200.000	-0.037	0.245
-429.632	-200.000	-0.021	0.147
-428.617	-200.000	0.075	-0.351
-427.603	-115.489	0.316	0.059
-426.588	-200.000	-0.027	0.118
-425.573	-38.843	0.192	0.101
-424.559	-61.600	0.125	-0.052
-423.544	175.008	-0.073	-0.106
-422.530	-9.159	-0.397	0.265
-421.515	77.692	0.055	-0.058
-420.500	202.991	0.037	-0.056
-419.486	58.977	-0.138	0.135
-418.471	63.850	0.092	-0.093
-417.457	-200.000	0.000	-0.011
-416.442	414.211	-0.052	-0.111
-415.428	-44.079	-0.086	-0.043
-414.413	-200.000	-0.029	0.557
-413.398	65.052	-0.144	-0.145
-412.384	-54.905	-0.168	-0.076
-411.369	800.000	0.042	0.130
-410.355	8.966	0.185	0.140
-409.340	-200.000	-0.005	-0.106
-408.325	-130.180	0.331	-0.045
-407.311	-200.000	-0.024	-0.154
-406.296	-44.294	0.055	0.028
-405.282	87.326	0.106	0.117
-404.267	481.499	-0.107	-0.242
-403.252	133.141	0.064	0.082
-402.238	213.958	-0.219	-0.345
-401.223	-49.789	0.206	-0.098
-400.209	87.728	-0.084	-0.093
-399.194	-89.340	-0.192	-0.056
-398.179	-129.466	0.125	0.017
-397.165	-155.349	-0.351	-0.023
-396.150	-1.900	0.104	0.073
-395.136	-79.062	-0.244	-0.083
-394.121	-44.712	-0.100	0.050
-393.106	-200.000	0.029	0.195
-392.092	168.881	0.199	-0.282
-391.077	-58.946	-0.246	0.106
-390.063	-84.530	-0.065	-0.020
-389.048	-140.077	-0.102	-0.011
-388.033	247.032	0.100	0.168
-387.019	28.378	-0.372	-0.313
-386.004	-184.800	-0.322	0.005
-384.990	458.962	-0.114	-0.253
-383.975	-59.860	-0.131	-0.056
-382.960	431.245	0.011	-0.023
-381.946	-200.000	0.047	0.220
-380.931	-165.836	-0.336	0.014
-379.917	-167.740	-0.537	0.021
-378.902	432.859	-0.065	-0.140
-377.888	-200.000	0.017	-0.162
-376.873	800.000	0.036	-0.109
-375.858	-200.000	0.045	-0.403
-374.844	22.072	0.247	0.201
-373.829	-77.868	0.233	-0.080
-372.815	-200.000	-0.034	0.226
-371.800	-200.000	-0.027	-0.132
-370.785	-200.000	0.001	-0.250
-369.771	-108.757	0.294	0.063
-368.756	-200.000	0.043	0.203
-367.742	-136.515	-0.082	-0.009
-366.727	-200.000	-0.059	-0.374
-365.712	-21.002	-0.036	0.022
-364.698	-136.959	0.356	-0.041
-363.683	189.482	0.138	0.206
-362.669	-90.922	0.186	0.053
-361.654	-200.000	0.032	-0.158
-360.639	99.986	-0.153	0.177
-359.625	-200.000	0.023	0.259
-358.610	594.530	-0.110	0.271
-357.596	81.483	0.071	0.076
-356.581	-200.000	-0.040	0.237
-355.566	-136.975	-0.205	-0.023
-354.552	-121.418	0.052	0.009
-353.537	-90.783	0.233	0.067
-352.523	-120.444	-0.381	0.064
-351.508	-73.974	-0.092	-0.033
-350.493	-200.000	-0.003	0.269
-349.479	166.214	0.025	0.035
-348.464	-38.737	0.158	0.083
-347.450	162.005	-0.095	-0.132
-346.435	52.896	0.151	0.143
-345.420	274.635	-0.184	0.324
-344.406	-121.511	-0.337	0.056
-343.391	788.127	0.081	0.220
-342.377	800.000	-0.043	0.140
-341.362	153.810	-0.074	0.101
-340.348	6.420	0.083	0.061
-339.333	126.863	0.174	0.219
-338.318	800.000	0.031	0.088
-337.304	-200.000	-0.040	0.396
-336.289	-51.945	0.211	0.097
-335.275	-26.646	0.324	-0.188
-334.260	-98.209	0.256	0.065
-333.245	27.755	0.025	-0.021
-332.231	-1.342	0.058	-0.041
-331.216	-73.056	0.270	0.099
-330.202	-105.855	-0.171	0.038
-329.187	-78.102	0.313	-0.107
-328.172	800.000	0.081	0.259
-327.158	167.705	-0.046	-0.064
-326.143	70.604	-0.149	-0.153
-325.129	-200.000	-0.052	-0.252
-324.114	176.559	-0.152	0.220
-323.099	89.654	-0.104	0.115
-322.085	800.000	-0.072	-0.239
-321.070	32.284	-0.153	-0.131
-320.056	-200.000	-0.007	-0.158
-319.041	-98.790	0.291	0.073
-318.026	-200.000	-0.002	0.115
-317.012	108.505	0.091	-0.108
-315.997	169.285	-0.149	0.212
-314.983	-46.406	-0.348	0.170
-313.968	-16.609	-0.242	-0.152
-312.953	-200.000	-0.010	-0.069
-311.939	-76.576	-0.123	-0.043
-310.924	42.333	0.126	-0.114
-309.910	-61.125	0.245	0.103
-308.895	0.666	0.188	0.133
-307.880	-49.440	-0.305	0.145
-306.866	-76.109	-0.100	0.035
-305.851	56.898	-0.037	-0.036
-304.837	-9.317	0.333	-0.221
-303.822	224.451	-0.127	0.204
-302.807	-41.493	-0.290	-0.148
-301.793	-59.865	-0.051	0.022
-300.778	-132.642	-0.139	-0.018
-299.764	-93.054	0.115	0.032
-298.749	-200.000	-0.096	-0.471
-297.735	375.884	0.137	0.277
-296.720	183.599	0.056	-0.082
-295.705	233.948	0.125	0.204
-294.691	292.106	0.035	0.063
-293.676	-200.000	0.017	-0.147
-292.662	208.226	0.046	-0.071
-291.647	539.838	0.116	0.274
-290.632	800.000	0.075	0.206
-289.618	-101.177	0.178	-0.043
-288.603	68.503	-0.094	-0.096
-287.589	-9.249	-0.167	-0.111
-286.574	800.000	0.034	0.105
-285.559	-200.000	0.010	0.073
-284.545	800.000	-0.018	0.071
-283.530	73.332	0.114	-0.119
-282.516	75.027	-0.125	-0.131
-281.501	165.383	0.084	0.118
-280.486	-200.000	0.017	0.145
-279.472	169.494	0.054	0.076
-278.457	12.015	0.197	-0.150
-277.443	151.109	-0.054	0.072
-276.428	41.311	-0.121	-0.108
-275.413	-107.128	-0.170	0.037
-274.399	219.343	-0.054	-0.086
-273.384	-200.000	0.008	0.168
-272.370	800.000	-0.011	-0.032
-271.355	-200.000	-0.004	-0.156
-270.340	434.109	0.213	0.458
-269.326	800.000	0.075	0.210
-268.311	-38.596	-0.202	0.106
-267.297	-60.290	0.181	0.077
-266.282	-128.893	-0.257	0.036
-265.267	74.081	-0.192	0.200
-264.253	361.835	0.074	0.148
-263.238	214.883	0.018	-0.028
-262.224	-1.693	-0.292	-0.204
-261.209	-120.584	0.150	0.025
-260.195	-28.222	0.170	-0.097
-259.180	-14.522	-0.227	0.145
-258.165	186.858	0.080	-0.119
-257.151	-60.134	0.325	0.138
-256.136	97.043	0.154	-0.175
-255.122	-136.122	0.069	0.008
-254.107	800.000	-0.056	-0.243
-253.092	800.000	0.020	-0.077
-252.078	85.690	-0.224	-0.244
-251.063	-112.082	-0.279	-0.056
-250.049	800.000	0.088	0.267
-249.034	293.217	0.053	-0.096
-248.019	-99.041	0.403	-0.101
-247.005	-6.341	-0.086	-0.058
-245.990	-27.387	0.205	-0.118
-244.976	-109.565	-0.148	-0.031
-243.961	800.000	-0.063	-0.201
-242.946	265.508	-0.155	0.267
-241.932	-74.711	0.208	0.074
-240.917	-79.674	0.426	-0.142
-239.903	-121.862	0.303	-0.049
-238.888	-150.912	-0.168	-0.013
-237.873	-7.515	-0.248	0.166
-236.859	-200.000	0.060	0.319
-235.844	375.464	-0.155	0.313
-234.830	752.605	-0.076	-0.204
-233.815	-91.275	0.131	-0.037
-232.800	-200.000	-0.070	-0.474
-231.786	800.000	-0.024	-0.078
-230.771	220.416	0.154	0.245
-229.757	4.347	0.445	0.323
-228.742	-109.531	-0.091	0.019
-227.727	-73.045	0.340	-0.124
-226.713	209.513	-0.008	-0.012
-225.698	-55.731	-0.460	0.203
-224.684	104.516	0.189	-0.221
-223.669	-179.359	0.444	0.010
-222.655	-200.000	-0.019	-0.156
-221.640	-88.504	-0.136	0.040
-220.625	263.285	0.120	0.207
-219.611	49.032	-0.149	0.138
-218.596	-200.000	0.086	0.422
-217.582	-14.251	-0.136	0.087
-216.567	442.988	-0.030	-0.065
-215.552	110.892	-0.231	0.275
-214.538	-57.750	0.287	-0.124
-213.523	-200.000	0.000	0.158
-212.509	655.734	-0.051	0.130
-211.494	-200.000	-0.005	-0.333
-210.479	-66.890	0.253	0.099
-209.465	494.239	0.249	0.565
-208.450	-200.000	0.022	-0.144
-207.436	-140.695	0.243	0.025
-206.421	-149.086	0.090	0.007
-205.406	-171.401	0.322	-0.011
-204.392	-14.178	-0.168	0.107
-203.377	-120.788	-0.102	-0.017
-202.363	220.963	0.035	-0.056
-201.348	800.000	0.110	-0.323
-200.333	-118.542	-0.368	-0.064
-199.319	43.138	-0.229	0.207
-198.304	-106.996	0.476	-0.104
-197.290	-200.000	0.021	-0.153
-196.275	498.213	0.031	-0.070
-195.260	-170.082	0.188	0.007
-194.246	471.060	0.083	-0.185
-193.231	350.221	0.096	-0.187
-192.217	306.763	-0.041	0.075
-191.202	-200.000	0.047	0.219
-190.187	47.054	-0.296	-0.272
-189.173	800.000	-0.091	0.256
-188.158	293.711	-0.121	0.219
-187.144	452.600	0.092	0.201
-186.129	-126.452	-0.062	-0.009
-185.114	-27.559	-0.256	0.147
-184.100	132.465	-0.127	0.162
-183.085	375.583	-0.012	-0.025
-182.071	-200.000	0.009	0.280
-181.056	15.710	0.323	-0.251
-180.042	800.000	-0.086	-0.249
-179.027	-200.000	-0.009	-0.308
-178.012	-83.239	-0.152	-0.048
-176.998	-49.033	-0.100	-0.047
-175.983	12.113	0.096	0.073
-174.969	-46.759	-0.105	-0.051
-173.954	116.177	-0.151	0.182
-172.939	-200.000	-0.011	0.108
-171.925	800.000	0.141	0.424
-170.910	-200.000	0.009	-0.185
-169.896	-200.000	0.013	-0.181
-168.881	-200.000	0.009	0.075
-167.866	800.000	-0.059	-0.223
-166.852	406.118	-0.032	0.067
-165.837	264.143	0.090	-0.155
-164.823	-168.166	0.331	-0.013
-163.808	-138.076	0.134	-0.015
-162.793	-92.881	-0.067	-0.018
-161.779	-152.930	-0.185	0.013
-160.764	800.000	0.050	0.158
-159.750	-200.000	0.060	0.421
-158.735	799.135	0.071	0.193
-157.720	-200.000	0.007	0.076
-156.706	-200.000	-0.014	-0.172
-155.691	139.419	-0.063	0.082
-154.677	800.000	0.090	0.270
-153.662	302.643	-0.194	0.354
-152.647	7.819	0.300	-0.222
-151.633	800.000	-0.043	-0.166
-150.618	-200.000	0.037	-0.291
-149.604	800.000	-0.073	-0.273
-148.589	-157.405	-0.059	0.003
-147.574	-29.752	-0.472	0.265
-146.560	-173.609	0.334	-0.010
-145.545	139.762	0.050	-0.064
-144.531	257.488	0.072	0.123
-143.516	-122.230	-0.165	0.027
-142.502	279.206	0.093	-0.164
-141.487	-200.000	0.083	-0.390
-140.472	-34.525	0.423	-0.228
-139.458	661.767	-0.081	-0.206
-138.443	-200.000	0.071	-0.475
-137.429	-15.991	0.274	0.172
-136.414	800.000	-0.055	-0.180
-135.399	800.000	0.042	-0.124
-134.385	-200.000	-0.021	-0.146
-133.370	-98.213	0.198	0.050
-132.356	4.825	-0.094	0.068
-131.341	161.318	0.033	-0.045
-130.326	-60.712	0.252	0.105
-129.312	59.673	0.210	0.204
-128.297	123.333	-0.014	0.018
-127.283	-74.413	-0.161	-0.057
-126.268	-27.457	0.364	0.208
-125.253	-26.679	-0.272	0.157
-124.239	-49.702	0.083	-0.039
-123.224	-46.258	-0.147	-0.071
-122.210	-49.294	0.278	-0.131
