DTS Sentinel unit serial number:	SN413079Multiplexer serial number:	ORYXHardware model number:	OX4-SRSoftware version number:	ORYX F/W v4.00 Oryx Data Collector v3.7.2.0data status	okinstallation	princeton_trtdifferential loss correction	single-endedforward channel	channel 1reverse channel	N/Adate	2019/09/16time	12:02:35forward acquisition time	60.00reverse acquisition time	0.00gamma	496.2192k internal	0.2296k external	0.2296temperature offset calibration	0.9960default loss term (dB/km)	0.3790temperature slope calibration	1.0000multiplexer offset coefficient	1.0000multiplexer slope coefficient	1.0000fibre end	0.00T internal ref (°C)	38.72T ext. ref 1 (°C)	13.17T ext. ref 2 (°C)	35.86length (m)	temperature (°C)	Stokes	anti-Stokes-747.200	190.760	-0.105	0.162
-746.185	99.136	-0.175	-0.206
-745.171	-17.568	0.185	-0.119
-744.156	-92.328	-0.087	0.025
-743.142	-56.082	-0.210	-0.096
-742.127	-19.885	0.117	-0.074
-741.112	238.513	-0.113	-0.192
-740.098	-95.965	-0.230	0.063
-739.083	219.785	0.140	0.230
-738.069	23.784	-0.334	0.281
-737.054	-79.979	-0.120	-0.041
-736.039	-140.100	-0.104	-0.011
-735.025	606.605	0.294	0.749
-734.010	140.968	-0.123	-0.166
-732.996	436.473	0.128	-0.285
-731.981	800.000	0.080	0.273
-730.966	57.067	-0.050	-0.049
-729.952	-200.000	-0.027	-0.401
-728.937	240.572	0.123	-0.210
-727.923	-84.929	-0.203	0.065
-726.908	4.720	-0.276	0.207
-725.894	-159.832	-0.152	0.009
-724.879	115.013	0.088	-0.110
-723.864	65.921	-0.178	0.185
-722.850	-160.679	0.220	-0.012
-721.835	-200.000	-0.036	-0.249
-720.821	-162.584	0.034	0.002
-719.806	244.330	0.038	0.066
-718.791	36.451	-0.224	0.202
-717.777	-33.338	0.137	-0.077
-716.762	-200.000	-0.031	-0.553
-715.748	-99.880	-0.113	-0.029
-714.733	-112.654	-0.182	0.037
-713.718	1.647	-0.317	-0.233
-712.704	22.830	-0.044	0.037
-711.689	28.964	-0.267	0.231
-710.675	683.697	0.049	-0.131
-709.660	-200.000	-0.018	-0.396
-708.645	196.749	-0.173	-0.269
-707.631	-23.545	0.068	-0.041
-706.616	374.209	0.151	-0.313
-705.602	-88.345	0.162	0.049
-704.587	-200.000	-0.006	-0.267
-703.572	-200.000	-0.002	-0.133
-702.558	122.448	0.271	0.346
-701.543	184.643	0.151	-0.229
-700.529	-200.000	0.059	-0.427
-699.514	131.729	0.114	-0.150
-698.499	299.583	-0.087	0.164
-697.485	182.073	-0.154	0.231
-696.470	178.473	-0.155	0.232
-695.456	223.066	-0.155	-0.256
-694.441	800.000	0.048	-0.173
-693.426	-56.160	-0.082	-0.037
-692.412	10.984	-0.240	0.187
-691.397	111.048	-0.111	-0.136
-690.383	-29.909	0.120	-0.070
-689.368	28.974	0.254	0.219
-688.354	-114.912	0.113	0.022
-687.339	-115.888	-0.158	0.030
-686.324	-60.072	-0.189	0.082
-685.310	28.807	-0.155	-0.134
-684.295	800.000	0.055	-0.195
-683.281	132.062	0.181	0.237
-682.266	-200.000	0.016	-0.074
-681.251	-99.713	-0.302	-0.077
-680.237	154.719	-0.091	0.128
-679.222	-200.000	0.088	0.404
-678.208	-100.634	-0.162	-0.041
-677.193	800.000	-0.030	-0.097
-676.178	5.884	0.197	-0.148
-675.164	-200.000	-0.006	0.358
-674.149	-200.000	0.009	0.156
-673.135	117.904	0.133	0.167
-672.120	66.761	0.270	-0.280
-671.105	-14.941	-0.288	0.188
-670.091	114.217	-0.209	0.259
-669.076	-90.354	-0.091	-0.027
-668.062	29.962	0.250	0.217
-667.047	307.017	-0.118	-0.224
-666.032	42.939	-0.092	-0.086
-665.018	213.172	-0.076	-0.122
-664.003	-1.147	-0.044	0.031
-662.989	192.675	0.023	0.035
-661.974	-130.124	0.147	-0.020
-660.959	236.950	-0.189	-0.318
-659.945	800.000	0.035	0.116
-658.930	112.196	0.183	0.226
-657.916	-200.000	0.040	-0.203
-656.901	-189.308	0.203	0.002
-655.886	-162.097	-0.338	-0.017
-654.872	-181.210	0.142	0.003
-653.857	183.925	0.120	-0.182
-652.843	800.000	-0.033	-0.102
-651.828	10.383	-0.098	-0.076
-650.814	-114.981	0.115	-0.022
-649.799	-110.710	-0.015	0.003
-648.784	-26.229	0.154	0.092
-647.770	-94.991	-0.117	0.032
-646.755	-91.836	-0.289	-0.084
-645.741	238.066	0.129	-0.219
-644.726	-161.764	-0.316	0.016
-643.711	-56.419	-0.125	-0.056
-642.697	-179.812	-0.050	0.001
-641.682	800.000	-0.101	-0.346
-640.668	126.197	-0.181	-0.233
-639.653	-200.000	0.018	-0.252
-638.638	329.221	0.113	-0.222
-637.624	287.971	0.135	0.249
-636.609	11.264	-0.157	0.122
-635.595	571.816	-0.022	-0.054
-634.580	-81.217	0.246	0.083
-633.565	302.211	0.026	-0.049
-632.551	91.479	-0.143	0.163
-631.536	-200.000	-0.026	0.121
-630.522	-200.000	0.000	-0.005
-629.507	61.851	0.106	0.107
-628.492	-200.000	0.017	-0.128
-627.478	489.826	-0.062	-0.145
-626.463	-47.572	0.197	0.098
-625.449	-95.592	0.048	0.013
-624.434	-200.000	-0.007	0.034
-623.419	777.985	0.164	0.457
-622.405	-200.000	0.018	-0.101
-621.390	-162.252	-0.285	0.014
-620.376	-57.432	0.201	-0.090
-619.361	-20.539	-0.244	0.153
-618.346	-59.452	-0.073	-0.032
-617.332	-65.676	0.154	-0.063
-616.317	-28.106	0.362	-0.213
-615.303	-140.803	0.056	-0.006
-614.288	-200.000	0.016	0.153
-613.273	800.000	-0.053	-0.183
-612.259	-119.543	0.134	0.024
-611.244	800.000	-0.054	-0.164
-610.230	362.696	0.097	-0.198
-609.215	-43.188	0.323	0.166
-608.201	-131.046	0.074	0.010
-607.186	130.167	-0.028	-0.036
-606.171	-62.260	-0.005	0.002
-605.157	-140.280	-0.234	0.025
-604.142	65.024	-0.284	-0.292
-603.128	-35.078	-0.165	-0.092
-602.113	800.000	-0.042	-0.124
-601.098	-200.000	0.007	0.244
-600.084	-165.586	0.220	-0.010
-599.069	-143.003	-0.257	0.025
-598.055	231.270	0.116	-0.192
-597.040	-200.000	0.033	-0.266
-596.025	-200.000	-0.038	0.262
-595.011	-17.476	-0.256	0.164
-593.996	-20.266	0.213	-0.133
-592.982	-76.267	-0.235	0.084
-591.967	-14.290	0.263	0.172
-590.952	38.433	-0.104	0.094
-589.938	-91.993	0.281	0.081
-588.923	224.858	0.149	0.245
-587.909	-200.000	-0.041	-0.365
-586.894	-200.000	0.003	-0.034
-585.879	174.178	-0.160	-0.235
-584.865	141.021	-0.251	-0.337
-583.850	-44.613	0.099	0.050
-582.836	800.000	0.035	0.142
-581.821	-113.277	-0.167	0.033
-580.806	55.876	-0.234	-0.230
-579.792	464.175	-0.075	0.169
-578.777	800.000	-0.120	0.441
-577.763	212.994	-0.091	0.146
-576.748	188.768	0.116	0.176
-575.733	-56.285	-0.104	0.047
-574.719	696.787	-0.078	-0.208
-573.704	-200.000	-0.002	0.202
-572.690	-37.188	-0.447	-0.243
-571.675	-95.579	0.179	0.049
-570.661	-171.821	-0.342	0.011
-569.646	-81.782	-0.327	-0.109
-568.631	-200.000	-0.006	-0.226
-567.617	354.602	0.075	-0.152
-566.602	411.584	0.146	0.314
-565.588	-24.492	-0.351	0.212
-564.573	800.000	-0.074	-0.224
-563.558	800.000	0.001	0.005
-562.544	-200.000	-0.043	-0.347
-561.529	-3.192	0.197	0.140
-560.515	-200.000	0.010	0.198
-559.500	-200.000	-0.027	0.361
-558.485	784.514	-0.088	-0.244
-557.471	-54.032	0.093	0.043
-556.456	-101.969	0.178	0.044
-555.442	-108.567	-0.102	0.022
-554.427	-155.242	0.327	-0.022
-553.412	-123.378	-0.162	-0.026
-552.398	57.877	0.031	0.030
-551.383	388.617	0.105	0.221
-550.369	-200.000	0.005	0.145
-549.354	66.387	-0.027	0.027
-548.339	-119.499	0.211	0.037
-547.325	36.549	-0.145	0.130
-546.310	800.000	0.078	0.245
-545.296	-99.746	-0.229	-0.058
-544.281	78.313	-0.102	0.110
-543.266	-200.000	0.009	-0.185
-542.252	471.591	-0.117	0.267
-541.237	800.000	0.156	0.488
-540.223	-200.000	0.007	-0.127
-539.208	-46.871	-0.388	0.192
-538.193	-151.874	-0.187	-0.014
-537.179	800.000	-0.037	0.104
-536.164	71.866	-0.233	0.246
-535.150	-82.345	-0.305	-0.100
-534.135	103.022	0.187	-0.221
-533.121	217.656	0.147	0.237
-532.106	800.000	0.038	0.135
-531.091	793.521	-0.004	0.011
-530.077	800.000	0.133	0.403
-529.062	203.954	-0.097	-0.152
-528.048	345.388	0.086	0.171
-527.033	-200.000	0.012	-0.214
-526.018	-99.561	-0.069	0.017
-525.004	800.000	-0.137	-0.429
-523.989	338.262	-0.095	-0.187
-522.975	-92.195	-0.068	0.019
-521.960	-200.000	-0.044	0.275
-520.945	83.829	-0.111	-0.122
-519.931	-75.341	-0.039	0.014
-518.916	-68.214	-0.180	0.071
-517.902	-84.219	-0.090	-0.029
-516.887	-41.603	-0.065	0.034
-515.872	16.117	-0.250	0.200
-514.858	-57.970	0.421	0.186
-513.843	-172.751	-0.110	-0.003
-512.829	-127.753	0.245	-0.036
-511.814	416.198	-0.084	-0.182
-510.799	18.223	-0.158	-0.128
-509.785	-78.174	-0.239	-0.083
-508.770	800.000	-0.047	-0.159
-507.756	800.000	0.018	-0.071
-506.741	93.866	-0.195	-0.224
-505.726	800.000	0.048	0.149
-504.712	-200.000	-0.001	0.152
-503.697	-18.216	-0.200	0.126
-502.683	-94.838	-0.287	0.079
-501.668	-26.427	-0.166	0.099
-500.653	-200.000	-0.003	0.332
-499.639	-86.771	-0.385	0.119
-498.624	800.000	-0.028	0.092
-497.610	14.966	0.240	0.190
-496.595	800.000	-0.046	0.147
-495.581	-200.000	-0.044	0.249
-494.566	800.000	-0.073	-0.249
-493.551	800.000	0.075	0.242
-492.537	-189.060	0.115	0.001
-491.522	-200.000	-0.040	0.263
-490.508	500.448	-0.036	0.084
-489.493	-200.000	-0.024	-0.156
-488.478	-87.333	-0.099	-0.030
-487.464	-164.290	0.241	0.011
-486.449	-128.284	0.120	0.017
-485.435	-200.000	0.002	-0.197
-484.420	-125.371	0.082	-0.013
-483.405	-45.507	0.073	0.037
-482.391	-5.986	-0.317	-0.219
-481.376	-200.000	0.009	0.366
-480.362	456.335	-0.129	-0.290
-479.347	-142.246	-0.142	-0.014
-478.332	800.000	-0.026	-0.115
-477.318	124.783	0.113	0.144
-476.303	-98.717	0.188	-0.048
-475.289	-26.612	-0.187	0.110
-474.274	20.443	-0.432	-0.353
-473.259	-130.375	0.323	0.044
-472.245	800.000	0.153	0.518
-471.230	-80.291	-0.132	-0.045
-470.216	-98.114	0.086	0.022
-469.201	358.582	0.164	-0.331
-468.186	64.370	0.175	0.178
-467.172	9.145	-0.035	0.026
-466.157	0.869	-0.172	-0.125
-465.143	-91.047	-0.048	-0.014
-464.128	-130.821	0.234	-0.032
-463.113	9.930	0.156	-0.120
-462.099	276.628	-0.098	0.175
-461.084	4.582	0.181	-0.134
-460.070	800.000	-0.075	-0.281
-459.055	-44.636	-0.141	-0.071
-458.040	252.540	0.147	-0.253
-457.026	-167.429	0.075	-0.003
-456.011	761.393	-0.026	-0.072
-454.997	-100.503	-0.282	0.071
-453.982	-46.831	-0.185	-0.091
-452.968	-2.868	0.104	0.074
-451.953	53.854	0.144	0.140
-450.938	-0.001	-0.113	-0.081
-449.924	-116.628	-0.172	0.032
-448.909	800.000	0.033	0.102
-447.895	800.000	0.102	0.345
-446.880	131.352	-0.225	-0.291
-445.865	-34.753	-0.153	-0.085
-444.851	-200.000	0.012	0.166
-443.836	116.318	-0.090	0.111
-442.822	153.674	0.139	0.193
-441.807	44.304	0.137	0.127
-440.792	800.000	-0.070	-0.272
-439.778	380.483	0.081	-0.168
-438.763	-138.909	0.125	-0.014
-437.749	-37.214	-0.124	0.067
-436.734	-200.000	-0.006	-0.100
-435.719	-167.964	-0.295	-0.012
-434.705	800.000	0.021	0.085
-433.690	40.860	0.102	-0.093
-432.676	-200.000	-0.020	-0.245
-431.661	251.803	0.050	-0.086
-430.646	-67.580	0.219	-0.087
-429.632	414.023	-0.031	0.066
-428.617	-93.418	-0.225	-0.063
-427.603	-125.697	-0.105	-0.016
-426.588	-60.725	-0.058	0.025
-425.573	153.085	0.080	-0.110
-424.559	800.000	0.091	-0.347
-423.544	-67.152	0.146	0.058
-422.530	-129.676	-0.279	-0.039
-421.515	-200.000	-0.016	0.149
-420.500	-65.613	-0.225	0.091
-419.486	85.501	0.124	-0.138
-418.471	-111.273	-0.079	-0.016
-417.457	-200.000	0.002	0.175
-416.442	-200.000	-0.004	-0.050
-415.428	-200.000	0.013	-0.302
-414.413	12.542	0.146	-0.113
-413.398	-200.000	0.029	-0.143
-412.384	94.174	-0.187	-0.214
-411.369	-28.187	-0.137	0.080
-410.355	-52.592	-0.062	0.029
-409.340	-122.273	-0.371	-0.061
-408.325	158.036	-0.082	-0.114
-407.311	-200.000	0.001	0.040
-406.296	-200.000	0.014	0.086
-405.282	-126.874	-0.194	-0.029
-404.267	44.154	-0.208	0.192
-403.252	800.000	-0.035	0.146
-402.238	-77.911	0.270	-0.094
-401.223	-72.436	-0.299	0.111
-400.209	-200.000	0.027	-0.312
-399.194	35.520	0.156	0.138
-398.179	-200.000	-0.030	-0.195
-397.165	-61.587	-0.196	-0.083
-396.150	6.599	0.163	-0.122
-395.136	142.915	-0.047	0.063
-394.121	-125.532	0.362	0.055
-393.106	800.000	0.125	0.364
-392.092	-46.514	-0.133	-0.066
-391.077	-200.000	0.054	-0.242
-390.063	800.000	-0.049	-0.199
-389.048	15.008	-0.196	-0.154
-388.033	800.000	-0.010	-0.044
-387.019	176.086	0.211	-0.309
-386.004	-200.000	0.020	-0.092
-384.990	-87.423	0.032	-0.010
-383.975	-200.000	-0.039	-0.206
-382.960	800.000	-0.013	-0.049
-381.946	37.843	0.155	0.139
-380.931	18.780	-0.211	0.170
-379.917	394.687	0.074	0.155
-378.902	-66.891	-0.270	-0.108
-377.888	-78.984	0.131	0.045
-376.873	-130.420	0.374	-0.051
-375.858	-200.000	-0.022	0.122
-374.844	-87.366	0.044	0.013
-373.829	-200.000	-0.008	-0.190
-372.815	14.893	0.406	0.320
-371.800	183.048	0.187	0.278
-370.785	-20.352	0.136	-0.084
-369.771	-56.419	0.221	0.099
-368.756	85.912	-0.028	-0.032
-367.742	67.749	-0.106	0.109
-366.727	-200.000	0.003	0.082
-365.712	58.081	-0.195	0.192
-364.698	-123.842	0.184	0.029
-363.683	-151.603	0.376	0.028
-362.669	-40.067	-0.261	0.137
-361.654	-200.000	0.057	0.450
-360.639	347.178	-0.108	-0.214
-359.625	-100.315	0.235	-0.059
-358.610	99.084	0.062	0.072
-357.596	270.161	0.055	0.097
-356.581	-200.000	0.000	-0.173
-355.566	-200.000	-0.025	0.439
-354.552	0.008	-0.141	0.101
-353.537	-191.212	0.224	0.002
-352.523	367.800	0.084	-0.171
-351.508	426.008	0.049	0.106
-350.493	619.167	0.126	0.319
-349.479	-121.373	0.341	-0.057
-348.464	-69.761	-0.062	-0.024
-347.450	73.296	0.157	-0.165
-346.435	800.000	-0.018	-0.052
-345.420	1.400	0.229	-0.166
-344.406	222.166	-0.117	-0.189
-343.391	-108.574	0.125	0.027
-342.377	-4.956	0.085	0.059
-341.362	52.714	0.236	-0.226
-340.348	73.615	0.176	0.185
-339.333	200.321	-0.147	-0.227
-338.318	-200.000	0.062	0.351
-337.304	445.531	0.104	-0.231
-336.289	800.000	-0.092	-0.291
-335.275	-137.458	0.131	-0.015
-334.260	-200.000	-0.039	0.184
-333.245	300.648	-0.161	-0.299
-332.231	-155.639	0.054	0.003
-331.216	160.281	0.043	0.061
-330.202	-114.949	0.266	-0.051
-329.187	-52.541	0.059	-0.028
-328.172	-90.747	-0.201	0.058
-327.158	-14.590	0.181	0.117
-326.143	-133.875	-0.158	0.020
-325.129	-99.498	0.212	0.053
-324.114	305.421	0.166	0.310
-323.099	408.382	0.050	0.106
-322.085	204.117	0.048	0.074
-321.070	30.590	0.239	0.206
-320.056	-55.625	0.210	-0.094
-319.041	25.134	-0.124	-0.103
-318.026	800.000	0.040	0.131
-317.012	-93.554	-0.069	-0.019
-315.997	5.111	-0.101	0.075
-314.983	-64.296	0.263	0.108
-313.968	140.636	0.093	0.123
-312.953	-36.579	-0.393	-0.213
-311.939	774.487	0.050	-0.136
-310.924	-200.000	0.006	0.307
-309.910	-94.677	-0.290	-0.079
-308.895	-152.092	0.133	0.010
-307.880	-200.000	0.035	0.354
-306.866	800.000	-0.076	0.289
-305.851	657.102	0.088	-0.228
-304.837	-22.569	-0.146	-0.089
-303.822	-128.125	0.181	-0.026
-302.807	133.624	0.066	-0.085
-301.793	38.495	-0.106	0.095
-300.778	-83.770	-0.280	0.090
-299.764	499.009	0.084	0.194
-298.749	-181.291	0.378	0.008
-297.735	93.819	-0.101	-0.115
-296.720	800.000	0.054	0.171
-295.705	-200.000	0.061	0.375
-294.691	-41.416	0.281	-0.145
-293.676	-200.000	0.020	0.250
-292.662	361.664	-0.217	0.437
-291.647	-200.000	0.036	-0.231
-290.632	800.000	0.034	0.102
-289.618	-200.000	-0.012	-0.063
-288.603	249.304	0.207	-0.353
-287.589	109.461	-0.129	-0.155
-286.574	-200.000	-0.035	-0.156
-285.559	-106.091	0.387	0.087
-284.545	-200.000	-0.229	0.001
-283.530	-200.000	-0.007	-0.149
-282.516	-148.280	-0.087	-0.007
-281.501	-126.039	0.055	0.008
-280.486	-62.871	0.240	0.099
-279.472	57.682	-0.184	0.181
-278.457	-138.688	-0.191	-0.021
-277.443	-63.349	0.140	-0.058
-276.428	-115.811	-0.081	-0.015
-275.413	-101.736	0.422	0.103
-274.399	-93.707	0.203	0.056
-273.384	800.000	0.008	-0.031
-272.370	17.520	0.080	0.064
-271.355	-200.000	-0.013	-0.324
-270.340	696.731	-0.080	-0.210
-269.326	165.484	0.175	0.248
-268.311	28.004	-0.071	0.060
-267.297	-200.000	0.014	-0.331
-266.282	-121.450	-0.093	0.016
-265.267	76.154	0.064	0.068
-264.253	188.648	0.170	-0.255
-263.238	46.945	0.216	-0.201
-262.224	-78.228	0.351	-0.121
-261.209	88.731	-0.112	0.124
-260.195	-114.090	0.404	0.078
-259.180	-13.206	-0.175	0.114
-258.165	-142.435	0.238	-0.024
-257.151	-200.000	0.059	-0.279
-256.136	140.110	0.056	0.073
-255.122	-159.665	0.694	0.038
-254.107	50.897	-0.128	-0.122
-253.092	-22.653	-0.248	-0.150
-252.078	800.000	0.046	-0.171
-251.063	-134.680	-0.324	-0.040
-250.049	800.000	-0.080	0.258
-249.034	248.322	-0.216	-0.367
-248.019	-200.000	-0.039	-0.231
-247.005	30.452	-0.042	-0.036
-245.990	101.019	0.308	-0.359
-244.976	91.867	0.250	-0.282
-243.961	419.375	0.029	0.062
-242.946	296.631	-0.061	-0.111
-241.932	507.828	0.085	-0.197
-240.917	-200.000	-0.045	-0.216
-239.903	48.869	-0.100	-0.094
-238.888	58.925	-0.144	0.142
-237.873	34.830	-0.202	0.177
-236.859	268.934	0.236	-0.415
-235.844	-34.966	-0.288	0.157
-234.830	800.000	-0.080	0.316
-233.815	10.666	0.141	-0.107
-232.800	30.124	0.028	0.024
-231.786	800.000	0.071	0.239
-230.771	-136.792	-0.065	0.007
-229.757	-156.489	0.229	-0.014
-228.742	144.570	0.245	-0.327
-227.727	-15.323	-0.116	0.074
-226.713	-26.688	0.204	0.119
-225.698	8.083	-0.243	-0.182
-224.684	-199.472	-0.331	-0.002
-223.669	-75.242	0.257	-0.092
-222.655	19.839	0.134	-0.108
-221.640	-135.038	-0.321	-0.039
-220.625	114.025	0.188	0.229
-219.611	-176.196	0.065	-0.002
-218.596	-91.348	0.203	0.058
-217.582	-167.849	-0.330	0.013
-216.567	150.449	0.046	0.063
-215.552	121.078	0.172	-0.214
-214.538	-75.006	0.223	0.080
-213.523	-200.000	-0.015	-0.185
-212.509	-116.781	0.328	0.060
-211.494	672.586	0.094	-0.245
-210.479	-77.546	0.158	0.055
-209.465	-46.677	0.333	-0.163
-208.450	-187.913	0.107	0.001
-207.436	121.632	-0.027	0.034
-206.421	46.387	0.034	-0.031
-205.406	-166.807	-0.117	0.005
-204.392	253.989	-0.159	0.272
-203.377	0.752	0.073	0.053
-202.363	-200.000	0.004	-0.078
-201.348	800.000	-0.073	0.266
-200.333	-95.681	0.253	0.068
-199.319	800.000	-0.050	-0.166
-198.304	142.831	0.025	0.033
-197.290	-34.189	0.066	-0.036
-196.275	555.441	-0.069	-0.167
-195.260	21.959	0.112	0.091
-194.246	-64.533	-0.010	0.004
-193.231	275.644	-0.175	0.310
-192.217	113.802	-0.191	0.232
-191.202	-200.000	0.029	-0.134
-190.187	-131.370	-0.356	0.047
-189.173	-126.786	-0.383	0.057
-188.158	516.226	-0.157	-0.368
-187.144	-81.514	0.114	0.037
-186.129	-66.842	-0.101	0.040
-185.114	58.519	-0.074	-0.073
-184.100	-200.000	0.044	0.215
-183.085	-102.683	0.062	-0.015
-182.071	-94.241	0.297	-0.081
-181.056	-61.132	0.350	0.148
-180.042	-28.559	0.107	-0.062
-179.027	79.060	-0.119	-0.128
-178.012	-125.548	-0.392	0.060
-176.998	118.007	-0.111	-0.136
-175.983	-200.000	0.003	-0.060
-174.969	-200.000	0.046	0.219
-173.954	5.018	0.093	-0.069
-172.939	153.824	-0.219	-0.300
-171.925	-200.000	-0.031	0.264
-170.910	800.000	-0.027	-0.074
-169.896	-123.879	0.276	-0.043
-168.881	157.194	-0.197	0.272
-167.866	800.000	0.027	-0.113
-166.852	-148.426	0.216	-0.018
-165.837	800.000	-0.059	0.163
-164.823	550.908	0.078	0.187
-163.808	79.551	-0.212	-0.228
-162.793	524.799	0.049	-0.116
-161.779	122.012	0.115	-0.144
-160.764	-131.529	-0.153	-0.020
-159.750	624.374	0.050	0.125
-158.735	88.075	0.083	0.092
-157.720	117.573	-0.229	0.281
-156.706	46.954	-0.239	-0.222
-155.691	-30.888	-0.118	-0.067
-154.677	-163.122	-0.356	0.017
-153.662	-80.116	0.150	-0.050
-152.647	-106.759	0.127	0.028
-151.633	-111.062	-0.117	0.024
-150.618	-122.502	-0.133	0.022
-149.604	-146.240	0.348	0.030
-148.589	-69.905	0.165	0.063
-147.574	18.187	-0.080	-0.063
-146.560	31.297	-0.128	-0.110
-145.545	-25.902	-0.190	-0.112
-144.531	-34.567	0.222	0.121
-143.516	118.976	-0.284	0.350
-142.502	105.959	-0.093	0.110
-141.487	338.622	-0.211	-0.411
-140.472	-185.157	0.244	0.004
-139.458	-53.204	0.380	-0.174
-138.443	718.346	-0.095	0.252
-137.429	-36.592	0.406	-0.218
-136.414	-84.547	0.092	0.029
-135.399	-133.223	0.053	0.007
-134.385	-200.000	0.038	-0.241
-133.370	85.159	0.029	-0.032
-132.356	-192.735	0.088	-0.001
-131.341	-51.827	0.170	-0.079
-130.326	158.060	-0.102	0.141
-129.312	-200.000	-0.024	0.248
-128.297	-110.718	0.482	0.099
-127.283	800.000	0.025	0.093
-126.268	-200.000	-0.007	-0.075
-125.253	-150.219	0.147	-0.011
-124.239	-200.000	-0.030	0.189
-123.224	504.880	0.068	-0.157
-122.210	-200.000	-0.002	-0.204
-121.195	63.269	-0.182	0.182
