DTS Sentinel unit serial number:	SN413079Multiplexer serial number:	ORYXHardware model number:	OX4-SRSoftware version number:	ORYX F/W v4.00 Oryx Data Collector v3.7.2.0data status	okinstallation	princeton_trtdifferential loss correction	single-endedforward channel	channel 1reverse channel	N/Adate	2019/09/15time	02:50:35forward acquisition time	60.00reverse acquisition time	0.00gamma	496.2192k internal	0.2323k external	0.2323temperature offset calibration	0.9990default loss term (dB/km)	0.3790temperature slope calibration	1.0000multiplexer offset coefficient	1.0000multiplexer slope coefficient	1.0000fibre end	0.00T internal ref (°C)	31.31T ext. ref 1 (°C)	4.57T ext. ref 2 (°C)	25.69length (m)	temperature (°C)	Stokes	anti-Stokes-747.200	800.000	0.073	0.247
-746.185	800.000	0.029	0.091
-745.171	800.000	0.081	-0.280
-744.156	27.427	-0.247	0.210
-743.142	-3.514	0.254	-0.179
-742.127	741.832	-0.104	-0.282
-741.112	-184.924	0.176	0.003
-740.098	-126.658	-0.178	0.027
-739.083	-168.165	0.303	0.012
-738.069	-18.815	-0.176	0.111
-737.054	800.000	0.086	-0.354
-736.039	-148.539	-0.385	-0.032
-735.025	-114.563	0.324	0.063
-734.010	365.214	-0.073	-0.149
-732.996	39.145	0.168	0.152
-731.981	71.949	0.117	-0.123
-730.966	440.877	-0.188	0.416
-729.952	241.238	-0.221	-0.373
-728.937	-66.588	0.136	-0.054
-727.923	67.141	0.338	-0.348
-726.908	148.561	0.081	0.110
-725.894	46.252	-0.233	-0.218
-724.879	76.308	-0.259	0.277
-723.864	547.649	-0.073	-0.176
-722.850	42.588	-0.133	-0.122
-721.835	77.870	-0.162	-0.174
-720.821	-74.412	-0.579	-0.211
-719.806	197.899	0.249	-0.384
-718.791	-200.000	0.054	-0.316
-717.777	-111.460	-0.132	-0.027
-716.762	800.000	0.035	0.120
-715.748	-128.533	-0.392	0.056
-714.733	-83.796	-0.181	-0.058
-713.718	15.248	-0.189	0.149
-712.704	244.267	-0.185	-0.313
-711.689	800.000	-0.046	-0.143
-710.675	-200.000	-0.025	0.195
-709.660	-200.000	-0.013	-0.129
-708.645	-117.489	0.125	0.023
-707.631	221.789	-0.137	-0.222
-706.616	-88.500	-0.140	0.042
-705.602	-200.000	0.026	0.260
-704.587	-200.000	0.027	0.130
-703.572	-106.747	-0.273	-0.061
-702.558	77.448	0.171	0.184
-701.543	136.995	-0.110	0.145
-700.529	-200.000	0.012	-0.099
-699.514	-200.000	0.022	0.119
-698.499	-105.034	0.248	0.057
-697.485	84.831	0.188	0.207
-696.470	47.561	-0.141	-0.132
-695.456	-200.000	0.005	-0.135
-694.441	-10.864	-0.184	-0.122
-693.426	-55.845	-0.243	0.109
-692.412	-200.000	0.015	-0.102
-691.397	60.880	0.183	-0.183
-690.383	-102.663	-0.232	0.056
-689.368	800.000	0.047	0.181
-688.354	800.000	0.022	-0.084
-687.339	-74.874	-0.200	-0.072
-686.324	-108.349	0.412	-0.090
-685.310	-74.145	-0.140	-0.051
-684.295	-200.000	0.038	0.196
-683.281	306.212	-0.154	0.289
-682.266	602.872	-0.102	-0.256
-681.251	161.306	0.129	0.182
-680.237	-6.323	0.115	-0.079
-679.222	203.515	-0.206	-0.322
-678.208	-131.045	0.189	-0.025
-677.193	-128.517	-0.172	-0.025
-676.178	-45.786	-0.278	-0.138
-675.164	-200.000	-0.013	-0.090
-674.149	-14.928	0.154	-0.100
-673.135	308.208	-0.056	0.105
-672.120	269.989	-0.097	-0.171
-671.105	-84.275	-0.123	0.039
-670.091	-200.000	0.015	0.158
-669.076	86.933	-0.270	-0.301
-668.062	55.226	0.246	-0.240
-667.047	188.958	0.078	0.117
-666.032	-51.016	0.194	-0.092
-665.018	33.755	0.137	0.120
-664.003	57.542	0.072	-0.071
-662.989	332.358	-0.101	0.196
-661.974	-37.208	-0.296	0.159
-660.959	100.750	0.077	0.090
-659.945	286.045	-0.144	0.262
-658.930	-178.167	0.327	0.008
-657.916	211.581	0.110	0.174
-656.901	-67.476	0.100	-0.039
-655.886	68.353	-0.062	-0.064
-654.872	217.374	-0.113	-0.181
-653.857	-108.564	-0.626	0.135
-652.843	-20.672	0.364	-0.225
-651.828	-21.081	0.090	0.056
-650.814	-44.355	0.061	-0.031
-649.799	-33.593	0.098	0.054
-648.784	-30.188	0.271	-0.155
-647.770	689.999	-0.085	0.223
-646.755	-56.519	0.142	0.063
-645.741	289.792	0.036	0.065
-644.726	-200.000	0.047	-0.289
-643.711	-200.000	0.023	0.114
-642.697	185.554	-0.108	-0.161
-641.682	42.399	0.090	-0.083
-640.668	-52.881	-0.289	0.134
-639.653	320.549	0.129	0.247
-638.638	101.249	-0.168	0.197
-637.624	64.325	-0.210	-0.213
-636.609	213.378	0.178	-0.283
-635.595	-7.156	0.154	-0.105
-634.580	375.723	0.132	-0.272
-633.565	-146.442	-0.134	0.012
-632.551	800.000	0.134	0.482
-631.536	-100.317	-0.289	-0.072
-630.522	-102.028	-0.043	0.010
-629.507	14.440	-0.126	-0.099
-628.492	-109.369	0.188	-0.040
-627.478	800.000	-0.038	-0.121
-626.463	-107.449	-0.062	-0.014
-625.449	66.367	-0.140	0.143
-624.434	-120.667	0.119	0.020
-623.419	-98.827	-0.259	-0.066
-622.405	-105.659	0.214	0.049
-621.390	-200.000	-0.022	0.274
-620.376	24.928	-0.133	-0.111
-619.361	-87.492	-0.056	-0.017
-618.346	160.630	0.102	-0.143
-617.332	170.312	-0.129	0.186
-616.317	42.549	0.098	-0.089
-615.303	-57.568	0.303	0.133
-614.288	-200.000	0.047	-0.294
-613.273	-33.915	0.067	-0.037
-612.259	-200.000	-0.007	-0.042
-611.244	177.762	-0.071	0.104
-610.230	36.882	-0.301	0.267
-609.215	-58.789	0.134	-0.058
-608.201	-200.000	0.046	0.242
-607.186	93.590	-0.107	0.122
-606.171	-53.560	0.385	-0.177
-605.157	-46.832	-0.145	0.071
-604.142	-28.876	-0.332	-0.192
-603.128	-53.793	0.057	-0.026
-602.113	-200.000	-0.006	0.218
-601.098	376.478	0.039	0.079
-600.084	800.000	0.068	-0.293
-599.069	-200.000	-0.007	-0.133
-598.055	665.670	0.087	-0.225
-597.040	-168.259	-0.184	-0.007
-596.025	429.803	0.016	-0.034
-595.011	116.339	0.112	0.138
-593.996	-132.908	0.123	-0.016
-592.982	-200.000	0.038	-0.244
-591.967	-92.125	-0.050	0.014
-590.952	-102.221	0.140	-0.034
-589.938	87.765	0.042	0.047
-588.923	-136.149	-0.050	0.006
-587.909	128.298	0.033	0.042
-586.894	-54.179	-0.252	0.115
-585.879	1.106	-0.107	-0.077
-584.865	-3.867	0.103	-0.072
-583.850	-200.000	-0.001	-0.129
-582.836	25.601	-0.143	0.120
-581.821	58.782	-0.180	-0.178
-580.806	-30.161	-0.298	-0.170
-579.792	-69.196	-0.238	0.092
-578.777	-73.263	0.149	0.055
-577.763	-52.565	0.118	0.055
-576.748	-52.982	0.301	-0.139
-575.733	123.608	-0.163	-0.205
-574.719	-191.189	0.431	0.004
-573.704	800.000	-0.061	-0.190
-572.690	-3.040	-0.200	0.140
-571.675	-173.127	0.276	0.008
-570.661	10.659	-0.022	0.017
-569.646	800.000	0.019	-0.073
-568.631	262.053	0.063	-0.109
-567.617	122.215	-0.334	0.418
-566.602	-102.353	0.093	-0.022
-565.588	-28.327	0.382	0.221
-564.573	190.453	-0.171	-0.257
-563.558	78.551	0.113	-0.121
-562.544	-200.000	-0.010	-0.132
-561.529	207.931	0.030	-0.047
-560.515	-102.546	0.208	-0.050
-559.500	-25.710	0.173	0.102
-558.485	358.068	0.114	-0.227
-557.471	800.000	-0.075	-0.255
-556.456	186.937	0.131	-0.196
-555.442	-200.000	0.020	0.129
-554.427	40.862	-0.033	0.030
-553.412	-111.720	0.260	0.053
-552.398	25.897	-0.245	-0.204
-551.383	-36.405	-0.102	0.055
-550.369	127.820	0.188	-0.240
-549.354	36.304	-0.248	-0.219
-548.339	147.532	0.117	-0.158
-547.325	-119.126	0.287	-0.050
-546.310	-117.338	0.200	0.036
-545.296	-131.355	-0.258	-0.034
-544.281	-200.000	0.044	-0.212
-543.266	767.793	-0.081	0.220
-542.252	512.413	-0.183	0.427
-541.237	800.000	-0.045	0.172
-540.223	-157.250	0.069	-0.004
-539.208	-96.659	0.243	0.064
-538.193	-200.000	-0.017	-0.218
-537.179	-62.586	-0.286	-0.119
-536.164	127.605	0.060	-0.076
-535.150	219.470	0.320	-0.513
-534.135	-110.933	0.050	-0.010
-533.121	-200.000	0.014	-0.150
-532.106	-200.000	-0.060	-0.284
-531.091	258.533	0.131	0.225
-530.077	190.409	0.168	0.253
-529.062	-200.000	-0.061	-0.338
-528.048	117.380	0.048	0.059
-527.033	153.037	-0.204	0.279
-526.018	41.884	-0.212	0.192
-525.004	-200.000	0.369	-0.002
-523.989	-200.000	0.005	-0.271
-522.975	-73.205	-0.202	0.074
-521.960	43.010	0.080	-0.073
-520.945	82.159	0.183	0.198
-519.931	21.080	0.311	-0.252
-518.916	27.878	-0.275	-0.232
-517.902	-43.113	0.102	0.052
-516.887	800.000	0.034	-0.134
-515.872	101.992	0.027	0.032
-514.858	-68.008	-0.092	-0.036
-513.843	178.942	0.109	-0.159
-512.829	-162.408	-0.056	-0.003
-511.814	-200.000	0.023	-0.144
-510.799	71.070	-0.100	-0.104
-509.785	704.063	0.051	0.136
-508.770	629.065	0.038	0.097
-507.756	678.239	-0.025	0.064
-506.741	-200.000	-0.027	0.121
-505.726	-103.720	0.221	0.052
-504.712	37.054	0.110	0.097
-503.697	-150.317	0.071	-0.005
-502.683	29.890	-0.095	-0.081
-501.668	129.897	-0.147	0.188
-500.653	800.000	0.079	0.269
-499.639	277.711	0.077	-0.137
-498.624	67.250	0.133	0.136
-497.610	-89.872	0.153	0.045
-496.595	398.027	-0.082	0.171
-495.581	-200.000	0.001	0.125
-494.566	-159.403	-0.240	0.013
-493.551	34.380	-0.196	0.171
-492.537	548.163	0.105	-0.251
-491.522	-86.494	-0.172	-0.053
-490.508	534.581	0.118	-0.279
-489.493	-78.366	-0.418	0.143
-488.478	34.550	0.085	-0.074
-487.464	-8.999	0.252	0.169
-486.449	-200.000	0.004	0.052
-485.435	-129.267	0.238	-0.033
-484.420	-152.004	-0.211	-0.015
-483.405	777.611	0.022	0.060
-482.391	210.020	0.030	-0.047
-481.376	76.640	0.089	0.094
-480.362	704.985	0.084	-0.222
-479.347	657.521	-0.059	-0.151
-478.332	-113.582	-0.319	-0.062
-477.318	-200.000	0.012	0.239
-476.303	184.082	0.239	-0.354
-475.289	-164.943	0.143	-0.006
-474.274	-25.349	0.092	0.054
-473.259	-82.345	-0.242	-0.079
-472.245	-63.869	0.065	-0.027
-471.230	86.499	0.051	0.056
-470.216	800.000	-0.091	0.321
-469.201	67.741	0.142	-0.144
-468.186	-14.641	-0.042	0.027
-467.172	-46.890	-0.026	0.013
-466.157	-94.606	-0.144	0.039
-465.143	227.256	0.159	-0.257
-464.128	-65.768	0.235	-0.094
-463.113	60.782	-0.229	0.227
-462.099	-51.084	0.234	-0.110
-461.084	-111.968	-0.103	0.021
-460.070	-88.957	0.384	0.113
-459.055	-200.000	0.065	0.289
-458.040	18.763	-0.214	-0.171
-457.026	-30.601	0.157	0.089
-456.011	800.000	0.042	-0.119
-454.997	-200.000	0.005	0.207
-453.982	-156.450	-0.433	-0.027
-452.968	110.103	-0.075	-0.090
-451.953	69.680	0.209	-0.215
-450.938	-128.024	0.355	0.051
-449.924	-26.963	0.180	0.105
-448.909	341.342	0.129	0.252
-447.895	-93.950	0.183	-0.050
-446.880	23.966	0.041	-0.034
-445.865	800.000	0.036	0.126
-444.851	105.901	-0.212	0.250
-443.836	41.898	-0.125	-0.113
-442.822	-200.000	0.014	-0.224
-441.807	384.016	-0.080	0.165
-440.792	78.916	0.174	-0.186
-439.778	800.000	0.003	0.010
-438.763	-124.429	-0.053	0.008
-437.749	-146.820	-0.101	-0.009
-436.734	-150.118	-0.056	0.004
-435.719	292.687	0.048	-0.088
-434.705	577.547	0.076	-0.185
-433.690	375.496	0.108	0.219
-432.676	-65.776	-0.182	-0.073
-431.661	-78.798	0.248	0.085
-430.646	-50.064	-0.146	-0.069
-429.632	-55.083	0.211	-0.095
-428.617	-29.993	0.132	0.075
-427.603	-200.000	-0.004	0.246
-426.588	-43.500	0.143	0.072
-425.573	-142.146	-0.475	0.047
-424.559	64.498	-0.118	-0.118
-423.544	800.000	-0.156	-0.505
-422.530	800.000	-0.074	-0.311
-421.515	800.000	0.069	0.222
-420.500	-200.000	-0.038	-0.303
-419.486	-10.648	-0.171	0.113
-418.471	253.699	0.113	0.193
-417.457	-20.524	0.271	0.166
-416.442	800.000	-0.121	-0.366
-415.428	-135.835	-0.369	-0.043
-414.413	126.411	0.044	0.056
-413.398	-128.585	0.145	-0.020
-412.384	-58.129	-0.203	0.088
-411.369	-200.000	0.011	0.092
-410.355	-54.634	-0.208	-0.094
-409.340	295.454	-0.217	-0.395
-408.325	-73.571	0.150	-0.054
-407.311	-200.000	0.015	0.095
-406.296	467.561	-0.094	0.211
-405.282	-36.402	-0.265	-0.143
-404.267	-200.000	0.030	-0.480
-403.252	439.871	-0.064	0.140
-402.238	-72.817	-0.089	-0.033
-401.223	-9.256	0.150	-0.100
-400.209	-127.444	0.144	0.021
-399.194	-2.653	0.105	-0.073
-398.179	76.742	-0.226	0.239
-397.165	-200.000	-0.028	-0.151
-396.150	-164.345	0.345	0.016
-395.136	74.605	-0.031	-0.033
-394.121	-142.598	-0.180	-0.018
-393.106	-99.911	-0.185	-0.046
-392.092	-87.174	-0.196	0.059
-391.077	-200.000	0.018	-0.192
-390.063	-18.019	-0.311	-0.194
-389.048	291.250	-0.118	0.214
-388.033	-74.043	-0.237	-0.085
-387.019	29.093	0.099	-0.084
-386.004	800.000	0.086	0.304
-384.990	-67.249	-0.284	-0.111
-383.975	800.000	-0.065	0.260
-382.960	800.000	0.030	0.101
-381.946	-6.159	0.269	0.183
-380.931	-58.046	-0.104	0.045
-379.917	-159.576	0.220	0.012
-378.902	800.000	-0.044	-0.128
-377.888	800.000	-0.071	0.232
-376.873	-73.731	0.255	-0.092
-375.858	59.065	0.108	0.106
-374.844	-42.544	-0.374	0.189
-373.829	-157.007	-0.313	-0.019
-372.815	800.000	-0.031	-0.087
-371.800	-34.220	-0.094	-0.052
-370.785	-167.116	0.049	0.002
-369.771	-126.689	0.314	-0.046
-368.756	54.637	-0.119	0.114
-367.742	105.808	0.230	0.270
-366.727	-200.000	-0.009	0.107
-365.712	-41.783	0.177	-0.090
-364.698	155.452	-0.225	-0.308
-363.683	322.186	-0.145	0.274
-362.669	-200.000	-0.003	0.441
-361.654	346.662	0.042	0.082
-360.639	-53.808	-0.061	-0.028
-359.625	-134.539	0.288	0.035
-358.610	-137.156	0.212	-0.024
-357.596	-200.000	0.008	-0.122
-356.581	-14.722	-0.077	-0.049
-355.566	291.228	-0.234	0.423
-354.552	-48.861	-0.184	-0.088
-353.537	-35.160	-0.112	-0.061
-352.523	95.892	-0.252	-0.286
-351.508	198.761	-0.070	-0.106
-350.493	576.941	0.157	-0.381
-349.479	-106.969	0.193	0.042
-348.464	144.085	0.041	-0.054
-347.450	-200.000	0.032	-0.189
-346.435	205.940	0.091	-0.141
-345.420	-128.670	0.262	-0.037
-344.406	-200.000	-0.004	0.055
-343.391	-30.454	0.206	0.116
-342.377	-119.800	-0.191	-0.033
-341.362	-80.606	-0.291	-0.096
-340.348	-84.680	0.525	0.164
-339.333	800.000	-0.017	-0.051
-338.318	-122.971	-0.115	0.018
-337.304	-16.378	0.070	0.044
-336.289	211.026	-0.088	0.138
-335.275	665.343	-0.024	-0.061
-334.260	149.227	0.193	-0.260
-333.245	-200.000	-0.067	-0.344
-332.231	468.956	-0.038	0.086
-331.216	-200.000	-0.037	0.199
-330.202	800.000	0.056	0.162
-329.187	800.000	-0.039	-0.108
-328.172	56.595	0.022	0.022
-327.158	800.000	0.038	0.110
-326.143	800.000	-0.089	0.292
-325.129	800.000	0.074	0.296
-324.114	-26.627	0.190	-0.110
-323.099	-104.511	-0.424	0.097
-322.085	-51.471	-0.267	0.124
-321.070	-55.146	0.300	0.134
-320.056	-65.873	0.029	-0.011
-319.041	41.402	-0.044	0.039
-318.026	-200.000	-0.013	0.284
-317.012	-13.657	-0.125	-0.080
-315.997	123.768	0.252	0.314
-314.983	-200.000	0.004	-0.082
-313.968	-48.503	-0.235	-0.112
-312.953	-37.545	0.324	0.172
-311.939	57.626	-0.063	0.061
-310.924	-66.682	0.384	0.151
-309.910	-170.338	-0.216	-0.008
-308.895	-139.390	-0.282	-0.030
-307.880	213.384	-0.127	0.199
-306.866	283.846	0.085	-0.151
-305.851	-3.009	0.127	0.088
-304.837	-150.906	0.208	-0.016
-303.822	113.147	0.129	-0.156
-302.807	-180.482	0.115	0.002
-301.793	-200.000	-0.073	0.474
-300.778	-200.000	-0.009	0.205
-299.764	37.589	-0.131	-0.115
-298.749	156.151	-0.157	-0.214
-297.735	-200.000	0.000	-0.340
-296.720	-200.000	-0.016	-0.397
-295.705	228.224	-0.100	-0.162
-294.691	800.000	0.085	-0.310
-293.676	-200.000	-0.019	-0.374
-292.662	102.816	0.128	-0.148
-291.647	-79.406	0.407	-0.137
-290.632	-200.000	-0.027	-0.355
-289.618	50.724	-0.123	0.116
-288.603	-69.808	0.265	-0.100
-287.589	-200.000	0.016	0.143
-286.574	800.000	-0.040	0.168
-285.559	61.893	0.082	-0.081
-284.545	800.000	0.057	0.201
-283.530	351.001	-0.257	0.505
-282.516	-200.000	0.000	0.253
-281.501	-54.199	0.024	-0.011
-280.486	100.297	0.027	0.031
-279.472	246.745	-0.103	0.173
-278.457	-80.652	0.045	0.015
-277.443	-97.077	-0.253	0.066
-276.428	-20.727	-0.248	-0.151
-275.413	800.000	-0.070	0.292
-274.399	800.000	0.046	-0.128
-273.384	800.000	-0.038	0.107
-272.370	800.000	0.044	-0.144
-271.355	45.550	0.281	0.257
-270.340	-161.757	0.177	-0.009
-269.326	3.024	0.122	0.088
-268.311	-38.511	0.056	-0.029
-267.297	-50.388	0.339	0.159
-266.282	-139.888	-0.479	0.050
-265.267	311.295	-0.107	-0.199
-264.253	-13.083	0.360	-0.232
-263.238	258.909	-0.182	-0.311
-262.224	299.073	0.150	-0.273
-261.209	-200.000	0.015	-0.220
-260.195	-5.380	0.114	0.078
-259.180	-12.031	0.174	0.113
-258.165	800.000	-0.057	0.244
-257.151	397.984	-0.076	-0.158
-256.136	-94.475	0.170	-0.046
-255.122	-104.758	0.200	-0.046
-254.107	111.784	-0.133	0.159
-253.092	299.165	-0.109	0.199
-252.078	-150.114	-0.380	-0.029
-251.063	800.000	0.030	0.108
-250.049	-118.934	0.313	-0.054
-249.034	-200.000	0.041	0.262
-248.019	-74.785	-0.133	-0.047
-247.005	-66.840	0.189	0.074
-245.990	175.195	-0.316	0.453
-244.976	800.000	0.094	-0.296
-243.961	-89.280	0.282	-0.082
-242.946	-45.967	0.018	0.009
-241.932	-200.000	-0.234	0.001
-240.917	-200.000	0.044	0.348
-239.903	-37.613	-0.107	-0.057
-238.888	-200.000	0.005	-0.193
-237.873	-3.862	-0.293	0.201
-236.859	-46.137	-0.233	0.113
-235.844	-200.000	-0.037	0.190
-234.830	-56.809	0.269	-0.118
-233.815	515.306	-0.102	0.236
-232.800	800.000	0.012	-0.042
-231.786	-36.243	-0.288	0.154
-230.771	800.000	0.030	0.095
-229.757	-12.006	0.087	0.057
-228.742	-200.000	0.000	-0.075
-227.727	-200.000	0.060	-0.305
-226.713	128.822	0.097	0.122
-225.698	-200.000	-0.028	0.132
-224.684	-14.018	-0.232	-0.148
-223.669	-47.633	-0.338	0.162
-222.655	-122.082	-0.357	-0.058
-221.640	-200.000	0.047	-0.255
-220.625	800.000	0.089	0.283
-219.611	24.969	0.112	-0.092
-218.596	279.832	-0.032	-0.057
-217.582	800.000	0.123	0.398
-216.567	-200.000	0.005	-0.117
-215.552	800.000	0.055	0.220
-214.538	-121.407	-0.117	0.019
-213.523	-27.766	0.210	0.120
-212.509	-183.676	0.340	-0.006
-211.494	800.000	-0.142	0.420
-210.479	420.748	0.073	0.155
-209.465	186.060	0.096	-0.141
-208.450	-3.507	0.270	0.186
-207.436	-4.128	-0.154	-0.106
-206.421	22.785	0.197	-0.159
-205.406	800.000	-0.030	0.112
-204.392	-52.153	0.323	0.148
-203.377	-200.000	-0.015	-0.145
-202.363	-130.456	-0.368	-0.049
-201.348	-85.252	0.204	0.063
-200.333	-76.866	0.246	0.085
-199.319	-200.000	-0.039	0.226
-198.304	-177.098	-0.326	0.008
-197.290	73.859	-0.106	-0.110
-196.275	-37.221	0.167	0.088
-195.260	-89.025	-0.106	0.031
-194.246	-68.147	-0.203	0.078
-193.231	710.592	-0.106	-0.277
-192.217	60.948	0.294	-0.288
-191.202	-130.309	-0.164	-0.022
-190.187	-200.000	-0.029	0.263
-189.173	694.245	-0.072	-0.188
-188.158	530.349	-0.056	0.130
-187.144	488.056	-0.090	-0.203
-186.129	800.000	-0.035	-0.109
-185.114	-200.000	-0.017	0.345
-184.100	-200.000	0.012	0.276
-183.085	-200.000	-0.003	-0.182
-182.071	108.333	-0.070	0.083
-181.056	233.055	-0.079	0.128
-180.042	116.554	0.081	-0.098
-179.027	184.044	0.107	-0.157
-178.012	-109.582	-0.343	-0.071
-176.998	800.000	0.072	-0.233
-175.983	-86.911	0.467	-0.141
-174.969	-0.613	-0.107	-0.075
-173.954	154.152	0.152	0.206
-172.939	226.363	-0.105	-0.169
-171.925	-105.691	-0.187	-0.042
-170.910	32.987	0.066	0.056
-169.896	-140.438	-0.635	0.065
-168.881	175.808	-0.179	-0.257
-167.866	-29.975	0.093	-0.053
-166.852	311.933	0.037	0.069
-165.837	82.505	-0.284	0.305
-164.823	-112.580	-0.367	0.072
-163.808	334.205	0.143	0.274
-162.793	49.195	-0.237	0.219
-161.779	-62.999	0.141	-0.057
-160.764	800.000	-0.015	-0.043
-159.750	800.000	-0.069	0.217
-158.735	-84.596	-0.199	-0.062
-157.720	-129.121	-0.118	-0.016
-156.706	-160.745	0.116	0.006
-155.691	800.000	0.012	-0.037
-154.677	-130.008	0.264	-0.036
-153.662	-200.000	0.042	-0.201
-152.647	180.403	0.112	-0.162
-151.633	-93.215	-0.117	-0.032
-150.618	348.705	-0.097	-0.189
-149.604	623.735	0.126	-0.313
-148.589	-82.815	-0.123	0.039
-147.574	-38.810	0.067	-0.035
-146.560	800.000	0.051	0.146
-145.545	-200.000	0.036	0.332
-144.531	-130.308	0.164	-0.022
-143.516	-150.722	0.089	-0.007
-142.502	-200.000	-0.018	0.271
-141.487	-124.181	-0.129	0.020
-140.472	-10.113	0.279	0.183
-139.458	-90.306	-0.055	-0.016
-138.443	-78.959	0.067	-0.023
-137.429	358.108	-0.113	-0.222
-136.414	-200.000	0.037	-0.258
-135.399	-41.906	0.155	0.079
-134.385	8.040	0.412	0.305
-133.370	17.150	-0.300	0.234
-132.356	2.219	0.173	0.123
-131.341	800.000	-0.066	-0.230
-130.326	-56.725	0.163	0.071
-129.312	185.887	-0.096	-0.141
-128.297	-200.000	-0.013	-0.259
-127.283	97.161	-0.191	0.216
-126.268	-200.000	-0.007	-0.181
-125.253	-78.247	-0.326	-0.110
-124.239	-61.308	-0.265	-0.110
-123.224	31.738	-0.218	0.185
-122.210	-181.467	-0.309	-0.006
