DTS Sentinel unit serial number:	SN413079Multiplexer serial number:	ORYXHardware model number:	OX4-SRSoftware version number:	ORYX F/W v4.00 Oryx Data Collector v3.7.2.0data status	okinstallation	princeton_trtdifferential loss correction	single-endedforward channel	channel 1reverse channel	N/Adate	2019/09/15time	19:26:35forward acquisition time	60.00reverse acquisition time	0.00gamma	496.2192k internal	0.2299k external	0.2299temperature offset calibration	0.9956default loss term (dB/km)	0.3790temperature slope calibration	1.0000multiplexer offset coefficient	1.0000multiplexer slope coefficient	1.0000fibre end	0.00T internal ref (°C)	39.14T ext. ref 1 (°C)	7.27T ext. ref 2 (°C)	28.67length (m)	temperature (°C)	Stokes	anti-Stokes-747.200	-135.124	-0.081	0.010
-746.185	-93.421	-0.335	0.095
-745.171	-59.957	0.350	0.153
-744.156	-200.000	0.037	0.347
-743.142	220.601	-0.111	-0.181
-742.127	-150.240	-0.360	0.028
-741.112	94.151	-0.028	0.033
-740.098	1.847	0.428	0.315
-739.083	180.625	-0.116	0.173
-738.069	116.097	-0.218	0.273
-737.054	52.906	-0.245	0.239
-736.039	-200.000	-0.043	0.485
-735.025	800.000	-0.118	0.433
-734.010	-200.000	0.007	-0.192
-732.996	-103.726	-0.377	0.090
-731.981	-200.000	-0.057	-0.262
-730.966	-69.063	-0.586	-0.230
-729.952	800.000	0.032	-0.125
-728.937	-97.312	-0.228	-0.061
-727.923	320.958	-0.030	0.058
-726.908	99.505	-0.133	0.157
-725.894	-43.808	-0.071	0.036
-724.879	47.057	-0.101	-0.096
-723.864	327.532	0.195	-0.381
-722.850	127.300	0.027	0.035
-721.835	-98.982	-0.151	0.039
-720.821	-24.685	-0.113	0.068
-719.806	-26.301	-0.217	0.130
-718.791	-143.392	-0.330	-0.032
-717.777	-200.000	-0.025	-0.452
-716.762	-57.157	-0.230	-0.103
-715.748	800.000	0.051	-0.187
-714.733	-200.000	-0.015	0.116
-713.718	23.008	0.187	0.157
-712.704	13.977	0.206	0.163
-711.689	-93.554	-0.054	-0.015
-710.675	-144.363	-0.122	0.012
-709.660	267.207	-0.084	-0.151
-708.645	122.927	0.121	-0.155
-707.631	193.207	-0.323	0.497
-706.616	302.121	-0.165	-0.310
-705.602	160.937	0.341	0.485
-704.587	-167.012	0.239	0.010
-703.572	541.981	-0.063	0.153
-702.558	612.615	-0.181	0.461
-701.543	426.945	0.074	-0.162
-700.529	262.065	-0.100	-0.177
-699.514	-46.645	0.202	0.101
-698.499	-52.230	-0.312	0.147
-697.485	437.090	-0.060	-0.134
-696.470	148.435	0.013	0.017
-695.456	800.000	0.027	0.102
-694.441	-28.759	-0.163	-0.096
-693.426	-56.910	-0.066	-0.030
-692.412	-110.816	-0.240	-0.050
-691.397	-200.000	-0.002	0.079
-690.383	-200.000	0.016	0.159
-689.368	-101.403	-0.109	-0.027
-688.354	-200.000	-0.024	-0.286
-687.339	-25.097	-0.214	-0.129
-686.324	-40.200	-0.233	-0.124
-685.310	221.027	-0.087	0.142
-684.295	-92.874	-0.252	0.072
-683.281	10.973	-0.167	-0.130
-682.266	800.000	0.151	-0.456
-681.251	122.174	-0.207	-0.263
-680.237	-200.000	-0.007	-0.187
-679.222	-200.000	-0.045	-0.250
-678.208	-112.989	0.116	-0.023
-677.193	219.763	-0.060	-0.098
-676.178	-71.510	0.058	0.022
-675.164	19.674	-0.174	-0.143
-674.149	-200.000	-0.024	-0.482
-673.135	84.492	-0.109	0.121
-672.120	-81.978	-0.313	-0.104
-671.105	128.020	0.260	-0.337
-670.091	564.314	-0.081	-0.199
-669.076	-200.000	-0.010	-0.088
-668.062	80.826	-0.081	-0.089
-667.047	-113.216	0.189	0.038
-666.032	800.000	0.033	-0.094
-665.018	93.475	-0.122	-0.141
-664.003	8.055	0.114	0.087
-662.989	-26.862	-0.235	0.140
-661.974	-39.467	0.074	0.039
-660.959	-200.000	-0.009	-0.127
-659.945	-56.271	0.253	-0.114
-658.930	-65.636	-0.073	0.030
-657.916	-118.251	-0.189	0.034
-656.901	-112.604	-0.271	0.055
-655.886	70.183	0.185	-0.194
-654.872	-88.540	-0.310	-0.094
-653.857	800.000	-0.045	-0.137
-652.843	389.138	-0.033	0.070
-651.828	-79.068	-0.342	-0.118
-650.814	-99.737	0.560	0.143
-649.799	65.441	-0.256	-0.263
-648.784	455.684	0.090	-0.204
-647.770	-75.500	-0.155	0.056
-646.755	-74.563	-0.195	-0.071
-645.741	800.000	-0.079	-0.239
-644.726	-200.000	-0.028	-0.164
-643.711	-55.763	0.458	-0.208
-642.697	177.949	0.179	-0.266
-641.682	800.000	-0.125	0.374
-640.668	800.000	-0.139	0.459
-639.653	800.000	-0.082	-0.242
-638.638	-200.000	0.002	-0.285
-637.624	-200.000	-0.035	0.386
-636.609	20.633	0.163	-0.134
-635.595	-41.622	-0.230	-0.120
-634.580	-200.000	-0.001	-0.201
-633.565	188.444	-0.065	-0.098
-632.551	-53.409	-0.335	0.156
-631.536	-14.171	-0.127	-0.083
-630.522	51.438	0.167	-0.161
-629.507	-44.322	0.283	-0.144
-628.492	34.715	0.084	-0.075
-627.478	-147.313	-0.184	0.016
-626.463	211.281	0.057	-0.092
-625.449	277.797	-0.133	0.240
-624.434	60.247	0.242	-0.243
-623.419	-147.591	-0.158	0.014
-622.405	229.573	0.113	0.188
-621.390	-13.573	0.192	0.126
-620.376	-57.944	-0.126	-0.056
-619.361	-136.725	-0.213	-0.025
-618.346	-15.277	0.336	0.218
-617.332	68.445	-0.012	0.012
-616.317	-70.847	0.094	0.036
-615.303	145.741	-0.090	0.122
-614.288	37.381	0.064	-0.058
-613.273	-200.000	0.012	0.219
-612.259	-200.000	-0.044	0.265
-611.244	-42.157	-0.118	0.061
-610.230	-19.629	0.298	0.187
-609.215	-200.000	0.045	0.247
-608.201	-200.000	0.012	0.152
-607.186	-165.151	-0.231	-0.010
-606.171	-133.020	-0.323	-0.042
-605.157	-104.157	0.307	-0.072
-604.142	-141.283	-0.373	0.039
-603.128	-64.933	-0.151	-0.062
-602.113	-24.102	0.287	0.174
-601.098	0.407	-0.207	-0.150
-600.084	-200.000	-0.062	-0.305
-599.069	84.191	-0.199	-0.220
-598.055	-95.069	0.078	-0.021
-597.040	68.804	-0.086	0.090
-596.025	800.000	-0.089	0.308
-595.011	184.427	0.195	-0.293
-593.996	-5.407	-0.214	0.149
-592.982	345.411	-0.162	0.323
-591.967	-46.378	0.089	-0.044
-590.952	-91.028	-0.144	-0.042
-589.938	-92.470	0.320	-0.091
-588.923	-152.287	-0.223	0.016
-587.909	-200.000	0.003	0.258
-586.894	-79.245	0.039	-0.013
-585.879	180.003	-0.235	-0.349
-584.865	-167.804	-0.045	0.002
-583.850	47.324	-0.342	-0.323
-582.836	482.145	0.075	-0.172
-581.821	55.008	-0.067	-0.065
-580.806	194.565	-0.070	0.107
-579.792	-55.587	-0.228	-0.103
-578.777	-200.000	0.032	-0.161
-577.763	-200.000	-0.054	0.324
-576.748	-111.196	-0.150	0.031
-575.733	-162.326	0.195	-0.010
-574.719	-200.000	-0.026	-0.171
-573.704	121.294	-0.188	-0.237
-572.690	-17.815	-0.039	-0.025
-571.675	31.067	0.319	0.277
-570.661	61.994	0.099	0.100
-569.646	-106.791	-0.237	0.053
-568.631	67.362	-0.243	-0.251
-567.617	-85.834	-0.147	0.046
-566.602	-140.707	0.172	0.018
-565.588	-182.960	0.125	-0.002
-564.573	-200.000	-0.017	0.087
-563.558	8.611	-0.312	0.238
-562.544	3.664	0.308	0.228
-561.529	271.540	0.086	-0.153
-560.515	-75.887	0.181	-0.065
-559.500	-105.822	0.129	0.029
-558.485	-161.154	0.168	-0.009
-557.471	800.000	0.082	0.338
-556.456	157.395	-0.099	0.139
-555.442	800.000	0.041	0.143
-554.427	190.181	-0.018	-0.028
-553.412	-96.759	0.402	-0.107
-552.398	228.339	-0.181	-0.299
-551.383	-107.728	0.134	0.030
-550.369	55.528	0.269	0.264
-549.354	156.350	0.184	-0.257
-548.339	-200.000	0.069	-0.374
-547.325	-170.995	-0.162	0.006
-546.310	-86.888	-0.093	-0.029
-545.296	800.000	-0.072	0.238
-544.281	-96.830	0.282	0.075
-543.266	-124.034	0.025	-0.004
-542.252	-138.658	0.095	-0.011
-541.237	439.171	0.073	0.162
-540.223	550.855	0.059	0.144
-539.208	216.228	0.138	0.223
-538.193	-77.757	0.137	0.048
-537.179	13.381	-0.361	0.283
-536.164	-118.495	-0.208	-0.037
-535.150	250.345	0.251	0.431
-534.135	800.000	-0.069	0.226
-533.121	11.289	-0.297	0.230
-532.106	-29.557	0.279	0.162
-531.091	-113.679	-0.387	-0.076
-530.077	158.361	-0.087	-0.122
-529.062	58.370	-0.024	-0.024
-528.048	108.886	-0.139	-0.169
-527.033	-20.877	-0.207	-0.128
-526.018	132.000	-0.136	-0.177
-525.004	-48.829	-0.234	0.113
-523.989	-160.002	-0.314	-0.017
-522.975	58.558	-0.171	0.170
-521.960	-136.511	-0.255	-0.030
-520.945	800.000	-0.071	0.232
-519.931	-200.000	-0.020	0.335
-518.916	800.000	-0.033	0.101
-517.902	-156.058	0.200	0.013
-516.887	-176.846	-0.102	0.003
-515.872	187.445	0.083	-0.125
-514.858	-200.000	0.055	-0.269
-513.843	-80.549	-0.290	-0.098
-512.829	-200.000	-0.055	0.327
-511.814	800.000	0.031	0.111
-510.799	4.174	-0.017	-0.012
-509.785	429.357	-0.081	-0.178
-508.770	-80.214	0.295	0.100
-507.756	800.000	0.008	-0.030
-506.741	218.749	0.188	0.305
-505.726	-15.780	-0.096	-0.062
-504.712	-68.205	-0.098	0.038
-503.697	-22.443	-0.113	0.069
-502.683	211.853	-0.057	-0.091
-501.668	313.154	0.022	-0.041
-500.653	-200.000	-0.004	-0.082
-499.639	212.691	0.042	-0.067
-498.624	94.137	-0.294	-0.338
-497.610	-140.812	0.259	0.027
-496.595	800.000	0.052	-0.221
-495.581	-36.110	-0.451	-0.246
-494.566	-76.120	0.239	0.085
-493.551	477.224	0.063	-0.144
-492.537	97.882	0.162	0.188
-491.522	-145.091	-0.079	0.007
-490.508	-72.354	0.232	0.087
-489.493	174.608	-0.060	-0.087
-488.478	-146.455	0.393	0.035
-487.464	-13.770	0.301	-0.197
-486.449	800.000	0.072	-0.209
-485.435	-200.000	0.023	-0.103
-484.420	-46.030	0.299	0.149
-483.405	-200.000	0.002	-0.186
-482.391	800.000	-0.025	-0.085
-481.376	-169.151	0.205	-0.008
-480.362	-200.000	0.060	-0.449
-479.347	116.099	-0.198	-0.246
-478.332	-28.017	-0.366	0.214
-477.318	-34.690	-0.272	-0.150
-476.303	128.472	-0.117	-0.150
-475.289	-148.363	-0.093	-0.008
-474.274	-200.000	0.032	-0.298
-473.259	96.952	0.128	0.148
-472.245	800.000	-0.118	-0.473
-471.230	453.823	-0.174	-0.390
-470.216	-116.521	0.277	0.052
-469.201	-139.421	-0.378	-0.041
-468.186	-91.260	0.284	0.082
-467.172	-200.000	0.021	0.169
-466.157	-113.050	-0.243	0.048
-465.143	-35.551	0.050	-0.028
-464.128	-200.000	0.025	-0.225
-463.113	-24.594	0.051	0.031
-462.099	-115.221	0.103	-0.020
-461.084	56.640	-0.131	0.129
-460.070	166.226	-0.041	0.059
-459.055	46.971	-0.169	-0.159
-458.040	308.526	-0.130	0.245
-457.026	-200.000	0.015	-0.358
-456.011	3.662	0.024	0.017
-454.997	250.633	-0.091	0.156
-453.982	800.000	-0.020	-0.064
-452.968	800.000	0.060	-0.225
-451.953	315.459	-0.074	-0.142
-450.938	-96.450	-0.405	-0.108
-449.924	-104.153	-0.184	-0.043
-448.909	0.192	0.121	-0.087
-447.895	800.000	-0.035	0.131
-446.880	-104.910	0.121	0.028
-445.865	10.252	0.123	-0.095
-444.851	-91.424	0.166	-0.048
-443.836	-200.000	0.025	-0.118
-442.822	800.000	-0.079	0.284
-441.807	189.032	-0.243	0.366
-440.792	598.272	0.064	0.161
-439.778	42.601	0.108	0.099
-438.763	-141.089	0.068	0.007
-437.749	4.375	-0.136	0.101
-436.734	168.017	-0.074	0.106
-435.719	-200.000	0.008	-0.168
-434.705	-118.920	0.218	-0.039
-433.690	39.244	0.086	0.078
-432.676	-9.730	-0.199	0.134
-431.661	-105.042	0.229	0.053
-430.646	221.208	-0.119	0.193
-429.632	137.352	-0.065	-0.086
-428.617	-136.219	-0.296	-0.035
-427.603	-72.066	-0.406	0.152
-426.588	-64.840	0.422	0.172
-425.573	572.532	0.101	-0.249
-424.559	62.257	-0.084	0.084
-423.544	-200.000	0.014	0.435
-422.530	-85.539	0.237	0.074
-421.515	4.666	-0.170	-0.126
-420.500	-200.000	0.012	-0.237
-419.486	-200.000	0.053	-0.361
-418.471	352.836	0.114	0.227
-417.457	-16.764	-0.216	0.138
-416.442	800.000	-0.045	0.136
-415.428	-42.299	-0.225	0.116
-414.413	-143.852	0.053	0.005
-413.398	-47.581	0.047	-0.023
-412.384	-96.136	-0.378	0.101
-411.369	624.649	0.064	-0.161
-410.355	-91.177	0.088	0.026
-409.340	329.634	-0.106	0.205
-408.325	-200.000	0.031	0.157
-407.311	-106.716	-0.136	0.030
-406.296	-153.931	-0.089	0.006
-405.282	192.167	-0.105	-0.159
-404.267	-184.135	-0.188	0.003
-403.252	-59.674	-0.427	0.184
-402.238	-6.102	0.216	0.149
-401.223	-127.234	0.170	0.025
-400.209	446.137	-0.139	0.309
-399.194	87.291	0.038	-0.042
-398.179	-200.000	-0.007	-0.057
-397.165	2.145	-0.203	-0.147
-396.150	-200.000	0.094	-0.444
-395.136	33.355	0.119	-0.104
-394.121	-66.721	-0.216	0.086
-393.106	127.192	0.218	0.278
-392.092	800.000	0.026	0.073
-391.077	-67.540	0.413	-0.163
-390.063	186.623	0.076	0.114
-389.048	45.066	-0.115	-0.106
-388.033	800.000	-0.057	0.201
-387.019	-57.868	0.393	-0.173
-386.004	800.000	-0.072	0.205
-384.990	8.778	-0.283	0.214
-383.975	52.403	0.153	0.147
-382.960	182.363	-0.045	0.067
-381.946	198.003	0.162	0.249
-380.931	609.383	-0.106	-0.266
-379.917	-66.610	0.155	0.062
-378.902	-57.954	-0.128	-0.056
-377.888	-200.000	0.072	-0.495
-376.873	85.629	-0.113	0.125
-375.858	192.995	0.041	-0.062
-374.844	800.000	0.048	0.165
-373.829	-127.861	0.297	0.043
-372.815	-42.524	0.125	-0.064
-371.800	-104.481	-0.100	0.023
-370.785	142.593	-0.096	0.128
-369.771	-93.193	-0.149	0.042
-368.756	14.255	-0.177	-0.138
-367.742	236.494	-0.035	-0.059
-366.727	65.889	0.024	0.025
-365.712	-200.000	0.050	-0.290
-364.698	281.442	0.039	-0.071
-363.683	-123.930	-0.245	-0.039
-362.669	800.000	0.080	0.264
-361.654	-200.000	-0.026	0.126
-360.639	672.079	0.147	-0.383
-359.625	649.229	0.073	-0.187
-358.610	137.752	-0.086	0.113
-357.596	800.000	-0.081	0.318
-356.581	79.813	-0.074	-0.080
-355.566	19.428	0.107	0.086
-354.552	436.640	0.027	-0.059
-353.537	-47.838	0.403	-0.196
-352.523	-77.508	0.154	0.054
-351.508	-200.000	0.057	0.323
-350.493	174.815	-0.127	-0.185
-349.479	130.678	-0.227	-0.292
-348.464	200.643	0.102	0.158
-347.450	-200.000	0.021	-0.160
-346.435	-48.752	-0.134	-0.065
-345.420	-90.376	0.054	0.016
-344.406	-85.006	-0.109	-0.034
-343.391	-40.500	0.179	0.093
-342.377	-37.178	0.093	-0.050
-341.362	800.000	-0.040	0.114
-340.348	-200.000	0.022	0.208
-339.333	800.000	-0.082	-0.246
-338.318	227.604	0.014	-0.024
-337.304	800.000	0.052	-0.196
-336.289	148.398	-0.138	-0.187
-335.275	-70.620	-0.064	-0.024
-334.260	-77.228	0.288	0.101
-333.245	-146.045	0.151	0.013
-332.231	-200.000	-0.043	-0.265
-331.216	-29.588	0.031	-0.018
-330.202	800.000	0.051	0.189
-329.187	-81.767	0.210	0.069
-328.172	-40.521	-0.081	-0.042
-327.158	587.549	-0.023	0.058
-326.143	-71.122	0.203	0.077
-325.129	-161.401	0.206	-0.011
-324.114	-200.000	0.014	0.172
-323.099	-127.906	0.204	0.029
-322.085	206.681	0.160	-0.251
-321.070	56.026	-0.143	-0.140
-320.056	-200.000	-0.015	0.114
-319.041	-200.000	0.001	0.102
-318.026	-200.000	0.016	-0.174
-317.012	-75.942	0.130	-0.046
-315.997	30.314	0.080	-0.069
-314.983	-0.981	0.124	0.088
-313.968	-145.256	0.248	0.023
-312.953	800.000	-0.067	0.246
-311.939	-200.000	0.013	-0.091
-310.924	-200.000	-0.009	-0.132
-309.910	-200.000	-0.001	0.007
-308.895	374.720	-0.119	-0.243
-307.880	21.971	-0.183	0.150
-306.866	79.404	0.205	0.221
-305.851	-18.952	0.059	0.037
-304.837	-98.688	-0.114	-0.029
-303.822	800.000	0.074	-0.256
-302.807	121.218	0.084	-0.105
-301.793	-3.653	0.272	-0.190
-300.778	800.000	0.037	-0.156
-299.764	-200.000	-0.020	-0.280
-298.749	49.335	-0.207	-0.195
-297.735	428.134	0.071	-0.154
-296.720	612.821	-0.041	-0.104
-295.705	-65.428	-0.331	0.133
-294.691	-200.000	-0.014	0.131
-293.676	-200.000	0.017	-0.179
-292.662	347.964	0.053	-0.105
-291.647	-147.208	-0.199	0.017
-290.632	118.722	-0.113	0.141
-289.618	43.009	0.278	-0.254
-288.603	99.357	-0.040	-0.046
-287.589	14.376	-0.088	0.069
-286.574	-96.113	-0.152	0.040
-285.559	-200.000	0.029	-0.181
-284.545	-101.268	0.142	-0.035
-283.530	33.182	-0.335	0.291
-282.516	-200.000	0.067	0.349
-281.501	-200.000	-0.047	-0.247
-280.486	800.000	-0.017	0.071
-279.472	36.011	0.138	0.122
-278.457	-58.453	-0.142	-0.062
-277.443	132.612	-0.119	-0.154
-276.428	800.000	0.053	-0.174
-275.413	-34.504	-0.208	-0.114
-274.399	-110.241	0.327	0.068
-273.384	-78.836	-0.178	0.061
-272.370	-30.371	0.208	0.118
-271.355	-170.332	0.100	0.004
-270.340	-94.959	-0.111	0.030
-269.326	-17.952	0.174	0.109
-268.311	264.320	-0.025	0.043
-267.297	178.262	0.104	-0.152
-266.282	-200.000	0.045	0.395
-265.267	800.000	-0.020	-0.060
-264.253	268.097	0.212	-0.372
-263.238	800.000	-0.048	-0.189
-262.224	800.000	-0.036	0.112
-261.209	376.137	-0.047	0.095
-260.195	4.707	-0.202	-0.149
-259.180	69.608	0.132	0.137
-258.165	-200.000	0.005	0.105
-257.151	-177.751	0.444	-0.011
-256.136	153.655	-0.031	-0.043
-255.122	-7.197	-0.180	-0.122
-254.107	-200.000	-0.016	-0.161
-253.092	-58.075	-0.098	-0.043
-252.078	-110.424	0.108	0.022
-251.063	-82.557	0.190	0.062
-250.049	-200.000	0.001	-0.092
-249.034	-2.763	0.092	0.065
-248.019	94.758	-0.071	-0.081
-247.005	549.938	-0.197	0.472
-245.990	-167.892	-0.306	0.012
-244.976	37.374	0.265	0.235
-243.961	69.795	-0.151	0.156
-242.946	-56.542	0.252	0.112
-241.932	-3.373	0.417	-0.290
-240.917	166.144	-0.070	-0.099
-239.903	-55.826	-0.073	-0.033
-238.888	-200.000	0.045	-0.206
-237.873	800.000	0.139	-0.408
-236.859	54.078	0.101	0.098
-235.844	-42.105	-0.125	-0.064
-234.830	-151.227	-0.485	0.036
-233.815	33.068	0.158	-0.137
-232.800	-46.910	0.100	-0.049
-231.786	-200.000	-0.015	0.116
-230.771	-24.858	0.065	0.038
-229.757	98.678	0.103	0.119
-228.742	-175.692	0.318	0.009
-227.727	151.037	0.197	0.268
-226.713	-50.514	-0.287	0.135
-225.698	-181.845	-0.195	0.004
-224.684	800.000	0.055	0.163
-223.669	-74.063	0.206	0.075
-222.655	-153.461	0.217	-0.015
-221.640	-170.552	0.133	0.005
-220.625	-200.000	0.027	0.133
-219.611	166.098	-0.115	0.163
-218.596	-137.758	-0.123	0.014
-217.582	-14.292	0.367	0.237
-216.567	-119.769	-0.161	-0.028
-215.552	38.715	-0.272	0.243
-214.538	-200.000	-0.008	-0.254
-213.523	387.533	0.059	-0.122
-212.509	800.000	0.080	0.253
-211.494	-152.955	-0.213	0.015
-210.479	-200.000	-0.056	-0.398
-209.465	139.755	0.206	0.271
-208.450	-200.000	0.035	-0.162
-207.436	-200.000	0.027	-0.252
-206.421	-6.435	-0.253	0.173
-205.406	-84.770	0.137	0.043
-204.392	800.000	0.040	0.163
-203.377	19.123	-0.045	0.036
-202.363	55.219	0.121	0.117
-201.348	-200.000	0.026	0.403
-200.333	789.113	-0.070	-0.193
-199.319	-200.000	0.017	0.170
-198.304	112.307	0.202	-0.244
-197.290	276.580	0.157	-0.278
-196.275	355.251	-0.073	0.146
-195.260	557.175	0.113	0.272
-194.246	-18.483	0.285	-0.178
-193.231	363.221	-0.070	-0.140
-192.217	232.831	-0.175	0.287
-191.202	-79.963	0.198	0.066
-190.187	-9.686	-0.086	-0.057
-189.173	7.742	-0.144	-0.108
-188.158	-45.392	-0.174	0.086
-187.144	653.134	-0.151	0.388
-186.129	173.096	0.079	-0.114
-185.114	-200.000	0.035	-0.179
-184.100	290.533	0.147	-0.267
-183.085	23.576	0.137	0.113
-182.071	32.121	-0.237	-0.204
-181.056	208.562	-0.082	0.128
-180.042	-143.924	-0.101	0.009
-179.027	727.076	0.043	0.114
-178.012	-80.149	0.121	0.040
-176.998	-71.517	0.166	0.062
-175.983	71.068	0.172	0.178
-174.969	-5.943	-0.152	0.104
-173.954	380.731	0.096	0.196
-172.939	-138.478	0.094	-0.010
-171.925	-58.410	-0.068	-0.030
-170.910	-2.951	0.277	-0.193
-169.896	-14.913	0.093	0.059
-168.881	-200.000	0.079	-0.353
-167.866	317.610	0.085	-0.161
-166.852	-59.890	0.156	-0.067
-165.837	-11.077	0.373	0.246
-164.823	46.416	0.262	0.243
-163.808	-200.000	-0.048	0.350
-162.793	94.770	-0.103	0.117
-161.779	-8.876	0.213	0.142
-160.764	265.956	0.083	-0.144
-159.750	333.333	-0.193	-0.371
-158.735	92.881	-0.138	-0.156
-157.720	-69.736	-0.193	-0.073
-156.706	-99.320	-0.063	0.016
-155.691	-26.608	-0.118	-0.069
-154.677	-44.739	0.242	-0.121
-153.662	-113.368	-0.301	0.059
-152.647	96.361	-0.207	0.236
-151.633	183.755	0.044	-0.065
-150.618	8.721	-0.239	-0.180
-149.604	-126.407	0.073	-0.011
-148.589	-12.663	-0.524	0.341
-147.574	-101.166	0.360	0.088
-146.560	-123.032	-0.118	-0.019
-145.545	-117.996	-0.199	-0.036
-144.531	80.489	-0.173	-0.186
-143.516	-56.552	-0.252	0.111
-142.502	639.222	-0.022	-0.056
-141.487	157.821	0.185	0.255
-140.472	-27.684	0.184	0.107
-139.458	-154.348	-0.330	-0.022
-138.443	345.230	0.204	-0.400
-137.429	-200.000	-0.014	0.154
-136.414	-132.667	0.166	0.021
-135.399	-104.660	0.121	-0.028
-134.385	800.000	-0.113	0.392
-133.370	-147.603	-0.091	0.008
-132.356	45.989	-0.171	0.158
-131.341	-101.768	-0.502	-0.121
-130.326	12.021	-0.215	-0.164
-129.312	232.437	0.183	0.300
-128.297	-200.000	-0.013	-0.202
-127.283	207.185	0.054	-0.084
-126.268	-19.834	0.122	-0.075
-125.253	444.935	-0.058	0.126
-124.239	123.751	-0.191	-0.239
-123.224	210.878	-0.117	0.184
-122.210	-200.000	-0.031	0.160
-121.195	-113.183	0.204	-0.040
