DTS Sentinel unit serial number:	SN413079Multiplexer serial number:	ORYXHardware model number:	OX4-SRSoftware version number:	ORYX F/W v4.00 Oryx Data Collector v3.7.2.0data status	okinstallation	princeton_trtdifferential loss correction	single-endedforward channel	channel 1reverse channel	N/Adate	2019/09/14time	02:34:35forward acquisition time	60.00reverse acquisition time	0.00gamma	496.2192k internal	0.2336k external	0.2336temperature offset calibration	1.0075default loss term (dB/km)	0.3790temperature slope calibration	1.0000multiplexer offset coefficient	1.0000multiplexer slope coefficient	1.0000fibre end	0.00T internal ref (°C)	26.53T ext. ref 1 (°C)	3.23T ext. ref 2 (°C)	21.54length (m)	temperature (°C)	Stokes	anti-Stokes-747.200	-69.577	-0.386	0.148
-746.185	-1.488	0.193	0.137
-745.171	177.688	-0.134	0.196
-744.156	368.579	-0.032	0.064
-743.142	317.707	0.085	0.162
-742.127	28.981	0.330	0.281
-741.112	465.099	0.174	0.392
-740.098	-109.205	-0.446	0.095
-739.083	-200.000	0.001	-0.081
-738.069	-33.880	0.323	0.179
-737.054	-21.060	-0.229	-0.141
-736.039	-55.311	-0.398	0.179
-735.025	800.000	-0.082	0.352
-734.010	-12.185	-0.217	-0.143
-732.996	102.835	-0.233	-0.274
-731.981	800.000	0.054	0.168
-730.966	-1.110	-0.146	0.104
-729.952	-5.803	-0.049	0.034
-728.937	343.598	-0.112	0.221
-727.923	-200.000	-0.033	0.208
-726.908	96.939	0.195	-0.225
-725.894	178.960	-0.185	-0.272
-724.879	-60.557	0.212	-0.090
-723.864	122.943	0.114	-0.143
-722.850	-0.780	0.296	-0.211
-721.835	-14.645	-0.028	-0.018
-720.821	178.519	-0.078	-0.115
-719.806	720.472	-0.163	-0.435
-718.791	75.954	0.114	-0.121
-717.777	510.191	0.049	0.114
-716.762	-25.973	0.381	0.225
-715.748	-33.338	0.145	-0.081
-714.733	-85.591	-0.030	0.009
-713.718	-200.000	-0.045	-0.263
-712.704	-125.288	-0.232	-0.036
-711.689	-16.583	-0.042	-0.027
-710.675	198.257	0.142	-0.217
-709.660	-19.844	-0.023	0.014
-708.645	-200.000	0.071	0.351
-707.631	-200.000	-0.001	0.096
-706.616	-92.668	0.143	0.040
-705.602	28.802	0.203	-0.172
-704.587	-51.674	-0.300	0.140
-703.572	-60.332	-0.358	0.153
-702.558	471.129	-0.130	-0.294
-701.543	-137.872	0.250	-0.028
-700.529	-200.000	0.031	-0.228
-699.514	-45.248	0.083	-0.041
-698.499	-138.925	0.131	0.014
-697.485	111.441	0.144	-0.174
-696.470	433.776	0.111	-0.241
-695.456	171.371	0.071	0.102
-694.441	-104.443	-0.243	-0.056
-693.426	800.000	0.018	0.074
-692.412	606.851	-0.100	0.251
-691.397	-200.000	0.018	-0.190
-690.383	-200.000	0.084	-0.492
-689.368	-127.296	0.256	0.037
-688.354	26.958	-0.270	0.227
-687.339	-200.000	0.034	-0.159
-686.324	124.612	-0.008	0.010
-685.310	739.936	-0.047	-0.125
-684.295	217.458	0.082	-0.131
-683.281	800.000	-0.051	-0.201
-682.266	113.704	-0.217	0.264
-681.251	800.000	-0.029	0.097
-680.237	-152.154	0.354	-0.026
-679.222	-28.480	-0.149	0.086
-678.208	800.000	0.076	0.323
-677.193	-76.431	0.226	-0.080
-676.178	-70.340	-0.239	-0.091
-675.164	-83.682	-0.113	-0.036
-674.149	-200.000	-0.016	-0.102
-673.135	37.156	0.113	0.100
-672.120	-149.615	0.250	-0.020
-671.105	-139.617	-0.359	0.038
-670.091	800.000	-0.068	-0.230
-669.076	-128.707	0.171	0.024
-668.062	-200.000	-0.066	-0.455
-667.047	-89.552	0.563	-0.166
-666.032	101.608	0.155	-0.181
-665.018	-127.629	-0.334	-0.048
-664.003	45.428	-0.029	0.027
-662.989	143.924	0.216	-0.288
-661.974	-123.294	0.107	0.017
-660.959	-86.891	0.134	0.041
-659.945	-78.756	-0.351	-0.120
-658.930	-200.000	0.189	-0.001
-657.916	-117.948	0.123	-0.022
-656.901	-21.022	-0.156	0.095
-655.886	-200.000	0.013	0.099
-654.872	143.301	-0.035	-0.046
-653.857	800.000	0.106	-0.298
-652.843	480.298	-0.056	-0.127
-651.828	-113.888	-0.104	0.020
-650.814	-136.272	0.262	-0.031
-649.799	-200.000	0.024	-0.266
-648.784	225.133	-0.129	-0.209
-647.770	-6.064	0.124	0.085
-646.755	-200.000	-0.022	-0.170
-645.741	110.153	-0.278	-0.334
-644.726	-43.992	0.123	-0.062
-643.711	-159.245	0.323	-0.018
-642.697	-99.859	-0.084	0.021
-641.682	-103.482	0.161	-0.038
-640.668	75.773	-0.045	0.048
-639.653	800.000	-0.094	0.318
-638.638	-200.000	0.007	-0.535
-637.624	-105.494	-0.101	-0.023
-636.609	-35.214	0.150	-0.082
-635.595	-200.000	-0.017	0.108
-634.580	50.397	-0.064	0.061
-633.565	-135.572	0.116	0.014
-632.551	-80.545	0.117	0.039
-631.536	60.999	-0.112	-0.111
-630.522	755.755	-0.166	-0.450
-629.507	-111.295	-0.173	0.035
-628.492	204.135	0.046	-0.071
-627.478	-19.046	0.180	0.112
-626.463	6.910	-0.300	0.224
-625.449	332.388	0.073	0.142
-624.434	195.393	-0.137	0.208
-623.419	-104.870	-0.148	0.034
-622.405	-200.000	-0.004	0.118
-621.390	91.574	-0.092	0.103
-620.376	-200.000	0.025	-0.292
-619.361	33.538	0.190	-0.165
-618.346	36.689	-0.105	-0.093
-617.332	132.558	0.032	0.042
-616.317	800.000	0.023	0.083
-615.303	-200.000	-0.003	0.087
-614.288	800.000	-0.022	-0.089
-613.273	421.980	-0.048	-0.103
-612.259	85.919	-0.286	0.315
-611.244	-123.079	-0.311	0.050
-610.230	64.466	-0.072	-0.072
-609.215	221.331	0.168	0.270
-608.201	-71.497	-0.189	-0.071
-607.186	-43.288	-0.163	0.083
-606.171	-12.501	0.064	-0.042
-605.157	318.685	-0.095	-0.179
-604.142	-115.827	-0.282	0.053
-603.128	171.017	-0.058	-0.083
-602.113	-8.360	0.207	0.139
-601.098	-31.172	-0.393	0.221
-600.084	-22.359	-0.206	0.125
-599.069	100.443	-0.221	-0.256
-598.055	142.663	-0.178	-0.237
-597.040	164.801	0.030	-0.043
-596.025	-200.000	-0.009	0.111
-595.011	25.820	0.229	0.191
-593.996	-43.887	0.117	-0.059
-592.982	-139.643	0.240	-0.026
-591.967	31.810	0.124	-0.107
-590.952	-200.000	-0.020	-0.268
-589.938	34.550	0.100	0.087
-588.923	509.114	0.059	0.138
-587.909	-1.191	-0.328	-0.231
-586.894	-200.000	-0.084	0.580
-585.879	-176.794	-0.240	0.006
-584.865	800.000	-0.066	0.277
-583.850	800.000	0.052	-0.219
-582.836	495.288	-0.090	-0.205
-581.821	-200.000	-0.012	0.078
-580.806	-113.035	-0.244	-0.048
-579.792	273.831	0.141	-0.248
-578.777	-142.283	0.044	-0.004
-577.763	688.734	0.112	0.293
-576.748	599.725	0.065	-0.160
-575.733	5.580	-0.282	-0.208
-574.719	-128.308	-0.278	-0.040
-573.704	-200.000	0.015	-0.188
-572.690	800.000	0.064	0.239
-571.675	-24.691	0.166	0.099
-570.661	-132.880	-0.105	-0.013
-569.646	-200.000	-0.028	-0.283
-568.631	7.386	0.095	0.071
-567.617	-200.000	-0.090	0.515
-566.602	52.699	0.190	-0.181
-565.588	605.708	-0.100	0.249
-564.573	-200.000	0.012	0.133
-563.558	-144.047	-0.071	-0.007
-562.544	132.553	0.210	-0.270
-561.529	-8.698	-0.253	0.169
-560.515	-200.000	-0.017	-0.209
-559.500	800.000	-0.145	-0.431
-558.485	-84.833	-0.152	-0.048
-557.471	-93.311	0.122	-0.034
-556.456	-86.602	-0.220	0.067
-555.442	-17.256	0.194	-0.122
-554.427	413.593	0.133	-0.281
-553.412	119.018	0.124	-0.153
-552.398	40.212	-0.300	-0.269
-551.383	42.686	0.253	0.230
-550.369	-200.000	-0.038	0.204
-549.354	-127.602	0.299	0.043
-548.339	-200.000	0.065	0.339
-547.325	-200.000	0.043	-0.220
-546.310	-48.464	0.415	-0.199
-545.296	539.630	-0.069	0.164
-544.281	158.616	0.275	0.380
-543.266	-160.801	0.411	-0.022
-542.252	291.886	0.081	0.147
-541.237	-74.530	0.250	-0.090
-540.223	627.297	-0.152	-0.383
-539.208	800.000	0.117	0.505
-538.193	800.000	-0.092	0.253
-537.179	170.967	0.148	-0.211
-536.164	594.806	0.025	0.062
-535.150	-124.679	-0.401	-0.062
-534.135	142.543	0.168	-0.223
-533.121	800.000	0.085	0.257
-532.106	-129.218	-0.206	0.029
-531.091	-200.000	-0.009	-0.164
-530.077	800.000	-0.050	0.159
-529.062	-112.041	-0.232	0.047
-528.048	42.061	0.084	-0.076
-527.033	-128.353	-0.414	0.059
-526.018	-200.000	0.047	-0.526
-525.004	-75.514	0.070	-0.025
-523.989	-35.171	-0.208	-0.113
-522.975	-200.000	-0.001	0.038
-521.960	31.383	0.144	0.123
-520.945	800.000	-0.026	0.078
-519.931	-11.884	0.388	0.254
-518.916	-200.000	-0.008	-0.339
-517.902	67.577	0.060	0.061
-516.887	-11.570	0.099	-0.065
-515.872	110.944	-0.187	-0.224
-514.858	-164.545	0.030	0.001
-513.843	-200.000	-0.043	0.237
-512.829	-82.307	0.248	-0.080
-511.814	-69.676	-0.155	0.059
-510.799	726.036	0.106	0.281
-509.785	-22.615	0.441	-0.266
-508.770	-200.000	-0.007	0.069
-507.756	-52.934	0.309	0.141
-506.741	392.530	-0.137	0.283
-505.726	295.381	0.061	-0.111
-504.712	12.769	-0.205	-0.157
-503.697	-163.723	0.251	-0.012
-502.683	-59.414	0.246	-0.105
-501.668	-92.912	-0.270	0.075
-500.653	-10.816	-0.175	0.115
-499.639	800.000	0.028	-0.119
-498.624	-39.356	0.155	0.081
-497.610	-200.000	-0.037	-0.229
-496.595	555.122	0.048	-0.115
-495.581	-46.835	0.324	-0.158
-494.566	-153.885	0.022	0.001
-493.551	-146.642	-0.131	0.011
-492.537	-70.822	0.235	-0.088
-491.522	155.622	0.126	-0.173
-490.508	-200.000	-0.032	0.233
-489.493	-56.254	0.262	-0.116
-488.478	-98.616	0.155	0.039
-487.464	226.777	0.172	-0.278
-486.449	-200.000	0.006	0.046
-485.435	-200.000	-0.070	-0.325
-484.420	98.030	0.115	-0.132
-483.405	295.767	-0.119	-0.217
-482.391	152.417	-0.242	-0.328
-481.376	160.116	-0.227	0.315
-480.362	2.685	0.075	0.054
-479.347	-120.041	-0.151	-0.026
-478.332	717.632	-0.092	0.243
-477.318	-102.945	0.150	0.035
-476.303	-200.000	0.020	0.191
-475.289	800.000	-0.044	0.166
-474.274	480.847	-0.240	0.541
-473.259	3.170	-0.016	-0.012
-472.245	370.511	0.151	-0.304
-471.230	-200.000	0.057	-0.435
-470.216	-69.876	0.221	0.084
-469.201	796.260	0.098	0.269
-468.186	-38.888	-0.399	-0.209
-467.172	457.303	-0.066	-0.145
-466.157	-200.000	0.018	0.114
-465.143	313.183	0.035	0.066
-464.128	-200.000	-0.016	-0.105
-463.113	-118.080	-0.158	-0.028
-462.099	102.854	-0.088	0.102
-461.084	226.424	-0.039	0.063
-460.070	358.591	0.109	0.215
-459.055	-38.834	-0.268	0.140
-458.040	-200.000	-0.001	0.254
-457.026	-200.000	-0.012	0.123
-456.011	-200.000	0.014	-0.137
-454.997	800.000	-0.018	0.076
-453.982	800.000	0.119	0.407
-452.968	728.272	-0.035	-0.094
-451.953	-116.784	0.283	-0.052
-450.938	-87.217	0.112	0.034
-449.924	-200.000	-0.023	-0.342
-448.909	-145.762	0.210	-0.019
-447.895	-120.016	0.195	-0.033
-446.880	448.922	-0.144	0.315
-445.865	-56.022	0.198	0.088
-444.851	-122.887	-0.169	-0.027
-443.836	-200.000	0.092	0.606
-442.822	800.000	0.061	-0.191
-441.807	-200.000	-0.014	0.483
-440.792	755.595	-0.060	-0.160
-439.778	192.567	-0.098	-0.147
-438.763	-55.454	-0.045	-0.020
-437.749	119.625	-0.157	-0.193
-436.734	207.626	-0.240	0.371
-435.719	-105.807	-0.084	0.019
-434.705	54.324	0.407	0.389
-433.690	0.490	0.100	0.071
-432.676	368.777	0.120	0.241
-431.661	413.525	0.070	-0.149
-430.646	-7.811	-0.061	0.041
-429.632	-33.430	0.088	-0.048
-428.617	-181.697	0.211	-0.004
-427.603	-110.357	-0.220	-0.045
-426.588	800.000	0.041	-0.126
-425.573	134.717	0.099	-0.127
-424.559	355.979	0.103	0.204
-423.544	97.632	-0.170	-0.194
-422.530	-200.000	-0.043	-0.358
-421.515	800.000	0.064	0.239
-420.500	-16.471	0.288	0.181
-419.486	-82.885	-0.303	0.097
-418.471	12.624	-0.130	0.100
-417.457	-58.549	-0.108	-0.047
-416.442	-32.165	-0.264	0.146
-415.428	-171.675	-0.318	0.010
-414.413	-139.746	0.548	-0.058
-413.398	-200.000	-0.015	-0.183
-412.384	-26.671	-0.400	0.232
-411.369	-11.736	-0.202	-0.131
-410.355	389.388	0.088	-0.180
-409.340	-109.158	0.235	0.049
-408.325	-109.526	-0.363	0.076
-407.311	-82.302	0.061	-0.020
-406.296	50.671	-0.336	-0.315
-405.282	195.960	0.170	-0.256
-404.267	-200.000	0.028	0.156
-403.252	8.529	0.125	-0.093
-402.238	340.748	-0.063	-0.122
-401.223	30.029	-0.215	0.181
-400.209	150.679	0.113	0.152
-399.194	162.660	0.213	0.296
-398.179	483.436	0.012	0.027
-397.165	-30.194	-0.136	-0.076
-396.150	800.000	0.042	0.134
-395.136	-200.000	-0.028	-0.167
-394.121	26.436	-0.524	-0.434
-393.106	-60.803	0.025	0.011
-392.092	155.407	0.096	-0.131
-391.077	-143.813	-0.378	0.035
-390.063	-114.933	0.126	-0.024
-389.048	-200.000	0.011	0.102
-388.033	65.206	-0.032	-0.032
-387.019	-175.436	0.082	-0.002
-386.004	-52.971	0.111	-0.050
-384.990	-200.000	-0.027	-0.291
-383.975	-200.000	-0.060	-0.304
-382.960	800.000	0.094	0.404
-381.946	219.222	-0.103	-0.163
-380.931	-200.000	0.029	0.147
-379.917	304.049	0.139	0.256
-378.902	-109.118	-0.294	-0.062
-377.888	-43.819	0.185	-0.092
-376.873	-171.803	-0.055	-0.002
-375.858	129.997	-0.184	-0.233
-374.844	-23.626	-0.261	0.155
-373.829	91.774	0.203	-0.226
-372.815	-200.000	-0.035	-0.220
-371.800	12.629	0.167	0.128
-370.785	800.000	0.033	0.129
-369.771	-200.000	-0.008	-0.211
-368.756	800.000	-0.038	0.113
-367.742	-79.268	-0.161	0.054
-366.727	547.488	0.113	0.269
-365.712	-200.000	0.020	-0.111
-364.698	73.111	0.016	-0.016
-363.683	800.000	-0.049	0.151
-362.669	800.000	-0.102	-0.295
-361.654	-179.418	0.184	0.004
-360.639	-200.000	0.005	0.068
-359.625	95.902	0.178	-0.202
-358.610	-146.850	-0.352	0.030
-357.596	-200.000	0.031	-0.182
-356.581	-139.915	-0.215	-0.022
-355.566	-200.000	-0.008	0.126
-354.552	-25.290	0.067	0.039
-353.537	-200.000	-0.074	-0.421
-352.523	-200.000	0.008	0.276
-351.508	-200.000	-0.032	-0.291
-350.493	-145.917	0.052	-0.005
-349.479	-200.000	0.014	0.115
-348.464	-200.000	0.018	0.439
-347.450	-200.000	0.017	-0.274
-346.435	-59.182	0.106	-0.045
-345.420	-200.000	0.028	0.126
-344.406	153.870	-0.093	0.125
-343.391	-32.644	-0.164	0.090
-342.377	11.199	0.172	-0.130
-341.362	800.000	-0.073	0.275
-340.348	-152.985	0.075	0.005
-339.333	131.521	0.092	0.117
-338.318	331.567	-0.069	0.132
-337.304	-200.000	0.042	-0.216
-336.289	800.000	-0.045	-0.123
-335.275	263.980	0.041	-0.070
-334.260	-67.918	0.267	0.103
-333.245	2.965	-0.283	0.203
-332.231	-200.000	-0.001	0.165
-331.216	101.245	0.073	-0.084
-330.202	-81.567	0.182	-0.059
-329.187	-23.948	0.064	-0.038
-328.172	-94.714	0.127	-0.034
-327.158	-84.200	-0.606	-0.190
-326.143	-21.483	-0.206	-0.124
-325.129	-200.000	0.012	-0.106
-324.114	-200.000	0.030	-0.170
-323.099	585.346	0.135	-0.327
-322.085	-146.814	-0.126	-0.011
-321.070	-200.000	0.019	-0.233
-320.056	-200.000	0.012	0.073
-319.041	-169.300	-0.155	0.006
-318.026	112.100	0.231	-0.275
-317.012	-200.000	0.018	0.226
-315.997	-200.000	-0.005	0.055
-314.983	238.980	0.125	-0.205
-313.968	-10.239	0.060	-0.039
-312.953	768.029	-0.036	-0.097
-311.939	-33.192	0.059	0.033
-310.924	800.000	-0.103	-0.288
-309.910	-35.296	0.087	0.047
-308.895	-200.000	-0.019	-0.128
-307.880	14.404	-0.137	0.105
-306.866	308.025	-0.159	-0.292
-305.851	96.585	-0.186	0.210
-304.837	-52.079	-0.249	-0.114
-303.822	-177.898	0.321	0.008
-302.807	-200.000	0.033	-0.144
-301.793	-161.261	0.319	0.016
-300.778	190.551	-0.231	0.342
-299.764	147.641	-0.071	-0.095
-298.749	87.247	-0.151	0.165
-297.735	644.760	0.110	0.277
-296.720	734.543	0.164	-0.434
-295.705	69.185	-0.143	-0.145
-294.691	22.313	-0.273	0.220
-293.676	28.869	0.219	0.183
-292.662	235.477	0.056	-0.091
-291.647	-146.265	0.057	0.005
-290.632	800.000	-0.073	0.211
-289.618	158.059	-0.104	-0.142
-288.603	-200.000	-0.016	-0.200
-287.589	-3.755	0.239	-0.164
-286.574	-200.000	0.016	-0.087
-285.559	-38.040	0.287	-0.150
-284.545	132.712	-0.162	0.207
-283.530	-200.000	-0.010	-0.395
-282.516	111.640	-0.205	-0.244
-281.501	-119.933	-0.117	0.020
-280.486	-200.000	0.016	-0.086
-279.472	-31.433	0.268	-0.149
-278.457	38.681	0.160	-0.141
-277.443	10.452	-0.325	-0.244
-276.428	-200.000	-0.041	0.312
-275.413	-200.000	-0.007	0.173
-274.399	447.513	-0.149	0.322
-273.384	-153.163	0.120	-0.008
-272.370	-7.894	-0.231	0.154
-271.355	142.800	-0.133	0.175
-270.340	800.000	-0.051	0.215
-269.326	103.142	0.124	-0.143
-268.311	165.976	0.133	0.185
-267.297	-37.576	0.089	0.047
-266.282	-10.350	0.178	0.116
-265.267	-151.497	0.120	0.009
-264.253	42.603	0.133	0.120
-263.238	800.000	0.028	0.086
-262.224	117.714	0.117	0.142
-261.209	800.000	-0.016	-0.045
-260.195	800.000	0.049	-0.152
-259.180	800.000	-0.061	0.241
-258.165	-200.000	-0.011	0.069
-257.151	-93.574	0.350	-0.095
-256.136	74.438	-0.121	0.125
-255.122	663.058	0.086	-0.218
-254.107	-200.000	-0.031	-0.207
-253.092	-18.734	0.128	0.079
-252.078	10.943	-0.253	0.190
-251.063	800.000	-0.035	-0.101
-250.049	239.879	-0.035	0.058
-249.034	-81.230	-0.238	-0.077
-248.019	169.333	-0.098	-0.138
-247.005	-200.000	-0.073	-0.318
-245.990	-53.981	0.224	0.101
-244.976	272.505	0.139	-0.241
-243.961	58.516	0.193	0.186
-242.946	210.249	0.162	0.250
-241.932	-200.000	-0.009	-0.094
-240.917	-19.957	0.193	0.117
-239.903	-162.962	-0.395	-0.019
-238.888	-85.380	0.208	-0.064
-237.873	303.699	-0.103	-0.189
-236.859	-108.159	0.036	0.008
-235.844	-67.614	0.081	-0.031
-234.830	-36.578	-0.079	-0.042
-233.815	-200.000	-0.002	-0.247
-232.800	287.770	-0.077	-0.137
-231.786	16.209	0.117	0.091
-230.771	73.566	-0.097	0.100
-229.757	-75.931	0.208	-0.072
-228.742	195.179	-0.016	0.024
-227.727	-113.095	0.266	0.052
-226.713	448.223	0.130	0.281
-225.698	800.000	-0.079	0.259
-224.684	124.613	0.235	0.291
-223.669	43.468	-0.084	-0.075
-222.655	-200.000	-0.001	0.306
-221.640	68.931	0.092	0.093
-220.625	-20.647	-0.227	-0.137
-219.611	41.907	-0.066	-0.059
-218.596	-153.663	0.206	0.014
-217.582	73.239	-0.053	-0.054
-216.567	201.602	-0.183	0.278
-215.552	12.796	0.140	0.106
-214.538	800.000	0.059	-0.241
-213.523	-200.000	0.032	-0.190
-212.509	-46.557	-0.311	0.150
-211.494	800.000	0.021	0.081
-210.479	530.939	-0.151	-0.351
-209.465	-66.719	0.319	0.124
-208.450	-200.000	-0.097	-0.419
-207.436	-200.000	0.056	0.485
-206.421	289.689	0.068	0.121
-205.406	800.000	-0.093	0.361
-204.392	26.710	-0.072	-0.059
-203.377	-138.272	-0.183	-0.020
-202.363	-200.000	0.022	0.117
-201.348	800.000	0.022	0.092
-200.333	-200.000	-0.012	-0.319
-199.319	-200.000	-0.008	-0.041
-198.304	-200.000	0.008	0.092
-197.290	-34.766	0.368	0.198
-196.275	-71.797	0.235	-0.086
-195.260	-124.515	0.172	0.026
-194.246	-200.000	0.049	-0.246
-193.231	-103.544	0.230	-0.053
-192.217	613.582	-0.033	0.082
-191.202	90.591	-0.210	0.231
-190.187	800.000	-0.035	0.138
-189.173	-35.329	0.399	-0.213
-188.158	280.109	0.169	0.297
-187.144	800.000	-0.111	-0.315
-186.129	57.263	-0.126	-0.121
-185.114	296.533	0.015	0.026
-184.100	213.638	0.238	0.369
-183.085	-155.956	0.119	-0.007
-182.071	-14.236	-0.201	-0.127
-181.056	31.612	0.146	0.123
-180.042	-103.466	0.294	-0.068
-179.027	-129.711	-0.223	0.030
-178.012	-76.780	-0.127	-0.044
-176.998	-74.746	0.195	-0.069
-175.983	800.000	0.048	0.139
-174.969	-200.000	-0.009	0.116
-173.954	800.000	-0.028	-0.121
-172.939	-200.000	-0.098	0.541
-171.925	35.226	-0.190	0.163
-170.910	-56.032	-0.114	-0.050
-169.896	-200.000	0.040	-0.231
-168.881	376.097	0.063	0.127
-167.866	4.606	-0.134	0.097
-166.852	-200.000	0.012	-0.169
-165.837	-56.174	0.164	0.072
-164.823	-200.000	0.074	0.565
-163.808	177.260	-0.082	-0.118
-162.793	-7.852	-0.143	-0.095
-161.779	41.875	-0.165	-0.147
-160.764	24.042	0.288	0.233
-159.750	-10.319	-0.263	-0.171
-158.735	105.795	-0.144	-0.167
-157.720	315.103	0.036	-0.067
-156.706	-98.720	0.201	0.050
-155.691	94.535	-0.197	-0.220
-154.677	-200.000	-0.042	0.281
-153.662	800.000	0.052	0.156
-152.647	-34.549	-0.066	0.035
-151.633	-138.407	0.091	0.010
-150.618	102.177	-0.045	-0.052
-149.604	-13.370	-0.175	-0.112
-148.589	279.650	-0.083	0.145
-147.574	70.804	-0.106	-0.107
-146.560	10.498	0.103	0.077
-145.545	-200.000	-0.056	-0.325
-144.531	-107.415	-0.409	0.088
-143.516	800.000	-0.050	-0.207
-142.502	-163.171	0.079	-0.004
-141.487	800.000	-0.081	0.226
-140.472	754.330	0.053	-0.141
-139.458	800.000	-0.041	-0.123
-138.443	0.734	0.092	-0.065
-137.429	-200.000	-0.026	0.149
-136.414	800.000	-0.063	0.248
-135.399	800.000	0.035	0.098
-134.385	618.414	-0.057	0.140
-133.370	-31.008	-0.071	-0.039
-132.356	-73.932	0.259	-0.092
-131.341	800.000	-0.150	-0.409
-130.326	16.731	0.126	0.098
-129.312	379.558	0.144	0.290
-128.297	-35.292	0.208	0.111
-127.283	2.967	0.232	-0.166
-126.268	-25.137	0.216	0.126
-125.253	12.169	0.058	0.044
-124.239	-200.000	-0.002	0.209
-123.224	278.296	-0.129	-0.225
-122.210	-48.762	-0.070	-0.033
