DTS Sentinel unit serial number:	SN413079Multiplexer serial number:	ORYXHardware model number:	OX4-SRSoftware version number:	ORYX F/W v4.00 Oryx Data Collector v3.7.2.0data status	okinstallation	princeton_trtdifferential loss correction	single-endedforward channel	channel 1reverse channel	N/Adate	2019/09/10time	17:08:11forward acquisition time	60.00reverse acquisition time	0.00gamma	496.2192k internal	0.2299k external	0.2299temperature offset calibration	0.9921default loss term (dB/km)	0.3790temperature slope calibration	1.0000multiplexer offset coefficient	1.0000multiplexer slope coefficient	1.0000fibre end	0.00T internal ref (°C)	37.62T ext. ref 1 (°C)	-0.39T ext. ref 2 (°C)	31.91length (m)	temperature (°C)	Stokes	anti-Stokes-747.200	-81.176	0.309	0.104
-746.185	-161.498	-0.055	-0.003
-745.171	-94.776	-0.026	0.007
-744.156	-33.777	0.329	0.185
-743.142	19.097	-0.119	0.098
-742.127	306.235	0.153	0.291
-741.112	304.039	0.056	0.106
-740.098	242.979	-0.139	0.238
-739.083	-13.185	0.150	-0.099
-738.069	8.840	0.101	-0.077
-737.054	-14.606	-0.403	-0.264
-736.039	682.583	-0.126	-0.335
-735.025	228.926	0.160	0.266
-734.010	-32.016	-0.030	-0.017
-732.996	-4.210	0.178	0.125
-731.981	-200.000	-0.014	-0.099
-730.966	391.609	-0.081	0.172
-729.952	285.937	-0.043	-0.079
-728.937	-15.978	-0.218	0.141
-727.923	800.000	0.071	-0.275
-726.908	-99.330	-0.169	0.043
-725.894	221.447	0.181	0.296
-724.879	169.638	-0.215	0.313
-723.864	219.253	0.151	-0.247
-722.850	-74.631	-0.389	0.143
-721.835	139.108	0.056	-0.075
-720.821	91.236	0.100	-0.114
-719.806	147.301	0.110	-0.150
-718.791	207.823	-0.245	-0.389
-717.777	171.788	-0.155	0.227
-716.762	357.792	-0.111	-0.226
-715.748	-107.196	-0.405	-0.091
-714.733	15.858	0.092	0.074
-713.718	-200.000	-0.009	-0.200
-712.704	-117.422	-0.415	-0.077
-711.689	-19.251	-0.287	-0.181
-710.675	333.083	0.096	-0.189
-709.660	491.981	-0.184	0.430
-708.645	-137.339	-0.269	-0.031
-707.631	-200.000	0.000	-0.249
-706.616	-138.148	-0.053	-0.006
-705.602	-18.392	-0.116	-0.074
-704.587	-7.225	-0.161	-0.111
-703.572	6.040	-0.313	-0.236
-702.558	414.976	-0.133	-0.289
-701.543	-200.000	0.019	0.108
-700.529	713.438	-0.050	-0.135
-699.514	-200.000	0.042	-0.253
-698.499	-175.262	-0.320	-0.009
-697.485	-200.000	-0.043	-0.200
-696.470	-161.831	-0.177	0.009
-695.456	-0.575	0.063	0.046
-694.441	800.000	-0.087	0.321
-693.426	247.412	-0.101	0.174
-692.412	-200.000	-0.059	-0.335
-691.397	100.216	-0.221	-0.262
-690.383	-200.000	-0.031	0.365
-689.368	-46.508	-0.182	0.091
-688.354	-200.000	-0.026	-0.125
-687.339	-200.000	0.015	0.136
-686.324	83.213	0.125	0.138
-685.310	50.027	-0.029	0.028
-684.295	8.470	0.100	0.076
-683.281	131.407	-0.178	0.233
-682.266	-74.927	0.335	-0.122
-681.251	103.858	-0.023	-0.027
-680.237	-125.781	0.193	0.030
-679.222	55.238	-0.131	-0.129
-678.208	156.407	-0.057	-0.079
-677.193	33.094	0.086	0.076
-676.178	-147.136	-0.009	-0.001
-675.164	-78.627	0.230	0.080
-674.149	-68.794	-0.069	-0.027
-673.135	-200.000	-0.008	0.189
-672.120	-96.398	0.296	-0.080
-671.105	169.090	-0.089	-0.130
-670.091	-180.989	-0.171	0.004
-669.076	-94.288	0.053	0.015
-668.062	38.048	-0.103	-0.093
-667.047	73.490	-0.227	0.241
-666.032	460.321	0.110	-0.250
-665.018	3.865	0.174	-0.129
-664.003	76.991	0.035	0.038
-662.989	32.254	-0.054	0.048
-661.974	800.000	-0.064	-0.195
-660.959	-200.000	-0.029	0.151
-659.945	-19.600	0.146	0.092
-658.930	-67.428	-0.065	0.026
-657.916	24.103	0.072	0.061
-656.901	70.032	-0.169	0.178
-655.886	-12.817	-0.227	-0.150
-654.872	-49.832	0.061	-0.029
-653.857	94.897	-0.086	-0.100
-652.843	-200.000	-0.041	-0.182
-651.828	117.037	-0.120	-0.150
-650.814	5.111	-0.047	-0.035
-649.799	-8.773	-0.326	0.223
-648.784	-173.016	-0.283	0.009
-647.770	-52.152	-0.201	-0.095
-646.755	-200.000	0.032	-0.257
-645.741	-200.000	0.009	-0.078
-644.726	-70.952	0.227	-0.087
-643.711	-6.321	0.193	0.134
-642.697	-200.000	-0.017	-0.087
-641.682	800.000	0.011	-0.036
-640.668	-154.007	-0.087	-0.006
-639.653	-125.493	0.068	0.010
-638.638	145.924	-0.111	0.152
-637.624	-162.255	0.294	-0.015
-636.609	800.000	0.101	-0.381
-635.595	-200.000	-0.007	-0.266
-634.580	800.000	0.039	-0.151
-633.565	-45.940	-0.203	-0.102
-632.551	450.684	0.062	-0.139
-631.536	800.000	-0.035	-0.118
-630.522	206.509	0.076	0.121
-629.507	-200.000	-0.051	-0.276
-628.492	205.538	0.048	0.075
-627.478	-36.877	0.277	0.151
-626.463	800.000	0.092	-0.267
-625.449	-102.267	0.228	0.056
-624.434	-35.337	0.252	0.139
-623.419	-20.290	-0.318	-0.199
-622.405	403.026	-0.083	-0.177
-621.390	-105.946	0.123	0.028
-620.376	54.322	0.221	0.216
-619.361	-10.832	0.301	0.202
-618.346	215.765	0.234	-0.377
-617.332	34.793	-0.066	0.059
-616.317	45.605	-0.321	-0.301
-615.303	84.710	0.112	0.124
-614.288	116.382	-0.034	-0.042
-613.273	800.000	-0.059	-0.231
-612.259	66.938	0.165	-0.170
-611.244	-57.588	0.239	0.106
-610.230	263.157	-0.124	-0.219
-609.215	9.892	-0.144	-0.111
-608.201	-200.000	0.064	-0.524
-607.186	-200.000	0.000	0.050
-606.171	-65.361	-0.351	0.143
-605.157	-119.901	0.202	-0.035
-604.142	800.000	-0.158	0.467
-603.128	-86.511	-0.382	0.119
-602.113	-200.000	-0.016	-0.095
-601.098	800.000	0.047	0.168
-600.084	351.823	0.126	0.253
-599.069	-200.000	-0.017	-0.171
-598.055	-200.000	-0.098	-0.470
-597.040	-2.862	-0.345	-0.245
-596.025	12.129	0.239	-0.186
-595.011	718.079	0.058	-0.158
-593.996	800.000	0.093	-0.332
-592.982	-200.000	0.015	0.175
-591.967	-200.000	-0.005	-0.487
-590.952	-90.908	-0.130	0.038
-589.938	36.827	0.090	-0.080
-588.923	800.000	0.060	-0.221
-587.909	-170.231	-0.213	-0.008
-586.894	800.000	-0.141	0.410
-585.879	67.144	0.097	0.100
-584.865	9.858	-0.344	0.265
-583.850	-54.955	0.151	0.069
-582.836	-200.000	-0.043	-0.195
-581.821	117.054	-0.208	0.260
-580.806	-79.840	-0.156	0.053
-579.792	64.643	-0.272	-0.278
-578.777	244.025	-0.106	-0.180
-577.763	-56.921	0.228	0.102
-576.748	34.258	-0.291	0.257
-575.733	-165.101	0.160	-0.007
-574.719	32.954	0.133	0.117
-573.704	110.209	-0.166	-0.202
-572.690	800.000	-0.012	-0.052
-571.675	107.543	-0.193	-0.233
-570.661	207.438	0.070	0.110
-569.646	49.058	0.149	0.141
-568.631	800.000	0.035	-0.110
-567.617	-54.490	-0.211	-0.097
-566.602	-136.628	-0.209	0.024
-565.588	-100.706	-0.401	0.100
-564.573	-150.792	-0.223	-0.017
-563.558	-194.914	-0.222	0.002
-562.544	124.502	0.056	-0.071
-561.529	-147.787	0.150	-0.013
-560.515	-200.000	-0.028	0.228
-559.500	223.527	-0.116	0.190
-558.485	-108.855	-0.242	-0.052
-557.471	-200.000	-0.011	0.117
-556.456	101.479	-0.087	-0.102
-555.442	32.256	0.289	0.253
-554.427	212.643	-0.035	-0.056
-553.412	800.000	0.085	-0.241
-552.398	-101.310	0.402	0.099
-551.383	-62.219	-0.282	-0.119
-550.369	-200.000	-0.048	-0.265
-549.354	97.795	0.102	-0.118
-548.339	-71.577	0.038	0.014
-547.325	205.818	0.067	-0.106
-546.310	-120.709	0.093	0.016
-545.296	-141.208	-0.339	-0.035
-544.281	-200.000	0.028	-0.291
-543.266	77.263	-0.091	-0.098
-542.252	149.459	-0.095	-0.131
-541.237	275.057	-0.081	-0.145
-540.223	-29.262	0.256	-0.149
-539.208	-200.000	-0.003	-0.176
-538.193	5.435	0.256	0.191
-537.179	-121.068	-0.174	-0.029
-536.164	495.943	-0.144	0.335
-535.150	-77.440	-0.291	0.102
-534.135	-177.666	-0.439	-0.011
-533.121	800.000	-0.033	-0.098
-532.106	-103.334	0.219	-0.052
-531.091	-116.603	-0.202	0.038
-530.077	-200.000	-0.079	0.438
-529.062	114.232	0.286	-0.352
-528.048	28.235	-0.068	-0.058
-527.033	73.288	-0.148	-0.156
-526.018	156.383	0.112	-0.156
-525.004	-90.605	-0.171	-0.050
-523.989	-76.746	0.177	0.063
-522.975	-70.812	-0.248	-0.095
-521.960	70.903	0.124	0.130
-520.945	-200.000	0.007	0.236
-519.931	293.745	0.059	-0.109
-518.916	67.975	-0.134	0.139
-517.902	-108.211	-0.110	-0.024
-516.887	0.908	-0.271	0.197
-515.872	-112.195	-0.315	0.064
-514.858	394.773	0.076	-0.159
-513.843	800.000	-0.085	-0.361
-512.829	800.000	-0.053	-0.207
-511.814	143.830	0.102	-0.138
-510.799	-123.430	-0.139	-0.022
-509.785	-24.059	0.249	0.150
-508.770	163.085	-0.190	0.270
-507.756	-200.000	-0.021	0.109
-506.741	-117.457	0.035	0.006
-505.726	135.808	-0.179	0.236
-504.712	-200.000	-0.040	0.216
-503.697	-77.842	-0.117	0.041
-502.683	-127.756	-0.278	-0.041
-501.668	441.531	-0.050	0.111
-500.653	-200.000	0.030	0.273
-499.639	-148.347	-0.113	-0.009
-498.624	230.359	0.199	-0.329
-497.610	345.840	-0.103	-0.205
-496.595	-57.930	0.110	0.048
-495.581	-93.794	-0.330	0.092
-494.566	-200.000	0.048	0.313
-493.551	59.308	0.094	0.093
-492.537	-78.437	0.147	0.051
-491.522	800.000	-0.056	-0.188
-490.508	-48.922	-0.238	-0.115
-489.493	50.918	-0.143	-0.137
-488.478	432.255	0.080	0.176
-487.464	138.623	-0.068	-0.091
-486.449	382.672	-0.112	0.233
-485.435	-34.164	0.168	-0.093
-484.420	-27.972	-0.148	0.087
-483.405	172.511	0.233	0.338
-482.391	55.557	0.115	0.113
-481.376	-42.085	-0.161	-0.083
-480.362	21.896	0.134	0.110
-479.347	-3.390	0.127	0.089
-478.332	507.205	-0.026	-0.061
-477.318	86.092	0.255	-0.284
-476.303	-21.655	-0.081	0.050
-475.289	-200.000	-0.003	0.109
-474.274	-200.000	0.046	0.276
-473.259	192.135	0.076	0.116
-472.245	323.451	0.080	-0.154
-471.230	-89.634	0.181	-0.054
-470.216	-116.117	0.240	0.045
-469.201	7.394	-0.106	-0.080
-468.186	-58.836	-0.506	-0.221
-467.172	-60.683	0.128	0.055
-466.157	-200.000	-0.001	-0.058
-465.143	380.646	-0.109	0.226
-464.128	-114.282	0.228	0.044
-463.113	-63.046	-0.177	-0.074
-462.099	-200.000	0.013	0.106
-461.084	467.134	0.135	-0.306
-460.070	-200.000	-0.035	0.247
-459.055	137.804	0.116	-0.153
-458.040	71.088	-0.168	-0.176
-457.026	156.924	0.175	-0.244
-456.011	438.751	-0.063	0.138
-454.997	-104.368	-0.207	-0.048
-453.982	-52.670	0.221	0.103
-452.968	-82.446	-0.425	0.139
-451.953	-200.000	0.001	-0.268
-450.938	-200.000	0.040	-0.257
-449.924	800.000	0.039	0.123
-448.909	-200.000	-0.030	0.332
-447.895	654.285	0.040	0.104
-446.880	800.000	0.035	0.108
-445.865	-139.272	-0.183	0.020
-444.851	305.444	-0.063	0.118
-443.836	-70.990	-0.075	0.028
-442.822	-200.000	0.019	0.239
-441.807	243.639	-0.083	0.140
-440.792	45.549	0.139	-0.129
-439.778	371.030	-0.045	-0.093
-438.763	542.798	0.128	-0.308
-437.749	246.027	-0.087	-0.148
-436.734	135.334	-0.102	0.134
-435.719	-115.177	0.113	0.022
-434.705	312.637	-0.031	0.059
-433.690	800.000	0.149	-0.463
-432.676	48.056	-0.301	-0.284
-431.661	-110.044	0.347	-0.073
-430.646	800.000	-0.052	-0.175
-429.632	-75.384	0.161	0.058
-428.617	352.972	-0.086	-0.173
-427.603	-172.899	-0.196	-0.006
-426.588	191.909	-0.150	0.228
-425.573	52.494	-0.089	0.085
-424.559	-183.808	-0.291	-0.005
-423.544	-200.000	-0.010	0.105
-422.530	-80.233	-0.062	-0.021
-421.515	-113.675	-0.332	0.065
-420.500	167.365	0.092	-0.131
-419.486	-200.000	-0.066	-0.489
-418.471	583.101	-0.069	-0.171
-417.457	-91.286	-0.120	-0.035
-416.442	80.570	0.004	0.004
-415.428	331.119	-0.069	0.133
-414.413	-200.000	-0.014	0.135
-413.398	632.418	-0.138	0.352
-412.384	-179.639	0.303	0.007
-411.369	800.000	0.020	-0.083
-410.355	-65.816	0.233	0.094
-409.340	-59.905	-0.048	0.021
-408.325	76.479	-0.196	-0.209
-407.311	-86.315	0.338	-0.105
-406.296	-100.728	0.100	-0.025
-405.282	-127.124	0.368	0.054
-404.267	633.589	0.085	0.218
-403.252	46.654	0.329	-0.308
-402.238	-138.522	-0.248	0.027
-401.223	-200.000	0.091	-0.413
-400.209	-105.077	0.396	-0.091
-399.194	83.042	0.271	0.297
-398.179	-62.982	0.098	0.041
-397.165	-200.000	-0.062	0.383
-396.150	-129.644	-0.159	0.022
-395.136	67.045	0.220	0.225
-394.121	30.617	0.172	-0.148
-393.106	-165.657	0.103	-0.005
-392.092	-200.000	-0.005	0.038
-391.077	-200.000	-0.007	-0.211
-390.063	800.000	0.105	-0.440
-389.048	615.270	0.076	0.191
-388.033	-110.100	-0.287	-0.060
-387.019	452.050	-0.058	0.128
-386.004	800.000	0.018	0.057
-384.990	800.000	-0.045	0.154
-383.975	363.195	0.066	0.133
-382.960	-61.359	0.190	0.081
-381.946	-200.000	0.044	0.232
-380.931	-200.000	-0.004	0.225
-379.917	800.000	0.054	0.156
-378.902	-110.089	-0.238	-0.050
-377.888	-2.812	-0.384	-0.270
-376.873	-163.879	0.162	-0.008
-375.858	138.202	-0.161	-0.213
-374.844	1.849	0.285	-0.206
-373.829	-14.381	-0.364	0.236
-372.815	-149.341	0.181	-0.014
-371.800	-200.000	-0.009	0.198
-370.785	800.000	0.030	0.121
-369.771	-58.076	-0.084	-0.037
-368.756	800.000	-0.036	0.106
-367.742	-89.030	0.145	0.043
-366.727	-29.229	0.157	-0.091
-365.712	-200.000	-0.022	-0.167
-364.698	33.197	-0.262	0.228
-363.683	-200.000	-0.001	0.243
-362.669	418.378	0.116	0.249
-361.654	3.905	-0.142	-0.104
-360.639	0.630	0.179	0.129
-359.625	317.661	0.113	0.214
-358.610	-119.832	0.480	0.083
-357.596	-31.122	0.304	-0.172
-356.581	100.741	0.168	0.196
-355.566	133.370	-0.155	0.202
-354.552	-7.336	-0.378	0.258
-353.537	-200.000	0.075	0.427
-352.523	-49.018	-0.106	0.051
-351.508	-90.798	-0.236	0.068
-350.493	-200.000	0.034	-0.233
-349.479	-73.079	0.209	0.077
-348.464	-200.000	0.001	-0.121
-347.450	260.232	-0.152	0.264
-346.435	15.680	0.091	-0.072
-345.420	-36.227	-0.333	-0.180
-344.406	-161.621	0.146	0.008
-343.391	9.373	0.145	-0.110
-342.377	1.261	0.238	0.172
-341.362	121.587	0.136	0.170
-340.348	394.031	0.089	-0.186
-339.333	606.526	0.113	0.282
-338.318	-110.895	-0.250	-0.052
-337.304	-200.000	0.003	0.047
-336.289	346.933	0.007	-0.013
-335.275	-56.299	-0.282	0.126
-334.260	-145.670	-0.264	0.024
-333.245	108.615	-0.077	0.092
-332.231	184.118	0.042	0.063
-331.216	55.902	-0.158	0.154
-330.202	-129.155	0.217	0.030
-329.187	-51.779	0.116	0.054
-328.172	-34.052	0.117	-0.065
-327.158	800.000	-0.051	-0.191
-326.143	627.055	-0.028	0.070
-325.129	50.833	0.187	0.178
-324.114	-4.539	-0.030	0.021
-323.099	-100.726	0.132	0.033
-322.085	170.551	0.155	0.223
-321.070	130.662	0.178	0.229
-320.056	0.283	0.280	-0.201
-319.041	285.979	-0.098	-0.178
-318.026	18.286	-0.158	0.127
-317.012	-119.746	0.057	0.010
-315.997	2.086	-0.218	-0.158
-314.983	164.535	-0.033	0.047
-313.968	642.777	0.066	0.168
-312.953	-200.000	-0.036	-0.188
-311.939	-200.000	-0.047	0.314
-310.924	159.738	-0.033	0.046
-309.910	192.269	0.259	0.391
-308.895	-2.268	-0.185	-0.130
-307.880	23.558	0.074	-0.061
-306.866	-154.372	-0.367	-0.025
-305.851	-56.509	-0.243	-0.108
-304.837	800.000	0.046	0.167
-303.822	800.000	-0.092	0.375
-302.807	800.000	0.018	-0.070
-301.793	87.663	-0.042	-0.046
-300.778	-104.605	0.353	0.082
-299.764	-136.348	-0.282	0.033
-298.749	-162.227	0.117	0.006
-297.735	727.911	-0.095	0.253
-296.720	-62.260	0.060	-0.025
-295.705	471.913	0.117	0.264
-294.691	-200.000	0.065	0.323
-293.676	-89.124	0.111	-0.033
-292.662	178.528	0.221	0.324
-291.647	-159.151	-0.520	0.029
-290.632	-38.224	-0.165	-0.087
-289.618	-182.030	0.285	-0.005
-288.603	-148.864	0.052	0.004
-287.589	-65.607	0.336	-0.135
-286.574	-163.843	-0.150	-0.007
-285.559	4.466	-0.115	0.085
-284.545	800.000	-0.034	-0.103
-283.530	-38.080	0.051	-0.027
-282.516	-200.000	0.002	-0.085
-281.501	-142.962	0.273	-0.027
-280.486	-94.479	0.233	-0.064
-279.472	6.235	0.065	-0.048
-278.457	-112.779	-0.176	-0.035
-277.443	307.831	0.087	0.162
-276.428	-47.142	0.389	-0.190
-275.413	800.000	0.046	0.185
-274.399	800.000	0.060	-0.183
-273.384	487.659	-0.177	0.406
-272.370	9.259	0.162	-0.123
-271.355	284.645	-0.072	0.131
-270.340	219.729	-0.182	-0.291
-269.326	-64.607	0.148	0.060
-268.311	-87.113	-0.233	0.071
-267.297	441.468	-0.070	0.153
-266.282	-200.000	0.020	0.096
-265.267	270.154	0.049	0.086
-264.253	130.160	-0.082	-0.105
-263.238	-200.000	-0.005	-0.263
-262.224	130.072	0.068	-0.087
-261.209	-137.643	-0.407	0.046
-260.195	800.000	0.043	-0.144
-259.180	-163.018	-0.142	-0.007
-258.165	-200.000	0.054	-0.249
-257.151	-199.502	-0.067	-0.000
-256.136	612.202	0.106	0.267
-255.122	-69.327	0.160	0.062
-254.107	-125.973	0.516	-0.078
-253.092	-200.000	0.023	0.327
-252.078	34.419	-0.095	0.083
-251.063	303.324	-0.111	-0.207
-250.049	26.819	0.096	0.080
-249.034	-200.000	-0.002	0.038
-248.019	-53.026	0.033	-0.015
-247.005	60.363	-0.107	-0.106
-245.990	-90.531	0.529	-0.153
-244.976	216.297	-0.087	-0.138
-243.961	-36.336	-0.180	-0.097
-242.946	-160.105	-0.143	-0.008
-241.932	-24.909	0.047	-0.028
-240.917	43.350	-0.207	-0.190
-239.903	800.000	0.076	-0.217
-238.888	30.102	0.275	-0.235
-237.873	53.766	0.129	0.124
-236.859	347.181	-0.147	0.289
-235.844	557.940	0.084	-0.203
-234.830	-106.367	0.357	0.080
-233.815	800.000	-0.076	-0.259
-232.800	233.346	0.061	0.101
-231.786	-187.766	0.141	-0.002
-230.771	186.137	-0.087	0.129
-229.757	-96.653	-0.056	-0.015
-228.742	-45.253	-0.308	0.153
-227.727	-164.820	0.273	-0.012
-226.713	-200.000	0.005	-0.222
-225.698	-7.183	-0.068	0.046
-224.684	-200.000	-0.028	-0.253
-223.669	800.000	0.053	-0.206
-222.655	-94.218	0.093	0.025
-221.640	-57.814	0.150	0.065
-220.625	-200.000	0.041	-0.238
-219.611	44.318	0.152	-0.139
-218.596	237.932	0.188	0.312
-217.582	85.178	0.168	0.184
-216.567	-78.330	-0.286	0.098
-215.552	-150.326	-0.502	-0.039
-214.538	800.000	-0.053	-0.223
-213.523	800.000	0.092	-0.258
-212.509	21.724	-0.275	0.224
-211.494	658.377	-0.155	0.398
-210.479	549.846	0.150	0.360
-209.465	59.852	0.212	0.209
-208.450	800.000	-0.055	0.167
-207.436	-3.907	-0.118	-0.082
-206.421	800.000	0.080	-0.349
-205.406	-21.164	0.190	0.116
-204.392	-200.000	-0.014	-0.105
-203.377	-200.000	0.039	0.536
-202.363	-111.371	0.211	0.043
-201.348	347.598	0.095	0.188
-200.333	-72.247	0.212	-0.079
-199.319	-1.832	-0.355	-0.250
-198.304	800.000	-0.137	0.403
-197.290	243.694	-0.182	0.304
-196.275	-160.955	0.219	-0.011
-195.260	-51.495	-0.025	0.012
-194.246	92.341	0.212	-0.239
-193.231	-200.000	-0.007	0.289
-192.217	-30.538	0.260	-0.147
-191.202	340.093	0.002	0.003
-190.187	22.394	0.254	-0.207
-189.173	91.005	-0.115	-0.129
-188.158	-200.000	-0.028	0.245
-187.144	-200.000	0.029	-0.248
-186.129	52.944	-0.364	-0.348
-185.114	324.356	-0.083	0.158
-184.100	-200.000	-0.009	0.225
-183.085	-78.603	0.361	0.123
-182.071	727.016	0.022	-0.060
-181.056	-96.737	-0.255	-0.067
-180.042	-200.000	0.005	-0.204
-179.027	-145.660	0.294	-0.026
-178.012	-126.957	0.097	0.014
-176.998	-70.672	0.292	-0.110
-175.983	202.689	0.044	0.067
-174.969	-200.000	0.019	0.132
-173.954	378.218	0.149	0.304
-172.939	436.265	-0.069	0.149
-171.925	-146.203	0.190	-0.017
-170.910	433.054	-0.073	-0.159
-169.896	457.640	0.186	-0.411
-168.881	280.998	0.185	-0.331
-167.866	-70.499	0.191	0.072
-166.852	70.177	0.197	0.203
-165.837	-130.023	-0.178	-0.024
-164.823	-200.000	0.003	-0.014
-163.808	-32.160	-0.151	0.084
-162.793	-200.000	-0.007	-0.183
-161.779	-97.733	-0.191	0.049
-160.764	650.678	-0.024	-0.062
-159.750	111.050	0.014	-0.017
-158.735	800.000	0.108	-0.344
-157.720	-55.834	0.103	0.046
-156.706	-200.000	-0.023	0.181
-155.691	226.871	-0.143	-0.231
-154.677	77.591	-0.118	0.126
-153.662	170.531	0.017	-0.024
-152.647	133.516	0.061	-0.079
-151.633	800.000	-0.126	-0.480
-150.618	126.687	0.150	-0.190
-149.604	-200.000	0.031	-0.310
-148.589	56.800	0.087	0.084
-147.574	-200.000	-0.017	-0.151
-146.560	-177.980	-0.304	0.007
-145.545	-124.525	0.082	-0.013
-144.531	614.453	-0.102	0.255
-143.516	800.000	0.032	-0.133
-142.502	-200.000	-0.031	0.254
-141.487	54.285	-0.068	0.065
-140.472	800.000	-0.040	0.142
-139.458	-92.924	-0.082	0.023
-138.443	-77.707	-0.286	-0.099
-137.429	-200.000	0.028	-0.140
-136.414	-200.000	0.022	0.104
-135.399	158.163	0.147	-0.203
-134.385	763.720	-0.076	0.206
-133.370	800.000	0.059	0.228
-132.356	70.492	-0.163	0.168
-131.341	682.793	0.053	-0.139
-130.326	-35.961	0.245	0.132
-129.312	800.000	0.086	0.321
-128.297	196.975	-0.105	0.160
-127.283	-200.000	-0.012	-0.224
-126.268	-200.000	-0.328	-0.001
-125.253	-107.881	0.122	0.026
-124.239	-30.986	0.310	0.174
-123.224	-141.015	0.164	0.017
-122.210	800.000	-0.065	-0.250
-121.195	241.227	-0.151	0.251
