DTS Sentinel unit serial number:	SN413079Multiplexer serial number:	ORYXHardware model number:	OX4-SRSoftware version number:	ORYX F/W v4.00 Oryx Data Collector v3.7.2.0data status	okinstallation	princeton_trtdifferential loss correction	single-endedforward channel	channel 1reverse channel	N/Adate	2019/09/19time	06:02:35forward acquisition time	60.00reverse acquisition time	0.00gamma	496.2192k internal	0.2343k external	0.2343temperature offset calibration	1.0020default loss term (dB/km)	0.3790temperature slope calibration	1.0000multiplexer offset coefficient	1.0000multiplexer slope coefficient	1.0000fibre end	0.00T internal ref (°C)	19.16T ext. ref 1 (°C)	0.58T ext. ref 2 (°C)	12.76length (m)	temperature (°C)	Stokes	anti-Stokes-747.200	-3.884	0.058	0.040
-746.185	253.443	0.060	0.103
-745.171	-200.000	0.002	0.208
-744.156	144.775	-0.007	0.010
-743.142	-69.704	-0.103	0.040
-742.127	27.073	-0.160	0.134
-741.112	114.610	-0.124	0.152
-740.098	-200.000	0.025	0.259
-739.083	88.746	-0.198	0.220
-738.069	12.903	-0.170	-0.132
-737.054	12.542	-0.134	-0.103
-736.039	-124.038	0.193	-0.030
-735.025	-165.162	-0.139	-0.006
-734.010	800.000	0.055	-0.158
-732.996	98.547	-0.097	0.113
-731.981	800.000	-0.037	0.128
-730.966	-38.601	-0.209	0.110
-729.952	280.413	-0.093	-0.167
-728.937	-115.969	-0.636	-0.119
-727.923	-139.601	-0.143	0.015
-726.908	-200.000	0.009	-0.077
-725.894	438.154	-0.099	-0.216
-724.879	-59.033	-0.264	0.114
-723.864	199.201	0.147	0.226
-722.850	-137.992	-0.176	-0.020
-721.835	-200.000	-0.053	-0.427
-720.821	100.021	0.150	0.174
-719.806	168.191	0.147	0.210
-718.791	-40.201	-0.099	0.052
-717.777	143.102	-0.159	-0.212
-716.762	-16.171	-0.118	0.075
-715.748	-3.981	0.151	-0.105
-714.733	164.970	0.121	0.171
-713.718	800.000	0.097	0.284
-712.704	-40.812	-0.467	0.242
-711.689	-200.000	-0.006	0.055
-710.675	800.000	-0.016	0.056
-709.660	-134.363	0.258	0.032
-708.645	9.194	-0.309	-0.234
-707.631	95.224	-0.227	0.259
-706.616	-18.662	-0.148	-0.093
-705.602	-119.968	0.130	-0.022
-704.587	581.954	-0.060	0.148
-703.572	-10.698	0.193	0.128
-702.558	800.000	-0.070	0.289
-701.543	673.474	-0.104	0.268
-700.529	118.852	-0.138	0.170
-699.514	-200.000	-0.022	0.128
-698.499	-38.013	0.126	0.067
-697.485	2.289	0.104	0.075
-696.470	209.791	-0.151	0.237
-695.456	-165.707	0.310	-0.013
-694.441	800.000	0.077	0.237
-693.426	800.000	0.071	-0.249
-692.412	547.517	-0.193	-0.463
-691.397	59.416	0.159	0.156
-690.383	113.368	0.144	0.175
-689.368	-58.124	-0.471	0.205
-688.354	-200.000	-0.026	-0.284
-687.339	234.135	0.101	0.167
-686.324	800.000	-0.084	0.262
-685.310	-136.462	0.337	0.039
-684.295	-61.618	0.305	-0.128
-683.281	-103.741	-0.163	0.038
-682.266	-137.698	-0.196	-0.022
-681.251	469.730	-0.025	0.056
-680.237	-79.456	-0.219	-0.074
-679.222	-200.000	0.030	0.134
-678.208	-200.000	-0.255	0.000
-677.193	-19.457	-0.320	-0.198
-676.178	46.066	0.207	0.192
-675.164	180.037	0.168	-0.246
-674.149	-95.309	0.157	0.042
-673.135	-128.580	0.106	-0.015
-672.120	-77.121	0.049	0.017
-671.105	130.140	0.186	0.238
-670.091	94.744	-0.158	-0.179
-669.076	-27.793	0.144	0.083
-668.062	95.630	-0.073	-0.083
-667.047	-57.731	0.168	0.073
-666.032	-183.593	-0.108	0.002
-665.018	-74.595	0.242	0.087
-664.003	-110.879	0.312	-0.064
-662.989	-164.502	-0.270	0.012
-661.974	-125.781	0.135	-0.020
-660.959	-195.434	-0.096	0.001
-659.945	125.724	-0.278	0.351
-658.930	23.291	-0.087	0.071
-657.916	61.215	0.160	0.159
-656.901	94.139	-0.088	-0.099
-655.886	-51.712	0.015	0.007
-654.872	-62.103	-0.137	0.057
-653.857	-42.554	-0.052	-0.026
-652.843	-27.996	0.242	-0.140
-651.828	800.000	-0.057	-0.229
-650.814	-101.532	0.201	0.049
-649.799	-200.000	0.001	0.430
-648.784	-200.000	0.014	0.276
-647.770	96.290	0.098	0.111
-646.755	55.068	-0.256	-0.247
-645.741	-79.262	0.027	0.009
-644.726	-38.848	0.073	0.039
-643.711	39.218	-0.154	0.138
-642.697	546.992	0.023	0.055
-641.682	-84.675	-0.246	-0.077
-640.668	42.051	-0.050	0.046
-639.653	559.943	-0.058	0.141
-638.638	93.605	-0.051	-0.057
-637.624	1.437	-0.040	0.029
-636.609	391.550	0.071	-0.147
-635.595	-40.570	0.090	0.047
-634.580	-95.031	0.275	0.074
-633.565	800.000	0.120	-0.354
-632.551	-200.000	0.000	0.250
-631.536	-16.003	0.226	-0.143
-630.522	-200.000	0.009	0.067
-629.507	-100.115	-0.214	0.053
-628.492	645.432	0.011	-0.029
-627.478	-48.488	-0.443	-0.213
-626.463	163.619	0.095	0.133
-625.449	-60.364	0.267	0.113
-624.434	19.713	-0.251	0.201
-623.419	-200.000	-0.009	0.131
-622.405	800.000	0.079	0.331
-621.390	-111.857	-0.133	0.027
-620.376	-71.704	-0.196	-0.073
-619.361	-48.680	0.305	0.146
-618.346	136.561	0.110	0.143
-617.332	-163.757	-0.515	-0.024
-616.317	93.231	-0.164	-0.185
-615.303	321.328	0.090	-0.171
-614.288	800.000	0.049	-0.154
-613.273	-200.000	0.024	-0.265
-612.259	-200.000	0.011	-0.112
-611.244	-200.000	0.000	0.060
-610.230	282.406	-0.065	0.116
-609.215	-200.000	-0.070	0.408
-608.201	-30.623	-0.144	0.081
-607.186	-145.078	0.070	0.006
-606.171	48.970	-0.209	-0.196
-605.157	250.759	0.110	-0.187
-604.142	800.000	-0.095	-0.268
-603.128	-200.000	-0.079	-0.392
-602.113	-142.704	-0.055	0.005
-601.098	-127.707	-0.130	-0.019
-600.084	800.000	0.150	-0.427
-599.069	354.963	0.126	-0.250
-598.055	-46.094	-0.182	0.089
-597.040	-200.000	0.008	0.042
-596.025	-121.047	-0.172	0.029
-595.011	109.285	-0.175	0.209
-593.996	-145.347	-0.219	0.020
-592.982	-99.848	-0.117	0.029
-591.967	-123.387	0.114	0.018
-590.952	242.781	-0.106	-0.176
-589.938	-21.425	0.252	-0.153
-588.923	608.630	-0.014	0.036
-587.909	-130.112	-0.242	0.033
-586.894	-200.000	-0.004	0.121
-585.879	-200.000	-0.008	-0.135
-584.865	800.000	0.034	-0.140
-583.850	-28.331	-0.126	0.073
-582.836	-42.636	-0.259	0.131
-581.821	-200.000	0.032	0.155
-580.806	-25.872	0.115	0.067
-579.792	-35.415	-0.222	-0.120
-578.777	-6.459	0.215	-0.146
-577.763	-88.601	0.244	0.072
-576.748	-58.681	-0.236	0.102
-575.733	-200.000	0.014	0.229
-574.719	521.883	-0.093	0.216
-573.704	239.291	0.123	0.204
-572.690	-58.725	0.174	-0.075
-571.675	25.660	-0.122	0.101
-570.661	-51.556	0.348	0.162
-569.646	800.000	0.087	0.330
-568.631	800.000	0.043	0.180
-567.617	-200.000	0.004	0.146
-566.602	157.753	0.117	-0.161
-565.588	-151.718	0.049	-0.004
-564.573	-200.000	0.005	-0.165
-563.558	114.491	-0.325	0.394
-562.544	182.742	0.190	0.278
-561.529	108.140	0.186	-0.220
-560.515	-42.687	0.054	-0.027
-559.500	519.378	0.057	-0.133
-558.485	260.087	0.025	0.043
-557.471	-138.937	0.337	-0.036
-556.456	142.495	0.076	0.101
-555.442	750.937	0.054	0.144
-554.427	-200.000	0.095	-0.464
-553.412	67.651	-0.182	0.185
-552.398	-49.400	-0.164	0.078
-551.383	-22.185	0.214	-0.129
-550.369	539.261	0.100	-0.236
-549.354	800.000	0.048	0.195
-548.339	200.552	-0.093	-0.142
-547.325	-6.144	0.175	0.119
-546.310	111.229	-0.215	-0.257
-545.296	-108.482	0.270	-0.058
-544.281	-137.313	-0.170	-0.019
-543.266	-200.000	0.020	-0.240
-542.252	-17.907	-0.130	0.081
-541.237	-200.000	0.001	-0.071
-540.223	270.881	0.100	-0.174
-539.208	-106.107	0.227	-0.051
-538.193	221.377	-0.097	0.155
-537.179	-200.000	-0.023	-0.324
-536.164	-123.610	-0.173	0.027
-535.150	440.569	-0.160	-0.347
-534.135	800.000	-0.063	-0.182
-533.121	347.715	-0.053	-0.104
-532.106	-71.229	0.466	-0.174
-531.091	132.940	-0.159	-0.204
-530.077	-139.812	0.242	0.025
-529.062	64.394	0.071	-0.071
-528.048	231.835	0.185	-0.300
-527.033	-200.000	0.029	-0.163
-526.018	293.316	-0.144	0.261
-525.004	32.619	-0.134	0.115
-523.989	-200.000	-0.049	0.480
-522.975	3.790	-0.204	-0.148
-521.960	-200.000	0.017	-0.310
-520.945	-200.000	0.031	-0.282
-519.931	800.000	0.050	0.182
-518.916	239.388	0.149	0.247
-517.902	166.468	0.225	0.317
-516.887	274.503	-0.161	-0.283
-515.872	-127.101	-0.174	-0.025
-514.858	-18.001	0.109	0.068
-513.843	754.453	-0.119	-0.320
-512.829	44.196	-0.288	0.262
-511.814	-61.996	-0.126	-0.052
-510.799	-200.000	0.036	0.409
-509.785	-90.694	-0.219	0.063
-508.770	-200.000	0.071	-0.428
-507.756	-69.584	-0.303	0.115
-506.741	-178.354	0.226	-0.005
-505.726	265.004	-0.138	0.239
-504.712	321.619	0.037	-0.069
-503.697	10.966	-0.062	0.047
-502.683	-108.539	-0.156	0.033
-501.668	45.060	-0.216	-0.198
-500.653	83.956	0.113	-0.122
-499.639	26.848	-0.222	0.185
-498.624	23.282	-0.205	0.167
-497.610	578.025	0.068	0.165
-496.595	-3.883	0.118	0.081
-495.581	40.612	-0.150	-0.134
-494.566	668.710	0.094	-0.241
-493.551	-108.339	-0.599	-0.128
-492.537	-200.000	0.036	-0.380
-491.522	-145.932	-0.315	-0.028
-490.508	800.000	-0.063	0.207
-489.493	664.934	0.085	-0.217
-488.478	800.000	-0.058	0.202
-487.464	-46.588	0.243	-0.118
-486.449	-200.000	-0.012	-0.058
-485.435	211.625	0.101	-0.158
-484.420	3.611	0.099	0.072
-483.405	203.260	0.020	-0.030
-482.391	189.931	-0.047	0.071
-481.376	-21.746	0.188	0.114
-480.362	-200.000	-0.038	-0.243
-479.347	479.429	0.158	-0.354
-478.332	800.000	-0.127	0.394
-477.318	-49.415	0.246	0.116
-476.303	800.000	0.038	0.113
-475.289	-200.000	0.004	0.249
-474.274	800.000	0.094	-0.288
-473.259	216.723	-0.173	-0.273
-472.245	-83.406	-0.120	-0.038
-471.230	-149.455	0.175	0.014
-470.216	74.572	0.142	-0.148
-469.201	-32.655	0.267	0.147
-468.186	158.111	0.098	0.135
-467.172	-200.000	-0.017	0.108
-466.157	-79.964	0.380	-0.126
-465.143	-200.000	-0.281	0.001
-464.128	-190.044	-0.318	0.004
-463.113	-167.661	0.360	-0.014
-462.099	-200.000	-0.028	-0.265
-461.084	-200.000	0.037	-0.175
-460.070	113.106	0.098	-0.117
-459.055	-4.955	-0.270	-0.184
-458.040	-67.648	0.233	0.090
-457.026	-200.000	-0.004	0.161
-456.011	13.355	-0.110	-0.085
-454.997	13.363	0.117	0.090
-453.982	475.629	-0.040	0.089
-452.968	-121.330	0.126	0.021
-451.953	-200.000	0.015	0.113
-450.938	-200.000	-0.039	0.334
-449.924	800.000	-0.054	-0.219
-448.909	-64.673	-0.315	0.126
-447.895	-0.909	-0.254	0.178
-446.880	-87.190	-0.103	-0.031
-445.865	158.158	0.104	-0.143
-444.851	-28.705	0.255	0.145
-443.836	132.018	-0.038	0.048
-442.822	-11.962	0.200	-0.130
-441.807	-200.000	0.025	-0.116
-440.792	271.433	0.040	-0.071
-439.778	-95.528	-0.243	0.064
-438.763	82.563	0.290	0.312
-437.749	-122.032	0.393	-0.064
-436.734	117.075	0.136	-0.165
-435.719	1.271	0.054	0.038
-434.705	26.158	-0.257	-0.212
-433.690	765.933	-0.048	0.128
-432.676	194.213	-0.052	0.077
-431.661	-25.333	0.203	0.119
-430.646	800.000	-0.084	0.241
-429.632	-36.117	-0.225	-0.120
-428.617	328.513	0.118	-0.225
-427.603	-9.273	-0.064	0.043
-426.588	-55.195	-0.189	-0.084
-425.573	46.102	-0.079	-0.072
-424.559	800.000	-0.067	0.229
-423.544	50.586	-0.071	-0.066
-422.530	-42.301	-0.164	-0.083
-421.515	-25.472	-0.064	0.037
-420.500	-200.000	0.044	-0.487
-419.486	10.355	0.181	-0.136
-418.471	-200.000	-0.042	-0.309
-417.457	800.000	0.049	-0.191
-416.442	81.191	0.085	-0.091
-415.428	-127.173	-0.327	-0.047
-414.413	-108.032	0.043	-0.009
-413.398	75.858	0.376	-0.393
-412.384	95.156	0.024	-0.028
-411.369	-200.000	0.020	0.294
-410.355	-85.938	0.101	0.031
-409.340	800.000	-0.084	0.241
-408.325	92.134	0.170	-0.189
-407.311	-65.569	0.286	-0.113
-406.296	-171.000	-0.478	0.016
-405.282	-70.571	0.113	0.042
-404.267	75.807	-0.014	0.015
-403.252	37.599	-0.211	0.185
-402.238	101.444	-0.061	0.070
-401.223	-5.362	0.047	-0.032
-400.209	-200.000	0.022	0.366
-399.194	660.253	-0.043	0.108
-398.179	-30.931	0.106	-0.059
-397.165	198.183	0.030	0.045
-396.150	-200.000	0.025	-0.230
-395.136	92.046	-0.215	0.240
-394.121	-60.716	0.059	-0.025
-393.106	-0.126	-0.157	-0.110
-392.092	-192.554	-0.138	-0.001
-391.077	183.764	0.124	-0.182
-390.063	381.639	0.084	0.171
-389.048	-44.793	-0.083	0.041
-388.033	-20.603	0.319	0.194
-387.019	-200.000	-0.039	-0.348
-386.004	-97.087	-0.161	-0.041
-384.990	-132.407	0.309	-0.039
-383.975	-144.381	0.442	-0.041
-382.960	-200.000	-0.007	0.279
-381.946	800.000	-0.071	-0.267
-380.931	686.028	-0.085	0.220
-379.917	342.114	-0.021	-0.041
-378.902	102.286	-0.095	0.109
-377.888	622.575	-0.097	-0.240
-376.873	18.772	-0.201	-0.159
-375.858	63.526	-0.183	0.182
-374.844	-64.914	-0.113	-0.045
-373.829	-200.000	0.074	-0.408
-372.815	-200.000	0.005	0.134
-371.800	58.134	-0.285	0.276
-370.785	-200.000	-0.080	-0.346
-369.771	-200.000	-0.011	-0.228
-368.756	-31.909	0.214	0.118
-367.742	-58.058	0.240	0.103
-366.727	-18.130	-0.115	-0.071
-365.712	800.000	0.087	-0.357
-364.698	-17.681	-0.057	0.036
-363.683	544.319	0.048	0.114
-362.669	-200.000	0.028	-0.351
-361.654	656.690	-0.219	0.556
-360.639	-156.713	-0.178	-0.011
-359.625	-200.000	-0.016	-0.277
-358.610	-59.441	0.257	-0.109
-357.596	263.836	0.092	-0.158
-356.581	-200.000	0.008	-0.080
-355.566	-200.000	-0.038	0.374
-354.552	721.920	-0.107	-0.280
-353.537	-105.730	-0.107	-0.024
-352.523	487.167	-0.105	0.235
-351.508	45.573	0.192	0.175
-350.493	-200.000	0.025	-0.345
-349.479	800.000	-0.066	-0.224
-348.464	142.422	0.139	-0.182
-347.450	-81.250	-0.060	-0.020
-346.435	800.000	-0.106	0.301
-345.420	-77.431	-0.312	0.107
-344.406	800.000	0.036	-0.103
-343.391	-200.000	0.017	-0.232
-342.377	-30.279	0.137	-0.077
-341.362	-87.396	0.204	-0.061
-340.348	800.000	-0.102	-0.301
-339.333	-200.000	-0.002	-0.052
-338.318	-200.000	0.049	0.251
-337.304	197.187	-0.049	0.074
-336.289	273.479	-0.116	0.202
-335.275	215.342	-0.074	-0.116
-334.260	221.849	0.065	0.103
-333.245	38.543	-0.214	0.188
-332.231	568.246	-0.152	0.364
-331.216	120.282	-0.230	-0.281
-330.202	383.237	0.115	-0.234
-329.187	-200.000	0.001	0.342
-328.172	-7.610	-0.198	-0.132
-327.158	-40.611	-0.127	0.065
-326.143	345.197	0.094	0.182
-325.129	-55.701	0.164	-0.072
-324.114	134.035	0.161	-0.205
-323.099	-200.000	0.004	-0.229
-322.085	-200.000	-0.001	-0.274
-321.070	-106.002	0.218	0.048
-320.056	-25.422	0.173	0.101
-319.041	199.061	-0.122	-0.184
-318.026	90.654	0.039	-0.043
-317.012	31.716	-0.197	0.167
-315.997	800.000	0.031	-0.128
-314.983	-135.844	0.330	-0.038
-313.968	800.000	-0.094	-0.292
-312.953	800.000	0.015	0.060
-311.939	-85.369	-0.265	0.081
-310.924	20.682	0.124	0.099
-309.910	-200.000	-0.042	0.231
-308.895	268.008	-0.117	0.202
-307.880	434.313	0.066	0.141
-306.866	-174.321	-0.519	-0.015
-305.851	800.000	0.083	0.273
-304.837	-33.333	-0.169	0.092
-303.822	-76.798	-0.445	0.153
-302.807	111.447	0.115	-0.136
-301.793	-50.182	0.157	0.073
-300.778	-200.000	-0.045	-0.315
-299.764	-48.644	0.171	0.081
-298.749	10.956	0.154	0.116
-297.735	-110.884	0.055	0.011
-296.720	359.484	-0.160	-0.316
-295.705	800.000	-0.077	0.260
-294.691	41.564	0.328	-0.292
-293.676	-45.294	-0.124	-0.061
-292.662	-65.052	0.052	-0.021
-291.647	-47.895	0.177	-0.084
-290.632	39.953	-0.238	0.210
-289.618	-200.000	0.029	-0.182
-288.603	728.012	-0.051	0.133
-287.589	64.260	0.112	0.111
-286.574	800.000	0.062	0.210
-285.559	48.733	0.284	0.262
-284.545	-37.329	-0.317	0.166
-283.530	-81.404	0.060	-0.019
-282.516	-200.000	0.009	-0.187
-281.501	98.646	-0.120	-0.136
-280.486	373.536	-0.056	-0.112
-279.472	-98.969	-0.209	0.052
-278.457	81.937	0.111	0.118
-277.443	-186.956	-0.346	0.005
-276.428	78.564	-0.193	-0.203
-275.413	36.990	-0.148	0.129
-274.399	11.468	0.510	0.384
-273.384	-169.361	-0.112	-0.004
-272.370	-200.000	0.043	-0.291
-271.355	-200.000	-0.030	0.192
-270.340	68.040	0.119	0.119
-269.326	-123.423	0.408	-0.064
-268.311	42.262	0.308	0.275
-267.297	-200.000	-0.051	0.233
-266.282	800.000	-0.066	-0.268
-265.267	384.462	0.009	0.019
-264.253	9.440	0.051	0.038
-263.238	10.524	0.160	0.120
-262.224	-26.701	-0.134	-0.077
-261.209	-24.560	-0.192	-0.112
-260.195	41.565	-0.056	0.050
-259.180	800.000	-0.009	0.027
-258.165	-112.301	-0.083	0.016
-257.151	150.023	-0.052	-0.069
-256.136	771.743	0.128	-0.343
-255.122	-135.833	0.087	0.010
-254.107	-28.221	0.378	0.214
-253.092	-21.514	-0.261	-0.156
-252.078	-58.958	0.089	-0.038
-251.063	-134.356	-0.079	-0.010
-250.049	800.000	0.067	0.196
-249.034	-47.616	0.130	-0.062
-248.019	262.986	0.050	0.086
-247.005	133.230	-0.109	0.138
-245.990	-42.742	-0.259	-0.129
-244.976	-69.628	-0.221	0.083
-243.961	44.420	0.265	-0.239
-242.946	181.487	0.093	-0.135
-241.932	-91.382	0.104	0.029
-240.917	281.785	-0.031	-0.055
-239.903	129.627	-0.068	0.085
-238.888	-200.000	-0.066	0.489
-237.873	-2.725	0.225	0.155
-236.859	-25.300	0.459	0.267
-235.844	-59.839	-0.407	-0.171
-234.830	292.836	0.093	0.167
-233.815	60.214	0.118	0.115
-232.800	645.869	0.094	0.235
-231.786	-113.775	-0.220	0.042
-230.771	-75.664	-0.139	-0.049
-229.757	-200.000	0.044	-0.295
-228.742	-139.259	0.163	-0.017
-227.727	133.320	-0.151	0.192
-226.713	-44.319	-0.244	-0.120
-225.698	-70.526	0.124	-0.046
-224.684	800.000	-0.069	-0.251
-223.669	800.000	-0.101	0.338
-222.655	-62.537	0.190	-0.077
-221.640	91.899	0.082	-0.091
-220.625	-200.000	-0.009	0.285
-219.611	315.370	0.031	-0.057
-218.596	-84.074	-0.064	-0.020
-217.582	-25.740	0.177	0.102
-216.567	-133.105	0.084	-0.010
-215.552	-53.666	-0.176	-0.079
-214.538	-98.029	-0.207	-0.052
-213.523	81.348	-0.144	0.153
-212.509	800.000	0.028	0.115
-211.494	-200.000	0.062	-0.435
-210.479	-75.882	0.296	-0.103
-209.465	-27.260	-0.133	-0.076
-208.450	74.575	0.043	-0.045
-207.436	-124.491	0.215	0.033
-206.421	-200.000	-0.006	0.250
-205.406	18.126	-0.079	-0.062
-204.392	17.814	-0.251	0.196
-203.377	-200.000	0.013	0.234
-202.363	-200.000	-0.033	-0.163
-201.348	215.009	0.069	-0.108
-200.333	-200.000	0.068	-0.384
-199.319	800.000	0.095	0.297
-198.304	328.308	-0.101	-0.191
-197.290	113.394	0.080	-0.096
-196.275	410.101	-0.037	-0.078
-195.260	740.478	0.214	0.562
-194.246	176.754	-0.066	0.093
-193.231	-200.000	-0.052	0.350
-192.217	272.795	0.232	-0.401
-191.202	589.504	0.142	-0.343
-190.187	1.591	0.105	0.074
-189.173	-84.984	0.357	0.110
-188.158	-35.664	-0.229	-0.122
-187.144	-43.853	-0.162	-0.080
-186.129	10.865	0.299	-0.223
-185.114	800.000	0.139	0.385
-184.100	-44.575	0.319	0.156
-183.085	50.269	0.311	-0.288
-182.071	800.000	0.051	0.193
-181.056	-55.473	0.118	0.052
-180.042	22.854	-0.165	0.132
-179.027	480.627	-0.019	-0.043
-178.012	-200.000	-0.046	-0.395
-176.998	122.472	0.188	0.231
-175.983	-41.962	-0.207	-0.104
-174.969	-154.555	0.287	0.019
-173.954	123.881	-0.066	0.081
-172.939	479.349	-0.043	0.095
-171.925	-25.628	0.335	0.193
-170.910	520.844	0.152	0.348
-169.896	-59.573	0.163	-0.069
-168.881	116.149	-0.192	-0.231
-167.866	13.144	0.207	0.157
-166.852	-61.682	0.189	0.078
-165.837	-17.814	0.230	-0.141
-164.823	-43.797	0.082	0.040
-163.808	8.692	0.225	0.166
-162.793	2.437	-0.369	-0.261
-161.779	-183.505	-0.318	-0.005
-160.764	800.000	0.049	-0.163
-159.750	129.041	-0.153	0.191
-158.735	-86.535	-0.206	0.062
-157.720	-168.007	0.193	0.007
-156.706	-200.000	-0.021	0.182
-155.691	407.232	-0.061	0.127
-154.677	536.867	-0.061	0.141
-153.662	195.087	-0.110	0.163
-152.647	-200.000	0.002	0.261
-151.633	13.258	-0.024	-0.018
-150.618	394.608	-0.107	0.218
-149.604	-152.734	0.359	-0.025
-148.589	48.992	0.139	-0.128
-147.574	-143.198	0.294	0.028
-146.560	335.254	-0.143	0.270
-145.545	76.610	0.172	-0.178
-144.531	724.411	-0.091	0.237
-143.516	-95.042	-0.304	-0.080
-142.502	-151.956	0.475	-0.034
-141.487	-147.393	0.102	0.008
-140.472	-106.206	-0.010	-0.002
-139.458	-200.000	0.002	-0.219
-138.443	-200.000	0.006	-0.140
-137.429	125.853	-0.049	0.061
-136.414	31.311	0.150	0.126
-135.399	31.534	0.232	-0.195
-134.385	-124.607	0.061	0.009
-133.370	-142.249	0.409	0.040
-132.356	-37.414	0.163	0.085
-131.341	156.701	0.114	-0.154
-130.326	-116.289	0.137	0.025
-129.312	310.779	-0.233	-0.427
-128.297	-200.000	0.012	0.270
-127.283	800.000	0.090	0.340
-126.268	656.063	0.063	-0.158
-125.253	5.593	0.104	-0.075
-124.239	-101.371	-0.172	0.041
-123.224	-200.000	-0.010	-0.073
-122.210	56.429	0.375	0.357
-121.195	800.000	0.059	0.171
-120.180	61.298	-0.234	-0.228
