DTS Sentinel unit serial number:	SN413079Multiplexer serial number:	ORYXHardware model number:	OX4-SRSoftware version number:	ORYX F/W v4.00 Oryx Data Collector v3.7.2.0data status	okinstallation	princeton_trtdifferential loss correction	single-endedforward channel	channel 1reverse channel	N/Adate	2019/09/13time	12:26:35forward acquisition time	60.00reverse acquisition time	0.00gamma	496.2192k internal	0.2307k external	0.2307temperature offset calibration	1.0169default loss term (dB/km)	0.3790temperature slope calibration	1.0000multiplexer offset coefficient	1.0000multiplexer slope coefficient	1.0000fibre end	0.00T internal ref (°C)	34.27T ext. ref 1 (°C)	4.63T ext. ref 2 (°C)	31.82length (m)	temperature (°C)	Stokes	anti-Stokes-747.200	346.844	0.065	-0.130
-746.185	-100.426	0.277	0.070
-745.171	-147.473	-0.349	-0.030
-744.156	-127.506	0.211	0.031
-743.142	-115.202	0.197	0.038
-742.127	47.558	-0.176	0.167
-741.112	-19.276	0.041	0.026
-740.098	-200.000	-0.011	0.199
-739.083	-65.223	-0.159	0.065
-738.069	-200.000	0.060	0.607
-737.054	-81.700	0.354	0.118
-736.039	-200.000	0.029	-0.249
-735.025	212.067	-0.054	0.086
-734.010	110.646	-0.166	-0.203
-732.996	-200.000	-0.043	-0.463
-731.981	-200.000	0.036	0.261
-730.966	800.000	-0.036	0.113
-729.952	-15.194	-0.229	0.149
-728.937	-200.000	0.016	-0.191
-727.923	-131.314	-0.186	-0.025
-726.908	-142.478	-0.553	0.055
-725.894	-200.000	0.009	-0.193
-724.879	800.000	0.078	0.246
-723.864	69.665	0.171	0.179
-722.850	52.811	0.123	0.119
-721.835	45.870	-0.080	0.075
-720.821	-116.207	-0.148	0.028
-719.806	-32.693	-0.425	0.240
-718.791	-58.351	-0.423	-0.187
-717.777	62.094	-0.246	0.250
-716.762	-80.799	0.226	-0.076
-715.748	-91.859	0.484	-0.140
-714.733	800.000	0.093	-0.306
-713.718	-31.225	-0.249	-0.143
-712.704	16.919	-0.115	0.092
-711.689	-196.531	0.494	0.003
-710.675	130.747	0.163	-0.213
-709.660	800.000	-0.017	-0.052
-708.645	-200.000	0.044	0.224
-707.631	-128.979	-0.122	0.017
-706.616	-60.754	-0.148	0.064
-705.602	96.509	-0.151	0.175
-704.587	545.690	-0.015	-0.037
-703.572	-54.954	-0.071	-0.033
-702.558	-117.926	0.220	-0.040
-701.543	-32.847	-0.201	0.113
-700.529	-105.855	0.198	-0.045
-699.514	19.652	-0.274	-0.224
-698.499	-6.427	-0.228	-0.158
-697.485	-35.399	0.060	0.033
-696.470	125.767	-0.028	0.036
-695.456	-200.000	0.042	-0.215
-694.441	-200.000	0.012	-0.109
-693.426	420.812	-0.079	-0.171
-692.412	-200.000	0.061	0.381
-691.397	-200.000	-0.004	-0.101
-690.383	-103.864	-0.082	-0.019
-689.368	-24.577	0.079	-0.048
-688.354	59.611	0.064	-0.064
-687.339	49.094	-0.134	0.128
-686.324	-44.435	0.518	-0.263
-685.310	-52.166	-0.042	-0.020
-684.295	589.244	-0.061	0.152
-683.281	-94.734	0.099	-0.027
-682.266	-51.152	0.495	-0.235
-681.251	-200.000	0.024	-0.189
-680.237	66.692	0.029	-0.030
-679.222	-200.000	0.003	0.218
-678.208	-200.000	0.020	0.131
-677.193	-160.651	0.422	-0.023
-676.178	74.260	-0.136	-0.145
-675.164	50.851	0.095	0.091
-674.149	373.882	0.046	0.095
-673.135	165.011	-0.140	-0.201
-672.120	-138.470	-0.245	0.027
-671.105	-60.101	0.135	-0.058
-670.091	-23.531	0.291	-0.177
-669.076	51.390	0.319	-0.307
-668.062	52.844	-0.250	0.242
-667.047	800.000	-0.033	0.117
-666.032	221.902	-0.238	0.388
-665.018	65.368	-0.091	0.093
-664.003	-28.794	-0.298	-0.174
-662.989	-114.605	-0.180	-0.035
-661.974	-113.162	0.188	0.038
-660.959	222.183	0.226	-0.369
-659.945	-87.020	-0.271	0.084
-658.930	-15.558	0.229	0.148
-657.916	-45.813	0.298	0.149
-656.901	-112.345	-0.409	0.083
-655.886	-151.745	0.534	-0.040
-654.872	-110.652	-0.371	0.078
-653.857	-200.000	-0.006	0.163
-652.843	-68.826	-0.146	-0.057
-651.828	-132.187	0.181	-0.024
-650.814	8.536	-0.298	0.227
-649.799	362.522	-0.098	0.200
-648.784	-36.147	0.228	-0.125
-647.770	-83.873	0.252	0.081
-646.755	43.469	0.053	-0.050
-645.741	-94.731	-0.145	-0.040
-644.726	99.451	0.364	0.427
-643.711	-129.121	-0.172	-0.024
-642.697	-200.000	0.074	-0.378
-641.682	-120.028	-0.337	-0.059
-640.668	800.000	0.098	0.298
-639.653	-8.656	0.108	-0.074
-638.638	800.000	-0.061	-0.199
-637.624	-146.837	-0.112	0.010
-636.609	570.010	-0.152	0.373
-635.595	-117.727	-0.362	0.066
-634.580	-200.000	-0.060	0.267
-633.565	-105.460	-0.146	0.034
-632.551	384.225	0.064	-0.133
-631.536	-118.681	-0.155	-0.028
-630.522	-72.550	0.257	0.096
-629.507	-155.566	-0.107	0.007
-628.492	12.094	0.400	-0.312
-627.478	-200.000	-0.029	-0.142
-626.463	800.000	-0.028	-0.078
-625.449	800.000	0.040	0.164
-624.434	-73.243	-0.022	0.008
-623.419	-162.876	0.042	0.002
-622.405	-31.987	-0.014	-0.008
-621.390	-0.194	-0.424	-0.305
-620.376	-94.746	0.056	0.015
-619.361	141.568	0.134	-0.179
-618.346	-200.000	0.042	-0.461
-617.332	278.032	0.019	0.034
-616.317	-77.251	0.087	-0.030
-615.303	197.756	0.047	0.073
-614.288	-200.000	-0.001	0.023
-613.273	-101.436	-0.408	-0.101
-612.259	50.136	-0.094	0.090
-611.244	135.382	0.091	0.120
-610.230	-15.291	-0.213	-0.138
-609.215	-200.000	0.029	0.284
-608.201	-171.548	-0.110	0.004
-607.186	-110.163	-0.339	0.071
-606.171	111.748	0.254	0.310
-605.157	64.199	0.367	-0.374
-604.142	363.865	-0.115	-0.234
-603.128	-118.738	-0.369	0.066
-602.113	-153.762	-0.226	0.016
-601.098	-42.824	0.098	-0.051
-600.084	-142.570	-0.270	0.027
-599.069	164.510	-0.085	0.121
-598.055	-48.310	-0.294	0.143
-597.040	88.301	0.208	-0.233
-596.025	65.745	0.079	0.081
-595.011	800.000	0.034	-0.121
-593.996	21.826	0.193	-0.159
-592.982	130.071	0.144	-0.186
-591.967	-80.896	0.194	0.065
-590.952	-37.629	0.191	0.103
-589.938	-200.000	0.011	-0.133
-588.923	-56.305	-0.278	-0.125
-587.909	-124.486	0.269	0.042
-586.894	168.390	0.034	-0.049
-585.879	-113.957	0.357	0.070
-584.865	-78.085	-0.118	0.041
-583.850	120.740	-0.116	0.145
-582.836	-82.540	-0.146	-0.048
-581.821	-58.066	-0.084	-0.037
-580.806	-16.579	0.030	-0.019
-579.792	401.848	-0.010	0.022
-578.777	-142.429	-0.081	0.008
-577.763	-103.116	-0.147	0.035
-576.748	-83.582	0.281	0.091
-575.733	-72.043	-0.114	-0.043
-574.719	-65.894	0.043	-0.017
-573.704	-84.388	-0.108	-0.035
-572.690	-200.000	0.039	0.246
-571.675	151.630	0.163	-0.224
-570.661	800.000	-0.042	-0.129
-569.646	800.000	-0.074	-0.223
-568.631	-55.187	0.257	-0.117
-567.617	33.308	0.145	-0.127
-566.602	21.128	0.128	-0.105
-565.588	250.278	-0.123	0.210
-564.573	32.586	0.030	0.026
-563.558	-114.683	-0.418	0.081
-562.544	-129.358	-0.079	-0.011
-561.529	-200.000	-0.014	0.118
-560.515	541.780	-0.055	-0.133
-559.500	-127.232	-0.106	-0.016
-558.485	-4.963	-0.123	-0.086
-557.471	471.162	0.092	0.208
-556.456	800.000	-0.063	-0.204
-555.442	-200.000	-0.002	-0.280
-554.427	438.292	-0.084	-0.185
-553.412	-106.821	-0.505	-0.113
-552.398	114.817	0.087	0.107
-551.383	-74.067	0.234	-0.085
-550.369	-128.071	0.091	0.013
-549.354	413.530	-0.146	0.314
-548.339	-200.000	-0.009	-0.107
-547.325	-123.871	-0.311	-0.050
-546.310	-23.516	0.161	-0.098
-545.296	800.000	0.042	0.179
-544.281	-200.000	-0.034	0.178
-543.266	-139.286	0.289	-0.031
-542.252	195.975	0.058	0.088
-541.237	46.730	-0.074	0.069
-540.223	31.355	-0.268	0.233
-539.208	800.000	-0.037	-0.108
-538.193	-42.449	-0.076	0.039
-537.179	-65.749	0.289	0.117
-536.164	717.214	-0.077	0.206
-535.150	-53.431	0.139	0.064
-534.135	43.283	-0.114	0.105
-533.121	37.920	-0.123	-0.111
-532.106	-200.000	-0.007	0.104
-531.091	336.161	-0.137	0.268
-530.077	91.326	-0.203	-0.230
-529.062	102.929	-0.171	0.202
-528.048	-200.000	-0.001	-0.307
-527.033	272.003	0.061	-0.109
-526.018	-64.112	-0.141	-0.058
-525.004	-118.054	-0.104	0.019
-523.989	796.646	-0.042	0.115
-522.975	153.179	-0.180	0.248
-521.960	225.627	0.171	-0.279
-520.945	10.638	-0.192	-0.148
-519.931	158.149	-0.150	0.210
-518.916	743.042	0.092	-0.249
-517.902	-14.018	0.129	-0.084
-516.887	-106.003	-0.288	-0.065
-515.872	-58.638	-0.172	-0.075
-514.858	753.079	-0.074	-0.200
-513.843	-36.975	-0.196	0.106
-512.829	124.632	-0.104	0.132
-511.814	800.000	0.067	-0.199
-510.799	130.224	0.013	-0.017
-509.785	-200.000	0.043	-0.202
-508.770	575.136	-0.063	0.155
-507.756	155.024	-0.062	-0.086
-506.741	-13.828	-0.391	-0.255
-505.726	198.488	0.122	-0.188
-504.712	53.456	-0.109	-0.106
-503.697	800.000	-0.044	-0.174
-502.683	-54.321	-0.127	0.058
-501.668	-178.477	-0.255	0.006
-500.653	800.000	0.106	0.336
-499.639	154.999	0.119	0.164
-498.624	109.747	0.146	-0.176
-497.610	-200.000	0.056	-0.363
-496.595	-200.000	-0.030	-0.152
-495.581	-35.838	0.244	-0.133
-494.566	726.294	-0.090	-0.241
-493.551	21.446	-0.162	0.132
-492.537	17.721	-0.185	-0.148
-491.522	-80.036	-0.161	-0.055
-490.508	86.428	0.099	-0.110
-489.493	70.256	0.076	0.079
-488.478	332.699	-0.020	0.039
-487.464	497.209	0.031	-0.071
-486.449	-65.176	-0.086	-0.035
-485.435	-96.158	-0.170	0.045
-484.420	-41.177	-0.289	0.150
-483.405	-154.410	-0.330	0.022
-482.391	-189.841	0.328	-0.004
-481.376	281.189	-0.030	-0.054
-480.362	-200.000	-0.074	0.000
-479.347	-200.000	-0.012	0.258
-478.332	-200.000	-0.014	-0.115
-477.318	800.000	0.171	0.476
-476.303	-6.828	0.183	0.125
-475.289	-92.790	0.318	0.089
-474.274	56.125	-0.253	0.247
-473.259	-150.566	0.195	0.015
-472.245	-27.764	-0.028	-0.016
-471.230	354.300	0.039	0.078
-470.216	-200.000	0.009	0.244
-469.201	87.404	-0.332	0.370
-468.186	-200.000	0.016	-0.326
-467.172	800.000	0.025	-0.082
-466.157	180.809	0.180	-0.266
-465.143	230.678	0.070	-0.116
-464.128	-200.000	0.075	0.489
-463.113	157.418	-0.075	0.104
-462.099	61.679	0.049	-0.049
-461.084	476.560	-0.076	-0.173
-460.070	-59.894	-0.342	0.147
-459.055	-200.000	-0.007	0.113
-458.040	-87.346	-0.255	-0.078
-457.026	141.145	0.114	-0.152
-456.011	448.207	0.150	0.332
-454.997	-83.588	0.286	0.092
-453.982	161.529	-0.018	-0.025
-452.968	-43.014	-0.057	0.029
-451.953	-200.000	0.053	0.269
-450.938	800.000	-0.071	0.250
-449.924	-148.814	-0.242	0.020
-448.909	-147.211	-0.385	0.033
-447.895	-18.749	-0.212	0.133
-446.880	15.473	0.062	-0.049
-445.865	-200.000	0.017	0.253
-444.851	-47.065	-0.136	-0.067
-443.836	97.192	0.057	0.066
-442.822	31.042	-0.206	-0.177
-441.807	398.913	-0.051	-0.108
-440.792	-109.433	0.234	0.050
-439.778	49.688	0.081	0.077
-438.763	-200.000	0.001	-0.131
-437.749	39.601	-0.121	-0.109
-436.734	-100.377	0.152	-0.038
-435.719	-171.273	-0.049	-0.002
-434.705	127.802	-0.247	-0.316
-433.690	75.469	0.249	-0.264
-432.676	9.551	-0.123	0.094
-431.661	-200.000	-0.032	-0.202
-430.646	12.473	-0.187	0.145
-429.632	-82.162	-0.185	0.060
-428.617	-132.409	0.214	-0.028
-427.603	-200.000	0.011	0.131
-426.588	-41.104	-0.287	0.149
-425.573	-200.000	0.365	0.000
-424.559	-12.237	-0.131	-0.086
-423.544	112.926	0.075	0.092
-422.530	102.543	0.053	0.062
-421.515	-200.000	-0.028	-0.273
-420.500	800.000	0.102	0.339
-419.486	75.548	-0.272	-0.288
-418.471	369.663	0.179	-0.364
-417.457	27.924	0.123	-0.104
-416.442	255.262	0.023	-0.040
-415.428	-200.000	0.026	0.147
-414.413	-5.576	-0.107	0.074
-413.398	130.309	0.124	0.159
-412.384	142.324	0.161	-0.214
-411.369	-200.000	0.035	-0.198
-410.355	-200.000	0.043	0.219
-409.340	359.016	0.128	0.256
-408.325	-200.000	-0.020	-0.356
-407.311	159.927	-0.036	0.050
-406.296	779.523	0.106	0.290
-405.282	28.552	0.150	0.128
-404.267	-18.505	-0.033	0.021
-403.252	253.196	-0.032	-0.055
-402.238	-49.195	-0.089	-0.042
-401.223	800.000	0.075	0.219
-400.209	-4.183	-0.166	-0.115
-399.194	-28.157	-0.109	-0.063
-398.179	10.358	0.197	0.150
-397.165	-97.573	-0.289	-0.075
-396.150	-107.583	-0.179	-0.039
-395.136	800.000	0.020	-0.082
-394.121	800.000	0.047	-0.145
-393.106	-119.462	-0.429	-0.075
-392.092	516.880	-0.109	0.255
-391.077	504.229	-0.104	0.241
-390.063	176.371	-0.102	-0.149
-389.048	-86.369	-0.077	0.024
-388.033	64.223	0.068	-0.069
-387.019	-177.909	-0.191	0.005
-386.004	-121.141	0.300	-0.050
-384.990	-41.180	-0.075	0.039
-383.975	96.273	0.138	-0.158
-382.960	-200.000	0.028	0.172
-381.946	-200.000	-0.036	-0.220
-380.931	-93.028	0.173	0.048
-379.917	-158.160	0.208	-0.012
-378.902	88.313	0.118	-0.131
-377.888	-92.123	-0.121	-0.034
-376.873	-23.341	0.145	0.088
-375.858	46.250	-0.176	-0.164
-374.844	-22.251	-0.152	0.092
-373.829	85.415	-0.143	-0.157
-372.815	-166.498	0.180	0.008
-371.800	800.000	-0.083	0.321
-370.785	27.877	0.160	-0.135
-369.771	26.565	0.137	-0.115
-368.756	-43.523	-0.297	0.150
-367.742	-200.000	-0.004	0.268
-366.727	-36.443	-0.143	0.077
-365.712	-13.753	0.137	0.089
-364.698	-200.000	0.010	-0.257
-363.683	-63.574	-0.185	0.076
-362.669	-94.957	0.138	-0.037
-361.654	332.523	-0.124	0.240
-360.639	-200.000	-0.001	0.093
-359.625	208.862	-0.096	0.151
-358.610	73.916	-0.046	0.048
-357.596	-142.269	-0.300	-0.030
-356.581	-116.203	0.273	0.051
-355.566	-6.105	0.183	-0.126
-354.552	800.000	-0.007	-0.023
-353.537	-41.776	0.211	0.108
-352.523	-117.139	0.195	-0.036
-351.508	-43.845	0.325	0.164
-350.493	54.545	-0.134	0.129
-349.479	-31.783	0.133	0.075
-348.464	69.721	-0.051	-0.053
-347.450	-150.845	-0.029	-0.002
-346.435	-82.437	-0.401	0.130
-345.420	-91.012	0.363	0.104
-344.406	-41.011	-0.310	0.161
-343.391	40.120	-0.100	0.090
-342.377	-200.000	-0.050	-0.404
-341.362	-113.356	0.237	-0.047
-340.348	-90.606	0.103	0.030
-339.333	-43.269	0.336	-0.170
-338.318	-6.318	0.060	0.041
-337.304	295.761	0.029	-0.053
-336.289	-68.659	0.133	0.052
-335.275	126.561	0.056	-0.071
-334.260	58.053	-0.085	0.083
-333.245	-200.000	0.004	0.048
-332.231	-144.472	-0.106	-0.010
-331.216	664.457	-0.086	0.222
-330.202	-0.133	0.294	-0.210
-329.187	-128.658	0.156	-0.022
-328.172	-200.000	-0.036	-0.181
-327.158	539.244	0.088	0.209
-326.143	800.000	0.116	0.430
-325.129	191.273	-0.154	0.233
-324.114	202.746	0.282	0.436
-323.099	403.273	0.089	-0.187
-322.085	-200.000	0.038	-0.357
-321.070	-63.277	0.357	0.147
-320.056	-144.642	0.257	-0.024
-319.041	-80.472	-0.335	0.112
-318.026	-49.656	0.136	0.065
-317.012	-182.304	-0.208	0.004
-315.997	-32.637	0.145	0.081
-314.983	-93.141	-0.423	-0.118
-313.968	-200.000	0.024	-0.278
-312.953	627.020	0.096	-0.243
-311.939	82.668	0.190	0.206
-310.924	800.000	0.159	0.460
-309.910	-200.000	-0.017	-0.245
-308.895	115.867	0.010	-0.012
-307.880	800.000	0.035	0.126
-306.866	96.658	-0.121	-0.138
-305.851	42.520	-0.070	-0.064
-304.837	-51.971	-0.227	0.106
-303.822	5.932	-0.233	-0.172
-302.807	800.000	-0.081	0.245
-301.793	-146.550	0.358	-0.031
-300.778	-72.037	0.170	-0.063
-299.764	-33.140	0.348	-0.193
-298.749	-200.000	-0.005	-0.099
-297.735	-19.948	-0.126	-0.078
-296.720	-159.903	0.033	0.002
-295.705	15.379	-0.156	0.123
-294.691	13.335	0.184	0.142
-293.676	-22.687	-0.197	-0.119
-292.662	-186.559	0.209	0.003
-291.647	446.781	-0.212	0.466
-290.632	224.850	-0.032	0.052
-289.618	269.966	-0.121	-0.212
-288.603	-135.427	-0.292	-0.035
-287.589	800.000	0.036	-0.147
-286.574	792.946	-0.115	0.316
-285.559	-200.000	0.005	0.106
-284.545	42.411	0.135	0.123
-283.530	121.739	0.149	0.185
-282.516	-76.153	0.118	0.041
-281.501	-200.000	0.029	0.143
-280.486	800.000	0.059	-0.174
-279.472	-57.340	0.080	-0.035
-278.457	-200.000	0.014	0.179
-277.443	179.948	0.122	0.178
-276.428	449.321	0.096	0.211
-275.413	294.472	-0.055	-0.101
-274.399	72.528	0.272	0.284
-273.384	148.024	0.277	0.373
-272.370	-41.175	-0.215	-0.111
-271.355	48.163	0.244	0.228
-270.340	503.065	-0.038	0.087
-269.326	315.852	-0.100	-0.188
-268.311	-84.820	0.242	-0.076
-267.297	800.000	-0.077	-0.242
-266.282	199.419	-0.152	0.233
-265.267	-118.061	-0.165	0.029
-264.253	97.408	-0.203	-0.233
-263.238	-162.207	0.054	-0.003
-262.224	-94.301	0.226	0.062
-261.209	176.113	-0.090	-0.130
-260.195	-150.481	0.099	0.008
-259.180	800.000	0.010	0.027
-258.165	-200.000	-0.036	0.572
-257.151	-126.798	0.176	0.026
-256.136	-200.000	-0.023	-0.572
-255.122	141.799	0.148	-0.195
-254.107	800.000	0.065	-0.232
-253.092	800.000	0.104	0.307
-252.078	-156.972	0.173	0.011
-251.063	-123.328	-0.431	-0.069
-250.049	-200.000	-0.007	0.113
-249.034	144.858	0.018	0.024
-248.019	198.865	-0.229	-0.349
-247.005	-72.061	0.209	-0.077
-245.990	-58.754	0.138	-0.060
-244.976	-200.000	0.010	-0.210
-243.961	-107.402	0.309	-0.068
-242.946	-98.944	-0.262	0.066
-241.932	800.000	0.059	-0.216
-240.917	-125.147	0.114	-0.017
-239.903	-34.376	0.129	0.071
-238.888	121.569	-0.252	-0.314
-237.873	-56.550	0.130	-0.057
-236.859	210.621	0.079	-0.123
-235.844	-40.390	-0.130	0.067
-234.830	-200.000	-0.008	0.039
-233.815	-200.000	-0.011	-0.265
-232.800	-200.000	0.029	-0.150
-231.786	-200.000	-0.036	-0.188
-230.771	-128.640	0.231	0.033
-229.757	-50.915	-0.248	0.116
-228.742	549.105	0.165	-0.395
-227.727	432.697	-0.170	0.368
-226.713	91.167	0.018	0.020
-225.698	-200.000	0.057	-0.407
-224.684	-16.387	-0.194	-0.123
-223.669	-200.000	-0.002	0.074
-222.655	97.154	-0.315	-0.360
-221.640	-99.230	0.178	-0.045
-220.625	603.070	-0.051	0.126
-219.611	800.000	-0.061	-0.169
-218.596	420.091	0.051	-0.108
-217.582	-200.000	-0.007	0.209
-216.567	-84.492	0.233	0.073
-215.552	13.497	0.119	0.092
-214.538	-200.000	0.032	-0.150
-213.523	74.562	-0.162	-0.170
-212.509	269.638	0.171	0.299
-211.494	72.708	0.205	-0.213
-210.479	47.889	-0.192	0.179
-209.465	63.202	0.117	0.117
-208.450	-86.942	0.222	0.067
-207.436	0.242	-0.214	-0.152
-206.421	-159.141	-0.134	0.008
-205.406	800.000	0.068	0.197
-204.392	-72.757	-0.229	0.084
-203.377	-200.000	-0.035	0.324
-202.363	800.000	0.139	-0.408
-201.348	-30.791	0.235	-0.132
-200.333	-185.579	-0.160	-0.002
-199.319	-75.945	-0.059	0.021
-198.304	-43.026	0.224	-0.113
-197.290	-63.316	-0.135	0.055
-196.275	180.966	0.094	0.138
-195.260	260.296	0.140	0.241
-194.246	84.474	0.087	0.095
-193.231	-200.000	0.004	0.063
-192.217	-200.000	0.005	-0.108
-191.202	89.189	-0.082	-0.090
-190.187	-47.827	0.249	0.120
-189.173	-200.000	0.024	-0.252
-188.158	-200.000	-0.002	-0.200
-187.144	254.590	0.088	-0.150
-186.129	208.066	-0.067	-0.104
-185.114	98.733	0.261	0.299
-184.100	274.312	0.150	0.265
-183.085	-185.366	0.292	0.004
-182.071	-104.895	0.150	0.034
-181.056	373.987	-0.044	0.090
-180.042	157.686	-0.072	-0.099
-179.027	71.267	0.025	-0.026
-178.012	-49.706	0.091	0.043
-176.998	525.717	0.039	0.092
-175.983	-75.867	-0.152	0.054
-174.969	-200.000	-0.211	0.000
-173.954	-200.000	0.041	0.202
-172.939	489.352	-0.050	0.114
-171.925	800.000	-0.089	-0.331
-170.910	313.764	0.074	0.138
-169.896	-9.913	-0.186	-0.123
-168.881	-87.308	0.074	0.022
-167.866	-200.000	0.001	-0.043
-166.852	-54.590	0.168	-0.076
-165.837	-200.000	0.063	0.290
-164.823	197.994	0.123	0.188
-163.808	326.691	0.050	0.094
-162.793	-71.157	-0.150	-0.056
-161.779	-25.701	0.213	-0.125
-160.764	123.159	0.117	-0.145
-159.750	15.053	0.158	0.123
-158.735	800.000	-0.095	-0.351
-157.720	12.034	-0.209	-0.159
-156.706	49.959	0.056	0.053
-155.691	-200.000	0.043	0.463
-154.677	51.400	0.195	-0.184
-153.662	28.119	0.307	-0.258
-152.647	-78.592	0.248	-0.084
-151.633	139.774	0.180	-0.236
-150.618	266.709	0.224	0.389
-149.604	280.720	0.276	0.490
-148.589	-150.876	-0.241	0.018
-147.574	-161.055	0.258	-0.013
-146.560	319.885	0.086	-0.162
-145.545	62.694	-0.052	0.052
-144.531	-200.000	0.041	0.180
-143.516	-8.141	0.201	-0.135
-142.502	-200.000	-0.066	0.330
-141.487	-200.000	0.006	-0.063
-140.472	166.665	-0.172	-0.243
-139.458	-122.120	0.775	0.126
-138.443	63.451	0.223	0.222
-137.429	-148.204	-0.025	0.002
-136.414	761.289	0.091	-0.246
-135.399	105.522	-0.188	-0.220
-134.385	-136.986	0.374	-0.042
-133.370	-200.000	0.036	-0.426
-132.356	78.743	0.234	0.248
-131.341	-4.527	-0.318	-0.218
-130.326	-45.404	-0.090	0.044
-129.312	-146.303	-0.234	-0.020
-128.297	-200.000	-0.029	-0.147
-127.283	-113.538	0.204	-0.040
-126.268	377.524	-0.059	0.119
-125.253	191.763	0.054	-0.080
-124.239	117.443	0.248	0.303
-123.224	-53.118	-0.104	0.047
-122.210	800.000	0.064	0.275
-121.195	-19.055	0.128	0.079
