DTS Sentinel unit serial number:	SN413079Multiplexer serial number:	ORYXHardware model number:	OX4-SRSoftware version number:	ORYX F/W v4.00 Oryx Data Collector v3.7.2.0data status	okinstallation	princeton_trtdifferential loss correction	single-endedforward channel	channel 1reverse channel	N/Adate	2019/09/11time	23:48:11forward acquisition time	60.00reverse acquisition time	0.00gamma	496.2192k internal	0.2319k external	0.2319temperature offset calibration	1.0074default loss term (dB/km)	0.3790temperature slope calibration	1.0000multiplexer offset coefficient	1.0000multiplexer slope coefficient	1.0000fibre end	0.00T internal ref (°C)	33.94T ext. ref 1 (°C)	1.98T ext. ref 2 (°C)	27.28length (m)	temperature (°C)	Stokes	anti-Stokes-747.200	197.902	0.176	0.273
-746.185	19.541	0.150	0.122
-745.171	-38.473	-0.123	0.066
-744.156	-125.898	-0.357	0.054
-743.142	17.098	-0.145	-0.117
-742.127	45.600	-0.118	0.110
-741.112	-44.703	-0.235	0.119
-740.098	358.286	-0.050	0.101
-739.083	64.806	-0.225	0.230
-738.069	-23.389	0.202	0.123
-737.054	-123.423	0.369	0.059
-736.039	-107.277	-0.187	-0.042
-735.025	-88.487	0.362	-0.109
-734.010	3.411	-0.336	0.248
-732.996	7.915	-0.082	-0.062
-731.981	-75.159	-0.298	-0.108
-730.966	-46.409	0.249	-0.123
-729.952	-159.074	0.061	0.003
-728.937	-162.384	-0.314	0.016
-727.923	60.422	-0.062	-0.062
-726.908	23.077	0.214	0.177
-725.894	198.589	0.170	0.263
-724.879	64.222	-0.144	-0.146
-723.864	800.000	-0.066	-0.250
-722.850	379.026	0.067	-0.139
-721.835	-146.793	-0.147	-0.013
-720.821	24.868	0.105	-0.088
-719.806	-103.855	0.286	-0.068
-718.791	-59.958	0.145	-0.063
-717.777	-71.875	0.399	0.150
-716.762	-82.868	-0.224	-0.073
-715.748	-131.008	-0.051	0.007
-714.733	36.595	-0.124	0.111
-713.718	76.239	-0.223	-0.239
-712.704	-200.000	-0.005	0.156
-711.689	746.162	-0.058	0.157
-710.675	-65.133	-0.163	0.066
-709.660	-82.214	0.177	-0.058
-708.645	85.032	0.344	-0.382
-707.631	74.743	0.170	0.181
-706.616	-200.000	-0.020	-0.221
-705.602	193.300	-0.157	0.239
-704.587	-200.000	0.015	-0.182
-703.572	288.871	0.180	-0.329
-702.558	-160.304	-0.541	-0.030
-701.543	-47.388	0.278	0.137
-700.529	140.633	-0.130	-0.173
-699.514	222.598	0.134	-0.219
-698.499	516.608	0.137	-0.323
-697.485	-160.888	-0.325	-0.017
-696.470	-146.604	0.142	-0.012
-695.456	462.364	-0.133	0.300
-694.441	-22.396	0.128	0.078
-693.426	-69.962	-0.130	-0.050
-692.412	46.857	-0.213	0.200
-691.397	450.280	-0.157	0.350
-690.383	701.851	-0.125	-0.333
-689.368	197.779	0.152	-0.235
-688.354	181.534	0.082	-0.121
-687.339	-200.000	0.010	-0.248
-686.324	111.587	-0.097	0.118
-685.310	104.784	-0.258	-0.307
-684.295	-36.163	0.251	0.137
-683.281	370.250	-0.176	0.360
-682.266	540.821	-0.084	-0.201
-681.251	-57.022	-0.489	0.218
-680.237	-172.192	0.273	-0.009
-679.222	-184.898	-0.356	0.006
-678.208	800.000	-0.047	-0.199
-677.193	19.082	-0.222	-0.179
-676.178	-180.653	0.648	0.013
-675.164	316.825	0.070	0.134
-674.149	-71.571	-0.121	0.046
-673.135	-120.097	0.215	0.037
-672.120	246.858	-0.210	0.358
-671.105	19.826	-0.183	-0.149
-670.091	22.295	0.047	-0.039
-669.076	-5.547	0.042	-0.029
-668.062	-129.766	-0.244	0.034
-667.047	-137.603	0.164	0.019
-666.032	-200.000	0.025	0.439
-665.018	484.131	0.082	-0.188
-664.003	-159.543	0.415	-0.023
-662.989	182.864	-0.073	0.109
-661.974	47.425	-0.080	0.075
-660.959	-43.970	0.147	0.075
-659.945	-11.464	-0.308	0.205
-658.930	225.942	-0.110	0.180
-657.916	28.137	0.177	0.150
-656.901	572.818	0.135	0.332
-655.886	296.719	-0.056	-0.103
-654.872	-200.000	0.057	-0.303
-653.857	-178.376	-0.204	0.005
-652.843	22.371	-0.092	0.076
-651.828	-87.457	-0.248	0.076
-650.814	187.889	0.045	0.067
-649.799	62.648	-0.137	-0.138
-648.784	-157.770	0.112	0.007
-647.770	517.446	0.037	0.087
-646.755	307.722	0.221	0.416
-645.741	-200.000	-0.005	-0.073
-644.726	-95.241	0.094	0.026
-643.711	68.421	0.077	-0.080
-642.697	-160.724	-0.135	-0.007
-641.682	37.970	0.247	-0.221
-640.668	-128.988	0.129	0.018
-639.653	49.509	0.112	-0.106
-638.638	-42.605	0.066	-0.034
-637.624	-200.000	-0.019	-0.147
-636.609	-58.037	0.189	-0.083
-635.595	58.909	-0.051	0.050
-634.580	78.869	0.259	0.280
-633.565	-200.000	-0.000	0.048
-632.551	-200.000	0.093	-0.000
-631.536	77.392	-0.234	0.250
-630.522	4.875	-0.042	0.031
-629.507	-58.757	0.161	0.070
-628.492	129.800	-0.146	0.188
-627.478	35.112	0.068	-0.060
-626.463	-114.172	0.172	0.033
-625.449	-118.087	0.102	0.018
-624.434	121.370	-0.131	0.165
-623.419	102.721	-0.220	-0.259
-622.405	-194.953	-0.166	-0.001
-621.390	498.163	-0.070	0.163
-620.376	428.194	-0.117	-0.255
-619.361	61.209	0.130	-0.130
-618.346	-200.000	0.000	0.100
-617.332	-14.693	-0.022	-0.014
-616.317	7.089	-0.062	0.047
-615.303	19.981	-0.195	-0.158
-614.288	800.000	-0.056	-0.201
-613.273	-154.191	0.276	0.019
-612.259	800.000	-0.115	0.385
-611.244	-156.611	-0.191	0.012
-610.230	800.000	0.093	0.331
-609.215	-200.000	0.038	0.189
-608.201	5.305	-0.190	-0.141
-607.186	24.861	-0.241	-0.201
-606.171	-73.810	-0.312	-0.114
-605.157	-94.635	-0.269	-0.074
-604.142	800.000	-0.039	-0.139
-603.128	340.214	-0.153	0.300
-602.113	41.791	-0.162	0.148
-601.098	800.000	-0.052	-0.218
-600.084	52.277	0.184	-0.176
-599.069	-110.813	-0.406	0.084
-598.055	674.367	0.045	0.119
-597.040	-27.258	-0.177	-0.104
-596.025	715.582	-0.076	-0.203
-595.011	-122.687	-0.167	-0.027
-593.996	12.101	0.092	0.071
-592.982	-86.288	-0.328	0.101
-591.967	79.154	-0.311	-0.335
-590.952	800.000	-0.064	0.210
-589.938	29.343	-0.210	0.180
-588.923	800.000	0.047	0.144
-587.909	143.032	0.192	-0.257
-586.894	-182.028	0.119	0.002
-585.879	-83.274	-0.148	-0.048
-584.865	431.008	0.075	0.162
-583.850	-48.724	-0.086	-0.042
-582.836	81.184	-0.159	-0.173
-581.821	-200.000	0.006	0.152
-580.806	-73.631	-0.049	-0.018
-579.792	800.000	-0.097	-0.313
-578.777	-200.000	-0.088	-0.389
-577.763	-200.000	0.006	0.159
-576.748	800.000	0.139	-0.442
-575.733	11.311	0.169	-0.130
-574.719	-200.000	-0.002	-0.070
-573.704	-45.956	0.183	-0.091
-572.690	-54.715	0.271	-0.123
-571.675	-87.186	0.277	0.085
-570.661	800.000	0.023	0.084
-569.646	118.507	0.212	-0.263
-568.631	82.542	-0.233	-0.254
-567.617	202.739	-0.160	0.248
-566.602	-111.226	0.264	0.054
-565.588	-115.336	0.319	0.060
-564.573	-102.177	0.101	-0.024
-563.558	-59.981	-0.288	0.124
-562.544	-128.503	-0.209	-0.030
-561.529	-50.114	-0.132	-0.063
-560.515	-165.442	0.146	0.006
-559.500	-105.741	-0.359	0.082
-558.485	41.283	0.230	0.209
-557.471	280.460	0.030	0.054
-556.456	61.856	0.048	-0.048
-555.442	-8.420	-0.141	-0.095
-554.427	7.635	0.396	0.298
-553.412	-67.030	-0.206	0.082
-552.398	337.306	0.089	0.173
-551.383	-168.197	-0.390	0.015
-550.369	-151.281	-0.117	0.009
-549.354	22.837	0.182	0.150
-548.339	20.651	-0.238	-0.193
-547.325	310.560	0.264	-0.496
-546.310	-6.373	0.112	-0.077
-545.296	-27.238	-0.041	0.024
-544.281	-163.779	-0.346	-0.016
-543.266	202.418	0.020	0.031
-542.252	52.905	0.038	0.037
-541.237	-34.867	-0.190	-0.104
-540.223	-200.000	-0.042	0.271
-539.208	-200.000	-0.004	-0.276
-538.193	207.056	-0.018	-0.028
-537.179	53.763	0.144	-0.139
-536.164	-177.008	0.234	-0.006
-535.150	350.999	-0.092	-0.183
-534.135	-143.597	-0.340	-0.032
-533.121	188.863	-0.131	0.197
-532.106	95.637	-0.120	-0.137
-531.091	-200.000	-0.024	0.132
-530.077	-141.769	0.309	-0.031
-529.062	163.611	-0.134	0.188
-528.048	-127.377	0.147	0.021
-527.033	141.233	-0.226	-0.299
-526.018	46.281	-0.210	0.195
-525.004	4.848	0.221	0.163
-523.989	-155.413	0.296	0.019
-522.975	800.000	0.030	-0.131
-521.960	218.956	0.142	0.228
-520.945	-126.374	-0.099	0.015
-519.931	800.000	0.040	0.154
-518.916	-147.615	0.273	0.023
-517.902	-200.000	-0.018	-0.236
-516.887	-98.071	-0.181	0.047
-515.872	-181.417	0.239	-0.005
-514.858	154.309	0.165	-0.227
-513.843	623.864	0.086	0.217
-512.829	182.911	0.175	-0.259
-511.814	189.456	-0.126	0.189
-510.799	255.922	0.060	0.103
-509.785	-15.004	0.146	0.094
-508.770	-121.701	-0.074	0.012
-507.756	-200.000	0.017	0.404
-506.741	-200.000	-0.058	-0.346
-505.726	800.000	0.115	-0.418
-504.712	37.376	-0.061	0.054
-503.697	-106.025	-0.262	-0.059
-502.683	-135.627	0.230	0.027
-501.668	-159.556	-0.522	-0.029
-500.653	32.262	0.143	0.124
-499.639	800.000	-0.040	0.138
-498.624	-200.000	-0.014	0.112
-497.610	-14.289	0.108	-0.070
-496.595	185.039	-0.191	-0.285
-495.581	45.173	-0.167	-0.154
-494.566	800.000	0.021	-0.078
-493.551	800.000	0.074	-0.266
-492.537	-0.426	0.122	-0.087
-491.522	22.345	-0.235	-0.192
-490.508	105.515	-0.205	0.243
-489.493	-200.000	-0.013	-0.468
-488.478	-200.000	-0.075	-0.390
-487.464	387.175	0.170	0.351
-486.449	373.744	0.063	-0.129
-485.435	338.068	0.060	0.117
-484.420	-69.557	-0.459	-0.176
-483.405	-96.623	-0.038	-0.010
-482.391	13.142	0.209	0.162
-481.376	-200.000	0.002	-0.208
-480.362	212.339	-0.214	0.338
-479.347	-72.710	-0.235	0.087
-478.332	589.775	-0.049	0.122
-477.318	800.000	-0.081	-0.343
-476.303	-18.936	-0.118	-0.074
-475.289	-132.713	-0.315	-0.040
-474.274	-36.128	0.091	-0.049
-473.259	-200.000	0.007	-0.034
-472.245	73.597	0.076	-0.080
-471.230	800.000	0.091	-0.343
-470.216	-123.030	-0.053	0.009
-469.201	70.067	-0.142	0.147
-468.186	-200.000	-0.034	0.202
-467.172	-156.345	0.042	-0.003
-466.157	91.856	0.231	0.260
-465.143	205.033	0.123	-0.191
-464.128	-74.199	-0.134	-0.049
-463.113	192.882	0.228	-0.345
-462.099	104.623	0.010	0.011
-461.084	-105.945	-0.075	0.017
-460.070	-200.000	0.060	-0.372
-459.055	340.104	0.131	-0.256
-458.040	70.237	0.208	-0.215
-457.026	280.975	0.131	-0.234
-456.011	-116.274	0.290	-0.054
-454.997	39.841	-0.127	0.114
-453.982	-92.925	0.288	0.081
-452.968	800.000	0.049	-0.171
-451.953	-26.873	0.190	-0.111
-450.938	-65.203	-0.129	0.052
-449.924	214.720	-0.118	0.187
-448.909	800.000	-0.059	0.190
-447.895	594.656	0.138	-0.340
-446.880	-169.093	0.111	-0.004
-445.865	489.792	-0.082	0.187
-444.851	164.411	-0.076	-0.107
-443.836	212.388	0.171	0.270
-442.822	-200.000	0.001	-0.135
-441.807	-200.000	-0.033	-0.381
-440.792	78.324	0.081	0.086
-439.778	268.009	-0.142	-0.249
-438.763	182.706	0.081	-0.119
-437.749	-13.226	0.315	0.204
-436.734	-104.165	0.338	0.079
-435.719	-92.160	-0.201	-0.057
-434.705	146.086	-0.065	-0.087
-433.690	-98.021	-0.193	-0.050
-432.676	158.209	0.206	0.286
-431.661	-200.000	0.001	-0.202
-430.646	-113.348	0.279	0.055
-429.632	1.051	-0.333	-0.239
-428.617	37.577	0.366	-0.324
-427.603	231.637	-0.092	-0.151
-426.588	-76.003	0.161	0.057
-425.573	800.000	0.052	-0.221
-424.559	-26.254	0.256	-0.150
-423.544	-56.496	-0.200	-0.089
-422.530	800.000	-0.048	-0.199
-421.515	667.938	0.044	0.114
-420.500	-19.246	-0.283	0.176
-419.486	-93.168	-0.224	-0.062
-418.471	165.339	-0.028	-0.039
-417.457	800.000	-0.046	-0.140
-416.442	-130.005	0.043	-0.006
-415.428	-180.390	-0.217	0.005
-414.413	18.518	0.089	-0.071
-413.398	-42.922	0.156	0.079
-412.384	-82.890	0.310	-0.100
-411.369	-200.000	0.011	-0.094
-410.355	141.531	0.115	0.151
-409.340	800.000	0.077	-0.298
-408.325	148.599	0.066	-0.089
-407.311	-154.350	-0.247	-0.017
-406.296	215.661	-0.180	0.285
-405.282	-26.210	0.066	-0.039
-404.267	-11.606	0.241	0.158
-403.252	-106.813	0.099	-0.022
-402.238	128.016	0.160	-0.203
-401.223	368.829	-0.105	0.212
-400.209	370.110	0.064	-0.130
-399.194	322.491	-0.089	-0.169
-398.179	-93.081	-0.295	0.082
-397.165	741.999	-0.043	0.115
-396.150	-200.000	0.036	0.189
-395.136	-200.000	-0.012	-0.217
-394.121	65.029	-0.148	-0.149
-393.106	-101.685	0.283	0.068
-392.092	-200.000	-0.009	0.206
-391.077	626.374	0.047	0.120
-390.063	-40.567	-0.146	0.076
-389.048	-12.013	-0.338	0.221
-388.033	-77.684	0.296	0.102
-387.019	297.531	-0.063	0.116
-386.004	-38.283	-0.068	0.036
-384.990	46.790	0.174	0.161
-383.975	-115.759	0.131	0.024
-382.960	-46.597	-0.079	0.039
-381.946	189.897	0.189	0.283
-380.931	-164.535	-0.369	-0.017
-379.917	-11.784	0.289	0.190
-378.902	800.000	-0.032	0.110
-377.888	-200.000	-0.004	-0.148
-376.873	164.184	-0.187	0.262
-375.858	25.390	-0.221	-0.183
-374.844	-200.000	-0.003	0.025
-373.829	-200.000	-0.045	-0.301
-372.815	-4.966	-0.055	0.038
-371.800	-145.370	-0.313	-0.028
-370.785	800.000	0.051	0.163
-369.771	-0.440	-0.173	-0.122
-368.756	16.750	-0.127	-0.100
-367.742	-200.000	-0.037	-0.172
-366.727	-200.000	-0.012	-0.153
-365.712	800.000	-0.008	0.031
-364.698	422.261	-0.053	-0.114
-363.683	-29.356	-0.129	-0.074
-362.669	-200.000	-0.042	0.202
-361.654	800.000	-0.094	0.396
-360.639	72.151	-0.096	-0.099
-359.625	-200.000	0.051	0.229
-358.610	306.276	-0.058	-0.108
-357.596	178.556	0.185	-0.269
-356.581	-66.360	0.618	-0.245
-355.566	147.043	0.047	0.064
-354.552	-78.631	-0.012	-0.004
-353.537	121.260	0.099	0.122
-352.523	-200.000	0.016	0.220
-351.508	205.909	-0.076	0.118
-350.493	703.260	-0.108	-0.284
-349.479	-55.379	-0.041	0.018
-348.464	181.529	0.058	0.084
-347.450	-200.000	0.010	0.192
-346.435	-200.000	0.042	-0.194
-345.420	-58.454	0.182	0.079
-344.406	-52.770	0.199	0.091
-343.391	800.000	0.052	0.216
-342.377	-28.975	-0.115	-0.066
-341.362	-120.448	-0.167	-0.028
-340.348	-48.751	0.062	-0.030
-339.333	-126.454	0.269	0.040
-338.318	-199.635	0.223	-0.001
-337.304	212.949	0.069	-0.108
-336.289	-52.768	0.428	-0.196
-335.275	130.942	-0.260	-0.332
-334.260	138.223	-0.121	-0.158
-333.245	-91.831	0.137	0.039
-332.231	-52.750	-0.205	-0.094
-331.216	180.036	-0.082	0.120
-330.202	800.000	0.048	0.137
-329.187	-164.515	-0.276	0.013
-328.172	420.248	-0.139	0.296
-327.158	-43.667	-0.124	0.062
-326.143	-108.221	-0.329	-0.071
-325.129	-200.000	-0.024	0.178
-324.114	710.193	0.118	0.310
-323.099	111.891	0.201	0.241
-322.085	118.975	0.240	0.295
-321.070	-41.112	-0.226	0.116
-320.056	208.323	0.111	0.173
-319.041	-200.000	0.028	0.246
-318.026	-120.209	0.113	0.019
-317.012	-14.649	0.199	0.127
-315.997	61.466	0.063	0.062
-314.983	-107.458	0.402	0.088
-313.968	-79.907	0.200	0.067
-312.953	800.000	-0.092	0.304
-311.939	-200.000	0.027	0.353
-310.924	800.000	0.032	0.135
-309.910	800.000	0.092	-0.277
-308.895	-200.000	-0.032	0.217
-307.880	-200.000	-0.058	-0.456
-306.866	694.057	0.074	0.194
-305.851	800.000	-0.063	0.249
-304.837	44.037	-0.058	0.052
-303.822	-149.370	0.251	-0.020
-302.807	289.741	-0.063	-0.114
-301.793	31.346	-0.040	-0.034
-300.778	-200.000	0.017	-0.116
-299.764	-58.942	-0.152	-0.065
-298.749	-75.926	0.116	-0.041
-297.735	800.000	-0.072	0.227
-296.720	4.332	-0.082	0.060
-295.705	750.585	0.082	0.220
-294.691	38.146	0.190	0.168
-293.676	112.137	-0.093	0.112
-292.662	65.480	0.091	0.092
-291.647	566.810	-0.179	0.432
-290.632	582.965	-0.131	0.321
-289.618	106.430	-0.180	-0.212
-288.603	427.274	-0.017	-0.037
-287.589	-122.185	-0.221	-0.036
-286.574	-188.192	0.372	-0.005
-285.559	7.019	-0.280	0.207
-284.545	-111.539	0.304	0.061
-283.530	-100.243	-0.120	0.030
-282.516	313.423	-0.084	0.158
-281.501	-200.000	-0.018	0.146
-280.486	130.054	-0.031	-0.040
-279.472	-79.538	-0.193	0.065
-278.457	-200.000	0.005	0.148
-277.443	162.678	0.050	0.069
-276.428	-200.000	0.042	0.361
-275.413	1.378	0.361	0.258
-274.399	-125.116	0.144	0.022
-273.384	-130.269	0.205	0.028
-272.370	-161.506	-0.118	-0.006
-271.355	-11.852	-0.080	-0.052
-270.340	455.320	0.197	0.434
-269.326	-53.662	0.211	-0.096
-268.311	-200.000	0.033	0.150
-267.297	-139.576	-0.262	-0.028
-266.282	212.973	-0.045	0.070
-265.267	134.772	-0.024	0.030
-264.253	160.747	0.018	0.024
-263.238	-126.925	0.448	0.066
-262.224	-46.210	-0.312	0.152
-261.209	398.613	0.039	0.082
-260.195	200.252	0.083	0.127
-259.180	270.914	0.036	-0.062
-258.165	592.087	0.141	0.345
-257.151	196.792	0.177	0.267
-256.136	800.000	-0.014	0.054
-255.122	-0.518	-0.113	0.079
-254.107	3.082	0.075	0.054
-253.092	-56.565	-0.095	-0.042
-252.078	106.321	0.159	0.187
-251.063	220.764	0.087	0.139
-250.049	-200.000	0.002	0.286
-249.034	2.642	-0.151	0.108
-248.019	-156.824	-0.072	-0.004
-247.005	-63.495	-0.352	-0.143
-245.990	-86.540	-0.157	0.048
-244.976	155.007	0.169	-0.231
-243.961	-67.108	-0.363	0.142
-242.946	-22.884	0.249	-0.149
-241.932	-69.130	-0.032	0.012
-240.917	-2.545	0.228	0.159
-239.903	47.788	0.265	-0.246
-238.888	42.932	-0.127	0.115
-237.873	-115.932	0.353	-0.065
-236.859	-115.662	-0.183	0.034
-235.844	800.000	0.075	-0.253
-234.830	81.183	0.172	0.184
-233.815	267.434	-0.102	-0.177
-232.800	-200.000	0.035	0.313
-231.786	-159.398	-0.262	-0.015
-230.771	-141.996	-0.082	-0.008
-229.757	-125.706	0.236	0.035
-228.742	101.243	0.039	0.045
-227.727	67.981	-0.176	-0.179
-226.713	-52.662	0.297	0.136
-225.698	-93.956	-0.245	-0.067
-224.684	-105.717	0.203	0.045
-223.669	-200.000	0.012	0.221
-222.655	185.524	0.089	-0.130
-221.640	-200.000	0.025	-0.218
-220.625	24.542	-0.323	-0.265
-219.611	345.792	0.103	0.200
-218.596	-200.000	0.024	-0.260
-217.582	-61.835	0.164	-0.068
-216.567	-57.572	-0.133	-0.058
-215.552	-14.664	-0.166	-0.106
-214.538	800.000	0.087	-0.266
-213.523	459.740	-0.125	0.275
-212.509	111.622	0.111	-0.133
-211.494	-45.205	-0.116	0.057
-210.479	402.347	0.037	0.078
-209.465	127.038	-0.296	0.372
-208.450	43.602	0.073	-0.066
-207.436	-200.000	-0.020	-0.100
-206.421	300.711	0.137	-0.250
-205.406	800.000	0.034	-0.136
-204.392	800.000	0.082	0.264
-203.377	-131.408	-0.174	0.023
-202.363	341.887	0.133	0.257
-201.348	57.925	0.102	-0.099
-200.333	10.068	0.273	-0.205
-199.319	-200.000	-0.003	-0.151
-198.304	239.306	-0.218	-0.359
-197.290	344.741	0.178	-0.347
-196.275	618.831	-0.129	-0.321
-195.260	-168.381	-0.288	-0.011
-194.246	-200.000	0.017	0.302
-193.231	-200.000	0.013	-0.144
-192.217	298.641	-0.085	0.155
-191.202	-89.836	0.176	-0.051
-190.187	7.193	0.224	-0.165
-189.173	-40.132	-0.263	-0.136
-188.158	23.210	0.363	0.295
-187.144	800.000	0.097	-0.280
-186.129	191.238	-0.108	-0.161
-185.114	-69.317	-0.154	0.058
-184.100	-200.000	-0.004	0.246
-183.085	9.814	-0.204	-0.153
-182.071	466.260	0.015	0.033
-181.056	-123.232	-0.211	0.033
-180.042	135.277	0.221	0.285
-179.027	76.138	0.052	0.055
-178.012	-29.979	-0.163	0.092
-176.998	-117.894	0.238	-0.042
-175.983	-169.365	-0.170	-0.006
-174.969	274.997	-0.034	-0.059
-173.954	-91.221	0.291	-0.082
-172.939	-200.000	-0.027	0.139
-171.925	-110.030	0.157	0.033
-170.910	800.000	-0.072	-0.238
-169.896	19.240	-0.141	0.112
-168.881	178.482	0.135	-0.194
-167.866	-200.000	-0.016	-0.340
-166.852	386.000	-0.109	-0.223
-165.837	178.747	0.197	0.285
-164.823	-52.551	-0.052	0.024
-163.808	-200.000	0.035	-0.426
-162.793	52.536	-0.192	-0.181
-161.779	-108.802	-0.197	-0.042
-160.764	800.000	0.070	-0.236
-159.750	-93.699	0.160	0.044
-158.735	-140.873	-0.256	-0.026
-157.720	505.446	-0.045	0.104
-156.706	-200.000	-0.011	-0.252
-155.691	-200.000	-0.026	0.144
-154.677	-200.000	0.003	-0.058
-153.662	-88.560	-0.165	-0.049
-152.647	800.000	0.067	-0.189
-151.633	-92.270	-0.194	0.054
-150.618	-124.389	-0.100	0.015
-149.604	84.594	-0.170	0.184
-148.589	-200.000	0.013	-0.185
-147.574	800.000	-0.127	0.427
-146.560	-34.033	-0.143	0.078
-145.545	154.285	0.082	-0.111
-144.531	-51.882	-0.141	-0.065
-143.516	108.461	0.225	0.266
-142.502	-7.942	0.122	-0.081
-141.487	606.565	-0.113	0.278
-140.472	-32.326	0.058	0.032
-139.458	-200.000	0.005	-0.505
-138.443	-13.714	0.078	0.050
-137.429	-22.485	-0.212	0.127
-136.414	81.024	0.021	-0.022
-135.399	-67.865	0.125	0.048
-134.385	-173.384	-0.021	0.001
-133.370	-200.000	-0.033	0.296
-132.356	156.750	0.156	-0.213
-131.341	-15.532	0.163	0.103
-130.326	-146.539	0.294	0.025
-129.312	-117.748	0.323	0.057
-128.297	65.274	0.102	-0.102
-127.283	151.590	-0.077	-0.104
-126.268	-34.979	-0.255	0.137
-125.253	-200.000	0.012	0.070
-124.239	76.088	0.244	-0.255
-123.224	276.967	-0.090	-0.158
-122.210	-117.229	-0.039	0.007
-121.195	-9.840	0.339	0.222
-120.180	-23.821	0.140	0.083
