DTS Sentinel unit serial number:	SN413079Multiplexer serial number:	ORYXHardware model number:	OX4-SRSoftware version number:	ORYX F/W v4.00 Oryx Data Collector v3.7.2.0data status	okinstallation	princeton_trtdifferential loss correction	single-endedforward channel	channel 1reverse channel	N/Adate	2019/09/19time	13:06:35forward acquisition time	60.00reverse acquisition time	0.00gamma	496.2192k internal	0.2328k external	0.2328temperature offset calibration	1.0011default loss term (dB/km)	0.3790temperature slope calibration	1.0000multiplexer offset coefficient	1.0000multiplexer slope coefficient	1.0000fibre end	0.00T internal ref (°C)	28.95T ext. ref 1 (°C)	0.93T ext. ref 2 (°C)	26.92length (m)	temperature (°C)	Stokes	anti-Stokes-747.200	95.239	0.074	-0.085
-746.185	-25.232	-0.207	0.124
-745.171	438.176	-0.211	0.464
-744.156	619.036	0.092	0.232
-743.142	264.493	0.180	0.316
-742.127	800.000	-0.054	0.188
-741.112	-200.000	0.043	0.302
-740.098	-167.420	-0.122	0.005
-739.083	800.000	-0.033	-0.096
-738.069	-200.000	0.055	0.294
-737.054	-115.785	0.098	0.019
-736.039	-200.000	0.036	-0.241
-735.025	26.356	0.176	0.148
-734.010	-84.178	-0.552	-0.176
-732.996	-200.000	0.045	-0.425
-731.981	-37.432	0.078	-0.042
-730.966	99.088	-0.021	0.025
-729.952	365.740	-0.094	0.191
-728.937	-93.413	-0.394	-0.110
-727.923	800.000	0.034	-0.139
-726.908	-200.000	-0.074	0.423
-725.894	514.279	0.076	-0.178
-724.879	-200.000	-0.014	-0.339
-723.864	8.179	-0.210	0.159
-722.850	356.999	0.088	0.176
-721.835	-200.000	0.003	0.127
-720.821	79.649	0.267	-0.289
-719.806	-56.859	-0.255	-0.113
-718.791	-164.683	-0.281	-0.013
-717.777	308.293	-0.087	-0.164
-716.762	397.248	-0.076	0.161
-715.748	-37.024	-0.206	0.111
-714.733	-142.392	0.269	-0.027
-713.718	678.289	0.056	0.147
-712.704	635.247	0.063	0.160
-711.689	-18.280	0.225	0.142
-710.675	671.528	-0.041	0.107
-709.660	-200.000	-0.003	-0.113
-708.645	70.883	0.027	-0.028
-707.631	391.030	-0.058	0.122
-706.616	85.338	-0.281	-0.311
-705.602	-103.552	-0.231	-0.055
-704.587	-50.674	-0.147	0.069
-703.572	-200.000	-0.003	0.276
-702.558	-200.000	-0.062	0.336
-701.543	-14.797	-0.396	-0.256
-700.529	201.907	0.102	0.158
-699.514	-16.441	-0.123	-0.079
-698.499	27.335	0.240	-0.203
-697.485	-200.000	-0.003	-0.155
-696.470	478.559	-0.045	0.103
-695.456	800.000	0.053	-0.231
-694.441	340.293	0.082	-0.162
-693.426	-34.544	0.158	-0.087
-692.412	-70.363	-0.157	0.060
-691.397	150.320	-0.141	0.193
-690.383	-61.196	0.354	0.150
-689.368	258.679	-0.042	0.073
-688.354	397.035	-0.068	-0.143
-687.339	135.406	0.300	-0.392
-686.324	-66.630	0.168	-0.067
-685.310	-58.966	-0.344	-0.149
-684.295	-105.564	-0.118	-0.027
-683.281	-200.000	0.026	0.122
-682.266	718.362	0.153	-0.409
-681.251	-100.852	-0.336	0.083
-680.237	-113.657	0.133	0.026
-679.222	-70.440	-0.217	-0.083
-678.208	-27.618	-0.274	-0.160
-677.193	800.000	-0.096	-0.415
-676.178	-91.785	-0.205	0.059
-675.164	282.970	-0.080	0.145
-674.149	-200.000	-0.001	-0.259
-673.135	-200.000	0.036	-0.201
-672.120	459.730	0.035	-0.079
-671.105	25.676	0.259	0.217
-670.091	800.000	0.085	0.235
-669.076	-200.000	0.020	-0.237
-668.062	111.221	0.178	0.216
-667.047	-200.000	-0.041	0.273
-666.032	-9.830	0.132	0.088
-665.018	65.447	0.044	-0.045
-664.003	68.162	-0.245	-0.252
-662.989	227.326	-0.081	0.133
-661.974	219.632	-0.077	-0.125
-660.959	205.611	-0.052	0.081
-659.945	-95.259	0.085	0.023
-658.930	-40.284	0.235	0.123
-657.916	-26.695	0.168	0.098
-656.901	800.000	0.043	-0.130
-655.886	36.585	-0.103	0.091
-654.872	-54.118	-0.037	0.017
-653.857	-125.169	-0.169	0.026
-652.843	36.094	-0.253	-0.224
-651.828	664.388	-0.052	-0.135
-650.814	89.682	-0.054	-0.060
-649.799	-92.918	0.170	-0.048
-648.784	47.883	0.127	-0.119
-647.770	-115.407	0.133	0.025
-646.755	-81.818	0.203	-0.067
-645.741	-200.000	-0.033	-0.196
-644.726	32.703	0.103	-0.089
-643.711	-187.274	0.076	-0.001
-642.697	-10.215	-0.212	-0.141
-641.682	-200.000	-0.031	-0.216
-640.668	800.000	-0.091	-0.264
-639.653	-70.625	-0.344	0.131
-638.638	-106.378	-0.499	-0.112
-637.624	-200.000	0.003	-0.197
-636.609	19.724	-0.319	-0.258
-635.595	-88.353	0.288	-0.086
-634.580	-200.000	0.083	0.369
-633.565	477.463	0.084	0.192
-632.551	-168.008	-0.181	-0.007
-631.536	-200.000	0.023	0.141
-630.522	800.000	-0.033	-0.105
-629.507	800.000	-0.012	-0.039
-628.492	800.000	0.098	-0.301
-627.478	101.253	0.028	-0.033
-626.463	-47.398	-0.076	-0.037
-625.449	-200.000	-0.031	-0.188
-624.434	-72.167	-0.087	0.032
-623.419	800.000	0.068	0.247
-622.405	-43.079	-0.225	-0.115
-621.390	8.764	0.186	-0.140
-620.376	569.527	-0.113	0.276
-619.361	336.060	0.076	0.147
-618.346	-8.283	-0.231	-0.156
-617.332	229.401	0.150	-0.245
-616.317	-3.571	-0.230	0.160
-615.303	32.115	0.212	0.183
-614.288	-158.941	-0.182	-0.010
-613.273	-164.342	0.239	0.011
-612.259	-99.689	-0.089	0.022
-611.244	273.594	-0.082	-0.145
-610.230	-40.291	0.046	0.024
-609.215	46.294	0.072	-0.067
-608.201	-122.644	0.122	-0.020
-607.186	337.054	0.030	0.058
-606.171	800.000	0.163	-0.531
-605.157	259.161	0.136	0.235
-604.142	-86.486	-0.265	-0.082
-603.128	-200.000	-0.036	-0.349
-602.113	-200.000	-0.040	-0.311
-601.098	-10.867	0.124	0.082
-600.084	-200.000	-0.011	-0.361
-599.069	16.995	0.072	-0.057
-598.055	800.000	0.032	-0.129
-597.040	135.940	-0.180	-0.236
-596.025	-32.955	0.099	0.055
-595.011	253.352	0.095	-0.162
-593.996	142.226	0.201	-0.268
-592.982	-75.726	0.278	-0.099
-591.967	-159.917	-0.013	-0.001
-590.952	296.271	-0.038	0.071
-589.938	-200.000	0.039	-0.211
-588.923	-105.426	-0.229	-0.052
-587.909	-122.903	0.117	-0.019
-586.894	-49.100	-0.212	0.102
-585.879	-71.749	0.061	0.023
-584.865	800.000	-0.173	0.546
-583.850	-200.000	0.057	0.381
-582.836	-133.375	-0.121	-0.015
-581.821	-108.565	-0.128	-0.027
-580.806	-200.000	-0.000	-0.045
-579.792	800.000	0.115	-0.395
-578.777	-134.262	-0.248	-0.031
-577.763	170.365	0.044	0.063
-576.748	-157.425	0.138	-0.008
-575.733	24.969	0.251	0.208
-574.719	-102.229	-0.164	0.039
-573.704	-200.000	-0.009	0.135
-572.690	82.190	0.076	-0.082
-571.675	157.751	-0.142	-0.197
-570.661	-42.723	0.248	-0.126
-569.646	47.685	0.149	-0.139
-568.631	-200.000	0.003	-0.171
-567.617	273.881	-0.148	-0.261
-566.602	382.319	-0.228	-0.469
-565.588	-200.000	0.026	-0.193
-564.573	1.898	-0.246	0.178
-563.558	-84.619	-0.178	-0.056
-562.544	75.822	0.246	-0.260
-561.529	-99.131	0.178	0.045
-560.515	400.149	0.031	-0.065
-559.500	-24.191	0.118	-0.071
-558.485	223.959	-0.089	0.143
-557.471	124.182	-0.157	-0.197
-556.456	-97.042	-0.178	-0.047
-555.442	-43.337	0.167	0.084
-554.427	-120.793	-0.127	-0.022
-553.412	-200.000	-0.078	0.763
-552.398	415.517	-0.156	0.332
-551.383	166.032	-0.201	-0.284
-550.369	193.057	0.367	-0.554
-549.354	55.563	-0.076	-0.074
-548.339	-40.988	-0.146	0.076
-547.325	-200.000	0.027	0.204
-546.310	-200.000	0.051	0.333
-545.296	166.329	-0.071	0.101
-544.281	-144.069	-0.309	-0.029
-543.266	-8.502	0.083	-0.056
-542.252	-61.186	0.241	-0.102
-541.237	-163.404	0.243	0.012
-540.223	-107.607	-0.286	-0.063
-539.208	3.950	0.183	-0.133
-538.193	-200.000	0.025	-0.250
-537.179	-200.000	0.018	0.438
-536.164	-85.747	-0.259	0.080
-535.150	-67.319	0.301	0.118
-534.135	800.000	-0.066	0.229
-533.121	509.218	0.107	0.249
-532.106	-85.637	0.155	-0.048
-531.091	156.710	-0.200	-0.277
-530.077	143.332	-0.179	-0.238
-529.062	-106.492	0.589	-0.131
-528.048	-54.919	-0.023	0.011
-527.033	129.243	0.125	0.159
-526.018	-200.000	-0.053	0.332
-525.004	582.072	-0.131	-0.320
-523.989	504.764	0.184	-0.427
-522.975	-82.142	0.116	0.038
-521.960	-63.820	0.111	0.045
-520.945	448.249	-0.053	-0.117
-519.931	-200.000	-0.060	0.282
-518.916	-130.804	0.425	-0.057
-517.902	-200.000	-0.040	-0.228
-516.887	-99.966	0.083	0.021
-515.872	400.980	-0.055	-0.115
-514.858	174.670	0.177	-0.256
-513.843	-157.376	-0.047	0.003
-512.829	341.976	-0.048	0.093
-511.814	800.000	0.126	0.520
-510.799	-100.599	-0.085	0.021
-509.785	86.064	-0.171	-0.188
-508.770	457.745	0.077	-0.170
-507.756	246.960	-0.078	-0.132
-506.741	-67.031	0.292	-0.115
-505.726	800.000	-0.085	0.337
-504.712	223.634	-0.087	0.141
-503.697	-200.000	-0.002	0.050
-502.683	-200.000	0.052	-0.269
-501.668	-54.925	0.422	-0.190
-500.653	-200.000	0.032	-0.301
-499.639	-200.000	0.045	-0.311
-498.624	55.331	-0.228	0.220
-497.610	-1.068	-0.097	0.068
-496.595	-200.000	0.045	0.255
-495.581	800.000	-0.111	-0.339
-494.566	-83.983	-0.196	-0.062
-493.551	-200.000	0.022	0.430
-492.537	136.399	-0.189	-0.246
-491.522	-45.733	-0.175	-0.087
-490.508	-162.555	-0.126	-0.006
-489.493	-73.636	-0.138	0.050
-488.478	72.294	-0.072	0.074
-487.464	-89.975	-0.284	0.083
-486.449	-128.647	0.221	0.031
-485.435	539.256	-0.099	-0.235
-484.420	652.440	-0.042	-0.107
-483.405	-54.267	-0.214	0.097
-482.391	-200.000	-0.012	-0.078
-481.376	-200.000	0.017	-0.238
-480.362	-200.000	0.001	-0.289
-479.347	-200.000	0.035	0.495
-478.332	-28.590	-0.250	0.144
-477.318	558.283	0.100	-0.241
-476.303	188.775	0.110	-0.164
-475.289	-135.154	-0.128	0.015
-474.274	248.976	-0.171	0.289
-473.259	424.264	0.103	0.221
-472.245	670.901	-0.029	0.074
-471.230	247.725	-0.264	0.445
-470.216	443.876	0.065	0.141
-469.201	-64.287	-0.371	-0.151
-468.186	352.309	0.171	0.339
-467.172	11.997	-0.102	-0.078
-466.157	-200.000	-0.003	-0.179
-465.143	-94.174	0.185	0.051
-464.128	-200.000	0.050	-0.343
-463.113	-200.000	0.002	0.217
-462.099	78.450	-0.226	-0.241
-461.084	382.989	0.054	-0.111
-460.070	-60.259	0.378	0.161
-459.055	34.523	0.218	0.190
-458.040	-100.940	-0.210	0.051
-457.026	7.959	-0.187	-0.140
-456.011	800.000	-0.109	0.315
-454.997	-23.798	0.133	-0.079
-453.982	-200.000	-0.006	-0.193
-452.968	-127.322	0.062	0.009
-451.953	60.181	0.131	-0.129
-450.938	146.549	-0.099	-0.132
-449.924	-200.000	0.012	-0.112
-448.909	240.939	-0.021	-0.035
-447.895	800.000	-0.079	-0.328
-446.880	6.177	-0.262	0.193
-445.865	604.564	0.031	0.077
-444.851	-113.928	-0.159	0.031
-443.836	-125.472	-0.144	-0.022
-442.822	-200.000	-0.054	0.247
-441.807	245.679	-0.284	0.477
-440.792	800.000	0.039	-0.129
-439.778	288.225	0.042	-0.076
-438.763	-40.496	0.377	-0.195
-437.749	40.614	-0.129	-0.116
-436.734	800.000	-0.081	-0.332
-435.719	-81.164	0.181	0.059
-434.705	175.502	0.111	0.161
-433.690	235.404	0.102	-0.167
-432.676	171.687	0.097	-0.139
-431.661	-200.000	-0.023	-0.293
-430.646	12.671	0.204	0.157
-429.632	-171.061	0.181	0.006
-428.617	734.022	0.149	0.397
-427.603	336.144	-0.140	-0.270
-426.588	369.651	0.109	-0.220
-425.573	-77.046	-0.058	0.020
-424.559	67.975	0.241	-0.246
-423.544	-132.704	0.132	0.017
-422.530	-60.635	0.164	-0.069
-421.515	-200.000	0.031	0.177
-420.500	199.863	-0.027	-0.041
-419.486	-200.000	-0.013	0.202
-418.471	-200.000	0.049	-0.290
-417.457	-200.000	0.004	0.017
-416.442	-4.801	-0.180	0.124
-415.428	62.827	-0.096	0.095
-414.413	-144.341	-0.165	0.015
-413.398	800.000	0.061	0.241
-412.384	213.232	0.122	0.191
-411.369	310.359	-0.134	-0.249
-410.355	800.000	-0.092	0.254
-409.340	-200.000	0.021	-0.185
-408.325	57.800	0.123	0.119
-407.311	800.000	-0.033	-0.104
-406.296	83.780	-0.212	0.230
-405.282	-200.000	-0.019	0.109
-404.267	-200.000	-0.008	0.127
-403.252	-42.008	0.253	0.129
-402.238	-16.219	-0.304	0.192
-401.223	-100.604	-0.072	-0.018
-400.209	800.000	0.033	-0.090
-399.194	428.842	-0.204	0.438
-398.179	36.737	-0.193	0.169
-397.165	101.328	0.071	-0.082
-396.150	-129.542	0.123	-0.017
-395.136	24.591	-0.166	0.136
-394.121	-63.431	0.321	0.131
-393.106	-200.000	0.088	0.429
-392.092	-68.609	0.051	-0.020
-391.077	196.317	-0.317	-0.480
-390.063	800.000	-0.056	0.170
-389.048	147.696	0.201	0.269
-388.033	177.827	0.093	-0.135
-387.019	-154.930	-0.077	0.005
-386.004	-152.945	0.322	0.023
-384.990	39.930	-0.151	-0.134
-383.975	-164.533	-0.168	0.008
-382.960	800.000	-0.070	-0.275
-381.946	159.987	0.194	0.269
-380.931	-59.170	0.113	-0.048
-379.917	573.175	-0.110	0.266
-378.902	-95.706	0.108	0.029
-377.888	-65.396	-0.099	-0.039
-376.873	800.000	-0.073	-0.230
-375.858	800.000	-0.073	-0.287
-374.844	-53.734	0.274	0.124
-373.829	-81.376	-0.123	-0.040
-372.815	107.267	0.196	-0.232
-371.800	800.000	0.049	-0.214
-370.785	800.000	-0.056	0.189
-369.771	674.984	0.106	0.272
-368.756	800.000	-0.093	0.281
-367.742	-200.000	0.006	0.074
-366.727	169.566	-0.103	0.146
-365.712	-63.197	0.215	-0.088
-364.698	-111.975	-0.212	0.042
-363.683	-200.000	0.008	0.139
-362.669	121.919	-0.147	0.182
-361.654	278.925	-0.093	0.166
-360.639	10.193	-0.130	-0.098
-359.625	-8.837	0.185	0.123
-358.610	201.777	-0.195	0.299
-357.596	228.684	0.082	-0.133
-356.581	-76.862	-0.313	-0.109
-355.566	800.000	0.132	-0.401
-354.552	77.459	-0.282	-0.298
-353.537	-50.088	-0.378	-0.178
-352.523	-170.336	0.366	-0.013
-351.508	-141.301	-0.133	0.013
-350.493	-200.000	-0.057	-0.317
-349.479	-200.000	0.023	0.109
-348.464	800.000	-0.057	-0.168
-347.450	-200.000	0.006	0.039
-346.435	-118.909	0.234	-0.041
-345.420	-50.383	0.275	0.129
-344.406	-200.000	-0.008	0.454
-343.391	253.133	0.055	-0.092
-342.377	556.365	-0.030	0.073
-341.362	5.061	0.038	-0.028
-340.348	-119.973	-0.364	0.062
-339.333	-69.940	0.265	-0.100
-338.318	-79.818	-0.185	-0.062
-337.304	531.428	-0.040	-0.093
-336.289	-200.000	-0.219	0.001
-335.275	30.349	-0.160	0.136
-334.260	-200.000	-0.023	0.129
-333.245	35.432	0.093	-0.081
-332.231	265.423	0.151	-0.261
-331.216	800.000	-0.099	0.325
-330.202	111.126	0.258	0.308
-329.187	-49.047	-0.110	0.052
-328.172	93.599	0.135	-0.152
-327.158	800.000	-0.072	0.213
-326.143	-154.631	-0.373	-0.025
-325.129	627.482	-0.069	0.172
-324.114	177.661	-0.072	-0.104
-323.099	800.000	-0.025	0.072
-322.085	800.000	0.003	-0.014
-321.070	-200.000	0.020	0.152
-320.056	-20.305	0.432	-0.263
-319.041	-200.000	-0.031	-0.170
-318.026	40.314	-0.333	0.297
-317.012	319.092	-0.034	-0.063
-315.997	-200.000	-0.025	0.158
-314.983	800.000	-0.170	-0.524
-313.968	34.947	0.131	-0.114
-312.953	-77.600	-0.182	0.062
-311.939	-49.444	0.202	-0.096
-310.924	292.561	0.129	-0.233
-309.910	368.740	0.083	0.166
-308.895	-18.331	0.153	0.095
-307.880	40.378	-0.066	0.059
-306.866	-200.000	0.005	0.060
-305.851	-64.863	0.285	-0.114
-304.837	-200.000	0.047	-0.230
-303.822	82.569	-0.053	-0.057
-302.807	9.959	0.213	0.160
-301.793	-24.980	-0.055	-0.032
-300.778	5.013	-0.105	-0.077
-299.764	-32.722	-0.466	-0.257
-298.749	84.852	-0.178	-0.193
-297.735	280.366	-0.197	-0.350
-296.720	-109.498	0.229	0.048
-295.705	-37.190	-0.109	-0.058
-294.691	-122.465	0.273	0.044
-293.676	251.593	-0.083	-0.140
-292.662	-46.056	0.093	0.046
-291.647	116.366	0.170	-0.207
-290.632	123.514	-0.245	-0.304
-289.618	-200.000	-0.030	0.371
-288.603	-200.000	0.014	-0.476
-287.589	28.448	-0.068	-0.057
-286.574	-70.078	0.137	0.052
-285.559	33.265	-0.097	-0.083
-284.545	648.406	-0.101	0.255
-283.530	103.562	0.176	0.205
-282.516	-143.962	-0.490	0.046
-281.501	116.351	0.264	0.321
-280.486	-200.000	-0.024	-0.204
-279.472	-194.169	-0.254	-0.002
-278.457	-200.000	0.006	-0.103
-277.443	7.438	0.328	-0.243
-276.428	-2.541	0.129	0.090
-275.413	-200.000	0.023	0.188
-274.399	-200.000	-0.027	-0.261
-273.384	130.061	-0.225	0.285
-272.370	-133.008	-0.406	-0.051
-271.355	114.603	0.212	0.255
-270.340	-10.231	-0.267	0.175
-269.326	207.909	0.048	-0.074
-268.311	173.621	0.127	0.181
-267.297	204.383	-0.104	-0.159
-266.282	402.104	0.108	-0.225
-265.267	800.000	-0.083	0.303
-264.253	-90.643	0.238	-0.068
-263.238	394.936	-0.074	0.153
-262.224	-45.712	-0.159	0.078
-261.209	-180.659	-0.118	0.002
-260.195	585.843	0.137	0.334
-259.180	-31.703	0.348	0.193
-258.165	-35.228	0.211	-0.113
-257.151	628.979	-0.091	-0.229
-256.136	80.268	0.127	-0.135
-255.122	-10.822	0.341	-0.223
-254.107	-66.365	0.381	0.150
-253.092	-55.120	0.159	0.071
-252.078	-148.367	0.113	0.009
-251.063	-128.934	-0.166	-0.023
-250.049	800.000	-0.050	0.184
-249.034	-122.072	-0.147	0.024
-248.019	-200.000	-0.006	0.329
-247.005	-200.000	0.054	0.238
-245.990	-47.724	0.165	0.079
-244.976	-108.226	0.116	0.025
-243.961	-95.616	0.059	-0.016
-242.946	-11.158	0.348	0.227
-241.932	-75.957	0.097	0.034
-240.917	230.302	0.088	0.142
-239.903	800.000	0.064	0.227
-238.888	-71.964	-0.241	0.089
-237.873	-160.214	-0.336	0.018
-236.859	-128.945	0.340	0.047
-235.844	-129.359	0.033	-0.005
-234.830	136.846	-0.030	-0.038
-233.815	800.000	-0.143	-0.542
-232.800	-163.376	0.173	-0.008
-231.786	130.094	0.020	0.025
-230.771	-119.671	-0.171	0.029
-229.757	-200.000	0.032	-0.264
-228.742	737.610	0.050	0.133
-227.727	-90.106	-0.120	-0.035
-226.713	800.000	-0.015	0.062
-225.698	-109.847	-0.092	0.019
-224.684	25.145	-0.264	0.216
-223.669	-200.000	-0.025	-0.258
-222.655	187.178	0.074	0.109
-221.640	56.169	0.142	-0.136
-220.625	-200.000	-0.037	0.333
-219.611	800.000	0.055	-0.170
-218.596	800.000	-0.013	0.037
-217.582	-112.668	-0.111	0.022
-216.567	-200.000	0.009	0.102
-215.552	-112.489	-0.351	0.069
-214.538	82.117	0.155	-0.165
-213.523	-200.000	-0.035	0.276
-212.509	-55.346	-0.067	-0.030
-211.494	-22.735	-0.309	0.184
-210.479	48.220	-0.151	-0.140
-209.465	-94.844	0.249	-0.067
-208.450	214.872	0.181	0.282
-207.436	170.336	0.195	-0.275
-206.421	-135.675	0.349	-0.041
-205.406	-200.000	-0.046	0.286
-204.392	-99.590	-0.181	-0.045
-203.377	-200.000	0.005	-0.077
-202.363	-133.109	0.316	-0.039
-201.348	-59.132	0.295	0.125
-200.333	575.496	0.070	-0.169
-199.319	232.771	-0.129	0.210
-198.304	800.000	-0.081	0.264
-197.290	-122.479	-0.240	-0.039
-196.275	468.877	0.162	0.359
-195.260	-94.667	-0.219	0.059
-194.246	800.000	0.098	-0.292
-193.231	-158.794	0.324	-0.018
-192.217	-200.000	-0.003	0.093
-191.202	249.106	-0.083	-0.138
-190.187	-38.899	0.026	-0.013
-189.173	-85.463	-0.474	0.146
-188.158	-200.000	-0.040	0.497
-187.144	73.464	0.151	0.155
-186.129	158.090	-0.244	-0.333
-185.114	-16.293	0.083	0.052
-184.100	57.804	0.305	0.294
-183.085	-121.673	0.229	0.037
-182.071	80.167	0.125	-0.133
-181.056	-18.843	-0.300	-0.184
-180.042	-59.249	-0.055	0.023
-179.027	-54.264	0.261	0.117
-178.012	-99.666	-0.211	-0.052
-176.998	-200.000	-0.015	-0.090
-175.983	-200.000	0.011	0.153
-174.969	9.384	0.359	-0.268
-173.954	-15.479	-0.235	0.148
-172.939	-96.055	-0.049	-0.013
-171.925	-52.446	0.117	0.053
-170.910	163.218	0.186	0.258
-169.896	-7.091	-0.036	-0.024
-168.881	-125.900	-0.255	0.038
-167.866	-18.768	0.281	0.172
-166.852	164.453	0.133	0.185
-165.837	-200.000	0.003	0.039
-164.823	135.209	-0.159	0.204
-163.808	-100.130	0.097	-0.024
-162.793	-126.394	0.093	-0.014
-161.779	800.000	-0.101	0.423
-160.764	82.808	0.190	-0.204
-159.750	800.000	0.036	-0.124
-158.735	738.611	0.009	0.023
-157.720	176.566	0.241	0.345
-156.706	-137.319	-0.093	0.010
-155.691	90.792	-0.264	-0.292
-154.677	800.000	-0.080	0.220
-153.662	-16.312	-0.215	0.134
-152.647	149.702	0.068	-0.090
-151.633	-199.371	0.284	-0.001
-150.618	540.292	0.108	-0.252
-149.604	-200.000	0.036	-0.176
-148.589	263.237	0.231	0.395
-147.574	800.000	0.080	0.248
-146.560	155.118	-0.234	0.317
-145.545	90.349	-0.169	-0.187
-144.531	-33.625	0.278	-0.151
-143.516	103.602	0.154	0.178
-142.502	592.681	0.080	0.194
-141.487	-173.152	0.222	0.007
-140.472	-105.880	0.180	-0.040
-139.458	-200.000	-0.046	-0.389
-138.443	-26.376	0.105	-0.061
-137.429	800.000	-0.024	0.102
-136.414	244.279	0.086	0.142
-135.399	104.534	-0.177	0.205
-134.385	-110.264	-0.259	-0.053
-133.370	-74.432	-0.386	-0.137
-132.356	19.135	0.277	-0.218
-131.341	-140.702	0.289	-0.029
-130.326	217.710	-0.105	0.164
-129.312	-200.000	0.002	0.028
-128.297	180.713	-0.084	0.122
-127.283	800.000	-0.082	0.354
-126.268	-94.291	0.118	0.032
-125.253	-28.635	-0.136	-0.077
-124.239	114.355	0.092	-0.110
-123.224	301.350	0.161	0.293
-122.210	164.553	-0.141	0.196
