DTS Sentinel unit serial number:	SN413079Multiplexer serial number:	ORYXHardware model number:	OX4-SRSoftware version number:	ORYX F/W v4.00 Oryx Data Collector v3.7.2.0data status	okinstallation	princeton_trtdifferential loss correction	single-endedforward channel	channel 1reverse channel	N/Adate	2019/09/15time	13:42:35forward acquisition time	60.00reverse acquisition time	0.00gamma	496.2192k internal	0.2293k external	0.2293temperature offset calibration	0.9969default loss term (dB/km)	0.3790temperature slope calibration	1.0000multiplexer offset coefficient	1.0000multiplexer slope coefficient	1.0000fibre end	0.00T internal ref (°C)	37.92T ext. ref 1 (°C)	4.87T ext. ref 2 (°C)	35.29length (m)	temperature (°C)	Stokes	anti-Stokes-747.200	-66.864	-0.209	0.085
-746.185	370.532	-0.112	0.232
-745.171	-83.459	-0.061	0.020
-744.156	-27.636	0.056	0.033
-743.142	46.773	-0.217	0.206
-742.127	10.577	-0.117	0.091
-741.112	70.906	-0.061	-0.064
-740.098	-126.969	-0.341	0.051
-739.083	-200.000	-0.002	-0.189
-738.069	-200.000	-0.012	0.070
-737.054	-200.000	0.019	0.092
-736.039	-108.941	-0.098	-0.021
-735.025	-41.759	0.226	0.118
-734.010	-200.000	-0.010	-0.116
-732.996	800.000	-0.072	-0.310
-731.981	-41.041	-0.343	-0.181
-730.966	318.927	0.092	-0.179
-729.952	171.092	-0.215	0.315
-728.937	6.023	-0.052	0.039
-727.923	-115.222	-0.199	-0.039
-726.908	-97.761	-0.105	0.028
-725.894	800.000	-0.011	0.039
-724.879	85.609	0.179	0.201
-723.864	226.191	-0.075	-0.125
-722.850	73.471	0.281	-0.301
-721.835	61.460	-0.199	-0.202
-720.821	338.231	-0.136	0.270
-719.806	239.642	0.064	0.109
-718.791	361.641	-0.150	0.308
-717.777	95.993	0.178	0.207
-716.762	143.388	0.121	0.165
-715.748	800.000	-0.027	-0.090
-714.733	-200.000	-0.039	0.207
-713.718	-70.691	-0.191	-0.074
-712.704	-41.083	0.078	-0.041
-711.689	175.885	-0.024	-0.036
-710.675	-137.738	-0.386	-0.044
-709.660	-120.834	0.220	0.038
-708.645	800.000	-0.061	-0.247
-707.631	5.233	0.136	0.102
-706.616	492.473	0.026	-0.061
-705.602	-200.000	-0.048	-0.273
-704.587	-200.000	0.003	-0.090
-703.572	-78.620	0.293	-0.102
-702.558	-200.000	0.017	-0.166
-701.543	-136.368	0.325	-0.039
-700.529	800.000	-0.058	0.164
-699.514	-108.763	0.202	0.044
-698.499	-161.343	-0.454	-0.024
-697.485	207.288	-0.201	-0.320
-696.470	-19.328	0.273	-0.173
-695.456	15.726	0.076	-0.061
-694.441	-21.128	0.277	0.173
-693.426	187.395	0.127	-0.193
-692.412	53.189	0.154	-0.151
-691.397	250.368	0.048	0.083
-690.383	-41.587	0.403	-0.212
-689.368	31.276	-0.161	0.141
-688.354	66.244	0.166	-0.172
-687.339	38.887	-0.096	-0.087
-686.324	206.146	0.173	-0.276
-685.310	211.442	-0.126	-0.202
-684.295	133.710	-0.332	-0.438
-683.281	800.000	-0.030	-0.111
-682.266	-106.866	-0.138	-0.031
-681.251	82.049	0.310	-0.343
-680.237	4.723	-0.265	-0.198
-679.222	-18.564	0.181	0.115
-678.208	17.827	-0.065	-0.053
-677.193	800.000	-0.078	0.325
-676.178	-58.128	-0.202	0.090
-675.164	800.000	0.076	-0.253
-674.149	-66.587	-0.070	0.028
-673.135	800.000	0.070	-0.241
-672.120	279.624	-0.279	0.509
-671.105	-31.788	-0.292	0.167
-670.091	-143.979	-0.316	-0.030
-669.076	800.000	0.026	-0.087
-668.062	-11.680	-0.242	-0.162
-667.047	189.276	0.268	-0.409
-666.032	108.821	0.195	0.238
-665.018	-39.165	-0.035	-0.019
-664.003	10.895	-0.189	-0.147
-662.989	-200.000	-0.001	0.195
-661.974	800.000	0.056	0.219
-660.959	-3.898	0.336	0.237
-659.945	-172.045	-0.062	-0.002
-658.930	-24.354	0.054	0.033
-657.916	-200.000	-0.037	-0.218
-656.901	132.513	0.123	0.162
-655.886	-155.139	0.208	0.014
-654.872	16.009	-0.194	-0.156
-653.857	194.190	-0.035	0.054
-652.843	214.440	-0.097	0.157
-651.828	174.140	-0.224	0.330
-650.814	-165.882	-0.242	0.011
-649.799	-110.541	-0.055	-0.012
-648.784	-138.172	-0.313	0.035
-647.770	598.059	0.032	-0.081
-646.755	121.266	-0.083	0.106
-645.741	800.000	0.091	-0.344
-644.726	194.707	-0.092	-0.142
-643.711	-200.000	-0.042	-0.208
-642.697	-36.490	-0.242	0.133
-641.682	-200.000	0.036	0.208
-640.668	800.000	0.091	-0.264
-639.653	-175.836	-0.304	-0.008
-638.638	800.000	0.037	0.106
-637.624	25.473	-0.110	-0.093
-636.609	-71.129	0.224	0.086
-635.595	705.771	-0.108	0.291
-634.580	113.246	-0.103	-0.128
-633.565	79.847	0.036	-0.040
-632.551	112.509	0.127	-0.156
-631.536	800.000	-0.023	0.069
-630.522	-42.942	0.322	0.167
-629.507	-75.424	0.184	-0.067
-628.492	666.520	-0.125	-0.330
-627.478	-132.987	-0.367	0.048
-626.463	-39.731	-0.144	-0.076
-625.449	-88.918	-0.235	-0.071
-624.434	15.874	-0.132	0.106
-623.419	-200.000	-0.031	0.214
-622.405	800.000	0.060	-0.175
-621.390	171.858	0.153	-0.224
-620.376	198.358	0.046	-0.072
-619.361	-200.000	-0.010	0.108
-618.346	800.000	-0.102	-0.359
-617.332	-200.000	0.017	-0.224
-616.317	-0.087	0.158	-0.114
-615.303	26.842	0.102	-0.087
-614.288	7.588	-0.206	0.157
-613.273	-60.368	0.117	-0.050
-612.259	104.851	0.058	-0.070
-611.244	800.000	-0.075	-0.287
-610.230	168.984	-0.209	-0.304
-609.215	-184.231	-0.196	0.003
-608.201	-74.986	-0.391	0.143
-607.186	800.000	-0.045	0.145
-606.171	156.609	0.097	0.136
-605.157	800.000	0.087	0.294
-604.142	-124.511	-0.303	-0.048
-603.128	74.063	-0.128	-0.136
-602.113	61.390	0.187	0.189
-601.098	-200.000	0.048	-0.285
-600.084	-106.653	0.329	-0.075
-599.069	-83.059	0.167	0.055
-598.055	-97.257	-0.244	0.065
-597.040	-164.603	-0.100	0.005
-596.025	-34.214	0.166	-0.093
-595.011	-38.565	0.096	0.052
-593.996	-150.271	-0.230	0.018
-592.982	800.000	0.032	0.117
-591.967	-36.251	-0.083	0.046
-590.952	-59.465	-0.132	-0.058
-589.938	-200.000	-0.033	-0.252
-588.923	224.276	0.233	-0.383
-587.909	800.000	-0.089	0.311
-586.894	-45.279	0.148	0.075
-585.879	800.000	-0.005	0.016
-584.865	432.396	0.042	-0.094
-583.850	-79.465	-0.155	-0.053
-582.836	-47.445	-0.292	0.144
-581.821	-112.773	-0.403	-0.081
-580.806	-130.230	-0.098	-0.013
-579.792	-92.514	0.093	-0.027
-578.777	-121.575	-0.117	-0.020
-577.763	800.000	0.075	0.313
-576.748	217.538	-0.105	-0.170
-575.733	-135.829	-0.183	-0.022
-574.719	-1.195	0.323	0.232
-573.704	357.579	0.170	0.345
-572.690	69.008	-0.264	0.275
-571.675	-76.141	0.101	-0.036
-570.661	141.515	0.136	0.184
-569.646	-126.902	-0.227	0.034
-568.631	32.930	-0.147	0.129
-567.617	-180.327	-0.459	-0.010
-566.602	192.100	-0.241	-0.369
-565.588	31.756	-0.192	0.168
-564.573	800.000	-0.058	0.202
-563.558	-53.075	-0.119	-0.056
-562.544	-89.434	-0.310	0.093
-561.529	-200.000	0.015	-0.137
-560.515	23.604	-0.062	0.052
-559.500	12.962	0.079	-0.062
-558.485	-23.672	0.162	-0.099
-557.471	-12.987	-0.211	-0.139
-556.456	-200.000	-0.078	0.360
-555.442	688.715	-0.082	-0.218
-554.427	-200.000	-0.005	0.085
-553.412	-127.824	0.158	0.023
-552.398	396.468	0.057	-0.121
-551.383	77.363	0.107	0.115
-550.369	-68.425	-0.162	0.064
-549.354	-81.939	0.180	0.060
-548.339	34.306	-0.145	0.128
-547.325	-200.000	-0.007	-0.282
-546.310	132.012	0.142	-0.186
-545.296	61.859	-0.222	0.225
-544.281	172.382	-0.133	0.195
-543.266	-132.789	-0.256	-0.033
-542.252	-91.893	0.170	-0.049
-541.237	49.644	-0.179	0.171
-540.223	-67.461	0.181	-0.072
-539.208	-143.648	-0.545	-0.053
-538.193	254.887	0.066	-0.116
-537.179	-200.000	-0.025	0.122
-536.164	-107.973	0.151	-0.033
-535.150	783.272	-0.140	0.390
-534.135	-200.000	0.025	0.173
-533.121	-200.000	-0.002	0.031
-532.106	-25.953	-0.192	-0.114
-531.091	632.798	0.161	-0.415
-530.077	800.000	-0.021	0.087
-529.062	800.000	-0.061	-0.176
-528.048	-200.000	0.028	-0.196
-527.033	-93.269	-0.239	-0.067
-526.018	-200.000	0.009	-0.044
-525.004	-200.000	0.026	0.150
-523.989	-200.000	0.015	0.396
-522.975	-41.620	-0.192	-0.100
-521.960	-200.000	-0.014	-0.096
-520.945	-133.125	0.169	0.022
-519.931	-200.000	-0.012	-0.299
-518.916	77.490	0.211	0.227
-517.902	282.587	0.084	0.153
-516.887	-46.240	0.130	0.065
-515.872	-97.139	0.113	-0.030
-514.858	-126.138	0.147	-0.022
-513.843	-60.759	0.293	-0.126
-512.829	39.420	0.287	0.261
-511.814	-4.930	0.013	0.009
-510.799	-133.158	-0.113	0.014
-509.785	-29.255	-0.276	-0.160
-508.770	-113.309	0.188	-0.038
-507.756	175.722	0.028	-0.041
-506.741	-159.265	0.422	-0.024
-505.726	-200.000	-0.001	-0.234
-504.712	-91.677	-0.374	-0.108
-503.697	49.000	-0.099	0.095
-502.683	524.752	0.099	-0.236
-501.668	213.002	-0.068	-0.109
-500.653	113.823	-0.174	-0.215
-499.639	-74.768	0.287	-0.104
-498.624	-200.000	-0.032	-0.147
-497.610	800.000	0.147	-0.435
-496.595	212.834	0.113	-0.180
-495.581	-38.815	0.219	-0.117
-494.566	174.026	0.212	0.310
-493.551	-200.000	0.022	0.197
-492.537	-45.351	-0.217	-0.109
-491.522	81.688	-0.309	0.339
-490.508	-97.053	0.068	-0.018
-489.493	3.627	-0.234	-0.173
-488.478	-75.827	0.503	-0.181
-487.464	327.917	0.056	0.108
-486.449	-144.753	0.274	0.025
-485.435	300.495	-0.227	0.424
-484.420	-200.000	0.008	-0.156
-483.405	49.755	0.286	0.273
-482.391	243.009	0.012	0.021
-481.376	-200.000	0.006	-0.252
-480.362	-96.621	-0.137	0.037
-479.347	-151.716	-0.222	0.017
-478.332	-19.135	0.291	-0.183
-477.318	282.759	0.118	-0.215
-476.303	677.713	-0.088	0.230
-475.289	-198.504	0.108	0.001
-474.274	-85.197	0.283	-0.090
-473.259	800.000	0.045	0.133
-472.245	84.428	0.098	0.108
-471.230	78.142	0.146	0.157
-470.216	92.873	0.200	0.228
-469.201	64.563	0.255	-0.260
-468.186	-200.000	0.016	0.421
-467.172	-200.000	-0.001	0.079
-466.157	-200.000	0.005	-0.091
-465.143	-200.000	0.005	-0.193
-464.128	49.628	-0.063	0.060
-463.113	-23.298	0.049	0.030
-462.099	-134.156	0.242	-0.030
-461.084	8.861	-0.293	-0.223
-460.070	-54.240	-0.157	0.072
-459.055	129.764	0.143	-0.185
-458.040	800.000	0.100	0.315
-457.026	120.077	-0.059	-0.074
-456.011	-105.282	-0.105	-0.024
-454.997	-133.920	0.096	-0.012
-453.982	-50.002	0.397	-0.190
-452.968	411.463	-0.150	0.321
-451.953	-10.520	0.173	0.116
-450.938	-85.594	-0.079	-0.025
-449.924	800.000	0.070	-0.293
-448.909	-200.000	-0.005	-0.056
-447.895	-91.232	-0.343	-0.099
-446.880	298.929	-0.050	-0.094
-445.865	-200.000	0.012	-0.210
-444.851	-80.169	-0.056	-0.019
-443.836	-112.141	0.065	-0.013
-442.822	-200.000	-0.035	-0.168
-441.807	49.900	-0.220	-0.210
-440.792	435.910	-0.029	-0.064
-439.778	111.255	-0.211	-0.257
-438.763	250.600	0.129	0.222
-437.749	107.675	-0.083	-0.100
-436.734	-9.081	-0.204	0.138
-435.719	-11.255	0.141	-0.094
-434.705	38.518	-0.135	-0.122
-433.690	69.754	-0.121	-0.126
-432.676	-3.098	0.260	-0.183
-431.661	-93.829	0.090	-0.025
-430.646	1.545	0.156	0.114
-429.632	403.092	0.026	0.055
-428.617	-64.486	0.206	-0.085
-427.603	-29.866	0.102	0.059
-426.588	283.848	0.090	-0.163
-425.573	800.000	0.074	-0.226
-424.559	-40.452	0.244	0.128
-423.544	176.029	-0.076	0.112
-422.530	-144.369	0.091	-0.009
-421.515	110.479	0.030	-0.036
-420.500	-70.998	-0.525	0.200
-419.486	-38.084	0.240	0.129
-418.471	523.390	0.071	0.168
-417.457	-200.000	-0.046	0.314
-416.442	795.068	0.112	-0.312
-415.428	-200.000	-0.032	-0.201
-414.413	62.475	0.141	0.142
-413.398	609.414	0.048	-0.121
-412.384	-200.000	0.003	0.150
-411.369	-200.000	0.003	0.299
-410.355	-200.000	-0.035	-0.310
-409.340	56.900	0.252	-0.248
-408.325	800.000	0.062	-0.194
-407.311	800.000	-0.078	0.219
-406.296	127.551	0.066	0.085
-405.282	-200.000	0.005	-0.097
-404.267	-144.304	0.037	0.003
-403.252	-91.283	-0.087	0.025
-402.238	-57.677	0.080	0.035
-401.223	25.340	0.322	0.270
-400.209	21.724	-0.186	-0.153
-399.194	-128.183	-0.265	0.038
-398.179	-200.000	0.007	-0.108
-397.165	-69.990	0.257	0.099
-396.150	-18.725	0.168	-0.106
-395.136	800.000	0.086	0.267
-394.121	-134.264	-0.198	-0.025
-393.106	-159.721	0.172	0.010
-392.092	-96.087	-0.265	0.071
-391.077	-106.941	-0.255	-0.057
-390.063	-5.918	-0.224	0.155
-389.048	-200.000	-0.010	-0.291
-388.033	-153.553	-0.281	-0.020
-387.019	80.197	0.190	0.207
-386.004	176.887	0.148	-0.217
-384.990	-200.000	-0.006	-0.199
-383.975	-127.353	0.070	0.010
-382.960	-92.533	-0.113	0.032
-381.946	-105.093	-0.391	0.090
-380.931	800.000	-0.021	0.087
-379.917	-74.716	0.145	-0.053
-378.902	-200.000	-0.092	0.428
-377.888	28.955	0.148	-0.127
-376.873	-92.787	0.267	-0.075
-375.858	300.758	0.182	-0.338
-374.844	-86.331	-0.173	-0.054
-373.829	-42.554	-0.238	-0.123
-372.815	-200.000	0.021	0.432
-371.800	81.445	-0.173	-0.189
-370.785	-45.995	-0.163	-0.081
-369.771	30.587	0.164	-0.141
-368.756	-51.280	0.238	0.113
-367.742	35.357	0.179	0.159
-366.727	151.344	-0.115	-0.157
-365.712	5.534	0.184	0.137
-364.698	154.736	0.115	-0.160
-363.683	231.921	0.075	-0.124
-362.669	800.000	0.106	-0.349
-361.654	332.547	-0.203	0.395
-360.639	199.761	-0.056	-0.087
-359.625	-51.381	0.212	-0.100
-358.610	-24.633	0.274	0.164
-357.596	800.000	-0.058	-0.239
-356.581	145.885	0.148	-0.200
-355.566	31.302	0.137	0.119
-354.552	65.957	0.146	0.149
-353.537	800.000	0.065	0.203
-352.523	-51.190	-0.160	-0.076
-351.508	362.066	0.207	0.418
-350.493	81.464	0.358	0.390
-349.479	31.720	-0.103	-0.090
-348.464	-200.000	0.027	0.141
-347.450	789.451	-0.106	-0.294
-346.435	217.388	-0.329	-0.528
-345.420	-87.427	-0.147	-0.045
-344.406	-0.504	0.101	0.072
-343.391	301.333	0.164	0.306
-342.377	-200.000	-0.006	0.416
-341.362	15.505	-0.032	-0.025
-340.348	-85.171	-0.145	-0.046
-339.333	385.753	-0.137	-0.284
-338.318	471.638	-0.094	-0.214
-337.304	-200.000	-0.025	-0.159
-336.289	147.110	0.063	0.085
-335.275	-74.655	-0.139	0.050
-334.260	-47.537	0.157	0.077
-333.245	-148.580	-0.107	0.009
-332.231	76.429	0.095	-0.101
-331.216	-200.000	0.005	0.064
-330.202	800.000	-0.101	0.390
-329.187	-65.907	-0.257	0.104
-328.172	1.679	-0.329	-0.238
-327.158	800.000	0.049	-0.169
-326.143	133.523	0.161	-0.210
-325.129	25.234	-0.036	0.030
-324.114	51.557	-0.153	-0.147
-323.099	-40.470	0.239	-0.125
-322.085	-137.650	-0.120	0.014
-321.070	439.357	0.031	-0.069
-320.056	-47.378	0.069	-0.034
-319.041	-47.474	-0.179	0.087
-318.026	43.631	-0.217	0.200
-317.012	37.899	0.123	0.110
-315.997	800.000	-0.024	-0.095
-314.983	-83.501	-0.159	-0.051
-313.968	-110.700	0.096	0.020
-312.953	-150.707	-0.172	-0.013
-311.939	-200.000	0.076	-0.481
-310.924	67.755	0.091	-0.093
-309.910	220.124	0.164	0.265
-308.895	-54.561	-0.171	0.078
-307.880	-15.652	-0.315	0.202
-306.866	-60.664	0.258	0.110
-305.851	-154.926	-0.200	0.013
-304.837	77.031	-0.125	0.134
-303.822	-81.973	0.357	-0.117
-302.807	800.000	0.060	0.195
-301.793	-200.000	-0.047	0.347
-300.778	-135.882	0.250	-0.030
-299.764	-20.087	0.122	-0.076
-298.749	79.178	-0.154	-0.166
-297.735	-12.851	-0.141	-0.092
-296.720	-200.000	0.001	-0.016
-295.705	49.218	-0.135	0.128
-294.691	58.415	-0.220	0.217
-293.676	-23.268	-0.052	-0.031
-292.662	-200.000	-0.048	0.308
-291.647	379.586	-0.038	-0.077
-290.632	-129.397	-0.400	0.056
-289.618	13.467	0.177	-0.138
-288.603	800.000	0.120	0.363
-287.589	86.465	-0.138	0.152
-286.574	800.000	0.055	-0.176
-285.559	-111.012	-0.246	0.051
-284.545	210.221	0.039	-0.062
-283.530	114.763	0.172	-0.211
-282.516	72.617	0.127	-0.133
-281.501	525.096	0.099	0.235
-280.486	-108.070	0.178	0.039
-279.472	28.159	-0.357	0.303
-278.457	375.778	-0.105	-0.216
-277.443	-4.973	0.145	-0.101
-276.428	-200.000	-0.061	0.394
-275.413	550.574	-0.095	0.228
-274.399	392.082	-0.088	-0.184
-273.384	-50.005	0.071	-0.034
-272.370	-200.000	-0.024	0.146
-271.355	-200.000	-0.024	0.117
-270.340	-93.987	0.194	0.054
-269.326	246.935	-0.058	0.098
-268.311	800.000	0.065	-0.250
-267.297	121.823	-0.132	-0.165
-266.282	-200.000	0.037	0.238
-265.267	57.375	-0.059	-0.057
-264.253	176.091	0.183	0.267
-263.238	-200.000	0.017	-0.263
-262.224	204.647	0.065	-0.101
-261.209	800.000	-0.079	-0.279
-260.195	101.376	0.060	-0.070
-259.180	-200.000	0.060	-0.420
-258.165	-108.079	0.206	0.045
-257.151	-93.810	0.259	0.072
-256.136	263.149	0.092	0.160
-255.122	-112.335	-0.137	-0.028
-254.107	158.194	-0.146	-0.204
-253.092	-200.000	0.039	0.190
-252.078	800.000	0.074	0.244
-251.063	167.942	0.098	0.140
-250.049	-99.858	-0.261	-0.065
-249.034	-200.000	-0.005	0.365
-248.019	-138.474	-0.144	-0.016
-247.005	-39.368	0.593	0.312
-245.990	-127.868	-0.043	-0.006
-244.976	-0.238	-0.206	-0.147
-243.961	-200.000	-0.014	0.188
-242.946	-110.392	0.208	0.043
-241.932	-140.848	0.216	0.022
-240.917	36.468	0.132	-0.117
-239.903	800.000	0.095	0.271
-238.888	-40.142	-0.243	-0.127
-237.873	-200.000	0.027	-0.125
-236.859	-200.000	-0.044	-0.375
-235.844	-146.887	-0.468	-0.040
-234.830	67.871	-0.192	0.197
-233.815	-108.212	-0.431	-0.093
-232.800	-55.442	-0.154	-0.069
-231.786	-112.704	0.127	-0.025
-230.771	-200.000	0.025	0.141
-229.757	-103.757	0.173	0.041
-228.742	-5.151	-0.223	-0.154
-227.727	16.133	-0.273	0.216
-226.713	-129.595	0.255	-0.035
-225.698	800.000	-0.076	-0.221
-224.684	378.582	-0.089	0.182
-223.669	-35.535	0.120	0.066
-222.655	104.493	-0.250	-0.296
-221.640	-200.000	0.031	0.389
-220.625	-51.059	0.420	0.197
-219.611	164.249	0.132	0.186
-218.596	191.291	-0.178	-0.268
-217.582	13.987	0.138	-0.107
-216.567	695.751	0.043	0.114
-215.552	71.994	0.099	0.103
-214.538	-200.000	-0.030	-0.331
-213.523	-57.467	-0.038	-0.017
-212.509	-148.313	0.255	0.021
-211.494	-200.000	0.042	-0.254
-210.479	-127.051	-0.337	0.050
-209.465	335.547	0.128	0.248
-208.450	-75.038	-0.367	0.132
-207.436	353.153	0.128	-0.254
-206.421	-200.000	0.005	0.174
-205.406	-71.262	-0.071	0.027
-204.392	5.608	0.215	0.159
-203.377	-93.984	0.151	0.041
-202.363	-52.033	-0.030	-0.014
-201.348	244.168	0.170	0.287
-200.333	-157.542	-0.269	-0.016
-199.319	127.733	0.172	0.219
-198.304	-89.344	0.069	0.020
-197.290	152.701	-0.098	0.134
-196.275	-127.998	0.311	0.045
-195.260	-127.801	0.160	0.023
-194.246	-126.246	0.041	-0.006
-193.231	-200.000	0.006	-0.167
-192.217	558.827	-0.116	-0.280
-191.202	-19.910	0.177	-0.109
-190.187	-102.689	0.139	0.033
-189.173	225.716	0.047	-0.076
-188.158	157.309	0.159	0.221
-187.144	161.216	-0.077	0.108
-186.129	-89.746	0.099	-0.029
-185.114	-10.934	0.290	-0.192
-184.100	146.642	0.111	0.149
-183.085	800.000	-0.096	-0.282
-182.071	-25.239	0.484	0.287
-181.056	227.408	0.110	0.180
-180.042	-19.970	-0.121	0.075
-179.027	-64.583	-0.254	0.103
-178.012	-65.361	-0.211	-0.085
-176.998	145.019	0.069	0.092
-175.983	-200.000	0.097	0.426
-174.969	-156.930	-0.264	0.016
-173.954	497.645	0.059	0.136
-172.939	730.500	0.097	-0.260
-171.925	78.387	0.082	-0.087
-170.910	249.774	0.095	0.161
-169.896	-200.000	-0.002	0.098
-168.881	-24.601	-0.284	-0.169
-167.866	96.731	-0.155	-0.178
-166.852	100.041	0.181	0.210
-165.837	-40.688	0.098	-0.051
-164.823	-88.885	0.242	-0.072
-163.808	593.403	-0.101	-0.251
-162.793	800.000	-0.083	0.288
-161.779	143.987	-0.079	-0.105
-160.764	-124.854	0.302	0.047
-159.750	-149.145	-0.171	0.014
-158.735	-28.375	-0.296	-0.171
-157.720	749.381	0.027	-0.074
-156.706	87.269	-0.127	0.141
-155.691	-101.851	0.256	0.062
-154.677	111.253	0.123	-0.148
-153.662	-200.000	0.017	0.101
-152.647	-30.634	0.204	-0.116
-151.633	-148.255	0.160	-0.013
-150.618	-77.635	0.189	0.065
-149.604	229.430	0.247	-0.403
-148.589	-129.927	-0.121	0.017
-147.574	-7.260	-0.101	-0.068
-146.560	-12.847	0.242	-0.158
-145.545	211.933	0.077	0.122
-144.531	-0.889	0.235	-0.166
-143.516	432.577	0.113	0.245
-142.502	-106.333	0.135	0.030
-141.487	73.565	0.209	0.219
-140.472	-42.912	0.088	0.045
-139.458	566.832	-0.076	0.185
-138.443	-200.000	-0.010	0.185
-137.429	-69.950	-0.117	-0.045
-136.414	800.000	0.023	0.089
-135.399	512.761	0.116	-0.270
-134.385	364.788	0.094	0.188
-133.370	62.445	-0.187	-0.187
-132.356	-200.000	0.020	0.160
-131.341	-200.000	-0.010	0.151
-130.326	101.878	-0.157	0.183
-129.312	-200.000	-0.003	-0.089
-128.297	-131.784	-0.220	-0.029
-127.283	782.343	-0.009	-0.023
-126.268	-56.389	-0.213	0.095
-125.253	375.392	0.098	0.200
-124.239	-144.148	-0.392	-0.037
-123.224	368.974	0.124	-0.251
-122.210	0.775	0.223	-0.160
-121.195	-145.725	-0.197	0.018
