DTS Sentinel unit serial number:	SN413079Multiplexer serial number:	ORYXHardware model number:	OX4-SRSoftware version number:	ORYX F/W v4.00 Oryx Data Collector v3.7.2.0data status	okinstallation	princeton_trtdifferential loss correction	single-endedforward channel	channel 1reverse channel	N/Adate	2019/09/14time	11:06:35forward acquisition time	60.00reverse acquisition time	0.00gamma	496.2192k internal	0.2298k external	0.2298temperature offset calibration	1.0076default loss term (dB/km)	0.3790temperature slope calibration	1.0000multiplexer offset coefficient	1.0000multiplexer slope coefficient	1.0000fibre end	0.00T internal ref (°C)	36.25T ext. ref 1 (°C)	4.42T ext. ref 2 (°C)	34.06length (m)	temperature (°C)	Stokes	anti-Stokes-747.200	-200.000	0.003	0.051
-746.185	-200.000	0.000	0.054
-745.171	-56.899	0.313	0.141
-744.156	-200.000	0.021	0.293
-743.142	147.055	0.033	-0.045
-742.127	-84.792	-0.174	-0.056
-741.112	437.484	-0.120	-0.267
-740.098	800.000	-0.111	0.444
-739.083	-121.574	-0.258	-0.044
-738.069	-0.293	0.082	0.059
-737.054	51.840	-0.062	0.061
-736.039	800.000	-0.054	-0.209
-735.025	118.886	-0.215	-0.271
-734.010	-47.702	-0.131	-0.065
-732.996	76.326	-0.169	0.183
-731.981	-18.985	0.051	-0.032
-730.966	-200.000	0.018	-0.374
-729.952	236.376	0.005	0.009
-728.937	-200.000	-0.037	-0.199
-727.923	295.497	0.055	0.103
-726.908	-128.598	-0.217	0.031
-725.894	-200.000	-0.018	0.116
-724.879	167.176	-0.075	0.108
-723.864	800.000	0.036	-0.136
-722.850	42.033	0.159	-0.147
-721.835	-34.451	-0.373	-0.208
-720.821	800.000	0.037	-0.135
-719.806	135.475	0.043	-0.057
-718.791	71.112	-0.085	0.090
-717.777	800.000	0.079	0.275
-716.762	-200.000	-0.045	0.237
-715.748	5.406	-0.356	-0.268
-714.733	-95.309	-0.188	0.051
-713.718	-138.269	0.411	-0.046
-712.704	86.809	0.042	0.047
-711.689	800.000	0.045	-0.141
-710.675	-70.036	-0.098	0.038
-709.660	387.090	0.084	0.176
-708.645	-200.000	0.027	0.261
-707.631	295.797	-0.032	-0.060
-706.616	-75.475	-0.402	-0.146
-705.602	-74.618	0.113	-0.041
-704.587	-36.970	0.040	-0.022
-703.572	-200.000	-0.002	-0.071
-702.558	46.457	0.173	-0.164
-701.543	-186.000	0.057	0.001
-700.529	-27.301	-0.192	-0.114
-699.514	800.000	0.068	0.195
-698.499	26.964	0.185	0.158
-697.485	-104.593	-0.166	-0.039
-696.470	-200.000	0.041	-0.286
-695.456	260.542	-0.044	-0.078
-694.441	-22.696	-0.098	-0.060
-693.426	-177.911	0.138	0.003
-692.412	-13.381	0.334	-0.221
-691.397	-200.000	0.007	0.242
-690.383	-55.627	-0.064	-0.029
-689.368	800.000	0.052	0.150
-688.354	-42.666	0.171	-0.088
-687.339	709.294	-0.047	-0.127
-686.324	357.261	0.141	0.286
-685.310	160.351	-0.082	0.117
-684.295	800.000	0.093	-0.351
-683.281	154.807	0.071	-0.100
-682.266	-200.000	0.018	-0.141
-681.251	-95.160	0.452	-0.124
-680.237	248.347	0.127	0.219
-679.222	-76.873	0.117	0.042
-678.208	800.000	0.060	0.200
-677.193	800.000	0.069	0.240
-676.178	84.777	-0.244	0.272
-675.164	-200.000	-0.010	0.061
-674.149	-11.794	-0.130	-0.087
-673.135	92.226	-0.254	-0.292
-672.120	800.000	0.028	-0.083
-671.105	-37.127	0.093	-0.051
-670.091	539.342	-0.024	0.059
-669.076	414.630	-0.025	0.055
-668.062	-200.000	-0.020	0.335
-667.047	310.394	0.070	-0.133
-666.032	-188.059	-0.273	0.004
-665.018	-79.290	0.161	-0.056
-664.003	-140.810	-0.198	-0.021
-662.989	175.744	-0.041	-0.061
-661.974	587.094	0.036	0.091
-660.959	800.000	0.076	-0.316
-659.945	-200.000	-0.307	0.001
-658.930	121.283	0.134	-0.170
-657.916	51.790	-0.112	0.108
-656.901	476.569	0.082	0.189
-655.886	-135.344	0.174	-0.021
-654.872	122.618	0.261	-0.332
-653.857	800.000	0.033	-0.138
-652.843	-10.752	0.186	-0.125
-651.828	455.926	0.049	-0.111
-650.814	161.945	0.219	0.311
-649.799	316.680	-0.046	-0.088
-648.784	-200.000	0.046	0.222
-647.770	-128.704	-0.069	0.010
-646.755	716.203	0.040	-0.109
-645.741	319.684	0.091	0.176
-644.726	-200.000	0.001	0.240
-643.711	-47.093	-0.173	-0.086
-642.697	1.047	-0.273	0.199
-641.682	800.000	-0.017	-0.051
-640.668	61.302	-0.125	-0.127
-639.653	-200.000	-0.033	0.192
-638.638	389.138	0.161	-0.339
-637.624	226.213	-0.093	0.153
-636.609	-108.662	0.077	-0.017
-635.595	196.839	-0.023	0.036
-634.580	-53.394	0.149	-0.069
-633.565	800.000	0.034	0.132
-632.551	-32.047	-0.136	0.077
-631.536	-200.000	-0.049	0.238
-630.522	316.050	0.093	-0.179
-629.507	46.131	0.163	-0.154
-628.492	342.911	0.015	0.030
-627.478	306.712	0.067	0.126
-626.463	-145.257	0.333	-0.031
-625.449	-200.000	-0.067	0.313
-624.434	345.574	0.098	-0.196
-623.419	800.000	-0.053	-0.156
-622.405	56.246	0.215	-0.212
-621.390	-62.157	-0.217	-0.092
-620.376	263.765	0.126	-0.223
-619.361	-180.775	0.323	-0.007
-618.346	-200.000	-0.043	0.200
-617.332	-139.926	0.268	-0.029
-616.317	-131.392	0.085	0.011
-615.303	367.363	-0.029	0.058
-614.288	-137.153	0.158	-0.018
-613.273	-185.572	0.338	0.005
-612.259	278.526	0.162	0.294
-611.244	-200.000	-0.016	0.301
-610.230	514.267	0.042	0.100
-609.215	251.618	-0.214	-0.370
-608.201	1.335	0.233	-0.170
-607.186	451.865	-0.104	-0.233
-606.171	-68.342	-0.042	-0.017
-605.157	-35.378	0.292	-0.161
-604.142	556.551	-0.125	-0.306
-603.128	297.614	-0.134	-0.250
-602.113	-110.326	-0.112	0.024
-601.098	-45.087	0.050	0.025
-600.084	-33.524	-0.470	-0.264
-599.069	17.957	-0.221	0.179
-598.055	-61.339	-0.085	0.036
-597.040	-79.507	-0.055	-0.019
-596.025	-27.225	0.299	-0.177
-595.011	18.607	-0.045	0.037
-593.996	800.000	0.012	0.053
-592.982	19.046	0.246	0.200
-591.967	25.441	0.194	-0.164
-590.952	-89.053	-0.110	0.033
-589.938	-200.000	-0.002	0.204
-588.923	10.332	-0.241	0.186
-587.909	13.424	-0.153	-0.121
-586.894	452.281	0.066	-0.147
-585.879	-0.954	-0.265	0.190
-584.865	-200.000	0.091	-0.562
-583.850	101.480	-0.204	0.241
-582.836	800.000	-0.061	0.226
-581.821	-144.005	0.189	-0.018
-580.806	88.216	0.031	-0.035
-579.792	-79.621	-0.122	0.042
-578.777	122.933	0.043	-0.055
-577.763	218.899	0.089	0.145
-576.748	49.859	0.213	-0.203
-575.733	98.513	-0.097	0.113
-574.719	302.598	-0.125	-0.235
-573.704	-59.764	0.400	-0.174
-572.690	-70.104	0.287	0.111
-571.675	-200.000	0.005	0.136
-570.661	399.548	0.188	-0.399
-569.646	31.855	-0.268	0.234
-568.631	67.595	-0.142	0.147
-567.617	-200.000	-0.004	-0.111
-566.602	-163.207	-0.079	0.004
-565.588	-7.941	-0.136	0.093
-564.573	240.627	0.111	-0.188
-563.558	-38.314	0.265	-0.142
-562.544	-47.326	0.133	-0.066
-561.529	-74.932	-0.221	0.080
-560.515	-148.399	0.088	0.007
-559.500	272.611	-0.081	-0.146
-558.485	-200.000	-0.014	0.234
-557.471	-85.684	0.048	0.015
-556.456	-144.880	0.344	-0.032
-555.442	17.104	0.202	0.162
-554.427	-160.216	-0.471	-0.026
-553.412	-122.052	0.227	-0.038
-552.398	-32.656	-0.309	-0.174
-551.383	-200.000	-0.023	0.238
-550.369	559.617	-0.052	0.127
-549.354	800.000	0.069	0.213
-548.339	-30.792	0.449	0.257
-547.325	2.857	-0.130	-0.095
-546.310	10.977	-0.088	0.068
-545.296	-146.622	-0.395	0.035
-544.281	1.509	-0.260	-0.189
-543.266	32.236	0.142	0.124
-542.252	497.428	0.029	0.067
-541.237	-53.723	-0.231	0.107
-540.223	207.761	0.074	-0.116
-539.208	12.143	-0.097	0.075
-538.193	-20.393	-0.099	-0.062
-537.179	-36.923	-0.228	-0.124
-536.164	-35.446	-0.037	-0.020
-535.150	-100.333	0.304	0.076
-534.135	-200.000	-0.024	0.107
-533.121	-200.000	-0.006	0.445
-532.106	-200.000	-0.017	-0.079
-531.091	20.025	0.137	0.112
-530.077	194.467	-0.134	0.205
-529.062	-59.436	0.081	-0.035
-528.048	-200.000	0.029	0.329
-527.033	267.870	0.051	-0.090
-526.018	800.000	-0.090	0.316
-525.004	7.034	0.056	-0.042
-523.989	62.391	-0.096	-0.097
-522.975	476.021	0.017	-0.038
-521.960	181.380	0.023	-0.034
-520.945	122.245	0.102	-0.129
-519.931	33.548	0.164	-0.145
-518.916	800.000	0.014	-0.047
-517.902	75.071	-0.269	-0.286
-516.887	-15.872	-0.296	-0.191
-515.872	23.457	0.237	-0.197
-514.858	-200.000	0.030	0.328
-513.843	-135.183	0.299	-0.036
-512.829	-154.430	-0.177	0.012
-511.814	-101.111	-0.177	0.044
-510.799	215.112	0.345	-0.553
-509.785	11.794	-0.309	-0.240
-508.770	71.891	-0.222	-0.234
-507.756	277.825	0.146	-0.262
-506.741	800.000	0.077	-0.220
-505.726	-103.657	-0.176	0.042
-504.712	169.714	0.156	0.225
-503.697	338.040	-0.178	-0.350
-502.683	204.829	0.117	-0.183
-501.668	796.958	-0.138	0.386
-500.653	141.281	-0.159	-0.213
-499.639	-75.841	-0.234	0.084
-498.624	-200.000	-0.017	-0.284
-497.610	800.000	-0.031	-0.092
-496.595	-29.645	0.281	-0.162
-495.581	-64.282	0.149	0.061
-494.566	-200.000	-0.002	0.077
-493.551	-200.000	-0.016	-0.146
-492.537	142.647	-0.368	-0.495
-491.522	-75.560	-0.235	0.085
-490.508	718.371	-0.069	-0.185
-489.493	26.609	-0.184	-0.156
-488.478	-103.777	0.100	-0.024
-487.464	10.184	0.211	-0.162
-486.449	101.587	-0.094	-0.111
-485.435	246.724	0.142	-0.242
-484.420	-94.609	-0.013	-0.003
-483.405	-200.000	-0.045	0.408
-482.391	-142.767	0.143	0.014
-481.376	386.469	0.080	-0.166
-480.362	800.000	-0.035	-0.141
-479.347	-12.011	-0.250	0.165
-478.332	-200.000	0.038	-0.214
-477.318	-17.047	0.131	-0.083
-476.303	800.000	0.152	0.525
-475.289	-106.787	-0.171	0.038
-474.274	-111.592	-0.033	-0.007
-473.259	-31.499	-0.298	0.169
-472.245	-57.027	-0.446	0.199
-471.230	17.830	-0.118	-0.095
-470.216	41.598	0.099	-0.091
-469.201	-18.410	0.040	-0.025
-468.186	210.133	0.188	0.298
-467.172	-80.827	0.169	0.057
-466.157	-154.138	0.283	-0.019
-465.143	-98.703	-0.217	-0.056
-464.128	-200.000	-0.018	-0.196
-463.113	-170.091	-0.223	-0.008
-462.099	593.401	0.151	0.378
-461.084	-200.000	0.014	-0.116
-460.070	-200.000	0.010	0.162
-459.055	117.212	-0.065	0.081
-458.040	93.583	0.297	-0.339
-457.026	205.787	0.124	0.194
-456.011	-200.000	-0.004	-0.034
-454.997	-81.914	-0.249	0.082
-453.982	-113.403	0.074	-0.015
-452.968	-200.000	-0.042	-0.212
-451.953	800.000	0.043	0.151
-450.938	64.839	0.163	0.166
-449.924	-174.081	-0.220	0.006
-448.909	-12.423	-0.344	-0.226
-447.895	-20.100	-0.360	0.224
-446.880	-108.168	-0.115	-0.025
-445.865	-200.000	-0.015	0.251
-444.851	-22.010	-0.092	0.056
-443.836	-75.432	-0.100	0.036
-442.822	550.425	-0.135	0.327
-441.807	-20.921	0.101	-0.062
-440.792	-200.000	-0.033	-0.310
-439.778	-200.000	0.024	-0.198
-438.763	403.882	-0.097	0.206
-437.749	-174.001	0.141	-0.004
-436.734	-41.458	0.099	0.051
-435.719	110.190	0.142	0.172
-434.705	-25.268	0.131	-0.078
-433.690	800.000	-0.044	-0.165
-432.676	17.055	-0.157	0.126
-431.661	708.182	0.044	0.118
-430.646	85.592	-0.132	0.146
-429.632	-60.089	-0.398	0.171
-428.617	-200.000	0.022	-0.112
-427.603	461.807	0.045	0.102
-426.588	800.000	0.109	-0.455
-425.573	-50.376	0.049	0.024
-424.559	-125.763	-0.350	-0.053
-423.544	-200.000	0.022	-0.114
-422.530	-78.464	0.259	0.089
-421.515	74.169	-0.141	0.149
-420.500	138.087	-0.145	0.192
-419.486	-200.000	0.002	0.205
-418.471	500.055	0.180	-0.417
-417.457	-4.935	-0.097	0.067
-416.442	-22.963	-0.048	-0.029
-415.428	52.180	0.061	-0.058
-414.413	76.631	0.076	-0.081
-413.398	800.000	-0.031	-0.108
-412.384	247.671	0.110	-0.187
-411.369	185.734	0.069	0.103
-410.355	-59.724	-0.174	-0.075
-409.340	-49.329	0.085	0.041
-408.325	-73.701	0.168	0.062
-407.311	221.354	-0.024	-0.038
-406.296	-59.061	-0.191	-0.083
-405.282	67.337	0.174	0.178
-404.267	-200.000	0.014	0.289
-403.252	-26.934	-0.255	0.150
-402.238	-200.000	-0.040	-0.206
-401.223	-200.000	-0.007	-0.051
-400.209	-56.995	-0.151	0.067
-399.194	-62.591	-0.472	0.197
-398.179	-200.000	0.036	0.291
-397.165	66.025	0.037	0.038
-396.150	681.476	0.142	-0.372
-395.136	138.727	-0.273	0.361
-394.121	-200.000	-0.010	-0.133
-393.106	585.643	-0.146	0.361
-392.092	135.412	0.166	-0.218
-391.077	-113.347	-0.145	-0.029
-390.063	-200.000	-0.030	0.155
-389.048	-18.972	-0.269	0.169
-388.033	795.700	-0.084	-0.234
-387.019	99.428	-0.130	-0.151
-386.004	705.497	0.012	0.031
-384.990	-200.000	0.001	-0.233
-383.975	443.518	-0.118	-0.261
-382.960	-200.000	-0.001	0.224
-381.946	-28.857	0.211	-0.122
-380.931	-83.030	0.381	0.123
-379.917	253.713	-0.191	-0.329
-378.902	-200.000	-0.009	-0.239
-377.888	30.043	0.237	0.203
-376.873	800.000	0.059	0.238
-375.858	-63.463	0.093	0.039
-374.844	-59.675	0.186	-0.080
-373.829	-85.527	0.309	0.097
-372.815	52.356	-0.114	0.109
-371.800	510.324	-0.085	-0.198
-370.785	480.249	-0.082	-0.187
-369.771	22.800	-0.191	-0.157
-368.756	-200.000	-0.047	0.255
-367.742	-63.744	0.077	0.032
-366.727	-184.075	0.077	0.001
-365.712	129.473	0.148	0.190
-364.698	57.619	0.062	-0.061
-363.683	89.910	-0.183	0.205
-362.669	199.625	-0.059	0.091
-361.654	-147.934	0.174	0.015
-360.639	-80.340	-0.452	-0.152
-359.625	7.077	-0.144	-0.108
-358.610	-129.729	0.410	-0.057
-357.596	109.322	-0.119	-0.144
-356.581	-0.686	-0.166	-0.118
-355.566	800.000	0.022	-0.091
-354.552	-102.474	0.246	-0.059
-353.537	194.384	-0.153	-0.234
-352.523	-81.996	-0.237	0.078
-351.508	389.896	-0.120	0.250
-350.493	765.605	-0.077	0.210
-349.479	354.068	-0.092	0.184
-348.464	-73.719	-0.198	-0.073
-347.450	800.000	0.044	0.123
-346.435	-35.344	0.038	0.021
-345.420	247.969	-0.068	0.115
-344.406	-136.525	-0.104	0.012
-343.391	-200.000	-0.034	-0.209
-342.377	94.526	-0.031	0.035
-341.362	-101.432	-0.193	-0.047
-340.348	62.745	0.181	-0.181
-339.333	-200.000	-0.036	0.166
-338.318	-165.341	-0.122	-0.005
-337.304	168.615	0.219	-0.314
-336.289	-22.364	-0.141	-0.086
-335.275	-55.577	0.092	-0.041
-334.260	311.190	0.158	0.298
-333.245	-15.092	0.233	-0.150
-332.231	68.241	-0.185	-0.190
-331.216	25.915	-0.214	-0.179
-330.202	9.208	-0.210	-0.160
-329.187	-200.000	-0.039	0.189
-328.172	-125.743	0.229	-0.035
-327.158	-115.766	0.174	0.033
-326.143	-200.000	-0.070	0.335
-325.129	-77.818	0.092	-0.032
-324.114	-86.142	-0.135	0.042
-323.099	800.000	-0.041	-0.151
-322.085	800.000	-0.029	-0.110
-321.070	-125.941	0.048	-0.007
-320.056	87.839	0.147	-0.164
-319.041	-137.265	-0.090	-0.010
-318.026	-21.651	-0.305	-0.187
-317.012	265.871	-0.066	0.116
-315.997	800.000	0.094	-0.322
-314.983	60.021	-0.182	0.181
-313.968	114.249	-0.090	-0.110
-312.953	800.000	-0.030	-0.099
-311.939	800.000	-0.027	-0.094
-310.924	252.544	-0.141	0.242
-309.910	157.402	-0.134	-0.186
-308.895	-200.000	0.026	0.157
-307.880	-68.334	-0.111	-0.043
-306.866	-151.053	-0.422	-0.032
-305.851	-92.803	0.178	0.050
-304.837	8.515	0.183	0.138
-303.822	0.237	0.241	-0.172
-302.807	-200.000	-0.023	-0.114
-301.793	47.771	0.198	0.185
-300.778	-65.974	-0.326	-0.131
-299.764	-107.007	0.408	-0.090
-298.749	-200.000	-0.009	-0.075
-297.735	800.000	-0.086	-0.307
-296.720	-112.735	0.109	0.022
-295.705	100.106	-0.175	-0.204
-294.691	-144.926	-0.151	0.014
-293.676	-5.551	-0.094	-0.065
-292.662	27.479	0.279	0.235
-291.647	-86.551	0.114	-0.035
-290.632	47.832	0.188	0.176
-289.618	96.497	-0.144	0.165
-288.603	152.788	0.202	-0.277
-287.589	-19.567	-0.092	-0.057
-286.574	50.507	0.200	-0.190
-285.559	779.243	-0.152	-0.418
-284.545	56.442	-0.124	-0.121
-283.530	-200.000	-0.016	0.265
-282.516	-95.191	0.092	-0.025
-281.501	-164.248	-0.072	-0.003
-280.486	329.820	0.294	0.568
-279.472	-19.020	0.143	-0.089
-278.457	145.606	0.097	-0.131
-277.443	-67.019	0.092	0.036
-276.428	-171.527	-0.120	-0.004
-275.413	106.608	-0.192	0.228
-274.399	-49.501	0.091	0.044
-273.384	-200.000	-0.070	-0.349
-272.370	-90.211	0.342	0.100
-271.355	-14.291	-0.096	0.062
-270.340	2.847	0.242	-0.176
-269.326	60.607	0.223	-0.221
-268.311	800.000	0.055	0.195
-267.297	-52.999	0.081	-0.037
-266.282	-29.931	-0.133	-0.076
-265.267	219.934	0.119	-0.192
-264.253	-200.000	0.009	-0.145
-263.238	-163.420	0.200	-0.010
-262.224	180.704	0.191	-0.281
-261.209	-82.282	0.457	-0.149
-260.195	78.017	-0.259	0.277
-259.180	-1.437	0.139	0.098
-258.165	-95.668	-0.152	-0.041
-257.151	-113.252	0.428	-0.084
-256.136	-86.653	-0.242	-0.074
-255.122	13.942	0.064	0.050
-254.107	168.403	-0.290	0.414
-253.092	-200.000	-0.039	0.281
-252.078	-200.000	0.088	0.507
-251.063	385.403	-0.095	0.196
-250.049	-171.394	0.213	-0.007
-249.034	-105.631	-0.255	-0.058
-248.019	86.528	0.073	0.081
-247.005	-123.033	-0.137	0.022
-245.990	130.748	-0.101	0.130
-244.976	-77.531	0.025	0.009
-243.961	-200.000	0.020	0.261
-242.946	8.380	-0.075	0.057
-241.932	-200.000	-0.010	0.237
-240.917	127.829	0.086	-0.109
-239.903	262.292	0.172	-0.298
-238.888	-72.940	-0.104	0.038
-237.873	111.441	0.057	-0.069
-236.859	800.000	-0.019	-0.054
-235.844	467.151	0.022	0.050
-234.830	426.131	0.073	-0.157
-233.815	-200.000	-0.002	-0.352
-232.800	-30.337	-0.457	0.260
-231.786	800.000	-0.057	0.172
-230.771	216.912	0.223	-0.354
-229.757	25.531	0.160	0.133
-228.742	26.512	-0.047	-0.039
-227.727	-95.081	0.148	0.040
-226.713	-200.000	0.037	0.167
-225.698	326.364	0.264	0.506
-224.684	414.065	-0.039	-0.084
-223.669	-76.034	0.246	0.087
-222.655	-51.168	-0.310	0.145
-221.640	-200.000	-0.014	0.200
-220.625	112.630	-0.150	-0.181
-219.611	184.767	-0.070	-0.104
-218.596	-47.616	-0.198	-0.096
-217.582	144.793	0.140	0.188
-216.567	60.309	-0.156	-0.154
-215.552	418.395	0.048	-0.102
-214.538	-44.009	0.469	0.236
-213.523	-200.000	-0.022	-0.128
-212.509	128.505	0.141	0.180
-211.494	800.000	-0.036	0.146
-210.479	-200.000	-0.003	-0.015
-209.465	-200.000	-0.004	0.286
-208.450	332.065	-0.135	0.260
-207.436	0.716	-0.052	0.037
-206.421	94.837	-0.080	-0.091
-205.406	649.723	0.017	0.042
-204.392	-156.006	-0.071	-0.004
-203.377	-200.000	-0.012	-0.236
-202.363	-103.911	0.101	0.024
-201.348	-107.099	0.246	0.054
-200.333	-70.395	-0.162	-0.061
-199.319	-200.000	0.001	0.146
-198.304	-68.072	-0.132	-0.051
-197.290	-63.850	-0.362	-0.148
-196.275	219.323	0.112	-0.179
-195.260	-137.640	0.146	-0.016
-194.246	265.879	-0.185	-0.322
-193.231	-71.891	0.100	-0.037
-192.217	293.024	0.092	0.169
-191.202	650.643	0.094	0.240
-190.187	93.035	-0.121	0.137
-189.173	-124.587	-0.145	0.022
-188.158	-127.991	0.488	0.070
-187.144	272.959	0.068	0.120
-186.129	554.399	0.082	-0.198
-185.114	-154.786	0.372	-0.025
-184.100	-72.579	0.456	0.168
-183.085	-200.000	0.042	0.311
-182.071	117.356	0.105	0.129
-181.056	800.000	0.096	0.302
-180.042	704.230	-0.105	0.277
-179.027	-200.000	0.055	-0.275
-178.012	578.218	0.044	0.108
-176.998	-200.000	0.013	-0.154
-175.983	408.975	0.111	0.235
-174.969	800.000	-0.096	0.339
-173.954	-8.019	-0.156	0.105
-172.939	551.552	0.117	-0.281
-171.925	-120.589	-0.140	-0.024
-170.910	-200.000	0.008	-0.066
-169.896	27.138	0.334	-0.280
-168.881	-7.223	-0.062	-0.042
-167.866	-85.280	-0.352	0.110
-166.852	-78.719	0.067	-0.023
-165.837	-115.808	-0.283	-0.053
-164.823	449.335	0.133	-0.293
-163.808	-18.184	0.261	0.163
-162.793	-35.602	0.216	0.117
-161.779	-91.017	0.119	0.034
-160.764	134.567	-0.327	-0.423
-159.750	5.414	0.301	0.221
-158.735	-65.843	0.422	0.168
-157.720	-101.597	-0.172	-0.042
-156.706	26.621	0.085	-0.071
-155.691	-30.305	-0.116	-0.066
-154.677	-110.434	-0.114	0.024
-153.662	-9.789	0.238	0.158
-152.647	-200.000	-0.053	0.289
-151.633	-200.000	0.006	-0.081
-150.618	800.000	0.085	0.287
-149.604	-74.367	0.324	0.117
-148.589	-116.176	0.335	0.062
-147.574	-54.420	-0.118	-0.053
-146.560	4.669	0.013	0.010
-145.545	-8.293	0.023	-0.015
-144.531	-3.065	0.229	0.159
-143.516	278.174	0.037	-0.067
-142.502	-82.423	0.209	-0.068
-141.487	-142.993	0.203	-0.020
-140.472	287.327	-0.062	-0.111
-139.458	212.491	0.139	0.219
-138.443	131.193	0.156	-0.199
-137.429	22.837	0.053	0.043
-136.414	116.056	0.312	0.381
-135.399	113.157	0.040	-0.049
-134.385	-74.081	-0.138	-0.050
-133.370	-79.846	-0.203	0.068
-132.356	-28.231	-0.362	0.209
-131.341	-51.616	-0.294	-0.137
-130.326	-79.645	0.151	0.051
-129.312	-200.000	-0.020	0.345
-128.297	800.000	0.022	-0.080
-127.283	-149.165	0.227	-0.018
-126.268	377.342	0.121	-0.247
-125.253	-21.833	-0.157	0.095
-124.239	32.586	0.174	-0.150
-123.224	-177.930	-0.319	-0.008
-122.210	49.029	-0.173	0.162
-121.195	8.091	-0.168	0.126
