DTS Sentinel unit serial number:	SN413079Multiplexer serial number:	ORYXHardware model number:	OX4-SRSoftware version number:	ORYX F/W v4.00 Oryx Data Collector v3.7.2.0data status	okinstallation	princeton_trtdifferential loss correction	single-endedforward channel	channel 1reverse channel	N/Adate	2019/09/10time	22:24:11forward acquisition time	60.00reverse acquisition time	0.00gamma	496.2192k internal	0.2331k external	0.2331temperature offset calibration	0.9943default loss term (dB/km)	0.3790temperature slope calibration	1.0000multiplexer offset coefficient	1.0000multiplexer slope coefficient	1.0000fibre end	0.00T internal ref (°C)	30.41T ext. ref 1 (°C)	-0.30T ext. ref 2 (°C)	23.77length (m)	temperature (°C)	Stokes	anti-Stokes-747.200	-200.000	-0.048	-0.222
-746.185	36.060	-0.117	-0.104
-745.171	-160.705	0.705	-0.038
-744.156	-123.136	-0.168	-0.027
-743.142	236.357	-0.084	-0.140
-742.127	-73.865	0.111	-0.041
-741.112	105.634	0.250	-0.297
-740.098	46.607	-0.123	0.115
-739.083	247.244	-0.207	0.352
-738.069	-200.000	-0.073	0.445
-737.054	-79.066	0.185	0.063
-736.039	-76.218	-0.281	0.100
-735.025	146.215	0.043	0.058
-734.010	-33.173	-0.158	-0.088
-732.996	-107.564	-0.503	0.111
-731.981	800.000	0.046	0.137
-730.966	180.659	-0.048	0.071
-729.952	-200.000	0.009	0.113
-728.937	-200.000	0.024	0.121
-727.923	-1.107	-0.053	-0.038
-726.908	-200.000	-0.434	-0.002
-725.894	99.778	-0.293	-0.341
-724.879	35.685	0.207	-0.183
-723.864	-34.174	0.087	-0.048
-722.850	117.032	-0.156	0.192
-721.835	-200.000	-0.245	0.001
-720.821	-83.719	-0.179	-0.057
-719.806	39.582	0.201	0.182
-718.791	-70.358	-0.236	0.090
-717.777	35.684	-0.291	-0.257
-716.762	-33.263	-0.234	-0.130
-715.748	-100.436	-0.313	-0.078
-714.733	29.220	0.140	0.120
-713.718	85.113	0.181	0.200
-712.704	-175.791	0.291	-0.008
-711.689	233.624	-0.081	-0.134
-710.675	-75.514	-0.092	-0.033
-709.660	-108.340	0.245	-0.053
-708.645	-163.569	-0.152	-0.007
-707.631	-49.666	0.219	-0.105
-706.616	-93.841	-0.304	0.084
-705.602	669.985	-0.109	0.284
-704.587	341.848	0.081	-0.158
-703.572	14.157	-0.533	0.417
-702.558	-200.000	0.043	-0.253
-701.543	0.713	0.233	0.168
-700.529	-103.984	0.366	-0.086
-699.514	-200.000	-0.005	0.198
-698.499	-200.000	-0.021	-0.175
-697.485	59.183	-0.103	0.102
-696.470	-200.000	-0.023	-0.160
-695.456	-32.432	0.188	0.105
-694.441	-172.976	-0.058	0.002
-693.426	-200.000	0.031	0.142
-692.412	9.206	-0.213	-0.162
-691.397	196.418	-0.188	-0.288
-690.383	800.000	0.018	-0.071
-689.368	34.050	0.153	-0.134
-688.354	-200.000	-0.004	0.147
-687.339	511.900	-0.047	-0.110
-686.324	-44.367	-0.128	0.064
-685.310	389.381	-0.061	0.127
-684.295	800.000	-0.077	0.288
-683.281	800.000	-0.047	0.135
-682.266	-80.254	0.137	-0.046
-681.251	121.075	-0.255	-0.318
-680.237	800.000	0.165	-0.508
-679.222	-200.000	0.035	-0.197
-678.208	-117.207	-0.118	0.022
-677.193	800.000	-0.040	0.120
-676.178	-84.083	-0.227	-0.072
-675.164	-21.140	0.202	0.124
-674.149	-200.000	-0.014	-0.254
-673.135	800.000	-0.093	-0.270
-672.120	-60.486	-0.069	0.029
-671.105	604.164	0.155	-0.388
-670.091	196.448	-0.305	-0.466
-669.076	-200.000	-0.060	-0.289
-668.062	-111.706	0.280	0.057
-667.047	58.163	-0.474	-0.466
-666.032	297.395	0.068	-0.125
-665.018	-123.396	0.372	0.059
-664.003	-200.000	0.036	0.210
-662.989	-111.495	-0.185	-0.038
-661.974	-0.356	-0.346	-0.246
-660.959	-72.418	0.255	0.095
-659.945	204.422	-0.143	0.223
-658.930	-85.264	0.340	0.107
-657.916	-39.169	0.126	-0.067
-656.901	-200.000	-0.010	-0.076
-655.886	-141.909	-0.127	-0.013
-654.872	-117.156	0.231	0.042
-653.857	132.829	-0.209	0.271
-652.843	800.000	-0.146	-0.415
-651.828	-200.000	-0.018	-0.251
-650.814	-20.012	-0.204	-0.126
-649.799	-200.000	-0.025	-0.192
-648.784	-71.223	0.062	-0.023
-647.770	161.618	0.142	0.200
-646.755	481.877	-0.062	0.140
-645.741	197.652	-0.091	-0.140
-644.726	-118.485	-0.273	-0.048
-643.711	150.396	-0.164	0.223
-642.697	-171.150	0.177	-0.006
-641.682	130.846	-0.037	-0.048
-640.668	800.000	-0.037	-0.125
-639.653	63.059	-0.292	-0.294
-638.638	-200.000	-0.009	0.224
-637.624	-200.000	0.240	-0.001
-636.609	-57.015	0.303	0.134
-635.595	-103.245	-0.170	-0.040
-634.580	-112.786	-0.173	0.034
-633.565	800.000	0.074	-0.255
-632.551	239.971	-0.049	-0.082
-631.536	-116.993	0.022	-0.004
-630.522	-140.658	-0.544	-0.056
-629.507	154.004	-0.058	-0.080
-628.492	-55.501	-0.181	0.081
-627.478	451.877	0.065	-0.144
-626.463	65.264	-0.162	-0.164
-625.449	94.472	0.208	0.237
-624.434	-200.000	0.010	0.100
-623.419	-135.784	-0.153	-0.018
-622.405	800.000	0.112	0.345
-621.390	-59.657	0.131	-0.056
-620.376	65.582	-0.159	-0.161
-619.361	355.209	0.134	-0.266
-618.346	-200.000	-0.001	0.036
-617.332	162.679	-0.185	-0.261
-616.317	-20.801	0.180	-0.110
-615.303	-200.000	-0.009	-0.206
-614.288	200.077	-0.101	-0.155
-613.273	203.712	0.033	-0.051
-612.259	-200.000	-0.014	-0.166
-611.244	74.709	-0.179	-0.188
-610.230	18.348	0.141	-0.113
-609.215	590.678	0.141	0.349
-608.201	-29.123	0.046	0.026
-607.186	191.886	-0.151	0.228
-606.171	-200.000	0.003	0.340
-605.157	-147.806	-0.335	0.028
-604.142	101.700	-0.062	-0.073
-603.128	129.597	0.070	-0.089
-602.113	800.000	0.037	-0.148
-601.098	102.563	0.106	-0.125
-600.084	139.448	-0.211	-0.277
-599.069	128.537	0.151	0.192
-598.055	31.020	0.190	-0.163
-597.040	25.640	-0.287	-0.239
-596.025	-79.686	0.078	0.026
-595.011	-40.142	-0.067	-0.035
-593.996	409.308	-0.024	0.050
-592.982	256.871	0.208	-0.358
-591.967	-200.000	0.022	-0.106
-590.952	464.630	-0.130	0.292
-589.938	-200.000	0.075	0.458
-588.923	-67.666	-0.147	-0.057
-587.909	-14.256	-0.139	0.090
-586.894	230.447	0.169	-0.277
-585.879	-200.000	0.021	-0.232
-584.865	262.675	-0.140	-0.244
-583.850	351.017	-0.196	0.387
-582.836	-172.545	0.196	-0.006
-581.821	-6.197	-0.245	0.167
-580.806	-9.073	0.071	0.047
-579.792	-200.000	0.020	-0.192
-578.777	57.605	-0.380	0.372
-577.763	162.840	-0.184	0.258
-576.748	-200.000	0.039	-0.236
-575.733	-200.000	0.002	0.249
-574.719	-28.686	0.154	-0.088
-573.704	-200.000	-0.067	-0.309
-572.690	120.230	0.084	-0.104
-571.675	-200.000	-0.037	-0.320
-570.661	-200.000	-0.075	0.410
-569.646	171.421	-0.129	-0.185
-568.631	-99.586	-0.332	0.083
-567.617	133.943	0.075	-0.097
-566.602	358.202	0.026	0.053
-565.588	258.689	-0.147	0.252
-564.573	-17.426	-0.081	-0.051
-563.558	-22.291	0.116	0.070
-562.544	-103.256	0.176	0.042
-561.529	77.487	0.178	-0.189
-560.515	106.409	0.104	0.124
-559.500	800.000	0.096	-0.398
-558.485	-200.000	0.059	0.328
-557.471	189.702	-0.272	-0.407
-556.456	368.038	0.062	-0.124
-555.442	-28.220	-0.334	-0.193
-554.427	-200.000	-0.038	-0.237
-553.412	-53.251	0.218	-0.100
-552.398	32.288	0.187	-0.161
-551.383	-200.000	0.030	-0.169
-550.369	690.522	0.130	0.341
-549.354	100.111	0.203	-0.235
-548.339	800.000	0.071	-0.299
-547.325	-200.000	0.051	-0.397
-546.310	-200.000	-0.011	0.180
-545.296	-200.000	0.031	0.398
-544.281	112.473	-0.135	-0.163
-543.266	-200.000	-0.021	-0.163
-542.252	-55.337	0.092	-0.041
-541.237	-122.178	-0.163	-0.027
-540.223	637.684	-0.107	-0.271
-539.208	-200.000	-0.033	-0.426
-538.193	-150.497	-0.262	0.020
-537.179	-73.250	0.265	0.097
-536.164	-200.000	0.014	0.143
-535.150	800.000	0.064	0.207
-534.135	209.458	-0.040	-0.062
-533.121	-149.635	-0.146	-0.011
-532.106	-131.631	-0.568	-0.074
-531.091	56.215	0.122	-0.118
-530.077	-200.000	0.015	0.115
-529.062	-8.318	0.173	0.116
-528.048	91.548	-0.120	-0.135
-527.033	-153.563	-0.158	-0.011
-526.018	-200.000	0.034	-0.418
-525.004	-200.000	0.018	-0.165
-523.989	-123.163	-0.268	0.043
-522.975	-200.000	-0.034	-0.606
-521.960	-200.000	0.015	0.069
-520.945	-151.206	0.061	0.005
-519.931	800.000	0.116	-0.319
-518.916	268.404	0.109	0.190
-517.902	85.499	0.147	0.161
-516.887	-48.269	-0.037	-0.018
-515.872	179.692	-0.235	-0.343
-514.858	207.826	0.143	-0.223
-513.843	122.732	0.217	0.271
-512.829	-176.751	-0.125	-0.003
-511.814	-200.000	0.000	0.005
-510.799	108.080	-0.168	0.199
-509.785	774.721	0.112	0.306
-508.770	-121.756	-0.222	-0.037
-507.756	189.603	0.122	0.182
-506.741	-71.767	-0.214	-0.079
-505.726	-134.340	-0.222	-0.027
-504.712	-165.877	0.230	-0.010
-503.697	-148.753	0.075	-0.006
-502.683	-148.651	-0.188	0.015
-501.668	734.209	0.011	0.029
-500.653	-80.569	-0.236	-0.078
-499.639	-14.244	-0.207	0.133
-498.624	800.000	0.100	0.427
-497.610	-100.043	0.055	-0.014
-496.595	800.000	-0.074	0.272
-495.581	96.865	0.203	0.232
-494.566	228.633	-0.132	-0.215
-493.551	-69.517	0.205	0.078
-492.537	-200.000	0.005	0.232
-491.522	295.172	0.146	-0.267
-490.508	-61.519	0.131	0.055
-489.493	-83.625	-0.152	0.048
-488.478	-200.000	0.007	-0.255
-487.464	304.839	-0.205	-0.379
-486.449	-139.912	-0.222	-0.023
-485.435	88.096	-0.051	-0.057
-484.420	147.713	-0.243	-0.326
-483.405	800.000	-0.012	-0.054
-482.391	14.229	0.066	-0.051
-481.376	-3.615	-0.243	-0.168
-480.362	-200.000	-0.011	-0.380
-479.347	194.800	0.033	-0.051
-478.332	-200.000	0.006	-0.090
-477.318	341.962	-0.108	-0.210
-476.303	-200.000	0.011	0.333
-475.289	-200.000	0.006	0.298
-474.274	-154.377	-0.072	-0.005
-473.259	298.315	-0.126	-0.230
-472.245	144.193	-0.058	0.077
-471.230	-200.000	0.001	0.057
-470.216	-200.000	-0.025	0.227
-469.201	-91.992	0.082	0.023
-468.186	-109.061	0.387	-0.082
-467.172	558.383	-0.097	-0.233
-466.157	597.605	0.083	0.205
-465.143	-83.653	-0.100	0.032
-464.128	-17.229	-0.203	0.127
-463.113	-200.000	0.089	0.516
-462.099	-108.866	-0.104	-0.022
-461.084	-52.641	0.262	0.120
-460.070	296.434	0.074	-0.134
-459.055	-68.947	-0.136	-0.052
-458.040	180.377	-0.125	-0.182
-457.026	-13.026	0.159	-0.103
-456.011	103.271	-0.078	0.091
-454.997	-24.537	-0.463	-0.275
-453.982	-112.614	-0.411	-0.081
-452.968	294.330	0.101	0.184
-451.953	147.482	-0.021	-0.028
-450.938	93.704	0.233	-0.262
-449.924	476.146	0.126	0.283
-448.909	93.106	0.112	-0.126
-447.895	-75.270	-0.086	-0.031
-446.880	-200.000	-0.047	0.242
-445.865	-98.975	0.233	0.059
-444.851	800.000	-0.024	-0.068
-443.836	-66.836	-0.145	0.057
-442.822	-147.526	0.191	0.016
-441.807	800.000	-0.093	0.267
-440.792	-200.000	0.084	0.377
-439.778	101.429	-0.168	0.195
-438.763	308.442	0.048	-0.089
-437.749	-200.000	-0.043	0.277
-436.734	-101.895	-0.223	-0.054
-435.719	-123.277	-0.230	-0.037
-434.705	50.640	-0.048	0.046
-433.690	-190.293	-0.198	0.002
-432.676	3.949	-0.114	0.083
-431.661	-139.298	-0.207	-0.022
-430.646	-200.000	-0.014	-0.082
-429.632	-53.678	0.077	-0.035
-428.617	-49.294	-0.228	0.108
-427.603	-200.000	-0.047	-0.350
-426.588	800.000	-0.044	-0.189
-425.573	381.504	0.074	0.151
-424.559	-144.987	-0.144	-0.013
-423.544	-163.976	0.226	-0.010
-422.530	95.656	-0.173	-0.196
-421.515	-144.022	0.077	-0.007
-420.500	232.611	-0.119	-0.194
-419.486	-105.432	-0.286	-0.065
-418.471	-41.198	0.271	0.139
-417.457	-47.224	-0.169	0.082
-416.442	27.422	0.226	0.189
-415.428	-24.426	0.313	0.185
-414.413	800.000	0.077	0.275
-413.398	12.487	0.075	0.057
-412.384	-200.000	0.021	0.159
-411.369	360.260	0.149	0.295
-410.355	-73.851	0.262	-0.095
-409.340	65.796	-0.046	-0.046
-408.325	-168.519	0.027	-0.001
-407.311	-91.154	0.424	-0.121
-406.296	-92.830	-0.394	0.109
-405.282	-200.000	0.037	0.355
-404.267	-200.000	-0.038	-0.186
-403.252	-86.912	-0.303	0.092
-402.238	-147.612	0.341	0.029
-401.223	-70.751	-0.288	0.108
-400.209	5.742	0.084	0.062
-399.194	73.008	0.063	0.066
-398.179	-56.885	0.111	-0.049
-397.165	91.736	-0.061	-0.068
-396.150	366.568	-0.107	-0.214
-395.136	25.267	0.305	-0.251
-394.121	107.988	-0.239	-0.283
-393.106	-200.000	-0.012	0.203
-392.092	296.997	-0.047	-0.085
-391.077	332.489	-0.143	-0.274
-390.063	-183.118	-0.272	0.005
-389.048	-156.633	0.158	-0.010
-388.033	800.000	-0.059	0.166
-387.019	-106.209	-0.143	0.032
-386.004	-70.754	0.376	-0.141
-384.990	-47.826	-0.255	-0.123
-383.975	37.081	0.162	0.143
-382.960	-200.000	-0.003	0.182
-381.946	800.000	-0.093	0.363
-380.931	-110.761	0.015	0.003
-379.917	76.824	-0.271	0.285
-378.902	605.837	-0.036	0.088
-377.888	-44.013	-0.247	0.123
-376.873	436.801	0.077	0.166
-375.858	800.000	0.083	-0.257
-374.844	-104.861	-0.118	-0.027
-373.829	247.174	0.137	-0.229
-372.815	104.952	-0.184	-0.215
-371.800	-148.723	0.381	-0.031
-370.785	149.141	0.164	0.220
-369.771	-59.380	0.184	0.078
-368.756	99.533	-0.074	-0.084
-367.742	-15.601	-0.254	-0.161
-366.727	-200.000	0.002	0.115
-365.712	127.537	0.154	0.194
-364.698	500.304	0.028	0.063
-363.683	168.801	0.054	-0.076
-362.669	-32.214	-0.164	0.091
-361.654	422.211	0.139	0.297
-360.639	-102.305	0.234	0.056
-359.625	-103.243	0.183	-0.043
-358.610	-200.000	-0.026	-0.125
-357.596	13.436	-0.068	0.052
-356.581	800.000	-0.040	-0.111
-355.566	-137.305	-0.112	-0.013
-354.552	800.000	-0.102	0.365
-353.537	-200.000	0.009	0.139
-352.523	201.174	-0.096	-0.146
-351.508	64.585	-0.276	-0.276
-350.493	-68.971	0.248	-0.095
-349.479	-145.464	0.287	0.026
-348.464	-15.015	-0.314	-0.199
-347.450	-109.654	-0.138	0.029
-346.435	-35.715	0.224	0.120
-345.420	134.460	0.064	0.082
-344.406	18.909	0.112	-0.089
-343.391	9.374	0.207	0.155
-342.377	-149.551	0.158	-0.012
-341.362	120.828	0.095	0.117
-340.348	-28.187	-0.168	-0.096
-339.333	-200.000	0.001	0.056
-338.318	800.000	-0.009	0.033
-337.304	-50.979	-0.222	-0.103
-336.289	-37.432	0.202	-0.107
-335.275	23.931	-0.139	0.114
-334.260	-49.176	0.247	0.117
-333.245	45.039	-0.109	0.099
-332.231	24.762	-0.115	-0.094
-331.216	-200.000	0.011	0.159
-330.202	59.965	0.279	0.272
-329.187	-32.190	-0.132	-0.073
-328.172	-90.850	-0.229	0.065
-327.158	31.946	0.109	-0.093
-326.143	144.410	-0.031	-0.041
-325.129	-200.000	-0.007	0.210
-324.114	-161.281	0.270	0.014
-323.099	20.058	0.037	-0.030
-322.085	800.000	0.161	-0.454
-321.070	-113.076	-0.190	0.037
-320.056	-136.055	0.052	-0.006
-319.041	150.608	0.095	0.127
-318.026	-51.404	-0.182	-0.084
-317.012	83.627	0.115	-0.124
-315.997	-200.000	-0.032	0.166
-314.983	-73.303	0.216	0.078
-313.968	115.540	0.066	-0.079
-312.953	-200.000	0.015	-0.174
-311.939	-152.463	-0.511	-0.036
-310.924	-178.344	-0.262	-0.006
-309.910	-200.000	-0.028	0.302
-308.895	-116.181	-0.224	-0.041
-307.880	-200.000	0.029	0.178
-306.866	-200.000	-0.020	0.304
-305.851	-85.477	0.168	0.052
-304.837	56.228	-0.183	0.176
-303.822	50.690	0.133	0.124
-302.807	800.000	-0.063	-0.214
-301.793	800.000	-0.040	0.168
-300.778	800.000	0.083	-0.346
-299.764	-88.985	0.079	-0.023
-298.749	-86.050	0.204	0.062
-297.735	-69.470	-0.137	-0.052
-296.720	800.000	0.024	-0.081
-295.705	-84.708	0.042	0.013
-294.691	193.030	-0.103	-0.154
-293.676	182.220	0.093	-0.136
-292.662	-200.000	0.074	-0.322
-291.647	-163.938	-0.537	0.025
-290.632	-200.000	-0.129	0.617
-289.618	211.477	0.022	0.034
-288.603	-200.000	0.006	-0.331
-287.589	-112.715	0.353	-0.069
-286.574	15.939	0.238	0.185
-285.559	34.359	0.142	-0.122
-284.545	-143.730	-0.425	0.040
-283.530	-29.897	0.258	-0.145
-282.516	-200.000	0.004	0.042
-281.501	-137.182	0.363	0.041
-280.486	316.561	0.060	0.112
-279.472	-121.418	0.209	-0.034
-278.457	-149.461	0.269	-0.021
-277.443	398.980	-0.182	-0.376
-276.428	-200.000	0.052	0.292
-275.413	800.000	0.022	0.065
-274.399	-200.000	-0.024	0.154
-273.384	122.931	-0.132	0.164
-272.370	-200.000	-0.002	0.047
-271.355	6.298	-0.034	0.025
-270.340	800.000	0.085	0.311
-269.326	-123.374	0.196	-0.031
-268.311	196.657	-0.046	-0.069
-267.297	53.819	0.325	-0.309
-266.282	800.000	0.103	-0.355
-265.267	-200.000	-0.000	0.097
-264.253	-158.599	0.232	-0.013
-263.238	-172.530	-0.092	-0.003
-262.224	-125.021	0.026	0.004
-261.209	1.829	-0.295	0.210
-260.195	-52.131	0.068	0.031
-259.180	164.520	0.091	0.126
-258.165	-96.510	0.173	-0.045
-257.151	21.205	0.154	-0.124
-256.136	-138.013	-0.056	0.006
-255.122	33.685	0.136	0.117
-254.107	211.907	-0.124	-0.193
-253.092	-118.115	0.129	-0.023
-252.078	-140.104	0.243	0.025
-251.063	224.793	0.159	0.254
-250.049	-200.000	-0.043	-0.202
-249.034	242.476	0.084	-0.139
-248.019	117.235	-0.045	-0.055
-247.005	-19.503	-0.311	-0.190
-245.990	-96.757	0.075	0.019
-244.976	77.830	0.220	-0.232
-243.961	-64.463	0.397	-0.159
-242.946	423.221	0.020	0.043
-241.932	-19.354	-0.250	0.153
-240.917	-72.048	-0.065	0.024
-239.903	-52.602	0.087	-0.040
-238.888	-56.040	0.214	0.094
-237.873	-100.292	-0.123	0.030
-236.859	215.029	-0.056	-0.088
-235.844	-93.073	-0.121	-0.033
-234.830	-120.568	0.129	0.022
-233.815	-200.000	-0.082	0.367
-232.800	19.802	0.253	0.201
-231.786	177.440	0.176	0.253
-230.771	73.268	-0.127	-0.131
-229.757	-200.000	0.096	0.000
-228.742	80.005	0.251	-0.266
-227.727	-121.641	0.138	0.023
-226.713	-200.000	-0.009	0.090
-225.698	-200.000	0.015	-0.234
-224.684	492.357	-0.060	-0.135
-223.669	-97.437	-0.233	-0.060
-222.655	-154.922	0.225	0.015
-221.640	151.147	-0.186	0.250
-220.625	-160.520	0.071	-0.004
-219.611	-200.000	-0.022	0.121
-218.596	800.000	-0.003	0.009
-217.582	-67.363	0.170	-0.066
-216.567	-3.386	-0.058	0.040
-215.552	58.632	0.307	0.297
-214.538	456.904	0.134	-0.293
-213.523	83.173	0.041	-0.044
-212.509	266.212	-0.148	0.256
-211.494	122.440	-0.148	0.183
-210.479	-200.000	-0.028	0.209
-209.465	284.380	0.191	0.339
-208.450	357.789	0.043	0.085
-207.436	305.461	-0.138	-0.253
-206.421	-63.732	0.412	0.166
-205.406	800.000	0.053	-0.164
-204.392	34.369	-0.388	0.334
-203.377	-149.758	0.319	0.025
-202.363	-30.937	0.228	-0.127
-201.348	-102.243	0.225	0.053
-200.333	9.309	0.220	0.164
-199.319	-74.915	-0.384	0.136
-198.304	-200.000	-0.014	-0.201
-197.290	-63.045	-0.100	0.041
-196.275	-153.697	0.330	0.022
-195.260	55.309	-0.112	-0.107
-194.246	22.944	0.314	0.254
-193.231	-51.758	0.225	0.103
-192.217	205.033	-0.153	0.234
-191.202	-61.914	0.055	0.023
-190.187	-80.146	-0.209	0.069
-189.173	800.000	0.068	0.226
-188.158	-200.000	-0.047	0.253
-187.144	-200.000	0.016	0.217
-186.129	299.921	0.111	-0.201
-185.114	-132.305	-0.244	0.031
-184.100	-12.485	0.119	-0.076
-183.085	-69.001	0.248	0.094
-182.071	-60.531	0.208	-0.087
-181.056	-40.502	0.309	-0.158
-180.042	255.576	-0.140	-0.236
-179.027	800.000	0.078	-0.258
-178.012	-200.000	0.050	0.240
-176.998	225.371	-0.057	-0.091
-175.983	-200.000	0.061	-0.269
-174.969	-200.000	-0.026	-0.322
-173.954	351.207	0.042	-0.082
-172.939	-66.422	0.023	-0.009
-171.925	-30.206	-0.237	0.132
-170.910	-44.707	-0.085	0.042
-169.896	-108.925	-0.017	0.004
-168.881	800.000	-0.045	0.175
-167.866	28.118	0.221	-0.183
-166.852	430.119	-0.090	0.192
-165.837	-107.994	-0.241	0.051
-164.823	-19.760	-0.056	0.034
-163.808	800.000	0.083	0.229
-162.793	169.661	-0.166	0.234
-161.779	-90.001	-0.139	-0.040
-160.764	-96.832	0.341	-0.088
-159.750	443.809	0.046	0.098
-158.735	16.410	-0.163	-0.127
-157.720	-200.000	0.046	0.327
-156.706	-115.486	-0.093	-0.017
-155.691	-32.330	0.041	-0.023
-154.677	-200.000	-0.014	-0.288
-153.662	40.060	0.121	-0.107
-152.647	-102.583	0.314	0.074
-151.633	-82.996	-0.192	0.061
-150.618	-84.081	0.253	-0.079
-149.604	15.442	-0.196	-0.152
-148.589	316.748	0.065	-0.120
-147.574	305.066	-0.217	-0.396
-146.560	800.000	0.052	-0.142
-145.545	-123.684	-0.413	0.064
-144.531	-123.571	0.386	-0.060
-143.516	-200.000	0.060	0.263
-142.502	-200.000	-0.003	0.109
-141.487	-4.655	0.097	-0.066
-140.472	92.630	0.122	0.135
-139.458	65.668	-0.230	-0.228
-138.443	-90.202	-0.234	0.067
-137.429	-134.474	0.229	0.028
-136.414	800.000	0.087	-0.297
-135.399	-200.000	0.007	0.489
-134.385	244.375	-0.146	-0.241
-133.370	-200.000	0.009	-0.416
-132.356	-124.140	-0.276	0.042
-131.341	-96.058	0.039	-0.010
-130.326	800.000	0.040	-0.119
-129.312	-200.000	-0.016	-0.189
-128.297	-119.416	-0.400	-0.068
-127.283	124.365	-0.134	-0.165
-126.268	376.051	-0.081	0.162
-125.253	-191.072	0.082	0.001
-124.239	-48.700	0.155	0.073
-123.224	173.353	-0.083	-0.117
