DTS Sentinel unit serial number:	SN413079Multiplexer serial number:	ORYXHardware model number:	OX4-SRSoftware version number:	ORYX F/W v4.00 Oryx Data Collector v3.7.2.0data status	okinstallation	princeton_trtdifferential loss correction	single-endedforward channel	channel 1reverse channel	N/Adate	2019/09/12time	11:20:11forward acquisition time	60.00reverse acquisition time	0.00gamma	496.2192k internal	0.2295k external	0.2295temperature offset calibration	1.0049default loss term (dB/km)	0.3790temperature slope calibration	1.0000multiplexer offset coefficient	1.0000multiplexer slope coefficient	1.0000fibre end	0.00T internal ref (°C)	39.05T ext. ref 1 (°C)	1.97T ext. ref 2 (°C)	36.49length (m)	temperature (°C)	Stokes	anti-Stokes-747.200	-37.982	-0.179	0.097
-746.185	-200.000	-0.030	0.137
-745.171	-200.000	0.048	-0.223
-744.156	-95.858	-0.258	-0.070
-743.142	-155.493	0.432	-0.029
-742.127	-109.771	0.288	0.062
-741.112	219.837	-0.183	0.299
-740.098	190.214	-0.180	0.276
-739.083	-200.000	0.012	0.163
-738.069	130.355	0.057	0.074
-737.054	342.691	-0.149	0.298
-736.039	-200.000	-0.093	0.421
-735.025	-200.000	-0.001	0.104
-734.010	800.000	-0.046	0.152
-732.996	19.667	-0.205	-0.169
-731.981	423.458	0.170	-0.374
-730.966	800.000	0.034	-0.105
-729.952	15.934	0.238	0.191
-728.937	-76.916	-0.311	-0.111
-727.923	185.392	0.354	-0.537
-726.908	-101.191	0.221	-0.055
-725.894	330.491	-0.039	0.076
-724.879	729.800	-0.114	0.310
-723.864	800.000	-0.088	-0.250
-722.850	138.444	-0.089	-0.120
-721.835	-200.000	0.031	-0.140
-720.821	-77.598	0.248	-0.088
-719.806	111.178	0.104	-0.127
-718.791	-96.961	-0.411	-0.110
-717.777	-200.000	-0.005	-0.356
-716.762	800.000	-0.096	-0.321
-715.748	12.405	-0.081	-0.064
-714.733	457.133	0.153	0.347
-713.718	-200.000	0.028	0.127
-712.704	-93.344	0.280	0.079
-711.689	800.000	-0.021	-0.089
-710.675	106.998	-0.164	-0.199
-709.660	85.021	0.086	-0.096
-708.645	293.528	0.104	-0.194
-707.631	800.000	0.037	-0.150
-706.616	-200.000	0.023	0.176
-705.602	-102.312	0.244	0.060
-704.587	800.000	-0.069	-0.201
-703.572	-53.124	-0.172	0.081
-702.558	-168.818	0.214	0.008
-701.543	-200.000	0.004	-0.062
-700.529	-18.219	0.205	-0.131
-699.514	56.246	-0.179	0.178
-698.499	800.000	-0.098	-0.288
-697.485	-14.590	0.082	-0.054
-696.470	-200.000	0.019	0.221
-695.456	-136.641	-0.192	-0.023
-694.441	297.332	-0.204	-0.383
-693.426	-200.000	-0.004	-0.147
-692.412	-200.000	-0.018	0.093
-691.397	283.347	-0.134	0.246
-690.383	-200.000	-0.079	-0.422
-689.368	2.069	-0.255	0.188
-688.354	-200.000	-0.004	-0.044
-687.339	-112.713	-0.089	-0.018
-686.324	-77.285	-0.044	-0.016
-685.310	188.103	-0.084	-0.128
-684.295	-200.000	-0.034	-0.164
-683.281	800.000	0.107	-0.307
-682.266	-200.000	0.021	0.212
-681.251	145.448	0.107	0.146
-680.237	800.000	-0.088	0.273
-679.222	-6.835	-0.319	0.221
-678.208	39.166	0.034	-0.031
-677.193	-75.666	0.121	0.044
-676.178	-200.000	0.009	0.203
-675.164	-139.838	-0.187	0.020
-674.149	18.743	0.190	0.155
-673.135	567.315	-0.047	0.117
-672.120	800.000	-0.070	-0.249
-671.105	-200.000	-0.006	-0.030
-670.091	-138.309	-0.088	0.010
-669.076	230.157	0.073	0.122
-668.062	-144.210	-0.160	-0.015
-667.047	-200.000	-0.032	-0.218
-666.032	63.128	0.068	-0.070
-665.018	-93.593	-0.077	-0.022
-664.003	-32.947	0.249	0.141
-662.989	11.593	-0.081	-0.063
-661.974	-191.543	-0.151	-0.002
-660.959	123.128	-0.163	0.209
-659.945	710.469	-0.130	0.350
-658.930	-71.671	0.206	-0.078
-657.916	61.109	0.140	0.141
-656.901	31.663	0.259	-0.227
-655.886	-147.665	-0.355	0.030
-654.872	800.000	0.061	0.202
-653.857	54.926	-0.373	-0.367
-652.843	-200.000	-0.023	-0.157
-651.828	-200.000	0.013	-0.318
-650.814	800.000	0.097	-0.343
-649.799	-200.000	-0.021	-0.223
-648.784	10.627	0.112	-0.087
-647.770	-200.000	-0.018	-0.521
-646.755	120.364	-0.047	0.060
-645.741	34.357	0.393	-0.349
-644.726	800.000	-0.066	-0.260
-643.711	-200.000	-0.005	-0.464
-642.697	-76.593	-0.226	0.081
-641.682	-17.366	0.327	0.210
-640.668	-48.955	0.023	0.011
-639.653	29.619	-0.137	0.119
-638.638	88.077	0.267	0.301
-637.624	145.943	-0.167	-0.228
-636.609	-200.000	-0.013	0.103
-635.595	125.909	-0.093	0.120
-634.580	-200.000	0.019	-0.388
-633.565	-89.888	-0.110	-0.033
-632.551	74.785	0.114	-0.122
-631.536	-131.163	0.273	-0.037
-630.522	-65.528	-0.198	0.081
-629.507	-200.000	-0.032	0.145
-628.492	-114.874	0.214	-0.042
-627.478	100.682	-0.323	0.382
-626.463	-35.628	0.285	0.157
-625.449	149.637	-0.133	0.183
-624.434	362.234	0.067	-0.136
-623.419	-10.775	0.447	0.301
-622.405	-200.000	0.030	-0.174
-621.390	468.674	-0.101	-0.230
-620.376	-5.504	0.209	-0.146
-619.361	141.559	-0.236	0.317
-618.346	326.774	0.091	-0.177
-617.332	-90.764	-0.101	-0.030
-616.317	-39.994	-0.196	0.104
-615.303	208.466	0.042	0.066
-614.288	64.698	0.269	-0.276
-613.273	-64.992	-0.101	0.041
-612.259	202.451	-0.153	0.240
-611.244	353.902	0.052	-0.105
-610.230	64.500	-0.176	0.180
-609.215	-107.989	-0.469	0.103
-608.201	-200.000	0.016	-0.108
-607.186	218.062	-0.058	-0.095
-606.171	-35.010	0.189	-0.105
-605.157	104.340	0.174	0.208
-604.142	-138.344	-0.301	-0.034
-603.128	-83.710	-0.261	-0.085
-602.113	-129.783	0.111	0.015
-601.098	469.628	-0.125	-0.285
-600.084	-74.364	-0.244	-0.089
-599.069	-116.588	0.369	0.069
-598.055	-117.595	0.274	-0.050
-597.040	800.000	0.047	-0.182
-596.025	-144.798	-0.030	-0.003
-595.011	64.958	-0.144	0.148
-593.996	-55.191	0.065	0.030
-592.982	17.736	-0.361	0.292
-591.967	-200.000	0.004	0.317
-590.952	286.586	0.032	0.059
-589.938	-66.407	-0.176	-0.071
-588.923	566.399	0.099	0.245
-587.909	-200.000	0.021	0.429
-586.894	-7.212	-0.259	-0.178
-585.879	-41.111	-0.139	-0.073
-584.865	-15.559	-0.041	-0.026
-583.850	-76.266	0.155	0.056
-582.836	-174.760	-0.400	-0.011
-581.821	-112.514	0.319	0.065
-580.806	-99.537	-0.169	0.043
-579.792	-200.000	-0.028	0.283
-578.777	59.345	0.217	-0.217
-577.763	502.683	0.093	-0.217
-576.748	3.108	-0.092	0.068
-575.733	-67.787	-0.241	-0.096
-574.719	-200.000	0.002	-0.070
-573.704	137.682	-0.027	0.035
-572.690	248.276	-0.121	0.208
-571.675	-200.000	-0.014	0.175
-570.661	336.385	-0.019	0.038
-569.646	-55.442	-0.243	0.111
-568.631	402.822	0.022	-0.046
-567.617	108.175	-0.145	0.175
-566.602	-32.216	-0.189	0.107
-565.588	800.000	-0.078	-0.227
-564.573	-41.846	-0.430	-0.224
-563.558	-129.330	0.078	-0.011
-562.544	800.000	0.052	0.196
-561.529	-200.000	0.031	-0.342
-560.515	52.707	0.252	-0.244
-559.500	23.538	-0.056	0.047
-558.485	-200.000	-0.008	0.228
-557.471	357.770	-0.215	-0.436
-556.456	98.954	0.064	-0.075
-555.442	-48.365	-0.204	0.100
-554.427	396.585	-0.074	-0.156
-553.412	86.694	0.121	-0.136
-552.398	-69.252	-0.239	-0.093
-551.383	54.461	0.362	-0.354
-550.369	-144.241	-0.131	0.012
-549.354	691.364	0.052	0.139
-548.339	-200.000	0.017	0.222
-547.325	186.198	-0.098	0.148
-546.310	-32.302	-0.210	0.119
-545.296	-44.955	0.164	0.083
-544.281	283.785	0.140	0.255
-543.266	-1.850	0.396	0.283
-542.252	-39.029	-0.251	-0.134
-541.237	-200.000	-0.039	-0.178
-540.223	-200.000	-0.015	-0.180
-539.208	495.453	0.067	-0.157
-538.193	96.129	-0.076	-0.088
-537.179	343.115	0.083	0.166
-536.164	-200.000	-0.015	-0.188
-535.150	-62.427	0.451	-0.190
-534.135	316.118	-0.065	0.124
-533.121	-200.000	0.014	-0.218
-532.106	-52.545	-0.496	0.232
-531.091	-200.000	-0.035	-0.243
-530.077	59.109	0.188	0.187
-529.062	373.050	-0.043	0.088
-528.048	-200.000	-0.128	0.000
-527.033	-142.762	-0.207	0.020
-526.018	287.286	-0.127	0.232
-525.004	-160.849	-0.325	0.017
-523.989	-124.883	-0.061	-0.010
-522.975	101.519	0.206	-0.244
-521.960	-200.000	-0.014	0.118
-520.945	-144.450	0.248	0.023
-519.931	-91.814	0.179	0.051
-518.916	-200.000	0.018	0.104
-517.902	-86.480	-0.135	-0.042
-516.887	-200.000	-0.044	0.262
-515.872	-200.000	0.027	-0.160
-514.858	-108.083	0.201	-0.044
-513.843	-200.000	0.030	-0.187
-512.829	-59.693	-0.348	-0.151
-511.814	45.338	-0.210	-0.196
-510.799	78.103	0.204	-0.220
-509.785	28.128	0.116	-0.099
-508.770	-45.388	0.106	0.053
-507.756	70.355	0.238	-0.249
-506.741	-200.000	0.014	-0.311
-505.726	-125.557	0.296	-0.046
-504.712	-101.900	-0.050	0.012
-503.697	305.624	0.089	-0.167
-502.683	-141.577	-0.188	0.019
-501.668	-11.009	-0.156	-0.104
-500.653	88.433	0.154	0.173
-499.639	-8.149	-0.260	0.177
-498.624	-2.459	-0.169	-0.120
-497.610	65.811	0.140	-0.144
-496.595	617.170	-0.094	0.238
-495.581	-200.000	0.047	-0.217
-494.566	536.169	-0.098	-0.235
-493.551	-123.617	0.310	-0.050
-492.537	29.506	-0.389	0.335
-491.522	115.374	0.069	-0.086
-490.508	-23.460	0.175	-0.106
-489.493	123.691	-0.108	-0.137
-488.478	-47.274	-0.168	-0.083
-487.464	667.040	-0.107	-0.279
-486.449	158.408	0.127	-0.179
-485.435	-82.407	-0.353	0.116
-484.420	-57.548	0.098	-0.044
-483.405	445.396	0.059	0.130
-482.391	246.036	-0.180	-0.307
-481.376	28.938	0.141	-0.121
-480.362	-61.368	0.219	0.093
-479.347	-66.220	0.209	-0.084
-478.332	-119.396	-0.201	0.035
-477.318	131.153	0.249	0.323
-476.303	-200.000	0.013	-0.161
-475.289	84.788	0.066	0.073
-474.274	800.000	0.071	-0.217
-473.259	581.519	-0.157	-0.388
-472.245	-55.575	-0.138	0.062
-471.230	-200.000	-0.044	-0.386
-470.216	87.137	-0.126	-0.141
-469.201	-96.779	-0.092	0.024
-468.186	-94.570	-0.176	-0.048
-467.172	116.312	0.128	0.158
-466.157	18.212	-0.199	-0.160
-465.143	70.894	0.141	0.148
-464.128	170.700	-0.204	0.295
-463.113	-200.000	-0.003	0.487
-462.099	289.664	-0.095	0.175
-461.084	-33.668	0.042	-0.024
-460.070	-174.467	-0.224	-0.007
-459.055	-59.662	0.246	-0.107
-458.040	173.655	-0.054	0.079
-457.026	-104.012	0.442	-0.104
-456.011	414.736	0.021	0.046
-454.997	462.530	0.078	0.175
-453.982	-112.951	0.240	0.048
-452.968	661.618	-0.072	-0.187
-451.953	-23.794	0.101	-0.061
-450.938	-6.566	0.211	0.145
-449.924	-15.418	0.133	-0.086
-448.909	716.578	0.119	-0.320
-447.895	-200.000	-0.009	0.219
-446.880	-200.000	0.071	-0.348
-445.865	-49.735	0.129	-0.062
-444.851	-41.944	-0.087	-0.045
-443.836	800.000	0.024	-0.100
-442.822	18.721	-0.384	-0.310
-441.807	-172.614	-0.141	0.004
-440.792	30.314	-0.049	-0.043
-439.778	-200.000	0.012	0.059
-438.763	-200.000	0.019	0.191
-437.749	-163.430	-0.028	0.001
-436.734	21.313	0.394	-0.324
-435.719	800.000	0.166	-0.513
-434.705	-163.355	-0.454	-0.022
-433.690	800.000	-0.077	-0.270
-432.676	-200.000	-0.027	0.163
-431.661	-38.855	-0.243	0.130
-430.646	800.000	0.062	-0.240
-429.632	-86.876	0.050	-0.016
-428.617	-150.936	0.199	0.015
-427.603	-2.475	0.056	-0.040
-426.588	800.000	-0.094	0.351
-425.573	111.725	-0.135	-0.165
-424.559	-200.000	0.016	-0.112
-423.544	65.894	-0.113	-0.116
-422.530	276.465	0.106	-0.190
-421.515	131.570	-0.106	-0.137
-420.500	-200.000	-0.024	0.167
-419.486	-6.922	-0.300	0.206
-418.471	-84.560	0.053	0.017
-417.457	-45.279	0.188	-0.094
-416.442	800.000	-0.117	0.414
-415.428	113.074	-0.192	0.235
-414.413	-200.000	-0.032	0.280
-413.398	-44.462	-0.119	-0.060
-412.384	44.909	0.067	0.062
-411.369	216.081	-0.055	-0.089
-410.355	122.945	-0.047	0.059
-409.340	-67.285	-0.081	-0.032
-408.325	-68.115	0.167	-0.066
-407.311	-82.871	0.056	-0.018
-406.296	340.900	0.045	-0.089
-405.282	-92.300	0.317	-0.090
-404.267	231.443	0.036	-0.059
-403.252	-8.070	-0.199	0.135
-402.238	-99.089	-0.209	-0.053
-401.223	100.420	-0.365	0.428
-400.209	-72.050	0.122	-0.046
-399.194	454.725	-0.126	0.282
-398.179	-19.286	-0.158	0.099
-397.165	184.255	-0.119	-0.177
-396.150	-148.235	0.381	0.032
-395.136	139.600	-0.062	-0.082
-394.121	104.134	0.072	-0.086
-393.106	99.895	-0.239	0.280
-392.092	314.885	0.092	-0.175
-391.077	-120.515	-0.358	0.061
-390.063	-61.426	0.215	-0.091
-389.048	-161.018	0.314	-0.017
-388.033	268.273	0.008	0.015
-387.019	-104.253	-0.146	0.034
-386.004	33.695	0.369	-0.323
-384.990	800.000	-0.084	0.325
-383.975	-57.989	0.090	-0.040
-382.960	10.013	0.316	-0.242
-381.946	390.731	-0.126	0.263
-380.931	86.234	0.051	-0.056
-379.917	-63.808	-0.181	-0.075
-378.902	528.975	0.033	-0.078
-377.888	343.676	0.047	0.094
-376.873	717.041	0.086	0.231
-375.858	-53.717	0.334	-0.154
-374.844	702.972	0.091	0.241
-373.829	-128.317	0.365	0.052
-372.815	-200.000	-0.024	-0.320
-371.800	800.000	-0.118	-0.372
-370.785	296.436	-0.082	-0.152
-369.771	-200.000	0.040	0.352
-368.756	-200.000	0.031	-0.195
-367.742	35.827	0.103	0.091
-366.727	-27.453	0.215	0.126
-365.712	-34.163	-0.442	0.245
-364.698	-44.092	0.161	0.081
-363.683	-74.296	0.193	0.070
-362.669	159.251	-0.040	0.056
-361.654	800.000	-0.042	-0.175
-360.639	334.722	-0.097	0.190
-359.625	-200.000	0.020	0.349
-358.610	-200.000	-0.067	0.374
-357.596	-33.589	-0.144	-0.080
-356.581	-129.346	-0.128	0.018
-355.566	-99.485	-0.442	0.112
-354.552	-101.753	0.404	-0.099
-353.537	551.704	-0.117	-0.282
-352.523	163.992	0.089	-0.127
-351.508	0.351	-0.142	0.102
-350.493	-200.000	-0.013	0.272
-349.479	272.446	0.144	0.255
-348.464	-200.000	0.040	0.203
-347.450	236.074	-0.052	-0.087
-346.435	-200.000	0.023	-0.125
-345.420	294.378	-0.053	-0.097
-344.406	-68.810	0.278	-0.108
-343.391	-130.697	-0.294	0.040
-342.377	49.112	0.184	0.174
-341.362	-183.381	0.283	-0.005
-340.348	487.913	-0.063	0.145
-339.333	666.563	-0.043	0.113
-338.318	800.000	-0.041	0.174
-337.304	287.167	0.078	-0.143
-336.289	10.953	-0.076	0.058
-335.275	800.000	0.069	-0.304
-334.260	-149.597	-0.107	0.008
-333.245	61.241	-0.120	0.119
-332.231	18.867	0.160	0.129
-331.216	-200.000	0.011	-0.065
-330.202	-131.825	-0.069	0.009
-329.187	171.204	0.167	0.240
-328.172	-126.149	0.122	0.018
-327.158	-14.931	-0.226	0.146
-326.143	241.440	-0.049	-0.082
-325.129	413.967	-0.013	-0.027
-324.114	552.099	0.121	0.292
-323.099	-200.000	-0.057	0.321
-322.085	196.578	-0.075	-0.114
-321.070	104.296	-0.298	-0.353
-320.056	-8.985	-0.256	0.173
-319.041	-63.086	0.514	-0.213
-318.026	-55.076	-0.152	-0.069
-317.012	-200.000	0.011	-0.095
-315.997	532.271	0.107	-0.255
-314.983	-3.118	-0.297	0.208
-313.968	127.557	-0.081	-0.103
-312.953	-118.566	0.152	0.027
-311.939	-200.000	0.031	0.288
-310.924	-200.000	-0.022	0.184
-309.910	349.401	0.107	-0.212
-308.895	49.670	0.167	0.158
-307.880	74.691	0.222	-0.235
-306.866	66.912	0.158	0.162
-305.851	-117.760	-0.467	-0.084
-304.837	-94.702	0.077	0.021
-303.822	759.269	-0.111	0.302
-302.807	9.122	0.168	-0.128
-301.793	86.857	-0.073	-0.081
-300.778	-164.358	0.079	-0.004
-299.764	30.301	0.131	-0.112
-298.749	137.205	0.223	-0.293
-297.735	-200.000	0.002	0.065
-296.720	79.922	0.138	0.149
-295.705	-200.000	-0.038	0.201
-294.691	-192.776	0.282	-0.003
-293.676	759.842	0.037	-0.099
-292.662	800.000	0.061	-0.221
-291.647	-26.256	-0.320	0.189
-290.632	66.914	0.104	0.106
-289.618	-42.418	0.199	-0.102
-288.603	-147.348	-0.206	-0.018
-287.589	-60.969	-0.157	0.067
-286.574	206.449	-0.051	0.080
-285.559	-8.893	0.109	0.073
-284.545	341.191	0.142	0.278
-283.530	21.803	-0.116	-0.095
-282.516	-57.918	-0.063	0.028
-281.501	114.293	-0.075	0.092
-280.486	103.923	0.195	0.230
-279.472	800.000	-0.071	0.241
-278.457	-125.563	0.233	-0.036
-277.443	111.567	0.112	-0.136
-276.428	-82.434	0.071	-0.023
-275.413	-32.762	0.317	0.177
-274.399	-122.539	0.192	0.031
-273.384	174.009	0.091	0.132
-272.370	-72.221	0.356	-0.132
-271.355	140.427	0.088	-0.117
-270.340	-200.000	-0.028	0.161
-269.326	-200.000	-0.005	-0.132
-268.311	-166.384	-0.266	0.011
-267.297	-22.871	-0.107	0.065
-266.282	769.791	-0.046	-0.127
-265.267	-61.214	0.210	0.089
-264.253	132.142	-0.093	0.120
-263.238	-200.000	0.001	-0.249
-262.224	-56.038	0.213	-0.095
-261.209	800.000	0.022	-0.096
-260.195	20.571	0.177	0.144
-259.180	-152.407	-0.192	0.014
-258.165	174.217	-0.083	-0.120
-257.151	-149.073	0.080	0.006
-256.136	-191.561	-0.230	0.002
-255.122	498.458	-0.112	0.258
-254.107	800.000	-0.068	-0.194
-253.092	265.562	0.031	0.055
-252.078	-200.000	-0.005	-0.101
-251.063	0.462	-0.110	0.079
-250.049	587.979	-0.116	-0.288
-249.034	-200.000	-0.040	-0.208
-248.019	-115.916	-0.171	0.032
-247.005	-200.000	0.005	0.258
-245.990	-200.000	0.020	0.239
-244.976	-200.000	0.031	0.267
-243.961	-143.024	0.281	0.027
-242.946	370.223	-0.108	0.219
-241.932	800.000	0.063	0.194
-240.917	800.000	-0.078	-0.234
-239.903	-103.908	0.170	-0.040
-238.888	154.484	-0.053	-0.073
-237.873	-140.561	-0.065	0.007
-236.859	130.002	0.046	0.059
-235.844	177.324	0.157	0.228
-234.830	387.949	-0.101	0.209
-233.815	513.744	-0.067	0.157
-232.800	5.912	0.075	-0.056
-231.786	221.080	0.033	0.054
-230.771	101.601	-0.341	0.398
-229.757	-200.000	0.021	-0.244
-228.742	290.098	0.081	-0.148
-227.727	-166.249	-0.153	0.006
-226.713	-13.317	0.044	-0.028
-225.698	138.883	0.042	0.055
-224.684	-117.496	0.455	-0.082
-223.669	25.711	-0.122	0.102
-222.655	800.000	0.106	-0.301
-221.640	-200.000	-0.015	-0.070
-220.625	-19.711	0.322	-0.200
-219.611	469.884	-0.173	-0.390
-218.596	-1.189	-0.280	0.198
-217.582	-75.922	0.178	0.063
-216.567	800.000	-0.076	0.237
-215.552	-52.525	-0.190	-0.088
-214.538	800.000	0.049	0.160
-213.523	459.197	-0.105	0.234
-212.509	70.941	0.020	0.021
-211.494	83.527	-0.083	-0.091
-210.479	-62.473	-0.172	-0.072
-209.465	117.628	-0.048	0.059
-208.450	530.140	0.182	0.430
-207.436	114.422	-0.091	-0.111
-206.421	-172.791	0.222	-0.007
-205.406	-200.000	0.021	-0.102
-204.392	800.000	0.082	-0.337
-203.377	185.563	0.111	0.164
-202.363	-130.455	0.143	-0.019
-201.348	283.615	-0.043	-0.077
-200.333	-34.532	0.115	0.063
-199.319	-139.496	0.121	-0.013
-198.304	-120.997	0.211	0.035
-197.290	-200.000	-0.005	0.582
-196.275	800.000	0.072	-0.251
-195.260	-116.115	-0.117	0.022
-194.246	-118.459	0.235	-0.042
-193.231	37.739	0.218	0.194
-192.217	-200.000	-0.038	-0.193
-191.202	-200.000	0.004	0.131
-190.187	144.950	-0.094	-0.126
-189.173	-28.276	0.129	-0.075
-188.158	-81.207	-0.301	0.099
-187.144	128.856	0.059	0.075
-186.129	-34.182	-0.148	0.081
-185.114	134.112	0.100	-0.129
-184.100	-114.714	0.330	0.063
-183.085	42.668	-0.154	-0.140
-182.071	-200.000	0.007	-0.081
-181.056	244.838	-0.078	-0.131
-180.042	-78.375	0.106	0.036
-179.027	-79.166	0.215	0.073
-178.012	83.891	0.109	0.119
-176.998	-200.000	-0.036	-0.229
-175.983	-92.030	0.221	-0.063
-174.969	57.695	-0.227	0.222
-173.954	800.000	0.047	0.161
-172.939	-105.830	-0.136	-0.031
-171.925	-100.399	0.183	0.045
-170.910	140.123	0.089	0.117
-169.896	725.757	-0.209	-0.556
-168.881	222.339	0.023	-0.037
-167.866	-145.299	0.407	-0.037
-166.852	362.941	-0.091	0.182
-165.837	23.075	-0.345	0.283
-164.823	233.831	0.133	-0.219
-163.808	-200.000	0.008	-0.359
-162.793	-58.466	-0.255	0.111
-161.779	-200.000	0.015	-0.186
-160.764	-200.000	0.007	-0.294
-159.750	-85.496	0.183	-0.057
-158.735	239.044	-0.175	0.290
-157.720	-80.779	-0.078	0.026
-156.706	800.000	0.073	0.272
-155.691	800.000	-0.139	0.424
-154.677	-43.542	-0.036	0.018
-153.662	-63.080	-0.299	0.123
-152.647	-55.440	-0.180	-0.081
-151.633	100.132	-0.168	-0.194
-150.618	-46.101	0.272	0.134
-149.604	-74.540	-0.119	0.043
-148.589	-131.397	0.160	0.021
-147.574	-150.152	0.117	0.009
-146.560	345.555	-0.151	-0.297
-145.545	800.000	-0.058	0.164
-144.531	234.780	0.085	-0.139
-143.516	-59.590	-0.409	-0.175
-142.502	-136.264	0.359	-0.042
-141.487	800.000	-0.072	0.213
-140.472	-200.000	0.008	0.194
-139.458	190.049	0.129	0.193
-138.443	-200.000	0.058	0.265
-137.429	800.000	-0.016	0.066
-136.414	-200.000	-0.155	-0.001
-135.399	-12.500	-0.063	-0.041
-134.385	5.380	0.381	0.281
-133.370	108.469	0.140	0.166
-132.356	282.950	0.116	0.208
-131.341	-12.440	0.175	0.114
-130.326	-200.000	-0.001	-0.242
-129.312	-46.599	0.176	0.086
-128.297	-34.227	0.193	0.106
-127.283	-131.259	-0.054	0.007
-126.268	188.851	-0.154	-0.230
-125.253	44.773	0.233	-0.214
-124.239	-62.850	0.194	0.080
-123.224	800.000	-0.082	0.236
-122.210	-200.000	0.023	-0.262
